File: 01_Data/Particleboard/MCC/Particleboard_MCC_30K_min_211006_R2.txt
Sample ID:	C:\MCC\MCC Cal\Test\Particleboard_MCC_30K_min_211006_R2.txt
Sample Weight (mg):	4.92
Heating Rate (C/s):	0.5
Combustor Temp (C):	900
N2 Flow Rate (cc/min):	80
O2 Flow Rate (cc/min):	20
Calibration File:	C:\MCC\MCC Cal\Coeff1 JN10440_30_210304.txt.txt
T Correction Coefficients:	0	1.024463	0
Time Shift (s):	14
*
Time (s)	Temperature (C)	N2 flow rate (cc/min)	O2 flow rate (cc/min)	Flow Rate (cc/min)	Oxygen (%)	HRR (W/g)	Heating rate (C/s)
0.000	107.789	79.993	19.995	100.640	20.046	-0.038	-0.017
7.500	107.756	79.994	19.992	100.657	20.043	0.150	-0.002
15.000	107.857	79.999	19.997	100.707	20.033	0.796	0.038
22.500	108.109	79.996	19.995	100.798	20.018	1.759	0.092
30.000	108.778	79.995	19.993	100.864	20.009	2.312	0.120
37.500	109.859	79.997	19.995	100.861	20.000	2.884	0.158
45.000	111.407	79.994	19.997	100.859	19.999	2.931	0.206
52.500	113.166	79.995	19.996	100.878	19.998	3.032	0.264
60.000	115.186	79.995	19.996	100.888	19.996	3.136	0.275
67.500	117.506	79.995	19.996	100.909	19.994	3.285	0.332
75.000	120.134	79.994	19.996	100.914	19.992	3.406	0.346
82.500	123.034	79.995	19.996	100.917	19.994	3.256	0.407
90.000	126.066	79.990	19.998	100.920	19.992	3.418	0.433
97.500	129.334	79.998	19.996	100.908	19.996	3.148	0.416
105.001	132.684	79.995	19.994	100.903	19.994	3.281	0.485
112.500	136.164	79.994	19.996	100.905	19.990	3.499	0.446
120.000	139.735	79.995	19.996	100.903	19.994	3.298	0.481
127.501	143.325	79.995	19.996	100.897	20.000	2.864	0.495
135.000	146.946	79.995	19.994	100.893	20.000	2.887	0.489
142.500	150.631	79.992	19.998	100.891	20.000	2.873	0.488
150.000	154.241	79.994	19.995	100.900	20.001	2.840	0.469
157.501	157.887	79.994	19.996	100.893	19.997	3.080	0.476
165.001	161.502	79.995	19.996	100.891	19.996	3.163	0.467
172.500	165.241	79.995	19.997	100.898	19.992	3.414	0.477
180.000	168.916	79.997	19.996	100.869	19.989	3.599	0.478
187.500	172.598	79.996	19.996	100.888	19.982	4.036	0.513
195.000	176.319	79.995	19.996	100.898	19.980	4.174	0.519
202.500	180.081	79.995	19.995	100.901	19.977	4.360	0.532
210.001	183.800	79.996	19.996	100.890	19.978	4.326	0.462
217.501	187.700	79.994	19.996	100.871	19.978	4.303	0.505
225.000	191.523	79.995	19.997	100.885	19.969	4.866	0.524
232.500	195.352	79.996	19.996	100.862	19.964	5.198	0.503
240.001	199.060	79.997	19.995	100.864	19.961	5.353	0.507
247.500	202.805	79.996	19.994	100.869	19.960	5.431	0.512
255.000	206.511	79.997	19.996	100.861	19.956	5.735	0.480
262.500	210.185	79.997	19.995	100.851	19.954	5.804	0.473
270.000	213.818	79.996	19.995	100.855	19.951	6.000	0.504
277.500	217.467	79.996	19.995	100.854	19.949	6.166	0.485
285.000	221.082	79.995	19.994	100.865	19.945	6.392	0.502
292.500	224.702	79.996	19.994	100.863	19.940	6.731	0.495
300.000	228.376	79.996	19.995	100.861	19.941	6.637	0.490
307.500	232.095	79.994	19.996	100.862	19.937	6.905	0.474
315.000	235.804	79.998	19.994	100.866	19.931	7.286	0.473
322.500	239.469	79.997	19.995	100.860	19.931	7.303	0.477
330.000	243.224	79.995	19.996	100.865	19.926	7.595	0.522
337.500	246.972	79.997	19.994	100.873	19.923	7.843	0.520
345.000	250.738	79.999	19.996	100.865	19.913	8.479	0.530
352.500	254.459	79.994	19.996	100.889	19.902	9.186	0.514
360.000	258.240	79.996	19.995	100.894	19.890	9.955	0.488
367.500	262.034	79.997	19.996	100.897	19.875	10.918	0.482
375.000	265.839	79.996	19.996	100.893	19.860	11.857	0.479
382.500	269.698	79.995	19.997	100.901	19.841	13.072	0.533
390.000	273.521	79.996	19.996	100.922	19.825	14.127	0.513
397.500	277.369	79.998	19.995	100.888	19.801	15.642	0.517
405.000	281.208	79.997	19.995	100.927	19.785	16.654	0.514
412.500	284.996	79.997	19.996	100.932	19.761	18.187	0.483
420.000	288.844	79.998	19.996	100.936	19.739	19.592	0.498
427.500	292.716	79.999	19.995	100.938	19.715	21.149	0.511
435.000	296.492	79.996	19.997	100.938	19.689	22.786	0.499
442.500	300.286	79.995	19.997	100.940	19.664	24.426	0.499
450.000	303.947	79.996	19.997	100.946	19.636	26.208	0.486
457.500	307.582	79.995	19.995	100.946	19.605	28.210	0.503
465.000	311.144	79.995	19.997	100.976	19.572	30.331	0.496
472.500	314.718	79.994	19.997	100.982	19.539	32.447	0.470
480.000	318.311	79.996	19.995	101.015	19.502	34.819	0.490
487.500	321.991	79.998	19.995	101.018	19.459	37.561	0.505
495.000	325.785	79.997	19.995	101.028	19.416	40.305	0.525
502.500	329.589	79.998	19.995	101.044	19.367	43.475	0.488
510.000	333.436	79.996	19.996	101.057	19.325	46.152	0.521
517.500	337.357	79.995	19.995	101.060	19.282	48.880	0.504
525.000	341.243	79.995	19.995	101.059	19.254	50.681	0.513
532.500	345.050	79.997	19.996	101.049	19.246	51.201	0.515
540.000	348.838	79.994	19.997	101.020	19.263	50.099	0.490
547.500	352.596	79.995	19.995	100.991	19.299	47.745	0.521
555.000	356.516	79.996	19.995	100.959	19.363	43.620	0.549
562.500	360.338	79.998	19.996	100.904	19.449	38.162	0.486
570.000	364.201	79.997	19.997	100.880	19.542	32.192	0.499
577.500	368.032	79.997	19.995	100.854	19.638	26.017	0.495
585.000	371.830	79.998	19.994	100.825	19.724	20.560	0.515
592.500	375.604	79.997	19.995	100.807	19.794	16.039	0.487
600.000	379.413	79.995	19.995	100.796	19.846	12.736	0.530
607.500	383.069	79.995	19.996	100.806	19.880	10.556	0.479
615.000	386.782	79.998	19.996	100.804	19.903	9.106	0.473
622.500	390.573	79.995	19.995	100.803	19.921	7.960	0.503
630.000	394.451	79.995	19.998	100.798	19.928	7.513	0.519
637.500	398.359	79.997	19.995	100.804	19.934	7.077	0.527
645.000	402.249	79.998	19.995	100.793	19.941	6.688	0.517
652.500	406.126	79.996	19.995	100.796	19.940	6.699	0.520
660.000	410.041	79.997	19.995	100.790	19.942	6.612	0.505
667.500	413.900	79.997	19.996	100.791	19.948	6.204	0.516
675.000	417.698	79.997	19.995	100.799	19.950	6.095	0.534
682.500	421.555	79.996	19.995	100.786	19.950	6.087	0.534
690.000	425.271	79.996	19.996	100.784	19.959	5.506	0.476
697.500	429.020	79.996	19.996	100.782	19.961	5.370	0.489
705.000	432.702	79.996	19.995	100.781	19.963	5.280	0.489
712.500	436.324	79.994	19.996	100.784	19.970	4.776	0.474
720.000	439.940	79.997	19.997	100.786	19.970	4.773	0.497
727.500	443.654	79.997	19.997	100.786	19.977	4.386	0.506
735.000	447.502	79.996	19.995	100.788	19.982	4.056	0.527
742.500	451.378	79.998	19.995	100.787	19.988	3.629	0.535
750.000	455.272	79.998	19.995	100.784	19.988	3.680	0.530
757.500	459.145	79.997	19.994	100.828	19.990	3.515	0.502
765.000	463.035	79.995	19.995	100.783	19.997	3.058	0.531
772.500	466.800	79.996	19.995	100.781	20.000	2.892	0.510
780.000	470.542	79.995	19.996	100.778	20.006	2.490	0.467
787.500	474.195	79.995	19.996	100.782	20.006	2.498	0.498
795.000	477.857	79.997	19.995	100.781	20.008	2.393	0.495
802.500	481.528	79.997	19.996	100.783	20.010	2.241	0.487
810.000	485.146	79.996	19.996	100.781	20.016	1.868	0.484
817.500	488.886	79.997	19.997	100.786	20.013	2.027	0.509
825.000	492.764	79.999	19.996	100.783	20.011	2.181	0.558
832.500	496.873	79.999	19.995	100.783	20.012	2.152	0.535
840.000	501.054	79.996	19.996	100.784	20.012	2.140	0.561
847.500	505.287	79.994	19.996	100.788	20.011	2.158	0.571
855.000	509.495	79.995	19.995	100.795	20.016	1.889	0.525
862.500	513.721	79.994	19.995	100.786	20.017	1.796	0.546
870.000	517.982	79.996	19.996	100.786	20.011	2.215	0.551
877.500	522.207	79.996	19.995	100.796	20.015	1.927	0.554
885.000	526.358	79.996	19.996	100.781	20.017	1.823	0.533
892.500	530.522	79.997	19.997	100.778	20.022	1.509	0.565
900.000	534.617	79.996	19.996	100.780	20.021	1.573	0.549
907.500	538.652	79.997	19.996	100.782	20.019	1.697	0.532
915.000	542.601	79.997	19.995	100.783	20.021	1.516	0.536
922.500	546.496	79.995	19.995	100.782	20.022	1.494	0.526
930.000	550.449	79.996	19.995	100.784	20.020	1.614	0.515
937.500	554.366	79.996	19.995	100.775	20.022	1.483	0.542
945.000	558.236	79.996	19.996	100.783	20.016	1.848	0.520
952.500	562.068	79.995	19.996	100.774	20.022	1.459	0.481
960.000	565.852	79.997	19.996	100.782	20.022	1.513	0.524
967.500	569.684	79.997	19.996	100.782	20.019	1.663	0.493
975.000	573.471	79.996	19.995	100.781	20.027	1.193	0.527
982.500	577.273	79.995	19.996	100.785	20.027	1.160	0.485
990.000	581.022	79.997	19.997	100.777	20.026	1.229	0.485
997.500	584.663	79.996	19.997	100.781	20.030	0.979	0.473
1005.000	588.181	79.995	19.996	100.779	20.027	1.146	0.467
1012.500	591.707	79.996	19.995	100.775	20.030	0.991	0.486
1020.000	595.176	79.996	19.995	100.779	20.024	1.364	0.481
1027.501	598.700	79.996	19.996	100.778	20.025	1.288	0.465
1035.000	602.138	79.995	19.995	100.784	20.026	1.197	0.453
1042.500	605.730	79.996	19.996	100.787	20.026	1.243	0.485
1050.000	609.293	79.997	19.995	100.785	20.026	1.195	0.466
1057.501	613.016	79.997	19.996	100.786	20.024	1.357	0.498
1065.000	616.829	79.996	19.996	100.791	20.027	1.148	0.514
1072.500	620.592	79.998	19.995	100.778	20.026	1.240	0.501
1080.000	624.406	79.996	19.997	100.781	20.024	1.324	0.520
1087.500	628.277	79.995	19.997	100.782	20.025	1.286	0.483
1095.000	632.211	79.997	19.996	100.781	20.029	1.029	0.520
1102.501	636.182	79.996	19.996	100.785	20.030	0.996	0.536
1110.000	640.134	79.995	19.996	100.782	20.029	1.048	0.532
1117.501	644.041	79.996	19.996	100.783	20.026	1.244	0.528
1125.000	647.860	79.997	19.995	100.744	20.025	1.266	0.477
1132.501	651.785	79.998	19.995	100.778	20.027	1.133	0.508
1140.001	655.615	79.997	19.995	100.772	20.028	1.124	0.529
1147.500	659.426	79.997	19.996	100.776	20.029	1.015	0.501
1155.001	663.143	79.999	19.996	100.771	20.025	1.281	0.482
1162.500	666.895	79.997	19.995	100.819	20.022	1.480	0.465
1170.001	670.582	79.997	19.997	100.784	20.026	1.212	0.476
1177.501	674.267	79.996	19.996	100.781	20.024	1.362	0.519
1185.000	677.874	79.997	19.996	100.783	20.027	1.157	0.467
1192.500	681.462	79.995	19.997	100.785	20.029	1.005	0.458
1200.000	685.195	79.996	19.996	100.784	20.024	1.380	0.509
1207.500	689.220	79.997	19.995	100.784	20.024	1.330	0.560
1215.001	693.394	79.997	19.996	100.783	20.022	1.464	0.552
1222.501	697.781	79.998	19.995	100.786	20.026	1.250	0.575
1230.000	702.151	79.998	19.995	100.786	20.021	1.519	0.601
1237.500	706.486	79.998	19.996	100.786	20.021	1.521	0.571
1245.000	710.825	79.995	19.997	100.788	20.021	1.563	0.533
1252.500	715.176	79.995	19.996	100.798	20.018	1.761	0.588
1260.000	719.357	79.996	19.996	100.783	20.016	1.868	0.561
1267.500	723.468	79.995	19.996	100.785	20.020	1.578	0.537
1275.000	727.569	79.995	19.998	100.782	20.024	1.362	0.530
1282.500	731.613	79.997	19.996	100.784	20.017	1.798	0.546
1290.001	735.614	79.997	19.995	100.794	20.017	1.777	0.527
1297.500	739.502	79.996	19.994	100.784	20.017	1.777	0.498
1305.000	743.423	79.997	19.994	100.789	20.020	1.594	0.511