File: 01_Data/Particleboard/MCC/Particleboard_MCC_30K_min_211018_R4.txt
Sample ID:	C:\MCC\MCC Cal\Test\Particleboard\Particleboard_MCC_30K_min_211018_R4.txt
Sample Weight (mg):	4.81
Heating Rate (C/s):	0.5
Combustor Temp (C):	900
N2 Flow Rate (cc/min):	80
O2 Flow Rate (cc/min):	20
Calibration File:	C:\MCC\MCC Cal\Coeff1 JN10440_30_210304.txt.txt
T Correction Coefficients:	0	1.024463	0
Time Shift (s):	14
*
Time (s)	Temperature (C)	N2 flow rate (cc/min)	O2 flow rate (cc/min)	Flow Rate (cc/min)	Oxygen (%)	HRR (W/g)	Heating rate (C/s)
0.000	108.576	79.996	19.995	102.937	20.151	-0.115	-0.017
8.000	108.618	79.995	19.995	102.941	20.147	0.128	0.003
16.000	108.685	79.996	19.996	103.036	20.140	0.621	0.015
24.000	109.003	79.999	19.995	103.090	20.125	1.622	0.065
32.000	109.743	79.998	19.995	103.149	20.118	2.088	0.117
40.000	110.994	79.998	19.994	103.156	20.110	2.637	0.178
48.001	112.625	79.999	19.994	103.172	20.106	2.908	0.251
56.000	114.594	79.997	19.994	103.205	20.106	2.870	0.251
64.000	116.911	79.997	19.995	103.177	20.105	2.976	0.300
72.001	119.508	79.996	19.995	103.210	20.105	2.960	0.338
80.001	122.353	79.996	19.995	103.205	20.106	2.909	0.340
88.000	125.444	79.997	19.994	103.202	20.105	2.963	0.381
96.000	128.742	79.995	19.995	103.212	20.103	3.085	0.418
104.000	132.217	79.996	19.996	103.203	20.101	3.235	0.457
112.000	135.789	79.998	19.995	103.206	20.098	3.403	0.434
120.000	139.494	79.998	19.994	103.231	20.098	3.406	0.438
128.000	143.368	80.000	19.996	103.204	20.097	3.470	0.515
136.000	147.227	79.997	19.995	103.267	20.103	3.061	0.481
144.000	151.175	79.999	19.995	103.180	20.101	3.196	0.486
152.000	155.184	79.997	19.995	103.204	20.096	3.574	0.504
160.000	159.171	79.997	19.996	103.191	20.097	3.521	0.497
168.000	163.165	79.996	19.995	103.203	20.090	3.954	0.492
176.000	167.200	79.997	19.996	103.204	20.094	3.727	0.475
184.000	171.247	79.999	19.995	103.190	20.082	4.520	0.522
192.000	175.193	79.997	19.995	103.166	20.081	4.536	0.441
200.000	179.198	79.996	19.995	103.178	20.076	4.889	0.512
208.000	183.158	80.000	19.994	103.169	20.071	5.211	0.496
216.000	187.172	79.998	19.995	103.192	20.066	5.535	0.496
224.000	191.195	79.998	19.995	103.243	20.062	5.861	0.526
232.000	195.140	79.998	19.995	103.161	20.061	5.896	0.475
240.000	199.121	79.997	19.995	103.165	20.056	6.230	0.505
248.000	203.128	79.998	19.995	103.205	20.054	6.358	0.510
256.000	207.115	79.996	19.994	103.189	20.052	6.504	0.509
264.000	211.077	79.998	19.994	103.187	20.047	6.847	0.514
272.000	215.050	79.999	19.995	103.165	20.044	7.034	0.514
280.000	218.998	79.998	19.996	103.160	20.042	7.149	0.462
288.000	223.000	80.000	19.996	103.156	20.036	7.564	0.488
296.000	226.977	80.000	19.995	103.155	20.030	7.949	0.486
304.000	231.040	79.997	19.995	103.159	20.025	8.286	0.511
312.000	235.006	79.997	19.995	103.168	20.022	8.546	0.529
320.000	239.030	79.997	19.994	103.159	20.014	9.054	0.504
328.000	242.935	79.997	19.995	103.172	20.011	9.276	0.509
336.000	246.954	79.998	19.994	103.147	19.999	10.043	0.530
344.000	250.998	79.999	19.995	103.190	19.983	11.137	0.497
352.000	254.991	79.999	19.996	103.192	19.971	11.939	0.528
360.000	259.028	79.999	19.995	103.180	19.954	13.077	0.508
368.000	263.027	80.000	19.996	103.202	19.935	14.368	0.533
376.000	267.062	79.999	19.996	103.220	19.914	15.744	0.489
384.000	271.113	79.997	19.996	103.220	19.891	17.299	0.519
392.000	275.151	79.997	19.994	103.241	19.867	18.889	0.523
400.000	279.170	79.998	19.995	103.233	19.841	20.650	0.490
408.000	283.120	79.997	19.996	103.244	19.812	22.619	0.490
416.000	287.197	79.997	19.996	103.269	19.778	24.877	0.523
424.000	291.394	79.999	19.995	103.288	19.747	26.943	0.658
432.000	295.206	79.999	19.995	103.286	19.718	28.873	0.533
440.000	299.186	79.997	19.996	103.283	19.683	31.224	0.489
448.000	303.199	79.998	19.995	103.285	19.643	33.952	0.499
456.000	307.168	79.998	19.995	103.314	19.601	36.728	0.487
464.000	311.144	79.996	19.996	103.332	19.554	39.931	0.493
472.000	315.142	79.997	19.997	103.339	19.508	42.989	0.497
480.000	319.137	79.998	19.995	103.363	19.458	46.378	0.521
488.000	323.139	79.997	19.994	103.367	19.399	50.294	0.524
496.000	327.164	79.997	19.994	103.367	19.348	53.744	0.513
504.000	331.157	79.998	19.995	103.400	19.299	57.048	0.490
512.000	335.270	79.999	19.994	103.390	19.256	59.873	0.530
520.000	339.284	79.998	19.993	103.408	19.238	61.098	0.523
528.000	343.347	79.999	19.996	103.375	19.245	60.591	0.504
536.000	347.420	80.000	19.996	103.351	19.271	58.853	0.497
544.000	351.489	79.998	19.996	103.348	19.327	55.094	0.500
552.000	355.616	79.998	19.996	103.268	19.405	49.845	0.490
560.000	359.686	79.997	19.996	103.236	19.500	43.470	0.502
568.000	363.788	79.998	19.996	103.162	19.603	36.527	0.511
576.000	367.889	79.996	19.994	103.167	19.711	29.345	0.492
584.000	371.970	79.998	19.995	103.160	19.795	23.719	0.506
592.001	376.108	79.997	19.995	103.123	19.863	19.139	0.488
600.001	380.225	79.998	19.994	103.112	19.919	15.419	0.524
608.000	384.232	80.001	19.995	103.137	19.957	12.885	0.500
616.000	388.313	80.000	19.995	103.121	19.976	11.603	0.530
624.000	392.268	79.996	19.995	103.089	19.992	10.496	0.451
632.000	396.369	79.997	19.995	103.090	20.002	9.859	0.487
640.000	400.348	79.997	19.995	103.108	20.004	9.726	0.522
648.000	404.340	79.996	19.994	103.100	20.006	9.548	0.471
656.000	408.471	79.996	19.997	103.106	20.009	9.345	0.545
664.000	412.361	79.998	19.995	103.099	20.018	8.771	0.492
672.000	416.414	79.999	19.995	103.080	20.016	8.933	0.504
680.000	420.422	79.997	19.994	103.103	20.026	8.260	0.508
688.000	424.427	79.997	19.995	103.085	20.028	8.124	0.496
696.000	428.542	79.999	19.993	103.093	20.028	8.089	0.514
704.000	432.656	79.997	19.994	103.100	20.033	7.737	0.538
712.000	436.724	79.996	19.996	103.090	20.044	7.065	0.546
720.001	440.795	79.995	19.995	103.086	20.047	6.857	0.529
728.000	444.888	79.997	19.995	103.089	20.057	6.164	0.486
736.000	448.897	79.997	19.995	103.084	20.059	6.019	0.498
744.000	452.957	79.996	19.997	103.078	20.064	5.708	0.523
752.000	456.979	79.998	19.996	103.057	20.068	5.411	0.518
760.000	461.030	79.998	19.995	103.084	20.068	5.423	0.500
768.000	465.079	80.000	19.995	103.081	20.076	4.880	0.513
776.000	469.093	80.000	19.995	103.087	20.085	4.308	0.452
784.000	473.168	79.998	19.994	103.067	20.079	4.696	0.495
792.000	477.295	79.998	19.993	103.074	20.085	4.309	0.503
800.000	481.385	79.999	19.995	103.071	20.082	4.512	0.530
808.000	485.446	79.998	19.996	103.082	20.092	3.847	0.502
816.000	489.537	79.998	19.995	103.080	20.090	3.931	0.513
824.000	493.710	79.998	19.996	103.073	20.094	3.687	0.525
832.000	497.892	79.999	19.994	103.078	20.094	3.670	0.531
840.000	501.942	79.997	19.996	103.076	20.099	3.379	0.509
848.000	506.102	79.999	19.995	103.085	20.101	3.249	0.514
856.000	510.270	80.000	19.995	103.084	20.102	3.158	0.507
864.000	514.449	79.999	19.995	103.065	20.101	3.251	0.553
872.000	518.567	79.997	19.995	103.078	20.103	3.115	0.506
880.000	522.742	79.999	19.995	103.054	20.105	2.925	0.506
888.000	526.895	79.998	19.994	103.077	20.108	2.780	0.566
896.000	531.025	79.998	19.995	103.057	20.105	2.981	0.491
904.000	535.201	79.997	19.995	103.051	20.104	3.038	0.499
912.000	539.322	79.999	19.996	103.056	20.104	2.997	0.514
920.000	543.452	80.001	19.996	103.043	20.104	3.023	0.513
928.000	547.535	80.000	19.996	103.050	20.103	3.103	0.530
936.000	551.626	80.001	19.995	103.055	20.105	2.954	0.529
944.000	555.758	80.001	19.996	103.106	20.112	2.456	0.520
952.000	559.851	79.999	19.994	103.032	20.102	3.128	0.514
960.000	563.948	79.998	19.994	103.064	20.101	3.218	0.534
968.000	567.987	79.999	19.995	103.061	20.105	2.954	0.516
976.000	572.065	79.997	19.994	103.067	20.107	2.790	0.542
984.000	576.239	79.996	19.994	103.092	20.107	2.822	0.523
992.000	580.406	80.000	19.995	103.064	20.106	2.912	0.542
1000.000	584.447	79.996	19.996	103.046	20.102	3.181	0.511
1008.000	588.542	79.998	19.995	103.072	20.105	2.952	0.508
1016.000	592.677	80.002	19.996	103.077	20.106	2.891	0.518
1024.000	596.806	79.997	19.996	103.079	20.107	2.801	0.517
1032.000	600.898	79.997	19.996	103.068	20.110	2.631	0.533
1040.000	604.928	79.996	19.994	103.044	20.106	2.868	0.506
1048.000	608.964	79.998	19.994	103.042	20.103	3.083	0.493
1056.001	613.025	79.999	19.995	103.099	20.112	2.502	0.529
1064.000	617.107	80.000	19.995	103.049	20.104	3.001	0.511
1072.000	621.196	79.999	19.994	103.076	20.106	2.857	0.512
1080.000	625.287	79.999	19.996	103.063	20.109	2.688	0.521
1088.000	629.401	79.999	19.995	103.064	20.105	2.970	0.510
1096.000	633.505	79.999	19.995	103.066	20.106	2.880	0.506
1104.000	637.671	80.000	19.995	103.044	20.103	3.097	0.518
1112.001	641.809	79.996	19.996	103.045	20.097	3.459	0.538
1120.000	645.841	79.997	19.996	103.052	20.099	3.335	0.520
1128.000	649.900	79.997	19.993	103.054	20.098	3.446	0.513
1136.000	654.013	79.997	19.995	103.049	20.100	3.289	0.509
1144.000	658.107	79.997	19.995	103.050	20.093	3.765	0.497
1152.000	662.162	79.999	19.994	103.040	20.089	4.049	0.490
1160.000	666.198	80.000	19.995	103.058	20.093	3.781	0.470
1168.000	670.273	80.000	19.993	103.046	20.093	3.762	0.546
1176.000	674.315	80.000	19.995	103.042	20.094	3.694	0.491
1184.000	678.410	80.000	19.995	103.045	20.092	3.825	0.520
1192.001	682.483	79.998	19.995	103.048	20.086	4.254	0.489
1200.000	686.502	80.000	19.995	103.062	20.092	3.847	0.456
1208.000	690.552	79.997	19.995	103.045	20.089	3.997	0.502
1216.000	694.652	79.998	19.995	103.035	20.079	4.698	0.495
1224.000	698.689	79.998	19.994	103.061	20.090	3.936	0.523
1232.000	702.711	79.998	19.994	103.040	20.086	4.219	0.503
1240.000	706.759	80.001	19.994	103.047	20.082	4.461	0.513
1248.001	710.824	80.000	19.995	103.048	20.081	4.526	0.544
1256.000	714.890	80.002	19.994	103.050	20.084	4.338	0.484
1264.000	719.018	79.999	19.994	103.058	20.082	4.513	0.524
1272.000	723.096	79.997	19.994	103.050	20.081	4.580	0.483
1280.001	727.224	79.998	19.995	103.050	20.079	4.711	0.499
1288.000	731.271	79.997	19.996	103.043	20.080	4.619	0.494
1296.001	735.325	79.996	19.995	103.048	20.078	4.761	0.478
1304.000	739.284	79.998	19.996	103.044	20.079	4.664	0.495
1312.001	743.354	80.001	19.994	103.045	20.079	4.700	0.524
1312.500	743.623	80.000	19.994	103.045	20.079	4.664	0.521