File: 01_Data/Particleboard/MCC/Particleboard_MCC_30K_min_211005_R1.txt
Sample ID:	C:\MCC\MCC Cal\Test\Particleboard_MCC_30K_min_211005_R1.txt
Sample Weight (mg):	4.63
Heating Rate (C/s):	0.5
Combustor Temp (C):	900
N2 Flow Rate (cc/min):	80
O2 Flow Rate (cc/min):	20
Calibration File:	C:\MCC\MCC Cal\Coeff1 JN10440_30_210304.txt.txt
T Correction Coefficients:	0	1.024463	0
Time Shift (s):	14
*
Time (s)	Temperature (C)	N2 flow rate (cc/min)	O2 flow rate (cc/min)	Flow Rate (cc/min)	Oxygen (%)	HRR (W/g)	Heating rate (C/s)
0.000	106.501	79.998	19.998	100.897	19.957	0.201	-0.018
8.000	106.450	80.000	19.995	100.900	19.955	0.304	-0.045
16.000	106.492	79.998	19.996	100.900	19.954	0.352	-0.004
24.000	106.509	79.998	19.996	100.930	19.954	0.390	-0.000
32.000	106.637	79.999	19.997	100.968	19.948	0.801	0.005
40.000	106.950	79.997	19.995	100.997	19.937	1.545	0.028
48.000	107.563	79.995	19.996	101.066	19.928	2.117	0.087
56.000	108.565	79.997	19.997	101.083	19.923	2.470	0.143
64.000	109.943	79.998	19.996	101.122	19.915	3.046	0.196
72.000	111.734	79.997	19.996	101.162	19.908	3.489	0.237
80.000	113.971	79.996	19.995	101.174	19.904	3.788	0.303
88.000	116.565	79.997	19.996	101.173	19.903	3.823	0.335
96.000	119.503	79.999	19.995	101.188	19.902	3.923	0.375
104.000	122.753	79.996	19.995	101.187	19.900	4.055	0.410
112.000	126.169	79.998	19.996	101.179	19.903	3.883	0.451
120.000	129.776	79.999	19.996	101.188	19.901	3.976	0.452
128.000	133.497	79.997	19.997	101.182	19.900	4.041	0.446
136.000	137.338	79.998	19.997	101.174	19.903	3.827	0.511
144.000	141.286	79.998	19.998	101.173	19.896	4.320	0.521
152.000	145.314	79.998	19.997	101.172	19.899	4.146	0.510
160.000	149.302	79.998	19.996	101.175	19.898	4.179	0.530
168.000	153.287	79.998	19.996	101.157	19.898	4.166	0.502
176.000	157.258	79.999	19.996	101.167	19.893	4.517	0.527
184.000	161.213	79.998	19.997	101.171	19.892	4.571	0.484
192.000	165.153	79.999	19.995	101.151	19.894	4.475	0.516
200.001	169.081	80.000	19.997	101.158	19.886	5.038	0.502
208.000	173.010	80.000	19.997	101.141	19.882	5.305	0.458
216.000	176.929	79.998	19.997	101.140	19.878	5.549	0.501
224.000	180.876	79.998	19.996	101.142	19.876	5.661	0.500
232.000	184.745	79.997	19.996	101.143	19.874	5.849	0.476
240.000	188.766	79.996	19.997	101.139	19.866	6.362	0.465
248.000	192.711	79.996	19.996	101.138	19.864	6.528	0.487
256.000	196.659	80.000	19.997	101.137	19.863	6.587	0.506
264.000	200.599	80.000	19.997	101.133	19.855	7.092	0.489
272.000	204.570	80.000	19.996	101.133	19.849	7.549	0.498
280.000	208.481	80.000	19.997	101.132	19.842	8.035	0.467
288.000	212.482	80.000	19.995	101.135	19.844	7.900	0.506
296.000	216.482	79.998	19.995	101.137	19.839	8.204	0.502
304.000	220.441	79.998	19.997	101.136	19.838	8.274	0.484
312.000	224.427	79.998	19.996	101.136	19.833	8.590	0.496
320.000	228.470	79.997	19.998	101.133	19.831	8.790	0.494
328.000	232.472	79.996	19.997	101.132	19.822	9.385	0.480
336.000	236.434	79.999	19.998	101.133	19.816	9.807	0.494
344.000	240.335	80.000	19.998	101.131	19.811	10.117	0.504
352.000	244.245	79.999	19.996	101.135	19.805	10.517	0.473
360.000	248.248	79.999	19.996	101.141	19.792	11.434	0.507
368.000	252.255	80.000	19.995	101.146	19.778	12.342	0.447
376.000	256.293	79.998	19.996	101.151	19.758	13.759	0.535
384.000	260.194	79.998	19.995	101.151	19.740	14.966	0.425
392.000	264.206	79.998	19.996	101.171	19.721	16.276	0.494
400.000	268.174	79.997	19.995	101.175	19.696	17.937	0.501
408.000	272.250	79.998	19.997	101.180	19.677	19.235	0.510
416.000	276.241	79.999	19.996	101.196	19.652	20.969	0.488
424.000	280.282	79.999	19.996	101.207	19.629	22.534	0.513
432.000	284.230	79.997	19.996	101.213	19.597	24.697	0.497
440.000	288.042	80.000	19.996	101.217	19.567	26.782	0.288
448.000	292.327	79.999	19.995	101.226	19.533	29.082	0.532
456.000	296.381	80.000	19.995	101.243	19.503	31.166	0.529
464.000	300.462	80.000	19.996	101.250	19.461	34.030	0.531
472.000	304.475	79.998	19.996	101.256	19.422	36.690	0.502
480.000	308.577	80.000	19.995	101.281	19.374	39.953	0.504
488.001	312.686	79.995	19.997	101.294	19.330	42.995	0.534
496.000	316.732	79.996	19.997	101.301	19.280	46.367	0.528
504.000	320.731	79.998	19.995	101.328	19.228	49.983	0.508
512.000	324.790	79.997	19.996	101.331	19.181	53.189	0.487
520.000	328.835	79.999	19.997	101.343	19.128	56.815	0.512
528.000	332.892	80.001	19.997	101.341	19.090	59.397	0.513
536.000	336.910	80.000	19.995	101.332	19.068	60.909	0.509
544.000	340.971	79.999	19.996	101.330	19.061	61.314	0.493
552.000	345.005	79.998	19.996	101.316	19.077	60.218	0.533
560.000	349.050	79.997	19.996	101.276	19.126	56.877	0.512
568.000	353.100	79.997	19.994	101.243	19.192	52.301	0.484
576.000	357.206	79.996	19.997	101.195	19.282	46.208	0.504
584.001	361.280	79.998	19.995	101.153	19.376	39.787	0.512
592.000	365.290	80.000	19.997	101.121	19.473	33.144	0.509
600.000	369.302	79.999	19.995	101.093	19.563	26.971	0.501
608.000	373.360	79.998	19.997	101.076	19.642	21.647	0.544
616.000	377.374	79.999	19.996	101.056	19.703	17.502	0.514
624.000	381.428	79.999	19.997	101.055	19.737	15.143	0.511
632.000	385.459	79.998	19.995	101.057	19.767	13.133	0.508
640.000	389.427	79.998	19.996	101.056	19.787	11.742	0.485
648.000	393.454	79.996	19.996	101.053	19.793	11.347	0.510
656.000	397.458	79.998	19.995	101.054	19.799	10.953	0.480
664.000	401.483	79.998	19.996	101.054	19.806	10.424	0.501
672.000	405.536	79.999	19.996	101.052	19.809	10.284	0.541
680.000	409.591	79.999	19.996	101.053	19.809	10.269	0.491
688.000	413.631	79.999	19.996	101.055	19.815	9.858	0.498
696.000	417.677	79.999	19.996	101.047	19.816	9.771	0.522
704.000	421.764	79.998	19.996	101.048	19.820	9.485	0.518
712.000	425.805	79.998	19.996	101.039	19.829	8.890	0.551
720.000	429.839	79.999	19.995	101.039	19.833	8.610	0.467
728.000	433.905	79.999	19.995	101.039	19.839	8.173	0.549
736.000	437.932	79.997	19.996	101.036	19.848	7.561	0.510
744.000	441.931	79.998	19.996	101.026	19.846	7.709	0.485
752.000	445.919	80.002	19.997	101.030	19.851	7.363	0.527
760.000	449.853	79.999	19.996	101.028	19.855	7.095	0.495
768.000	453.797	79.999	19.996	101.028	19.864	6.520	0.482
776.000	457.875	80.001	19.996	101.016	19.869	6.169	0.487
784.000	461.913	80.000	19.996	101.026	19.869	6.139	0.473
792.000	465.991	79.998	19.997	101.042	19.876	5.691	0.479
800.000	470.077	79.997	19.998	101.016	19.881	5.354	0.517
808.000	474.246	79.997	19.995	101.031	19.884	5.120	0.524
816.000	478.336	79.996	19.996	101.019	19.882	5.264	0.499
824.000	482.380	79.997	19.995	101.027	19.886	4.982	0.472
832.000	486.406	79.999	19.996	101.020	19.887	4.930	0.509
840.000	490.451	79.998	19.996	101.016	19.889	4.786	0.513
848.000	494.531	80.000	19.995	101.014	19.888	4.878	0.498
856.000	498.601	79.999	19.996	101.015	19.892	4.608	0.530
864.001	502.640	80.000	19.997	101.014	19.894	4.448	0.513
872.000	506.756	79.998	19.996	101.017	19.894	4.429	0.511
880.000	510.794	79.998	19.997	101.022	19.896	4.306	0.490
888.000	514.879	79.996	19.996	101.018	19.895	4.381	0.513
896.000	519.000	79.997	19.996	101.018	19.900	4.071	0.502
904.000	523.026	79.995	19.996	101.015	19.901	4.009	0.500
912.000	527.042	79.999	19.996	101.017	19.906	3.633	0.508
920.000	531.013	79.999	19.996	101.017	19.904	3.755	0.503
928.000	534.988	79.998	19.995	101.013	19.901	3.985	0.481
936.000	538.984	80.000	19.996	101.019	19.906	3.631	0.509
944.000	542.967	80.000	19.995	101.016	19.905	3.714	0.498
952.000	546.909	79.998	19.996	101.019	19.902	3.932	0.497
960.000	550.891	79.994	19.995	101.019	19.906	3.654	0.522
968.001	554.918	79.997	19.996	101.018	19.901	3.952	0.550
976.000	558.923	80.000	19.999	101.020	19.902	3.903	0.519
984.000	562.936	79.998	19.996	101.047	19.905	3.721	0.507
992.000	567.234	79.998	19.996	101.043	19.911	3.332	0.553
1000.000	571.788	80.000	19.995	101.046	19.906	3.616	0.568
1008.000	576.538	79.998	19.996	101.050	19.903	3.840	0.588
1016.000	581.241	79.998	19.994	101.050	19.900	4.021	0.602
1024.000	585.875	80.000	19.994	101.032	19.903	3.875	0.557
1032.000	590.511	79.998	19.994	101.031	19.897	4.242	0.578
1040.000	595.113	79.998	19.997	101.052	19.899	4.152	0.605
1048.000	599.603	79.998	19.998	101.045	19.896	4.327	0.563
1056.000	604.118	79.998	19.996	101.035	19.895	4.384	0.529
1064.000	608.574	80.000	19.996	101.036	19.896	4.327	0.543
1072.000	613.012	79.997	19.996	101.051	19.902	3.909	0.559
1080.000	617.425	79.999	19.996	101.049	19.898	4.167	0.547
1088.000	621.724	79.998	19.997	101.056	19.901	3.974	0.507
1096.000	626.008	79.998	19.998	101.036	19.895	4.363	0.538
1104.000	630.223	80.001	19.995	101.026	19.899	4.153	0.505
1112.000	634.470	80.000	19.997	101.029	19.894	4.443	0.551
1120.001	638.574	80.000	19.996	101.019	19.903	3.878	0.524
1128.000	642.686	80.001	19.996	101.019	19.900	4.031	0.501
1136.000	646.709	79.997	19.996	101.038	19.898	4.156	0.503
1144.000	650.721	79.998	19.996	101.027	19.896	4.291	0.501
1152.000	654.761	79.998	19.996	101.030	19.906	3.655	0.508
1160.000	658.745	80.000	19.997	101.019	19.899	4.134	0.508
1168.000	662.815	79.999	19.997	101.028	19.900	4.044	0.499
1176.000	666.840	80.000	19.996	101.024	19.899	4.103	0.525
1184.000	670.877	80.000	19.995	101.024	19.900	4.041	0.509
1192.001	674.991	80.000	19.995	101.031	19.901	3.983	0.516
1200.000	679.069	79.997	19.995	101.047	19.903	3.854	0.523
1208.000	683.152	79.999	19.996	101.022	19.900	4.059	0.512
1216.000	687.189	79.999	19.996	101.023	19.899	4.136	0.506
1224.000	691.172	79.997	19.995	101.026	19.897	4.269	0.461
1232.000	695.209	79.996	19.996	101.026	19.900	4.059	0.505
1240.000	699.236	79.998	19.997	101.030	19.902	3.926	0.476
1248.001	703.281	79.999	19.995	101.038	19.905	3.720	0.517
1256.000	707.302	79.999	19.996	101.029	19.905	3.693	0.527
1264.000	711.276	79.998	19.996	101.034	19.893	4.520	0.484
1272.000	715.377	80.001	19.996	101.039	19.896	4.330	0.482
1280.000	719.483	79.997	19.995	101.030	19.896	4.332	0.503
1288.000	723.538	79.998	19.998	101.035	19.893	4.556	0.506
1296.000	727.539	79.999	19.996	101.031	19.889	4.769	0.502
1304.000	731.576	79.998	19.995	101.028	19.891	4.651	0.499
1312.000	735.639	79.997	19.995	101.019	19.893	4.553	0.514
1320.000	739.676	79.999	19.996	101.033	19.889	4.801	0.509
1327.500	743.450	80.000	19.996	101.035	19.891	4.638	0.513