File: 01_Data/Microfiber_Sofa_Polyester_Microfiber/MCC/Microfiber_Sofa_Polyester_Microfiber_MCC_30K_min_220224_R1.txt
Sample ID:	C:\MCC\MCC Cal\Test\Polyester_Microfiber_81A_MCC_30K)min_220224_R1.txt
Sample Weight (mg):	4.34
Heating Rate (C/s):	0.5
Combustor Temp (C):	900
N2 Flow Rate (cc/min):	80
O2 Flow Rate (cc/min):	20
Calibration File:	C:\MCC\MCC Cal\Coeff1 JN10440_30_210304.txt.txt
T Correction Coefficients:	0	1.024463	0
Time Shift (s):	14
*
Time (s)	Temperature (C)	N2 flow rate (cc/min)	O2 flow rate (cc/min)	Flow Rate (cc/min)	Oxygen (%)	HRR (W/g)	Heating rate (C/s)
0.000	113.686	80.004	19.993	103.732	20.122	-0.059	-0.020
8.000	113.673	80.003	19.993	103.733	20.128	-0.495	-0.000
16.000	113.630	80.003	19.993	103.747	20.122	-0.059	-0.013
24.000	113.696	80.004	19.992	103.795	20.113	0.592	0.037
32.000	113.957	80.002	19.994	103.840	20.099	1.624	0.012
40.000	114.589	80.004	19.993	103.873	20.095	1.916	0.064
48.000	115.508	80.005	19.993	103.869	20.094	1.998	0.113
56.000	116.700	80.006	19.994	103.888	20.090	2.285	0.156
64.000	118.178	80.002	19.995	103.950	20.082	2.916	0.197
72.000	120.100	80.004	19.993	103.951	20.076	3.329	0.271
80.000	122.357	80.004	19.994	103.964	20.078	3.233	0.308
88.001	124.830	80.003	19.993	103.967	20.076	3.337	0.351
96.000	127.593	80.002	19.992	104.002	20.070	3.838	0.343
104.000	130.618	80.004	19.993	103.994	20.069	3.858	0.355
112.000	133.859	80.005	19.994	103.990	20.068	3.999	0.409
120.000	137.237	80.005	19.995	103.988	20.065	4.214	0.412
128.000	140.813	80.004	19.994	103.994	20.067	4.032	0.455
136.000	144.472	80.006	19.993	103.995	20.060	4.536	0.470
144.000	148.341	80.003	19.993	103.991	20.063	4.312	0.539
152.000	152.213	80.003	19.994	104.003	20.063	4.342	0.488
160.000	156.116	80.003	19.993	103.985	20.064	4.275	0.478
168.000	160.159	80.003	19.993	103.991	20.065	4.220	0.501
176.000	164.249	80.003	19.994	103.987	20.064	4.225	0.504
184.000	168.397	80.003	19.993	103.979	20.070	3.819	0.513
192.000	172.526	80.006	19.993	103.956	20.067	4.039	0.560
200.000	176.549	80.004	19.992	103.951	20.070	3.786	0.484
208.000	180.580	80.005	19.993	103.955	20.073	3.622	0.471
216.001	184.677	80.006	19.994	103.951	20.071	3.744	0.508
224.000	188.691	80.003	19.995	103.952	20.070	3.824	0.507
232.000	192.683	80.003	19.993	103.948	20.070	3.795	0.504
240.000	196.559	80.003	19.994	103.946	20.071	3.752	0.487
248.000	200.469	80.003	19.994	103.940	20.070	3.810	0.509
256.000	204.353	80.003	19.994	103.939	20.070	3.834	0.490
264.000	208.353	80.004	19.993	103.947	20.072	3.646	0.535
272.000	212.222	80.005	19.993	103.946	20.070	3.823	0.491
280.000	216.148	80.005	19.993	103.944	20.071	3.744	0.504
288.000	220.076	80.004	19.992	103.927	20.071	3.715	0.473
296.000	223.987	80.006	19.993	103.924	20.070	3.823	0.478
304.000	227.951	80.004	19.993	103.919	20.067	4.008	0.506
312.000	231.934	80.002	19.993	103.919	20.070	3.841	0.504
320.000	235.926	80.003	19.993	103.909	20.072	3.688	0.507
328.000	239.936	80.003	19.993	103.914	20.069	3.919	0.509
336.000	243.944	80.003	19.994	103.913	20.070	3.819	0.532
344.000	247.953	80.002	19.995	103.914	20.073	3.621	0.503
352.000	251.991	80.004	19.993	103.916	20.074	3.506	0.502
360.000	256.019	80.003	19.993	103.915	20.069	3.900	0.512
368.000	260.026	80.004	19.994	103.910	20.072	3.663	0.486
376.000	264.013	80.004	19.993	103.900	20.069	3.890	0.486
384.000	268.031	80.005	19.992	103.908	20.071	3.751	0.521
392.000	272.085	80.003	19.991	103.910	20.069	3.914	0.513
400.000	276.090	80.003	19.992	103.906	20.074	3.545	0.493
408.000	280.137	80.004	19.995	103.910	20.070	3.796	0.505
416.000	284.162	80.000	19.993	103.900	20.069	3.863	0.502
424.000	288.160	80.001	19.993	103.911	20.068	3.963	0.485
432.000	292.199	80.004	19.994	103.904	20.065	4.167	0.488
440.000	296.228	80.004	19.994	103.898	20.063	4.359	0.496
448.000	300.217	80.006	19.993	103.901	20.063	4.308	0.514
456.000	304.195	80.005	19.993	103.887	20.056	4.836	0.474
464.000	308.185	80.005	19.993	103.889	20.061	4.469	0.442
472.000	312.231	80.004	19.993	103.894	20.058	4.677	0.502
480.000	316.294	80.004	19.993	103.895	20.060	4.581	0.494
488.000	320.346	80.003	19.994	103.892	20.052	5.129	0.483
496.000	324.378	80.003	19.993	103.884	20.050	5.305	0.477
504.000	328.449	80.002	19.994	103.887	20.045	5.643	0.525
512.000	332.432	80.002	19.994	103.892	20.049	5.384	0.508
520.000	336.518	80.003	19.993	103.877	20.043	5.810	0.528
528.000	340.540	80.002	19.993	103.880	20.037	6.253	0.490
536.000	344.590	80.003	19.993	103.877	20.037	6.242	0.510
544.000	348.618	80.006	19.992	103.877	20.031	6.694	0.536
552.000	352.695	80.004	19.992	103.882	20.027	7.049	0.525
560.000	356.715	80.002	19.995	103.878	20.015	7.884	0.501
568.000	360.777	80.004	19.992	103.888	20.007	8.492	0.538
576.000	364.765	80.006	19.994	103.889	19.988	9.910	0.511
584.000	368.783	80.002	19.993	103.893	19.976	10.835	0.514
592.000	372.815	80.004	19.995	103.905	19.955	12.405	0.528
600.000	376.895	80.005	19.994	103.911	19.931	14.192	0.466
608.000	380.989	80.004	19.993	103.924	19.907	15.998	0.531
616.000	385.151	80.005	19.993	103.940	19.894	16.991	0.523
624.000	389.384	80.006	19.994	103.948	19.867	18.999	0.556
632.000	393.573	80.004	19.994	103.948	19.833	21.506	0.523
640.000	397.759	80.003	19.994	103.977	19.773	25.985	0.488
648.000	401.902	80.003	19.992	104.003	19.690	32.209	0.510
656.000	405.968	80.005	19.993	103.995	19.612	38.102	0.489
664.001	410.086	80.003	19.993	104.078	19.494	46.932	0.529
672.000	414.075	80.003	19.992	104.094	19.384	55.202	0.473
680.000	418.087	80.004	19.993	104.186	19.235	66.448	0.523
688.000	422.054	80.004	19.993	104.252	19.031	81.764	0.507
696.000	425.997	80.005	19.993	104.332	18.830	96.824	0.488
704.000	430.046	80.007	19.993	104.671	18.250	140.815	0.512
712.000	434.106	80.006	19.993	104.602	18.092	152.658	0.509
720.000	438.204	80.002	19.993	104.584	17.985	160.705	0.514
728.000	442.301	80.004	19.992	104.654	17.856	170.465	0.484
736.000	446.426	80.003	19.992	104.683	17.783	175.896	0.514
744.000	450.515	80.004	19.993	104.655	17.833	171.971	0.521
752.000	454.594	80.003	19.994	104.580	18.050	155.423	0.508
760.000	458.640	80.003	19.994	104.452	18.394	129.577	0.494
768.000	462.623	80.005	19.992	104.302	18.857	94.585	0.471
776.000	466.651	80.006	19.993	104.175	19.264	64.110	0.527
784.000	470.603	80.005	19.993	104.061	19.542	43.301	0.494
792.000	474.623	80.006	19.993	103.990	19.721	29.913	0.513
800.000	478.592	80.003	19.995	103.901	19.827	21.999	0.499
808.000	482.495	80.003	19.994	103.921	19.903	16.272	0.463
816.000	486.465	80.003	19.995	103.904	19.952	12.641	0.495
824.000	490.535	80.005	19.994	103.870	19.977	10.722	0.514
832.000	494.663	80.002	19.993	103.870	20.002	8.855	0.525
840.000	498.778	80.004	19.991	103.833	20.016	7.845	0.483
848.000	503.013	80.006	19.993	103.836	20.031	6.716	0.542
856.000	507.212	80.004	19.993	103.834	20.031	6.740	0.505
864.000	511.456	80.005	19.992	103.835	20.034	6.481	0.542
872.000	515.698	80.007	19.993	103.841	20.039	6.122	0.515
880.000	519.954	80.004	19.993	103.832	20.040	6.081	0.534
888.000	524.168	80.004	19.992	103.791	20.038	6.218	0.505
896.000	528.329	80.001	19.993	103.801	20.037	6.246	0.504
904.000	532.491	80.003	19.995	103.774	20.036	6.365	0.510
912.000	536.676	80.003	19.994	103.793	20.032	6.609	0.549
920.000	540.830	80.003	19.995	103.810	20.039	6.132	0.501
928.000	544.961	80.005	19.993	103.807	20.044	5.742	0.507
936.000	549.151	80.003	19.994	103.822	20.037	6.247	0.538
944.000	553.235	80.004	19.991	103.807	20.043	5.808	0.512
952.000	557.346	80.006	19.992	103.798	20.041	5.969	0.510
960.000	561.409	80.005	19.994	103.809	20.040	6.014	0.516
968.000	565.434	80.002	19.995	103.795	20.039	6.097	0.511
976.000	569.469	80.004	19.994	103.797	20.038	6.167	0.476
984.000	573.543	80.001	19.991	103.797	20.040	6.059	0.481
992.000	577.720	80.002	19.994	103.797	20.037	6.301	0.481
1000.000	581.837	80.002	19.994	103.798	20.044	5.745	0.524
1008.000	585.945	80.007	19.995	103.796	20.044	5.716	0.533
1016.000	590.112	80.004	19.994	103.795	20.041	5.963	0.534
1024.000	594.232	80.004	19.993	103.796	20.046	5.588	0.517
1032.000	598.459	80.007	19.993	103.791	20.041	5.991	0.556
1040.000	602.441	80.004	19.992	103.791	20.047	5.496	0.483
1048.000	606.510	80.002	19.992	103.793	20.044	5.746	0.503
1056.000	610.498	80.002	19.993	103.779	20.046	5.631	0.483
1064.000	614.546	80.002	19.994	103.783	20.047	5.547	0.505
1072.000	618.516	80.003	19.994	103.794	20.055	4.954	0.489
1080.000	622.520	80.003	19.993	103.793	20.057	4.780	0.523
1088.000	626.506	80.004	19.993	103.785	20.061	4.487	0.499
1096.000	630.544	80.005	19.994	103.780	20.059	4.619	0.509
1104.001	634.592	80.005	19.994	103.778	20.060	4.554	0.493
1112.000	638.639	80.006	19.994	103.780	20.064	4.246	0.491
1120.000	642.786	80.004	19.994	103.781	20.061	4.453	0.523
1128.000	646.873	80.001	19.992	103.768	20.068	3.972	0.532
1136.000	650.928	80.004	19.994	103.766	20.068	3.950	0.506
1144.001	655.063	80.002	19.992	103.756	20.075	3.448	0.541
1152.000	659.118	80.003	19.994	103.760	20.073	3.607	0.529
1160.000	663.250	80.005	19.994	103.760	20.077	3.310	0.530
1168.000	667.270	80.006	19.995	103.766	20.085	2.706	0.517
1176.001	671.344	80.003	19.993	103.759	20.083	2.841	0.510
1184.000	675.508	80.003	19.994	103.763	20.084	2.796	0.527
1192.001	679.606	80.006	19.994	103.759	20.088	2.451	0.512
1200.001	683.669	80.004	19.994	103.753	20.088	2.484	0.506
1208.000	687.765	80.004	19.992	103.753	20.089	2.398	0.570
1216.000	691.788	80.003	19.993	103.755	20.088	2.441	0.520
1224.000	695.969	80.004	19.992	103.755	20.093	2.089	0.534
1232.000	700.008	80.003	19.993	103.758	20.095	1.942	0.517
1240.000	704.041	80.004	19.993	103.758	20.093	2.060	0.513
1248.000	708.098	80.004	19.993	103.752	20.095	1.971	0.546
1256.001	712.084	80.003	19.993	103.757	20.095	1.944	0.493
1264.000	716.100	80.005	19.993	103.754	20.097	1.783	0.514
1272.000	720.159	80.005	19.993	103.732	20.101	1.518	0.510
1280.000	724.203	80.003	19.996	103.738	20.098	1.706	0.526
1288.000	728.201	80.005	19.993	103.752	20.102	1.426	0.500
1296.001	732.231	80.004	19.993	103.750	20.099	1.640	0.502
1304.000	736.308	80.003	19.993	103.754	20.099	1.628	0.522
1312.000	740.389	80.003	19.993	103.757	20.100	1.591	0.496
1317.500	743.286	80.004	19.992	103.757	20.098	1.716	0.503