File: 01_Data/MDF/Cone/MDF_Cone_HF75Scalar_210325_R2.csv
LABORATORY,FSRI
TEST IDENT,MDF_HF75_2
OPERATOR,Morrissey
MATERIAL,3/4 in MDF
ORIENTATION,Horizontal
HEAT FLUX,75
SURF AREA,0.01
C FACTOR,0.0386052
SPEC HOLDER DIFF,-98.41
SPECIMEN MASS,141.07
SCAN TIME,0.25
O2 DELAY TIME,11
CO DELAY TIME,11
CO2 DELAY TIME,8
FLOW FACTOR,1
SCAN COUNT,4959
TIME TO IGN,13.75
END OF TEST SCAN,4479
END OF TEST TIME,1119.75
TEST STATUS,1
PRE TEST CMT,"Nominal thickness: 3/4 inches"
POST TEST CMT,Sample foil pan was manually adjusted several times in response to popping and fragmenting of the sample that caused some small pieces of material to fall.