File: 01_Data/MDF/Cone/MDF_Cone_HF25Scan_210324_R3.csv
Names,Time,Stack TC,Smoke TC,Exh Press,Smoke Comp,Smoke Meas,CO Meter,CO2 Meter,O2 Meter,Sample Mass,Ext Coeff,Start Test,Flame Verif
Chan Gain,,500,500,1,1,1,1,1,1,1,1,1,1
Offset,,0,0,0.194005,0,0,0,0,0,0,0,0,0
Gain,,1,1,25.011,13.5067,16.616,1,1,1,1.00091,1.04608,1,1
Units,sec,C,C,Pa,%,%,%,%,%,g,/m,,
Baseline,,18.7675,20.1148,169.135,101.243,100.73,0.000450767,0.053871,20.9406,-0.566599,0.04655521,,
63,15.5,17.0761,18.1608,172.237,100.877,100.327,0.000251559,0.0603472,20.9368,615.58,0.0501385,0,0
126,31.25,16.9566,19.2303,164.715,100.62,100.033,0.00064525,0.0551508,20.9415,615.42,0.0537356,0,0
189,47,17.9383,18.9753,166.787,100.655,99.9189,0.000442864,0.054125,20.9414,615.27,0.06739299,0,0
252,62.75,18.0212,19.3666,173.031,100.703,99.783,0.000420985,0.0541898,20.9413,615.14,0.0842021,0,0
315,78.5,17.6876,18.8221,167.156,100.787,99.5072,0.000222694,0.0545254,20.9421,614.97,0.117265,0,0
378,94.25,18.2328,19.1587,173.425,100.913,99.4478,0.000409719,0.05511298,20.9429,614.81,0.134213,0,0
441,110,17.8681,19.0525,168.741,101.031,98.9453,0.000488358,0.0597909,20.936,614.589,0.191449,0,0
504,125.75,18.1983,19.823,168.606,101.107,98.6259,0.001244639,0.0647415,20.932,614.279,0.227971,0,0
567,141.5,22.8385,27.8314,156.289,101.134,100.552,0.002305527,0.238285,20.6939,613.338,0.052946,0,1
630,157.25,37.0939,48.8213,155.52,101.115,100.984,0.003296682,0.48079,20.4454,610.926,0.011921,0,0
693,173,40.4923,52.7558,157.744,101.077,100.49,0.003490491,0.458859,20.4876,608.624,0.0534213,0,0
756,188.75,40.9316,51.5311,150.46,101.027,97.059,0.003526734,0.408089,20.5483,606.512,0.3677,0,0
819,204.5,40.0193,49.0808,153.249,101.005,97.5874,0.003188774,0.368708,20.5963,604.63,0.315898,0,0
882,220.25,38.3231,46.6157,154.751,100.996,98.0706,0.003011364,0.335024,20.6333,602.889,0.269671,0,0
945,236,38.6334,44.8864,157.522,101.024,98.6822,0.002515811,0.308577,20.6634,601.277,0.215176,0,0
1008,251.75,37.0159,42.9309,160.688,101.061,99.7044,0.002213149,0.289444,20.6853,599.746,0.123977,0,0
1071,267.5,36.8575,42.1057,156.064,101.112,100.284,0.001805173,0.277151,20.6991,598.275,0.0754673,0,0
1134,283.25,36.361,41.4725,152.369,101.133,100.711,0.0018909,0.269469,20.7061,596.843,0.0383063,0,0
1197,299,36.0559,40.8761,162.971,101.13,101.036,0.001611137,0.263037,20.7154,595.452,0.008559981,0,0
1260,314.75,36.4459,40.9175,158.993,101.109,100.992,0.00166847,0.256155,20.7212,594.041,0.0106143,0,0
1323,330.5,36.0594,40.598,155.239,101.032,101.08,0.001760337,0.250117,20.7265,592.659,-0.004388049,0,0
1386,346.25,35.4264,39.8409,160.794,100.962,101.354,0.001961906,0.238294,20.739,591.238,-0.0355877,0,0
1449,362,35.5923,39.8363,156.739,100.905,101.041,0.001990825,0.233619,20.7461,589.847,-0.0123352,0,0
1512,377.75,35.0276,39.3722,155.701,100.837,100.84,0.002277724,0.231557,20.7458,588.396,-0.000229717,0,0
1575,393.5,34.7378,38.9299,160.775,100.782,101.206,0.001765259,0.225842,20.7522,587.104,-0.0385965,0,0
1638,409.25,34.8676,38.4176,158.975,100.716,101.017,0.002317676,0.222102,20.7561,585.793,-0.0273538,0,0
1701,425,34.7072,38.5891,161.646,100.666,101.008,0.002146034,0.218458,20.759,584.532,-0.0311534,0,0
1764,440.75,34.7729,37.048,157.583,100.634,100.847,0.001860016,0.215424,20.7623,583.301,-0.0193492,0,0
1827,456.5,33.7926,38.0659,158.637,100.613,101.098,0.002219809,0.212575,20.7652,582.12,-0.0441148,0,0
1890,472.25,33.7028,37.4793,159.24,100.716,101.357,0.002099623,0.210437,20.7686,580.939,-0.0582476,0,0
1953,488,33.1899,36.7604,154.974,100.918,101.125,0.002059287,0.207246,20.7708,579.798,-0.018777,0,0
2016,503.75,33.5354,36.93,160.415,101.08,101.614,0.002397375,0.205452,20.7736,578.637,-0.0483085,0,0
2079,519.5,32.965,36.5825,161.259,101.246,101.343,0.002023832,0.20343,20.775,577.496,-0.008794074,0,0
2142,535.25,33.0719,35.955,159.949,101.392,101.926,0.002298742,0.203065,20.7715,576.425,-0.0481902,0,0
2205,551,32.7911,35.7375,155.845,101.496,102.053,0.00222319,0.200521,20.7766,575.304,-0.05024625,0,0
2268,566.75,32.4365,35.9213,162.21,101.541,101.782,0.002524888,0.199218,20.7773,574.223,-0.0217217,0,0
2331,582.5,32.3502,35.4852,154.435,101.532,102.002,0.002927257,0.198034,20.7779,573.222,-0.0423613,0,0
2394,598.25,32.5459,35.2059,159.177,101.472,101.583,0.00345167,0.196792,20.7773,572.151,-0.0100818,0,0
2457,614,32.3332,35.2631,165.083,101.374,101.732,0.002909509,0.196253,20.7807,571.11,-0.0323307,0,0
2520,629.75,31.9198,34.8615,159.04,101.212,101.364,0.003124216,0.193989,20.7825,570.119,-0.0137856,0,0
2583,645.5,31.8293,34.6783,155.047,101.07,101.37,0.003238642,0.192721,20.7835,569.118,-0.0271547,0,0
2646,661.25,31.6912,34.7818,158.821,100.964,101.194,0.003621697,0.19159,20.7853,568.117,-0.020873,0,0
2709,677,31.2054,34.537,158.408,101.026,101.064,0.003634539,0.188887,20.7899,567.146,-0.003448006,0,0
2772,692.75,31.0038,33.6,160.311,101.12,101.175,0.003824951,0.187467,20.7887,566.205,-0.005031032,0,0
2835,708.5,30.9749,33.6029,157.473,101.263,101.391,0.004267054,0.186927,20.7912,565.265,-0.0115855,0,0
2898,724.25,30.855,33.9779,159.124,101.41,101.454,0.003926291,0.186683,20.7925,564.324,-0.003949204,0,0
2961,740,30.422,33.4427,159.71,101.523,101.74,0.00455413,0.186756,20.7901,563.363,-0.019649,0,0
3024,755.75,30.8915,33.0474,160.752,101.632,101.756,0.004216581,0.185436,20.7915,562.452,-0.0111167,0,0
3087,771.5,30.7448,33.4106,161.577,101.712,101.909,0.004100161,0.184841,20.7931,561.501,-0.0177352,0,0
3150,787.25,30.7142,33.5572,162.779,101.742,102.051,0.003741364,0.184761,20.793,560.61,-0.0278426,0,0
3213,803,30.9029,33.4112,159.429,101.742,101.657,0.003829759,0.186801,20.7913,559.729,0.007661607,0,0
3276,818.75,31.2552,33.8721,155.288,101.682,101.781,0.003654946,0.189068,20.7864,558.839,-0.00894627,0,0
3339,834.5,30.8594,33.6811,160.295,101.57,101.699,0.003320222,0.190655,20.7835,557.918,-0.01165228,0,0
3402,850.25,29.8494,34.203,159.323,101.434,101.602,0.002732055,0.192957,20.7828,556.997,-0.015206,0,0
3465,866,30.9832,34.3109,163.176,101.261,101.633,0.002583499,0.196951,20.7773,556.066,-0.0337194,0,0
3528,881.75,31.1456,34.8638,161.965,101.059,101.261,0.002715252,0.200491,20.7752,555.155,-0.0182909,0,0
3591,897.5,31.4456,34.8241,160.056,100.84,100.899,0.002300862,0.203823,20.7714,554.255,-0.005318338,0,0
3654,913.25,31.808,35.5178,161.68,100.671,100.9,0.002187234,0.207022,20.7679,553.264,-0.0208862,0,0
3717,929,32.3504,35.5468,161.775,100.506,100.743,0.001790044,0.212491,20.7626,552.303,-0.0216203,0,0
3780,944.75,32.5498,36.1883,158.555,100.389,100.545,0.001704717,0.217235,20.7562,551.362,-0.0142451,0,0
3843,960.5,32.8005,37.2391,159.621,100.273,100.387,0.002176919,0.222662,20.7505,550.321,-0.0103884,0,0
3906,976.25,33.3472,37.1937,157.421,100.162,100.719,0.001926017,0.229703,20.7419,549.31,-0.0508881,0,0
3969,992,33.8318,37.9394,161.959,100.055,100.122,0.001551849,0.236453,20.7349,548.199,-0.00612886,0,0
4032,1007.75,34.0903,38.7908,155.759,99.9708,100.549,0.001545014,0.244437,20.7263,547.108,-0.052937,0,0
4095,1023.5,34.9893,39.7173,160.839,99.8731,100.025,0.001512319,0.255739,20.7138,545.917,-0.0139806,0,0
4158,1039.25,34.733,40.4979,153.968,99.8439,100.07,0.001643299,0.26837,20.7014,544.666,-0.0207163,0,0
4221,1055,36.3864,41.6473,153.098,99.796,99.8124,0.001779637,0.281442,20.6879,543.295,-0.001506942,0,0
4284,1070.75,38.0528,43.6836,156.412,99.7796,99.5553,0.001578266,0.299916,20.6655,541.873,0.0206423,0,0
4347,1086.5,39.1881,45.1564,150.619,99.7709,99.1938,0.001741472,0.320471,20.6385,540.292,0.05323204,0,0
4410,1102.25,40.3429,47.3091,154.604,99.8167,97.6974,0.002245768,0.341407,20.6147,538.62,0.196921,0,0
4473,1118,42.0792,49.0772,154.124,99.8838,97.6594,0.002443849,0.366378,20.5844,536.789,0.206668,0,0
4536,1133.75,43.9641,51.6439,153.15,99.9836,97.063,0.003229902,0.3925533,20.5523,534.837,0.272029,0,0
4599,1149.5,45.4636,53.3979,152.184,100.12,96.3212,0.003851112,0.416861,20.5228,532.745,0.354982,0,0
4662,1165.25,47.3162,55.7346,150.77,100.27,95.3131,0.004728955,0.441215,20.4913,530.543,0.465189,0,0
4725,1181,49.4772,57.3767,146.325,100.384,96.0053,0.005022021,0.461592,20.4681,528.261,0.409274,0,0
4788,1196.75,50.7297,59.6256,148.942,100.586,94.3745,0.005494311,0.479533,20.44,525.899,0.584924,0,0
4851,1212.5,51.5006,61.2715,144.045,100.773,94.4202,0.006169361,0.502637,20.411,523.456,0.597507,0,0
4914,1228.25,54.6919,64.7883,149.24,100.938,93.8025,0.006742654,0.5207026,20.386,520.964,0.672727,0,0
4977,1244,54.945,64.313,152.768,101.048,95.1407,0.007141234,0.498551,20.4139,518.552,0.552746,0,0
5040,1259.75,53.2244,61.5741,148.457,101.111,96.0707,0.005636458,0.422301,20.5024,516.49,0.4692114,0,0
5103,1275.5,48.4808,53.8725,149.567,101.077,96.9464,0.00344898,0.312379,20.6288,515.149,0.382841,0,0
5166,1291.25,44.4742,47.3234,160.066,100.948,97.6406,0.005250672,0.242236,20.6916,514.238,0.305686,0,0
5229,1307,40.8433,43.023,159.108,100.763,100.894,0.006440096,0.208611,20.7345,513.567,-0.0118368,0,0
5292,1322.75,39.087,39.9995,165.645,100.645,101.027,0.006703859,0.186649,20.7649,512.957,-0.0348207,0,0
5355,1338.5,36.4898,37.137,159.133,100.566,100.557,0.007905043,0.168228,20.788,512.456,0.000755839,0,0
5418,1354.25,34.6932,35.1783,163.491,100.602,100.803,0.00911862,0.16478,20.7892,512.006,-0.0183496,0,0
5481,1370,33.0227,33.5055,157.319,101.226,101.288,0.0104995,0.158648,20.7994,511.576,-0.005581025,0,0
5544,1385.75,31.9721,32.5364,160.686,101.437,101.333,0.009817125,0.162556,20.7931,511.175,0.009434226,0,0
5607,1401.5,31.0939,31.7158,166.672,101.047,101.118,0.0102548,0.15225,20.8056,510.775,-0.006492825,0,0
5670,1417.25,29.6198,29.8845,163.951,101.646,101.261,0.0142615,0.137226,20.8297,510.415,0.0348416,0,0
5733,1433,28.5356,28.6681,165.567,101.319,101.234,0.0154565,0.136636,20.8282,510.074,0.007730464,0,0
5796,1448.75,27.7125,28.9699,163.259,100.091,99.9407,0.0148234,0.134899,20.8321,509.734,0.013766,0,0
5859,1464.5,25.8078,25.2234,165.508,99.9102,99.424,0.00256211,0.0762124,20.9219,-0.660601,0.0447648,0,0
5922,1480.25,24.2102,24.1437,164.709,100.913,100.492,-7.82851E-05,0.0569153,20.9399,-0.630574,0.0383314,0,0
5985,1496,23.3947,22.3624,170.607,100.864,100.377,8.65273E-05,0.05498575,20.9385,-0.640583,0.0444241,0,0
6048,1511.75,22.3877,21.95,167.146,101.287,100.71,0.000361171,0.0541149,20.9433,-0.710647,0.052375,0,0
6111,1527.5,21.7455,21.0301,170.407,100.995,100.434,,0.05680133,,-0.67061,0.0510763,0,0
6143,1535.5,21.8769,21.5072,171.657,101.459,101.067,,,,-0.720656,0.0354649,0,0
,,,,,,,,,,,,,
,,,,,,,,,,,,,
,,,,,,,,,,,,,
,,,,,,,,,,,,,
,,,,,,,,,,,,,
,,,,,,,,,,,,,
,,,,,,,,,,,,,
,,,,,,,,,,,,,
,,,,,,,,,,,,,
,,,,,,,,,,,,,
,,,,,,,,,,,,,
,,,,,,,,,,,,,
,,,,,,,,,,,,,
,,,,,,,,,,,,,
,,,,,,,,,,,,,
,,,,,,,,,,,,,
,,,,,,,,,,,,,
,,,,,,,,,,,,,
,,,,,,,,,,,,,
,,,,,,,,,,,,,
,,,,,,,,,,,,,
,,,,,,,,,,,,,
,,,,,,,,,,,,,
,,,,,,,,,,,,,
,,,,,,,,,,,,,
,,,,,,,,,,,,,
,,,,,,,,,,,,,
,,,,,,,,,,,,,
,,,,,,,,,,,,,
,,,,,,,,,,,,,
,,,,,,,,,,,,,
,,,,,,,,,,,,,
,,,,,,,,,,,,,
,,,,,,,,,,,,,
,,,,,,,,,,,,,
,,,,,,,,,,,,,
,,,,,,,,,,,,,
,,,,,,,,,,,,,
,,,,,,,,,,,,,
,,,,,,,,,,,,,
,,,,,,,,,,,,,
,,,,,,,,,,,,,
,,,,,,,,,,,,,
,,,,,,,,,,,,,
,,,,,,,,,,,,,
,,,,,,,,,,,,,
,,,,,,,,,,,,,
,,,,,,,,,,,,,
,,,,,,,,,,,,,
,,,,,,,,,,,,,
,,,,,,,,,,,,,
,,,,,,,,,,,,,
,,,,,,,,,,,,,
,,,,,,,,,,,,,
,,,,,,,,,,,,,
,,,,,,,,,,,,,
,,,,,,,,,,,,,
,,,,,,,,,,,,,
,,,,,,,,,,,,,
,,,,,,,,,,,,,
,,,,,,,,,,,,,
,,,,,,,,,,,,,
,,,,,,,,,,,,,
,,,,,,,,,,,,,
,,,,,,,,,,,,,
,,,,,,,,,,,,,
,,,,,,,,,,,,,
,,,,,,,,,,,,,
,,,,,,,,,,,,,
,,,,,,,,,,,,,
,,,,,,,,,,,,,
,,,,,,,,,,,,,
,,,,,,,,,,,,,
,,,,,,,,,,,,,
,,,,,,,,,,,,,
,,,,,,,,,,,,,
,,,,,,,,,,,,,
,,,,,,,,,,,,,
,,,,,,,,,,,,,
,,,,,,,,,,,,,
,,,,,,,,,,,,,
,,,,,,,,,,,,,
,,,,,,,,,,,,,
,,,,,,,,,,,,,
,,,,,,,,,,,,,
,,,,,,,,,,,,,
,,,,,,,,,,,,,
,,,,,,,,,,,,,
,,,,,,,,,,,,,
,,,,,,,,,,,,,
,,,,,,,,,,,,,
,,,,,,,,,,,,,
,,,,,,,,,,,,,
,,,,,,,,,,,,,
,,,,,,,,,,,,,
,,,,,,,,,,,,,
,,,,,,,,,,,,,
,,,,,,,,,,,,,
,,,,,,,,,,,,,
,,,,,,,,,,,,,
,,,,,,,,,,,,,
,,,,,,,,,,,,,
,,,,,,,,,,,,,
,,,,,,,,,,,,,
,,,,,,,,,,,,,
,,,,,,,,,,,,,
,,,,,,,,,,,,,
,,,,,,,,,,,,,
,,,,,,,,,,,,,
,,,,,,,,,,,,,
,,,,,,,,,,,,,
,,,,,,,,,,,,,
,,,,,,,,,,,,,
,,,,,,,,,,,,,
,,,,,,,,,,,,,
,,,,,,,,,,,,,
,,,,,,,,,,,,,
,,,,,,,,,,,,,
,,,,,,,,,,,,,
,,,,,,,,,,,,,
,,,,,,,,,,,,,
,,,,,,,,,,,,,
,,,,,,,,,,,,,
,,,,,,,,,,,,,
,,,,,,,,,,,,,
,,,,,,,,,,,,,
,,,,,,,,,,,,,
,,,,,,,,,,,,,
,,,,,,,,,,,,,
,,,,,,,,,,,,,
,,,,,,,,,,,,,
,,,,,,,,,,,,,
,,,,,,,,,,,,,
,,,,,,,,,,,,,
,,,,,,,,,,,,,
,,,,,,,,,,,,,
,,,,,,,,,,,,,
,,,,,,,,,,,,,
,,,,,,,,,,,,,
,,,,,,,,,,,,,
,,,,,,,,,,,,,
,,,,,,,,,,,,,
,,,,,,,,,,,,,
,,,,,,,,,,,,,
,,,,,,,,,,,,,
,,,,,,,,,,,,,
,,,,,,,,,,,,,
,,,,,,,,,,,,,
,,,,,,,,,,,,,
,,,,,,,,,,,,,
,,,,,,,,,,,,,
,,,,,,,,,,,,,
,,,,,,,,,,,,,
,,,,,,,,,,,,,
,,,,,,,,,,,,,
,,,,,,,,,,,,,
,,,,,,,,,,,,,
,,,,,,,,,,,,,
,,,,,,,,,,,,,
,,,,,,,,,,,,,
,,,,,,,,,,,,,
,,,,,,,,,,,,,
,,,,,,,,,,,,,
,,,,,,,,,,,,,
,,,,,,,,,,,,,
,,,,,,,,,,,,,
,,,,,,,,,,,,,
,,,,,,,,,,,,,
,,,,,,,,,,,,,
,,,,,,,,,,,,,
,,,,,,,,,,,,,
,,,,,,,,,,,,,
,,,,,,,,,,,,,
,,,,,,,,,,,,,
,,,,,,,,,,,,,
,,,,,,,,,,,,,
,,,,,,,,,,,,,
,,,,,,,,,,,,,
,,,,,,,,,,,,,
,,,,,,,,,,,,,
,,,,,,,,,,,,,
,,,,,,,,,,,,,
,,,,,,,,,,,,,
,,,,,,,,,,,,,
,,,,,,,,,,,,,
,,,,,,,,,,,,,
,,,,,,,,,,,,,
,,,,,,,,,,,,,
,,,,,,,,,,,,,
,,,,,,,,,,,,,
,,,,,,,,,,,,,
,,,,,,,,,,,,,
,,,,,,,,,,,,,
,,,,,,,,,,,,,
,,,,,,,,,,,,,
,,,,,,,,,,,,,
,,,,,,,,,,,,,
,,,,,,,,,,,,,
,,,,,,,,,,,,,
,,,,,,,,,,,,,
,,,,,,,,,,,,,
,,,,,,,,,,,,,
,,,,,,,,,,,,,
,,,,,,,,,,,,,
,,,,,,,,,,,,,
,,,,,,,,,,,,,
,,,,,,,,,,,,,
,,,,,,,,,,,,,
,,,,,,,,,,,,,
,,,,,,,,,,,,,
,,,,,,,,,,,,,
,,,,,,,,,,,,,
,,,,,,,,,,,,,
,,,,,,,,,,,,,
,,,,,,,,,,,,,
,,,,,,,,,,,,,
,,,,,,,,,,,,,
,,,,,,,,,,,,,
,,,,,,,,,,,,,
,,,,,,,,,,,,,
,,,,,,,,,,,,,
,,,,,,,,,,,,,
,,,,,,,,,,,,,
,,,,,,,,,,,,,
,,,,,,,,,,,,,
,,,,,,,,,,,,,
,,,,,,,,,,,,,
,,,,,,,,,,,,,
,,,,,,,,,,,,,
,,,,,,,,,,,,,
,,,,,,,,,,,,,
,,,,,,,,,,,,,
,,,,,,,,,,,,,
,,,,,,,,,,,,,
,,,,,,,,,,,,,
,,,,,,,,,,,,,
,,,,,,,,,,,,,
,,,,,,,,,,,,,
,,,,,,,,,,,,,
,,,,,,,,,,,,,
,,,,,,,,,,,,,
,,,,,,,,,,,,,
,,,,,,,,,,,,,
,,,,,,,,,,,,,
,,,,,,,,,,,,,
,,,,,,,,,,,,,
,,,,,,,,,,,,,
,,,,,,,,,,,,,
,,,,,,,,,,,,,
,,,,,,,,,,,,,
,,,,,,,,,,,,,
,,,,,,,,,,,,,
,,,,,,,,,,,,,
,,,,,,,,,,,,,
,,,,,,,,,,,,,
,,,,,,,,,,,,,
,,,,,,,,,,,,,
,,,,,,,,,,,,,
,,,,,,,,,,,,,
,,,,,,,,,,,,,
,,,,,,,,,,,,,
,,,,,,,,,,,,,
,,,,,,,,,,,,,
,,,,,,,,,,,,,
,,,,,,,,,,,,,
,,,,,,,,,,,,,
,,,,,,,,,,,,,