File: 01_Data/MDF/Cone/MDF_Cone_HF25Scan_210324_R2.csv
Names,Time,Stack TC,Smoke TC,Exh Press,Smoke Comp,Smoke Meas,CO Meter,CO2 Meter,O2 Meter,Sample Mass,Ext Coeff,Start Test,Flame Verif
Chan Gain,,500,500,1,1,1,1,1,1,1,1,1,1
Offset,,0,0,0.194005,0,0,0,0,0,0,0,0,0
Gain,,1,1,25.011,13.5067,16.616,1,1,1,1.00091,1.04608,1,1
Units,sec,C,C,Pa,%,%,%,%,%,g,/m,,
Baseline,,17.904,19.2563,169.927,99.2989,98.8393,5.70218E-06,0.0523285,20.944,-0.190089,0.042572,,
65,16,16.357,17.9438,169.842,99.7252,99.2374,0.000226326,0.0594565,20.9384,621.276,0.0449901,0,0
130,32.25,15.0261,16.7851,166.171,100.371,99.8358,3.49118E-05,0.0533795,20.9434,621.115,0.04903204,0,0
195,48.5,15.4114,17.0604,169.413,100.434,99.7856,-0.000188579,0.0519335,20.9454,620.945,0.0594486,0,0
260,64.75,15.9101,17.0199,172.595,100.069,99.3353,-0.000192463,0.0524024,20.9442,620.795,0.0675222,0,0
325,81,16.1807,17.3055,170.818,100.545,99.6441,-0.000415393,0.0525102,20.947,620.695,0.0825545,0,0
390,97.25,16.1003,18.0907,172.502,100.698,99.5062,-6.80477E-06,0.0527738,20.9451,620.505,0.10921,0,0
455,113.5,16.0412,16.976,167.078,100.338,98.8601,1.1151E-05,0.0543345,20.9436,620.335,0.136204,0,0
520,129.75,15.9321,17.582,169.381,99.6472,97.6974,0.0004427,0.0560927,20.9408,620.114,0.181334,0,0
585,146,16.5607,18.0684,171.307,98.9585,96.3739,0.001598566,0.0651087,20.9316,619.794,0.242842,0,0
650,162.25,30.0857,38.9337,152.753,98.6629,98.4393,0.002517158,0.404562,20.4794,617.802,0.0208257,0,0
715,178.5,38.5993,51.2353,153.595,98.8492,96.412,0.003317846,0.484451,20.455,615.24,0.229088,0,0
780,194.75,39.4498,51.7037,155.673,99.458,97.1569,0.003435215,0.442149,20.5209,612.828,0.214805,0,0
845,211,39.155,48.8277,154.376,99.9782,97.1472,0.003563226,0.392342,20.5795,610.716,0.263583,0,0
910,227.25,38.1566,46.2872,153.965,100.122,97.0925,0.003125869,0.351864,20.6244,608.814,0.281913,0,0
975,243.5,36.9132,44.2597,155.864,99.9675,97.384,0.002513571,0.322065,20.6545,607.003,0.240259,0,0
1040,259.75,36.3298,42.8316,159.481,99.7779,98.1178,0.002467202,0.299207,20.6812,605.331,0.15396,0,0
1105,276,35.9142,41.0615,155.473,100.605,99.4793,0.002363777,0.285655,20.6941,603.73,0.103234,0,0
1170,292.25,35.295,40.343,155.094,100.536,99.8672,0.001941116,0.273786,20.704,602.148,0.0612025,0,0
1235,308.5,35.1895,41.2186,156.429,100.155,100.394,0.00202551,0.266615,20.7105,600.597,-0.0218313,0,0
1300,324.75,35.1697,39.8839,157.045,100.575,100.747,0.0020588,0.253732,20.7234,599.045,-0.0157528,0,0
1365,341,34.8069,39.2587,162.074,100.86,101.021,0.002318827,0.249038,20.7289,597.474,-0.0146346,0,0
1430,357.25,34.3581,39.0206,167.772,100.705,101.086,0.002101647,0.241168,20.7398,595.993,-0.03467685,0,0
1495,373.5,34.5085,39.4775,155.371,100.108,100.344,0.002158149,0.240356,20.741,594.491,-0.0216696,0,0
1560,389.75,34.1351,38.128,159.949,99.369,99.7257,0.002114878,0.2321,20.7481,593.08,-0.0328796,0,0
1625,406,33.9586,38.0694,158.447,98.8938,99.1588,0.001628099,0.229141,20.7521,591.679,-0.0245598,0,0
1690,422.25,33.6846,37.7083,156.767,98.9387,99.1923,0.001523128,0.225153,20.7561,590.377,-0.0234883,0,0
1755,438.5,33.9021,37.6101,162.365,99.2965,99.7019,0.001400992,0.223308,20.7576,589.016,-0.0373888,0,0
1820,454.75,33.4698,37.3898,161.875,99.7787,100.112,0.001166877,0.22034,20.7626,587.725,-0.0305613,0,0
1885,471,33.116,37.3525,154.947,100.198,101.048,0.001610832,0.21912,20.7597,586.464,-0.0775293,0,0
1950,487.25,33.0001,36.5946,155.157,100.286,100.733,0.001640646,0.215625,20.7631,585.173,-0.0408141,0,0
2015,503.5,32.9836,36.612,164.136,100.144,100.274,0.00157737,0.21422,20.766,583.962,-0.011936,0,0
2080,519.75,33.1008,36.263,158.356,99.9894,100.219,0.001668414,0.211277,20.7712,582.771,-0.0210128,0,0
2145,536,32.8828,36.3432,163.689,99.9766,100.341,0.001368288,0.209539,20.7713,581.539,-0.0334153,0,0
2210,552.25,32.3353,35.8917,160.859,100.609,100.814,0.0016221,0.209536,20.7714,580.378,-0.0186806,0,0
2275,568.5,32.1532,35.3946,161.452,100.824,100.847,0.001811687,0.205986,20.7747,579.217,-0.002160117,0,0
2340,584.75,31.7448,35.4752,165.473,100.278,100.469,0.001809984,0.202369,20.7778,578.086,-0.0174327,0,0
2405,601,32.2643,35.776,161.871,100.75,101.287,0.00209242,0.200344,20.78,577.065,-0.0487478,0,0
2470,617.25,31.771,35.5027,158.641,101.001,101.354,0.002057189,0.196388,20.7838,575.934,-0.0320206,0,0
2535,633.5,32.2457,35.0647,157.282,100.254,100.688,0.002983779,0.190796,20.7916,574.963,-0.039644,0,0
2600,649.75,31.5287,34.8976,163.235,99.1394,99.5127,0.003202589,0.190071,20.7921,573.872,-0.0344891,0,0
2665,666,31.5172,34.5612,156.611,99.397,99.6806,0.003214178,0.188391,20.7932,572.871,-0.0261393,0,0
2730,682.25,32.0015,33.8266,158.273,100.354,100.704,0.003926672,0.187783,20.7941,571.871,-0.0319591,0,0
2795,698.5,31.6596,33.8255,165.805,100.199,100.286,0.003456567,0.186443,20.7947,570.84,-0.007943355,0,0
2860,714.75,30.973,34.1459,160.169,100.965,101.41,0.003485605,0.188381,20.795,569.919,-0.0404114,0,0
2925,731,31.0658,33.4952,159.609,100.789,101.083,0.0039454,0.181792,20.8013,568.948,-0.0267334,0,0
2990,747.25,31.2803,33.2746,162,100.855,100.931,0.004318841,0.180491,20.8036,567.987,-0.006881982,0,0
3055,763.5,30.7803,33.3168,160.997,99.2742,99.4377,0.004355974,0.179096,20.8054,567.056,-0.0150986,0,0
3120,779.75,30.3565,33.7965,157.198,100.485,100.722,0.00412972,0.178178,20.8069,566.125,-0.0216455,0,0
3185,796,30.4375,32.5894,162.858,100.197,100.558,0.004784722,0.175963,20.8081,565.225,-0.0330146,0,0
3250,812.25,30.3789,32.7739,162.633,100.61,100.554,0.004535945,0.177317,20.8057,564.314,0.005139789,0,0
3315,828.5,30.1118,33.2813,157.35,101.202,101.54,0.004418552,0.177797,20.806,563.423,-0.0305887,0,0
3380,844.75,29.9057,33.2672,160.319,99.4556,99.6344,0.004569455,0.179918,20.8029,562.512,-0.0164886,0,0
3445,861,30.5449,33.4719,162.367,100.827,101.23,0.004084487,0.182057,20.8005,561.661,-0.0365459,0,0
3510,877.25,30.3585,34.1222,160.036,100.781,101.219,0.003587443,0.186102,20.8007,560.71,-0.039783,0,0
3575,893.5,30.7076,33.9368,156.197,100.888,101.585,0.00361438,0.189962,20.7932,559.84,-0.0632352,0,0
3640,909.75,31.2923,34.3371,155.704,101.474,101.763,0.003098325,0.194248,20.789,558.909,-0.0260669,0,0
3705,926,31.3289,34.2443,158.309,99.9688,100.523,0.002677852,0.1963,20.7889,558.008,-0.0507198,0,0
3770,942.25,31.5355,35.0153,159.75,99.9539,100.433,0.002466727,0.205926,20.7771,557.047,-0.0438384,0,0
3835,958.5,31.6215,36.0838,162.976,100.95,101.322,0.002777328,0.208981,20.7748,556.146,-0.0337359,0,0
3900,974.75,32.4151,35.5345,161.573,100.791,101.25,0.002591578,0.21049,20.7715,555.165,-0.0417234,0,0
3965,991,33.0178,36.3269,159.366,100.764,101.354,0.00211604,0.219964,20.7572,554.174,-0.0535872,0,0
4030,1007.25,33.3034,35.7878,158.64,101.412,101.928,0.002112824,0.223912,20.7557,553.103,-0.0465827,0,0
4095,1023.5,33.4877,37.8349,158.37,100.905,101.161,0.001785189,0.231871,20.7476,551.992,-0.0232053,0,0
4160,1039.75,33.9154,39.074,155.113,101.379,102.244,0.001769721,0.240187,20.7361,550.861,-0.078008,0,0
4225,1056,34.8288,39.2975,159.15,101.695,102.292,0.00116897,0.252658,20.7217,549.65,-0.0536686,0,0
4290,1072.25,36.002,41.0781,162.733,101.692,101.899,0.001360016,0.267717,20.706,548.309,-0.01869153,0,0
4355,1088.5,37.0617,42.2982,158.852,101.489,102.344,0.001576854,0.286809,20.6835,546.898,-0.07701356,0,0
4420,1104.75,37.8585,44.3081,153.885,101.085,101.674,0.001543981,0.309768,20.6552,545.336,-0.0533077,0,0
4485,1121,39.9927,45.3588,155.241,100.553,99.9554,0.001806988,0.329903,20.6355,543.655,0.0547164,0,0
4550,1137.25,41.107,47.8002,150.464,100.192,98.2562,0.002349203,0.354725,20.6049,541.793,0.17904,0,0
4615,1153.5,43.076,50.1554,149.187,99.9869,98.1675,0.002807137,0.382667,20.5681,539.791,0.168513,0,0
4680,1169.75,44.8016,52.101,148.406,99.8682,96.702,0.003621554,0.404921,20.5435,537.649,0.295627,0,0
4745,1186,46.2808,55.117,148.777,99.8554,97.1761,0.004135223,0.431226,20.5097,535.427,0.249573,0,0
4810,1202.25,48.421,56.6932,152.454,99.8599,96.4875,0.004372709,0.452831,20.4844,533.055,0.315245,0,0
4875,1218.5,49.5241,58.5313,147.354,99.8888,96.6883,0.004542602,0.469266,20.4651,530.703,0.298819,0,0
4940,1234.75,50.9818,59.9495,148.858,99.8826,95.5509,0.004775026,0.476531,20.4521,528.261,0.406833,0,0
5005,1251,52.9433,62.1476,142.976,99.9238,94.3243,0.005848965,0.50198,20.4156,525.708,0.52918,0,0
5070,1267.25,53.4171,63.327,149.88,99.9275,94.7756,0.006696159,0.502359,20.4177,523.176,0.485721,0,0
5135,1283.5,52.4518,59.8719,150.809,99.9308,95.2122,0.005645187,0.435343,20.5048,521.024,0.443851,0,0
5200,1299.75,47.1768,52.4904,155.045,99.9267,97.0047,0.002543174,0.308747,20.6502,519.603,0.272322,0,0
5265,1316,43.0759,46.2215,155.103,99.89,98.1964,0.003370625,0.239523,20.7096,518.672,0.156917,0,0
5330,1332.25,40.4933,42.1604,158.45,99.8599,100.107,0.006101078,0.210313,20.7432,517.961,-0.02267785,0,0
5395,1348.5,37.9993,39.3033,163.404,99.8583,100.812,0.008006767,0.1888,20.7681,517.351,-0.08721184,0,0
5460,1364.75,35.536,36.1732,164.333,99.9193,100.616,0.009146526,0.172373,20.7878,516.78,-0.0637744,0,0
5525,1381,33.7003,34.2052,154.88,100.071,100.24,0.0101151,0.168628,20.7918,516.32,-0.0154389,0,0
5590,1397.25,33.5154,32.6217,160.467,100.329,101.193,0.009474228,0.163825,20.7989,515.84,-0.0787014,0,0
5655,1413.5,31.9397,32.666,161.334,100.651,101.061,0.009400628,0.164244,20.7988,515.399,-0.037296,0,0
5720,1429.75,31.2727,30.5695,157.671,101.015,101.339,0.009759826,0.161528,20.8045,514.999,-0.0293788,0,0
5785,1446,29.6774,31.1717,162.964,101.319,101.551,0.009777038,0.155483,20.8107,514.608,-0.0209975,0,0
5850,1462.25,28.3999,29.1889,161.535,101.551,101.654,0.0138046,0.138407,20.8337,514.258,-0.00925505,0,0
5915,1478.5,26.7777,27.2102,168.142,101.69,101.689,0.0143037,0.136806,20.8336,513.878,0.000130171,0,0
5980,1494.75,25.7024,26.7359,165.282,101.769,101.824,0.0138845,0.13477,20.8389,513.557,-0.004894771,0,0
6045,1511,25.959,26.2714,160.269,101.702,101.678,0.0124933,0.130813,20.8453,513.267,0.002132815,0,0
6110,1527.25,25.5123,26.0995,165.842,101.524,101.519,0.0129547,0.1308202,20.8422,512.947,0.000432072,0,0
6175,1543.5,25.3249,25.272,163.388,101.281,101.216,0.0130395,0.135125,20.8409,512.697,0.005866782,0,0
6240,1559.75,24.4476,24.9946,165.94,101.02,100.662,0.0131936,0.13066,20.8464,512.396,0.0325736,0,0
6305,1576,22.7554,22.4119,163.623,101.289,100.928,,0.0702349,,-0.370337,0.0327622,0,0
6345,1586,21.7859,21.6147,165.904,101.439,101.223,,,,-0.350319,0.019636,0,0
,,,,,,,,,,,,,
,,,,,,,,,,,,,
,,,,,,,,,,,,,
,,,,,,,,,,,,,
,,,,,,,,,,,,,
,,,,,,,,,,,,,
,,,,,,,,,,,,,
,,,,,,,,,,,,,
,,,,,,,,,,,,,
,,,,,,,,,,,,,
,,,,,,,,,,,,,
,,,,,,,,,,,,,
,,,,,,,,,,,,,
,,,,,,,,,,,,,
,,,,,,,,,,,,,
,,,,,,,,,,,,,
,,,,,,,,,,,,,
,,,,,,,,,,,,,
,,,,,,,,,,,,,
,,,,,,,,,,,,,
,,,,,,,,,,,,,
,,,,,,,,,,,,,
,,,,,,,,,,,,,
,,,,,,,,,,,,,
,,,,,,,,,,,,,
,,,,,,,,,,,,,
,,,,,,,,,,,,,
,,,,,,,,,,,,,
,,,,,,,,,,,,,
,,,,,,,,,,,,,
,,,,,,,,,,,,,
,,,,,,,,,,,,,
,,,,,,,,,,,,,
,,,,,,,,,,,,,
,,,,,,,,,,,,,
,,,,,,,,,,,,,
,,,,,,,,,,,,,
,,,,,,,,,,,,,
,,,,,,,,,,,,,
,,,,,,,,,,,,,
,,,,,,,,,,,,,
,,,,,,,,,,,,,
,,,,,,,,,,,,,
,,,,,,,,,,,,,
,,,,,,,,,,,,,
,,,,,,,,,,,,,
,,,,,,,,,,,,,
,,,,,,,,,,,,,
,,,,,,,,,,,,,
,,,,,,,,,,,,,
,,,,,,,,,,,,,
,,,,,,,,,,,,,
,,,,,,,,,,,,,
,,,,,,,,,,,,,
,,,,,,,,,,,,,
,,,,,,,,,,,,,
,,,,,,,,,,,,,
,,,,,,,,,,,,,
,,,,,,,,,,,,,
,,,,,,,,,,,,,
,,,,,,,,,,,,,
,,,,,,,,,,,,,
,,,,,,,,,,,,,
,,,,,,,,,,,,,
,,,,,,,,,,,,,