File: 01_Data/MDF/Cone/MDF_Cone_HF50Scan_210326_R3.csv
Names,Time,Stack TC,Smoke TC,Exh Press,Smoke Comp,Smoke Meas,CO Meter,CO2 Meter,O2 Meter,Sample Mass,Ext Coeff,Start Test,Flame Verif
Chan Gain,,500,500,1,1,1,1,1,1,1,1,1,1
Offset,,0,0,0.138348,0,0,0,0,0,0,0,0,0
Gain,,1,1,25.011,13.5067,16.616,1,1,1,1.00091,1.04608,1,1
Units,sec,C,C,Pa,%,%,%,%,%,g,/m,,
Baseline,,31.6303,33.8686,159.053,100.408,97.2257,-0.001018408,0.0636411,20.9277,0.000750681,0.29553,,
48,11.75,29.0031,31.4468,160.265,100.474,96.8191,-0.000902099,0.0684934,20.9232,623.908,0.340023,0,0
96,23.75,29.7038,31.7343,158.262,100.449,95.5748,-0.000686416,0.06528677,20.9257,623.688,0.456428,0,0
144,35.75,34.3673,41.0412,134.896,100.421,96.6878,0.001662421,0.326831,20.5697,622.527,0.347622,0,1
192,47.75,50.0852,63.9826,134.487,100.404,94.5814,0.003885166,0.672499,20.1872,620.024,0.548233,0,0
240,59.75,56.7853,73.8179,138.562,100.415,90.2814,0.005023807,0.673163,20.2066,617.562,0.976137,0,0
288,71.75,59.9747,76.8282,139.001,100.411,89.7094,0.005232363,0.6185,20.2793,615.25,1.03416,0,0
336,83.75,60.901,76.0947,137.909,100.421,89.0081,0.005037657,0.560911,20.3547,613.108,1.10704,0,0
384,95.75,60.9828,74.4257,141.264,100.438,91.2149,0.004550472,0.516496,20.4068,611.106,0.883887,0,0
432,107.75,60.2905,72.7162,142.547,100.465,92.0343,0.004234574,0.475465,20.4549,609.215,0.804268,0,0
480,119.75,58.9786,71.2748,140.284,100.495,92.7336,0.003628889,0.449568,20.4867,607.473,0.737523,0,0
528,131.75,58.7749,69.9982,141.699,100.532,93.9582,0.003238993,0.427835,20.5086,605.741,0.620565,0,0
576,143.75,57.9897,68.3016,137.492,100.548,95.1894,0.002849871,0.410318,20.5293,604.09,0.502573,0,0
624,155.75,58.4487,68.137,143.082,100.573,94.4333,0.002588945,0.4013969,20.5368,602.438,0.578003,0,0
672,167.75,58.4425,67.2636,139.083,100.537,94.9688,0.002604419,0.392644,20.5467,600.897,0.522845,0,0
720,179.75,57.907,66.6138,138.13,100.495,95.3937,0.002260145,0.388494,20.5486,599.316,0.478041,0,0
768,191.75,57.8017,66.4443,140.232,100.452,95.66,0.002527948,0.383069,20.5526,597.704,0.448554,0,0
816,203.75,58.1908,66.8675,144.221,100.408,95.8263,0.002074182,0.384559,20.5509,596.093,0.428546,0,0
864,215.75,58.1289,66.4505,148.524,100.361,96.0453,0.001893487,0.369839,20.5698,594.521,0.403335,0,0
912,227.75,58.2435,66.0644,142.315,100.352,96.2832,0.001379142,0.355611,20.5848,592.97,0.379775,0,0
960,239.75,57.8805,65.2444,139.756,100.34,96.7056,0.001344333,0.349985,20.5884,591.458,0.338553,0,0
1008,251.75,57.7034,65.0429,144.269,100.333,97.7867,0.001105506,0.342628,20.6034,589.957,0.235861,0,0
1056,263.75,57.0076,64.7485,140.387,100.329,97.6345,0.001269229,0.336808,20.6085,588.566,0.249808,0,0
1104,275.75,57.0189,64.2458,141.077,100.334,97.13,0.000793886,0.332435,20.6129,587.164,0.297765,0,0
1152,287.75,56.801,63.8934,141.967,100.344,97.8734,0.000721348,0.32731,20.6175,585.763,0.228746,0,0
1200,299.75,56.5469,63.5798,143.9,100.352,97.3257,0.000476115,0.322153,20.6208,584.392,0.280988,0,0
1248,311.75,56.1746,63.7125,144.192,100.381,97.6147,0.001011211,0.315182,20.6297,583.091,0.256378,0,0
1296,323.75,56.6113,62.4363,145.969,100.416,97.9337,0.000500887,0.307933,20.6388,581.84,0.229722,0,0
1344,335.75,54.9044,62.1144,147.41,100.446,99.1887,0.000457718,0.302391,20.6445,580.548,0.115589,0,0
1392,347.75,55.5617,61.4953,150.012,100.488,98.5944,0.000339557,0.296234,20.6518,579.327,0.174573,0,0
1440,359.75,55.2335,60.4651,144.526,100.567,98.2663,0.000608558,0.292073,20.6551,578.106,0.212383,0,0
1488,371.75,54.6398,61.1186,145.469,100.625,98.7795,0.000130766,0.286916,20.6644,576.965,0.169851,0,0
1536,383.75,54.1029,59.8862,147.529,100.67,98.5914,-0.000117628,0.281491,20.6675,575.814,0.19144,0,0
1584,395.75,54.3442,59.1587,146.142,100.754,98.9403,-8.49552E-06,0.279122,20.6706,574.693,0.166727,0,0
1632,407.75,53.7455,59.081,148.993,100.852,98.5336,0.000178664,0.272727,20.6785,573.612,0.213452,0,0
1680,419.75,53.6646,58.3263,147.578,100.991,99.1324,0.00030646,0.270415,20.6833,572.491,0.170443,0,0
1728,431.75,53.6699,58.4346,146.937,101.115,99.3738,4.21604E-05,0.267437,20.6854,571.45,0.159357,0,0
1776,443.75,52.8965,57.8885,145.599,101.222,100.258,0.000102072,0.263653,20.6908,570.439,0.0878248,0,0
1824,455.75,52.6243,58.0588,147.645,101.205,98.9154,-7.18042E-05,0.264731,20.6929,569.358,0.2099711,0,0
1872,467.75,52.0113,57.6317,147.414,101.254,99.5178,-8.3095E-05,0.26278,20.6964,568.357,0.158666,0,0
1920,479.75,52.265,57.6005,147.052,101.316,99.1542,-0.000115755,0.260694,20.6958,567.296,0.197927,0,0
1968,491.75,51.7346,57.2116,142.596,101.365,100.071,-5.10523E-05,0.260964,20.6957,566.296,0.117914,0,0
2016,503.75,51.8429,57.0014,149.656,101.4,100.449,-0.000130947,0.260956,20.7,565.285,0.0864726,0,0
2064,515.75,52.0701,56.7537,143.126,101.438,99.4037,4.75168E-05,0.261461,20.6986,564.324,0.185911,0,0
2112,527.75,52.4334,57.4006,144.974,101.496,99.6923,-0.000105991,0.263969,20.6935,563.293,0.164496,0,0
2160,539.75,51.8512,56.7891,143.245,101.531,99.6826,0.000192628,0.265719,20.6925,562.252,0.16855,0,0
2208,551.75,52.3326,57.206,151.94,101.532,99.8586,-0.000171398,0.268233,20.6879,561.231,0.152516,0,0
2256,563.75,51.983,57.3245,148.622,101.559,99.2425,3.1136E-05,0.272844,20.6826,560.26,0.211765,0,0
2304,575.75,52.6028,56.8555,146.399,101.573,100.975,0.000104951,0.274213,20.6835,559.139,0.05417816,0,0
2352,587.75,52.271,57.3747,146.388,101.585,99.245,0.000678953,0.280461,20.6798,558.098,0.213801,0,0
2400,599.75,52.654,57.9363,146.555,101.609,98.9179,0.000106909,0.288521,20.6691,557.037,0.246325,0,0
2448,611.75,52.9095,58.5474,143.226,101.62,99.606,0.000596843,0.294184,20.663,555.876,0.183646,0,0
2496,623.75,53.3423,58.9187,148.892,101.622,98.1735,0.000490517,0.301537,20.6507,554.755,0.316758,0,0
2544,635.75,53.7941,59.5914,145.897,101.638,98.2025,0.000954844,0.311879,20.6384,553.624,0.315544,0,0
2592,647.75,53.8759,60.1143,140.488,101.66,97.8997,0.000916124,0.320392,20.6309,552.373,0.345884,0,0
2640,659.75,54.5866,61.3331,149.057,101.677,97.5711,0.001235193,0.331909,20.6168,551.162,0.378223,0,0
2688,671.75,55.023,61.996,144.59,101.662,97.0473,0.001536867,0.341178,20.6057,549.901,0.426278,0,0
2736,683.75,55.3367,62.81,142.864,101.649,96.1569,0.001316024,0.350264,20.5949,548.569,0.509669,0,0
2784,695.75,56.4645,63.7461,142.828,101.632,96.0088,0.001963964,0.360342,20.58,547.268,0.522284,0,0
2832,707.75,56.8647,64.5373,147.132,101.618,95.6828,0.001923436,0.372189,20.5648,545.867,0.552272,0,0
2880,719.75,57.0882,65.1758,150.495,101.612,95.4313,0.002133662,0.380104,20.555,544.446,0.575828,0,0
2928,731.75,58.4387,66.1155,147.037,101.627,94.3167,0.002299841,0.386733,20.5462,542.994,0.684968,0,0
2976,743.75,58.3087,66.3249,142.17,101.616,95.8445,0.002711255,0.39314,20.5366,541.523,0.536549,0,0
3024,755.75,58.5402,66.8597,142.044,101.62,94.6494,0.002767794,0.400703,20.5264,540.072,0.652029,0,0
3072,767.75,59.5574,67.6098,141.793,101.604,93.1758,0.003060058,0.408184,20.5148,538.53,0.794637,0,0
3120,779.75,60.7413,68.5339,144.795,101.564,93.3604,0.003422978,0.423928,20.494,536.959,0.772829,0,0
3168,791.75,60.8852,69.8044,142.212,101.525,92.8933,0.004218865,0.430621,20.4866,535.317,0.815307,0,0
3216,803.75,62.3417,69.924,141.951,101.475,91.2529,0.004021765,0.443291,20.4693,533.666,0.974286,0,0
3264,815.75,62.8212,71.3619,142.716,101.465,91.9948,0.004831502,0.451269,20.4585,531.974,0.899095,0,0
3312,827.75,63.5284,72.6295,136.414,101.444,92.8964,0.005759911,0.462592,20.4439,530.263,0.807664,0,0
3360,839.75,64.1057,73.2453,143.663,101.437,92.8893,0.005862508,0.468716,20.4331,528.581,0.807769,0,0
3408,851.75,64.968,74.6558,138.088,101.437,91.6069,0.005862878,0.477198,20.4214,526.79,0.935297,0,0
3456,863.75,65.9562,75.6192,137.822,101.416,90.6064,0.006049678,0.487574,20.4049,525.038,1.0342,0,0
3504,875.75,66.6934,76.6445,136.895,101.411,90.3757,0.006657899,0.488828,20.3996,523.296,1.05715,0,0
3552,887.75,66.6035,76.5678,139.031,101.392,90.2504,0.006596118,0.476557,20.4113,521.575,1.06819,0,0
3600,899.75,65.8946,74.9286,141.171,101.354,90.5131,0.004441121,0.441394,20.4546,520.083,1.03802,0,0
3648,911.75,64.6639,72.5309,141.991,101.281,93.3193,0.002340008,0.380329,20.5315,518.812,0.751283,0,0
3696,923.75,61.1999,67.2317,148.357,101.2,95.2741,0.001149462,0.281349,20.6453,517.941,0.553731,0,0
3744,935.75,58.1202,61.847,147.674,101.109,96.9251,0.000864057,0.213238,20.7228,517.451,0.387813,0,0
3792,947.75,54.5555,57.4933,151.811,101.035,98.8576,0.001098326,0.179822,20.7628,517.121,0.199888,0,0
3840,959.75,52.3829,54.2756,148.302,101.023,98.6887,0.001472149,0.165418,20.7815,516.81,0.214526,0,0
3888,971.75,50.4562,52.0159,152.617,101.031,99.0244,0.001521073,0.155504,20.7946,516.59,0.18404,0,0
3936,983.75,49.1181,50.8507,152.578,101.006,98.6629,0.001740052,0.150577,20.8017,516.32,0.215358,0,0
3984,995.75,47.3542,49.0371,159.092,100.995,98.6979,0.001858242,0.144499,20.811,516.13,0.211131,0,0
4032,1007.75,47.0397,47.8979,153.194,101.057,98.7998,0.002590242,0.140432,20.8162,515.94,0.207313,0,0
4080,1019.75,46.2283,47.0529,153.716,101.125,98.71,0.002895117,0.138096,20.8229,515.79,0.221752,0,0
4128,1031.75,45.1373,45.9523,146.807,101.219,98.4981,0.003258382,0.142877,20.817,515.619,0.250075,0,0
4176,1043.75,43.9976,45.6389,154.454,101.352,98.7455,0.003933792,0.151905,20.8037,515.389,0.239112,0,0
4224,1055.75,43.6926,44.559,147.831,101.445,98.9687,0.00395852,0.146426,20.8097,515.269,0.226796,0,0
4272,1067.75,42.1122,43.6377,152.384,101.526,99.0143,0.00407633,0.139369,20.7481,515.139,0.22987,0,0
4320,1079.75,41.7005,43.0258,159.122,101.566,98.7095,0.003987488,0.135771,20.1727,514.959,0.261732,0,0
4368,1091.75,40.8569,42.0538,154.355,101.596,98.6309,0.004113278,0.135737,20.7881,514.849,0.271797,0,0
4416,1103.75,40.9839,42.0393,159.075,101.62,98.5346,0.004257404,0.136032,20.794,514.608,0.282924,0,0
4464,1115.75,40.2197,42.0913,150.727,101.648,98.8961,0.004254242,0.136002,20.7931,514.488,0.251885,0,0
4512,1127.75,39.8968,42.3135,157.494,101.681,99.0716,0.004214373,0.136212,20.7917,514.358,0.238522,0,0
4560,1139.75,40.2491,41.7784,154.302,101.739,98.7283,0.004443037,0.136594,20.7937,514.228,0.275616,0,0
4608,1151.75,39.6687,41.1065,157.277,101.777,99.2333,0.004333057,0.136695,20.7928,514.068,0.232214,0,0
4656,1163.75,39.3757,40.8988,155.195,101.832,98.6654,0.004433928,0.136991,20.7946,513.918,0.28986,0,0
4704,1175.75,38.7163,41.0223,155.214,101.889,98.7166,,,,513.798,0.290259,0,0
4723,1180.5,38.7337,40.6211,157.266,101.888,98.8677,,,,513.728,0.276075,0,0