File: 01_Data/MDF/Cone/MDF_Cone_HF25Scalar_210323_R1.csv
LABORATORY,FSRI
TEST IDENT,MDF-HF25-1
OPERATOR,Dow
MATERIAL,3/4 inch MDF
ORIENTATION,Horizontal
HEAT FLUX,25
SURF AREA,0.01
C FACTOR,0.0386052
SPEC HOLDER DIFF,-86.9
SPECIMEN MASS,141.7
SCAN TIME,0.25
O2 DELAY TIME,11
CO DELAY TIME,11
CO2 DELAY TIME,8
FLOW FACTOR,1
SCAN COUNT,6410
TIME TO IGN,136.75
END OF TEST SCAN,5930
END OF TEST TIME,1482.5
TEST STATUS,1
PRE TEST CMT,"Nominal thickness: 3/4 inches"