File: 01_Data/MDF/Cone/MDF_Cone_HF75Scalar_210325_R1.csv
LABORATORY,FSRI
TEST IDENT,MDF_HF75_1
OPERATOR,Morrissey
MATERIAL,3/4 in MDF
ORIENTATION,Horizontal
HEAT FLUX,75
SURF AREA,0.01
C FACTOR,0.0386052
SPEC HOLDER DIFF,-97.45
SPECIMEN MASS,143.59
SCAN TIME,0.25
O2 DELAY TIME,11
CO DELAY TIME,11
CO2 DELAY TIME,8
FLOW FACTOR,1
SCAN COUNT,6026
TIME TO IGN,16.25
END OF TEST SCAN,5546
END OF TEST TIME,1386.5
TEST STATUS,1
PRE TEST CMT,Test w/o retainer grid or frame