File: 01_Data/MDF/Cone/MDF_Cone_HF75Scan_210325_R1.csv
Names,Time,Stack TC,Smoke TC,Exh Press,Smoke Comp,Smoke Meas,CO Meter,CO2 Meter,O2 Meter,Sample Mass,Ext Coeff,Start Test,Flame Verif
Chan Gain,,500,500,1,1,1,1,1,1,1,1,1,1
Offset,,0,0,0.138348,0,0,0,0,0,0,0,0,0
Gain,,1,1,25.011,13.5067,16.616,1,1,1,1.00091,1.04608,1,1
Units,sec,C,C,Pa,%,%,%,%,%,g,/m,,
Baseline,,30.8264,34.6272,160.947,101.447,101.358,0.000472199,0.08382488,20.8489,-1.15146,0.008094464,,
61,15,31.4721,35.9808,161.016,101.636,98.5534,0.000504719,0.093607,20.8302,611.246,0.282666,0,0
122,30.25,54.5496,73.9508,134.187,101.669,93.2676,0.006693294,0.637084,19.9555,607.803,0.791481,0,0
183,45.5,67.5276,91.5875,130.939,101.665,88.0502,0.009511205,0.846879,19.9314,603.81,1.3193,0,0
244,60.75,69.7464,92.156,141.001,101.643,90.9467,0.009237356,0.765525,20.0862,600.276,1.02037,0,0
305,76,69.0361,87.7712,139.008,101.552,91.3422,0.007929238,0.662046,20.2032,597.184,0.972321,0,0
366,91.25,67.8843,84.4197,143.772,101.407,95.1914,0.006822008,0.600062,20.2578,594.261,0.580438,0,0
427,106.5,67.5644,82.9519,141.309,101.155,95.0023,0.006175245,0.55102,20.3159,591.578,0.575872,0,0
488,121.75,67.2229,81.1489,143.169,100.9,96.9342,0.00569336,0.52468,20.3334,588.966,0.367963,0,0
549,137,67.7371,82.429,137.428,100.593,94.9648,0.00527875,0.51648,20.3366,586.374,0.528353,0,0
610,152.25,68.6861,81.7494,139.013,100.278,95.8314,0.005403274,0.510697,20.3357,583.801,0.416224,0,0
671,167.5,69.6168,82.3707,137.514,100.007,97.7354,0.004638422,0.502151,20.3564,581.099,0.210801,0,0
732,182.75,69.6102,82.4917,134.228,99.8138,97.3217,0.004390226,0.487249,20.3701,578.507,0.232015,0,0
793,198,69.7614,82.4184,143.37,99.7334,97.8784,0.004061569,0.485863,20.3739,575.944,0.172275,0,0
854,213.25,69.6326,80.9427,141.783,99.7268,97.7258,0.004049453,0.465875,20.391,573.542,0.185989,0,0
915,228.5,69.5795,80.7312,138.101,99.8789,97.777,0.003630113,0.454421,20.4061,571.25,0.195166,0,0
976,243.75,69.652,80.0071,137.665,100.059,97.671,0.003894142,0.439716,20.4229,568.988,0.22165,0,0
1037,259,68.5221,78.8496,141.152,100.266,99.0838,0.003475809,0.4287844,20.4288,566.926,0.108872,0,0
1098,274.25,68.4188,78.9721,136.492,100.565,99.0559,0.003279987,0.41433,20.4489,564.794,0.138725,0,0
1159,289.5,67.9533,77.5903,144.076,100.821,100.554,0.002778738,0.403943,20.4652,562.822,0.0242848,0,0
1220,304.75,67.426,76.5354,144.611,100.98,100.542,0.002133919,0.391615,20.4791,560.901,0.0399107,0,0
1281,320,67.0212,76.1676,144.147,101.059,101.01,0.002303513,0.382048,20.4874,558.999,0.004445539,0,0
1342,335.25,66.7539,74.6834,143.896,101.085,101.128,0.002460291,0.375491,20.4939,557.217,-0.00396945,0,0
1403,350.5,66.4352,74.4559,148.442,100.982,101.102,0.002294041,0.369052,20.5019,555.416,-0.0108615,0,0
1464,365.75,65.7077,73.4183,142.706,100.8,101.193,0.002033343,0.363531,20.5133,553.734,-0.0357118,0,0
1525,381,64.9234,73.3931,142.982,100.598,101.112,0.001915874,0.359085,20.5188,552.033,-0.046757,0,0
1586,396.25,64.7752,72.4121,145.638,100.509,100.745,0.002079697,0.355736,20.5228,550.351,-0.0215868,0,0
1647,411.5,65.5108,72.9211,142.571,100.989,101.552,0.002208091,0.356693,20.5226,548.599,-0.0510019,0,0
1708,426.75,64.6806,72.6549,151.687,101.389,100.977,0.002092922,0.357546,20.5201,546.908,0.0374076,0,0
1769,442,64.9811,73.3599,144.812,101.464,101.096,0.002218692,0.362802,20.5127,545.196,0.0333344,0,0
1830,457.25,65.5541,72.6813,141.808,101.328,100.876,0.002230718,0.370045,20.5048,543.515,0.0410597,0,0
1891,472.5,64.9584,73.3255,139.545,100.951,100.208,0.001983551,0.375753,20.4986,541.713,0.0677535,0,0
1952,487.75,65.7871,74.0593,137.446,101.167,99.964,0.002238799,0.384247,20.4877,539.901,0.109765,0,0
2013,503,66.6442,75.0651,147.539,101.363,99.9377,0.002793932,0.390087,20.4814,538.05,0.129964,0,0
2074,518.25,66.3884,74.8741,143.93,101.548,99.0457,0.002841555,0.396058,20.4731,536.238,0.228932,0,0
2135,533.5,66.3032,74.9957,140.58,101.728,99.3642,0.002877746,0.401016,20.4684,534.346,0.215776,0,0
2196,548.75,67.2205,76.0823,140.525,101.766,98.6309,0.00350556,0.405366,20.4622,532.455,0.28716,0,0
2257,564,67.3568,75.9062,138.93,101.658,98.5686,0.003184213,0.406522,20.4607,530.573,0.283147,0,0
2318,579.25,67.5262,75.9889,147.379,101.412,98.6299,0.003348065,0.407417,20.4616,528.721,0.255273,0,0
2379,594.5,67.6565,76.0912,146.167,101.054,98.7136,0.003311079,0.405948,20.4616,526.93,0.214986,0,0
2440,609.75,66.7975,75.881,140.535,100.635,97.4165,0.003504457,0.405,20.4622,525.068,0.298291,0,0
2501,625,67.6811,76.434,143.787,100.263,97.128,0.00335454,0.409078,20.4567,523.256,0.29147,0,0
2562,640.25,68.1204,76.9112,136.504,100.015,96.3552,0.003407762,0.416188,20.4484,521.425,0.342109,0,0
2623,655.5,67.9617,77.2644,144.363,99.9152,95.5707,0.004079126,0.421323,20.4368,519.573,0.407926,0,0
2684,670.75,68.7688,78.1942,143.779,99.9572,96.1179,0.00409066,0.42984,20.4229,517.681,0.359402,0,0
2745,686,69.5015,78.4941,142.643,100.076,94.6326,0.004557599,0.438975,20.413,515.759,0.513155,0,0
2806,701.25,70.0048,79.2657,138.793,100.294,94.4769,0.004903198,0.447205,20.3951,513.768,0.548271,0,0
2867,716.5,70.3654,80.0312,138.439,100.559,94.9526,0.005002466,0.45537,20.3902,511.806,0.52637,0,0
2928,731.75,71.1762,81.178,141.763,100.85,95.7335,0.00501798,0.470517,20.3625,509.824,0.477768,0,0
2989,747,71.3358,81.7382,138.982,101.072,94.8395,0.005263664,0.473361,20.3619,507.822,0.584013,0,0
3050,762.25,71.5983,81.3362,137.152,101.239,94.373,0.005046695,0.467196,20.3704,505.921,0.644443,0,0
3111,777.5,70.1528,79.135,140.773,101.249,96.8318,0.003651158,0.426037,20.4312,504.269,0.409323,0,0
3172,792.75,67.6406,74.7468,142.247,101.19,99.1248,0.002360921,0.352623,20.5293,503.138,0.189256,0,0
3233,808,63.3809,68.3193,148.602,101.043,101.972,0.001694277,0.25068,20.6482,502.517,-0.0839867,0,0
3294,823.25,59.5839,63.0884,150.292,100.851,102.241,0.001841236,0.192242,20.7032,502.217,-0.125615,0,0
3355,838.5,57.1862,60.0603,151.001,100.7,102.684,0.002152862,0.17468,20.7216,501.877,-0.178951,0,0
3416,853.75,55.2014,57.7426,150.985,100.679,101.691,0.002403504,0.165776,20.7338,501.627,-0.0917473,0,0
3477,869,54.3394,56.4957,151.385,101.109,102.073,0.002348798,0.161993,20.7351,501.386,-0.0871285,0,0
3538,884.25,53.526,55.7129,152.567,101.435,102.315,0.002602311,0.167391,20.7259,501.146,-0.0793414,0,0
3599,899.5,52.3446,54.3958,154.5,101.582,102.743,0.002947625,0.159197,20.7364,501.026,-0.104306,0,0
3660,914.75,51.5608,54.1336,152.487,101.584,103.053,0.003196513,0.164829,20.7273,500.736,-0.131748,0,0
3721,930,50.3708,53.3382,151.811,101.474,102.233,0.003569029,0.161884,20.7359,500.516,-0.06843,0,0
3782,945.25,49.5696,52.7214,153.552,101.213,102.19,0.003161718,0.15717,20.7397,500.285,-0.0881025,0,0
3843,960.5,49.4932,52.4282,153.126,101.122,102.51,0.003781054,0.157453,20.7399,500.115,-0.125097,0,0
3904,975.75,48.8136,51.9065,153.561,101.241,102.132,0.003592483,0.155833,20.7423,499.945,-0.0804526,0,0
3965,991,48.5678,51.6878,150.772,101.39,102.061,0.00386676,0.155263,20.7425,499.755,-0.0605486,0,0
4026,1006.25,47.9411,51.4108,153.797,101.58,102.547,0.004326021,0.160546,20.7362,499.545,-0.0869032,0,0
4087,1021.5,48.0399,51.6677,152.438,101.727,102.306,0.004213318,0.160419,20.7368,499.415,-0.0521239,0,0
4148,1036.75,47.9493,51.0927,152.648,101.847,102.43,0.004423863,0.16297,20.7353,499.224,-0.0523643,0,0
4209,1052,47.8579,51.1833,150.722,101.902,102.552,0.004611434,0.161456,20.7391,498.984,-0.0583587,0,0
4270,1067.25,47.8916,51.4296,153.005,101.901,102.961,0.00502709,0.162237,20.7394,498.864,-0.0950211,0,0
4331,1082.5,46.7711,50.4804,157.817,101.816,102.375,0.005257987,0.160535,20.7412,498.674,-0.0502347,0,0
4392,1097.75,46.2266,50.3735,149.92,101.732,102.671,0.005957732,0.156629,20.7461,498.524,-0.0842842,0,0
4453,1113,46.2259,49.7266,152.842,101.553,101.933,0.005959837,0.15201,20.749,498.294,-0.0342097,0,0
4514,1128.25,45.8351,49.8975,154.21,101.339,101.815,0.006285038,0.151329,20.7523,498.133,-0.0430097,0,0
4575,1143.5,45.4953,49.2226,150.656,101.126,101.797,0.006784587,0.150897,20.753,498.013,-0.0607171,0,0
4636,1158.75,45.6963,48.6464,155.996,100.954,101.484,0.006595829,0.150498,20.7528,497.803,-0.0480825,0,0
4697,1174,45.6532,49.0401,155.129,100.821,101.528,0.00661726,0.150732,20.7538,497.643,-0.06413345,0,0
4758,1189.25,44.9805,48.7481,157.211,100.7,101.366,0.00750655,0.150128,20.7544,497.473,-0.0605007,0,0
4819,1204.5,45.4229,48.8237,154.136,100.637,101.139,0.007218329,0.149863,20.7559,497.313,-0.0456988,0,0
4880,1219.75,45.1379,48.9968,154.642,100.457,101.162,0.008174793,0.149507,20.7545,497.133,-0.0642172,0,0
4941,1235,44.551,48.7948,153.652,100.338,100.651,0.008113008,0.154553,20.7429,497.012,-0.0285388,0,0
5002,1250.25,44.3686,48.5391,154.368,100.204,100.579,0.00830093,0.158719,20.7408,496.842,-0.0343156,0,0
5063,1265.5,44.3318,48.3839,153.349,100.17,100.827,0.008254225,0.15186,20.7542,496.712,-0.059959,0,0
5124,1280.75,44.5231,48.4341,155.076,100.115,100.848,0.009012396,0.153075,20.7525,496.522,-0.0669671,0,0
5185,1296,43.9289,48.348,155.508,100.104,100.731,0.008669248,0.148344,20.7577,496.332,-0.0572855,0,0
5246,1311.25,43.926,47.5055,158.673,100.078,100.585,0.009020936,0.146755,20.7613,496.182,-0.0463062,0,0
5307,1326.5,43.4373,47.8404,149.018,100.075,100.654,0.009313322,0.147225,20.7609,496.112,-0.0529359,0,0
5368,1341.75,43.8587,48.2649,154.784,100.078,100.425,0.009175635,0.148306,20.7619,495.881,-0.0318449,0,0
5429,1357,43.8093,47.5504,153.816,100.093,100.819,0.009550443,0.146757,20.761,495.691,-0.0663302,0,0
5490,1372.25,43.7182,48.1856,154.664,100.139,100.828,0.009443047,0.148809,20.7593,495.571,-0.0629681,0,0
5551,1387.5,43.48069,48.0644,155.743,100.158,100.5,0.009517537,0.149225,20.7574,495.361,-0.0312023,0,0
5612,1402.75,43.2028,47.467,154.699,100.187,100.751,0.009754076,0.14661,20.7604,495.251,-0.0515321,0,0
5673,1418,43.7473,47.5263,159.001,100.19,100.54,0.0100636,0.146574,20.7558,495.091,-0.0319898,0,0
5734,1433.25,43.2822,47.1233,149.656,100.218,100.787,0.009626052,0.146776,20.7565,494.921,-0.0519419,0,0
5795,1448.5,42.9386,47.0341,156.479,100.217,101.004,0.0100316,0.147005,20.7574,494.76,-0.0717472,0,0
5856,1463.75,43.0347,46.6098,154.377,100.24,100.787,0.009835996,0.145946,20.758,494.58,-0.0499801,0,0
5917,1479,42.9924,47.7276,158.2,100.298,101.361,0.0104436,0.145479,20.7589,494.46,-0.0967283,0,0
5978,1494.25,42.7283,47.2986,151.533,100.364,100.845,0.0109335,0.145222,20.7607,494.31,-0.0439378,0,0
6026,1506.25,42.6833,46.9529,155.1,100.433,100.865,,,,494.2,-0.0394072,0,0