File: 01_Data/Black_PMMA/MCC/Black_PMMA_MCC_30K_min_220325_R1.txt
Sample ID:	C:\MCC\MCC Cal\Test\Black_PMMA_MCC_30K_min_220325_R1.txt
Sample Weight (mg):	4.35
Heating Rate (C/s):	0.5
Combustor Temp (C):	900
N2 Flow Rate (cc/min):	80
O2 Flow Rate (cc/min):	20
Calibration File:	C:\MCC\MCC Cal\Coeff1 JN10440_30_210304.txt.txt
T Correction Coefficients:	0	1.024463	0
Time Shift (s):	14
*
Time (s)	Temperature (C)	N2 flow rate (cc/min)	O2 flow rate (cc/min)	Flow Rate (cc/min)	Oxygen (%)	HRR (W/g)	Heating rate (C/s)
0.000	109.421	79.998	19.993	103.667	19.963	-0.091	0.022
8.000	109.406	80.002	19.994	103.676	19.964	-0.183	0.022
16.000	109.579	80.004	19.994	103.781	19.950	0.922	0.065
24.000	110.071	80.003	19.996	103.810	19.936	1.907	0.077
32.001	111.017	80.003	19.995	103.869	19.932	2.222	0.153
40.000	112.398	80.003	19.995	103.878	19.926	2.718	0.175
48.000	114.226	80.001	19.994	103.892	19.920	3.118	0.216
56.000	116.397	80.001	19.995	103.874	19.924	2.820	0.301
64.000	118.992	80.002	19.993	103.905	19.923	2.907	0.324
72.000	121.818	80.002	19.994	103.923	19.919	3.237	0.373
80.000	124.886	80.003	19.995	103.945	19.923	2.933	0.376
88.000	128.157	80.001	19.994	103.933	19.917	3.376	0.417
96.000	131.607	80.002	19.993	103.930	19.922	2.976	0.425
104.000	135.212	80.004	19.994	103.941	19.917	3.366	0.441
112.000	138.973	80.003	19.994	103.926	19.922	2.985	0.483
120.000	142.727	79.999	19.995	103.935	19.906	4.186	0.482
128.000	146.652	80.000	19.994	103.899	19.899	4.722	0.504
136.000	150.574	80.002	19.995	103.938	19.898	4.770	0.478
144.000	154.483	80.000	19.994	103.910	19.893	5.136	0.503
152.000	158.471	80.000	19.994	103.912	19.883	5.901	0.493
160.000	162.455	80.002	19.995	103.905	19.869	6.909	0.469
168.000	166.478	80.003	19.994	103.907	19.855	7.982	0.540
176.000	170.415	80.000	19.994	103.901	19.846	8.625	0.495
184.000	174.316	80.001	19.994	103.896	19.848	8.512	0.481
192.000	178.280	80.003	19.994	103.898	19.840	9.107	0.509
200.000	182.278	80.001	19.994	103.897	19.840	9.104	0.498
208.001	186.163	80.000	19.996	103.895	19.845	8.748	0.466
216.000	190.106	80.001	19.995	103.896	19.845	8.724	0.498
224.000	194.069	80.001	19.994	103.870	19.845	8.721	0.489
232.000	197.971	79.999	19.993	103.893	19.842	8.925	0.505
240.000	201.892	80.000	19.994	103.884	19.840	9.104	0.521
248.000	205.883	80.003	19.994	103.870	19.835	9.432	0.499
256.000	209.839	80.001	19.994	103.891	19.833	9.619	0.466
264.000	213.809	80.001	19.994	103.866	19.831	9.757	0.489
272.000	217.831	80.003	19.995	103.870	19.830	9.847	0.504
280.000	221.838	80.001	19.994	103.887	19.831	9.764	0.504
288.000	225.913	80.001	19.994	103.859	19.834	9.518	0.521
296.000	229.978	80.001	19.995	103.861	19.833	9.625	0.516
304.000	234.059	80.000	19.996	103.861	19.836	9.359	0.502
312.000	238.101	80.000	19.994	103.865	19.837	9.296	0.522
320.000	242.050	80.001	19.993	103.861	19.843	8.866	0.544
328.000	246.023	80.001	19.995	103.855	19.851	8.270	0.524
336.000	249.990	80.003	19.994	103.876	19.862	7.476	0.505
344.000	253.936	80.004	19.993	103.856	19.871	6.747	0.474
352.000	257.966	80.002	19.994	103.843	19.877	6.342	0.534
360.000	261.897	80.000	19.995	103.832	19.891	5.314	0.487
368.000	265.831	80.000	19.994	103.858	19.894	5.042	0.468
376.000	269.839	80.000	19.994	103.851	19.890	5.341	0.495
384.000	273.833	80.003	19.996	103.854	19.888	5.487	0.514
392.000	277.779	80.001	19.996	103.841	19.874	6.534	0.487
400.000	281.708	80.002	19.994	103.834	19.863	7.359	0.455
408.000	285.667	80.002	19.993	103.847	19.852	8.172	0.465
416.000	289.610	80.002	19.995	103.843	19.838	9.245	0.481
424.000	293.685	80.003	19.993	103.851	19.823	10.342	0.473
432.000	297.627	80.001	19.994	103.830	19.799	12.123	0.496
440.000	301.571	80.001	19.994	103.865	19.773	14.093	0.487
448.000	305.409	80.004	19.995	103.860	19.743	16.313	0.465
456.000	309.313	80.000	19.995	103.858	19.684	20.739	0.495
464.000	313.262	80.001	19.995	103.862	19.614	25.906	0.465
472.000	317.137	80.002	19.995	103.861	19.516	33.242	0.490
480.000	321.039	80.002	19.995	103.903	19.393	42.449	0.488
488.000	325.000	80.004	19.995	103.929	19.247	53.315	0.499
496.000	328.874	80.002	19.994	103.941	19.067	66.779	0.478
504.000	332.902	80.002	19.994	103.968	18.862	82.041	0.492
512.000	336.861	80.003	19.995	103.983	18.653	97.641	0.484
520.000	340.908	80.001	19.994	103.995	18.454	112.544	0.505
528.000	345.017	80.003	19.994	104.021	18.257	127.277	0.502
536.000	349.174	80.002	19.995	104.063	18.057	142.246	0.519
544.000	353.354	80.000	19.994	104.068	17.827	159.445	0.554
552.000	357.508	80.003	19.993	104.091	17.594	176.735	0.515
560.000	361.538	80.001	19.994	104.076	17.409	190.510	0.512
568.000	365.581	80.000	19.995	104.059	17.342	195.448	0.505
576.000	369.617	80.002	19.996	104.044	17.410	190.395	0.526
584.000	373.721	80.002	19.995	104.053	17.577	177.819	0.556
592.000	377.705	79.999	19.995	103.932	17.892	154.356	0.517
600.000	381.699	79.999	19.995	103.920	18.240	128.294	0.492
608.000	385.786	80.001	19.995	103.909	18.540	105.972	0.513
616.000	389.895	80.003	19.994	103.887	18.811	85.738	0.515
624.000	394.009	80.000	19.994	103.861	19.062	67.019	0.528
632.000	398.104	80.001	19.995	103.838	19.281	50.713	0.520
640.000	402.107	80.002	19.995	103.815	19.489	35.175	0.488
648.000	406.079	80.002	19.995	103.812	19.659	22.540	0.484
656.000	410.024	80.002	19.995	103.779	19.783	13.331	0.473
664.000	413.961	80.000	19.995	103.780	19.877	6.354	0.500
672.000	417.855	80.000	19.994	103.787	19.941	1.574	0.523
680.000	421.684	80.001	19.994	103.794	19.981	-1.393	0.452
688.000	425.611	80.001	19.993	103.788	20.006	-3.251	0.471
696.000	429.555	80.000	19.995	103.792	20.026	-4.799	0.515
704.000	433.448	80.001	19.995	103.793	20.036	-5.473	0.513
712.000	437.396	80.003	19.994	103.781	20.041	-5.913	0.473
720.000	441.344	80.002	19.995	103.782	20.043	-6.006	0.487
728.000	445.321	80.002	19.994	103.762	20.046	-6.217	0.488
736.000	449.389	80.003	19.995	103.778	20.044	-6.131	0.553
744.000	453.441	80.000	19.994	103.796	20.046	-6.234	0.511
752.000	457.644	80.000	19.996	103.805	20.050	-6.573	0.538
760.001	461.963	80.000	19.995	103.780	20.043	-6.034	0.506
768.000	466.259	80.002	19.993	103.805	20.047	-6.358	0.541
776.000	470.506	80.000	19.996	103.787	20.050	-6.545	0.550
784.000	474.907	80.001	19.994	103.772	20.048	-6.372	0.579
792.000	479.111	80.002	19.995	103.783	20.051	-6.603	0.489
800.000	483.321	80.001	19.994	103.785	20.054	-6.881	0.528
808.000	487.423	80.003	19.994	103.789	20.058	-7.118	0.495
816.000	491.352	80.003	19.994	103.752	20.059	-7.210	0.478
824.000	495.303	79.999	19.996	103.773	20.063	-7.495	0.493
832.001	499.177	80.000	19.994	103.715	20.057	-7.056	0.465
840.000	503.068	80.001	19.995	103.773	20.055	-6.937	0.452
848.000	506.928	80.002	19.995	103.767	20.058	-7.110	0.441
856.000	510.858	80.000	19.995	103.781	20.060	-7.270	0.465
864.000	514.772	80.001	19.994	103.753	20.059	-7.212	0.504
872.000	518.879	80.003	19.993	103.783	20.072	-8.156	0.448
880.000	522.927	80.002	19.995	103.784	20.065	-7.659	0.443
888.000	526.924	80.001	19.994	103.782	20.062	-7.420	0.266
896.000	531.350	80.002	19.993	103.785	20.065	-7.627	0.432
904.000	535.718	80.002	19.996	103.776	20.062	-7.446	0.540
912.000	540.005	80.001	19.994	103.779	20.060	-7.327	0.556
920.000	544.155	80.001	19.996	103.780	20.062	-7.409	0.540
928.000	548.344	79.999	19.995	103.781	20.064	-7.560	0.544
936.000	552.399	80.001	19.995	103.778	20.061	-7.360	0.506
944.000	556.542	80.003	19.995	103.799	20.063	-7.515	0.501
952.000	560.615	80.003	19.995	103.778	20.061	-7.388	0.507
960.000	564.745	80.003	19.994	103.783	20.067	-7.814	0.508
968.000	568.762	80.003	19.994	103.780	20.068	-7.859	0.515
976.000	572.811	80.002	19.993	103.772	20.071	-8.096	0.463
984.000	576.891	80.001	19.993	103.795	20.065	-7.655	0.511
992.000	580.907	80.000	19.994	103.762	20.071	-8.092	0.505
1000.000	584.823	80.000	19.994	103.770	20.077	-8.561	0.480
1008.000	588.829	80.001	19.995	103.772	20.074	-8.318	0.502
1016.000	593.011	80.001	19.995	103.787	20.072	-8.170	0.548
1024.000	597.177	80.002	19.995	103.784	20.070	-8.039	0.522
1032.000	601.384	80.002	19.994	103.774	20.071	-8.085	0.534
1040.000	605.569	80.002	19.995	103.767	20.074	-8.340	0.541
1048.000	609.838	80.004	19.993	103.759	20.079	-8.708	0.541
1056.000	614.124	80.001	19.994	103.775	20.073	-8.285	0.533
1064.000	618.393	80.000	19.994	103.801	20.079	-8.677	0.534
1072.000	622.564	80.001	19.993	103.764	20.082	-8.927	0.535
1080.000	626.830	80.002	19.995	103.757	20.081	-8.826	0.550
1088.000	630.962	80.000	19.995	103.778	20.087	-9.277	0.515
1096.000	635.051	80.002	19.995	103.772	20.086	-9.199	0.493
1104.001	639.136	80.002	19.995	103.759	20.084	-9.086	0.526
1112.000	643.085	80.001	19.996	103.767	20.085	-9.172	0.474
1120.000	647.062	80.001	19.995	103.773	20.077	-8.572	0.515
1128.000	651.048	80.002	19.994	103.753	20.083	-9.033	0.480
1136.000	654.979	80.001	19.993	103.758	20.079	-8.742	0.521
1144.001	659.002	80.001	19.994	103.757	20.078	-8.642	0.496
1152.000	663.081	80.001	19.993	103.746	20.082	-8.915	0.626
1160.000	667.324	80.000	19.994	103.777	20.082	-8.910	0.524
1168.001	671.595	80.000	19.993	103.772	20.085	-9.171	0.547
1176.000	675.913	80.000	19.993	103.769	20.086	-9.221	0.545
1184.000	680.267	80.002	19.994	103.752	20.085	-9.182	0.551
1192.000	684.535	80.001	19.994	103.766	20.083	-9.007	0.543
1200.001	688.792	80.001	19.995	103.765	20.083	-9.009	0.547
1208.000	693.037	80.001	19.993	103.761	20.086	-9.215	0.553
1216.000	697.239	79.998	19.993	103.757	20.088	-9.407	0.546
1224.000	701.440	80.000	19.994	103.778	20.083	-9.004	0.532
1232.001	705.658	80.002	19.994	103.764	20.083	-9.035	0.535
1240.001	709.943	80.000	19.994	103.760	20.085	-9.166	0.515
1248.000	714.161	79.999	19.993	103.756	20.092	-9.664	0.544
1256.000	718.395	80.001	19.992	103.777	20.088	-9.339	0.523
1264.000	722.586	80.001	19.994	103.763	20.091	-9.607	0.493
1272.000	726.807	80.001	19.994	103.758	20.090	-9.532	0.518
1280.000	731.008	80.003	19.994	103.757	20.090	-9.522	0.544
1288.000	735.147	80.002	19.994	103.736	20.084	-9.101	0.561
1296.000	739.261	79.999	19.995	103.766	20.090	-9.535	0.507
1304.000	743.395	80.001	19.994	103.747	20.088	-9.349	0.519
1304.500	743.613	80.001	19.994	103.745	20.089	-9.453	0.500