File: 01_Data/Black_PMMA/MCC/Black_PMMA_MCC_30K_min_220325_R2.txt
Sample ID:	C:\MCC\MCC Cal\Test\Black_PMMA_MCC_30K_min_220325_R2.txt
Sample Weight (mg):	4.17
Heating Rate (C/s):	0.5
Combustor Temp (C):	900
N2 Flow Rate (cc/min):	80
O2 Flow Rate (cc/min):	20
Calibration File:	C:\MCC\MCC Cal\Coeff1 JN10440_30_210304.txt.txt
T Correction Coefficients:	0	1.024463	0
Time Shift (s):	14
*
Time (s)	Temperature (C)	N2 flow rate (cc/min)	O2 flow rate (cc/min)	Flow Rate (cc/min)	Oxygen (%)	HRR (W/g)	Heating rate (C/s)
0.000	108.287	80.001	19.996	103.671	20.007	0.498	-0.030
8.000	108.320	80.002	19.994	103.684	20.010	0.262	0.013
15.999	108.305	80.001	19.993	103.697	20.004	0.731	0.010
24.000	108.358	80.002	19.991	103.836	19.988	2.001	0.027
32.000	108.660	80.005	19.992	103.865	19.974	3.097	0.068
40.000	109.460	80.000	19.993	103.888	19.967	3.647	0.143
47.999	110.641	80.001	19.991	103.854	19.963	3.901	0.163
55.999	112.115	80.004	19.991	103.854	19.963	3.929	0.223
63.999	113.819	80.000	19.996	103.891	19.962	4.032	0.229
71.999	115.757	80.000	19.992	103.903	19.953	4.728	0.269
79.999	118.040	79.999	19.993	103.915	19.945	5.325	0.275
88.000	120.624	80.001	19.993	103.957	19.938	5.851	0.342
95.999	123.478	79.997	19.994	103.966	19.935	6.098	0.360
103.999	126.456	80.002	19.994	103.956	19.934	6.163	0.393
111.999	129.715	80.003	19.993	103.962	19.929	6.610	0.406
119.999	133.175	80.001	19.993	103.931	19.927	6.770	0.408
127.999	136.767	79.999	19.994	103.940	19.919	7.368	0.467
136.000	140.466	80.001	19.994	103.944	19.914	7.762	0.493
144.000	144.238	79.999	19.992	103.950	19.901	8.746	0.475
152.000	148.048	79.999	19.993	103.934	19.888	9.762	0.441
160.000	151.983	80.000	19.994	103.973	19.881	10.308	0.498
168.000	155.891	80.002	19.994	103.958	19.866	11.494	0.481
176.000	159.871	80.003	19.994	103.939	19.851	12.656	0.467
184.000	163.884	80.001	19.994	103.926	19.838	13.691	0.524
192.000	167.937	80.002	19.993	103.925	19.824	14.732	0.457
200.000	171.885	80.002	19.994	103.928	19.815	15.475	0.493
208.000	175.895	80.001	19.994	103.946	19.817	15.318	0.476
216.000	179.926	79.999	19.993	103.921	19.809	15.917	0.518
224.000	183.856	80.000	19.993	103.915	19.812	15.694	0.491
232.000	187.830	80.000	19.992	103.928	19.811	15.767	0.468
240.000	191.822	80.000	19.993	103.912	19.814	15.539	0.513
248.000	195.774	80.001	19.993	103.933	19.810	15.859	0.471
256.000	199.653	80.001	19.992	103.898	19.804	16.316	0.483
264.000	203.587	80.000	19.992	103.900	19.801	16.519	0.490
272.000	207.488	80.002	19.994	103.906	19.804	16.332	0.464
280.000	211.459	80.002	19.993	103.899	19.801	16.555	0.485
288.000	215.457	80.003	19.994	103.896	19.796	16.882	0.470
296.000	219.392	80.001	19.994	103.896	19.791	17.295	0.488
304.000	223.301	80.000	19.994	103.901	19.794	17.091	0.493
312.000	227.230	80.000	19.993	103.898	19.789	17.451	0.487
320.000	231.185	80.000	19.993	103.895	19.791	17.294	0.484
328.000	235.107	80.000	19.993	103.890	19.789	17.500	0.478
336.000	239.113	80.000	19.994	103.889	19.792	17.234	0.500
344.000	243.035	80.003	19.994	103.867	19.793	17.125	0.498
352.000	246.997	80.002	19.993	103.894	19.799	16.676	0.522
360.000	250.975	80.002	19.994	103.897	19.806	16.133	0.493
368.000	254.981	80.001	19.993	103.876	19.807	16.097	0.512
376.000	259.107	80.003	19.993	103.891	19.820	15.046	0.588
384.000	262.904	80.000	19.993	103.868	19.821	14.989	0.529
392.000	266.929	80.000	19.994	103.871	19.820	15.076	0.512
400.000	270.934	80.001	19.994	103.867	19.816	15.357	0.487
408.000	274.856	80.000	19.994	103.887	19.806	16.177	0.477
416.000	278.872	80.001	19.993	103.856	19.794	17.078	0.484
424.000	282.811	80.001	19.993	103.875	19.773	18.728	0.460
432.000	286.802	80.001	19.992	103.869	19.761	19.629	0.498
440.000	290.763	80.002	19.994	103.871	19.742	21.080	0.485
448.000	294.802	80.002	19.993	103.861	19.724	22.508	0.493
456.000	298.817	80.005	19.993	103.880	19.700	24.371	0.496
464.000	302.802	80.005	19.994	103.890	19.664	27.180	0.430
472.000	306.858	80.003	19.995	103.896	19.617	30.869	0.498
480.000	310.820	80.002	19.994	103.901	19.548	36.224	0.485
488.000	314.954	80.002	19.994	103.934	19.455	43.429	0.557
496.000	318.981	79.999	19.995	103.933	19.331	53.079	0.494
504.000	323.021	79.998	19.994	103.940	19.183	64.602	0.469
512.000	327.069	80.001	19.994	104.013	19.011	78.017	0.520
520.000	331.053	80.004	19.994	104.026	18.809	93.750	0.454
528.000	335.158	80.002	19.992	104.011	18.617	108.707	0.517
536.000	339.142	80.002	19.993	104.044	18.391	126.324	0.530
544.000	343.132	80.003	19.993	104.064	18.191	141.955	0.526
552.000	347.089	80.003	19.994	104.087	18.019	155.421	0.496
560.000	351.036	80.002	19.993	104.104	17.830	170.158	0.505
568.000	355.044	80.001	19.993	104.145	17.614	186.989	0.497
576.000	358.994	80.002	19.993	104.136	17.413	202.577	0.507
584.000	363.014	80.002	19.994	104.120	17.310	210.550	0.540
592.000	366.935	80.001	19.994	104.095	17.323	209.429	0.490
600.000	371.060	80.004	19.995	104.048	17.458	198.860	0.534
608.000	375.195	80.004	19.995	104.017	17.692	180.606	0.517
616.000	379.340	80.002	19.993	103.980	18.000	156.576	0.532
624.000	383.506	80.003	19.991	103.959	18.283	134.535	0.507
632.000	387.642	80.003	19.993	103.939	18.561	112.938	0.538
640.000	391.720	80.002	19.994	103.894	18.822	92.628	0.513
648.000	395.847	80.001	19.993	103.882	19.068	73.462	0.491
656.000	399.924	80.002	19.993	103.854	19.274	57.432	0.502
664.000	403.910	80.001	19.993	103.852	19.449	43.840	0.472
672.000	407.893	80.002	19.994	103.828	19.580	33.712	0.470
680.000	411.973	80.002	19.994	103.802	19.673	26.450	0.498
688.000	415.882	80.003	19.993	103.821	19.738	21.380	0.496
696.000	419.889	80.001	19.994	103.823	19.785	17.760	0.498
704.000	423.875	80.001	19.995	103.816	19.812	15.660	0.510
712.000	427.839	80.001	19.995	103.818	19.825	14.686	0.496
720.000	431.780	80.007	19.992	103.831	19.837	13.724	0.464
728.000	435.876	80.001	19.992	103.825	19.838	13.632	0.512
736.000	439.918	80.003	19.994	103.834	19.850	12.706	0.515
744.000	443.952	80.003	19.992	103.815	19.846	13.040	0.494
752.000	447.959	80.003	19.994	103.901	19.844	13.178	0.523
760.000	452.025	80.002	19.993	103.823	19.850	12.719	0.501
768.000	455.984	80.002	19.994	103.839	19.852	12.521	0.492
776.000	460.017	80.003	19.993	103.817	19.848	12.876	0.500
784.000	463.896	80.003	19.994	103.831	19.844	13.175	0.484
792.000	467.788	80.003	19.994	103.832	19.844	13.164	0.500
800.000	471.778	80.004	19.995	103.813	19.847	12.953	0.536
808.000	475.735	80.003	19.993	103.742	19.844	13.142	0.495
816.000	479.681	80.003	19.994	103.819	19.844	13.170	0.474
824.000	483.718	80.002	19.994	103.826	19.849	12.775	0.488
832.000	487.699	80.002	19.993	103.821	19.849	12.779	0.480
840.000	491.811	80.000	19.993	103.820	19.849	12.769	0.510
848.000	495.908	80.001	19.991	103.848	19.847	12.978	0.502
856.000	500.034	80.005	19.993	103.824	19.840	13.487	0.551
864.000	504.135	80.002	19.992	103.829	19.842	13.308	0.511
872.000	508.259	80.003	19.994	103.820	19.838	13.640	0.517
880.000	512.320	80.003	19.994	103.825	19.837	13.688	0.471
888.000	516.516	80.005	19.994	103.834	19.835	13.912	0.532
896.000	520.681	80.002	19.994	103.833	19.834	13.949	0.570
904.000	524.885	80.001	19.995	103.843	19.832	14.099	0.494
912.000	529.039	80.003	19.995	103.836	19.831	14.171	0.484
920.000	533.185	80.003	19.993	103.820	19.830	14.303	0.504
928.000	537.337	80.002	19.994	103.819	19.826	14.549	0.546
936.000	541.424	80.001	19.996	103.831	19.826	14.539	0.524
944.000	545.673	80.006	19.992	103.816	19.827	14.484	0.534
952.000	550.087	80.005	19.996	103.800	19.828	14.394	0.579
960.000	554.451	80.004	19.992	103.831	19.826	14.557	0.516
968.000	558.801	80.002	19.992	103.822	19.823	14.782	0.521
976.000	563.178	80.005	19.995	103.826	19.827	14.474	0.533
984.000	567.511	80.001	19.994	103.842	19.825	14.621	0.522
992.000	572.018	80.003	19.993	103.776	19.821	14.999	0.574
1000.000	576.522	80.003	19.995	103.821	19.821	14.973	0.582
1008.000	580.973	80.002	19.994	103.831	19.824	14.741	0.565
1016.000	585.323	80.003	19.994	103.841	19.814	15.547	0.515
1024.000	589.698	80.003	19.995	103.813	19.812	15.661	0.536
1031.999	593.977	80.004	19.994	103.832	19.815	15.436	0.575
1039.999	598.303	80.003	19.993	103.843	19.820	15.063	0.563
1047.999	602.462	80.003	19.993	103.817	19.816	15.341	0.491
1055.999	606.495	80.006	19.993	103.815	19.814	15.473	0.481
1064.000	610.527	80.005	19.993	103.813	19.814	15.520	0.499
1071.999	614.605	80.002	19.995	103.829	19.812	15.657	0.546
1079.999	618.576	80.004	19.994	103.815	19.815	15.434	0.501
1087.999	622.510	80.004	19.993	103.815	19.817	15.306	0.463
1095.999	626.574	80.004	19.993	103.813	19.816	15.358	0.519
1104.000	630.666	80.001	19.994	103.823	19.815	15.428	0.502
1111.999	634.700	80.003	19.994	103.817	19.810	15.785	0.517
1119.999	638.826	80.004	19.992	103.818	19.803	16.362	0.534
1127.999	642.804	80.006	19.993	103.817	19.815	15.408	0.479
1135.999	646.796	80.004	19.993	103.814	19.807	16.074	0.478
1143.999	650.884	80.005	19.992	103.814	19.811	15.723	0.490
1151.999	655.073	80.004	19.992	103.817	19.809	15.883	0.525
1159.999	659.291	80.004	19.996	103.815	19.807	16.031	0.519
1167.999	663.487	80.003	19.994	103.821	19.801	16.483	0.480
1175.999	667.654	80.004	19.993	103.811	19.802	16.463	0.464
1184.000	671.828	80.002	19.995	103.826	19.807	16.038	0.513
1191.999	675.924	80.002	19.993	103.783	19.804	16.282	0.495
1200.000	680.080	80.004	19.995	103.802	19.804	16.277	0.524
1207.999	684.176	80.004	19.995	103.810	19.805	16.189	0.510
1215.999	688.273	80.005	19.995	103.815	19.805	16.186	0.505
1224.000	692.224	80.005	19.992	103.804	19.802	16.431	0.476
1231.999	696.130	80.004	19.993	103.804	19.802	16.473	0.462
1239.999	699.956	80.003	19.993	103.801	19.797	16.832	0.455
1248.000	703.842	80.003	19.993	103.813	19.798	16.781	0.510
1256.000	707.802	80.003	19.993	103.819	19.798	16.733	0.498
1263.999	711.838	80.003	19.994	103.804	19.795	16.989	0.492
1272.000	715.938	80.004	19.994	103.819	19.796	16.894	0.522
1279.999	720.015	80.004	19.994	103.815	19.793	17.145	0.511
1288.000	724.128	80.006	19.994	103.811	19.793	17.171	0.505
1295.999	728.292	80.004	19.994	103.899	19.788	17.520	0.547
1303.999	732.584	80.004	19.994	103.814	19.791	17.257	0.549
1311.999	736.759	80.005	19.993	103.814	19.790	17.369	0.504
1320.001	741.063	80.004	19.993	103.812	19.787	17.625	0.543
1323.999	743.161	80.004	19.993	103.817	19.789	17.429	0.494