File: 01_Data/PVC/Cone/PVC_Cone_HF25Scalar_220218_R3.csv
LABORATORY,FSRI
TEST IDENT,PVC_HF25_3
OPERATOR,Dow
MATERIAL,PVC
ORIENTATION,Horizontal
HEAT FLUX,25
SURF AREA,0.01
C FACTOR,0.0385692
SPEC HOLDER DIFF,305.33
SPECIMEN MASS,43.7
SCAN TIME,0.25
O2 DELAY TIME,11
CO DELAY TIME,11
CO2 DELAY TIME,8
FLOW FACTOR,1
SCAN COUNT,1688
TIME TO IGN,251
END OF TEST SCAN,1208
END OF TEST TIME,302
TEST STATUS,1
PRE TEST CMT,Dimensions: 98.97 x 99.17 x 3.14 mm; 60 mm spacing
POST TEST CMT,Sample self extinguished at approximately 6 minutes with unburned material remaining.