File: 01_Data/PVC/Cone/PVC_Cone_HF25Scan_220218_R3.csv
Names,Time,Stack TC,Smoke TC,Exh Press,Smoke Comp,Smoke Meas,CO Meter,CO2 Meter,O2 Meter,Sample Mass,Ext Coeff,Start Test,Flame Verif
Chan Gain,,500,500,1,1,1,1,1,1,1,1,1.0,1.0
Offset,,0,0,0.132436,0,0,0,0,0,0,0,0.0,0.0
Gain,,1,1,25.011,15.4219,15.1528,1,1,1,1.00089,1.02113,1.0,1.0
Units,sec,C,C,Pa,%,%,%,%,%,g,/m,,
Baseline,,23.1981,24.3825,162.565,115.519,115.855,-0.00877037,0.0516708,20.9817,-479.564,-0.0260204,,
18,4.25,21.9495,22.5128,166.794,116.225,116.615,-0.00859542,0.0518198,20.9842,436.336,-0.030052,0.0,0.0
36,8.75,21.8949,23.106,161.434,116.299,116.799,-0.00854597,0.0512975,20.9858,436.376,-0.0384136,0.0,0.0
54,13.25,21.6193,22.9487,167.982,116.384,116.782,-0.00862944,0.0509851,20.9865,436.346,-0.0305073,0.0,0.0
72,17.75,21.8123,23.0158,164.23,116.453,116.981,-0.00859518,0.0506934,20.9851,436.406,-0.0405297,0.0,0.0
90,22.25,21.7908,23.1715,162.982,116.539,117.178,-0.00843733,0.0504004,20.9868,436.487,-0.049015,0.0,0.0
108,26.75,22.0467,22.7977,159.495,116.596,116.843,-0.00878276,0.0505437,20.9852,436.406,-0.0189738,0.0,0.0
126,31.25,21.2873,22.6107,165.3,116.665,116.734,-0.00899236,0.0506444,20.9862,436.397,-0.00529031,0.0,0.0
144,35.75,21.5705,22.261,162.834,116.718,117.042,-0.00880889,0.0504275,20.9871,436.427,-0.024845,0.0,0.0
162,40.25,21.9386,23.3902,163.107,116.744,117.184,-0.00890893,0.050482,20.9872,436.386,-0.033645,0.0,0.0
180,44.75,22.1057,23.4512,162.264,116.784,117.22,-0.00867394,0.0505224,20.9851,436.306,-0.0333685,0.0,0.0
198,49.25,22.2985,23.134,167.844,116.766,117.249,-0.00882381,0.0504551,20.9844,436.417,-0.0370374,0.0,0.0
216,53.75,21.8352,23.4897,163.281,116.799,117.339,-0.00885449,0.0506555,20.9832,436.276,-0.0413621,0.0,0.0
234,58.25,22.5186,23.3918,165.561,116.816,117.229,-0.00875025,0.0505922,20.9831,436.406,-0.0315863,0.0,0.0
252,62.75,22.4059,23.4546,162.629,116.833,116.995,-0.00863277,0.0506748,20.9831,436.286,-0.0124259,0.0,0.0
270,67.25,22.3859,23.362,163.939,116.872,116.991,-0.00878037,0.0509109,20.9825,436.406,-0.00914919,0.0,0.0
288,71.75,22.3331,23.4877,163.417,116.872,116.728,-0.00879435,0.0510254,20.982,436.316,0.0110192,0.0,0.0
306,76.25,22.2739,23.6403,158.895,116.897,116.586,-0.00890495,0.0508814,20.9803,436.326,0.0238674,0.0,0.0
324,80.75,22.331,23.7382,161.416,116.897,116.283,-0.00889423,0.0511226,20.9808,436.266,0.0471689,0.0,0.0
342,85.25,22.232,23.3124,162.286,116.915,115.195,-0.00860203,0.0521526,20.9793,436.206,0.13275,0.0,0.0
360,89.75,22.7081,23.3904,163.811,116.904,113.978,-0.00863667,0.053107,20.9823,436.176,0.227026,0.0,0.0
378,94.25,22.6449,24.1317,160.201,116.891,113.463,-0.00867002,0.0534498,20.9833,435.996,0.266628,0.0,0.0
396,98.75,22.9912,23.9865,159.337,116.877,113.575,-0.00857129,0.0535797,20.9835,435.906,0.256679,0.0,0.0
414,103.25,22.779,24.3157,165.035,116.849,113.667,-0.00844622,0.0536068,20.9819,435.616,0.247333,0.0,0.0
432,107.75,23.2326,24.7897,166.099,116.857,114.054,-0.00821741,0.0538689,20.9813,435.466,0.217497,0.0,0.0
450,112.25,23.125,24.9134,164.3,116.811,113.101,-0.00804832,0.054474,20.9787,435.145,0.289124,0.0,0.0
468,116.75,23.6819,25.0285,158.5,116.812,111.305,-0.00779666,0.0552738,20.9782,434.985,0.432583,0.0,0.0
486,121.25,23.143,24.8544,161.834,116.806,111.881,-0.00767528,0.0558263,20.9782,434.735,0.385864,0.0,0.0
504,125.75,23.3705,24.8062,160.482,116.816,110.874,-0.00791689,0.0559716,20.9779,434.565,0.467619,0.0,0.0
522,130.25,23.6454,25.519,157.796,116.816,110.85,-0.00823235,0.0557795,20.9774,434.285,0.469564,0.0,0.0
540,134.75,23.8169,25.5257,163.631,116.832,110.635,-0.00835158,0.0564013,20.9772,434.014,0.488219,0.0,0.0
558,139.25,23.5687,25.447,159.257,116.845,111.14,-0.00820724,0.058417,20.9749,433.784,0.448365,0.0,0.0
576,143.75,23.9164,25.7971,160.606,116.865,110.977,-0.00825182,0.0586304,20.9748,433.564,0.463046,0.0,0.0
594,148.25,24.0013,25.4683,166.492,116.896,110.603,-0.00809107,0.0585222,20.9751,433.264,0.495635,0.0,0.0
612,152.75,24.2743,25.534,160.971,116.91,111.772,-0.0079269,0.0597871,20.972,433.084,0.40254,0.0,0.0
630,157.25,24.4641,26.1839,160.735,116.919,110.951,-0.00806104,0.0607332,20.972,432.933,0.469284,0.0,0.0
648,161.75,24.3187,25.8155,158.368,116.914,110.992,-0.00768683,0.0608752,20.9732,432.653,0.465565,0.0,0.0
666,166.25,24.3262,25.9694,165.887,116.907,111.108,-0.00774795,0.0616545,20.9733,432.443,0.4557,0.0,0.0
684,170.75,24.21,25.8607,162.226,116.848,110.389,-0.00759349,0.0605023,20.9737,432.203,0.509385,0.0,0.0
702,175.25,24.6574,26.0706,164.924,116.772,112.727,-0.00755741,0.0583668,20.9761,431.983,0.315805,0.0,0.0
720,179.75,24.9669,26.2697,161.399,116.673,110.745,-0.00752628,0.0560774,20.978,431.782,0.467071,0.0,0.0
738,184.25,24.5674,26.1316,164.138,116.509,110.978,-0.00745824,0.0556125,20.9779,431.672,0.43566,0.0,0.0
756,188.75,24.9707,26.5344,161.505,116.301,111.167,-0.00773922,0.0563282,20.9766,431.482,0.404401,0.0,0.0
774,193.25,24.5693,26.3039,162.524,116.015,109.633,-0.00795354,0.0569097,20.9764,431.292,0.506787,0.0,0.0
792,197.75,24.9141,27.0118,163.042,115.696,109.906,-0.00791429,0.0560961,20.9783,431.112,0.459852,0.0,0.0
810,202.25,25.1953,26.4692,161.551,115.355,109.629,-0.00807844,0.0548964,20.9793,430.922,0.456037,0.0,0.0
828,206.75,25.1727,26.8944,161.684,114.995,108.516,-0.00771259,0.0560942,20.978,430.751,0.519482,0.0,0.0
846,211.25,24.7553,26.5033,159.787,114.725,109.885,-0.00768902,0.0602129,20.9713,430.641,0.386136,0.0,0.0
864,215.75,24.8672,26.7297,159.383,114.483,108.775,-0.00768311,0.063016,20.9672,430.451,0.45812,0.0,0.0
882,220.25,24.7782,26.8865,159.619,114.418,110.624,-0.00803773,0.0599728,20.9723,430.301,0.302037,0.0,0.0
900,224.75,24.7962,26.9106,156.254,114.473,109.953,-0.00825439,0.0572851,20.9749,430.131,0.360842,0.0,0.0
918,229.25,24.6757,26.828,162.723,114.736,110.866,-0.00810608,0.0558205,20.9774,429.951,0.307347,0.0,0.0
936,233.75,24.9653,26.7447,163.211,115.047,110.113,-0.00796107,0.0556848,20.9794,429.751,0.39267,0.0,0.0
954,238.25,25.3187,26.6422,159.782,115.416,109.19,-0.00807089,0.0545395,20.982,429.661,0.496751,0.0,0.0
972,242.75,25.0517,27.0962,160.187,115.759,111.474,-0.0081374,0.0536753,20.9825,429.51,0.337912,0.0,0.0
990,247.25,24.9637,26.2997,160.166,116.016,110.391,-0.00784952,0.0540328,20.9802,429.42,0.445184,0.0,0.0
1008,251.75,25.4327,27.0047,158.219,116.192,107.396,-0.00537506,0.0651817,20.962,429.2,0.70515,0.0,1.0
1026,256.25,25.1712,27.0187,154.554,116.265,87.323,-0.00124748,0.103297,20.8814,429.09,2.56407,0.0,1.0
1044,260.75,26.4837,28.2477,158.036,116.255,84.1281,0.00166658,0.138506,20.8237,428.77,2.89714,0.0,0.0
1062,265.25,27.4697,29.0697,150.265,116.106,86.7547,0.00207448,0.15361,20.802,428.429,2.6103,0.0,0.0
1080,269.75,28.2213,30.1703,152.383,115.978,88.7283,0.00210903,0.162387,20.7946,428.109,2.39893,0.0,0.0
1098,274.25,28.6569,31.1967,153.133,116.065,87.7267,0.00186775,0.159961,20.8056,427.839,2.50737,0.0,0.0
1116,278.75,29.2776,31.8069,158.113,116.552,101.121,0.000705386,0.155998,20.8196,427.569,1.27203,0.0,0.0
1134,283.25,29.1554,31.82,155.371,116.777,104.992,-0.000881949,0.146103,20.8427,427.358,0.952893,0.0,0.0
1152,287.75,29.8058,32.6591,151.461,116.757,108.437,-0.00186735,0.131165,20.8707,427.078,0.662185,0.0,0.0
1170,292.25,30.1872,33.1728,158.123,116.491,109.777,-0.00322388,0.111086,20.9038,426.858,0.53174,0.0,0.0
1188,296.75,29.8129,32.3844,158.368,116.072,110.463,-0.00489315,0.0915824,20.9335,426.818,0.443656,0.0,0.0
1206,301.25,28.8276,31.117,158.555,116.268,107.998,-0.00643774,0.073976,20.9592,426.608,0.660914,0.0,0.0
1224,305.75,27.3442,29.5003,162.516,116.504,110.89,-0.00748481,0.0614863,20.9742,426.528,0.442393,0.0,0.0
1242,310.25,27.8729,30.0396,162.25,116.788,112.059,-0.00762132,0.0569034,20.9788,426.378,0.370214,0.0,0.0
1260,314.75,27.6313,30.0164,164.738,116.902,112.441,-0.00810158,0.0548457,20.9829,426.247,0.348501,0.0,0.0
1278,319.25,27.1976,29.1327,164.804,116.924,113.166,-0.00825443,0.053366,20.9844,426.087,0.292656,0.0,0.0
1296,323.75,26.9076,29.0913,163.463,116.817,113.603,-0.00828139,0.0526773,20.985,426.027,0.249945,0.0,0.0
1314,328.25,26.1805,28.495,164.817,116.59,113.426,-0.0081229,0.0519741,20.9851,425.837,0.246437,0.0,0.0
1332,332.75,26.2243,27.9865,159.937,116.303,113.889,-0.00829155,0.0516998,20.9851,425.827,0.187874,0.0,0.0
1350,337.25,25.9975,27.7904,161.69,115.931,112.497,-0.0085154,0.051702,20.9857,425.787,0.269304,0.0,0.0
1368,341.75,26.0051,27.6474,162.089,115.576,112.147,-0.00848479,0.0518312,20.9851,425.527,0.26976,0.0,0.0
1386,346.25,25.2532,27.5925,162.526,115.225,112.356,-0.00846394,0.051938,20.9842,425.477,0.225866,0.0,0.0
1404,350.75,25.8848,27.4429,163.286,114.931,111.66,-0.0086868,0.0517079,20.9833,425.357,0.258626,0.0,0.0
1422,355.25,24.9289,26.9359,162.171,114.676,111.431,-0.00827783,0.0517928,20.983,425.307,0.257104,0.0,0.0
1440,359.75,25.2324,26.8383,161.171,114.506,111.273,-0.00800431,0.0517984,20.9824,425.076,0.256545,0.0,0.0
1458,364.25,24.6981,26.5186,161.779,114.425,111.11,-0.00808798,0.0517901,20.9828,425.127,0.263324,0.0,0.0
1476,368.75,25.1403,26.4463,162.501,114.412,111.64,-0.00810502,0.0519946,20.9841,424.956,0.219672,0.0,0.0
1494,373.25,24.6439,26.3305,163.341,114.451,111.527,-0.00811544,0.0522136,20.9845,425.026,0.231749,0.0,0.0
1512,377.75,24.8961,26.5929,165.331,114.502,112.095,-0.00818437,0.0519271,20.9846,424.886,0.190272,0.0,0.0
1530,382.25,24.7785,26.0067,157.198,114.612,112.432,-0.00822883,0.0520441,20.9846,424.786,0.172023,0.0,0.0
1548,386.75,24.4651,26.3782,163.666,114.707,112.834,-0.00813968,0.0519553,20.9847,424.676,0.147418,0.0,0.0
1566,391.25,24.5026,25.6646,164.959,114.826,111.541,-0.00812557,0.0520362,20.9838,424.646,0.260018,0.0,0.0
1584,395.75,25.0072,26.042,161.669,114.976,112.166,-0.00828216,0.0519683,20.9835,424.526,0.221692,0.0,0.0
1602,400.25,24.3948,25.8329,161.046,115.076,112.382,-0.00819508,0.0517001,20.9834,424.386,0.212196,0.0,0.0
1620,404.75,24.477,25.5878,157.011,115.212,112.665,-0.00827384,0.0518764,20.9834,424.366,0.200286,0.0,0.0
1638,409.25,24.4081,25.5807,159.958,115.318,112.139,-0.00820482,0.051852,20.9823,424.236,0.250413,0.0,0.0
1656,413.75,23.7683,25.6418,164.897,115.458,113.141,,0.051921,,424.166,0.181578,0.0,0.0
1674,418.25,23.9532,26.1943,163.473,115.562,113.241,,,,424.046,0.181739,0.0,0.0
1688,421.75,24.6563,25.8001,160.934,115.638,113.255,,,,424.066,0.18644,0.0,0.0