File: 01_Data/PVC/Cone/PVC_Cone_HF25Scan_220218_R1.csv
Names,Time,Stack TC,Smoke TC,Exh Press,Smoke Comp,Smoke Meas,CO Meter,CO2 Meter,O2 Meter,Sample Mass,Ext Coeff,Start Test,Flame Verif
Chan Gain,,500,500,1,1,1,1,1,1,1,1,1.0,1.0
Offset,,0,0,0.132436,0,0,0,0,0,0,0,0.0,0.0
Gain,,1,1,25.011,15.4219,15.1528,1,1,1,1.00089,1.02113,1.0,1.0
Units,sec,C,C,Pa,%,%,%,%,%,g,/m,,
Baseline,,26.395,26.5992,161.89,115.114,112.967,-0.00838998,0.059658,20.9674,-479.515,0.168645,,
15,3.5,24.4408,24.5616,162.84,115.185,112.984,-0.00829988,0.060149,20.9711,439.339,0.17283,0.0,0.0
30,7.25,24.3181,24.5644,160.371,115.233,113.429,-0.00822113,0.0642404,20.9638,439.309,0.141293,0.0,0.0
45,11,24.3344,24.4552,161.235,115.265,113.093,-0.00804569,0.0680503,20.9586,439.299,0.170366,0.0,0.0
60,14.75,24.8089,24.7848,164.621,115.303,113.08,-0.00827002,0.068279,20.9584,439.229,0.174391,0.0,0.0
75,18.5,24.7041,25.151,159.635,115.375,112.68,-0.00876917,0.0664614,20.9601,439.319,0.211686,0.0,0.0
90,22.25,25.0688,24.9797,154.612,115.491,113.659,-0.0086806,0.0663995,20.9589,439.319,0.143223,0.0,0.0
105,26,25.0093,24.6469,158.495,115.59,114.035,-0.0084895,0.0704724,20.954,439.279,0.121269,0.0,0.0
120,29.75,24.8197,25.0055,161.684,115.673,113.528,-0.00857611,0.0736584,20.9478,439.269,0.167658,0.0,0.0
135,33.5,24.9945,25.1923,161.415,115.777,113.761,-0.0086455,0.0785493,20.9421,439.269,0.157374,0.0,0.0
150,37.25,24.7313,25.3533,160.867,115.904,113.739,-0.00836152,0.0857995,20.9315,439.299,0.168912,0.0,0.0
165,41,24.8803,25.1973,159.31,116.054,114.734,-0.00841082,0.0933166,20.9244,439.269,0.102477,0.0,0.0
180,44.75,24.2916,25.1177,161.277,116.182,114.156,-0.00839752,0.0910348,20.9301,439.259,0.157521,0.0,0.0
195,48.5,24.2916,24.891,157.633,116.311,114.04,-0.00845191,0.0840534,20.9365,439.279,0.176642,0.0,0.0
210,52.25,24.9805,25.056,165.121,116.408,114.411,-0.00854913,0.0811289,20.9396,439.259,0.155023,0.0,0.0
225,56,25.1208,25.4272,160.416,116.504,114.049,-0.00860978,0.0816141,20.9386,439.249,0.190764,0.0,0.0
240,59.75,24.8714,25.0103,159.611,116.624,113.761,-0.00852588,0.0823596,20.9367,439.229,0.222568,0.0,0.0
255,63.5,25.0891,25.6416,164.957,116.755,114.543,-0.00840491,0.0831198,20.9362,439.239,0.171288,0.0,0.0
270,67.25,25.1935,25.9073,159.491,116.833,114.351,-0.00814852,0.0850866,20.9361,439.229,0.192336,0.0,0.0
285,71,24.975,25.363,167.478,116.917,114.978,-0.00814079,0.0835894,20.9383,439.229,0.149737,0.0,0.0
300,74.75,24.1328,25.1338,162.64,116.989,114.045,-0.00812112,0.080735,20.9427,439.239,0.228282,0.0,0.0
315,78.5,25.325,25.562,164.881,117.08,113.843,-0.00821391,0.0764613,20.9482,439.219,0.25112,0.0,0.0
330,82.25,25.1703,25.4918,160.024,117.149,112.151,-0.0082535,0.075347,20.949,439.209,0.390503,0.0,0.0
345,86,24.6308,25.7566,161.368,117.193,110.907,-0.00824913,0.0787788,20.9462,439.119,0.493827,0.0,0.0
360,89.75,25.1213,26.0388,163.108,117.21,110.505,-0.00829923,0.0818315,20.9425,438.989,0.527637,0.0,0.0
375,93.5,25.6881,26.2704,159.671,117.225,110.908,-0.00851407,0.0831403,20.9416,438.859,0.496234,0.0,0.0
390,97.25,25.9547,26.7825,162.192,117.249,111.039,-0.00831438,0.0840757,20.9439,438.699,0.48747,0.0,0.0
405,101,25.7073,26.8278,161.159,117.283,109.767,-0.00803441,0.0834102,20.9478,438.478,0.593234,0.0,0.0
420,104.75,25.6832,26.2911,156.053,117.279,109.621,-0.00795442,0.083391,20.9491,438.298,0.604805,0.0,0.0
435,108.5,26.0269,26.8999,163.401,117.275,109.184,-0.00801925,0.082993,20.9494,438.058,0.640296,0.0,0.0
450,112.25,25.8085,26.5701,159.62,117.289,109.218,-0.00791021,0.0828809,20.9494,437.828,0.638606,0.0,0.0
465,116,26.0837,26.518,160.381,117.3,108.169,-0.00779786,0.0819084,20.9508,437.618,0.725935,0.0,0.0
480,119.75,26.1765,26.7781,164.236,117.306,109.048,-0.00811801,0.0800072,20.9512,437.377,0.653828,0.0,0.0
495,123.5,25.5547,26.3795,161.744,117.3,108.124,-0.00831221,0.078814,20.9511,437.147,0.729612,0.0,0.0
510,127.25,26.1052,27.2539,162.057,117.285,106.832,-0.00814453,0.0775982,20.9518,436.877,0.836104,0.0,0.0
525,131,26.2668,27.0281,159.989,117.286,107.886,-0.00790883,0.0760714,20.9543,436.637,0.748286,0.0,0.0
540,134.75,26.1413,27.2177,159.718,117.295,108.322,-0.00799587,0.0749595,20.9565,436.406,0.712874,0.0,0.0
555,138.5,26.3122,26.7434,160.44,117.301,109.222,-0.00806716,0.074445,20.9559,436.176,0.639198,0.0,0.0
570,142.25,26.1135,27.0241,163.846,117.286,107.988,-0.00787253,0.0752305,20.957,435.916,0.739844,0.0,0.0
585,146,26.1549,26.6797,160.518,117.271,108.518,-0.00781078,0.0756729,20.9578,435.706,0.694843,0.0,0.0
600,149.75,25.2241,26.3507,159.286,117.283,108.541,-0.00781529,0.0757169,20.9579,435.486,0.69387,0.0,0.0
615,153.5,26.3504,26.7709,161.386,117.321,109.964,-0.00776741,0.0745132,20.9599,435.276,0.580046,0.0,0.0
630,157.25,26.0575,26.7765,159.435,117.316,107.478,-0.00782424,0.0710941,20.9643,435.045,0.78455,0.0,0.0
645,161,26.0399,27.4297,159.25,117.33,109.395,-0.00796655,0.0681462,20.9667,434.865,0.627292,0.0,0.0
660,164.75,26.1169,27.3741,157.742,117.336,108.866,-0.00800787,0.0662465,20.9688,434.645,0.671069,0.0,0.0
675,168.5,26.0473,26.8962,163.275,117.359,109.742,-0.00784221,0.0659659,20.9693,434.475,0.601019,0.0,0.0
690,172.25,26.4068,26.5982,163.475,117.381,108.579,-0.00757724,0.066934,20.9678,434.275,0.698213,0.0,0.0
705,176,25.9203,27.4503,160.077,117.395,109.196,-0.00746081,0.0683512,20.9655,434.115,0.648544,0.0,0.0
720,179.75,25.8552,27.313,161.841,117.399,109.268,-0.00729421,0.0697468,20.9632,433.944,0.642878,0.0,0.0
735,183.5,25.9452,27.0685,159.287,117.388,110.614,-0.00714754,0.070163,20.9627,433.774,0.532379,0.0,0.0
750,187.25,26.4641,27.1425,160.348,117.383,109.693,-0.00703256,0.0700082,20.9622,433.604,0.60689,0.0,0.0
765,191,26.4352,27.2175,162.127,117.394,107.874,-0.0074248,0.0689864,20.9634,433.454,0.757548,0.0,0.0
780,194.75,26.8533,27.5178,160.31,117.392,110.486,-0.00776105,0.0679936,20.965,433.304,0.543084,0.0,0.0
795,198.5,26.018,27.1608,162.127,117.387,108.997,-0.00759517,0.0664441,20.9654,433.144,0.664223,0.0,0.0
810,202.25,26.6505,27.7008,159.275,117.349,109.637,-0.0058882,0.0686359,20.9527,432.993,0.608912,0.0,0.0
825,206,26.8605,27.7012,153.712,117.361,85.7484,-0.00154641,0.0960231,20.8852,432.853,2.81108,0.0,1.0
840,209.75,26.6015,27.4556,157.201,117.331,70.7237,0.0030478,0.131653,20.8256,432.493,4.53431,0.0,1.0
855,213.5,28.1515,28.9998,150.552,117.31,68.8578,0.00684325,0.161923,20.7777,432.133,4.77218,0.0,0.0
870,217.25,28.2617,30.0146,152.329,117.287,69.4197,0.00873607,0.181433,20.7482,431.772,4.69767,0.0,0.0
885,221,29.7231,30.4981,157.516,117.258,71.5982,0.00929954,0.185706,20.746,431.432,4.4187,0.0,0.0
900,224.75,30.0837,32.045,151.171,117.235,78.3806,0.00901113,0.179562,20.7629,431.092,3.60621,0.0,0.0
915,228.5,30.9564,32.6645,153.966,117.229,88.8879,0.00749814,0.171947,20.7805,430.812,2.47897,0.0,0.0
930,232.25,31.3013,33.0778,153.719,117.21,95.7605,0.00526424,0.163467,20.802,430.551,1.81041,0.0,0.0
945,236,31.5431,33.948,157.289,117.178,104.493,0.000831869,0.142374,20.8522,430.321,1.02626,0.0,0.0
960,239.75,31.2516,33.3352,160.093,117.134,108.203,-0.00300011,0.115326,20.9045,430.121,0.710409,0.0,0.0
975,243.5,31.1387,32.9827,161.144,117.09,107.396,-0.00571312,0.0929317,20.9412,429.971,0.774109,0.0,0.0
990,247.25,30.043,31.4054,162.687,117.045,109.337,-0.00705096,0.0770279,20.9628,429.811,0.610226,0.0,0.0
1005,251,29.5691,31.2936,160.087,116.994,109.905,-0.00745382,0.0685806,20.9717,429.741,0.559897,0.0,0.0
1020,254.75,28.4318,30.1525,160.2,116.952,109.802,-0.00771026,0.0662428,20.9724,429.58,0.565061,0.0,0.0
1035,258.5,28.2573,30.3296,160.484,116.911,110.57,-0.00778346,0.0655165,20.9704,429.46,0.499487,0.0,0.0
1050,262.25,28.4384,30.2505,159.438,116.878,110.906,-0.00774577,0.063993,20.9709,429.32,0.469806,0.0,0.0
1065,266,28.8484,30.3041,157.866,116.869,110.621,-0.00780864,0.0640084,20.9698,429.2,0.492082,0.0,0.0
1080,269.75,27.8881,29.6891,160.712,116.848,110.838,-0.00803244,0.0645383,20.9687,429.09,0.472988,0.0,0.0
1095,273.5,27.6919,29.4361,161.309,116.832,111.538,-0.00813823,0.0643647,20.9704,429,0.415361,0.0,0.0
1110,277.25,27.6067,29.0851,161.397,116.796,111.662,-0.00812321,0.0642323,20.9713,428.89,0.402598,0.0,0.0
1125,281,27.2733,28.8228,159.964,116.765,111.513,-0.00820352,0.0632175,20.97,428.78,0.412242,0.0,0.0
1140,284.75,27.5249,28.5238,158.646,116.758,111.49,-0.00831735,0.062521,20.9692,428.69,0.413521,0.0,0.0
1155,288.5,27.0321,28.627,161.358,116.732,110.843,-0.0082208,0.0641002,20.9661,428.6,0.463698,0.0,0.0
1170,292.25,26.8795,28.3844,161.996,116.704,112.146,-0.00823804,0.0682616,20.9609,428.479,0.356875,0.0,0.0
1185,296,26.7953,28.0538,165.863,116.685,110.782,-0.00826843,0.0716817,20.9595,428.419,0.465057,0.0,0.0
1200,299.75,27.5434,28.0084,164.156,116.662,111.342,-0.00818275,0.0712944,20.96,428.329,0.418049,0.0,0.0
1215,303.5,26.8221,27.3687,158.565,116.64,111.09,-0.0079235,0.0706829,20.9617,428.209,0.436683,0.0,0.0
1230,307.25,26.793,27.8213,160.644,116.629,111.374,-0.00802619,0.0706153,20.9633,428.159,0.412952,0.0,0.0
1245,311,26.6995,27.7744,160.594,116.616,111.572,-0.00826352,0.0690973,20.9658,428.069,0.396072,0.0,0.0
1260,314.75,26.2319,27.4578,163.805,116.597,112.175,-0.00831805,0.0669146,20.9677,427.929,0.346347,0.0,0.0
1275,318.5,26.3117,27.1371,160.258,116.591,111.811,-0.00847491,0.0642094,20.9701,427.859,0.374984,0.0,0.0
1290,322.25,25.6045,27.1624,162.612,116.575,111.197,-0.00856677,0.0615183,20.9732,427.739,0.42305,0.0,0.0
1305,326,26.0589,26.8016,161.028,116.581,110.21,-0.00850569,0.0594472,20.9747,427.629,0.503365,0.0,0.0
1320,329.75,25.2743,26.3846,163.051,116.567,111.076,-0.00838534,0.0575028,20.9755,427.549,0.432163,0.0,0.0
1335,333.5,25.3664,25.8335,159.832,116.553,111.226,-0.0081513,0.0565433,20.9763,427.439,0.419039,0.0,0.0
1350,337.25,26.1963,26.4856,161.65,116.574,112.286,-0.00824524,0.0558895,20.9777,427.358,0.33568,0.0,0.0
1365,341,25.8456,26.9184,161.406,116.591,110.402,-0.00816651,0.0553625,20.9784,427.278,0.488541,0.0,0.0
1380,344.75,25.8728,26.7754,160.027,116.579,111.439,-0.00778094,0.0548309,20.9799,427.168,0.403914,0.0,0.0
1395,348.5,25.8253,27.0381,160.093,116.584,112.132,-0.0079336,0.054547,20.98,427.058,0.348733,0.0,0.0
1410,352.25,25.6382,26.6464,158.413,116.565,111.214,-0.00822989,0.0543376,20.9792,426.978,0.420911,0.0,0.0
1425,356,25.4334,26.2731,163.234,116.563,111.621,,,,426.888,0.388053,0.0,0.0
1440,359.75,25.4208,26.503,161.602,116.556,112.062,,,,426.798,0.352252,0.0,0.0
1455,363.5,26.0101,26.3296,157.562,116.54,111.535,,,,426.708,0.393185,0.0,0.0