File: 01_Data/PVC/Cone/PVC_Cone_HF75Scalar_220210_R3.csv
LABORATORY,FSRI
TEST IDENT,PVC_HF75_3
OPERATOR,Dow
MATERIAL,PVC
ORIENTATION,Horizontal
HEAT FLUX,75
SURF AREA,0.01
C FACTOR,0.0393671
SPEC HOLDER DIFF,303.11
SPECIMEN MASS,43.4
SCAN TIME,0.25
O2 DELAY TIME,11
CO DELAY TIME,11
CO2 DELAY TIME,8
FLOW FACTOR,1
SCAN COUNT,1922
TIME TO IGN,23.25
END OF TEST SCAN,1442
END OF TEST TIME,360.5
TEST STATUS,1
PRE TEST CMT,Dimensions: 98.99 x 98.76 x 3.12 mm
POST TEST CMT,"Sample expanded in height throughout test, reaching several centemeters above calibrated surface height, thereby increasing incident heat flux. "