File: 01_Data/PVC/Cone/PVC_Cone_HF50Scan_220210_R3.csv
Names,Time,Stack TC,Smoke TC,Exh Press,Smoke Comp,Smoke Meas,CO Meter,CO2 Meter,O2 Meter,Sample Mass,Ext Coeff,Start Test,Flame Verif
Chan Gain,,500,500,1,1,1,1,1,1,1,1,1.0,1.0
Offset,,0,0,0.140898,0,0,0,0,0,0,0,0.0,0.0
Gain,,1,1,25.011,12.9668,12.6588,1,1,1,1.00088,1.01977,1.0,1.0
Units,sec,C,C,Pa,%,%,%,%,%,g,/m,,
Baseline,,35.1602,37.1519,156.097,97.9369,100.298,0.00027194,0.0659782,20.9844,-870.531,-0.213068,,
30,7.25,33.4845,35.0315,158.589,98.8745,100.57,0.000677066,0.0725558,20.9743,43.5182,-0.152054,0.0,0.0
60,14.75,33.2528,35.5514,155.38,98.233,100.692,0.000218556,0.0724991,20.973,43.5282,-0.221198,0.0,0.0
90,22.25,33.6594,34.8812,158.38,98.214,100.604,3.07761e-05,0.0703406,20.9746,43.4782,-0.21503,0.0,0.0
120,29.75,34.2779,35.9121,153.814,98.4431,95.5424,0.00139399,0.0722383,20.9722,43.1479,0.267549,0.0,0.0
150,37.25,34.8024,36.9438,158.303,98.3327,90.8988,0.00503682,0.0856009,20.955,42.137,0.70319,0.0,0.0
180,44.75,37.1935,40.6906,143.731,97.795,84.406,0.0157512,0.172062,20.801,40.9059,1.31706,0.0,0.0
210,52.25,41.834,45.6987,141.18,97.2596,26.3534,0.0359567,0.30634,20.5496,39.5447,11.6807,0.0,1.0
240,59.75,44.436,49.4573,147.854,97.1381,46.8209,0.0355158,0.284948,20.5915,38.2236,6.52835,0.0,0.0
270,67.25,46.1358,51.7389,147.401,97.5045,70.6651,0.0309922,0.245226,20.6757,37.1626,2.87992,0.0,0.0
300,74.75,47.0178,53.1473,143.839,98.1072,81.2015,0.0245977,0.239728,20.7028,36.1417,1.6918,0.0,0.0
330,82.25,48.2271,54.3461,145.41,98.6849,73.1086,0.0251355,0.257633,20.6722,35.1108,2.68348,0.0,0.0
360,89.75,49.361,55.9605,145.97,99.0434,68.3781,0.0275484,0.268093,20.6546,34.14,3.3143,0.0,0.0
390,97.25,50.8248,56.8372,144.675,99.1076,70.8142,0.0266311,0.264291,20.6627,33.0791,3.00694,0.0,0.0
420,104.75,50.0916,57.0285,146.721,98.9896,68.7355,0.0255844,0.252926,20.6818,32.0982,3.26281,0.0,0.0
450,112.25,51.4407,57.5954,150.788,98.7573,72.3467,0.0243023,0.244707,20.6995,31.2274,2.78375,0.0,0.0
480,119.75,51.4692,57.9935,146.905,98.5326,74.8319,0.0222724,0.239775,20.7105,30.4868,2.46124,0.0,0.0
510,127.25,51.2316,57.4889,146.882,98.3775,76.7612,0.0205255,0.227037,20.7341,29.596,2.21945,0.0,0.0
540,134.75,51.6033,57.2141,143.637,98.4447,79.9112,0.017646,0.219668,20.7485,28.9254,1.86581,0.0,0.0
570,142.25,51.1246,57.061,144.469,98.6137,85.5491,0.0156838,0.212348,20.7607,28.2848,1.2713,0.0,0.0
600,149.75,50.7086,57.038,141.442,98.6632,84.7699,0.0136993,0.204689,20.7738,27.6543,1.35764,0.0,0.0
630,157.25,50.5951,56.7085,150.116,98.6533,88.5122,0.0134937,0.194356,20.7928,27.0638,0.970311,0.0,0.0
660,164.75,50.2767,55.889,148.573,98.6129,88.2889,0.0124962,0.183269,20.8104,26.5733,0.989245,0.0,0.0
690,172.25,50.2906,55.582,142.739,98.4277,89.0086,0.011325,0.177449,20.8172,26.0629,0.899807,0.0,0.0
720,179.75,49.9823,55.0315,146.898,98.3972,90.5508,0.0104261,0.172463,20.8256,25.4824,0.743374,0.0,0.0
750,187.25,49.3711,54.4428,149.874,98.563,93.4246,0.0110749,0.166906,20.8331,25.082,0.478949,0.0,0.0
780,194.75,48.7814,53.7993,147.703,98.7941,93.4505,0.010581,0.160708,20.8422,24.7017,0.497421,0.0,0.0
810,202.25,48.2302,52.8174,147.139,99.0426,90.7625,0.0103468,0.154996,20.8513,24.2013,0.780969,0.0,0.0
840,209.75,48.3017,53.3559,149.197,99.1099,92.7443,0.00911024,0.155088,20.8559,23.7609,0.593822,0.0,0.0
870,217.25,48.1768,52.3962,154.703,98.846,94.5434,0.0085149,0.151743,20.8603,23.3505,0.398106,0.0,0.0
900,224.75,48.0847,52.2807,153.122,98.218,91.2346,0.00904139,0.147251,20.8656,22.9201,0.659768,0.0,0.0
930,232.25,48.0091,51.8791,148.179,97.4796,91.5158,0.00921,0.142492,20.8722,22.4898,0.56473,0.0,0.0
960,239.75,47.5787,51.974,146.606,97.1226,89.4896,0.00979535,0.139514,20.8718,22.1394,0.732198,0.0,0.0
990,247.25,47.2375,51.2896,151.405,97.3905,89.9825,0.0100036,0.138902,20.8723,21.7091,0.7077,0.0,0.0
1020,254.75,47.1519,50.7168,146.83,98.0284,90.8235,0.0100941,0.13986,20.8711,21.2286,0.682881,0.0,0.0
1050,262.25,46.8706,50.7448,146.749,98.4388,90.1463,0.00983492,0.137686,20.8734,20.8683,0.787198,0.0,0.0
1080,269.75,47.2938,50.5286,148.127,98.3078,91.7233,0.0099003,0.136333,20.8768,20.518,0.620159,0.0,0.0
1110,277.25,46.9392,50.633,149.684,98.049,91.262,0.00962742,0.135297,20.8788,20.0676,0.641677,0.0,0.0
1140,284.75,47.1576,50.8466,148.059,98.882,93.5544,0.00959183,0.13557,20.8779,19.6973,0.495429,0.0,0.0
1170,292.25,47.0848,50.5922,148.61,98.3925,89.8759,0.010421,0.140605,20.8687,19.1969,0.809865,0.0,0.0
1200,299.75,47.4649,50.701,150.476,99.0209,84.0394,0.0126228,0.152,20.8439,18.6264,1.46744,0.0,0.0
1230,307.25,47.824,51.6028,149.825,98.8313,84.4655,0.0143559,0.160166,20.8294,18.1359,1.40506,0.0,0.0
1260,314.75,48.049,52.0088,145.719,97.6834,80.0619,0.014689,0.168337,20.8159,17.5554,1.77951,0.0,0.0
1290,322.25,48.6318,53.1434,149.31,97.1658,77.6103,0.015291,0.179146,20.7946,16.9349,2.01018,0.0,0.0
1320,329.75,49.3004,53.7261,148.393,97.9188,77.7154,0.0150664,0.183713,20.7905,16.4545,2.06714,0.0,0.0
1350,337.25,49.9237,54.4083,152.16,98.4697,78.4011,0.0147445,0.182537,20.7916,15.954,2.03874,0.0,0.0
1380,344.75,50.4158,54.3478,144.532,98.0542,75.2005,0.0146106,0.179323,20.797,15.3735,2.37376,0.0,0.0
1410,352.25,50.4558,55.219,147.042,98.8325,73.8553,0.0150917,0.178599,20.7956,14.813,2.60594,0.0,0.0
1440,359.75,50.6785,55.1464,144.983,98.4218,76.9493,0.0147587,0.179684,20.7944,14.3526,2.20158,0.0,0.0
1470,367.25,50.4305,55.2856,149.062,99.1,73.0865,0.0159968,0.186344,20.7802,13.8221,2.72373,0.0,0.0
1500,374.75,51.3086,55.0727,142.591,98.3794,74.6789,0.0177424,0.199763,20.7553,13.2717,2.46564,0.0,0.0
1530,382.25,51.7045,56.4628,145.69,97.182,81.2019,0.0163831,0.204189,20.7558,12.6711,1.607,0.0,0.0
1560,389.75,51.6702,56.8188,151.677,97.8421,80.2578,0.016016,0.202239,20.7625,12.2207,1.77217,0.0,0.0
1590,397.25,52.068,56.4779,146.647,98.4534,83.1022,0.0150046,0.18574,20.7937,11.7904,1.51635,0.0,0.0
1620,404.75,50.6922,56.0089,144.219,97.96,82.0116,0.0142184,0.165314,20.8211,11.44,1.58957,0.0,0.0
1650,412.25,50.7891,55.4747,148.196,98.7217,85.6013,0.0134359,0.149061,20.8471,11.0397,1.27565,0.0,0.0
1680,419.75,50.0464,54.5011,152.957,98.9105,80.0206,0.0132868,0.138743,20.8627,10.6894,1.8958,0.0,0.0
1710,427.25,49.9595,53.8394,145.164,98.7023,81.0988,0.0128485,0.128628,20.8751,10.4292,1.75723,0.0,0.0
1740,434.75,49.4623,53.2962,153.225,97.2449,80.34,0.0120963,0.121818,20.8902,10.1689,1.70824,0.0,0.0
1770,442.25,48.735,52.2843,152.749,97.882,80.8063,0.0110887,0.114486,20.902,9.9087,1.71489,0.0,0.0
1800,449.75,48.2339,51.8922,149.247,98.3929,78.0816,0.0102529,0.114823,20.8979,9.64847,2.06829,0.0,0.0
1830,457.25,48.1826,51.3699,152.78,98.4784,76.271,0.0098468,0.131076,20.8718,9.31818,2.28593,0.0,0.0
1860,464.75,48.3335,51.3059,148.919,98.3818,74.9733,0.0092604,0.135006,20.8667,9.05796,2.43066,0.0,0.0
1890,472.25,47.7234,51.1597,152.163,99.0921,78.1017,0.0082096,0.131916,20.874,8.74768,2.12933,0.0,0.0
1920,479.75,47.4857,51.0244,151.619,98.0478,80.9647,0.00728364,0.129646,20.8797,8.5375,1.71251,0.0,0.0
1950,487.25,47.7929,50.8135,153.447,97.2433,82.1635,0.00625201,0.125502,20.8862,8.29729,1.50734,0.0,0.0
1980,494.75,47.1098,50.5825,150.761,98.0193,84.8418,0.00584994,0.121997,20.8941,8.10712,1.2915,0.0,0.0
2010,502.25,46.8357,50.2736,149.507,98.4993,86.1827,0.00522329,0.119026,20.8991,7.92696,1.19492,0.0,0.0
2040,509.75,46.6175,49.8696,155.792,98.1202,87.0874,0.00492218,0.119362,20.8996,7.80686,1.06701,0.0,0.0
2070,517.25,46.5358,49.6566,149.816,97.9315,87.366,0.00419268,0.119305,20.8996,7.68675,1.02122,0.0,0.0
2100,524.75,46.1013,48.9627,149.603,98.6877,90.7949,0.00388376,0.119171,20.8996,7.58666,0.745656,0.0,0.0
2130,532.25,45.9868,48.7509,151.556,98.7391,91.1585,0.00336332,0.119426,20.9018,7.49658,0.714572,0.0,0.0
2160,539.75,45.6469,48.53,146.605,98.3312,92.0141,0.00319026,0.117998,20.9057,7.41651,0.593958,0.0,0.0
2190,547.25,45.6536,48.3251,151.073,98.5785,92.2158,0.00320644,0.11833,20.9062,7.31643,0.596846,0.0,0.0
2220,554.75,45.5497,48.1298,154.187,98.8891,93.9114,0.00290726,0.117751,20.9083,7.23636,0.462007,0.0,0.0
2250,562.25,45.3125,47.7332,147.813,99.1016,94.3336,0.00297956,0.115178,20.9131,7.13627,0.44108,0.0,0.0
2280,569.75,45.06,47.3878,150.819,99.1194,96.1485,0.00284383,0.110652,20.9196,7.06621,0.272219,0.0,0.0
2310,577.25,44.3401,47.1682,149.671,99.0399,96.5456,0.00284791,0.107377,20.9245,6.98614,0.228166,0.0,0.0
2340,584.75,44.0741,46.4096,151.917,98.8294,96.3451,0.00318268,0.102702,20.9325,6.95611,0.227728,0.0,0.0
2370,592.25,44.0768,46.2671,152.773,98.6066,96.3649,0.00340887,0.0981791,20.9404,6.90607,0.205711,0.0,0.0
2400,599.75,43.4819,45.7576,148.96,98.4542,97.1491,0.00322629,0.0936322,20.9459,6.85602,0.119376,0.0,0.0
2430,607.25,42.8757,45.3823,151.925,98.3098,97.6988,0.00341351,0.0887342,20.954,6.836,0.0557674,0.0,0.0
2460,614.75,42.4268,44.2928,153.131,98.2397,96.558,0.00337902,0.0858508,20.9577,6.81599,0.154458,0.0,0.0
2490,622.25,41.905,44.1842,152.841,98.2101,96.3328,0.0031357,0.0866304,20.9581,6.73592,0.172645,0.0,0.0
2520,629.75,41.5287,43.8961,152.577,98.2382,97.8441,0.00243138,0.0845417,20.9618,6.72591,0.0359591,0.0,0.0
2550,637.25,41.4718,43.5915,153.302,98.3181,96.9787,0.00250155,0.0831841,20.9646,6.70589,0.122701,0.0,0.0
2580,644.75,41.2136,42.7213,159.27,98.4613,98.2624,0.00211428,0.0820572,20.9679,6.66585,0.0180886,0.0,0.0
2610,652.25,40.7858,42.3193,154.778,98.6268,97.2553,0.00185032,0.0818522,20.9687,6.66585,0.125262,0.0,0.0
2640,659.75,40.9611,43.1723,153.49,98.8171,98.5502,0.00210463,0.0817164,20.9655,6.64584,0.0241887,0.0,0.0
2670,667.25,40.9152,42.6766,152.265,98.9936,98.0024,0.00177134,0.0820677,20.9639,6.65585,0.090013,0.0,0.0
2700,674.75,40.7238,42.3562,155.399,99.121,98.1655,0.00167128,0.0820474,20.9619,6.64584,0.086651,0.0,0.0
2730,682.25,40.0897,41.5907,150.281,99.1542,98.3374,0.00174092,0.0820432,20.9647,6.6058,0.0739986,0.0,0.0
2760,689.75,40.5591,41.9167,158.108,99.0707,99.1606,0.00153268,0.0824212,20.9652,6.57578,-0.0081118,0.0,0.0
2790,697.25,40.2804,41.946,154.466,98.8622,98.8713,0.0015868,0.0826751,20.9638,6.57578,-0.000820607,0.0,0.0
2820,704.75,39.4965,41.4339,149.536,98.6442,98.8122,0.00140776,0.0828818,20.9655,6.56577,-0.0152225,0.0,0.0
2850,712.25,40.1527,41.9656,158.107,98.4305,99.4198,0.00126785,0.0828828,20.9636,6.52573,-0.0894641,0.0,0.0
2880,719.75,38.759,41.4012,150.039,98.476,98.8593,,0.0834213,,6.52573,-0.0347515,0.0,0.0
2910,727.25,39.166,41.0048,153.456,98.7676,98.9709,,,,6.4857,-0.0183951,0.0,0.0
2919,729.5,39.8182,41.6108,154.395,98.8088,98.9026,,,,6.50571,-0.00848591,0.0,0.0