File: 01_Data/PVC/Cone/PVC_Cone_HF25Scan_220218_R2.csv
Names,Time,Stack TC,Smoke TC,Exh Press,Smoke Comp,Smoke Meas,CO Meter,CO2 Meter,O2 Meter,Sample Mass,Ext Coeff,Start Test,Flame Verif
Chan Gain,,500,500,1,1,1,1,1,1,1,1,1.0,1.0
Offset,,0,0,0.132436,0,0,0,0,0,0,0,0.0,0.0
Gain,,1,1,25.011,15.4219,15.1528,1,1,1,1.00089,1.02113,1.0,1.0
Units,sec,C,C,Pa,%,%,%,%,%,g,/m,,
Baseline,,23.5566,24.3785,162.569,116.31,115.696,-0.00891854,0.0563413,20.975,-479.497,0.0474623,,
35,8.5,22.4201,22.9922,158.607,116.092,115.359,-0.0089041,0.0547469,20.9799,439.409,0.0567415,0.0,0.0
70,17.25,21.3451,22.659,163.37,115.994,115.097,-0.00889924,0.0589029,20.9738,439.399,0.0695317,0.0,0.0
105,26,22.4252,22.8822,163.743,115.839,115.57,-0.00897903,0.0537417,20.9815,439.379,0.0208275,0.0,0.0
140,34.75,22.6393,23.3837,162.902,115.654,114.969,-0.00900254,0.0520188,20.9843,439.419,0.0532277,0.0,0.0
175,43.5,22.905,23.6568,165.794,115.395,115.306,-0.00888027,0.0522715,20.9836,439.329,0.00685897,0.0,0.0
210,52.25,22.8377,23.2204,158.553,115.173,115.071,-0.00876753,0.0517164,20.9843,439.299,0.00790347,0.0,0.0
245,61,21.9729,23.5387,158.797,114.976,113.832,-0.00888803,0.0508823,20.9876,439.319,0.089582,0.0,0.0
280,69.75,22.8606,23.9873,165.177,114.777,114.278,-0.00879818,0.0505547,20.9878,439.279,0.0389768,0.0,0.0
315,78.5,23.3437,24.0075,160.367,114.665,113.556,-0.00870006,0.0504851,20.9868,439.339,0.0870635,0.0,0.0
350,87.25,22.6053,24.4684,162.001,114.62,112.449,-0.00899257,0.0519014,20.9865,439.149,0.171285,0.0,0.0
385,96,23.0777,23.6946,162.005,114.611,110.284,-0.00830581,0.052902,20.9864,438.779,0.344694,0.0,0.0
420,104.75,23.1132,24.2938,160.748,114.727,109.513,-0.00794999,0.0532959,20.9837,438.268,0.416604,0.0,0.0
455,113.5,23.7174,25.325,160.297,114.888,109.148,-0.00796497,0.0541154,20.9833,437.818,0.459091,0.0,0.0
490,122.25,23.8249,25.2527,159.238,115.135,108.488,-0.00807838,0.0546267,20.9824,437.217,0.532689,0.0,0.0
525,131,23.7952,25.6081,157.472,115.448,108.541,-0.00777039,0.0540115,20.982,436.707,0.552616,0.0,0.0
560,139.75,24.0443,25.2832,162.057,115.779,110.178,-0.00767411,0.0533907,20.9836,436.126,0.444128,0.0,0.0
595,148.5,24.1736,25.5541,158.468,116.102,111.065,-0.00820594,0.0533091,20.9834,435.586,0.397256,0.0,0.0
630,157.25,24.0036,25.247,160.254,116.288,109.817,-0.00787777,0.0534511,20.9823,435.115,0.512886,0.0,0.0
665,166,23.9144,25.0912,163.733,116.461,110.569,-0.00767143,0.0542075,20.9826,434.715,0.465022,0.0,0.0
700,174.75,23.6554,25.624,160.599,116.706,111.293,-0.00758523,0.055078,20.9813,434.245,0.425389,0.0,0.0
735,183.5,24.6683,25.7057,157.687,116.902,110.95,-0.00755576,0.0565624,20.9795,433.914,0.468097,0.0,0.0
770,192.25,24.7031,26.7119,159.321,117.028,111.798,-0.00766128,0.0541356,20.9831,433.394,0.409511,0.0,0.0
805,201,24.8264,26.1624,164.031,117.056,111.79,-0.00764395,0.0558718,20.9818,433.034,0.41234,0.0,0.0
840,209.75,24.5279,26.2762,156.137,117.036,111.068,-0.00737756,0.0556216,20.9768,432.713,0.468817,0.0,0.0
875,218.5,25.1686,26.3986,163.101,116.937,111.882,-0.00709572,0.0577427,20.9737,432.333,0.39589,0.0,0.0
910,227.25,25.0582,26.3245,161.286,116.784,110.811,-0.0073697,0.0575598,20.9746,432.073,0.47025,0.0,0.0
945,236,24.6862,26.5263,157.265,116.647,111.238,-0.00715621,0.057712,20.976,431.792,0.425266,0.0,0.0
980,244.75,25.1415,26.744,165.02,116.504,112.105,-0.00717933,0.0584377,20.9753,431.502,0.344798,0.0,0.0
1015,253.5,24.4603,26.3279,160.441,116.403,111.238,-0.00752668,0.0560704,20.979,431.132,0.406563,0.0,0.0
1050,262.25,25.2542,26.4946,160.135,116.327,111.309,-0.00774669,0.055203,20.9793,430.912,0.394924,0.0,0.0
1085,271,25.2507,26.3659,163.848,116.271,111.154,-0.00801702,0.0529109,20.9828,430.641,0.403196,0.0,0.0
1120,279.75,24.8221,27.0117,161.648,116.217,111.548,-0.00795978,0.0535622,20.9819,430.401,0.367296,0.0,0.0
1155,288.5,25.2536,26.8906,158.347,116.162,110.93,-0.00804962,0.0540382,20.9803,430.151,0.412761,0.0,0.0
1190,297.25,24.9641,27.1352,157.547,116.175,112.28,-0.00783957,0.0535116,20.9828,429.881,0.305477,0.0,0.0
1225,306,24.7555,26.3852,157.433,116.357,112.161,-0.00772895,0.0540146,20.9819,429.58,0.328959,0.0,0.0
1260,314.75,25.0062,26.5864,159.563,116.553,111.016,-0.00746091,0.0584162,20.9753,429.37,0.435963,0.0,0.0
1295,323.5,25.0295,26.7045,158.174,116.687,105.128,-0.00484443,0.0721122,20.9499,429.04,0.934368,0.0,1.0
1330,332.25,26.199,27.7631,153.831,116.774,74.4324,0.00269829,0.144841,20.8031,428.62,4.0339,0.0,0.0
1365,341,28.153,30.2538,155.693,116.833,86.0023,0.00366534,0.161633,20.7883,428.049,2.74427,0.0,0.0
1400,349.75,29.1027,31.7057,163.043,116.85,91.2351,0.00329535,0.157691,20.8052,427.459,2.21647,0.0,0.0
1435,358.5,30.6204,33.1042,156.807,116.873,102.28,0.00151665,0.153034,20.8219,426.878,1.19467,0.0,0.0
1470,367.25,30.7101,33.5787,157.765,116.872,106.944,-0.000912163,0.137424,20.8574,426.398,0.795149,0.0,0.0
1505,376,30.9016,33.0808,157.815,116.868,108.228,-0.00389056,0.0966743,20.9243,426.067,0.688021,0.0,0.0
1540,384.75,30.0968,32.2357,160.773,116.85,110.884,-0.0062273,0.069129,20.9639,425.827,0.469434,0.0,0.0
1575,393.5,28.6165,31.5972,163.495,116.795,112.268,-0.00724761,0.0582314,20.9762,425.547,0.354136,0.0,0.0
1610,402.25,27.9519,30.403,162.499,116.728,112.302,-0.00775646,0.0548394,20.9806,425.267,0.346207,0.0,0.0
1645,411,27.3843,29.6578,162.246,116.669,113.752,-0.00834119,0.0537888,20.9806,425.056,0.226802,0.0,0.0
1680,419.75,27.5679,28.6458,163.302,116.578,113.571,-0.00802024,0.0536235,20.9794,424.866,0.234074,0.0,0.0
1715,428.5,26.3593,28.3988,156.946,116.46,113.62,-0.0079055,0.0533369,20.9795,424.716,0.221129,0.0,0.0
1750,437.25,26.289,28.4024,159.319,116.247,113.54,-0.00815596,0.0533741,20.9815,424.436,0.211097,0.0,0.0
1785,446,26.3495,27.8533,159.67,116.06,113.473,-0.00825096,0.052906,20.9827,424.276,0.201907,0.0,0.0
1820,454.75,25.9489,28.1368,159.216,115.995,114,-0.0076079,0.052721,20.9837,424.116,0.155341,0.0,0.0
1855,463.5,25.9863,27.2826,160.59,116.031,113.759,-0.00770803,0.0526196,20.9825,423.865,0.177161,0.0,0.0
1890,472.25,25.6102,26.6956,162.631,116.054,113.145,-0.00790626,0.0527262,20.9808,423.765,0.227389,0.0,0.0
1925,481,25.2399,26.8703,159.987,116.064,113.777,-0.00814212,0.0529088,20.9807,423.605,0.178283,0.0,0.0
1960,489.75,25.533,27.3844,162.289,116.095,113.315,-0.00802859,0.0529873,20.9803,423.465,0.217124,0.0,0.0
1995,498.5,25.7272,26.7842,160.162,116.107,113.518,-0.00819675,0.0527669,20.981,423.195,0.202036,0.0,0.0
2030,507.25,25.1504,26.485,157.904,116.105,113.043,-0.00817018,0.0532311,20.9806,422.955,0.239442,0.0,0.0
2065,516,25.371,26.8897,159.97,116.134,113.788,-0.00744781,0.0529659,20.9799,422.834,0.182749,0.0,0.0
2100,524.75,25.2932,26.304,159.438,116.136,113.132,-0.00794291,0.0529228,20.9795,422.674,0.234696,0.0,0.0
2135,533.5,24.6832,26.4682,161.463,116.134,113.735,-0.00791503,0.0529308,20.981,422.504,0.186972,0.0,0.0
2170,542.25,25.2773,25.733,165.895,116.156,114.733,-0.00797192,0.0527284,20.9799,422.324,0.110356,0.0,0.0
2205,551,25.1824,26.7481,157.889,116.151,113.365,-0.00798708,0.0528425,20.9814,422.134,0.217497,0.0,0.0
2240,559.75,25.2888,26.7338,160.555,116.143,113.682,-0.00763853,0.0527635,20.9811,421.974,0.191887,0.0,0.0
2275,568.5,24.9629,26.9177,166.356,116.143,113.445,-0.00766974,0.0529452,20.9816,421.784,0.210598,0.0,0.0
2310,577.25,24.6693,26.8018,155.063,116.145,113.247,-0.00798756,0.0529191,20.9815,421.543,0.226384,0.0,0.0
2345,586,25.1097,26.7011,159.54,116.16,112.51,-0.00849982,0.0528268,20.98,421.533,0.285964,0.0,0.0
2380,594.75,25.5288,27.0579,159.011,116.148,113.399,-0.00780613,0.0527232,20.98,421.293,0.214503,0.0,0.0
2415,603.5,25.2911,27.0013,163.111,116.148,112.634,-0.00776202,0.0527212,20.9807,421.143,0.275195,0.0,0.0
2450,612.25,25.0402,27.1336,158.579,116.146,112.657,-0.00774073,0.0527142,20.9797,420.863,0.273248,0.0,0.0
2485,621,25.1933,26.6927,162.173,116.124,112.475,-0.0077888,0.0527987,20.9814,420.683,0.286003,0.0,0.0
2520,629.75,25.407,26.5534,158.81,116.138,113.022,-0.00794486,0.0529849,20.982,420.582,0.243559,0.0,0.0
2555,638.5,25.7209,26.6212,157.024,116.138,112.638,-0.00798473,0.0528988,20.982,420.412,0.274139,0.0,0.0
2590,647.25,25.0591,26.5496,163.292,116.167,112.855,-0.00775761,0.0528177,20.9813,420.162,0.259123,0.0,0.0
2625,656,24.6997,26.2414,162.853,116.205,113.463,-0.00787311,0.0534539,20.979,420.082,0.213891,0.0,0.0
2660,664.75,24.7695,26.7474,161.215,116.223,113.523,-0.00797947,0.0530734,20.9791,419.922,0.210561,0.0,0.0
2695,673.5,25.3026,26.844,163.417,116.258,113.882,-0.00758992,0.0532062,20.9795,419.652,0.184976,0.0,0.0
2730,682.25,25.3917,27.159,160.292,116.287,113.852,-0.00775224,0.0537879,20.9795,419.502,0.18948,0.0,0.0
2765,691,24.9855,26.8289,161.342,116.319,113.591,-0.00741441,0.0540266,20.9787,419.401,0.212559,0.0,0.0
2800,699.75,25.2539,26.8361,161.199,116.305,112.77,-0.00722595,0.0536413,20.9789,419.251,0.276432,0.0,0.0
2835,708.5,25.3204,26.8723,163.568,116.313,114.745,-0.00748894,0.056859,20.9737,419.051,0.121603,0.0,0.0
2870,717.25,24.6996,26.6863,163.668,116.357,113.241,-0.00760353,0.0549113,20.9765,418.861,0.243104,0.0,0.0
2905,726,24.7633,26.543,159.721,116.35,112.495,-0.00767378,0.0537255,20.9788,418.641,0.301793,0.0,0.0
2940,734.75,24.6085,26.197,158.504,116.35,113.209,-0.00745501,0.0536142,20.9793,418.511,0.245086,0.0,0.0
2975,743.5,24.9269,26.2421,163.285,116.339,113.801,-0.00774817,0.0534473,20.9781,418.381,0.197578,0.0,0.0
3010,752.25,24.6602,26.2817,163.881,116.311,113.558,-0.00781392,0.0535763,20.9781,418.14,0.214533,0.0,0.0
3045,761,24.9616,26.304,157.201,116.283,113.17,-0.00745324,0.0533878,20.9806,418.04,0.243049,0.0,0.0
3080,769.75,24.4012,26.3262,159.036,116.236,112.409,-0.00773671,0.0533594,20.979,417.84,0.299907,0.0,0.0
3115,778.5,24.2521,26.0009,160.548,116.192,113.391,-0.00753743,0.0535161,20.9789,417.75,0.218535,0.0,0.0
3150,787.25,25.0417,25.8412,161.916,116.09,112.199,-0.00735274,0.053655,20.9787,417.54,0.305365,0.0,0.0
3185,796,24.8034,25.8866,163.6,115.967,112.585,-0.00760669,0.053424,20.9788,417.4,0.265184,0.0,0.0
3220,804.75,25.1091,26.1,159.872,115.838,112.144,-0.00786696,0.0536315,20.9797,417.179,0.290275,0.0,0.0
3255,813.5,24.6403,26.2212,156.639,115.681,112.243,-0.00742738,0.05362,20.9787,417.039,0.27021,0.0,0.0
3290,822.25,24.7954,26.4334,159.504,115.583,112.315,-0.00768615,0.0534511,20.9779,416.819,0.256946,0.0,0.0
3325,831,24.9894,26.615,164.189,115.411,112.628,,,,416.719,0.218582,0.0,0.0
3347,836.5,24.8475,25.9322,158.542,115.35,111.696,,,,416.579,0.288355,0.0,0.0