File: 01_Data/PVC/Cone/PVC_Cone_HF50Scan_220218_R1.csv
Names,Time,Stack TC,Smoke TC,Exh Press,Smoke Comp,Smoke Meas,CO Meter,CO2 Meter,O2 Meter,Sample Mass,Ext Coeff,Start Test,Flame Verif
Chan Gain,,500,500,1,1,1,1,1,1,1,1,1.0,1.0
Offset,,0,0,0.132436,0,0,0,0,0,0,0,0.0,0.0
Gain,,1,1,25.011,15.4219,15.1528,1,1,1,1.00089,1.02113,1.0,1.0
Units,sec,C,C,Pa,%,%,%,%,%,g,/m,,
Baseline,,43.7099,44.4862,151.952,116.002,111.822,-0.00804017,0.0503392,20.9867,-479.634,0.328806,,
27,6.5,40.6708,41.8228,151.178,116.143,112.32,-0.00827588,0.0512595,20.9893,438.338,0.299874,0.0,0.0
54,13.25,41.1428,41.9538,153.28,116.273,113.079,-0.00824802,0.0513307,20.9895,438.298,0.249464,0.0,0.0
81,20,41.4568,42.3345,153.967,116.352,111.114,-0.00790581,0.0496044,20.9907,438.308,0.412636,0.0,0.0
108,26.75,41.3476,42.8676,151.865,116.372,103.009,-0.00548026,0.052644,20.9828,437.768,1.09254,0.0,0.0
135,33.5,41.9292,43.9119,146.149,116.393,96.7658,-0.000240643,0.0741417,20.9456,436.617,1.65424,0.0,0.0
162,40.25,44.8249,46.7304,143.201,116.44,96.0536,0.0167988,0.176745,20.727,435.346,1.72399,0.0,0.0
189,47,48.3713,51.0872,133.422,116.456,34.332,0.0383076,0.310221,20.4526,433.804,10.9407,0.0,1.0
216,53.75,51.9424,55.5969,139.364,116.471,55.2217,0.0372924,0.304482,20.5091,432.463,6.68463,0.0,0.0
243,60.5,53.9766,58.5115,138.933,116.491,63.5797,0.035866,0.288495,20.5714,431.262,5.42378,0.0,0.0
270,67.25,56.0577,60.6514,139.851,116.495,60.0088,0.0334144,0.289231,20.5754,430.081,5.94185,0.0,0.0
297,74,57.5248,62.2686,146.433,116.492,61.7605,0.0314918,0.281987,20.5839,428.78,5.68392,0.0,0.0
324,80.75,58.4929,63.86,140.938,116.475,58.5827,0.0304451,0.278257,20.5947,427.679,6.15578,0.0,0.0
351,87.5,59.5978,65.0149,140.453,116.479,61.4978,0.0301604,0.27441,20.6015,426.568,5.72104,0.0,0.0
378,94.25,60.6142,65.8784,143.217,116.468,60.4254,0.0277547,0.260963,20.6285,425.537,5.87782,0.0,0.0
405,101,60.6933,66.6911,138.643,116.419,62.886,0.0253603,0.248473,20.6493,424.556,5.5165,0.0,0.0
432,107.75,61.6,66.8862,138.867,116.372,62.5073,0.0219948,0.235565,20.6751,423.655,5.56702,0.0,0.0
459,114.5,61.5947,67.0071,138.003,116.293,69.4164,0.0202105,0.223583,20.6973,422.794,4.62182,0.0,0.0
486,121.25,61.1604,66.6028,138.59,116.213,74.0994,0.0190773,0.214384,20.7115,421.954,4.03088,0.0,0.0
513,128,61.5571,66.8551,137.235,116.121,76.2021,0.0180137,0.203057,20.7331,421.233,3.77318,0.0,0.0
540,134.75,60.8851,66.2794,142.395,116.012,76.8675,0.0161104,0.191597,20.7501,420.492,3.68691,0.0,0.0
567,141.5,60.6808,65.7584,138.272,115.92,76.5003,0.015792,0.186492,20.756,419.812,3.72271,0.0,0.0
594,148.25,59.696,64.9288,141.926,115.912,74.265,0.0150648,0.184172,20.7582,419.181,3.98769,0.0,0.0
621,155,60.4133,65.1934,144.827,116.131,75.5847,0.0140825,0.182314,20.7609,418.481,3.8468,0.0,0.0
648,161.75,59.9875,64.7447,143.003,116.296,76.0032,0.0125907,0.181048,20.7668,417.84,3.81011,0.0,0.0
675,168.5,60.1617,64.8525,143.627,116.419,83.4455,0.0117088,0.175252,20.776,417.24,2.98279,0.0,0.0
702,175.25,59.837,64.4844,142.019,116.494,83.2324,0.0115016,0.176166,20.7776,416.579,3.01143,0.0,0.0
729,182,59.6304,64.6274,144.228,116.539,83.6055,0.0124793,0.17751,20.7734,415.918,2.97483,0.0,0.0
756,188.75,59.7211,64.2777,141.07,116.53,87.5029,0.0126993,0.179069,20.7678,415.208,2.56603,0.0,0.0
783,195.5,59.6599,64.0565,144.118,116.473,85.8294,0.0126384,0.184119,20.7639,414.607,2.73466,0.0,0.0
810,202.25,59.4693,63.7603,144.932,116.348,85.7304,0.0133779,0.181806,20.7697,413.927,2.73533,0.0,0.0
837,209,59.3867,63.8878,142.769,116.165,81.2083,0.0133434,0.179063,20.7715,413.256,3.20665,0.0,0.0
864,215.75,59.2931,63.3744,146.645,115.949,83.1491,0.0141319,0.177408,20.7705,412.585,2.97842,0.0,0.0
891,222.5,59.3683,63.3541,139.504,115.65,77.9575,0.0167836,0.192435,20.7321,411.825,3.5328,0.0,0.0
918,229.25,59.9948,64.2045,141.187,115.58,77.692,0.0190403,0.208937,20.7086,411.194,3.55792,0.0,0.0
945,236,60.0904,64.3541,142.516,115.611,80.2784,0.0188995,0.207222,20.7143,410.474,3.267,0.0,0.0
972,242.75,58.8031,63.4667,144.536,115.655,74.7935,0.0176399,0.194354,20.7402,409.793,3.90428,0.0,0.0
999,249.5,60.0447,64.2219,143.917,115.719,79.4488,0.0160487,0.178718,20.7708,409.172,3.36842,0.0,0.0
1026,256.25,59.7839,63.8499,145.091,115.768,84.5101,0.013399,0.161424,20.7979,408.642,2.81899,0.0,0.0
1053,263,59.15,62.9834,140.778,115.816,83.5547,0.0119203,0.154036,20.8098,408.091,2.92455,0.0,0.0
1080,269.75,58.6999,62.7982,146.486,115.852,88.1133,0.0104536,0.145798,20.8235,407.621,2.45152,0.0,0.0
1107,276.5,58.5069,62.3118,144.054,115.89,92.1276,0.00928883,0.139534,20.8314,407.121,2.05541,0.0,0.0
1134,283.25,57.5228,61.6407,145.254,115.912,86.8171,0.00897373,0.143835,20.8222,406.68,2.58888,0.0,0.0
1161,290,56.8413,60.5943,143.848,115.959,87.8349,0.00871613,0.142673,20.8255,406.24,2.48816,0.0,0.0
1188,296.75,57.3763,61.005,144.129,115.978,88.5706,0.00827477,0.135879,20.8391,405.839,2.4149,0.0,0.0
1215,303.5,57.0255,60.0651,149.052,116.007,93.1792,0.00706362,0.128994,20.8492,405.479,1.96276,0.0,0.0
1242,310.25,56.7958,59.9931,149.44,115.971,93.877,0.00643346,0.127071,20.8524,405.029,1.89317,0.0,0.0
1269,317,55.9104,59.0384,146.57,115.918,95.4821,0.00640641,0.124856,20.8531,404.718,1.73721,0.0,0.0
1296,323.75,55.7934,59.079,147.095,115.832,93.0146,0.00653771,0.126958,20.8487,404.368,1.96511,0.0,0.0
1323,330.5,55.0626,58.2934,148.39,115.744,94.4902,0.00629699,0.127193,20.8484,404.048,1.81732,0.0,0.0
1350,337.25,55.688,58.6868,146.432,115.671,91.169,0.00618949,0.125657,20.8511,403.738,2.13213,0.0,0.0
1377,344,55.5268,58.1638,147.269,115.613,90.0134,0.00545315,0.125148,20.8507,403.437,2.24191,0.0,0.0
1404,350.75,54.6971,57.8739,146.342,115.563,92.2701,0.00561175,0.127556,20.8468,403.117,2.01622,0.0,0.0
1431,357.5,54.2407,56.9103,146.66,115.502,94.8509,0.00488246,0.125966,20.8508,402.837,1.76441,0.0,0.0
1458,364.25,54.2286,57.2532,145.448,115.426,89.0664,0.00485058,0.132303,20.8362,402.557,2.32213,0.0,0.0
1485,371,54.8363,57.7363,145.922,115.375,85.7891,0.00498023,0.145415,20.8111,402.266,2.65398,0.0,0.0
1512,377.75,54.6839,57.6046,143.526,115.31,87.4978,0.00486387,0.151307,20.8022,401.956,2.47233,0.0,0.0
1539,384.5,54.4531,57.2742,146.351,115.247,87.6763,0.0046967,0.149985,20.812,401.696,2.44914,0.0,0.0
1566,391.25,54.6259,57.5743,145.699,115.215,91.6966,0.00389165,0.146616,20.8195,401.446,2.04506,0.0,0.0
1593,398,54.3025,57.2504,148.266,115.214,90.1286,0.00292472,0.141036,20.8331,401.215,2.19949,0.0,0.0
1620,404.75,54.239,57.106,154.235,115.213,97.3484,0.00200529,0.134373,20.8446,400.975,1.50917,0.0,0.0
1647,411.5,54.1805,56.8164,146.379,115.225,92.8638,0.00135151,0.130456,20.8524,400.805,1.93253,0.0,0.0
1674,418.25,53.5601,56.1802,144.471,115.235,96.0217,0.000808677,0.127904,20.8562,400.625,1.63377,0.0,0.0
1701,425,53.5374,55.7823,147.852,115.276,96.8236,0.000897373,0.126539,20.859,400.465,1.56246,0.0,0.0
1728,431.75,52.74,55.3412,145.202,115.339,98.5669,4.40212e-05,0.126633,20.8586,400.315,1.40755,0.0,0.0
1755,438.5,52.8224,55.475,149.898,115.388,95.5024,-0.000488742,0.125261,20.8631,400.184,1.69422,0.0,0.0
1782,445.25,52.5313,55.2034,147.191,115.417,100.76,-0.000501916,0.12505,20.8648,400.094,1.21653,0.0,0.0
1809,452,52.5863,55.1654,151.458,115.443,100.93,-0.00173588,0.124473,20.865,399.964,1.20342,0.0,0.0
1836,458.75,52.1239,54.6921,151.202,115.46,105.799,-0.00192011,0.119931,20.875,399.874,0.782733,0.0,0.0
1863,465.5,51.9858,54.3079,148.781,115.487,104.325,-0.002674,0.11614,20.8818,399.764,0.910501,0.0,0.0
1890,472.25,51.4908,54.2191,147.579,115.502,105.625,-0.00313651,0.114355,20.8854,399.694,0.800717,0.0,0.0
1917,479,51.3029,53.7764,148.859,115.547,106.715,-0.00372981,0.111062,20.8913,399.644,0.712261,0.0,0.0
1944,485.75,51.3474,53.4609,152.521,115.536,107.093,-0.0038347,0.107311,20.8987,399.564,0.679692,0.0,0.0
1971,492.5,50.288,52.5829,148.595,115.531,107.792,-0.00434208,0.103108,20.9064,399.524,0.621075,0.0,0.0
1998,499.25,50.7174,52.9438,149.245,115.534,107.342,-0.00468004,0.0989153,20.9115,399.474,0.658725,0.0,0.0
2025,506,50.0827,52.2112,148.753,115.522,110.307,-0.00488251,0.0945702,20.9203,399.464,0.413744,0.0,0.0
2052,512.75,49.544,51.645,148.37,115.504,111.454,-0.00475142,0.0900753,20.9269,399.404,0.31975,0.0,0.0
2079,519.5,48.9856,50.9367,150.768,115.507,111.141,-0.00468962,0.0843371,20.9357,399.354,0.345164,0.0,0.0
2106,526.25,48.3306,50.1536,148.469,115.515,110.795,-0.00478137,0.0809724,20.9409,399.364,0.373668,0.0,0.0
2133,533,48.102,49.8232,150.997,115.5,111.487,-0.00480058,0.0777611,20.9449,399.334,0.316747,0.0,0.0
2160,539.75,47.7709,50.0614,149.333,115.479,111.354,-0.0051252,0.0767965,20.9479,399.334,0.325809,0.0,0.0
2187,546.5,47.5901,49.2616,150.53,115.481,110.526,-0.00602561,0.0763278,20.9489,399.324,0.392861,0.0,0.0
2214,553.25,47.0556,49.0886,150.791,115.459,110.983,-0.00620794,0.0755627,20.9495,399.274,0.354123,0.0,0.0
2241,560,47.4609,48.3961,148.377,115.435,111.044,-0.00662352,0.0745726,20.9515,399.304,0.347371,0.0,0.0
2268,566.75,46.2376,48.4893,151.074,115.402,111.797,-0.00681641,0.0742233,20.9531,399.254,0.28422,0.0,0.0
2295,573.5,46.6874,48.4133,148.138,115.382,111.267,-0.00677858,0.0741794,20.9533,399.234,0.325318,0.0,0.0
2322,580.25,46.9417,48.4971,150.947,115.366,111.138,-0.00717226,0.0742761,20.9526,399.244,0.334394,0.0,0.0
2349,587,46.189,48.2069,147.727,115.35,110.955,-0.00719454,0.0745728,20.952,399.224,0.347923,0.0,0.0
2376,593.75,46.0925,47.7481,151.414,115.347,112.534,-0.0075853,0.075652,20.9498,399.214,0.221117,0.0,0.0
2403,600.5,45.664,47.9313,148.372,115.346,111.219,-0.00758737,0.0766023,20.949,399.184,0.326303,0.0,0.0
2430,607.25,45.7261,47.7566,149.996,115.327,111.05,-0.00727577,0.0773591,20.9477,399.184,0.338482,0.0,0.0
2457,614,45.7694,47.5141,149.36,115.312,112.281,-0.00715946,0.0767888,20.9468,399.164,0.238606,0.0,0.0
2484,620.75,45.2672,46.9296,154.447,115.307,111.138,-0.00734511,0.0760889,20.9479,399.164,0.329863,0.0,0.0
2511,627.5,45.3188,47.4445,153.85,115.334,111.457,-0.00728546,0.075758,20.948,399.133,0.306304,0.0,0.0
2538,634.25,44.8192,47.5824,148.476,115.375,111.164,-0.00728749,0.0759871,20.9488,399.073,0.333038,0.0,0.0
2565,641,45.2128,47.0205,151.2,115.425,111.311,,,,399.073,0.325108,0.0,0.0
2592,647.75,45.1923,47.034,147.855,115.477,111.097,,,,399.073,0.346296,0.0,0.0