File: 01_Data/PVC/Cone/PVC_Cone_HF75Scan_220210_R2.csv
Names,Time,Stack TC,Smoke TC,Exh Press,Smoke Comp,Smoke Meas,CO Meter,CO2 Meter,O2 Meter,Sample Mass,Ext Coeff,Start Test,Flame Verif
Chan Gain,,500,500,1,1,1,1,1,1,1,1,1.0,1.0
Offset,,0,0,0.140898,0,0,0,0,0,0,0,0.0,0.0
Gain,,1,1,25.011,12.9668,12.6588,1,1,1,1.00088,1.01977,1.0,1.0
Units,sec,C,C,Pa,%,%,%,%,%,g,/m,,
Baseline,,47.9387,50.5723,149.955,98.8686,98.7801,-0.000172506,0.0658335,20.9802,-865.195,0.00813307,,
18,4.25,45.645,48.6501,149.644,98.383,99.5891,-0.000177454,0.0736813,20.9685,42.1971,-0.108992,0.0,0.0
36,8.75,46.078,48.8071,145.991,98.5326,98.1674,-0.000159262,0.0732107,20.9692,42.137,0.0332143,0.0,0.0
54,13.25,46.8176,49.0339,150.243,98.6086,92.2954,0.00115418,0.0724861,20.9714,41.9368,0.591857,0.0,0.0
72,17.75,47.0779,50.1382,142.333,98.5998,82.2083,0.0107315,0.0986562,20.9252,41.0961,1.62639,0.0,0.0
90,22.25,50.7431,54.2326,130.906,98.4962,68.207,0.0353463,0.255516,20.618,39.7449,3.28715,0.0,0.0
108,26.75,54.3922,59.8624,133.311,98.2801,29.8028,0.0586061,0.416156,20.3523,38.6339,10.6737,0.0,1.0
126,31.25,56.9255,63.3935,135.981,98.0474,73.1646,0.056505,0.46452,20.287,37.4329,2.61866,0.0,0.0
144,35.75,60.238,67.5396,136.874,97.7752,39.8208,0.0555596,0.485411,20.279,36.5021,8.03543,0.0,0.0
162,40.25,62.4467,70.878,136.929,97.5457,27.4865,0.0668388,0.480879,20.2657,35.251,11.3304,0.0,0.0
180,44.75,64.8921,72.8081,136.831,97.3985,27.8492,0.0650431,0.415989,20.3484,33.9999,11.1996,0.0,0.0
198,49.25,66.1562,75.2837,134.213,97.3886,31.1062,0.0603765,0.372189,20.4129,32.8188,10.2093,0.0,0.0
216,53.75,67.0384,76.5568,139.128,97.4954,30.6349,0.0556868,0.349541,20.4503,31.838,10.3557,0.0,0.0
234,58.25,68.0918,77.4176,137.15,97.7087,32.237,0.0519392,0.334229,20.4761,30.797,9.91927,0.0,0.0
252,62.75,68.3984,78.0922,135.147,98.0189,34.2196,0.0489214,0.321079,20.5061,29.7561,9.41374,0.0,0.0
270,67.25,69.3931,78.5352,137.998,98.3652,38.3211,0.0457467,0.308794,20.5296,28.7853,8.43265,0.0,0.0
288,71.75,69.6872,79.196,137.338,98.7217,40.0495,0.0428536,0.29294,20.5603,27.9345,8.07039,0.0,0.0
306,76.25,69.0608,79.0448,139.526,98.9936,38.5498,0.0414395,0.285261,20.5739,27.0738,8.43638,0.0,0.0
324,80.75,70.1275,78.7695,136.319,99.1709,45.1983,0.0398868,0.281625,20.5801,26.243,7.02911,0.0,0.0
342,85.25,69.7526,79.1117,135.578,99.2235,40.9214,0.038066,0.278531,20.592,25.4223,7.92308,0.0,0.0
360,89.75,69.8242,79.2259,138.376,99.1776,47.1477,0.0374086,0.274515,20.6001,24.6817,6.652,0.0,0.0
378,94.25,69.664,78.7079,136.588,99.0169,47.8515,0.03607,0.267054,20.6144,23.961,6.50494,0.0,0.0
396,98.75,69.6208,78.9213,136.294,98.8104,49.6672,0.0360385,0.258314,20.6272,23.2104,6.15311,0.0,0.0
414,103.25,69.9617,78.7708,139.38,98.6149,53.6262,0.0356168,0.253389,20.6356,22.5598,5.44936,0.0,0.0
432,107.75,69.913,78.3731,137.844,98.4534,55.0367,0.0343192,0.246267,20.6479,21.8892,5.20247,0.0,0.0
450,112.25,69.4765,78.5233,140.73,98.5832,56.1852,0.0333353,0.240046,20.66,21.3187,5.0295,0.0,0.0
468,116.75,69.0887,77.3274,134.033,98.8167,58.6468,0.0329259,0.232808,20.6718,20.6882,4.66708,0.0,0.0
486,121.25,68.8156,77.729,134.1,98.9045,58.5166,0.032718,0.228213,20.6773,20.0476,4.69491,0.0,0.0
504,125.75,68.6548,77.5389,140.81,98.8428,59.2375,0.0327644,0.227193,20.679,19.5071,4.5798,0.0,0.0
522,130.25,69.2873,76.9731,138.473,98.6782,58.7298,0.0337,0.230571,20.6753,18.8766,4.64188,0.0,0.0
540,134.75,68.7466,77.3432,136.721,98.4012,54.932,0.0357782,0.231725,20.6709,18.236,5.21475,0.0,0.0
558,139.25,68.8213,77.217,138.08,98.0174,55.773,0.0380608,0.236608,20.6577,17.6455,5.04387,0.0,0.0
576,143.75,69.3691,76.6604,136.361,98.0993,49.9914,0.039412,0.247421,20.6361,17.0149,6.03032,0.0,0.0
594,148.25,69.1435,77.1651,139.043,98.1903,51.391,0.0396402,0.26082,20.6131,16.3544,5.79161,0.0,0.0
612,152.75,68.7445,77.6345,132.327,98.2849,48.2309,0.0392355,0.271749,20.5998,15.6537,6.36792,0.0,0.0
630,157.25,69.7116,77.5044,138.921,98.4214,50.9796,0.0373456,0.267651,20.6094,14.9331,5.88454,0.0,0.0
648,161.75,70.1479,77.5446,140.259,98.5346,61.2397,0.0358354,0.259499,20.6275,14.2525,4.2545,0.0,0.0
666,166.25,69.6895,77.3108,139.725,98.5998,54.6955,0.0360638,0.256422,20.631,13.662,5.27138,0.0,0.0
684,170.75,69.488,77.3923,135.996,98.6192,54.6283,0.0357581,0.257845,20.6312,12.9814,5.28414,0.0,0.0
702,175.25,69.2804,77.4296,139.135,98.6141,61.3927,0.0338799,0.250109,20.6429,12.3508,4.2394,0.0,0.0
720,179.75,69.1397,76.4749,140.195,98.5433,64.1665,0.0312867,0.241101,20.6639,11.7503,3.83768,0.0,0.0
738,184.25,68.7131,76.3668,137.944,98.4352,55.6841,0.0295867,0.231174,20.6804,11.33,5.09619,0.0,0.0
756,188.75,68.6585,75.9339,137.376,98.3023,63.7574,0.028094,0.220841,20.698,10.7795,3.87299,0.0,0.0
774,193.25,68.4219,75.3176,142.102,98.1693,62.2322,0.026038,0.213683,20.7101,10.279,4.07747,0.0,0.0
792,197.75,67.8786,75.2863,137.181,97.9976,63.079,0.0244526,0.2091,20.7176,9.85866,3.94091,0.0,0.0
810,202.25,67.7821,74.7353,142.691,97.8405,63.7141,0.0230658,0.202432,20.7337,9.42828,3.83694,0.0,0.0
828,206.75,67.3754,74.1837,139.208,97.7008,64.9098,0.0219167,0.198057,20.7402,9.05796,3.65785,0.0,0.0
846,211.25,66.7089,73.2241,138.202,97.5734,66.4485,0.0207435,0.19465,20.7466,8.6576,3.4366,0.0,0.0
864,215.75,66.3284,73.1005,137.706,97.4831,69.1133,0.0198721,0.191157,20.753,8.27727,3.07659,0.0,0.0
882,220.25,66.603,73.0101,140.814,97.4242,69.7677,0.0188337,0.185789,20.7635,7.967,2.98688,0.0,0.0
900,224.75,66.3784,72.1154,138.827,97.3648,70.562,0.0179942,0.181104,20.7724,7.65672,2.88016,0.0,0.0
918,229.25,66.1115,72.0365,142.616,97.3581,71.2438,0.0169729,0.178419,20.7772,7.35646,2.79352,0.0,0.0
936,233.75,65.5039,71.4294,139.78,97.389,71.3574,0.0162303,0.176131,20.781,7.08622,2.78211,0.0,0.0
954,238.25,65.3343,70.7775,144.715,97.4495,74.436,0.0162133,0.173895,20.7842,6.80598,2.40983,0.0,0.0
972,242.75,65.0045,70.4905,142.248,97.518,74.1126,0.0156065,0.173372,20.7855,6.57578,2.45506,0.0,0.0
990,247.25,64.7045,70.0324,145.763,97.6446,76.9968,0.0152687,0.170908,20.7911,6.29553,2.12514,0.0,0.0
1008,251.75,64.1233,69.688,138.97,97.7673,76.7353,0.0160344,0.162537,20.8054,6.08534,2.16681,0.0,0.0
1026,256.25,63.8555,69.0332,144.164,97.9212,76.7778,0.0160404,0.157027,20.8135,5.87516,2.17593,0.0,0.0
1044,260.75,63.5218,68.628,144.106,98.0751,77.6984,0.0154017,0.155302,20.8169,5.68499,2.08336,0.0,0.0
1062,265.25,63.2236,68.2348,147.075,98.2358,80.1071,0.0141363,0.153246,20.8222,5.49483,1.8249,0.0,0.0
1080,269.75,62.7647,67.5959,142.569,98.3925,79.2726,0.0116682,0.154725,20.8216,5.31467,1.93283,0.0,0.0
1098,274.25,62.9632,67.379,144.124,98.5373,81.2008,0.0103826,0.155167,20.8232,5.15453,1.73102,0.0,0.0
1116,278.75,62.4799,67.1604,144.922,98.6909,82.2307,0.00946781,0.155371,20.8244,4.98438,1.6322,0.0,0.0
1134,283.25,62.3858,66.635,144.108,98.8108,85.0454,0.00842057,0.152315,20.8312,4.87428,1.34199,0.0,0.0
1152,287.75,62.1654,66.7436,145.009,98.9524,86.1155,0.00756596,0.148429,20.8377,4.71414,1.24296,0.0,0.0
1170,292.25,61.5878,66.1755,143.257,99.0593,88.3588,0.00680921,0.144577,20.8469,4.67411,1.02256,0.0,0.0
1188,296.75,61.1522,65.7228,141.661,99.1345,91.155,0.00616335,0.141308,20.8534,4.554,0.750657,0.0,0.0
1206,301.25,61.0858,65.4423,144.97,99.193,88.8058,0.00545555,0.139473,20.8574,4.51396,0.989496,0.0,0.0
1224,305.75,60.9988,65.26,146.447,99.2294,94.6879,0.0049464,0.137414,20.8625,4.41388,0.41908,0.0,0.0
1242,310.25,60.8081,64.8889,146.502,99.2136,95.8151,0.00438808,0.135044,20.8691,4.36383,0.311785,0.0,0.0
1260,314.75,59.9642,65.2676,141.552,99.1768,96.6252,0.00400867,0.133067,20.8736,4.25374,0.233153,0.0,0.0
1278,319.25,60.1287,64.0973,144.158,99.1072,95.8035,0.00423296,0.129989,20.8785,4.28376,0.303266,0.0,0.0
1296,323.75,59.441,63.7145,147.095,98.9817,98.6831,0.00434827,0.1244,20.8876,4.27375,0.0270246,0.0,0.0
1314,328.25,58.8788,62.5489,144.327,98.8563,97.9221,0.00445474,0.118887,20.8991,4.23372,0.0849337,0.0,0.0
1332,332.75,58.4128,61.7265,149.248,98.7008,97.7502,0.00447807,0.114713,20.9046,4.17367,0.0865687,0.0,0.0
1350,337.25,57.6551,61.5414,144.665,98.5536,98.563,0.0044064,0.112864,20.9072,4.16366,-0.0008574,0.0,0.0
1368,341.75,56.995,60.8236,147.938,98.4566,97.6918,0.00430867,0.110759,20.9105,4.13363,0.0697525,0.0,0.0
1386,346.25,57.3578,60.6744,146.665,98.5318,98.1543,0.00374867,0.108297,20.9153,4.07358,0.0343382,0.0,0.0
1404,350.75,56.8957,60.3834,147.184,98.7534,98.4127,0.00293909,0.10556,20.9194,4.06357,0.0309117,0.0,0.0
1422,355.25,56.3923,59.6821,147.875,98.8677,98.3795,0.00224228,0.103725,20.9204,4.04355,0.0442852,0.0,0.0
1440,359.75,56.4995,59.7482,144.836,98.9251,98.1485,0.00174615,0.102654,20.9222,4.06357,0.0705058,0.0,0.0
1458,364.25,56.5445,59.3049,147.177,98.8804,98.3667,0.00146118,0.101913,20.9249,4.03354,0.0465907,0.0,0.0
1476,368.75,55.5482,59.438,143.403,98.7581,99.0413,0.00107067,0.101229,20.9268,4.01353,-0.0256076,0.0,0.0
1494,373.25,55.6609,58.4945,145.52,98.565,98.872,0.00104888,0.100567,20.9286,3.97349,-0.0278205,0.0,0.0
1512,377.75,55.6967,59.0171,139.279,98.2758,97.3349,0.00110451,0.100542,20.9286,3.9835,0.0860522,0.0,0.0
1530,382.25,55.7656,58.2268,146.863,98.0304,97.6965,0.000945206,0.0999949,20.9299,3.97349,0.0305228,0.0,0.0
1548,386.75,55.2096,58.1835,149.846,98.1179,98.5727,0.000882817,0.100167,20.9283,3.95347,-0.0413671,0.0,0.0
1566,391.25,54.3692,57.9527,144.315,98.2172,97.0761,0.000766556,0.0999059,20.9292,3.95347,0.10454,0.0,0.0
1584,395.75,54.8402,57.6527,146.066,98.2801,97.9912,0.000657112,0.0993161,20.9311,3.93345,0.0263303,0.0,0.0
1602,400.25,54.9934,58.4752,146.211,98.3505,99.0042,0.000756596,0.0989491,20.933,3.91344,-0.0592523,0.0,0.0
1620,404.75,55.2245,58.3338,143.568,98.4443,99.3445,0.000744375,0.0993508,20.9333,3.91344,-0.0814251,0.0,0.0
1638,409.25,55.4807,58.1232,148.964,98.4962,99.1784,0.000628593,0.0990386,20.9318,3.88341,-0.0617457,0.0,0.0
1656,413.75,54.898,58.065,144.85,98.5571,98.0341,0.000697756,0.0976579,20.9331,3.92345,0.0475931,0.0,0.0
1674,418.25,54.9587,58.0933,145.438,98.6002,98.2439,0.000602839,0.0957568,20.9372,3.8734,0.0323877,0.0,0.0
1692,422.75,54.8679,57.6701,144.778,98.5892,98.6329,0.000799797,0.0948922,20.9403,3.89342,-0.00396937,0.0,0.0
1710,427.25,53.9737,57.4461,149.72,98.5903,97.2348,0.000856508,0.0944408,20.9418,3.88341,0.123842,0.0,0.0
1728,431.75,54.4095,57.5626,143.671,98.6145,99.3379,0.00076815,0.0944958,20.9424,3.90343,-0.0653854,0.0,0.0
1746,436.25,54.2592,57.6966,143.082,98.5832,98.3192,,0.0943801,,3.79333,0.0239877,0.0,0.0
1764,440.75,54.4217,58.0413,145.323,98.6101,98.6337,,,,3.79333,-0.00213619,0.0,0.0
1779,444.5,53.6882,57.9566,145.095,98.5923,98.5537,,,,3.79333,0.0035034,0.0,0.0