File: 01_Data/Feather_Pillow_Feathers/STA/N2/10K_min/Feather_Pillow_Feathers_STA_N2_10KData_2236_R3.csv
##Temp./Â°C,Time/min,Mass loss(subtr.2)/mg,DSC(subtr.2)/(mW/mg),Sensit./(uV/mW)
49.619,10.01,-0.00999,0.03030239,1.0702
52.619,11.2865,-0.0058403,0.13881,1.06937
55.619,11.71774,-0.008550666,0.19796,1.06854
58.619,12.08589,-0.008575479,0.23475,1.06769
61.619,12.42805,-0.009566277,0.26459,1.06684
64.619,12.75957,-0.00954998,0.2894,1.06597
67.619,13.08412,-0.01216038,0.31151,1.0651
70.619,13.40492,-0.01491011,0.3325,1.06421
73.619,13.722,-0.01743914,0.35532,1.06332
76.619,14.0362,-0.01876296,0.37507,1.06242
79.619,14.3468,-0.02405029,0.39496,1.06151
82.619,14.65506,-0.0266781,0.40867,1.06058
85.619,14.96049,-0.03062973,0.41976,1.05965
88.619,15.262,-0.03193776,0.4257,1.05871
91.619,15.5619,-0.03457957,0.42745,1.05776
94.619,15.85939,-0.0391466,0.42293,1.05681
97.619,16.1564,-0.04421041,0.4134,1.05584
100.619,16.45203,-0.04829223,0.40378,1.05486
103.619,16.74579,-0.0473728,0.39117,1.05387
106.619,17.0394,-0.04929,0.37705,1.05287
109.619,17.33257,-0.05064789,0.36315,1.05186
112.619,17.62485,-0.05176221,0.3496,1.05085
115.619,17.91701,-0.05222878,0.33917,1.04982
118.619,18.20893,-0.05206484,0.32673,1.04878
121.619,18.5007,-0.05455832,0.31773,1.04774
124.619,18.79091,-0.05456859,0.30937,1.04668
127.619,19.08118,-0.05367816,0.30333,1.04562
130.619,19.37136,-0.0545655,0.30137,1.04454
133.619,19.66058,-0.05170221,0.3006,1.04346
136.619,19.9499,-0.05357625,0.29817,1.04236
139.619,20.23845,-0.05598997,0.29776,1.04126
142.619,20.5272,-0.05336905,0.29822,1.04014
145.619,20.81557,-0.05282646,0.29765,1.03901
148.619,21.10333,-0.05423,0.30071,1.03788
151.619,21.391,-0.05424043,0.30213,1.03673
154.619,21.67843,-0.05281078,0.30487,1.03558
157.619,21.96605,-0.05412978,0.30642,1.03441
160.619,22.25255,-0.05541603,0.31364,1.03324
163.619,22.53923,-0.05279928,0.31605,1.03205
166.619,22.8259,-0.05279898,0.31955,1.03086
169.619,23.11241,-0.05522357,0.3212,1.02965
172.619,23.3989,-0.05368887,0.32581,1.02844
175.619,23.68516,-0.05450469,0.3278,1.02721
178.619,23.97198,-0.05379856,0.33081,1.02597
181.619,24.2575,-0.05387642,0.33522,1.02473
184.619,24.54414,-0.05758169,0.33989,1.02347
187.619,24.82943,-0.05609928,0.34622,1.0222
190.619,25.11373,-0.05872598,0.35422,1.02093
193.619,25.3992,-0.05607871,0.36079,1.01964
196.619,25.68721,-0.05731007,0.36872,1.01834
199.619,25.97325,-0.06212837,0.3779,1.01703
202.619,26.2584,-0.06279959,0.39268,1.01571
205.619,26.5442,-0.06559574,0.40839,1.01438
208.619,26.82987,-0.06751451,0.43096,1.01304
211.619,27.1151,-0.07048,0.45963,1.01169
214.619,27.40004,-0.07455339,0.4991,1.01033
217.619,27.6854,-0.080691,0.55058,1.00896
220.619,27.97125,-0.08597414,0.61858,1.00758
223.619,28.25746,-0.09619398,0.70924,1.00618
226.619,28.54246,-0.10782,0.80434,1.00478
229.619,28.8293,-0.12271,0.86339,1.00337
232.619,29.11559,-0.13836,0.87091,1.00194
235.619,29.40111,-0.16003,0.84176,1.00051
238.619,29.6857,-0.17723,0.80505,0.99906
241.619,29.96968,-0.19825,0.77286,0.9976
244.619,30.25618,-0.21477,0.75379,0.99614
247.619,30.5409,-0.23238,0.75073,0.99466
250.619,30.8262,-0.25362,0.7546,0.99317
253.619,31.1113,-0.27105,0.76075,0.99167
256.619,31.3976,-0.29706,0.77142,0.99016
259.619,31.68243,-0.32023,0.78107,0.98864
262.619,31.9687,-0.34302,0.7916,0.98711
265.619,32.25404,-0.36962,0.79849,0.98556
268.619,32.54038,-0.39816,0.80527,0.98401
271.619,32.8255,-0.42926,0.81238,0.98245
274.619,33.11101,-0.46015,0.81797,0.98087
277.619,33.39675,-0.48771,0.82679,0.97928
280.619,33.6828,-0.52159,0.83985,0.97769
283.619,33.96908,-0.55882,0.85119,0.97608
286.619,34.2553,-0.59596,0.86301,0.97446
289.619,34.5411,-0.63446,0.87144,0.97283
292.619,34.82761,-0.67532,0.87309,0.97119
295.619,35.11425,-0.71965,0.86709,0.96954
298.619,35.40146,-0.76452,0.84699,0.96788
301.619,35.68865,-0.81218,0.80677,0.9662
304.619,35.97551,-0.85918,0.74442,0.96452
307.619,36.26226,-0.9051,0.70756,0.96282
310.619,36.54866,-0.95157,0.73612,0.96111
313.619,36.83625,-1.00571,0.76625,0.9594
316.619,37.12343,-1.06127,0.79522,0.95767
319.619,37.41065,-1.1296,0.83001,0.95593
322.619,37.69882,-1.20274,0.83051,0.95418
325.619,37.98687,-1.27212,0.79,0.95242
328.619,38.27411,-1.33738,0.76332,0.95064
331.619,38.56205,-1.41081,0.76799,0.94886
334.619,38.84962,-1.48022,0.74165,0.94707
337.619,39.13823,-1.54757,0.72883,0.94526
340.619,39.42635,-1.61588,0.69083,0.94344
343.619,39.71483,-1.6798,0.65812,0.94162
346.619,40.00316,-1.74122,0.61365,0.93978
349.619,40.29195,-1.79897,0.56935,0.93793
352.619,40.5809,-1.85043,0.54226,0.93607
355.619,40.86956,-1.89936,0.50896,0.9342
358.619,41.1584,-1.94233,0.47798,0.93231
361.619,41.44849,-1.98261,0.45603,0.93042
364.619,41.7379,-2.02542,0.43686,0.92852
367.619,42.02778,-2.06172,0.41103,0.9266
370.619,42.31708,-2.09419,0.38502,0.92467
373.619,42.60694,-2.13061,0.36394,0.92274
376.619,42.8972,-2.16255,0.34772,0.92079
379.619,43.18785,-2.191,0.33323,0.91883
382.619,43.47867,-2.21712,0.31894,0.91686
385.619,43.76996,-2.24584,0.30898,0.91488
388.619,44.06131,-2.26602,0.29632,0.91289
391.619,44.35248,-2.29122,0.28614,0.91088
394.619,44.643,-2.31376,0.27628,0.90887
397.619,44.9339,-2.33229,0.26856,0.90685
400.619,45.22448,-2.35319,0.25952,0.90481
403.619,45.51531,-2.37065,0.25128,0.90277
406.619,45.80639,-2.39097,0.24524,0.90071
409.619,46.0974,-2.40635,0.23619,0.89864
412.619,46.39097,-2.42247,0.22829,0.89657
415.619,46.68342,-2.44006,0.22391,0.89448
418.619,46.97588,-2.45524,0.21828,0.89238
421.619,47.26883,-2.46787,0.21383,0.89027
424.619,47.5616,-2.48393,0.20994,0.88815
427.619,47.85455,-2.49747,0.20475,0.88602
430.619,48.147,-2.509,0.20056,0.88388
433.619,48.4398,-2.5192,0.1973,0.88172
436.619,48.73134,-2.53479,0.19287,0.87956
439.619,49.02442,-2.54621,0.18765,0.87739
442.619,49.3178,-2.55739,0.18323,0.87521
445.619,49.61312,-2.56759,0.179,0.87301
448.619,49.90708,-2.57762,0.17641,0.87081
451.619,50.20061,-2.58766,0.17589,0.8686
454.619,50.4947,-2.59713,0.17351,0.86637
457.619,50.78884,-2.6073,0.17153,0.86414
460.619,51.08333,-2.61566,0.16718,0.86189
463.619,51.37764,-2.62226,0.16429,0.85964
466.619,51.67185,-2.63159,0.16314,0.85737
469.619,51.96634,-2.63759,0.16082,0.8551
472.619,52.2609,-2.64846,0.1601,0.85281
475.619,52.55464,-2.65466,0.16025,0.85052
478.619,52.8498,-2.66355,0.15626,0.84821
481.619,53.1452,-2.66692,0.15438,0.8459
484.619,53.4401,-2.67498,0.15222,0.84357
487.619,53.73604,-2.6806,0.15088,0.84124
490.619,54.03144,-2.68906,0.14935,0.83889
493.619,54.3273,-2.69175,0.14708,0.83654
496.619,54.6233,-2.69874,0.14854,0.83418
499.619,54.92,-2.70309,0.14783,0.8318
502.619,55.2158,-2.71149,0.14493,0.82942
505.619,55.51226,-2.71303,0.14389,0.82703
508.619,55.80849,-2.71667,0.1416,0.82463
511.619,56.1049,-2.72394,0.13973,0.82222
514.619,56.40192,-2.72531,0.14188,0.8198
517.619,56.6982,-2.73141,0.14219,0.81737
520.619,56.99545,-2.7354,0.14526,0.81493
523.619,57.29184,-2.73823,0.1464,0.81248
526.619,57.5892,-2.74117,0.1475,0.81003
529.619,57.88689,-2.74535,0.14829,0.80756
532.619,58.18439,-2.74857,0.15076,0.80509
535.619,58.48202,-2.75269,0.15114,0.8026
538.619,58.78046,-2.75402,0.1518,0.80011
541.619,59.07878,-2.75809,0.15176,0.79761
544.619,59.3762,-2.75989,0.15401,0.7951
547.619,59.67402,-2.76192,0.1571,0.79259
550.619,59.9719,-2.76959,0.16121,0.79006
553.619,60.26831,-2.77015,0.16183,0.78752
556.619,60.5658,-2.77268,0.16334,0.78498
559.619,60.86555,-2.77542,0.16729,0.78243
562.619,61.1631,-2.77823,0.1672,0.77987
565.619,61.46181,-2.78103,0.17292,0.7773
568.619,61.76036,-2.78115,0.17668,0.77473
571.619,62.0593,-2.78652,0.17882,0.77214
574.619,62.35794,-2.78655,0.18188,0.76955
577.619,62.6574,-2.79037,0.18639,0.76695
580.619,62.9572,-2.79168,0.18811,0.76435
583.619,63.257,-2.79162,0.18702,0.76173
586.619,63.5564,-2.79831,0.18889,0.75911
589.619,63.85665,-2.80036,0.18973,0.75648
592.619,64.15528,-2.80299,0.19073,0.75384
595.619,64.4557,-2.80463,0.19012,0.7512
598.619,64.75559,-2.80694,0.19101,0.74854
601.619,65.0551,-2.80717,0.18714,0.74589
604.619,65.35445,-2.81014,0.18949,0.74322
607.619,65.6542,-2.81276,0.18473,0.74055
610.619,65.95479,-2.81362,0.18298,0.73787
613.619,66.2555,-2.81954,0.18247,0.73518
616.619,66.5556,-2.81859,0.18034,0.73249
619.619,66.85554,-2.81903,0.17911,0.72979
622.619,67.15728,-2.82324,0.17482,0.72708
625.619,67.45776,-2.82384,0.17312,0.72437
628.619,67.75855,-2.82667,0.17054,0.72165
631.619,68.0591,-2.8298,0.17035,0.71892
634.619,68.35973,-2.8311,0.1706,0.71619
637.619,68.66083,-2.83243,0.16487,0.71345
640.619,68.96035,-2.83538,0.16483,0.71071
643.619,69.26161,-2.83731,0.16207,0.70796
646.619,69.56435,-2.83779,0.15732,0.7052
649.619,69.8648,-2.84139,0.15445,0.70244
652.619,70.16571,-2.84318,0.15221,0.69967
655.619,70.46766,-2.84406,0.15045,0.6969
658.619,70.76947,-2.84603,0.14666,0.69412
661.619,71.07128,-2.84735,0.14199,0.69134
664.619,71.37316,-2.85144,0.14155,0.68855
667.619,71.67469,-2.85084,0.13476,0.68576
670.619,71.97589,-2.85437,0.13391,0.68296
673.619,72.27721,-2.85643,0.12946,0.68016
676.619,72.57888,-2.85876,0.12921,0.67735
679.619,72.87997,-2.85876,0.1245,0.67454
682.619,73.18119,-2.86052,0.1241,0.67172
685.619,73.4814,-2.86128,0.12447,0.6689
688.619,73.78214,-2.8626,0.12336,0.66608
691.619,74.08386,-2.86642,0.12349,0.66325
694.619,74.38548,-2.86392,0.11774,0.66041
697.619,74.68734,-2.86904,0.12006,0.65757
700.619,74.99043,-2.86974,0.11501,0.65473
703.619,75.2925,-2.87105,0.11194,0.65189
706.619,75.5946,-2.87269,0.11044,0.64904
709.619,75.89664,-2.87541,0.10788,0.64618
712.619,76.19926,-2.87413,0.09734472,0.64333
715.619,76.50227,-2.87493,0.09750209,0.64047
718.619,76.80516,-2.87907,0.09284283,0.63761
721.619,77.10808,-2.87841,0.09086979,0.63474
724.619,77.41133,-2.88105,0.09258254,0.63187
727.619,77.71427,-2.87863,0.09521278,0.629
730.619,78.0174,-2.88357,0.093184,0.62612
733.619,78.32136,-2.88346,0.08982394,0.62325
736.619,78.62371,-2.8873,0.08899705,0.62037
739.619,78.92663,-2.88763,0.08709397,0.61748
742.619,79.22869,-2.89044,0.08725963,0.6146
745.619,79.53153,-2.88906,0.0857878,0.61171
748.619,79.83498,-2.89408,0.08296265,0.60882
750.219,79.99673,-2.88726,0.08298019,0.60728