File: 01_Data/Feather_Pillow_Feathers/STA/N2/10K_min/Feather_Pillow_Feathers_STA_N2_10KData_2226_R2.csv
##Temp./Â°C,Time/min,Mass loss(subtr.2)/mg,DSC(subtr.2)/(mW/mg),Sensit./(uV/mW)
49.684,10.01,-0.09596,0.04811247,1.07018
52.584,11.2743,-0.10658,0.14602,1.06938
55.484,11.7005,-0.10978,0.20267,1.06857
58.384,12.05897,-0.11246,0.23622,1.06776
61.284,12.39332,-0.1144,0.26502,1.06693
64.184,12.71584,-0.11694,0.29039,1.0661
67.084,13.03147,-0.11967,0.3115,1.06525
69.984,13.3422,-0.12465,0.33351,1.0644
72.884,13.6496,-0.12647,0.35434,1.06354
75.784,13.95393,-0.13272,0.37383,1.06267
78.684,14.25584,-0.13687,0.39269,1.06179
81.584,14.55481,-0.14228,0.40608,1.0609
84.484,14.85104,-0.14525,0.41612,1.06001
87.384,15.14439,-0.15044,0.42337,1.0591
90.284,15.4359,-0.1551,0.42534,1.05819
93.184,15.72509,-0.15808,0.42033,1.05727
96.084,16.01267,-0.16315,0.41526,1.05633
98.984,16.29881,-0.16709,0.40749,1.05539
101.884,16.58352,-0.17003,0.39801,1.05444
104.784,16.8671,-0.17236,0.38397,1.05348
107.684,17.1505,-0.17537,0.37152,1.05252
110.584,17.43308,-0.17763,0.35901,1.05154
113.484,17.7165,-0.18129,0.34657,1.05055
116.384,17.9986,-0.18192,0.33708,1.04956
119.284,18.28037,-0.18224,0.32707,1.04855
122.184,18.56235,-0.18456,0.32127,1.04754
125.084,18.84352,-0.18521,0.31613,1.04652
127.984,19.1239,-0.18605,0.31298,1.04549
130.884,19.4039,-0.18719,0.31015,1.04445
133.784,19.68432,-0.18885,0.30894,1.0434
136.684,19.9637,-0.18916,0.30968,1.04234
139.584,20.24346,-0.19048,0.31101,1.04127
142.484,20.52168,-0.19048,0.30835,1.04019
145.384,20.80041,-0.18916,0.3116,1.0391
148.284,21.07874,-0.19047,0.31608,1.03801
151.184,21.3568,-0.19047,0.31755,1.0369
154.084,21.63532,-0.19213,0.31993,1.03579
156.984,21.91341,-0.19246,0.32227,1.03466
159.884,22.19115,-0.19279,0.32629,1.03353
162.784,22.4687,-0.1941,0.32933,1.03238
165.684,22.74643,-0.19506,0.33356,1.03123
168.584,23.02362,-0.19509,0.33593,1.03007
171.484,23.3007,-0.1964,0.3406,1.0289
174.384,23.57773,-0.19754,0.34252,1.02772
177.284,23.85481,-0.19673,0.34764,1.02653
180.184,24.1314,-0.19838,0.35313,1.02532
183.084,24.40759,-0.19836,0.3596,1.02411
185.984,24.68273,-0.20102,0.36547,1.02289
188.884,24.9588,-0.20068,0.37059,1.02167
191.784,25.23465,-0.20194,0.37726,1.02043
194.684,25.5107,-0.20497,0.38344,1.01918
197.584,25.78716,-0.20565,0.39077,1.01792
200.484,26.0629,-0.20735,0.40361,1.01665
203.384,26.3391,-0.2099,0.41824,1.01537
206.284,26.61474,-0.21249,0.43595,1.01409
209.184,26.89064,-0.21485,0.45914,1.01279
212.084,27.16593,-0.21821,0.48674,1.01148
214.984,27.44112,-0.2231,0.52496,1.01016
217.884,27.7168,-0.22844,0.57515,1.00884
220.784,27.9924,-0.23619,0.64499,1.0075
223.684,28.2695,-0.24604,0.72642,1.00615
226.584,28.5468,-0.25548,0.81551,1.0048
229.484,28.82382,-0.27186,0.87289,1.00343
232.384,29.10125,-0.28791,0.87976,1.00205
235.284,29.37845,-0.30661,0.85562,1.00067
238.184,29.6542,-0.3252,0.82084,0.99927
241.084,29.92965,-0.34199,0.79058,0.99786
243.984,30.20543,-0.36039,0.76972,0.99645
246.884,30.4808,-0.37857,0.76719,0.99502
249.784,30.7561,-0.39918,0.77532,0.99359
252.684,31.0321,-0.41774,0.78264,0.99214
255.584,31.3083,-0.43781,0.79225,0.99068
258.484,31.5842,-0.46123,0.7998,0.98922
261.384,31.86093,-0.48343,0.80837,0.98774
264.284,32.13715,-0.50917,0.81552,0.98625
267.184,32.41332,-0.53614,0.82546,0.98476
270.084,32.68955,-0.565,0.83005,0.98325
272.984,32.96613,-0.59215,0.84148,0.98173
275.884,33.24191,-0.62345,0.85007,0.9802
278.784,33.51801,-0.65108,0.86029,0.97867
281.684,33.79438,-0.68519,0.87338,0.97712
284.584,34.07098,-0.71899,0.88803,0.97556
287.484,34.34798,-0.75482,0.89884,0.97399
290.384,34.62466,-0.79432,0.90564,0.97241
293.284,34.90104,-0.83325,0.90485,0.97082
296.184,35.1777,-0.87514,0.89452,0.96923
299.084,35.45486,-0.91822,0.87043,0.96762
301.984,35.73125,-0.9636,0.83206,0.966
304.884,36.0088,-1.00589,0.79572,0.96437
307.784,36.28604,-1.04806,0.77038,0.96273
310.684,36.56261,-1.09925,0.79023,0.96108
313.584,36.8406,-1.15022,0.82386,0.95942
316.484,37.1189,-1.20811,0.84492,0.95775
319.384,37.39663,-1.2704,0.86118,0.95607
322.284,37.6746,-1.33359,0.87687,0.95437
325.184,37.95301,-1.40265,0.85179,0.95267
328.084,38.2309,-1.46621,0.82555,0.95096
330.984,38.50797,-1.53411,0.82849,0.94924
333.884,38.78712,-1.59802,0.81732,0.94751
336.784,39.0657,-1.66586,0.80491,0.94576
339.684,39.34393,-1.73071,0.77994,0.94401
342.584,39.6235,-1.79291,0.75303,0.94225
345.484,39.90253,-1.85121,0.71438,0.94047
348.384,40.18073,-1.9087,0.67114,0.93869
351.284,40.45955,-1.95932,0.63971,0.9369
354.184,40.7378,-2.00754,0.60536,0.93509
357.084,41.0171,-2.05331,0.57816,0.93328
359.984,41.29696,-2.09679,0.55724,0.93145
362.884,41.5765,-2.13527,0.53459,0.92962
365.784,41.85622,-2.17477,0.50732,0.92777
368.684,42.1364,-2.20769,0.48469,0.92592
371.584,42.41659,-2.24122,0.46338,0.92405
374.484,42.69744,-2.27017,0.447,0.92218
377.384,42.97837,-2.30029,0.43039,0.92029
380.284,43.25958,-2.32606,0.41645,0.91839
383.184,43.54128,-2.35173,0.4037,0.91649
386.084,43.82277,-2.37716,0.39227,0.91457
388.984,44.1042,-2.40167,0.38516,0.91264
391.884,44.3857,-2.42309,0.37634,0.91071
394.784,44.66721,-2.44363,0.36674,0.90876
397.684,44.94863,-2.46463,0.35883,0.9068
400.584,45.2296,-2.48316,0.35097,0.90484
403.484,45.51113,-2.50269,0.34463,0.90286
406.384,45.79305,-2.5193,0.33899,0.90087
409.284,46.0753,-2.53484,0.33164,0.89888
412.184,46.35802,-2.55151,0.32482,0.89687
415.084,46.64063,-2.56789,0.32253,0.89485
417.984,46.9227,-2.58314,0.31735,0.89282
420.884,47.20453,-2.59625,0.31359,0.89079
423.784,47.48758,-2.60984,0.3114,0.88874
426.684,47.77085,-2.62248,0.30448,0.88668
429.584,48.05473,-2.63726,0.30489,0.88462
432.484,48.33702,-2.64763,0.29811,0.88254
435.384,48.62148,-2.66061,0.29844,0.88045
438.284,48.90489,-2.67226,0.29471,0.87836
441.184,49.18842,-2.68233,0.29435,0.87625
444.084,49.47214,-2.69127,0.28838,0.87414
446.984,49.7564,-2.70244,0.28698,0.87201
449.884,50.04002,-2.71166,0.28364,0.86988
452.784,50.324,-2.71981,0.28327,0.86773
455.684,50.60792,-2.7294,0.27918,0.86558
458.584,50.8919,-2.73794,0.27822,0.86342
461.484,51.17646,-2.74858,0.27631,0.86124
464.384,51.4611,-2.75614,0.27419,0.85906
467.284,51.7454,-2.76191,0.27162,0.85687
470.184,52.03013,-2.77204,0.26978,0.85467
473.084,52.3155,-2.78015,0.26947,0.85246
475.984,52.6009,-2.78564,0.26517,0.85024
478.884,52.88609,-2.79244,0.26255,0.84801
481.784,53.17181,-2.79993,0.26476,0.84577
484.684,53.4571,-2.80575,0.26354,0.84352
487.584,53.74295,-2.81238,0.26018,0.84127
490.484,54.0292,-2.81788,0.26014,0.839
493.384,54.31491,-2.8244,0.25919,0.83673
496.284,54.60159,-2.83098,0.26032,0.83444
499.184,54.8877,-2.83616,0.25878,0.83215
502.084,55.1734,-2.8405,0.2576,0.82985
504.984,55.4598,-2.84546,0.25909,0.82754
507.884,55.74596,-2.85083,0.25876,0.82522
510.784,56.0321,-2.85435,0.25424,0.82289
513.684,56.3179,-2.85789,0.25581,0.82055
516.584,56.60411,-2.86052,0.26003,0.81821
519.484,56.8906,-2.86458,0.2653,0.81585
522.384,57.17768,-2.86714,0.26599,0.81349
525.284,57.4649,-2.87117,0.26939,0.81112
528.184,57.753,-2.87512,0.26719,0.80874
531.084,58.0412,-2.87786,0.26811,0.80636
533.984,58.3287,-2.88138,0.27095,0.80396
536.884,58.61623,-2.88434,0.27042,0.80156
539.784,58.9031,-2.88894,0.27293,0.79914
542.684,59.19045,-2.89224,0.2757,0.79672
545.584,59.4777,-2.89454,0.27819,0.79429
548.484,59.76481,-2.89583,0.27991,0.79186
551.384,60.05281,-2.8985,0.28249,0.78941
554.284,60.3411,-2.90248,0.28515,0.78696
557.184,60.62953,-2.90246,0.29989,0.7845
560.084,60.91715,-2.90771,0.30243,0.78203
562.984,61.2063,-2.90956,0.30507,0.77956
565.884,61.4948,-2.91464,0.30987,0.77708
568.784,61.78315,-2.91332,0.30796,0.77459
571.684,62.0717,-2.91544,0.30777,0.77209
574.584,62.361,-2.92002,0.30888,0.76958
577.484,62.65034,-2.92164,0.31138,0.76707
580.384,62.93968,-2.92562,0.31438,0.76455
583.284,63.22886,-2.92694,0.31269,0.76202
586.184,63.5183,-2.92889,0.31526,0.75949
589.084,63.80761,-2.93229,0.3175,0.75695
591.984,64.09659,-2.93253,0.32124,0.7544
594.884,64.38678,-2.93648,0.32042,0.75184
597.784,64.6768,-2.93781,0.32263,0.74928
600.684,64.9666,-2.94045,0.32394,0.74671
603.584,65.25628,-2.94146,0.32255,0.74414
606.484,65.5463,-2.94374,0.3263,0.74156
609.384,65.83699,-2.94814,0.3232,0.73897
612.284,66.12734,-2.9501,0.32242,0.73638
615.184,66.4181,-2.9501,0.32165,0.73378
618.084,66.70831,-2.95438,0.32131,0.73117
620.984,66.99908,-2.95405,0.32156,0.72856
623.884,67.28956,-2.95669,0.32256,0.72594
626.784,67.58009,-2.95866,0.32111,0.72331
629.684,67.8704,-2.96064,0.32096,0.72068
632.584,68.16163,-2.96116,0.31772,0.71804
635.484,68.45125,-2.96328,0.31446,0.7154
638.384,68.74237,-2.96591,0.31109,0.71275
641.284,69.03291,-2.96591,0.30626,0.7101
644.184,69.32382,-2.96987,0.30363,0.70744
647.084,69.61522,-2.97222,0.29998,0.70477
649.984,69.90639,-2.97238,0.30053,0.7021
652.884,70.1973,-2.97465,0.29546,0.69943
655.784,70.48971,-2.9758,0.29397,0.69675
658.684,70.78182,-2.97645,0.28922,0.69406
661.584,71.0737,-2.9792,0.2924,0.69137
664.484,71.3665,-2.97963,0.29498,0.68868
667.384,71.65795,-2.98015,0.29647,0.68598
670.284,71.9493,-2.98391,0.29791,0.68328
673.184,72.2406,-2.98626,0.2918,0.68057
676.084,72.53157,-2.98753,0.29479,0.67785
678.984,72.8233,-2.98885,0.29558,0.67514
681.884,73.115,-2.98952,0.29474,0.67241
684.784,73.4062,-2.99052,0.29362,0.66969
687.684,73.69896,-2.9915,0.2953,0.66696
690.584,73.99116,-2.99413,0.29493,0.66422
693.484,74.28278,-2.99544,0.29499,0.66148
696.384,74.5749,-2.99676,0.29804,0.65874
699.284,74.86596,-2.9984,0.29697,0.656
702.184,75.1563,-3.00107,0.29579,0.65325
705.084,75.4474,-3.00202,0.29988,0.6505
707.984,75.7388,-3.00335,0.29343,0.64774
710.884,76.03138,-3.005,0.2934,0.64498
713.784,76.3237,-3.00499,0.29234,0.64222
716.684,76.61694,-3.00763,0.28934,0.63945
719.584,76.90987,-3.00664,0.28746,0.63668
722.484,77.20376,-3.009,0.28598,0.63391
725.384,77.4958,-3.01203,0.28819,0.63114
728.284,77.7898,-3.01224,0.2841,0.62836
731.184,78.0824,-3.01454,0.28282,0.62558
734.084,78.375,-3.01444,0.28609,0.6228
736.984,78.6678,-3.01402,0.28024,0.62002
739.884,78.96082,-3.01549,0.27709,0.61723
742.784,79.25274,-3.0161,0.27727,0.61444
745.684,79.54549,-3.01575,0.27754,0.61165
748.584,79.83882,-3.01707,0.27841,0.60886
750.184,79.99936,-3.01805,0.27722,0.60731