File: 01_Data/Standard_Gypsum_Wallboard/Cone/Standard_Gypsum_Wallboard_Cone_HF25Scan_220510_R2.csv
Names,Time,Stack TC,Smoke TC,Exh Press,Smoke Comp,Smoke Meas,CO Meter,CO2 Meter,O2 Meter,Sample Mass,Ext Coeff,Start Test,Flame Verif
Chan Gain,,500,500,1,1,1,1,1,1,1,1,1.0,1.0
Offset,,0,0,0.138628,0,0,0,0,0,0,0,0.0,0.0
Gain,,1,1,25.011,13.1256,14.6231,1,1,1,1.001,0.958019,1.0,1.0
Units,sec,C,C,Pa,%,%,%,%,%,g,/m,,
Baseline,,19.0576,19.647,141.855,99.1192,98.252,0.00032648,0.0413956,21.0093,-443.199,0.0738449,,
31,7.5,17.1545,17.3295,140.878,98.2283,97.2609,0.000280649,0.0443033,21.0074,131.332,0.0831759,0.0,0.0
62,15.25,17.5591,17.5211,138.098,98.0493,97.1917,0.00041922,0.0444002,21.0058,131.262,0.0738218,0.0,0.0
93,23,17.5349,17.5045,143.085,97.9203,96.9976,0.000336707,0.0456618,21.0052,131.191,0.0795606,0.0,0.0
124,30.75,17.2968,17.5555,139.968,97.8273,96.9793,0.000264844,0.044725,21.007,131.011,0.0731683,0.0,0.0
155,38.5,17.9246,17.9626,146.055,97.7925,96.8936,0.000545497,0.0427198,21.0076,130.911,0.0776014,0.0,0.0
186,46.25,17.6641,18.2816,141.287,97.8141,96.9922,0.000427246,0.0420631,21.0112,130.801,0.0709107,0.0,0.0
217,54,17.5402,18.258,142.171,97.8646,97.1181,0.000154333,0.0428311,21.0115,130.701,0.0643498,0.0,0.0
248,61.75,18.1709,18.7668,144.499,97.9768,96.9423,0.000416783,0.043091,21.01,130.601,0.0892027,0.0,0.0
279,69.5,17.5161,18.8936,139.818,98.115,97.2622,0.000597287,0.0424939,21.0098,130.431,0.073356,0.0,0.0
310,77.25,18.0483,18.2049,144.169,98.3028,97.2689,0.000698533,0.0419913,21.011,130.301,0.0888528,0.0,0.0
341,85,17.735,18.1471,143.922,98.5363,97.318,0.000229412,0.0416154,21.0136,130.14,0.104554,0.0,0.0
372,92.75,17.7725,18.7653,143.107,98.7715,97.5889,0.000339732,0.0415478,21.0102,130.06,0.101224,0.0,0.0
403,100.5,18.2199,19.1272,144.074,98.9814,97.6063,0.000401644,0.0417669,21.0062,129.78,0.117564,0.0,0.0
434,108.25,18.3662,18.5197,139.703,99.1464,97.6215,0.000441944,0.0443002,21.0055,129.66,0.130258,0.0,0.0
465,116,18.2856,18.8389,136.947,99.2678,97.7817,0.00069155,0.0436056,21.0073,129.52,0.126758,0.0,0.0
496,123.75,18.2188,19.591,140.893,99.3455,97.389,0.000874377,0.0432876,21.0069,129.31,0.167153,0.0,0.0
527,131.5,19.1474,18.9803,143.974,99.3607,97.4974,0.00109206,0.0439814,21.0068,129.189,0.159089,0.0,0.0
558,139.25,18.837,19.1713,144.91,99.4276,97.5804,0.000973384,0.0440339,21.0098,129.029,0.157592,0.0,0.0
589,147,18.5739,19.2409,142.289,99.5033,97.3823,0.000918776,0.0438646,21.0117,128.769,0.18107,0.0,0.0
620,154.75,18.4792,19.3317,138.258,99.5714,97.1962,0.00134187,0.0443669,21.0095,128.659,0.202893,0.0,0.0
651,162.5,18.6625,19.2384,142.743,99.6487,97.1975,0.00145475,0.0465346,21.0026,128.339,0.2093,0.0,0.0
682,170.25,18.5562,18.9499,140.575,99.7064,97.0587,0.00172967,0.0472053,21.001,128.148,0.226171,0.0,0.0
713,178,19.0473,19.9723,142.279,99.7276,96.7937,0.00252568,0.0483552,20.9997,127.958,0.250944,0.0,0.0
744,185.75,18.7742,19.5779,146.088,99.728,96.6776,0.00340576,0.0504624,20.9999,127.668,0.261056,0.0,0.0
775,193.5,19.1597,19.5668,136.462,99.7304,97.6,0.00426553,0.0550553,20.9917,127.388,0.181458,0.0,0.0
806,201.25,18.7862,19.7189,140.654,99.7244,97.933,0.00525976,0.0567325,20.9891,127.137,0.152336,0.0,0.0
837,209,19.5221,20.0035,137.805,99.7256,98.2685,0.00664731,0.0626711,20.9831,126.837,0.123689,0.0,0.0
868,216.75,19.3611,20.3754,140.774,99.7532,98.464,0.00879964,0.0744172,20.9682,126.587,0.109319,0.0,0.0
899,224.5,19.2502,19.7636,141.721,99.7861,98.9616,0.00965372,0.0790475,20.9613,126.256,0.0697255,0.0,0.0
930,232.25,19.4119,20.4064,138.435,99.8125,99.1379,0.0101376,0.0797414,20.9605,125.996,0.0569958,0.0,0.0
961,240,19.9562,20.4844,142.44,99.8366,99.0736,0.00972015,0.0806901,20.9584,125.696,0.0644681,0.0,0.0
992,247.75,20.3821,20.4792,140.19,99.8486,98.9817,0.00945807,0.08277,20.9573,125.426,0.0732806,0.0,0.0
1023,255.5,20.1263,20.5255,144.944,99.843,99.1191,0.00834398,0.0790794,20.9626,125.135,0.0611471,0.0,0.0
1054,263.25,20.084,20.7942,141.918,99.8446,99.1606,0.0068129,0.0735701,20.9694,124.995,0.057764,0.0,0.0
1085,271,20.3853,21.0104,143.132,99.8666,99.0861,0.00527931,0.0690675,20.9747,124.735,0.0659364,0.0,0.0
1116,278.75,20.5724,21.0003,144.779,99.849,99.203,0.00406934,0.0629852,20.9815,124.515,0.0545427,0.0,0.0
1147,286.5,20.0698,20.7269,140.27,99.8426,99.1472,0.00331357,0.0589185,20.9893,124.375,0.058731,0.0,0.0
1178,294.25,20.4213,21.0085,141.281,99.8137,99.2218,0.00275836,0.0567646,20.9922,124.204,0.0499879,0.0,0.0
1209,302,19.9909,20.9606,144.988,99.7817,99.0932,0.00248261,0.0533183,20.995,123.994,0.0581818,0.0,0.0
1240,309.75,19.5047,20.2502,141.28,99.756,98.9759,0.00200664,0.0511194,20.9987,123.904,0.0659821,0.0,0.0
1271,317.5,19.6798,20.6694,143.975,99.7661,99.0772,0.00171373,0.0493237,21.0007,123.824,0.0582286,0.0,0.0
1302,325.25,19.5873,20.2734,142.853,99.8169,99.0455,0.00161063,0.0471044,21.0034,123.674,0.0652008,0.0,0.0
1333,333,19.9744,20.8061,144.246,99.8358,99.0848,0.00113121,0.0456575,21.0065,123.534,0.0634541,0.0,0.0
1364,340.75,20.034,20.9567,140.827,99.8306,99.0187,0.00109607,0.0452836,21.0058,123.414,0.0686196,0.0,0.0
1395,348.5,19.9028,20.6965,140.06,99.8558,99.153,0.000827197,0.0446653,21.0073,123.284,0.0593507,0.0,0.0
1426,356.25,20.129,20.736,142.311,99.8382,99.0843,0.000865737,0.0440633,21.009,123.193,0.0636947,0.0,0.0
1457,364,20.1508,20.1629,142.236,99.7993,98.9973,0.000625292,0.0434808,21.0106,123.083,0.0678078,0.0,0.0
1488,371.75,19.7336,20.4714,143.231,99.6739,98.9576,0.000863187,0.0428625,21.0097,122.973,0.060615,0.0,0.0
1519,379.5,20.2808,20.8514,140.108,99.4464,98.8014,0.000677002,0.0424311,21.0095,122.873,0.0546851,0.0,0.0
1550,387.25,20.3536,20.7102,141.605,99.0583,98.4149,0.000190273,0.0421111,21.0116,122.813,0.0547567,0.0,0.0
1581,395,20.42,20.9768,141.66,98.5307,97.8901,0.000324906,0.0419929,21.0108,122.763,0.0548165,0.0,0.0
1612,402.75,20.7071,21.2744,139.413,98.0833,97.3542,0.000265074,0.0420755,21.0115,122.553,0.0627063,0.0,0.0
1643,410.5,20.4626,21.2287,141.199,97.835,97.1654,2.30252e-05,0.0421765,21.0119,122.513,0.0577112,0.0,0.0
1674,418.25,21.0401,21.4147,143.842,97.8478,97.1212,0.000219798,0.0429779,21.0116,122.403,0.0626338,0.0,0.0
1705,426,20.2902,21.713,141.462,98.1426,97.389,0.000343762,0.0428817,21.0107,122.363,0.0647793,0.0,0.0
1736,433.75,20.9081,21.3722,144.386,98.5728,97.7536,1.24731e-05,0.0420313,21.0138,122.283,0.0701338,0.0,0.0
1767,441.5,20.8312,21.359,142.842,98.9669,98.1061,-0.000159387,0.0419225,21.0108,122.162,0.0734166,0.0,0.0
1798,449.25,20.6023,21.1924,138.976,99.1808,98.4069,0.000316002,0.0417997,21.0117,122.132,0.065835,0.0,0.0
1829,457,20.3931,21.4049,140.393,99.1155,98.2931,-5.91776e-05,0.0415164,21.0133,122.062,0.0700245,0.0,0.0
1860,464.75,20.3099,21.199,142.919,98.9317,98.2922,-3.82926e-05,0.0414123,21.0102,121.962,0.054498,0.0,0.0
1891,472.5,20.3077,21.0709,144.136,99.0238,98.1931,6.3359e-05,0.0414606,21.0107,121.912,0.0707935,0.0,0.0
1922,480.25,20.2111,20.7073,141.878,99.6399,98.6684,0.000649853,0.0414234,21.012,121.812,0.0823377,0.0,0.0
1953,488,20.312,20.8567,141.444,99.2682,98.4493,0.000461399,0.0412202,21.0122,121.732,0.0696113,0.0,0.0
1984,495.75,19.7739,20.7908,140.43,99.4308,98.5827,0.000245009,0.04122,21.011,121.632,0.0719855,0.0,0.0
2015,503.5,20.0247,21.1521,139.084,99.8582,99.0495,0.000204619,0.041374,21.0117,121.602,0.0683325,0.0,0.0
2046,511.25,20.1232,20.9168,142.131,99.6311,98.7978,8.78913e-05,0.0414373,21.0121,121.482,0.0705789,0.0,0.0
2077,519,20.1606,20.8678,139.44,98.697,97.8022,0.000376198,0.0413864,21.0087,121.432,0.0765333,0.0,0.0
2108,526.75,19.6628,20.9482,142.471,97.9215,97.0453,0.000177552,0.0414418,21.0078,121.322,0.0755286,0.0,0.0
2139,534.5,19.8235,20.9465,142.972,98.0869,97.1881,0.000185853,0.0414347,21.0096,121.221,0.0773572,0.0,0.0
2170,542.25,20.301,20.4194,138.312,98.8412,97.9834,9.66472e-05,0.0415826,21.0108,121.211,0.0732488,0.0,0.0
2201,550,20.1029,20.5855,144.67,99.2017,98.3694,0.000204444,0.0415436,21.0119,121.131,0.0708014,0.0,0.0
2232,557.75,19.6773,20.8156,143.208,98.9609,98.1762,0.000164771,0.0416546,21.0105,121.081,0.0669064,0.0,0.0
2263,565.5,20.3727,20.6671,136.994,99.0679,98.535,0.000682931,0.0419955,21.01,120.981,0.045328,0.0,0.0
2294,573.25,20.3004,21.2364,139.951,99.6134,98.9473,0.000497045,0.0421528,21.01,120.811,0.0563859,0.0,0.0
2325,581,20.8804,21.0549,139.69,99.14,98.34,0.00032272,0.0418571,21.0085,120.861,0.068091,0.0,0.0
2356,588.75,20.1582,20.618,139.156,99.71,98.7871,0.000122136,0.0418338,21.0084,120.781,0.0781434,0.0,0.0
2387,596.5,20.1621,20.8858,138.113,99.8502,98.9486,0.000326676,0.0419758,21.0084,120.521,0.0762196,0.0,0.0
2418,604.25,19.708,20.4106,143.677,99.1764,98.676,0.000269499,0.0417044,21.0087,120.471,0.0425137,0.0,0.0
2449,612,19.8515,20.551,137.959,98.2728,97.5563,8.46055e-05,0.0418068,21.0101,120.381,0.0614912,0.0,0.0
2480,619.75,19.8095,20.5924,145.378,97.8786,97.1203,0.000419115,0.0420814,21.011,120.311,0.0653598,0.0,0.0
2511,627.5,19.7456,19.9383,139.625,98.1726,97.2149,8.17966e-05,0.0418232,21.0103,120.311,0.0823833,0.0,0.0
2542,635.25,19.0791,20.134,137.106,98.7042,98.0686,0.000240956,0.0417711,21.01,120.271,0.054286,0.0,0.0
2573,643,19.6691,20.4082,136.646,99.0935,98.5461,8.48462e-07,0.0415461,21.01,120.23,0.0465515,0.0,0.0
2604,650.75,19.9375,20.2561,142.458,99.1937,98.4872,7.3942e-05,0.0417534,21.0088,120.11,0.0600639,0.0,0.0
2635,658.5,19.3616,20.2435,139.761,99.0631,98.3654,1.13662e-05,0.0419594,21.0087,120.1,0.0593955,0.0,0.0
2666,666.25,19.7399,20.3439,143.714,98.9237,98.0686,0.000278316,0.0419089,21.0099,119.93,0.0729548,0.0,0.0
2697,674,19.3982,20.3529,141.631,98.8103,98.0753,6.6992e-06,0.041973,21.0094,119.84,0.0627441,0.0,0.0
2728,681.75,19.0521,20.3121,139.702,98.7278,97.8897,-8.46168e-05,0.0417109,21.0088,119.85,0.0716467,0.0,0.0
2759,689.5,19.5372,19.9364,140.612,98.7719,98.0351,3.75845e-05,0.042076,21.0093,119.76,0.0629161,0.0,0.0
2790,697.25,19.3235,19.9201,140.514,99.0615,98.5055,0.000284404,0.0423171,21.0113,119.73,0.0472967,0.0,0.0
2821,705,19.2727,20.1395,139.951,99.2529,98.4359,0.000319363,0.0424119,21.0096,119.64,0.0694662,0.0,0.0
2852,712.75,19.2185,20.3721,140.88,99.3867,98.709,,,,119.59,0.0575013,0.0,0.0
2883,720.5,19.3335,20.2382,139.028,99.5001,99.1508,,,,119.57,0.0295521,0.0,0.0