File: 01_Data/Standard_Gypsum_Wallboard/Cone/Standard_Gypsum_Wallboard_Cone_HF50Scan_220511_R2.csv
Names,Time,Stack TC,Smoke TC,Exh Press,Smoke Comp,Smoke Meas,CO Meter,CO2 Meter,O2 Meter,Sample Mass,Ext Coeff,Start Test,Flame Verif
Chan Gain,,500,500,1,1,1,1,1,1,1,1,1.0,1.0
Offset,,0,0,0.138628,0,0,0,0,0,0,0,0.0,0.0
Gain,,1,1,25.011,13.1256,14.6231,1,1,1,1.001,0.958019,1.0,1.0
Units,sec,C,C,Pa,%,%,%,%,%,g,/m,,
Baseline,,34.1308,35.3929,135.014,99.8102,100.539,0.000298685,0.0414269,21.006,-445.267,-0.06108,,
8,1.75,30.7058,31.7756,133.688,99.4857,100.336,0.000455031,0.0451721,21.0013,127.528,-0.0714924,0.0,0.0
16,3.75,30.5014,32.0525,131.215,99.4833,100.434,0.000512021,0.0455727,21.0009,127.618,-0.0799144,0.0,0.0
24,5.75,30.3486,31.4426,135.499,99.4576,100.239,0.000483853,0.045637,21.0007,127.558,-0.0657838,0.0,0.0
32,7.75,30.6688,31.8497,134.765,99.4464,99.892,0.000408086,0.0453268,21.0006,127.508,-0.0375741,0.0,0.0
40,9.75,30.7926,31.8953,136.005,99.4352,99.8653,0.000385924,0.0446783,21.0006,127.458,-0.0362691,0.0,0.0
48,11.75,31.3833,32.1126,137.898,99.4244,100.023,0.000400336,0.0441742,21.0005,127.418,-0.0504282,0.0,0.0
56,13.75,30.668,32.2699,132.841,99.4216,99.7506,0.000399849,0.0440279,21.0005,127.278,-0.027763,0.0,0.0
64,15.75,31.1376,32.2789,132.319,99.4148,100.099,0.00037372,0.0443657,21.0005,127.298,-0.0576508,0.0,0.0
72,17.75,31.2475,32.2728,135.564,99.4072,99.3168,0.000419597,0.0450278,21.0019,127.167,0.00764123,0.0,0.0
80,19.75,31.7186,32.8761,134.273,99.3859,99.4538,0.000598444,0.045705,21.002,127.117,-0.00573875,0.0,0.0
88,21.75,31.7154,32.6369,135.654,99.3807,99.5404,0.000801955,0.0458996,21.0021,127.047,-0.013491,0.0,0.0
96,23.75,31.1846,32.5165,136.563,99.3435,99.274,0.000929408,0.0457791,21.0021,126.987,0.00588049,0.0,0.0
104,25.75,31.8306,32.5429,134.228,99.289,99.2463,0.00100992,0.0458527,21.0013,126.887,0.0036137,0.0,0.0
112,27.75,32.1126,32.819,135.115,99.2549,99.0049,0.00117643,0.0463085,21.0005,126.777,0.0211993,0.0,0.0
120,29.75,31.7318,32.6999,131.862,99.2381,99.2811,0.001423,0.0469174,21.0001,126.707,-0.00363981,0.0,0.0
128,31.75,31.9319,33.1416,136.14,99.2113,97.8049,0.00162595,0.0477939,21,126.567,0.119981,0.0,0.0
136,33.75,31.8449,33.2078,133.676,99.1812,96.7829,0.0018526,0.0484701,20.9999,126.517,0.205706,0.0,0.0
144,35.75,32.3327,33.3378,135.411,99.1664,96.1403,0.00215433,0.0488432,20.9999,126.397,0.260435,0.0,0.0
152,37.75,32.2818,33.4656,131.102,99.1576,96.2791,0.0025097,0.0492912,20.9983,126.347,0.247565,0.0,0.0
160,39.75,31.684,33.3459,129.92,99.1324,96.351,0.00294637,0.0498869,20.9987,126.256,0.239157,0.0,0.0
168,41.75,32.2064,33.3451,135.587,99.1264,95.3973,0.00333117,0.0549493,20.9957,126.086,0.32224,0.0,0.0
176,43.75,32.2553,33.9269,124.577,99.1043,102.915,0.00339425,0.107195,20.9186,125.706,-0.317111,0.0,1.0
184,45.75,33.7376,34.1143,116.392,99.0843,104.572,0.00326087,0.220257,20.7832,125.516,-0.452961,0.0,1.0
192,47.75,36.2359,35.6173,120.302,99.0791,103.986,0.00309891,0.31846,20.6931,125.175,-0.406255,0.0,1.0
200,49.75,37.7835,37.4051,118.835,99.0667,102.615,0.00293142,0.3673,20.6539,124.915,-0.295708,0.0,1.0
208,51.75,38.5351,37.8588,121.273,99.0471,102.667,0.00306592,0.373727,20.6583,124.665,-0.301684,0.0,0.0
216,53.75,38.999,38.7707,122.383,99.0078,101.769,0.00384173,0.343151,20.6948,124.515,-0.231198,0.0,0.0
224,55.75,40.289,39.4259,129.418,98.9737,100.761,0.00581197,0.286759,20.7642,124.325,-0.150429,0.0,0.0
232,57.75,40.3939,40.2464,132.459,98.9485,99.8403,0.00814818,0.221972,20.8276,124.244,-0.0753978,0.0,0.0
240,59.75,39.9082,40.4804,134.41,98.9353,100.172,0.0105379,0.168621,20.8692,124.084,-0.104421,0.0,0.0
248,61.75,39.6601,40.1401,133.352,98.8948,100.636,0.0122765,0.138485,20.8895,123.954,-0.146667,0.0,0.0
256,63.75,38.6943,39.5665,132.728,98.884,100.004,0.0136043,0.125246,20.896,123.764,-0.0946513,0.0,0.0
264,65.75,38.2842,39.7264,132.467,98.8832,99.8438,0.0141036,0.120679,20.8988,123.714,-0.0812455,0.0,0.0
272,67.75,38.4172,39.3047,131.344,98.8584,100.068,0.0139091,0.117497,20.9036,123.604,-0.10219,0.0,0.0
280,69.75,38.5117,39.7617,133.701,98.8384,99.8621,0.0130556,0.11341,20.9091,123.474,-0.0865987,0.0,0.0
288,71.75,38.0348,39.485,133.97,98.8135,99.4699,0.0120456,0.107563,20.9168,123.424,-0.0556352,0.0,0.0
296,73.75,38.1248,39.4139,133.035,98.8187,99.6252,0.0110727,0.10184,20.9237,123.284,-0.0683033,0.0,0.0
304,75.75,37.8291,39.2318,132.985,98.8059,100.139,0.0101775,0.0968029,20.9308,123.173,-0.112609,0.0,0.0
312,77.75,37.5927,39.0882,133.909,98.7919,99.7903,0.00934393,0.0922016,20.9362,123.043,-0.0845027,0.0,0.0
320,79.75,36.6762,38.4997,130.279,98.7759,100.352,0.00861947,0.0878057,20.9416,122.983,-0.13301,0.0,0.0
328,81.75,37.2391,38.5533,133.454,98.7735,99.7042,0.00809532,0.0843436,20.946,122.863,-0.0788136,0.0,0.0
336,83.75,37.4628,38.7736,132.58,98.7631,100.173,0.00752926,0.0818137,20.9491,122.803,-0.119102,0.0,0.0
344,85.75,36.6814,39.0075,131.593,98.7534,99.9219,0.0070775,0.0787425,20.9531,122.653,-0.0988529,0.0,0.0
352,87.75,36.5407,38.3646,132.719,98.7546,100.344,0.00671954,0.076507,20.9563,122.643,-0.134181,0.0,0.0
360,89.75,36.6345,38.0446,133.338,98.7611,100.456,0.00643787,0.0747905,20.9579,122.493,-0.143011,0.0,0.0
368,91.75,36.0839,38.2098,130.83,98.7631,99.9148,0.00614029,0.0729046,20.9605,122.443,-0.0974344,0.0,0.0
376,93.75,36.2271,38.2547,131.465,98.7775,99.7653,0.00584977,0.0711598,20.9642,122.353,-0.0836239,0.0,0.0
384,95.75,36.2915,37.7095,132.374,98.7987,100.122,0.0056784,0.0697197,20.9664,122.242,-0.111837,0.0,0.0
392,97.75,36.2561,37.5296,129.927,98.8055,100.101,0.00551816,0.0683696,20.9688,122.132,-0.109497,0.0,0.0
400,99.75,36.4247,37.8814,132.538,98.8119,100.111,0.00519737,0.0670077,20.9709,122.042,-0.109739,0.0,0.0
408,101.75,35.9886,38.6167,132.209,98.8259,99.6484,0.00479671,0.0655629,20.9718,121.962,-0.0696472,0.0,0.0
416,103.75,35.6751,38.11,132.578,98.8307,100.234,0.00455189,0.0643182,20.974,121.842,-0.118508,0.0,0.0
424,105.75,35.7062,37.4688,130.859,98.85,100.017,0.00438987,0.0628314,20.9772,121.772,-0.0986699,0.0,0.0
432,107.75,35.4045,37.0255,131.471,98.8768,99.4253,0.00422084,0.0616364,20.9789,121.682,-0.046484,0.0,0.0
440,109.75,35.9076,37.5908,131.017,98.8808,100.834,0.004022,0.0605764,20.9802,121.602,-0.16435,0.0,0.0
448,111.75,35.157,37.4627,133.664,98.8932,99.9193,0.00382454,0.0591178,20.982,121.522,-0.0867404,0.0,0.0
456,113.75,35.3618,37.5282,134.501,98.88,99.8773,0.00351504,0.0577886,20.9843,121.432,-0.0843347,0.0,0.0
464,115.75,35.2466,37.2909,132.499,98.884,99.8894,0.00314703,0.0562631,20.9866,121.382,-0.0850077,0.0,0.0
472,117.75,35.2177,37.0575,138.654,98.8888,99.9719,0.00289327,0.054667,20.9903,121.302,-0.0915421,0.0,0.0
480,119.75,34.7932,37.0448,132.483,98.888,99.5939,0.00262771,0.0531073,20.9929,121.181,-0.0597764,0.0,0.0
488,121.75,35.0016,36.7146,134.08,98.8848,99.8041,0.00242255,0.0516963,20.994,121.121,-0.0777655,0.0,0.0
496,123.75,34.8071,36.4424,134.547,98.8904,99.9331,0.00226535,0.0503098,20.9945,120.981,-0.0881414,0.0,0.0
504,125.75,34.991,36.4211,133.855,98.8564,99.818,0.00206412,0.0489338,20.9955,120.901,-0.0813476,0.0,0.0
512,127.75,34.4705,36.9006,132.812,98.862,100.143,0.00190191,0.0476681,20.9965,120.871,-0.108179,0.0,0.0
520,129.75,34.541,36.7228,136.669,98.8456,99.9755,0.00177466,0.0464513,20.997,120.871,-0.0955191,0.0,0.0
528,131.75,34.5415,35.8559,136.534,98.8432,99.5752,0.00155055,0.0455733,20.9988,120.771,-0.0620075,0.0,0.0
536,133.75,34.6174,36.0902,134.548,98.8404,99.7876,0.0011574,0.0449025,20.9999,120.691,-0.0801551,0.0,0.0
544,135.75,34.4595,36.3555,133.231,98.8356,100.523,0.000844098,0.0444473,21.0016,120.651,-0.142272,0.0,0.0
552,137.75,34.8036,36.3809,134.489,98.8312,99.9211,0.000775571,0.0440418,21.0025,120.611,-0.0921675,0.0,0.0
560,139.75,34.058,36.0446,135.038,98.8372,99.4574,0.000831766,0.0437456,21.0028,120.561,-0.0525706,0.0,0.0
568,141.75,33.9624,35.9745,133.51,98.8239,99.7015,0.000772589,0.0435349,21.003,120.511,-0.0742946,0.0,0.0
576,143.75,34.4422,35.5246,136.554,98.8307,99.4427,0.000665358,0.0433691,21.003,120.411,-0.051871,0.0,0.0
584,145.75,34.2469,35.8428,129.811,98.8348,99.5582,0.000580964,0.0433091,21.0031,120.381,-0.0612925,0.0,0.0
592,147.75,34.395,35.9565,135.331,98.8288,99.8367,0.000526077,0.0432317,21.0031,120.341,-0.0852754,0.0,0.0
600,149.75,33.8502,35.9795,133.614,98.8384,100.01,0.00052813,0.0429918,21.0031,120.26,-0.0990201,0.0,0.0
608,151.75,33.7099,35.6835,132.88,98.8199,99.9688,0.000562807,0.0428607,21.0031,120.19,-0.0971364,0.0,0.0
616,153.75,34.1216,36.1364,135.818,98.8147,100.006,0.000541955,0.0429373,21.0034,120.11,-0.10073,0.0,0.0
624,155.75,33.5046,35.6676,136.824,98.8219,100.014,0.000523707,0.0428892,21.004,120,-0.100792,0.0,0.0
632,157.75,33.7961,35.2039,134.265,98.8223,100.053,0.000444169,0.0428665,21.0042,120,-0.104019,0.0,0.0
640,159.75,33.774,36.0561,132.16,98.8191,99.876,0.000432574,0.0428964,21.0043,119.88,-0.0893973,0.0,0.0
648,161.75,33.6249,35.3667,135.384,98.8131,99.7238,0.000569794,0.0428446,21.0044,119.9,-0.0770947,0.0,0.0
656,163.75,33.6482,35.1355,132.221,98.8111,99.6533,0.000670291,0.0428201,21.0044,119.84,-0.0713222,0.0,0.0
664,165.75,33.976,35.7611,131.548,98.8203,100.104,0.000699664,0.0427738,21.0044,119.8,-0.108462,0.0,0.0
672,167.75,33.5057,35.3692,133.68,98.8123,100.097,0.000799675,0.04284,21.0044,119.74,-0.108581,0.0,0.0
680,169.75,33.7233,35.9007,134.764,98.8211,100.091,0.000881484,0.0427949,21.0044,119.71,-0.107307,0.0,0.0
688,171.75,34.1511,35.1172,132.972,98.8195,100.079,,0.0428065,,119.68,-0.106431,0.0,0.0
696,173.75,33.688,35.0482,132.639,98.8087,99.8126,,,,119.61,-0.08495,0.0,0.0
704,175.75,33.4991,35.5302,134.806,98.7859,100.091,,,,119.57,-0.110267,0.0,0.0
712,177.75,33.0464,34.8943,135.824,98.7771,99.0687,,,,119.52,-0.0247733,0.0,0.0
720,179.75,33.0918,35.1071,131.308,98.747,99.6868,,,,119.44,-0.0795963,0.0,0.0
724,180.75,33.902,35.2605,134.382,98.733,99.2472,,,,119.46,-0.0436513,0.0,0.0