File: 01_Data/Standard_Gypsum_Wallboard/Cone/Standard_Gypsum_Wallboard_Cone_HF75Scan_220511_R3.csv
Names,Time,Stack TC,Smoke TC,Exh Press,Smoke Comp,Smoke Meas,CO Meter,CO2 Meter,O2 Meter,Sample Mass,Ext Coeff,Start Test,Flame Verif
Chan Gain,,500,500,1,1,1,1,1,1,1,1,1.0,1.0
Offset,,0,0,0.138628,0,0,0,0,0,0,0,0.0,0.0
Gain,,1,1,25.011,13.1256,14.6231,1,1,1,1.001,0.958019,1.0,1.0
Units,sec,C,C,Pa,%,%,%,%,%,g,/m,,
Baseline,,45.0782,46.7764,130.602,99.3916,102.098,0.000172271,0.0411066,21.0091,-445.988,-0.225661,,
7,1.5,40.0867,42.0063,130.63,99.1364,100.906,0.000199612,0.046813,20.9995,132.182,-0.148645,0.0,0.0
14,3.25,40.4826,42.0779,126.251,99.1384,102.717,0.000503974,0.0697713,20.9712,132.202,-0.298029,0.0,0.0
21,5,41.0111,42.2702,128.214,99.0815,102.734,0.000944536,0.102107,20.9496,131.992,-0.304203,0.0,1.0
28,6.75,41.7001,42.7826,128.595,99.0451,102.305,0.00142598,0.108025,20.9428,131.832,-0.272178,0.0,1.0
35,8.5,40.9911,42.3909,129.561,99.013,101.815,0.00192748,0.0960934,20.9513,131.772,-0.234514,0.0,0.0
42,10.25,40.2412,42.0073,127.63,98.985,100.806,0.00226595,0.0823117,20.9643,131.662,-0.153235,0.0,0.0
49,12,40.75,42.1013,130.391,98.9473,100.894,0.00246434,0.0707728,20.9739,131.602,-0.163758,0.0,0.0
56,13.75,40.6894,42.7004,130.343,98.9405,100.11,0.00260498,0.0640257,20.9802,131.492,-0.0987728,0.0,0.0
63,15.5,41.0065,42.1433,126.711,98.9509,98.9344,0.00279212,0.0605807,20.9832,131.352,0.0014064,0.0,0.0
70,17.25,41.1279,42.4222,131.297,98.9673,98.0392,0.00314452,0.059374,20.9868,131.211,0.0791864,0.0,0.0
77,19,40.965,42.7761,131.789,98.979,94.6275,0.00334579,0.0729852,20.9728,130.961,0.377822,0.0,0.0
84,20.75,42.0206,42.9539,118.451,98.9621,103.375,0.00325742,0.135442,20.9077,130.851,-0.366591,0.0,0.0
91,22.5,42.559,43.5321,107.676,98.9786,105.121,0.00307873,0.232842,20.8028,130.351,-0.506003,0.0,0.0
98,24.25,44.4741,44.7014,111.663,99.0022,105.023,0.00299571,0.328552,20.698,130.15,-0.496108,0.0,0.0
105,26,46.4428,46.5704,115.875,99.0034,104.908,0.00295105,0.383321,20.6393,129.9,-0.48686,0.0,0.0
112,27.75,48.8057,49.1998,113.202,99.0122,104.733,0.00299025,0.398807,20.6249,129.59,-0.472051,0.0,0.0
119,29.5,50.5066,50.3571,118.871,99.0166,104.35,0.00351834,0.381159,20.6386,129.4,-0.440862,0.0,0.0
126,31.25,51.3051,51.5699,121.324,99.035,104.198,0.00470633,0.342887,20.6757,129.209,-0.427035,0.0,0.0
133,33,51.793,52.8485,127.657,99.0483,103.899,0.00659919,0.283496,20.7428,129.049,-0.4018,0.0,0.0
140,34.75,52.1769,52.4371,128.367,99.0483,102.198,0.00872482,0.224795,20.7991,128.989,-0.263104,0.0,0.0
147,36.5,51.9735,52.8339,127.784,99.0535,102.181,0.010704,0.177107,20.8466,128.779,-0.261267,0.0,0.0
154,38.25,51.8224,53.0139,126.851,99.0627,102.11,0.011962,0.145502,20.8776,128.729,-0.254574,0.0,0.0
161,40,51.1703,52.4243,127.541,99.0707,102.488,0.0124487,0.126664,20.8941,128.599,-0.285019,0.0,0.0
168,41.75,50.8526,52.7292,131.852,99.0855,103.265,0.0125254,0.116282,20.9029,128.539,-0.347228,0.0,0.0
175,43.5,49.3169,50.7725,127.915,99.0727,103.208,0.0122962,0.10914,20.9119,128.379,-0.343666,0.0,0.0
182,45.25,49.3231,50.2078,127.592,99.0919,103.718,0.0118797,0.104166,20.919,128.309,-0.383428,0.0,0.0
189,47,48.2717,50.3819,127.687,99.1063,102.517,0.0113032,0.100538,20.9259,128.178,-0.284337,0.0,0.0
196,48.75,48.6931,50.1196,129.84,99.1147,103.035,0.0107442,0.097051,20.9307,128.058,-0.325988,0.0,0.0
203,50.5,48.4465,50.2608,129.172,99.1143,103.502,0.0101695,0.0941413,20.9338,127.968,-0.364008,0.0,0.0
210,52.25,48.3024,50.4186,128.251,99.116,101.865,0.00963229,0.091428,20.9375,127.888,-0.229942,0.0,0.0
217,54,48.0967,49.543,126.629,99.132,102.484,0.00913731,0.0885944,20.9418,127.878,-0.279492,0.0,0.0
224,55.75,48.3205,49.5506,126.598,99.1488,103.266,0.0087938,0.0861791,20.9451,127.678,-0.341934,0.0,0.0
231,57.5,47.5441,49.6243,129.109,99.1632,102.157,0.00846166,0.0842419,20.949,127.628,-0.249979,0.0,0.0
238,59.25,47.1801,49.6517,124.655,99.1564,103.057,0.00808362,0.0828174,20.9511,127.568,-0.32424,0.0,0.0
245,61,47.0491,49.4569,127.862,99.1636,102.663,0.00774554,0.0809554,20.9533,127.418,-0.291471,0.0,0.0
252,62.75,47.4562,49.3708,130.036,99.1861,101.896,0.00747827,0.0794923,20.9559,127.318,-0.226504,0.0,0.0
259,64.5,47.6375,49.2012,131.384,99.1981,102.669,0.00721847,0.0783822,20.9582,127.288,-0.289027,0.0,0.0
266,66.25,46.4775,49.0182,127.825,99.1844,102.72,0.00695278,0.0773451,20.9602,127.167,-0.294308,0.0,0.0
273,68,46.7083,49.3522,130.401,99.2093,102.404,0.00665846,0.0762393,20.9621,127.057,-0.266315,0.0,0.0
280,69.75,46.8945,48.801,127.052,99.2173,101.69,0.00632398,0.0752736,20.9644,126.917,-0.206873,0.0,0.0
287,71.5,46.7232,49.2487,131.581,99.2417,102.288,0.00591102,0.0740998,20.966,126.767,-0.254114,0.0,0.0
294,73.25,46.6043,48.6889,127.592,99.2421,102.201,0.00557839,0.0728113,20.9679,126.717,-0.246854,0.0,0.0
301,75,46.1297,48.5718,129.225,99.2529,102.547,0.0053244,0.0713938,20.9699,126.637,-0.274365,0.0,0.0
308,76.75,46.3472,48.7195,127.53,99.2782,103.475,0.00510823,0.0701545,20.9714,126.527,-0.347954,0.0,0.0
315,78.5,46.1805,48.6774,126.325,99.2958,102.824,0.00490325,0.0688824,20.9727,126.427,-0.293417,0.0,0.0
322,80.25,46.4992,48.4211,130.72,99.327,102.684,0.00457816,0.0670901,20.9759,126.327,-0.279313,0.0,0.0
329,82,46.2558,48.1766,127.983,99.3315,104.564,0.00423082,0.0647978,20.9791,126.256,-0.43138,0.0,0.0
336,83.75,46.1755,48.2327,125.339,99.3559,102.809,0.00389627,0.0624888,20.9813,126.156,-0.287093,0.0,0.0
343,85.5,45.8364,48.482,131.447,99.3803,102.682,0.00363822,0.0603684,20.9832,126.086,-0.274625,0.0,0.0
350,87.25,45.8469,48.4601,128.689,99.4052,103.305,0.00343455,0.0584544,20.985,125.996,-0.323429,0.0,0.0
357,89,46.0662,48.017,132.288,99.4188,103.127,0.00330674,0.0563141,20.9879,125.886,-0.307781,0.0,0.0
364,90.75,46.0248,48.4954,125.277,99.4308,103.015,0.00312734,0.0544434,20.9899,125.816,-0.297559,0.0,0.0
371,92.5,45.5868,48.283,131.363,99.4532,103.08,0.00281068,0.052753,20.9925,125.726,-0.300977,0.0,0.0
378,94.25,45.2125,48.0994,130.752,99.4672,102.325,0.00242533,0.0513053,20.9943,125.616,-0.238045,0.0,0.0
385,96,45.5302,47.6979,128.673,99.4909,102.268,0.00212022,0.0502433,20.9952,125.556,-0.231355,0.0,0.0
392,97.75,45.7113,48.0167,127.09,99.4957,103.393,0.00193645,0.0493007,20.998,125.496,-0.322928,0.0,0.0
399,99.5,44.9953,48.0303,127.152,99.5201,103.372,0.00183068,0.0484034,20.9996,125.446,-0.319159,0.0,0.0
406,101.25,45.2433,48.1952,125.83,99.5518,102.456,0.00175482,0.0474743,21.0019,125.416,-0.241639,0.0,0.0
413,103,45.1055,47.6517,128.681,99.5766,101.732,0.00164897,0.0467153,21.0036,125.306,-0.179925,0.0,0.0
420,104.75,44.9112,47.3275,128.8,99.5966,102.533,0.00148776,0.0460267,21.0044,125.225,-0.244183,0.0,0.0
427,106.5,44.9012,47.7798,127.734,99.5926,102.819,0.00133125,0.0453243,21.0048,125.135,-0.267897,0.0,0.0
434,108.25,45.2766,47.101,126.277,99.6058,102.23,0.001191,0.0447392,21.0049,125.075,-0.218534,0.0,0.0
441,110,45.0061,47.3111,130.456,99.6375,101.853,0.00100343,0.0443236,21.0047,125.015,-0.184809,0.0,0.0
448,111.75,45.0753,47.6143,132.496,99.6455,101.953,0.000761097,0.0439884,21.0046,124.925,-0.192413,0.0,0.0
455,113.5,44.7128,46.9605,129.966,99.6599,102.229,0.000569752,0.0437462,21.0046,124.855,-0.213899,0.0,0.0
462,115.25,44.9101,47.073,131.426,99.6751,103.112,0.000489332,0.0435406,21.005,124.835,-0.284903,0.0,0.0
469,117,45.1328,47.3117,127.716,99.6799,102.929,0.000505394,0.0434304,21.0052,124.765,-0.269572,0.0,0.0
476,118.75,44.3808,47.3153,128.782,99.6952,103.731,0.000601008,0.0431104,21.0053,124.655,-0.333473,0.0,0.0
483,120.5,44.4894,47.0488,128.055,99.692,103.051,0.000676473,0.0430204,21.0053,124.635,-0.2785,0.0,0.0
490,122.25,44.7201,47.1828,130.076,99.6928,103.041,0.000706377,0.0429788,21.0053,124.595,-0.277595,0.0,0.0
497,124,44.4015,46.773,126.731,99.7132,102.987,0.000707886,0.0428039,21.0054,124.535,-0.271505,0.0,0.0
504,125.75,44.6702,47.1923,126.559,99.7152,102.318,0.000673514,0.0428433,21.0054,124.495,-0.216573,0.0,0.0
511,127.5,44.3435,46.7832,128.383,99.7064,103.756,0.000642785,0.0427125,21.0054,124.415,-0.334588,0.0,0.0
518,129.25,44.2545,47.1345,129.411,99.7108,102.22,0.000632117,0.0427641,21.0054,124.315,-0.208839,0.0,0.0
525,131,44.1986,47.0077,128.294,99.7056,103.265,0.000627727,0.0427541,21.0054,124.224,-0.294802,0.0,0.0
532,132.75,44.1246,46.6388,128.805,99.7308,102.863,0.000662832,0.0426844,21.0063,124.114,-0.259854,0.0,0.0
539,134.5,44.3095,46.6424,129.178,99.7256,102.991,0.000740345,0.0426013,21.0069,124.144,-0.27075,0.0,0.0
546,136.25,44.4322,46.4669,129.878,99.7344,102.495,0.000805379,0.0425751,21.0072,124.114,-0.229419,0.0,0.0
553,138,44.4923,46.3087,129.608,99.7268,103.142,0.000761278,0.0425119,21.0073,124.074,-0.282984,0.0,0.0
560,139.75,44.4807,46.9187,128.124,99.7396,102.669,0.000673256,0.0426175,21.0074,123.974,-0.243237,0.0,0.0
567,141.5,44.2792,46.7694,128.792,99.7484,103.345,0.000700185,0.0426925,21.0077,123.914,-0.297688,0.0,0.0
574,143.25,44.0623,46.4357,126.273,99.7408,102.344,0.000780951,0.0426545,21.0088,123.844,-0.216502,0.0,0.0
581,145,44.0874,46.4475,130.62,99.746,103.054,0.000800405,0.0426635,21.0093,123.834,-0.274162,0.0,0.0
588,146.75,43.8595,46.5685,131.053,99.7432,102.591,0.000700313,0.0425178,21.0095,123.784,-0.236612,0.0,0.0
595,148.5,43.7388,46.7061,127.958,99.7552,104.056,0.000576038,0.0424976,21.0094,123.744,-0.354689,0.0,0.0
602,150.25,44.2041,46.3993,129.263,99.7488,102.819,0.000555171,0.0425928,21.0084,123.654,-0.254762,0.0,0.0
609,152,43.6338,46.2705,125.274,99.7528,102.8,,0.0427067,,123.624,-0.252893,0.0,0.0
616,153.75,44.2379,46.1691,131.429,99.7512,102.394,,0.0428207,,123.554,-0.219764,0.0,0.0
623,155.5,43.9585,46.062,132.026,99.7689,102.694,,,,123.494,-0.242856,0.0,0.0
630,157.25,44.0229,46.3045,128.763,99.7773,102.489,,,,123.444,-0.225368,0.0,0.0
637,159,43.5806,46.0409,127.831,99.7685,102.967,,,,123.384,-0.265209,0.0,0.0
644,160.75,43.292,46.4038,129.459,99.7805,102.308,,,,123.344,-0.210229,0.0,0.0
650,162.25,43.7943,46.3714,128.963,99.7905,102.273,,,,123.243,-0.206489,0.0,0.0