File: 01_Data/Standard_Gypsum_Wallboard/Cone/Standard_Gypsum_Wallboard_Cone_HF50Scan_220511_R1.csv
Names,Time,Stack TC,Smoke TC,Exh Press,Smoke Comp,Smoke Meas,CO Meter,CO2 Meter,O2 Meter,Sample Mass,Ext Coeff,Start Test,Flame Verif
Chan Gain,,500,500,1,1,1,1,1,1,1,1,1.0,1.0
Offset,,0,0,0.138628,0,0,0,0,0,0,0,0.0,0.0
Gain,,1,1,25.011,13.1256,14.6231,1,1,1,1.001,0.958019,1.0,1.0
Units,sec,C,C,Pa,%,%,%,%,%,g,/m,,
Baseline,,33.9426,35.2677,134.917,99.4946,100.201,0.000383343,0.0420457,21.0009,-445.244,-0.0594194,,
8,1.75,30.449,31.6465,134.826,99.3795,100.001,0.000275068,0.0463727,20.9979,126.567,-0.0524219,0.0,0.0
16,3.75,30.1535,31.1016,136.501,99.3615,99.9599,0.000304397,0.0462482,20.9981,126.527,-0.0504574,0.0,0.0
24,5.75,30.1399,31.5826,133.58,99.3751,100.089,0.000389358,0.0459836,20.9981,126.487,-0.060179,0.0,0.0
32,7.75,30.465,31.7722,136.308,99.3447,99.9353,0.000382155,0.0459425,20.9988,126.467,-0.0498164,0.0,0.0
40,9.75,30.8408,31.8197,135.7,99.3278,99.6908,0.000282305,0.0457238,20.9999,126.437,-0.0306507,0.0,0.0
48,11.75,31.1091,32.2622,135.47,99.305,100.118,0.000301219,0.0455662,21.0003,126.287,-0.0685437,0.0,0.0
56,13.75,30.8839,32.1814,135.225,99.2894,99.963,0.000445732,0.0454488,20.9983,126.287,-0.0568202,0.0,0.0
64,15.75,31.201,32.324,139.451,99.2946,99.9144,0.000506691,0.0454059,20.9974,126.156,-0.0522893,0.0,0.0
72,17.75,30.6068,32.5945,133.058,99.2918,100.202,0.000473087,0.0449828,20.997,126.126,-0.0766645,0.0,0.0
80,19.75,31.0497,32.2645,134.196,99.2838,99.5783,0.000457942,0.044666,20.9977,126.016,-0.0248939,0.0,0.0
88,21.75,31.1383,32.8082,133.454,99.2682,99.5422,0.000421166,0.044411,20.9998,126.026,-0.0231649,0.0,0.0
96,23.75,31.6232,32.6331,133.723,99.2658,99.564,0.00043289,0.0443327,21.0009,125.876,-0.0252139,0.0,0.0
104,25.75,31.8232,32.7774,133.332,99.2421,99.3012,0.000499901,0.0442611,21.0013,125.806,-0.00499995,0.0,0.0
112,27.75,31.2326,32.7822,132.239,99.2337,98.796,0.000508878,0.0444889,21.0015,125.766,0.0371475,0.0,0.0
120,29.75,31.7086,33.0069,134.944,99.2121,98.601,0.000449502,0.0446681,21.0016,125.696,0.0519197,0.0,0.0
128,31.75,31.6739,33.2785,132.941,99.166,97.3765,0.000611959,0.0444691,21.0012,125.636,0.153038,0.0,0.0
136,33.75,32.147,33.0258,134.483,99.146,98.1802,0.00106432,0.0446359,21.0001,125.516,0.0822633,0.0,0.0
144,35.75,31.7289,33.3334,137.852,99.1099,96.8686,0.0015885,0.0451424,20.9993,125.306,0.192226,0.0,0.0
152,37.75,31.9558,33.3739,136.122,99.0711,96.3938,0.00210339,0.0457399,20.9969,125.286,0.230225,0.0,0.0
160,39.75,32.3717,33.4907,132.013,99.0418,95.3103,0.00258568,0.0463767,20.9952,125.175,0.322742,0.0,0.0
168,41.75,32.2106,33.5667,134.132,99.0186,94.8667,0.00303297,0.0475213,20.9923,125.025,0.359974,0.0,0.0
176,43.75,32.2376,33.175,131.444,99.0214,96.5295,0.00332509,0.0626152,20.9911,124.905,0.214192,0.0,0.0
184,45.75,32.5485,33.3865,120.587,99.0294,102.236,0.00321978,0.126418,20.874,124.635,-0.26782,0.0,1.0
192,47.75,34.9478,34.309,117.722,99.0326,103.31,0.00290921,0.255586,20.733,124.244,-0.355344,0.0,1.0
200,49.75,35.7992,35.202,119.599,99.0434,104.23,0.00269042,0.346417,20.6638,123.954,-0.428947,0.0,1.0
208,51.75,37.4535,36.8662,125.137,99.0342,103.995,0.0028565,0.380658,20.6404,123.754,-0.41071,0.0,0.0
216,53.75,39.3039,38.7295,118.445,99.0515,102.026,0.00362365,0.366554,20.6673,123.484,-0.248655,0.0,0.0
224,55.75,40.2179,39.7245,129.363,99.0467,101.874,0.00521489,0.317932,20.7218,123.253,-0.236519,0.0,0.0
232,57.75,40.2489,40.3517,132.181,99.0515,100.425,0.00774793,0.252263,20.7858,123.253,-0.11576,0.0,0.0
240,59.75,40.5541,40.7299,133.085,99.0591,100.173,0.0106148,0.194075,20.8446,123.013,-0.0939888,0.0,0.0
248,61.75,39.0733,40.0958,132.961,99.0535,100.448,0.0127773,0.154201,20.8755,122.873,-0.117495,0.0,0.0
256,63.75,38.9275,40.135,134.1,99.0595,99.784,0.0137353,0.132472,20.8923,122.813,-0.0612456,0.0,0.0
264,65.75,39.0596,39.574,131.874,99.0975,100.469,0.0136821,0.120269,20.9019,122.683,-0.115474,0.0,0.0
272,67.75,38.6009,39.6911,131.907,99.0775,100.097,0.0131888,0.112714,20.9089,122.543,-0.0860212,0.0,0.0
280,69.75,38.2489,39.4378,132.483,99.0887,100.443,0.0126035,0.108037,20.9134,122.513,-0.114056,0.0,0.0
288,71.75,38.2688,39.1356,130.473,99.0887,100.608,0.0118027,0.104148,20.9205,122.353,-0.12786,0.0,0.0
296,73.75,37.9925,39.1862,131.143,99.1027,100.467,0.010982,0.0992457,20.9276,122.373,-0.114921,0.0,0.0
304,75.75,38.0597,38.6835,133.954,99.1264,101.044,0.0102221,0.0947097,20.9335,122.192,-0.161007,0.0,0.0
312,77.75,37.6132,39.0609,135.075,99.1091,100.395,0.00959053,0.0910906,20.9387,122.122,-0.108365,0.0,0.0
320,79.75,37.1919,38.2684,135.073,99.1184,100.367,0.00898437,0.0876919,20.9426,122.052,-0.105193,0.0,0.0
328,81.75,36.8543,38.4087,131.799,99.1272,100.667,0.00844277,0.0840319,20.9464,121.942,-0.129518,0.0,0.0
336,83.75,36.6779,38.4759,132.636,99.1332,100.032,0.0079693,0.0810797,20.9495,121.682,-0.0758664,0.0,0.0
344,85.75,36.3575,38.2262,132.152,99.138,99.8586,0.0076846,0.0787311,20.9527,121.572,-0.0608621,0.0,0.0
352,87.75,36.6207,38.0681,131.739,99.148,100.802,0.00738211,0.0767418,20.9562,121.502,-0.139033,0.0,0.0
360,89.75,36.2012,38.1523,130.412,99.1612,99.8461,0.00707582,0.0751159,20.9577,121.452,-0.0578415,0.0,0.0
368,91.75,36.3528,37.684,129.748,99.1704,99.9559,0.00669889,0.0734859,20.959,121.412,-0.0662952,0.0,0.0
376,93.75,35.4886,37.5261,130.783,99.1724,100.658,0.0063973,0.0718257,20.9624,121.251,-0.124937,0.0,0.0
384,95.75,36.1288,37.665,133.893,99.1772,100.583,0.00623435,0.0704474,20.9643,121.131,-0.118267,0.0,0.0
392,97.75,35.636,37.5298,134.515,99.1913,100.087,0.00612936,0.0693131,20.9651,121.021,-0.0755166,0.0,0.0
400,99.75,35.4492,37.7765,132.383,99.2081,99.9081,0.00593518,0.0682601,20.9667,120.851,-0.0590899,0.0,0.0
408,101.75,35.2424,37.597,133.426,99.2021,100.392,0.00555813,0.0669659,20.9693,120.821,-0.10019,0.0,0.0
416,103.75,35.7428,37.4513,135.151,99.2045,99.5917,0.0052785,0.0658883,20.9712,120.771,-0.0327393,0.0,0.0
424,105.75,35.4075,36.8774,134.607,99.2101,100.527,0.00503872,0.0645186,20.9728,120.651,-0.110823,0.0,0.0
432,107.75,35.1182,36.9233,131.559,99.2209,99.793,0.00475604,0.0625228,20.9748,120.601,-0.0483145,0.0,0.0
440,109.75,34.8845,36.9725,130.863,99.2161,100.489,0.00447883,0.0611812,20.9762,120.581,-0.107143,0.0,0.0
448,111.75,34.7168,36.9051,133.838,99.2249,100.455,0.0041912,0.0599659,20.979,120.471,-0.10356,0.0,0.0
456,113.75,34.4971,36.354,133.802,99.2337,99.8345,0.00387026,0.058516,20.9819,120.371,-0.050723,0.0,0.0
464,115.75,34.4021,37.2143,134.247,99.2317,100.081,0.00354437,0.0564186,20.9846,120.291,-0.071602,0.0,0.0
472,117.75,34.4281,36.56,135.064,99.2425,99.9153,0.0032484,0.0544491,20.9866,120.301,-0.0567733,0.0,0.0
480,119.75,34.4893,36.7619,132.303,99.2626,100.382,0.00292627,0.0527839,20.9888,120.15,-0.0942461,0.0,0.0
488,121.75,34.4867,36.677,132.067,99.2718,100.423,0.00261385,0.0511363,20.9909,120.12,-0.0969028,0.0,0.0
496,123.75,34.3104,35.9554,132.799,99.2846,100.14,0.00231066,0.0495716,20.993,120,-0.0720704,0.0,0.0
504,125.75,34.4531,36.5643,135.469,99.3018,100.138,0.00191802,0.0482681,20.995,119.95,-0.0704629,0.0,0.0
512,127.75,34.0912,36.0895,133.596,99.3022,100.3,0.00144751,0.0472006,20.9981,119.92,-0.0840504,0.0,0.0
520,129.75,34.0753,36.0018,131.583,99.3102,100.212,0.00110791,0.0462421,20.9997,119.81,-0.0759659,0.0,0.0
528,131.75,34.0097,35.685,135.528,99.3335,99.9755,0.000951649,0.0456495,21.0004,119.72,-0.0541428,0.0,0.0
536,133.75,33.6705,36.2619,130.743,99.3302,100.369,0.000851231,0.0448425,21.0003,119.64,-0.0873968,0.0,0.0
544,135.75,33.7873,35.8639,133.061,99.3355,100.215,0.000755629,0.0444215,20.9997,119.53,-0.074093,0.0,0.0
552,137.75,33.48,35.6335,136.67,99.3491,100.647,0.000647252,0.0441769,20.9995,119.55,-0.10905,0.0,0.0
560,139.75,33.3556,35.7562,133.291,99.3707,100.908,0.000550722,0.0439904,20.9994,119.49,-0.12899,0.0,0.0
568,141.75,33.697,35.4461,134.938,99.3663,100.685,0.000518952,0.0437029,20.9993,119.38,-0.11076,0.0,0.0
576,143.75,33.3884,35.7274,132.54,99.3799,100.127,0.000576122,0.0434805,21.0004,119.27,-0.0629189,0.0,0.0
584,145.75,33.5548,35.1485,133.824,99.3899,99.7898,0.000605373,0.0434068,21.001,119.31,-0.0337461,0.0,0.0
592,147.75,33.0759,35.4051,134.759,99.4024,100.082,0.000538161,0.0430547,21.0009,119.259,-0.0572383,0.0,0.0
600,149.75,33.5334,34.8472,133.81,99.416,100.827,0.000535767,0.0429227,21.0008,119.209,-0.118434,0.0,0.0
608,151.75,33.0136,35.5016,135.471,99.422,100.172,0.000556138,0.042833,21,119.149,-0.0631828,0.0,0.0
616,153.75,33.2379,35.1135,134.648,99.4384,100.408,0.000576387,0.042761,21.0004,119.119,-0.0815388,0.0,0.0
624,155.75,32.948,34.8599,136.047,99.466,100.727,0.000551762,0.0426336,21.0006,119.029,-0.105866,0.0,0.0
632,157.75,33.4324,35.4245,133.168,99.458,100.507,0.000509249,0.0425661,21.0017,118.929,-0.0881677,0.0,0.0
640,159.75,33.6033,35.3227,135.195,99.4672,100.512,0.000524899,0.0426643,21.003,118.949,-0.0878002,0.0,0.0
648,161.75,33.2057,34.7985,131.052,99.4833,100.34,0.0005452,0.0425836,21.0036,118.889,-0.072032,0.0,0.0
656,163.75,33.4524,34.9939,132.227,99.4937,100.442,0.000457754,0.0424852,21.0051,118.829,-0.0797071,0.0,0.0
664,165.75,32.9864,35.0751,133.914,99.5121,100.832,0.000441512,0.0425182,21.0047,118.779,-0.110757,0.0,0.0
672,167.75,33.3107,34.7341,134.08,99.5297,100.262,0.000586607,0.0422907,21.0041,118.759,-0.0615645,0.0,0.0
680,169.75,32.7408,34.9528,134.392,99.5474,100.2,,0.0423068,,118.659,-0.05495,0.0,0.0
688,171.75,33.2851,35.0993,134.809,99.563,100.651,,0.0423904,,118.619,-0.0913117,0.0,0.0
696,173.75,32.8047,34.7979,130.707,99.5918,100.295,,,,118.559,-0.0591292,0.0,0.0
704,175.75,33.0892,34.1864,133.19,99.6138,100.256,,,,118.619,-0.0539785,0.0,0.0
712,177.75,32.7334,34.6878,134.766,99.6315,100.493,,,,118.439,-0.0723689,0.0,0.0
720,179.75,32.8207,34.4201,131.323,99.6407,100.676,,,,118.399,-0.086878,0.0,0.0
722,180.25,32.5814,34.2993,132.189,99.6359,100.211,,,,118.399,-0.0483412,0.0,0.0