File: 01_Data/LatexPillow_C_Foam/STA/N2/10K_min/Latex_Pillow_C_STA_N2_10KData_220805_R2.csv
##Temp./Â°C,Time/min,Mass loss(subtr.2)/mg,DSC(subtr.2)/(mW/mg),Sensit./(uV/mW)
49.731,10.00917,0.01811,-0.0001760294,1.07017
51.931,11.15242,0.01945163,0.10226,1.06956
54.131,11.51265,0.01977439,0.15662,1.06895
56.331,11.8074,0.01963123,0.19326,1.06834
58.531,12.07426,0.02130016,0.21492,1.06772
60.731,12.32824,0.01870965,0.23195,1.06709
62.931,12.57431,0.02164586,0.24292,1.06646
65.131,12.8155,0.0215586,0.24923,1.06582
67.331,13.0529,0.02024894,0.2549,1.06518
69.531,13.28895,0.0202982,0.26116,1.06453
71.731,13.5234,0.02029626,0.26658,1.06388
73.931,13.75535,0.01997939,0.27061,1.06323
76.131,13.9856,0.02162528,0.27577,1.06257
78.331,14.21408,0.02035918,0.28057,1.0619
80.531,14.44089,0.02193033,0.28125,1.06123
82.731,14.66649,0.02161261,0.28704,1.06055
84.931,14.89055,0.02300063,0.28808,1.05987
87.131,15.11294,0.02293896,0.29379,1.05918
89.331,15.33477,0.02294,0.29462,1.05849
91.531,15.55494,0.02256777,0.29441,1.05779
93.731,15.77346,0.02294182,0.30163,1.05709
95.931,15.99109,0.02291225,0.30349,1.05638
98.131,16.20775,0.02294998,0.30419,1.05567
100.331,16.4242,0.02293586,0.30962,1.05495
102.531,16.64027,0.02295391,0.31004,1.05423
104.731,16.85602,0.02425098,0.31382,1.0535
106.931,17.07155,0.02428297,0.31665,1.05277
109.131,17.28623,0.02299145,0.31957,1.05203
111.331,17.50159,0.02322981,0.32007,1.05129
113.531,17.7161,0.02296557,0.32148,1.05054
115.731,17.93064,0.02294968,0.32357,1.04978
117.931,18.145,0.02359988,0.32545,1.04902
120.131,18.3592,0.02426004,0.32761,1.04826
122.331,18.57391,0.0243468,0.32648,1.04749
124.531,18.78771,0.02294026,0.32848,1.04671
126.731,19.00124,0.02294,0.33039,1.04593
128.931,19.21405,0.02293999,0.32996,1.04515
131.131,19.42771,0.02294634,0.3321,1.04436
133.331,19.641,0.02293936,0.33363,1.04356
135.531,19.85395,0.02294091,0.3333,1.04276
137.731,20.0673,0.02293862,0.33384,1.04195
139.931,20.2802,0.02293998,0.33317,1.04114
142.131,20.49301,0.02294,0.33441,1.04032
144.331,20.70562,0.02161974,0.33339,1.0395
146.531,20.91628,0.02162008,0.33539,1.03867
148.731,21.1283,0.02162,0.33465,1.03784
150.931,21.33907,0.02130003,0.33116,1.037
153.131,21.55048,0.02164737,0.33305,1.03615
155.331,21.76176,0.02162377,0.33275,1.0353
157.531,21.97264,0.02161987,0.33457,1.03445
159.731,22.18307,0.0206204,0.33749,1.03359
161.931,22.3944,0.02095978,0.33951,1.03272
164.131,22.6054,0.02030949,0.33861,1.03185
166.331,22.8158,0.02030999,0.33765,1.03097
168.531,23.0263,0.0189903,0.33651,1.03009
170.731,23.23684,0.01932,0.33669,1.0292
172.931,23.44708,0.01898999,0.33537,1.02831
175.131,23.65703,0.01801449,0.33528,1.02741
177.331,23.86778,0.01899032,0.33381,1.02651
179.531,24.07816,0.01892271,0.33348,1.0256
181.731,24.2873,0.0179945,0.33201,1.02468
183.931,24.4973,0.01636139,0.33145,1.02376
186.131,24.70717,0.01668988,0.33212,1.02283
188.331,24.91684,0.01504492,0.3315,1.0219
190.531,25.12645,0.01405,0.32931,1.02096
192.731,25.33571,0.01372363,0.32912,1.02002
194.931,25.54579,0.0133899,0.33068,1.01907
197.131,25.75541,0.01067715,0.33063,1.01812
199.331,25.96566,0.009440039,0.32725,1.01716
201.531,26.17543,0.00845,0.33338,1.01619
203.731,26.3849,0.00828481,0.3357,1.01522
205.931,26.59453,0.005494756,0.33674,1.01424
208.131,26.80405,0.00416987,0.33958,1.01326
210.331,27.01375,0.00146102,0.345,1.01227
212.531,27.2225,0.0002602061,0.34573,1.01128
214.731,27.4325,-0.000450088,0.3494,1.01028
216.931,27.641,-0.003740063,0.35445,1.00927
219.131,27.8503,-0.005761776,0.35911,1.00826
221.331,28.06025,-0.006700001,0.36591,1.00725
223.531,28.26942,-0.008019999,0.37516,1.00622
225.731,28.4795,-0.01066552,0.38625,1.0052
227.931,28.68913,-0.01229999,0.40146,1.00416
230.131,28.8992,-0.01362362,0.41672,1.00312
232.331,29.10918,-0.0165815,0.43031,1.00208
234.531,29.31959,-0.01922103,0.45229,1.00103
236.731,29.52927,-0.02283838,0.47435,0.99997
238.931,29.739,-0.02514007,0.49823,0.99891
241.131,29.94875,-0.02908902,0.52113,0.99784
243.331,30.15875,-0.031729,0.54691,0.99677
245.531,30.3689,-0.03631776,0.56981,0.99569
247.731,30.57886,-0.04127771,0.6034,0.9946
249.931,30.789,-0.04655197,0.63478,0.99351
252.131,30.999,-0.0518147,0.667,0.99242
254.331,31.20859,-0.05642771,0.69925,0.99131
256.531,31.4185,-0.06192887,0.72895,0.9902
258.731,31.6282,-0.06873206,0.75716,0.98909
260.931,31.83788,-0.07607348,0.78271,0.98797
263.131,32.04829,-0.08289078,0.80701,0.98684
265.331,32.25803,-0.09113377,0.8363,0.98571
267.531,32.46861,-0.10046,0.85801,0.98458
269.731,32.67903,-0.10759,0.88305,0.98343
271.931,32.88942,-0.11618,0.88584,0.98228
274.131,33.10008,-0.12593,0.87956,0.98113
276.331,33.3107,-0.13411,0.85333,0.97997
278.531,33.52117,-0.14326,0.79196,0.9788
280.731,33.73103,-0.15124,0.70233,0.97763
282.931,33.93942,-0.15655,0.5985,0.97645
285.131,34.1479,-0.1611,0.50003,0.97527
287.331,34.3575,-0.16563,0.42801,0.97407
289.531,34.56706,-0.16973,0.38099,0.97288
291.731,34.7761,-0.17104,0.34921,0.97168
293.931,34.98623,-0.17629,0.32985,0.97047
296.131,35.19587,-0.18084,0.3192,0.96926
298.331,35.4046,-0.18348,0.3092,0.96804
300.531,35.6147,-0.188,0.29944,0.96681
302.731,35.82537,-0.19192,0.28997,0.96558
304.931,36.03477,-0.19718,0.28174,0.96434
307.131,36.24622,-0.20018,0.26872,0.9631
309.331,36.45608,-0.20508,0.26425,0.96185
311.531,36.66652,-0.20918,0.2558,0.96059
313.731,36.87747,-0.2143,0.25002,0.95933
315.931,37.08798,-0.22112,0.24231,0.95807
318.131,37.299,-0.22659,0.23391,0.95679
320.331,37.50934,-0.23342,0.22493,0.95551
322.531,37.72118,-0.2416,0.21423,0.95423
324.731,37.9326,-0.25098,0.20493,0.95294
326.931,38.1436,-0.2597,0.19562,0.95164
329.131,38.3553,-0.27041,0.18228,0.95034
331.331,38.5642,-0.28105,0.17123,0.94903
333.531,38.77726,-0.29323,0.15542,0.94772
335.731,38.98826,-0.3085,0.14087,0.9464
337.931,39.19915,-0.32332,0.12478,0.94507
340.131,39.412,-0.3423,0.11127,0.94374
342.331,39.62446,-0.36283,0.09364969,0.9424
344.531,39.83708,-0.38633,0.07554223,0.94106
346.731,40.04887,-0.41408,0.05954252,0.93971
348.931,40.2613,-0.4417,0.04197457,0.93835
351.131,40.47392,-0.47553,0.03001544,0.93699
353.331,40.68642,-0.51371,0.01872957,0.93562
355.531,40.89734,-0.5567,0.01089168,0.93425
357.731,41.1091,-0.60512,3.753243e-06,0.93287
359.931,41.32271,-0.65892,-0.001701123,0.93149
362.131,41.53617,-0.71991,-0.005431887,0.9301
364.331,41.7479,-0.78662,0.001093348,0.9287
366.531,41.96192,-0.85915,0.00724356,0.9273
368.731,42.17477,-0.93898,0.0135271,0.92589
370.931,42.38735,-1.02257,0.02623234,0.92447
373.131,42.60347,-1.11622,0.04790593,0.92305
375.331,42.81695,-1.20815,0.06138479,0.92163
377.531,43.03006,-1.30341,0.0819398,0.92019
379.731,43.24403,-1.40038,0.09993986,0.91876
381.931,43.45823,-1.4971,0.11651,0.91731
384.131,43.66922,-1.58749,0.13679,0.91586
386.331,43.88418,-1.68117,0.14837,0.91441
388.531,44.09662,-1.76377,0.15461,0.91295
390.731,44.31044,-1.848,0.16643,0.91148
392.931,44.52597,-1.92589,0.17454,0.91001
395.131,44.74017,-1.99757,0.18107,0.90853
397.331,44.95361,-2.06372,0.18906,0.90704
399.531,45.16887,-2.12422,0.18704,0.90555
401.731,45.38203,-2.18173,0.18903,0.90406
403.931,45.59424,-2.23939,0.19101,0.90255
406.131,45.8099,-2.29337,0.19342,0.90105
408.331,46.02388,-2.34335,0.19361,0.89953
410.531,46.2412,-2.39568,0.19607,0.89801
412.731,46.4557,-2.44308,0.19301,0.89649
414.931,46.67103,-2.49045,0.19516,0.89496
417.131,46.88808,-2.53629,0.19169,0.89342
419.331,47.10311,-2.58211,0.19242,0.89188
421.531,47.31838,-2.62612,0.19096,0.89033
423.731,47.5343,-2.67262,0.18918,0.88878
425.931,47.74923,-2.71386,0.18451,0.88722
428.131,47.96441,-2.75557,0.17986,0.88565
430.331,48.1798,-2.79638,0.17641,0.88408
432.531,48.39562,-2.83888,0.17091,0.88251
434.731,48.61133,-2.88031,0.16164,0.88092
436.931,48.8266,-2.91807,0.15404,0.87934
439.131,49.0424,-2.95658,0.14443,0.87774
441.331,49.25815,-2.99581,0.13459,0.87615
443.531,49.47375,-3.02981,0.12238,0.87454
445.731,49.68893,-3.06424,0.10923,0.87293
447.931,49.90402,-3.09808,0.09583741,0.87132
450.131,50.11993,-3.12978,0.08419069,0.86969
452.331,50.33587,-3.15831,0.06795692,0.86807
454.531,50.55134,-3.18658,0.05293222,0.86644
456.731,50.7667,-3.21103,0.03750659,0.8648
458.931,50.9835,-3.23405,0.02135987,0.86316
461.131,51.19995,-3.25594,0.00738945,0.86151
463.331,51.41715,-3.27355,-0.01059448,0.85985
465.531,51.63405,-3.28926,-0.02176036,0.85819
467.731,51.85092,-3.30165,-0.0388888,0.85653
469.931,52.06841,-3.31378,-0.0539701,0.85486
472.131,52.28522,-3.32231,-0.06527924,0.85318
474.331,52.50111,-3.32901,-0.07963327,0.8515
476.531,52.71852,-3.335,-0.09127825,0.84982
478.731,52.93558,-3.3372,-0.09958948,0.84813
480.931,53.1526,-3.34135,-0.10913,0.84643
483.131,53.369,-3.34257,-0.11463,0.84473
485.331,53.5853,-3.34389,-0.11341,0.84302
487.531,53.8013,-3.34456,-0.1121,0.84131
489.731,54.0186,-3.34587,-0.1126,0.83959
491.931,54.2352,-3.34719,-0.11259,0.83787
494.131,54.452,-3.34718,-0.10623,0.83614
496.331,54.6687,-3.34752,-0.1014,0.8344
498.531,54.8862,-3.34784,-0.10051,0.83267
500.731,55.104,-3.34917,-0.11248,0.83092
502.931,55.3219,-3.35048,-0.12346,0.82917
505.131,55.5397,-3.34919,-0.13428,0.82742
507.331,55.7572,-3.35081,-0.14529,0.82566
509.531,55.9756,-3.35157,-0.15537,0.8239
511.731,56.1938,-3.35213,-0.16543,0.82213
513.931,56.41205,-3.35318,-0.17638,0.82035
516.131,56.6307,-3.35311,-0.18677,0.81858
518.331,56.84885,-3.35246,-0.19278,0.81679
520.531,57.06709,-3.35382,-0.20034,0.815
522.731,57.28558,-3.35378,-0.20082,0.81321
524.931,57.50339,-3.35246,-0.20075,0.81141
527.131,57.72231,-3.35345,-0.20306,0.80961
529.331,57.94079,-3.35476,-0.20614,0.8078
531.531,58.15897,-3.35343,-0.21057,0.80599
533.731,58.37765,-3.35344,-0.21517,0.80417
535.931,58.5961,-3.35377,-0.21827,0.80235
538.131,58.8147,-3.3541,-0.22122,0.80052
540.331,59.0329,-3.35542,-0.22294,0.79869
542.531,59.25251,-3.35405,-0.22388,0.79685
544.731,59.47155,-3.35575,-0.22777,0.79501
546.931,59.69115,-3.35443,-0.23248,0.79316
549.131,59.9099,-3.35576,-0.2344,0.79131
550.031,59.9992,-3.35576,-0.23543,0.79055