File: 01_Data/LatexPillow_C_Foam/STA/N2/10K_min/Latex_Pillow_C_STA_N2_10KData_220804_R1.csv
##Temp./Â°C,Time/min,Mass loss(subtr.2)/mg,DSC(subtr.2)/(mW/mg),Sensit./(uV/mW)
49.36,10.00917,0.03821,0.001645038,1.07027
52.16,11.26137,0.04262429,0.11911,1.0695
54.96,11.67596,0.0446025,0.17928,1.06872
57.76,12.0268,0.04613148,0.2119,1.06793
60.56,12.35073,0.04541868,0.22911,1.06714
63.36,12.66237,0.04622405,0.23844,1.06633
66.16,12.96793,0.04488519,0.2467,1.06552
68.96,13.2693,0.04490998,0.25411,1.0647
71.76,13.5667,0.04621089,0.25726,1.06387
74.56,13.862,0.04824568,0.26204,1.06304
77.36,14.15337,0.04886872,0.26837,1.06219
80.16,14.44214,0.04875682,0.27257,1.06134
82.96,14.7287,0.04883616,0.27855,1.06048
85.76,15.0122,0.05016591,0.28186,1.05961
88.56,15.2942,0.05103781,0.28453,1.05873
91.36,15.5738,0.05067986,0.28511,1.05785
94.16,15.8524,0.05118861,0.29192,1.05695
96.96,16.1296,0.05148946,0.29199,1.05605
99.76,16.4052,0.05280428,0.2952,1.05514
102.56,16.68072,0.05313733,0.29817,1.05422
105.36,16.95515,0.05412076,0.30018,1.05329
108.16,17.22901,0.05411781,0.30061,1.05236
110.96,17.50316,0.05419973,0.30171,1.05141
113.76,17.77608,0.05544,0.30621,1.05046
116.56,18.04973,0.05544112,0.3073,1.0495
119.36,18.32199,0.05546488,0.30781,1.04853
122.16,18.59386,0.05648636,0.31112,1.04755
124.96,18.86467,0.05546248,0.3105,1.04656
127.76,19.13599,0.05675362,0.31175,1.04557
130.56,19.4066,0.05796913,0.31253,1.04456
133.36,19.67683,0.05775104,0.31254,1.04355
136.16,19.94666,0.05839935,0.31552,1.04253
138.96,20.21669,0.05840999,0.31453,1.0415
141.76,20.48675,0.05775002,0.31677,1.04046
144.56,20.75615,0.05820234,0.31448,1.03941
147.36,21.02639,0.05775,0.31444,1.03836
150.16,21.29428,0.05906987,0.31333,1.03729
152.96,21.56389,0.05872629,0.31309,1.03622
155.76,21.83207,0.05808059,0.31578,1.03514
158.56,22.10033,0.05774961,0.31706,1.03405
161.36,22.36841,0.05907001,0.32096,1.03295
164.16,22.6363,0.05766868,0.31954,1.03184
166.96,22.90413,0.05774585,0.31875,1.03072
169.76,23.1724,0.05775185,0.317,1.0296
172.56,23.4409,0.05736783,0.31596,1.02846
175.36,23.70927,0.05775001,0.31286,1.02732
178.16,23.97705,0.05643999,0.31241,1.02616
180.96,24.2452,0.05648253,0.30945,1.025
183.76,24.5122,0.05775886,0.30808,1.02383
186.56,24.77903,0.05512021,0.30951,1.02265
189.36,25.04715,0.05413,0.30675,1.02146
192.16,25.31329,0.05412996,0.30975,1.02027
194.96,25.58055,0.05249,0.30812,1.01906
197.76,25.84702,0.05182001,0.3074,1.01784
200.56,26.11373,0.04941697,0.31011,1.01662
203.36,26.38007,0.05017979,0.31321,1.01538
206.16,26.646,0.04886048,0.32523,1.01414
208.96,26.91228,0.04622,0.32123,1.01289
211.76,27.17837,0.04391997,0.33339,1.01163
214.56,27.44465,0.04369341,0.33293,1.01036
217.36,27.71094,0.04094954,0.33783,1.00908
220.16,27.9773,0.03963991,0.34821,1.00779
222.96,28.24383,0.03733917,0.35871,1.00649
225.76,28.5099,0.03699381,0.38002,1.00518
228.56,28.77688,0.03304489,0.40216,1.00387
231.36,29.04327,0.03132464,0.42643,1.00254
234.16,29.31045,0.02745,0.45027,1.00121
236.96,29.57756,0.02390279,0.48238,0.99986
239.76,29.84542,0.02118901,0.51705,0.99851
242.56,30.11285,0.01559008,0.55576,0.99715
245.36,30.37998,0.01229988,0.59809,0.99577
248.16,30.6471,0.005720964,0.64394,0.99439
250.96,30.91419,0.0003738889,0.68814,0.993
253.76,31.18095,-0.00720292,0.74309,0.9916
256.56,31.44838,-0.01382191,0.78009,0.99019
259.36,31.7144,-0.02040167,0.81448,0.98877
262.16,31.98123,-0.03033487,0.85121,0.98734
264.96,32.24794,-0.03994461,0.87587,0.9859
267.76,32.5143,-0.04999842,0.9056,0.98446
270.56,32.7819,-0.05982421,0.92396,0.983
273.36,33.04939,-0.07169895,0.92059,0.98153
276.16,33.3161,-0.08189654,0.88364,0.98006
278.96,33.58335,-0.09274927,0.79952,0.97857
281.76,33.84926,-0.10045,0.67447,0.97708
284.56,34.11627,-0.10502,0.54554,0.97557
287.36,34.3827,-0.11037,0.45373,0.97406
290.16,34.64946,-0.11647,0.3942,0.97254
292.96,34.91559,-0.12086,0.36526,0.971
295.76,35.18181,-0.12591,0.35054,0.96946
298.56,35.451,-0.13161,0.33828,0.96791
301.36,35.7169,-0.1368,0.32866,0.96635
304.16,35.98519,-0.14085,0.32103,0.96478
306.96,36.2528,-0.1455,0.31229,0.96319
309.76,36.52098,-0.15136,0.30883,0.9616
312.56,36.78969,-0.15797,0.29786,0.96
315.36,37.05814,-0.16449,0.28835,0.9584
318.16,37.3268,-0.17386,0.27852,0.95678
320.96,37.59552,-0.18098,0.26768,0.95515
323.76,37.86464,-0.19407,0.25557,0.95351
326.56,38.1331,-0.20657,0.23895,0.95186
329.36,38.40193,-0.21727,0.22492,0.9502
332.16,38.66912,-0.23439,0.20933,0.94854
334.96,38.93905,-0.24974,0.18945,0.94686
337.76,39.20973,-0.27188,0.16926,0.94518
340.56,39.4786,-0.2946,0.14689,0.94348
343.36,39.74792,-0.32053,0.12252,0.94177
346.16,40.01722,-0.35332,0.10061,0.94006
348.96,40.28669,-0.39123,0.08628143,0.93834
351.76,40.55686,-0.43615,0.06742044,0.9366
354.56,40.82826,-0.48757,0.04675188,0.93486
357.36,41.0991,-0.54911,0.03941846,0.9331
360.16,41.36973,-0.62029,0.0295974,0.93134
362.96,41.6402,-0.70182,0.03605479,0.92957
365.76,41.91153,-0.79235,0.0437981,0.92779
368.56,42.1826,-0.89129,0.05935473,0.926
371.36,42.45384,-0.99901,0.08653458,0.9242
374.16,42.72623,-1.11539,0.11405,0.92239
376.96,42.99537,-1.23413,0.13896,0.92057
379.76,43.26793,-1.35713,0.16539,0.91874
382.56,43.54156,-1.4789,0.19305,0.9169
385.36,43.81325,-1.59381,0.2115,0.91505
388.16,44.08332,-1.70152,0.22718,0.91319
390.96,44.3539,-1.80067,0.24272,0.91133
393.76,44.6276,-1.89559,0.25152,0.90945
396.56,44.89801,-1.97827,0.2581,0.90756
399.36,45.17071,-2.06133,0.26625,0.90567
402.16,45.44277,-2.13419,0.27337,0.90376
404.96,45.71743,-2.20485,0.27259,0.90185
407.76,45.98867,-2.26909,0.27567,0.89993
410.56,46.26448,-2.33224,0.27774,0.89799
413.36,46.53817,-2.39116,0.27377,0.89605
416.16,46.81232,-2.44933,0.27508,0.8941
418.96,47.08562,-2.50748,0.27966,0.89214
421.76,47.35975,-2.56269,0.27767,0.89017
424.56,47.63454,-2.61846,0.2628,0.88819
427.36,47.90849,-2.67152,0.25978,0.8862
430.16,48.18206,-2.72449,0.25799,0.8842
432.96,48.4562,-2.77434,0.25145,0.8822
435.76,48.7308,-2.82607,0.24195,0.88018
438.56,49.0051,-2.87666,0.23589,0.87816
441.36,49.28007,-2.92364,0.22507,0.87612
444.16,49.5546,-2.96916,0.20935,0.87408
446.96,49.8294,-3.01291,0.19584,0.87203
449.76,50.10406,-3.05228,0.18211,0.86997
452.56,50.37857,-3.09052,0.16628,0.8679
455.36,50.65345,-3.12524,0.14966,0.86582
458.16,50.92844,-3.15663,0.13491,0.86373
460.96,51.20404,-3.18387,0.12049,0.86164
463.76,51.47931,-3.20798,0.10219,0.85953
466.56,51.7549,-3.2268,0.08488441,0.85742
469.36,52.03086,-3.24316,0.06761109,0.85529
472.16,52.30638,-3.25535,0.05166691,0.85316
474.96,52.58254,-3.26235,0.03937745,0.85102
477.76,52.8583,-3.2664,0.02795669,0.84887
480.56,53.133,-3.27032,0.03156109,0.84672
483.36,53.4086,-3.27259,0.02954303,0.84455
486.16,53.68317,-3.27396,0.06358653,0.84237
488.96,53.95933,-3.27527,0.06400372,0.84019
491.76,54.2355,-3.27593,0.05548529,0.838
494.56,54.51225,-3.27593,0.03303672,0.8358
497.36,54.78918,-3.27626,0.007509307,0.83359
500.16,55.0671,-3.27626,-0.01367186,0.83138
502.96,55.3452,-3.27725,-0.03146439,0.82915
505.76,55.62281,-3.27835,-0.04520017,0.82692
508.56,55.90025,-3.27922,-0.0574936,0.82468
511.36,56.17827,-3.28054,-0.06278999,0.82243
514.16,56.45528,-3.27922,-0.06610226,0.82017
516.96,56.7329,-3.28054,-0.06697105,0.8179
519.76,57.01067,-3.2815,-0.06662249,0.81563
522.56,57.2877,-3.28192,-0.0683226,0.81335
525.36,57.5652,-3.28054,-0.06588822,0.81106
528.16,57.8429,-3.28187,-0.06684631,0.80876
530.96,58.12033,-3.28054,-0.06680914,0.80646
533.76,58.39824,-3.28186,-0.06787668,0.80414
536.56,58.676,-3.28153,-0.07109201,0.80182
539.36,58.9544,-3.28153,-0.06879133,0.7995
542.16,59.23293,-3.28251,-0.07325623,0.79716
544.96,59.5111,-3.28128,-0.0734283,0.79482
547.76,59.7895,-3.2812,-0.07749341,0.79247
550.56,60.0683,-3.28153,-0.08126281,0.79011
553.36,60.34629,-3.2812,-0.08210841,0.78774
556.16,60.62548,-3.27989,-0.08372915,0.78537
558.96,60.90342,-3.27989,-0.08802074,0.78299
561.76,61.18088,-3.28087,-0.08891887,0.7806
564.56,61.45941,-3.28087,-0.0945237,0.77821
567.36,61.7385,-3.28022,-0.09532017,0.77581
570.16,62.0175,-3.27989,-0.09452831,0.7734
572.96,62.29733,-3.28054,-0.10176,0.77099
575.76,62.5774,-3.27923,-0.10234,0.76856
578.56,62.8571,-3.27923,-0.10702,0.76614
581.36,63.1362,-3.27909,-0.1063,0.7637
584.16,63.41502,-3.2779,-0.10941,0.76126
586.96,63.69316,-3.27665,-0.11317,0.75881
589.76,63.9714,-3.27659,-0.1133,0.75635
592.56,64.2503,-3.27856,-0.11482,0.75389
595.36,64.52978,-3.27999,-0.11818,0.75142
598.16,64.80954,-3.28232,-0.12036,0.74895
600.96,65.0899,-3.27966,-0.11963,0.74647
603.76,65.37092,-3.28175,-0.12057,0.74398
606.56,65.6525,-3.27774,-0.12277,0.74149
609.36,65.93359,-3.27952,-0.12675,0.73899
612.16,66.21462,-3.27988,-0.12588,0.73649
614.96,66.49534,-3.28109,-0.12624,0.73398
617.76,66.77498,-3.283,-0.13106,0.73146
620.56,67.05592,-3.28537,-0.13499,0.72894
623.36,67.33566,-3.2857,-0.14152,0.72641
626.16,67.61671,-3.2857,-0.14213,0.72388
628.96,67.8977,-3.2857,-0.14808,0.72134
631.76,68.1784,-3.28603,-0.15271,0.71879
634.56,68.4592,-3.28603,-0.15541,0.71624
637.36,68.73996,-3.28669,-0.15873,0.71369
640.16,69.021,-3.28705,-0.16205,0.71113
642.96,69.30193,-3.28898,-0.16201,0.70856
645.76,69.58225,-3.28833,-0.17094,0.70599
648.56,69.86283,-3.28965,-0.17622,0.70342
651.36,70.1438,-3.29064,-0.17508,0.70084
654.16,70.425,-3.28965,-0.17974,0.69825
656.96,70.7063,-3.29097,-0.18032,0.69566
659.76,70.98751,-3.29294,-0.18305,0.69307
662.56,71.26909,-3.29328,-0.18473,0.69047
665.36,71.55081,-3.2946,-0.18672,0.68786
668.16,71.83287,-3.29361,-0.19249,0.68526
670.96,72.11458,-3.29394,-0.19364,0.68264
673.76,72.39622,-3.2936,-0.196,0.68003
676.56,72.67804,-3.29125,-0.20117,0.67741
679.36,72.95923,-3.29229,-0.20845,0.67478
682.16,73.24019,-3.29261,-0.21278,0.67215
684.96,73.52146,-3.29309,-0.21455,0.66952
687.76,73.80359,-3.29261,-0.21758,0.66689
690.56,74.08624,-3.29261,-0.22042,0.66425
693.36,74.3691,-3.29393,-0.22502,0.6616
696.16,74.65125,-3.29426,-0.22676,0.65895
698.96,74.9324,-3.29295,-0.23229,0.6563
699.56,74.993,-3.29295,-0.23304,0.65574