File: 01_Data/Vinyl_Siding/STA/N2/10K_min/Vinyl_Siding_STA_N2_10KData_210107_R3.csv
##Temp./Â°C,Time/min,Mass loss(subtr.2)/mg,DSC(subtr.2)/mW,Sensit./(uV/mW)
49.259,10.01,0.02106,-0.19743,0.61828
52.259,12.35709,0.02352227,0.13206,0.61987
55.259,13.043,0.02010111,0.26809,0.62142
58.259,13.5938,0.02360321,0.38597,0.62294
61.259,14.08189,0.02180885,0.44023,0.62443
64.259,14.5306,0.02292838,0.47742,0.62589
67.259,14.95227,0.0251142,0.52592,0.62732
70.259,15.35116,0.02500222,0.55938,0.62871
73.259,15.734,0.02303285,0.60289,0.63008
76.259,16.10143,0.02335518,0.64922,0.63141
79.259,16.45756,0.02205965,0.69594,0.63271
82.259,16.80326,0.0222372,0.73798,0.63398
85.259,17.14038,0.02170732,0.8249,0.63522
88.259,17.46921,0.02205727,0.86839,0.63643
91.259,17.79147,0.02172799,0.8662,0.6376
94.259,18.1069,0.02173289,0.88336,0.63875
97.259,18.41754,0.02315034,0.91574,0.63986
100.259,18.72352,0.02206694,0.95831,0.64094
103.259,19.02656,0.02312505,1.00803,0.64199
106.259,19.32641,0.02183014,1.07271,0.643
109.259,19.62417,0.02052188,1.10871,0.64399
112.259,19.92016,0.02182994,1.17357,0.64494
115.259,20.21399,0.01920004,1.19877,0.64586
118.259,20.50575,0.02185982,1.21009,0.64675
121.259,20.7945,0.02059902,1.21601,0.64761
124.259,21.08296,0.02052684,1.24691,0.64844
127.259,21.3689,0.02052,1.26252,0.64924
130.259,21.65265,0.01679935,1.30102,0.65
133.259,21.93432,0.01820977,1.33762,0.65074
136.259,22.21477,0.01813126,1.36646,0.65144
139.259,22.49286,0.01822528,1.40538,0.65211
142.259,22.77038,0.01821,1.43739,0.65275
145.259,23.04605,0.01715221,1.45865,0.65336
148.259,23.32027,0.01690319,1.47352,0.65394
151.259,23.59375,0.01528677,1.5161,0.65449
154.259,23.86632,0.01689803,1.53091,0.65501
157.259,24.1384,0.01557181,1.551,0.65549
160.259,24.41037,0.0152591,1.60968,0.65595
163.259,24.68234,0.01435134,1.6035,0.65637
166.259,24.9532,0.01414549,1.61724,0.65677
169.259,25.22471,0.01447656,1.62825,0.65714
172.259,25.4965,0.01381662,1.63702,0.65747
175.259,25.7673,0.01317081,1.64952,0.65778
178.259,26.03687,0.01315914,1.67351,0.65805
181.259,26.30632,0.01218027,1.68564,0.6583
184.259,26.57535,0.01085959,1.6772,0.65852
187.259,26.84382,0.01095189,1.69148,0.6587
190.259,27.11197,0.009549999,1.71171,0.65886
193.259,27.3795,0.008520025,1.71354,0.65899
196.259,27.6466,0.008230124,1.71074,0.65909
199.259,27.9138,0.00822671,1.70735,0.65917
202.259,28.1806,0.007239771,1.71115,0.65921
205.259,28.4474,0.00593,1.71318,0.65922
208.259,28.71436,0.004631486,1.72873,0.65921
211.259,28.9813,0.00330825,1.72812,0.65917
214.259,29.24816,0.00335126,1.7207,0.6591
217.259,29.51523,0.002968316,1.73979,0.65901
220.259,29.7826,0.001051864,1.7522,0.65888
223.259,30.0497,-0.0006500005,1.78912,0.65873
226.259,30.3166,-0.001969786,1.8052,0.65855
229.259,30.58365,-0.002956914,1.81258,0.65835
232.259,30.85075,-0.004931208,1.83728,0.65812
235.259,31.1178,-0.008989172,1.83208,0.65786
238.259,31.38526,-0.01161646,1.86043,0.65757
241.259,31.6529,-0.01647114,1.90504,0.65726
244.259,31.92045,-0.02117199,1.93376,0.65693
247.259,32.18868,-0.02746967,1.97677,0.65657
250.259,32.45686,-0.03661517,1.99716,0.65618
253.259,32.7248,-0.04309173,2.00752,0.65577
256.259,32.99345,-0.05287874,2.00433,0.65533
259.259,33.26167,-0.06145805,2.00406,0.65487
262.259,33.5293,-0.07188791,2.01868,0.65438
265.259,33.7973,-0.08318876,2.05314,0.65387
268.259,34.0651,-0.09617621,2.07848,0.65334
271.259,34.333,-0.11333,2.12284,0.65278
274.259,34.6017,-0.13091,2.12324,0.6522
277.259,34.87028,-0.15995,2.19091,0.6516
280.259,35.13969,-0.20155,2.58856,0.65097
283.259,35.4093,-0.25872,3.10457,0.65032
286.259,35.68042,-0.33018,3.55333,0.64965
289.259,35.95208,-0.42193,3.9311,0.64895
292.259,36.22384,-0.52795,4.23373,0.64824
295.259,36.49548,-0.6486,4.47201,0.6475
298.259,36.7669,-0.78507,4.65148,0.64674
301.259,37.03918,-0.92882,4.67968,0.64596
304.259,37.31107,-1.07322,4.56526,0.64516
307.259,37.58298,-1.21052,4.35851,0.64434
310.259,37.8547,-1.33434,4.07748,0.6435
313.259,38.12677,-1.44659,3.7886,0.64264
316.259,38.39878,-1.54774,3.51965,0.64175
319.259,38.67058,-1.63718,3.28306,0.64085
322.259,38.94242,-1.7147,3.07711,0.63993
325.259,39.21485,-1.78561,2.87554,0.639
328.259,39.48722,-1.84671,2.69102,0.63804
331.259,39.75987,-1.90424,2.52103,0.63706
334.259,40.03263,-1.95325,2.30117,0.63607
337.259,40.30596,-1.99635,2.08183,0.63506
340.259,40.5789,-2.03516,1.88202,0.63403
343.259,40.85262,-2.06556,1.65288,0.63299
346.259,41.12682,-2.09435,1.4577,0.63192
349.259,41.40117,-2.1153,1.2956,0.63084
352.259,41.67592,-2.13483,1.17385,0.62975
355.259,41.95062,-2.1478,1.09684,0.62864
358.259,42.22639,-2.15868,1.0712,0.62751
361.259,42.5018,-2.16853,1.06867,0.62637
364.259,42.77848,-2.17606,1.10313,0.62521
367.259,43.0556,-2.18267,1.12,0.62404
370.259,43.33286,-2.18922,1.13948,0.62286
373.259,43.61039,-2.19733,1.16072,0.62166
376.259,43.88858,-2.20522,1.18714,0.62044
379.259,44.1676,-2.21323,1.20331,0.61921
382.259,44.44668,-2.22077,1.21801,0.61797
385.259,44.7259,-2.23107,1.24631,0.61672
388.259,45.00515,-2.24066,1.28077,0.61545
391.259,45.28455,-2.25385,1.31639,0.61418
394.259,45.56507,-2.26836,1.33424,0.61289
397.259,45.84594,-2.28251,1.36759,0.61158
400.259,46.12762,-2.29871,1.3799,0.61027
403.259,46.40948,-2.31745,1.3904,0.60895
406.259,46.69189,-2.33581,1.3853,0.60761
409.259,46.97465,-2.3602,1.3666,0.60626
412.259,47.25708,-2.37494,1.3347,0.60491
415.259,47.53955,-2.39428,1.27915,0.60354
418.259,47.82182,-2.41369,1.22464,0.60217
421.259,48.10457,-2.43398,1.17122,0.60078
424.259,48.38722,-2.45634,1.12136,0.59939
427.259,48.67078,-2.47641,1.04205,0.59799
430.259,48.9549,-2.49775,1.0079,0.59657
433.259,49.2401,-2.52487,0.98583,0.59515
436.259,49.525,-2.55151,0.99343,0.59373
439.259,49.81066,-2.57933,1.01067,0.59229
442.259,50.09635,-2.61221,1.08377,0.59085
445.259,50.38216,-2.65089,1.19011,0.5894
448.259,50.6682,-2.69028,1.32849,0.58795
451.259,50.9548,-2.73477,1.48455,0.58649
454.259,51.24195,-2.78175,1.5895,0.58502
457.259,51.5289,-2.82941,1.6786,0.58354
460.259,51.81711,-2.87771,1.76299,0.58206
463.259,52.1049,-2.92434,1.86932,0.58058
466.259,52.39343,-2.97138,1.90496,0.57909
469.259,52.68263,-3.01507,1.87783,0.5776
472.259,52.97156,-3.05231,1.84555,0.5761
475.259,53.26059,-3.09036,1.80702,0.57459
478.259,53.55005,-3.12332,1.77193,0.57309
481.259,53.8396,-3.1519,1.71266,0.57158
484.259,54.12992,-3.17968,1.67161,0.57006
487.259,54.4199,-3.20216,1.60635,0.56855
490.259,54.7104,-3.22371,1.55109,0.56703
493.259,55.0011,-3.23869,1.4969,0.5655
496.259,55.2917,-3.25078,1.48222,0.56398
499.259,55.58351,-3.26279,1.45713,0.56245
502.259,55.8753,-3.27257,1.41676,0.56093
505.259,56.1669,-3.28059,1.40917,0.5594
508.259,56.4589,-3.28733,1.39804,0.55786
511.259,56.751,-3.29277,1.37772,0.55633
514.259,57.04342,-3.29803,1.36801,0.5548
517.259,57.33595,-3.30198,1.36131,0.55327
520.259,57.62843,-3.30593,1.35073,0.55173
523.259,57.9214,-3.30686,1.32011,0.5502
526.259,58.2143,-3.31866,1.35322,0.54866
529.259,58.50934,-3.3112,1.34023,0.54713
532.259,58.804,-3.3153,1.36168,0.5456
535.259,59.0983,-3.31803,1.33284,0.54407
538.259,59.39394,-3.32007,1.35893,0.54254
541.259,59.6892,-3.32304,1.34946,0.54101
544.259,59.9842,-3.32305,1.32602,0.53948
547.259,60.2797,-3.32437,1.34442,0.53795
550.259,60.57578,-3.32796,1.3661,0.53643
553.259,60.87155,-3.32798,1.38393,0.53491
556.259,61.16803,-3.3293,1.4016,0.53339
559.259,61.46386,-3.33063,1.40899,0.53187
562.259,61.76101,-3.33401,1.45743,0.53035
565.259,62.0584,-3.33533,1.50491,0.52884
568.259,62.3555,-3.33533,1.54332,0.52733
571.259,62.65339,-3.33319,1.59111,0.52583
574.259,62.95143,-3.34139,1.59583,0.52433
577.259,63.2499,-3.34038,1.62125,0.52283
580.259,63.54844,-3.34314,1.60445,0.52133
583.259,63.8475,-3.34574,1.613,0.51984
586.259,64.14693,-3.3464,1.73558,0.51836
589.259,64.44649,-3.34772,1.8019,0.51688
592.259,64.7457,-3.35035,1.83787,0.5154
595.259,65.04558,-3.35246,1.88134,0.51393
598.259,65.34574,-3.3531,1.94424,0.51246
601.259,65.64514,-3.3559,2.03771,0.511
604.259,65.94564,-3.35767,2.14585,0.50954
607.259,66.24681,-3.35968,2.32004,0.50809
610.259,66.5476,-3.36098,2.45001,0.50664
613.259,66.84884,-3.36297,2.38228,0.5052
616.259,67.14952,-3.36298,2.0118,0.50377
619.259,67.4512,-3.368,1.85381,0.50234
622.259,67.7535,-3.36823,1.81445,0.50092
625.259,68.05584,-3.37087,1.80106,0.4995
628.259,68.3584,-3.37317,1.79381,0.49809
631.259,68.66068,-3.3735,1.78691,0.49669
634.259,68.96305,-3.37481,1.81062,0.49529
637.259,69.26547,-3.37745,1.84966,0.4939
640.259,69.56819,-3.37958,1.85369,0.49252
643.259,69.8716,-3.3814,1.89367,0.49114
646.259,70.17511,-3.37976,1.93716,0.48977
649.259,70.47919,-3.38403,1.96334,0.48841
652.259,70.78291,-3.38532,2.00605,0.48705
655.259,71.0874,-3.38698,2.05088,0.4857
658.259,71.39149,-3.39061,2.02995,0.48436
661.259,71.69582,-3.38993,2.06023,0.48303
664.259,72.00063,-3.39033,2.08919,0.4817
667.259,72.3048,-3.39454,2.12599,0.48038
670.259,72.60844,-3.39456,2.15257,0.47907
673.259,72.91298,-3.39576,2.23137,0.47777
676.259,73.21773,-3.39653,2.30997,0.47647
679.259,73.5234,-3.39907,2.40138,0.47519
682.259,73.82946,-3.40066,2.56409,0.47391
685.259,74.13608,-3.40362,2.95724,0.47263
688.259,74.4426,-3.40498,3.42647,0.47137
691.259,74.74892,-3.40892,3.52165,0.47012
694.259,75.05465,-3.4152,3.16938,0.46887
697.259,75.36062,-3.42115,3.01772,0.46763
700.259,75.66752,-3.42777,2.93567,0.4664
703.259,75.9749,-3.43395,2.80522,0.46518
706.259,76.2821,-3.4394,2.7271,0.46396
709.259,76.58889,-3.44326,2.61957,0.46276
712.259,76.89627,-3.44835,2.52371,0.46156
715.259,77.2037,-3.45255,2.50517,0.46037
718.259,77.5117,-3.45649,2.53017,0.45919
721.259,77.81894,-3.45137,2.52723,0.45802
724.259,78.12711,-3.46387,2.53246,0.45685
727.259,78.43496,-3.46656,2.51978,0.4557
730.259,78.7423,-3.46872,2.49925,0.45455
733.259,79.05026,-3.47024,2.5541,0.45341
736.259,79.35983,-3.47299,2.54552,0.45228
739.259,79.66929,-3.473,2.61873,0.45116
742.259,79.9781,-3.47464,2.6471,0.45005
742.459,79.99898,-3.47463,2.64716,0.44998