File: 01_Data/Vinyl_Siding/STA/N2/10K_min/Vinyl_Siding_STA_N2_10KData_213006_R1.csv
##Temp./Â°C,Time/min,Mass loss(subtr.2)/mg,DSC(subtr.2)/mW,Sensit./(uV/mW)
49.336,10.01,0.00932,-0.07156482,0.61832
52.336,12.35464,0.00942918,0.18332,0.61991
55.336,13.03795,0.009798729,0.29868,0.62146
58.336,13.58845,0.008663373,0.37386,0.62298
61.336,14.0775,0.0112921,0.42337,0.62447
64.336,14.52661,0.01130095,0.44474,0.62593
67.336,14.94796,0.008670428,0.45219,0.62735
70.336,15.3483,0.0101996,0.49204,0.62875
73.336,15.7304,0.009982064,0.51838,0.63011
76.336,16.09846,0.01122171,0.52985,0.63145
79.336,16.4539,0.009980016,0.56362,0.63275
82.336,16.8005,0.01000108,0.60649,0.63402
85.336,17.1377,0.009946367,0.66017,0.63525
88.336,17.46586,0.009983061,0.61769,0.63646
91.336,17.78675,0.009517905,0.51066,0.63763
94.336,18.10323,0.009980087,0.41493,0.63877
97.336,18.41359,0.01118107,0.38452,0.63989
100.336,18.72018,0.009978581,0.38683,0.64096
103.336,19.02358,0.00861817,0.39644,0.64201
106.336,19.32382,0.009962333,0.40157,0.64303
109.336,19.622,0.01006301,0.40712,0.64401
112.336,19.9178,0.009980016,0.40125,0.64497
115.336,20.21159,0.009397793,0.55645,0.64589
118.336,20.50371,0.008659929,0.69766,0.64678
121.336,20.79365,0.01003573,0.7177,0.64764
124.336,21.0822,0.009965916,0.72905,0.64846
127.336,21.36795,0.008671519,0.74144,0.64926
130.336,21.6522,0.008669573,0.74832,0.65002
133.336,21.9341,0.008660289,0.78446,0.65075
136.336,22.2146,0.00801612,0.79549,0.65146
139.336,22.4936,0.00734996,0.81447,0.65213
142.336,22.76994,0.00702,0.90226,0.65277
145.336,23.0457,0.00867126,0.92567,0.65338
148.336,23.32039,0.00801049,0.92527,0.65395
151.336,23.5951,0.006689967,0.94726,0.6545
154.336,23.86843,0.00802767,0.9526,0.65502
157.336,24.1406,0.008009998,0.95649,0.6555
160.336,24.4125,0.005714009,0.96324,0.65596
163.336,24.6843,0.00591128,0.98398,0.65638
166.336,24.95544,0.005700275,0.96322,0.65678
169.336,25.22666,0.00669297,0.9652,0.65714
172.336,25.49756,0.005376567,0.9571,0.65748
175.336,25.76794,0.005367859,0.96596,0.65778
178.336,26.03784,0.00574461,0.98303,0.65806
181.336,26.308,0.005369952,0.99365,0.65831
184.336,26.57684,0.004048234,1.01562,0.65852
187.336,26.84463,0.00405954,1.03349,0.65871
190.336,27.11252,0.004720089,1.01408,0.65887
193.336,27.3799,0.003063278,1.0234,0.659
196.336,27.6474,0.002737228,1.02778,0.6591
199.336,27.91507,-0.001491404,1.0275,0.65917
202.336,28.1823,0.00329022,1.01371,0.65921
205.336,28.4493,0.001970001,1.01049,0.65922
208.336,28.71712,-0.001241287,0.99757,0.65921
211.336,28.98387,7.095951e-05,0.99371,0.65917
214.336,29.2509,-0.002519941,1.00755,0.6591
217.336,29.5178,-0.002525895,1.00512,0.659
220.336,29.78428,-0.002511377,0.98281,0.65888
223.336,30.05175,-0.004170005,0.98728,0.65873
226.336,30.31857,-0.00644703,0.96897,0.65855
229.336,30.58577,-0.006802012,0.97095,0.65834
232.336,30.8527,-0.008849775,0.97416,0.65811
235.336,31.12025,-0.01043524,0.97653,0.65785
238.336,31.3878,-0.01437022,0.98036,0.65757
241.336,31.6551,-0.01843429,1.02517,0.65726
244.336,31.92333,-0.02451212,1.04552,0.65692
247.336,32.1914,-0.02882675,1.04617,0.65656
250.336,32.45929,-0.03571385,1.06462,0.65617
253.336,32.7278,-0.03779666,1.06664,0.65576
256.336,32.99558,-0.04831646,1.05654,0.65532
259.336,33.2633,-0.06216667,1.07907,0.65486
262.336,33.5324,-0.06183633,1.08301,0.65437
265.336,33.80104,-0.06812612,1.07695,0.65386
268.336,34.06935,-0.08054704,1.10056,0.65333
271.336,34.33848,-0.09387684,1.11284,0.65277
274.336,34.6075,-0.10818,1.10622,0.65219
277.336,34.8765,-0.13044,1.1396,0.65158
280.336,35.14593,-0.16093,1.45006,0.65095
283.336,35.41623,-0.20339,1.84163,0.6503
286.336,35.68721,-0.25828,2.16889,0.64963
289.336,35.95803,-0.32357,2.42583,0.64894
292.336,36.2293,-0.404,2.63247,0.64822
295.336,36.5011,-0.4922,2.81302,0.64748
298.336,36.7723,-0.5956,2.93751,0.64672
301.336,37.0443,-0.70506,3.00882,0.64594
304.336,37.3163,-0.81517,2.9464,0.64514
307.336,37.58706,-0.92081,2.77525,0.64432
310.336,37.8585,-1.01891,2.55818,0.64348
313.336,38.1302,-1.10526,2.3352,0.64261
316.336,38.40213,-1.183,2.13559,0.64173
319.336,38.67385,-1.2532,1.92103,0.64083
322.336,38.94625,-1.31362,1.77171,0.63991
325.336,39.21882,-1.36775,1.60229,0.63897
328.336,39.49153,-1.41492,1.46089,0.63801
331.336,39.7646,-1.45779,1.32646,0.63704
334.336,40.03755,-1.49584,1.15298,0.63604
337.336,40.31094,-1.53072,0.98717,0.63503
340.336,40.58489,-1.55741,0.81237,0.634
343.336,40.85866,-1.58043,0.62355,0.63296
346.336,41.13284,-1.60408,0.50321,0.6319
349.336,41.40721,-1.6208,0.35798,0.63082
352.336,41.6817,-1.63585,0.23537,0.62972
355.336,41.95747,-1.64543,0.19221,0.62861
358.336,42.2327,-1.6555,0.16984,0.62748
361.336,42.509,-1.66355,0.167,0.62634
364.336,42.78545,-1.66806,0.18072,0.62518
367.336,43.06269,-1.67205,0.20034,0.62401
370.336,43.3399,-1.67852,0.19966,0.62283
373.336,43.6175,-1.68375,0.20365,0.62162
376.336,43.8961,-1.68779,0.21542,0.62041
379.336,44.1749,-1.69524,0.21011,0.61918
382.336,44.45411,-1.69988,0.19761,0.61794
385.336,44.73381,-1.70706,0.25349,0.61669
388.336,45.01277,-1.71319,0.28477,0.61542
391.336,45.2934,-1.72273,0.2998,0.61414
394.336,45.57292,-1.73218,0.30009,0.61285
397.336,45.8536,-1.7424,0.31896,0.61155
400.336,46.13394,-1.75365,0.34125,0.61024
403.336,46.4157,-1.76532,0.3363,0.60891
406.336,46.69765,-1.78051,0.34675,0.60758
409.336,46.97987,-1.79401,0.33849,0.60623
412.336,47.2627,-1.80807,0.29647,0.60487
415.336,47.54568,-1.8212,0.25506,0.60351
418.336,47.8279,-1.8366,0.21986,0.60213
421.336,48.11138,-1.85123,0.16879,0.60075
424.336,48.3939,-1.86568,0.11512,0.59935
427.336,48.67752,-1.88002,0.07225233,0.59795
430.336,48.96157,-1.89899,0.06463263,0.59654
433.336,49.246,-1.91683,0.06250414,0.59512
436.336,49.5304,-1.93289,0.06157247,0.59369
439.336,49.81538,-1.94037,0.08224927,0.59226
442.336,50.10025,-1.98303,0.15357,0.59081
445.336,50.38637,-2.00949,0.23264,0.58937
448.336,50.67272,-2.04159,0.32827,0.58791
451.336,50.95915,-2.07771,0.44677,0.58645
454.336,51.2457,-2.11238,0.51747,0.58498
457.336,51.533,-2.15158,0.59413,0.58351
460.336,51.82015,-2.18531,0.66335,0.58203
463.336,52.10792,-2.22307,0.75496,0.58054
466.336,52.396,-2.26156,0.75797,0.57905
469.336,52.6845,-2.29333,0.74876,0.57756
472.336,52.97303,-2.32542,0.72975,0.57606
475.336,53.2618,-2.35034,0.70949,0.57456
478.336,53.55196,-2.37751,0.67469,0.57305
481.336,53.8419,-2.39847,0.64499,0.57154
484.336,54.131,-2.42112,0.58668,0.57002
487.336,54.42095,-2.43775,0.54695,0.56851
490.336,54.7113,-2.45019,0.5055,0.56699
493.336,55.00131,-2.467,0.44019,0.56547
496.336,55.2915,-2.47707,0.40067,0.56394
499.336,55.58231,-2.48271,0.35822,0.56241
502.336,55.8738,-2.49092,0.33376,0.56089
505.336,56.16567,-2.49719,0.32728,0.55936
508.336,56.457,-2.50462,0.3139,0.55782
511.336,56.749,-2.50596,0.29197,0.55629
514.336,57.0415,-2.51126,0.29169,0.55476
517.336,57.3341,-2.51519,0.29148,0.55323
520.336,57.6272,-2.51652,0.28079,0.55169
523.336,57.91976,-2.51916,0.27316,0.55016
526.336,58.21291,-2.5218,0.26595,0.54862
529.336,58.5059,-2.52311,0.26105,0.54709
532.336,58.7995,-2.52538,0.27109,0.54556
535.336,59.09358,-2.52888,0.29633,0.54403
538.336,59.3878,-2.52991,0.31752,0.5425
541.336,59.682,-2.53194,0.31259,0.54097
544.336,59.9765,-2.53186,0.31791,0.53944
547.336,60.27157,-2.53463,0.31883,0.53791
550.336,60.5675,-2.53739,0.37262,0.53639
553.336,60.8635,-2.53704,0.41685,0.53487
556.336,61.15961,-2.53966,0.4133,0.53335
559.336,61.4571,-2.53934,0.41921,0.53183
562.336,61.75485,-2.54143,0.43322,0.53031
565.336,62.0519,-2.54341,0.44009,0.5288
568.336,62.3489,-2.5448,0.42898,0.52729
571.336,62.64624,-2.545,0.42171,0.52579
574.336,62.94376,-2.54753,0.42666,0.52429
577.336,63.24216,-2.54758,0.46341,0.52279
580.336,63.54081,-2.55217,0.47744,0.5213
583.336,63.8401,-2.55075,0.50634,0.51981
586.336,64.13846,-2.55342,0.53656,0.51832
589.336,64.43745,-2.55338,0.56115,0.51684
592.336,64.73727,-2.5547,0.57656,0.51536
595.336,65.0372,-2.55631,0.64013,0.51389
598.336,65.3373,-2.55536,0.72396,0.51242
601.336,65.63675,-2.55929,0.80317,0.51096
604.336,65.93681,-2.56041,0.91955,0.50951
607.336,66.23705,-2.56073,1.074,0.50805
610.336,66.53809,-2.56438,1.19253,0.50661
613.336,66.839,-2.5637,1.14825,0.50517
616.336,67.13946,-2.56644,0.86825,0.50373
619.336,67.4405,-2.56553,0.78205,0.5023
622.336,67.74243,-2.57061,0.80431,0.50088
625.336,68.0442,-2.57192,0.83398,0.49947
628.336,68.3457,-2.5743,0.84726,0.49806
631.336,68.64703,-2.57456,0.86569,0.49665
634.336,68.94914,-2.57522,0.90179,0.49525
637.336,69.2521,-2.57587,0.92089,0.49386
640.336,69.55536,-2.58113,0.9615,0.49248
643.336,69.85834,-2.57982,0.9876,0.4911
646.336,70.1623,-2.58024,1.02961,0.48973
649.336,70.46506,-2.58167,1.05683,0.48837
652.336,70.76913,-2.58343,1.12829,0.48702
655.336,71.07248,-2.58496,1.15825,0.48567
658.336,71.37729,-2.58566,1.23561,0.48433
661.336,71.68215,-2.58684,1.29632,0.48299
664.336,71.9866,-2.58564,1.37066,0.48167
667.336,72.29085,-2.58926,1.39697,0.48035
670.336,72.59559,-2.59046,1.44637,0.47904
673.336,72.901,-2.59056,1.50926,0.47773
676.336,73.2063,-2.59056,1.57229,0.47644
679.336,73.5103,-2.5929,1.64752,0.47515
682.336,73.81715,-2.59467,1.81698,0.47387
685.336,74.12278,-2.59668,2.11401,0.4726
688.336,74.429,-2.59844,2.48997,0.47134
691.336,74.73639,-2.60141,2.69877,0.47008
694.336,75.04353,-2.60562,2.58405,0.46884
697.336,75.3498,-2.61096,2.58425,0.4676
700.336,75.65714,-2.61507,2.64504,0.46637
703.336,75.96315,-2.61881,2.6464,0.46515
706.336,76.27042,-2.62152,2.33688,0.46393
709.336,76.57759,-2.62634,2.35013,0.46273
712.336,76.88479,-2.63422,2.33854,0.46153
715.336,77.19224,-2.63421,2.28697,0.46034
718.336,77.4996,-2.63735,2.31758,0.45916
721.336,77.80751,-2.63938,2.30408,0.45799
724.336,78.11546,-2.643,2.36652,0.45682
727.336,78.4243,-2.64563,2.34573,0.45567
730.336,78.73231,-2.64739,2.39204,0.45452
733.336,79.04056,-2.6475,2.40315,0.45339
736.336,79.3489,-2.65309,2.44392,0.45226
739.336,79.6577,-2.65308,2.43892,0.45113
742.336,79.96712,-2.65443,2.43809,0.45002
742.636,79.9983,-2.65544,2.44467,0.44991