File: 01_Data/Overstuffed_Chair_Polyester_Fabric/FTIR/ATR/Overstuffed_Chair_Polyester_Fabric_ATR_210608_R1.tst
4497.79,0.02204
4484.29,0.02197
4470.79,0.02214
4457.29,0.02237
4443.79,0.02252
4430.28,0.02218
4416.78,0.02271
4403.28,0.02249
4389.78,0.02275
4376.28,0.02255
4362.78,0.02252
4349.28,0.02261
4335.78,0.02300
4322.28,0.02289
4308.77,0.02280
4295.27,0.02304
4281.77,0.02305
4268.27,0.02319
4254.77,0.02315
4241.27,0.02307
4227.77,0.02329
4214.27,0.02317
4200.77,0.02345
4187.26,0.02343
4173.76,0.02349
4160.26,0.02345
4146.76,0.02351
4133.26,0.02353
4119.76,0.02379
4106.26,0.02412
4092.76,0.02399
4079.26,0.02414
4065.75,0.02383
4052.25,0.02397
4038.75,0.02393
4025.25,0.02435
4011.75,0.02426
3998.25,0.02430
3984.75,0.02442
3971.25,0.02518
3957.75,0.02549
3944.25,0.02653
3930.74,0.02736
3917.24,0.02711
3903.74,0.03126
3890.24,0.02739
3876.74,0.02650
3863.24,0.02977
3849.74,0.02810
3836.24,0.03007
3822.74,0.02933
3809.23,0.02608
3795.73,0.02628
3782.23,0.02608
3768.73,0.02769
3755.23,0.02948
3741.73,0.03043
3728.23,0.02860
3714.73,0.02731
3701.23,0.02591
3687.72,0.02838
3674.22,0.03046
3660.72,0.02548
3647.22,0.03097
3633.72,0.02748
3620.22,0.03020
3606.72,0.02807
3593.22,0.02747
3579.72,0.02655
3566.21,0.03183
3552.71,0.02748
3539.21,0.02606
3525.71,0.02930
3512.21,0.02589
3498.71,0.02592
3485.21,0.02567
3471.71,0.02491
3458.21,0.02539
3444.7,0.02632
3431.2,0.02601
3417.7,0.02552
3404.2,0.02509
3390.7,0.02524
3377.2,0.02492
3363.7,0.02523
3350.2,0.02477
3336.7,0.02556
3323.2,0.02499
3309.69,0.02550
3296.19,0.02524
3282.69,0.02535
3269.19,0.02521
3255.69,0.02536
3242.19,0.02525
3228.69,0.02538
3215.19,0.02517
3201.69,0.02534
3188.18,0.02513
3174.68,0.02518
3161.18,0.02510
3147.68,0.02528
3134.18,0.02549
3120.68,0.02585
3107.18,0.02596
3093.68,0.02590
3080.18,0.02651
3066.67,0.02671
3053.17,0.02671
3039.67,0.02584
3026.17,0.02600
3012.67,0.02707
2999.17,0.02731
2985.67,0.02815
2972.17,0.03092
2958.67,0.03102
2945.16,0.02940
2931.66,0.02902
2918.16,0.02954
2904.66,0.03006
2891.16,0.02882
2877.66,0.02854
2864.16,0.02842
2850.66,0.02859
2837.16,0.02736
2823.66,0.02683
2810.15,0.02692
2796.65,0.02671
2783.15,0.02657
2769.65,0.02647
2756.15,0.02639
2742.65,0.02641
2729.15,0.02628
2715.65,0.02614
2702.15,0.02610
2688.64,0.02611
2675.14,0.02602
2661.64,0.02603
2648.14,0.02547
2634.64,0.02510
2621.14,0.02477
2607.64,0.02441
2594.14,0.02450
2580.64,0.02435
2567.13,0.02414
2553.63,0.02416
2540.13,0.02408
2526.63,0.02383
2513.13,0.02363
2499.63,0.02360
2486.13,0.02344
2472.63,0.02354
2459.13,0.02334
2445.62,0.02318
2432.12,0.02353
2418.62,0.02359
2405.12,0.02374
2391.62,0.02379
2378.12,0.02432
2364.62,0.01860
2351.12,0.02231
2337.62,0.01926
2324.12,0.02236
2310.61,0.02425
2297.11,0.02358
2283.61,0.02322
2270.11,0.02236
2256.61,0.02226
2243.11,0.02196
2229.61,0.02156
2216.11,0.02118
2202.61,0.02050
2189.1,0.01984
2175.6,0.01910
2162.1,0.01892
2148.6,0.02025
2135.1,0.02046
2121.6,0.02049
2108.1,0.02051
2094.6,0.02081
2081.1,0.02058
2067.59,0.02069
2054.09,0.02019
2040.59,0.01990
2027.09,0.01909
2013.59,0.01930
2000.09,0.01932
1986.59,0.02017
1973.09,0.01930
1959.59,0.02075
1946.08,0.02094
1932.58,0.01976
1919.08,0.02068
1905.58,0.01900
1892.08,0.01922
1878.58,0.01799
1865.08,0.01915
1851.58,0.01791
1838.08,0.01903
1824.57,0.02021
1811.07,0.01971
1797.57,0.02029
1784.07,0.01808
1770.57,0.01991
1757.07,0.01884
1743.57,0.04140
1730.07,0.12887
1716.57,0.24624
1703.07,0.15434
1689.56,0.07744
1676.06,0.05977
1662.56,0.04646
1649.06,0.04440
1635.56,0.03946
1622.06,0.03666
1608.56,0.03393
1595.06,0.03027
1581.56,0.03204
1568.05,0.03177
1554.55,0.03393
1541.05,0.03948
1527.55,0.03371
1514.05,0.03300
1500.55,0.03766
1487.05,0.03031
1473.55,0.04103
1460.05,0.03631
1446.54,0.03450
1433.04,0.03067
1419.54,0.03374
1406.04,0.06767
1392.54,0.03777
1379.04,0.03615
1365.54,0.03371
1352.04,0.03185
1338.54,0.08834
1325.03,0.03081
1311.53,0.03725
1298.03,0.05917
1284.53,0.10188
1271.03,0.16283
1257.53,0.22866
1244.03,0.28550
1230.53,0.19408
1217.03,0.11235
1203.53,0.07487
1190.02,0.05535
1176.52,0.05593
1163.02,0.05101
1149.52,0.05853
1136.02,0.10584
1122.52,0.19587
1109.02,0.20643
1095.52,0.24559
1082.02,0.18241
1068.51,0.10783
1055.01,0.08156
1041.51,0.07767
1028.01,0.07617
1014.51,0.14000
1001.01,0.06938
987.508,0.06071
974.007,0.07467
960.506,0.06342
947.005,0.04979
933.503,0.04437
920.002,0.04140
906.501,0.04418
893,0.04668
879.499,0.06134
865.998,0.06583
852.497,0.06568
838.996,0.05826
825.495,0.04482
811.994,0.04180
798.493,0.04347
784.992,0.04107
771.49,0.03371
757.989,0.02812
744.488,0.03212
730.987,0.19479
717.486,0.17689
703.985,0.07762
690.484,0.05217
676.983,0.05013
663.482,0.04490
649.981,0.03978
636.48,0.03911
622.979,0.03917
609.477,0.03864
599.834,0.04383