File: 01_Data/Overstuffed_Chair_Polyester_Fabric/FTIR/ATR/Overstuffed_Chair_Polyester_Fabric_ATR_210608_R2.tst
4497.79,0.02115
4484.29,0.02117
4470.79,0.02145
4457.29,0.02170
4443.79,0.02171
4430.28,0.02182
4416.78,0.02186
4403.28,0.02191
4389.78,0.02198
4376.28,0.02201
4362.78,0.02200
4349.28,0.02221
4335.78,0.02229
4322.28,0.02218
4308.77,0.02220
4295.27,0.02228
4281.77,0.02235
4268.27,0.02251
4254.77,0.02241
4241.27,0.02247
4227.77,0.02254
4214.27,0.02245
4200.77,0.02285
4187.26,0.02263
4173.76,0.02272
4160.26,0.02282
4146.76,0.02288
4133.26,0.02298
4119.76,0.02297
4106.26,0.02333
4092.76,0.02340
4079.26,0.02344
4065.75,0.02316
4052.25,0.02326
4038.75,0.02331
4025.25,0.02355
4011.75,0.02363
3998.25,0.02341
3984.75,0.02388
3971.25,0.02443
3957.75,0.02466
3944.25,0.02583
3930.74,0.02659
3917.24,0.02632
3903.74,0.03084
3890.24,0.02661
3876.74,0.02579
3863.24,0.02936
3849.74,0.02742
3836.24,0.02949
3822.74,0.02886
3809.23,0.02543
3795.73,0.02573
3782.23,0.02548
3768.73,0.02702
3755.23,0.02876
3741.73,0.02987
3728.23,0.02792
3714.73,0.02678
3701.23,0.02528
3687.72,0.02769
3674.22,0.02929
3660.72,0.02479
3647.22,0.03044
3633.72,0.02697
3620.22,0.02936
3606.72,0.02741
3593.22,0.02675
3579.72,0.02593
3566.21,0.03128
3552.71,0.02683
3539.21,0.02548
3525.71,0.02875
3512.21,0.02545
3498.71,0.02544
3485.21,0.02534
3471.71,0.02451
3458.21,0.02495
3444.7,0.02603
3431.2,0.02588
3417.7,0.02541
3404.2,0.02486
3390.7,0.02500
3377.2,0.02474
3363.7,0.02526
3350.2,0.02484
3336.7,0.02556
3323.2,0.02512
3309.69,0.02545
3296.19,0.02514
3282.69,0.02532
3269.19,0.02507
3255.69,0.02529
3242.19,0.02510
3228.69,0.02502
3215.19,0.02501
3201.69,0.02509
3188.18,0.02496
3174.68,0.02493
3161.18,0.02465
3147.68,0.02485
3134.18,0.02511
3120.68,0.02557
3107.18,0.02554
3093.68,0.02548
3080.18,0.02605
3066.67,0.02611
3053.17,0.02626
3039.67,0.02532
3026.17,0.02547
3012.67,0.02651
2999.17,0.02673
2985.67,0.02762
2972.17,0.03030
2958.67,0.03046
2945.16,0.02883
2931.66,0.02881
2918.16,0.02942
2904.66,0.02966
2891.16,0.02849
2877.66,0.02796
2864.16,0.02796
2850.66,0.02837
2837.16,0.02695
2823.66,0.02633
2810.15,0.02641
2796.65,0.02627
2783.15,0.02605
2769.65,0.02599
2756.15,0.02592
2742.65,0.02591
2729.15,0.02574
2715.65,0.02561
2702.15,0.02560
2688.64,0.02554
2675.14,0.02545
2661.64,0.02546
2648.14,0.02500
2634.64,0.02463
2621.14,0.02440
2607.64,0.02405
2594.14,0.02396
2580.64,0.02396
2567.13,0.02371
2553.63,0.02360
2540.13,0.02356
2526.63,0.02342
2513.13,0.02317
2499.63,0.02298
2486.13,0.02305
2472.63,0.02285
2459.13,0.02286
2445.62,0.02275
2432.12,0.02305
2418.62,0.02305
2405.12,0.02319
2391.62,0.02331
2378.12,0.02381
2364.62,0.01724
2351.12,0.02153
2337.62,0.01832
2324.12,0.02208
2310.61,0.02366
2297.11,0.02297
2283.61,0.02253
2270.11,0.02200
2256.61,0.02165
2243.11,0.02156
2229.61,0.02102
2216.11,0.02059
2202.61,0.02012
2189.1,0.01936
2175.6,0.01833
2162.1,0.01848
2148.6,0.01925
2135.1,0.01990
2121.6,0.02007
2108.1,0.01994
2094.6,0.02014
2081.1,0.02008
2067.59,0.02019
2054.09,0.01919
2040.59,0.01943
2027.09,0.01850
2013.59,0.01891
2000.09,0.01891
1986.59,0.01983
1973.09,0.01889
1959.59,0.02039
1946.08,0.02051
1932.58,0.01911
1919.08,0.02005
1905.58,0.01855
1892.08,0.01882
1878.58,0.01756
1865.08,0.01878
1851.58,0.01756
1838.08,0.01864
1824.57,0.01976
1811.07,0.01957
1797.57,0.02004
1784.07,0.01793
1770.57,0.01969
1757.07,0.01867
1743.57,0.04117
1730.07,0.12752
1716.57,0.24676
1703.07,0.15664
1689.56,0.07735
1676.06,0.05980
1662.56,0.04644
1649.06,0.04414
1635.56,0.03931
1622.06,0.03630
1608.56,0.03389
1595.06,0.03033
1581.56,0.03220
1568.05,0.03175
1554.55,0.03378
1541.05,0.04022
1527.55,0.03354
1514.05,0.03280
1500.55,0.03719
1487.05,0.03002
1473.55,0.04136
1460.05,0.03590
1446.54,0.03422
1433.04,0.03057
1419.54,0.03382
1406.04,0.06738
1392.54,0.03765
1379.04,0.03609
1365.54,0.03381
1352.04,0.03200
1338.54,0.08744
1325.03,0.03096
1311.53,0.03775
1298.03,0.05980
1284.53,0.10321
1271.03,0.16523
1257.53,0.23024
1244.03,0.28419
1230.53,0.18767
1217.03,0.10821
1203.53,0.07232
1190.02,0.05290
1176.52,0.05265
1163.02,0.04727
1149.52,0.05481
1136.02,0.10477
1122.52,0.19393
1109.02,0.20350
1095.52,0.23961
1082.02,0.17480
1068.51,0.10228
1055.01,0.07831
1041.51,0.07575
1028.01,0.07572
1014.51,0.13438
1001.01,0.06618
987.508,0.05847
974.007,0.07271
960.506,0.06046
947.005,0.04715
933.503,0.04234
920.002,0.03941
906.501,0.04202
893,0.04495
879.499,0.05978
865.998,0.06497
852.497,0.06467
838.996,0.05642
825.495,0.04318
811.994,0.04080
798.493,0.04220
784.992,0.03950
771.49,0.03296
757.989,0.02790
744.488,0.03141
730.987,0.19219
717.486,0.18079
703.985,0.07819
690.484,0.05237
676.983,0.04902
663.482,0.04315
649.981,0.03908
636.48,0.03886
622.979,0.03530
609.477,0.03886
599.834,0.03882