File: 01_Data/Overstuffed_Chair_Polyester_Fabric/FTIR/ATR/Overstuffed_Chair_Polyester_Fabric_ATR_210608_R5.tst
4497.79,0.01916
4484.29,0.01901
4470.79,0.01926
4457.29,0.01922
4443.79,0.01938
4430.28,0.01964
4416.78,0.01947
4403.28,0.01968
4389.78,0.01960
4376.28,0.01981
4362.78,0.01983
4349.28,0.01962
4335.78,0.02001
4322.28,0.02038
4308.77,0.02008
4295.27,0.02014
4281.77,0.02021
4268.27,0.02038
4254.77,0.02036
4241.27,0.02039
4227.77,0.02041
4214.27,0.02062
4200.77,0.02063
4187.26,0.02064
4173.76,0.02077
4160.26,0.02088
4146.76,0.02087
4133.26,0.02108
4119.76,0.02104
4106.26,0.02134
4092.76,0.02136
4079.26,0.02152
4065.75,0.02130
4052.25,0.02151
4038.75,0.02126
4025.25,0.02187
4011.75,0.02187
3998.25,0.02172
3984.75,0.02207
3971.25,0.02301
3957.75,0.02316
3944.25,0.02407
3930.74,0.02539
3917.24,0.02488
3903.74,0.02931
3890.24,0.02531
3876.74,0.02426
3863.24,0.02771
3849.74,0.02592
3836.24,0.02816
3822.74,0.02756
3809.23,0.02404
3795.73,0.02417
3782.23,0.02396
3768.73,0.02592
3755.23,0.02779
3741.73,0.02910
3728.23,0.02660
3714.73,0.02551
3701.23,0.02400
3687.72,0.02639
3674.22,0.02856
3660.72,0.02350
3647.22,0.02913
3633.72,0.02542
3620.22,0.02836
3606.72,0.02603
3593.22,0.02589
3579.72,0.02470
3566.21,0.03037
3552.71,0.02594
3539.21,0.02410
3525.71,0.02748
3512.21,0.02426
3498.71,0.02421
3485.21,0.02427
3471.71,0.02328
3458.21,0.02382
3444.7,0.02489
3431.2,0.02465
3417.7,0.02416
3404.2,0.02361
3390.7,0.02391
3377.2,0.02368
3363.7,0.02415
3350.2,0.02365
3336.7,0.02451
3323.2,0.02398
3309.69,0.02451
3296.19,0.02414
3282.69,0.02438
3269.19,0.02422
3255.69,0.02429
3242.19,0.02420
3228.69,0.02419
3215.19,0.02403
3201.69,0.02403
3188.18,0.02389
3174.68,0.02405
3161.18,0.02388
3147.68,0.02395
3134.18,0.02430
3120.68,0.02467
3107.18,0.02453
3093.68,0.02464
3080.18,0.02509
3066.67,0.02528
3053.17,0.02535
3039.67,0.02450
3026.17,0.02460
3012.67,0.02574
2999.17,0.02585
2985.67,0.02661
2972.17,0.02920
2958.67,0.02923
2945.16,0.02791
2931.66,0.02749
2918.16,0.02865
2904.66,0.02877
2891.16,0.02749
2877.66,0.02710
2864.16,0.02706
2850.66,0.02763
2837.16,0.02619
2823.66,0.02569
2810.15,0.02561
2796.65,0.02555
2783.15,0.02538
2769.65,0.02531
2756.15,0.02532
2742.65,0.02529
2729.15,0.02514
2715.65,0.02508
2702.15,0.02502
2688.64,0.02494
2675.14,0.02488
2661.64,0.02488
2648.14,0.02452
2634.64,0.02409
2621.14,0.02379
2607.64,0.02351
2594.14,0.02348
2580.64,0.02345
2567.13,0.02320
2553.63,0.02306
2540.13,0.02291
2526.63,0.02284
2513.13,0.02290
2499.63,0.02267
2486.13,0.02252
2472.63,0.02251
2459.13,0.02250
2445.62,0.02226
2432.12,0.02270
2418.62,0.02269
2405.12,0.02277
2391.62,0.02297
2378.12,0.02351
2364.62,0.01738
2351.12,0.02126
2337.62,0.01804
2324.12,0.02161
2310.61,0.02356
2297.11,0.02264
2283.61,0.02226
2270.11,0.02139
2256.61,0.02149
2243.11,0.02131
2229.61,0.02080
2216.11,0.02035
2202.61,0.01995
2189.1,0.01907
2175.6,0.01829
2162.1,0.01806
2148.6,0.01911
2135.1,0.01983
2121.6,0.02001
2108.1,0.01986
2094.6,0.02012
2081.1,0.02033
2067.59,0.02021
2054.09,0.01942
2040.59,0.01943
2027.09,0.01865
2013.59,0.01916
2000.09,0.01890
1986.59,0.01954
1973.09,0.01886
1959.59,0.02041
1946.08,0.02103
1932.58,0.01940
1919.08,0.02041
1905.58,0.01871
1892.08,0.01889
1878.58,0.01770
1865.08,0.01891
1851.58,0.01768
1838.08,0.01885
1824.57,0.02005
1811.07,0.01977
1797.57,0.02027
1784.07,0.01821
1770.57,0.02013
1757.07,0.01908
1743.57,0.04114
1730.07,0.12579
1716.57,0.23937
1703.07,0.15063
1689.56,0.07565
1676.06,0.05891
1662.56,0.04607
1649.06,0.04458
1635.56,0.03962
1622.06,0.03663
1608.56,0.03387
1595.06,0.03024
1581.56,0.03211
1568.05,0.03193
1554.55,0.03442
1541.05,0.04100
1527.55,0.03425
1514.05,0.03348
1500.55,0.03768
1487.05,0.03018
1473.55,0.04149
1460.05,0.03628
1446.54,0.03430
1433.04,0.03086
1419.54,0.03427
1406.04,0.06720
1392.54,0.03814
1379.04,0.03649
1365.54,0.03430
1352.04,0.03226
1338.54,0.08871
1325.03,0.03139
1311.53,0.03792
1298.03,0.05929
1284.53,0.10106
1271.03,0.16063
1257.53,0.22426
1244.03,0.28048
1230.53,0.19310
1217.03,0.11501
1203.53,0.07737
1190.02,0.05558
1176.52,0.05434
1163.02,0.04867
1149.52,0.05601
1136.02,0.10444
1122.52,0.19461
1109.02,0.20612
1095.52,0.24328
1082.02,0.18217
1068.51,0.11040
1055.01,0.08428
1041.51,0.08033
1028.01,0.07822
1014.51,0.14255
1001.01,0.07269
987.508,0.06327
974.007,0.07737
960.506,0.06610
947.005,0.05129
933.503,0.04585
920.002,0.04222
906.501,0.04525
893,0.04777
879.499,0.06233
865.998,0.06708
852.497,0.06734
838.996,0.05972
825.495,0.04604
811.994,0.04283
798.493,0.04417
784.992,0.04161
771.49,0.03436
757.989,0.02891
744.488,0.03339
730.987,0.19525
717.486,0.18409
703.985,0.08037
690.484,0.05393
676.983,0.05078
663.482,0.04466
649.981,0.04065
636.48,0.04051
622.979,0.03736
609.477,0.03612
599.834,0.04000