File: 01_Data/Air_Fryer/MCC/Air_Fryer_MCC_30K_min_220203_R1.txt
Sample ID:	C:\MCC\MCC Cal\Test\Air_Fryer_MCC_30K_min_220203_R1.txt
Sample Weight (mg):	4.86
Heating Rate (C/s):	0.5
Combustor Temp (C):	900
N2 Flow Rate (cc/min):	80
O2 Flow Rate (cc/min):	20
Calibration File:	C:\MCC\MCC Cal\Coeff1 JN10440_30_210304.txt.txt
T Correction Coefficients:	0	1.024463	0
Time Shift (s):	14
*
Time (s)	Temperature (C)	N2 flow rate (cc/min)	O2 flow rate (cc/min)	Flow Rate (cc/min)	Oxygen (%)	HRR (W/g)	Heating rate (C/s)
0.000	112.076	80.006	19.995	103.796	20.171	-0.138	-0.012
8.000	112.025	80.007	19.994	103.817	20.168	0.048	-0.027
16.001	112.193	80.009	19.994	103.916	20.154	0.972	0.056
24.000	112.619	80.008	19.993	103.946	20.143	1.681	0.078
32.001	113.449	80.006	19.994	103.994	20.141	1.841	0.122
40.000	114.631	80.007	19.993	104.000	20.132	2.429	0.162
48.000	116.152	80.005	19.993	103.993	20.134	2.332	0.210
56.000	117.905	80.006	19.994	104.004	20.133	2.409	0.202
64.000	119.852	80.007	19.993	104.022	20.129	2.656	0.246
72.000	122.077	80.008	19.994	104.023	20.130	2.550	0.273
80.000	124.497	80.007	19.993	104.057	20.124	2.957	0.313
88.000	127.148	80.008	19.995	104.066	20.124	2.970	0.339
96.000	130.092	80.008	19.995	104.077	20.118	3.410	0.388
104.001	133.185	80.005	19.995	104.095	20.119	3.310	0.390
112.001	136.544	80.006	19.993	104.086	20.118	3.393	0.431
120.000	140.142	80.005	19.995	104.084	20.117	3.440	0.476
128.000	143.873	80.007	19.993	104.083	20.118	3.358	0.477
136.000	147.737	80.005	19.994	104.074	20.117	3.471	0.534
144.000	151.637	80.006	19.995	104.082	20.119	3.293	0.496
152.000	155.626	80.009	19.994	104.067	20.122	3.101	0.499
160.000	159.516	80.008	19.995	104.065	20.120	3.274	0.469
168.001	163.490	80.006	19.996	104.067	20.118	3.397	0.509
176.000	167.502	80.007	19.995	104.064	20.119	3.340	0.499
184.000	171.489	80.007	19.995	104.047	20.120	3.259	0.475
192.000	175.452	80.007	19.996	104.045	20.121	3.211	0.506
200.000	179.419	80.007	19.996	104.031	20.119	3.299	0.495
208.000	183.385	80.007	19.995	104.032	20.125	2.885	0.492
216.000	187.431	80.006	19.995	104.025	20.121	3.202	0.554
224.000	191.314	80.005	19.994	104.028	20.124	2.966	0.473
232.000	195.218	80.007	19.993	104.027	20.124	2.978	0.484
240.000	199.143	80.007	19.995	104.031	20.124	2.985	0.512
248.000	203.122	80.007	19.993	104.031	20.123	3.065	0.527
256.000	207.180	80.009	19.994	104.026	20.124	2.997	0.534
264.000	211.276	80.009	19.994	104.021	20.122	3.108	0.507
272.000	215.317	80.005	19.995	104.023	20.127	2.773	0.507
280.000	219.340	80.007	19.995	104.016	20.127	2.776	0.512
288.000	223.288	80.007	19.995	104.004	20.133	2.401	0.458
296.000	227.306	80.006	19.995	103.994	20.131	2.506	0.497
304.000	231.272	80.007	19.993	103.999	20.128	2.710	0.472
312.000	235.216	80.005	19.994	103.999	20.126	2.826	0.474
320.000	239.134	80.008	19.994	103.988	20.125	2.908	0.466
328.000	243.054	80.008	19.994	103.986	20.125	2.923	0.490
336.000	246.908	80.008	19.994	103.986	20.128	2.713	0.500
344.000	250.771	80.008	19.993	103.984	20.126	2.847	0.489
352.000	254.571	80.007	19.993	103.983	20.126	2.840	0.465
360.000	258.296	80.006	19.996	103.986	20.127	2.765	0.486
368.000	262.138	80.007	19.994	103.987	20.128	2.691	0.516
376.000	265.939	80.006	19.995	103.989	20.126	2.849	0.472
384.000	269.827	80.005	19.996	103.988	20.125	2.916	0.496
392.000	273.846	80.008	19.996	103.987	20.126	2.831	0.483
400.000	277.859	80.008	19.994	103.985	20.123	3.066	0.507
408.000	281.911	80.007	19.993	103.987	20.124	2.978	0.492
416.000	286.044	80.007	19.993	103.984	20.123	3.026	0.521
424.000	290.298	80.008	19.994	103.986	20.124	2.993	0.535
432.000	294.510	80.008	19.993	103.985	20.122	3.127	0.517
440.000	298.649	80.005	19.993	103.987	20.123	3.015	0.514
448.000	302.801	80.005	19.995	103.977	20.125	2.939	0.504
456.000	306.894	80.006	19.994	103.966	20.126	2.823	0.507
464.000	310.993	80.006	19.994	103.966	20.123	3.019	0.510
472.000	315.073	80.007	19.995	103.959	20.122	3.080	0.490
480.000	319.073	80.007	19.996	103.961	20.124	3.008	0.525
488.000	323.090	80.007	19.994	103.962	20.118	3.356	0.487
496.000	327.068	80.006	19.994	103.961	20.119	3.295	0.471
504.000	331.015	80.007	19.994	103.966	20.120	3.259	0.461
512.000	335.041	80.009	19.996	103.965	20.116	3.541	0.466
520.000	339.024	80.008	19.993	103.952	20.113	3.695	0.475
528.000	343.000	80.006	19.993	103.946	20.112	3.801	0.475
536.000	347.048	80.008	19.993	103.951	20.110	3.930	0.528
544.000	351.066	80.006	19.995	103.947	20.110	3.919	0.488
552.000	355.129	80.005	19.994	103.954	20.106	4.173	0.500
560.000	359.199	80.008	19.995	103.952	20.104	4.316	0.523
568.000	363.216	80.007	19.994	103.953	20.101	4.490	0.511
576.000	367.325	80.006	19.994	103.953	20.094	4.955	0.504
584.000	371.500	80.007	19.995	103.946	20.091	5.192	0.488
592.000	375.948	80.009	19.994	103.946	20.088	5.355	0.680
600.000	379.713	80.008	19.994	103.943	20.077	6.084	0.507
608.000	383.867	80.006	19.993	103.945	20.074	6.295	0.481
616.000	388.003	80.006	19.993	103.947	20.065	6.907	0.521
624.000	392.133	80.007	19.993	103.947	20.052	7.766	0.536
632.000	396.199	80.006	19.994	103.948	20.043	8.405	0.526
640.000	400.262	80.005	19.994	103.939	20.024	9.640	0.498
648.000	404.371	80.009	19.994	103.928	19.999	11.303	0.493
656.000	408.450	80.008	19.994	103.934	19.975	12.916	0.480
664.000	412.500	80.007	19.993	103.922	19.924	16.336	0.482
672.000	416.552	80.007	19.995	103.904	19.892	18.429	0.520
680.000	420.518	80.008	19.995	103.913	19.834	22.343	0.501
688.000	424.488	80.007	19.993	103.919	19.713	30.400	0.471
696.000	428.474	80.007	19.994	103.908	19.576	39.514	0.492
704.000	432.461	80.006	19.993	103.881	19.336	55.487	0.505
712.000	436.413	80.006	19.993	103.911	18.912	83.754	0.487
720.000	440.369	80.006	19.993	103.735	18.358	120.484	0.488
728.000	444.297	80.007	19.994	103.707	17.637	168.368	0.474
736.000	448.257	80.009	19.994	103.572	16.687	231.027	0.486
744.000	452.269	80.006	19.995	103.391	15.614	302.156	0.518
752.000	456.244	80.007	19.994	103.256	14.157	396.798	0.503
760.000	460.359	80.008	19.996	102.840	12.583	499.073	0.505
768.000	464.441	80.004	19.994	102.479	11.116	594.795	0.503
776.000	468.563	80.007	19.994	102.434	10.462	638.954	0.541
784.000	472.717	80.007	19.993	102.615	10.384	643.711	0.506
792.000	476.951	80.006	19.995	102.390	11.177	594.007	0.516
800.000	481.201	80.005	19.994	102.906	13.341	454.117	0.558
808.000	485.462	80.007	19.993	103.389	16.019	276.670	0.533
816.000	489.672	80.009	19.992	103.800	17.994	145.088	0.497
824.000	493.904	80.007	19.994	103.891	19.147	68.209	0.556
832.000	497.974	80.007	19.994	103.948	19.770	26.612	0.486
840.000	502.028	80.009	19.994	103.960	20.021	9.871	0.500
848.000	506.043	80.008	19.996	103.920	20.084	5.676	0.504
856.000	510.108	80.007	19.994	103.906	20.099	4.666	0.497
864.000	514.126	80.006	19.996	103.890	20.108	4.040	0.531
872.000	518.223	80.007	19.996	103.774	20.110	3.927	0.518
880.000	522.300	80.006	19.995	103.786	20.114	3.651	0.495
888.000	526.416	80.007	19.995	103.912	20.113	3.734	0.540
896.001	530.503	80.009	19.992	103.926	20.120	3.239	0.524
904.000	534.576	80.009	19.993	103.919	20.117	3.474	0.580
912.000	538.668	80.007	19.992	103.911	20.115	3.609	0.523
920.001	542.673	80.010	19.994	103.911	20.117	3.437	0.535
928.000	546.730	80.009	19.991	103.906	20.118	3.350	0.536
936.000	550.785	80.006	19.995	103.906	20.116	3.508	0.513
944.000	554.989	80.006	19.995	103.908	20.115	3.609	0.534
952.000	559.266	80.008	19.993	103.910	20.113	3.681	0.559
960.000	563.714	80.005	19.996	103.916	20.113	3.685	0.566
968.000	568.206	80.005	19.994	103.926	20.119	3.341	0.578
976.000	572.764	80.008	19.994	103.912	20.117	3.448	0.567
984.000	577.388	80.008	19.994	103.911	20.120	3.253	0.579
992.000	581.835	80.007	19.996	103.913	20.115	3.565	0.566
1000.000	586.282	80.008	19.993	103.906	20.118	3.372	0.556
1008.000	590.625	80.008	19.992	103.902	20.117	3.470	0.549
1016.000	594.970	80.007	19.994	103.908	20.119	3.293	0.541
1024.001	599.211	80.005	19.995	103.910	20.119	3.293	0.501
1032.000	603.421	80.007	19.994	103.913	20.122	3.121	0.493
1040.000	607.547	80.005	19.994	103.906	20.122	3.117	0.508
1048.000	611.680	80.005	19.996	103.900	20.121	3.152	0.531
1056.000	615.750	80.007	19.994	103.905	20.120	3.213	0.502
1064.000	619.810	80.008	19.995	103.902	20.118	3.360	0.524
1072.000	623.843	80.006	19.993	103.908	20.118	3.365	0.509
1080.000	627.890	80.006	19.994	103.910	20.122	3.124	0.471
1088.000	631.909	80.009	19.993	103.911	20.121	3.167	0.507
1096.000	635.919	80.007	19.994	103.910	20.122	3.103	0.530
1104.000	639.920	80.007	19.992	103.912	20.124	3.007	0.497
1112.000	643.918	80.006	19.995	103.914	20.120	3.258	0.514
1120.000	647.883	80.007	19.995	103.909	20.122	3.091	0.493
1128.000	651.908	80.008	19.994	103.908	20.121	3.209	0.516
1136.000	655.932	80.007	19.995	103.909	20.120	3.240	0.493
1144.000	659.958	80.007	19.995	103.909	20.121	3.167	0.498
1152.000	664.036	80.007	19.995	103.909	20.121	3.165	0.512
1160.001	668.056	80.006	19.994	103.913	20.124	2.956	0.478
1168.000	672.100	80.008	19.995	103.911	20.123	3.056	0.507
1176.000	676.197	80.009	19.993	103.906	20.125	2.904	0.485
1184.000	680.239	80.006	19.995	103.908	20.117	3.475	0.537
1192.000	684.258	80.007	19.993	103.908	20.117	3.429	0.496
1200.000	688.275	80.006	19.993	103.915	20.119	3.321	0.494
1208.000	692.272	80.006	19.994	103.911	20.116	3.508	0.471
1216.000	696.361	80.006	19.994	103.912	20.115	3.604	0.502
1224.000	700.384	80.006	19.994	103.910	20.116	3.505	0.508
1232.000	704.414	80.007	19.994	103.916	20.112	3.800	0.517
1240.000	708.544	80.006	19.994	103.908	20.116	3.539	0.536
1248.000	712.726	80.007	19.995	103.906	20.118	3.370	0.525
1256.000	716.934	80.008	19.994	103.906	20.116	3.521	0.519
1264.000	721.038	80.008	19.994	103.906	20.114	3.644	0.497
1272.000	725.092	80.006	19.994	103.911	20.117	3.426	0.462
1280.000	729.127	80.006	19.994	103.912	20.116	3.541	0.519
1288.000	733.105	80.005	19.993	103.906	20.115	3.565	0.477
1296.000	736.908	80.007	19.993	103.902	20.116	3.502	0.470
1304.000	740.684	80.007	19.995	103.902	20.120	3.246	0.471
1311.000	743.994	80.009	19.995	103.901	20.110	3.929	0.478