File: 01_Data/Vinyl_Siding/Cone/Vinyl_Siding_Cone_HF25Scalar_220331_R3.csv
LABORATORY,FSRI
TEST IDENT,Vinyl_Siding_HF25_3
OPERATOR,Dow
MATERIAL,Vinyl Siding
ORIENTATION,Horizontal
HEAT FLUX,25
SURF AREA,0.00884
C FACTOR,0.0397155
SPEC HOLDER DIFF,-566
SPECIMEN MASS,14.18
SCAN TIME,0.25
O2 DELAY TIME,11
CO DELAY TIME,11
CO2 DELAY TIME,8
FLOW FACTOR,1
SCAN COUNT,1472
TIME TO IGN,194.25
END OF TEST SCAN,992
END OF TEST TIME,248
TEST STATUS,1
PRE TEST CMT,Dimensions: 100.80 x 101.06 x 1.03 mm; with frame; with calcium silicate substrate
POST TEST CMT,"Prior to ignition, the sample began to melt and warp."