File: 01_Data/Vinyl_Siding/Cone/Vinyl_Siding_Cone_HF25Scan_220331_R2.csv
Names,Time,Stack TC,Smoke TC,Exh Press,Smoke Comp,Smoke Meas,CO Meter,CO2 Meter,O2 Meter,Sample Mass,Ext Coeff,Start Test,Flame Verif
Chan Gain,,500,500,1,1,1,1,1,1,1,1,1.0,1.0
Offset,,0,0,0.133521,0,0,0,0,0,0,0,0.0,0.0
Gain,,1,1,25.011,13.1585,13.8929,1,1,1,1.00096,1.01488,1.0,1.0
Units,sec,C,C,Pa,%,%,%,%,%,g,/m,,
Baseline,,19.0067,19.5888,153.015,99.355,96.9037,0.000921384,0.0723502,20.9968,-833.81,0.222418,,
16,3.75,17.6984,18.2168,154.657,98.7258,95.8166,0.00109629,0.0744454,20.9962,208.381,0.266273,0.0,0.0
32,7.75,17.3314,17.751,153.78,98.7403,96.5501,0.00115382,0.074377,20.9955,208.371,0.199687,0.0,0.0
48,11.75,17.5035,17.7315,148.478,98.7591,96.3848,0.00116442,0.0749395,20.9938,208.351,0.216648,0.0,0.0
64,15.75,17.8501,18.3972,156.705,98.7852,96.5081,0.00106677,0.0758227,20.9935,208.351,0.207613,0.0,0.0
80,19.75,17.684,18.4728,152.663,98.8041,96.4967,0.000913314,0.0770121,20.9918,208.351,0.210369,0.0,0.0
96,23.75,17.7583,18.345,149.488,98.8266,96.2355,0.000757875,0.0772951,20.9912,208.351,0.236522,0.0,0.0
112,27.75,17.8288,18.4945,153.052,98.8543,96.2665,0.000576337,0.0778467,20.991,208.341,0.236155,0.0,0.0
128,31.75,17.7219,18.5517,150.705,98.882,96.2402,0.000615924,0.0788557,20.9893,208.321,0.241082,0.0,0.0
144,35.75,17.91,18.7534,153.875,98.9073,95.5076,0.000740158,0.0788134,20.9904,208.301,0.311389,0.0,0.0
160,39.75,18.5136,18.351,152.651,98.9559,95.2816,0.00106748,0.0785603,20.9906,208.281,0.33685,0.0,0.0
176,43.75,18.5072,19.256,151.203,98.9699,94.8763,0.000972045,0.0784455,20.9916,208.261,0.376066,0.0,0.0
192,47.75,18.5429,19.0336,152.695,98.9977,93.5403,0.000948694,0.0788043,20.9927,208.191,0.504806,0.0,0.0
208,51.75,18.6776,19.0254,150.773,99.0254,92.853,0.00113181,0.0790564,20.9923,208.09,0.572947,0.0,0.0
224,55.75,18.6121,19.1665,153.93,99.0362,92.2018,0.00109629,0.0793421,20.9926,207.97,0.63658,0.0,0.0
240,59.75,19.1905,19.6551,154.784,99.0968,91.8113,0.00105607,0.0794326,20.9926,207.81,0.679812,0.0,0.0
256,63.75,18.8609,19.8736,153.566,99.1197,91.7409,0.0011528,0.0798276,20.992,207.63,0.688695,0.0,0.0
272,67.75,18.6074,19.1268,151.47,99.1133,92.2302,0.0012555,0.0818134,20.9896,207.46,0.640765,0.0,0.0
288,71.75,18.6378,19.8086,150.655,99.1306,92.7911,0.000932417,0.0838766,20.9863,207.26,0.588338,0.0,0.0
304,75.75,19.0224,19.9303,156.692,99.1342,93.3991,0.00115958,0.0837634,20.9877,207.079,0.530522,0.0,0.0
320,79.75,18.7064,19.3228,149.599,99.1274,92.9467,0.00135098,0.0830998,20.989,206.899,0.573133,0.0,0.0
336,83.75,18.6449,19.7122,153.024,99.1242,93.2147,0.00125278,0.0823793,20.9913,206.719,0.547217,0.0,0.0
352,87.75,18.9442,19.9718,150.869,99.0928,93.4797,0.00105832,0.0809936,20.9917,206.539,0.51913,0.0,0.0
368,91.75,19.0874,20.2547,153.552,99.0647,92.9599,0.00116632,0.0803843,20.9936,206.379,0.566246,0.0,0.0
384,95.75,18.9247,19.9738,152.793,99.0326,93.1596,0.00126197,0.0799633,20.9941,206.199,0.544256,0.0,0.0
400,99.75,19.5373,20.2127,150.591,98.9888,93.0849,0.00129933,0.0797157,20.994,206.038,0.547454,0.0,0.0
416,103.75,19.6062,20.1435,149.854,98.9471,93.5869,0.00115358,0.0801769,20.9926,205.878,0.495816,0.0,0.0
432,107.75,19.5045,20.3619,148.936,98.8945,93.3525,0.00118847,0.0816881,20.9918,205.738,0.513413,0.0,0.0
448,111.75,19.2001,20.2717,152.955,98.8354,92.8009,0.000817566,0.0810549,20.9927,205.578,0.560856,0.0,0.0
464,115.75,19.5848,20.1267,153.021,98.7913,93.3241,0.000779727,0.0797241,20.993,205.438,0.506827,0.0,0.0
480,119.75,19.8422,20.4537,150.418,98.735,93.5547,0.00112773,0.0786466,20.9948,205.318,0.479786,0.0,0.0
496,123.75,19.2369,20.4297,153.034,98.6788,92.934,0.00117137,0.0780177,20.9958,205.188,0.533977,0.0,0.0
512,127.75,19.4734,20.5021,151.937,98.6379,93.2066,0.00105674,0.0772694,20.9964,205.068,0.504204,0.0,0.0
528,131.75,20.0628,20.7667,154.736,98.5869,93.7218,0.00134777,0.0768769,20.9965,204.957,0.450533,0.0,0.0
544,135.75,19.9585,20.7943,153.405,98.5587,93.168,0.00147159,0.0767298,20.9965,204.827,0.500747,0.0,0.0
560,139.75,19.9669,20.6708,152.401,98.5258,92.9645,0.00126892,0.0771401,20.9947,204.707,0.517239,0.0,0.0
576,143.75,19.71,20.6477,153.012,98.4704,92.8908,0.00130344,0.0773825,20.9943,204.597,0.519299,0.0,0.0
592,147.75,19.9135,20.5795,155.547,98.4045,92.778,0.00163343,0.0776058,20.994,204.487,0.524158,0.0,0.0
608,151.75,20.228,20.815,152.804,98.3431,92.6135,0.00166792,0.0775285,20.994,204.387,0.534397,0.0,0.0
624,155.75,20.2278,21.1363,152.782,98.2648,92.1267,0.00122222,0.0776894,20.9925,204.287,0.574215,0.0,0.0
640,159.75,20.0303,20.1669,150.177,98.1881,92.541,0.00112901,0.077807,20.9918,204.167,0.527325,0.0,0.0
656,163.75,19.511,20.6506,150.707,98.1275,91.7261,0.000993463,0.07791,20.9916,204.087,0.600565,0.0,0.0
672,167.75,19.8241,20.6753,152.6,98.0544,92.1492,0.00113798,0.0777119,20.9931,203.977,0.55296,0.0,0.0
688,171.75,19.953,20.7571,149.568,97.9737,92.0581,0.0011683,0.0776265,20.9938,203.886,0.55444,0.0,0.0
704,175.75,20.1244,20.3475,151.208,97.9038,91.9368,0.00115217,0.0784567,20.9922,203.796,0.559823,0.0,0.0
720,179.75,20.0677,20.5836,148.693,97.8524,92.3472,0.00124008,0.0785113,20.9917,203.716,0.515495,0.0,0.0
736,183.75,20.1107,20.5734,149.167,97.805,92.1963,0.0010491,0.0779909,20.9916,203.616,0.525746,0.0,0.0
752,187.75,19.9545,20.5143,153.343,97.7861,91.7821,0.00130454,0.0776207,20.9916,203.546,0.564115,0.0,0.0
768,191.75,19.9746,20.5664,150.38,97.7773,91.9389,0.00144112,0.0772254,20.9916,203.456,0.548107,0.0,0.0
784,195.75,19.9513,21.1663,151.649,97.7833,91.6188,0.0013093,0.0765671,20.9937,203.406,0.579705,0.0,0.0
800,199.75,20.1458,21.0468,149.223,97.8199,91.342,0.00130315,0.0770798,20.9922,203.306,0.609975,0.0,0.0
816,203.75,19.983,20.8992,144.429,97.8709,84.089,0.00275939,0.0872751,20.964,203.286,1.35116,0.0,1.0
832,207.75,19.7178,21.1326,145.525,97.9263,49.1875,0.00865869,0.146763,20.8531,202.976,6.13003,0.0,0.0
848,211.75,21.756,22.1512,145.9,98.0162,44.0387,0.0153268,0.224432,20.7011,202.565,7.12256,0.0,0.0
864,215.75,23.0835,24.0498,141.391,98.1034,51.0581,0.0180293,0.257549,20.6591,202.195,5.81384,0.0,0.0
880,219.75,24.636,25.3519,142.597,98.2126,54.9548,0.0172817,0.257021,20.6745,201.854,5.16898,0.0,0.0
896,223.75,25.8651,26.7505,142.819,98.3515,59.0984,0.0147414,0.240081,20.712,201.624,4.53443,0.0,0.0
912,227.75,26.5139,27.3114,143.373,98.4636,63.7554,0.0130002,0.227166,20.737,201.374,3.86931,0.0,0.0
928,231.75,26.9525,28.1924,146.035,98.5985,68.989,0.0109614,0.214375,20.7641,201.214,3.17916,0.0,0.0
944,235.75,27.0336,28.4496,146.474,98.715,78.2529,0.00855831,0.195064,20.8003,201.044,2.06796,0.0,0.0
960,239.75,27.3959,28.56,148.321,98.8105,86.7583,0.00663492,0.173035,20.8405,200.944,1.15801,0.0,0.0
976,243.75,27.104,28.5438,153.046,98.9338,90.9617,0.00528385,0.148346,20.8834,200.823,0.747923,0.0,0.0
992,247.75,27.0198,28.2671,154.336,99.0539,94.9954,0.00447755,0.128173,20.9193,200.783,0.372441,0.0,0.0
1008,251.75,26.6085,27.9979,153.494,99.1611,95.6593,0.00387161,0.111657,20.9459,200.733,0.320066,0.0,0.0
1024,255.75,26.2484,27.7121,149,99.2631,95.2125,0.00330307,0.0978447,20.9676,200.723,0.370904,0.0,0.0
1040,259.75,25.8775,27.2106,147.11,99.3502,95.7573,0.00309704,0.0884696,20.9792,200.723,0.32792,0.0,0.0
1056,263.75,24.5294,26.277,149.087,99.4522,96.64,0.00326315,0.0833965,20.9824,200.673,0.255365,0.0,0.0
1072,267.75,24.191,25.8954,150.709,99.5301,96.4475,0.0031749,0.0805961,20.9849,200.673,0.280084,0.0,0.0
1088,271.75,24.2919,25.7834,150.548,99.5908,97.393,0.00323919,0.0796077,20.9864,200.663,0.198661,0.0,0.0
1104,275.75,23.5077,24.6952,150.787,99.6438,97.6313,0.0032866,0.0794821,20.9876,200.623,0.181645,0.0,0.0
1120,279.75,23.2736,24.6351,150.9375,99.692,97.1674,0.00315044,0.0795018,20.9869,200.593,0.228344,0.0,0.0
1136,283.75,23.3463,24.6443,151.833,99.7422,97.2255,0.00331634,0.0795316,20.987,200.593,0.227504,0.0,0.0
1152,287.75,22.2957,24.1003,150.731,99.7671,97.3921,0.00357722,0.0805693,20.9868,200.563,0.214484,0.0,0.0
1168,291.75,22.4137,24.065,154.052,99.7831,97.1886,0.00398358,0.0815822,20.9863,200.533,0.234538,0.0,0.0
1184,295.75,22.0816,24.1625,153.623,99.7915,97.9565,0.00396762,0.0826399,20.9848,200.523,0.165235,0.0,0.0
1200,299.75,21.9617,23.1828,151.551,99.8136,97.591,0.00418756,0.0837797,20.9822,200.493,0.200481,0.0,0.0
1216,303.75,22.0607,23.2453,151.009,99.8112,97.4829,0.00423328,0.0848814,20.9797,200.453,0.210134,0.0,0.0
1232,307.75,22.0093,23.0957,153.094,99.7968,97.8823,0.00465589,0.0859327,20.9792,200.443,0.172446,0.0,0.0
1248,311.75,21.6924,22.5976,150.772,99.7992,97.5494,0.00496052,0.086877,20.9791,200.443,0.202982,0.0,0.0
1264,315.75,21.5266,22.8675,154.617,99.7719,97.1026,0.00521162,0.087581,20.9772,200.403,0.241423,0.0,0.0
1280,319.75,21.4797,22.5545,154.253,99.7602,97.3739,0.00525805,0.0882551,20.9768,200.353,0.215541,0.0,0.0
1296,323.75,21.4015,22.1011,149.489,99.7241,97.7114,0.0053994,0.0889274,20.9752,200.323,0.181514,0.0,0.0
1312,327.75,21.3589,22.6411,154.148,99.6679,97.1365,0.00565696,0.0897983,20.9737,200.283,0.229028,0.0,0.0
1328,331.75,21.3864,22.5673,149.226,99.6482,97.8204,0.00534767,0.0904466,20.972,200.273,0.164813,0.0,0.0
1344,335.75,21.2205,22.2093,148.329,99.5868,97.9454,0.0052327,0.0910652,20.97,200.253,0.147947,0.0,0.0
1360,339.75,20.9692,22.1262,153.301,99.5297,97.2535,0.00522235,0.0913979,20.9697,200.203,0.205962,0.0,0.0
1376,343.75,20.8198,22.0633,150.46,99.4747,97.5168,0.00522358,0.091488,20.9694,200.173,0.176972,0.0,0.0
1392,347.75,20.8208,22.1808,151.207,99.4113,97.1115,0.00512506,0.0918292,20.9693,200.153,0.208372,0.0,0.0
1408,351.75,20.6801,21.9949,147.567,99.3462,97.0067,0.00508147,0.0916928,20.9705,200.123,0.212149,0.0,0.0
1424,355.75,20.5245,21.7486,155.147,99.2856,97.9001,0.00485535,0.0921962,20.969,200.093,0.125108,0.0,0.0
1440,359.75,20.8589,21.48,152.194,99.2245,97.1238,0.00444592,0.0925687,20.9676,200.073,0.190507,0.0,0.0
1456,363.75,20.7779,21.231,155.713,99.1539,96.8414,0.00464489,0.0925475,20.9674,200.033,0.210084,0.0,0.0
1472,367.75,20.7053,21.4841,147.227,99.1069,96.7837,0.00470271,0.0926983,20.9673,200.023,0.211167,0.0,0.0
1488,371.75,20.2596,21.9762,152.618,99.0551,96.8749,,0.0927209,,200.013,0.198131,0.0,0.0
1504,375.75,20.2056,21.468,150.064,99.0226,96.509,,,,199.953,0.228896,0.0,0.0
1520,379.75,20.3862,21.565,148.9,99.0711,97.1178,,,,199.903,0.177277,0.0,0.0
1529,382,20.5321,21.0913,148.843,99.1366,96.9495,,,,199.913,0.1986,0.0,0.0