File: 01_Data/Vinyl_Siding/Cone/Vinyl_Siding_Cone_HF25Scan_220331_R1.csv
Names,Time,Stack TC,Smoke TC,Exh Press,Smoke Comp,Smoke Meas,CO Meter,CO2 Meter,O2 Meter,Sample Mass,Ext Coeff,Start Test,Flame Verif
Chan Gain,,500,500,1,1,1,1,1,1,1,1,1.0,1.0
Offset,,0,0,0.133521,0,0,0,0,0,0,0,0.0,0.0
Gain,,1,1,25.011,13.1585,13.8929,1,1,1,1.00096,1.01488,1.0,1.0
Units,sec,C,C,Pa,%,%,%,%,%,g,/m,,
Baseline,,15.924,15.5942,155.344,97.8854,97.3001,0.000760707,0.0759277,20.9939,-833.572,0.0534127,,
15,3.5,14.5911,14.6657,152.921,97.8596,97.1869,0.000719182,0.0801124,20.9888,193.817,0.0614075,0.0,0.0
30,7.25,14.6255,14.6514,152.817,97.8841,97.3141,0.000956941,0.0805679,20.9887,193.817,0.0519928,0.0,0.0
45,11,15.4787,14.7065,154.049,97.9146,97.4672,0.000841311,0.0802126,20.9892,193.777,0.0407766,0.0,0.0
60,14.75,14.8961,14.9266,158.569,97.9387,97.0542,0.000705322,0.0790084,20.9895,193.797,0.0807657,0.0,0.0
75,18.5,15.0603,14.8989,158.384,97.9761,97.2204,0.000501077,0.0811502,20.9856,193.787,0.0689275,0.0,0.0
90,22.25,14.9002,14.7981,154.736,97.9885,97.3061,0.000412996,0.0834354,20.9832,193.777,0.0622201,0.0,0.0
105,26,14.8803,15.057,154.413,98.0094,97.0987,0.000692112,0.0831546,20.9827,193.787,0.0831043,0.0,0.0
120,29.75,15.1676,15.4493,153.665,98.0387,97.2738,0.000772541,0.0854952,20.9791,193.777,0.0697278,0.0,0.0
135,33.5,15.0407,14.9661,155.366,98.0725,96.8982,0.000845528,0.0841849,20.9798,193.757,0.107236,0.0,0.0
150,37.25,15.1069,15.3033,155.222,98.1227,96.562,0.0010399,0.0826659,20.9829,193.707,0.142734,0.0,0.0
165,41,15.225,14.829,155.539,98.154,95.9222,0.000851865,0.082048,20.9844,193.727,0.204756,0.0,0.0
180,44.75,15.5148,15.7295,151.648,98.1921,95.5258,0.000890603,0.0841819,20.9812,193.687,0.245083,0.0,0.0
195,48.5,15.1653,15.7135,158.009,98.2138,94.1724,0.000832142,0.0851252,20.9817,193.617,0.374075,0.0,0.0
210,52.25,15.6262,15.923,154.213,98.2303,93.6052,0.000684421,0.0839615,20.9839,193.506,0.429356,0.0,0.0
225,56,15.6974,15.8998,149.89,98.2516,93.545,0.000612578,0.0824924,20.9863,193.376,0.437013,0.0,0.0
240,59.75,15.3274,16.1571,157.27,98.2728,93.656,0.000624903,0.0816581,20.9876,193.216,0.428376,0.0,0.0
255,63.5,16.203,15.9655,155.641,98.2768,92.7148,0.000921347,0.0813195,20.9896,193.046,0.518661,0.0,0.0
270,67.25,16.0039,16.5974,154.737,98.2925,93.2151,0.00132561,0.0812198,20.9904,192.856,0.47217,0.0,0.0
285,71,16.1916,16.4001,155.735,98.3066,93.9838,0.00101405,0.0808973,20.9921,192.666,0.400333,0.0,0.0
300,74.75,16.1868,16.4288,152.033,98.3194,93.7637,0.00074108,0.0812232,20.9917,192.475,0.422364,0.0,0.0
315,78.5,16.1479,16.8265,151.775,98.3339,93.0413,0.000765112,0.0827968,20.9888,192.295,0.492532,0.0,0.0
330,82.25,16.5385,16.6146,154.179,98.325,93.5996,0.000909756,0.0832876,20.9881,192.105,0.438465,0.0,0.0
345,86,16.9822,16.9503,153.608,98.327,93.7688,0.000963988,0.0828431,20.9899,191.925,0.422572,0.0,0.0
360,89.75,16.6633,16.7728,148.713,98.3343,93.8896,0.00101251,0.0825721,20.9899,191.735,0.411762,0.0,0.0
375,93.5,16.7942,17.0634,158.546,98.3367,93.871,0.00112889,0.0823325,20.9894,191.565,0.413749,0.0,0.0
390,97.25,17.0347,17.0119,153.537,98.3246,93.7061,0.00130334,0.0826264,20.9881,191.384,0.428313,0.0,0.0
405,101,16.5692,17.2887,153.336,98.3138,94.3293,0.00127168,0.0830874,20.9872,191.244,0.368317,0.0,0.0
420,104.75,16.6995,16.9992,150.622,98.2965,94.5337,0.0012681,0.0844983,20.9841,191.074,0.347486,0.0,0.0
435,108.5,16.4153,17.3538,154.082,98.2825,94.607,0.00152734,0.0868573,20.9807,190.894,0.339308,0.0,0.0
450,112.25,16.6734,16.9366,151.795,98.2789,94.4612,0.00138183,0.0876031,20.98,190.744,0.352717,0.0,0.0
465,116,16.6709,17.4253,149.19,98.2765,94.8004,0.00117312,0.0866638,20.9816,190.594,0.32059,0.0,0.0
480,119.75,16.811,17.1076,154.555,98.2708,95.2354,0.0010091,0.0850103,20.9835,190.473,0.279323,0.0,0.0
495,123.5,16.6497,17.3798,150.605,98.2957,94.6766,0.000985639,0.0852683,20.9822,190.343,0.333968,0.0,0.0
510,127.25,16.733,17.2973,152.295,98.2668,95.1124,0.00113942,0.0880388,20.9773,190.193,0.290461,0.0,0.0
525,131,17.0418,17.5832,150.726,98.2716,94.5994,0.00111183,0.0888931,20.9757,190.073,0.339045,0.0,0.0
540,134.75,16.8913,17.4099,158.348,98.2632,94.7643,0.00110692,0.0883492,20.9755,189.973,0.322773,0.0,0.0
555,138.5,16.5916,18.2322,148.523,98.2656,93.9753,0.0015147,0.0884171,20.9755,189.843,0.397425,0.0,0.0
570,142.25,16.8903,17.7403,155.897,98.256,94.4345,0.00162576,0.088584,20.9755,189.693,0.35316,0.0,0.0
585,146,17.5386,17.3926,152.667,98.2467,94.1016,0.00170871,0.0895632,20.9743,189.613,0.383755,0.0,0.0
600,149.75,17.2845,17.3195,153.46,98.2419,93.6306,0.00238314,0.0926688,20.9649,189.573,0.427992,0.0,1.0
615,153.5,17.2109,17.5878,148.469,98.2379,71.9772,0.00564732,0.116812,20.9213,189.382,2.76905,0.0,0.0
630,157.25,17.7361,18.0127,148.072,98.2403,57.6268,0.0105949,0.167113,20.8325,189.032,4.74884,0.0,0.0
645,161,19.1383,19.3235,148.795,98.2295,55.2465,0.0142168,0.205851,20.7626,188.722,5.12338,0.0,0.0
660,164.75,20.0159,20.1296,146.061,98.2242,57.7493,0.0158933,0.225641,20.7336,188.371,4.72848,0.0,0.0
675,168.5,21.1955,21.5742,147.023,98.2295,57.6751,0.016058,0.226618,20.7365,188.061,4.7404,0.0,0.0
690,172.25,21.8308,22.3046,146.111,98.2158,58.8415,0.0153584,0.22235,20.748,187.761,4.56092,0.0,0.0
705,176,22.7195,22.7755,143.952,98.2086,63.8559,0.0143289,0.215653,20.7627,187.481,3.83221,0.0,0.0
720,179.75,22.8628,23.5811,148.421,98.1873,66.1784,0.0128927,0.208808,20.7722,187.26,3.51223,0.0,0.0
735,183.5,23.8865,24.5166,147.842,98.1632,65.0964,0.0112805,0.2021,20.7861,187.06,3.6568,0.0,0.0
750,187.25,23.153,23.9781,145.883,98.1564,66.4277,0.0106998,0.198983,20.79,186.85,3.47595,0.0,0.0
765,191,24.0047,24.799,148.612,98.1475,70.0099,0.010454,0.199682,20.7865,186.67,3.00757,0.0,0.0
780,194.75,24.5687,25.6617,146.823,98.1415,67.7777,0.00987864,0.203131,20.7797,186.49,3.2955,0.0,0.0
795,198.5,24.9183,25.8616,144.972,98.1403,71.5858,0.00891604,0.201714,20.785,186.34,2.80874,0.0,0.0
810,202.25,25.2004,26.1781,149.893,98.1206,79.8352,0.00733614,0.191603,20.8019,186.199,1.83599,0.0,0.0
825,206,25.0718,26.4312,149.61,98.1275,86.4976,0.00584029,0.173824,20.8417,186.119,1.12306,0.0,0.0
840,209.75,25.3086,26.4204,148.564,98.1186,90.296,0.00483397,0.154211,20.8714,186.059,0.739654,0.0,0.0
855,213.5,24.7735,25.9402,150.967,98.1206,93.2706,0.00390939,0.137716,20.9,186.019,0.451287,0.0,0.0
870,217.25,24.818,25.8565,151.6,98.1058,94.8288,0.00353499,0.122948,20.9253,185.989,0.302448,0.0,0.0
885,221,24.3022,25.9703,149.769,98.1202,96.0583,0.00327882,0.110815,20.9429,185.959,0.189073,0.0,0.0
900,224.75,23.903,25.0722,158.853,98.1488,96.8253,0.00321709,0.103368,20.9524,185.919,0.120861,0.0,0.0
915,228.5,23.0879,24.6491,155.881,98.1459,96.9448,0.00328684,0.0976283,20.9605,185.909,0.10962,0.0,0.0
930,232.25,22.9118,24.0171,152.967,98.1696,97.1929,0.00332316,0.0930279,20.968,185.899,0.0890206,0.0,0.0
945,236,21.6957,23.3218,158.839,98.156,97.1522,0.00324207,0.0906221,20.9708,185.889,0.0915115,0.0,0.0
960,239.75,21.611,22.9379,156.779,98.1608,97.2145,0.00303784,0.0904216,20.9731,185.879,0.086239,0.0,0.0
975,243.5,21.668,22.8648,153.449,98.1813,96.8062,0.0029,0.0887091,20.9732,185.859,0.125566,0.0,0.0
990,247.25,20.9422,22.5588,153.828,98.1732,97.1823,0.0030557,0.086986,20.9731,185.839,0.0903203,0.0,0.0
1005,251,20.6161,21.4991,155.102,98.1692,97.3489,0.00314915,0.0859988,20.9751,185.829,0.0747049,0.0,0.0
1020,254.75,20.7726,21.0421,154.95,98.1592,97.3875,0.00326399,0.0853091,20.9759,185.829,0.0702669,0.0,0.0
1035,258.5,19.6694,20.895,156.612,98.1604,97.5248,0.00328557,0.0850476,20.9777,185.829,0.0578286,0.0,0.0
1050,262.25,19.6672,20.9292,154.961,98.1797,97.1963,0.00331375,0.0846972,20.9783,185.799,0.0896206,0.0,0.0
1065,266,20.0201,20.9157,157.04,98.1785,97.0496,0.0032459,0.0847503,20.9784,185.779,0.102959,0.0,0.0
1080,269.75,19.9249,20.3342,153.803,98.1789,97.5588,0.00296086,0.0851395,20.9794,185.769,0.0564072,0.0,0.0
1095,273.5,19.6699,20.5643,154.987,98.1841,97.0826,0.00295591,0.0850486,20.9805,185.759,0.100434,0.0,0.0
1110,277.25,19.6073,20.4261,148.923,98.1805,97.7059,0.00323113,0.0850274,20.9807,185.739,0.0431373,0.0,0.0
1125,281,19.0925,20.2451,151.133,98.1724,97.9187,0.00330233,0.0853191,20.9808,185.729,0.0230377,0.0,0.0
1140,284.75,19.3484,19.7836,151.735,98.166,97.6821,0.00317974,0.085649,20.9806,185.709,0.0439896,0.0,0.0
1155,288.5,19.0888,19.9791,151.975,98.1644,97.2192,0.00291978,0.0858969,20.9789,185.689,0.0861402,0.0,0.0
1170,292.25,19.1648,19.8534,148.058,98.1588,97.507,0.00289977,0.0863017,20.978,185.679,0.0593078,0.0,0.0
1185,296,19.3367,19.9979,154.913,98.1339,97.0326,0.00330736,0.0869709,20.9742,185.669,0.100471,0.0,0.0
1200,299.75,18.5065,19.8871,152.946,98.1391,97.4969,0.00349993,0.0876996,20.9733,185.659,0.0584517,0.0,0.0
1215,303.5,18.7368,19.8276,152.59,98.1467,97.3171,0.00346476,0.0878572,20.9715,185.639,0.0755742,0.0,0.0
1230,307.25,18.7104,19.3902,154.043,98.1271,97.1585,0.00320915,0.0880373,20.9709,185.619,0.0883072,0.0,0.0
1245,311,18.9824,19.5908,157.106,98.1206,96.9749,0.00322787,0.0880311,20.9708,185.599,0.104561,0.0,0.0
1260,314.75,18.9814,19.215,154.913,98.1182,97.0763,0.003348,0.087953,20.9707,185.599,0.0950444,0.0,0.0
1275,318.5,18.3724,19.4559,155.671,98.1142,97.2077,0.00337024,0.0879337,20.9726,185.579,0.0826354,0.0,0.0
1290,322.25,18.6185,19.0282,152.841,98.0953,96.7083,0.00294472,0.0878772,20.973,185.549,0.126781,0.0,0.0
1305,326,17.669,19.0976,155.4,98.0909,96.9635,0.00275491,0.0877116,20.9731,185.539,0.102916,0.0,0.0
1320,329.75,18.4481,18.9339,151.762,98.0913,96.9805,0.00284607,0.0872992,20.9731,185.529,0.101396,0.0,0.0
1335,333.5,18.1499,19.1138,157.427,98.1102,97.5736,0.00278607,0.0869749,20.9747,185.529,0.0488238,0.0,0.0
1350,337.25,18.7575,19.1748,151.689,98.0998,96.9262,0.00314506,0.0865261,20.9758,185.499,0.107144,0.0,0.0
1365,341,18.1715,18.847,153.926,98.1042,97.1636,0.00302291,0.0860813,20.976,185.499,0.0857639,0.0,0.0
1380,344.75,18.3498,18.8614,154.354,98.107,97.619,,,,185.469,0.0443951,0.0,0.0
1395,348.5,18.2532,18.7071,153.063,98.1178,97.1628,,,,185.469,0.0870798,0.0,0.0
1409,352,18.1534,18.618,151.095,98.1239,97.6219,,,,185.449,0.0456548,0.0,0.0