File: 01_Data/Vinyl_Siding/Cone/Vinyl_Siding_Cone_HF25Scan_220331_R3.csv
Names,Time,Stack TC,Smoke TC,Exh Press,Smoke Comp,Smoke Meas,CO Meter,CO2 Meter,O2 Meter,Sample Mass,Ext Coeff,Start Test,Flame Verif
Chan Gain,,500,500,1,1,1,1,1,1,1,1,1.0,1.0
Offset,,0,0,0.133521,0,0,0,0,0,0,0,0.0,0.0
Gain,,1,1,25.011,13.1585,13.8929,1,1,1,1.00096,1.01488,1.0,1.0
Units,sec,C,C,Pa,%,%,%,%,%,g,/m,,
Baseline,,17.8999,18.4172,154.039,98.0604,97.5282,0.000852606,0.0726236,21.0008,-833.708,0.048481,,
16,3.75,16.3849,16.5172,151.352,98.4371,97.8746,0.000901098,0.0747437,20.9981,199.712,0.0510126,0.0,0.0
32,7.75,16.043,17.0439,154.705,98.4696,97.8221,0.00096976,0.0754651,20.9962,199.632,0.0587374,0.0,0.0
48,11.75,16.1183,16.7329,152.191,98.4748,97.945,0.00120765,0.0763994,20.9933,199.672,0.0480269,0.0,0.0
64,15.75,16.5987,17.9126,156.345,98.4857,97.6792,0.00124578,0.0792438,20.9883,199.682,0.073202,0.0,0.0
80,19.75,16.8282,17.3909,155.768,98.509,97.8297,0.00127547,0.0791737,20.9874,199.662,0.0616004,0.0,0.0
96,23.75,17.5111,17.6403,155.999,98.4905,98.3838,0.00128245,0.0775077,20.9893,199.672,0.00964585,0.0,0.0
112,27.75,16.7502,17.2613,154.252,98.5001,98.2867,0.00102611,0.076151,20.9908,199.662,0.0193067,0.0,0.0
128,31.75,17.3809,18.0619,153.392,98.4817,97.9085,0.000793636,0.0749048,20.9922,199.652,0.051958,0.0,0.0
144,35.75,17.3209,17.8788,156.48,98.4732,96.7176,0.000638289,0.0743992,20.9925,199.642,0.160149,0.0,0.0
160,39.75,17.5241,17.8099,152.973,98.4612,95.9548,0.000534757,0.0753264,20.993,199.632,0.229545,0.0,0.0
176,43.75,16.9575,17.9214,155.061,98.4306,95.8065,0.000710023,0.0757628,20.9963,199.582,0.240564,0.0,0.0
192,47.75,17.2042,17.8047,153.51,98.4078,95.971,0.000778913,0.0757924,20.9961,199.522,0.223221,0.0,0.0
208,51.75,18.0681,18.3948,151.865,98.3801,95.1887,0.000831233,0.0765331,20.9957,199.442,0.293573,0.0,0.0
224,55.75,17.3818,17.9245,153.952,98.3568,94.6706,0.000767879,0.0775556,20.9959,199.312,0.340053,0.0,0.0
240,59.75,17.833,18.3634,153.984,98.3355,94.6922,0.000975976,0.0788623,20.9942,199.152,0.336093,0.0,0.0
256,63.75,17.7832,18.6478,154.335,98.3258,94.6066,0.00117241,0.0802438,20.9936,198.992,0.343276,0.0,0.0
272,67.75,17.9879,18.2842,151.851,98.3459,94.2009,0.00124214,0.0807927,20.9924,198.812,0.383357,0.0,0.0
288,71.75,17.8526,18.4483,150.572,98.321,93.3838,0.000961471,0.0810246,20.9929,198.631,0.458652,0.0,0.0
304,75.75,18.1541,18.4108,152.856,98.3234,93.7451,0.00103142,0.0802263,20.9949,198.421,0.424499,0.0,0.0
320,79.75,18.0252,18.8699,156.819,98.3234,93.9897,0.000979466,0.0797425,20.9943,198.211,0.401297,0.0,0.0
336,83.75,17.9027,18.9965,153.169,98.3058,93.6166,0.00096219,0.0814202,20.9902,198.021,0.435107,0.0,0.0
352,87.75,18.1364,18.7987,155.354,98.2993,94.0126,0.000966594,0.0835263,20.9874,197.841,0.396947,0.0,0.0
368,91.75,18.3681,18.7555,154.555,98.2941,94.4828,0.00110581,0.0842113,20.9878,197.62,0.352062,0.0,0.0
384,95.75,18.5147,19.4973,156.229,98.2857,94.7957,0.00108618,0.0837359,20.9879,197.45,0.321863,0.0,0.0
400,99.75,18.403,19.1503,153.346,98.2965,94.1949,0.00106906,0.0828278,20.9879,197.27,0.379445,0.0,0.0
416,103.75,18.2886,19.4731,159.022,98.2841,93.5937,0.00110369,0.0819659,20.9898,197.08,0.435321,0.0,0.0
432,107.75,18.4592,19.2429,154.104,98.276,94.794,0.00097736,0.0812212,20.9902,196.92,0.32115,0.0,0.0
448,111.75,18.3821,18.7786,150.921,98.2813,94.1754,0.000861123,0.0807875,20.9906,196.76,0.379907,0.0,0.0
464,115.75,18.4406,19.2987,158.583,98.2905,94.7741,0.0013072,0.0798439,20.9925,196.609,0.324331,0.0,0.0
480,119.75,18.2096,19.5522,157.51,98.2849,94.4175,0.00145095,0.0790599,20.9939,196.469,0.357379,0.0,0.0
496,123.75,18.2982,19.4312,149.72,98.2905,94.8309,0.001357,0.0789502,20.9948,196.339,0.318996,0.0,0.0
512,127.75,18.4908,19.4475,154.527,98.2929,94.4412,0.00147178,0.0785442,20.9962,196.209,0.355868,0.0,0.0
528,131.75,18.797,19.2875,150.087,98.2897,93.8829,0.000941396,0.0784385,20.9962,196.099,0.408369,0.0,0.0
544,135.75,18.6375,19.6746,154.307,98.2447,94.9301,0.000806144,0.0785033,20.992,195.969,0.305541,0.0,0.0
560,139.75,18.4703,19.9097,157.638,98.1953,93.4508,0.000966285,0.0785876,20.9884,195.859,0.44088,0.0,0.0
576,143.75,18.5092,19.4553,153.582,98.1214,94.4989,0.00112064,0.0791018,20.9865,195.739,0.33489,0.0,0.0
592,147.75,18.7452,19.3632,150.212,98.0455,93.8956,0.00131018,0.0792831,20.9861,195.618,0.385021,0.0,0.0
608,151.75,18.9349,19.7305,154.389,97.9395,93.408,0.00133885,0.0793343,20.988,195.508,0.421738,0.0,0.0
624,155.75,18.9658,19.3484,147.458,97.8239,93.2181,0.00153253,0.0800107,20.9867,195.408,0.429341,0.0,0.0
640,159.75,18.5937,19.3135,154.558,97.7271,93.5331,0.00139759,0.080741,20.9882,195.298,0.390496,0.0,0.0
656,163.75,18.9126,19.8356,154.475,97.6356,93.7497,0.00144939,0.0821293,20.9857,195.188,0.361554,0.0,0.0
672,167.75,19.0907,19.9893,154.397,97.5914,93.0205,0.00159061,0.0892853,20.9783,195.088,0.427045,0.0,0.0
688,171.75,18.8996,19.8256,150.957,97.6099,92.0059,0.00170059,0.0918386,20.9765,194.998,0.526365,0.0,0.0
704,175.75,18.6737,19.433,150.425,97.7046,91.654,0.00170903,0.0878132,20.9842,194.928,0.569118,0.0,0.0
720,179.75,19.0806,19.8364,152.876,97.8616,92.9137,0.00143375,0.0838835,20.9878,194.828,0.461896,0.0,0.0
736,183.75,19.4809,19.7829,157.318,98.0624,91.5196,0.00154319,0.0819925,20.9904,194.718,0.614724,0.0,0.0
752,187.75,19.0114,20.007,153.204,98.2993,91.2661,0.00162602,0.0802568,20.9921,194.628,0.660904,0.0,0.0
768,191.75,19.0905,20.1044,149.874,98.5254,92.1306,0.0019033,0.0781235,20.9923,194.527,0.597426,0.0,0.0
784,195.75,19.3066,20.1945,145.86,98.7467,61.8661,0.00675971,0.110451,20.9033,194.377,4.16266,0.0,1.0
800,199.75,20.5887,20.6099,135.763,98.88,39.2511,0.0170359,0.227741,20.6941,193.927,8.22524,0.0,0.0
816,203.75,22.5136,23.1762,133.195,98.98,42.7019,0.0220565,0.303741,20.5879,193.506,7.48409,0.0,0.0
832,207.75,24.6616,25.4225,145.518,99.023,53.501,0.0203597,0.301839,20.6071,193.086,5.48082,0.0,0.0
848,211.75,25.8298,26.6803,145.068,99.0374,59.296,0.0167032,0.268299,20.6677,192.926,4.56658,0.0,0.0
864,215.75,26.3618,27.3171,143.73,99.0286,69.0106,0.0126126,0.236213,20.7352,192.676,3.21512,0.0,0.0
880,219.75,26.9225,28.1712,146.359,98.9788,72.7768,0.0100707,0.208163,20.7813,192.515,2.73759,0.0,0.0
896,223.75,27.7291,28.9287,147.571,98.886,80.72,0.00811632,0.190038,20.8183,192.375,1.80704,0.0,0.0
912,227.75,27.8591,29.1444,143.199,98.8105,87.6249,0.00627254,0.170158,20.8509,192.275,1.06953,0.0,0.0
928,231.75,27.6301,29.0029,148.101,98.7463,90.7908,0.00525809,0.147196,20.8912,192.205,0.74777,0.0,0.0
944,235.75,27.2794,28.946,149.505,99.0804,95.1807,0.00505023,0.127823,20.9212,192.125,0.357476,0.0,0.0
960,239.75,26.8831,28.3094,149.819,99.3595,97.435,0.00503189,0.111713,20.9443,192.125,0.174125,0.0,0.0
976,243.75,26.5029,28.1209,147.177,99.5101,97.7233,0.00463446,0.09858,20.9637,192.095,0.161304,0.0,0.0
992,247.75,26.0862,27.3403,154.507,99.5269,97.9823,0.00436858,0.0902149,20.9763,192.055,0.139245,0.0,0.0
1008,251.75,24.7812,26.7238,149.738,99.4161,98.1595,0.00413201,0.0858103,20.9785,192.025,0.113239,0.0,0.0
1024,255.75,24.7587,26.3442,149.734,99.1655,97.6949,0.00448088,0.0843603,20.9776,192.025,0.133015,0.0,0.0
1040,259.75,24.1859,25.5762,149.02,98.9696,97.2989,0.00461069,0.0853166,20.9757,191.995,0.151564,0.0,0.0
1056,263.75,23.9944,25.2144,150.172,99.1422,97.6228,0.00438452,0.0860144,20.9738,191.975,0.137495,0.0,0.0
1072,267.75,23.6321,24.6835,149.283,99.3506,98.2308,0.00432532,0.0863381,20.9748,191.955,0.100917,0.0,0.0
1088,271.75,22.7512,25.3917,152.459,99.5498,98.0769,0.00460361,0.0874264,20.974,191.925,0.132705,0.0,0.0
1104,275.75,23.1106,24.4402,151.85,99.6916,98.6111,0.00491743,0.0884276,20.9736,191.915,0.0970139,0.0,0.0
1120,279.75,22.5817,24.1205,154.65,99.7381,98.4067,0.00514349,0.0889679,20.9727,191.875,0.119641,0.0,0.0
1136,283.75,22.4293,23.7265,152.117,99.6606,98.1248,0.00526161,0.089355,20.9725,191.855,0.138265,0.0,0.0
1152,287.75,21.8955,23.4065,154.633,99.4526,98.6191,0.00546688,0.0901048,20.9725,191.835,0.0749249,0.0,0.0
1168,291.75,22.0639,23.4055,153.717,99.1306,97.5253,0.00576296,0.0908297,20.9725,191.815,0.145345,0.0,0.0
1184,295.75,21.7649,23.4954,150.673,98.6997,97.0614,0.00586409,0.0916811,20.9708,191.775,0.149007,0.0,0.0
1200,299.75,21.945,23.4817,152.653,98.2636,97.4082,0.00599196,0.0923293,20.9706,191.775,0.0778321,0.0,0.0
1216,303.75,22.0132,22.871,150.644,97.8821,96.0943,0.00604662,0.0936343,20.9704,191.745,0.164103,0.0,0.0
1232,307.75,21.1633,22.7207,150.825,97.6745,96.2809,0.00588635,0.0943212,20.969,191.705,0.127935,0.0,0.0
1248,311.75,21.2114,22.991,150.192,97.6914,95.7327,0.00570556,0.0954057,20.9667,191.665,0.180305,0.0,0.0
1264,315.75,21.5619,22.7271,152.473,97.9074,96.0706,0.00559288,0.0957102,20.9658,191.645,0.168603,0.0,0.0
1280,319.75,21.8991,22.565,149.698,98.256,96.5531,0.00520542,0.0953375,20.9667,191.615,0.155642,0.0,0.0
1296,323.75,21.0198,22.3717,149.389,98.6375,96.8041,0.00493502,0.0950016,20.9669,191.595,0.167028,0.0,0.0
1312,327.75,21.2172,22.118,152.537,98.9499,96.9097,0.00489701,0.0949055,20.9667,191.565,0.185477,0.0,0.0
1328,331.75,20.5323,22.5461,149.731,99.0523,97.2247,0.0046559,0.0954167,20.9662,191.535,0.165792,0.0,0.0
1344,335.75,20.7791,22.2327,151.99,99.0278,97.1903,0.00422494,0.0954525,20.9661,191.505,0.166737,0.0,0.0
1360,339.75,20.7377,22.3184,148.335,98.8892,96.4428,0.00393931,0.0953773,20.9666,191.474,0.223005,0.0,0.0
1376,343.75,20.9145,21.8246,157.115,98.7511,96.9656,0.00409675,0.0954165,20.969,191.454,0.162435,0.0,0.0
1392,347.75,20.782,22.1085,149.538,99.2551,96.8834,0.00407123,0.0947933,20.9714,191.454,0.215307,0.0,0.0
1408,351.75,20.6944,21.185,152.41,99.5458,97.2683,0.00380995,0.0943313,20.9716,191.424,0.206041,0.0,0.0
1424,355.75,20.3813,21.4292,150.95,99.3619,97.4532,0.00370056,0.0943851,20.9727,191.394,0.172675,0.0,0.0
1440,359.75,19.6077,21.7645,151.912,99.0314,96.4301,,0.0944547,,191.364,0.236967,0.0,0.0
1456,363.75,20.3169,21.8037,152.704,99.3173,97.5465,,,,191.344,0.160164,0.0,0.0
1472,367.75,20.2874,21.8628,150.009,99.6394,97.7199,,,,191.314,0.173173,0.0,0.0