File: 01_Data/Vinyl_Siding/Cone/Vinyl_Siding_Cone_HF50Scan_220331_R1.csv
Names,Time,Stack TC,Smoke TC,Exh Press,Smoke Comp,Smoke Meas,CO Meter,CO2 Meter,O2 Meter,Sample Mass,Ext Coeff,Start Test,Flame Verif
Chan Gain,,500,500,1,1,1,1,1,1,1,1,1.0,1.0
Offset,,0,0,0.133521,0,0,0,0,0,0,0,0.0,0.0
Gain,,1,1,25.011,13.1585,13.8929,1,1,1,1.00096,1.01488,1.0,1.0
Units,sec,C,C,Pa,%,%,%,%,%,g,/m,,
Baseline,,23.8757,25.3902,149.713,99.0403,97.571,0.000587428,0.0626607,21.0429,-834.376,0.133093,,
11,2.5,23.0415,24.5472,149.422,99.5928,97.9603,0.00071794,0.0670981,21.0359,194.237,0.147137,0.0,0.0
22,5.25,23.5846,24.6308,148.708,99.6647,98.0022,0.000819301,0.0657495,21.0372,194.317,0.149746,0.0,0.0
33,8,23.5412,24.7352,149.425,99.7494,98.0048,0.000912034,0.0647106,21.0393,194.297,0.15708,0.0,0.0
44,10.75,22.8384,25.0352,150.185,99.812,97.8988,0.000718694,0.0637306,21.0414,194.267,0.172303,0.0,0.0
55,13.5,23.8821,25.4143,153.356,99.847,97.1373,0.000465873,0.0633095,21.0426,194.227,0.244934,0.0,0.0
66,16.25,23.7192,25.1082,146.211,99.8819,92.3549,0.000567314,0.0634892,21.0419,194.157,0.697512,0.0,0.0
77,19,23.6094,25.4728,149.034,99.8839,85.6433,0.00119718,0.0662889,21.0394,193.847,1.36936,0.0,0.0
88,21.75,24.1417,25.0529,149.799,99.8699,78.9478,0.00185847,0.0707727,21.0368,193.406,2.0928,0.0,0.0
99,24.5,24.404,26.2751,142.488,99.8217,75.6721,0.00215696,0.0754723,21.0354,192.976,2.46577,0.0,0.0
110,27.25,24.4542,26.1954,149.775,99.7265,71.0741,0.00232001,0.0795129,21.0336,192.495,3.01535,0.0,0.0
121,30,24.2846,26.0049,142.567,99.6217,69.3892,0.00348844,0.0848399,21.0257,192.035,3.21957,0.0,0.0
132,32.75,25.0466,26.8742,133.451,99.4815,81.872,0.00845572,0.109467,20.9731,191.615,1.73434,0.0,0.0
143,35.5,26.1725,27.0504,140.014,99.3121,57.4762,0.0150908,0.161499,20.8854,196.86,4.86872,0.0,1.0
154,38.25,26.8866,28.2413,135.596,99.1125,42.2626,0.0261935,0.213977,20.7838,190.624,7.58805,0.0,1.0
165,41,27.7357,29.2858,134.375,99.0884,41.3333,0.0331724,0.264812,20.6794,190.133,7.78383,0.0,1.0
176,43.75,29.2351,30.8972,130.721,99.1177,50.0346,0.0356817,0.303618,20.6231,189.623,6.08568,0.0,0.0
187,46.5,30.4566,32.0598,133.641,99.1679,47.1087,0.0358984,0.323372,20.6017,189.102,6.62662,0.0,0.0
198,49.25,31.9884,34.07,138.872,99.2045,46.9531,0.0348036,0.319235,20.6119,188.652,6.65935,0.0,0.0
209,52,33.2423,35.3409,136.009,99.2466,52.6272,0.0324098,0.309461,20.6275,188.251,5.64751,0.0,0.0
220,54.75,33.7551,35.9453,136.997,99.2808,61.4231,0.0290877,0.293514,20.6692,187.911,4.27467,0.0,0.0
231,57.5,34.5233,36.891,140.799,99.3101,63.1949,0.0254024,0.27182,20.7052,187.551,4.02413,0.0,0.0
242,60.25,35.0836,37.7904,136.177,99.3382,71.8805,0.0220541,0.255821,20.7322,187.25,2.88017,0.0,0.0
253,63,35.8287,37.9834,142.181,99.38,75.3741,0.019663,0.241202,20.7606,187,2.46142,0.0,0.0
264,65.75,36.0468,38.4652,139.857,99.3691,73.5217,0.0179931,0.227573,20.7835,186.77,2.68196,0.0,0.0
275,68.5,35.9712,38.5954,140.228,99.3675,71.434,0.0169898,0.216713,20.7985,186.57,2.93827,0.0,0.0
286,71.25,36.5028,39.0304,142.364,99.3406,72.366,0.0159302,0.206105,20.8163,186.37,2.82047,0.0,0.0
297,74,36.0512,38.7669,141.999,99.353,74.2552,0.0148656,0.195549,20.8332,186.169,2.59215,0.0,0.0
308,76.75,36.5433,39.0933,142.983,99.333,73.1838,0.0139853,0.185546,20.8495,186.039,2.71973,0.0,0.0
319,79.5,36.6569,39.4451,138.702,99.3105,76.3543,0.0133841,0.176995,20.8614,185.869,2.34016,0.0,0.0
330,82.25,36.5651,39.1359,145.576,99.2695,75.8519,0.0130863,0.170574,20.8708,185.699,2.39526,0.0,0.0
341,85,36.5231,39.4085,142.477,99.2245,77.7208,0.0126569,0.164716,20.8769,185.549,2.17454,0.0,0.0
352,87.75,36.9196,39.8873,141.387,99.1591,77.0437,0.0123219,0.159708,20.8846,185.429,2.24656,0.0,0.0
363,90.5,36.566,39.3649,144.837,99.0968,78.3453,0.0117742,0.155918,20.8899,185.299,2.09183,0.0,0.0
374,93.25,36.5117,39.4582,145.106,98.9965,79.4405,0.0109473,0.151707,20.8968,185.188,1.95922,0.0,0.0
385,96,36.845,39.6192,145.558,98.9001,83.3695,0.0101438,0.147336,20.9044,185.078,1.52079,0.0,0.0
396,98.75,36.5686,39.187,142.971,98.8117,83.2435,0.00956792,0.144144,20.9096,184.978,1.52629,0.0,0.0
407,101.5,36.1669,39.1072,145.105,98.7049,84.5592,0.00905709,0.142442,20.9129,184.898,1.37707,0.0,0.0
418,104.25,36.3828,38.9957,143.331,98.5969,84.2119,0.00842528,0.140766,20.9156,184.798,1.40395,0.0,0.0
429,107,36.2657,38.8281,144.237,98.4873,83.7833,0.00773244,0.139763,20.9192,184.728,1.43948,0.0,0.0
440,109.75,35.4282,38.3051,141.921,98.3837,85.6679,0.00699347,0.13922,20.9202,184.668,1.23208,0.0,0.0
451,112.5,36.0033,38.8215,145.04,98.2825,83.6501,0.00619992,0.140018,20.9197,184.578,1.4351,0.0,0.0
462,115.25,35.4254,38.6001,144.176,98.2062,85.0963,0.00558117,0.140685,20.9196,184.518,1.27559,0.0,0.0
473,118,35.7507,38.8155,143.51,98.1034,86.0812,0.00517993,0.138644,20.9236,184.438,1.16382,0.0,0.0
484,120.75,35.6836,38.1908,140.404,98.0219,89.4646,0.00494842,0.134802,20.9302,184.408,0.81322,0.0,0.0
495,123.5,35.4798,38.4007,145.169,97.9817,89.462,0.00478563,0.129121,20.9397,184.358,0.809825,0.0,0.0
506,126.25,35.2339,37.9615,150.717,97.9303,91.2088,0.00473029,0.123849,20.9494,184.318,0.633004,0.0,0.0
517,129,34.6661,37.6682,145.9,97.8994,92.6749,0.00483026,0.119278,20.9554,184.268,0.48823,0.0,0.0
528,131.75,34.5445,37.1513,144.053,97.8857,92.8687,0.00517423,0.115269,20.9627,184.247,0.468394,0.0,0.0
539,134.5,34.4689,37.558,146.154,97.8865,92.9675,0.00552757,0.111051,20.9696,184.227,0.459002,0.0,0.0
550,137.25,34.3015,37.0642,150.081,97.9243,93.3754,0.00589216,0.106834,20.977,184.197,0.423464,0.0,0.0
561,140,33.9516,36.6661,143.302,97.9652,95.059,0.00609761,0.102739,20.9834,184.157,0.2681,0.0,0.0
572,142.75,33.2517,36.1516,145.937,98.0227,95.6907,0.00616812,0.0994415,20.9879,184.127,0.214348,0.0,0.0
583,145.5,33.3995,35.9379,144.724,98.0885,96.0884,0.00617779,0.0974278,20.9908,184.127,0.183406,0.0,0.0
594,148.25,32.9498,35.6354,147.984,98.1632,96.2966,0.0060486,0.0959556,20.9929,184.067,0.170916,0.0,0.0
605,151,32.3877,35.0316,144.255,98.254,96.1736,0.00591479,0.0952,20.9944,184.047,0.190516,0.0,0.0
616,153.75,32.4156,35.1045,145.059,98.3363,95.8701,0.00583186,0.0954884,20.9937,184.007,0.226117,0.0,0.0
627,156.5,31.8904,34.4459,139.685,98.4306,96.9737,0.00568479,0.096425,20.9924,183.997,0.13276,0.0,0.0
638,159.25,31.8304,34.187,149.295,98.5351,96.4997,0.00563258,0.096707,20.9917,183.967,0.18582,0.0,0.0
649,162,31.5409,34.2693,149.014,98.6395,96.4975,0.00569684,0.0962772,20.9928,183.947,0.195444,0.0,0.0
660,164.75,31.4112,33.5619,144.665,98.7676,96.4284,0.00570028,0.095521,20.9948,183.927,0.213376,0.0,0.0
671,167.5,31.4634,33.5647,152.103,98.8965,97.1539,0.00563666,0.0944855,20.997,183.887,0.158264,0.0,0.0
682,170.25,30.9441,33.0943,144.824,99.0117,96.8558,0.00541914,0.0936388,20.9977,183.867,0.195986,0.0,0.0
693,173,30.6535,32.9198,147.423,99.1326,96.7998,0.00530626,0.0927551,20.9992,183.827,0.211993,0.0,0.0
704,175.75,30.2997,32.8184,142.659,99.2426,96.852,0.00542056,0.0925299,21,183.797,0.217074,0.0,0.0
715,178.5,30.1823,32.8705,152.179,99.3506,97.1072,0.00552153,0.0922157,21.0001,183.767,0.203329,0.0,0.0
726,181.25,30.4601,32.8677,145.851,99.451,97.0979,0.00556614,0.0919397,21.0001,183.737,0.213175,0.0,0.0
737,184,30.2834,32.3047,147.015,99.5137,97.8271,0.00559006,0.0920808,21.0001,183.727,0.15217,0.0,0.0
748,186.75,30.1545,32.275,145.683,99.5956,97.4167,0.00544462,0.0919465,21.0001,183.697,0.196921,0.0,0.0
759,189.5,30.0984,32.6447,148.877,99.6711,97.1242,0.00537155,0.0916118,21.0001,183.677,0.230442,0.0,0.0
770,192.25,30.3982,32.2574,145.424,99.7325,97.3938,0.00551205,0.0912962,21.0007,183.647,0.211246,0.0,0.0
781,195,29.8316,32.0712,147.588,99.7711,97.7432,0.00554209,0.0912067,21.0014,183.627,0.182809,0.0,0.0
792,197.75,29.8144,32.12,147.736,99.814,97.9785,0.00528475,0.0907918,21.0015,183.597,0.165237,0.0,0.0
803,200.5,29.8862,31.5181,148.292,99.8695,97.3951,0.00497297,0.0904613,21.0035,183.567,0.223345,0.0,0.0
814,203.25,28.8793,31.6851,144.984,99.8988,97.3735,0.0047957,0.0904771,21.0041,183.537,0.227935,0.0,0.0
825,206,29.6575,31.5614,147.783,99.9269,98.0476,0.00480033,0.0905789,21.0043,183.517,0.169019,0.0,0.0
836,208.75,29.3463,31.5837,150.642,99.9397,97.9781,0.00486577,0.0904855,21.005,183.487,0.176478,0.0,0.0
847,211.5,29.2877,31.2079,145.683,99.9433,98.1108,0.00490664,0.0902314,21.0048,183.477,0.16475,0.0,0.0
858,214.25,29.4008,31.7837,148.68,99.9462,98.1176,0.00486033,0.0898965,21.0053,183.457,0.164386,0.0,0.0
869,217,29.3124,31.6641,146.686,99.9449,97.0347,0.0046862,0.0896375,21.0061,183.447,0.263074,0.0,0.0
880,219.75,29.6448,31.2292,146.534,99.9393,97.9883,0.0044669,0.0894238,21.0065,183.427,0.175519,0.0,0.0
891,222.5,29.7434,31.1026,146.356,99.9084,97.7525,0.00443189,0.0894985,21.0076,183.377,0.194206,0.0,0.0
902,225.25,29.6365,31.8331,147.014,99.8911,97.8712,0.00449946,0.0894125,21.0084,183.357,0.181862,0.0,0.0
913,228,29.6348,31.2432,147.57,99.8771,98.246,0.00460281,0.0896863,21.0086,183.337,0.146583,0.0,0.0
924,230.75,28.8079,30.9026,143.889,99.8385,97.3324,0.00461512,0.0892676,21.0087,183.317,0.226325,0.0,0.0
935,233.5,29.0553,31.3805,148.767,99.798,97.206,0.00447258,0.089041,21.0101,183.287,0.234271,0.0,0.0
946,236.25,29.6226,31.2325,146.024,99.7462,97.474,0.00446483,0.0888779,21.0108,183.277,0.205143,0.0,0.0
957,239,28.8249,30.3857,146.546,99.7104,98.8273,0.00448823,0.0888698,21.011,183.257,0.0791996,0.0,0.0
968,241.75,29.3752,31.0366,151.592,99.6755,98.0056,0.00423113,0.0884344,21.0111,183.237,0.150407,0.0,0.0
979,244.5,29.5345,31.1745,140.54,99.6434,98.5555,0.00394557,0.0882753,21.0111,183.216,0.0977256,0.0,0.0
990,247.25,28.9824,31.4503,148.721,99.5916,97.2412,0.00391224,0.0878794,21.0111,183.196,0.212618,0.0,0.0
1001,250,28.3612,30.8624,146.272,99.5731,97.2671,0.00375776,0.0875903,21.0111,183.176,0.208599,0.0,0.0
1012,252.75,29.196,30.9192,145.093,99.5056,98.1761,0.00366366,0.0875862,21.0127,183.146,0.119754,0.0,0.0
1023,255.5,29.6834,31.1747,146.853,99.4683,97.7568,0.00368382,0.0874822,21.0119,183.136,0.154516,0.0,0.0
1034,258.25,29.0777,30.9332,145.679,99.4285,97.315,0.00366567,0.0875945,21.0114,183.116,0.191281,0.0,0.0
1045,261,29.3252,31.1428,146.578,99.3803,97.6414,,0.0874671,,183.086,0.15715,0.0,0.0
1056,263.75,29.3378,30.747,149.012,99.3426,97.1182,,,,183.066,0.201598,0.0,0.0
1067,266.5,29.0594,31.188,145.359,99.3318,97.5325,,,,183.066,0.162737,0.0,0.0
1078,269.25,28.9781,31.2029,146.351,99.2928,97.3832,,,,183.046,0.172878,0.0,0.0