File: 01_Data/Vinyl_Siding/Cone/Vinyl_Siding_Cone_HF75Scalar_220331_R1.csv
LABORATORY,FSRI
TEST IDENT,Vinyl_Siding_HF75_1
OPERATOR,Dow
MATERIAL,Vinyl Siding
ORIENTATION,Horizontal
HEAT FLUX,75
SURF AREA,0.00884
C FACTOR,0.0397155
SPEC HOLDER DIFF,-566
SPECIMEN MASS,13.55
SCAN TIME,0.25
O2 DELAY TIME,11
CO DELAY TIME,11
CO2 DELAY TIME,8
FLOW FACTOR,1
SCAN COUNT,876
TIME TO IGN,15.75
END OF TEST SCAN,396
END OF TEST TIME,99
TEST STATUS,1
PRE TEST CMT,Dimensions: 100.66 x 97.43 x 0.94 mm; with frame; with calcium silicate substrate