File: 01_Data/Vinyl_Siding/Cone/Vinyl_Siding_Cone_HF75Scan_220331_R1.csv
Names,Time,Stack TC,Smoke TC,Exh Press,Smoke Comp,Smoke Meas,CO Meter,CO2 Meter,O2 Meter,Sample Mass,Ext Coeff,Start Test,Flame Verif
Chan Gain,,500,500,1,1,1,1,1,1,1,1,1.0,1.0
Offset,,0,0,0.133521,0,0,0,0,0,0,0,0.0,0.0
Gain,,1,1,25.011,13.1585,13.8929,1,1,1,1.00096,1.01488,1.0,1.0
Units,sec,C,C,Pa,%,%,%,%,%,g,/m,,
Baseline,,39.7497,41.9413,140.921,99.3856,96.9075,0.000689102,0.0637954,21.0383,-835.32,0.224858,,
9,2,36.7629,38.6637,136.416,99.702,97.1479,0.000548981,0.0687636,21.0317,191.384,0.231028,0.0,0.0
18,4.25,36.6265,39.1688,138.751,99.7084,97.3281,0.000629458,0.0682208,21.0319,191.344,0.215104,0.0,0.0
27,6.5,37.3117,39.1175,143.967,99.7044,96.3547,0.000954909,0.0677911,21.0311,191.304,0.304235,0.0,0.0
36,8.75,37.4824,39.4223,139.562,99.7052,83.3665,0.00164514,0.0689712,21.0283,191.144,1.59329,0.0,0.0
45,11,37.9214,39.4476,138.401,99.694,61.4409,0.00303133,0.0739898,21.0217,190.514,4.30906,0.0,0.0
54,13.25,38.0553,39.8466,138.994,99.7145,42.8452,0.00828736,0.0840011,21.0121,189.813,7.52008,0.0,0.0
63,15.5,38.0048,40.2015,127.761,99.7209,43.4442,0.0233037,0.132123,20.8762,189.092,7.39704,0.0,1.0
72,17.75,39.7432,41.6405,126.422,99.7096,28.9501,0.0410655,0.250049,20.645,188.442,11.0096,0.0,1.0
81,20,41.6712,43.9799,127.271,99.7028,33.9128,0.0518173,0.345178,20.5003,187.771,9.60044,0.0,1.0
90,22.25,43.2162,45.422,126.249,99.7237,33.8852,0.0533706,0.389989,20.456,187.15,9.60955,0.0,0.0
99,24.5,44.5396,47.4362,124.759,99.7173,40.1325,0.0505129,0.385925,20.4744,186.72,8.1026,0.0,0.0
108,26.75,45.4501,48.694,128.957,99.7217,52.3168,0.0460005,0.363723,20.5328,186.299,5.74267,0.0,0.0
117,29,46.5088,49.2904,131.17,99.7273,59.3456,0.0420602,0.335161,20.5883,185.929,4.62094,0.0,0.0
126,31.25,47.5416,50.565,130.107,99.7381,61.7063,0.0385661,0.310855,20.6293,185.609,4.27463,0.0,0.0
135,33.5,48.3646,50.7601,129.596,99.7418,62.3804,0.0358721,0.292536,20.6571,185.268,4.17823,0.0,0.0
144,35.75,49.1239,51.5123,128.229,99.7446,54.3456,0.0337728,0.279548,20.676,184.918,5.40602,0.0,0.0
153,38,49.2337,52.6333,129.163,99.7586,57.3609,0.0322162,0.271276,20.6863,184.648,4.92654,0.0,0.0
162,40.25,49.5883,53.0279,130.241,99.7546,57.2185,0.0307015,0.264115,20.697,184.378,4.94832,0.0,0.0
171,42.5,50.4555,53.1797,130.74,99.7574,58.1707,0.0290078,0.256818,20.7089,184.127,4.80163,0.0,0.0
180,44.75,51.0295,53.9505,134.167,99.7803,58.6812,0.0272969,0.249835,20.7191,183.847,4.72589,0.0,0.0
189,47,51.185,54.8415,133.07,99.7847,59.8509,0.0256924,0.243514,20.7284,183.657,4.55057,0.0,0.0
198,49.25,51.2361,55.0207,131.155,99.7863,60.6434,0.0239318,0.237683,20.7402,183.417,4.43362,0.0,0.0
207,51.5,51.7713,55.3839,128.89,99.7843,61.9255,0.0222551,0.233761,20.7476,183.237,4.24719,0.0,0.0
216,53.75,52.1945,55.7708,132.072,99.8028,64.4464,0.020464,0.229318,20.7569,183.046,3.8936,0.0,0.0
225,56,52.1845,55.9404,134.384,99.7948,68.0401,0.0188857,0.221925,20.7726,182.906,3.40981,0.0,0.0
234,58.25,52.5774,55.9569,132.307,99.7972,70.4627,0.0174716,0.212793,20.7888,182.746,3.09856,0.0,0.0
243,60.5,52.2846,56.1273,136.251,99.8044,76.1517,0.015805,0.203456,20.8049,182.616,2.40799,0.0,0.0
252,62.75,52.8272,55.3415,132.78,99.8168,78.1325,0.0141626,0.193266,20.8273,182.506,2.18049,0.0,0.0
261,65,52.0818,56.0171,137.098,99.8176,80.2333,0.0127841,0.183159,20.8463,182.396,1.94436,0.0,0.0
270,67.25,51.8371,56.547,137.284,99.804,82.8124,0.0114463,0.17386,20.8597,182.316,1.66148,0.0,0.0
279,69.5,52.2484,56.212,135.125,99.8189,84.68,0.0103167,0.166276,20.8738,182.226,1.46426,0.0,0.0
288,71.75,52.2737,55.9589,132.989,99.8229,86.074,0.0096253,0.15838,20.888,182.165,1.31925,0.0,0.0
297,74,52.0777,55.6558,134.819,99.8209,87.2705,0.00903502,0.151565,20.8988,182.065,1.19618,0.0,0.0
306,76.25,51.406,55.2766,134.797,99.8217,88.4555,0.00841555,0.14647,20.9075,181.995,1.07618,0.0,0.0
315,78.5,51.3282,55.1225,137.499,99.8442,90.8408,0.00778627,0.141055,20.9186,181.925,0.841299,0.0,0.0
324,80.75,50.7224,55.462,138.936,99.8393,91.4051,0.00736325,0.136994,20.9259,181.925,0.785738,0.0,0.0
333,83,50.8499,54.9643,136.836,99.8277,91.9847,0.00718671,0.133561,20.9328,181.875,0.728428,0.0,0.0
342,85.25,50.8752,54.4367,138.814,99.8349,94.6859,0.00722002,0.130225,20.9408,181.795,0.471413,0.0,0.0
351,87.5,50.6064,54.4472,136.428,99.855,95.5724,0.00725188,0.126664,20.9477,181.765,0.390238,0.0,0.0
360,89.75,50.2655,54.1926,140.211,99.8426,95.9803,0.00728505,0.123335,20.9521,181.715,0.351217,0.0,0.0
369,92,50.2761,53.4538,139.092,99.8317,96.3547,0.00754367,0.120421,20.9565,181.665,0.315594,0.0,0.0
378,94.25,49.617,53.3227,135.336,99.8462,96.696,0.00804242,0.116627,20.9614,181.635,0.285404,0.0,0.0
387,96.5,49.2896,52.8235,139.649,99.849,97.2688,0.008707,0.113466,20.9657,181.575,0.233075,0.0,0.0
396,98.75,49.3833,52.5022,139.293,99.8506,97.1997,0.00891851,0.110582,20.9702,181.525,0.239545,0.0,0.0
405,101,48.5018,52.404,140.803,99.8562,96.6031,0.00897777,0.108206,20.9741,181.505,0.294852,0.0,0.0
414,103.25,47.7045,51.2713,138.45,99.867,97.064,0.00889606,0.106443,20.977,181.475,0.253447,0.0,0.0
423,105.5,47.8363,51.2883,141.036,99.8502,97.923,0.00874233,0.105267,20.9791,181.425,0.173508,0.0,0.0
432,107.75,47.6159,50.8448,139.981,99.8674,97.1954,0.00878338,0.104872,20.9799,181.415,0.241437,0.0,0.0
441,110,47.376,50.94,137.133,99.8606,97.4464,0.00900153,0.105018,20.9803,181.375,0.217868,0.0,0.0
450,112.25,47.2102,50.2411,139.82,99.8602,96.704,0.00916146,0.105482,20.9799,181.335,0.285916,0.0,0.0
459,114.5,46.9868,50.3375,137.489,99.8562,96.3301,0.00912312,0.105927,20.9809,181.275,0.320049,0.0,0.0
468,116.75,46.5858,50.1783,138.264,99.8582,96.9016,0.00884071,0.106228,20.9818,181.245,0.267567,0.0,0.0
477,119,46.828,50.1273,139.73,99.8682,96.8982,0.00862853,0.10593,20.9822,181.185,0.268773,0.0,0.0
486,121.25,46.5999,50.1318,139.71,99.8562,97.7911,0.00865338,0.105577,20.9831,181.114,0.18604,0.0,0.0
495,123.5,46.4004,49.4938,140.187,99.8638,97.1657,0.00873699,0.105607,20.9836,181.084,0.243834,0.0,0.0
504,125.75,46.5292,49.3872,137.763,99.865,96.7295,0.00863666,0.10568,20.9838,181.044,0.284003,0.0,0.0
513,128,45.9043,48.7901,136.838,99.8522,97.0822,0.00837691,0.105479,20.9851,181.054,0.250452,0.0,0.0
522,130.25,45.632,49.2697,137.694,99.8562,96.866,0.00813249,0.10502,20.9856,180.984,0.270659,0.0,0.0
531,132.5,45.6943,48.5968,138.762,99.859,97.9548,0.00792233,0.105293,20.9846,180.964,0.171405,0.0,0.0
540,134.75,45.6166,48.3906,139.874,99.8646,96.9385,0.00759155,0.10523,20.9854,180.974,0.264751,0.0,0.0
549,137,45.5084,48.6066,133.757,99.855,96.5009,0.00722903,0.104919,20.9854,180.954,0.304166,0.0,0.0
558,139.25,44.7402,48.1813,142.294,99.8486,96.6218,0.0069231,0.104595,20.986,180.884,0.292453,0.0,0.0
567,141.5,45.3386,48.4832,136.913,99.8542,97.0335,0.00675516,0.104175,20.9866,180.874,0.255103,0.0,0.0
576,143.75,45.3452,48.8877,140.991,99.8574,97.0436,0.00653479,0.103662,20.9884,180.804,0.254456,0.0,0.0
585,146,44.5578,47.6116,140.967,99.865,97.6211,0.00628481,0.103133,20.988,180.764,0.202318,0.0,0.0
594,148.25,45.0331,48.1369,142.399,99.847,97.2128,0.00620734,0.103156,20.9876,180.724,0.23802,0.0,0.0
603,150.5,44.4506,47.6068,137.64,99.8602,96.7057,0.00617604,0.103412,20.9888,180.684,0.285759,0.0,0.0
612,152.75,44.783,48.1213,141.524,99.8494,97.039,0.00600697,0.103533,20.9883,180.704,0.254168,0.0,0.0
621,155,44.5705,48.158,138.662,99.8482,97.5554,0.00571919,0.103558,20.9872,180.624,0.20681,0.0,0.0
630,157.25,44.3742,47.3715,138.103,99.8498,98.1244,0.00559928,0.103491,20.988,180.594,0.155181,0.0,0.0
639,159.5,44.7632,47.8232,145.298,99.845,97.3065,0.00556038,0.103388,20.9886,180.604,0.229264,0.0,0.0
648,161.75,44.3037,47.501,139.273,99.8361,97.0004,0.00547985,0.103016,20.9901,180.584,0.256527,0.0,0.0
657,164,44.3957,47.5128,139.649,99.8193,96.467,0.00536493,0.10265,20.9912,180.524,0.304108,0.0,0.0
666,166.25,44.6493,47.5452,140.07,99.8462,97.2124,0.00520237,0.10238,20.9916,180.494,0.237987,0.0,0.0
675,168.5,44.2951,47.4346,137.722,99.8048,96.9088,0.00500523,0.102149,20.9918,180.484,0.262142,0.0,0.0
684,170.75,44.6187,46.9623,144.94,99.798,96.6099,0.00485187,0.102352,20.9918,180.384,0.289033,0.0,0.0
693,173,44.5506,47.2602,135.294,99.7944,96.7532,0.00474193,0.10256,20.9922,180.374,0.275516,0.0,0.0
702,175.25,44.1721,47.3992,139.616,99.7859,96.827,0.00473264,0.102627,20.9925,180.374,0.267978,0.0,0.0
711,177.5,44.2535,47.5309,140.604,99.7671,96.9919,0.00466773,0.102624,20.9926,180.334,0.251144,0.0,0.0
720,179.75,44.4676,47.1256,138.045,99.7365,97.2921,0.00447881,0.102517,20.9927,180.314,0.22091,0.0,0.0
729,182,43.9899,47.0621,134.61,99.7197,96.4267,0.00436719,0.102572,20.9927,180.294,0.29894,0.0,0.0
738,184.25,44.4052,47.1892,141.368,99.7165,96.8906,0.0043273,0.10274,20.9924,180.254,0.255933,0.0,0.0
747,186.5,44.1272,47.088,138.131,99.6759,96.6392,0.00419398,0.102662,20.992,180.254,0.275442,0.0,0.0
756,188.75,43.8575,47.1093,133.238,99.651,97.3218,0.00406731,0.102379,20.9918,180.204,0.210557,0.0,0.0
765,191,43.887,47.4763,137.08,99.6205,97.34,0.0040308,0.102306,20.9917,180.194,0.206162,0.0,0.0
774,193.25,44.1178,46.8757,136.56,99.5996,96.8126,0.00402249,0.102377,20.9923,180.164,0.252665,0.0,0.0
783,195.5,43.8848,46.7277,137.879,99.5763,97.0564,0.003997,0.101992,20.9934,180.104,0.228193,0.0,0.0
792,197.75,44.0428,46.9223,139.466,99.5317,96.7324,0.00403575,0.10164,20.9933,180.083,0.253968,0.0,0.0
801,200,43.77,46.9863,136.305,99.506,97.2573,0.00405907,0.10143,20.9923,180.043,0.203494,0.0,0.0
810,202.25,43.9306,46.3777,142.435,99.4727,96.9385,0.00403315,0.100976,20.9932,179.983,0.229744,0.0,0.0
819,204.5,43.904,46.8311,141.208,99.4293,96.6913,0.00402079,0.100592,20.9938,179.973,0.248591,0.0,0.0
828,206.75,43.9287,46.6914,139.182,99.4097,96.7346,0.00400157,0.100232,20.9954,179.953,0.242848,0.0,0.0
837,209,43.312,46.0161,139.992,99.3663,96.5802,,0.0998786,,179.933,0.253177,0.0,0.0
846,211.25,43.911,46.5462,138.502,99.3422,96.913,,,,179.933,0.220394,0.0,0.0
855,213.5,43.9248,46.2802,137.92,99.3197,96.7244,,,,179.883,0.235726,0.0,0.0
864,215.75,43.0127,46.4198,136.57,99.2936,96.7596,,,,179.873,0.230147,0.0,0.0
873,218,44.0927,46.636,140.061,99.2563,96.3233,,,,179.833,0.267029,0.0,0.0
876,218.75,44.2403,46.1802,137.62,99.2559,96.6909,,,,179.833,0.233085,0.0,0.0