File: 01_Data/Vinyl_Siding/Cone/Vinyl_Siding_Cone_HF75Scalar_220331_R3.csv
LABORATORY,FSRI
TEST IDENT,Vinyl_Siding_HF75_3
OPERATOR,Dow
MATERIAL,Vinyl Siding
ORIENTATION,Horizontal
HEAT FLUX,75
SURF AREA,0.00884
C FACTOR,0.0397155
SPEC HOLDER DIFF,-566
SPECIMEN MASS,14.01
SCAN TIME,0.25
O2 DELAY TIME,11
CO DELAY TIME,11
CO2 DELAY TIME,8
FLOW FACTOR,1
SCAN COUNT,865
TIME TO IGN,17.5
END OF TEST SCAN,385
END OF TEST TIME,96.25
TEST STATUS,1
PRE TEST CMT,Dimensions: 101.06 x 100.02 x 1.02 mm; with frame; with calcium silicate substrate