File: 01_Data/Vinyl_Siding/Cone/Vinyl_Siding_Cone_HF50Scalar_220331_R2.csv
LABORATORY,FSRI
TEST IDENT,Vinyl_Siding_HF50_2
OPERATOR,Dow
MATERIAL,Vinyl Siding
ORIENTATION,Horizontal
HEAT FLUX,50
SURF AREA,0.00884
C FACTOR,0.0397155
SPEC HOLDER DIFF,-566
SPECIMEN MASS,14.2
SCAN TIME,0.25
O2 DELAY TIME,11
CO DELAY TIME,11
CO2 DELAY TIME,8
FLOW FACTOR,1
SCAN COUNT,1021
TIME TO IGN,32.25
END OF TEST SCAN,541
END OF TEST TIME,135.25
TEST STATUS,1
PRE TEST CMT,Dimensions: 102.12 x 98.35 x 1.06 mm; with frame; with calcium silicate substrate