File: 01_Data/Vinyl_Siding/Cone/Vinyl_Siding_Cone_HF50Scan_220331_R3.csv
Names,Time,Stack TC,Smoke TC,Exh Press,Smoke Comp,Smoke Meas,CO Meter,CO2 Meter,O2 Meter,Sample Mass,Ext Coeff,Start Test,Flame Verif
Chan Gain,,500,500,1,1,1,1,1,1,1,1,1.0,1.0
Offset,,0,0,0.133521,0,0,0,0,0,0,0,0.0,0.0
Gain,,1,1,25.011,13.1585,13.8929,1,1,1,1.00096,1.01488,1.0,1.0
Units,sec,C,C,Pa,%,%,%,%,%,g,/m,,
Baseline,,31.4995,32.8901,145.935,97.8836,95.2935,0.000421397,0.0677196,21.0334,-834.74,0.238811,,
11,2.5,27.7778,29.3528,145.159,98.5045,95.6466,0.000742797,0.0712481,21.0299,207.46,0.262109,0.0,0.0
22,5.25,28.0536,29.1301,147.682,98.5061,95.2519,0.000748301,0.0709477,21.0305,207.4,0.29907,0.0,0.0
33,8,27.984,30.0071,148.903,98.5567,96.018,0.000693,0.0701422,21.0328,207.34,0.232324,0.0,0.0
44,10.75,28.4739,29.8014,144.38,98.5612,96.0337,0.000562829,0.0693112,21.0353,207.34,0.231268,0.0,0.0
55,13.5,28.8,30.1301,146.676,98.5768,94.6477,0.00042221,0.0683473,21.036,207.34,0.362102,0.0,0.0
66,16.25,28.8351,30.4193,148.435,98.5941,90.9112,0.000569763,0.0692767,21.036,207.26,0.72224,0.0,0.0
77,19,28.5423,30.0051,147.372,98.619,83.2817,0.00110107,0.073629,21.0343,206.939,1.50483,0.0,0.0
88,21.75,29.2561,30.2203,143.1,98.6479,77.8442,0.00161683,0.081442,21.0276,206.489,2.10853,0.0,0.0
99,24.5,29.3611,30.2995,146.685,98.6603,74.8403,0.00170984,0.0883725,21.0225,205.968,2.45999,0.0,0.0
110,27.25,29.4945,31.001,143.726,98.6599,70.581,0.00184099,0.0924581,21.0196,205.498,2.9816,0.0,0.0
121,30,30.1607,31.3735,142.141,98.6885,67.8722,0.00336282,0.0936623,21.0132,205.078,3.33256,0.0,0.0
132,32.75,29.8656,31.5487,142.256,98.7009,75.0459,0.0105738,0.118887,20.9634,204.697,2.43922,0.0,1.0
143,35.5,31.6203,32.6618,134.53,98.7198,42.6255,0.0223445,0.200329,20.7939,204.127,7.47658,0.0,1.0
154,38.25,32.8429,34.0027,134.926,98.7182,44.7336,0.0317795,0.278221,20.6599,203.586,7.04671,0.0,1.0
165,41,33.9325,35.4158,130.434,98.7222,44.31,0.0367377,0.320017,20.5966,203.056,7.13176,0.0,1.0
176,43.75,35.3208,36.5855,133.984,98.7133,44.3486,0.0378045,0.330471,20.5825,202.575,7.12322,0.0,0.0
187,46.5,36.5315,37.9441,133.276,98.733,50.3699,0.0367386,0.325443,20.5903,202.125,5.99159,0.0,0.0
198,49.25,37.2538,39.8684,130.299,98.7282,50.7324,0.0342237,0.312385,20.6145,201.764,5.92731,0.0,0.0
209,52,38.4293,40.3296,128.539,98.7346,58.1847,0.0306374,0.296732,20.6476,201.414,4.70775,0.0,0.0
220,54.75,38.8769,41.5085,135.747,98.7174,68.0694,0.026657,0.28035,20.6837,201.064,3.30935,0.0,0.0
231,57.5,39.9869,41.7032,137.089,98.7358,71.3887,0.0230491,0.259739,20.7261,200.813,2.88715,0.0,0.0
242,60.25,39.5524,42.5059,134.184,98.7298,74.6338,0.019727,0.238425,20.7614,200.563,2.49085,0.0,0.0
253,63,40.7262,43.0448,135.767,98.7391,75.3694,0.0172896,0.220682,20.7921,200.373,2.40437,0.0,0.0
264,65.75,40.8527,43.1665,139.992,98.7354,78.2376,0.0157195,0.208059,20.8119,200.153,2.07154,0.0,0.0
275,68.5,40.9659,43.4648,141.768,98.7463,74.4027,0.0149954,0.197607,20.8275,199.943,2.51994,0.0,0.0
286,71.25,41.3814,44.0908,134.622,98.7555,73.8168,0.0147797,0.189637,20.8383,199.762,2.59116,0.0,0.0
297,74,41.2296,43.9704,138.202,98.7611,73.0125,0.0145416,0.182709,20.846,199.602,2.6892,0.0,0.0
308,76.75,41.4507,44.0337,137.029,98.7656,71.465,0.0141269,0.178992,20.8516,199.422,2.88032,0.0,0.0
319,79.5,41.6008,44.2682,132.208,98.7772,71.2899,0.0136312,0.176318,20.8551,199.262,2.90321,0.0,0.0
330,82.25,41.5442,44.5309,141.335,98.7929,71.8415,0.012985,0.17443,20.8564,199.122,2.836,0.0,0.0
341,85,41.8332,44.4437,138.811,98.8129,74.8216,0.012236,0.172397,20.8582,198.982,2.47597,0.0,0.0
352,87.75,41.9084,44.1446,144.108,98.819,72.6165,0.0112278,0.170368,20.8606,198.862,2.74283,0.0,0.0
363,90.5,41.9519,44.5754,139.301,98.8214,76.6842,0.0100535,0.168985,20.8639,198.721,2.25783,0.0,0.0
374,93.25,41.9266,44.2889,136.74,98.8097,75.9448,0.00924223,0.166954,20.8692,198.611,2.34304,0.0,0.0
385,96,41.7428,44.435,138.304,98.821,80.0599,0.00827166,0.162965,20.8787,198.511,1.87428,0.0,0.0
396,98.75,42.04,44.6486,144.252,98.8314,83.1643,0.00715402,0.157516,20.8904,198.481,1.53655,0.0,0.0
407,101.5,41.8891,43.968,143.318,98.8214,87.8391,0.00617755,0.151362,20.9012,198.411,1.04878,0.0,0.0
418,104.25,41.3331,43.8851,143.466,98.817,88.6124,0.00519602,0.145073,20.9163,198.331,0.970348,0.0,0.0
429,107,40.9113,43.4683,142.258,98.8121,90.823,0.00472919,0.139247,20.9277,198.331,0.750547,0.0,0.0
440,109.75,41.143,43.8174,139.834,98.8258,90.7904,0.00453867,0.134616,20.9348,198.281,0.754978,0.0,0.0
451,112.5,40.9797,43.1568,144.283,98.8182,91.8554,0.00452977,0.130877,20.9381,198.241,0.650467,0.0,0.0
462,115.25,40.6136,43.4079,145.924,98.8053,93.0659,0.00447963,0.123962,20.9478,198.191,0.532759,0.0,0.0
473,118,40.2793,43.2468,142.263,98.7884,93.8201,0.00447911,0.116708,20.9603,198.141,0.459379,0.0,0.0
484,120.75,39.8895,43.0794,138.868,98.786,95.2286,0.00472598,0.109187,20.9713,198.111,0.326508,0.0,0.0
495,123.5,39.6679,42.2459,144.364,98.8013,95.3668,0.00532954,0.103905,20.9793,198.101,0.314972,0.0,0.0
506,126.25,38.8093,42.3603,143.655,98.7997,95.7234,0.00589936,0.100214,20.9872,198.081,0.281604,0.0,0.0
517,129,39.4728,41.3089,143.057,98.8069,96.0956,0.0063026,0.0977756,20.991,198.061,0.247702,0.0,0.0
528,131.75,38.6338,41.0018,144.113,98.8057,95.9782,0.00641856,0.0961172,20.9935,198.021,0.25848,0.0,0.0
539,134.5,37.9815,40.7214,148.625,98.8158,96.3932,0.00640392,0.0952182,20.9956,197.981,0.220967,0.0,0.0
550,137.25,38.5694,40.3244,142.021,98.8133,95.9493,0.00627072,0.0949613,20.9963,197.961,0.261842,0.0,0.0
561,140,37.6837,40.155,148.68,98.8178,96.0655,0.00616318,0.0946262,20.9976,197.931,0.251468,0.0,0.0
572,142.75,36.9309,39.534,142.877,98.8029,95.48,0.00593495,0.0941299,20.9985,197.901,0.304555,0.0,0.0
583,145.5,37.1833,39.6021,146.745,98.7929,95.6186,0.00571379,0.0936091,21.0003,197.881,0.290733,0.0,0.0
594,148.25,36.5826,39.1949,141.755,98.8057,95.9587,0.00571287,0.0932222,21.001,197.861,0.26029,0.0,0.0
605,151,36.3333,38.5765,144.878,98.8029,96.4984,0.00571629,0.0932452,21.0012,197.821,0.210104,0.0,0.0
616,153.75,36.3243,38.5213,141.988,98.7965,96.2058,0.0055789,0.0930479,21.0012,197.821,0.236555,0.0,0.0
627,156.5,36.41,38.5114,143.974,98.784,95.9968,0.00547059,0.092955,21.0017,197.811,0.254795,0.0,0.0
638,159.25,35.765,38.3762,142.101,98.7764,96.8189,0.00547433,0.0930581,21.0023,197.74,0.178195,0.0,0.0
649,162,35.9144,37.8734,144.783,98.7792,95.9667,0.00527211,0.0932615,21.0025,197.72,0.257154,0.0,0.0
660,164.75,35.6958,37.8507,144.434,98.7587,95.5788,0.00508658,0.0931207,21.0026,197.73,0.291369,0.0,0.0
671,167.5,34.9369,38.0319,146.656,98.7495,95.8277,0.00511329,0.0929605,21.0026,197.7,0.267384,0.0,0.0
682,170.25,35.7997,37.2336,145.203,98.7427,96.0816,0.00515949,0.0933499,21.0026,197.66,0.243207,0.0,0.0
693,173,35.6605,37.3917,139.177,98.7451,95.8722,0.00518626,0.0934416,21.0026,197.64,0.262852,0.0,0.0
704,175.75,35.4866,37.3718,143.813,98.7443,96.5438,0.00491671,0.0933077,21.0026,197.59,0.200636,0.0,0.0
715,178.5,34.9754,37.2736,145.914,98.7226,95.8751,0.00471939,0.0932554,21.0025,197.58,0.260548,0.0,0.0
726,181.25,34.7649,37.1621,145.147,98.6929,96.4462,0.00468157,0.0932696,21.0021,197.55,0.204997,0.0,0.0
737,184,34.782,37.0731,147.52,98.68,96.0977,0.0044707,0.0928686,21.0036,197.51,0.236066,0.0,0.0
748,186.75,34.7378,36.9917,144.189,98.684,96.1889,0.00430303,0.0926332,21.0041,197.49,0.227986,0.0,0.0
759,189.5,34.7594,36.5084,144.043,98.6712,96.3797,0.00456687,0.0921521,21.0042,197.46,0.209188,0.0,0.0
770,192.25,34.7695,37.0038,137.218,98.6599,95.7793,0.00467267,0.0919245,21.0043,197.44,0.263799,0.0,0.0
781,195,34.6136,36.451,148.669,98.6403,95.5466,0.00442834,0.091602,21.0043,197.41,0.283685,0.0,0.0
792,197.75,34.9002,36.5459,146.187,98.6134,96.2287,0.00428377,0.0915747,21.0043,197.39,0.217921,0.0,0.0
803,200.5,34.299,36.3192,145.948,98.6097,95.8968,0.00416226,0.0915446,21.0052,197.39,0.24836,0.0,0.0
814,203.25,34.3245,36.4103,145.934,98.5901,95.731,0.00396893,0.0915433,21.0038,197.34,0.261987,0.0,0.0
825,206,34.0224,37.0111,143.116,98.574,95.0263,0.00380382,0.0911822,21.0039,197.34,0.326307,0.0,0.0
836,208.75,34.1103,35.4264,147.833,98.5455,95.8048,0.00375316,0.0906453,21.0049,197.3,0.251103,0.0,0.0
847,211.5,33.6917,36.2508,143.978,98.5326,96.2491,0.00378125,0.0904457,21.0044,197.27,0.208749,0.0,0.0
858,214.25,34.1113,36.1857,148.287,98.5086,95.3617,0.00392653,0.0904033,21.0049,197.29,0.289031,0.0,0.0
869,217,33.9806,35.6637,143.909,98.5017,96.244,0.0039573,0.0903315,21.0052,197.27,0.206426,0.0,0.0
880,219.75,34.2368,36.1332,142.158,98.4547,96.2003,0.00371728,0.0900604,21.0061,197.23,0.206218,0.0,0.0
891,222.5,34.0477,36.1791,144.042,98.423,96.1673,0.00348966,0.089526,21.0072,197.2,0.20641,0.0,0.0
902,225.25,34.1529,35.9508,143.324,98.421,95.745,0.00330977,0.089046,21.0085,197.17,0.245407,0.0,0.0
913,228,34.0018,36.0988,144.572,98.3905,95.4355,0.00319153,0.0888185,21.0115,197.15,0.271471,0.0,0.0
924,230.75,34.1217,36.0092,144.402,98.3568,95.3138,0.00327218,0.0885451,21.0125,197.15,0.279776,0.0,0.0
935,233.5,33.9667,36.367,141.219,98.3214,95.9523,0.00325566,0.0883244,21.0129,197.13,0.217138,0.0,0.0
946,236.25,33.3841,35.0944,140.802,98.2973,95.2065,0.0030681,0.0880068,21.013,197.09,0.28442,0.0,0.0
957,239,33.9753,36.0424,145.964,98.2744,95.9599,0.00286343,0.087826,21.0146,197.06,0.212175,0.0,0.0
968,241.75,33.8929,35.6866,144.446,98.2512,95.2994,,0.0879932,,197.05,0.271558,0.0,0.0
979,244.5,33.7017,34.8628,147.281,98.2254,95.628,,,,197.02,0.238587,0.0,0.0
990,247.25,33.9822,35.5382,143.604,98.2082,96.3415,,,,196.99,0.17084,0.0,0.0
1001,250,34.0667,35.0379,142.725,98.2018,95.7971,,,,197,0.220704,0.0,0.0
1004,250.75,33.76,35.6423,145.291,98.1897,96.3254,,,,196.99,0.170654,0.0,0.0