File: 01_Data/Vinyl_Siding/Cone/Vinyl_Siding_Cone_HF50Scan_220331_R2.csv
Names,Time,Stack TC,Smoke TC,Exh Press,Smoke Comp,Smoke Meas,CO Meter,CO2 Meter,O2 Meter,Sample Mass,Ext Coeff,Start Test,Flame Verif
Chan Gain,,500,500,1,1,1,1,1,1,1,1,1.0,1.0
Offset,,0,0,0.133521,0,0,0,0,0,0,0,0.0,0.0
Gain,,1,1,25.011,13.1585,13.8929,1,1,1,1.00096,1.01488,1.0,1.0
Units,sec,C,C,Pa,%,%,%,%,%,g,/m,,
Baseline,,28.7941,30.1806,147.204,99.2974,96.4496,0.000502731,0.0636043,21.0418,-834.427,0.259081,,
11,2.5,29.2011,29.902,145.53,99.176,95.8493,0.000701847,0.0691331,21.0361,198.581,0.30374,0.0,0.0
22,5.25,27.9909,29.8077,148.386,99.1322,96.6951,0.000658516,0.0687422,21.0362,198.601,0.221593,0.0,0.0
33,8,28.6118,29.9644,147.7,99.1338,95.982,0.000365999,0.0677014,21.0392,198.551,0.287637,0.0,0.0
44,10.75,28.7574,29.7324,145.308,99.1153,96.0447,0.00046291,0.0662555,21.0417,198.521,0.280161,0.0,0.0
55,13.5,28.6625,29.8962,144.372,99.1025,95.1675,0.000642355,0.0651045,21.0425,198.481,0.360689,0.0,0.0
66,16.25,28.3493,29.6988,146.969,99.08,88.5382,0.000920959,0.0666064,21.0408,198.341,1.00147,0.0,0.0
77,19,28.0041,30.1335,149.371,99.0744,82.24,0.00118716,0.0711963,21.0352,198.041,1.6579,0.0,0.0
88,21.75,28.9101,30.7447,147.297,99.0507,78.9067,0.00151145,0.0763389,21.0324,197.55,2.02412,0.0,0.0
99,24.5,28.9376,30.1679,142.957,99.0302,71.8122,0.00203826,0.0809066,21.0309,197.06,2.86099,0.0,0.0
110,27.25,29.0012,30.7302,143.556,99.0085,65.3177,0.00279386,0.0849798,21.0286,196.559,3.70292,0.0,0.0
121,30,29.5775,31.1242,138.289,98.992,83.5552,0.00706358,0.107222,21.0137,196.109,1.50926,0.0,0.0
132,32.75,30.4405,31.7818,134.107,98.9896,61.3497,0.0175556,0.163753,20.8915,195.689,4.25916,0.0,1.0
143,35.5,31.3093,33.0365,131.021,98.9764,44.427,0.0284409,0.228427,20.7741,195.138,7.13118,0.0,1.0
154,38.25,32.3582,34.0321,142.467,98.9699,43.3459,0.0364905,0.264053,20.6918,194.497,7.34992,0.0,0.0
165,41,33.7893,35.4968,132.479,98.9563,49.7764,0.0399503,0.298924,20.6345,193.957,6.11723,0.0,0.0
176,43.75,35.0118,37.0354,133.511,98.9451,47.0031,0.0422516,0.337502,20.5755,193.406,6.62656,0.0,0.0
187,46.5,36.46,38.3587,135.312,98.9322,43.7762,0.0436251,0.359158,20.5371,192.866,7.25858,0.0,0.0
198,49.25,37.6785,39.9119,135.612,98.937,47.7095,0.0419938,0.358048,20.5369,192.375,6.49305,0.0,0.0
209,52,38.699,41.4169,129.491,98.9242,56.0979,0.0377887,0.340034,20.5697,191.985,5.04998,0.0,0.0
220,54.75,39.3773,42.4268,139.888,98.9137,59.438,0.032672,0.314475,20.6192,191.625,4.53416,0.0,0.0
231,57.5,40.0965,42.5869,133.728,98.8985,61.0491,0.0285302,0.285537,20.6701,191.324,4.29469,0.0,0.0
242,60.25,40.9335,43.2782,135.72,98.9049,62.1841,0.0252571,0.259028,20.7167,191.074,4.13128,0.0,0.0
253,63,40.8499,43.2965,134.168,98.8993,66.705,0.0227225,0.236078,20.7544,190.824,3.50599,0.0,0.0
264,65.75,40.9154,44.0575,136.481,98.8896,68.4997,0.0204812,0.21854,20.7842,190.594,3.26877,0.0,0.0
275,68.5,41.7935,44.2835,142.777,98.8784,73.3894,0.0184605,0.206136,20.807,190.403,2.65392,0.0,0.0
286,71.25,41.6467,44.1607,142.361,98.8607,74.4036,0.0168587,0.194903,20.8261,190.183,2.53015,0.0,0.0
297,74,41.4045,44.7264,140.399,98.8704,74.6983,0.0154896,0.186583,20.8423,190.013,2.49583,0.0,0.0
308,76.75,41.8664,44.4615,136.213,98.8555,74.6537,0.0141077,0.179537,20.8516,189.853,2.4998,0.0,0.0
319,79.5,41.8901,44.6083,140.958,98.8406,74.8356,0.0125354,0.175091,20.8594,189.753,2.4768,0.0,0.0
330,82.25,41.5834,44.7311,139.649,98.8479,75.3257,0.0112699,0.172012,20.8652,189.623,2.41934,0.0,0.0
341,85,41.8433,44.3494,139.862,98.8551,78.135,0.00999035,0.167112,20.8732,189.493,2.09401,0.0,0.0
352,87.75,41.4983,44.4385,139.981,98.8362,80.9452,0.00877423,0.16193,20.8853,189.402,1.77776,0.0,0.0
363,90.5,41.2068,44.274,138.131,98.835,82.7818,0.00781976,0.156334,20.8951,189.302,1.5779,0.0,0.0
374,93.25,41.4252,44.2883,141.727,98.8145,83.1541,0.00709091,0.15199,20.904,189.242,1.53612,0.0,0.0
385,96,41.0402,44.415,141.203,98.8137,84.758,0.00646605,0.148167,20.9109,189.192,1.36597,0.0,0.0
396,98.75,41.1845,43.8977,136.886,98.8238,86.2195,0.00556391,0.145158,20.9149,189.102,1.21468,0.0,0.0
407,101.5,40.4277,43.8933,143.063,98.8234,87.8268,0.00482544,0.142054,20.9195,189.062,1.05021,0.0,0.0
418,104.25,40.6642,43.7208,141.044,98.8166,89.4854,0.00431372,0.138502,20.9257,189.012,0.883037,0.0,0.0
429,107,40.4861,43.0204,145.391,98.8129,89.6533,0.0042581,0.134176,20.9339,188.982,0.866024,0.0,0.0
440,109.75,40.3035,43.113,142.799,98.8021,91.5192,0.00444231,0.128873,20.9441,188.932,0.681665,0.0,0.0
451,112.5,39.5621,42.8504,143.309,98.823,92.8424,0.00453318,0.122346,20.9554,188.922,0.55575,0.0,0.0
462,115.25,39.7825,42.5634,146.198,98.8603,94.0584,0.00467578,0.116658,20.9656,188.872,0.443273,0.0,0.0
473,118,39.3936,42.0148,142.9,98.8643,95.2481,0.0050836,0.110761,20.9739,188.852,0.33174,0.0,0.0
484,120.75,39.4072,41.7295,149.138,98.8394,94.4099,0.00551209,0.105756,20.9815,188.852,0.408188,0.0,0.0
495,123.5,38.0545,41.3514,146.778,98.8499,95.0781,0.00600095,0.101716,20.9873,188.802,0.346343,0.0,0.0
506,126.25,38.1286,40.9149,143.18,98.872,94.8885,0.00647338,0.098963,20.9904,188.782,0.366094,0.0,0.0
517,129,37.9665,40.655,145.43,98.8904,95.4075,0.0067489,0.0971005,20.9932,188.732,0.319203,0.0,0.0
528,131.75,37.5931,40.3451,143.204,98.9013,95.3893,0.00688949,0.0955656,20.9945,188.702,0.32188,0.0,0.0
539,134.5,37.5064,40.0874,144.493,98.8969,94.9229,0.00720171,0.0948628,20.9953,188.672,0.365115,0.0,0.0
550,137.25,36.8124,39.3388,143.497,98.9202,95.357,0.00761602,0.0941252,20.9968,188.642,0.326586,0.0,0.0
561,140,36.2344,39.2792,139.55,98.9226,94.6876,0.00784941,0.0934271,20.9963,188.642,0.389525,0.0,0.0
572,142.75,36.1796,38.2795,147.349,98.9085,95.2472,0.00791667,0.0933955,20.9954,188.632,0.335796,0.0,0.0
583,145.5,35.8208,38.3763,143.576,98.9001,95.3566,0.00794173,0.0936682,20.9958,188.582,0.324818,0.0,0.0
594,148.25,35.9328,38.3747,142.78,98.8888,96.2262,0.00804013,0.0935886,20.9974,188.542,0.24299,0.0,0.0
605,151,35.5445,37.7947,142.303,98.8824,95.6975,0.00807965,0.0935978,20.998,188.512,0.29146,0.0,0.0
616,153.75,34.9221,37.3426,148.994,98.8567,95.4257,0.00783387,0.0934092,20.9995,188.502,0.314464,0.0,0.0
627,156.5,35.2253,37.7298,146.923,98.8105,95.8717,0.00754069,0.0931125,21.0003,188.462,0.268791,0.0,0.0
638,159.25,35.0984,37.1884,147.014,98.8057,95.416,0.00735803,0.092988,21,188.432,0.310779,0.0,0.0
649,162,34.9446,37.4588,144.757,98.8089,95.4571,0.00732279,0.093122,21.0014,188.402,0.307233,0.0,0.0
660,164.75,34.0584,36.4273,145.546,98.8153,95.6589,0.00740572,0.0932058,21.0019,188.402,0.289011,0.0,0.0
671,167.5,34.155,36.6186,144.405,98.8174,96.138,0.00742207,0.0930354,21.002,188.381,0.244716,0.0,0.0
682,170.25,34.353,36.5192,145.216,98.8254,95.5716,0.00728976,0.092895,21.0017,188.331,0.298047,0.0,0.0
693,173,34.2847,36.4256,146.298,98.8149,95.5313,0.00718986,0.0928201,21.0015,188.321,0.300859,0.0,0.0
704,175.75,33.4067,36.4444,143.377,98.825,95.65,0.00696081,0.0924911,21.0015,188.281,0.290708,0.0,0.0
715,178.5,34.3399,36.433,144.472,98.8262,95.4859,0.00677877,0.092244,21.0015,188.261,0.306101,0.0,0.0
726,181.25,33.868,35.5435,145.551,98.8326,95.53,0.00645435,0.0919087,21.0009,188.221,0.30257,0.0,0.0
737,184,34.2472,36.1386,140.958,98.831,95.7017,0.00624763,0.0917018,21.0029,188.201,0.286437,0.0,0.0
748,186.75,33.5094,36.1702,144.09,98.8402,96.0172,0.00607247,0.0915859,21.0035,188.171,0.257974,0.0,0.0
759,189.5,32.9878,35.4381,144.009,98.8491,95.929,0.00589062,0.0913744,21.0037,188.171,0.26695,0.0,0.0
770,192.25,33.2789,35.3866,147.022,98.8491,95.4295,0.00564739,0.0912767,21.0038,188.141,0.313421,0.0,0.0
781,195,33.4225,35.8686,142.628,98.8575,95.5779,0.00529995,0.0911699,21.0038,188.141,0.300347,0.0,0.0
792,197.75,33.2654,35.5098,144.315,98.8615,95.8022,0.0052909,0.0909716,21.0049,188.111,0.279844,0.0,0.0
803,200.5,32.9606,34.9388,147.784,98.874,95.7882,0.00523245,0.0907727,21.0058,188.061,0.282264,0.0,0.0
814,203.25,32.9477,35.2976,144.361,98.8832,95.2544,0.00506235,0.0905865,21.006,188.041,0.332845,0.0,0.0
825,206,33.3126,35.285,145.159,98.8993,95.5444,0.00509104,0.0901484,21.0073,188.021,0.307229,0.0,0.0
836,208.75,33.142,35.3406,140.935,98.8929,95.6559,0.00496269,0.090055,21.0067,188.001,0.296267,0.0,0.0
847,211.5,33.3569,35.3428,142.78,98.8997,95.2544,0.00478417,0.0898424,21.0063,187.981,0.334327,0.0,0.0
858,214.25,33.1899,35.0669,143.634,98.9198,95.8586,0.00478437,0.0896472,21.0062,187.971,0.279846,0.0,0.0
869,217,33.0554,35.109,145.398,98.9161,95.7738,0.00483788,0.0896316,21.008,187.941,0.287401,0.0,0.0
880,219.75,33.2086,34.6906,142.205,98.9173,95.9358,0.00475029,0.0897249,21.0086,187.921,0.272466,0.0,0.0
891,222.5,33.2184,34.6286,141.131,98.9322,95.6937,0.00453839,0.0896791,21.009,187.901,0.296298,0.0,0.0
902,225.25,33.2226,35.0606,143.331,98.9406,96.2707,0.00451048,0.0894778,21.0105,187.871,0.243535,0.0,0.0
913,228,33.6216,34.3655,145.604,98.9575,95.4499,0.00429319,0.0895013,21.011,187.841,0.321282,0.0,0.0
924,230.75,32.8565,34.7954,143.457,98.9635,95.6971,0.00394103,0.089709,21.0111,187.831,0.298799,0.0,0.0
935,233.5,32.7467,34.15,141.47,98.9788,95.6178,0.00367852,0.0896297,21.0097,187.811,0.30755,0.0,0.0
946,236.25,33.285,34.8507,145.234,98.99,95.8111,0.00346352,0.0894495,21.0103,187.771,0.29058,0.0,0.0
957,239,32.3714,34.0934,145.588,99.0005,95.6657,0.00324671,0.089089,21.0102,187.751,0.305042,0.0,0.0
968,241.75,33.6079,34.8397,146.612,99.0121,95.8595,0.00324448,0.0890767,21.01,187.751,0.288076,0.0,0.0
979,244.5,33.1932,34.593,145.471,99.0334,95.5792,,0.0887958,,187.711,0.316055,0.0,0.0
990,247.25,33.0422,34.6367,143.77,99.033,95.5003,,,,187.691,0.323367,0.0,0.0
1001,250,32.8614,34.5265,144.996,99.0342,95.848,,,,187.671,0.291126,0.0,0.0
1012,252.75,32.6038,34.4713,140.529,99.0555,96.082,,,,187.651,0.271327,0.0,0.0
1021,255,33.0127,34.1972,144.373,99.0627,95.7208,,,,187.641,0.305509,0.0,0.0