File: 01_Data/Vinyl_Siding/Cone/Vinyl_Siding_Cone_HF75Scan_220331_R2.csv
Names,Time,Stack TC,Smoke TC,Exh Press,Smoke Comp,Smoke Meas,CO Meter,CO2 Meter,O2 Meter,Sample Mass,Ext Coeff,Start Test,Flame Verif
Chan Gain,,500,500,1,1,1,1,1,1,1,1,1.0,1.0
Offset,,0,0,0.133521,0,0,0,0,0,0,0,0.0,0.0
Gain,,1,1,25.011,13.1585,13.8929,1,1,1,1.00096,1.01488,1.0,1.0
Units,sec,C,C,Pa,%,%,%,%,%,g,/m,,
Baseline,,41.9772,44.1671,139.526,98.2303,95.6881,0.000711137,0.0647215,21.0357,-835.675,0.23351,,
10,2.25,40.5784,42.3764,135.369,97.8673,95.0221,0.000611367,0.0692466,21.0329,197.5,0.262646,0.0,0.0
20,4.75,40.589,42.6949,138.856,97.8801,95.4732,0.000689686,0.0680696,21.034,198.832,0.22165,0.0,0.0
30,7.25,40.8514,42.2147,141.236,97.8861,94.3374,0.000909644,0.0670877,21.0329,196.86,0.328746,0.0,0.0
40,9.75,40.427,42.5285,140.303,97.9082,78.517,0.00165436,0.0678618,21.0296,197.04,1.96491,0.0,0.0
50,12.25,40.9373,42.8241,137.465,97.9074,56.2094,0.00347892,0.0728208,21.0242,195.759,4.94032,0.0,0.0
60,14.75,41.6583,43.5216,135.089,97.9235,43.7143,0.0106101,0.0895846,21.0099,191.394,7.17994,0.0,0.0
70,17.25,42.0869,44.1412,122.443,97.9383,37.5382,0.0281533,0.180156,20.8227,195.368,8.53728,0.0,1.0
80,19.75,44.0246,46.2685,119.943,97.9608,32.6319,0.0443281,0.309932,20.5972,194.417,9.78628,0.0,1.0
90,22.25,46.0272,48.2521,124.127,97.966,38.9959,0.0502947,0.372597,20.5,193.817,8.20065,0.0,1.0
100,24.75,47.5341,50.2637,132.446,97.997,46.5885,0.0486336,0.375442,20.5086,193.326,6.61973,0.0,0.0
110,27.25,48.2932,51.6979,124.125,98.0022,58.4175,0.0441557,0.352058,20.5559,192.886,4.60591,0.0,0.0
120,29.75,49.4026,52.2898,128.565,98.0343,65.8036,0.0386621,0.32893,20.607,192.535,3.54891,0.0,0.0
130,32.25,50.6339,54.0204,131.434,98.0375,72.073,0.0337147,0.307447,20.6479,192.215,2.73903,0.0,0.0
140,34.75,51.4161,54.748,130.508,98.068,67.7442,0.0297066,0.290721,20.6795,191.875,3.29323,0.0,0.0
150,37.25,52.18,55.4825,126.781,98.0897,64.4482,0.0274247,0.274335,20.7045,191.565,3.73923,0.0,0.0
160,39.75,52.6126,56.1913,129.882,98.1062,63.5743,0.0262351,0.264904,20.7139,191.294,3.86226,0.0,0.0
170,42.25,53.3394,56.7149,129.236,98.1484,60.7943,0.025416,0.2546,20.7272,191.014,4.26414,0.0,0.0
180,44.75,53.0996,56.7785,130.083,98.1845,64.4206,0.0244104,0.240482,20.7471,190.774,3.75164,0.0,0.0
190,47.25,53.8401,56.9791,132.263,98.2078,64.0899,0.0232077,0.228241,20.7642,190.524,3.79957,0.0,0.0
200,49.75,54.1749,57.9435,133.526,98.2347,67.2061,0.0219337,0.217222,20.7819,190.343,3.37933,0.0,0.0
210,52.25,54.6476,58.405,134.648,98.2757,66.713,0.0208128,0.208772,20.7943,190.163,3.4486,0.0,0.0
220,54.75,54.5598,58.3394,131.264,98.3005,68.6383,0.0198756,0.202709,20.8045,189.953,3.19758,0.0,0.0
230,57.25,54.0644,57.9347,134.642,98.3367,72.4868,0.0190716,0.196683,20.8152,189.723,2.71519,0.0,0.0
240,59.75,54.5634,58.5357,125.385,98.3604,72.8103,0.0181922,0.191154,20.8233,189.563,2.67769,0.0,0.0
250,62.25,54.0513,58.2984,132.296,98.4122,73.3695,0.0172626,0.187358,20.8291,189.412,2.61427,0.0,0.0
260,64.75,54.5815,58.6288,134.54,98.4495,73.5819,0.0164087,0.182806,20.8363,189.242,2.59191,0.0,0.0
270,67.25,55.058,58.6645,135,98.5126,75.0824,0.0156906,0.178156,20.845,189.072,2.4179,0.0,0.0
280,69.75,54.4985,58.4883,135.862,98.5387,76.7673,0.0151062,0.173995,20.8513,188.912,2.22269,0.0,0.0
290,72.25,54.7682,58.8163,134.875,98.5832,76.0295,0.0146378,0.169623,20.8583,188.792,2.31268,0.0,0.0
300,74.75,54.2699,58.7019,133.843,98.6085,75.8731,0.0141168,0.165021,20.8643,188.652,2.3333,0.0,0.0
310,77.25,54.4181,58.566,135.757,98.6531,77.1722,0.0134195,0.160561,20.8719,188.532,2.18619,0.0,0.0
320,79.75,54.4776,58.4472,129.809,98.6973,77.6487,0.0126532,0.157608,20.8766,188.402,2.13537,0.0,0.0
330,82.25,54.1901,58.2192,135.048,98.7093,80.218,0.0120446,0.156345,20.8782,188.331,1.84665,0.0,0.0
340,84.75,54.1609,58.2534,130.468,98.7507,79.2581,0.0112498,0.155516,20.8793,188.211,1.95755,0.0,0.0
350,87.25,53.8197,58.0012,132.504,98.776,80.734,0.010526,0.154385,20.8815,188.141,1.79558,0.0,0.0
360,89.75,54.1095,57.4999,133.188,98.8186,80.8358,0.00981385,0.152977,20.8851,188.031,1.7882,0.0,0.0
370,92.25,53.9251,57.6117,133.61,98.8366,83.2346,0.00901203,0.151056,20.8901,187.981,1.52949,0.0,0.0
380,94.75,53.4739,57.4794,134.116,98.8712,83.6438,0.00839736,0.148702,20.8956,187.871,1.48894,0.0,0.0
390,97.25,53.4697,57.3721,131.074,98.8916,86.0838,0.00795855,0.146393,20.8999,187.851,1.23481,0.0,0.0
400,99.75,53.1896,57.3605,137.826,98.9278,87.7869,0.00724048,0.144089,20.9053,187.761,1.06365,0.0,0.0
410,102.25,52.9456,56.9094,132.947,98.9515,88.6794,0.00650183,0.141744,20.9104,187.701,0.975732,0.0,0.0
420,104.75,53.0349,56.9456,138.369,98.9704,89.7771,0.0060443,0.139345,20.9149,187.661,0.86791,0.0,0.0
430,107.25,51.8063,57.4548,132.317,98.9784,90.0976,0.00589195,0.135837,20.9192,187.601,0.836905,0.0,0.0
440,109.75,52.6019,56.5857,133.844,98.9961,93.3156,0.00601803,0.1319,20.9273,187.601,0.526073,0.0,0.0
450,112.25,52.4829,56.2358,139.509,99.0109,93.9053,0.00628016,0.124858,20.943,187.531,0.471322,0.0,0.0
460,114.75,51.959,55.9752,141.432,99.0338,95.2379,0.00670402,0.116772,20.9563,187.491,0.347937,0.0,0.0
470,117.25,51.8452,55.5581,136.235,99.0274,95.7602,0.00713173,0.111068,20.9636,187.451,0.298667,0.0,0.0
480,119.75,50.8701,54.937,134.358,99.0599,96.0134,0.00734541,0.107916,20.9683,187.431,0.27809,0.0,0.0
490,122.25,51.0436,54.9824,135.19,99.074,95.8561,0.00760737,0.106735,20.9711,187.441,0.29395,0.0,0.0
500,124.75,50.2342,53.8244,138.239,99.0732,96.9834,0.00783937,0.105312,20.9729,187.35,0.189787,0.0,0.0
510,127.25,49.6224,53.5577,136.238,99.1113,95.7628,0.00775383,0.103601,20.9759,187.31,0.305972,0.0,0.0
520,129.75,49.7804,52.7961,135.628,99.1157,96.6913,0.00762508,0.101945,20.9799,187.29,0.220467,0.0,0.0
530,132.25,49.2211,53.436,137.282,99.1358,96.1291,0.00749141,0.100081,20.9837,187.25,0.274183,0.0,0.0
540,134.75,48.3812,52.1916,138.144,99.1338,96.5302,0.00725703,0.0986825,20.9871,187.19,0.236935,0.0,0.0
550,137.25,48.5594,52.4115,134.677,99.1587,96.071,0.00697353,0.0974001,20.9897,187.15,0.281619,0.0,0.0
560,139.75,47.9435,52.5721,138.93,99.1643,96.0918,0.00660048,0.0964566,20.991,187.11,0.280199,0.0,0.0
570,142.25,47.7937,51.7783,138.464,99.1872,96.6599,0.00648457,0.0955735,20.9924,187.07,0.229773,0.0,0.0
580,144.75,48.4044,51.8925,139.693,99.1719,96.4395,0.00648498,0.0949083,20.9934,187.06,0.248731,0.0,0.0
590,147.25,48.5854,52.1512,137.979,99.184,96.2504,0.00646073,0.0945077,20.9934,186.99,0.267286,0.0,0.0
600,149.75,47.9453,51.3399,134.744,99.178,96.6218,0.00650828,0.094436,20.9933,186.97,0.232459,0.0,0.0
610,152.25,47.6974,50.9301,135.561,99.1748,96.5577,0.00648224,0.0944832,20.9932,186.95,0.238071,0.0,0.0
620,154.75,47.3714,50.8914,138.422,99.1739,97.1492,0.00636334,0.094259,20.9933,186.91,0.183635,0.0,0.0
630,157.25,47.1378,50.5992,139.413,99.1756,96.8507,0.00624951,0.0940608,20.9938,186.9,0.211174,0.0,0.0
640,159.75,47.2484,50.7968,136.467,99.1603,96.4751,0.00615871,0.0941601,20.9941,186.85,0.2444,0.0,0.0
650,162.25,46.9395,50.1191,139.246,99.1462,96.2457,0.00598448,0.0943063,20.9942,186.82,0.264329,0.0,0.0
660,164.75,46.9042,50.2774,138.532,99.1406,96.5179,0.00581664,0.0943147,20.9935,186.8,0.238682,0.0,0.0
670,167.25,46.9766,50.2758,134.435,99.0964,96.6943,0.00566733,0.0944302,20.9935,186.78,0.218461,0.0,0.0
680,169.75,46.8768,50.0241,135.479,99.078,96.7659,0.00544348,0.0946022,20.9925,186.77,0.210208,0.0,0.0
690,172.25,46.9609,49.9231,138.021,99.033,96.7044,0.00531094,0.0946846,20.9921,186.72,0.211823,0.0,0.0
700,174.75,46.3878,49.5331,137.241,99.0193,96.4412,0.005278,0.0946314,20.9932,186.71,0.234867,0.0,0.0
710,177.25,46.0026,48.9618,137.034,98.9944,96.1198,0.00523215,0.0947322,20.9939,186.68,0.262344,0.0,0.0
720,179.75,46.1225,49.1367,135.995,98.9752,95.9447,0.00508998,0.0947714,20.9943,186.65,0.276842,0.0,0.0
730,182.25,46.6537,49.599,136.196,98.9362,96.1287,0.00491834,0.0944634,20.9944,186.63,0.256281,0.0,0.0
740,184.75,46.2371,49.4701,137.149,98.9149,96.0685,0.00480387,0.0943263,20.9944,186.6,0.259943,0.0,0.0
750,187.25,46.2919,48.9288,140.683,98.8912,96.2249,0.00469527,0.0942199,20.9956,186.59,0.243325,0.0,0.0
760,189.75,46.6093,49.2397,137.989,98.8599,95.681,0.00457388,0.094053,20.9979,186.57,0.290974,0.0,0.0
770,192.25,46.1555,49.2689,139.21,98.8266,96.121,0.00458704,0.0938013,20.9987,186.53,0.247118,0.0,0.0
780,194.75,46.0242,49.1732,137.578,98.8037,96.5103,0.00450149,0.0939063,20.999,186.51,0.209081,0.0,0.0
790,197.25,46.1368,48.5283,139.999,98.8045,96.0685,0.00434644,0.0938785,20.9991,186.46,0.249999,0.0,0.0
800,199.75,45.9051,48.4316,135.094,98.7804,96.2237,0.00429439,0.0935188,21.0007,186.49,0.233459,0.0,0.0
810,202.25,45.5869,48.8641,134.721,98.776,95.9803,0.00420188,0.0934964,21.0012,186.45,0.255605,0.0,0.0
820,204.75,45.8496,48.0803,135.561,98.7619,96.3373,0.00395847,0.0932516,21.0014,186.42,0.221288,0.0,0.0
830,207.25,45.5584,48.0974,136.59,98.7684,96.3843,0.00386562,0.093256,21.0015,186.4,0.21752,0.0,0.0
840,209.75,44.942,47.7407,135.24,98.7419,95.575,0.00401257,0.0932781,21.0011,186.37,0.290203,0.0,0.0
850,212.25,45.4637,47.929,139.664,98.7471,95.6848,0.00399559,0.0929673,21.0008,186.329,0.280452,0.0,0.0
860,214.75,45.0613,48.0335,137.157,98.7306,96.9495,0.00403637,0.0926499,21.0007,186.319,0.162068,0.0,0.0
870,217.25,45.1717,47.7835,135.424,98.7358,95.8866,0.00417924,0.0926689,21.0007,186.299,0.260681,0.0,0.0
880,219.75,45.5915,48.2238,135.031,98.7178,96.0859,0.00402604,0.0923795,20.9999,186.289,0.24057,0.0,0.0
890,222.25,45.0911,48.4141,136.809,98.7314,96.0664,0.00359519,0.0922313,21.0009,186.279,0.243608,0.0,0.0
900,224.75,45.6618,48.1874,136.473,98.7226,96.4488,0.00315406,0.0920971,21.0032,186.239,0.207442,0.0,0.0
910,227.25,45.3647,47.7932,136.87,98.7198,96.7121,0.00308248,0.0917863,21.0051,186.239,0.182919,0.0,0.0
920,229.75,45.1581,47.8459,137.237,98.7318,96.3216,0.00319975,0.0914398,21.0058,186.229,0.220023,0.0,0.0
930,232.25,45.6752,48.3679,134.531,98.7182,95.8722,,0.0911444,,186.249,0.260426,0.0,0.0
940,234.75,45.2749,47.8929,137.175,98.7178,95.9951,,,,186.259,0.248979,0.0,0.0
950,237.25,44.971,48.0558,136.889,98.7551,95.9502,,,,186.189,0.256516,0.0,0.0
960,239.75,45.2006,47.7285,135.671,98.7716,95.9417,,,,186.109,0.258787,0.0,0.0
969,242,44.734,47.8105,134.52,98.8117,96.4836,,,,186.129,0.212269,0.0,0.0