File: 01_Data/Vinyl_Siding/Cone/Vinyl_Siding_Cone_HF50Scalar_220331_R3.csv
LABORATORY,FSRI
TEST IDENT,Vinyl_Siding_HF50_3
OPERATOR,Dow
MATERIAL,Vinyl Siding
ORIENTATION,Horizontal
HEAT FLUX,50
SURF AREA,0.01
C FACTOR,0.0397155
SPEC HOLDER DIFF,-566
SPECIMEN MASS,14.07
SCAN TIME,0.25
O2 DELAY TIME,11
CO DELAY TIME,11
CO2 DELAY TIME,8
FLOW FACTOR,1
SCAN COUNT,1004
TIME TO IGN,33
END OF TEST SCAN,524
END OF TEST TIME,131
TEST STATUS,1
PRE TEST CMT,Dimensions: 102.29 x 100.00 x 0.94 mm; with frame; with calcium silicate substrate