File: 01_Data/Wool_Rug/STA/N2/10K_min/Wool_Rug_STA_N2_10KData_220114_R1.csv
##Temp./Â°C,Time/min,Mass loss(subtr.2)/mg,DSC(subtr.2)/(mW/mg),Sensit./(uV/mW)
49.142,10.01,-0.0409,0.0313994,1.07448
52.342,11.31958,-0.04201091,0.13899,1.07425
55.542,11.77566,-0.04454063,0.18759,1.074
58.742,12.16521,-0.04332394,0.21755,1.07372
61.942,12.53017,-0.04452041,0.23731,1.07342
65.142,12.88482,-0.04735547,0.25662,1.0731
68.342,13.23255,-0.04980785,0.26953,1.07275
71.542,13.57346,-0.05200756,0.28725,1.07238
74.742,13.9114,-0.05208813,0.30222,1.07198
77.942,14.24629,-0.05672045,0.31612,1.07156
81.142,14.57717,-0.05684713,0.32661,1.07111
84.342,14.9049,-0.06030089,0.33693,1.07065
87.542,15.22887,-0.06689311,0.34408,1.07016
90.742,15.55076,-0.06517382,0.34622,1.06964
93.942,15.87009,-0.06733999,0.34356,1.0691
97.142,16.1864,-0.06997222,0.34246,1.06854
100.342,16.50173,-0.07019101,0.33828,1.06796
103.542,16.8166,-0.07567336,0.32928,1.06735
106.742,17.13055,-0.07601051,0.3238,1.06672
109.942,17.4439,-0.07864425,0.31682,1.06606
113.142,17.75631,-0.07701867,0.31072,1.06538
116.342,18.07048,-0.07925529,0.30263,1.06468
119.542,18.38276,-0.0811522,0.29869,1.06396
122.742,18.6947,-0.07862384,0.29151,1.06321
125.942,19.0063,-0.08285415,0.29034,1.06244
129.142,19.3172,-0.08324265,0.28828,1.06165
132.342,19.62793,-0.08346415,0.28733,1.06083
135.542,19.9375,-0.08413001,0.2883,1.05999
138.742,20.24704,-0.08557294,0.28563,1.05913
141.942,20.5562,-0.08664759,0.28748,1.05825
145.142,20.8651,-0.08567236,0.28832,1.05734
148.342,21.17292,-0.08555236,0.29125,1.05641
151.542,21.4804,-0.08686,0.29152,1.05546
154.742,21.78845,-0.08423007,0.29255,1.05449
157.942,22.09592,-0.08916484,0.29721,1.05349
161.142,22.40292,-0.08816353,0.29886,1.05248
164.342,22.70981,-0.08906,0.30303,1.05144
167.542,23.01686,-0.0891517,0.30462,1.05038
170.742,23.32389,-0.08764487,0.31049,1.04929
173.942,23.63,-0.08950055,0.31218,1.04819
177.142,23.9364,-0.09211984,0.31281,1.04706
180.342,24.24237,-0.09213,0.31723,1.04591
183.542,24.5477,-0.09213,0.32145,1.04475
186.742,24.85398,-0.09212964,0.32346,1.04355
189.942,25.15961,-0.09224016,0.32481,1.04234
193.142,25.46482,-0.09519974,0.32972,1.04111
196.342,25.77027,-0.09520028,0.33456,1.03986
199.542,26.07635,-0.09692726,0.33994,1.03858
202.742,26.3824,-0.09816,0.35161,1.03728
205.942,26.6882,-0.10099,0.36083,1.03597
209.142,26.99355,-0.10463,0.37368,1.03463
212.342,27.29944,-0.10608,0.38674,1.03327
215.542,27.6058,-0.10865,0.40261,1.03189
218.742,27.911,-0.11401,0.4252,1.03049
221.942,28.21663,-0.11695,0.45376,1.02908
225.142,28.523,-0.12374,0.49482,1.02764
228.342,28.8288,-0.13147,0.54211,1.02618
231.542,29.1348,-0.13825,0.58526,1.0247
234.742,29.4411,-0.15062,0.62822,1.0232
237.942,29.7469,-0.1636,0.64883,1.02168
241.142,30.0527,-0.17834,0.65484,1.02014
244.342,30.3582,-0.20008,0.65415,1.01858
247.542,30.66392,-0.21103,0.6545,1.01701
250.742,30.96978,-0.23075,0.65244,1.01541
253.942,31.27477,-0.24431,0.65343,1.01379
257.142,31.57992,-0.26389,0.65018,1.01216
260.342,31.8849,-0.28479,0.6361,1.0105
263.542,32.19012,-0.30241,0.63543,1.00883
266.742,32.49555,-0.32463,0.63671,1.00714
269.942,32.7996,-0.346,0.63607,1.00543
273.142,33.10647,-0.36839,0.6381,1.0037
276.342,33.41282,-0.39077,0.64189,1.00196
279.542,33.7189,-0.41514,0.6448,1.00019
282.742,34.02531,-0.44079,0.64287,0.99841
285.942,34.33157,-0.46742,0.64234,0.99661
289.142,34.6387,-0.49253,0.64389,0.99479
292.342,34.94578,-0.52379,0.64388,0.99295
295.542,35.25335,-0.55516,0.64461,0.9911
298.742,35.5606,-0.58982,0.65003,0.98923
301.942,35.86813,-0.6256,0.65667,0.98734
305.142,36.17539,-0.66311,0.66449,0.98544
308.342,36.4829,-0.70315,0.6697,0.98351
311.542,36.7906,-0.75168,0.67182,0.98157
314.742,37.09924,-0.79219,0.66195,0.97962
317.942,37.40713,-0.84687,0.65477,0.97764
321.142,37.71532,-0.89329,0.63614,0.97565
324.342,38.02257,-0.95213,0.61536,0.97365
327.542,38.33078,-1.00004,0.5914,0.97163
330.742,38.6376,-1.0573,0.56601,0.96959
333.942,38.94533,-1.11716,0.53912,0.96753
337.142,39.25322,-1.17159,0.51354,0.96546
340.342,39.561,-1.22966,0.49105,0.96338
343.542,39.8695,-1.28756,0.46979,0.96128
346.742,40.1791,-1.341,0.44658,0.95916
349.942,40.48868,-1.39165,0.42693,0.95703
353.142,40.79772,-1.44137,0.40778,0.95488
356.342,41.10808,-1.48067,0.39328,0.95272
359.542,41.41741,-1.52086,0.38105,0.95054
362.742,41.7266,-1.55416,0.36787,0.94835
365.942,42.03712,-1.58517,0.35561,0.94614
369.142,42.34717,-1.61792,0.34974,0.94392
372.342,42.65729,-1.64619,0.34021,0.94169
375.542,42.96738,-1.67426,0.33461,0.93944
378.742,43.2776,-1.69708,0.32934,0.93718
381.942,43.58821,-1.72309,0.32356,0.9349
385.142,43.89933,-1.74106,0.3186,0.93261
388.342,44.21049,-1.76654,0.31676,0.9303
391.542,44.5224,-1.78972,0.31216,0.92799
394.742,44.83392,-1.80844,0.30913,0.92565
397.942,45.14563,-1.83587,0.30758,0.92331
401.142,45.4574,-1.8485,0.30307,0.92095
404.342,45.76917,-1.87239,0.29866,0.91858
407.542,46.08132,-1.88773,0.29307,0.9162
410.742,46.39288,-1.90921,0.28629,0.9138
413.942,46.7053,-1.92883,0.28336,0.9114
417.142,47.01809,-1.9428,0.27542,0.90898
420.342,47.3313,-1.95815,0.26903,0.90654
423.542,47.6447,-1.97448,0.26358,0.9041
426.742,47.9586,-1.99029,0.26007,0.90164
429.942,48.27244,-2.00334,0.25661,0.89917
433.142,48.58656,-2.01441,0.25024,0.89669
436.342,48.89968,-2.0339,0.2495,0.8942
439.542,49.21285,-2.04416,0.24352,0.8917
442.742,49.52626,-2.05504,0.2369,0.88919
445.942,49.84039,-2.06812,0.23469,0.88666
449.142,50.15481,-2.07724,0.22759,0.88413
452.342,50.46911,-2.09865,0.22414,0.88158
455.542,50.78302,-2.10028,0.21825,0.87903
458.742,51.0974,-2.11606,0.21166,0.87646
461.942,51.41245,-2.1214,0.20734,0.87388
465.142,51.72726,-2.13162,0.2033,0.8713
468.342,52.04211,-2.14088,0.19976,0.8687
471.542,52.35763,-2.15079,0.19504,0.86609
474.742,52.6732,-2.1587,0.18735,0.86348
477.942,52.9896,-2.16518,0.18701,0.86085
481.142,53.3055,-2.17532,0.18445,0.85821
484.342,53.6209,-2.18269,0.18222,0.85557
487.542,53.93711,-2.18812,0.17801,0.85292
490.742,54.25325,-2.19373,0.17634,0.85025
493.942,54.5686,-2.20194,0.17582,0.84758
497.142,54.88437,-2.20558,0.17414,0.8449
500.342,55.20025,-2.21301,0.17006,0.84222
503.542,55.5161,-2.21313,0.17071,0.83952
506.742,55.83203,-2.22343,0.16617,0.83681
509.942,56.14852,-2.22793,0.17095,0.8341
513.142,56.4657,-2.22934,0.17708,0.83138
516.342,56.78337,-2.23473,0.18466,0.82865
519.542,57.10103,-2.24154,0.19058,0.82592
522.742,57.41874,-2.24022,0.19469,0.82317
525.942,57.7367,-2.24686,0.20162,0.82042
529.142,58.0547,-2.24724,0.21029,0.81767
532.342,58.3724,-2.25547,0.21628,0.8149
535.542,58.69039,-2.25832,0.21929,0.81213
538.742,59.00813,-2.26029,0.21292,0.80935
541.942,59.3263,-2.26452,0.20445,0.80657
545.142,59.6452,-2.26975,0.20393,0.80378
548.342,59.9643,-2.27267,0.20121,0.80098
551.542,60.2834,-2.27531,0.1971,0.79817
554.742,60.6024,-2.28321,0.19491,0.79537
557.942,60.9219,-2.28455,0.1938,0.79255
561.142,61.2413,-2.28927,0.19218,0.78973
564.342,61.5605,-2.291,0.18909,0.7869
567.542,61.8795,-2.29857,0.18246,0.78407
570.742,62.1987,-2.29924,0.1791,0.78123
573.942,62.51789,-2.30296,0.17324,0.77839
577.142,62.8374,-2.30954,0.17231,0.77554
580.342,63.1565,-2.31284,0.17015,0.77269
583.542,63.47635,-2.31712,0.16879,0.76983
586.742,63.79655,-2.31842,0.17271,0.76697
589.942,64.11737,-2.3237,0.17202,0.76411
593.142,64.43731,-2.32786,0.17017,0.76124
596.342,64.75783,-2.33082,0.17268,0.75836
599.542,65.07812,-2.33016,0.17322,0.75548
602.742,65.39895,-2.33543,0.17941,0.7526
605.942,65.71992,-2.33806,0.18613,0.74972
609.142,66.04156,-2.34335,0.18397,0.74683
612.342,66.36254,-2.34179,0.18857,0.74393
615.542,66.684,-2.34692,0.19235,0.74104
618.742,67.00538,-2.34872,0.20479,0.73814
621.942,67.32651,-2.35386,0.20786,0.73523
625.142,67.64797,-2.35386,0.21845,0.73233
628.342,67.9695,-2.35835,0.23281,0.72942
631.542,68.2911,-2.36233,0.24443,0.72651
634.742,68.6126,-2.3678,0.26011,0.7236
637.942,68.93455,-2.37407,0.2812,0.72068
641.142,69.25623,-2.3827,0.30885,0.71776
644.342,69.5784,-2.38361,0.33617,0.71484
647.542,69.9003,-2.39182,0.36442,0.71192
650.742,70.22251,-2.39576,0.39287,0.709
653.942,70.54502,-2.4048,0.43162,0.70607
657.142,70.8665,-2.41781,0.466,0.70314
660.342,71.1888,-2.42446,0.50332,0.70021
663.542,71.51087,-2.4383,0.55237,0.69728
666.742,71.83354,-2.44693,0.60131,0.69435
669.942,72.15592,-2.45893,0.65538,0.69142
673.142,72.47836,-2.47149,0.70736,0.68849
676.342,72.8013,-2.49106,0.7645,0.68555
679.542,73.12444,-2.50613,0.81871,0.68262
682.742,73.44795,-2.51547,0.87053,0.67968
685.942,73.77156,-2.54488,0.93266,0.67675
689.142,74.0942,-2.56112,0.98882,0.67381
692.342,74.41722,-2.5773,1.04136,0.67087
695.542,74.74016,-2.60482,1.08734,0.66794
698.742,75.06296,-2.62392,1.12038,0.665
701.942,75.38547,-2.64744,1.12953,0.66206
705.142,75.70858,-2.6758,1.0984,0.65913
708.342,76.03178,-2.69511,1.00464,0.65619
711.542,76.35515,-2.71359,0.83746,0.65325
714.742,76.67815,-2.72334,0.65161,0.65032
717.942,77.0001,-2.73491,0.48967,0.64738
721.142,77.32273,-2.74402,0.3842,0.64445
724.342,77.6464,-2.75143,0.30302,0.64152
727.542,77.9691,-2.76125,0.24535,0.63859
730.742,78.2925,-2.76057,0.20135,0.63566
733.942,78.6152,-2.76428,0.16248,0.63273
737.142,78.9391,-2.76917,0.13411,0.6298
740.342,79.26307,-2.76819,0.11554,0.62688
743.542,79.5872,-2.77156,0.09579791,0.62395
746.742,79.9116,-2.77494,0.08746044,0.62103
749.942,80.23577,-2.77764,0.07774836,0.61811
753.142,80.56079,-2.7779,0.06419672,0.61519
756.342,80.88439,-2.77928,0.0654339,0.61227
759.542,81.20891,-2.77999,0.05595856,0.60936
762.742,81.5333,-2.78262,0.05149343,0.60645
765.942,81.8583,-2.78505,0.05183051,0.60354
769.142,82.1828,-2.78394,0.0486653,0.60063
772.342,82.50697,-2.78811,0.04726226,0.59772
775.542,82.8317,-2.78679,0.03546863,0.59482
778.742,83.15612,-2.78546,0.0362676,0.59192
781.942,83.48093,-2.79458,0.03477507,0.58903
785.142,83.80544,-2.79127,0.03869849,0.58613
788.342,84.13015,-2.78887,0.0370842,0.58324
791.542,84.45452,-2.79787,0.04169748,0.58035
794.742,84.7792,-2.79889,0.03820328,0.57747
796.842,84.9927,-2.79947,0.03634123,0.57558