File: 01_Data/Wool_Rug/STA/N2/10K_min/Wool_Rug_STA_N2_10KData_220118_R2.csv
##Temp./Â°C,Time/min,Mass loss(subtr.2)/mg,DSC(subtr.2)/(mW/mg),Sensit./(uV/mW)
49.328,10.01,0.73446,0.02247939,1.07447
52.428,11.30112,0.73787,0.12716,1.07425
55.528,11.74442,0.73551,0.17775,1.074
58.628,12.12386,0.73656,0.20795,1.07373
61.728,12.477,0.73808,0.22999,1.07344
64.828,12.81933,0.73428,0.24584,1.07313
67.928,13.1562,0.73551,0.26146,1.07279
71.028,13.4874,0.73413,0.27624,1.07244
74.128,13.81495,0.73142,0.28978,1.07206
77.228,14.14021,0.73139,0.30198,1.07165
80.328,14.46089,0.72876,0.31627,1.07123
83.428,14.77943,0.72972,0.32453,1.07078
86.528,15.09428,0.72584,0.33082,1.07031
89.628,15.4074,0.72448,0.33842,1.06982
92.728,15.7177,0.72325,0.33707,1.06931
95.828,16.02599,0.72186,0.33714,1.06877
98.928,16.3328,0.7203,0.33419,1.06822
102.028,16.63795,0.71527,0.32992,1.06764
105.128,16.94281,0.71795,0.32353,1.06704
108.228,17.24767,0.71395,0.31932,1.06641
111.328,17.55153,0.71253,0.31552,1.06577
114.428,17.85432,0.71247,0.31111,1.0651
117.528,18.15689,0.71272,0.30733,1.06442
120.628,18.45954,0.71022,0.30212,1.06371
123.728,18.76098,0.71153,0.29734,1.06298
126.828,19.0627,0.71154,0.29658,1.06222
129.928,19.36371,0.71058,0.29518,1.06145
133.028,19.66435,0.70895,0.29642,1.06065
136.128,19.96483,0.70923,0.29595,1.05984
139.228,20.26445,0.71022,0.2955,1.059
142.328,20.5636,0.71022,0.2976,1.05814
145.428,20.86276,0.70891,0.30001,1.05726
148.528,21.16133,0.71028,0.30056,1.05636
151.628,21.45962,0.71019,0.29987,1.05544
154.728,21.75808,0.71079,0.30563,1.05449
157.828,22.05574,0.70729,0.30677,1.05353
160.928,22.35399,0.70716,0.30993,1.05255
164.028,22.65154,0.70956,0.31334,1.05154
167.128,22.94906,0.70858,0.31793,1.05052
170.228,23.2468,0.70989,0.3209,1.04947
173.328,23.54325,0.70762,0.32745,1.0484
176.428,23.83977,0.70759,0.33001,1.04732
179.528,24.13637,0.70759,0.33375,1.04621
182.628,24.43359,0.70777,0.33727,1.04508
185.728,24.7299,0.70661,0.34176,1.04393
188.828,25.0262,0.70494,0.34697,1.04277
191.928,25.32265,0.703,0.35018,1.04158
195.028,25.6189,0.70429,0.35591,1.04037
198.128,25.91447,0.70101,0.364,1.03915
201.228,26.21108,0.70331,0.37025,1.0379
204.328,26.5071,0.69804,0.37955,1.03663
207.428,26.80262,0.69703,0.38894,1.03535
210.528,27.0994,0.69579,0.40144,1.03404
213.628,27.39514,0.68999,0.41694,1.03272
216.728,27.69165,0.68949,0.43782,1.03138
219.828,27.98745,0.68643,0.46087,1.03001
222.928,28.2839,0.68143,0.49323,1.02863
226.028,28.57964,0.67404,0.53502,1.02723
229.128,28.8757,0.66557,0.58,1.02581
232.228,29.17205,0.65562,0.62724,1.02438
235.328,29.4686,0.64405,0.66859,1.02292
238.428,29.7647,0.63128,0.68962,1.02145
241.528,30.06123,0.62095,0.6954,1.01995
244.628,30.3571,0.60219,0.69038,1.01844
247.728,30.65367,0.58526,0.6922,1.01691
250.828,30.9498,0.57037,0.68757,1.01537
253.928,31.2461,0.55078,0.69197,1.0138
257.028,31.54239,0.535,0.68961,1.01222
260.128,31.8391,0.51578,0.68114,1.01062
263.228,32.13516,0.49574,0.67851,1.009
266.328,32.43132,0.47779,0.68055,1.00736
269.428,32.72783,0.45655,0.68118,1.00571
272.528,33.02446,0.43628,0.68307,1.00404
275.628,33.32172,0.41024,0.6837,1.00235
278.728,33.61807,0.39171,0.69226,1.00064
281.828,33.91426,0.36803,0.6943,0.99892
284.928,34.2108,0.34225,0.69485,0.99718
288.028,34.50704,0.31264,0.69938,0.99543
291.128,34.8033,0.28592,0.69725,0.99365
294.228,35.09989,0.25251,0.70194,0.99186
297.328,35.39655,0.22212,0.71048,0.99006
300.428,35.69381,0.18908,0.71763,0.98824
303.528,35.99087,0.15214,0.72288,0.9864
306.628,36.28832,0.11338,0.72738,0.98454
309.728,36.58654,0.06857082,0.72962,0.98267
312.828,36.8846,0.0274608,0.72901,0.98079
315.928,37.18335,-0.017918,0.72427,0.97889
319.028,37.48155,-0.06980359,0.71653,0.97697
322.128,37.77985,-0.11853,0.69892,0.97504
325.228,38.07819,-0.17201,0.67996,0.97309
328.328,38.37634,-0.22535,0.65543,0.97113
331.428,38.67488,-0.28122,0.63167,0.96915
334.528,38.97351,-0.33455,0.60008,0.96716
337.628,39.27258,-0.39204,0.57693,0.96515
340.728,39.57076,-0.44972,0.55644,0.96313
343.828,39.86967,-0.50418,0.53772,0.96109
346.928,40.1682,-0.5573,0.52127,0.95904
350.028,40.46778,-0.61055,0.5028,0.95697
353.128,40.76716,-0.65561,0.48422,0.95489
356.228,41.0673,-0.69873,0.47116,0.9528
359.328,41.36777,-0.73951,0.45593,0.95069
362.428,41.66737,-0.77212,0.44699,0.94857
365.528,41.96771,-0.80759,0.43424,0.94643
368.628,42.26812,-0.83999,0.42423,0.94428
371.728,42.5685,-0.86842,0.41847,0.94212
374.828,42.8692,-0.89313,0.4117,0.93994
377.928,43.1702,-0.92301,0.40924,0.93775
381.028,43.47101,-0.94461,0.40396,0.93555
384.128,43.7721,-0.97046,0.40034,0.93334
387.228,44.0734,-0.99779,0.39886,0.93111
390.328,44.37527,-1.01903,0.39853,0.92887
393.428,44.6774,-1.04049,0.39456,0.92661
396.528,44.97964,-1.06286,0.38694,0.92435
399.628,45.28195,-1.08302,0.38348,0.92207
402.728,45.58406,-1.10581,0.38248,0.91978
405.828,45.88642,-1.12587,0.38017,0.91748
408.928,46.18906,-1.14612,0.3747,0.91516
412.028,46.49219,-1.16312,0.36678,0.91284
415.128,46.79521,-1.17996,0.36231,0.9105
418.228,47.09856,-1.19594,0.3596,0.90815
421.328,47.40208,-1.21118,0.35581,0.90579
424.428,47.70585,-1.22914,0.34932,0.90342
427.528,48.00992,-1.24657,0.34529,0.90104
430.628,48.314,-1.25624,0.33999,0.89864
433.728,48.6179,-1.26985,0.3347,0.89624
436.828,48.92188,-1.28286,0.33292,0.89382
439.928,49.2265,-1.29481,0.32842,0.8914
443.028,49.53086,-1.30645,0.32452,0.88896
446.128,49.8356,-1.3215,0.32084,0.88652
449.228,50.1397,-1.33566,0.31968,0.88406
452.328,50.44409,-1.34317,0.31562,0.88159
455.428,50.7489,-1.35506,0.3136,0.87912
458.528,51.05341,-1.36435,0.31167,0.87663
461.628,51.3575,-1.37401,0.30747,0.87414
464.728,51.6622,-1.3868,0.3079,0.87163
467.828,51.9674,-1.3935,0.30552,0.86912
470.928,52.27275,-1.40141,0.30248,0.86659
474.028,52.5786,-1.40869,0.29962,0.86406
477.128,52.8844,-1.41655,0.29999,0.86152
480.228,53.1903,-1.41978,0.29388,0.85897
483.328,53.49644,-1.43174,0.29141,0.85641
486.428,53.80287,-1.43586,0.28866,0.85384
489.528,54.10889,-1.44478,0.28594,0.85127
492.628,54.4155,-1.45072,0.28817,0.84868
495.728,54.7218,-1.4563,0.28675,0.84609
498.828,55.02856,-1.46384,0.28575,0.84349
501.928,55.33472,-1.46584,0.28319,0.84088
505.028,55.64151,-1.47303,0.28576,0.83826
508.128,55.94823,-1.47539,0.28384,0.83564
511.228,56.25549,-1.48065,0.28451,0.83301
514.328,56.56265,-1.4846,0.28514,0.83037
517.428,56.8704,-1.49076,0.28809,0.82773
520.528,57.1783,-1.49473,0.29361,0.82507
523.628,57.48621,-1.49604,0.30015,0.82241
526.728,57.7941,-1.50117,0.30716,0.81975
529.828,58.1021,-1.50264,0.31312,0.81707
532.928,58.41025,-1.50796,0.32206,0.81439
536.028,58.7191,-1.5125,0.3269,0.81171
539.128,59.0274,-1.51587,0.33514,0.80902
542.228,59.33534,-1.5162,0.33953,0.80632
545.328,59.6434,-1.52276,0.34272,0.80361
548.428,59.952,-1.52668,0.3422,0.8009
551.528,60.26087,-1.52803,0.34349,0.79819
554.628,60.57017,-1.53352,0.33879,0.79547
557.728,60.8792,-1.54024,0.33769,0.79274
560.828,61.18881,-1.54373,0.34071,0.79001
563.928,61.4982,-1.54373,0.33398,0.78727
567.028,61.80698,-1.5471,0.33279,0.78453
570.128,62.116,-1.55248,0.33555,0.78178
573.228,62.4242,-1.55639,0.33565,0.77903
576.328,62.73304,-1.56052,0.33109,0.77627
579.428,63.04166,-1.56445,0.3307,0.77351
582.528,63.35091,-1.5688,0.33088,0.77074
585.628,63.66123,-1.57465,0.32881,0.76797
588.728,63.97159,-1.57398,0.3315,0.76519
591.828,64.28147,-1.57728,0.33546,0.76242
594.928,64.59192,-1.58135,0.34492,0.75963
598.028,64.90339,-1.58629,0.34095,0.75685
601.128,65.21547,-1.59023,0.33969,0.75406
604.228,65.52715,-1.59132,0.34516,0.75126
607.328,65.83924,-1.59414,0.34552,0.74846
610.428,66.1507,-1.5979,0.35347,0.74566
613.528,66.4618,-1.5979,0.35544,0.74286
616.628,66.77241,-1.60163,0.36082,0.74005
619.728,67.08337,-1.60221,0.37156,0.73724
622.828,67.39398,-1.61184,0.38276,0.73443
625.928,67.70427,-1.61437,0.3928,0.73161
629.028,68.01494,-1.61731,0.41262,0.7288
632.128,68.32585,-1.61765,0.42642,0.72598
635.228,68.63775,-1.62602,0.44682,0.72315
638.328,68.95057,-1.63519,0.46951,0.72033
641.428,69.2637,-1.6376,0.49265,0.7175
644.528,69.57529,-1.64068,0.52132,0.71467
647.628,69.88625,-1.64869,0.54809,0.71184
650.728,70.19707,-1.65754,0.58699,0.70901
653.828,70.5081,-1.66637,0.62203,0.70617
656.928,70.8192,-1.67171,0.6585,0.70334
660.028,71.13114,-1.68287,0.69599,0.7005
663.128,71.44405,-1.69565,0.7356,0.69766
666.228,71.7563,-1.70527,0.78416,0.69482
669.328,72.06886,-1.72279,0.83008,0.69198
672.428,72.3797,-1.72942,0.87505,0.68914
675.528,72.69205,-1.74891,0.93874,0.6863
678.628,73.0043,-1.76051,0.98576,0.68346
681.728,73.31732,-1.77924,1.03685,0.68061
684.828,73.63064,-1.79782,1.09856,0.67777
687.928,73.9436,-1.82035,1.15262,0.67492
691.028,74.2562,-1.83697,1.2013,0.67208
694.128,74.5689,-1.85991,1.24178,0.66923
697.228,74.8818,-1.88001,1.27933,0.66639
700.328,75.19465,-1.90687,1.29095,0.66354
703.428,75.50717,-1.92395,1.27641,0.6607
706.528,75.8195,-1.94993,1.21954,0.65785
709.628,76.13217,-1.96808,1.0816,0.65501
712.728,76.4457,-1.98363,0.90518,0.65217
715.828,76.75891,-1.99472,0.72938,0.64932
718.928,77.07229,-2.0046,0.59969,0.64648
722.028,77.38608,-2.0099,0.50552,0.64364
725.128,77.69922,-2.01921,0.43872,0.6408
728.228,78.0124,-2.02448,0.3809,0.63796
731.328,78.3257,-2.02858,0.34214,0.63512
734.428,78.63968,-2.03127,0.3022,0.63228
737.528,78.95339,-2.03482,0.27381,0.62945
740.628,79.26706,-2.03507,0.25255,0.62661
743.728,79.58025,-2.03882,0.23608,0.62378
746.828,79.89379,-2.04339,0.22342,0.62095
749.928,80.2076,-2.04058,0.21418,0.61812
753.028,80.52294,-2.04301,0.20686,0.61529
756.128,80.83745,-2.0462,0.19967,0.61247
759.228,81.1519,-2.04747,0.19343,0.60964
762.328,81.46645,-2.04981,0.18837,0.60682
765.428,81.78188,-2.04982,0.18489,0.604
768.528,82.09684,-2.05247,0.1842,0.60119
771.628,82.41211,-2.05161,0.1794,0.59837
774.728,82.72662,-2.05512,0.1753,0.59556
777.828,83.04024,-2.05453,0.17431,0.59275
780.928,83.35378,-2.0618,0.17254,0.58994
784.028,83.66723,-2.05773,0.17011,0.58714
787.128,83.9823,-2.06082,0.16798,0.58434
790.228,84.29725,-2.06495,0.16326,0.58154
793.328,84.6126,-2.0671,0.15942,0.57874
796.428,84.92772,-2.06638,0.15677,0.57595
797.128,84.99891,-2.06506,0.15294,0.57532