File: 01_Data/Memory_Foam_Carpet_Pad/Cone/Memory_Foam_Carpet_Pad_Cone_HF25Scan_220921_R2.csv
Names,Time,Stack TC,Smoke TC,Exh Press,Smoke Comp,Smoke Meas,CO Meter,CO2 Meter,O2 Meter,Sample Mass,Ext Coeff,Start Test,Flame Verif
Chan Gain,,500,500,1,1,1,1,1,1,1,1,1.0,1.0
Offset,,0,0,0.141977,0,0,0,0,0,0,0,0.0,0.0
Gain,,1,1,25.011,13.065,14.7021,1,1,1,1.00081,1.02518,1.0,1.0
Units,sec,C,C,Pa,%,%,%,%,%,g,/m,,
Baseline,,36.46,36.8307,167.375,99.1404,100.33,0.000215561,0.0456815,20.9531,-441.959,-0.107236,,
10,2.25,34.4299,35.0539,166.343,99.3481,100.04,0.000226245,0.0483537,20.9543,67.905,-0.0623839,0.0,0.0
20,4.75,34.0976,34.4986,168.187,99.3572,98.8776,0.00021005,0.0473807,20.9546,67.875,0.0435186,0.0,0.0
30,7.25,34.1405,34.9014,163.295,99.36,99.9508,0.000901081,0.0648881,20.9225,67.8249,-0.053311,0.0,0.0
40,9.75,35.0476,35.8944,158.331,99.3931,94.3262,0.00247558,0.131254,20.8429,67.5847,0.470536,0.0,1.0
50,12.25,36.2879,36.0741,153.192,99.3684,91.9442,0.00449965,0.21298,20.7326,67.4446,0.69831,0.0,1.0
60,14.75,35.9897,35.4943,151.629,99.3788,90.154,0.00631673,0.277174,20.629,67.2545,0.876069,0.0,0.0
70,17.25,37.4714,37.0448,154.874,99.3839,91.4287,0.00770342,0.31687,20.572,67.0343,0.750281,0.0,0.0
80,19.75,39.6284,37.8636,159.291,99.3684,87.8698,0.0088051,0.340034,20.5366,66.8542,1.10592,0.0,0.0
90,22.25,41.2451,38.7957,147.158,99.366,86.8316,0.00962735,0.358094,20.5081,66.5739,1.21259,0.0,0.0
100,24.75,42.631,40.2949,152.276,99.3748,86.4202,0.0104077,0.374798,20.4828,66.3538,1.25609,0.0,0.0
110,27.25,43.8592,42.3469,144.586,99.3748,83.834,0.0111458,0.386195,20.4665,66.1136,1.52931,0.0,0.0
120,29.75,45.8718,43.7624,143.677,99.3871,80.6965,0.011898,0.400048,20.4434,65.8433,1.87346,0.0,0.0
130,32.25,46.5233,45.0283,145.797,99.3803,81.2905,0.0130737,0.423521,20.4062,65.5631,1.80688,0.0,0.0
140,34.75,48.0508,46.5714,145.438,99.3716,82.1416,0.0142392,0.453048,20.3675,65.2228,1.71242,0.0,0.0
150,37.25,49.6692,48.0588,146.559,99.3796,85.2635,0.0148455,0.480752,20.3259,64.8926,1.3777,0.0,0.0
160,39.75,51.307,49.6257,136.176,99.3756,81.6292,0.0148347,0.501841,20.2964,64.5723,1.76906,0.0,0.0
170,42.25,52.8287,51.308,142.973,99.3776,82.8649,0.0147352,0.528324,20.25,64.2621,1.63413,0.0,0.0
180,44.75,54.8871,53.144,138.777,99.3811,86.6714,0.0148533,0.549268,20.2167,63.9118,1.23056,0.0,0.0
190,47.25,56.2217,55.0955,141.041,99.3911,84.2239,0.0154742,0.570606,20.1834,63.6416,1.48906,0.0,0.0
200,49.75,58.0741,56.7994,131.15,99.3855,82.4768,0.0163429,0.604755,20.1238,63.2312,1.67707,0.0,0.0
210,52.25,60.0638,58.9558,134.922,99.378,84.9279,0.0167548,0.652079,20.057,62.8209,1.41302,0.0,0.0
220,54.75,62.8591,61.167,132.015,99.3879,86.7203,0.0164483,0.694383,19.9817,62.4406,1.2261,0.0,0.0
230,57.25,65.2445,63.07,128.893,99.3927,85.8795,0.0159789,0.748429,19.914,62.0403,1.31415,0.0,0.0
240,59.75,68.7078,66.8065,121.52,99.3636,86.6997,0.0153916,0.802316,19.8425,61.5999,1.22604,0.0,0.0
250,62.25,71.3725,69.8908,115.337,99.3632,85.6754,0.015021,0.855949,19.7489,61.1896,1.33288,0.0,0.0
260,64.75,74.7099,73.2481,129.248,99.3485,85.2599,0.0151955,0.906635,19.663,60.6892,1.37526,0.0,0.0
270,67.25,77.8661,76.3266,124.111,99.3309,86.1456,0.0154233,0.960591,19.5814,60.2388,1.28074,0.0,0.0
280,69.75,81.2334,80.1239,116.125,99.3162,85.4066,0.015139,1.00178,19.5253,59.7184,1.35688,0.0,0.0
290,72.25,84.4618,84.1377,115.236,99.2918,86.7217,0.0149794,1.03644,19.4695,59.218,1.21726,0.0,0.0
300,74.75,88.5799,87.659,124.059,99.2635,87.882,0.0151927,1.07351,19.4045,58.7576,1.09518,0.0,0.0
310,77.25,91.7715,91.201,118.709,99.2412,86.4691,0.0151974,1.11222,19.3447,58.2472,1.23891,0.0,0.0
320,79.75,94.9942,94.8798,115.512,99.2225,85.2523,0.0153527,1.14519,19.3066,57.7067,1.36466,0.0,0.0
330,82.25,98.3276,99,118.814,99.181,86.3758,0.0154254,1.1716,19.267,57.1363,1.24316,0.0,0.0
340,84.75,100.946,102.813,115.712,99.1479,87.8532,0.0150309,1.19105,19.2355,56.6259,1.08764,0.0,0.0
350,87.25,104.201,105.961,113.906,99.0933,87.0452,0.0145304,1.19722,19.2232,56.1755,1.16578,0.0,0.0
360,89.75,107.032,109.095,119.656,99.0662,84.7211,0.0142618,1.18938,19.2319,55.6351,1.40669,0.0,0.0
370,92.25,109.241,112.055,117.901,99.0068,85.3968,0.0139355,1.1763,19.249,55.1247,1.32986,0.0,0.0
380,94.75,111.296,114.713,119.104,98.984,88.1835,0.0131399,1.1607,19.271,54.6343,1.03902,0.0,0.0
390,97.25,112.814,117.056,117.615,98.9406,89.3186,0.0123179,1.12309,19.3416,54.1539,0.920053,0.0,0.0
400,99.75,114.11,118.762,126.711,98.9091,88.0224,0.0119921,1.05727,19.4318,53.7836,1.04865,0.0,0.0
410,102.25,114.523,120.058,126.986,98.8664,87.5288,0.0119104,0.964723,19.5421,53.4133,1.09534,0.0,0.0
420,104.75,113.945,120.603,130.466,98.8146,86.6822,0.0117206,0.847048,19.7101,53.123,1.17803,0.0,0.0
430,107.25,112.977,120.462,134.361,98.7412,80.5394,0.0120419,0.743226,19.8708,52.8328,1.83234,0.0,0.0
440,109.75,110.68,119.51,143.068,98.6686,79.1292,0.0125123,0.635505,20.0322,52.5726,1.98458,0.0,0.0
450,112.25,107.822,117.72,154.672,98.5917,82.9699,0.0120103,0.532146,20.193,52.3824,1.55135,0.0,0.0
460,114.75,104.405,115.463,153.503,98.5028,83.5796,0.0100927,0.431506,20.3354,52.2723,1.47739,0.0,0.0
470,117.25,101.322,112.193,161.59,98.4234,94.5658,0.00769685,0.340833,20.492,52.1923,0.359558,0.0,0.0
480,119.75,97.4249,109.269,160.296,98.3214,99.8036,0.00667787,0.248159,20.6393,52.2123,-0.13456,0.0,0.0
490,122.25,93.6611,106.922,162.683,98.252,100.306,0.00761264,0.174296,20.7485,52.2223,-0.186074,0.0,0.0
500,124.75,90.1298,103.379,170.8,98.1368,100.042,0.00886124,0.127049,20.8193,52.2023,-0.172943,0.0,0.0
510,127.25,85.0994,98.2627,162.274,98.0415,100.351,0.00952546,0.103243,20.8606,52.1723,-0.209425,0.0,0.0
520,129.75,81.6223,94.9307,163.593,97.9258,100.292,0.00952174,0.0910402,20.8818,52.2023,-0.214688,0.0,0.0
530,132.25,78.8273,92.1991,163.496,97.831,100.007,0.00924373,0.0852841,20.8939,52.1623,-0.197863,0.0,0.0
540,134.75,76.1565,90.0401,161.422,97.7145,99.9867,0.0087685,0.081251,20.9023,52.1823,-0.206716,0.0,0.0
550,137.25,73.3407,87.4997,165.218,97.6352,99.9472,0.00800819,0.0780182,20.9082,52.1623,-0.210469,0.0,0.0
560,139.75,71.4118,84.4723,163.225,97.5527,100.148,0.00730412,0.0753545,20.9134,52.1923,-0.236102,0.0,0.0
570,142.25,68.6745,82.3407,161.832,97.4785,99.4074,0.00664407,0.07334,20.917,52.1322,-0.176217,0.0,0.0
580,144.75,67.3388,79.6331,170.009,97.4219,99.6542,0.00587678,0.0711588,20.9204,52.1422,-0.203738,0.0,0.0
590,147.25,65.1986,77.7883,164.165,97.3613,100.008,0.00517489,0.0686412,20.9251,52.1122,-0.241183,0.0,0.0
600,149.75,63.8427,76.1447,162.736,97.3409,99.8198,0.00462381,0.066352,20.9272,52.1222,-0.22614,0.0,0.0
610,152.25,62.0393,74.0834,161.419,97.3166,99.1468,0.00418749,0.0643118,20.9308,52.0722,-0.167551,0.0,0.0
620,154.75,60.5606,72.114,166.472,97.323,99.2791,0.00383951,0.0618594,20.935,52.1022,-0.178959,0.0,0.0
630,157.25,59.1214,70.8922,157.628,97.313,99.4371,0.00344801,0.0597752,20.9383,52.1122,-0.194174,0.0,0.0
640,159.75,57.7076,68.9348,165.265,97.3409,99.0777,0.00289091,0.0574506,20.9425,52.0922,-0.159034,0.0,0.0
650,162.25,56.6486,67.2717,162.725,97.3461,99.2441,0.00234559,0.0552263,20.944,52.1122,-0.173651,0.0,0.0
660,164.75,54.9557,65.7389,165.439,97.4043,99.7812,0.00186444,0.0537409,20.9465,52.0822,-0.216809,0.0,0.0
670,167.25,54.3036,64.2588,159.935,97.4255,99.8615,0.00153995,0.0523503,20.9498,52.1022,-0.222093,0.0,0.0
680,169.75,53.2018,63.0826,164.713,97.4669,98.4742,0.00125395,0.0513279,20.9511,52.0822,-0.0924607,0.0,0.0
690,172.25,52.7339,61.8774,161.909,97.5243,99.2047,0.00109948,0.0507118,20.9516,52.1122,-0.153623,0.0,0.0
700,174.75,51.8656,60.5123,160.642,97.5913,99.1338,0.000999137,0.0500143,20.9495,52.0922,-0.141021,0.0,0.0
710,177.25,50.7329,59.4924,162.161,97.6535,99.4887,0.000963134,0.0495373,20.9493,52.0722,-0.167428,0.0,0.0
720,179.75,50.2753,58.4334,162.281,97.7018,99.21,0.000829056,0.0491727,20.9492,52.0922,-0.137766,0.0,0.0
730,182.25,48.8532,57.678,161.74,97.76,100.421,0.000657099,0.048776,20.9492,52.0722,-0.241553,0.0,0.0
740,184.75,48.2398,56.5812,163.913,97.8078,99.4303,0.000547612,0.048584,20.9492,52.0922,-0.147956,0.0,0.0
750,187.25,47.738,55.4766,162.696,97.8628,99.0745,0.000583466,0.0484106,20.9498,52.0922,-0.110661,0.0,0.0
760,189.75,47.4289,54.3354,163.304,97.9071,99.6013,0.000521722,0.0482437,20.951,52.0922,-0.15428,0.0,0.0
770,192.25,46.6248,53.6824,162.582,97.9697,99.5138,0.000446385,0.0481076,20.9513,52.0722,-0.140629,0.0,0.0
780,194.75,45.5907,52.9404,158.984,98.0271,100.076,0.000462434,0.0479305,20.9526,52.0822,-0.18602,0.0,0.0
790,197.25,45.1854,52.1239,163.837,98.0853,100.098,0.000505387,0.047673,20.9543,52.0722,-0.182657,0.0,0.0
800,199.75,44.6955,51.4908,163.903,98.1188,99.9158,0.000459372,0.0475411,20.956,52.0822,-0.163207,0.0,0.0
810,202.25,44.6664,50.6296,166.854,98.1655,99.8875,0.000371672,0.0474995,20.9562,52.0622,-0.156388,0.0,0.0
820,204.75,44.3623,50.1794,164.46,98.2221,100.206,0.000370457,0.0475771,20.9551,52.1022,-0.179797,0.0,0.0
830,207.25,44.123,49.5411,168.103,98.2667,100.134,0.000400363,0.0477456,20.9554,52.0922,-0.169264,0.0,0.0
840,209.75,43.648,48.768,158.671,98.309,100.546,0.000283565,0.047583,20.9564,52.0922,-0.202311,0.0,0.0
850,212.25,42.9691,48.212,165.433,98.327,100.387,0.000201757,0.0473622,20.9572,52.0722,-0.186494,0.0,0.0
860,214.75,42.774,47.7798,167.906,98.3788,100.033,0.000302132,0.0471886,20.958,52.0922,-0.149986,0.0,0.0
870,217.25,42.3583,46.8301,164.183,98.4043,100.543,0.000447878,0.0472421,20.9575,52.0722,-0.193318,0.0,0.0
880,219.75,42.3257,46.5611,162.68,98.4502,100.216,0.000676637,0.0471903,20.9571,52.0622,-0.159866,0.0,0.0
890,222.25,41.6898,46.3219,164.362,98.4876,100.483,0.000662486,0.0469589,20.9554,52.1322,-0.180407,0.0,0.0
900,224.75,41.6565,45.4479,164.205,98.5267,100.376,0.000561809,0.0469203,20.9549,52.0522,-0.167238,0.0,0.0
910,227.25,41.35,45.2744,159.948,98.5267,100.187,0.000486491,0.0469808,20.9544,52.1022,-0.150259,0.0,0.0
920,229.75,41.0067,44.955,167.419,98.5618,100.33,0.000538868,0.0469313,20.9539,52.1222,-0.159935,0.0,0.0
930,232.25,40.9031,44.4872,162.08,98.5773,100.215,0.000580464,0.0468242,20.9538,52.0322,-0.148175,0.0,0.0
940,234.75,40.9952,44.1196,171.092,98.6076,101.45,,0.0467674,,52.0622,-0.255574,0.0,0.0
950,237.25,40.1758,43.9725,163.959,98.6228,100.01,,,,52.0622,-0.125651,0.0,0.0
960,239.75,40.4864,43.5057,165.394,98.6559,100.163,,,,52.0722,-0.136341,0.0,0.0
970,242.25,40.3128,43.0742,163.803,98.6559,100.611,,,,52.0522,-0.176493,0.0,0.0
978,244.25,40.0591,42.6963,163.426,98.6575,100.461,,,,52.0221,-0.162943,0.0,0.0