File: 01_Data/Memory_Foam_Carpet_Pad/Cone/Memory_Foam_Carpet_Pad_Cone_HF50Scan_220922_R2.csv
Names,Time,Stack TC,Smoke TC,Exh Press,Smoke Comp,Smoke Meas,CO Meter,CO2 Meter,O2 Meter,Sample Mass,Ext Coeff,Start Test,Flame Verif
Chan Gain,,500,500,1,1,1,1,1,1,1,1,1.0,1.0
Offset,,0,0,0.141977,0,0,0,0,0,0,0,0.0,0.0
Gain,,1,1,25.011,13.065,14.7021,1,1,1,1.00081,1.02518,1.0,1.0
Units,sec,C,C,Pa,%,%,%,%,%,g,/m,,
Baseline,,50.0726,51.7586,160.77,98.5158,101.321,0.000147521,0.043656,20.9458,-445.565,-0.252419,,
8,1.75,47.8623,49.5396,147.236,98.1065,97.9264,0.00152637,0.0669869,20.9195,66.0835,0.0165219,0.0,0.0
16,3.75,47.8488,49.5106,142.276,98.1029,86.4134,0.00420097,0.148014,20.783,65.9935,1.14095,0.0,1.0
24,5.75,49.5484,50.467,145.062,98.0985,80.3694,0.00767368,0.254165,20.6346,65.6932,1.79262,0.0,1.0
32,7.75,49.9166,50.4457,139.215,98.1077,76.3322,0.0107525,0.339549,20.517,65.5031,2.25693,0.0,1.0
40,9.75,51.9669,52.0043,149.106,98.1085,78.5922,0.0134927,0.40973,20.4174,65.2429,1.99462,0.0,0.0
48,11.75,53.6877,53.631,140.047,98.1089,73.3351,0.0158659,0.465122,20.3397,65.0027,2.61726,0.0,0.0
56,13.75,56.0223,54.8022,139.186,98.116,76.5148,0.0179364,0.511558,20.2775,64.6924,2.23621,0.0,0.0
64,15.75,58.1908,57.4733,137.079,98.1132,76.2609,0.0203039,0.553547,20.2095,64.3421,2.26585,0.0,0.0
72,17.75,60.0423,59.3482,132.047,98.1069,74.743,0.0222124,0.6093,20.1065,64.0519,2.44606,0.0,0.0
80,19.75,62.4442,61.5289,132.167,98.1096,73.9112,0.0235262,0.668425,20.0194,63.6816,2.54696,0.0,0.0
88,21.75,65.3783,64.0488,119.878,98.1144,73.5998,0.0246099,0.734015,19.9363,63.2713,2.58537,0.0,0.0
96,23.75,68.5977,66.5822,131.208,98.1108,74.8529,0.0251727,0.826381,19.7956,62.8209,2.43321,0.0,0.0
104,25.75,72.0348,69.8951,111.704,98.1021,74.3993,0.0255824,0.943964,19.6156,62.3805,2.48707,0.0,0.0
112,27.75,75.9974,73.8899,121.717,98.1085,74.5891,0.0260505,1.0465,19.4695,61.8601,2.46474,0.0,0.0
120,29.75,80.4603,77.967,113.176,98.1077,72.8398,0.0264399,1.13923,19.3341,61.3797,2.67809,0.0,0.0
128,31.75,84.6054,82.6521,104.527,98.1093,72.755,0.0269455,1.23872,19.1773,60.9294,2.68872,0.0,0.0
136,33.75,89.0762,87.0788,105.917,98.0957,71.9245,0.0277446,1.35322,19.0311,60.3289,2.79072,0.0,0.0
144,35.75,93.8889,92.4166,109.333,98.0965,74.8821,0.0289731,1.4393,18.8965,59.7984,2.42839,0.0,0.0
152,37.75,99.0244,97.3473,95.5008,98.1009,74.8538,0.0303087,1.5587,18.7362,59.248,2.43219,0.0,0.0
160,39.75,104.402,103.082,105.297,98.1148,75.8607,0.0312669,1.70684,18.4772,58.5875,2.31332,0.0,0.0
168,41.75,110.98,109.592,90.2227,98.1503,73.7048,0.0316485,1.90782,18.2446,57.8669,2.57583,0.0,0.0
176,43.75,117.433,116.504,89.8884,98.1675,76.6786,0.0317807,2.09433,17.9817,57.1863,2.2217,0.0,0.0
184,45.75,124.227,123.498,85.079,98.1647,76.5965,0.0321171,2.24109,17.7168,56.4257,2.23108,0.0,0.0
192,47.75,131.228,130.67,96.9891,98.1858,79.3536,0.0327547,2.38753,17.5114,55.7151,1.915,0.0,0.0
200,49.75,137.687,139.083,99.1462,98.2101,76.382,0.0339789,2.50946,17.3524,55.1146,2.26045,0.0,0.0
208,51.75,144.319,146.298,73.5909,98.2189,78.6196,0.0356011,2.61879,17.199,54.3741,2.00161,0.0,0.0
216,53.75,150.845,153.823,86.9742,98.2217,76.9285,0.0365259,2.7,17.0964,53.6935,2.1974,0.0,0.0
224,55.75,156.652,161.211,78.6911,98.2488,76.3995,0.0359323,2.70691,17.0736,52.9429,2.26193,0.0,0.0
232,57.75,162.047,168.329,94.046,98.2775,73.4042,0.0342193,2.61558,17.1906,52.3724,2.62423,0.0,0.0
240,59.75,165.478,173.217,90.7715,98.2971,69.8274,0.0326236,2.42606,17.4166,51.7519,3.07526,0.0,0.0
248,61.75,167.164,176.777,99.6316,98.3198,71.7589,0.0304239,2.19823,17.6941,51.3116,2.83196,0.0,0.0
256,63.75,167.602,179.129,109.244,98.3373,73.1332,0.0271289,1.88434,18.1066,50.9513,2.66297,0.0,0.0
264,65.75,166.181,179.586,118.065,98.3549,71.4215,0.0232427,1.52891,18.7277,50.671,2.87755,0.0,0.0
272,67.75,163.069,178.096,135.602,98.3624,73.0466,0.0196207,1.14886,19.3277,50.5209,2.67592,0.0,0.0
280,69.75,157.678,174.892,146.771,98.3844,89.5088,0.0157832,0.81812,19.7712,50.3908,0.850223,0.0,0.0
288,71.75,152.539,171.11,149.187,98.4111,97.9838,0.0132356,0.568227,20.1008,50.3808,0.0391285,0.0,0.0
296,73.75,146.389,166.27,153.307,98.4266,102.604,0.0115716,0.399371,20.4089,50.4309,-0.373774,0.0,0.0
304,75.75,141.3,161.67,152.005,98.4278,102.376,0.0110174,0.270383,20.6071,50.4309,-0.353705,0.0,0.0
312,77.75,134.313,154.648,155.516,98.4876,102.481,0.0109027,0.197416,20.7119,50.3608,-0.35746,0.0,0.0
320,79.75,130.52,151.349,154.129,98.5012,102.576,0.0108037,0.161044,20.785,50.3608,-0.364564,0.0,0.0
328,81.75,125.712,147.55,155.779,98.5068,103.298,0.0107036,0.137872,20.823,50.3007,-0.427124,0.0,0.0
336,83.75,121.856,143.29,153.377,98.5183,102.863,0.0105025,0.125568,20.8414,50.2807,-0.3881,0.0,0.0
344,85.75,118.004,139.563,153.962,98.5291,102.181,0.0101259,0.119017,20.8511,50.2607,-0.327257,0.0,0.0
352,87.75,114.312,136.256,153.174,98.5526,101.569,0.00988682,0.114479,20.8587,50.2007,-0.271088,0.0,0.0
360,89.75,111.284,132.478,154.64,98.5642,101.68,0.00970429,0.111459,20.8635,50.2007,-0.279878,0.0,0.0
368,91.75,107.652,129.664,153.752,98.573,102.944,0.00956389,0.109557,20.8656,50.2307,-0.390211,0.0,0.0
376,93.75,104.746,126.563,154.687,98.5873,102.839,0.00943694,0.108123,20.8676,50.1606,-0.379727,0.0,0.0
384,95.75,101.836,123.191,153.159,98.5781,103.557,0.00926392,0.106494,20.8705,50.1706,-0.443081,0.0,0.0
392,97.75,99.6218,121.035,155.044,98.5881,103.318,0.00897527,0.104996,20.8726,50.1406,-0.421419,0.0,0.0
400,99.75,97.2982,117.97,154.89,98.5949,103.045,0.00857201,0.102926,20.8756,50.1506,-0.396987,0.0,0.0
408,101.75,94.9012,115.837,156.903,98.6029,102.521,0.00818873,0.10034,20.8798,50.0906,-0.350448,0.0,0.0
416,103.75,92.5303,112.792,158.963,98.5861,102.789,0.00789057,0.0980401,20.8819,50.0806,-0.375401,0.0,0.0
424,105.75,90.9062,110.611,155.151,98.6045,103.285,0.00761817,0.0961299,20.8838,50.0806,-0.417038,0.0,0.0
432,107.75,89.1064,108.19,153.254,98.5801,102.486,0.00729122,0.0945562,20.8837,50.0706,-0.349451,0.0,0.0
440,109.75,87.0821,106.297,151.361,98.5841,102.724,0.00706863,0.0921426,20.8872,49.9605,-0.369928,0.0,0.0
448,111.75,85.4296,104.217,156.396,98.5295,103.172,0.00684621,0.0892225,20.8914,49.9905,-0.414028,0.0,0.0
456,113.75,83.2463,102.209,154.256,98.5171,102.758,0.006503,0.0864794,20.8953,49.9905,-0.378986,0.0,0.0
464,115.75,82.0876,99.8001,153.997,98.4924,103.387,0.00607607,0.0841547,20.8986,49.9705,-0.436164,0.0,0.0
472,117.75,80.9535,98.4646,152.312,98.4828,102.51,0.00565404,0.0815938,20.9013,50.0205,-0.360416,0.0,0.0
480,119.75,79.7232,96.9693,154.412,98.4466,101.829,0.00523106,0.0791576,20.9041,49.9905,-0.303821,0.0,0.0
488,121.75,78.5068,94.7889,154.027,98.4155,102.239,0.00486547,0.076591,20.9084,50.0405,-0.342766,0.0,0.0
496,123.75,77.3832,93.5912,158.972,98.4079,101.468,0.00451512,0.0739835,20.9122,50.0005,-0.275401,0.0,0.0
504,125.75,75.6696,91.9091,156.606,98.3995,103.211,0.00408981,0.0715226,20.9152,49.9905,-0.4293,0.0,0.0
512,127.75,75.0672,90.2453,158.263,98.4003,101.657,0.00364598,0.0697745,20.9165,49.9905,-0.292779,0.0,0.0
520,129.75,73.5323,89.142,155.808,98.374,101.966,0.00326845,0.0677304,20.9185,50.0005,-0.32249,0.0,0.0
528,131.75,72.9273,87.2707,153.6,98.3744,103.161,0.00293468,0.0657202,20.9201,49.9905,-0.427217,0.0,0.0
536,133.75,71.7882,86.3332,161.074,98.3716,102.554,0.00259881,0.0637219,20.9237,49.9505,-0.374476,0.0,0.0
544,135.75,70.765,84.7029,157.3,98.3353,101.94,0.00231455,0.0618428,20.926,49.9705,-0.32377,0.0,0.0
552,137.75,70.2508,83.5404,154.728,98.311,101.265,0.00211446,0.0599502,20.9285,49.9605,-0.266267,0.0,0.0
560,139.75,69.1836,82.2381,155.128,98.3066,102.264,0.00190895,0.0580447,20.9306,49.9605,-0.354927,0.0,0.0
568,141.75,68.7994,81.2812,163.186,98.311,102.41,0.00184335,0.0566803,20.9322,49.9905,-0.367301,0.0,0.0
576,143.75,67.895,80.3975,161.597,98.2915,101.905,0.00188884,0.0555823,20.9341,49.9705,-0.324694,0.0,0.0
584,145.75,67.3564,78.6593,158.616,98.2795,102.431,0.00182433,0.0545845,20.9351,49.9505,-0.372034,0.0,0.0
592,147.75,66.4819,77.9719,156.847,98.2899,102.159,0.001722,0.0537585,20.9366,49.9605,-0.347222,0.0,0.0
600,149.75,65.9779,77.1632,157.184,98.3026,102.494,0.00169992,0.0529181,20.938,49.9505,-0.375471,0.0,0.0
608,151.75,65.7746,76.0423,157.805,98.2851,101.572,0.0016194,0.0521411,20.9395,49.9705,-0.295811,0.0,0.0
616,153.75,65.3784,75.1642,161.165,98.25,101.861,0.00137698,0.0514552,20.9408,49.9605,-0.324568,0.0,0.0
624,155.75,64.0705,74.6287,165.285,98.2253,101.373,0.00116607,0.0511275,20.9413,49.9304,-0.28363,0.0,0.0
632,157.75,63.5983,73.9033,162.676,98.2428,101.791,0.00100056,0.0508118,20.9415,49.9705,-0.319043,0.0,0.0
640,159.75,63.0534,72.6074,157.016,98.2109,101.452,0.000872949,0.0502877,20.9416,49.9405,-0.292026,0.0,0.0
648,161.75,62.8644,71.9121,159.541,98.2237,102.544,0.000797376,0.0500388,20.9426,49.9505,-0.387103,0.0,0.0
656,163.75,62.4644,71.3227,156.222,98.2205,102.512,0.000752911,0.0496498,20.9435,49.9705,-0.384601,0.0,0.0
664,165.75,61.8849,70.6152,156.646,98.2293,100.995,0.000764318,0.0492838,20.9438,49.9505,-0.249729,0.0,0.0
672,167.75,61.738,69.9643,154.536,98.2384,101.259,0.000870964,0.0490575,20.944,49.9204,-0.27235,0.0,0.0
680,169.75,61.1586,69.3752,160.271,98.2492,101.658,0.000931102,0.0488369,20.944,49.8904,-0.306719,0.0,0.0
688,171.75,60.4282,68.6542,157.234,98.2305,101.355,0.000804165,0.0484489,20.944,49.9104,-0.281563,0.0,0.0
696,173.75,60.2635,67.9804,158.037,98.2133,101.913,0.000592081,0.0481423,20.9441,49.9204,-0.33252,0.0,0.0
704,175.75,59.667,66.8221,154.141,98.1898,101.248,0.000470142,0.0479954,20.9439,49.9104,-0.275808,0.0,0.0
712,177.75,59.7158,66.547,159.017,98.138,101.609,0.000526575,0.0479255,20.9442,49.9204,-0.31254,0.0,0.0
720,179.75,59.3777,66.4082,158.663,98.1443,101.849,0.000580667,0.0476427,20.9453,49.8904,-0.333214,0.0,0.0
728,181.75,59.1187,66.2925,156.01,98.1268,102.166,0.000501042,0.0472661,20.9457,49.8804,-0.362747,0.0,0.0
736,183.75,58.5823,65.6614,158.472,98.1124,102.592,0.000434462,0.0470847,20.9471,49.8904,-0.401503,0.0,0.0
744,185.75,59.0207,64.505,159.221,98.1132,101.653,,0.0469297,,49.8904,-0.318696,0.0,0.0
752,187.75,58.6179,64.1558,155.717,98.1184,102.302,,,,49.8804,-0.375512,0.0,0.0
760,189.75,58.3481,63.8471,158.164,98.12,102.527,,,,49.8904,-0.395103,0.0,0.0
768,191.75,57.7282,63.6891,156.889,98.132,101.451,,,,49.8604,-0.299099,0.0,0.0
776,193.75,57.5459,63.272,155.309,98.1184,101.109,,,,49.8604,-0.269984,0.0,0.0
783,195.5,57.2953,62.7305,159.636,98.1328,101.206,,,,49.8604,-0.277324,0.0,0.0