File: 01_Data/Memory_Foam_Carpet_Pad/Cone/Memory_Foam_Carpet_Pad_Cone_HF25Scalar_220921_R2.csv
LABORATORY,FSRI
TEST IDENT,MFCP_HF25_2
OPERATOR,Dow
MATERIAL,Memory foam carpet pad
ORIENTATION,Horizontal
HEAT FLUX,25
SURF AREA,0.01
C FACTOR,0.0390239
SPEC HOLDER DIFF,-566
SPECIMEN MASS,16.93
SCAN TIME,0.25
O2 DELAY TIME,11
CO DELAY TIME,11
CO2 DELAY TIME,8
FLOW FACTOR,1
SCAN COUNT,978
TIME TO IGN,8
END OF TEST SCAN,498
END OF TEST TIME,124.5
TEST STATUS,1
PRE TEST CMT,Dimensions: 100.42 x 103.53 x 12.83 mm
POST TEST CMT,"Corners of foil pan lifted upwards during fire decay stage, beginning less than 10 seconds before flames extinguished. "