File: 01_Data/Memory_Foam_Carpet_Pad/Cone/Memory_Foam_Carpet_Pad_Cone_HF25Scan_220921_R1.csv
Names,Time,Stack TC,Smoke TC,Exh Press,Smoke Comp,Smoke Meas,CO Meter,CO2 Meter,O2 Meter,Sample Mass,Ext Coeff,Start Test,Flame Verif
Chan Gain,,500,500,1,1,1,1,1,1,1,1,1.0,1.0
Offset,,0,0,0.141977,0,0,0,0,0,0,0,0.0,0.0
Gain,,1,1,25.011,13.065,14.7021,1,1,1,1.00081,1.02518,1.0,1.0
Units,sec,C,C,Pa,%,%,%,%,%,g,/m,,
Baseline,,33.8404,34.6329,168.589,97.3868,98.0601,0.000319916,0.0448741,20.9477,-441.824,-0.0619253,,
11,2.5,31.82,32.9499,170.096,97.3238,97.6944,0.000348251,0.0456287,20.9515,69.8366,-0.0341816,0.0,0.0
22,5.25,31.7998,32.8476,166.093,97.3178,95.8522,0.000321324,0.0456295,20.9515,69.8466,0.136465,0.0,0.0
33,8,32.3363,32.6815,172.652,97.3242,94.0225,0.000590334,0.0466515,20.9516,69.7865,0.310374,0.0,0.0
44,10.75,32.1288,33.0291,160.617,97.3294,94.4048,0.00213078,0.0853918,20.8796,69.6064,0.274365,0.0,1.0
55,13.5,33.3998,33.6976,153.839,97.3178,88.4778,0.00418998,0.181688,20.7507,69.4162,0.85639,0.0,1.0
66,16.25,33.6798,33.4506,154.472,97.3094,88.8825,0.00642025,0.258258,20.6377,69.2161,0.814576,0.0,1.0
77,19,35.2053,34.4915,157.009,97.3178,87.4458,0.00798805,0.30765,20.5756,68.9959,0.961894,0.0,0.0
88,21.75,36.8347,35.5948,152.234,97.323,85.0136,0.00912254,0.33383,20.5405,68.7657,1.21605,0.0,0.0
99,24.5,38.4041,36.8136,150.032,97.3166,84.8687,0.0100085,0.349232,20.5169,68.5255,1.2308,0.0,0.0
110,27.25,40.0575,38.7274,148.503,97.3162,86.758,0.0106748,0.36574,20.4922,68.2653,1.03276,0.0,0.0
121,30,41.2258,40.2761,151.292,97.307,84.0947,0.0112343,0.38663,20.4635,67.9651,1.3123,0.0,0.0
132,32.75,43.0911,41.2559,149.812,97.3258,80.8728,0.0119031,0.410571,20.4293,67.6648,1.66535,0.0,0.0
143,35.5,45.0027,43.3874,139.808,97.3318,82.7895,0.0125544,0.4357,20.3886,67.3546,1.45525,0.0,0.0
154,38.25,46.0687,45.5151,143.45,97.3218,83.0865,0.0128163,0.464565,20.3428,67.0243,1.42213,0.0,0.0
165,41,48.5776,47.0546,139.269,97.311,85.6283,0.0132006,0.492543,20.3066,66.664,1.15015,0.0,0.0
176,43.75,50.9201,49.0564,144.884,97.2987,82.2489,0.0136868,0.522979,20.2595,66.3337,1.51112,0.0,0.0
187,46.5,52.4145,51.2522,143.014,97.307,83.843,0.0141114,0.53837,20.2374,65.9534,1.33926,0.0,0.0
198,49.25,54.4693,53.3448,139.381,97.311,85.5677,0.0145299,0.56053,20.2042,65.5931,1.15652,0.0,0.0
209,52,56.7167,55.1988,135.524,97.3055,81.308,0.0147493,0.603642,20.1306,65.1728,1.61521,0.0,0.0
220,54.75,59.1828,57.8013,133.622,97.3074,82.7949,0.0150903,0.651398,20.0645,64.7124,1.45242,0.0,0.0
231,57.5,61.3122,60.1864,130.413,97.3166,85.1706,0.0154861,0.700624,19.9777,64.3221,1.19886,0.0,0.0
242,60.25,64.367,63.0972,130.532,97.3262,82.6769,0.0155133,0.757054,19.8927,63.8617,1.46698,0.0,0.0
253,63,67.094,65.7644,127.184,97.3234,84.1028,0.0152811,0.817959,19.8008,63.3613,1.31295,0.0,0.0
264,65.75,71.078,69.9353,120.245,97.3246,85.3263,0.014844,0.888568,19.684,62.8509,1.18318,0.0,0.0
275,68.5,74.9839,74.0357,119.549,97.3258,84.9391,0.0145065,0.946865,19.6019,62.3705,1.22419,0.0,0.0
286,71.25,78.7413,78.1717,129.18,97.3549,86.1339,0.0144222,0.995485,19.5313,61.8101,1.10126,0.0,0.0
297,74,81.9177,81.8766,114.686,97.3732,86.7473,0.014607,1.04038,19.4584,61.2596,1.03914,0.0,0.0
308,76.75,86.2106,85.6929,117.841,97.4091,85.591,0.0148107,1.07531,19.4143,60.7192,1.16313,0.0,0.0
319,79.5,89.9618,90.2434,117.389,97.4286,86.4951,0.0147495,1.10218,19.3716,60.1087,1.07044,0.0,0.0
330,82.25,93.3627,93.7881,117.19,97.453,85.4255,0.0144648,1.12883,19.3321,59.5983,1.18459,0.0,0.0
341,85,97.0529,97.8602,129.983,97.4897,87.4207,0.0141285,1.15012,19.2967,59.0278,0.980344,0.0,0.0
352,87.75,99.8924,101.464,109.742,97.5566,85.395,0.0139772,1.15769,19.2852,58.4574,1.19736,0.0,0.0
363,90.5,102.625,104.981,116.052,97.5989,85.902,0.0137599,1.14961,19.2951,57.8969,1.14802,0.0,0.0
374,93.25,105.12,108.112,116.277,97.6483,87.9071,0.01315,1.12228,19.3369,57.4165,0.945077,0.0,0.0
385,96,107.205,110.936,118.255,97.7153,87.0111,0.0124885,1.07846,19.396,56.9161,1.04337,0.0,0.0
396,98.75,108.69,113.255,122.992,97.801,87.5831,0.0121537,1.03521,19.4629,56.4657,0.992329,0.0,0.0
407,101.5,109.084,114.115,122.401,97.8636,87.2753,0.0117553,0.967252,19.5534,56.0154,1.02974,0.0,0.0
418,104.25,109.202,115.088,123.918,97.9227,85.1307,0.0111866,0.886367,19.6676,55.6151,1.25891,0.0,0.0
429,107,108.567,116.041,138.909,97.9833,87.2412,0.0110393,0.781333,19.8439,55.3048,1.04424,0.0,0.0
440,109.75,107.394,115.282,140.59,98.053,82.3449,0.0110603,0.672865,19.998,55.0546,1.57008,0.0,0.0
451,112.5,104.867,113.404,146.631,98.1308,80.491,0.0108456,0.563921,20.1596,54.7443,1.78198,0.0,0.0
462,115.25,102.003,111.998,147.753,98.1842,82.9699,0.0102875,0.473831,20.2907,54.5742,1.5141,0.0,0.0
473,118,98.213,108.91,156.803,98.2396,86.8298,0.00880637,0.389158,20.4156,54.4941,1.11025,0.0,0.0
484,120.75,94.7944,106.196,153.342,98.3038,89.1382,0.0070956,0.315738,20.5412,54.3841,0.880169,0.0,0.0
495,123.5,91.702,103.598,161.71,98.3736,95.6027,0.00629479,0.244803,20.6343,54.364,0.256938,0.0,0.0
506,126.25,88.1796,100.531,159.026,98.433,100.39,0.00708049,0.191637,20.7329,54.344,-0.177081,0.0,0.0
517,129,84.4216,97.1675,160.789,98.4737,100.522,0.00854369,0.131836,20.8211,54.334,-0.185174,0.0,0.0
528,131.75,79.2747,92.7254,165.29,98.5199,100.858,0.00987415,0.100569,20.8649,54.334,-0.210965,0.0,0.0
539,134.5,75.7767,89.7141,165.404,98.5586,100.583,0.0103789,0.0875853,20.8848,54.314,-0.182839,0.0,0.0
550,137.25,73.1379,86.2726,162.436,98.6013,99.7713,0.0102717,0.0819207,20.8951,54.274,-0.106086,0.0,0.0
561,140,70.724,83.8319,163.657,98.6272,100.456,0.00975466,0.0790197,20.9016,54.2539,-0.165224,0.0,0.0
572,142.75,68.212,81.064,168.301,98.6507,100.146,0.0089843,0.0767536,20.9056,54.2339,-0.135242,0.0,0.0
583,145.5,65.9491,78.8437,166.54,98.6587,100.532,0.00825518,0.0743088,20.9101,54.2339,-0.169178,0.0,0.0
594,148.25,64.099,76.6247,164.705,98.6838,100.432,0.00750856,0.0722416,20.9157,54.2239,-0.157894,0.0,0.0
605,151,62.1243,74.5117,167.143,98.6874,100.255,0.00681777,0.0698181,20.9215,54.2539,-0.141725,0.0,0.0
616,153.75,60.4914,72.5019,163.079,98.6846,100.124,0.00607427,0.0677267,20.9247,54.264,-0.13022,0.0,0.0
627,156.5,58.5151,70.2522,166.324,98.6814,100.019,0.00517255,0.0650344,20.9285,54.1839,-0.121075,0.0,0.0
638,159.25,56.6737,68.1702,161.323,98.6842,100.159,0.00427321,0.0624149,20.9323,54.2239,-0.133438,0.0,0.0
649,162,55.8134,66.7142,165.377,98.6834,100.419,0.00364894,0.0601072,20.9371,54.2039,-0.156766,0.0,0.0
660,164.75,54.8903,64.7852,163.825,98.6902,100.798,0.00314656,0.0577351,20.9419,54.2339,-0.190036,0.0,0.0
671,167.5,52.9018,63.6186,163.025,98.6834,101.06,0.00250312,0.0559487,20.9444,54.2139,-0.214,0.0,0.0
682,170.25,51.9902,61.8143,164.777,98.6694,100.779,0.00186948,0.0541713,20.9455,54.2039,-0.190204,0.0,0.0
693,173,50.6715,60.6167,161.127,98.6714,100.308,0.00147079,0.0527525,20.9478,54.2139,-0.147966,0.0,0.0
704,175.75,50.3322,59.5267,168.155,98.6846,100.395,0.00121141,0.0514917,20.95,54.2439,-0.154527,0.0,0.0
715,178.5,49.1561,58.2632,166.723,98.6726,100.878,0.00103081,0.0505666,20.9509,54.2239,-0.198796,0.0,0.0
726,181.25,48.5093,56.9449,167.027,98.6643,101.317,0.00103103,0.0497515,20.9511,54.1939,-0.238593,0.0,0.0
737,184,47.425,56.2791,166.47,98.6487,99.9203,0.000932916,0.0490111,20.9518,54.2039,-0.115176,0.0,0.0
748,186.75,47.122,54.6299,170.11,98.6515,100.526,0.000804648,0.0485419,20.953,54.2339,-0.169271,0.0,0.0
759,189.5,45.9606,53.9879,166.328,98.6348,100.089,0.000715251,0.0480316,20.9534,54.2039,-0.131618,0.0,0.0
770,192.25,45.9013,52.6085,166.66,98.6288,100.362,0.000686872,0.0477313,20.9526,54.1739,-0.15668,0.0,0.0
781,195,44.9424,52.2097,164.222,98.6268,99.8588,0.000699574,0.047577,20.9521,54.2039,-0.111641,0.0,0.0
792,197.75,44.0619,51.1351,162.815,98.5957,100.088,0.000480684,0.0476079,20.9515,54.2139,-0.135101,0.0,0.0
803,200.5,43.5977,50.2877,161.919,98.5961,100.642,0.000387355,0.0472674,20.9512,54.1839,-0.184713,0.0,0.0
814,203.25,43.0619,49.6551,171.902,98.5833,100.443,0.000535424,0.0470072,20.9526,54.2339,-0.168059,0.0,0.0
825,206,42.9837,48.5901,165.472,98.5706,99.9921,0.00065749,0.0469758,20.9532,54.2039,-0.128762,0.0,0.0
836,208.75,42.288,48.0654,163.351,98.5522,100.281,0.000493464,0.0468589,20.9538,54.2139,-0.156383,0.0,0.0
847,211.5,41.7046,47.0635,163.112,98.5415,100.955,0.000339939,0.0467812,20.9541,54.2139,-0.217598,0.0,0.0
858,214.25,41.3151,46.9559,164.412,98.5375,100.366,0.000374876,0.0467124,20.9542,54.0838,-0.165371,0.0,0.0
869,217,41.2888,46.2007,163.156,98.5187,100.006,0.00059029,0.0466869,20.9542,54.1839,-0.134783,0.0,0.0
880,219.75,41.2081,45.7069,163.696,98.4996,100.156,0.000681054,0.0468219,20.9543,54.2039,-0.149995,0.0,0.0
891,222.5,40.5424,45.2371,167.381,98.4737,100.33,0.00059602,0.0468346,20.9543,54.1939,-0.167978,0.0,0.0
902,225.25,40.5875,44.6197,160.917,98.4613,100.544,0.000464595,0.046689,20.9543,54.1939,-0.188229,0.0,0.0
913,228,40.2491,44.5041,163.434,98.4549,100.332,0.000376561,0.0464864,20.9543,54.2039,-0.169851,0.0,0.0
924,230.75,39.7579,43.8199,164.5,98.4402,100.301,0.000171445,0.0465608,20.9543,54.2139,-0.168383,0.0,0.0
935,233.5,39.808,43.4931,165.879,98.4171,99.6565,1.60238e-06,0.0465525,20.9543,54.2039,-0.112543,0.0,0.0
946,236.25,38.8449,42.4459,165.867,98.3987,99.8485,0.000145966,0.0465155,20.9547,54.1839,-0.131531,0.0,0.0
957,239,39.0931,42.119,162.114,98.4083,100.062,,0.0463964,,54.2139,-0.149831,0.0,0.0
968,241.75,38.9213,42.0051,167.504,98.3844,99.9625,,,,54.1939,-0.143101,0.0,0.0
979,244.5,39.1354,41.6201,160.503,98.3676,99.5277,,,,54.1839,-0.105434,0.0,0.0
990,247.25,38.7322,41.6496,167.357,98.3493,100.262,,,,54.1539,-0.173191,0.0,0.0
992,247.75,38.776,40.9485,164.776,98.3688,100.057,,,,54.1639,-0.152994,0.0,0.0