File: 01_Data/Memory_Foam_Carpet_Pad/Cone/Memory_Foam_Carpet_Pad_Cone_HF50Scan_220915_R1.csv
Names,Time,Stack TC,Smoke TC,Exh Press,Smoke Comp,Smoke Meas,CO Meter,CO2 Meter,O2 Meter,Sample Mass,Ext Coeff,Start Test,Flame Verif
Chan Gain,,500,500,1,1,1,1,1,1,1,1,1.0,1.0
Offset,,0,0,0.139139,0,0,0,0,0,0,0,0.0,0.0
Gain,,1,1,25.011,13.0826,14.7555,1,1,1,1.00088,1.03743,1.0,1.0
Units,sec,C,C,Pa,%,%,%,%,%,g,/m,,
Baseline,,54.208,55.8301,140.745,100.353,106.338,-0.000841632,0.047578,20.9882,-451.283,-0.527207,,
10,2.25,52.2958,53.7324,140.422,100.347,104.252,-0.000134866,0.0632562,20.9648,42.7476,-0.347425,0.0,1.0
20,4.75,53.3566,54.0594,129.005,100.374,89.8997,0.0024329,0.103132,20.8754,42.6075,1.00288,0.0,1.0
30,7.25,54.1562,54.0288,124.376,100.34,80.606,0.00588533,0.198249,20.6895,42.3473,1.99292,0.0,1.0
40,9.75,56.655,55.8785,125.488,100.37,73.9253,0.00928264,0.292864,20.5343,42.1071,2.78291,0.0,0.0
50,12.25,58.9951,57.6496,121.253,100.362,72.9004,0.0127218,0.372734,20.4219,41.8068,2.90927,0.0,0.0
60,14.75,62.1793,60.3264,122.618,100.355,71.2491,0.015681,0.441269,20.323,41.4665,3.11715,0.0,0.0
70,17.25,64.5826,62.6249,124.607,100.352,74.8308,0.0178711,0.497545,20.2578,41.0962,2.67052,0.0,0.0
80,19.75,67.3694,64.632,120.746,100.362,73.1008,0.0195814,0.544986,20.1806,40.7359,2.88429,0.0,0.0
90,22.25,70.5168,67.2671,121.416,100.375,74.2779,0.0213377,0.600775,20.0856,40.3055,2.74011,0.0,0.0
100,24.75,73.8812,70.3962,111.894,100.364,71.2104,0.0227464,0.674222,19.9933,39.8951,3.1229,0.0,0.0
110,27.25,78.9584,73.8564,106.088,100.377,71.8242,0.0237782,0.769671,19.8283,39.2946,3.04595,0.0,0.0
120,29.75,83.0891,78.3606,109.353,100.364,73.2674,0.0237327,0.889532,19.6446,38.7541,2.86375,0.0,0.0
130,32.25,88.3046,82.813,101.696,100.382,75.3716,0.0228924,0.976833,19.5455,38.2237,2.6077,0.0,0.0
140,34.75,91.8152,87.2305,105.328,100.375,74.5561,0.0217556,1.02846,19.5037,37.7232,2.70608,0.0,0.0
150,37.25,95.7163,90.362,106.793,100.391,76.0313,0.020849,1.05799,19.4778,37.2228,2.52923,0.0,0.0
160,39.75,99.5763,94.8514,105.406,100.371,76.1345,0.0205792,1.08567,19.4228,36.6723,2.51508,0.0,0.0
170,42.25,103.639,98.6969,95.4656,100.383,74.2873,0.0212341,1.15204,19.2546,36.1118,2.73971,0.0,0.0
180,44.75,109.037,103.196,94.6291,100.383,75.6729,0.0219493,1.26619,19.0825,35.4612,2.57147,0.0,0.0
190,47.25,114.67,108.788,88.1176,100.381,76.8914,0.0227121,1.39015,18.9372,34.7806,2.42599,0.0,0.0
200,49.75,121.171,115.389,83.9226,100.36,75.9557,0.0240559,1.54853,18.7057,34.06,2.53546,0.0,0.0
210,52.25,128.274,122.315,84.6859,100.381,75.5581,0.0254594,1.73205,18.376,33.3894,2.58518,0.0,0.0
220,54.75,136.473,130.16,96.8037,100.369,77.2773,0.0264364,1.92506,18.0691,32.5787,2.37927,0.0,0.0
230,57.25,144.1,138.4,78.5751,100.351,79.3005,0.027123,2.11014,17.8335,31.7279,2.14249,0.0,0.0
240,59.75,151.743,146.844,73.9214,100.324,79.7981,0.0274643,2.22534,17.7635,30.9973,2.08307,0.0,0.0
250,62.25,157.23,153.786,89.8739,100.286,75.681,0.0264785,2.19873,17.9257,30.3467,2.56173,0.0,0.0
260,64.75,159.996,158.601,91.9874,100.241,77.4066,0.0249577,2.06244,18.2218,29.7162,2.35244,0.0,0.0
270,67.25,160.119,161.568,97.1555,100.169,70.8263,0.0232046,1.87069,18.5549,29.2157,3.1544,0.0,0.0
280,69.75,159.26,162.1,104.932,100.086,72.5554,0.021203,1.64898,18.884,28.8154,2.92738,0.0,0.0
290,72.25,155.796,161.262,111.397,99.9667,74.9155,0.0189012,1.38712,19.2344,28.4451,2.62522,0.0,0.0
300,74.75,151.544,159.499,115.256,99.8337,79.8639,0.0162415,1.14639,19.5981,28.2249,2.03103,0.0,0.0
310,77.25,146.647,157.194,121.721,99.672,83.423,0.013492,0.939077,19.9091,27.9246,1.61949,0.0,0.0
320,79.75,141.642,154.222,127.592,99.5295,91.9112,0.0104671,0.773358,20.1245,27.7845,0.724663,0.0,0.0
330,82.25,137.205,150.289,128.313,99.359,93.748,0.00755304,0.631274,20.3482,27.6343,0.528992,0.0,0.0
340,84.75,131.476,146.992,128.802,99.2289,100.557,0.00564835,0.500516,20.5472,27.6143,-0.121002,0.0,0.0
350,87.25,125.94,143.106,135.097,99.0516,102.83,0.00488617,0.390873,20.6746,27.5543,-0.340698,0.0,0.0
360,89.75,121.372,138.538,130.994,98.9282,103.574,0.00495909,0.311564,20.761,27.5242,-0.417636,0.0,0.0
370,92.25,116.246,134.885,134.988,98.8005,104.064,0.00542423,0.255195,20.8204,27.4842,-0.472302,0.0,0.0
380,94.75,112.442,131.623,135.277,98.7318,103.392,0.00594275,0.216147,20.8492,27.4542,-0.419725,0.0,0.0
390,97.25,108.384,128.076,135.748,98.709,104.135,0.00636716,0.191071,20.868,27.4442,-0.486947,0.0,0.0
400,99.75,105.192,125.021,135.326,98.7154,104.642,0.00674593,0.17023,20.8858,27.4141,-0.5306,0.0,0.0
410,102.25,101.495,121.771,140.254,98.7985,104.603,0.0070879,0.154837,20.8998,27.3841,-0.519579,0.0,0.0
420,104.75,98.8289,118.986,136.017,98.9282,104.343,0.00727139,0.141846,20.911,27.3841,-0.484963,0.0,0.0
430,107.25,96.422,115.853,134.089,99.1231,105.31,0.00736703,0.132187,20.9176,27.3641,-0.551028,0.0,0.0
440,109.75,91.8979,111.471,137.811,99.2951,105.352,0.00738828,0.125337,20.9207,27.3441,-0.538823,0.0,0.0
450,112.25,89.4756,109.014,131.566,99.49,105.453,0.00737304,0.12029,20.9228,27.304,-0.529693,0.0,0.0
460,114.75,87.2946,106.992,136.427,99.6429,105.688,0.00727488,0.116171,20.9243,27.3141,-0.536018,0.0,0.0
470,117.25,85.6212,104.266,137.567,99.7686,106.108,0.00701418,0.112534,20.9277,27.274,-0.560604,0.0,0.0
480,119.75,83.8359,101.763,137.418,99.8457,105.912,0.00669308,0.109225,20.9313,27.254,-0.536764,0.0,0.0
490,122.25,81.9643,99.7247,136.633,99.896,106.309,0.00645128,0.105989,20.933,27.244,-0.566242,0.0,0.0
500,124.75,80.3757,98.0233,137.107,99.8776,105.887,0.00626149,0.103426,20.9363,27.224,-0.531725,0.0,0.0
510,127.25,79.0627,96.312,136.452,99.8517,106.171,0.00598075,0.100551,20.9393,27.1939,-0.5584,0.0,0.0
520,129.75,77.6491,94.8473,136.652,99.7782,105.897,0.00564393,0.0975144,20.9415,27.1839,-0.541638,0.0,0.0
530,132.25,76.298,92.4751,136.672,99.678,105.636,0.00519988,0.0948541,20.9444,27.1639,-0.528272,0.0,0.0
540,134.75,75.1396,90.8791,135.835,99.5594,105.927,0.00464195,0.0917341,20.9471,27.1439,-0.564169,0.0,0.0
550,137.25,74.0535,89.4742,138.333,99.4433,105.266,0.00424512,0.0885187,20.9512,27.1439,-0.517826,0.0,0.0
560,139.75,72.9746,87.8921,136.676,99.3007,105.555,0.00406037,0.0854699,20.9546,27.1239,-0.555876,0.0,0.0
570,142.25,71.8823,86.295,135.545,99.1809,105.189,0.0038576,0.0824216,20.9575,27.1339,-0.535242,0.0,0.0
580,144.75,71.203,85.1784,135.366,99.1502,105.543,0.00346267,0.0794179,20.9605,27.0939,-0.568632,0.0,0.0
590,147.25,70.4998,83.9816,136.134,99.2648,105.095,0.00308165,0.0768402,20.9637,27.0939,-0.519406,0.0,0.0
600,149.75,69.8573,82.9083,136.489,99.4113,105.524,0.00292995,0.0743354,20.9663,27.0939,-0.543067,0.0,0.0
610,152.25,69.2553,80.9041,136.291,99.4113,105.559,0.00274571,0.0724631,20.9682,27.0839,-0.546096,0.0,0.0
620,154.75,68.4671,80.144,138.295,99.5079,106.198,0.00243555,0.0705517,20.9706,27.0939,-0.592175,0.0,0.0
630,157.25,67.6429,79.2237,136.281,99.6153,105.662,0.00217411,0.0687404,20.9723,27.1039,-0.536247,0.0,0.0
640,159.75,67.4168,78.1594,143.683,99.7235,106.075,0.00192838,0.0673694,20.9743,27.1139,-0.561863,0.0,0.0
650,162.25,66.6576,77.9507,138.976,99.7926,106.191,0.00172155,0.065925,20.9751,27.1139,-0.565524,0.0,0.0
660,164.75,66.2651,76.8734,139.953,99.8657,106.12,0.00133824,0.0648634,20.9745,27.1139,-0.552802,0.0,0.0
670,167.25,66.2505,75.9416,139.61,99.8653,106.246,0.00105286,0.0635671,20.9747,27.1439,-0.563644,0.0,0.0
680,169.75,65.4527,75.0985,139.742,99.8565,106.08,0.0010461,0.0622759,20.9763,27.1139,-0.550241,0.0,0.0
690,172.25,65.2205,74.119,138.423,99.8014,105.748,0.00102966,0.0612343,20.9779,27.0638,-0.526671,0.0,0.0
700,174.75,64.56,73.2959,135.7,99.7435,105.982,0.00103882,0.0601922,20.9785,27.0438,-0.552079,0.0,0.0
710,177.25,64.1846,72.4609,140.307,99.6656,106.044,0.00107051,0.0592802,20.9789,27.1039,-0.56452,0.0,0.0
720,179.75,64.052,71.9956,142.751,99.5507,105.781,0.00107102,0.05831,20.9803,27.1239,-0.55239,0.0,0.0
730,182.25,63.0809,71.5865,137.589,99.4516,105.524,0.00094294,0.0574413,20.9832,27.0638,-0.539377,0.0,0.0
740,184.75,62.8934,70.4754,136.689,99.4596,105.415,0.000801316,0.0566422,20.9846,27.0939,-0.529243,0.0,0.0
750,187.25,62.3902,69.7575,138.178,99.492,106.074,0.000609169,0.0559822,20.9852,27.0939,-0.582941,0.0,0.0
760,189.75,62.2002,69.2848,138.876,99.5039,105.739,0.000455676,0.0554397,20.9844,27.1339,-0.553096,0.0,0.0
770,192.25,62.1942,68.7996,136.46,99.5479,105.746,0.00035792,0.0550043,20.9845,27.1239,-0.549662,0.0,0.0
780,194.75,61.7051,68.2759,137.464,99.5618,105.61,0.000264282,0.0545622,20.984,27.0939,-0.536713,0.0,0.0
790,197.25,61.6889,67.9625,136.676,99.6185,105.409,9.20617e-05,0.054206,20.9838,27.0538,-0.514172,0.0,0.0
800,199.75,61.6992,67.7373,139.44,99.6237,106.104,-5.71665e-05,0.053694,20.9852,27.0738,-0.573525,0.0,0.0
810,202.25,61.1749,66.4912,138.62,99.6533,105.92,-0.000160105,0.0532431,20.9857,27.0839,-0.554978,0.0,0.0
820,204.75,61.2193,66.2687,139.662,99.6417,105.747,-0.000178555,0.0527934,20.9873,27.0939,-0.541205,0.0,0.0
830,207.25,61.3509,66.5095,138.943,99.6712,105.647,-0.000185246,0.0522934,20.988,27.1339,-0.529901,0.0,0.0
840,209.75,60.6325,65.7451,139.891,99.6604,106.043,-0.000224037,0.0519904,20.9885,27.1039,-0.564916,0.0,0.0
850,212.25,60.4972,64.9608,142.157,99.688,106.025,-0.000188054,0.0517685,20.989,27.0939,-0.560816,0.0,0.0
860,214.75,60.1428,64.9753,140.042,99.6956,105.775,-0.000179105,0.0514591,20.9892,27.0738,-0.538687,0.0,0.0
870,217.25,59.7174,64.7938,140.662,99.6784,105.731,-0.000317463,0.0513376,20.9901,27.0939,-0.536418,0.0,0.0
880,219.75,59.2348,64.2878,139.307,99.6848,106.022,,0.0511824,,27.1039,-0.560915,0.0,0.0
890,222.25,59.4726,63.6669,139.812,99.6748,105.919,,,,27.0839,-0.552932,0.0,0.0
900,224.75,59.6316,63.7333,141.234,99.684,105.769,,,,27.1339,-0.539201,0.0,0.0
910,227.25,59.2396,63.3424,137.28,99.6612,105.651,,,,27.0839,-0.531161,0.0,0.0
914,228.25,59.6321,63.2391,140.694,99.6529,105.746,,,,27.0138,-0.540107,0.0,0.0