File: 01_Data/Memory_Foam_Carpet_Pad/Cone/Memory_Foam_Carpet_Pad_Cone_HF25Scan_220921_R3.csv
Names,Time,Stack TC,Smoke TC,Exh Press,Smoke Comp,Smoke Meas,CO Meter,CO2 Meter,O2 Meter,Sample Mass,Ext Coeff,Start Test,Flame Verif
Chan Gain,,500,500,1,1,1,1,1,1,1,1,1.0,1.0
Offset,,0,0,0.141977,0,0,0,0,0,0,0,0.0,0.0
Gain,,1,1,25.011,13.065,14.7021,1,1,1,1.00081,1.02518,1.0,1.0
Units,sec,C,C,Pa,%,%,%,%,%,g,/m,,
Baseline,,37.4259,37.7254,166.687,99.222,100.564,0.000175079,0.044862,20.9573,-442.033,-0.12082,,
10,2.25,35.0056,35.5217,165.985,99.3512,100.141,-0.000140574,0.0448901,20.9587,72.3886,-0.071246,0.0,0.0
20,4.75,35.1757,35.2576,166.762,99.3548,98.8152,-0.000139057,0.0450233,20.9588,72.3586,0.0489771,0.0,0.0
30,7.25,35.0684,35.6998,166.141,99.356,97.6231,-0.000132776,0.0452416,20.9573,72.3686,0.158235,0.0,0.0
40,9.75,34.9507,35.3364,161.616,99.3588,97.5733,0.000902847,0.074431,20.9156,72.2185,0.163076,0.0,1.0
50,12.25,36.231,36.225,155.901,99.364,93.8847,0.00306901,0.160697,20.7779,72.0183,0.510092,0.0,1.0
60,14.75,36.5113,35.7231,154.302,99.3608,92.1932,0.00502878,0.241087,20.673,71.8282,0.673301,0.0,1.0
70,17.25,37.7963,36.1645,151.707,99.37,91.0186,0.00632086,0.289017,20.6155,71.638,0.789444,0.0,0.0
80,19.75,39.0482,37.5938,152.363,99.3664,86.2901,0.00745725,0.315885,20.5759,71.4279,1.26888,0.0,0.0
90,22.25,40.3858,39.1824,153.268,99.3584,86.636,0.00832293,0.338363,20.54,71.2277,1.23218,0.0,0.0
100,24.75,41.8293,40.3892,153.104,99.3768,85.7032,0.00902642,0.352747,20.5161,70.9675,1.33119,0.0,0.0
110,27.25,43.4646,41.5895,154.727,99.3604,83.7201,0.00970307,0.368338,20.4918,70.7673,1.54025,0.0,0.0
120,29.75,44.3946,42.7278,154.168,99.3504,84.49,0.0104182,0.387927,20.4677,70.4971,1.45702,0.0,0.0
130,32.25,45.7379,44.47,148.783,99.3544,82.6307,0.0110953,0.410472,20.4328,70.2269,1.65749,0.0,0.0
140,34.75,47.6021,45.5528,147.832,99.3333,79.3285,0.0118711,0.438601,20.3855,69.9467,2.02234,0.0,0.0
150,37.25,48.9046,47.1652,142.815,99.3245,84.3653,0.0128183,0.476435,20.3279,69.5864,1.46796,0.0,0.0
160,39.75,50.9926,49.0561,148.671,99.2982,82.9883,0.0135434,0.516723,20.2757,69.2261,1.61357,0.0,0.0
170,42.25,53.2111,51.2529,144.897,99.2974,81.1797,0.0141024,0.545122,20.2355,68.8758,1.81165,0.0,0.0
180,44.75,54.5024,52.6166,144.049,99.2839,79.4106,0.0147355,0.56445,20.2022,68.5555,2.00856,0.0,0.0
190,47.25,56.8927,55.0972,145.242,99.2843,80.7862,0.0157009,0.585199,20.1638,68.2053,1.85415,0.0,0.0
200,49.75,58.7099,56.8679,142.825,99.2488,82.3534,0.0163361,0.606613,20.1282,67.875,1.67815,0.0,0.0
210,52.25,61.0128,59.0687,138.34,99.2432,81.0491,0.0162856,0.63418,20.0864,67.4246,1.82121,0.0,0.0
220,54.75,62.3874,61.2368,129.372,99.2472,83.0372,0.0161289,0.661973,20.0332,67.0944,1.60364,0.0,0.0
230,57.25,64.6889,63.0962,131.851,99.2217,85.526,0.0161299,0.705957,19.968,66.684,1.33576,0.0,0.0
240,59.75,67.3225,66.1253,124.226,99.2141,85.6314,0.0162142,0.761742,19.8791,66.2537,1.32399,0.0,0.0
250,62.25,70.3967,69.1573,125.837,99.191,84.4729,0.0163231,0.830625,19.7813,65.8433,1.44439,0.0,0.0
260,64.75,73.754,72.5034,129.185,99.1914,83.8506,0.0161254,0.893786,19.6999,65.413,1.51092,0.0,0.0
270,67.25,77.1675,76.0641,111.445,99.1802,83.6272,0.0159187,0.944499,19.6153,64.9026,1.5339,0.0,0.0
280,69.75,80.208,79.5518,114.982,99.181,85.1765,0.0159345,1.00582,19.5136,64.4422,1.3689,0.0,0.0
290,72.25,84.1626,83.3206,123.376,99.1878,85.2945,0.0159557,1.06035,19.4392,63.8417,1.35706,0.0,0.0
300,74.75,87.9594,87.392,115.141,99.1738,87.204,0.0157942,1.09765,19.3767,63.3513,1.15669,0.0,0.0
310,77.25,91.3557,90.9377,120.676,99.1674,87.1928,0.0156653,1.13116,19.3254,62.8709,1.15727,0.0,0.0
320,79.75,95.1794,94.817,119.934,99.1942,86.1765,0.015569,1.15222,19.2931,62.3605,1.26512,0.0,0.0
330,82.25,98.461,99.0233,120.688,99.1826,85.5699,0.0153084,1.17466,19.2551,61.8401,1.3276,0.0,0.0
340,84.75,101.311,102.486,115.531,99.2001,87.7366,0.0148204,1.19017,19.2327,61.2997,1.10432,0.0,0.0
350,87.25,104.537,105.909,111.24,99.2133,86.9088,0.0144534,1.20108,19.2181,60.7792,1.19077,0.0,0.0
360,89.75,107.474,109.107,118.647,99.2113,86.0729,0.0139987,1.20952,19.2073,60.2588,1.2775,0.0,0.0
370,92.25,109.501,112.239,115.151,99.2484,89.2414,0.0132191,1.20031,19.2129,59.7984,0.955759,0.0,0.0
380,94.75,111.46,114.808,122.794,99.2583,88.9565,0.0123623,1.16015,19.2775,59.298,0.985418,0.0,0.0
390,97.25,112.839,117.092,114.747,99.2803,89.293,0.0117273,1.0802,19.4009,58.8677,0.953451,0.0,0.0
400,99.75,113.49,118.594,120.155,99.3018,89.8198,0.0113903,0.981707,19.5261,58.5274,0.902508,0.0,0.0
410,102.25,113.564,119.394,131.369,99.3074,88.6321,0.0113767,0.876641,19.6834,58.1971,1.02271,0.0,0.0
420,104.75,112.04,119.918,131.904,99.3098,80.8023,0.0116925,0.772299,19.8342,57.8669,1.85466,0.0,0.0
430,107.25,110.979,118.696,134.012,99.3321,83.6052,0.0117615,0.67771,19.9657,57.6767,1.55003,0.0,0.0
440,109.75,108.1,117.561,141.37,99.3353,80.7467,0.0112506,0.573464,20.1066,57.4365,1.86317,0.0,0.0
450,112.25,106.053,115.519,148.802,99.3568,83.7308,0.00993531,0.477858,20.2441,57.3164,1.53877,0.0,0.0
460,114.75,102.802,113.601,147.257,99.3656,89.477,0.00814328,0.392683,20.3884,57.1963,0.942669,0.0,0.0
470,117.25,99.8785,110.552,155.047,99.364,94.464,0.00660579,0.310864,20.5419,57.1463,0.45478,0.0,0.0
480,119.75,96.219,108.008,158.292,99.3676,99.9225,0.00625715,0.23792,20.6527,57.1263,-0.0500828,0.0,0.0
490,122.25,92.8254,104.836,160.952,99.3648,101.819,0.00726582,0.175141,20.7516,57.0963,-0.21938,0.0,0.0
500,124.75,89.3568,102.344,162.358,99.3504,101.918,0.00875829,0.127721,20.8216,57.1263,-0.229472,0.0,0.0
510,127.25,84.5509,97.5061,161.458,99.3504,101.377,0.00979234,0.102251,20.8604,57.0862,-0.1816,0.0,0.0
520,129.75,81.2026,94.6268,161.371,99.3225,101.542,0.010144,0.090065,20.8833,57.0862,-0.198762,0.0,0.0
530,132.25,78.3765,91.7049,159.133,99.3118,101.94,0.0100119,0.0837799,20.8943,57.0562,-0.234913,0.0,0.0
540,134.75,75.9802,88.9229,164.365,99.2683,101.551,0.00944236,0.0802594,20.8996,57.0662,-0.204468,0.0,0.0
550,137.25,73.3748,86.2277,162.294,99.2284,101.728,0.00867794,0.0773269,20.9057,57.0162,-0.223722,0.0,0.0
560,139.75,71.6759,84.4651,163.92,99.1842,101.737,0.00791882,0.0743475,20.9104,57.0462,-0.228527,0.0,0.0
570,142.25,68.7756,82.1019,164.129,99.1435,101.33,0.00689294,0.0715664,20.9161,56.9962,-0.196171,0.0,0.0
580,144.75,67.1187,79.6601,161.304,99.1012,101.173,0.00589639,0.0681782,20.9223,57.0462,-0.186098,0.0,0.0
590,147.25,65.4212,77.306,161.31,99.0395,101.174,0.00503751,0.0650476,20.9269,57.0162,-0.191788,0.0,0.0
600,149.75,63.9242,75.901,166.718,99.0088,100.668,0.00423937,0.0621124,20.9319,56.9762,-0.149478,0.0,0.0
610,152.25,62.5356,74.2842,166.316,98.9402,100.919,0.00341358,0.0594027,20.9359,56.9661,-0.178047,0.0,0.0
620,154.75,60.898,71.8019,165.853,98.8891,100.846,0.0027048,0.057249,20.9389,56.9762,-0.176247,0.0,0.0
630,157.25,59.5823,70.4754,161.611,98.8325,100.513,0.00214057,0.0555411,20.9415,57.0162,-0.15162,0.0,0.0
640,159.75,58.0399,68.7198,162.754,98.738,100.65,0.00172694,0.0537565,20.9432,57.0262,-0.172498,0.0,0.0
650,162.25,56.7436,66.6913,164.266,98.6674,101.309,0.00138162,0.0521592,20.9463,56.9862,-0.237585,0.0,0.0
660,164.75,55.7307,65.6877,161.906,98.6168,100.182,0.00119203,0.0509127,20.9477,56.9962,-0.141636,0.0,0.0
670,167.25,54.5995,64.4405,162.479,98.561,101.264,0.00114711,0.0500219,20.9496,57.0162,-0.243269,0.0,0.0
680,169.75,53.8069,62.8968,164.682,98.5139,100.953,0.00122725,0.0495545,20.9504,57.0062,-0.219948,0.0,0.0
690,172.25,52.8615,62.052,161.972,98.4478,100.332,0.00126431,0.0491164,20.9517,56.9962,-0.170506,0.0,0.0
700,174.75,51.7097,60.5981,163.209,98.3764,100.133,0.00119967,0.0489993,20.9527,57.0162,-0.159196,0.0,0.0
710,177.25,51.2445,59.5808,162.867,98.315,100.796,0.00106313,0.0488005,20.9534,57.0162,-0.224129,0.0,0.0
720,179.75,50.1512,58.4331,163.119,98.2644,99.8175,0.000797778,0.048514,20.953,57.0362,-0.14103,0.0,0.0
730,182.25,49.5255,57.2418,159.938,98.191,99.8992,0.000580514,0.04827,20.9527,57.0562,-0.155101,0.0,0.0
740,184.75,49.0418,56.9072,163.767,98.1547,99.4438,0.000548177,0.0480123,20.9525,57.0162,-0.117336,0.0,0.0
750,187.25,48.4026,55.7807,164.588,98.1392,99.7879,0.000621168,0.0477285,20.9532,57.0062,-0.149827,0.0,0.0
760,189.75,47.541,54.6506,162.008,98.0997,100.767,0.00059201,0.0476493,20.9522,56.9962,-0.241282,0.0,0.0
770,192.25,47.2156,53.7871,164.872,98.0893,100.032,0.000503615,0.0476582,20.9518,57.0162,-0.176324,0.0,0.0
780,194.75,46.6006,53.0093,167.222,98.0566,99.9876,0.000453059,0.0475764,20.9517,57.0062,-0.175368,0.0,0.0
790,197.25,46.3018,52.8523,163.641,98.0291,99.9436,0.000496633,0.0475074,20.9531,56.9962,-0.173937,0.0,0.0
800,199.75,45.7812,51.422,165.038,98.0052,100.151,0.000551374,0.0472874,20.9537,57.0062,-0.194764,0.0,0.0
810,202.25,45.3206,50.973,166.153,97.9992,100.041,0.000505385,0.0471044,20.9535,56.9862,-0.185477,0.0,0.0
820,204.75,44.8041,50.4632,170.499,97.9865,99.9984,0.000440678,0.0470248,20.9537,56.9962,-0.182775,0.0,0.0
830,207.25,44.4604,49.709,163.962,97.9821,99.7843,0.000349925,0.0470706,20.9536,56.9762,-0.16391,0.0,0.0
840,209.75,44.159,48.9221,162.812,97.9705,100.096,0.000292137,0.0468786,20.9539,57.0062,-0.19303,0.0,0.0
850,212.25,43.3793,48.4,162.022,97.9546,99.9544,0.000120752,0.0467303,20.9554,56.9762,-0.181748,0.0,0.0
860,214.75,43.7243,48.2425,158.908,97.9175,100.162,0.00017915,0.0466306,20.956,56.9962,-0.203782,0.0,0.0
870,217.25,42.9362,47.8081,163.56,97.8959,99.6457,0.000396746,0.0465099,20.9561,56.9962,-0.159315,0.0,0.0
880,219.75,43.2032,47.2476,164.208,97.8951,99.6506,0.000430209,0.046331,20.9557,57.0062,-0.159833,0.0,0.0
890,222.25,42.5767,46.8513,163.505,97.87,100.426,0.000356694,0.0463459,20.9556,57.0262,-0.231837,0.0,0.0
900,224.75,42.183,46.2134,164.469,97.8804,99.6394,0.000409067,0.0464201,20.9553,57.0362,-0.160176,0.0,0.0
910,227.25,42.0329,45.8601,163.949,97.8656,99.4433,0.00044328,0.0463515,20.9552,57.0262,-0.143818,0.0,0.0
920,229.75,41.3238,45.3906,163.235,97.8477,100.215,0.000426881,0.0463823,20.9565,56.9962,-0.214945,0.0,0.0
930,232.25,41.5633,45.1894,163.801,97.8066,99.525,0.000514344,0.046222,20.9569,56.9862,-0.156623,0.0,0.0
940,234.75,41.3984,44.5226,164.96,97.8098,99.7915,,0.0462143,,56.9762,-0.18038,0.0,0.0
950,237.25,41.3587,43.72,162.782,97.7891,100.064,,,,57.0062,-0.206836,0.0,0.0
960,239.75,40.9846,44.2929,167.597,97.7588,99.1391,,,,56.9962,-0.126091,0.0,0.0
970,242.25,40.6807,43.8743,166.066,97.7384,99.3195,,,,57.0062,-0.144308,0.0,0.0
979,244.5,40.7344,43.4772,168.755,97.7321,99.7085,,,,56.9561,-0.180048,0.0,0.0