File: 01_Data/Memory_Foam_Carpet_Pad/Cone/Memory_Foam_Carpet_Pad_Cone_HF75Scan_220922_R2.csv
Names,Time,Stack TC,Smoke TC,Exh Press,Smoke Comp,Smoke Meas,CO Meter,CO2 Meter,O2 Meter,Sample Mass,Ext Coeff,Start Test,Flame Verif
Chan Gain,,500,500,1,1,1,1,1,1,1,1,1.0,1.0
Offset,,0,0,0.141977,0,0,0,0,0,0,0,0.0,0.0
Gain,,1,1,25.011,13.065,14.7021,1,1,1,1.00081,1.02518,1.0,1.0
Units,sec,C,C,Pa,%,%,%,%,%,g,/m,,
Baseline,,63.9308,65.476,152.681,98.4153,103.79,-7.91255e-05,0.0454952,20.9485,-446.179,-0.478077,,
8,1.75,60.7865,62.114,142.58,98.3058,86.3058,0.00367154,0.0923124,20.8519,64.7625,1.17075,0.0,1.0
16,3.75,61.8679,62.7012,131.951,98.3222,74.5501,0.00861697,0.189061,20.6723,64.5023,2.48902,0.0,1.0
24,5.75,63.6339,64.1679,132.726,98.3481,69.7816,0.0142263,0.314282,20.5042,64.192,3.08582,0.0,1.0
32,7.75,65.3086,64.7104,124.917,98.382,67.4431,0.0201296,0.426624,20.3602,63.8517,3.39545,0.0,0.0
40,9.75,67.9594,66.9468,124.898,98.4131,68.9332,0.0251567,0.523343,20.1978,63.5215,3.20177,0.0,0.0
48,11.75,71.2795,69.7788,124.474,98.4482,71.2443,0.0286384,0.630428,20.0157,63.1111,2.90842,0.0,0.0
56,13.75,74.4957,72.8562,122.473,98.4809,68.6267,0.0311469,0.736846,19.8754,62.6808,3.24803,0.0,0.0
64,15.75,78.1011,76.4114,112.897,98.4972,66.7692,0.0335264,0.842541,19.6942,62.1503,3.49628,0.0,0.0
72,17.75,82.5191,79.9108,101.499,98.5195,66.1886,0.0360045,1.02863,19.3858,61.5599,3.57686,0.0,0.0
80,19.75,88.3527,85.6229,102.527,98.559,63.7712,0.0382856,1.26091,19.0476,60.9294,3.91506,0.0,0.0
88,21.75,95.1015,91.629,98.6851,98.6025,67.2924,0.0399521,1.47405,18.7547,60.3089,3.4357,0.0,0.0
96,23.75,102.278,98.7816,94.768,98.616,64.9081,0.0409641,1.6737,18.4558,59.6683,3.76135,0.0,0.0
104,25.75,109.697,105.506,98.3867,98.6451,69.5828,0.0419725,1.86304,18.1751,58.8777,3.13859,0.0,0.0
112,27.75,116.705,113.259,80.5879,98.6758,68.9062,0.0438956,2.07669,17.8624,58.0971,3.22926,0.0,0.0
120,29.75,124.392,121.483,82.6747,98.6834,67.6464,0.0458628,2.32007,17.5414,57.2664,3.3959,0.0,0.0
128,31.75,133.382,131.004,83.1388,98.7033,69.3868,0.0477712,2.63512,17.052,56.3857,3.16927,0.0,0.0
136,33.75,143.62,141.31,74.8244,98.7253,74.0314,0.0491295,3.03918,16.5045,55.4249,2.5886,0.0,0.0
144,35.75,153.99,152.991,78.0966,98.7376,77.0339,0.0502285,3.47594,15.9364,54.4541,2.2322,0.0,0.0
152,37.75,165.651,165.678,81.4115,98.7468,80.4416,0.0516061,3.92645,15.2135,53.4533,1.84377,0.0,0.0
160,39.75,176.964,179.772,67.6206,98.744,83.3477,0.0530962,4.43441,14.4798,52.3524,1.52437,0.0,0.0
168,41.75,189.683,194.397,76.4639,98.7372,80.5744,0.0538969,4.80988,14.1417,51.3816,1.82807,0.0,0.0
176,43.75,201.018,209.024,67.6626,98.7651,73.2229,0.0524653,4.84206,14.0661,50.3908,2.69098,0.0,0.0
184,45.75,208.606,221.541,85.6515,98.7799,61.2577,0.0476187,4.42229,14.7739,49.8904,4.29681,0.0,0.0
192,47.75,209.586,226.967,119.601,98.8102,68.3782,0.0392366,3.56727,16.1878,49.6903,3.31068,0.0,0.0
200,49.75,204.853,226.702,133.623,98.8245,88.0269,0.0293847,2.59581,17.5626,49.6302,1.0405,0.0,0.0
208,51.75,196.717,221.054,142.034,98.8233,102.835,0.0207914,1.75954,18.7526,49.6202,-0.357869,0.0,0.0
216,53.75,188.311,214.872,146.2,98.8301,104.011,0.0154558,1.14215,19.5676,49.5001,-0.459467,0.0,0.0
224,55.75,180.201,207.846,146.191,98.8397,104.897,0.0124505,0.758198,20.0588,49.4701,-0.534848,0.0,0.0
232,57.75,171.046,199.96,146.619,98.8501,103.979,0.0112684,0.525708,20.3962,49.39,-0.454937,0.0,0.0
240,59.75,164.621,193.743,144.67,98.8309,104.579,0.0109369,0.378883,20.6029,49.43,-0.508371,0.0,0.0
248,61.75,158.962,187.892,146.224,98.8365,105.252,0.0107224,0.290824,20.7101,49.4901,-0.565589,0.0,0.0
256,63.75,152.965,182.78,146.245,98.8385,104.713,0.0104529,0.238769,20.7694,49.4,-0.519211,0.0,0.0
264,65.75,148.117,177.308,144.589,98.8421,105.305,0.0101784,0.206242,20.8025,49.37,-0.569603,0.0,0.0
272,67.75,143.502,172.482,148.089,98.8409,105.09,0.00985359,0.184594,20.8226,49.39,-0.551302,0.0,0.0
280,69.75,138.651,167.774,149.027,98.8413,104.288,0.0093316,0.169001,20.8391,49.38,-0.482392,0.0,0.0
288,71.75,134.816,163.32,145.146,98.8289,104.986,0.00888763,0.157238,20.848,49.35,-0.543517,0.0,0.0
296,73.75,130.746,159.283,146.091,98.8214,105.193,0.00845457,0.148357,20.8543,49.33,-0.561906,0.0,0.0
304,75.75,127.368,155.564,145.827,98.8385,103.875,0.0081611,0.140699,20.8587,49.2999,-0.446982,0.0,0.0
312,77.75,124.064,151.72,147.1,98.8381,104.774,0.00786573,0.134412,20.8611,49.2899,-0.524486,0.0,0.0
320,79.75,120.066,148.386,149.66,98.8413,104.473,0.0074611,0.129127,20.8643,49.2699,-0.498357,0.0,0.0
328,81.75,117.768,144.442,147.971,98.8341,104.729,0.00697834,0.123035,20.8704,49.2099,-0.520958,0.0,0.0
336,83.75,115.053,141.525,150.09,98.819,104.717,0.00652628,0.11781,20.874,49.1698,-0.521296,0.0,0.0
344,85.75,112.41,138.174,149.446,98.8158,104.716,0.00607748,0.113098,20.8783,49.1198,-0.52151,0.0,0.0
352,87.75,110.006,135.46,150.844,98.8154,105.064,0.00559632,0.108512,20.8833,49.0898,-0.551397,0.0,0.0
360,89.75,107.621,132.963,147.183,98.7974,104.832,0.00523908,0.104404,20.8864,49.1298,-0.533192,0.0,0.0
368,91.75,105.347,129.989,149.187,98.7974,104.908,0.00494742,0.100424,20.891,49.0798,-0.539694,0.0,0.0
376,93.75,103.629,127.21,143.923,98.7699,105.006,0.0046603,0.0966598,20.8961,49.1198,-0.550579,0.0,0.0
384,95.75,101.367,124.551,151.732,98.7564,104.486,0.00435675,0.0926636,20.8997,49.0998,-0.50713,0.0,0.0
392,97.75,99.227,122.394,147.209,98.7508,104.674,0.00397076,0.0887968,20.9034,49.1298,-0.523842,0.0,0.0
400,99.75,98.065,120.045,148.867,98.7408,105.226,0.00358182,0.0847148,20.9076,49.0898,-0.572038,0.0,0.0
408,101.75,95.7711,117.852,149.041,98.7189,105.316,0.00321505,0.081209,20.9123,49.1098,-0.581701,0.0,0.0
416,103.75,95.007,115.225,148.831,98.7149,104.457,0.00291166,0.0775462,20.917,49.0798,-0.508435,0.0,0.0
424,105.75,92.7142,113.54,147.684,98.6882,103.766,0.00264853,0.0740807,20.9209,49.0998,-0.451224,0.0,0.0
432,107.75,91.4597,111.253,154.616,98.6762,104.097,0.00238447,0.0710851,20.9244,49.1098,-0.480965,0.0,0.0
440,109.75,90.369,109.671,146.556,98.6607,104.927,0.00211144,0.0684772,20.9276,49.0898,-0.553804,0.0,0.0
448,111.75,89.0265,108.379,147.754,98.6356,104.184,0.00190554,0.0661732,20.9292,49.0697,-0.492188,0.0,0.0
456,113.75,88.0276,106.142,150.537,98.6068,104.738,0.00174139,0.0643544,20.9312,49.1098,-0.542431,0.0,0.0
464,115.75,86.9897,104.536,147.213,98.5769,104.7,0.00146452,0.0625706,20.9333,49.0998,-0.541884,0.0,0.0
472,117.75,86.1603,103.425,155.694,98.5574,105.166,0.0012277,0.0607165,20.9353,49.1198,-0.583655,0.0,0.0
480,119.75,84.5081,101.493,150.651,98.5331,104.018,0.00102956,0.059217,20.9377,49.0798,-0.487117,0.0,0.0
488,121.75,83.6542,99.9268,147.94,98.5211,104.308,0.000810443,0.0575272,20.9401,49.0397,-0.513271,0.0,0.0
496,123.75,82.9165,98.5446,149.693,98.5044,104.37,0.00069074,0.0562589,20.9416,49.0497,-0.520175,0.0,0.0
504,125.75,81.7347,97.0976,149.58,98.4836,104.269,0.000658844,0.055297,20.9424,48.9396,-0.513327,0.0,0.0
512,127.75,80.706,95.7528,148.2,98.4697,104.903,0.000595208,0.0542381,20.9427,49.0597,-0.569153,0.0,0.0
520,129.75,80.7084,94.5084,149.968,98.439,104.439,0.000427138,0.0535004,20.9429,49.0297,-0.532099,0.0,0.0
528,131.75,79.3927,93.3207,147.648,98.4135,103.876,0.000294552,0.0528341,20.9429,48.9196,-0.485774,0.0,0.0
536,133.75,79.0056,92.044,150.885,98.3752,103.759,0.000275423,0.0522146,20.9438,49.0097,-0.479168,0.0,0.0
544,135.75,78.5022,91.0533,148.539,98.3429,104.416,0.000344756,0.0516784,20.9446,48.9697,-0.53891,0.0,0.0
552,137.75,78.0939,90.1957,148.335,98.3062,103.941,0.000381798,0.0511458,20.9455,49.0397,-0.501251,0.0,0.0
560,139.75,77.091,88.852,145.975,98.2723,104.302,0.000283423,0.0507526,20.9467,49.0097,-0.535468,0.0,0.0
568,141.75,76.5659,87.9937,148.909,98.2404,103.337,0.000117891,0.0504169,20.9473,48.9597,-0.454868,0.0,0.0
576,143.75,76.1236,87.5131,152.113,98.1978,103.93,1.29704e-05,0.0503264,20.9475,48.9697,-0.510205,0.0,0.0
584,145.75,75.5643,86.6603,146.049,98.1523,104.265,-3.18502e-05,0.0501188,20.9476,49.0197,-0.543284,0.0,0.0
592,147.75,75.1574,85.4672,148.73,98.1519,104.031,-0.000109007,0.050037,20.9473,49.0197,-0.523175,0.0,0.0
600,149.75,74.8378,85.1132,148.547,98.0993,104.518,-0.000243637,0.0496437,20.9471,48.9296,-0.569982,0.0,0.0
608,151.75,74.2379,84.304,145.055,98.0678,103.495,-0.000260995,0.0493998,20.9466,48.9096,-0.484419,0.0,0.0
616,153.75,73.3963,83.1817,145.49,98.0538,103.955,-0.000119931,0.0492389,20.9463,48.9797,-0.525532,0.0,0.0
624,155.75,72.9867,82.2142,147.653,98.0311,104.141,1.37265e-05,0.0490065,20.9472,48.9396,-0.54371,0.0,0.0
632,157.75,73.1831,81.7158,148.455,98.0168,103.083,1.47094e-05,0.0487704,20.9479,48.9296,-0.453162,0.0,0.0
640,159.75,72.8781,81.3442,146.791,98.0219,104.179,-0.000169928,0.0486537,20.9483,48.9096,-0.547844,0.0,0.0
648,161.75,72.1656,80.7044,149.387,98.0207,103.801,-0.000351015,0.048507,20.9484,48.9396,-0.515284,0.0,0.0
656,163.75,71.7199,80.15,152.407,98.0331,103.727,-0.00040568,0.0483978,20.9477,48.9497,-0.507694,0.0,0.0
664,165.75,71.316,79.185,150.874,98.0291,102.557,,0.0482906,,48.9597,-0.406076,0.0,0.0
672,167.75,70.968,79.079,148.89,98.0156,103.4,,,,48.9296,-0.480903,0.0,0.0
680,169.75,70.8804,78.2573,147.697,97.9932,103.656,,,,48.9396,-0.505204,0.0,0.0
688,171.75,70.3909,77.4459,148.342,97.9733,102.997,,,,48.9697,-0.44971,0.0,0.0
696,173.75,69.9865,77.1399,152.524,97.9653,103.721,,,,48.9296,-0.51337,0.0,0.0
701,175,70.3383,76.857,149.282,97.945,103.114,,,,48.9797,-0.462528,0.0,0.0