File: 01_Data/Mineral_Wool_Insulation/MCC/Mineral_Wool_Insulation_MCC_30K_min_211111_R2.txt
Sample ID:	C:\MCC\MCC Cal\Test\Mineral_Wool_Insulation_MCC_30K_min_211111_R2.txt
Sample Weight (mg):	4.56
Heating Rate (C/s):	0.5
Combustor Temp (C):	900
N2 Flow Rate (cc/min):	80
O2 Flow Rate (cc/min):	20
Calibration File:	C:\MCC\MCC Cal\Coeff1 JN10440_30_210304.txt.txt
T Correction Coefficients:	0	1.024463	0
Time Shift (s):	14
*
Time (s)	Temperature (C)	N2 flow rate (cc/min)	O2 flow rate (cc/min)	Flow Rate (cc/min)	Oxygen (%)	HRR (W/g)	Heating rate (C/s)
0.000	108.332	80.000	19.994	103.025	20.039	-0.157	-0.007
8.000	108.314	80.001	19.995	103.028	20.037	-0.052	-0.001
16.000	108.280	80.002	19.994	103.038	20.039	-0.219	0.020
24.000	108.375	80.001	19.995	103.102	20.030	0.476	0.041
32.000	108.709	79.999	19.995	103.179	20.014	1.558	0.052
40.000	109.495	79.999	19.995	103.187	20.009	1.905	0.120
48.000	110.571	79.999	19.994	103.216	20.005	2.228	0.154
56.000	112.052	79.998	19.996	103.264	19.993	3.059	0.206
64.001	113.980	79.999	19.996	103.288	19.989	3.336	0.261
72.000	116.309	80.001	19.995	103.284	19.987	3.515	0.300
80.000	119.055	80.000	19.994	103.288	19.989	3.317	0.341
88.001	122.022	79.999	19.994	103.285	19.989	3.381	0.407
96.001	125.201	80.000	19.994	103.302	19.986	3.548	0.385
104.000	128.654	80.002	19.993	103.302	19.985	3.618	0.446
112.000	132.239	79.999	19.994	103.301	19.985	3.654	0.430
120.000	136.024	80.000	19.995	103.306	19.984	3.713	0.452
128.000	139.955	80.001	19.995	103.294	19.986	3.571	0.501
136.000	143.908	80.000	19.994	103.291	19.989	3.351	0.479
144.000	147.945	80.000	19.995	103.271	19.990	3.307	0.507
152.000	152.026	80.000	19.996	103.262	19.988	3.420	0.512
160.000	155.995	80.001	19.995	103.263	19.991	3.187	0.502
168.000	159.959	80.000	19.995	103.255	19.987	3.483	0.498
176.000	163.873	80.000	19.994	103.260	19.993	3.066	0.516
184.000	167.782	80.001	19.994	103.233	19.993	3.046	0.499
192.000	171.618	80.001	19.994	103.231	19.991	3.237	0.451
200.001	175.416	80.000	19.995	103.230	19.989	3.356	0.468
208.000	179.160	80.001	19.995	103.229	19.994	2.985	0.467
216.000	182.978	80.000	19.996	103.227	19.995	2.890	0.496
224.000	186.810	79.999	19.994	103.227	19.999	2.643	0.488
232.000	190.576	79.998	19.995	103.237	19.996	2.857	0.473
240.000	194.367	80.000	19.994	103.204	20.001	2.523	0.430
248.000	198.263	80.000	19.995	103.228	20.004	2.314	0.498
256.000	202.121	80.000	19.995	103.224	20.001	2.527	0.482
264.000	206.091	80.002	19.994	103.224	20.000	2.585	0.511
272.000	210.037	80.001	19.995	103.223	20.002	2.462	0.490
280.000	214.022	79.998	19.996	103.223	20.000	2.586	0.525
288.000	217.962	79.999	19.994	103.224	20.002	2.419	0.484
296.000	221.922	79.999	19.994	103.224	20.003	2.363	0.532
304.000	225.909	79.998	19.995	103.217	20.000	2.540	0.522
312.000	229.881	79.998	19.995	103.192	20.000	2.571	0.508
320.000	233.882	80.000	19.995	103.188	20.003	2.384	0.505
328.000	237.819	80.000	19.996	103.188	20.004	2.305	0.498
336.000	241.750	80.000	19.996	103.184	20.003	2.376	0.507
344.000	245.634	80.002	19.995	103.183	20.000	2.551	0.471
352.000	249.646	80.001	19.994	103.189	20.006	2.136	0.534
360.000	253.591	79.998	19.995	103.187	20.001	2.498	0.521
368.000	257.510	80.000	19.995	103.188	20.003	2.323	0.487
376.000	261.481	80.000	19.995	103.189	20.003	2.342	0.514
384.000	265.432	80.000	19.994	103.189	19.998	2.713	0.494
392.000	269.454	79.999	19.995	103.188	20.002	2.459	0.480
400.000	273.552	80.000	19.995	103.185	20.004	2.313	0.522
408.000	277.634	80.001	19.995	103.180	20.003	2.323	0.497
416.000	281.711	79.999	19.994	103.185	20.006	2.121	0.515
424.000	285.796	80.000	19.995	103.187	20.009	1.898	0.528
432.000	289.856	80.000	19.995	103.186	20.007	2.082	0.525
440.000	293.927	80.001	19.993	103.181	20.004	2.299	0.525
448.000	297.990	80.000	19.995	103.169	20.007	2.101	0.512
456.000	302.045	80.000	19.995	103.181	20.006	2.121	0.535
464.000	306.050	80.000	19.996	103.168	20.008	1.984	0.504
472.000	310.064	79.999	19.995	103.167	20.006	2.147	0.491
480.000	314.141	80.002	19.995	103.173	20.005	2.241	0.494
488.000	318.151	80.000	19.995	103.167	20.008	2.036	0.521
496.000	322.121	79.998	19.995	103.162	20.008	1.992	0.478
504.000	326.136	80.000	19.996	103.153	20.007	2.068	0.524
512.000	330.144	80.000	19.995	103.146	20.010	1.834	0.506
520.000	334.135	80.000	19.997	103.145	20.011	1.799	0.515
528.000	338.102	80.001	19.996	103.146	20.009	1.934	0.504
536.000	341.974	79.999	19.994	103.147	20.009	1.930	0.489
544.000	345.810	79.999	19.996	103.145	20.010	1.848	0.481
552.000	349.666	79.998	19.994	103.152	20.006	2.118	0.480
560.000	353.563	80.001	19.995	103.153	20.007	2.064	0.500
568.000	357.529	80.000	19.994	103.152	20.001	2.464	0.504
576.000	361.512	79.998	19.995	103.151	20.004	2.285	0.502
584.000	365.551	80.000	19.995	103.145	20.008	1.976	0.539
592.000	369.605	80.000	19.994	103.144	20.009	1.930	0.518
600.000	373.685	79.998	19.996	103.154	20.006	2.109	0.500
608.000	377.752	79.998	19.997	103.153	20.006	2.164	0.524
616.000	381.875	79.998	19.996	103.149	20.009	1.901	0.536
624.000	385.888	80.000	19.995	103.149	20.010	1.859	0.501
632.000	389.913	80.000	19.995	103.148	20.005	2.199	0.494
640.000	393.935	79.999	19.995	103.146	20.006	2.133	0.517
648.000	397.918	80.001	19.995	103.144	20.007	2.089	0.502
656.000	402.034	80.002	19.995	103.152	20.006	2.174	0.535
664.000	406.241	80.001	19.994	103.145	20.007	2.082	0.535
672.001	410.533	80.002	19.995	103.146	20.004	2.304	0.541
680.000	414.767	79.998	19.995	103.145	20.008	2.005	0.507
688.001	419.004	79.997	19.996	103.134	20.011	1.780	0.521
696.000	423.254	79.999	19.996	103.130	20.010	1.866	0.500
704.000	427.346	80.000	19.996	103.124	20.010	1.860	0.519
712.000	431.413	79.999	19.995	103.139	20.014	1.588	0.493
720.000	435.488	80.000	19.995	103.130	20.014	1.609	0.497
728.000	439.405	80.002	19.996	103.126	20.014	1.597	0.492
736.000	443.322	80.000	19.996	103.135	20.012	1.697	0.486
744.000	447.231	80.000	19.995	103.113	20.014	1.578	0.478
752.000	451.098	80.001	19.995	103.139	20.012	1.713	0.486
760.000	455.015	80.001	19.994	103.117	20.009	1.922	0.495
768.000	458.976	80.000	19.995	103.119	20.015	1.540	0.491
776.001	462.979	80.000	19.994	103.134	20.016	1.450	0.512
784.000	467.040	80.000	19.994	103.117	20.013	1.659	0.523
792.000	471.131	79.999	19.995	103.112	20.014	1.574	0.525
800.000	475.155	80.000	19.996	103.113	20.011	1.813	0.502
808.000	479.189	80.001	19.993	103.127	20.010	1.856	0.519
816.000	483.233	80.001	19.994	103.129	20.010	1.872	0.500
824.000	487.319	79.999	19.993	103.116	20.009	1.912	0.538
832.001	491.426	80.001	19.995	103.121	20.006	2.129	0.537
840.000	495.517	79.998	19.995	103.117	20.012	1.737	0.535
848.000	499.607	79.999	19.995	103.113	20.013	1.657	0.521
856.000	503.617	79.998	19.996	103.112	20.013	1.616	0.483
864.000	507.651	79.998	19.996	103.118	20.013	1.641	0.496
872.000	511.666	79.997	19.996	103.118	20.013	1.682	0.544
880.000	515.781	79.998	19.995	103.115	20.011	1.781	0.541
888.000	519.968	80.001	19.996	103.119	20.012	1.693	0.518
896.000	524.198	80.001	19.994	103.116	20.009	1.949	0.503
904.000	528.400	80.002	19.995	103.110	20.011	1.776	0.544
912.000	532.631	80.001	19.994	103.107	20.023	0.914	0.549
920.000	536.711	80.001	19.994	103.107	20.013	1.630	0.580
928.000	540.235	79.998	19.994	103.114	20.007	2.090	-0.189
936.000	544.942	79.999	19.995	103.111	20.009	1.954	0.646
944.000	548.856	80.000	19.994	103.111	20.009	1.943	0.514
952.000	552.774	80.000	19.995	103.112	20.010	1.851	0.537
960.000	556.777	79.999	19.995	103.109	20.012	1.745	0.509
968.000	560.830	80.000	19.995	103.108	20.011	1.768	0.481
976.000	564.980	79.998	19.996	103.117	20.011	1.791	0.523
984.000	569.187	80.000	19.996	103.112	20.008	2.031	0.502
992.000	573.378	80.002	19.994	103.115	20.009	1.904	0.546
1000.000	577.612	80.000	19.995	103.119	20.008	1.999	0.515
1008.000	581.853	79.998	19.995	103.111	20.006	2.133	0.533
1016.000	586.027	79.999	19.994	103.111	20.009	1.960	0.507
1024.000	590.207	80.000	19.994	103.106	20.005	2.202	0.558
1032.000	594.342	79.998	19.994	103.106	20.007	2.073	0.506
1040.000	598.558	79.999	19.996	103.108	20.013	1.626	0.550
1048.000	602.665	80.002	19.995	103.109	20.009	1.927	0.514
1056.000	606.769	80.001	19.995	103.111	20.006	2.142	0.497
1064.000	610.869	80.000	19.995	103.110	20.010	1.862	0.531
1072.000	614.941	80.001	19.995	103.110	20.011	1.770	0.506
1080.000	619.024	79.998	19.995	103.103	20.011	1.810	0.474
1088.000	623.110	79.998	19.994	103.104	20.007	2.077	0.510
1096.000	627.121	80.000	19.995	103.106	20.007	2.077	0.477
1104.000	631.209	80.002	19.995	103.106	20.009	1.906	0.509
1112.000	635.227	79.998	19.995	103.110	20.007	2.094	0.507
1120.001	639.302	80.001	19.995	103.111	20.008	2.023	0.517
1128.001	643.338	80.001	19.995	103.108	20.007	2.075	0.518
1136.000	647.319	79.999	19.995	103.102	20.010	1.833	0.517
1144.000	651.366	79.998	19.996	103.088	20.004	2.263	0.520
1152.000	655.368	80.005	19.995	103.091	20.004	2.265	0.204
1160.000	659.854	79.999	19.997	103.096	20.009	1.942	0.663
1168.000	663.049	79.997	19.996	103.099	20.009	1.956	0.462
1176.000	666.728	79.999	19.996	103.097	20.010	1.856	0.355
1184.000	670.482	79.999	19.996	103.104	20.007	2.048	0.459
1192.001	674.340	80.000	19.994	103.104	20.004	2.286	0.491
1200.001	678.308	79.996	19.995	103.104	20.006	2.157	0.460
1208.000	682.430	80.003	19.994	103.104	20.008	2.014	0.504
1216.001	686.596	80.000	19.996	103.104	20.008	2.018	0.525
1224.001	690.718	80.007	19.996	103.101	20.008	2.021	0.502
1232.001	694.783	80.002	19.997	103.097	20.006	2.123	0.481
1240.000	698.881	80.001	19.996	103.094	20.007	2.102	0.488
1248.001	702.865	79.999	19.997	103.110	20.008	1.967	0.478
1256.000	706.813	80.002	19.995	103.102	20.006	2.161	0.511
1264.001	710.775	80.000	19.994	103.105	20.002	2.453	0.470
1272.000	714.725	79.999	19.994	103.095	20.000	2.561	0.495
1280.000	718.641	80.001	19.996	103.088	20.001	2.501	0.487
1288.001	722.669	79.999	19.995	103.100	20.005	2.224	0.494
1296.000	726.611	80.002	19.995	103.104	20.001	2.493	0.520
1304.000	730.668	80.000	19.996	103.101	20.004	2.301	0.499
1312.000	734.737	80.001	19.995	103.096	20.005	2.194	0.552
1320.000	738.828	80.001	19.994	103.098	20.004	2.282	0.519
1328.000	742.909	79.998	19.995	103.098	20.002	2.430	0.513
1329.500	743.697	79.998	19.995	103.102	20.004	2.255	0.534