File: 01_Data/Mineral_Wool_Insulation/MCC/Mineral_Wool_Insulation_MCC_30K_min_211111_R1.txt
Sample ID:	C:\MCC\MCC Cal\Test\Mineral_Wool_Insulation_MCC_30K_min_211111_R1.txt
Sample Weight (mg):	4.78
Heating Rate (C/s):	0.5
Combustor Temp (C):	900
N2 Flow Rate (cc/min):	80
O2 Flow Rate (cc/min):	20
Calibration File:	C:\MCC\MCC Cal\Coeff1 JN10440_30_210304.txt.txt
T Correction Coefficients:	0	1.024463	0
Time Shift (s):	14
*
Time (s)	Temperature (C)	N2 flow rate (cc/min)	O2 flow rate (cc/min)	Flow Rate (cc/min)	Oxygen (%)	HRR (W/g)	Heating rate (C/s)
0.000	107.238	80.000	19.995	103.047	20.039	-0.057	-0.006
8.000	107.241	80.000	19.995	103.033	20.037	0.038	-0.002
16.000	107.202	79.999	19.994	103.107	20.023	0.994	-0.005
24.000	107.568	80.001	19.995	103.220	20.006	2.135	0.092
32.000	108.434	80.002	19.995	103.261	20.000	2.562	0.166
39.999	109.776	80.001	19.995	103.274	19.992	3.067	0.185
47.999	111.608	80.001	19.996	103.282	19.995	2.897	0.238
55.999	113.800	80.003	19.995	103.290	19.994	2.923	0.291
63.999	116.317	79.999	19.994	103.301	19.984	3.609	0.359
71.999	119.164	80.000	19.995	103.303	19.992	3.115	0.365
79.999	122.187	80.002	19.995	103.302	19.990	3.224	0.424
87.999	125.494	80.001	19.995	103.303	19.989	3.293	0.404
95.999	128.976	79.999	19.994	103.307	19.989	3.260	0.435
103.999	132.556	80.001	19.995	103.287	19.988	3.346	0.451
112.000	136.217	80.003	19.994	103.295	19.989	3.274	0.467
120.000	139.905	80.002	19.995	103.291	19.995	2.905	0.484
127.999	143.737	80.001	19.994	103.280	19.994	2.964	0.479
136.000	147.567	80.001	19.995	103.277	19.994	2.931	0.487
144.000	151.481	79.998	19.996	103.264	19.996	2.830	0.523
152.000	155.381	80.000	19.995	103.261	19.998	2.683	0.516
160.000	159.234	79.997	19.996	103.272	20.003	2.329	0.477
168.000	163.115	80.001	19.995	103.268	20.001	2.492	0.488
176.000	167.095	80.000	19.993	103.260	20.001	2.455	0.482
184.000	171.017	80.001	19.995	103.246	20.004	2.257	0.520
192.000	174.915	79.998	19.994	103.234	20.006	2.147	0.507
200.000	178.757	79.996	19.995	103.227	20.009	1.956	0.475
208.000	182.681	79.995	19.997	103.234	20.009	1.949	0.490
215.999	186.663	80.003	19.995	103.228	20.012	1.740	0.521
224.000	190.585	79.998	19.995	103.226	20.016	1.432	0.478
232.000	194.552	80.001	19.996	103.228	20.016	1.467	0.466
239.999	198.491	80.002	19.995	103.229	20.019	1.292	0.479
247.999	202.459	79.985	19.997	103.225	20.019	1.235	0.465
256.000	206.437	79.999	19.995	103.208	20.019	1.252	0.503
264.000	210.485	79.997	19.995	103.209	20.017	1.377	0.471
272.000	214.521	79.998	19.996	103.203	20.018	1.362	0.497
280.000	218.484	79.994	19.994	103.197	20.022	1.057	0.521
288.000	222.452	80.005	19.995	103.205	20.020	1.195	0.473
296.000	226.447	80.013	19.993	103.195	20.018	1.332	0.501
304.000	230.445	79.997	19.995	103.189	20.023	0.990	0.535
312.000	234.336	80.002	19.995	103.186	20.026	0.808	0.494
320.000	238.221	80.014	19.996	103.192	20.026	0.814	0.496
328.000	242.151	80.008	19.994	103.180	20.023	0.979	0.493
336.000	246.098	80.001	19.995	103.189	20.024	0.933	0.501
344.000	250.175	79.997	19.996	103.190	20.022	1.045	0.511
352.000	254.237	79.999	19.995	103.191	20.024	0.940	0.500
360.000	258.312	80.002	19.993	103.188	20.021	1.125	0.511
368.000	262.310	80.000	19.994	103.192	20.028	0.629	0.496
376.000	266.339	80.005	19.994	103.181	20.024	0.949	0.502
384.000	270.392	80.001	19.995	103.179	20.024	0.953	0.516
392.000	274.406	80.006	19.995	103.183	20.027	0.696	0.544
400.000	278.391	79.997	19.997	103.180	20.029	0.618	0.520
408.000	282.399	79.992	19.996	103.184	20.028	0.667	0.502
416.000	286.397	79.993	19.996	103.188	20.027	0.728	0.514
424.000	290.472	79.988	19.997	103.174	20.026	0.768	0.534
432.000	294.660	80.013	19.991	103.169	20.028	0.674	0.566
440.000	298.704	79.995	19.997	103.157	20.029	0.566	0.446
448.000	302.823	79.985	19.997	103.165	20.025	0.830	0.500
456.000	306.915	80.003	19.995	103.159	20.026	0.790	0.483
464.000	310.945	80.021	20.000	103.174	20.025	0.848	0.518
472.000	314.982	80.006	19.996	103.169	20.027	0.700	0.482
480.000	318.916	80.008	19.994	103.156	20.028	0.676	0.476
488.000	322.860	80.000	19.995	103.168	20.026	0.779	0.504
496.000	326.841	80.004	19.994	103.171	20.025	0.879	0.525
504.000	330.812	79.989	19.997	103.147	20.028	0.660	0.537
512.000	334.762	80.005	19.996	103.153	20.026	0.801	0.477
520.000	338.735	79.994	19.996	103.166	20.025	0.881	0.476
528.000	342.746	80.001	19.995	103.167	20.025	0.830	0.486
536.000	346.850	79.997	19.994	103.176	20.026	0.799	0.521
544.000	350.983	80.017	19.992	103.161	20.024	0.918	0.484
552.000	355.150	79.989	19.995	103.156	20.029	0.605	0.494
560.000	359.239	80.002	19.994	103.147	20.028	0.645	0.529
568.000	363.278	79.991	19.996	103.145	20.029	0.570	0.492
576.000	367.311	80.010	19.993	103.150	20.027	0.689	0.496
584.000	371.313	79.982	19.998	103.160	20.027	0.720	0.477
592.000	375.305	80.003	19.996	103.147	20.028	0.623	0.457
600.000	379.212	79.993	19.995	103.154	20.025	0.845	0.472
608.000	383.075	79.986	19.996	103.150	20.023	1.017	0.458
616.000	387.018	80.004	19.994	103.154	20.020	1.174	0.519
624.000	390.868	80.010	19.994	103.151	20.024	0.909	0.496
632.000	394.814	79.998	19.997	103.147	20.022	1.039	0.449
640.000	398.875	79.993	19.995	103.151	20.026	0.802	0.529
648.000	402.969	79.993	19.997	103.147	20.019	1.231	0.549
656.000	407.053	80.005	19.995	103.148	20.027	0.746	0.521
664.000	411.019	80.009	19.993	103.140	20.027	0.749	0.494
672.000	414.938	80.010	19.994	103.149	20.026	0.813	0.499
680.000	418.989	80.002	19.994	103.165	20.022	1.033	0.508
688.000	423.231	80.006	19.994	103.153	20.024	0.921	0.531
696.000	427.450	79.999	19.996	103.100	20.025	0.872	0.533
704.000	431.649	79.999	19.993	103.211	20.025	0.850	0.491
712.000	435.867	79.999	19.993	103.145	20.026	0.782	0.521
720.000	439.967	79.996	19.996	103.146	20.021	1.097	0.533
728.000	444.130	79.998	19.994	103.146	20.021	1.134	0.500
736.000	448.304	80.006	19.994	103.134	20.018	1.317	0.539
744.000	452.545	79.998	19.994	103.188	20.024	0.947	0.529
752.000	456.876	80.002	19.994	103.147	20.021	1.145	0.529
760.000	461.183	80.003	19.993	103.147	20.023	0.980	0.573
768.000	465.412	79.998	19.994	103.139	20.025	0.837	0.505
776.000	469.629	79.997	19.996	103.147	20.025	0.859	0.530
784.000	473.851	79.985	19.999	103.143	20.019	1.255	0.517
792.000	477.981	79.989	19.996	103.151	20.023	0.991	0.493
800.000	482.075	80.005	19.995	103.137	20.024	0.943	0.502
808.000	486.100	80.003	19.995	103.142	20.021	1.145	0.505
816.000	490.134	79.998	19.994	103.131	20.028	0.658	0.527
824.000	494.084	80.000	19.994	103.137	20.019	1.280	0.484
832.000	498.072	80.009	19.990	103.138	20.022	1.026	0.534
840.000	501.925	80.009	19.992	103.121	20.015	1.539	0.488
848.000	505.812	80.002	19.994	103.137	20.021	1.147	0.510
856.000	510.002	79.977	19.998	103.145	20.019	1.242	0.306
864.000	513.781	80.001	19.993	103.141	20.021	1.125	0.472
872.000	517.888	79.999	20.001	103.144	20.024	0.943	0.478
880.000	521.908	80.004	19.993	103.127	20.024	0.899	0.524
888.000	525.834	80.003	19.995	103.122	20.022	1.035	0.482
896.000	529.729	79.999	19.999	103.127	20.024	0.919	0.498
904.000	533.701	79.998	19.996	103.136	20.022	1.086	0.500
912.000	537.737	79.999	19.993	103.128	20.022	1.048	0.526
920.000	541.671	79.996	19.995	103.124	20.017	1.420	0.500
928.000	545.660	79.999	20.002	103.141	20.019	1.268	0.484
936.000	549.801	79.996	19.991	103.141	20.016	1.471	0.524
944.000	553.955	79.994	19.996	103.126	20.023	0.985	0.529
952.000	558.094	79.998	19.992	103.135	20.022	1.090	0.529
960.000	562.245	79.995	19.995	103.134	20.020	1.163	0.540
968.000	566.230	79.999	19.996	103.125	20.018	1.330	0.476
976.000	570.299	79.995	19.999	103.113	20.018	1.315	0.495
984.000	574.440	80.005	19.997	103.126	20.020	1.192	0.519
992.000	578.550	80.003	19.994	103.119	20.016	1.469	0.504
1000.000	582.540	80.018	19.995	103.144	20.019	1.253	0.507
1008.000	586.550	80.000	19.995	103.118	20.022	1.044	0.491
1016.000	590.625	79.997	19.997	103.127	20.020	1.213	0.511
1024.000	594.743	80.003	19.995	103.127	20.017	1.381	0.541
1031.999	598.784	79.995	19.994	103.138	20.019	1.255	0.483
1039.999	602.929	79.987	19.995	103.140	20.019	1.251	0.499
1047.999	607.093	80.000	19.997	103.148	20.023	0.965	0.541
1055.999	611.269	79.997	19.997	103.117	20.022	1.060	0.520
1063.999	615.424	79.998	19.993	103.128	20.020	1.214	0.510
1071.999	619.556	79.998	19.996	103.114	20.020	1.203	0.519
1079.999	623.686	80.004	19.994	103.115	20.018	1.339	0.504
1088.000	627.779	80.001	19.996	103.110	20.020	1.200	0.492
1095.999	631.808	80.002	19.995	103.124	20.017	1.416	0.484
1103.999	635.864	80.003	19.993	103.119	20.017	1.407	0.544
1112.000	639.912	79.996	20.001	103.121	20.018	1.315	0.512
1119.999	643.920	80.000	20.000	103.122	20.017	1.386	0.499
1128.000	647.916	79.998	19.996	103.130	20.017	1.383	0.498
1135.999	651.953	79.999	19.992	103.112	20.014	1.575	0.500
1143.999	655.948	79.997	19.993	103.106	20.015	1.546	0.491
1152.000	660.014	80.000	19.995	103.115	20.016	1.449	0.528
1160.000	664.098	80.002	19.994	103.110	20.017	1.390	0.506
1168.000	668.146	79.998	19.995	103.112	20.019	1.276	0.491
1176.000	671.977	80.002	19.995	103.110	20.020	1.222	0.396
1184.000	676.412	80.004	19.993	103.113	20.018	1.313	0.529
1192.000	680.420	79.997	19.997	103.112	20.014	1.569	0.494
1200.000	684.458	79.998	19.997	103.112	20.018	1.311	0.506
1208.000	688.484	80.001	19.993	103.110	20.018	1.295	0.528
1216.000	692.446	80.000	19.992	103.108	20.014	1.619	0.486
1224.000	696.582	80.000	19.994	103.112	20.013	1.650	0.535
1232.000	700.574	79.995	19.999	103.113	20.014	1.586	0.474
1240.000	704.564	80.000	19.998	103.112	20.013	1.634	0.492
1248.000	708.486	80.001	19.993	103.124	20.011	1.795	0.453
1256.000	712.558	79.999	19.994	103.118	20.012	1.712	0.512
1264.000	716.620	80.002	19.995	103.112	20.011	1.829	0.507
1272.000	720.581	80.002	19.994	103.107	20.010	1.899	0.497
1280.000	724.589	79.999	19.995	103.122	20.008	2.005	0.535
1288.000	728.583	80.000	19.993	103.121	20.009	1.912	0.487
1296.000	732.647	79.996	19.991	103.114	20.013	1.646	0.519
1304.000	736.650	79.998	19.997	103.112	20.008	2.033	0.475
1312.000	740.669	79.997	19.994	103.112	20.010	1.837	0.501
1318.000	743.651	80.000	19.997	103.114	20.010	1.862	0.496