File: 01_Data/Oak_Flooring/STA/N2/30K_min/Oak_Flooring_STA_N2_30KData_211209_R2.csv
,Time/min,DSC/mW,Mass loss/mg,Sensit./(uV/mW)
50.0,10.6849,0.39041,-0.0185104,1.0695
52.8,10.9676,0.916991,-0.0173721,1.06924
55.6,11.1564,1.3187,-0.0177568,1.06895
58.4,11.3109,1.64412,-0.0172733,1.06864
61.2,11.4475,1.91698,-0.0179757,1.06831
64,11.5728,2.17027,-0.0192678,1.06796
66.8,11.6904,2.37182,-0.0189321,1.06759
69.6,11.8038,2.56836,-0.0186999,1.06719
72.4,11.9131,2.74871,-0.0193203,1.06678
75.2,12.0193,2.9052,-0.0212353,1.06634
78,12.1236,3.05238,-0.0209782,1.06588
80.8,12.2258,3.19564,-0.0216641,1.0654
83.6,12.3269,3.33682,-0.0221718,1.0649
86.4,12.4264,3.45673,-0.0229599,1.06437
89.2,12.5247,3.57753,-0.0237047,1.06383
92,12.622,3.66862,-0.0255352,1.06327
94.8,12.7187,3.75621,-0.0265401,1.06268
97.6,12.8147,3.82857,-0.0279823,1.06208
100.4,12.9103,3.88643,-0.0302564,1.06145
103.2,13.0053,3.91477,-0.0315807,1.0608
106,13.1001,3.94283,-0.03159,1.06013
108.8,13.1948,3.94285,-0.0329103,1.05945
111.6,13.2891,3.92148,-0.03422,1.05874
114.4,13.3835,3.92446,-0.0355126,1.05801
117.2,13.4772,3.95331,-0.03422,1.05726
120,13.5708,3.94809,-0.03554,1.0565
122.8,13.6639,3.93498,-0.0363657,1.05571
125.6,13.7566,3.91514,-0.03685,1.0549
128.4,13.849,3.90125,-0.03685,1.05407
131.2,13.9408,3.89241,-0.0388056,1.05323
134,14.0323,3.87211,-0.0388316,1.05236
136.8,14.1234,3.86396,-0.03882,1.05148
139.6,14.2139,3.86859,-0.03882,1.05057
142.4,14.3043,3.87734,-0.03882,1.04965
145.2,14.3942,3.90822,-0.03882,1.0487
148,14.4837,3.94358,-0.04014,1.04774
150.8,14.5731,3.95784,-0.0388304,1.04676
153.6,14.6622,4.00267,-0.0404177,1.04576
156.4,14.7511,4.03193,-0.04114,1.04475
159.2,14.8398,4.07754,-0.0398203,1.04371
162,14.9282,4.10925,-0.04113,1.04266
164.8,15.0166,4.14489,-0.04113,1.04158
167.6,15.1045,4.17938,-0.04113,1.04049
170.4,15.1926,4.21372,-0.04113,1.03939
173.2,15.2803,4.25397,-0.04113,1.03826
176,15.3678,4.29507,-0.04113,1.03712
178.8,15.4551,4.33322,-0.04113,1.03596
181.6,15.5422,4.38431,-0.04113,1.03478
184.4,15.629,4.42417,-0.04113,1.03359
187.2,15.7155,4.46478,-0.04113,1.03237
190,15.8018,4.50667,-0.0437905,1.03114
192.8,15.8879,4.53866,-0.04377,1.0299
195.6,15.9741,4.59757,-0.04377,1.02863
198.4,16.0599,4.63639,-0.04377,1.02735
201.2,16.1457,4.68627,-0.04377,1.02606
204,16.2314,4.73279,-0.04508,1.02475
206.8,16.317,4.77591,-0.04508,1.02342
209.6,16.4027,4.82217,-0.0464,1.02207
212.4,16.4882,4.88526,-0.047349,1.02071
215.2,16.5737,4.9341,-0.0468644,1.01933
218,16.659,4.99073,-0.04804,1.01794
220.8,16.7442,5.04726,-0.0507145,1.01653
223.6,16.8296,5.1003,-0.05199,1.01511
226.4,16.9148,5.14697,-0.0542843,1.01367
229.2,16.9998,5.20591,-0.0543011,1.01221
232,17.0851,5.23957,-0.0558815,1.01074
234.8,17.1703,5.26498,-0.0596524,1.00926
237.6,17.2556,5.27795,-0.0636617,1.00776
240.4,17.3406,5.28697,-0.0658024,1.00625
243.2,17.4257,5.32103,-0.0704104,1.00472
246,17.5109,5.35607,-0.0753021,1.00317
248.8,17.5958,5.3955,-0.0809709,1.00162
251.6,17.6807,5.44654,-0.0880613,1.00004
254.4,17.7655,5.4823,-0.0950717,0.998462
257.2,17.8503,5.53373,-0.100586,0.996861
260,17.9352,5.59072,-0.106185,0.995243
262.8,18.02,5.63606,-0.113743,0.993621
265.6,18.105,5.6779,-0.124513,0.991981
268.4,18.1899,5.72314,-0.133242,0.990322
271.2,18.2745,5.75846,-0.14322,0.988662
274,18.3596,5.7832,-0.153712,0.986982
276.8,18.4445,5.79817,-0.166918,0.985282
279.6,18.5292,5.80149,-0.181493,0.983581
282.4,18.614,5.8001,-0.19933,0.981862
285.2,18.6989,5.77811,-0.21923,0.980131
288,18.7837,5.74625,-0.240658,0.978382
290.8,18.8686,5.67785,-0.26798,0.976631
293.6,18.9534,5.61999,-0.294642,0.97486
296.4,19.0383,5.52305,-0.325115,0.973081
299.2,19.1231,5.40758,-0.361332,0.97129
302,19.2082,5.2754,-0.398364,0.969481
304.8,19.293,5.12473,-0.439971,0.967671
307.6,19.3778,4.97134,-0.486012,0.96584
310.4,19.4628,4.8265,-0.534192,0.964001
313.2,19.5477,4.66969,-0.586098,0.962151
316,19.6326,4.53346,-0.639969,0.960291
318.8,19.7176,4.41846,-0.696318,0.95842
321.6,19.8028,4.32734,-0.754912,0.95654
324.4,19.888,4.28056,-0.81405,0.95465
327.2,19.9731,4.2715,-0.87476,0.952741
330,20.0584,4.3118,-0.936133,0.95083
332.8,20.1439,4.38514,-0.99751,0.94891
335.6,20.2292,4.50271,-1.06041,0.946971
338.4,20.3149,4.63538,-1.1229,0.94503
341.2,20.4007,4.79985,-1.18796,0.94308
344,20.4864,4.96657,-1.25358,0.94112
346.8,20.5722,5.14808,-1.32113,0.93914
349.6,20.658,5.33009,-1.39318,0.93716
352.4,20.744,5.52182,-1.46834,0.93517
355.2,20.8303,5.70647,-1.54696,0.93317
358,20.9166,5.89255,-1.63021,0.93116
360.8,21.0029,6.07025,-1.71935,0.92914
363.6,21.0894,6.22598,-1.81242,0.927119
366.4,21.1759,6.34848,-1.91038,0.92508
369.2,21.2626,6.41411,-2.01208,0.923039
372,21.3492,6.38375,-2.11772,0.920989
374.8,21.436,6.26677,-2.22487,0.918929
377.6,21.5227,6.02631,-2.33139,0.916859
380.4,21.6095,5.63381,-2.43497,0.91478
383.2,21.6963,5.07431,-2.53074,0.912699
386,21.7829,4.38628,-2.6172,0.910609
388.8,21.8698,3.6066,-2.69014,0.908509
391.6,21.9565,2.87817,-2.74508,0.9064
394.4,22.0434,2.30841,-2.78384,0.904289
397.2,22.1302,1.92382,-2.80864,0.90217
400,22.2173,1.6534,-2.82741,0.900039
402.8,22.3044,1.46402,-2.84091,0.8979
405.6,22.3916,1.30872,-2.85255,0.89576
408.4,22.4788,1.17473,-2.86313,0.89361
411.2,22.5663,1.06039,-2.87362,0.891458
414,22.6539,0.977495,-2.88206,0.889299
416.8,22.7415,0.890533,-2.89119,0.887129
419.6,22.8293,0.826177,-2.90104,0.884959
422.4,22.917,0.758933,-2.91059,0.882779
425.2,23.005,0.706689,-2.91815,0.88059
428,23.0929,0.668763,-2.92545,0.878399
430.8,23.1809,0.642511,-2.93431,0.876209
433.6,23.269,0.64165,-2.94206,0.874
436.4,23.3567,0.635372,-2.94858,0.871799
439.2,23.4454,0.657512,-2.95805,0.869589
442,23.5336,0.694692,-2.96329,0.867369
444.8,23.622,0.732015,-2.97013,0.86514
447.6,23.7105,0.781253,-2.9768,0.862919
450.4,23.7988,0.829866,-2.98182,0.860679
453.2,23.8875,0.892816,-2.98975,0.858449
456,23.9761,0.964628,-2.99463,0.856209
458.8,24.0648,1.022,-3.00008,0.853959
461.6,24.1536,1.08385,-3.00519,0.851709
464.4,24.2425,1.16025,-3.01101,0.849458
467.2,24.3316,1.23538,-3.01753,0.847199
470,24.4204,1.28973,-3.02247,0.844928
472.8,24.5095,1.3597,-3.0267,0.842669
475.6,24.5987,1.43042,-3.02951,0.840399
478.4,24.6878,1.45656,-3.0355,0.838119
481.2,24.777,1.51238,-3.03934,0.835849
484,24.8664,1.5472,-3.04349,0.833568
486.8,24.9559,1.58907,-3.04799,0.831279
489.6,25.0454,1.632,-3.0508,0.828988
492.4,25.1346,1.65647,-3.05328,0.826698
495.2,25.2244,1.69527,-3.05762,0.824409
498,25.3141,1.71385,-3.0625,0.822108
500.8,25.404,1.7396,-3.06539,0.819818
503.6,25.4937,1.75549,-3.06814,0.817508
506.4,25.5836,1.77635,-3.07116,0.815209
509.2,25.6737,1.80711,-3.07465,0.812898
512,25.7637,1.85004,-3.07785,0.810588
514.8,25.8535,1.89979,-3.08158,0.808278
517.6,25.9438,1.93027,-3.08411,0.805969
520.4,26.0339,1.95663,-3.08818,0.803648
523.2,26.1242,2.00741,-3.09095,0.801338
526,26.2143,2.03583,-3.09359,0.799018
528.8,26.3045,2.06142,-3.09634,0.796698
531.6,26.3951,2.09265,-3.10028,0.794368
534.4,26.4856,2.12407,-3.10181,0.792049
537.2,26.5759,2.15496,-3.10421,0.789718
540,26.6665,2.17227,-3.10659,0.787398
542.8,26.7573,2.19422,-3.10827,0.785068
545.6,26.8477,2.21048,-3.11236,0.782738
548.4,26.9385,2.22567,-3.11377,0.780408
551.2,27.0294,2.24912,-3.11673,0.778078
554,27.1201,2.24388,-3.11908,0.775738
556.8,27.2111,2.25885,-3.11899,0.773409
559.6,27.3021,2.25184,-3.12161,0.771068
562.4,27.393,2.23733,-3.1243,0.768739
565.2,27.4839,2.23194,-3.12579,0.766398
568,27.575,2.24247,-3.12824,0.764068
570.8,27.6665,2.22915,-3.13088,0.761729
573.6,27.7578,2.22967,-3.13217,0.759388
576.4,27.8492,2.228,-3.13362,0.757058
579.2,27.9405,2.22765,-3.13614,0.754719
582,28.0319,2.23024,-3.13888,0.752378
584.8,28.1234,2.23335,-3.14018,0.750038
587.6,28.2148,2.23351,-3.14168,0.747708
590.4,28.3065,2.24097,-3.1435,0.745369
593.2,28.398,2.26242,-3.14569,0.743028
596,28.4897,2.28026,-3.14746,0.740698
598.8,28.5814,2.28587,-3.14875,0.738359
601.6,28.6733,2.30485,-3.15007,0.736018
604.4,28.7652,2.30612,-3.15196,0.733689
607.2,28.857,2.31615,-3.15396,0.731348
610,28.9488,2.35321,-3.15535,0.729019
612.8,29.0409,2.36911,-3.15798,0.726688
615.6,29.1329,2.39127,-3.15928,0.724348
618.4,29.2251,2.41696,-3.16059,0.722019
621.2,29.317,2.44129,-3.16421,0.719689
624,29.4093,2.46001,-3.16434,0.717359
626.8,29.5014,2.4925,-3.16691,0.715028
629.6,29.5937,2.51564,-3.16686,0.712698
632.4,29.686,2.53827,-3.16817,0.710379
635.2,29.7782,2.57215,-3.17082,0.708048
638,29.8708,2.60926,-3.17195,0.705729
640.8,29.9632,2.65236,-3.17399,0.703408
643.6,30.0553,2.70452,-3.1753,0.701088
646.4,30.1478,2.75687,-3.17662,0.698768
649.2,30.24,2.80475,-3.17794,0.696449
652,30.3326,2.84851,-3.1789,0.694129
654.8,30.4251,2.87084,-3.18154,0.691818
657.6,30.5179,2.87629,-3.18188,0.689498
660.4,30.6107,2.87622,-3.1832,0.687188
663.2,30.7034,2.85658,-3.18451,0.684878
666,30.7962,2.8206,-3.18686,0.682578
668.8,30.8891,2.80861,-3.18715,0.680269
671.6,30.982,2.76062,-3.18848,0.677969
674.4,31.0749,2.74536,-3.19011,0.675668
677.2,31.1678,2.73298,-3.19056,0.673369
680,31.2606,2.75067,-3.19012,0.671069
682.8,31.3537,2.78323,-3.19143,0.668778
685.6,31.4467,2.79164,-3.19314,0.666479
688.4,31.5396,2.80322,-3.19454,0.664189
691.2,31.6324,2.80494,-3.19449,0.661898
694,31.7254,2.83096,-3.19581,0.659619
696.8,31.8183,2.82798,-3.19713,0.657338
699.6,31.9113,2.83337,-3.19713,0.655058
702.4,32.0043,2.82613,-3.19812,0.652779
705.2,32.0974,2.82248,-3.19814,0.650499
708,32.1904,2.84174,-3.19812,0.648229
710.8,32.2836,2.8275,-3.19943,0.645959
713.6,32.3768,2.81339,-3.20078,0.643689
716.4,32.4702,2.80627,-3.20075,0.641429
719.2,32.5635,2.8013,-3.20135,0.639169
722,32.6568,2.77154,-3.20075,0.636909
724.8,32.7504,2.77941,-3.20292,0.634649
727.6,32.8439,2.76901,-3.20437,0.632399
730.4,32.9374,2.74686,-3.20306,0.630149
733.2,33.0312,2.69697,-3.20269,0.627899
736,33.1246,2.69324,-3.20315,0.625659
738.8,33.2184,2.67818,-3.20568,0.623409
741.6,33.3121,2.62586,-3.207,0.621179
744.4,,,,
747.2,,,,
750,,,,