File: 01_Data/Oak_Flooring/STA/N2/30K_min/Oak_Flooring_STA_N2_30KData_211208_R1.csv
,Time/min,DSC/mW,Mass loss/mg,Sensit./(uV/mW)
50.0,10.707,0.420647,-0.0379707,1.0695
52.8,10.9803,0.861347,-0.0396083,1.06924
55.6,11.1663,1.20106,-0.0408367,1.06895
58.4,11.3195,1.48516,-0.0399992,1.06864
61.2,11.4554,1.73239,-0.0416839,1.06831
64,11.5808,1.93546,-0.039558,1.06796
66.8,11.6986,2.13072,-0.0406472,1.06758
69.6,11.8113,2.30255,-0.0398949,1.06719
72.4,11.9204,2.46565,-0.0413624,1.06677
75.2,12.0267,2.60536,-0.0417488,1.06633
78,12.1308,2.74375,-0.0434105,1.06587
80.8,12.2329,2.87097,-0.0434271,1.06539
83.6,12.3339,2.98574,-0.0425014,1.06489
86.4,12.4332,3.10317,-0.0447411,1.06437
89.2,12.5314,3.20281,-0.0457781,1.06382
92,12.6285,3.2949,-0.0462057,1.06326
94.8,12.725,3.36119,-0.0491472,1.06267
97.6,12.821,3.42331,-0.0500029,1.06207
100.4,12.9163,3.4665,-0.0504561,1.06144
103.2,13.0115,3.50065,-0.0517595,1.0608
106,13.1062,3.5011,-0.0520646,1.06013
108.8,13.2007,3.49754,-0.05309,1.05944
111.6,13.2951,3.48593,-0.055061,1.05873
114.4,13.3892,3.48992,-0.0577006,1.058
117.2,13.4826,3.5049,-0.05769,1.05726
120,13.5764,3.49911,-0.0563888,1.0565
122.8,13.6693,3.4683,-0.05901,1.0557
125.6,13.762,3.45765,-0.0589995,1.05489
128.4,13.8543,3.43316,-0.06032,1.05407
131.2,13.946,3.40382,-0.06032,1.05322
134,14.0373,3.39461,-0.0616411,1.05235
136.8,14.1284,3.38036,-0.0616457,1.05147
139.6,14.2191,3.36991,-0.06165,1.05057
142.4,14.3092,3.38732,-0.0604773,1.04964
145.2,14.3992,3.40466,-0.0603418,1.04871
148,14.4886,3.42884,-0.06164,1.04775
150.8,14.578,3.44887,-0.0623145,1.04677
153.6,14.6671,3.48292,-0.0616508,1.04577
156.4,14.7559,3.51578,-0.060399,1.04475
159.2,14.8445,3.54555,-0.0616966,1.04372
162,14.9331,3.5769,-0.062276,1.04266
164.8,15.0214,3.60558,-0.0621221,1.04159
167.6,15.1096,3.64699,-0.06164,1.0405
170.4,15.1975,3.6738,-0.0629608,1.03939
173.2,15.2852,3.69882,-0.06362,1.03827
176,15.3728,3.72706,-0.0621991,1.03713
178.8,15.4602,3.76081,-0.06362,1.03597
181.6,15.5472,3.80308,-0.0629655,1.03479
184.4,15.6339,3.84252,-0.0649445,1.03359
187.2,15.7205,3.87642,-0.0636155,1.03238
190,15.8069,3.9247,-0.0623,1.03115
192.8,15.8932,3.95545,-0.0636974,1.0299
195.6,15.9791,3.99457,-0.0635835,1.02864
198.4,16.0651,4.02353,-0.0662158,1.02736
201.2,16.151,4.05122,-0.0674076,1.02606
204,16.2367,4.08139,-0.06757,1.02475
206.8,16.3225,4.11957,-0.06757,1.02342
209.6,16.4081,4.1533,-0.0682303,1.02208
212.4,16.4935,4.19289,-0.0698705,1.02072
215.2,16.579,4.23714,-0.06987,1.01934
218,16.664,4.27779,-0.070316,1.01795
220.8,16.7496,4.33044,-0.07053,1.01654
223.6,16.8347,4.38415,-0.0718502,1.01511
226.4,16.92,4.44073,-0.07447,1.01367
229.2,17.0052,4.48021,-0.07448,1.01222
232,17.0904,4.52517,-0.0772082,1.01075
234.8,17.1754,4.55286,-0.0803309,1.00926
237.6,17.2606,4.55216,-0.083372,1.00776
240.4,17.3459,4.54838,-0.0861019,1.00625
243.2,17.4308,4.55769,-0.0906041,1.00472
246,17.5159,4.56959,-0.0951543,1.00318
248.8,17.6009,4.59155,-0.100399,1.00162
251.6,17.6858,4.63295,-0.10804,1.00005
254.4,17.7705,4.672,-0.116454,0.99846
257.2,17.8556,4.71241,-0.122095,0.99686
260,17.9403,4.75178,-0.129574,0.99525
262.8,18.0252,4.78182,-0.136249,0.99362
265.6,18.1099,4.82543,-0.145692,0.99198
268.4,18.1948,4.84999,-0.153687,0.990328
271.2,18.2795,4.87969,-0.165071,0.98866
274,18.3643,4.88218,-0.176161,0.98698
276.8,18.4492,4.90281,-0.190685,0.985279
279.6,18.534,4.90606,-0.205412,0.98358
282.4,18.6186,4.89648,-0.22194,0.98186
285.2,18.7035,4.86656,-0.242213,0.980129
288,18.7882,4.83754,-0.265918,0.978381
290.8,18.8731,4.77134,-0.290591,0.97663
293.6,18.9578,4.69249,-0.32001,0.974859
296.4,19.0428,4.60073,-0.351762,0.97308
299.2,19.1275,4.47953,-0.387668,0.97129
302,19.2126,4.34466,-0.42697,0.969481
304.8,19.2974,4.19544,-0.469072,0.96767
307.6,19.3823,4.04131,-0.51399,0.965841
310.4,19.4672,3.87019,-0.563319,0.964001
313.2,19.5523,3.70899,-0.616127,0.96215
316,19.6372,3.54618,-0.673505,0.96029
318.8,19.7223,3.41626,-0.73008,0.958421
321.6,19.8076,3.32012,-0.788475,0.956542
324.4,19.8928,3.24967,-0.85011,0.954652
327.2,19.978,3.22766,-0.911685,0.95274
330,20.0633,3.25619,-0.975562,0.950831
332.8,20.1488,3.33217,-1.03856,0.948911
335.6,20.2344,3.4526,-1.10136,0.946971
338.4,20.3199,3.5753,-1.16772,0.945031
341.2,20.4054,3.7344,-1.23332,0.943081
344,20.4913,3.90562,-1.30087,0.941111
346.8,20.5773,4.09437,-1.37141,0.939141
349.6,20.6633,4.27633,-1.44472,0.937161
352.4,20.7494,4.46128,-1.52145,0.935171
355.2,20.8356,4.66696,-1.60154,0.933171
358,20.9218,4.85991,-1.6864,0.931161
360.8,21.0082,5.05131,-1.77577,0.929141
363.6,21.0944,5.21198,-1.87319,0.927112
366.4,21.1808,5.36816,-1.97264,0.925081
369.2,21.2673,5.44601,-2.07629,0.923042
372,21.3538,5.43826,-2.18385,0.920982
374.8,21.4405,5.33826,-2.29537,0.918922
377.6,21.5271,5.1324,-2.40476,0.916862
380.4,21.6137,4.74587,-2.50953,0.914782
383.2,21.7005,4.1908,-2.60933,0.912702
386,21.7871,3.47126,-2.69874,0.910602
388.8,21.8738,2.65473,-2.77379,0.908502
391.6,21.9605,1.87981,-2.83106,0.906402
394.4,22.0472,1.26025,-2.87154,0.904282
397.2,22.1338,0.836388,-2.9003,0.902162
400,22.2206,0.545202,-2.91529,0.900041
402.8,22.3075,0.328886,-2.9306,0.897903
405.6,22.3946,0.171983,-2.94296,0.895763
408.4,22.4818,0.0342376,-2.95449,0.893613
411.2,22.5687,-0.0885426,-2.9649,0.891462
414,22.6561,-0.197198,-2.97498,0.889302
416.8,22.7433,-0.28217,-2.98461,0.887133
419.6,22.8307,-0.370549,-2.99508,0.884962
422.4,22.9181,-0.445275,-3.00232,0.882782
425.2,23.0057,-0.500168,-3.01058,0.880593
428,23.0933,-0.54142,-3.01922,0.878403
430.8,23.1809,-0.564694,-3.02684,0.876203
433.6,23.2687,-0.586125,-3.03416,0.874003
436.4,23.3566,-0.594094,-3.04176,0.871792
439.2,23.4445,-0.578126,-3.04987,0.869583
442,23.5325,-0.562139,-3.05805,0.867363
444.8,23.6205,-0.535593,-3.0654,0.865143
447.6,23.709,-0.500302,-3.07015,0.862913
450.4,23.7975,-0.449255,-3.07761,0.860683
453.2,23.8859,-0.402442,-3.08417,0.858443
456,23.9745,-0.35348,-3.09059,0.856203
458.8,24.0631,-0.298569,-3.09846,0.853963
461.6,24.1518,-0.255927,-3.10323,0.851713
464.4,24.2408,-0.185978,-3.10954,0.849453
467.2,24.3298,-0.135774,-3.11446,0.847193
470,24.4188,-0.0764841,-3.11872,0.844933
472.8,24.5078,-0.0188489,-3.12263,0.842662
475.6,24.597,0.0354267,-3.12815,0.840392
478.4,24.6863,0.0646676,-3.13295,0.838123
481.2,24.7756,0.122872,-3.13634,0.835843
484,24.8651,0.151995,-3.13995,0.833563
486.8,24.9546,0.193431,-3.14383,0.831283
489.6,25.0442,0.213649,-3.14694,0.828993
492.4,25.1337,0.225177,-3.15205,0.826703
495.2,25.2236,0.250187,-3.15517,0.824414
498,25.3131,0.275266,-3.15872,0.822113
500.8,25.403,0.287518,-3.16193,0.819813
503.6,25.4928,0.312169,-3.16467,0.817513
506.4,25.5829,0.355175,-3.16889,0.815214
509.2,25.6728,0.411102,-3.17295,0.812903
512,25.7628,0.444608,-3.176,0.810593
514.8,25.8528,0.481755,-3.17954,0.808283
517.6,25.9428,0.512232,-3.18336,0.805964
520.4,26.0331,0.53727,-3.18605,0.803653
523.2,26.1234,0.560603,-3.18807,0.801333
526,26.2137,0.578324,-3.19088,0.799014
528.8,26.304,0.601497,-3.19362,0.796693
531.6,26.3943,0.603946,-3.196,0.794373
534.4,26.4848,0.621627,-3.19903,0.792044
537.2,26.5753,0.618005,-3.2022,0.789723
540,26.6659,0.625532,-3.20513,0.787393
542.8,26.7567,0.631072,-3.20762,0.785064
545.6,26.8474,0.634474,-3.20904,0.782734
548.4,26.9383,0.626223,-3.21128,0.780404
551.2,27.0291,0.617193,-3.21418,0.778072
554,27.1201,0.608418,-3.21676,0.775744
556.8,27.2111,0.597967,-3.21934,0.773404
559.6,27.302,0.576466,-3.22074,0.771072
562.4,27.3928,0.5488,-3.22203,0.768734
565.2,27.4838,0.522725,-3.22477,0.766402
568,27.575,0.488806,-3.22634,0.764064
570.8,27.666,0.45196,-3.22773,0.761734
573.6,27.7571,0.422256,-3.22905,0.759392
576.4,27.8485,0.409522,-3.23202,0.757054
579.2,27.9397,0.372596,-3.23359,0.754714
582,28.0309,0.34686,-3.23607,0.752384
584.8,28.1224,0.346838,-3.23888,0.750042
587.6,28.2136,0.327239,-3.24431,0.747704
590.4,28.3051,0.302028,-3.24428,0.745374
593.2,28.3967,0.296411,-3.24455,0.743034
596,28.4882,0.275809,-3.24692,0.740692
598.8,28.58,0.269293,-3.24824,0.738354
601.6,28.6715,0.256503,-3.25037,0.736022
604.4,28.7634,0.250147,-3.25219,0.733684
607.2,28.8553,0.259445,-3.25484,0.731352
610,28.9471,0.238391,-3.25614,0.729014
612.8,29.0392,0.237972,-3.25745,0.726682
615.6,29.1311,0.245342,-3.25894,0.724352
618.4,29.2231,0.240485,-3.26071,0.722024
621.2,29.3152,0.238149,-3.26192,0.719694
624,29.4073,0.257396,-3.26345,0.717364
626.8,29.4995,0.265447,-3.26624,0.715034
629.6,29.5917,0.285614,-3.26798,0.712702
632.4,29.6837,0.320267,-3.26936,0.710374
635.2,29.7757,0.340811,-3.27064,0.708053
638,29.868,0.372992,-3.27194,0.705724
640.8,29.9602,0.380726,-3.27194,0.703403
643.6,30.0526,0.392552,-3.27453,0.701083
646.4,30.145,0.394105,-3.2759,0.698763
649.2,30.2375,0.383046,-3.27724,0.696444
652,30.3297,0.352384,-3.2794,0.694134
654.8,30.4223,0.333547,-3.28216,0.691813
657.6,30.5151,0.29323,-3.28213,0.689503
660.4,30.6078,0.260588,-3.28216,0.687193
663.2,30.7004,0.235785,-3.28477,0.684883
666,30.7932,0.221884,-3.28609,0.682573
668.8,30.886,0.201824,-3.28609,0.680274
671.6,30.9789,0.160749,-3.2874,0.677964
674.4,31.0718,0.181792,-3.28872,0.675662
677.2,31.1649,0.178791,-3.29005,0.673362
680,31.2581,0.153473,-3.29137,0.671074
682.8,31.3512,0.151631,-3.29267,0.668773
685.6,31.4444,0.134618,-3.29266,0.666483
688.4,31.5376,0.143767,-3.29282,0.664193
691.2,31.6308,0.126625,-3.29398,0.661903
694,31.7241,0.136023,-3.29497,0.659624
696.8,31.8175,0.136639,-3.29628,0.657332
699.6,31.9108,0.130571,-3.29637,0.655053
702.4,32.0042,0.108659,-3.2969,0.652772
705.2,32.0975,0.107867,-3.29791,0.650503
708,32.191,0.119948,-3.29925,0.648234
710.8,32.2844,0.0945687,-3.29925,0.645964
713.6,32.3778,0.10901,-3.29925,0.643693
716.4,32.4712,0.0955361,-3.30188,0.641422
719.2,32.5648,0.106584,-3.3032,0.639163
722,32.6581,0.108008,-3.30219,0.636903
724.8,32.7515,0.105728,-3.30353,0.634653
727.6,32.8451,0.0999459,-3.30484,0.632393
730.4,32.9383,0.101901,-3.30484,0.630143
733.2,33.0319,0.0926804,-3.30616,0.627903
736,33.1254,0.0904681,-3.30704,0.625653
738.8,33.2191,0.0883292,-3.30715,0.623413
741.6,33.3127,0.0832764,-3.30681,0.621173
744.4,,,,
747.2,,,,
750,,,,