File: 01_Data/Polyisocyanurate_Foam_Board/Cone/Polyisocyanurate_Foam_Board_Cone_HF75Scan_220913_R1.csv
Names,Time,Stack TC,Smoke TC,Exh Press,Smoke Comp,Smoke Meas,CO Meter,CO2 Meter,O2 Meter,Sample Mass,Ext Coeff,Start Test,Flame Verif
Chan Gain,,500,500,1,1,1,1,1,1,1,1,1.0,1.0
Offset,,0,0,0.13918,0,0,0,0,0,0,0,0.0,0.0
Gain,,1,1,25.011,14.0162,15.5607,1,1,1,1.0009,1.02981,1.0,1.0
Units,sec,C,C,Pa,%,%,%,%,%,g,/m,,
Baseline,,41.2328,43.3032,151.107,104.724,4.78786,0.00108287,0.0941494,20.9436,-1.5499,27.8705,,
11,2.5,39.6629,42.2181,149.677,105.324,4.64476,0.00108466,0.102895,20.9321,525.344,28.1961,0.0,0.0
22,5.25,40.256,41.8872,151.826,105.319,4.60012,0.00120246,0.103265,20.9334,525.274,28.2829,0.0,0.0
33,8,40.4767,42.2385,146.417,105.313,4.40685,0.00160241,0.107066,20.9308,525.254,28.6702,0.0,0.0
44,10.75,40.0987,42.6426,147.678,105.313,4.65805,0.00263407,0.124958,20.9021,525.084,28.1693,0.0,1.0
55,13.5,41.8002,43.068,142.063,105.313,4.44341,0.00456878,0.192661,20.8121,524.974,28.5955,0.0,1.0
66,16.25,42.8735,43.9361,141.124,105.309,4.53601,0.00737236,0.256427,20.7186,524.674,28.4088,0.0,1.0
77,19,44.664,45.82,133.381,105.282,4.50894,0.0101328,0.350669,20.5727,524.193,28.4605,0.0,1.0
88,21.75,46.7895,47.3866,135.993,105.275,4.49802,0.0124421,0.422278,20.4773,523.903,28.4819,0.0,0.0
99,24.5,49.1442,49.2862,136.136,105.227,4.37455,0.0147474,0.449034,20.4247,523.573,28.7292,0.0,0.0
110,27.25,50.4765,51.1844,132.069,105.215,4.41777,0.0168598,0.460858,20.4013,523.312,28.6393,0.0,0.0
121,30,52.0291,52.6448,136.272,105.184,4.68037,0.0168678,0.459868,20.3968,522.942,28.115,0.0,0.0
132,32.75,52.9686,53.6622,138.439,105.139,4.68845,0.0149598,0.437655,20.4243,522.582,28.0956,0.0,0.0
143,35.5,54.0075,54.8939,140.659,105.09,4.76348,0.012685,0.409136,20.4732,522.351,27.948,0.0,0.0
154,38.25,54.5391,55.9012,138.085,105.047,4.74068,0.0107992,0.377382,20.5269,522.261,27.9876,0.0,0.0
165,41,54.7515,56.0059,138.117,105.004,4.65616,0.00953316,0.348807,20.5686,522.021,28.1464,0.0,0.0
176,43.75,55.013,57.1128,140.014,104.952,4.72881,0.00845359,0.329514,20.6051,521.821,28.0021,0.0,0.0
187,46.5,55.1812,57.0555,143.24,104.898,4.57638,0.00787624,0.312905,20.6286,521.651,28.2935,0.0,0.0
198,49.25,55.2498,57.5246,138.692,104.878,4.55453,0.00759631,0.300614,20.6491,521.491,28.3349,0.0,0.0
209,52,55.5762,58.0626,137.745,104.817,4.5626,0.00771381,0.293156,20.6657,521.371,28.3137,0.0,0.0
220,54.75,55.5801,58.3918,144.395,104.791,4.62481,0.00806346,0.287306,20.6757,521.18,28.1891,0.0,0.0
231,57.5,55.8247,58.7347,145.208,104.728,4.49992,0.00850891,0.285948,20.6806,520.95,28.431,0.0,0.0
242,60.25,55.9198,58.9194,141.856,104.688,4.53554,0.00874963,0.28616,20.6822,520.8,28.3564,0.0,0.0
253,63,56.2926,59.1254,139.707,104.645,4.64048,0.00886504,0.290214,20.6789,520.59,28.146,0.0,0.0
264,65.75,55.8858,59.7871,142.93,104.625,4.62671,0.00870368,0.296468,20.6723,520.45,28.1711,0.0,0.0
275,68.5,56.3897,59.8843,142.856,104.577,4.60772,0.00830013,0.297817,20.6705,520.199,28.2041,0.0,0.0
286,71.25,56.7188,59.6496,139.647,104.533,4.64048,0.00748319,0.293385,20.678,520.039,28.1363,0.0,0.0
297,74,56.6248,60.0499,140.973,104.503,4.73071,0.00635452,0.274765,20.704,519.919,27.9598,0.0,0.0
308,76.75,56.7215,60.2773,141.741,104.474,4.67088,0.00539647,0.255613,20.7259,519.819,28.0722,0.0,0.0
319,79.5,55.7429,60.0373,147.394,104.451,4.70174,0.00456657,0.237957,20.7465,519.709,28.0108,0.0,0.0
330,82.25,56.332,59.4811,145.023,104.406,4.79672,0.00408708,0.218845,20.7711,519.619,27.8262,0.0,0.0
341,85,55.2101,59.3071,145.945,104.371,4.81571,0.00379548,0.20237,20.7946,519.569,27.7875,0.0,0.0
352,87.75,55.2362,59.5185,151.83,104.457,4.88932,0.00352188,0.188551,20.8153,519.519,27.6579,0.0,0.0
363,90.5,54.7203,58.7241,147.531,104.545,4.8803,0.00331466,0.177956,20.8301,519.539,27.6821,0.0,0.0
374,93.25,54.1778,58.3078,146.092,104.627,4.86463,0.00325086,0.16964,20.8408,519.469,27.7183,0.0,0.0
385,96,53.6636,57.9832,144.995,104.687,4.90879,0.00325482,0.163539,20.8487,519.379,27.6419,0.0,0.0
396,98.75,53.1924,57.529,149.334,104.757,4.90879,0.00327767,0.158809,20.8548,519.349,27.6479,0.0,0.0
407,101.5,52.7389,57.3963,148.131,104.809,4.87317,0.00322242,0.153784,20.8606,519.299,27.7181,0.0,0.0
418,104.25,52.6207,57.0649,146.807,104.846,4.88267,0.00306383,0.150129,20.8674,519.359,27.7038,0.0,0.0
429,107,52.3422,56.8784,146.374,104.864,4.87935,0.00285659,0.146709,20.8726,519.279,27.7115,0.0,0.0
440,109.75,51.7204,56.4158,149.443,104.841,4.91591,0.002862,0.143635,20.8771,519.239,27.642,0.0,0.0
451,112.5,51.2853,56.1057,150.123,104.832,4.91496,0.00304807,0.14156,20.8795,519.239,27.643,0.0,0.0
462,115.25,51.3568,55.4844,148.545,104.794,4.91496,0.00309633,0.139479,20.8838,519.259,27.6398,0.0,0.0
473,118,51.1147,55.4507,150.735,104.75,4.867,0.00318157,0.137178,20.8871,519.259,27.7246,0.0,0.0
484,120.75,50.7157,55.1412,149.996,104.656,4.92588,0.00319601,0.135826,20.8885,519.169,27.6078,0.0,0.0
495,123.5,50.3557,54.8604,146.684,104.566,4.90214,0.0032541,0.134859,20.8889,519.159,27.6436,0.0,0.0
506,126.25,50.5328,54.5489,147.671,104.469,4.89074,0.00359747,0.134062,20.8895,519.129,27.6563,0.0,0.0
517,129,49.6221,53.8043,147.269,104.355,4.85228,0.00390127,0.132605,20.8922,519.219,27.7177,0.0,0.0
528,131.75,49.5499,53.9843,146.726,104.247,4.85703,0.00399395,0.131342,20.8928,519.149,27.6996,0.0,0.0
539,134.5,49.5914,53.5449,148.642,104.118,4.83803,0.00386752,0.131177,20.8928,519.078,27.7238,0.0,0.0
550,137.25,48.9413,53.2433,147.632,104.017,4.82474,0.00382264,0.131648,20.8928,519.038,27.7399,0.0,0.0
561,140,48.9463,53.0077,149.933,104.024,4.83043,0.00377507,0.132563,20.8928,519.038,27.7299,0.0,0.0
572,142.75,48.5973,52.7394,150.975,104.068,4.85608,0.00366499,0.132686,20.8928,519.129,27.6858,0.0,0.0
583,145.5,47.739,52.2972,147.086,104.104,4.93871,0.00364048,0.133333,20.8929,519.028,27.5366,0.0,0.0
594,148.25,48.0892,52.2389,149.81,104.179,4.94346,0.00370695,0.133833,20.8928,519.018,27.5344,0.0,0.0
605,151,47.7806,51.4483,146.396,104.223,4.91401,0.00384868,0.133982,20.8934,518.978,27.5921,0.0,0.0
616,153.75,47.2496,51.6055,151.169,104.321,4.87507,0.00392346,0.134038,20.894,518.948,27.6725,0.0,0.0
627,156.5,47.6433,51.239,144.39,104.413,4.89787,0.00402605,0.134038,20.8944,519.018,27.6383,0.0,0.0
638,159.25,47.0163,50.7537,148.85,104.477,4.8841,0.00402601,0.133993,20.8957,518.868,27.6693,0.0,0.0
649,162,46.8926,50.6993,146.463,104.545,4.88362,0.00383356,0.134051,20.8965,518.858,27.676,0.0,0.0
660,164.75,47.2463,50.8769,146.085,104.604,4.92683,0.00370517,0.134033,20.8962,518.868,27.6015,0.0,0.0
671,167.5,46.5116,50.7632,145.31,104.654,4.88267,0.00372885,0.133964,20.8961,518.978,27.6872,0.0,0.0
682,170.25,47.0219,50.2032,148.705,104.687,4.87982,0.00372787,0.134041,20.8956,518.828,27.6954,0.0,0.0
693,173,46.9512,50.2864,152.518,104.713,4.8727,0.00367164,0.133684,20.8954,518.808,27.7107,0.0,0.0
704,175.75,47.2221,50.866,149.672,104.705,4.97052,0.00366394,0.133309,20.8954,518.778,27.5305,0.0,0.0
715,178.5,46.8095,50.3066,151.129,104.722,4.90547,0.00383928,0.132905,20.8966,518.708,27.651,0.0,0.0
726,181.25,47.1346,50.2348,144.752,104.725,4.92683,0.00382603,0.132776,20.8965,518.808,27.612,0.0,0.0
737,184,46.7484,50.1526,143.211,104.687,4.91639,0.00368165,0.133105,20.8957,518.708,27.6279,0.0,0.0
748,186.75,46.4886,50.2601,150.047,104.67,4.85133,0.00377177,0.132908,20.8955,518.698,27.7467,0.0,0.0
759,189.5,46.5649,49.764,148.399,104.621,4.88505,0.00384125,0.132844,20.8954,518.698,27.6799,0.0,0.0
770,192.25,46.1455,49.495,147.923,104.561,4.91021,0.00381219,0.133071,20.8945,518.668,27.6284,0.0,0.0
781,195,46.11,49.4433,143.81,104.513,4.91829,0.00358708,0.133255,20.8944,518.698,27.6094,0.0,0.0
792,197.75,46.5393,49.564,148.372,104.424,4.90689,0.0032978,0.133243,20.8954,518.618,27.6227,0.0,0.0
803,200.5,46.3203,49.341,149.467,104.339,4.87127,0.00322745,0.132673,20.8963,518.608,27.6811,0.0,0.0
814,203.25,46.5135,49.7379,150.949,104.238,4.90072,0.00327266,0.132018,20.8975,518.578,27.6179,0.0,0.0
825,206,45.7268,49.1226,149.101,104.16,4.89739,0.00320104,0.131815,20.8985,518.678,27.6173,0.0,0.0
836,208.75,46.1258,49.1558,148.876,104.047,4.88884,0.0030745,0.13149,20.8988,518.648,27.6233,0.0,0.0
847,211.5,45.8379,49.3775,145.939,103.932,4.89834,0.00323563,0.131189,20.8989,518.508,27.5957,0.0,0.0
858,214.25,46.0974,49.3671,146.976,103.816,4.8613,0.00345721,0.13085,20.8988,518.498,27.6542,0.0,0.0
869,217,46.4589,48.7796,150.847,103.713,4.89074,0.00337202,0.130828,20.8999,518.488,27.5907,0.0,0.0
880,219.75,46.1634,49.1371,148.485,103.632,4.87127,0.00325443,0.130229,20.901,518.558,27.6197,0.0,0.0
891,222.5,45.916,48.5188,148.221,103.548,4.886,0.00311954,0.129036,20.9026,518.498,27.5851,0.0,0.0
902,225.25,45.7938,48.7269,147.439,103.473,4.88505,0.0029537,0.129029,20.9019,518.448,27.5803,0.0,0.0
913,228,46.0252,49.0643,149.013,103.438,4.82474,0.00292839,0.12897,20.9014,518.418,27.6894,0.0,0.0
924,230.75,45.8589,48.8525,147.114,103.448,4.92588,0.00292477,0.129089,20.9012,518.388,27.5029,0.0,0.0
935,233.5,46.3423,48.5758,145.748,103.44,4.83803,0.00288216,0.129101,20.9012,518.478,27.6647,0.0,0.0
946,236.25,45.7656,48.9631,150.152,103.453,4.86463,0.00287728,0.128821,20.9011,518.388,27.6164,0.0,0.0
957,239,46.3488,48.7584,147.073,103.491,4.88362,0.00293369,0.128536,20.902,518.328,27.5845,0.0,0.0
968,241.75,46.1591,48.7333,149.079,103.546,4.87555,0.00295247,0.128219,20.9022,518.328,27.6043,0.0,0.0
979,244.5,46.2791,48.7052,146.629,103.613,4.886,0.00317967,0.12811,20.9023,518.438,27.5908,0.0,0.0
990,247.25,45.981,48.6415,149.072,103.693,4.86035,0.00331439,0.128276,20.9023,518.398,27.6452,0.0,0.0
1001,250,46.17,48.7812,151.413,103.77,4.89359,0.00335098,0.128192,20.9023,518.288,27.5904,0.0,0.0
1012,252.75,45.9153,48.9221,147.621,103.857,4.92826,0.00327611,0.127561,20.9023,518.248,27.5342,0.0,0.0
1023,255.5,45.8613,48.5028,144.434,103.963,4.87555,,0.127287,,518.278,27.6405,0.0,0.0
1034,258.25,45.8658,48.4983,147.921,104.086,4.89169,,,,518.348,27.6214,0.0,0.0
1045,261,45.9626,48.5328,147.256,104.195,4.91829,,,,518.208,27.5818,0.0,0.0
1056,263.75,45.9196,48.4454,149.101,104.298,4.9463,,,,518.198,27.5394,0.0,0.0
1057,264,45.7453,48.1232,149.054,104.317,4.96435,,,,518.248,27.5082,0.0,0.0