File: 01_Data/Polyisocyanurate_Foam_Board/Cone/Polyisocyanurate_Foam_Board_Cone_HF25Scan_220922_R2.csv
Names,Time,Stack TC,Smoke TC,Exh Press,Smoke Comp,Smoke Meas,CO Meter,CO2 Meter,O2 Meter,Sample Mass,Ext Coeff,Start Test,Flame Verif
Chan Gain,,500,500,1,1,1,1,1,1,1,1,1.0,1.0
Offset,,0,0,0.137569,0,0,0,0,0,0,0,0.0,0.0
Gain,,1,1,25.011,13.0852,15.0251,1,1,1,1.00088,1.05531,1.0,1.0
Units,sec,C,C,Pa,%,%,%,%,%,g,/m,,
Baseline,,34.0019,34.7521,168.679,98.834,97.611,0.00153664,0.0780236,20.9468,-447.481,0.11528,,
8,1.75,32.2691,33.1882,164.8,98.2166,91.3424,0.0036491,0.0978862,20.9125,80.0203,0.67169,0.0,0.0
16,3.75,32.6005,33.6621,157.757,98.2329,84.2815,0.00661618,0.153564,20.8356,79.9303,1.41799,0.0,1.0
24,5.75,34.3489,34.2184,153.035,98.2541,81.0594,0.00919085,0.215325,20.7318,79.7101,1.78083,0.0,1.0
32,7.75,34.5559,33.9284,154.98,98.2529,78.8626,0.010756,0.267039,20.66,79.5399,2.03505,0.0,1.0
40,9.75,35.3288,34.9593,154.167,98.2701,74.1764,0.0112965,0.297101,20.623,79.3998,2.60377,0.0,0.0
48,11.75,36.2774,35.7691,156.275,98.2873,76.8277,0.0111253,0.308259,20.6084,79.2397,2.28029,0.0,0.0
56,13.75,37.3995,36.6348,155.673,98.2976,79.3179,0.0106257,0.307202,20.6138,79.1496,1.98597,0.0,0.0
64,15.75,38.261,37.6765,160.757,98.3168,81.5982,0.00987392,0.298048,20.6266,78.9894,1.72541,0.0,0.0
72,17.75,38.8224,38.045,155.374,98.3216,84.4402,0.00900055,0.285785,20.6436,78.8894,1.40893,0.0,0.0
80,19.75,38.8839,38.3465,160.028,98.3472,85.8667,0.00813245,0.272932,20.6604,78.7492,1.25626,0.0,0.0
88,21.75,40.125,39.2519,163.287,98.3687,86.6021,0.00727523,0.260567,20.6798,78.7192,1.17933,0.0,0.0
96,23.75,39.832,39.7205,157.53,98.3755,89.186,0.00659118,0.247871,20.7003,78.5991,0.907824,0.0,0.0
104,25.75,40.0611,39.9149,160.047,98.3911,90.5116,0.00592371,0.237334,20.7193,78.5491,0.77271,0.0,0.0
112,27.75,40.4894,40.2996,163.091,98.4011,91.4442,0.00539052,0.228964,20.7324,78.499,0.678751,0.0,0.0
120,29.75,40.5196,40.3644,163.033,98.415,91.9802,0.00514615,0.222485,20.7395,78.439,0.625961,0.0,0.0
128,31.75,40.5893,40.1207,159.586,98.425,93.5507,0.00500199,0.218362,20.7472,78.3589,0.47018,0.0,0.0
136,33.75,40.7937,40.9112,166.964,98.4454,92.9757,0.00478846,0.21391,20.7543,78.2688,0.529169,0.0,0.0
144,35.75,40.8482,41.0033,162.337,98.4502,92.7914,0.00462519,0.209489,20.7598,78.1887,0.54799,0.0,0.0
152,37.75,40.4482,41.2885,161.918,98.4586,92.5204,0.00461197,0.205488,20.7655,78.1387,0.575852,0.0,0.0
160,39.75,40.9307,41.5826,162.789,98.469,93.962,0.00457778,0.200573,20.7744,78.0686,0.4337,0.0,0.0
168,41.75,40.6607,41.5868,161.998,98.4737,94.5265,0.00442639,0.194187,20.7827,77.9886,0.378707,0.0,0.0
176,43.75,40.9677,41.6466,162.678,98.4953,94.8309,0.00424785,0.187013,20.7926,77.9786,0.350965,0.0,0.0
184,45.75,41.1154,41.9478,161.663,98.4985,95.3449,0.00399037,0.180406,20.8026,77.9085,0.301226,0.0,0.0
192,47.75,40.5795,41.653,159.362,98.5061,95.9915,0.00372637,0.173107,20.8153,77.8785,0.23938,0.0,0.0
200,49.75,40.6123,41.597,166.367,98.5185,96.0887,0.00356298,0.166112,20.828,77.8084,0.231173,0.0,0.0
208,51.75,40.7453,41.7028,161.261,98.5181,96.8929,0.00353579,0.159599,20.8375,77.7484,0.153976,0.0,0.0
216,53.75,40.3485,41.5368,165.778,98.5273,96.787,0.00356542,0.152389,20.8461,77.7383,0.164964,0.0,0.0
224,55.75,40.1969,41.4532,166.091,98.5384,97.1754,0.00355935,0.14355,20.8589,77.7183,0.128942,0.0,0.0
232,57.75,39.7384,41.5613,167.139,98.5352,96.483,0.00355108,0.13324,20.8739,77.6883,0.194837,0.0,0.0
240,59.75,40.014,41.4209,163.436,98.536,97.5147,0.00355984,0.123976,20.8887,77.6983,0.0964507,0.0,0.0
248,61.75,38.9499,40.7139,165.682,98.5352,97.1841,0.00353675,0.114579,20.901,77.6783,0.127814,0.0,0.0
256,63.75,39.3341,40.8595,165.993,98.538,97.3409,0.00343618,0.107121,20.9113,77.6783,0.11315,0.0,0.0
264,65.75,38.0476,39.9155,166.302,98.5376,97.2497,0.00327567,0.101546,20.9177,77.6383,0.121795,0.0,0.0
272,67.75,36.4768,38.3479,163.775,98.5472,97.2286,0.00315857,0.098281,20.92,77.6182,0.124704,0.0,0.0
280,69.75,36.2535,38.6799,166.657,98.554,97.1066,0.00305972,0.0966888,20.9221,77.5782,0.136962,0.0,0.0
288,71.75,36.4843,37.9288,167.841,98.5568,97.4225,0.00290762,0.0954603,20.9244,77.5482,0.107155,0.0,0.0
296,73.75,35.7452,37.9059,168.895,98.578,97.1066,0.00273569,0.0937404,20.9263,77.5482,0.139211,0.0,0.0
304,75.75,35.6233,37.6921,164.332,98.5596,97.0397,0.00266205,0.0920262,20.9295,77.5782,0.143869,0.0,0.0
312,77.75,35.5732,37.5168,166.308,98.5596,97.1905,0.0026451,0.0908403,20.9316,77.5181,0.12949,0.0,0.0
320,79.75,35.1845,37.0908,162.797,98.5616,97.0823,0.00265928,0.0896163,20.9331,77.5282,0.13999,0.0,0.0
328,81.75,34.8427,36.6199,169.338,98.5664,96.7118,0.00269852,0.0882821,20.9342,77.4881,0.175835,0.0,0.0
336,83.75,34.9675,36.8801,162.703,98.5652,97.1823,0.00268526,0.0870126,20.9368,77.4781,0.130801,0.0,0.0
344,85.75,35.0574,37.2025,165.554,98.568,96.9576,0.00264342,0.0858284,20.9375,77.4881,0.15249,0.0,0.0
352,87.75,34.3568,36.4667,166.025,98.5616,96.6774,0.0025804,0.0850655,20.9377,77.4781,0.178678,0.0,0.0
360,89.75,34.2232,36.4322,163.792,98.5572,96.3844,0.00242679,0.0845237,20.9396,77.4781,0.206363,0.0,0.0
368,91.75,33.6789,36.0941,171.884,98.55,96.4427,0.00220146,0.0840624,20.9411,77.4781,0.200096,0.0,0.0
376,93.75,34.3209,36.2878,169.443,98.564,97.1112,0.00210334,0.083838,20.9427,77.4781,0.137462,0.0,0.0
384,95.75,33.7942,36.3121,165.88,98.5468,96.5545,0.00207315,0.0836923,20.9437,77.4481,0.189064,0.0,0.0
392,97.75,33.7087,35.9217,170.159,98.5336,96.6458,0.00203973,0.08367,20.9441,77.4981,0.179082,0.0,0.0
400,99.75,34.0923,35.7394,167.33,98.5265,96.9154,0.00206527,0.0837303,20.9431,77.4681,0.152618,0.0,0.0
408,101.75,34.1969,35.652,165.503,98.5241,96.5697,0.0021804,0.084064,20.9414,77.4581,0.185474,0.0,0.0
416,103.75,33.4976,35.15,166.657,98.5332,96.5073,0.00228212,0.0852704,20.9392,77.4481,0.192318,0.0,0.0
424,105.75,33.6683,35.4732,166.482,98.5045,96.572,0.00238724,0.08717,20.9371,77.4381,0.183417,0.0,0.0
432,107.75,33.7485,35.446,169.701,98.4853,97.0704,0.00247188,0.0884855,20.9361,77.4281,0.13396,0.0,0.0
440,109.75,33.2564,35.3431,165.966,98.4734,96.9548,0.00252188,0.0885915,20.9356,77.4281,0.143861,0.0,0.0
448,111.75,33.325,34.8172,167.215,98.4562,96.7004,0.00255552,0.0880489,20.9368,77.388,0.166576,0.0,0.0
456,113.75,33.1352,34.7609,170.058,98.4446,96.5944,0.0025902,0.0871291,20.9372,77.388,0.175632,0.0,0.0
464,115.75,33.0633,34.7995,164.374,98.4326,96.815,0.0026217,0.0864898,20.9383,77.398,0.153393,0.0,0.0
472,117.75,33.0499,34.5246,166.194,98.4043,96.975,0.0026624,0.0859532,20.9389,77.358,0.135438,0.0,0.0
480,119.75,32.8593,34.788,172.15,98.3959,96.4573,0.00263233,0.0855891,20.9391,77.318,0.184199,0.0,0.0
488,121.75,32.9936,34.3837,170.665,98.3775,96.538,0.00246595,0.0854391,20.9392,77.308,0.174728,0.0,0.0
496,123.75,32.9015,34.8814,165.472,98.3611,96.9475,0.002313,0.0852816,20.9392,77.338,0.134006,0.0,0.0
504,125.75,33.3528,34.4746,166.87,98.3396,96.8668,0.00232549,0.0851223,20.9392,77.328,0.139685,0.0,0.0
512,127.75,32.8259,33.9118,167.591,98.3264,96.8796,0.00245395,0.0847964,20.9392,77.308,0.137218,0.0,0.0
520,129.75,32.7694,34.4322,167.513,98.3052,97.1754,0.00259056,0.0846381,20.9392,77.2879,0.107009,0.0,0.0
528,131.75,32.5013,34.1371,165.987,98.2845,96.8526,0.00259506,0.0843824,20.9392,77.2779,0.135855,0.0,0.0
536,133.75,32.3269,34.0961,166.986,98.2813,97.0741,0.00251444,0.0840904,20.9403,77.2279,0.114411,0.0,0.0
544,135.75,32.4845,34.3141,165.629,98.2505,96.8164,0.0024908,0.0838619,20.9413,77.2379,0.13612,0.0,0.0
552,137.75,32.4818,33.5833,169.094,98.2381,96.1987,0.00252688,0.0836067,20.9424,77.2079,0.194199,0.0,0.0
560,139.75,32.391,34.0604,173.523,98.227,96.9704,0.00255658,0.0833232,20.9429,77.2079,0.119181,0.0,0.0
568,141.75,32.2838,34.3076,165.333,98.2182,97.2877,0.00249288,0.0831832,20.9431,77.1778,0.0881121,0.0,0.0
576,143.75,32.3556,33.6721,166.858,98.1838,96.8191,0.0022808,0.0829925,20.9431,77.1678,0.129572,0.0,0.0
584,145.75,32.7098,33.7687,170.162,98.1902,96.7586,0.00219502,0.0828004,20.9432,77.1778,0.135963,0.0,0.0
592,147.75,32.3141,33.2203,170.672,98.1531,96.7306,0.00226591,0.0826251,20.9432,77.1478,0.135138,0.0,0.0
600,149.75,32.04,33.4886,166.154,98.1447,97.0585,0.00243282,0.0824523,20.9445,77.1478,0.103025,0.0,0.0
608,151.75,32.0877,33.6485,167.413,98.1223,97.3207,0.00250857,0.082391,20.9451,77.1478,0.0759338,0.0,0.0
616,153.75,32.6523,33.6734,175.38,98.1143,97.5574,0.00251774,0.0823216,20.9453,77.1478,0.0527021,0.0,0.0
624,155.75,32.8086,33.8523,167.925,98.0936,96.5756,0.00252797,0.081951,20.9454,77.1378,0.144369,0.0,0.0
632,157.75,32.4852,33.049,170.865,98.0804,96.7017,0.00255619,0.0817866,20.9455,77.1678,0.131046,0.0,0.0
640,159.75,32.6,33.4212,166.632,98.0756,97.0443,0.00256343,0.0817904,20.9444,77.1678,0.0978627,0.0,0.0
648,161.75,32.1701,33.0917,168.198,98.0417,97.1548,0.00257246,0.0818885,20.9438,77.1578,0.0841227,0.0,0.0
656,163.75,32.2535,33.4674,166.332,98.0321,97.2625,0.00259362,0.0819128,20.9421,77.1478,0.0729563,0.0,0.0
664,165.75,32.1605,32.9638,165.875,98.0153,96.8975,0.00250376,0.0820711,20.9414,77.1378,0.106176,0.0,0.0
672,167.75,31.7253,32.938,164.522,97.9946,96.809,0.00239681,0.0822578,20.9424,77.1478,0.112674,0.0,0.0
680,169.75,32.4338,33.2006,164.815,97.9778,96.6362,0.00241167,0.0822978,20.9425,77.1278,0.127634,0.0,0.0
688,171.75,31.8628,33.4572,164.463,97.9434,96.8553,0.00244491,0.0824512,20.9411,77.1578,0.103417,0.0,0.0
696,173.75,31.6029,32.9431,164.423,97.9319,97.2625,0.00239992,0.0826845,20.9405,77.1378,0.0634863,0.0,0.0
704,175.75,32.0972,32.9931,166.143,97.9219,96.9718,,0.0829227,,77.1378,0.0902532,0.0,0.0
712,177.75,31.7911,33.5674,166.346,97.9075,96.859,,0.0829941,,77.1178,0.0996686,0.0,0.0
720,179.75,32.5173,33.4629,167.098,97.9131,97.246,,,,77.1078,0.0632836,0.0,0.0
728,181.75,31.7594,33.1447,171.126,97.8883,96.4743,,,,77.1078,0.134696,0.0,0.0
736,183.75,32.1458,32.5778,167.554,97.8708,96.4294,,,,77.1078,0.137348,0.0,0.0
744,185.75,32.2827,33.2933,168.088,97.8496,97.1268,,,,77.0878,0.0686349,0.0,0.0
745,186,31.7523,33.0437,163.874,97.8456,96.9888,,,,77.0978,0.0814201,0.0,0.0