File: 01_Data/Polyisocyanurate_Foam_Board/Cone/Polyisocyanurate_Foam_Board_Cone_HF75Scan_221202_R2.csv
Names,Time,Stack TC,Smoke TC,Exh Press,Smoke Comp,Smoke Meas,CO Meter,CO2 Meter,O2 Meter,Sample Mass,Ext Coeff,Start Test,Flame Verif
Chan Gain,,500,500,1,1,1,1,1,1,1,1,1.0,1.0
Offset,,0,0,0.13918,0,0,0,0,0,0,0,0.0,0.0
Gain,,1,1,25.011,14.0162,15.5607,1,1,1,1.0009,1.02981,1.0,1.0
Units,sec,C,C,Pa,%,%,%,%,%,g,/m,,
Baseline,,43.2688,45.1991,151.034,104.169,4.81712,0.000695815,0.093791,20.9463,-1.99509,27.7675,,
9,2,41.9537,43.5086,134.45,104.226,4.22307,0.0108172,0.171954,20.8215,525.344,28.9612,0.0,1.0
18,4.25,43.6675,44.2201,126.629,104.37,3.93197,0.0217889,0.334815,20.592,525.044,29.6188,0.0,1.0
27,6.5,47.2392,47.3207,117.236,104.488,3.79711,0.0307901,0.501117,20.3293,524.553,29.9443,0.0,0.0
36,8.75,50.7972,50.364,124.123,104.591,4.17843,0.0342708,0.609407,20.194,524.043,29.0888,0.0,0.0
45,11,53.1242,53.0238,135.662,104.703,4.3038,0.0317199,0.620224,20.1739,523.743,28.8314,0.0,0.0
54,13.25,54.2735,54.4195,131.614,104.834,4.55311,0.0271454,0.572249,20.2423,523.553,28.334,0.0,0.0
63,15.5,55.408,55.6556,135.405,104.926,4.46621,0.0214787,0.505194,20.3198,523.302,28.516,0.0,0.0
72,17.75,56.1731,56.9259,140.472,105.001,4.66043,0.0170301,0.448811,20.4064,523.162,28.1379,0.0,0.0
81,20,56.7499,57.2433,141.398,105.095,4.63336,0.0135332,0.404984,20.485,523.022,28.1986,0.0,0.0
90,22.25,56.6533,58.0419,143.656,105.17,4.69035,0.0113984,0.371382,20.5351,522.802,28.0946,0.0,0.0
99,24.5,56.8064,58.2922,141.471,105.224,4.68227,0.0100619,0.348575,20.5702,522.602,28.1148,0.0,0.0
108,26.75,57.1236,58.8432,140.481,105.29,4.68892,0.00897127,0.33372,20.5965,522.452,28.1077,0.0,0.0
117,29,57.2432,58.8493,142.985,105.32,4.69794,0.00836001,0.323019,20.6147,522.351,28.0929,0.0,0.0
126,31.25,57.5475,59.6669,147.154,105.337,4.74876,0.00822424,0.316508,20.6266,522.181,27.9972,0.0,0.0
135,33.5,57.6122,59.6212,136.144,105.338,4.71314,0.00811866,0.315474,20.6309,521.961,28.0652,0.0,0.0
144,35.75,58.0338,60.1998,139.253,105.349,4.76965,0.00790595,0.318637,20.6311,521.781,27.9586,0.0,0.0
153,38,58.319,60.3523,137.162,105.342,4.74258,0.00779166,0.323323,20.6287,521.621,28.0094,0.0,0.0
162,40.25,58.8179,60.9022,140.75,105.326,4.72311,0.0078173,0.328033,20.6281,521.451,28.0452,0.0,0.0
171,42.5,58.9512,61.5353,140.602,105.275,4.66423,0.00786815,0.327802,20.6293,521.28,28.1541,0.0,0.0
180,44.75,58.9262,61.6852,140.234,105.242,4.68085,0.00789187,0.326547,20.6298,521.19,28.1191,0.0,0.0
189,47,59.7474,62.2793,141.453,105.187,4.65141,0.00797088,0.330422,20.6253,520.94,28.1714,0.0,0.0
198,49.25,59.4171,62.5209,143.793,105.122,4.78485,0.00798626,0.337591,20.6189,520.75,27.9103,0.0,0.0
207,51.5,59.6742,62.7146,136.04,105.049,4.65283,0.00755587,0.341257,20.6175,520.59,28.1568,0.0,0.0
216,53.75,59.6983,63.0648,141.746,104.989,4.73783,0.00668841,0.331265,20.6337,520.48,27.988,0.0,0.0
225,56,60.1833,63.2936,141.314,104.902,4.8746,0.00573189,0.306554,20.6615,520.34,27.7235,0.0,0.0
234,58.25,59.5572,63.0194,140.614,104.82,4.89692,0.00486289,0.281554,20.6919,520.28,27.6752,0.0,0.0
243,60.5,59.2835,62.7902,142.94,104.774,4.88837,0.00432511,0.25914,20.7232,520.25,27.687,0.0,0.0
252,62.75,58.9376,62.3036,144.41,104.711,4.90499,0.00395543,0.240164,20.7448,520.199,27.651,0.0,0.0
261,65,58.2329,62.1967,140.25,104.653,4.84421,0.00369076,0.225518,20.7631,520.129,27.7585,0.0,0.0
270,67.25,57.8849,61.9976,143.636,104.59,4.91686,0.00360932,0.212268,20.7826,520.049,27.6186,0.0,0.0
279,69.5,57.7005,61.5579,149.205,104.563,4.9805,0.00355067,0.200662,20.7991,520.069,27.5001,0.0,0.0
288,71.75,57.2779,61.4315,140.379,104.507,4.96815,0.00344513,0.191273,20.8112,520.009,27.5177,0.0,0.0
297,74,56.7976,61.1152,144.045,104.484,4.98619,0.00345103,0.183066,20.8234,519.989,27.483,0.0,0.0
306,76.25,56.4397,60.8521,142.645,104.461,4.93871,0.00356474,0.173596,20.8353,519.939,27.5675,0.0,0.0
315,78.5,55.9959,60.1856,143.81,104.447,5.01469,0.00374102,0.165136,20.846,519.969,27.4283,0.0,0.0
324,80.75,55.8536,59.9583,145.959,104.43,4.93443,0.00401004,0.157691,20.8577,519.929,27.5725,0.0,0.0
333,83,55.33,59.5682,152.517,104.435,4.89739,0.00430062,0.151626,20.867,519.869,27.6411,0.0,0.0
342,85.25,54.6964,59.2581,144.891,104.466,4.90262,0.00438372,0.146458,20.8727,519.929,27.6342,0.0,0.0
351,87.5,54.189,59.0888,147.193,104.478,4.91591,0.00425099,0.143373,20.8779,519.879,27.6107,0.0,0.0
360,89.75,53.8381,58.2781,144.036,104.466,4.92446,0.00424,0.141331,20.8806,519.799,27.594,0.0,0.0
369,92,53.2473,57.5863,144.775,104.477,4.90784,0.00423871,0.140131,20.8829,519.789,27.6255,0.0,0.0
378,94.25,52.8272,57.4703,146.623,104.495,4.99427,0.00425325,0.139747,20.8839,519.859,27.4693,0.0,0.0
387,96.5,52.9371,56.9307,149.579,104.465,4.91591,0.00429595,0.139806,20.8843,519.779,27.6096,0.0,0.0
396,98.75,52.4099,57.0703,146.279,104.449,4.89597,0.00434032,0.140082,20.8842,519.789,27.6449,0.0,0.0
405,101,51.937,56.2156,144.831,104.42,4.92209,0.00431794,0.14043,20.8831,519.789,27.5944,0.0,0.0
414,103.25,51.6706,55.9793,144.447,104.433,4.93111,0.00427941,0.140691,20.882,519.779,27.5789,0.0,0.0
423,105.5,51.5574,55.8206,145.705,104.455,4.99997,0.00436402,0.14088,20.8816,519.749,27.4556,0.0,0.0
432,107.75,51.3459,55.5022,148.682,104.47,5.03938,0.00444187,0.141417,20.8815,519.719,27.3859,0.0,0.0
441,110,51.3079,55.5453,145.171,104.519,4.95438,0.00440575,0.141294,20.8819,519.759,27.5439,0.0,0.0
450,112.25,50.5697,55.1961,146.113,104.535,4.9482,0.00445135,0.140893,20.8822,519.649,27.5565,0.0,0.0
459,114.5,50.2534,54.974,146.356,104.558,4.98619,0.00458995,0.140941,20.8823,519.629,27.4894,0.0,0.0
468,116.75,50.4787,54.5659,148.265,104.617,4.96625,0.00466235,0.140889,20.8837,519.659,27.5307,0.0,0.0
477,119,49.9414,54.9887,146.736,104.658,4.95675,0.00467828,0.140679,20.8843,519.679,27.5515,0.0,0.0
486,121.25,49.7661,54.2389,148.482,104.695,4.96435,0.00468015,0.14073,20.8846,519.589,27.5408,0.0,0.0
495,123.5,49.9813,53.8946,148.13,104.747,4.96103,0.00457276,0.140712,20.8846,519.529,27.5514,0.0,0.0
504,125.75,49.8773,53.6876,148.817,104.805,4.99617,0.00440827,0.140099,20.8859,519.609,27.4927,0.0,0.0
513,128,50.0539,54.029,148.364,104.847,4.98382,0.00435727,0.139206,20.8866,519.539,27.5186,0.0,0.0
522,130.25,49.9872,53.6615,144.42,104.928,4.9786,0.00443246,0.138639,20.8873,519.539,27.5351,0.0,0.0
531,132.5,49.6998,53.54,146.38,104.997,4.9786,0.00456186,0.138629,20.8878,519.519,27.541,0.0,0.0
540,134.75,49.5338,53.7491,150.714,105.062,4.9748,0.00465255,0.138875,20.8881,519.609,27.5535,0.0,0.0
549,137,49.6838,53.2954,145.852,105.108,5.00044,0.00457591,0.13856,20.8882,519.449,27.511,0.0,0.0
558,139.25,49.7465,53.566,149.11,105.168,4.98619,0.00446366,0.137765,20.8891,519.449,27.542,0.0,0.0
567,141.5,48.971,53.4992,146.245,105.247,5.03321,0.00434449,0.137431,20.89,519.539,27.464,0.0,0.0
576,143.75,49.4431,52.9578,151.09,105.282,5.02418,0.00431557,0.137469,20.8904,519.469,27.4832,0.0,0.0
585,146,49.5061,53.2258,153.137,105.313,4.94583,0.00445893,0.137388,20.8905,519.399,27.6278,0.0,0.0
594,148.25,49.3966,52.9956,146.183,105.337,5.06645,0.00463204,0.13719,20.8906,519.369,27.4122,0.0,0.0
603,150.5,49.1959,52.5371,146.463,105.342,5.03131,0.00471066,0.136951,20.8906,519.449,27.4755,0.0,0.0
612,152.75,48.8667,52.492,143.843,105.322,5.07974,0.00466454,0.136693,20.8906,519.339,27.3873,0.0,0.0
621,155,48.6867,52.2012,145.789,105.286,5.02751,0.00461885,0.13599,20.8916,519.289,27.4775,0.0,0.0
630,157.25,48.9624,52.2096,147.463,105.258,5.05363,0.00462578,0.135297,20.8927,519.369,27.4283,0.0,0.0
639,159.5,48.2574,52.5007,150.926,105.193,4.98857,0.00449961,0.134518,20.8939,519.399,27.5398,0.0,0.0
648,161.75,48.9192,52.3303,151.995,105.123,5.03131,0.00433236,0.133808,20.8942,519.259,27.4567,0.0,0.0
657,164,48.5685,51.8268,147.7,105.034,4.97955,0.00427563,0.133291,20.8946,519.239,27.5425,0.0,0.0
666,166.25,48.7341,52.0422,145.677,104.957,5.01089,0.00428231,0.132728,20.8955,519.329,27.4792,0.0,0.0
675,168.5,48.7989,51.6609,150.709,104.862,5.08639,0.00428552,0.132236,20.8959,519.209,27.3359,0.0,0.0
684,170.75,48.8372,51.8512,143.793,104.738,5.06122,0.00419681,0.131928,20.896,519.189,27.37,0.0,0.0
693,173,48.8232,51.8432,147.167,104.608,5.02798,0.00412269,0.131879,20.8965,519.239,27.4183,0.0,0.0
702,175.25,48.5463,51.6657,145.51,104.475,4.99094,0.00404538,0.131726,20.8968,519.279,27.4736,0.0,0.0
711,177.5,48.3134,51.262,144.976,104.323,4.99664,0.00401628,0.131338,20.8978,519.149,27.4501,0.0,0.0
720,179.75,48.3235,51.9116,147.289,104.184,5.00756,0.00404562,0.130949,20.8987,519.149,27.4184,0.0,0.0
729,182,48.4918,51.4341,146.709,104.061,4.9691,0.00404276,0.130533,20.8997,519.219,27.4774,0.0,0.0
738,184.25,48.8913,51.2126,144.044,103.899,5.01279,0.00398229,0.129727,20.9008,519.099,27.3842,0.0,0.0
747,186.5,48.2988,51.1824,154.449,103.785,5.02703,0.00390459,0.129317,20.9013,519.048,27.3487,0.0,0.0
756,188.75,47.6878,51.4749,146.207,103.666,4.93776,0.00395438,0.128913,20.9015,519.099,27.5001,0.0,0.0
765,191,48.485,51.684,148.708,103.558,4.91259,0.00402782,0.128571,20.9015,519.129,27.5369,0.0,0.0
774,193.25,48.322,51.2337,148.565,103.47,4.98857,0.00404753,0.128216,20.9029,519.059,27.3906,0.0,0.0
783,195.5,48.1611,51.3638,148.112,103.42,4.93823,0.00400959,0.127913,20.9035,519.059,27.4778,0.0,0.0
792,197.75,48.0491,51.3351,148.098,103.409,4.93348,0.0040036,0.127352,20.9051,519.109,27.4856,0.0,0.0
801,200,47.732,51.0808,149.221,103.4,4.98002,0.00402841,0.126746,20.9058,519.059,27.3999,0.0,0.0
810,202.25,48.2785,51.1252,150.371,103.427,4.99712,,0.126191,,518.988,27.3714,0.0,0.0
819,204.5,48.1879,50.7142,147.518,103.508,4.95485,,,,518.978,27.4551,0.0,0.0
828,206.75,48.3827,50.755,146.161,103.592,4.98145,,,,519.059,27.4142,0.0,0.0
837,209,48.0884,50.6651,149.51,103.705,4.94583,,,,518.988,27.4888,0.0,0.0
846,211.25,47.6562,50.9475,144.784,103.823,4.97052,,,,518.968,27.4541,0.0,0.0
847,211.5,47.9674,51.1014,147.37,103.837,4.9748,,,,518.998,27.4475,0.0,0.0