File: 01_Data/Polyisocyanurate_Foam_Board/Cone/Polyisocyanurate_Foam_Board_Cone_HF50Scan_221129_R3.csv
Names,Time,Stack TC,Smoke TC,Exh Press,Smoke Comp,Smoke Meas,CO Meter,CO2 Meter,O2 Meter,Sample Mass,Ext Coeff,Start Test,Flame Verif
Chan Gain,,500,500,1,1,1,1,1,1,1,1,1.0,1.0
Offset,,0,0,0.13918,0,0,0,0,0,0,0,0.0,0.0
Gain,,1,1,25.011,14.0162,15.5607,1,1,1,1.0009,1.02981,1.0,1.0
Units,sec,C,C,Pa,%,%,%,%,%,g,/m,,
Baseline,,32.6215,33.8718,155.268,104.066,4.41305,0.000975547,0.0966528,20.9418,-0.673776,28.5499,,
16,3.75,32.9491,33.3256,141.329,105.232,3.96094,0.012148,0.227653,20.7334,524.313,29.6269,0.0,1.0
32,7.75,37.0111,36.3595,137.262,105.308,3.86074,0.0200854,0.397325,20.4869,523.803,29.8648,0.0,0.0
48,11.75,40.2003,39.6072,143.42,105.325,3.83415,0.0195539,0.452145,20.414,523.342,29.9287,0.0,0.0
64,15.75,41.9525,42.1147,143.704,105.273,4.13997,0.0147713,0.413797,20.4837,522.972,29.2311,0.0,0.0
80,19.75,43.1644,43.0901,143.11,105.184,4.22164,0.0108968,0.348608,20.5745,522.742,29.0469,0.0,0.0
96,23.75,43.5872,43.9408,144.778,105.035,4.28718,0.00845757,0.304456,20.6399,522.502,28.895,0.0,0.0
112,27.75,43.7684,44.7485,147.72,104.885,4.34796,0.00717409,0.280766,20.6771,522.321,28.7549,0.0,0.0
128,31.75,44.0399,45.4352,147.887,104.717,4.36221,0.00605522,0.265612,20.7019,522.121,28.7108,0.0,0.0
144,35.75,44.1807,45.2895,146.254,104.584,4.34274,0.00557781,0.25894,20.7143,521.921,28.7397,0.0,0.0
160,39.75,44.3548,46.0315,145.887,104.462,4.44531,0.00517221,0.249527,20.7318,521.671,28.5184,0.0,0.0
176,43.75,44.2774,46.1485,148.188,104.468,4.48662,0.00521317,0.22347,20.7741,521.491,28.4353,0.0,0.0
192,47.75,43.8818,45.8825,148.728,104.695,4.55453,0.00564312,0.201977,20.802,521.331,28.3192,0.0,0.0
208,51.75,43.7341,45.5021,147.836,104.821,4.53411,0.00641584,0.203744,20.801,521.16,28.3706,0.0,0.0
224,55.75,43.9886,45.9698,144.4,104.886,4.48283,0.00647622,0.231643,20.7653,520.95,28.479,0.0,0.0
240,59.75,44.4136,46.4636,146.219,104.889,4.4078,0.00631558,0.266144,20.7209,520.71,28.6317,0.0,0.0
256,63.75,44.484,47.4333,142.293,104.825,4.42299,0.0061301,0.285,20.7025,520.42,28.5951,0.0,0.0
272,67.75,44.8111,47.5138,148.544,104.732,4.48805,0.00527108,0.272814,20.7145,520.189,28.4552,0.0,0.0
288,71.75,44.9603,47.4687,150.124,104.549,4.56355,0.00478263,0.247026,20.743,520.119,28.2887,0.0,0.0
304,75.75,44.8415,47.5504,150.327,104.312,4.52034,0.00502087,0.220792,20.7775,520.059,28.3542,0.0,0.0
320,79.75,43.8116,47.8991,148.713,104.069,4.51987,0.00505274,0.203529,20.7988,519.959,28.334,0.0,0.0
336,83.75,44.1693,46.939,148.798,104.045,4.56213,0.00510687,0.195022,20.8071,519.879,28.2478,0.0,0.0
352,87.75,44.1844,46.5449,151.339,104.113,4.50657,0.00527912,0.18819,20.8161,519.829,28.3645,0.0,0.0
368,91.75,43.4163,46.6693,151.731,104.183,4.55881,0.00575211,0.178207,20.8295,519.789,28.2664,0.0,0.0
384,95.75,43.3264,45.8546,149.65,104.262,4.52509,0.00623098,0.169026,20.8408,519.719,28.3404,0.0,0.0
400,99.75,41.9272,46.1061,156.089,104.376,4.52129,0.00645905,0.161045,20.8522,519.669,28.3578,0.0,0.0
416,103.75,42.0613,44.9523,149.43,104.513,4.55833,0.00687234,0.153848,20.8621,519.639,28.2959,0.0,0.0
432,107.75,41.9674,44.5812,152.792,104.597,4.52556,0.00721524,0.148194,20.8704,519.609,28.3684,0.0,0.0
448,111.75,40.8866,44.7668,150.638,104.648,4.53554,0.00740349,0.144951,20.8755,519.559,28.3529,0.0,0.0
464,115.75,41.3936,44.046,148.631,104.671,4.57685,0.00770811,0.141777,20.8783,519.469,28.273,0.0,0.0
480,119.75,40.4147,44.6052,150.742,104.643,4.60724,0.00795441,0.139463,20.8811,519.399,28.2108,0.0,0.0
496,123.75,40.4048,43.8648,151.136,104.612,4.52224,0.00819479,0.137622,20.8853,519.349,28.3763,0.0,0.0
512,127.75,39.9676,43.2208,151.036,104.551,4.53221,0.00845575,0.135185,20.8864,519.349,28.3511,0.0,0.0
528,131.75,39.7769,42.8998,152.683,104.453,4.58492,0.0091057,0.13302,20.8882,519.269,28.2382,0.0,0.0
544,135.75,39.5589,41.9965,151.106,104.326,4.51749,0.00962476,0.131003,20.8918,519.229,28.3611,0.0,0.0
560,139.75,39.7027,41.6984,147.781,104.182,4.5004,0.00982744,0.128518,20.8945,519.259,28.3828,0.0,0.0
576,143.75,38.9799,41.9874,158.823,104.031,4.50562,0.00994339,0.126525,20.8964,519.249,28.3592,0.0,0.0
592,147.75,38.702,41.4677,153.369,103.892,4.58682,0.0105336,0.126809,20.8948,519.189,28.1858,0.0,0.0
608,151.75,38.2106,40.9596,154.38,103.745,4.51322,0.0106242,0.126835,20.8945,519.169,28.3191,0.0,0.0
624,155.75,38.466,41.2456,153.307,103.611,4.45386,0.0106188,0.126161,20.8968,519.189,28.4271,0.0,0.0
640,159.75,38.1495,40.5531,154.61,103.494,4.4795,0.0105416,0.125254,20.8971,519.169,28.365,0.0,0.0
656,163.75,37.9932,40.8008,151.345,103.412,4.51227,0.0105289,0.124996,20.8977,519.149,28.292,0.0,0.0
672,167.75,38.0241,40.6082,151.452,103.367,4.50515,0.0106164,0.124938,20.8981,519.139,28.3024,0.0,0.0
688,171.75,37.4749,40.6949,152.121,103.358,4.48283,0.0106304,0.12459,20.8982,519.089,28.3464,0.0,0.0
704,175.75,37.4446,40.547,154.754,103.394,4.47,0.0106052,0.124622,20.8987,519.078,28.3754,0.0,0.0
720,179.75,37.6799,39.7611,153.676,103.487,4.54598,0.0106198,0.124245,20.8995,519.078,28.2313,0.0,0.0
736,183.75,37.2248,40.0149,152.407,103.633,4.4795,0.010196,0.124816,20.8998,519.028,28.3771,0.0,0.0
752,187.75,37.1247,39.9985,151.891,103.805,4.53364,0.0103321,0.124534,20.9018,518.958,28.2836,0.0,0.0
768,191.75,37.5846,39.1307,151.636,104.042,4.51322,0.0102523,0.124767,20.9006,518.908,28.345,0.0,0.0
784,195.75,37.4125,39.4659,153.99,104.309,4.54836,0.0103432,0.125444,20.9001,518.858,28.2981,0.0,0.0
800,199.75,36.6232,39.6518,152.954,104.57,4.5778,0.0100334,0.125454,20.8999,518.808,28.2624,0.0,0.0
816,203.75,36.782,39.758,151.225,104.834,4.57305,0.00988661,0.12573,20.8999,518.738,28.2945,0.0,0.0
832,207.75,37.0335,39.2084,148.082,105.036,4.56403,0.00985476,0.127918,20.8982,518.778,28.3298,0.0,0.0
848,211.75,37.2017,38.978,151.994,105.192,4.55453,0.00973433,0.128115,20.8977,518.718,28.362,0.0,0.0
864,215.75,36.4852,39.2548,157.259,105.291,4.53221,0.00967809,0.127148,20.8997,518.708,28.4149,0.0,0.0
880,219.75,36.8723,38.7581,151.433,105.326,4.5816,0.00941557,0.125612,20.9022,518.728,28.32,0.0,0.0
896,223.75,36.7342,39.2586,150.535,105.261,4.56878,0.00925746,0.125217,20.9029,518.718,28.3397,0.0,0.0
912,227.75,37.1134,38.7482,148.649,105.171,4.56355,0.00899689,0.125503,20.9031,518.708,28.3423,0.0,0.0
928,231.75,36.4927,38.782,150.548,105.022,4.52034,0.00854601,0.125302,20.9014,518.668,28.4154,0.0,0.0
944,235.75,36.7772,38.5931,152.28,104.856,4.51179,0.0082289,0.124826,20.902,518.668,28.4182,0.0,0.0
960,239.75,36.7169,38.6849,152.06,104.684,4.53601,0.00812941,0.123615,20.9039,518.618,28.3551,0.0,0.0
976,243.75,36.2963,38.6755,155.266,104.524,4.55643,0.00799391,0.122758,20.9065,518.618,28.3006,0.0,0.0
992,247.75,36.932,38.9087,155.02,104.417,4.53174,0.00797537,0.122177,20.9078,518.578,28.3405,0.0,0.0
1008,251.75,36.717,38.224,154.629,104.638,4.55786,0.00777738,0.12097,20.9083,518.568,28.3077,0.0,0.0
1024,255.75,36.7035,38.503,152.729,104.825,4.57305,0.0076423,0.120044,20.9091,518.498,28.2937,0.0,0.0
1040,259.75,36.7625,38.2113,149.236,104.915,4.54124,0.00742701,0.119507,20.9097,518.488,28.3646,0.0,0.0
1056,263.75,36.5584,38.4806,151.415,104.897,4.59822,0.00709106,0.1189,20.9098,518.438,28.2503,0.0,0.0
1072,267.75,36.0738,38.1737,155.446,104.789,4.54266,0.00700513,0.117976,20.9114,518.388,28.3509,0.0,0.0
1088,271.75,35.9624,37.8755,151.523,104.596,4.60534,0.00711694,0.117074,20.9135,518.348,28.2105,0.0,0.0
1104,275.75,35.9978,37.8844,157.127,104.333,4.53839,0.00672779,0.11557,20.9152,518.298,28.32,0.0,0.0
1120,279.75,35.8435,37.5915,152.842,104.007,4.50752,0.0063883,0.114483,20.9165,518.338,28.3534,0.0,0.0
1136,283.75,35.7087,37.7242,155.685,104.07,4.4985,0.00611175,0.113179,20.919,518.308,28.3769,0.0,0.0
1152,287.75,35.7883,37.3154,153.899,104.163,4.4909,0.00597704,0.111676,20.9214,518.328,28.4003,0.0,0.0
1168,291.75,35.3742,37.2589,153.896,104.257,4.51227,0.00603916,0.110797,20.9236,518.308,28.3655,0.0,0.0
1184,295.75,35.8889,37.3831,151.797,104.325,4.57068,0.00605838,0.109879,20.9244,518.348,28.2553,0.0,0.0
1200,299.75,35.7752,37.0695,155.145,104.416,4.51987,0.0060064,0.10895,20.9241,518.368,28.3641,0.0,0.0
1216,303.75,35.9129,37.4533,154.794,104.484,4.57163,0.00587079,0.108463,20.9247,518.378,28.2671,0.0,0.0
1232,307.75,35.6255,37.2305,154.389,104.542,4.56071,0.00576802,0.107921,20.9246,518.368,28.2938,0.0,0.0
1248,311.75,35.48,37.5481,152.41,104.591,4.62291,0.00566067,0.107564,20.9248,518.358,28.1756,0.0,0.0
1264,315.75,35.6291,37.4641,150.946,104.607,4.51084,0.00543546,0.107253,20.9258,518.318,28.3987,0.0,0.0
1280,319.75,35.4075,37.3982,153.706,104.605,4.55073,0.00545485,0.106375,20.9274,518.298,28.319,0.0,0.0
1296,323.75,35.7104,37.1645,153.428,104.623,4.55263,0.00539239,0.10612,20.9279,518.288,28.3168,0.0,0.0
1312,327.75,35.818,37.0928,155.582,104.601,4.54598,0.00548981,0.105485,20.9276,518.278,28.3281,0.0,0.0
1328,331.75,35.5475,37.3811,156.982,104.611,4.55263,0.00548658,0.104874,20.9294,518.268,28.3157,0.0,0.0
1344,335.75,35.3929,37.0596,152.429,104.596,4.59252,0.00538912,0.10398,20.931,518.238,28.2356,0.0,0.0
1360,339.75,35.4982,37.6276,152.375,104.596,4.58113,0.005419,0.103366,20.9326,518.218,28.258,0.0,0.0
1376,343.75,35.5931,37.1982,151.255,104.573,4.56355,0.00537698,0.102836,20.9329,518.218,28.2908,0.0,0.0
1392,347.75,35.4451,37.3491,152.151,104.554,4.49992,0.00513954,0.10251,20.9338,518.178,28.4159,0.0,0.0
1408,351.75,35.3569,37.4328,157.559,104.51,4.59205,0.00505847,0.10253,20.9342,518.168,28.2291,0.0,0.0
1424,355.75,35.4104,37.816,150.94,104.465,4.57163,0.00494956,0.101972,20.9363,518.188,28.2655,0.0,0.0
1440,359.75,35.5912,37.6875,153.481,104.409,4.52366,0.00483489,0.101459,20.936,518.138,28.3559,0.0,0.0
1456,363.75,35.8596,37.5882,151.6,104.329,4.55311,0.00479197,0.101072,20.9363,518.128,28.2904,0.0,0.0
1472,367.75,35.5632,37.4595,153.723,104.288,4.53364,0.00464933,0.100209,20.9368,518.158,28.3255,0.0,0.0
1488,371.75,35.7583,37.4812,151.758,104.199,4.54931,0.00491095,0.0997181,20.9381,518.228,28.2867,0.0,0.0
1504,375.75,35.7303,37.2143,154.846,104.129,4.54503,,0.0994262,,518.208,28.2891,0.0,0.0
1520,379.75,35.9013,37.6582,149.094,104.073,4.5949,,,,518.178,28.1857,0.0,0.0
1536,383.75,35.4346,37.2311,150.385,104.027,4.53886,,,,518.268,28.2925,0.0,0.0
1542,385.25,35.7233,37.0877,150.8,103.992,4.5987,,,,518.158,28.1711,0.0,0.0