File: 01_Data/Polyisocyanurate_Foam_Board/Cone/Polyisocyanurate_Foam_Board_Cone_HF25Scan_220922_R3.csv
Names,Time,Stack TC,Smoke TC,Exh Press,Smoke Comp,Smoke Meas,CO Meter,CO2 Meter,O2 Meter,Sample Mass,Ext Coeff,Start Test,Flame Verif
Chan Gain,,500,500,1,1,1,1,1,1,1,1,1.0,1.0
Offset,,0,0,0.13918,0,0,0,0,0,0,0,0.0,0.0
Gain,,1,1,25.011,13.1577,15.2622,1,1,1,1.00088,1.00926,1.0,1.0
Units,sec,C,C,Pa,%,%,%,%,%,g,/m,,
Baseline,,28.1596,28.6715,164.726,99.6413,104.399,0.00123235,0.0890437,20.9306,-444.974,-0.41287,,
13,3,27.1496,27.6652,154.837,99.7799,86.5479,0.00658123,0.17467,20.8056,80.9111,1.25952,0.0,1.0
26,6.25,29.4541,28.8785,149.21,99.7261,84.9555,0.00961157,0.268876,20.6701,80.751,1.41916,0.0,1.0
39,9.5,29.2704,28.6803,152.097,99.6113,84.5857,0.00981253,0.305422,20.6202,80.5008,1.44758,0.0,0.0
52,12.75,31.2389,30.1043,158.433,99.4113,87.9876,0.00891289,0.30306,20.6188,80.3006,1.0807,0.0,0.0
65,16,32.7755,31.5561,157.038,99.1885,89.0915,0.00791865,0.288979,20.6359,80.1104,0.950455,0.0,0.0
78,19.25,33.5289,32.7656,155.692,98.9592,91.7421,0.00695677,0.268378,20.6691,79.9403,0.67041,0.0,0.0
91,22.5,33.4972,33.7631,159.709,98.7367,95.6522,0.00585615,0.244563,20.7035,79.7401,0.280981,0.0,0.0
104,25.75,34.1501,33.3645,158.211,98.5737,97.376,0.00492868,0.224805,20.735,79.7201,0.108225,0.0,0.0
117,29,34.2204,34.3155,156.179,98.4854,97.6676,0.00459673,0.21029,20.7544,79.61,0.0738187,0.0,0.0
130,32.25,34.5513,34.5226,154.922,98.4966,98.2884,0.00436372,0.201546,20.7668,79.5099,0.0187299,0.0,0.0
143,35.5,34.8184,35.1805,155.99,98.5833,98.594,0.00404333,0.194069,20.7788,79.4198,-0.00095622,0.0,0.0
156,38.75,34.8002,35.4399,158.647,98.7371,100.904,0.00384973,0.185894,20.7911,79.3197,-0.192163,0.0,0.0
169,42,34.4768,35.2057,158.859,98.9768,100.928,0.00371772,0.176539,20.8037,79.2297,-0.17282,0.0,0.0
182,45.25,34.6676,35.2968,163.885,99.2579,102.496,0.00355913,0.166746,20.8185,79.0795,-0.284176,0.0,0.0
195,48.5,34.8636,35.2619,162.91,99.5779,103.199,0.0034051,0.155267,20.8354,79.0895,-0.31618,0.0,0.0
208,51.75,34.3011,35.0664,159.608,99.8691,103.561,0.00330062,0.143297,20.85,79.0595,-0.321406,0.0,0.0
221,55,34.0502,35.1913,162.617,100.106,104.214,0.00327149,0.131162,20.8709,78.9294,-0.356003,0.0,0.0
234,58.25,33.7216,34.6896,160.567,100.299,103.491,0.00296289,0.11482,20.8948,78.9494,-0.277347,0.0,0.0
247,61.5,32.8531,34.3354,159.924,100.426,104.307,0.00275576,0.103175,20.9122,78.9694,-0.335687,0.0,0.0
260,64.75,32.0321,33.934,161.142,100.452,104.95,0.00257388,0.0976997,20.9195,78.9294,-0.387817,0.0,0.0
273,68,32.2468,33.7736,164.792,100.415,105.129,0.00228297,0.0955974,20.9219,78.8393,-0.406109,0.0,0.0
286,71.25,31.6018,33.527,165.869,100.318,104.887,0.00213549,0.0956542,20.9226,78.9294,-0.394338,0.0,0.0
299,74.5,31.1967,33.0865,166.364,100.169,104.484,0.00230573,0.0977345,20.9184,78.9194,-0.373345,0.0,0.0
312,77.75,30.7772,32.8837,168.629,99.9879,104.385,0.00237993,0.100951,20.9149,78.7993,-0.381034,0.0,0.0
325,81,30.7954,32.5753,166.132,99.8225,104.085,0.00234334,0.103829,20.9128,78.8493,-0.370179,0.0,0.0
338,84.25,30.8175,32.5415,160.541,99.6811,103.93,0.00216953,0.10361,20.9123,78.8293,-0.36952,0.0,0.0
351,87.5,30.7512,32.1833,159.629,99.6791,103.841,0.00189737,0.101499,20.9148,78.7893,-0.362157,0.0,0.0
364,90.75,30.3195,31.7492,162.241,99.9381,104.464,0.0018601,0.099398,20.9176,78.7392,-0.392156,0.0,0.0
377,94,30.5115,31.8865,163.414,100.1,104.696,0.00200454,0.09799,20.9186,78.7893,-0.397354,0.0,0.0
390,97.25,30.1971,31.6784,161.223,100.123,104.351,0.00220882,0.0986052,20.9187,78.7692,-0.366211,0.0,0.0
403,100.5,30.1151,31.3346,164.17,100.036,104.72,0.00229983,0.10084,20.9155,78.6792,-0.405161,0.0,0.0
416,103.75,30.0831,31.3632,161.222,99.847,104.676,0.00214571,0.101642,20.9144,78.7592,-0.418176,0.0,0.0
429,107,29.7586,30.9089,163.008,99.5531,104.546,0.00201966,0.100889,20.9162,78.7392,-0.43324,0.0,0.0
442,110.25,29.491,30.8293,167.094,99.2631,104.109,0.00208944,0.0995181,20.919,78.6892,-0.421945,0.0,0.0
455,113.5,29.3554,31.0362,164.533,99.321,103.581,0.00195699,0.0987017,20.9204,78.7192,-0.3718,0.0,0.0
468,116.75,29.1186,30.6908,162.375,99.4097,104.302,0.00213335,0.0981972,20.9224,78.6892,-0.425305,0.0,0.0
481,120,29.5038,30.9906,163.84,99.5097,103.692,0.00226901,0.0982235,20.923,78.6591,-0.364503,0.0,0.0
494,123.25,28.8859,30.7084,162.406,99.5948,103.726,0.00216746,0.0985225,20.9213,78.5591,-0.359836,0.0,0.0
507,126.5,28.9822,30.7166,164.151,99.6791,104.529,0.00218648,0.0993892,20.9205,78.6191,-0.420614,0.0,0.0
520,129.75,28.9843,30.5385,164.508,99.7414,104.064,0.00221465,0.0996016,20.9203,78.5991,-0.375631,0.0,0.0
533,133,29.1094,30.6952,163.06,99.7378,104.398,0.00206705,0.0997877,20.9203,78.509,-0.404317,0.0,0.0
546,136.25,29.0437,30.2628,160.685,99.6828,103.803,0.00199106,0.100055,20.9203,78.5591,-0.358579,0.0,0.0
559,139.5,29.1592,30.6117,164.381,99.5804,104.419,0.00209656,0.100315,20.9198,78.539,-0.420037,0.0,0.0
572,142.75,29.1571,29.9973,163.817,99.4378,103.575,0.00233076,0.100638,20.9198,78.529,-0.360874,0.0,0.0
585,146,28.7981,29.9053,162.853,99.2483,103.6,0.00232392,0.101126,20.9181,78.459,-0.379953,0.0,0.0
598,149.25,28.7481,29.7963,165.932,99.0616,103.594,0.00231665,0.101092,20.9169,78.509,-0.396107,0.0,0.0
611,152.5,28.988,30.5422,159.458,98.856,103.275,0.00211016,0.100294,20.9179,78.479,-0.387192,0.0,0.0
624,155.75,28.7403,29.5822,163.974,98.6725,102.988,0.00196376,0.0987973,20.9188,78.3789,-0.378972,0.0,0.0
637,159,28.8147,29.7855,161.993,98.5311,103.002,0.00210282,0.0976527,20.9211,78.4089,-0.392863,0.0,0.0
650,162.25,28.7577,30.009,164.124,98.446,103.416,0.00204551,0.0965198,20.9227,78.4189,-0.436033,0.0,0.0
663,165.5,28.8477,29.917,163.708,98.4018,103.201,0.00204322,0.0955532,20.9238,78.3389,-0.421605,0.0,0.0
676,168.75,29.1592,29.9706,163.15,98.4508,103.374,0.00202558,0.0950214,20.9247,78.3689,-0.43197,0.0,0.0
689,172,28.7862,29.9315,160.809,98.5705,103.28,0.00212848,0.0946069,20.9263,78.3789,-0.413155,0.0,0.0
702,175.25,28.8795,29.6532,163.316,98.7552,103.692,0.00207023,0.0940891,20.9267,78.3589,-0.431845,0.0,0.0
715,178.5,28.9487,29.5615,164.165,98.9584,103.412,0.00201778,0.0938561,20.9268,78.2888,-0.389757,0.0,0.0
728,181.75,28.7384,29.2073,164.189,99.2125,104.23,0.00198835,0.0926499,20.9282,78.3389,-0.43679,0.0,0.0
741,185,26.9387,28.4466,161.203,99.4647,104.393,0.00191137,0.0910503,20.9288,78.3289,-0.428113,0.0,0.0
754,188.25,27.409,28.037,166.789,99.6956,104.927,0.00212157,0.0902234,20.929,78.2588,-0.452816,0.0,0.0
767,191.5,26.7145,28.1181,163.98,99.9385,104.585,0.00230031,0.0900136,20.9312,78.3088,-0.402338,0.0,0.0
780,194.75,27.1811,27.7562,167.132,100.11,105.224,0.00234864,0.0898849,20.9331,78.3188,-0.441092,0.0,0.0
793,198,26.8312,27.851,162.411,100.249,105.238,0.0022682,0.0899462,20.9324,78.2788,-0.429954,0.0,0.0
806,201.25,26.4653,27.8054,163.368,100.362,105.203,0.00228668,0.0899297,20.9323,78.2188,-0.417016,0.0,0.0
819,204.5,26.2527,27.6386,163.84,100.412,105.055,0.00211778,0.0900208,20.9323,78.2588,-0.400227,0.0,0.0
832,207.75,26.7159,27.6524,164.654,100.426,104.804,0.00218678,0.0901132,20.9323,78.2588,-0.377847,0.0,0.0
845,211,26.5795,27.6479,166.548,100.388,105.312,0.00239472,0.0902725,20.9317,78.1687,-0.423882,0.0,0.0
858,214.25,26.9063,27.6818,162.103,100.325,105.043,0.0022529,0.0901254,20.9305,78.2288,-0.406861,0.0,0.0
871,217.5,26.5525,27.7363,164.588,100.23,105.362,0.00187819,0.0901482,20.9303,78.2288,-0.442072,0.0,0.0
884,220.75,26.6769,27.4859,163.548,100.093,104.656,0.0017524,0.0902171,20.9311,78.1987,-0.394644,0.0,0.0
897,224,27.1632,27.3332,163.837,99.9783,105.029,0.00194126,0.0902161,20.9307,78.2188,-0.436351,0.0,0.0
910,227.25,26.5777,27.9314,163.184,99.8377,104.425,0.00207221,0.0904522,20.9295,78.2288,-0.397698,0.0,0.0
923,230.5,26.6291,27.7871,163.595,99.7165,104.793,0.0021128,0.0903141,20.9292,78.2088,-0.439637,0.0,0.0
936,233.75,26.1233,27.7507,161.238,99.6221,104.169,0.00218768,0.0900349,20.9307,78.1087,-0.395133,0.0,0.0
949,237,26.7555,27.2413,165.208,99.6807,104.771,0.00216205,0.0898309,20.9303,78.1687,-0.440921,0.0,0.0
962,240.25,26.4621,27.5171,166.718,99.863,104.639,0.00192343,0.0898119,20.9291,78.1787,-0.413561,0.0,0.0
975,243.5,26.6014,27.7625,161.77,99.996,104.682,0.00190124,0.0897242,20.9306,78.0987,-0.40541,0.0,0.0
988,246.75,26.2697,27.6755,160.619,100.093,104.589,0.00224853,0.0895842,20.9309,78.1587,-0.389005,0.0,0.0
1001,250,26.2397,27.4011,161.817,100.112,105.026,0.00232772,0.089598,20.931,78.1487,-0.424169,0.0,0.0
1014,253.25,26.7421,27.2977,162.294,100.077,104.866,0.0021435,0.0894269,20.931,78.1487,-0.413817,0.0,0.0
1027,256.5,26.5669,27.4245,163.517,99.9992,105.017,0.0018418,0.0892611,20.931,78.1187,-0.433442,0.0,0.0
1040,259.75,26.6759,27.5972,163.888,99.8775,104.553,0.00175558,0.0891044,20.9323,78.1387,-0.404986,0.0,0.0
1053,263,26.3395,27.4128,163.666,99.6836,104.89,0.00182397,0.0890857,20.9328,78.1187,-0.450702,0.0,0.0
1066,266.25,26.5227,27.2667,161.67,99.445,104.605,0.00185472,0.089216,20.9315,78.0586,-0.447818,0.0,0.0
1079,269.5,26.9335,27.4192,163.298,99.274,104.532,0.00186733,0.0891109,20.9312,78.1387,-0.456869,0.0,0.0
1092,272.75,26.6059,27.3801,161.868,99.3218,104.174,0.00172717,0.0892662,20.9311,78.1287,-0.422261,0.0,0.0
1105,276,26.2703,27.6958,162.994,99.3435,104.23,0.00171612,0.0891072,20.931,78.0286,-0.425078,0.0,0.0
1118,279.25,26.259,27.5766,162.414,99.4061,104.297,0.00176847,0.0887424,20.9317,78.0786,-0.425192,0.0,0.0
1131,282.5,26.5439,27.089,160.293,99.4663,104.07,0.00190857,0.0884575,20.9331,78.1187,-0.400594,0.0,0.0
1144,285.75,26.8114,27.4519,164.811,99.5257,104.666,0.00190158,0.0882432,20.9345,78.0987,-0.445799,0.0,0.0
1157,289,26.4495,27.1297,160.367,99.5848,104.484,0.00180446,0.0880531,20.9349,78.0186,-0.425132,0.0,0.0
1170,292.25,26.5362,27.2938,163.694,99.6306,104.791,,0.0883573,,78.0886,-0.447072,0.0,0.0
1183,295.5,25.9499,27.5275,161.918,99.6715,104.965,,,,78.0686,-0.458139,0.0,0.0
1196,298.75,26.1741,27.6967,162.548,99.6807,104.765,,,,78.0086,-0.44041,0.0,0.0
1209,302,26.3796,27.5105,159.815,99.704,104.484,,,,78.0886,-0.414576,0.0,0.0
1211,302.5,26.6491,27.1698,161.121,99.6964,104.704,,,,78.0586,-0.433862,0.0,0.0