File: 01_Data/Polyisocyanurate_Foam_Board/Cone/Polyisocyanurate_Foam_Board_Cone_HF25Scan_220922_R4.csv
Names,Time,Stack TC,Smoke TC,Exh Press,Smoke Comp,Smoke Meas,CO Meter,CO2 Meter,O2 Meter,Sample Mass,Ext Coeff,Start Test,Flame Verif
Chan Gain,,500,500,1,1,1,1,1,1,1,1,1.0,1.0
Offset,,0,0,0.13918,0,0,0,0,0,0,0,0.0,0.0
Gain,,1,1,25.011,13.1577,15.2622,1,1,1,1.00088,1.00926,1.0,1.0
Units,sec,C,C,Pa,%,%,%,%,%,g,/m,,
Baseline,,31.6464,32.3798,163.145,99.8425,104.29,0.00112577,0.0870969,20.9271,-445.827,-0.385854,,
8,1.75,30.2964,31.1576,150.847,99.7655,89.4846,0.00364085,0.132837,20.8833,82.2723,0.96283,0.0,1.0
16,3.75,30.6027,30.7409,150.137,99.6811,83.0547,0.00679815,0.188194,20.8045,82.0722,1.61549,0.0,1.0
24,5.75,31.9702,31.6683,149.662,99.6117,82.9941,0.00931847,0.247405,20.7143,81.882,1.61578,0.0,1.0
32,7.75,31.6273,30.7844,150.566,99.5531,83.2731,0.0104551,0.283422,20.6596,81.7519,1.58085,0.0,1.0
40,9.75,32.8535,32.2993,150.781,99.6783,85.5288,0.0105034,0.295614,20.6372,81.6418,1.35537,0.0,1.0
48,11.75,33.4281,33.0089,153.778,99.8129,84.1483,0.00991321,0.293336,20.6361,81.5417,1.51137,0.0,0.0
56,13.75,34.8981,34.4538,151.725,99.9165,87.9131,0.0091139,0.283964,20.647,81.3915,1.13307,0.0,0.0
64,15.75,34.6458,34.2815,153.33,100.009,88.9443,0.00816911,0.272744,20.6653,81.2915,1.03801,0.0,0.0
72,17.75,35.5977,35.2352,152.171,100.048,91.9946,0.0071478,0.261125,20.6825,81.2214,0.742972,0.0,0.0
80,19.75,36.3564,36.1119,150.744,100.07,93.3318,0.00630804,0.250276,20.6989,81.1313,0.61713,0.0,0.0
88,21.75,36.2877,35.9315,160.783,100.051,95.2647,0.00563273,0.238716,20.715,81.0513,0.433983,0.0,0.0
96,23.75,36.5111,36.3104,155.073,100.008,97.8022,0.00507869,0.226999,20.7314,80.9812,0.197417,0.0,0.0
104,25.75,36.6166,36.5939,155.476,99.9245,97.9582,0.00465064,0.216007,20.7451,80.9512,0.175944,0.0,0.0
112,27.75,36.6748,36.6944,157.8,99.808,99.709,0.00428273,0.20722,20.7591,80.8711,0.0087869,0.0,0.0
120,29.75,36.6693,36.8156,155.174,99.6607,99.7379,0.00400214,0.19854,20.7727,80.8311,-0.00685889,0.0,0.0
128,31.75,37.0073,37.2968,156.175,99.4824,100.201,0.00378825,0.191219,20.7827,80.791,-0.0637509,0.0,0.0
136,33.75,37.109,37.4166,157.865,99.2676,100.52,0.00368718,0.185564,20.7913,80.751,-0.111034,0.0,0.0
144,35.75,37.0779,37.5362,158.859,99.2122,100.645,0.00361455,0.180102,20.8009,80.6809,-0.126923,0.0,0.0
152,37.75,38.375,39.039,157.741,99.2639,100.61,0.00352148,0.17532,20.8079,80.6209,-0.11927,0.0,0.0
160,39.75,36.8473,37.7128,157.236,99.2888,100.241,0.00341871,0.17126,20.8126,80.5708,-0.0845303,0.0,0.0
168,41.75,37.0675,37.8664,157.028,99.3378,101.15,0.00342463,0.167432,20.8185,80.5508,-0.160057,0.0,0.0
176,43.75,36.226,36.7345,160.563,99.3981,101.873,0.00343331,0.163653,20.8225,80.4808,-0.217693,0.0,0.0
184,45.75,36.7249,37.5738,159.48,99.4503,102.098,0.00336919,0.160028,20.8282,80.4407,-0.232614,0.0,0.0
192,47.75,36.7092,37.6139,160.639,99.5025,102.277,0.00327362,0.156419,20.8339,80.4107,-0.243504,0.0,0.0
200,49.75,36.684,37.7484,156.758,99.5454,102.236,0.00313396,0.152894,20.8396,80.3606,-0.236134,0.0,0.0
208,51.75,36.5851,37.5336,161.464,99.58,102.456,0.00305189,0.148239,20.8452,80.3306,-0.252079,0.0,0.0
216,53.75,36.6679,37.7957,157.9,99.6185,103.7,0.00302363,0.142952,20.8532,80.3206,-0.355464,0.0,0.0
224,55.75,36.3326,37.6883,163.54,99.6615,102.927,0.00298731,0.137676,20.8619,80.3106,-0.285472,0.0,0.0
232,57.75,35.9653,37.5582,156.295,99.6904,103.176,0.00291084,0.132329,20.8698,80.2606,-0.304271,0.0,0.0
240,59.75,36.1581,37.4704,164.76,99.7024,103.913,0.00283635,0.126917,20.8778,80.2505,-0.366202,0.0,0.0
248,61.75,35.6957,37.102,162.136,99.6888,103.712,0.00277083,0.120959,20.886,80.2205,-0.350256,0.0,0.0
256,63.75,35.2492,36.8386,158.626,99.6771,103.711,0.00270677,0.115211,20.8949,80.2105,-0.351249,0.0,0.0
264,65.75,35.5704,37.1775,161.045,99.6462,103.577,0.00264311,0.109033,20.9028,80.2005,-0.342497,0.0,0.0
272,67.75,35.7502,36.8156,162.071,99.5912,103.308,0.00258372,0.103163,20.9118,80.1905,-0.324426,0.0,0.0
280,69.75,32.7254,34.9726,160.322,99.5362,103.672,0.002461,0.0984519,20.9178,80.1505,-0.360435,0.0,0.0
288,71.75,33.214,34.9262,156.848,99.4603,103.665,0.00230755,0.0956599,20.9212,80.1404,-0.366552,0.0,0.0
296,73.75,32.8019,34.8015,158.678,99.4113,103.896,0.00224531,0.0942531,20.9227,80.1404,-0.390661,0.0,0.0
304,75.75,32.8597,34.3748,165.861,99.3081,103.561,0.00224812,0.0938499,20.9234,80.1004,-0.371233,0.0,0.0
312,77.75,32.4813,34.0906,163.996,99.2274,103.274,0.00225625,0.0934988,20.9237,80.0904,-0.35391,0.0,0.0
320,79.75,32.3921,33.9411,165.142,99.1218,103.415,0.00221523,0.093112,20.9238,80.0704,-0.375388,0.0,0.0
328,81.75,32.2566,33.6216,158.792,99.0114,103.455,0.00211032,0.0924401,20.9251,80.0604,-0.388644,0.0,0.0
336,83.75,32.0366,33.6782,163.35,98.9146,103.636,0.00211791,0.0914996,20.9268,80.0504,-0.412792,0.0,0.0
344,85.75,31.3914,33.4602,164.062,98.8231,103.066,0.00221084,0.0907994,20.9278,80.0504,-0.372195,0.0,0.0
352,87.75,31.318,33.4791,161.658,98.7339,102.896,0.002267,0.0901212,20.9288,80.0604,-0.365529,0.0,0.0
360,89.75,31.3555,33.237,157.978,98.6363,102.957,0.00222904,0.0895041,20.93,80.0504,-0.379572,0.0,0.0
368,91.75,31.0309,33.0747,162.012,98.5649,103.101,0.00218612,0.089132,20.9304,80.0604,-0.398356,0.0,0.0
376,93.75,31.3148,32.8109,163.315,98.4906,102.545,0.00212052,0.0886893,20.9315,80.0904,-0.357148,0.0,0.0
384,95.75,31.0429,32.8524,161.876,98.4368,102.88,0.00194379,0.0882471,20.9328,80.0904,-0.390891,0.0,0.0
392,97.75,30.738,32.9199,162.84,98.3938,103.065,0.00171366,0.0880045,20.9337,80.1004,-0.410613,0.0,0.0
400,99.75,30.7202,32.8599,160.512,98.3745,102.151,0.00158765,0.0877122,20.9341,80.0904,-0.333461,0.0,0.0
408,101.75,30.7007,32.5349,166.239,98.3625,102.372,0.00159966,0.0876736,20.9343,80.0804,-0.353738,0.0,0.0
416,103.75,30.0365,32.5949,160.312,98.3741,102.747,0.00166823,0.0877208,20.9343,80.0704,-0.385016,0.0,0.0
424,105.75,30.579,32.35,160.198,98.3942,102.914,0.00170618,0.0879013,20.9344,80.0704,-0.397645,0.0,0.0
432,107.75,30.4685,31.8508,163.097,98.4464,103.056,0.00172735,0.0880705,20.9344,80.0604,-0.405161,0.0,0.0
440,109.75,30.728,31.9164,162.524,98.5014,103.395,0.00178111,0.0883249,20.9344,80.0404,-0.429216,0.0,0.0
448,111.75,30.4602,31.8864,162.457,98.5821,103.013,0.00190915,0.088525,20.9338,80.0404,-0.389243,0.0,0.0
456,113.75,30.1629,32.0978,162.629,98.6705,103.055,0.00204358,0.0886186,20.9328,80.0504,-0.384875,0.0,0.0
464,115.75,30.34,31.5998,159.171,98.766,102.878,0.00206168,0.0888354,20.9324,80.0304,-0.361127,0.0,0.0
472,117.75,29.8553,32.0481,162.284,98.8837,103.519,0.00197837,0.089188,20.9322,80.0304,-0.405567,0.0,0.0
480,119.75,30.2726,31.5508,160.335,99.005,103.676,0.00190641,0.0892528,20.9322,80.0504,-0.408131,0.0,0.0
488,121.75,29.5953,31.672,158.433,99.1218,104.263,0.00188252,0.0891975,20.9313,80.0404,-0.4477,0.0,0.0
496,123.75,30.3072,31.2719,161.415,99.2764,104.231,0.00182598,0.0890933,20.9318,80.0304,-0.431134,0.0,0.0
504,125.75,29.8295,31.7243,160.851,99.3864,104.315,0.00180243,0.0890376,20.9312,80.0304,-0.428447,0.0,0.0
512,127.75,29.9157,31.432,169.754,99.5205,103.903,0.00184987,0.0891615,20.9317,80.0203,-0.381535,0.0,0.0
520,129.75,30.0152,31.663,164.263,99.6402,104.348,0.0018996,0.0894528,20.9306,80.0103,-0.408676,0.0,0.0
528,131.75,29.9608,31.4496,161.28,99.7486,103.854,0.00188533,0.0897277,20.9295,80.0003,-0.357061,0.0,0.0
536,133.75,29.7915,31.1444,163.616,99.8454,104.778,0.00187939,0.0900104,20.9284,79.9903,-0.426941,0.0,0.0
544,135.75,29.8088,30.9103,161.346,99.9486,104.652,0.00191499,0.0903826,20.9279,80.0003,-0.407085,0.0,0.0
552,137.75,29.5345,31.1815,165.07,100.049,105.201,0.00189412,0.0906746,20.9277,79.9803,-0.444531,0.0,0.0
560,139.75,29.7231,31.2017,159.439,100.13,104.784,0.00189135,0.090841,20.9276,79.9703,-0.402203,0.0,0.0
568,141.75,29.3174,31.0041,163.723,100.202,104.433,0.00194918,0.0908806,20.9275,79.9703,-0.366168,0.0,0.0
576,143.75,29.6593,31.3514,160.363,100.269,104.612,0.00198925,0.0910765,20.9275,79.9503,-0.375398,0.0,0.0
584,145.75,29.7928,30.1187,162.489,100.312,104.866,0.00194402,0.0911357,20.9275,79.9203,-0.393101,0.0,0.0
592,147.75,29.8239,30.5377,161.494,100.348,104.867,0.00181621,0.091039,20.9275,79.9303,-0.389991,0.0,0.0
600,149.75,29.4898,30.8355,162.472,100.365,104.886,0.0017023,0.0907298,20.9275,79.9002,-0.390075,0.0,0.0
608,151.75,29.2448,30.7528,162.649,100.378,105.18,0.00170255,0.0905223,20.9275,79.8602,-0.413714,0.0,0.0
616,153.75,29.7468,30.6348,163.172,100.356,105.151,0.00163932,0.0904568,20.9275,79.8502,-0.413271,0.0,0.0
624,155.75,29.2449,30.7287,164.859,100.348,104.48,0.0016152,0.0907061,20.9275,79.8302,-0.357215,0.0,0.0
632,157.75,29.0962,30.6711,160.371,100.298,104.763,0.00168627,0.0908121,20.9272,79.8402,-0.385572,0.0,0.0
640,159.75,29.2951,30.9076,166.868,100.253,104.998,0.00183104,0.0908905,20.9256,79.8402,-0.409397,0.0,0.0
648,161.75,29.2816,29.5743,162.604,100.21,104.847,0.00195721,0.0909069,20.9261,79.8302,-0.40053,0.0,0.0
656,163.75,29.4083,30.4648,160.475,100.148,104.142,0.00194485,0.0909401,20.927,79.8302,-0.346211,0.0,0.0
664,165.75,29.4979,30.5285,165.139,100.067,105.242,0.00174176,0.0909413,20.9276,79.8502,-0.446346,0.0,0.0
672,167.75,29.6039,30.7101,163.98,100.008,104.428,0.00149435,0.0908785,20.9274,79.8302,-0.382889,0.0,0.0
680,169.75,29.4803,30.2762,161.225,99.9189,104.497,0.00142465,0.0908498,20.9274,79.8402,-0.396626,0.0,0.0
688,171.75,28.912,30.328,160.625,99.8313,104.469,0.00157385,0.0907384,20.9274,79.8602,-0.401979,0.0,0.0
696,173.75,29.2302,30.5899,158.647,99.7615,103.837,0.00170261,0.0905814,20.9284,79.8602,-0.354492,0.0,0.0
704,175.75,29.0285,30.1277,161.131,99.6988,104.295,0.0017616,0.0904873,20.9291,79.8702,-0.399042,0.0,0.0
712,177.75,29.2123,30.1826,164.79,99.6253,104.218,,0.0903659,,79.8602,-0.399003,0.0,0.0
720,179.75,29.0127,30.4908,159.522,99.5739,104.389,,,,79.8802,-0.418081,0.0,0.0
728,181.75,29.2649,29.9305,163.646,99.5241,104.433,,,,79.8502,-0.426261,0.0,0.0
736,183.75,29.1342,29.8651,163.783,99.6647,104.278,,,,79.8502,-0.40057,0.0,0.0
744,185.75,29.3554,30.4301,163.966,99.7827,104.368,,,,79.8602,-0.397758,0.0,0.0
749,187,28.9723,29.6851,162.463,99.8506,104.189,,,,79.8502,-0.376515,0.0,0.0