File: 01_Data/Polyisocyanurate_Foam_Board/Cone/Polyisocyanurate_Foam_Board_Cone_HF25Scan_220922_R1.csv
Names,Time,Stack TC,Smoke TC,Exh Press,Smoke Comp,Smoke Meas,CO Meter,CO2 Meter,O2 Meter,Sample Mass,Ext Coeff,Start Test,Flame Verif
Chan Gain,,500,500,1,1,1,1,1,1,1,1,1.0,1.0
Offset,,0,0,0.137569,0,0,0,0,0,0,0,0.0,0.0
Gain,,1,1,25.011,13.0852,15.0251,1,1,1,1.00088,1.05531,1.0,1.0
Units,sec,C,C,Pa,%,%,%,%,%,g,/m,,
Baseline,,37.7022,38.3186,167.201,98.6698,95.9858,0.0015105,0.0796596,20.9425,-447.407,0.255332,,
87,21.5,35.5026,36.2694,165.08,98.7948,96.0612,0.00150905,0.0809678,20.9433,84.6244,0.259752,0.0,0.0
174,43.25,35.8621,36.5453,166.863,98.8898,96.2372,0.0016202,0.0851801,20.9377,84.5143,0.251702,0.0,0.0
261,65,35.8578,35.9563,167.747,98.6251,95.8048,0.00159976,0.0799018,20.9439,84.4442,0.26857,0.0,0.0
348,86.75,36.1321,36.6169,165.916,97.7518,95.1093,0.00128658,0.0826563,20.9424,84.3241,0.253689,0.0,0.0
435,108.5,36.2438,37.0253,165.341,98.5872,96.0415,0.00155191,0.0854313,20.9384,84.2641,0.242175,0.0,0.0
522,130.25,35.93,36.6239,166.162,99.6094,97.0016,0.00139599,0.0830788,20.9395,84.144,0.245583,0.0,0.0
609,152,35.7146,36.9114,168.159,99.1402,96.6027,0.00138804,0.0848711,20.9404,84.0439,0.240024,0.0,0.0
696,173.75,36.1009,36.6797,166.06,99.2257,96.4307,0.00131638,0.0889994,20.933,83.8637,0.264492,0.0,0.0
783,195.5,36.6017,37.1195,165.674,98.4107,96.1579,0.00162904,0.0894597,20.9345,83.7937,0.214367,0.0,0.0
870,217.25,35.5901,36.6944,167.015,98.826,96.2886,0.0010832,0.0844771,20.9401,83.7036,0.24078,0.0,0.0
957,239,36.3325,37.0519,166.056,98.7796,96.3289,0.00156603,0.0831307,20.9434,83.6736,0.232562,0.0,0.0
1044,260.75,35.6636,37.1012,165.562,97.9778,95.9328,0.0012877,0.0826209,20.9458,83.6235,0.19526,0.0,0.0
1131,282.5,35.8894,36.5287,166.373,97.7574,95.5861,0.00124068,0.0799967,20.9497,83.5935,0.20792,0.0,0.0
1218,304.25,35.9303,36.6803,168.485,98.7361,96.8847,0.00127441,0.0789686,20.9503,83.5735,0.175229,0.0,0.0
1305,326,35.8434,36.9688,171.822,99.5467,97.6931,0.00151835,0.0788956,20.9511,83.5334,0.174002,0.0,0.0
1392,347.75,35.8059,36.4968,164.995,99.3567,97.1836,0.00133352,0.0792058,20.9494,83.5234,0.204708,0.0,0.0
1479,369.5,35.8138,36.7864,166.233,98.7449,96.7393,0.00129709,0.079009,20.9469,83.5234,0.189951,0.0,0.0
1566,391.25,35.8185,36.8926,168.991,99.2369,97.3923,0.00126894,0.0793916,20.9485,83.4534,0.173687,0.0,0.0
1653,413,35.7425,36.5652,166.82,98.3875,96.7778,0.00134713,0.0777108,20.9532,83.4834,0.1527,0.0,0.0
1740,434.75,35.4176,36.1299,169.395,98.7165,96.8232,0.00131696,0.0763583,20.9546,83.4333,0.179267,0.0,0.0
1827,456.5,35.6229,36.4093,167.141,98.8787,97.384,0.00129577,0.076491,20.9537,83.4333,0.140998,0.0,0.0
1914,478.25,35.8799,36.6146,164.329,98.4234,96.7274,0.00121949,0.080148,20.9486,83.4133,0.160907,0.0,0.0
2001,500,35.0553,36.4132,169.037,97.751,96.2634,0.00141889,0.0797192,20.9481,83.3533,0.141958,0.0,0.0
2088,521.75,35.3406,36.5497,166.394,97.7082,96.1355,0.00121202,0.0805514,20.9481,83.3633,0.150221,0.0,0.0
2175,543.5,34.88,36.3911,164.932,98.5444,96.6403,0.00131978,0.0791334,20.9492,83.3232,0.180622,0.0,0.0
2262,565.25,35.2808,36.1764,168.521,99.3487,98.0232,0.00155519,0.0773339,20.9527,83.2832,0.124335,0.0,0.0
2349,587,35.1385,36.1464,167.929,99.5196,98.0251,0.00144784,0.0775643,20.9522,83.2832,0.140073,0.0,0.0
2436,608.75,35.2754,35.9604,167.977,99.0679,97.6559,0.00114586,0.0772374,20.9533,83.2832,0.13289,0.0,0.0
2523,630.5,35.0007,35.6616,166.048,98.9026,97.6802,0.00119295,0.0768293,20.9532,83.2532,0.115126,0.0,0.0
2610,652.25,35.4366,35.4488,167.405,99.1822,97.7371,0.00129065,0.0772571,20.9527,83.1931,0.135865,0.0,0.0
2697,674,35.2495,35.777,166.918,98.6954,97.1694,0.00120542,0.0771375,20.9523,83.2031,0.144243,0.0,0.0
2784,695.75,34.9649,35.679,166.428,98.4142,96.9755,0.000976917,0.0769198,20.9545,83.1531,0.136333,0.0,0.0
2871,717.5,35.3265,35.9266,169.504,98.6686,97.4042,0.00130338,0.0768401,20.9547,83.1431,0.119393,0.0,0.0
2958,739.25,35.2697,36.3608,166.061,98.7892,97.8105,0.00113791,0.077023,20.9536,83.1031,0.092172,0.0,0.0
3045,761,35.3684,35.8109,167.462,98.6698,97.688,0.00118277,0.0769764,20.9549,83.053,0.0925708,0.0,0.0
3132,782.75,35.1101,35.4012,169.682,98.4474,96.7572,0.00104927,0.0769547,20.9549,83.063,0.160308,0.0,0.0
3219,804.5,34.859,35.6505,163.15,98.0988,96.9856,0.00151101,0.0774751,20.9553,83.033,0.105649,0.0,0.0
3306,826.25,34.5239,35.5291,169.673,97.7302,96.4285,0.00126562,0.0772957,20.9521,83.063,0.124131,0.0,0.0
3393,848,34.7229,36.0781,167.351,97.5409,96.3592,0.0010447,0.077006,20.9529,83.043,0.112834,0.0,0.0
3480,869.75,34.7876,35.6973,162.718,97.487,96.2244,0.000931568,0.077053,20.9529,83.033,0.120677,0.0,0.0
3567,891.5,34.6982,35.5321,170.35,97.6943,96.3331,0.0013224,0.0772346,20.9547,83.013,0.129887,0.0,0.0
3654,913.25,35.2265,35.8509,164.793,98.2665,96.6811,0.00139221,0.0768957,20.951,82.9529,0.150568,0.0,0.0
3741,935,35.0403,35.7603,166.182,98.7661,97.6151,0.00114693,0.07651,20.9526,82.9529,0.108507,0.0,0.0
3828,956.75,34.5152,35.8235,165,99.2433,98.23,0.00125824,0.0758104,20.9578,82.9229,0.094997,0.0,0.0
3915,978.5,35.1753,35.8815,171.711,99.4345,98.4341,0.00117957,0.0760261,20.9575,82.8929,0.0936131,0.0,0.0
4002,1000.25,34.9025,35.818,166.515,99.409,98.3112,0.00107397,0.0763988,20.9543,82.8628,0.102797,0.0,0.0
4089,1022,34.6183,36.1053,162.883,99.1119,98.6872,0.00128289,0.0758237,20.9586,82.8729,0.039753,0.0,0.0
4176,1043.75,34.7424,35.8778,166.966,98.7553,97.9072,0.00125231,0.0774951,20.9565,82.8328,0.0798382,0.0,0.0
4263,1065.5,34.6646,35.553,166.541,98.7325,98.0296,0.00125799,0.0771145,20.9565,82.8428,0.066136,0.0,0.0
4350,1087.25,34.2887,35.2409,170.419,99.042,98.556,0.00132124,0.0774383,20.9563,82.8128,0.0455331,0.0,0.0
4437,1109,34.8427,36.0613,170.51,99.1155,98.2085,0.00128818,0.0761159,20.9569,82.7728,0.0851013,0.0,0.0
4524,1130.75,33.7631,35.3148,169.255,98.913,97.7774,0.00134754,0.0758918,20.9582,82.7527,0.106891,0.0,0.0
4611,1152.5,34.4465,34.9727,168.841,98.5828,98.0966,0.00129732,0.0757611,20.9589,82.7527,0.0457659,0.0,0.0
4698,1174.25,34.748,35.4561,170.12,98.308,97.4533,0.00121931,0.0762188,20.9551,82.7327,0.0808403,0.0,0.0
4785,1196,35.2626,35.5991,168.436,98.429,97.4161,0.00119014,0.0761017,20.9567,82.6927,0.095755,0.0,0.0
4872,1217.75,34.3785,35.6781,166.989,98.5181,98.1291,0.00103333,0.0762387,20.9534,82.6527,0.0366176,0.0,0.0
4959,1239.5,34.7154,34.9095,169.366,98.3627,97.9521,0.00127846,0.0763479,20.9554,82.6727,0.0387212,0.0,0.0
5046,1261.25,34.6081,35.4767,167.995,98.8551,97.8916,0.00113661,0.0759853,20.9562,82.6126,0.0906663,0.0,0.0
5133,1283,35.1433,35.8253,167.495,98.6922,98.1626,0.00135277,0.0758428,20.9542,82.5926,0.049806,0.0,0.0
5220,1304.75,34.5782,36.265,167.708,99.3619,98.9632,0.00121661,0.0758467,20.9552,82.6326,0.0372155,0.0,0.0
5307,1326.5,35.116,36.2265,164.365,98.0932,97.7435,0.000951887,0.0750354,20.9566,82.5826,0.0330578,0.0,0.0
5394,1348.25,35.1253,36.2618,170.441,98.0089,97.1245,0.00126354,0.0748896,20.9584,82.6527,0.0839149,0.0,0.0
5481,1370,35.4627,36.1641,172.184,98.3512,97.8325,0.00105171,0.0751889,20.9588,82.5826,0.0489487,0.0,0.0
5568,1391.75,35.3289,36.3076,165.409,98.6574,97.948,0.00123829,0.0751956,20.9599,82.5826,0.0668055,0.0,0.0
5655,1413.5,35.5573,35.8573,169.089,98.4582,97.4611,0.00137345,0.0753447,20.9597,82.5526,0.094227,0.0,0.0
5742,1435.25,35.227,35.9998,163.566,98.5904,97.4037,0.00101007,0.0756172,20.9572,82.5526,0.112092,0.0,0.0
5829,1457,35.1599,36.4264,167.861,98.9434,97.6468,0.00130282,0.0753952,20.9588,82.5426,0.12211,0.0,0.0
5916,1478.75,35.1753,35.9619,168.897,98.2114,96.638,0.0014301,0.0752048,20.9567,82.5025,0.149503,0.0,0.0
6003,1500.5,34.5369,35.8011,170.596,98.7213,97.5124,0.00126943,0.0749846,20.9608,82.5426,0.114059,0.0,0.0
6090,1522.25,35.0721,36.1451,167.122,98.6786,96.9113,0.00116099,0.0742213,20.9603,82.5526,0.167296,0.0,0.0
6177,1544,34.7906,35.8439,169.669,98.3304,96.6174,0.00106799,0.0747116,20.9591,82.5025,0.16269,0.0,0.0
6264,1565.75,35.3495,36.1797,166.6,98.1922,96.6233,0.00109846,0.0755407,20.9585,82.4825,0.149102,0.0,0.0
6351,1587.5,34.4682,35.6021,165.619,98.4833,96.6261,0.00110107,0.0758218,20.9585,82.4425,0.176242,0.0,0.0
6438,1609.25,34.7557,36.0956,165.657,98.9422,96.8416,0.00116493,0.0757153,20.9581,82.4425,0.198647,0.0,0.0
6525,1631,34.955,35.922,169.335,98.588,96.9315,0.00104553,0.0757319,20.9585,82.4225,0.156861,0.0,0.0
6612,1652.75,34.4186,36.1088,167.018,99.2492,97.451,0.00133108,0.0766969,20.9562,82.4124,0.169265,0.0,0.0
6699,1674.5,34.4799,35.7517,164.563,99.3251,97.5216,0.0012452,0.0764218,20.955,82.4124,0.169633,0.0,0.0
6786,1696.25,34.5457,35.4449,166.133,98.7517,97.1859,0.00106983,0.0767037,20.9565,82.3824,0.147949,0.0,0.0
6873,1718,34.8479,35.3771,170.414,97.9514,96.118,0.00131167,0.0768241,20.9548,82.3924,0.174911,0.0,0.0
6960,1739.75,34.2252,35.2701,165.033,97.634,95.9062,0.0012601,0.077308,20.9524,82.3424,0.165284,0.0,0.0
7047,1761.5,34.3705,35.82,167.188,97.5856,95.6893,0.00102965,0.0768664,20.9533,82.3324,0.18166,0.0,0.0
7134,1783.25,34.4655,35.0372,171.832,97.6284,95.7957,0.00100468,0.0771893,20.9533,82.3024,0.175426,0.0,0.0
7221,1805,34.3249,35.6363,165.781,97.7522,96.3468,0.00130742,0.0775413,20.9533,82.3124,0.134049,0.0,0.0
7308,1826.75,34.4939,35.3885,165.18,98.096,96.2405,0.00139779,0.0776573,20.9527,82.3324,0.176779,0.0,0.0
7395,1848.5,34.7231,34.9157,168.576,98.56,96.7889,0.00106976,0.0774224,20.9534,82.3624,0.167865,0.0,0.0
7482,1870.25,35.101,34.8508,168.508,99.0428,97.0332,0.00119789,0.077177,20.9586,82.3524,0.189755,0.0,0.0
7569,1892,34.6119,35.0608,166.786,99.3958,97.9013,0.000875307,0.0773804,20.9529,82.3424,0.140249,0.0,0.0
7656,1913.75,34.6359,35.579,168.871,99.3044,97.4354,0.000950221,0.0775974,20.9535,82.3524,0.175884,0.0,0.0
7743,1935.5,34.0723,35.0202,165.514,98.9318,97.3932,0.00105679,0.0776242,20.9552,82.3324,0.145097,0.0,0.0
7830,1957.25,33.9348,34.9509,170.973,98.6295,97.0919,0.00111992,0.0774407,20.9543,82.3224,0.145446,0.0,0.0
7917,1979,33.0016,34.0038,167.593,98.9162,97.0094,0.000963075,0.0781627,20.9507,82.2923,0.18019,0.0,0.0
8004,2000.75,32.6231,33.9274,166.026,98.9685,97.5523,0.00119403,0.0790347,20.951,82.3024,0.133423,0.0,0.0
8091,2022.5,33.1291,33.3354,166.225,98.1874,96.328,0.00128858,0.0785438,20.9526,82.2923,0.176984,0.0,0.0
8178,2044.25,32.9494,33.838,162.771,98.6167,96.8847,0.001404,0.0774507,20.9547,82.2923,0.164028,0.0,0.0
8265,2066,32.9636,33.7129,165.777,98.6487,97.08,0.00132979,0.0759764,20.9568,82.2623,0.148381,0.0,0.0
8311,2077.5,32.6156,33.9533,169.662,98.1978,96.4381,,,,81.952,0.167393,0.0,0.0