File: 01_Data/Polyisocyanurate_Foam_Board/Cone/Polyisocyanurate_Foam_Board_Cone_HF50Scan_220913_R1.csv
Names,Time,Stack TC,Smoke TC,Exh Press,Smoke Comp,Smoke Meas,CO Meter,CO2 Meter,O2 Meter,Sample Mass,Ext Coeff,Start Test,Flame Verif
Chan Gain,,500,500,1,1,1,1,1,1,1,1,1.0,1.0
Offset,,0,0,0.13918,0,0,0,0,0,0,0,0.0,0.0
Gain,,1,1,25.011,14.0162,15.5607,1,1,1,1.0009,1.02981,1.0,1.0
Units,sec,C,C,Pa,%,%,%,%,%,g,/m,,
Baseline,,31.6119,33.0601,155.299,104.72,4.39574,0.000747645,0.0961288,20.945,-0.0990895,28.6421,,
20,4.75,31.0616,32.209,158.936,104.013,4.30902,0.000798656,0.110875,20.9236,528.637,28.7607,0.0,0.0
40,9.75,30.7782,32.3267,153.967,103.834,4.15659,0.00119914,0.108631,20.9283,528.477,29.0705,0.0,0.0
60,14.75,31.3215,32.9307,149.894,103.663,4.3038,0.00223566,0.11545,20.9166,528.287,28.7412,0.0,1.0
80,19.75,33.0604,33.9326,143.558,103.496,4.22544,0.00452094,0.205261,20.7851,527.896,28.8927,0.0,1.0
100,24.75,35.5459,35.9676,142.439,103.37,4.16181,0.00655879,0.296235,20.6583,527.456,29.0187,0.0,0.0
120,29.75,37.0186,37.5054,141.94,103.3,4.18983,0.00690343,0.312867,20.6385,527.166,28.952,0.0,0.0
140,34.75,39.4958,39.8922,145.215,103.309,4.24444,0.0071231,0.308143,20.6402,526.836,28.8358,0.0,0.0
160,39.75,40.7275,41.3854,149.979,103.365,4.32659,0.00725409,0.309519,20.6376,526.455,28.6675,0.0,0.0
180,44.75,41.8863,42.5867,148.008,103.457,4.20312,0.00730061,0.299932,20.6492,526.185,28.9371,0.0,0.0
200,49.75,43.022,43.7425,144.942,103.61,4.21215,0.00710169,0.292769,20.6583,525.925,28.931,0.0,0.0
220,54.75,43.2377,44.3961,145.875,103.755,4.21974,0.00598253,0.278968,20.6784,525.644,28.9274,0.0,0.0
240,59.75,43.5957,45.1247,148.423,103.925,4.2017,0.00520029,0.25793,20.7134,525.424,28.9809,0.0,0.0
260,64.75,43.7642,45.4903,150.03,104.098,4.34369,0.00451424,0.239529,20.7443,525.204,28.6957,0.0,0.0
280,69.75,41.4656,43.6179,150.413,104.294,4.37788,0.00387151,0.221795,20.7743,525.064,28.6419,0.0,0.0
300,74.75,43.2125,45.5862,151.26,104.48,4.36601,0.00394779,0.203214,20.8014,524.904,28.6825,0.0,0.0
320,79.75,42.7514,45.5977,149.505,104.657,4.39545,0.00413212,0.191762,20.8157,524.774,28.6371,0.0,0.0
340,84.75,42.5493,45.2387,151.59,104.832,4.36981,0.00426491,0.192499,20.815,524.553,28.705,0.0,0.0
360,89.75,42.0727,44.9442,149.06,104.982,4.42489,0.00422943,0.20465,20.8003,524.293,28.6048,0.0,0.0
380,94.75,42.6721,45.0734,152.595,105.112,4.42442,0.0043256,0.205159,20.8022,524.123,28.6169,0.0,0.0
400,99.75,42.5064,45.1915,149.508,105.209,4.43344,0.00410102,0.196405,20.8112,523.983,28.6069,0.0,0.0
420,104.75,41.8801,44.7871,145.421,105.245,4.41207,0.00406422,0.184681,20.8241,523.823,28.6536,0.0,0.0
440,109.75,41.8899,44.3432,153.562,105.22,4.4852,0.00401002,0.168422,20.8481,523.693,28.5029,0.0,0.0
460,114.75,40.6297,43.6843,152.879,105.157,4.4776,0.00360388,0.15782,20.8612,523.613,28.5128,0.0,0.0
480,119.75,40.852,44.0011,145.226,105.05,4.52366,0.00379114,0.155426,20.8626,523.543,28.4112,0.0,0.0
500,124.75,40.3699,43.3731,149.859,104.901,4.47048,0.00401438,0.153021,20.8652,523.503,28.5052,0.0,0.0
520,129.75,39.8529,43.2187,158.061,104.738,4.4947,0.00431772,0.148562,20.8723,523.442,28.4424,0.0,0.0
540,134.75,39.4701,42.6491,152.695,104.561,4.51797,0.00435006,0.142502,20.8824,523.412,28.3805,0.0,0.0
560,139.75,39.1469,42.3095,153.277,104.42,4.49327,0.0042873,0.13651,20.8881,523.392,28.4177,0.0,0.0
580,144.75,38.7951,41.8396,153.083,104.498,4.50087,0.00462968,0.132067,20.8937,523.342,28.4092,0.0,0.0
600,149.75,38.45,41.4538,149.292,104.758,4.48615,0.00449403,0.129252,20.8963,523.302,28.4613,0.0,0.0
620,154.75,38.8934,41.8277,154.536,104.841,4.50657,0.00457508,0.126254,20.9012,523.232,28.4274,0.0,0.0
640,159.75,38.1739,40.9328,157.839,104.783,4.52984,0.00479581,0.123569,20.9031,523.202,28.3759,0.0,0.0
660,164.75,37.4649,40.2449,155.502,104.621,4.49565,0.00547544,0.121484,20.9047,523.112,28.4304,0.0,0.0
680,169.75,37.4351,40.4966,149.858,104.294,4.47238,0.00605537,0.119145,20.9078,523.052,28.4489,0.0,0.0
700,174.75,36.975,39.8301,151.684,103.928,4.51939,0.00610304,0.117655,20.9112,523.012,28.3228,0.0,0.0
720,179.75,36.788,39.6904,150.694,104.031,4.53506,0.00644097,0.116581,20.9117,522.982,28.3004,0.0,0.0
740,184.75,36.9371,39.8375,152.304,104.169,4.52319,0.00705819,0.115018,20.9135,522.952,28.336,0.0,0.0
760,189.75,36.7304,39.4287,154.872,104.353,4.55548,0.00739855,0.114163,20.914,522.932,28.2877,0.0,0.0
780,194.75,36.3648,38.8417,148.863,104.509,4.51369,0.00758929,0.113216,20.914,522.922,28.3845,0.0,0.0
800,199.75,36.4299,39.4911,153.109,104.601,4.52651,0.00774346,0.112623,20.9135,522.902,28.3668,0.0,0.0
820,204.75,36.7469,38.8607,154.823,104.603,4.4681,0.00735141,0.114012,20.9135,522.952,28.4843,0.0,0.0
840,209.75,36.1293,38.3948,152.396,104.474,4.49422,0.0078644,0.113604,20.9135,522.922,28.4205,0.0,0.0
860,214.75,35.5578,38.0037,152.377,104.285,4.45671,0.00834127,0.111252,20.9159,522.912,28.4799,0.0,0.0
880,219.75,36.1796,38.4346,153.893,104.039,4.47618,0.00791366,0.110578,20.9182,522.912,28.4191,0.0,0.0
900,224.75,35.9982,38.2194,150.494,103.764,4.44721,0.0075829,0.110923,20.9187,522.882,28.4539,0.0,0.0
920,229.75,35.9035,37.8875,152.247,103.497,4.45291,0.00749315,0.111142,20.9187,522.802,28.4191,0.0,0.0
940,234.75,35.6439,38.0687,151.894,103.332,4.42347,0.00784854,0.111268,20.919,522.802,28.4646,0.0,0.0
960,239.75,35.6085,37.9871,155.182,103.277,4.42347,0.00793256,0.111261,20.917,522.732,28.4598,0.0,0.0
980,244.75,35.3488,37.4025,149.011,103.398,4.45053,0.00791828,0.111308,20.9171,522.652,28.4152,0.0,0.0
1000,249.75,35.5269,37.544,151.537,103.681,4.48567,0.00767823,0.111434,20.917,522.642,28.3689,0.0,0.0
1020,254.75,35.4983,37.3695,152.187,104.092,4.53364,0.00791783,0.111995,20.9165,522.602,28.3086,0.0,0.0
1040,259.75,35.6842,37.5327,150.881,104.453,4.54266,0.00867788,0.111287,20.9183,522.602,28.3219,0.0,0.0
1060,264.75,35.5123,37.388,154.021,104.8,4.51702,0.00830829,0.110947,20.919,522.602,28.403,0.0,0.0
1080,269.75,35.9811,37.3454,150.087,105.067,4.60914,0.00834657,0.11035,20.9199,522.582,28.2435,0.0,0.0
1100,274.75,35.2728,37.0709,153.897,105.232,4.50942,0.00848793,0.110359,20.9207,522.592,28.4553,0.0,0.0
1120,279.75,35.4925,37.4563,152.561,105.264,4.50372,0.00879999,0.110323,20.9209,522.622,28.4695,0.0,0.0
1140,284.75,35.1709,37.1816,152.755,105.18,4.49185,0.00882213,0.110263,20.9209,522.602,28.4861,0.0,0.0
1160,289.75,35.4027,37.2188,151.659,105.025,4.50894,0.00885094,0.110132,20.921,522.542,28.4385,0.0,0.0
1180,294.75,35.3116,37.1607,149.701,104.805,4.49042,0.00828173,0.110492,20.921,522.522,28.4567,0.0,0.0
1200,299.75,35.0044,36.6954,154.933,104.583,4.49565,0.00817433,0.110823,20.921,522.522,28.4271,0.0,0.0
1220,304.75,35.1796,36.914,152.369,104.397,4.47713,0.00836239,0.110893,20.921,522.502,28.4482,0.0,0.0
1240,309.75,35.3437,37.1734,153.445,104.531,4.48093,0.00832647,0.110631,20.9209,522.472,28.4522,0.0,0.0
1260,314.75,35.5446,36.9543,157.842,104.757,4.45481,0.00876471,0.110716,20.9202,522.372,28.5245,0.0,0.0
1280,319.75,35.0974,36.9499,149.264,104.848,4.49755,0.00889374,0.110506,20.9201,522.311,28.4461,0.0,0.0
1300,324.75,35.2413,36.7634,150.579,104.825,4.52461,0.00855237,0.111278,20.9188,522.301,28.3899,0.0,0.0
1320,329.75,35.4107,37.0969,152.594,104.657,4.53554,0.00858689,0.111605,20.9193,522.271,28.3536,0.0,0.0
1340,334.75,35.5546,37.003,153.027,104.362,4.52509,0.00862723,0.111412,20.9179,522.241,28.349,0.0,0.0
1360,339.75,35.1621,36.9843,152.371,103.961,4.47475,0.00852162,0.111061,20.9166,522.261,28.4152,0.0,0.0
1380,344.75,35.1049,36.699,152.084,104.002,4.50087,0.00842567,0.111127,20.9172,522.201,28.3663,0.0,0.0
1400,349.75,34.9309,36.6463,153.3,104.126,4.50087,0.00835033,0.111384,20.9158,522.181,28.377,0.0,0.0
1420,354.75,33.509,35.3239,148.875,104.225,4.52699,0.00820574,0.111615,20.9156,522.271,28.3333,0.0,0.0
1440,359.75,34.5583,36.4096,153.701,104.381,4.4871,0.00836065,0.111026,20.9175,522.241,28.4268,0.0,0.0
1460,364.75,35.0627,36.7459,155.681,104.498,4.4928,0.00826575,0.110955,20.9195,522.201,28.4254,0.0,0.0
1480,369.75,35.1651,36.2655,155.728,104.573,4.49755,0.00830425,0.110653,20.9208,522.221,28.4224,0.0,0.0
1500,374.75,34.4333,36.5268,151.926,104.588,4.54409,0.00820449,0.110993,20.9211,522.181,28.3307,0.0,0.0
1520,379.75,34.5946,36.2993,153.602,104.572,4.46383,0.00805519,0.110819,20.9192,522.161,28.4902,0.0,0.0
1540,384.75,34.5646,36.0169,153.554,104.487,4.50609,0.00802511,0.110668,20.9185,522.141,28.3978,0.0,0.0
1560,389.75,34.697,36.2014,148.834,104.358,4.49565,0.00800372,0.11042,20.9199,522.051,28.4076,0.0,0.0
1580,394.75,34.4638,36.1807,155.069,104.193,4.4966,0.00746271,0.11036,20.92,522.021,28.3914,0.0,0.0
1600,399.75,34.1789,36.1325,151.512,104.008,4.53886,0.0073566,0.110574,20.92,521.991,28.2908,0.0,0.0
1620,404.75,34.4288,36.1831,151.587,103.796,4.50847,0.0076405,0.110603,20.9205,521.931,28.3331,0.0,0.0
1640,409.75,34.1157,35.8856,155.401,103.566,4.489,0.00767731,0.110552,20.9223,521.941,28.3522,0.0,0.0
1660,414.75,34.0223,35.575,150.873,103.38,4.51369,0.00753643,0.110076,20.9223,521.911,28.2864,0.0,0.0
1680,419.75,34.3159,36.2663,154.673,103.268,4.50087,0.00720578,0.109829,20.9225,521.871,28.3023,0.0,0.0
1700,424.75,34.336,36.2758,156.169,103.235,4.52366,0.00724488,0.110149,20.9225,521.911,28.2538,0.0,0.0
1720,429.75,34.3857,35.8921,148.972,103.297,4.45956,0.00664202,0.110183,20.9207,521.941,28.3881,0.0,0.0
1740,434.75,34.3442,36.3498,155.868,103.438,4.4097,0.00667028,0.110464,20.9189,521.941,28.5021,0.0,0.0
1760,439.75,34.5959,36.3963,157.686,103.687,4.47713,0.00646315,0.110216,20.9204,521.911,28.3866,0.0,0.0
1780,444.75,33.6475,35.9974,154.131,103.938,4.52366,0.00641364,0.110148,20.9213,521.891,28.315,0.0,0.0
1800,449.75,34.3244,35.8129,149.575,104.246,4.44958,0.00637637,0.110017,20.9212,521.851,28.491,0.0,0.0
1820,454.75,34.3083,36.284,156.798,104.548,4.52841,0.00616497,0.11002,20.9211,521.841,28.3584,0.0,0.0
1840,459.75,34.4076,35.8556,149.588,104.814,4.5683,0.00638087,0.109608,20.9221,521.841,28.3021,0.0,0.0
1860,464.75,34.4759,35.8595,154.994,105.022,4.53221,0.00605858,0.109551,20.9215,521.741,28.3917,0.0,0.0
1880,469.75,34.2432,35.7123,150.901,105.161,4.53554,,,,521.721,28.397,0.0,0.0
1900,474.75,34.3433,36.0126,152.042,105.234,4.48662,,,,521.701,28.5013,0.0,0.0
1911,477.5,34.249,36.2966,154.642,105.241,4.57543,,,,521.731,28.3248,0.0,0.0