File: 01_Data/Polyisocyanurate_Foam_Board/Cone/Polyisocyanurate_Foam_Board_Cone_HF50Scalar_220913_R1.csv
LABORATORY,FSRI
TEST IDENT,Polyiso_Foam_HF50_1
OPERATOR,Dow
MATERIAL,Polyisocyanurate Foam Board
ORIENTATION,Horizontal
HEAT FLUX,50
SURF AREA,0.01
C FACTOR,0.0397745
SPEC HOLDER DIFF,-566
SPECIMEN MASS,7.89
SCAN TIME,0.25
O2 DELAY TIME,11
CO DELAY TIME,11
CO2 DELAY TIME,8
FLOW FACTOR,1
SCAN COUNT,1911
TIME TO IGN,14.25
END OF TEST SCAN,1431
END OF TEST TIME,357.75
TEST STATUS,1
PRE TEST CMT,Dimensions: 101.22 x 99.82 x 22.85 mm; with tie wires