File: 01_Data/Polyisocyanurate_Foam_Board/Cone/Polyisocyanurate_Foam_Board_Cone_HF75Scan_221202_R3.csv
Names,Time,Stack TC,Smoke TC,Exh Press,Smoke Comp,Smoke Meas,CO Meter,CO2 Meter,O2 Meter,Sample Mass,Ext Coeff,Start Test,Flame Verif
Chan Gain,,500,500,1,1,1,1,1,1,1,1,1.0,1.0
Offset,,0,0,0.13918,0,0,0,0,0,0,0,0.0,0.0
Gain,,1,1,25.011,14.0162,15.5607,1,1,1,1.0009,1.02981,1.0,1.0
Units,sec,C,C,Pa,%,%,%,%,%,g,/m,,
Baseline,,44.4693,46.4313,150.427,104.379,4.87849,0.000726437,0.0904232,20.9523,-2.14878,27.6713,,
11,2.5,43.4711,44.9783,133.823,104.216,4.27056,0.0134959,0.205409,20.7415,525.484,28.8593,0.0,1.0
22,5.25,46.7826,46.6417,126.808,104.168,3.97756,0.0257311,0.421675,20.4575,525.004,29.4972,0.0,1.0
33,8,51.1688,50.6205,123.475,104.122,3.73585,0.0315492,0.579832,20.2354,524.483,30.0596,0.0,0.0
44,10.75,53.8649,53.6185,134.045,104.253,4.14519,0.0286962,0.605585,20.1983,524.103,29.1317,0.0,0.0
55,13.5,55.3509,56.3383,141.709,104.378,4.41349,0.0225353,0.54091,20.2836,523.793,28.5759,0.0,0.0
66,16.25,56.6258,57.4212,141.347,104.528,4.5023,0.0169,0.461093,20.4062,523.492,28.409,0.0,0.0
77,19,56.8485,58.7449,138.571,104.681,4.64808,0.013051,0.398434,20.4985,523.442,28.1343,0.0,0.0
88,21.75,57.3196,58.8668,142.84,104.794,4.59015,0.0108956,0.359289,20.5546,523.212,28.2573,0.0,0.0
99,24.5,57.9948,59.3003,138.481,104.856,4.62006,0.00975215,0.338878,20.5844,522.892,28.2041,0.0,0.0
110,27.25,58.3229,60.0489,135.353,104.916,4.574,0.00890476,0.331176,20.5979,522.732,28.2997,0.0,0.0
121,30,58.8682,60.0879,138.077,104.946,4.62766,0.00806846,0.327852,20.6084,522.562,28.1969,0.0,0.0
132,32.75,58.7023,60.9603,140.973,104.971,4.63384,0.00770265,0.32613,20.6149,522.372,28.187,0.0,0.0
143,35.5,59.1123,61.6096,140.925,104.946,4.68655,0.00795532,0.325833,20.6196,522.131,28.0827,0.0,0.0
154,38.25,59.5802,61.9461,139.833,104.906,4.65568,0.00816043,0.326273,20.6226,521.871,28.139,0.0,0.0
165,41,59.6639,62.1973,136.421,104.846,4.78105,0.00796102,0.328115,20.6248,521.731,27.8938,0.0,0.0
176,43.75,60.0129,62.593,137.348,104.779,4.57258,0.00766971,0.329002,20.6274,521.511,28.2907,0.0,0.0
187,46.5,59.9101,62.7666,138.027,104.699,4.68702,0.00729746,0.33041,20.6278,521.341,28.0605,0.0,0.0
198,49.25,60.3653,63.139,135.297,104.587,4.72881,0.00664641,0.325997,20.6344,521.08,27.9707,0.0,0.0
209,52,60.5452,63.6831,141.074,104.504,4.84041,0.00622853,0.319286,20.6432,520.87,27.7528,0.0,0.0
220,54.75,60.6885,63.7014,138.364,104.552,4.86273,0.00555809,0.310998,20.6575,520.74,27.7154,0.0,0.0
231,57.5,60.5777,63.5878,138.41,104.61,4.83708,0.00490627,0.290201,20.6857,520.7,27.7681,0.0,0.0
242,60.25,59.7756,63.8472,143.73,104.663,4.91734,0.00425177,0.265741,20.7156,520.54,27.6241,0.0,0.0
253,63,59.6302,63.6462,143.819,104.686,4.90831,0.00376021,0.241777,20.7475,520.48,27.6427,0.0,0.0
264,65.75,59.0811,63.6782,141.857,104.732,4.9615,0.00356708,0.222847,20.771,520.44,27.5492,0.0,0.0
275,68.5,58.6327,62.6619,145.122,104.805,4.91639,0.00352995,0.208548,20.7887,520.42,27.638,0.0,0.0
286,71.25,58.1646,62.0036,142.282,104.864,4.99237,0.00356915,0.196319,20.8065,520.35,27.5046,0.0,0.0
297,74,57.8406,62.3313,145.084,104.935,4.97432,0.00368668,0.186003,20.8217,520.33,27.5434,0.0,0.0
308,76.75,57.2898,61.7447,143.813,104.986,4.971,0.00383007,0.175447,20.8362,520.23,27.5539,0.0,0.0
319,79.5,57.0023,61.4211,148.19,105.041,5.00899,0.00381006,0.167313,20.8475,520.24,27.4898,0.0,0.0
330,82.25,56.6041,60.9089,144.788,105.107,5.00994,0.00392064,0.161549,20.8563,520.21,27.4938,0.0,0.0
341,85,56.5342,60.7936,144.381,105.154,4.95913,0.00424675,0.156399,20.8623,520.22,27.5899,0.0,0.0
352,87.75,55.5518,60.1632,145.684,105.186,5.00186,0.00457378,0.152698,20.8672,520.109,27.5151,0.0,0.0
363,90.5,55.1766,59.6064,144.673,105.227,4.98524,0.00476726,0.150364,20.8713,520.069,27.5487,0.0,0.0
374,93.25,54.9067,59.1547,147.446,105.254,4.94868,0.00483861,0.148385,20.874,520.079,27.6175,0.0,0.0
385,96,54.2063,58.8767,145.887,105.286,5.02466,0.00483481,0.146543,20.8763,520.109,27.4827,0.0,0.0
396,98.75,54.046,58.5416,147.24,105.329,4.9482,0.00473461,0.145424,20.8775,520.099,27.6248,0.0,0.0
407,101.5,53.8264,58.0547,147.395,105.31,4.92921,0.00478596,0.144696,20.879,519.999,27.6579,0.0,0.0
418,104.25,53.4669,57.721,148.381,105.347,4.94535,0.0049926,0.143887,20.8795,519.949,27.6316,0.0,0.0
429,107,52.7307,57.6035,142.88,105.371,4.96198,0.00501185,0.143492,20.8796,519.949,27.6033,0.0,0.0
440,109.75,52.8975,57.3001,142.93,105.392,4.99807,0.00480362,0.143349,20.8797,520.029,27.5397,0.0,0.0
451,112.5,51.9109,56.9906,148.618,105.412,4.91876,0.00494082,0.143345,20.8797,519.919,27.6859,0.0,0.0
462,115.25,52.5117,56.6708,145.519,105.421,4.9539,0.00527028,0.143336,20.8797,519.909,27.6223,0.0,0.0
473,118,51.9751,56.573,147.86,105.43,4.98097,0.00519168,0.143292,20.881,519.879,27.5739,0.0,0.0
484,120.75,52.2776,56.4254,146.333,105.443,4.96387,0.00506179,0.143256,20.8817,519.849,27.6061,0.0,0.0
495,123.5,51.812,55.5837,146.442,105.463,4.90262,0.00519846,0.142901,20.8819,519.919,27.7199,0.0,0.0
506,126.25,51.6768,55.7038,148.268,105.453,4.97812,0.00519616,0.143077,20.882,519.769,27.581,0.0,0.0
517,129,51.4459,55.6694,147.832,105.454,4.98192,0.00512174,0.14237,20.882,519.769,27.5742,0.0,0.0
528,131.75,51.2079,55.093,144.768,105.462,4.95675,0.00517798,0.142027,20.8815,519.719,27.6207,0.0,0.0
539,134.5,51.1267,55.2685,151.297,105.457,4.90689,0.00523893,0.14189,20.8815,519.799,27.7116,0.0,0.0
550,137.25,51.2622,55.1589,146.172,105.469,4.91591,0.00516297,0.141322,20.885,519.819,27.696,0.0,0.0
561,140,50.6434,53.9728,150.722,105.457,4.94441,0.00498826,0.1408,20.8867,519.709,27.6427,0.0,0.0
572,142.75,50.4222,53.8036,142.997,105.471,4.94298,0.00472212,0.140552,20.8877,519.689,27.6465,0.0,0.0
583,145.5,50.3856,53.8675,143.231,105.483,4.99949,0.00450308,0.140445,20.888,519.649,27.5449,0.0,0.0
594,148.25,50.4949,53.6712,145.284,105.464,4.97717,0.00442053,0.140407,20.8881,519.699,27.5837,0.0,0.0
605,151,49.9608,53.6781,145.3,105.47,4.94156,0.00454888,0.140142,20.8896,519.659,27.6491,0.0,0.0
616,153.75,50.132,53.095,144.389,105.476,5.01659,0.00461957,0.139364,20.8902,519.569,27.5135,0.0,0.0
627,156.5,49.9882,53.4473,146.899,105.457,4.96577,0.00447047,0.138401,20.8912,519.539,27.6038,0.0,0.0
638,159.25,49.9134,53.4184,149.504,105.454,4.96862,0.00440679,0.137579,20.8917,519.529,27.5984,0.0,0.0
649,162,49.4085,53.1862,146.042,105.472,4.9615,0.00436789,0.136729,20.8926,519.599,27.6129,0.0,0.0
660,164.75,49.395,53.2539,145.155,105.466,4.97622,0.00453727,0.136353,20.8933,519.459,27.5856,0.0,0.0
671,167.5,49.9623,53.0258,145.542,105.457,4.91686,0.0046082,0.13624,20.8935,519.389,27.6932,0.0,0.0
682,170.25,49.1795,52.4789,143.565,105.458,4.97717,0.00451909,0.135705,20.8936,519.429,27.5832,0.0,0.0
693,173,49.1279,52.6937,146.314,105.454,4.94915,0.00434461,0.135138,20.8936,519.459,27.6338,0.0,0.0
704,175.75,49.4642,52.8315,149,105.458,4.90499,0.00448139,0.134571,20.894,519.509,27.7151,0.0,0.0
715,178.5,49.1832,52.3721,145.876,105.445,4.99617,0.0047639,0.134716,20.8953,519.329,27.5476,0.0,0.0
726,181.25,49.3211,52.3713,145.968,105.445,4.93253,0.00482378,0.134141,20.8957,519.349,27.6634,0.0,0.0
737,184,48.8456,51.9411,149.606,105.445,4.94773,0.00474028,0.133514,20.8954,519.279,27.6357,0.0,0.0
748,186.75,49.04,51.9253,148.886,105.447,4.93348,0.00460606,0.133037,20.8953,519.379,27.6619,0.0,0.0
759,189.5,49.1072,52.1607,147.701,105.442,4.9691,0.00460269,0.132484,20.8969,519.369,27.5965,0.0,0.0
770,192.25,49.02,52.3542,141.3,105.423,4.90452,0.00474693,0.131723,20.8974,519.259,27.713,0.0,0.0
781,195,49.0085,52.198,146.925,105.406,4.95865,0.00470449,0.130998,20.899,519.229,27.6124,0.0,0.0
792,197.75,48.174,51.9488,146.335,105.409,4.93918,0.00470525,0.130401,20.8996,519.209,27.6482,0.0,0.0
803,200.5,48.5875,52.0984,148.41,105.398,4.94108,0.00464079,0.130189,20.8998,519.279,27.6438,0.0,0.0
814,203.25,48.1397,51.5024,151.397,105.382,5.00092,0.00469927,0.130028,20.8999,519.179,27.5336,0.0,0.0
825,206,48.617,51.2992,145.557,105.343,4.94061,0.0048351,0.129571,20.9009,519.149,27.6399,0.0,0.0
836,208.75,48.9058,51.7278,149.055,105.311,4.94915,0.00477484,0.129154,20.9028,519.119,27.6216,0.0,0.0
847,211.5,48.6348,51.6479,145.998,105.294,4.88932,0.00453079,0.128454,20.9053,519.159,27.7299,0.0,0.0
858,214.25,48.9041,51.506,148.581,105.254,4.91734,0.00426875,0.127516,20.9061,519.199,27.6749,0.0,0.0
869,217,48.222,51.1942,146.491,105.202,4.92493,0.00404149,0.126747,20.9064,519.078,27.6565,0.0,0.0
880,219.75,48.8898,51.7148,144.81,105.167,4.96435,0.00397554,0.126144,20.9081,518.998,27.5815,0.0,0.0
891,222.5,48.8555,51.3837,145.901,105.106,4.93823,0.00405767,0.125485,20.9095,519.008,27.6239,0.0,0.0
902,225.25,48.7014,51.6789,146.36,105.065,4.90452,0.00396761,0.124539,20.9106,519.129,27.6823,0.0,0.0
913,228,48.141,51.1979,150.14,105.02,4.95438,0.003809,0.123458,20.9114,519.109,27.587,0.0,0.0
924,230.75,48.2452,50.9178,145.103,104.956,4.93633,0.00381884,0.122512,20.9128,518.998,27.6145,0.0,0.0
935,233.5,48.7065,51.8819,145.965,104.901,4.92683,0.00386164,0.121849,20.9132,518.958,27.6271,0.0,0.0
946,236.25,47.9204,50.802,149.88,104.844,4.93348,0.00349777,0.121176,20.9134,518.978,27.6101,0.0,0.0
957,239,48.314,51.0973,145.903,104.802,4.91734,0.00316425,0.120321,20.915,519.068,27.6361,0.0,0.0
968,241.75,48.2766,50.7375,148.569,104.75,4.90024,0.00304462,0.119696,20.9155,518.948,27.663,0.0,0.0
979,244.5,48.4071,50.9552,145.598,104.698,4.86842,0.00303748,0.11906,20.9157,518.968,27.7174,0.0,0.0
990,247.25,48.0782,51.0304,146.209,104.659,4.91544,,0.118347,,518.918,27.6272,0.0,0.0
1001,250,48.0128,50.8292,147.809,104.623,4.93681,,,,518.928,27.5849,0.0,0.0
1012,252.75,48.2121,50.7591,149.009,104.597,4.96577,,,,519.018,27.5298,0.0,0.0
1023,255.5,48.1282,50.8675,144.922,104.548,4.86937,,,,518.868,27.7027,0.0,0.0
1031,257.5,48.3264,50.7934,144.262,104.532,4.87745,,,,518.878,27.6863,0.0,0.0