File: 01_Data/Polyisocyanurate_Foam_Board/Cone/Polyisocyanurate_Foam_Board_Cone_HF50Scan_221129_R4.csv
Names,Time,Stack TC,Smoke TC,Exh Press,Smoke Comp,Smoke Meas,CO Meter,CO2 Meter,O2 Meter,Sample Mass,Ext Coeff,Start Test,Flame Verif
Chan Gain,,500,500,1,1,1,1,1,1,1,1,1.0,1.0
Offset,,0,0,0.13918,0,0,0,0,0,0,0,0.0,0.0
Gain,,1,1,25.011,14.0162,15.5607,1,1,1,1.0009,1.02981,1.0,1.0
Units,sec,C,C,Pa,%,%,%,%,%,g,/m,,
Baseline,,33.3525,34.6442,155.161,104.342,4.47287,0.000813785,0.0922597,20.9502,-0.773572,28.4522,,
15,3.5,33.0641,33.4001,142.068,103.965,3.96236,0.0116184,0.209901,20.7566,526.836,29.5142,0.0,1.0
30,7.25,37.1363,36.4503,134.446,104.077,3.72777,0.0203865,0.38982,20.4908,526.265,30.0753,0.0,0.0
45,11,40.7868,40.1493,136.162,104.258,3.89256,0.0215076,0.470848,20.3847,525.845,29.7001,0.0,0.0
60,14.75,42.3178,42.3163,139.787,104.474,4.04642,0.0172207,0.445375,20.4365,525.514,29.3687,0.0,0.0
75,18.5,43.6461,43.6402,147.884,104.632,4.2074,0.0129154,0.37693,20.5319,525.264,29.0299,0.0,0.0
90,22.25,44.264,44.7168,149.342,104.746,4.21357,0.010254,0.327411,20.6015,524.964,29.0265,0.0,0.0
105,26,45.1896,45.4196,145.556,104.802,4.29572,0.00906803,0.304177,20.6394,524.664,28.8569,0.0,0.0
120,29.75,44.8168,46.5627,145.883,104.814,4.30712,0.00849477,0.296086,20.6543,524.493,28.834,0.0,0.0
135,33.5,45.3198,47.1776,146.807,104.835,4.33229,0.00720944,0.285143,20.6726,524.313,28.7832,0.0,0.0
150,37.25,45.6851,47.3024,146.161,104.835,4.50135,0.00555116,0.264916,20.707,524.123,28.4374,0.0,0.0
165,41,45.1489,47.401,149.651,104.803,4.50657,0.00523293,0.234795,20.7514,523.933,28.4241,0.0,0.0
180,44.75,45.5111,47.4887,147.638,104.746,4.45101,0.00614236,0.21331,20.7823,523.773,28.5313,0.0,0.0
195,48.5,45.0248,46.84,143.302,104.669,4.44341,0.00691409,0.210732,20.7898,523.713,28.5401,0.0,0.0
210,52.25,44.8866,47.379,151.031,104.599,4.44769,0.00734044,0.224471,20.7759,523.492,28.5254,0.0,0.0
225,56,45.3974,46.5644,144.098,104.696,4.39402,0.00753165,0.24946,20.7427,523.302,28.6434,0.0,0.0
240,59.75,45.4666,47.9164,145.823,104.673,4.32802,0.00744232,0.277014,20.7092,522.972,28.7781,0.0,0.0
255,63.5,46.3495,48.5804,145.974,104.602,4.40637,0.00761698,0.283437,20.7025,522.702,28.6099,0.0,0.0
270,67.25,45.995,48.5566,147.087,104.513,4.47903,0.00759701,0.264056,20.7205,522.582,28.4545,0.0,0.0
285,71,45.9807,48.5601,151.348,104.426,4.42869,0.00729948,0.240736,20.7506,522.512,28.549,0.0,0.0
300,74.75,45.8634,48.181,145.002,104.398,4.57685,0.00690993,0.221323,20.7756,522.411,28.2494,0.0,0.0
315,78.5,45.09,48.5699,149.727,104.443,4.55358,0.0064891,0.202495,20.8019,522.231,28.2993,0.0,0.0
330,82.25,44.9206,48.0397,149.201,104.462,4.59347,0.00629839,0.189347,20.8162,522.131,28.2222,0.0,0.0
345,86,44.6609,47.5792,153.399,104.512,4.58255,0.00608163,0.181852,20.8257,522.151,28.248,0.0,0.0
360,89.75,43.8288,47.1683,152.097,104.563,4.59015,0.00608655,0.175922,20.8325,522.131,28.2374,0.0,0.0
375,93.5,43.8413,46.8266,150.354,104.603,4.5702,0.00600581,0.169397,20.8423,522.041,28.2802,0.0,0.0
390,97.25,43.7175,46.116,152.481,104.639,4.55073,0.00593179,0.163241,20.849,521.911,28.3219,0.0,0.0
405,101,42.8096,46.3061,150.349,104.693,4.55406,0.00623262,0.156877,20.8576,521.871,28.32,0.0,0.0
420,104.75,42.519,46.1067,152.484,104.742,4.5702,0.00637602,0.152061,20.8631,521.841,28.2922,0.0,0.0
435,108.5,42.3973,45.7287,149.339,104.786,4.55786,0.00671999,0.147662,20.8686,521.881,28.3204,0.0,0.0
450,112.25,42.0988,45.3257,152.964,104.804,4.53506,0.00739878,0.143663,20.8729,521.851,28.3673,0.0,0.0
465,116,41.3177,45.0796,152.096,104.814,4.53221,0.00786414,0.13973,20.8774,521.731,28.3739,0.0,0.0
480,119.75,41.1033,44.2898,149.045,104.825,4.59157,0.00852456,0.136516,20.8834,521.701,28.2572,0.0,0.0
495,123.5,40.6115,44.3206,152.29,104.825,4.57163,0.00913298,0.133379,20.8878,521.771,28.2966,0.0,0.0
510,127.25,40.5365,43.772,153.865,104.813,4.59157,0.0091357,0.130964,20.8908,521.791,28.2562,0.0,0.0
525,131,40.2559,43.2277,158.478,104.787,4.56973,0.00942991,0.128213,20.8935,521.721,28.297,0.0,0.0
540,134.75,39.8982,43.2024,153.612,104.762,4.5854,0.00991827,0.127372,20.8941,521.591,28.2639,0.0,0.0
555,138.5,39.7472,42.5507,154.149,104.726,4.52651,0.0102724,0.126982,20.894,521.571,28.3776,0.0,0.0
570,142.25,39.3805,41.7266,153.513,104.714,4.59015,0.0104592,0.126093,20.8955,521.591,28.2504,0.0,0.0
585,146,39.304,42.1116,155.205,104.706,4.54266,0.0105582,0.125247,20.8958,521.641,28.3437,0.0,0.0
600,149.75,38.6289,41.9109,150.82,104.681,4.49185,0.0105211,0.124951,20.8953,521.621,28.4432,0.0,0.0
615,153.5,38.6352,41.5481,151.764,104.65,4.53126,0.0107959,0.1244,20.8965,521.471,28.3616,0.0,0.0
630,157.25,38.6234,41.5781,150.337,104.619,4.60724,0.0108603,0.12404,20.8972,521.461,28.2087,0.0,0.0
645,161,38.2703,40.9744,150.934,104.598,4.53079,0.0106807,0.12422,20.8992,521.531,28.358,0.0,0.0
660,164.75,38.6036,40.7368,153.21,104.577,4.54646,0.0105185,0.124258,20.8998,521.501,28.325,0.0,0.0
675,168.5,37.8173,41.1154,159.567,104.555,4.52082,0.0104759,0.123658,20.8996,521.471,28.3742,0.0,0.0
690,172.25,37.8414,40.7196,157.933,104.525,4.55881,0.0104098,0.123027,20.9,521.331,28.296,0.0,0.0
705,176,38.3172,40.8799,149.211,104.51,4.47143,0.0105595,0.122693,20.9011,521.311,28.4696,0.0,0.0
720,179.75,37.2392,41.032,153.36,104.483,4.54029,0.0106922,0.122927,20.9015,521.341,28.3291,0.0,0.0
735,183.5,37.6049,40.1008,154.431,104.462,4.51844,0.0105235,0.123037,20.9019,521.381,28.3709,0.0,0.0
750,187.25,37.5609,39.9481,150.006,104.425,4.58113,0.0105174,0.123694,20.9004,521.371,28.2433,0.0,0.0
765,191,37.818,39.8931,153.265,104.385,4.59205,0.0106379,0.124172,20.9,521.24,28.2183,0.0,0.0
780,194.75,37.2584,39.7029,151.433,104.426,4.54836,0.010278,0.123721,20.8999,521.18,28.3082,0.0,0.0
795,198.5,37.6195,39.8097,151.978,104.505,4.55263,0.00981797,0.12321,20.9005,521.22,28.3065,0.0,0.0
810,202.25,37.1816,39.6427,154.073,104.6,4.53601,0.0094531,0.122985,20.9019,521.24,28.3478,0.0,0.0
825,206,37.4781,39.4942,152.468,104.669,4.55263,0.00935976,0.123828,20.9025,521.23,28.3207,0.0,0.0
840,209.75,37.2526,39.6911,150.504,104.708,4.5873,0.00912006,0.123034,20.9042,521.13,28.2556,0.0,0.0
855,213.5,37.3704,39.6014,153.439,104.755,4.45813,0.00912503,0.123031,20.9043,521.1,28.5177,0.0,0.0
870,217.25,36.8983,38.5932,150.703,104.812,4.52936,0.00899152,0.122562,20.9043,521.11,28.3793,0.0,0.0
885,221,36.793,39.2013,153.415,104.856,4.49707,0.00852582,0.12263,20.9047,521.14,28.4478,0.0,0.0
900,224.75,36.6923,39.1199,149.33,104.866,4.55691,0.00849394,0.12304,20.9051,521.12,28.3292,0.0,0.0
915,228.5,37.1314,38.7527,148.475,104.854,4.54551,0.00815904,0.123279,20.9041,521,28.3508,0.0,0.0
930,232.25,37.2891,37.7117,150.902,104.853,4.54978,0.00787461,0.123099,20.9031,520.96,28.3423,0.0,0.0
945,236,36.3234,40.0642,150.808,104.836,4.53031,0.00793218,0.122496,20.9037,521.02,28.3795,0.0,0.0
960,239.75,36.8461,39.0647,151.831,104.816,4.53886,0.00794062,0.12156,20.9051,521.03,28.3607,0.0,0.0
975,243.5,37.1598,38.6873,155.747,104.766,4.55358,0.00784894,0.120736,20.9064,520.99,28.3272,0.0,0.0
990,247.25,36.6584,38.8177,153.809,104.684,4.51037,0.00770715,0.11981,20.9079,520.91,28.4063,0.0,0.0
1005,251,36.3348,38.4791,156.053,104.591,4.49517,0.00733153,0.11862,20.9091,520.9,28.4287,0.0,0.0
1020,254.75,36.0813,38.1022,150.32,104.477,4.49612,0.00710733,0.117948,20.9103,520.88,28.417,0.0,0.0
1035,258.5,36.318,38.2624,154.705,104.345,4.50657,0.00691595,0.117592,20.9118,520.92,28.3846,0.0,0.0
1050,262.25,36.1623,38.1682,155.898,104.216,4.54836,0.00683133,0.117585,20.9127,520.9,28.29,0.0,0.0
1065,266,35.8375,38.0648,152.409,104.103,4.55643,0.00681665,0.117283,20.913,520.79,28.2642,0.0,0.0
1080,269.75,36.2562,38.2321,150.249,103.996,4.47333,0.00668505,0.116701,20.9148,520.77,28.4212,0.0,0.0
1095,273.5,36.513,37.9258,152.471,104.037,4.48805,0.00681506,0.115938,20.9152,520.83,28.3951,0.0,0.0
1110,277.25,36.2537,38.0266,151.971,104.098,4.55311,0.00674741,0.115161,20.9146,520.85,28.2704,0.0,0.0
1125,281,36.3474,37.7605,153.951,104.137,4.55168,0.00673126,0.113961,20.9163,520.8,28.2766,0.0,0.0
1140,284.75,36.185,37.8043,151.504,104.186,4.56308,0.00641269,0.112795,20.9185,520.71,28.2582,0.0,0.0
1155,288.5,36.314,37.8211,154.982,104.249,4.50372,0.0065265,0.111811,20.919,520.66,28.3819,0.0,0.0
1170,292.25,35.7952,37.8286,151.01,104.336,4.54646,0.00665473,0.110406,20.9206,520.69,28.3042,0.0,0.0
1185,296,35.808,37.4876,150.074,104.421,4.52319,0.00659768,0.108861,20.9226,520.77,28.3579,0.0,0.0
1200,299.75,35.979,37.6822,152.996,104.479,4.53079,0.00672405,0.107866,20.9253,520.75,28.3477,0.0,0.0
1215,303.5,35.8111,37.9444,157.039,104.528,4.54788,0.0069236,0.106908,20.9275,520.63,28.318,0.0,0.0
1230,307.25,35.7632,37.4667,155.36,104.584,4.52414,0.00703318,0.105801,20.9306,520.64,28.3701,0.0,0.0
1245,311,36.2533,37.244,152.817,104.637,4.58777,0.00696543,0.10491,20.9314,520.7,28.2485,0.0,0.0
1260,314.75,35.7373,37.6006,155.718,104.694,4.55406,0.00636257,0.104109,20.9315,520.69,28.32,0.0,0.0
1275,318.5,35.5588,37.3627,155.29,104.723,4.56688,0.00621475,0.103884,20.9315,520.71,28.2971,0.0,0.0
1290,322.25,35.3105,37.1951,151.105,104.726,4.52366,0.0061115,0.10359,20.9301,520.62,28.3833,0.0,0.0
1305,326,35.4267,37.3723,148.669,104.713,4.53649,0.00593171,0.102924,20.9309,520.62,28.3566,0.0,0.0
1320,329.75,35.8813,37.3383,154.315,104.694,4.54788,0.00593807,0.10255,20.931,520.61,28.3323,0.0,0.0
1335,333.5,35.0719,37.1306,154.158,104.682,4.51844,0.00565836,0.102141,20.9327,520.66,28.3899,0.0,0.0
1350,337.25,35.7962,36.8275,155.991,104.596,4.52936,0.00563039,0.101651,20.9332,520.67,28.3607,0.0,0.0
1365,341,35.4156,37.2467,150.301,104.504,4.57828,0.00535164,0.101424,20.9333,520.55,28.2557,0.0,0.0
1380,344.75,35.4175,37.2634,154.524,104.382,4.55358,0.00512259,0.100996,20.935,520.58,28.294,0.0,0.0
1395,348.5,36.2271,37.2625,155.409,104.255,4.52509,0.00488217,0.100727,20.9363,520.61,28.3398,0.0,0.0
1410,352.25,35.4777,37.1458,155.495,104.143,4.51227,0.00490552,0.100526,20.9374,520.64,28.3557,0.0,0.0
1425,356,35.4594,37.2351,154.057,104.01,4.4738,0.00503078,0.100201,20.9376,520.62,28.4215,0.0,0.0
1440,359.75,35.5851,37.2336,149.911,103.856,4.51797,,0.100046,,520.52,28.3194,0.0,0.0
1455,363.5,35.0137,37.2457,155.253,103.731,4.50799,,,,520.5,28.3284,0.0,0.0
1470,367.25,35.5529,37.1612,155.383,103.613,4.50135,,,,520.54,28.3315,0.0,0.0
1473,368,35.8449,36.9076,152.274,103.607,4.50182,,,,520.6,28.33,0.0,0.0