File: 01_Data/Polyisocyanurate_Foam_Board/Cone/Polyisocyanurate_Foam_Board_Cone_HF75Scalar_220913_R1.csv
LABORATORY,FSRI
TEST IDENT,Polyiso_Foam_HF75_1
OPERATOR,Dow
MATERIAL,Polyisocyanurate Foam Board
ORIENTATION,Horizontal
HEAT FLUX,75
SURF AREA,0.01
C FACTOR,0.0397745
SPEC HOLDER DIFF,-566
SPECIMEN MASS,7.89
SCAN TIME,0.25
O2 DELAY TIME,11
CO DELAY TIME,11
CO2 DELAY TIME,8
FLOW FACTOR,1
SCAN COUNT,1057
TIME TO IGN,10.25
END OF TEST SCAN,577
END OF TEST TIME,144.25
TEST STATUS,1
PRE TEST CMT,Dimensions: 100.98 x 100.60 x 22.65 mm; with tie wires