File: 01_Data/PP/MCC/PP_MCC_30K_min_210928_R2.txt
Sample ID:	C:\MCC\MCC Cal\Test\PP_MCC_30K_min_210928_R2.txt
Sample Weight (mg):	5
Heating Rate (C/s):	0.5
Combustor Temp (C):	900
N2 Flow Rate (cc/min):	80
O2 Flow Rate (cc/min):	20
Calibration File:	C:\MCC\MCC Cal\Coeff1 JN10440_30_210304.txt.txt
T Correction Coefficients:	0	1.024463	0
Time Shift (s):	14
*
Time (s)	Temperature (C)	N2 flow rate (cc/min)	O2 flow rate (cc/min)	Flow Rate (cc/min)	Oxygen (%)	HRR (W/g)	Heating rate (C/s)
0.000	109.399	80.006	19.995	100.198	20.080	-0.224	-0.002
8.001	109.374	80.004	19.995	100.210	20.076	-0.026	-0.012
16.000	109.438	80.005	19.995	100.265	20.072	0.270	0.021
24.000	109.904	80.007	19.996	100.329	20.055	1.330	0.071
32.001	110.715	80.006	19.995	100.350	20.052	1.535	0.103
40.000	111.939	80.007	19.994	100.379	20.044	1.987	0.150
48.000	113.561	80.007	19.994	100.390	20.040	2.289	0.218
56.000	115.484	80.006	19.995	100.390	20.039	2.307	0.261
64.000	117.722	80.005	19.994	100.404	20.040	2.286	0.307
72.000	120.149	80.004	19.995	100.407	20.040	2.255	0.325
80.001	122.899	80.004	19.995	100.407	20.039	2.351	0.344
88.000	125.791	80.005	19.995	100.428	20.039	2.341	0.382
96.000	128.816	80.004	19.994	100.429	20.035	2.575	0.392
104.001	132.076	80.006	19.994	100.423	20.038	2.416	0.424
112.001	135.384	80.004	19.996	100.414	20.039	2.350	0.387
120.000	138.962	80.005	19.994	100.414	20.038	2.416	0.434
128.000	142.620	80.008	19.995	100.414	20.040	2.232	0.467
136.000	146.354	80.008	19.993	100.407	20.038	2.372	0.471
144.000	150.228	80.003	19.995	100.408	20.038	2.365	0.471
152.000	154.015	80.005	19.997	100.411	20.040	2.254	0.468
160.000	157.826	80.007	19.996	100.407	20.038	2.399	0.466
168.000	161.806	80.004	19.996	100.409	20.038	2.404	0.497
176.000	165.686	80.003	19.997	100.404	20.037	2.437	0.485
184.000	169.614	80.004	19.996	100.406	20.038	2.397	0.510
192.000	173.604	80.006	19.995	100.408	20.040	2.257	0.483
200.000	177.569	80.006	19.994	100.392	20.045	1.970	0.529
208.001	181.572	80.004	19.996	100.396	20.043	2.079	0.484
216.001	185.522	80.006	19.995	100.383	20.045	1.943	0.457
224.000	189.576	80.005	19.995	100.367	20.047	1.827	0.487
232.000	193.505	80.005	19.994	100.370	20.044	1.995	0.479
240.000	197.504	80.005	19.995	100.379	20.044	2.002	0.517
248.000	201.453	80.006	19.996	100.370	20.046	1.873	0.478
256.000	205.454	80.001	19.993	100.377	20.050	1.661	0.510
264.000	209.456	80.003	19.995	100.369	20.047	1.795	0.483
272.000	213.492	80.006	19.996	100.365	20.044	2.025	0.522
280.000	217.455	80.005	19.996	100.361	20.047	1.849	0.506
288.000	221.443	80.007	19.995	100.365	20.049	1.689	0.473
296.000	225.438	80.007	19.997	100.368	20.047	1.810	0.508
304.000	229.403	80.006	19.993	100.360	20.049	1.711	0.517
312.000	233.352	80.005	19.995	100.357	20.046	1.890	0.466
320.000	237.361	80.006	19.995	100.356	20.048	1.762	0.514
328.000	241.311	80.007	19.997	100.357	20.051	1.569	0.490
336.000	245.303	80.004	19.994	100.345	20.050	1.606	0.504
344.000	249.245	80.004	19.997	100.345	20.050	1.647	0.474
352.000	253.244	80.005	19.994	100.351	20.049	1.670	0.455
360.000	257.231	80.006	19.996	100.332	20.047	1.823	0.502
368.000	261.158	80.006	19.996	100.343	20.051	1.567	0.485
376.000	265.113	80.007	19.996	100.339	20.053	1.473	0.513
384.000	269.060	80.006	19.995	100.341	20.050	1.603	0.500
392.000	273.144	80.006	19.996	100.336	20.049	1.705	0.474
400.000	277.107	80.006	19.993	100.334	20.048	1.727	0.503
408.000	281.119	80.006	19.993	100.329	20.049	1.700	0.517
416.000	285.076	80.006	19.994	100.329	20.054	1.374	0.488
424.000	289.073	80.005	19.994	100.327	20.050	1.642	0.508
432.000	293.028	80.006	19.995	100.330	20.048	1.768	0.485
440.000	296.988	80.005	19.995	100.329	20.053	1.463	0.474
448.000	301.044	80.005	19.993	100.333	20.048	1.731	0.512
456.000	305.096	80.005	19.996	100.333	20.049	1.688	0.527
464.000	309.045	80.007	19.997	100.326	20.048	1.768	0.462
472.000	313.130	80.006	19.996	100.326	20.047	1.844	0.533
480.000	317.044	80.005	19.997	100.328	20.045	1.943	0.487
488.000	321.088	80.005	19.995	100.327	20.047	1.838	0.535
496.000	325.078	80.006	19.995	100.329	20.044	2.031	0.489
504.000	329.163	80.004	19.995	100.325	20.043	2.043	0.533
512.000	333.205	80.005	19.996	100.328	20.040	2.228	0.496
520.000	337.284	80.006	19.994	100.323	20.036	2.479	0.497
528.000	341.309	80.006	19.996	100.319	20.036	2.508	0.505
536.000	345.294	80.006	19.996	100.319	20.028	3.008	0.497
544.000	349.295	80.009	19.994	100.311	20.020	3.536	0.504
552.000	353.356	80.006	19.997	100.312	20.016	3.748	0.538
560.000	357.373	80.004	19.996	100.323	20.009	4.202	0.498
568.000	361.416	80.004	19.996	100.312	19.997	4.950	0.515
576.000	365.487	80.006	19.995	100.312	19.980	6.036	0.515
584.000	369.603	80.003	19.995	100.299	19.965	6.948	0.526
592.000	373.711	80.005	19.996	100.300	19.939	8.554	0.525
600.000	377.795	80.007	19.995	100.290	19.932	9.029	0.528
608.000	381.900	80.006	19.994	100.308	19.926	9.378	0.525
616.000	386.082	80.006	19.995	100.290	19.907	10.562	0.502
624.000	390.245	80.008	19.996	100.290	19.872	12.778	0.524
632.000	394.307	80.007	19.995	100.289	19.847	14.333	0.491
640.000	398.317	80.005	19.996	100.292	19.806	16.916	0.488
648.000	402.369	80.004	19.995	100.282	19.770	19.143	0.486
656.000	406.338	80.005	19.996	100.290	19.711	22.870	0.484
664.000	410.379	80.005	19.995	100.273	19.636	27.555	0.484
672.000	414.457	80.004	19.995	100.276	19.541	33.454	0.489
680.000	418.634	80.005	19.995	100.253	19.408	41.787	0.573
688.000	422.725	80.007	19.995	100.250	19.239	52.340	0.488
696.000	426.893	80.007	19.995	100.235	19.032	65.315	0.513
704.000	430.966	80.007	19.994	100.246	18.727	84.381	0.502
712.000	435.053	80.007	19.995	100.176	18.345	108.219	0.497
720.000	438.947	80.005	19.996	100.179	17.787	143.008	0.485
728.000	442.945	80.005	19.995	100.118	17.044	189.260	0.500
736.001	446.958	80.006	19.996	100.005	16.019	252.395	0.489
744.000	451.057	80.005	19.995	99.833	14.770	329.574	0.520
752.000	455.083	80.005	19.996	99.881	13.361	416.531	0.534
760.001	459.149	80.006	19.994	99.397	12.506	467.593	0.521
768.000	463.233	80.008	19.995	99.331	11.667	520.866	0.524
776.000	467.262	80.006	19.994	99.185	11.864	507.302	0.512
784.000	471.340	80.006	19.994	99.367	12.418	474.756	0.498
792.000	475.469	80.009	19.994	99.322	13.605	401.710	0.496
800.000	479.549	80.007	19.994	99.328	15.525	283.089	0.504
808.000	483.608	80.006	19.996	99.795	17.554	157.346	0.491
816.000	487.625	80.006	19.995	99.877	18.887	74.344	0.493
824.000	491.599	80.005	19.996	100.143	19.552	32.742	0.519
832.000	495.604	80.005	19.996	100.211	19.853	13.931	0.501
840.000	499.523	80.004	19.996	100.216	19.985	5.687	0.521
848.000	503.481	80.008	19.995	100.238	20.030	2.907	0.489
856.000	507.505	80.008	19.995	100.258	20.042	2.150	0.512
864.000	511.568	80.007	19.995	100.289	20.051	1.548	0.488
872.000	515.688	80.008	19.995	100.296	20.056	1.235	0.507
880.000	519.877	80.009	19.995	100.294	20.054	1.358	0.556
888.000	524.026	80.005	19.994	100.299	20.055	1.319	0.523
896.000	528.195	80.007	19.995	100.304	20.056	1.242	0.495
904.000	532.363	80.005	19.996	100.299	20.058	1.136	0.499
912.000	536.585	80.004	19.996	100.306	20.060	1.015	0.545
920.000	540.722	80.005	19.996	100.306	20.058	1.127	0.512
928.000	544.758	80.006	19.996	100.293	20.061	0.972	0.477
936.000	548.899	80.007	19.997	100.317	20.059	1.052	0.504
944.000	552.980	80.006	19.996	100.291	20.063	0.798	0.505
952.001	557.107	80.009	19.995	100.306	20.060	1.009	0.549
960.000	561.113	80.009	19.995	100.300	20.062	0.912	0.478
968.000	565.105	80.010	19.998	100.317	20.058	1.117	0.494
976.000	569.121	80.005	19.994	100.315	20.060	0.982	0.493
984.000	573.162	80.005	19.996	100.303	20.061	0.953	0.529
992.000	577.259	80.005	19.995	100.297	20.061	0.919	0.542
1000.000	581.223	80.002	19.994	100.295	20.060	1.028	0.472
1008.000	585.234	80.006	19.996	100.300	20.060	0.987	0.489
1016.000	589.305	80.007	19.994	100.312	20.062	0.883	0.524
1024.001	593.376	80.004	19.995	100.312	20.062	0.893	0.508
1032.000	597.440	80.005	19.995	100.301	20.060	0.989	0.510
1040.000	601.530	80.013	19.996	100.323	20.060	1.005	0.493
1048.001	605.576	80.005	19.993	100.314	20.064	0.752	0.491
1056.000	609.569	80.017	19.996	100.320	20.066	0.625	0.522
1064.000	613.492	80.005	19.996	100.314	20.069	0.463	0.503
1072.001	617.583	80.005	19.995	100.326	20.065	0.723	0.512
1080.000	621.592	80.004	19.995	100.321	20.064	0.745	0.513
1088.000	625.690	80.007	19.997	100.333	20.062	0.856	0.516
1096.000	629.760	80.007	19.995	100.330	20.059	1.068	0.493
1104.000	633.932	80.005	19.995	100.324	20.061	0.924	0.532
1112.000	638.056	80.006	19.995	100.335	20.061	0.957	0.509
1120.001	642.169	80.007	19.996	100.328	20.065	0.692	0.491
1128.000	646.308	80.006	19.996	100.329	20.063	0.847	0.549
1136.000	650.350	80.005	19.996	100.331	20.063	0.837	0.506
1144.001	654.395	80.005	19.996	100.330	20.060	0.979	0.501
1152.001	658.466	80.007	19.994	100.333	20.059	1.046	0.495
1160.000	662.501	80.006	19.996	100.343	20.060	0.994	0.525
1168.000	666.570	80.006	19.996	100.338	20.063	0.803	0.516
1176.000	670.571	80.006	19.992	100.343	20.059	1.042	0.514
1184.000	674.714	80.007	19.996	100.349	20.057	1.207	0.518
1192.000	678.747	80.006	19.996	100.349	20.058	1.148	0.507
1200.000	682.770	80.007	19.995	100.355	20.057	1.171	0.508
1208.001	686.825	80.008	19.996	100.361	20.059	1.068	0.502
1216.000	690.854	80.005	19.998	100.353	20.057	1.193	0.518
1224.000	694.840	80.004	19.996	100.362	20.058	1.125	0.505
1232.000	698.854	80.006	19.994	100.363	20.053	1.429	0.493
1240.000	702.895	80.006	19.994	100.369	20.053	1.431	0.525
1248.000	706.806	80.005	19.995	100.373	20.054	1.410	0.479
1256.000	710.873	80.008	19.997	100.368	20.056	1.244	0.497
1264.000	714.948	80.010	19.996	100.366	20.051	1.574	0.533
1272.000	719.008	80.009	19.995	100.363	20.052	1.538	0.493
1280.001	723.014	80.007	19.995	100.359	20.051	1.590	0.533
1288.000	727.043	80.008	19.995	100.366	20.052	1.497	0.509
1296.000	731.117	80.006	19.995	100.370	20.049	1.706	0.496
1304.001	735.091	80.005	19.995	100.377	20.052	1.485	0.489
1312.000	739.087	80.006	19.995	100.373	20.052	1.538	0.517
1320.000	743.133	80.005	19.999	100.373	20.052	1.496	0.522
1321.000	743.614	80.005	19.997	100.371	20.051	1.549	0.501