File: 01_Data/PP/MCC/PP_MCC_30K_min_210928_R1.txt
Sample ID:	C:\MCC\MCC Cal\Test\PP_MCC_30K_min_210928_R1.txt
Sample Weight (mg):	5
Heating Rate (C/s):	0.5
Combustor Temp (C):	900
N2 Flow Rate (cc/min):	80
O2 Flow Rate (cc/min):	20
Calibration File:	C:\MCC\MCC Cal\Coeff1 JN10440_30_210304.txt.txt
T Correction Coefficients:	0	1.024463	0
Time Shift (s):	14
*
Time (s)	Temperature (C)	N2 flow rate (cc/min)	O2 flow rate (cc/min)	Flow Rate (cc/min)	Oxygen (%)	HRR (W/g)	Heating rate (C/s)
0.000	111.288	80.005	19.995	100.171	20.027	0.125	-0.026
8.000	111.200	80.005	19.995	100.174	20.026	0.229	-0.023
15.999	111.294	80.006	19.995	100.255	20.013	0.992	0.018
24.000	111.747	80.005	19.996	100.264	20.010	1.184	0.075
31.999	112.342	80.005	19.995	100.296	20.004	1.562	0.108
40.000	113.262	80.006	19.996	100.331	19.998	1.943	0.112
47.999	114.639	80.004	19.994	100.357	19.995	2.167	0.199
55.999	116.303	80.008	19.995	100.366	19.992	2.355	0.224
64.000	118.351	80.007	19.996	100.370	19.990	2.434	0.293
71.999	120.629	80.005	19.995	100.367	19.991	2.371	0.337
79.999	123.154	80.006	19.995	100.373	19.990	2.445	0.343
88.000	125.799	80.005	19.994	100.399	19.985	2.748	0.351
95.999	128.703	80.004	19.995	100.409	19.987	2.621	0.383
103.999	131.798	80.004	19.995	100.409	19.984	2.845	0.410
111.999	135.048	80.006	19.995	100.405	19.983	2.883	0.433
119.999	138.433	80.006	19.995	100.407	19.987	2.638	0.439
127.999	142.048	80.005	19.995	100.398	19.988	2.600	0.490
135.999	145.755	80.007	19.995	100.391	19.984	2.846	0.448
143.999	149.561	80.006	19.996	100.390	19.983	2.909	0.503
151.999	153.346	80.005	19.995	100.374	19.984	2.810	0.478
160.000	157.169	80.005	19.995	100.382	19.984	2.817	0.491
168.000	161.082	80.005	19.995	100.378	19.990	2.465	0.450
175.999	164.974	80.005	19.997	100.378	19.987	2.661	0.477
183.999	168.905	80.005	19.995	100.373	19.987	2.660	0.503
191.999	172.882	80.005	19.994	100.371	19.988	2.553	0.489
199.999	176.859	80.007	19.994	100.361	19.990	2.470	0.508
208.000	180.813	80.005	19.996	100.358	19.987	2.668	0.484
215.999	184.838	80.006	19.995	100.357	19.994	2.234	0.496
223.999	188.844	80.007	19.994	100.362	19.993	2.291	0.533
231.999	192.772	80.005	19.995	100.340	19.997	1.998	0.496
239.999	196.753	80.004	19.995	100.339	19.999	1.873	0.483
247.999	200.771	80.005	19.996	100.346	19.997	1.994	0.497
255.999	204.651	80.005	19.995	100.334	19.998	1.985	0.469
263.999	208.622	80.004	19.996	100.334	20.000	1.861	0.526
271.999	212.525	80.006	19.996	100.333	19.999	1.874	0.506
279.999	216.421	80.007	19.995	100.331	19.999	1.902	0.485
287.999	220.335	80.006	19.994	100.334	20.001	1.777	0.509
296.000	224.259	80.006	19.995	100.332	20.003	1.657	0.495
303.999	228.225	80.007	19.995	100.334	20.003	1.654	0.495
311.999	232.222	80.005	19.995	100.323	20.003	1.649	0.493
320.000	236.166	80.006	19.995	100.327	20.003	1.647	0.476
327.999	240.122	80.004	19.996	100.327	20.006	1.456	0.487
336.000	244.105	80.006	19.996	100.324	20.006	1.485	0.501
343.999	248.048	80.005	19.996	100.322	20.009	1.269	0.496
352.000	252.120	80.005	19.996	100.317	20.008	1.333	0.487
359.999	256.099	80.006	19.994	100.315	20.010	1.184	0.486
367.999	260.058	80.004	19.994	100.326	20.009	1.292	0.490
375.999	264.006	80.007	19.994	100.321	20.011	1.133	0.516
383.999	268.046	80.007	19.994	100.305	20.011	1.156	0.529
391.999	272.052	80.007	19.994	100.305	20.017	0.762	0.470
399.999	276.028	80.007	19.996	100.309	20.011	1.136	0.496
407.999	280.059	80.006	19.995	100.306	20.008	1.324	0.497
416.000	283.944	80.005	19.996	100.306	20.010	1.187	0.495
423.999	287.920	80.004	19.996	100.301	20.012	1.098	0.500
431.999	291.919	80.004	19.996	100.307	20.011	1.117	0.505
440.000	295.920	80.006	19.995	100.309	20.012	1.095	0.484
447.999	299.860	80.008	19.995	100.294	20.012	1.078	0.481
455.999	303.847	80.006	19.995	100.300	20.013	1.038	0.485
464.000	307.869	80.008	19.994	100.294	20.009	1.252	0.525
472.000	311.854	80.008	19.994	100.291	20.012	1.107	0.508
479.999	315.822	80.005	19.994	100.293	20.007	1.419	0.460
488.000	319.815	80.005	19.995	100.297	20.004	1.561	0.476
495.999	323.810	80.006	19.995	100.293	20.004	1.580	0.510
503.999	327.785	80.005	19.995	100.295	20.005	1.517	0.498
512.000	331.789	80.005	19.994	100.294	20.001	1.752	0.505
519.999	335.863	80.005	19.997	100.290	20.000	1.845	0.494
528.000	339.919	80.006	19.995	100.288	19.996	2.104	0.527
535.999	343.929	80.006	19.996	100.290	19.991	2.386	0.479
543.999	347.989	80.005	19.995	100.291	19.984	2.813	0.514
552.000	352.078	80.009	19.994	100.294	19.983	2.921	0.497
560.000	356.220	80.006	19.994	100.292	19.971	3.662	0.550
567.999	360.239	80.005	19.994	100.294	19.960	4.310	0.502
576.000	364.355	80.006	19.995	100.285	19.946	5.178	0.497
583.999	368.503	80.004	19.995	100.275	19.937	5.752	0.502
591.999	372.639	80.007	19.996	100.273	19.923	6.630	0.518
599.999	376.722	80.005	19.994	100.266	19.897	8.275	0.495
607.999	380.844	80.005	19.996	100.254	19.883	9.180	0.495
615.999	384.870	80.007	19.996	100.260	19.867	10.157	0.481
623.999	388.922	80.007	19.996	100.259	19.842	11.700	0.489
632.000	392.914	80.006	19.993	100.257	19.804	14.079	0.491
639.999	396.938	80.007	19.994	100.261	19.778	15.690	0.503
647.999	400.941	80.004	19.996	100.251	19.741	18.018	0.519
655.999	404.931	80.006	19.995	100.235	19.679	21.879	0.487
663.999	408.953	80.007	19.995	100.252	19.607	26.441	0.498
671.999	412.996	80.005	19.995	100.246	19.512	32.349	0.480
679.999	417.032	80.006	19.995	100.213	19.368	41.379	0.501
688.000	421.195	80.007	19.996	100.217	19.226	50.196	0.507
696.000	425.275	80.006	19.996	100.196	19.033	62.292	0.500
703.999	429.437	80.003	19.997	100.206	18.747	80.135	0.512
711.999	433.546	80.006	19.997	100.151	18.390	102.390	0.504
719.999	437.608	80.008	19.995	100.104	17.911	132.260	0.514
727.999	441.545	80.006	19.993	100.119	17.205	176.214	0.480
735.999	445.529	80.005	19.994	100.040	16.224	236.815	0.510
743.999	449.521	80.005	19.995	99.838	14.953	316.112	0.477
751.999	453.451	80.005	19.994	99.561	13.843	383.597	0.511
760.000	457.392	80.005	19.995	99.375	12.662	455.439	0.465
768.000	461.335	80.005	19.995	99.276	11.626	520.880	0.480
775.999	465.212	80.007	19.995	98.699	11.600	521.587	0.467
783.999	469.204	80.006	19.995	99.105	11.894	502.734	0.505
791.999	473.257	80.006	19.996	99.203	12.523	464.754	0.514
800.000	477.386	80.008	19.994	99.102	14.121	367.616	0.497
807.999	481.525	80.005	19.996	99.560	16.339	229.745	0.550
815.999	485.665	80.004	19.998	99.921	18.153	117.076	0.509
823.999	489.800	80.006	19.994	99.928	19.201	51.797	0.525
832.000	493.914	80.004	19.995	100.143	19.685	21.521	0.526
840.000	497.949	80.003	19.994	100.176	19.901	8.003	0.506
847.999	502.007	80.005	19.996	100.187	19.982	2.939	0.510
856.000	506.061	80.007	19.995	100.191	20.002	1.700	0.521
863.999	510.104	80.007	19.995	100.214	20.012	1.105	0.517
871.999	514.323	80.006	19.995	100.247	20.019	0.633	0.533
879.999	518.533	80.007	19.993	100.252	20.021	0.533	0.491
888.000	522.806	80.007	19.993	100.255	20.019	0.645	0.524
895.999	527.006	80.003	19.997	100.256	20.017	0.782	0.527
903.999	531.271	80.004	19.996	100.262	20.023	0.398	0.536
911.999	535.568	80.007	19.996	100.255	20.023	0.386	0.548
919.999	539.842	80.006	19.995	100.255	20.023	0.379	0.528
928.000	544.029	80.005	19.995	100.252	20.029	-0.009	0.529
936.000	548.129	80.007	19.995	100.250	20.025	0.271	0.492
943.999	552.123	80.006	19.992	100.253	20.028	0.061	0.465
951.999	556.136	80.007	19.995	100.254	20.027	0.126	0.479
960.000	560.050	80.006	19.995	100.242	20.028	0.072	0.489
968.000	563.982	80.006	19.995	100.255	20.028	0.051	0.493
976.000	567.880	80.005	19.995	100.254	20.035	-0.341	0.481
983.999	571.945	80.004	19.996	100.257	20.031	-0.133	0.538
991.999	576.133	80.005	19.996	100.256	20.032	-0.150	0.502
999.999	580.327	80.004	19.997	100.249	20.031	-0.099	0.517
1008.000	584.518	80.005	19.995	100.254	20.036	-0.398	0.526
1015.999	588.735	80.005	19.996	100.256	20.030	-0.034	0.491
1024.000	592.931	80.005	19.994	100.254	20.035	-0.384	0.541
1031.999	597.108	80.004	19.996	100.255	20.035	-0.355	0.582
1039.999	601.102	80.008	19.994	100.247	20.036	-0.423	0.456
1047.999	605.038	80.009	19.993	100.239	20.036	-0.423	0.479
1055.999	608.915	80.005	19.995	100.251	20.031	-0.108	0.485
1063.999	612.687	80.005	19.996	100.251	20.031	-0.092	0.464
1071.999	616.572	80.005	19.996	100.254	20.034	-0.282	0.466
1079.999	620.579	80.005	19.998	100.261	20.033	-0.246	0.522
1087.999	624.717	80.003	19.997	100.255	20.036	-0.413	0.553
1095.999	628.816	80.005	19.995	100.258	20.033	-0.212	0.544
1103.999	632.993	80.007	19.994	100.252	20.036	-0.434	0.524
1111.999	637.194	80.006	19.994	100.252	20.033	-0.225	0.552
1119.999	641.189	80.006	19.995	100.253	20.033	-0.205	0.520
1127.999	645.187	80.007	19.994	100.255	20.035	-0.345	0.501
1136.000	649.220	80.006	19.995	100.253	20.029	0.010	0.484
1143.999	653.309	80.005	19.995	100.253	20.034	-0.319	0.489
1151.999	657.336	80.005	19.995	100.250	20.035	-0.388	0.525
1159.999	661.333	80.005	19.994	100.251	20.032	-0.178	0.494
1167.999	665.406	80.005	19.995	100.255	20.030	-0.046	0.528
1175.999	669.629	80.007	19.996	100.251	20.030	-0.075	0.547
1183.999	673.980	80.007	19.996	100.251	20.036	-0.410	0.562
1191.999	678.437	80.005	19.995	100.251	20.029	-0.010	0.542
1199.999	682.929	80.006	19.994	100.251	20.031	-0.130	0.572
1207.999	687.193	80.006	19.994	100.254	20.031	-0.111	0.546
1215.999	691.581	80.008	19.994	100.251	20.033	-0.217	0.528
1223.999	695.852	80.005	19.995	100.255	20.028	0.060	0.515
1231.999	700.107	80.006	19.994	100.256	20.029	-0.007	0.510
1239.999	704.256	80.007	19.995	100.252	20.029	0.015	0.508
1247.999	708.281	80.006	19.996	100.251	20.030	-0.067	0.514
1255.999	712.299	80.006	19.994	100.252	20.030	-0.034	0.512
1263.999	716.315	80.006	19.995	100.251	20.030	-0.029	0.511
1271.999	720.233	80.007	19.996	100.249	20.026	0.178	0.502
1279.999	724.059	80.007	19.997	100.254	20.031	-0.133	0.466
1287.999	727.904	80.007	19.994	100.253	20.030	-0.039	0.479
1295.999	731.784	80.007	19.995	100.256	20.029	0.039	0.486
1303.999	735.634	80.006	19.996	100.252	20.030	-0.034	0.477
1311.999	739.551	80.006	19.996	100.252	20.031	-0.130	0.497
1319.999	743.494	80.006	19.995	100.253	20.031	-0.114	0.496
1323.999	745.513	80.006	19.995	100.252	20.029	0.015	0.483