File: 01_Data/Nylon/STA/N2/30K_min/Nylon_STA_N2_30KData_220704_R2.csv
##Temp./Â°C,Time/min,DSC(subtr.2)/(mW/mg),Mass loss(subtr.2)/mg,Sensit./(uV/mW)
48.581,10.00667,0.01150866,-0.07075,1.07502
51.581,10.8687,0.19754,-0.07341146,1.0737
54.581,11.09702,0.32959,-0.07540104,1.07236
57.581,11.27237,0.43657,-0.0765813,1.07102
60.581,11.42249,0.52768,-0.07565038,1.06966
63.581,11.55845,0.6087,-0.07673043,1.0683
66.581,11.68587,0.682,-0.07860146,1.06692
69.581,11.80675,0.7507,-0.07831332,1.06554
72.581,11.92347,0.80786,-0.07996662,1.06414
75.581,12.03697,0.84906,-0.08085142,1.06274
78.581,12.14771,0.87708,-0.08127017,1.06133
81.581,12.25633,0.89625,-0.08099409,1.0599
84.581,12.36305,0.9135,-0.08176948,1.05847
87.581,12.46879,0.9293,-0.08286956,1.05703
90.581,12.57287,0.95164,-0.08483663,1.05558
93.581,12.67585,0.97196,-0.08404469,1.05412
96.581,12.7782,0.99341,-0.0846595,1.05265
99.581,12.88011,1.01454,-0.08545054,1.05117
102.581,12.98135,1.03209,-0.08458801,1.04969
105.581,13.08257,1.05219,-0.0854565,1.04819
108.581,13.1834,1.07113,-0.08543867,1.04669
111.581,13.28405,1.0907,-0.08675623,1.04518
114.581,13.38427,1.1115,-0.08939281,1.04366
117.581,13.4842,1.12768,-0.09007369,1.04213
120.581,13.584,1.1436,-0.09096629,1.04059
123.581,13.68335,1.16203,-0.09203002,1.03904
126.581,13.78175,1.17352,-0.09203003,1.03749
129.581,13.8801,1.19104,-0.09203169,1.03593
132.581,13.9779,1.20745,-0.09366997,1.03436
135.581,14.0753,1.22187,-0.09466002,1.03278
138.581,14.1722,1.23988,-0.09366692,1.03119
141.581,14.26862,1.25426,-0.09495184,1.0296
144.581,14.3649,1.26784,-0.09565,1.028
147.581,14.46057,1.28315,-0.09564999,1.02639
150.581,14.55609,1.2995,-0.09493565,1.02478
153.581,14.65136,1.31307,-0.09565,1.02315
156.581,14.7463,1.32803,-0.09697584,1.02152
159.581,14.841,1.34365,-0.09570936,1.01988
162.581,14.93547,1.3569,-0.09828,1.01824
165.581,15.0295,1.37156,-0.09815023,1.01658
168.581,15.12364,1.38384,-0.09828,1.01492
171.581,15.21781,1.39831,-0.09828,1.01326
174.581,15.31148,1.40894,-0.09827999,1.01158
177.581,15.4048,1.42255,-0.09695985,1.0099
180.581,15.4979,1.43506,-0.09696036,1.00822
183.581,15.5905,1.44746,-0.09964393,1.00652
186.581,15.6829,1.45703,-0.09960098,1.00482
189.581,15.7752,1.47075,-0.09996799,1.00311
192.581,15.8673,1.48345,-0.09992087,1.0014
195.581,15.959,1.49671,-0.10124,0.99968
198.581,16.0506,1.51063,-0.09986819,0.99795
201.581,16.14227,1.52432,-0.10233,0.99622
204.581,16.2338,1.53896,-0.10256,0.99448
207.581,16.32526,1.55559,-0.10256,0.99274
210.581,16.41667,1.57427,-0.10289,0.99099
213.581,16.5079,1.59404,-0.10398,0.98923
216.581,16.59899,1.61537,-0.10255,0.98746
219.581,16.6902,1.63888,-0.10363,0.98569
222.581,16.7812,1.66327,-0.10388,0.98392
225.581,16.87237,1.69481,-0.10388,0.98214
228.581,16.96329,1.72723,-0.10519,0.98035
231.581,17.0543,1.75761,-0.10519,0.97856
234.581,17.1452,1.79946,-0.10567,0.97676
237.581,17.23603,1.84407,-0.10649,0.97496
240.581,17.32696,1.90111,-0.10782,0.97315
243.581,17.41762,1.98214,-0.10782,0.97133
246.581,17.50834,2.11651,-0.1065,0.96951
249.581,17.59896,2.36312,-0.10782,0.96769
252.581,17.6905,2.71956,-0.10913,0.96586
255.581,17.78171,3.16882,-0.10913,0.96402
258.581,17.87329,3.68992,-0.11012,0.96218
261.581,17.96503,3.98876,-0.11144,0.96033
264.581,18.05657,3.16365,-0.11144,0.95848
267.581,18.147,2.51652,-0.11144,0.95663
270.581,18.23701,2.15962,-0.11144,0.95476
273.581,18.3268,1.96109,-0.11144,0.9529
276.581,18.41686,1.84996,-0.11207,0.95103
279.581,18.5068,1.78629,-0.11243,0.94915
282.581,18.5971,1.75511,-0.1134,0.94727
285.581,18.6873,1.73674,-0.11368,0.94538
288.581,18.7775,1.72921,-0.11309,0.94349
291.581,18.8679,1.72688,-0.11309,0.9416
294.581,18.95853,1.7224,-0.11309,0.9397
297.581,19.04901,1.72448,-0.11405,0.9378
300.581,19.13965,1.72737,-0.11572,0.93589
303.581,19.2305,1.72944,-0.11704,0.93398
306.581,19.32124,1.73028,-0.11605,0.93206
309.581,19.412,1.7344,-0.11605,0.93014
312.581,19.5027,1.73705,-0.11572,0.92821
315.581,19.59356,1.73818,-0.11704,0.92628
318.581,19.6846,1.74055,-0.11704,0.92435
321.581,19.77574,1.74336,-0.1182,0.92241
324.581,19.86676,1.74242,-0.11802,0.92047
327.581,19.95801,1.74471,-0.11802,0.91852
330.581,20.04945,1.74868,-0.11835,0.91657
333.581,20.1409,1.75235,-0.11835,0.91461
336.581,20.23236,1.75443,-0.11969,0.91265
339.581,20.3239,1.76077,-0.12198,0.91069
342.581,20.4152,1.76382,-0.1231,0.90872
345.581,20.50722,1.76779,-0.12592,0.90675
348.581,20.59913,1.77396,-0.12592,0.90478
351.581,20.69117,1.77887,-0.12725,0.9028
354.581,20.78319,1.78258,-0.12724,0.90082
357.581,20.87549,1.78642,-0.12855,0.89883
360.581,20.96762,1.79325,-0.12987,0.89684
363.581,21.05992,1.79882,-0.12987,0.89485
366.581,21.1524,1.80938,-0.13118,0.89285
369.581,21.24479,1.81721,-0.13256,0.89085
372.581,21.33749,1.82876,-0.13518,0.88885
375.581,21.4302,1.84307,-0.13645,0.88684
378.581,21.52287,1.85886,-0.13775,0.88483
381.581,21.61552,1.87704,-0.1404,0.88281
384.581,21.7085,1.89753,-0.14171,0.8808
387.581,21.8015,1.92321,-0.14564,0.87878
390.581,21.89459,1.9527,-0.14852,0.87675
393.581,21.98774,1.98928,-0.15303,0.87472
396.581,22.0808,2.02766,-0.1561,0.87269
399.581,22.17424,2.08128,-0.1603,0.87066
402.581,22.2677,2.15132,-0.16732,0.86862
405.581,22.36104,2.23969,-0.17507,0.86658
408.581,22.45453,2.36494,-0.18453,0.86453
411.581,22.54864,2.51909,-0.19526,0.86248
414.581,22.64244,2.68226,-0.21036,0.86043
417.581,22.7364,2.86653,-0.22768,0.85838
420.581,22.8308,3.07894,-0.2511,0.85632
423.581,22.92511,3.30046,-0.28042,0.85426
426.581,23.01951,3.42982,-0.31436,0.8522
429.581,23.11401,3.61385,-0.3539,0.85013
432.581,23.20851,3.83179,-0.40255,0.84806
435.581,23.30303,4.05949,-0.45687,0.84599
438.581,23.39803,4.30025,-0.52036,0.84392
441.581,23.49305,4.5492,-0.59383,0.84184
444.581,23.58811,4.80204,-0.68224,0.83976
447.581,23.68317,5.03484,-0.78041,0.83767
450.581,23.77854,5.25847,-0.894,0.83559
453.581,23.87398,5.4441,-1.0157,0.8335
456.581,23.96925,5.60128,-1.1502,0.8314
459.581,24.0649,5.73387,-1.2951,0.82931
462.581,24.16031,5.83917,-1.4506,0.82721
465.581,24.25597,5.92756,-1.61892,0.82511
468.581,24.3514,5.99979,-1.79776,0.82301
471.581,24.44697,6.04485,-1.98446,0.8209
474.581,24.54211,6.07903,-2.17731,0.81879
477.581,24.63788,6.09358,-2.37693,0.81668
480.581,24.73377,6.04691,-2.58546,0.81457
483.581,24.8293,5.93429,-2.79848,0.81245
486.581,24.92478,5.69548,-3.01395,0.81033
489.581,25.0201,5.27174,-3.22085,0.80821
492.581,25.11524,4.68586,-3.41272,0.80608
495.581,25.21014,3.9276,-3.58366,0.80396
498.581,25.30451,3.02567,-3.72471,0.80183
501.581,25.39884,2.09914,-3.83129,0.7997
504.581,25.49277,1.33432,-3.9019,0.79756
507.581,25.58695,0.82462,-3.94308,0.79542
510.581,25.6812,0.52768,-3.96903,0.79328
513.581,25.77589,0.37116,-3.98301,0.79114
516.581,25.87118,0.28637,-3.98817,0.789
519.581,25.96649,0.24209,-3.99169,0.78685
522.581,26.06213,0.22285,-3.993,0.7847
525.581,26.15802,0.21117,-3.9956,0.78255
528.581,26.25406,0.20532,-3.99639,0.7804
531.581,26.3503,0.20397,-3.99695,0.77824
534.581,26.44687,0.20484,-3.99828,0.77608
537.581,26.54342,0.20626,-4.00029,0.77392
540.581,26.64,0.2174,-3.99959,0.77176
543.581,26.7364,0.22651,-4.00024,0.76959
546.581,26.8331,0.23279,-4.00025,0.76743
549.581,26.9301,0.23326,-4.00091,0.76526
552.581,27.0272,0.23419,-4.00091,0.76309
555.581,27.12479,0.23717,-3.99993,0.76091
558.581,27.222,0.2363,-4.00124,0.75874
561.581,27.3194,0.23558,-4.00124,0.75656
564.581,27.41674,0.2329,-4.00124,0.75438
567.581,27.51422,0.23249,-4.00124,0.7522
570.581,27.61178,0.2303,-4.00321,0.75001
573.581,27.7095,0.22605,-4.0042,0.74783
576.581,27.80701,0.2245,-4.00551,0.74564
579.581,27.9047,0.22173,-4.00617,0.74345
582.581,28.00249,0.22056,-4.00486,0.74125
585.581,28.10037,0.22071,-4.00486,0.73906
588.581,28.19823,0.21271,-4.00486,0.73686
591.581,28.29637,0.21469,-4.00555,0.73467
594.581,28.39436,0.20842,-4.00552,0.73247
597.581,28.4927,0.20721,-4.00814,0.73026
600.581,28.59085,0.20959,-4.00928,0.72806
603.581,28.68917,0.20804,-4.00851,0.72585
606.581,28.78746,0.21062,-4.00815,0.72365
609.581,28.8858,0.20714,-4.00815,0.72144
612.581,28.98428,0.20746,-4.00948,0.71923
615.581,29.08265,0.20783,-4.00947,0.71701
618.581,29.1814,0.2113,-4.00914,0.7148
621.581,29.27995,0.20756,-4.00914,0.71258
624.581,29.37862,0.20778,-4.01178,0.71037
627.581,29.47734,0.21,-4.01177,0.70815
630.581,29.5759,0.20467,-4.01308,0.70592
633.581,29.6753,0.20358,-4.01112,0.7037
636.581,29.7742,0.20097,-4.01309,0.70148
639.581,29.8732,0.19863,-4.01309,0.69925
642.581,29.9723,0.2059,-4.01267,0.69702
645.581,30.07149,0.20333,-4.01309,0.69479
648.581,30.1707,0.20539,-4.01309,0.69256
651.581,30.26965,0.20949,-4.01441,0.69033
654.581,30.3689,0.21307,-4.01539,0.6881
657.581,30.46807,0.21069,-4.01572,0.68586
660.581,30.56689,0.21466,-4.01473,0.68363
663.581,30.6665,0.21682,-4.01605,0.68139
666.581,30.76588,0.21897,-4.01705,0.67915
669.581,30.86512,0.22031,-4.0157,0.67691
672.581,30.96459,0.2242,-4.0144,0.67467
675.581,31.06387,0.22764,-4.01572,0.67242
678.581,31.1632,0.23084,-4.01572,0.67018
681.581,31.26274,0.23103,-4.01539,0.66793
684.581,31.3621,0.2373,-4.01964,0.66568
687.581,31.46159,0.23795,-4.01508,0.66344
690.581,31.5612,0.24347,-4.01638,0.66119
693.581,31.6604,0.24161,-4.01539,0.65894
696.581,31.7603,0.24222,-4.01539,0.65668
699.581,31.85993,0.2463,-4.01571,0.65443
702.581,31.9596,0.24843,-4.01671,0.65218
705.581,32.0595,0.24942,-4.01605,0.64992
708.581,32.15918,0.25064,-4.01639,0.64767
711.581,32.25907,0.25876,-4.0177,0.64541
714.581,32.3591,0.25944,-4.0177,0.64315
717.581,32.45892,0.26441,-4.01769,0.64089
720.581,32.55895,0.26935,-4.01638,0.63863
723.581,32.65903,0.27412,-4.01638,0.63637
726.581,32.7592,0.2784,-4.0177,0.63411
729.581,32.85923,0.28176,-4.01637,0.63185
732.581,32.95909,0.27937,-4.01637,0.62958
735.581,33.05885,0.2806,-4.01613,0.62732
738.581,33.15907,0.28087,-4.01638,0.62506
741.581,33.25958,0.28266,-4.01638,0.62279
743.781,33.33316,0.27736,-4.0177,0.62113