File: 01_Data/Nylon/STA/N2/30K_min/Nylon_STA_N2_30KData_220604_R1.csv
##Temp./Â°C,Time/min,DSC(subtr.2)/(mW/mg),Mass loss(subtr.2)/mg,Sensit./(uV/mW)
48.589,10.00667,0.00766766,-0.02072,1.07502
51.589,10.86706,0.19475,-0.02419565,1.07369
54.589,11.09408,0.32877,-0.02463381,1.07236
57.589,11.26931,0.43481,-0.0239509,1.07101
60.589,11.4191,0.52476,-0.02298196,1.06966
63.589,11.5551,0.60682,-0.0240743,1.06829
66.589,11.68169,0.67954,-0.02595937,1.06692
69.589,11.80226,0.7484,-0.02526692,1.06553
72.589,11.91864,0.80456,-0.02516689,1.06414
75.589,12.03169,0.84945,-0.02628238,1.06274
78.589,12.14255,0.88145,-0.02571202,1.06132
81.589,12.2511,0.90276,-0.0266246,1.0599
84.589,12.358,0.91858,-0.02799942,1.05847
87.589,12.4634,0.93362,-0.02793502,1.05703
90.589,12.5677,0.95039,-0.02890928,1.05557
93.589,12.67095,0.96818,-0.02861143,1.05412
96.589,12.77324,0.98734,-0.02993959,1.05265
99.589,12.8751,1.0062,-0.0311223,1.05117
102.589,12.97644,1.02216,-0.03131843,1.04968
105.589,13.0779,1.04394,-0.02994347,1.04819
108.589,13.1789,1.06204,-0.0316332,1.04668
111.589,13.2795,1.08137,-0.03092813,1.04517
114.589,13.37985,1.09962,-0.03125179,1.04365
117.589,13.48008,1.11767,-0.03257039,1.04212
120.589,13.58,1.1357,-0.03257,1.04058
123.589,13.67937,1.15146,-0.03355999,1.03904
126.589,13.7784,1.16604,-0.03220911,1.03749
129.589,13.8768,1.18666,-0.0337901,1.03592
132.589,13.975,1.2039,-0.03389256,1.03435
135.589,14.0723,1.21872,-0.03520428,1.03278
138.589,14.1698,1.23462,-0.0352,1.03119
141.589,14.2664,1.25299,-0.03419587,1.0296
144.589,14.36265,1.27188,-0.03521,1.028
147.589,14.4586,1.28467,-0.03606429,1.02639
150.589,14.5541,1.30396,-0.03652029,1.02477
153.589,14.6494,1.31966,-0.0352,1.02315
156.589,14.74441,1.33706,-0.03652253,1.02152
159.589,14.83915,1.35241,-0.03652,1.01988
162.589,14.9338,1.36545,-0.03651997,1.01823
165.589,15.02815,1.37929,-0.03605191,1.01658
168.589,15.1222,1.39454,-0.03652,1.01492
171.589,15.21625,1.40677,-0.03714824,1.01325
174.589,15.30991,1.41921,-0.03777975,1.01158
177.589,15.4033,1.43587,-0.03656914,1.0099
180.589,15.4963,1.44955,-0.0378402,1.00821
183.589,15.5888,1.45945,-0.03705394,1.00652
186.589,15.6812,1.46856,-0.03784,1.00482
189.589,15.7735,1.48162,-0.03784791,1.00311
192.589,15.86527,1.49742,-0.03915112,1.0014
195.589,15.95708,1.50884,-0.03710926,0.99968
198.589,16.04865,1.5205,-0.03717,0.99795
201.589,16.14014,1.53538,-0.03717048,0.99622
204.589,16.23141,1.54985,-0.03849,0.99448
207.589,16.32284,1.56834,-0.03849,0.99273
210.589,16.41411,1.58554,-0.03849,0.99098
213.589,16.50534,1.60387,-0.03751003,0.98922
216.589,16.5964,1.62509,-0.03751,0.98746
219.589,16.6875,1.64831,-0.03751,0.98569
222.589,16.77855,1.67619,-0.03850051,0.98391
225.589,16.86955,1.70534,-0.03882995,0.98213
228.589,16.96055,1.73453,-0.03883,0.98035
231.589,17.05157,1.76877,-0.03917868,0.97855
234.589,17.14234,1.80858,-0.03916,0.97676
237.589,17.23302,1.85476,-0.03916,0.97495
240.589,17.3241,1.90974,-0.03916,0.97314
243.589,17.41491,1.98522,-0.03916,0.97133
246.589,17.50565,2.11343,-0.03916,0.96951
249.589,17.5965,2.35583,-0.03916,0.96768
252.589,17.68771,2.70093,-0.04014305,0.96585
255.589,17.77886,3.16313,-0.04014,0.96402
258.589,17.87041,3.72354,-0.04014,0.96217
261.589,17.96219,4.13082,-0.04014,0.96033
264.589,18.0535,3.17893,-0.04014,0.95848
267.589,18.14419,2.52114,-0.0414602,0.95662
270.589,18.23432,2.164,-0.04140331,0.95476
273.589,18.32424,1.96527,-0.04029592,0.95289
276.589,18.41435,1.85091,-0.04146,0.95102
279.589,18.50441,1.79039,-0.04146,0.94915
282.589,18.59444,1.7584,-0.0431132,0.94727
285.589,18.68476,1.74125,-0.04409157,0.94538
288.589,18.77529,1.73283,-0.04276642,0.94349
291.589,18.86555,1.72791,-0.04210952,0.9416
294.589,18.95609,1.7288,-0.0421913,0.9397
297.589,19.0466,1.72789,-0.04342836,0.93779
300.589,19.13721,1.73138,-0.04232466,0.93588
303.589,19.22794,1.73191,-0.04342599,0.93397
306.589,19.31866,1.73574,-0.0441108,0.93205
309.589,19.40945,1.7385,-0.04343006,0.93013
312.589,19.50028,1.74399,-0.04475001,0.92821
315.589,19.59112,1.74693,-0.04475,0.92628
318.589,19.6821,1.75063,-0.04493903,0.92434
321.589,19.77299,1.75592,-0.0454,0.9224
324.589,19.86402,1.7606,-0.04652612,0.92046
327.589,19.95522,1.76627,-0.04688532,0.91851
330.589,20.0463,1.77216,-0.04738,0.91656
333.589,20.13774,1.77663,-0.04868652,0.91461
336.589,20.22909,1.78707,-0.04869,0.91265
339.589,20.32029,1.79512,-0.04869,0.91069
342.589,20.41212,1.80647,-0.04868998,0.90872
345.589,20.50355,1.81751,-0.05000992,0.90675
348.589,20.59518,1.82357,-0.05265927,0.90477
351.589,20.68701,1.83392,-0.05265003,0.90279
354.589,20.77885,1.84622,-0.05396,0.90081
357.589,20.8708,1.85241,-0.05395999,0.89883
360.589,20.96279,1.85776,-0.05528016,0.89684
363.589,21.05476,1.8624,-0.05658944,0.89484
366.589,21.14701,1.86251,-0.05791003,0.89285
369.589,21.23909,1.84644,-0.06053585,0.89085
372.589,21.33139,1.81483,-0.06053697,0.88884
375.589,21.4238,1.79279,-0.06322875,0.88684
378.589,21.5162,1.78814,-0.0648044,0.88482
381.589,21.60889,1.80357,-0.06725665,0.88281
384.589,21.70134,1.84756,-0.06953215,0.88079
387.589,21.79431,1.89803,-0.07216528,0.87877
390.589,21.88726,1.95334,-0.07518293,0.87675
393.589,21.98049,2.00229,-0.08033195,0.87472
396.589,22.0742,2.03431,-0.08435965,0.87269
399.589,22.1677,2.07036,-0.09014155,0.87065
402.589,22.26149,2.12048,-0.09575948,0.86861
405.589,22.3548,2.20748,-0.10285,0.86657
408.589,22.44895,2.3427,-0.11211,0.86453
411.589,22.54305,2.498,-0.12438,0.86248
414.589,22.63736,2.67032,-0.13852,0.86043
417.589,22.73156,2.88166,-0.15841,0.85837
420.589,22.82582,3.11335,-0.18424,0.85632
423.589,22.92031,3.33156,-0.21388,0.85426
426.589,23.01505,3.59392,-0.25347,0.85219
429.589,23.10954,3.8697,-0.29975,0.85013
432.589,23.20435,4.14478,-0.35649,0.84806
435.589,23.29929,4.42531,-0.42165,0.84599
438.589,23.39445,4.70208,-0.49782,0.84391
441.589,23.48967,4.96416,-0.58555,0.84183
444.589,23.58496,5.22785,-0.68393,0.83975
447.589,23.6803,5.46372,-0.79658,0.83767
450.589,23.7756,5.67498,-0.91866,0.83558
453.589,23.87108,5.84317,-1.05178,0.83349
456.589,23.9665,5.97609,-1.1953,0.8314
459.589,24.062,6.06989,-1.34715,0.8293
462.589,24.15747,6.12424,-1.50988,0.82721
465.589,24.25291,6.15647,-1.67821,0.82511
468.589,24.3485,6.139,-1.85502,0.823
471.589,24.444,6.13518,-2.0385,0.8209
474.589,24.53943,6.12751,-2.23004,0.81879
477.589,24.63505,6.10611,-2.4303,0.81668
480.589,24.73066,5.99562,-2.6364,0.81456
483.589,24.82615,5.78509,-2.84372,0.81244
486.589,24.9215,5.44079,-3.04742,0.81032
489.589,25.01661,4.92756,-3.24067,0.8082
492.589,25.11141,4.24251,-3.4158,0.80608
495.589,25.20589,3.39653,-3.56706,0.80395
498.589,25.3001,2.45927,-3.6838,0.80182
501.589,25.39425,1.60228,-3.76615,0.79969
504.589,25.4881,0.98807,-3.8143,0.79755
507.589,25.58233,0.62024,-3.84144,0.79542
510.589,25.67676,0.42609,-3.85574,0.79328
513.589,25.7715,0.32525,-3.86357,0.79114
516.589,25.86656,0.27844,-3.86808,0.78899
519.589,25.96189,0.25141,-3.86806,0.78685
522.589,26.0573,0.24971,-3.86952,0.7847
525.589,26.15295,0.27825,-3.8717,0.78255
528.589,26.24861,0.28737,-3.87197,0.78039
531.589,26.34477,0.28969,-3.87196,0.77824
534.589,26.4409,0.28563,-3.87434,0.77608
537.589,26.53728,0.2772,-3.87433,0.77392
540.589,26.63376,0.25983,-3.87433,0.77175
543.589,26.73072,0.23708,-3.87564,0.76959
546.589,26.8278,0.21112,-3.87696,0.76742
549.589,26.92502,0.18185,-3.87596,0.76525
552.589,27.0221,0.16298,-3.87699,0.76308
555.589,27.11944,0.15128,-3.87861,0.76091
558.589,27.21677,0.14613,-3.87795,0.75873
561.589,27.314,0.14606,-3.87861,0.75655
564.589,27.4116,0.14616,-3.87861,0.75437
567.589,27.5091,0.14476,-3.87861,0.75219
570.589,27.60659,0.14876,-3.87861,0.75001
573.589,27.70406,0.1449,-3.88135,0.74782
576.589,27.8018,0.15059,-3.88132,0.74563
579.589,27.89974,0.14624,-3.88266,0.74344
582.589,27.9976,0.15239,-3.88365,0.74125
585.589,28.0957,0.15635,-3.88365,0.73905
588.589,28.19349,0.16027,-3.883,0.73686
591.589,28.29158,0.16192,-3.88365,0.73466
594.589,28.38969,0.17128,-3.88365,0.73246
597.589,28.4879,0.17534,-3.88365,0.73026
600.589,28.58588,0.18791,-3.88497,0.72805
603.589,28.68422,0.19862,-3.88563,0.72585
606.589,28.7827,0.2146,-3.88426,0.72364
609.589,28.88115,0.21786,-3.88431,0.72143
612.589,28.9796,0.22393,-3.88593,0.71922
615.589,29.07821,0.22621,-3.88562,0.71701
618.589,29.1766,0.22901,-3.88562,0.71479
621.589,29.27535,0.22762,-3.88562,0.71258
624.589,29.37404,0.22575,-3.88431,0.71036
627.589,29.4727,0.2317,-3.88563,0.70814
630.589,29.5714,0.23552,-3.88661,0.70592
633.589,29.6701,0.23736,-3.88661,0.7037
636.589,29.7689,0.24582,-3.88651,0.70147
639.589,29.868,0.24852,-3.88562,0.69925
642.589,29.9669,0.24851,-3.88661,0.69702
645.589,30.0659,0.25598,-3.88629,0.69479
648.589,30.16514,0.25632,-3.8876,0.69256
651.589,30.26417,0.25807,-3.8876,0.69033
654.589,30.36337,0.25901,-3.88629,0.68809
657.589,30.4627,0.26207,-3.8876,0.68586
660.589,30.56196,0.26516,-3.88802,0.68362
663.589,30.6611,0.26636,-3.88692,0.68138
666.589,30.76035,0.26773,-3.88661,0.67914
669.589,30.85973,0.27383,-3.88661,0.6769
672.589,30.95917,0.27295,-3.88793,0.67466
675.589,31.0586,0.27948,-3.88738,0.67242
678.589,31.15798,0.27818,-3.88858,0.67017
681.589,31.25745,0.28229,-3.88858,0.66793
684.589,31.35698,0.28288,-3.88858,0.66568
687.589,31.4566,0.28824,-3.88858,0.66343
690.589,31.5563,0.2888,-3.8899,0.66118
693.589,31.6561,0.29221,-3.88957,0.65893
696.589,31.756,0.2926,-3.88957,0.65668
699.589,31.856,0.29599,-3.88957,0.65443
702.589,31.9558,0.30142,-3.89036,0.65217
705.589,32.05598,0.30288,-3.88958,0.64992
708.589,32.15607,0.3103,-3.88958,0.64766
711.589,32.25626,0.31469,-3.88958,0.6454
714.589,32.35625,0.3153,-3.88958,0.64314
717.589,32.45643,0.32384,-3.8899,0.64089
720.589,32.55663,0.33808,-3.8899,0.63863
723.589,32.65704,0.34843,-3.8899,0.63637
726.589,32.75724,0.35896,-3.89089,0.6341
729.589,32.8575,0.36676,-3.89089,0.63184
732.589,32.9578,0.37957,-3.89089,0.62958
735.589,33.05816,0.3905,-3.89089,0.62731
738.589,33.1584,0.40145,-3.89154,0.62505
741.589,33.25886,0.41178,-3.89023,0.62278
743.789,33.3326,0.42101,-3.89155,0.62112