File: 01_Data/CPVC_Pipe/MCC/CPVC_Pipe_MCC_30K_min_211119_R2.txt
Sample ID:	C:\MCC\MCC Cal\Test\CPVC_Pipe_MCC_30K_min_211119_R2.txt
Sample Weight (mg):	4.59
Heating Rate (C/s):	0.5
Combustor Temp (C):	900
N2 Flow Rate (cc/min):	80
O2 Flow Rate (cc/min):	20
Calibration File:	C:\MCC\MCC Cal\Coeff1 JN10440_30_210304.txt.txt
T Correction Coefficients:	0	1.024463	0
Time Shift (s):	14
*
Time (s)	Temperature (C)	N2 flow rate (cc/min)	O2 flow rate (cc/min)	Flow Rate (cc/min)	Oxygen (%)	HRR (W/g)	Heating rate (C/s)
0.000	107.968	80.005	19.995	103.013	20.300	-0.274	-0.004
8.000	107.935	80.008	19.994	103.021	20.300	-0.255	0.020
16.000	108.009	80.006	19.993	103.067	20.293	0.196	0.036
24.000	108.238	80.004	19.995	103.081	20.288	0.580	0.047
32.000	108.685	80.006	19.994	103.110	20.284	0.846	0.033
40.000	109.468	80.006	19.994	103.195	20.266	2.096	0.125
48.000	110.689	80.006	19.994	103.262	20.263	2.331	0.198
56.001	112.383	80.005	19.994	103.270	20.255	2.928	0.258
64.000	114.557	80.007	19.994	103.302	20.251	3.176	0.292
72.000	117.118	80.006	19.993	103.307	20.248	3.393	0.360
80.000	119.975	80.006	19.994	103.308	20.246	3.522	0.389
88.000	123.214	80.006	19.995	103.302	20.250	3.263	0.421
96.001	126.625	80.007	19.994	103.309	20.244	3.680	0.460
104.000	130.322	80.004	19.994	103.305	20.246	3.502	0.487
112.000	134.013	80.004	19.993	103.293	20.246	3.509	0.473
120.000	137.911	80.006	19.996	103.295	20.248	3.414	0.503
128.001	141.800	80.004	19.995	103.258	20.245	3.601	0.472
136.000	145.866	80.003	19.993	103.289	20.249	3.321	0.527
144.000	149.888	80.007	19.995	103.274	20.251	3.153	0.541
152.000	153.934	80.005	19.994	103.256	20.258	2.721	0.536
160.000	157.953	80.006	19.994	103.258	20.256	2.824	0.498
168.000	162.016	80.008	19.994	103.289	20.259	2.631	0.499
176.000	166.054	80.007	19.994	103.278	20.256	2.840	0.500
184.000	170.031	80.006	19.994	103.246	20.253	3.050	0.473
192.000	173.940	80.004	19.995	103.250	20.255	2.887	0.474
200.000	177.871	80.006	19.995	103.227	20.253	3.012	0.465
208.000	181.811	80.004	19.994	103.236	20.250	3.257	0.528
216.000	185.717	80.005	19.997	103.237	20.256	2.818	0.524
224.000	189.617	80.008	19.994	103.234	20.250	3.248	0.496
232.000	193.502	80.006	19.993	103.242	20.249	3.336	0.463
240.001	197.378	80.007	19.994	103.222	20.245	3.567	0.495
248.001	201.242	80.009	19.993	103.233	20.247	3.440	0.469
256.000	205.178	80.007	19.992	103.238	20.243	3.768	0.510
264.000	209.230	80.006	19.995	103.239	20.239	4.027	0.505
272.000	213.184	80.005	19.994	103.228	20.247	3.472	0.522
280.000	217.137	80.005	19.994	103.234	20.239	4.001	0.484
288.000	221.151	80.007	19.994	103.226	20.234	4.397	0.489
296.000	225.186	80.005	19.995	103.219	20.225	5.018	0.525
304.000	229.130	80.006	19.996	103.215	20.220	5.353	0.505
312.000	233.167	80.007	19.993	103.207	20.212	5.925	0.506
320.000	237.128	80.006	19.993	103.217	20.207	6.283	0.514
328.000	241.108	80.008	19.993	103.216	20.198	6.890	0.515
336.000	244.980	80.007	19.993	103.221	20.210	6.049	0.478
344.000	248.998	80.005	19.993	103.238	20.227	4.876	0.474
352.000	253.020	80.004	19.993	103.247	20.238	4.076	0.479
360.000	256.995	80.006	19.993	103.221	20.246	3.495	0.452
368.000	260.953	80.004	19.994	103.217	20.247	3.455	0.470
376.000	264.969	80.005	19.995	103.220	20.249	3.334	0.504
384.000	268.936	80.008	19.994	103.238	20.244	3.645	0.494
392.000	273.014	80.005	19.994	103.235	20.247	3.454	0.494
400.001	277.011	80.005	19.995	103.261	20.245	3.601	0.466
408.000	281.064	80.005	19.993	103.275	20.236	4.263	0.532
416.000	285.043	80.006	19.994	103.280	20.230	4.661	0.478
424.000	289.099	80.005	19.994	103.299	20.219	5.441	0.491
432.000	293.142	80.006	19.994	103.326	20.208	6.199	0.519
440.000	297.167	80.006	19.994	103.337	20.195	7.089	0.528
448.000	301.143	80.003	19.993	103.370	20.178	8.309	0.502
456.000	305.140	80.005	19.996	103.402	20.159	9.622	0.504
464.000	309.190	80.005	19.993	103.405	20.135	11.312	0.493
472.000	313.224	80.006	19.993	103.391	20.133	11.505	0.491
480.000	317.186	80.004	19.994	103.346	20.124	12.060	0.500
488.000	321.240	80.007	19.996	103.282	20.128	11.814	0.470
496.000	325.216	80.007	19.994	103.053	20.151	10.186	0.463
504.000	329.203	80.007	19.994	102.982	20.168	8.985	0.481
512.000	333.207	80.007	19.994	103.075	20.159	9.657	0.488
520.000	337.174	80.005	19.994	103.231	20.146	10.555	0.463
528.000	341.177	80.006	19.993	103.335	20.150	10.311	0.486
536.000	345.185	80.006	19.993	103.393	20.154	9.978	0.508
544.000	349.150	80.007	19.994	103.409	20.162	9.442	0.499
552.000	353.182	80.006	19.995	103.405	20.174	8.569	0.491
560.000	357.212	80.003	19.994	103.396	20.184	7.905	0.515
568.000	361.172	80.006	19.995	103.380	20.193	7.290	0.500
576.001	365.226	80.005	19.994	103.370	20.196	7.054	0.536
584.000	369.234	80.004	19.995	103.366	20.202	6.651	0.471
592.000	373.259	80.000	19.994	103.357	20.200	6.755	0.495
600.000	377.268	80.005	19.994	103.335	20.207	6.280	0.530
608.000	381.336	80.006	19.995	103.330	20.204	6.488	0.597
616.000	385.230	80.006	19.994	103.330	20.208	6.207	0.476
624.000	389.211	80.008	19.994	103.327	20.211	5.956	0.468
632.000	393.225	80.005	19.994	103.305	20.211	6.021	0.563
640.000	397.225	80.005	19.994	103.301	20.214	5.770	0.484
648.000	401.249	80.007	19.993	103.304	20.214	5.767	0.488
656.000	405.238	80.008	19.994	103.295	20.217	5.578	0.529
664.000	409.253	80.005	19.995	103.303	20.216	5.614	0.518
672.000	413.316	80.005	19.995	103.292	20.215	5.674	0.472
680.000	417.392	80.005	19.995	103.277	20.216	5.662	0.545
688.000	421.403	80.007	19.993	103.257	20.211	5.963	0.514
696.000	425.396	80.003	19.994	103.253	20.207	6.251	0.481
704.001	429.476	80.007	19.995	103.255	20.206	6.360	0.531
712.000	433.541	80.006	19.994	103.256	20.198	6.893	0.533
720.000	437.628	80.005	19.994	103.255	20.190	7.488	0.525
728.000	441.673	80.009	19.993	103.256	20.177	8.390	0.518
736.000	445.682	80.008	19.995	103.244	20.169	8.958	0.494
744.000	449.707	80.005	19.995	103.250	20.156	9.824	0.505
752.000	453.775	80.004	19.994	103.235	20.146	10.519	0.487
760.000	457.845	80.006	19.995	103.225	20.134	11.393	0.496
768.000	461.992	80.004	19.995	103.249	20.128	11.787	0.536
776.000	466.029	80.004	19.995	103.230	20.125	12.013	0.529
784.000	470.077	80.008	19.994	103.222	20.122	12.209	0.515
792.000	474.158	80.003	19.993	103.216	20.136	11.255	0.520
800.000	478.141	80.005	19.994	103.205	20.146	10.511	0.501
808.000	482.131	80.006	19.994	103.247	20.168	8.987	0.485
816.000	486.123	80.009	19.996	103.203	20.178	8.326	0.493
824.000	490.035	80.005	19.995	103.215	20.196	7.024	0.505
832.000	493.992	80.004	19.995	103.214	20.204	6.450	0.497
840.000	498.044	80.003	19.995	103.215	20.206	6.336	0.485
848.000	502.069	80.002	19.995	103.217	20.217	5.550	0.498
856.000	506.140	80.004	19.995	103.224	20.221	5.273	0.531
864.000	510.383	80.005	19.995	103.189	20.221	5.264	0.495
872.000	514.703	80.006	19.993	103.189	20.226	4.951	0.563
880.000	519.134	80.006	19.995	103.211	20.225	5.027	0.546
888.000	523.589	80.007	19.995	103.208	20.230	4.653	0.527
896.000	528.061	80.007	19.993	103.207	20.236	4.199	0.587
904.000	532.469	80.006	19.994	103.203	20.243	3.717	0.531
912.000	536.922	80.004	19.994	103.197	20.241	3.858	0.529
920.000	541.268	80.004	19.995	103.207	20.239	4.001	0.500
928.000	545.572	80.004	19.994	103.183	20.240	3.937	0.525
936.000	549.872	80.003	19.995	103.184	20.241	3.865	0.538
944.000	554.143	80.005	19.995	103.183	20.243	3.716	0.546
952.000	558.393	80.007	19.994	103.201	20.245	3.575	0.506
960.000	562.525	80.005	19.993	103.173	20.245	3.575	0.498
968.000	566.658	80.007	19.993	103.163	20.246	3.520	0.508
976.000	570.649	80.005	19.993	103.177	20.247	3.489	0.503
984.000	574.645	80.004	19.993	103.184	20.245	3.596	0.496
992.000	578.623	80.004	19.994	103.173	20.249	3.299	0.495
1000.000	582.657	80.006	19.995	103.178	20.252	3.138	0.517
1008.000	586.697	80.005	19.994	103.205	20.250	3.227	0.510
1016.000	590.659	80.005	19.995	103.164	20.254	2.964	0.480
1024.000	594.651	80.005	19.994	103.188	20.254	2.987	0.511
1032.000	598.584	80.005	19.995	103.157	20.253	3.008	0.491
1040.000	602.507	80.003	19.995	103.187	20.258	2.696	0.460
1048.000	606.513	80.006	19.994	103.168	20.261	2.482	0.491
1056.000	610.369	80.008	19.994	103.161	20.261	2.486	0.495
1064.000	614.319	80.005	19.993	103.175	20.261	2.452	0.496
1072.000	618.278	80.005	19.994	103.179	20.264	2.250	0.514
1080.000	622.217	80.005	19.995	103.172	20.270	1.860	0.487
1088.000	626.154	80.004	19.993	103.172	20.261	2.443	0.498
1096.000	630.142	80.004	19.994	103.178	20.266	2.099	0.485
1104.000	634.256	80.005	19.995	103.177	20.264	2.263	0.509
1112.000	638.446	80.007	19.995	103.165	20.264	2.252	0.514
1120.000	642.637	80.005	19.993	103.145	20.266	2.105	0.532
1128.001	646.780	80.005	19.995	103.164	20.271	1.753	0.521
1136.000	650.963	80.005	19.996	103.181	20.271	1.787	0.535
1144.000	655.191	80.004	19.994	103.168	20.273	1.603	0.521
1152.001	659.301	80.005	19.993	103.179	20.270	1.854	0.534
1160.000	663.439	80.005	19.994	103.172	20.276	1.448	0.504
1168.000	667.476	80.004	19.994	103.161	20.272	1.685	0.503
1176.000	671.541	80.003	19.994	103.175	20.278	1.288	0.517
1184.000	675.609	80.006	19.994	103.152	20.273	1.614	0.467
1192.000	679.694	80.007	19.995	103.149	20.273	1.647	0.539
1200.000	683.694	80.006	19.995	103.147	20.273	1.637	0.502
1208.001	687.730	80.006	19.994	103.149	20.274	1.583	0.470
1216.000	691.714	80.007	19.995	103.138	20.273	1.633	0.510
1224.000	695.799	80.003	19.995	103.152	20.272	1.709	0.506
1232.001	699.912	80.006	19.995	103.144	20.275	1.521	0.515
1240.000	703.966	80.005	19.994	103.158	20.277	1.372	0.511
1248.000	707.984	80.004	19.994	103.173	20.275	1.467	0.510
1256.000	712.018	80.004	19.995	103.150	20.274	1.570	0.497
1264.000	716.041	80.004	19.994	103.143	20.275	1.459	0.508
1272.000	720.001	80.007	19.994	103.140	20.273	1.612	0.517
1280.000	723.863	80.006	19.994	103.127	20.270	1.835	0.476
1288.000	727.823	80.005	19.995	103.155	20.276	1.439	0.505
1296.000	731.757	80.006	19.994	103.143	20.272	1.686	0.512
1304.001	735.755	80.005	19.995	103.140	20.281	1.102	0.519
1312.000	739.730	80.004	19.994	103.168	20.272	1.677	0.519
1320.001	743.719	80.003	19.995	103.135	20.277	1.368	0.502