File: 01_Data/Asphalt_Shingle/Cone/Asphalt_Shingle_Cone_HF75Scan_220415_R2.csv
Names,Time,Stack TC,Smoke TC,Exh Press,Smoke Comp,Smoke Meas,CO Meter,CO2 Meter,O2 Meter,Sample Mass,Ext Coeff,Start Test,Flame Verif
Chan Gain,,500,500,1,1,1,1,1,1,1,1,1.0,1.0
Offset,,0,0,0.134662,0,0,0,0,0,0,0,0.0,0.0
Gain,,1,1,25.011,14.0001,15.1165,1,1,1,1.00131,1.00941,1.0,1.0
Units,sec,C,C,Pa,%,%,%,%,%,g,/m,,
Baseline,,45.0921,46.6954,137.929,105.385,103.351,0.000280276,0.0435808,21.0143,-838.806,0.172578,,
8,1.75,42.4607,43.8046,134.176,105.247,103.304,0.0004458,0.0454039,21.0128,-306.211,0.164981,0.0,0.0
16,3.75,42.0087,43.8776,136.549,105.218,103.258,0.000446519,0.0459284,21.0122,-306.151,0.166532,0.0,0.0
24,5.75,42.2096,44.1243,139.078,105.196,102.587,0.000471324,0.046543,21.0119,-306.191,0.222367,0.0,0.0
32,7.75,42.5628,44.1814,136.517,105.174,102.706,0.000411294,0.0465643,21.0118,-306.231,0.210227,0.0,0.0
40,9.75,42.6924,43.8993,137.41,105.149,101.984,0.000385353,0.0462775,21.0117,-306.251,0.270566,0.0,0.0
48,11.75,42.4581,44.6798,132.711,105.127,101.145,0.000649324,0.0465258,21.0061,-306.261,0.341924,0.0,0.0
56,13.75,42.954,44.3285,136.55,105.091,103.103,0.00115905,0.054724,20.9793,-306.171,0.16907,0.0,1.0
64,15.75,43.1937,44.516,133.08,105.062,102.553,0.00213586,0.0810296,20.9228,-306.381,0.214051,0.0,1.0
72,17.75,43.2906,44.9646,128.134,105.043,91.3163,0.00364687,0.129391,20.8628,-306.511,1.24,0.0,1.0
80,19.75,43.936,45.3565,118.228,105.021,68.6826,0.00846861,0.200749,20.7103,-306.651,3.76015,0.0,1.0
88,21.75,45.301,46.7882,110.278,104.996,54.7125,0.0145227,0.31827,20.4912,-306.872,5.77164,0.0,0.0
96,23.75,47.9713,49.1273,109.89,104.955,46.2754,0.0225435,0.484145,20.1682,-307.182,7.25114,0.0,0.0
104,25.75,51.284,52.5924,109.701,104.934,51.0108,0.0282264,0.639292,19.924,-307.522,6.3867,0.0,0.0
112,27.75,54.9159,56.4352,110.075,104.918,48.6973,0.0322415,0.733947,19.7702,-307.813,6.79627,0.0,0.0
120,29.75,57.821,60.2487,104.522,104.923,46.214,0.0354325,0.812316,19.6318,-308.123,7.26019,0.0,0.0
128,31.75,61.3383,63.8861,102.591,104.935,39.3837,0.0388601,0.883589,19.4919,-308.504,8.6773,0.0,0.0
136,33.75,64.8177,67.8252,99.7764,104.935,41.992,0.0425746,0.951636,19.3562,-308.814,8.10945,0.0,0.0
144,35.75,68.8743,71.9134,97.2851,104.943,36.2546,0.046615,1.02889,19.2264,-309.235,9.41098,0.0,0.0
152,37.75,72.7459,76.4588,100.741,104.95,37.5011,0.0517964,1.12794,19.0658,-309.645,9.11231,0.0,0.0
160,39.75,76.6975,81.1225,91.5193,104.969,33.8276,0.0565152,1.23186,18.8738,-310.046,10.0267,0.0,0.0
168,41.75,81.0748,86.2002,90.0217,104.981,30.7474,0.059608,1.32407,18.7435,-310.526,10.8731,0.0,0.0
176,43.75,85.4961,91.357,97.7308,104.986,34.67,0.0604657,1.36519,18.6871,-310.947,9.81038,0.0,0.0
184,45.75,89.3368,95.7694,94.4487,104.997,34.8517,0.0588151,1.35575,18.7108,-311.367,9.76502,0.0,0.0
192,47.75,92.5543,99.9708,108.305,105,41.1598,0.054133,1.27422,18.907,-311.718,8.29224,0.0,0.0
200,49.75,95.0951,103.324,110.501,105.022,45.511,0.0460362,1.09549,19.2426,-311.958,7.40425,0.0,0.0
208,51.75,95.3777,104.015,119.702,105.028,63.502,0.0350119,0.869898,19.6195,-312.128,4.45521,0.0,0.0
216,53.75,94.7941,103.361,122.742,105.04,78.5931,0.0249134,0.668481,20.0109,-312.229,2.56829,0.0,0.0
224,55.75,93.5915,102.638,124.564,105.049,92.0359,0.0169093,0.50427,20.2954,-312.289,1.171,0.0,0.0
232,57.75,92.5971,100.95,128.717,105.081,100.148,0.0120416,0.382517,20.4726,-312.329,0.425783,0.0,0.0
240,59.75,90.6436,99.0753,131.514,105.082,102.625,0.00850812,0.287602,20.6368,-312.379,0.209532,0.0,0.0
248,61.75,88.9262,97.3652,132.335,105.107,103.115,0.00701137,0.224884,20.7619,-312.399,0.169371,0.0,0.0
256,63.75,86.8488,95.3993,134.554,105.121,103.295,0.00667284,0.178811,20.8297,-312.429,0.155159,0.0,0.0
264,65.75,85.1229,93.3107,136.817,105.133,103.455,0.0066483,0.153414,20.8638,-312.449,0.142459,0.0,0.0
272,67.75,82.9786,91.0019,134.163,105.159,103.779,0.00668371,0.13928,20.8825,-312.539,0.116976,0.0,0.0
280,69.75,81.495,89.5459,130.289,105.179,104.175,0.00665222,0.13113,20.8957,-312.519,0.0848887,0.0,0.0
288,71.75,80.1482,88.2538,134.45,105.19,103.548,0.00655741,0.126337,20.9044,-312.579,0.139311,0.0,0.0
296,73.75,77.9392,86.3966,134.215,105.21,103.757,0.00644132,0.123627,20.9091,-312.579,0.123149,0.0,0.0
304,75.75,77.1361,84.7216,135.022,105.216,103.72,0.00632342,0.122055,20.913,-312.659,0.126802,0.0,0.0
312,77.75,75.7861,83.8794,137.401,105.234,103.546,0.00614673,0.12075,20.9159,-312.669,0.143132,0.0,0.0
320,79.75,74.7668,81.7967,132.451,105.268,103.824,0.005998,0.119842,20.9173,-312.689,0.122292,0.0,0.0
328,81.75,73.6955,80.8392,133.574,105.287,103.875,0.00587989,0.119359,20.9187,-312.759,0.119544,0.0,0.0
336,83.75,72.2131,79.2874,134.413,105.298,103.709,0.00567985,0.118974,20.9207,-312.819,0.134649,0.0,0.0
344,85.75,71.515,78.5568,131.797,105.334,103.345,0.00554214,0.118586,20.9217,-312.809,0.168793,0.0,0.0
352,87.75,70.0515,77.6228,135.35,105.334,104.048,0.00546313,0.118195,20.9224,-312.849,0.108761,0.0,0.0
360,89.75,69.7973,76.1456,133.103,105.353,103.833,0.0053497,0.117678,20.9231,-312.899,0.12869,0.0,0.0
368,91.75,67.9059,75.3987,135.553,105.367,104.554,0.00513838,0.117344,20.9235,-312.879,0.0686031,0.0,0.0
376,93.75,67.4132,74.2156,135.327,105.385,103.964,0.00480189,0.116686,20.9251,-312.94,0.120146,0.0,0.0
384,95.75,66.7463,73.5551,134.607,105.411,104.053,0.00456874,0.116142,20.927,-312.99,0.114827,0.0,0.0
392,97.75,66.1448,72.8104,134.22,105.424,103.616,0.00446947,0.116151,20.9277,-312.96,0.153201,0.0,0.0
400,99.75,65.3904,71.649,135.367,105.443,103.823,0.00442991,0.1163,20.9281,-313.03,0.137133,0.0,0.0
408,101.75,64.9621,70.6008,139.052,105.453,103.558,0.00436859,0.116666,20.9285,-313.05,0.16053,0.0,0.0
416,103.75,63.5899,69.94,134.251,105.47,103.698,0.00430438,0.116785,20.929,-313.08,0.150096,0.0,0.0
424,105.75,62.839,69.2576,136.776,105.488,103.944,0.00422816,0.117598,20.9295,-313.12,0.130596,0.0,0.0
432,107.75,62.1532,68.1601,137.513,105.514,103.765,0.00414068,0.117881,20.9297,-313.18,0.14793,0.0,0.0
440,109.75,61.7841,68.0679,132.003,105.523,104.18,0.00404803,0.117541,20.9302,-313.23,0.113401,0.0,0.0
448,111.75,61.5939,66.5599,137.871,105.533,103.643,0.00396313,0.117351,20.9313,-313.25,0.159981,0.0,0.0
456,113.75,61.6322,66.2243,133.667,105.564,103.466,0.00401135,0.117497,20.932,-313.31,0.177749,0.0,0.0
464,115.75,59.9946,65.2022,137.354,105.576,104.166,0.00415164,0.117426,20.9324,-313.29,0.118986,0.0,0.0
472,117.75,59.1874,65.7064,137.646,105.588,103.648,0.00427255,0.117454,20.9334,-313.33,0.164171,0.0,0.0
480,119.75,58.8974,64.4754,134.627,105.598,103.922,0.00438925,0.117574,20.9344,-313.41,0.141616,0.0,0.0
488,121.75,58.8895,64.4534,134.742,105.624,103.945,0.0044818,0.117831,20.9347,-313.46,0.141911,0.0,0.0
496,123.75,58.5549,63.3867,135.666,105.629,104.094,0.00456551,0.118259,20.9349,-313.48,0.129622,0.0,0.0
504,125.75,58.0131,63.0456,138.296,105.638,103.705,0.00454518,0.118662,20.935,-313.54,0.163512,0.0,0.0
512,127.75,57.6545,62.0956,132.886,105.656,103.832,0.00424679,0.118732,20.9351,-313.59,0.154231,0.0,0.0
520,129.75,57.0448,62.1807,133.871,105.676,103.83,0.00392886,0.118133,20.9363,-313.56,0.156039,0.0,0.0
528,131.75,56.6768,61.712,133.435,105.685,103.967,0.00375838,0.117431,20.9374,-313.61,0.14511,0.0,0.0
536,133.75,56.608,61.6125,134.698,105.687,103.848,0.00377631,0.116799,20.94,-313.63,0.155467,0.0,0.0
544,135.75,55.7378,60.9014,136.053,105.691,103.996,0.00380583,0.116048,20.9411,-313.65,0.143211,0.0,0.0
552,137.75,56.405,60.6294,132.342,105.71,103.862,0.00378736,0.115358,20.9412,-313.69,0.156109,0.0,0.0
560,139.75,55.8952,60.0456,137.791,105.71,103.931,0.00374421,0.114795,20.9413,-313.731,0.150326,0.0,0.0
568,141.75,55.1577,59.536,136.304,105.721,104.179,0.00371874,0.114511,20.9424,-313.721,0.130101,0.0,0.0
576,143.75,55.0698,59.4432,134.044,105.739,104.125,0.00364543,0.114137,20.9431,-313.761,0.136229,0.0,0.0
584,145.75,55.1423,59.3161,135.955,105.749,104.135,0.00346294,0.114183,20.9425,-313.831,0.136188,0.0,0.0
592,147.75,54.3773,58.7881,133.115,105.755,104.723,0.00334379,0.114209,20.9418,-313.821,0.0868915,0.0,0.0
600,149.75,54.2051,58.3013,136.642,105.77,103.895,0.00334751,0.114033,20.9416,-313.891,0.158326,0.0,0.0
608,151.75,54.1463,57.6658,135.434,105.777,104.419,0.00333067,0.113564,20.9414,-313.921,0.114422,0.0,0.0
616,153.75,53.5109,57.3628,138.003,105.787,103.893,0.00329481,0.113104,20.9423,-313.921,0.159953,0.0,0.0
624,155.75,53.4335,57.4651,136.935,105.794,104.096,0.00328005,0.112645,20.9442,-313.971,0.143314,0.0,0.0
632,157.75,52.8635,56.9877,137.224,105.808,104.095,0.00322195,0.111677,20.9457,-314.001,0.144534,0.0,0.0
640,159.75,53.1288,56.7694,136.04,105.828,104.653,0.00305627,0.111171,20.946,-314.031,0.0987877,0.0,0.0
648,161.75,53.0396,56.4904,138.16,105.814,104.325,0.00289624,0.110784,20.946,-314.021,0.125513,0.0,0.0
656,163.75,53.1841,56.6082,134.841,105.821,104.472,0.00283353,0.110631,20.9471,-314.051,0.113607,0.0,0.0
664,165.75,52.6561,56.1283,131.489,105.816,104.647,0.00281242,0.110618,20.9473,-314.051,0.0983691,0.0,0.0
672,167.75,52.9159,55.9679,134.055,105.825,103.957,0.00280269,0.110001,20.9474,-314.141,0.157633,0.0,0.0
680,169.75,52.578,56.3081,137.359,105.821,104.277,0.00281913,0.109845,20.9474,-314.181,0.130162,0.0,0.0
688,171.75,52.6464,56.1084,134.432,105.813,103.985,0.00282691,0.10995,20.9474,-314.151,0.154235,0.0,0.0
696,173.75,52.2936,55.3686,134.745,105.817,103.818,0.00274629,0.10991,20.9487,-314.211,0.1689,0.0,0.0
704,175.75,52.5223,55.5262,132.934,105.812,104.425,,0.109054,,-314.211,0.116842,0.0,0.0
712,177.75,51.8485,55.1808,134.678,105.814,103.93,,,,-314.281,0.159021,0.0,0.0
720,179.75,51.6305,55.1135,134.607,105.82,104.134,,,,-314.251,0.142199,0.0,0.0
728,181.75,51.5905,54.481,138.139,105.809,104.503,,,,-314.321,0.109987,0.0,0.0
736,183.75,51.3473,54.3754,133.975,105.811,104.22,,,,-314.311,0.134119,0.0,0.0
741,185,51.6539,54.2922,134.564,105.819,104.251,,,,-314.351,0.132214,0.0,0.0