File: 01_Data/Asphalt_Shingle/Cone/Asphalt_Shingle_Cone_HF50Scalar_220415_R3.csv
LABORATORY,FSRI
TEST IDENT,Shingles_HF50_3
OPERATOR,Dow
MATERIAL,Fiberglass asphalt shingles
ORIENTATION,Horizontal
HEAT FLUX,50
SURF AREA,0.01
C FACTOR,0.0397182
SPEC HOLDER DIFF,-566
SPECIMEN MASS,36.25
SCAN TIME,0.25
O2 DELAY TIME,11
CO DELAY TIME,11
CO2 DELAY TIME,8
FLOW FACTOR,1
SCAN COUNT,845
TIME TO IGN,26
END OF TEST SCAN,365
END OF TEST TIME,91.25
TEST STATUS,1
PRE TEST CMT,Dimensions: 101.56 x 100.75 x 2.49 mm