File: 01_Data/Asphalt_Shingle/Cone/Asphalt_Shingle_Cone_HF25Scan_220415_R3.csv
Names,Time,Stack TC,Smoke TC,Exh Press,Smoke Comp,Smoke Meas,CO Meter,CO2 Meter,O2 Meter,Sample Mass,Ext Coeff,Start Test,Flame Verif
Chan Gain,,500,500,1,1,1,1,1,1,1,1,1.0,1.0
Offset,,0,0,0.133554,0,0,0,0,0,0,0,0.0,0.0
Gain,,1,1,25.011,13.1255,13.9488,1,1,1,1.0009,1.00465,1.0,1.0
Units,sec,C,C,Pa,%,%,%,%,%,g,/m,,
Baseline,,20.2509,20.8088,143.072,99.2758,95.2132,0.000783376,0.0442448,21.0135,-834.056,0.36824,,
17,4,19.0241,19.507,142.361,99.1312,95.0503,0.000765634,0.0586585,20.9914,-300.791,0.370476,0.0,0.0
34,8.25,19.4911,19.8418,142.121,99.1072,94.8728,0.000649763,0.0552734,20.9967,-300.791,0.384811,0.0,0.0
51,12.5,19.2672,20.0551,141.242,99.0864,95.1282,0.000379594,0.0515002,21.0029,-300.791,0.359266,0.0,0.0
68,16.75,19.55,19.7565,142.436,99.0732,95.0779,0.000431689,0.0500893,21.0056,-300.801,0.362745,0.0,0.0
85,21,19.5459,20.1501,141.618,99.0503,95.0805,0.00034309,0.0492773,21.0079,-300.801,0.360478,0.0,0.0
102,25.25,19.4775,20.2729,145.284,99.0147,95.0826,0.000391309,0.0468208,21.0108,-300.821,0.357108,0.0,0.0
119,29.5,19.5612,20.0378,142.122,99.0035,95.0447,0.000655134,0.0449143,21.0126,-300.841,0.359621,0.0,0.0
136,33.75,19.5943,20.206,142.625,98.9874,94.8936,0.00070727,0.0438116,21.0142,-300.851,0.372218,0.0,0.0
153,38,19.5364,19.9827,139.917,98.9622,94.4513,0.00069166,0.043589,21.0143,-300.861,0.411143,0.0,0.0
170,42.25,19.5335,19.8068,140.456,98.9534,94.6123,0.000892664,0.0434816,21.014,-300.871,0.395357,0.0,0.0
187,46.5,20.1788,20.4367,144.462,98.9418,94.2342,0.00109781,0.0432025,21.0149,-300.861,0.429603,0.0,0.0
204,50.75,19.6238,20.2598,141.711,98.9318,94.104,0.00121688,0.0429688,21.016,-300.891,0.440902,0.0,0.0
221,55,19.8998,20.2899,142.394,98.9205,93.8107,0.00124924,0.042725,21.0162,-300.911,0.467412,0.0,0.0
238,59.25,19.7549,20.057,143.811,98.9081,93.8911,0.000899413,0.0425887,21.0144,-300.891,0.458751,0.0,0.0
255,63.5,19.9828,20.5109,141.841,98.9594,94.1572,0.000650475,0.0425959,21.0152,-300.931,0.43838,0.0,0.0
272,67.75,20.1027,20.8309,144.134,99.0471,94.0125,0.00060026,0.0442171,21.0152,-300.931,0.459746,0.0,0.0
289,72,20.069,20.4574,143.462,99.098,93.471,0.000693614,0.0479867,21.0093,-300.961,0.515176,0.0,0.0
306,76.25,20.1318,20.5005,142.85,99.1372,93.872,0.00091689,0.0512015,21.0041,-300.971,0.480939,0.0,0.0
323,80.5,20.2782,20.9305,145.163,99.1549,93.72,0.00122122,0.0599876,20.9918,-301.021,0.496785,0.0,0.0
340,84.75,20.1355,20.7212,141.302,99.1597,93.3799,0.00138514,0.0673904,20.9789,-301.041,0.529253,0.0,0.0
357,89,20.3738,21.2626,141.86,99.1433,94.814,0.00187751,0.080073,20.9584,-301.171,0.393476,0.0,1.0
374,93.25,20.931,21.3221,136.492,99.1192,94.7787,0.00202324,0.101539,20.9253,-301.151,0.394623,0.0,1.0
391,97.5,21.2646,21.9433,140.661,99.0852,90.3179,0.00242282,0.122209,20.8922,-301.231,0.816445,0.0,0.0
408,101.75,22.4769,22.9855,137.11,99.0704,79.9138,0.00386653,0.150105,20.8356,-301.331,1.8937,0.0,0.0
425,106,23.3984,23.6495,130.4,99.0587,72.9279,0.00578221,0.191051,20.7645,-301.472,2.69883,0.0,0.0
442,110.25,24.9862,25.7276,131.647,99.0804,74.468,0.00644293,0.224791,20.7157,-301.662,2.51658,0.0,0.0
459,114.5,26.5617,26.9493,132.826,99.1244,76.2423,0.00600958,0.207936,20.7369,-301.812,2.31299,0.0,0.0
476,118.75,26.5686,28.6796,134.877,99.1364,77.5951,0.00599046,0.195843,20.7554,-301.962,2.15906,0.0,0.0
493,123,28.2726,28.6806,135.706,99.1825,72.1446,0.00675779,0.208071,20.7271,-302.122,2.805,0.0,0.0
510,127.25,29.1065,30.2719,131.38,99.2714,70.2427,0.00783763,0.235555,20.6821,-302.332,3.04835,0.0,0.0
527,131.5,30.5706,31.5633,125.975,99.3519,68.3352,0.00836302,0.2626,20.6375,-302.533,3.29812,0.0,0.0
544,135.75,31.996,32.8419,128.938,99.4232,65.3286,0.00940823,0.287898,20.5934,-302.793,3.70097,0.0,0.0
561,140,33.6938,34.5295,126.7,99.5058,65.1868,0.0103649,0.306041,20.5606,-303.053,3.72743,0.0,0.0
578,144.25,35.1345,36.673,127.928,99.5827,66.2978,0.0105305,0.320048,20.5354,-303.303,3.5853,0.0,0.0
595,148.5,36.6522,37.9215,126.136,99.6247,64.9889,0.0108827,0.323974,20.5284,-303.553,3.76476,0.0,0.0
612,152.75,37.2116,39.2706,130.876,99.6772,64.1869,0.0105819,0.316909,20.5415,-303.804,3.87883,0.0,0.0
629,157,38.348,40.4734,124.649,99.7044,68.6838,0.00944435,0.306172,20.5593,-304.064,3.28448,0.0,0.0
646,161.25,39.3414,40.8042,132.772,99.7213,67.113,0.00881557,0.30348,20.5653,-304.294,3.48985,0.0,0.0
663,165.5,39.0487,41.8802,128.781,99.7357,67.4868,0.00853404,0.303916,20.5664,-304.514,3.44219,0.0,0.0
680,169.75,40.0481,42.4048,128.466,99.7473,69.4185,0.00820732,0.300211,20.5726,-304.765,3.1945,0.0,0.0
697,174,40.6819,43.1968,130.261,99.7369,70.1247,0.00748725,0.290864,20.5922,-304.975,3.10438,0.0,0.0
714,178.25,40.8101,43.5194,135.239,99.7141,72.6273,0.00698325,0.27776,20.6142,-305.175,2.79333,0.0,0.0
731,182.5,40.6,44.0924,132.231,99.6852,73.2727,0.00632707,0.264144,20.6389,-305.365,2.71282,0.0,0.0
748,186.75,41.0605,43.4752,133.732,99.6395,75.1133,0.00603113,0.251661,20.6641,-305.545,2.49014,0.0,0.0
765,191,40.9006,43.1239,130.315,99.5682,75.4854,0.00597267,0.23653,20.6891,-305.705,2.44029,0.0,0.0
782,195.25,40.3003,43.4058,138.457,99.4945,78.6129,0.00583156,0.218772,20.721,-305.856,2.07599,0.0,0.0
799,199.5,39.6945,42.9798,136.188,99.4024,80.5638,0.00549659,0.20008,20.751,-305.976,1.85179,0.0,0.0
816,203.75,39.1569,42.7291,136.207,99.3143,82.4002,0.00528034,0.180734,20.7838,-306.106,1.64535,0.0,0.0
833,208,38.592,41.8777,139.222,99.1921,85.0326,0.0046797,0.160813,20.8226,-306.186,1.35737,0.0,0.0
850,212.25,38.2807,41.3783,137.186,99.1917,87.0155,0.00476966,0.143163,20.8518,-306.256,1.15419,0.0,0.0
867,216.5,37.1397,40.5799,138.994,99.229,89.8918,0.0046394,0.127322,20.8801,-306.316,0.870902,0.0,0.0
884,220.75,36.6452,39.2181,137.475,99.2814,91.6929,0.00444786,0.112721,20.9053,-306.366,0.700734,0.0,0.0
901,225,36.0579,38.4964,138.155,99.3367,92.7409,0.00422606,0.101291,20.922,-306.396,0.605482,0.0,0.0
918,229.25,34.8444,37.7155,137.225,99.39,93.4484,0.00428011,0.0913683,20.9368,-306.416,0.543234,0.0,0.0
935,233.5,34.0702,36.8491,140.633,99.4485,94.276,0.00441281,0.083472,20.9482,-306.456,0.470719,0.0,0.0
952,237.75,33.2762,35.8479,140.193,99.5182,94.651,0.00460511,0.0773391,20.96,-306.476,0.441906,0.0,0.0
969,242,32.7401,34.8074,140.603,99.5767,95.1354,0.00459027,0.0727889,20.9669,-306.486,0.402095,0.0,0.0
986,246.25,31.8525,34.1343,141.445,99.6255,95.035,0.0045191,0.0688366,20.9724,-306.526,0.415729,0.0,0.0
1003,250.5,30.6926,33.9989,140.851,99.6956,95.2171,0.00431859,0.0660216,20.9758,-306.536,0.405049,0.0,0.0
1020,254.75,29.9461,33.5215,140.852,99.7521,95.2827,0.00440976,0.0628439,20.9815,-306.546,0.403975,0.0,0.0
1037,259,29.5289,32.0498,141.76,99.8038,95.158,0.00456899,0.0600268,20.9871,-306.556,0.420082,0.0,0.0
1054,263.25,29.0478,31.3596,141.164,99.8591,95.5121,0.00466678,0.0578381,20.9889,-306.566,0.392223,0.0,0.0
1071,267.5,28.512,30.6201,137.415,99.8991,95.3121,0.00478433,0.0562862,20.9899,-306.576,0.414236,0.0,0.0
1088,271.75,27.8912,30.2665,138.394,99.9352,95.2252,0.0050605,0.0552712,20.9919,-306.586,0.425449,0.0,0.0
1105,276,27.5739,29.7371,139.559,99.9556,95.4491,0.00498074,0.0550755,20.9945,-306.586,0.406552,0.0,0.0
1122,280.25,27.3223,29.3852,144.805,99.9684,95.5424,0.00480857,0.0577989,20.9916,-306.616,0.399079,0.0,0.0
1139,284.5,26.2776,28.5178,140.828,99.9816,95.3287,0.0050739,0.0598268,20.9889,-306.606,0.419978,0.0,0.0
1156,288.75,26.0934,27.6384,140.322,99.9736,95.679,0.00510705,0.0591172,20.9902,-306.626,0.386943,0.0,0.0
1173,293,25.5158,27.4534,144.65,99.9688,95.9472,0.00525331,0.0575568,20.9917,-306.626,0.361853,0.0,0.0
1190,297.25,25.225,27.4658,140.468,99.9708,95.7246,0.00539009,0.056196,20.9925,-306.656,0.382502,0.0,0.0
1207,301.5,25.2463,26.9598,143.956,99.9336,95.4726,0.00535183,0.0556752,20.9943,-306.646,0.402449,0.0,0.0
1224,305.75,24.7024,26.3173,141.824,99.9384,95.8825,0.00520267,0.0553043,20.9954,-306.656,0.365114,0.0,0.0
1241,310,24.1126,25.4819,141.095,99.9223,95.7697,0.00500622,0.0551784,20.995,-306.636,0.374075,0.0,0.0
1258,314.25,24.0971,25.6534,141.474,99.8755,95.6956,0.00529482,0.0550178,20.9949,-306.656,0.376759,0.0,0.0
1275,318.5,24.3983,25.5927,145.146,99.8518,95.891,0.00531346,0.0551035,20.9948,-306.686,0.356698,0.0,0.0
1292,322.75,24.3879,24.6523,141.935,99.8198,95.5066,0.00560252,0.0552832,20.9944,-306.686,0.389267,0.0,0.0
1309,327,24.1557,24.6588,142.631,99.7853,95.831,0.00574749,0.0553719,20.9945,-306.696,0.356346,0.0,0.0
1326,331.25,23.8598,24.7422,141.854,99.7497,95.8191,0.00559137,0.0555452,20.9962,-306.716,0.354293,0.0,0.0
1343,335.5,23.1238,24.6639,140.539,99.7177,95.4483,0.00566208,0.0557205,20.9946,-306.716,0.385628,0.0,0.0
1360,339.75,23.6003,24.3816,140.669,99.7016,95.6275,0.00584191,0.0558278,20.9933,-306.736,0.367681,0.0,0.0
1377,344,23.4285,24.213,142.285,99.6652,95.5266,0.00578436,0.0559762,20.9939,-306.756,0.373761,0.0,0.0
1394,348.25,23.5126,24.019,140.76,99.6307,95.6624,0.00601114,0.0561466,20.9921,-306.756,0.358195,0.0,0.0
1411,352.5,23.0753,24.1895,140.784,99.5783,95.1018,0.00623276,0.0561321,20.9917,-306.776,0.405352,0.0,0.0
1428,356.75,23.0734,23.8521,140.159,99.5202,95.3176,0.00631784,0.0563245,20.9916,-306.786,0.380233,0.0,0.0
1445,361,22.9635,24.2274,140.975,99.4869,95.275,0.00643197,0.0566389,20.9916,-306.796,0.381225,0.0,0.0
1462,365.25,22.5096,23.904,142.909,99.4361,95.453,0.00636334,0.0564127,20.9924,-306.806,0.360274,0.0,0.0
1479,369.5,22.8921,23.0767,143.118,99.3568,95.1129,0.00619406,0.0566379,20.9936,-306.826,0.384701,0.0,0.0
1496,373.75,22.4712,23.1641,140.469,99.2903,95.0418,0.00632281,0.0568128,20.9924,-306.846,0.38539,0.0,0.0
1513,378,22.1793,23.3802,141.34,99.231,95.2712,0.00647238,0.0568177,20.9932,-306.846,0.358878,0.0,0.0
1530,382.25,22.7738,23.4272,148.641,99.1573,94.877,0.00650602,0.0570811,20.9938,-306.866,0.388867,0.0,0.0
1547,386.5,22.4023,23.7637,143.217,99.0836,95.0741,0.00652334,0.0573809,20.9939,-306.866,0.364027,0.0,0.0
1564,390.75,22.5084,23.2437,141.999,99.0151,95.0877,,0.0576181,,-306.896,0.35667,0.0,0.0
1581,395,22.8937,23.6091,137.807,98.953,94.7676,,,,-306.906,0.380861,0.0,0.0
1598,399.25,22.7845,23.0674,140.756,98.8845,94.7276,,,,-306.937,0.37848,0.0,0.0
1605,401,22.2049,23.0478,137.707,98.8717,94.562,,,,-306.937,0.392756,0.0,0.0