File: 01_Data/Asphalt_Shingle/Cone/Asphalt_Shingle_Cone_HF50Scan_220415_R1.csv
Names,Time,Stack TC,Smoke TC,Exh Press,Smoke Comp,Smoke Meas,CO Meter,CO2 Meter,O2 Meter,Sample Mass,Ext Coeff,Start Test,Flame Verif
Chan Gain,,500,500,1,1,1,1,1,1,1,1,1.0,1.0
Offset,,0,0,0.134662,0,0,0,0,0,0,0,0.0,0.0
Gain,,1,1,25.011,14.0001,15.1165,1,1,1,1.00131,1.00941,1.0,1.0
Units,sec,C,C,Pa,%,%,%,%,%,g,/m,,
Baseline,,30.7903,32.0622,143.362,104.611,102.064,0.000665663,0.0446522,21.0111,-836.028,0.218208,,
9,2,28.947,30.296,145.865,104.642,102.205,0.00034838,0.046778,21.0124,-308.554,0.208704,0.0,0.0
18,4.25,28.7012,29.7045,142.52,104.642,101.831,0.000363767,0.046474,21.0128,-308.474,0.241136,0.0,0.0
27,6.5,28.7289,30.5446,144.031,104.654,102.067,0.000501854,0.0462107,21.013,-308.494,0.221598,0.0,0.0
36,8.75,28.6535,29.9154,142.453,104.679,102.225,0.000609395,0.0458799,21.013,-308.524,0.210019,0.0,0.0
45,11,29.0357,29.952,141.389,104.672,101.939,0.000659929,0.0455004,21.0131,-308.524,0.234325,0.0,0.0
54,13.25,29.1778,30.3193,142.971,104.692,101.517,0.000785683,0.04531,21.0131,-308.554,0.272765,0.0,0.0
63,15.5,29.1903,30.8637,144.508,104.716,101.469,0.000920315,0.0456443,21.0131,-308.544,0.278934,0.0,0.0
72,17.75,29.1476,30.3641,142.583,104.745,101.326,0.00100873,0.0462839,21.0136,-308.564,0.293842,0.0,0.0
81,20,29.6895,30.3255,148.689,104.764,100.978,0.00106469,0.0465939,21.0141,-308.594,0.325879,0.0,0.0
90,22.25,29.197,30.6194,144.508,104.796,100.345,0.00105568,0.0473857,21.0129,-308.624,0.384301,0.0,0.0
99,24.5,29.3242,30.718,147.022,104.823,99.3026,0.00123947,0.0503809,21.0083,-308.614,0.479014,0.0,0.0
108,26.75,29.2721,30.5577,142.732,104.838,100.121,0.00160803,0.0595969,20.9913,-308.664,0.407681,0.0,1.0
117,29,29.5539,31.2447,135.388,104.855,102.555,0.00206991,0.082632,20.9418,-308.754,0.196332,0.0,1.0
126,31.25,30.1809,31.4386,131.422,104.893,95.4437,0.00309685,0.124069,20.8742,-308.784,0.835883,0.0,1.0
135,33.5,31.0201,31.7155,134.533,104.909,83.8835,0.00541039,0.191582,20.744,-308.934,1.98047,0.0,1.0
144,35.75,31.2467,31.8078,126.84,104.918,72.7759,0.0080877,0.283613,20.5766,-309.105,3.23889,0.0,1.0
153,38,33.1629,34.1259,122.855,104.941,66.0752,0.0110796,0.362395,20.4601,-309.295,4.0961,0.0,0.0
162,40.25,34.8524,35.7317,119.119,104.974,66.6565,0.0138358,0.414539,20.3806,-309.475,4.02136,0.0,0.0
171,42.5,37.2496,38.3582,122.506,104.975,59.9083,0.0169671,0.455124,20.2997,-309.715,4.96653,0.0,0.0
180,44.75,39.1358,40.442,116.588,104.994,51.8301,0.0206869,0.511873,20.2002,-309.986,6.25067,0.0,0.0
189,47,40.9489,42.5326,111,105.015,47.8914,0.0248263,0.580428,20.0713,-310.276,6.95222,0.0,0.0
198,49.25,43.9527,45.3281,111.136,105.035,43.9817,0.0288447,0.652545,19.9262,-310.586,7.70805,0.0,0.0
207,51.5,46.9845,48.5018,111.795,105.056,49.5854,0.03183,0.716743,19.8163,-310.947,6.64793,0.0,0.0
216,53.75,50.0387,52.1065,108.611,105.096,47.7558,0.0345257,0.768952,19.7188,-311.247,6.98421,0.0,0.0
225,56,52.6783,55.132,107.113,105.121,43.3271,0.0372447,0.836161,19.5901,-311.648,7.84799,0.0,0.0
234,58.25,56.1695,58.935,107.982,105.131,42.6531,0.0401327,0.909311,19.4867,-312.028,7.98767,0.0,0.0
243,60.5,60.1652,63.1058,106.501,105.135,43.4766,0.042457,0.973035,19.3682,-312.459,7.81876,0.0,0.0
252,62.75,63.3477,66.8151,102.661,105.172,40.221,0.0434186,1.02524,19.2883,-312.869,8.51101,0.0,0.0
261,65,66.8873,71.021,110.494,105.192,40.3774,0.0431685,1.04799,19.2597,-313.22,8.47834,0.0,0.0
270,67.25,70.3361,74.9378,109.276,105.201,44.127,0.0416107,1.02428,19.298,-313.55,7.6928,0.0,0.0
279,69.5,73.032,78.1909,110.401,105.222,50.9121,0.0378315,0.943066,19.4628,-313.871,6.42809,0.0,0.0
288,71.75,74.8039,80.6353,117.695,105.238,59.6154,0.0321764,0.805519,19.7096,-314.141,5.03207,0.0,0.0
297,74,75.6595,81.823,121.059,105.238,65.1696,0.0254934,0.650139,19.978,-314.271,4.24334,0.0,0.0
306,76.25,75.4306,81.9197,127.72,105.249,76.3622,0.0185896,0.50762,20.2678,-314.441,2.84086,0.0,0.0
315,78.5,74.5389,81.067,134.621,105.271,88.0847,0.0131381,0.385974,20.4702,-314.492,1.57824,0.0,0.0
324,80.75,72.7363,79.3414,137.186,105.271,97.3231,0.00917838,0.296941,20.6138,-314.542,0.695082,0.0,0.0
333,83,72.2193,78.6908,137.845,105.262,101.751,0.00704386,0.225884,20.7429,-314.562,0.300384,0.0,0.0
342,85.25,70.15,76.7387,140.291,105.282,102.745,0.00639449,0.172003,20.8283,-314.562,0.215987,0.0,0.0
351,87.5,68.3316,74.9883,140.589,105.27,102.083,0.00664358,0.134878,20.8779,-314.582,0.27221,0.0,0.0
360,89.75,66.6612,72.5253,140.702,105.256,102.45,0.00748176,0.111387,20.9113,-314.602,0.239235,0.0,0.0
369,92,64.5941,70.9526,145,105.248,102.606,0.00819984,0.0987902,20.9323,-314.632,0.225082,0.0,0.0
378,94.25,62.623,68.6666,139.273,105.238,102.902,0.00845838,0.0935643,20.9416,-314.642,0.198774,0.0,0.0
387,96.5,61.6254,68.139,142.004,105.246,102.532,0.00850361,0.0919818,20.9459,-314.662,0.231314,0.0,0.0
396,98.75,59.9505,65.6661,139.561,105.222,102.678,0.00857041,0.0916737,20.9475,-314.702,0.21668,0.0,0.0
405,101,59.2119,65.1516,137.169,105.206,102.729,0.00852296,0.0925614,20.9482,-314.712,0.2109,0.0,0.0
414,103.25,58.0084,64.0413,141.861,105.206,102.732,0.00833692,0.0934978,20.9484,-314.722,0.210698,0.0,0.0
423,105.5,55.8703,62.6206,141.08,105.191,102.406,0.00809637,0.0940183,20.9485,-314.772,0.237519,0.0,0.0
432,107.75,55.6426,61.2266,138.438,105.167,102.536,0.00785037,0.0944635,20.9476,-314.802,0.224339,0.0,0.0
441,110,54.2005,59.6998,139.694,105.149,102.516,0.00768135,0.0957431,20.9467,-314.822,0.224541,0.0,0.0
450,112.25,53.4256,59.2344,140.256,105.141,102.553,0.00741711,0.0969916,20.9466,-314.832,0.220671,0.0,0.0
459,114.5,52.1105,58.1585,144.205,105.109,102.619,0.00714558,0.0977532,20.9467,-314.872,0.212314,0.0,0.0
468,116.75,51.4938,57.0357,141.001,105.081,103.05,0.0069785,0.0978992,20.9467,-314.902,0.172763,0.0,0.0
477,119,50.9861,56.2513,138.733,105.077,102.636,0.00685089,0.0983582,20.9467,-314.922,0.208069,0.0,0.0
486,121.25,49.7394,55.1408,141.006,105.078,102.752,0.00672128,0.0985106,20.9465,-314.912,0.198194,0.0,0.0
495,123.5,49.3713,54.3102,140.644,105.037,102.619,0.00674037,0.0987465,20.9461,-314.952,0.206194,0.0,0.0
504,125.75,48.9503,53.7913,136.714,105.012,102.449,0.00675656,0.0996152,20.9451,-315.002,0.218768,0.0,0.0
513,128,47.4808,52.828,140.792,104.999,102.472,0.00669812,0.100309,20.9442,-315.012,0.215654,0.0,0.0
522,130.25,47.2874,52.2108,142.763,104.971,102.328,0.00663539,0.100741,20.9438,-315.042,0.225761,0.0,0.0
531,132.5,47.1369,51.8985,144.502,104.94,102.268,0.00655515,0.10046,20.9437,-315.042,0.228393,0.0,0.0
540,134.75,46.1555,51.0175,140.826,104.937,102.476,0.00642654,0.0998553,20.9442,-315.092,0.210145,0.0,0.0
549,137,45.1979,49.7868,139.975,104.924,102.44,0.00639359,0.0995364,20.9448,-315.102,0.212141,0.0,0.0
558,139.25,45.4211,49.9116,136.301,104.89,102.71,0.00641576,0.100269,20.9438,-315.122,0.185956,0.0,0.0
567,141.5,44.1495,48.9256,136.607,104.878,102.566,0.00620309,0.100461,20.9439,-315.172,0.19736,0.0,0.0
576,143.75,44.1779,49.0246,141.184,104.872,102.187,0.00589021,0.0994667,20.9446,-315.182,0.229652,0.0,0.0
585,146,43.8799,48.3471,142.397,104.851,102.335,0.00573782,0.098287,20.9456,-315.192,0.215102,0.0,0.0
594,148.25,43.4161,47.59,138.751,104.833,102.24,0.00569214,0.0972932,20.9468,-315.233,0.2217,0.0,0.0
603,150.5,42.8814,47.3341,139.664,104.833,102.296,0.00562109,0.0969722,20.9472,-315.283,0.21698,0.0,0.0
612,152.75,42.6103,46.6208,140.676,104.826,102.203,0.00557582,0.0962324,20.9474,-315.263,0.224396,0.0,0.0
621,155,42.33,45.9625,138.507,104.799,102.346,0.00548906,0.0959456,20.9474,-315.303,0.209741,0.0,0.0
630,157.25,41.9472,45.4901,140.445,104.798,102.321,0.00540204,0.0959101,20.9484,-315.343,0.211865,0.0,0.0
639,159.5,41.6142,45.3374,142.316,104.726,102.317,0.00535977,0.0952966,20.9512,-315.363,0.206041,0.0,0.0
648,161.75,41.9453,45.3017,138.152,104.695,102.216,0.00534712,0.0945321,20.9528,-315.343,0.212155,0.0,0.0
657,164,40.9718,44.7018,139.426,104.676,102.289,0.00533799,0.0942779,20.9533,-315.413,0.20429,0.0,0.0
666,166.25,40.7375,44.1584,140.205,104.701,102.216,0.00530589,0.0937584,20.9536,-315.393,0.212657,0.0,0.0
675,168.5,40.6146,44.1942,143.378,104.717,102.115,0.00522141,0.0930266,20.955,-315.413,0.222789,0.0,0.0
684,170.75,40.8168,43.7727,141.217,104.728,102.217,0.00522922,0.0923328,20.9556,-315.453,0.214929,0.0,0.0
693,173,40.1795,43.5809,138.507,104.734,102.314,0.00517669,0.0917447,20.9556,-315.453,0.206971,0.0,0.0
702,175.25,39.9461,42.892,141.45,104.761,102.099,0.00508176,0.0910104,20.9554,-315.473,0.227907,0.0,0.0
711,177.5,39.0976,42.6412,140.547,104.769,102.13,0.00503858,0.0908844,20.9553,-315.503,0.225916,0.0,0.0
720,179.75,39.6369,42.4588,139.719,104.8,102.323,0.00506021,0.0904492,20.9554,-315.523,0.211809,0.0,0.0
729,182,39.3307,41.8276,142.523,104.819,102.228,0.00509659,0.0897596,20.9562,-315.513,0.221585,0.0,0.0
738,184.25,38.6224,41.5908,140.928,104.851,102.263,0.00499241,0.0891116,20.9574,-315.553,0.221332,0.0,0.0
747,186.5,38.6165,41.6948,140.58,104.862,102.865,0.00487886,0.0886094,20.9583,-315.583,0.170223,0.0,0.0
756,188.75,38.3554,41.4433,141.637,104.873,102.026,0.00474863,0.0885424,20.9586,-315.573,0.243686,0.0,0.0
765,191,38.4277,41.3638,141.021,104.9,102.137,0.0046859,0.0881685,20.9588,-315.613,0.236314,0.0,0.0
774,193.25,38.4225,40.6892,138.87,104.909,102.357,0.00466945,0.0876153,20.9588,-315.623,0.218059,0.0,0.0
783,195.5,38.0102,40.9761,141.882,104.911,102.298,0.00462716,0.0874535,20.9596,-315.603,0.223345,0.0,0.0
792,197.75,37.7679,40.7256,140.273,104.94,102.631,,0.087651,,-315.653,0.197054,0.0,0.0
801,200,38.1832,40.7455,144.075,104.964,102.69,,0.0874085,,-315.653,0.19394,0.0,0.0
810,202.25,37.6582,40.3969,143.07,104.97,102.254,,,,-315.693,0.232114,0.0,0.0
819,204.5,37.7003,39.9505,141.157,104.983,102.507,,,,-315.713,0.211328,0.0,0.0
828,206.75,37.9957,40.2311,143.378,104.994,102.731,,,,-315.713,0.192888,0.0,0.0
833,208,37.6463,39.4117,144.73,105.012,102.733,,,,-315.753,0.194353,0.0,0.0