File: 01_Data/Asphalt_Shingle/Cone/Asphalt_Shingle_Cone_HF75Scalar_220415_R3.csv
LABORATORY,FSRI
TEST IDENT,Shingles_HF75_3
OPERATOR,Dow
MATERIAL,Fiberglass asphalt shingles
ORIENTATION,Horizontal
HEAT FLUX,75
SURF AREA,0.01
C FACTOR,0.0397182
SPEC HOLDER DIFF,-566
SPECIMEN MASS,37.52
SCAN TIME,0.25
O2 DELAY TIME,11
CO DELAY TIME,11
CO2 DELAY TIME,8
FLOW FACTOR,1
SCAN COUNT,770
TIME TO IGN,15
END OF TEST SCAN,290
END OF TEST TIME,72.5
TEST STATUS,1
PRE TEST CMT,Dimensions: 100.96 x 100.75 x 2.47 mm