File: 01_Data/Asphalt_Shingle/Cone/Asphalt_Shingle_Cone_HF25Scan_220415_R1.csv
Names,Time,Stack TC,Smoke TC,Exh Press,Smoke Comp,Smoke Meas,CO Meter,CO2 Meter,O2 Meter,Sample Mass,Ext Coeff,Start Test,Flame Verif
Chan Gain,,500,500,1,1,1,1,1,1,1,1,1.0,1.0
Offset,,0,0,0.133554,0,0,0,0,0,0,0,0.0,0.0
Gain,,1,1,25.011,13.1255,13.9488,1,1,1,1.0009,1.00465,1.0,1.0
Units,sec,C,C,Pa,%,%,%,%,%,g,/m,,
Baseline,,16.8256,17.1395,144.941,98.104,94.0548,0.000936691,0.044529,21.0121,-833.61,0.371473,,
22,5.25,16.1416,16.6073,145.711,97.968,93.7864,0.00105334,0.0547777,21.0013,-296.267,0.38442,0.0,0.0
44,10.75,16.6845,16.791,148.345,97.968,93.7962,0.00105822,0.053788,21.0029,-296.267,0.383501,0.0,0.0
66,16.25,16.6166,16.3823,142.934,97.9604,93.9448,0.000876692,0.0500265,21.0075,-296.267,0.368868,0.0,0.0
88,21.75,16.0041,16.8714,142.391,97.95,93.9644,0.00079247,0.0496939,21.0081,-296.277,0.366095,0.0,0.0
110,27.25,16.0544,16.9582,143.395,97.9512,93.9154,0.000821688,0.049462,21.0085,-296.297,0.370795,0.0,0.0
132,32.75,16.6341,17.1483,143.277,97.9264,93.8052,0.000821992,0.0467588,21.0104,-296.317,0.378913,0.0,0.0
154,38.25,16.7274,16.7928,142.059,97.9456,93.2139,0.000938539,0.0445825,21.0135,-296.327,0.436368,0.0,0.0
176,43.75,16.8025,17.2755,143.005,97.9324,92.8729,0.001061,0.0432076,21.0138,-296.367,0.467474,0.0,0.0
198,49.25,16.6172,16.8971,147.688,97.9428,93.1023,0.000892637,0.0427613,21.0139,-296.387,0.446665,0.0,0.0
220,54.75,17.0319,17.1886,141.292,97.9452,92.9053,0.000929921,0.0424902,21.0149,-296.387,0.465558,0.0,0.0
242,60.25,16.7823,17.3907,138.916,97.9504,93.2633,0.000920251,0.0427024,21.0152,-296.397,0.432133,0.0,0.0
264,65.75,16.682,17.9457,143.344,97.9468,92.8406,0.000724517,0.042645,21.0152,-296.477,0.471842,0.0,0.0
286,71.25,16.9624,17.437,142.736,97.9336,92.8201,0.001005,0.0430961,21.0131,-296.477,0.472592,0.0,0.0
308,76.75,17.0461,17.3654,144.911,97.9524,92.3761,0.000909427,0.0444415,21.0132,-296.457,0.516541,0.0,0.0
330,82.25,17.5884,18.2374,143.092,97.938,91.1519,0.00145385,0.0510598,21.0008,-296.517,0.632821,0.0,0.0
352,87.75,17.6955,18.1802,139.904,97.9456,93.6408,0.00230364,0.0698101,20.97,-296.567,0.396093,0.0,1.0
374,93.25,17.9635,18.2248,134.86,97.964,92.2348,0.00255203,0.10013,20.9203,-296.677,0.531079,0.0,1.0
396,98.75,18.9774,19.1338,140.042,97.9484,87.6966,0.00263153,0.12572,20.884,-296.757,0.974318,0.0,1.0
418,104.25,20.5243,20.7366,138.994,97.9492,82.2665,0.00348447,0.142597,20.8496,-296.887,1.53769,0.0,0.0
440,109.75,21.3447,21.8491,137.024,97.9452,79.7133,0.00425365,0.164072,20.8124,-297.028,1.81518,0.0,0.0
462,115.25,22.7417,23.0428,139.04,97.9484,79.6814,0.00442511,0.161856,20.8175,-297.198,1.81899,0.0,0.0
484,120.75,22.9511,23.9839,138.28,97.944,80.9141,0.00476343,0.162977,20.8143,-297.348,1.6833,0.0,0.0
506,126.25,23.7003,24.3047,135.184,97.948,76.3261,0.0053939,0.180612,20.7791,-297.558,2.19809,0.0,0.0
528,131.75,25.5034,26.5564,132.917,97.942,75.6173,0.00608535,0.214865,20.7174,-297.738,2.27976,0.0,0.0
550,137.25,26.7547,27.8486,132.422,97.9408,69.8225,0.00718411,0.244231,20.6599,-297.998,2.98229,0.0,0.0
572,142.75,28.4259,29.7391,131.953,97.9536,66.6805,0.00833679,0.274372,20.6122,-298.309,3.38921,0.0,0.0
594,148.25,30.3557,31.6184,130.241,97.946,64.4797,0.00969793,0.299126,20.5689,-298.629,3.6843,0.0,0.0
616,153.75,31.9795,33.2927,130.585,97.942,63.6654,0.00994884,0.300385,20.5675,-298.979,3.79595,0.0,0.0
638,159.25,32.7972,34.0586,130.373,97.9412,66.3489,0.00942367,0.284457,20.599,-299.24,3.43203,0.0,0.0
660,164.75,33.56,35.2869,132.838,97.9376,69.702,0.00812527,0.259289,20.6484,-299.48,2.99722,0.0,0.0
682,170.25,33.6211,35.5082,135.637,97.9396,76.6684,0.00641673,0.224211,20.7107,-299.68,2.1579,0.0,0.0
704,175.75,33.2243,35.0658,136.977,97.9472,80.9925,0.00526776,0.196089,20.7616,-299.88,1.67506,0.0,0.0
726,181.25,33.3484,35.224,138.224,97.9428,82.5828,0.00435093,0.178418,20.7934,-300.01,1.50329,0.0,0.0
748,186.75,33.5317,35.199,136.58,97.9512,83.2286,0.0042602,0.170287,20.8061,-300.14,1.43541,0.0,0.0
770,192.25,32.6057,35.2934,135.903,97.9564,83.5364,0.00417484,0.165719,20.8161,-300.281,1.40334,0.0,0.0
792,197.75,32.8286,34.9101,137.501,97.9696,84.9343,0.00400624,0.160215,20.8278,-300.401,1.25828,0.0,0.0
814,203.25,32.2181,34.8231,138.559,97.9756,83.9821,0.00429874,0.158561,20.8297,-300.501,1.35818,0.0,0.0
836,208.75,32.0961,34.5787,139.916,98.0025,84.3252,0.00402957,0.159441,20.8291,-300.631,1.32466,0.0,0.0
858,214.25,32.0197,34.0173,135.679,98.0277,84.2485,0.00408376,0.153514,20.837,-300.761,1.33495,0.0,0.0
880,219.75,31.3455,33.8477,134.805,98.0714,84.4686,0.00414363,0.149385,20.844,-300.881,1.31588,0.0,0.0
902,225.25,31.3137,33.5867,139.889,98.101,84.3728,0.00392778,0.145193,20.8507,-300.981,1.32854,0.0,0.0
924,230.75,31.128,33.1302,138.849,98.1174,84.7926,0.00420709,0.139029,20.8621,-301.091,1.28628,0.0,0.0
946,236.25,30.686,33.2123,141.478,98.1403,86.5506,0.00401965,0.131359,20.8722,-301.191,1.10748,0.0,0.0
968,241.75,30.5167,32.5083,135.915,98.1527,87.68,0.0040172,0.121842,20.8889,-301.271,0.994347,0.0,0.0
990,247.25,29.8123,32.3122,138.177,98.1471,88.8625,0.00417955,0.112063,20.9024,-301.341,0.87578,0.0,0.0
1012,252.75,29.2424,31.52,139.665,98.115,89.3729,0.0042119,0.10467,20.9154,-301.402,0.822429,0.0,0.0
1034,258.25,28.9481,30.9815,140.448,98.0966,90.4448,0.00425551,0.0986568,20.9253,-301.462,0.715709,0.0,0.0
1056,263.75,27.8573,29.9041,140.915,98.0565,90.3818,0.00433583,0.0968219,20.927,-301.502,0.71825,0.0,0.0
1078,269.25,27.63,29.7676,142.142,98.0369,90.6406,0.00438549,0.0942742,20.9324,-301.572,0.691287,0.0,0.0
1100,274.75,27.3616,29.0056,141.451,98.0037,89.4998,0.00435972,0.0923781,20.9358,-301.602,0.799922,0.0,0.0
1122,280.25,27.0019,28.9249,139.53,97.9848,89.8897,0.0046678,0.0901582,20.9374,-301.662,0.759917,0.0,0.0
1144,285.75,26.9331,28.2993,139.45,97.9696,90.0536,0.00465118,0.0878573,20.9418,-301.722,0.742495,0.0,0.0
1166,291.25,26.8364,27.8247,138.419,97.95,90.7964,0.0044891,0.0868218,20.9453,-301.762,0.668335,0.0,0.0
1188,296.75,26.3075,27.7543,139.401,97.9452,91.2987,0.00477308,0.0839225,20.95,-301.792,0.619282,0.0,0.0
1210,302.25,25.7843,27.3932,140.473,97.9304,91.6648,0.00509023,0.0808496,20.9544,-301.842,0.582682,0.0,0.0
1232,307.75,25.4867,27.0041,143.218,97.93,92.477,0.00509556,0.0780701,20.9601,-301.872,0.504903,0.0,0.0
1254,313.25,24.507,26.1192,140.698,97.9348,92.4923,0.00486141,0.0740627,20.9659,-301.902,0.503876,0.0,0.0
1276,318.75,24.6818,26.048,142.287,97.9412,92.904,0.0051014,0.0713416,20.9705,-301.912,0.465319,0.0,0.0
1298,324.25,24.1149,25.61,141.577,97.9472,93.4774,0.00515135,0.0684961,20.9744,-301.962,0.411635,0.0,0.0
1320,329.75,23.9758,25.4696,143.196,97.95,93.4816,0.00516448,0.0662388,20.9771,-301.992,0.411486,0.0,0.0
1342,335.25,23.3836,25.0881,143.167,97.9668,93.6123,0.00558376,0.0643998,20.9822,-302.002,0.400687,0.0,0.0
1364,340.75,23.215,24.6493,139.012,97.9684,93.8699,0.00549066,0.0625309,20.9849,-302.022,0.376619,0.0,0.0
1386,346.25,22.9627,24.1134,140.497,97.9684,93.4497,0.00545322,0.060825,20.9871,-302.042,0.416153,0.0,0.0
1408,351.75,23.0034,23.9183,144.605,97.9692,93.5216,0.00553793,0.0598948,20.9893,-302.082,0.409444,0.0,0.0
1430,357.25,22.6648,23.7492,140.743,97.9576,93.663,0.00531455,0.0588769,20.9872,-302.102,0.395091,0.0,0.0
1452,362.75,22.5252,23.5161,140.225,97.952,93.6787,0.00568291,0.0588537,20.9881,-302.102,0.393105,0.0,0.0
1474,368.25,22.2877,23.2834,142.677,97.9344,93.9031,0.0059371,0.058382,20.9886,-302.122,0.37044,0.0,0.0
1496,373.75,21.9129,23.1192,142.767,97.9264,93.7843,0.00609215,0.0579973,20.9895,-302.152,0.380872,0.0,0.0
1518,379.25,22.1128,23.1555,141.882,97.9256,93.5046,0.00614216,0.0572244,20.9901,-302.172,0.407121,0.0,0.0
1540,384.75,22.0717,22.9496,142.957,97.934,93.9916,0.00610782,0.0575083,20.9907,-302.202,0.362098,0.0,0.0
1562,390.25,21.6952,22.708,138.948,97.9336,93.4914,0.00612988,0.0578538,20.9912,-302.202,0.409085,0.0,0.0
1584,395.75,21.0231,22.1421,140.084,97.9332,93.5378,0.00641455,0.0566402,20.9924,-302.222,0.404676,0.0,0.0
1606,401.25,21.2326,21.5931,141.124,97.93,93.7268,0.00623344,0.0561512,20.9917,-302.252,0.386599,0.0,0.0
1628,406.75,20.2322,21.2849,142.101,97.9175,93.7034,0.00617921,0.0561933,20.994,-302.272,0.387683,0.0,0.0
1650,412.25,20.7418,21.2569,145.351,97.92,93.686,0.00626325,0.0561258,20.9925,-302.292,0.389541,0.0,0.0
1672,417.75,21.1858,21.2373,145.502,97.924,93.6477,0.00634395,0.05608,20.9929,-302.302,0.393506,0.0,0.0
1694,423.25,20.3575,21.8617,143.531,97.9272,93.8716,0.00643966,0.0560356,20.9942,-302.332,0.372748,0.0,0.0
1716,428.75,20.4591,21.2107,141.25,97.9252,93.7141,0.00657895,0.0563945,20.9947,-302.322,0.387366,0.0,0.0
1738,434.25,20.5479,21.2751,143.755,97.9212,94.0167,0.0065774,0.0564378,20.9948,-302.362,0.358591,0.0,0.0
1760,439.75,20.2024,20.7466,140.507,97.9187,94.1197,0.00639208,0.0567978,20.9933,-302.372,0.348722,0.0,0.0
1782,445.25,20.7954,20.8727,139.691,97.9195,93.7745,0.00627207,0.057015,20.9932,-302.402,0.381179,0.0,0.0
1804,450.75,20.3039,21.0722,139.755,97.926,93.8605,0.0064234,0.0575788,20.9946,-302.412,0.373679,0.0,0.0
1826,456.25,20.3454,20.6365,141.044,97.9224,93.7353,0.00637057,0.0575199,20.9948,-302.432,0.385114,0.0,0.0
1848,461.75,19.9953,20.9699,142.747,97.9276,93.9529,0.00641723,0.0576215,20.9928,-302.452,0.365155,0.0,0.0
1870,467.25,19.8737,20.6923,143.66,97.9412,93.8303,0.00650769,0.0578432,20.9925,-302.462,0.377886,0.0,0.0
1892,472.75,19.9869,20.6721,144.104,97.96,94.1112,0.00655269,0.0578894,20.9915,-302.473,0.353233,0.0,0.0
1914,478.25,20.1013,20.6471,140.872,97.9772,94.0491,0.0064777,0.0576872,20.9918,-302.493,0.360604,0.0,0.0
1936,483.75,20.2495,20.5163,142.219,97.97,93.9363,0.00650427,0.0573466,20.9919,-302.533,0.370532,0.0,0.0
1958,489.25,19.7442,20.7296,142.697,97.9917,94.3858,0.00629256,0.0572984,20.9919,-302.543,0.330406,0.0,0.0
1980,494.75,19.8209,20.4562,142.926,98.0009,93.9252,0.00624523,0.0572314,20.9924,-302.563,0.374344,0.0,0.0
2002,500.25,19.6909,20.3292,142.56,98.0297,94.044,0.00600263,0.0574792,20.9922,-302.673,0.365801,0.0,0.0
2024,505.75,19.9913,20.3142,145.372,98.0549,93.8796,,0.058229,,-302.623,0.383481,0.0,0.0
2046,511.25,19.6578,20.5463,146.088,98.0774,94.316,,,,-302.633,0.344633,0.0,0.0
2056,513.75,20.3044,20.559,139.125,98.1038,94.2308,,,,-302.623,0.354966,0.0,0.0