File: 01_Data/Asphalt_Shingle/Cone/Asphalt_Shingle_Cone_HF25Scalar_220415_R3.csv
LABORATORY,FSRI
TEST IDENT,Shingles_HF25_3
OPERATOR,Dow
MATERIAL,Fiberglass asphalt shingles
ORIENTATION,Horizontal
HEAT FLUX,25
SURF AREA,0.01
C FACTOR,0.0403665
SPEC HOLDER DIFF,-566
SPECIMEN MASS,36.32
SCAN TIME,0.25
O2 DELAY TIME,11
CO DELAY TIME,11
CO2 DELAY TIME,8
FLOW FACTOR,1
SCAN COUNT,1605
TIME TO IGN,88.5
END OF TEST SCAN,1125
END OF TEST TIME,281.25
TEST STATUS,1
PRE TEST CMT,Dimensions: 100.64 x 101.73 x 2.53 mm