File: 01_Data/Asphalt_Shingle/Cone/Asphalt_Shingle_Cone_HF75Scalar_220415_R2.csv
LABORATORY,FSRI
TEST IDENT,Shingles_HF75_2
OPERATOR,Dow
MATERIAL,Fiberglass asphalt shingles
ORIENTATION,Horizontal
HEAT FLUX,75
SURF AREA,0.01
C FACTOR,0.0397182
SPEC HOLDER DIFF,-566
SPECIMEN MASS,36.27
SCAN TIME,0.25
O2 DELAY TIME,11
CO DELAY TIME,11
CO2 DELAY TIME,8
FLOW FACTOR,1
SCAN COUNT,741
TIME TO IGN,14
END OF TEST SCAN,261
END OF TEST TIME,65.25
TEST STATUS,1
PRE TEST CMT,Dimensions: 100.37 x 101.79 x 2.53 mm