File: 01_Data/Asphalt_Shingle/Cone/Asphalt_Shingle_Cone_HF50Scan_220415_R3.csv
Names,Time,Stack TC,Smoke TC,Exh Press,Smoke Comp,Smoke Meas,CO Meter,CO2 Meter,O2 Meter,Sample Mass,Ext Coeff,Start Test,Flame Verif
Chan Gain,,500,500,1,1,1,1,1,1,1,1,1.0,1.0
Offset,,0,0,0.134662,0,0,0,0,0,0,0,0.0,0.0
Gain,,1,1,25.011,14.0001,15.1165,1,1,1,1.00131,1.00941,1.0,1.0
Units,sec,C,C,Pa,%,%,%,%,%,g,/m,,
Baseline,,33.0838,33.9898,142.636,104.199,101.822,0.00034763,0.0452237,21.0149,-836.61,0.204362,,
9,2,31.4982,32.5593,142.844,104.512,101.904,0.000340062,0.0524652,21.0057,-304.078,0.223808,0.0,0.0
18,4.25,31.4335,32.1857,143.037,104.52,102.144,0.000239572,0.0517304,21.0075,-304.098,0.203636,0.0,0.0
27,6.5,31.7055,32.2008,143.884,104.511,102.221,0.000317644,0.0504485,21.0094,-304.108,0.196164,0.0,0.0
36,8.75,31.516,31.8118,143.818,104.519,102.17,0.000545759,0.0491754,21.0108,-304.118,0.201325,0.0,0.0
45,11,31.5792,32.7335,137.991,104.525,101.795,0.000569951,0.0478047,21.0118,-304.138,0.234322,0.0,0.0
54,13.25,31.6439,32.5475,140.822,104.526,101.868,0.000568389,0.046799,21.0131,-304.158,0.22805,0.0,0.0
63,15.5,31.4559,32.4916,144.094,104.496,101.596,0.000608085,0.0460132,21.0136,-304.188,0.249245,0.0,0.0
72,17.75,31.722,32.522,140.586,104.493,100.718,0.000523032,0.0456395,21.0144,-304.178,0.325841,0.0,0.0
81,20,31.928,32.6993,138.456,104.484,100.818,0.000480177,0.0457165,21.0138,-304.238,0.31632,0.0,0.0
90,22.25,31.7623,32.4347,143.759,104.452,99.7104,0.00074719,0.0485999,21.0089,-304.228,0.411344,0.0,0.0
99,24.5,31.3054,32.4763,140.112,104.428,100.042,0.00126187,0.0575528,20.9929,-304.278,0.379873,0.0,0.0
108,26.75,31.7346,32.5225,136.327,104.415,102.221,0.00183146,0.0796874,20.9505,-304.378,0.188013,0.0,1.0
117,29,32.1745,33.1375,136.635,104.395,98.7777,0.00287023,0.121334,20.8909,-304.418,0.489749,0.0,1.0
126,31.25,32.4655,33.5072,128.197,104.371,83.2003,0.00513594,0.181859,20.787,-304.539,2.00729,0.0,1.0
135,33.5,33.1899,34.1681,125.419,104.361,73.7663,0.00802325,0.274023,20.6007,-304.679,3.07209,0.0,0.0
144,35.75,35.3874,35.5938,124.323,104.351,63.9573,0.01153,0.364086,20.4719,-304.909,4.33471,0.0,0.0
153,38,37.3047,37.8645,119.731,104.337,66.7003,0.0148379,0.421083,20.3694,-305.089,3.9616,0.0,0.0
162,40.25,38.1022,40.1675,121.184,104.316,57.0693,0.0182483,0.48233,20.275,-305.31,5.34069,0.0,0.0
171,42.5,40.5878,43.0802,114.981,104.325,51.0399,0.0226049,0.548663,20.1527,-305.63,6.33014,0.0,0.0
180,44.75,44.362,44.8102,113.396,104.313,46.1056,0.0269184,0.636892,20.0003,-305.94,7.22934,0.0,0.0
189,47,47.1144,48.4381,107.856,104.296,45.9548,0.0306378,0.71383,19.8518,-306.231,7.25688,0.0,0.0
198,49.25,50.1607,51.3694,109.365,104.296,45.8298,0.0335863,0.783743,19.7235,-306.601,7.281,0.0,0.0
207,51.5,53.5738,55.0763,109.156,104.289,46.2592,0.0365986,0.828076,19.6495,-306.962,7.19782,0.0,0.0
216,53.75,56.5616,58.5429,100.908,104.289,41.7065,0.0400233,0.898829,19.5144,-307.262,8.11523,0.0,0.0
225,56,59.7266,62.3357,106.153,104.284,41.7249,0.0433856,0.968941,19.384,-307.723,8.11087,0.0,0.0
234,58.25,62.9101,66.2856,107.984,104.287,42.9221,0.04619,1.0236,19.2962,-308.123,7.8607,0.0,0.0
243,60.5,66.7388,69.7522,101.9,104.257,36.9913,0.0481076,1.05974,19.235,-308.554,9.17477,0.0,0.0
252,62.75,69.4862,73.5852,102.525,104.232,39.929,0.0478374,1.05516,19.2265,-308.964,8.49604,0.0,0.0
261,65,72.3907,76.8485,120.398,104.223,36.5517,0.0444004,0.979626,19.3147,-309.315,9.2778,0.0,0.0
270,67.25,74.1076,79.3225,116.187,104.205,42.004,0.0374323,0.862806,19.5055,-309.665,8.04513,0.0,0.0
279,69.5,74.7914,80.3586,123.89,104.181,54.5395,0.0294107,0.732159,19.7602,-309.835,5.73067,0.0,0.0
288,71.75,75.1788,81.1335,127.9,104.158,65.6406,0.0219483,0.605949,20.0144,-309.956,4.0882,0.0,0.0
297,74,74.4062,80.7859,127.753,104.134,79.4115,0.0154502,0.48533,20.2453,-310.096,2.39988,0.0,0.0
306,76.25,73.6884,79.6879,132.269,104.121,90.1482,0.0108152,0.374361,20.4697,-310.166,1.2759,0.0,0.0
315,78.5,73.0014,78.524,131.974,104.078,98.2453,0.00801863,0.286593,20.6311,-310.176,0.510669,0.0,0.0
324,80.75,71.5327,77.4995,137.156,104.049,100.544,0.00654907,0.221135,20.742,-310.176,0.30341,0.0,0.0
333,83,69.907,76.16,139.616,104.014,101.235,0.00653948,0.166396,20.8258,-310.226,0.239738,0.0,0.0
342,85.25,68.1141,74.6538,138.157,103.98,101.444,0.00727053,0.12942,20.8889,-310.246,0.218681,0.0,0.0
351,87.5,66.2714,73.1231,139.612,103.917,101.769,0.00812319,0.107552,20.9183,-310.276,0.18499,0.0,0.0
360,89.75,65.4037,70.8924,137.036,103.882,101.526,0.00891576,0.0973238,20.9353,-310.286,0.203105,0.0,0.0
369,92,63.5468,69.4995,139.511,103.852,101.247,0.00957648,0.0909952,20.9467,-310.296,0.22497,0.0,0.0
378,94.25,62.0795,67.4586,138.793,103.818,101.261,0.0101589,0.0887159,20.9514,-310.336,0.220842,0.0,0.0
387,96.5,60.3761,66.0011,140.218,103.787,101.673,0.0105957,0.0878729,20.9532,-310.386,0.182155,0.0,0.0
396,98.75,58.9272,64.1392,137.13,103.748,101.21,0.0108913,0.0878416,20.9539,-310.356,0.219342,0.0,0.0
405,101,57.8552,63.705,137.223,103.706,101.012,0.0109885,0.0882442,20.954,-310.366,0.233062,0.0,0.0
414,103.25,56.9947,62.5883,139.251,103.657,101.531,0.0109551,0.0885608,20.9537,-310.356,0.183449,0.0,0.0
423,105.5,55.9988,61.296,143.174,103.643,101.433,0.0108803,0.0895598,20.9522,-310.396,0.190858,0.0,0.0
432,107.75,54.7091,60.4342,139.255,103.614,100.991,0.0108797,0.0909544,20.9516,-310.406,0.227072,0.0,0.0
441,110,53.2222,59.4461,137.849,103.572,101.198,0.0107769,0.092205,20.9509,-310.456,0.205279,0.0,0.0
450,112.25,53.2074,58.0639,139.58,103.528,101.451,0.0105065,0.0929869,20.9482,-310.536,0.17942,0.0,0.0
459,114.5,52.1152,57.8204,140.488,103.523,101.048,0.0102533,0.0929531,20.9472,-310.546,0.214318,0.0,0.0
468,116.75,50.9306,56.4403,138.7,103.511,101.356,0.0102216,0.0941659,20.9466,-310.546,0.186336,0.0,0.0
477,119,50.5539,56.1588,140.182,103.465,100.942,0.0103205,0.0964134,20.9451,-310.576,0.218576,0.0,0.0
486,121.25,50.338,54.7205,139.978,103.456,101.154,0.0103233,0.0974367,20.9439,-310.606,0.199172,0.0,0.0
495,123.5,49.3802,54.3961,141.548,103.454,101.139,0.0103024,0.0978878,20.9439,-310.637,0.200396,0.0,0.0
504,125.75,48.7962,53.6693,137.161,103.441,101.275,0.010347,0.0982243,20.9428,-310.626,0.187319,0.0,0.0
513,128,48.2059,52.991,139.718,103.433,101.457,0.0103393,0.0982689,20.9423,-310.687,0.170744,0.0,0.0
522,130.25,47.9019,52.3098,139.794,103.458,101.539,0.0102853,0.0982372,20.9421,-310.687,0.165818,0.0,0.0
531,132.5,46.9259,51.8283,140.468,103.474,101.308,0.0102385,0.0985147,20.942,-310.707,0.187345,0.0,0.0
540,134.75,46.558,51.4187,138.718,103.471,101.021,0.0101009,0.098917,20.9425,-310.737,0.212208,0.0,0.0
549,137,46.0448,50.2719,140.511,103.503,101.071,0.00983049,0.0988897,20.9428,-310.747,0.210466,0.0,0.0
558,139.25,45.9483,50.2662,136.559,103.525,101.168,0.00970255,0.0989692,20.9429,-310.807,0.203925,0.0,0.0
567,141.5,45.0298,48.7603,139.741,103.527,101.682,0.00969577,0.0990205,20.9429,-310.837,0.159239,0.0,0.0
576,143.75,45.0819,49.0057,139.143,103.515,101.347,0.00956979,0.0984925,20.9429,-310.847,0.187432,0.0,0.0
585,146,44.4816,48.6024,140.509,103.53,101.793,0.00931613,0.098284,20.9436,-310.857,0.149821,0.0,0.0
594,148.25,44.5296,48.0813,139.47,103.547,101.541,0.00924081,0.0978401,20.945,-310.887,0.173216,0.0,0.0
603,150.5,44.0947,47.5469,141.662,103.55,101.416,0.00938651,0.0972563,20.9466,-310.907,0.184348,0.0,0.0
612,152.75,43.8159,46.8942,139.925,103.576,101.538,0.0093749,0.0975204,20.9464,-310.917,0.175986,0.0,0.0
621,155,43.3233,47.3,142.251,103.623,101.408,0.00929152,0.0980303,20.9457,-310.957,0.191355,0.0,0.0
630,157.25,43.0458,46.5955,139.57,103.652,101.256,0.00923641,0.0986459,20.9458,-310.967,0.207058,0.0,0.0
639,159.5,43.1149,46.1726,142.034,103.644,101.457,0.00898995,0.0987225,20.9475,-310.987,0.18887,0.0,0.0
648,161.75,43.1864,45.7812,137.227,103.589,101.01,0.00881785,0.0975037,20.9485,-311.017,0.22326,0.0,0.0
657,164,42.3195,45.678,139.508,103.601,101.514,0.00887739,0.0966148,20.95,-311.047,0.180232,0.0,0.0
666,166.25,42.4169,45.2033,141.955,103.6,101.638,0.00888688,0.0956405,20.9514,-311.067,0.169229,0.0,0.0
675,168.5,41.9242,45.1075,139.827,103.62,101.621,0.00866472,0.0950351,20.9531,-311.097,0.172505,0.0,0.0
684,170.75,41.4742,44.9046,138.841,103.661,101.44,0.00832471,0.0946527,20.9541,-311.117,0.191744,0.0,0.0
693,173,41.5248,44.3608,139.744,103.698,101.622,0.00819161,0.0939609,20.9544,-311.137,0.179107,0.0,0.0
702,175.25,41.2096,44.1217,138.935,103.716,101.591,0.00819437,0.0945815,20.9529,-311.137,0.183256,0.0,0.0
711,177.5,40.7134,43.8625,138.832,103.75,101.532,0.00806053,0.096695,20.9498,-311.167,0.191322,0.0,0.0
720,179.75,40.4254,43.6028,141.256,103.797,101.317,0.00791623,0.0979087,20.9469,-311.177,0.214136,0.0,0.0
729,182,40.0579,43.0897,139.145,103.829,101.928,0.00779575,0.0985228,20.9445,-311.217,0.163614,0.0,0.0
738,184.25,40.7148,43.4086,140.16,103.869,101.534,0.00768706,0.0974651,20.9442,-311.197,0.201292,0.0,0.0
747,186.5,40.7813,43.2388,140.394,103.934,101.706,0.00761817,0.0948378,20.9494,-311.227,0.191906,0.0,0.0
756,188.75,40.217,42.955,138.252,103.988,101.475,0.00755873,0.0926159,20.9525,-311.257,0.216558,0.0,0.0
765,191,40.0422,42.7446,142.576,104.022,101.914,0.00745243,0.0909379,20.9549,-311.307,0.181233,0.0,0.0
774,193.25,40.1887,42.7451,139.162,104.082,101.742,0.00733029,0.0896485,20.9574,-311.277,0.201398,0.0,0.0
783,195.5,39.3742,41.565,137.052,104.138,101.809,0.00732543,0.0889755,20.9584,-311.287,0.200259,0.0,0.0
792,197.75,39.6954,41.8426,140.644,104.199,101.854,0.00728135,0.0881027,20.96,-311.297,0.201525,0.0,0.0
801,200,39.4745,41.6372,139.07,104.247,101.891,0.00722202,0.0875228,20.9609,-311.357,0.202382,0.0,0.0
810,202.25,39.2357,41.6885,140.204,104.316,102.055,,0.0868909,,-311.367,0.194035,0.0,0.0
819,204.5,39.1308,41.6953,140.706,104.379,102.631,,,,-311.468,0.149518,0.0,0.0
828,206.75,39.2688,41.3725,140.056,104.431,102.347,,,,-311.448,0.178527,0.0,0.0
837,209,38.5565,41.5672,138.184,104.476,102.208,,,,-311.388,0.194314,0.0,0.0
845,211,38.7359,41.4675,142.478,104.523,102.404,,,,-311.418,0.181327,0.0,0.0