File: 01_Data/Asphalt_Shingle/Cone/Asphalt_Shingle_Cone_HF25Scalar_220415_R2.csv
LABORATORY,FSRI
TEST IDENT,Shingles_HF25_2
OPERATOR,Dow
MATERIAL,Fiberglass asphalt shingles
ORIENTATION,Horizontal
HEAT FLUX,25
SURF AREA,0.01
C FACTOR,0.0403665
SPEC HOLDER DIFF,-566
SPECIMEN MASS,37.98
SCAN TIME,0.25
O2 DELAY TIME,11
CO DELAY TIME,11
CO2 DELAY TIME,8
FLOW FACTOR,1
SCAN COUNT,2660
TIME TO IGN,88.75
END OF TEST SCAN,2180
END OF TEST TIME,545
TEST STATUS,1
PRE TEST CMT,Dimensions: 100.76 x 101.77 x 2.53 mm