File: 01_Data/Asphalt_Shingle/Cone/Asphalt_Shingle_Cone_HF50Scalar_220415_R1.csv
LABORATORY,FSRI
TEST IDENT,Shingles_HF50_1
OPERATOR,Dow
MATERIAL,Fiberglass asphalt shingles
ORIENTATION,Horizontal
HEAT FLUX,50
SURF AREA,0.01
C FACTOR,0.0397182
SPEC HOLDER DIFF,-566
SPECIMEN MASS,36.61
SCAN TIME,0.25
O2 DELAY TIME,11
CO DELAY TIME,11
CO2 DELAY TIME,8
FLOW FACTOR,1
SCAN COUNT,833
TIME TO IGN,28.75
END OF TEST SCAN,353
END OF TEST TIME,88.25
TEST STATUS,1
PRE TEST CMT,Dimensions: 101.39 x 101.28 x 2.34 mm