File: 01_Data/Asphalt_Shingle/Cone/Asphalt_Shingle_Cone_HF25Scan_220415_R2.csv
Names,Time,Stack TC,Smoke TC,Exh Press,Smoke Comp,Smoke Meas,CO Meter,CO2 Meter,O2 Meter,Sample Mass,Ext Coeff,Start Test,Flame Verif
Chan Gain,,500,500,1,1,1,1,1,1,1,1,1.0,1.0
Offset,,0,0,0.133554,0,0,0,0,0,0,0,0.0,0.0
Gain,,1,1,25.011,13.1255,13.9488,1,1,1,1.0009,1.00465,1.0,1.0
Units,sec,C,C,Pa,%,%,%,%,%,g,/m,,
Baseline,,19.3623,19.8378,143.387,98.4382,94.4813,0.000844549,0.0430385,21.0135,-830.386,0.361567,,
28,6.75,17.8952,18.9939,141.377,98.1294,94.1729,0.00130402,0.0486433,21.0061,-305.025,0.362684,0.0,0.0
56,13.75,18.4335,19.1748,142.003,98.1322,94.2594,0.00110292,0.0458339,21.0092,-305.035,0.354854,0.0,0.0
84,20.75,18.4086,19.1666,142.959,98.1258,94.4569,0.000852701,0.0441591,21.0117,-305.055,0.33583,0.0,0.0
112,27.75,18.824,19.0154,142.666,98.1551,94.1419,0.000868728,0.0482619,21.0061,-305.085,0.367895,0.0,0.0
140,34.75,18.9196,18.8892,141.382,98.1871,93.9963,0.000730754,0.0474965,21.0068,-305.095,0.384411,0.0,0.0
168,41.75,18.7741,19.1857,139.709,98.2504,93.8524,0.000914493,0.0445796,21.0134,-305.125,0.403589,0.0,0.0
196,48.75,18.902,19.5595,141.194,98.3045,93.5195,0.000906091,0.0433202,21.0154,-305.135,0.439752,0.0,0.0
224,55.75,19.4721,19.6983,139.255,98.3778,93.4872,0.00059967,0.0428759,21.0157,-305.155,0.449369,0.0,0.0
252,62.75,19.2296,19.6715,143.083,98.4407,93.3105,0.000762751,0.0428494,21.0149,-305.175,0.471669,0.0,0.0
280,69.75,19.3829,19.7761,143.16,98.5136,93.5531,0.00101288,0.0431945,21.013,-305.205,0.455308,0.0,0.0
308,76.75,19.551,20.0686,142.723,98.5917,93.1189,0.000733064,0.0438816,21.0119,-305.225,0.503288,0.0,0.0
336,83.75,19.9025,20.338,141.595,98.6594,93.159,0.00134317,0.0502651,21.0029,-305.285,0.505551,0.0,0.0
364,90.75,19.9788,20.126,141.349,98.7343,94.674,0.00210799,0.0761469,20.9581,-305.375,0.370075,0.0,1.0
392,97.75,20.6649,21.0196,139.844,98.8108,91.5554,0.0025152,0.121246,20.8891,-305.505,0.672082,0.0,1.0
420,104.75,21.8364,22.2996,132.83,98.8468,78.7121,0.00447747,0.177093,20.7919,-305.695,2.00732,0.0,0.0
448,111.75,24.5758,25.0093,131.275,98.9101,72.6686,0.00682699,0.227923,20.7,-305.976,2.71698,0.0,0.0
476,118.75,27.33,27.9552,131.788,98.987,71.2345,0.0081035,0.24766,20.6612,-306.286,2.8995,0.0,0.0
504,125.75,28.9447,29.8697,134.418,99.0455,67.5877,0.0101482,0.274321,20.6124,-306.676,3.36783,0.0,0.0
532,132.75,32.2173,33.3208,125.277,99.0808,65.6414,0.0122036,0.336565,20.5043,-307.127,3.62846,0.0,0.0
560,139.75,35.1328,36.4719,130.55,99.112,61.6,0.0130729,0.361918,20.4614,-307.587,4.19124,0.0,0.0
588,146.75,37.9904,39.6455,128.498,99.1404,62.1878,0.0128094,0.360737,20.4625,-308.068,4.11007,0.0,0.0
616,153.75,39.8739,41.5099,121,99.1388,65.1323,0.0106995,0.341556,20.4967,-308.518,3.70224,0.0,0.0
644,160.75,40.7281,43.1461,129.018,99.1609,67.2888,0.00909206,0.314213,20.5494,-308.908,3.41714,0.0,0.0
672,167.75,41.1192,43.9203,127.748,99.1473,70.1911,0.0073868,0.289122,20.5949,-309.249,3.04378,0.0,0.0
700,174.75,40.9466,43.8581,137.654,99.1376,77.1511,0.00555216,0.253775,20.6652,-309.569,2.20974,0.0,0.0
728,181.75,40.888,43.7662,130.243,99.1477,79.7235,0.00472897,0.208582,20.7394,-309.819,1.92158,0.0,0.0
756,188.75,39.7107,42.6094,136.846,99.1837,82.3951,0.00459101,0.176095,20.7943,-309.989,1.6343,0.0,0.0
784,195.75,38.333,41.5073,139.422,99.2286,85.1323,0.00424896,0.153176,20.832,-310.149,1.35029,0.0,0.0
812,202.75,37.1782,40.3245,139.72,99.2506,87.648,0.00436476,0.13211,20.8679,-310.27,1.09559,0.0,0.0
840,209.75,35.6267,38.6058,136.767,99.2686,90.7326,0.00370261,0.11243,20.9042,-310.36,0.792383,0.0,0.0
868,216.75,34.6904,37.4094,140.903,99.2943,93.1594,0.00422313,0.0968332,20.9306,-310.43,0.562041,0.0,0.0
896,223.75,32.837,36.0974,138.268,99.2951,93.674,0.00431755,0.0871106,20.9444,-310.46,0.513561,0.0,0.0
924,230.75,32.0328,35.0381,138.661,99.2939,94.2998,0.00424412,0.086163,20.948,-310.52,0.454779,0.0,0.0
952,237.75,30.9212,33.5627,139.912,99.2895,94.5744,0.00425452,0.0790565,20.9595,-310.56,0.428766,0.0,0.0
980,244.75,29.878,32.2913,144.04,99.2762,94.3236,0.00441003,0.0719847,20.9698,-310.59,0.450987,0.0,0.0
1008,251.75,29.4674,32.2521,140.874,99.2714,95.0724,0.00430283,0.0664016,20.9774,-310.62,0.380877,0.0,0.0
1036,258.75,27.9478,30.4721,140,99.263,94.0882,0.0043498,0.062163,20.9825,-310.66,0.471836,0.0,0.0
1064,265.75,27.4502,29.2793,139.736,99.2374,94.1151,0.00444884,0.0592889,20.987,-310.69,0.467048,0.0,0.0
1092,272.75,27.0428,28.7788,141.303,99.221,94.3356,0.00449703,0.0573914,20.9907,-310.7,0.444965,0.0,0.0
1120,279.75,26.0978,27.4846,138.755,99.1905,94.5684,0.00445236,0.0561471,20.9934,-310.72,0.420536,0.0,0.0
1148,286.75,25.9075,28.0045,142.336,99.1581,94.4811,0.00457425,0.055074,20.9925,-310.75,0.425788,0.0,0.0
1176,293.75,24.7878,26.216,140.72,99.1172,94.6033,0.00449318,0.054489,20.9942,-310.75,0.410769,0.0,0.0
1204,300.75,24.3668,25.8498,139.851,99.0832,94.6348,0.00468891,0.0538181,20.9965,-310.78,0.404806,0.0,0.0
1232,307.75,24.3927,25.6444,143.229,99.0571,94.4049,0.00490723,0.0537167,20.9973,-310.79,0.423923,0.0,0.0
1260,314.75,24.3243,25.5598,143.731,99.0231,94.3062,0.00493239,0.0538666,20.9978,-310.82,0.430117,0.0,0.0
1288,321.75,24.1132,25.4743,140.209,99.0055,94.797,0.00518091,0.0556976,20.9949,-310.84,0.382802,0.0,0.0
1316,328.75,23.9258,24.7676,140.036,98.9866,94.7463,0.00487868,0.0554367,20.9948,-310.86,0.385836,0.0,0.0
1344,335.75,23.6124,24.4106,139.726,98.9878,94.5748,0.00509924,0.0542919,20.9951,-310.88,0.401914,0.0,0.0
1372,342.75,23.5811,24.4005,141.542,98.965,94.7212,0.00516475,0.0542401,20.9962,-310.9,0.386247,0.0,0.0
1400,349.75,23.4425,24.3391,139.39,98.9618,94.8004,0.00555577,0.0542393,20.9984,-310.92,0.378598,0.0,0.0
1428,356.75,23.0834,24.1405,144.695,98.9778,94.4999,0.00578275,0.054518,20.9968,-310.94,0.408007,0.0,0.0
1456,363.75,23.385,23.9627,141.754,99.0427,94.8885,0.00557352,0.0562623,20.9946,-310.98,0.377613,0.0,0.0
1484,370.75,22.8138,24.0238,140.721,99.1348,94.9651,0.0054957,0.0555805,20.9947,-311,0.378693,0.0,0.0
1512,377.75,23.0213,23.6899,143.724,99.2077,94.8528,0.00570941,0.055648,20.9947,-311.02,0.395607,0.0,0.0
1540,384.75,23.0791,23.4558,141.389,99.2686,95.0665,0.0060772,0.0559639,20.9947,-311.05,0.381182,0.0,0.0
1568,391.75,22.7751,23.4151,142.335,99.3171,94.9843,0.00625474,0.0575046,20.9916,-311.05,0.393102,0.0,0.0
1596,398.75,22.3206,23.1908,144.099,99.3491,95.0171,0.00627595,0.0572683,20.9908,-311.09,0.392905,0.0,0.0
1624,405.75,22.0429,22.435,141.546,99.382,95.0252,0.00624135,0.0580442,20.9906,-311.11,0.395068,0.0,0.0
1652,412.75,22.2664,23.1776,143.707,99.4381,95.2584,0.00630937,0.0595992,20.988,-311.14,0.378431,0.0,0.0
1680,419.75,22.4638,23.3007,143.747,99.4994,95.7957,0.00627868,0.0588968,20.9896,-311.18,0.334301,0.0,0.0
1708,426.75,22.3059,22.7404,141.158,99.5739,95.5262,0.00673975,0.0609279,20.9865,-311.2,0.365721,0.0,0.0
1736,433.75,22.3122,23.066,145.051,99.658,95.5245,0.00668566,0.0606864,20.986,-311.22,0.37332,0.0,0.0
1764,440.75,21.7894,22.4633,141.567,99.7313,95.748,0.0071072,0.0618561,20.9853,-311.24,0.359205,0.0,0.0
1792,447.75,22.6518,23.2163,143.544,99.7729,95.7871,0.00701048,0.0615431,20.9869,-311.27,0.359282,0.0,0.0
1820,454.75,22.1695,22.6949,138.284,99.7661,96.2473,0.00661429,0.0613791,20.9874,-311.3,0.316445,0.0,0.0
1848,461.75,22.3016,22.5862,138.743,99.7289,95.7633,0.00641831,0.0649582,20.9836,-311.32,0.357583,0.0,0.0
1876,468.75,22.1409,22.7722,143.658,99.6464,95.3904,0.00652591,0.0674054,20.9787,-311.35,0.384671,0.0,0.0
1904,475.75,21.6654,22.2545,145.678,99.5246,95.5079,0.00655255,0.06612,20.9792,-311.381,0.363048,0.0,0.0
1932,482.75,22.598,22.7494,140.872,99.3559,95.2933,0.00655486,0.0648248,20.9823,-311.391,0.367923,0.0,0.0
1960,489.75,21.9641,22.3366,141.473,99.1785,95.0554,0.00630629,0.0629926,20.9865,-311.431,0.374203,0.0,0.0
1988,496.75,22.602,22.9562,142.691,99.2414,95.1077,0.00675874,0.0609124,20.9884,-311.461,0.374936,0.0,0.0
2016,503.75,22.0529,22.5556,141.344,99.3167,95.3146,0.00659256,0.0612249,20.9888,-311.471,0.362472,0.0,0.0
2044,510.75,21.9942,22.7784,141.706,99.4128,95.2665,0.00661075,0.0611479,20.9888,-311.501,0.375446,0.0,0.0
2072,517.75,22.241,22.954,142.652,99.5186,95.6254,0.00644657,0.0600714,20.9907,-311.521,0.351681,0.0,0.0
2100,524.75,22.0141,22.7076,140.737,99.6291,95.6445,0.00649737,0.0595948,20.9911,-311.541,0.359701,0.0,0.0
2128,531.75,22.1845,22.7432,138.013,99.7301,95.9085,0.00626611,0.0590058,20.9905,-311.571,0.344341,0.0,0.0
2156,538.75,22.0064,22.4819,142.634,99.8282,95.7122,0.00598958,0.0615557,20.9871,-311.601,0.371059,0.0,0.0
2184,545.75,21.7341,22.1747,140.244,99.8975,95.9744,0.00562024,0.0612818,20.9886,-311.611,0.353063,0.0,0.0
2212,552.75,21.4449,21.7963,141.355,99.9556,96.0213,0.00546137,0.0629863,20.9861,-311.641,0.353887,0.0,0.0
2240,559.75,21.299,22.2348,145.546,99.9744,96.2218,0.00580715,0.0582126,20.9916,-311.661,0.337164,0.0,0.0
2268,566.75,21.1462,22.0458,140.721,99.9772,95.9029,0.00507784,0.0559277,20.9946,-311.681,0.366662,0.0,0.0
2296,573.75,21.4209,22.1069,145.707,99.9576,96.0017,0.00508784,0.0549447,20.9972,-311.701,0.355861,0.0,0.0
2324,580.75,21.5995,22.0568,143.103,99.8735,95.6735,0.00494939,0.0542768,20.9986,-311.721,0.378621,0.0,0.0
2352,587.75,21.3405,21.7479,139.439,99.7665,95.6739,0.00501417,0.0540285,20.9986,-311.741,0.369141,0.0,0.0
2380,594.75,21.4914,22.2591,141.704,99.6432,95.4657,0.00464112,0.0536279,20.9996,-311.751,0.377431,0.0,0.0
2408,601.75,21.5378,21.7423,146.311,99.4885,95.5786,0.0048266,0.0532699,21.0002,-311.781,0.353338,0.0,0.0
2436,608.75,20.9083,22.1139,142.826,99.3363,95.0039,0.00465308,0.0530257,21.0002,-311.801,0.392992,0.0,0.0
2464,615.75,21.2994,21.7735,139.867,99.2041,95.2968,0.00439111,0.0571308,20.9939,-311.821,0.354131,0.0,0.0
2492,622.75,21.2982,21.848,145.22,99.0808,94.9792,0.00463634,0.0575369,20.9955,-311.821,0.372581,0.0,0.0
2520,629.75,21.3059,21.889,139.176,98.963,95.3844,0.00446491,0.0536684,21.0017,-311.841,0.324578,0.0,0.0
2548,636.75,20.8197,22.2904,139.618,98.8729,94.9115,0.00442278,0.052437,21.0027,-311.851,0.360353,0.0,0.0
2576,643.75,21.3116,21.981,143.335,98.7791,94.7591,0.00388078,0.0518652,21.005,-311.881,0.366156,0.0,0.0
2604,650.75,21.4588,21.8919,142.292,98.6281,95.2129,0.00388822,0.0516129,21.0068,-311.891,0.310572,0.0,0.0
2632,657.75,21.4554,21.9476,142.584,98.4839,94.2283,,,,-311.901,0.389286,0.0,0.0
2660,664.75,20.5845,21.6039,143.85,98.3742,94.4049,,,,-311.921,0.362953,0.0,0.0