File: 01_Data/Asphalt_Shingle/Cone/Asphalt_Shingle_Cone_HF50Scalar_220415_R2.csv
LABORATORY,FSRI
TEST IDENT,Shingles_HF50_2
OPERATOR,Dow
MATERIAL,Fiberglass asphalt shingles
ORIENTATION,Horizontal
HEAT FLUX,50
SURF AREA,0.01
C FACTOR,0.0397182
SPEC HOLDER DIFF,-566
SPECIMEN MASS,36.95
SCAN TIME,0.25
O2 DELAY TIME,11
CO DELAY TIME,11
CO2 DELAY TIME,8
FLOW FACTOR,1
SCAN COUNT,858
TIME TO IGN,26
END OF TEST SCAN,378
END OF TEST TIME,94.5
TEST STATUS,1
PRE TEST CMT,Dimensions: 100.51 x 101.47 x 2.51 mm