File: 01_Data/Corian_Countertop/HFM/Corian_Countertop_Density_Dry_R1.csv
,Corian_Countertop_DRY_1
Sample Mass [g],850.2
Sample Volume [cm3],508.7
Sample Density [kg/m3],1671