File: 01_Data/Corian_Countertop/HFM/Corian_Countertop_Ignition_Temp_Properties.csv
Thermal Conductivity (W/m-K),0.386
Heat Capacity (J/kg-K),
Density (kg/m3),