File: 01_Data/Corian_Countertop/HFM/Corian_Countertop_Density_Dry_R3.csv
,Corian_Countertop_DRY_3
Sample Mass [g],849.5
Sample Volume [cm3],508.0
Sample Density [kg/m3],1672