File: 01_Data/Corian_Countertop/HFM/Corian_Countertop_Density_Dry_R2.csv
,Corian_Countertop_DRY_2
Sample Mass [g],848.5
Sample Volume [cm3],502.6
Sample Density [kg/m3],1688