File: 01_Data/Gypsum_Wallboard_Paper/STA/N2/30K_min/Gypsum_Wallboard_Paper_STA_N2_30KData_220217_R2.csv
##Temp./Â°C,Time/min,Mass loss(subtr.2)/mg,DSC(subtr.2)/(mW/mg),Sensit./(uV/mW)
48.715,10.00917,-0.06702,0.03215669,1.08896
51.715,10.8588,-0.076336,0.16213,1.08643
54.715,11.08516,-0.07333921,0.26234,1.08392
57.715,11.25877,-0.07230416,0.33724,1.08143
60.715,11.40765,-0.07269613,0.40239,1.07894
63.715,11.54292,-0.07607771,0.46181,1.07648
66.715,11.66927,-0.07600548,0.51477,1.07403
69.715,11.78947,-0.07347121,0.56494,1.0716
72.715,11.90552,-0.0765075,0.61051,1.06918
75.715,12.01895,-0.07943235,0.65475,1.06677
78.715,12.1294,-0.08031047,0.69794,1.06439
81.715,12.23816,-0.08313475,0.74067,1.06202
84.715,12.3454,-0.08540234,0.78194,1.05966
87.715,12.45106,-0.08629524,0.82532,1.05732
90.715,12.5556,-0.08840044,0.86281,1.05499
93.715,12.6591,-0.08841005,0.90129,1.05268
96.715,12.76193,-0.08971313,0.93816,1.05038
99.715,12.86438,-0.09228487,0.97434,1.0481
102.715,12.9663,-0.09642558,1.00038,1.04584
105.715,13.0677,-0.09900523,1.01912,1.04359
108.715,13.16889,-0.10297,1.03287,1.04135
111.715,13.27,-0.10597,1.03938,1.03913
114.715,13.37065,-0.10602,1.04118,1.03693
117.715,13.4707,-0.11003,1.0402,1.03474
120.715,13.57071,-0.11089,1.03834,1.03256
123.715,13.67022,-0.11089,1.02719,1.0304
126.715,13.769,-0.1122,1.01975,1.02825
129.715,13.8674,-0.11627,1.00556,1.02612
132.715,13.96543,-0.119,0.99535,1.024
135.715,14.06298,-0.12427,0.9837,1.0219
138.715,14.1601,-0.1253,0.96532,1.01981
141.715,14.25637,-0.12525,0.94524,1.01774
144.715,14.35244,-0.12662,0.92413,1.01567
147.715,14.4482,-0.12912,0.90834,1.01363
150.715,14.54393,-0.12785,0.89685,1.01159
153.715,14.63916,-0.12767,0.88708,1.00957
156.715,14.73426,-0.12767,0.88333,1.00757
159.715,14.82906,-0.12865,0.8832,1.00557
162.715,14.92336,-0.12767,0.88207,1.00359
165.715,15.0179,-0.12899,0.88705,1.00163
168.715,15.112,-0.1303,0.89296,0.99968
171.715,15.20595,-0.13029,0.89525,0.99774
174.715,15.2996,-0.13294,0.90499,0.99581
177.715,15.3931,-0.13152,0.91114,0.99389
180.715,15.4862,-0.13274,0.9188,0.99199
183.715,15.5792,-0.13294,0.92606,0.9901
186.715,15.67165,-0.13164,0.93398,0.98822
189.715,15.764,-0.1313,0.938,0.98636
192.715,15.8561,-0.13261,0.94709,0.9845
195.715,15.9482,-0.13568,0.95509,0.98266
198.715,16.04015,-0.13569,0.9627,0.98083
201.715,16.13203,-0.13448,0.97145,0.97901
204.715,16.22364,-0.13703,0.97785,0.97721
207.715,16.3154,-0.13931,0.98589,0.97541
210.715,16.40699,-0.14073,0.99359,0.97363
213.715,16.49837,-0.14047,1.00247,0.97185
216.715,16.58967,-0.14105,1.00823,0.97009
219.715,16.68078,-0.14153,1.01707,0.96834
222.715,16.77202,-0.14368,1.02192,0.9666
225.715,16.86315,-0.14632,1.02903,0.96486
228.715,16.9539,-0.14632,1.03529,0.96314
231.715,17.0448,-0.14632,1.04061,0.96143
234.715,17.13554,-0.14919,1.05,0.95973
237.715,17.2263,-0.15064,1.05637,0.95803
240.715,17.317,-0.1545,1.06436,0.95635
243.715,17.40759,-0.15732,1.07039,0.95468
246.715,17.49822,-0.15913,1.07772,0.95301
249.715,17.5886,-0.16406,1.08501,0.95135
252.715,17.67907,-0.1654,1.08719,0.94971
255.715,17.7696,-0.17003,1.09116,0.94807
258.715,17.8601,-0.17903,1.09348,0.94643
261.715,17.95042,-0.18195,1.0967,0.94481
264.715,18.0408,-0.18579,1.09986,0.9432
267.715,18.13114,-0.1933,1.10443,0.94159
270.715,18.2215,-0.20123,1.11059,0.93999
273.715,18.31184,-0.21134,1.11756,0.93839
276.715,18.40241,-0.21975,1.12389,0.93681
279.715,18.49286,-0.23239,1.13193,0.93523
282.715,18.58349,-0.24702,1.14348,0.93366
285.715,18.6739,-0.26205,1.15903,0.93209
288.715,18.7644,-0.27834,1.1744,0.93053
291.715,18.85511,-0.29533,1.18997,0.92898
294.715,18.94581,-0.315,1.21138,0.92743
297.715,19.0364,-0.33744,1.23429,0.92589
300.715,19.12728,-0.3615,1.25986,0.92435
303.715,19.21801,-0.38853,1.28571,0.92282
306.715,19.30878,-0.41775,1.314,0.92129
309.715,19.3996,-0.4523,1.34359,0.91977
312.715,19.49073,-0.48872,1.37665,0.91825
315.715,19.58173,-0.52716,1.41059,0.91674
318.715,19.67267,-0.5687,1.44524,0.91523
321.715,19.764,-0.61379,1.48205,0.91372
324.715,19.85519,-0.66228,1.51774,0.91222
327.715,19.94642,-0.71408,1.55311,0.91072
330.715,20.03792,-0.77228,1.589,0.90923
333.715,20.12923,-0.83144,1.62519,0.90774
336.715,20.22069,-0.89168,1.66159,0.90625
339.715,20.31232,-0.95729,1.69735,0.90477
342.715,20.40397,-1.02388,1.73559,0.90328
345.715,20.49555,-1.09428,1.77612,0.9018
348.715,20.58744,-1.17133,1.82129,0.90032
351.715,20.67936,-1.2541,1.8681,0.89885
354.715,20.77144,-1.33739,1.91992,0.89737
357.715,20.86355,-1.42503,1.97965,0.8959
360.715,20.95588,-1.52534,2.0392,0.89443
363.715,21.04825,-1.62341,2.1007,0.89296
366.715,21.14068,-1.72735,2.16094,0.89149
369.715,21.23315,-1.83735,2.20634,0.89002
372.715,21.3258,-1.95146,2.22746,0.88855
375.715,21.41822,-2.0626,2.20831,0.88708
378.715,21.51137,-2.1786,2.1281,0.88561
381.715,21.604,-2.28945,1.98281,0.88414
384.715,21.69683,-2.39012,1.75753,0.88267
387.715,21.78964,-2.48147,1.46766,0.8812
390.715,21.88196,-2.55183,1.13732,0.87973
393.715,21.97458,-2.60707,0.81326,0.87825
396.715,22.06721,-2.64189,0.53672,0.87678
399.715,22.16007,-2.66777,0.33555,0.87531
402.715,22.25233,-2.68289,0.20799,0.87383
405.715,22.34599,-2.69376,0.12904,0.87235
408.715,22.4392,-2.70014,0.07456529,0.87087
411.715,22.53216,-2.70668,0.04029728,0.86939
414.715,22.62632,-2.71315,0.01396594,0.8679
417.715,22.71999,-2.72073,-0.009743511,0.86642
420.715,22.81373,-2.72939,-0.02464051,0.86493
423.715,22.90757,-2.73843,-0.04227214,0.86343
426.715,23.00131,-2.74527,-0.05566093,0.86194
429.715,23.09573,-2.75311,-0.07005031,0.86044
432.715,23.18995,-2.7578,-0.08047878,0.85893
435.715,23.28435,-2.7683,-0.08314804,0.85742
438.715,23.37904,-2.77647,-0.0891403,0.85591
441.715,23.47374,-2.78446,-0.08785116,0.8544
444.715,23.56867,-2.79082,-0.08899563,0.85288
447.715,23.6635,-2.79769,-0.08852538,0.85135
450.715,23.75826,-2.8046,-0.07767629,0.84982
453.715,23.85393,-2.81134,-0.07446984,0.84829
456.715,23.94904,-2.81694,-0.06652443,0.84675
459.715,24.0444,-2.82215,-0.05941978,0.84521
462.715,24.13991,-2.8281,-0.05438792,0.84366
465.715,24.23537,-2.83381,-0.04620367,0.8421
468.715,24.33084,-2.84073,-0.04074104,0.84054
471.715,24.42632,-2.84562,-0.03544863,0.83898
474.715,24.52196,-2.85003,-0.02840769,0.8374
477.715,24.61763,-2.85469,-0.02648174,0.83582
480.715,24.71341,-2.85761,-0.0242513,0.83424
483.715,24.80894,-2.86259,-0.01984442,0.83265
486.715,24.90455,-2.8655,-0.020956,0.83105
489.715,25.00021,-2.87024,-0.02133631,0.82944
492.715,25.09581,-2.87568,-0.02015671,0.82783
495.715,25.19117,-2.8799,-0.01980101,0.82621
498.715,25.287,-2.88306,-0.02310428,0.82458
501.715,25.383,-2.88776,-0.0244735,0.82295
504.715,25.47885,-2.89253,-0.02471945,0.82131
507.715,25.5749,-2.89637,-0.02120505,0.81966
510.715,25.67083,-2.89931,-0.0234054,0.818
513.715,25.76717,-2.90453,-0.02966157,0.81634
516.715,25.86344,-2.90623,-0.0287675,0.81466
519.715,25.95962,-2.90858,-0.02715931,0.81298
522.715,26.05593,-2.91158,-0.0303823,0.81129
525.715,26.15258,-2.91585,-0.03179182,0.80959
528.715,26.24949,-2.91886,-0.0314195,0.80788
531.715,26.3461,-2.92003,-0.03567228,0.80617
534.715,26.44267,-2.92285,-0.03876474,0.80444
537.715,26.5394,-2.92412,-0.03972261,0.8027
540.715,26.63648,-2.92678,-0.04386918,0.80096
543.715,26.73344,-2.92889,-0.04349271,0.79921
546.715,26.83019,-2.93587,-0.03391717,0.79745
549.715,26.9273,-2.94051,-0.03190022,0.79567
552.715,27.0245,-2.93979,-0.02139274,0.79389
555.715,27.12162,-2.94284,-0.01658859,0.7921
558.715,27.21896,-2.94427,-0.01708284,0.7903
561.715,27.31642,-2.94562,-0.01379089,0.78849
564.715,27.4139,-2.94833,-0.01467738,0.78667
567.715,27.51128,-2.95045,-0.01503745,0.78484
570.715,27.60884,-2.95176,-0.01302584,0.78299
573.715,27.7063,-2.95548,-0.01620922,0.78114
576.715,27.8043,-2.95711,-0.01758822,0.77928
579.715,27.9022,-2.95861,-0.02422505,0.77741
582.715,27.99989,-2.96274,-0.02823692,0.77552
585.715,28.0982,-2.96562,-0.03318309,0.77363
588.715,28.1964,-2.968,-0.03613482,0.77173
591.715,28.29495,-2.96939,-0.03893233,0.76981
594.715,28.3935,-2.97062,-0.04199372,0.76788
597.715,28.49206,-2.97194,-0.04706573,0.76595
600.715,28.59089,-2.97508,-0.04456815,0.764
603.715,28.68947,-2.97533,-0.05014905,0.76204
606.715,28.78805,-2.97727,-0.05017876,0.76007
609.715,28.8867,-2.98062,-0.05145101,0.75809
612.715,28.98535,-2.98324,-0.05310889,0.7561
615.715,29.0841,-2.98303,-0.05342389,0.75409
618.715,29.183,-2.9821,-0.05184551,0.75208
621.715,29.2818,-2.98341,-0.0544689,0.75005
624.715,29.3805,-2.98663,-0.05201911,0.74801
627.715,29.4795,-2.98796,-0.04699477,0.74596
630.715,29.57834,-2.98927,-0.04486844,0.7439
633.715,29.6772,-2.99404,-0.04379422,0.74183
636.715,29.7764,-2.9963,-0.03805547,0.73974
639.715,29.875,-2.99631,-0.03580434,0.73765
642.715,29.97433,-2.99892,-0.03200815,0.73554
645.715,30.0734,-3.00057,-0.02547736,0.73342
648.715,30.1724,-3.00375,-0.02021585,0.73129
651.715,30.27157,-3.00585,-0.01595104,0.72915
654.715,30.3706,-3.00748,-0.00988686,0.727
657.715,30.47,-3.00972,-0.005405361,0.72483
660.715,30.5691,-3.0113,0.004303058,0.72265
663.715,30.6684,-3.01197,0.01482545,0.72047
666.715,30.76748,-3.01595,0.02534813,0.71827
669.715,30.8668,-3.01574,0.03941974,0.71605
672.715,30.9661,-3.01573,0.0546091,0.71383
675.715,31.06542,-3.01712,0.06436461,0.71159
678.715,31.1646,-3.01835,0.08191821,0.70935
681.715,31.2637,-3.02397,0.09910278,0.70709
684.715,31.3629,-3.03023,0.11378,0.70482
687.715,31.4621,-3.03626,0.12253,0.70253
690.715,31.56154,-3.03834,0.12741,0.70024
693.715,31.66098,-3.03708,0.12445,0.69794
696.715,31.76035,-3.03977,0.12325,0.69562
699.715,31.85995,-3.04391,0.11603,0.69329
702.715,31.95931,-3.04521,0.09539379,0.69095
705.715,32.05912,-3.04718,0.07188413,0.6886
708.715,32.15885,-3.04948,0.03920587,0.68623
711.715,32.25863,-3.05212,-0.005421768,0.68386
714.715,32.35853,-3.05436,-0.04449921,0.68147
717.715,32.45852,-3.0542,-0.08127867,0.67908
720.715,32.55847,-3.05625,-0.10196,0.67667
723.715,32.65862,-3.06034,-0.11495,0.67425
726.715,32.75887,-3.06166,-0.12725,0.67182
729.715,32.859,-3.06309,-0.12685,0.66938
732.715,32.9592,-3.06331,-0.1279,0.66692
735.715,33.05948,-3.06596,-0.13041,0.66446
738.715,33.15992,-3.06857,-0.13329,0.66198
741.715,33.26039,-3.07036,-0.13599,0.6595
743.815,33.3316,-3.07153,-0.13627,0.65775