File: 01_Data/Gypsum_Wallboard_Paper/STA/N2/30K_min/Gypsum_Wallboard_Paper_STA_N2_30KData_220217_R1.csv
##Temp./Â°C,Time/min,Mass loss(subtr.2)/mg,DSC(subtr.2)/(mW/mg),Sensit./(uV/mW)
48.755,10.01,-0.01052,0.02746905,1.08893
51.755,10.85742,-0.009742783,0.16837,1.0864
54.755,11.08347,-0.007317108,0.27293,1.08389
57.755,11.25715,-0.00908206,0.35794,1.08139
60.755,11.4076,-0.009462847,0.43079,1.07891
63.755,11.54217,-0.00880732,0.49402,1.07645
66.755,11.66883,-0.01015804,0.55409,1.074
69.755,11.789,-0.00896251,0.60451,1.07156
72.755,11.90475,-0.01099654,0.65391,1.06915
75.755,12.01779,-0.01222963,0.69985,1.06674
78.755,12.1279,-0.01228252,0.74776,1.06436
81.755,12.23653,-0.01421847,0.7917,1.06198
84.755,12.34318,-0.01571101,0.83476,1.05963
87.755,12.44838,-0.01581832,0.88149,1.05729
90.755,12.5528,-0.01736217,0.92172,1.05496
93.755,12.656,-0.01875853,0.96376,1.05265
96.755,12.7585,-0.02286212,1.00686,1.05035
99.755,12.86031,-0.02424906,1.03907,1.04807
102.755,12.96181,-0.02423743,1.06463,1.04581
105.755,13.06286,-0.02802149,1.08397,1.04356
108.755,13.1638,-0.02951985,1.09458,1.04132
111.755,13.26438,-0.03213004,1.10516,1.0391
114.755,13.36466,-0.03278059,1.10891,1.0369
117.755,13.46495,-0.03621492,1.11263,1.03471
120.755,13.56476,-0.03888902,1.11079,1.03253
123.755,13.6638,-0.04085894,1.10433,1.03037
126.755,13.7628,-0.04262094,1.09984,1.02823
129.755,13.86104,-0.04343002,1.09124,1.02609
132.755,13.959,-0.04541038,1.08294,1.02398
135.755,14.0564,-0.04802949,1.07127,1.02187
138.755,14.1533,-0.04935713,1.05445,1.01978
141.755,14.25004,-0.0500115,1.03557,1.01771
144.755,14.34596,-0.05167953,1.01831,1.01565
147.755,14.44201,-0.05166,1.005,1.0136
150.755,14.5374,-0.05166,0.99932,1.01157
153.755,14.6325,-0.05223747,0.99524,1.00955
156.755,14.72758,-0.05298,0.99518,1.00754
159.755,14.82226,-0.05295643,0.9951,1.00555
162.755,14.91685,-0.0542881,1.00062,1.00357
165.755,15.01123,-0.05297998,1.00391,1.0016
168.755,15.10544,-0.05297987,1.01108,0.99965
171.755,15.19955,-0.05166001,1.01988,0.99771
174.755,15.29313,-0.05265054,1.02606,0.99578
177.755,15.38664,-0.05255523,1.03295,0.99387
180.755,15.4801,-0.05396,1.04167,0.99197
183.755,15.5729,-0.05395999,1.05098,0.99008
186.755,15.6656,-0.05428181,1.06086,0.9882
189.755,15.75811,-0.05429,1.06928,0.98633
192.755,15.85043,-0.05428271,1.0814,0.98448
195.755,15.94244,-0.05659008,1.08756,0.98264
198.755,16.03438,-0.05659,1.09812,0.98081
201.755,16.1263,-0.05659007,1.10495,0.97899
204.755,16.21823,-0.05791573,1.1149,0.97718
207.755,16.30975,-0.05791793,1.12143,0.97539
210.755,16.40161,-0.05926657,1.13093,0.9736
213.755,16.4931,-0.05956374,1.1402,0.97183
216.755,16.58455,-0.06086119,1.14618,0.97007
219.755,16.67577,-0.06142043,1.15669,0.96831
222.755,16.76696,-0.06218636,1.16323,0.96657
225.755,16.85837,-0.06351359,1.17358,0.96484
228.755,16.94944,-0.06482819,1.17888,0.96312
231.755,17.04042,-0.06715676,1.19008,0.96141
234.755,17.13062,-0.06888118,1.1994,0.9597
237.755,17.22146,-0.07017625,1.20481,0.95801
240.755,17.31222,-0.07291042,1.21387,0.95633
243.755,17.40277,-0.07475286,1.22148,0.95465
246.755,17.49341,-0.07744617,1.22803,0.95299
249.755,17.5839,-0.08008856,1.23908,0.95133
252.755,17.6742,-0.08358888,1.24436,0.94968
255.755,17.76485,-0.0894777,1.25077,0.94804
258.755,17.85528,-0.0942519,1.25435,0.94641
261.755,17.94611,-0.09932819,1.26189,0.94479
264.755,18.03675,-0.10505,1.26639,0.94317
267.755,18.12734,-0.11297,1.26975,0.94157
270.755,18.2178,-0.12291,1.27683,0.93997
273.755,18.30827,-0.13169,1.28296,0.93837
276.755,18.3991,-0.14038,1.29486,0.93679
279.755,18.4898,-0.15298,1.30709,0.93521
282.755,18.58055,-0.16688,1.32241,0.93364
285.755,18.67146,-0.18166,1.33531,0.93207
288.755,18.76185,-0.19683,1.3515,0.93051
291.755,18.85296,-0.21644,1.37211,0.92896
294.755,18.94376,-0.23612,1.39426,0.92741
297.755,19.0349,-0.25876,1.41963,0.92586
300.755,19.1258,-0.28413,1.44414,0.92433
303.755,19.2167,-0.31315,1.47289,0.9228
306.755,19.30784,-0.34392,1.50724,0.92127
309.755,19.39891,-0.37832,1.5402,0.91975
312.755,19.48978,-0.41603,1.57444,0.91823
315.755,19.58107,-0.45667,1.60981,0.91672
318.755,19.6723,-0.50095,1.64666,0.91521
321.755,19.7636,-0.54794,1.6842,0.9137
324.755,19.85481,-0.59846,1.72012,0.9122
327.755,19.94637,-0.65206,1.75764,0.9107
330.755,20.0379,-0.70688,1.79539,0.90921
333.755,20.1293,-0.7678,1.83294,0.90772
336.755,20.22103,-0.8339,1.873,0.90623
339.755,20.31286,-0.89973,1.90877,0.90475
342.755,20.40479,-0.96968,1.94877,0.90326
345.755,20.4967,-1.04591,1.99076,0.90178
348.755,20.58878,-1.12551,2.03969,0.9003
351.755,20.6807,-1.20551,2.09064,0.89883
354.755,20.77282,-1.29365,2.14361,0.89735
357.755,20.86554,-1.38573,2.20551,0.89588
360.755,20.95808,-1.48285,2.26981,0.89441
363.755,21.05046,-1.58613,2.33603,0.89294
366.755,21.14315,-1.69652,2.40024,0.89147
369.755,21.23582,-1.80819,2.45091,0.89
372.755,21.32859,-1.92541,2.47806,0.88853
375.755,21.42116,-2.04951,2.46604,0.88706
378.755,21.51436,-2.16641,2.39736,0.88559
381.755,21.60729,-2.28019,2.26187,0.88412
384.755,21.7001,-2.38733,2.05101,0.88265
387.755,21.79281,-2.47603,1.77465,0.88118
390.755,21.88561,-2.55077,1.45346,0.87971
393.755,21.97843,-2.6085,1.13316,0.87824
396.755,22.0709,-2.64431,0.85498,0.87676
399.755,22.16356,-2.6692,0.6498,0.87529
402.755,22.25623,-2.68538,0.51774,0.87381
405.755,22.34929,-2.69491,0.43501,0.87233
408.755,22.44214,-2.70348,0.38292,0.87085
411.755,22.5355,-2.71153,0.35004,0.86937
414.755,22.62895,-2.71968,0.32258,0.86788
417.755,22.72254,-2.72872,0.30441,0.8664
420.755,22.8161,-2.7361,0.28428,0.86491
423.755,22.90973,-2.74377,0.27274,0.86341
426.755,23.00376,-2.75177,0.2608,0.86192
429.755,23.09757,-2.76027,0.25131,0.86042
432.755,23.1917,-2.76598,0.23836,0.85891
435.755,23.28582,-2.77294,0.23634,0.8574
438.755,23.38022,-2.78074,0.23403,0.85589
441.755,23.4744,-2.78677,0.23183,0.85438
444.755,23.5689,-2.79518,0.23253,0.85286
447.755,23.66355,-2.80371,0.2363,0.85133
450.755,23.7582,-2.80918,0.24078,0.8498
453.755,23.85286,-2.81533,0.24405,0.84827
456.755,23.9478,-2.82077,0.25301,0.84673
459.755,24.04255,-2.83007,0.25814,0.84519
462.755,24.13769,-2.83431,0.26542,0.84364
465.755,24.2328,-2.83982,0.27098,0.84208
468.755,24.328,-2.84613,0.27678,0.84052
471.755,24.42334,-2.85053,0.27811,0.83896
474.755,24.5188,-2.85467,0.28526,0.83738
477.755,24.61435,-2.86082,0.28796,0.8358
480.755,24.71,-2.86719,0.28843,0.83422
483.755,24.80571,-2.8718,0.29208,0.83263
486.755,24.90148,-2.87761,0.29042,0.83103
489.755,24.9972,-2.8822,0.28769,0.82942
492.755,25.09321,-2.88512,0.28839,0.82781
495.755,25.18903,-2.88891,0.28398,0.82619
498.755,25.2851,-2.89289,0.28359,0.82456
501.755,25.3807,-2.89734,0.28276,0.82293
504.755,25.4767,-2.89855,0.27719,0.82129
507.755,25.57295,-2.90297,0.2752,0.81964
510.755,25.66911,-2.9066,0.27229,0.81798
513.755,25.7654,-2.9094,0.27343,0.81631
516.755,25.86206,-2.9121,0.26945,0.81464
519.755,25.95859,-2.91555,0.27016,0.81296
522.755,26.05507,-2.91882,0.26905,0.81127
525.755,26.15161,-2.92144,0.26669,0.80957
528.755,26.2481,-2.92468,0.26819,0.80786
531.755,26.3448,-2.92787,0.26587,0.80614
534.755,26.44156,-2.93074,0.26465,0.80442
537.755,26.5382,-2.93454,0.25879,0.80268
540.755,26.63502,-2.93764,0.26,0.80094
543.755,26.73195,-2.94014,0.2583,0.79918
546.755,26.8289,-2.94144,0.26623,0.79742
549.755,26.9255,-2.9441,0.26985,0.79565
552.755,27.0231,-2.94691,0.2749,0.79387
555.755,27.12043,-2.94759,0.278,0.79208
558.755,27.21772,-2.95015,0.279,0.79028
561.755,27.3152,-2.95297,0.27999,0.78846
564.755,27.41287,-2.95452,0.27938,0.78664
567.755,27.5104,-2.95728,0.27565,0.78481
570.755,27.608,-2.95819,0.27237,0.78297
573.755,27.7058,-2.96143,0.26993,0.78112
576.755,27.8034,-2.96499,0.26643,0.77926
579.755,27.90135,-2.96653,0.26504,0.77738
582.755,27.99925,-2.96778,0.25848,0.7755
585.755,28.0973,-2.97141,0.25852,0.7736
588.755,28.19544,-2.97138,0.25585,0.7717
591.755,28.2936,-2.97407,0.25251,0.76978
594.755,28.39173,-2.97616,0.25184,0.76786
597.755,28.48984,-2.97808,0.2499,0.76592
600.755,28.58822,-2.97933,0.24769,0.76397
603.755,28.68644,-2.98204,0.24882,0.76201
606.755,28.7847,-2.9847,0.24868,0.76004
609.755,28.8831,-2.98607,0.25179,0.75806
612.755,28.98175,-2.9873,0.25274,0.75607
615.755,29.0804,-2.98993,0.25858,0.75406
618.755,29.17902,-2.99124,0.25892,0.75205
621.755,29.27777,-2.99223,0.26462,0.75002
624.755,29.37658,-2.99457,0.26247,0.74798
627.755,29.47547,-2.99687,0.26049,0.74593
630.755,29.5742,-2.99947,0.26202,0.74387
633.755,29.6732,-3.00098,0.26971,0.7418
636.755,29.77228,-3.00243,0.27219,0.73972
639.755,29.87122,-3.00482,0.27521,0.73762
642.755,29.97036,-3.00506,0.28005,0.73551
645.755,30.0694,-3.00769,0.28341,0.7334
648.755,30.16862,-3.00991,0.28824,0.73126
651.755,30.268,-3.01132,0.29608,0.72912
654.755,30.3673,-3.01395,0.30197,0.72697
657.755,30.4665,-3.01629,0.30787,0.7248
660.755,30.56583,-3.01657,0.31712,0.72263
663.755,30.6651,-3.01922,0.33024,0.72044
666.755,30.76434,-3.02184,0.3388,0.71824
669.755,30.86378,-3.02388,0.35443,0.71602
672.755,30.963,-3.02574,0.37035,0.7138
675.755,31.06261,-3.02799,0.38681,0.71156
678.755,31.1619,-3.03163,0.40181,0.70932
681.755,31.2613,-3.03311,0.41243,0.70706
684.755,31.36105,-3.03884,0.42706,0.70479
687.755,31.4607,-3.04018,0.43262,0.7025
690.755,31.56017,-3.0428,0.43394,0.70021
693.755,31.6597,-3.04553,0.43026,0.6979
696.755,31.7597,-3.04858,0.4215,0.69559
699.755,31.8594,-3.05207,0.40322,0.69326
702.755,31.9593,-3.05519,0.37659,0.69092
705.755,32.05911,-3.05752,0.34648,0.68857
708.755,32.15909,-3.0598,0.31053,0.6862
711.755,32.2591,-3.06179,0.2702,0.68383
714.755,32.35907,-3.0634,0.24107,0.68144
717.755,32.45902,-3.06474,0.21513,0.67905
720.755,32.55907,-3.06605,0.19388,0.67664
723.755,32.6591,-3.06737,0.19012,0.67422
726.755,32.7592,-3.07,0.18204,0.67179
729.755,32.85934,-3.07128,0.18338,0.66934
732.755,32.9596,-3.07362,0.18029,0.66689
735.755,33.05972,-3.07425,0.17583,0.66443
738.755,33.16024,-3.07625,0.17562,0.66195
741.755,33.26044,-3.07757,0.17161,0.65946
743.855,33.33202,-3.07893,0.17297,0.65772