File: 01_Data/Pine_Siding/MCC/Pine_Siding_30K_min_210608_R1.txt
Sample ID:	C:\MCC\MCC Cal\Test\Pine_Siding\Pine_Siding_30_1.txt
Sample Weight (mg):	3.88
Heating Rate (C/s):	0.5
Combustor Temp (C):	900
N2 Flow Rate (cc/min):	80
O2 Flow Rate (cc/min):	20
Calibration File:	C:\MCC\MCC Cal\Coeff1 JN10440_30_210304.txt.txt
T Correction Coefficients:	0	1.024463	0
Time Shift (s):	14
*
Time (s)	Temperature (C)	N2 flow rate (cc/min)	O2 flow rate (cc/min)	Flow Rate (cc/min)	Oxygen (%)	HRR (W/g)	Heating rate (C/s)
0.000	108.507	79.981	19.993	99.917	19.957	0.448	-0.018
8.000	108.473	79.981	19.994	99.913	19.962	0.043	-0.042
16.001	108.498	79.980	19.992	99.960	19.952	0.906	-0.003
24.000	108.710	79.980	19.992	100.028	19.939	1.962	0.062
32.001	109.188	79.983	19.992	100.056	19.934	2.351	0.076
40.000	110.109	79.983	19.990	100.072	19.926	2.954	0.161
48.000	111.325	79.983	19.991	100.107	19.920	3.450	0.175
56.000	112.886	79.984	19.991	100.147	19.914	3.936	0.207
64.001	114.785	79.983	19.992	100.147	19.909	4.365	0.243
72.000	117.105	79.980	19.994	100.167	19.910	4.280	0.279
80.000	119.724	79.981	19.994	100.181	19.910	4.230	0.342
88.000	122.722	79.981	19.993	100.174	19.903	4.795	0.393
96.001	125.889	79.980	19.993	100.178	19.907	4.510	0.420
104.000	129.254	79.981	19.992	100.171	19.903	4.868	0.416
112.000	132.770	79.986	19.989	100.180	19.900	5.048	0.473
120.000	136.470	79.983	19.992	100.172	19.899	5.157	0.446
128.000	140.234	79.982	19.996	100.163	19.900	5.087	0.466
136.000	144.130	79.989	19.990	100.150	19.904	4.735	0.465
144.000	148.211	79.986	19.993	100.152	19.906	4.603	0.527
152.000	152.297	79.982	19.991	100.149	19.905	4.672	0.515
160.000	156.265	79.981	19.992	100.148	19.903	4.811	0.493
168.000	160.368	79.983	19.994	100.150	19.905	4.670	0.519
176.000	164.410	79.987	19.991	100.135	19.902	4.868	0.516
184.000	168.516	79.982	19.993	100.124	19.904	4.777	0.496
192.000	172.554	79.984	19.989	100.130	19.906	4.621	0.513
200.000	176.554	79.988	19.993	100.110	19.907	4.506	0.486
208.000	180.532	79.982	19.993	100.115	19.904	4.720	0.498
216.000	184.537	79.983	19.989	100.111	19.903	4.853	0.526
224.000	188.535	79.983	19.992	100.109	19.905	4.642	0.505
232.000	192.478	79.977	19.991	100.105	19.904	4.783	0.509
240.000	196.417	79.980	19.994	100.109	19.898	5.238	0.484
248.000	200.406	79.983	19.990	100.103	19.896	5.379	0.518
256.000	204.292	79.982	19.992	100.101	19.896	5.361	0.516
264.000	208.248	79.980	19.996	100.104	19.889	5.965	0.502
272.000	212.175	79.976	19.996	100.100	19.891	5.780	0.466
280.000	216.155	79.982	19.993	100.102	19.891	5.828	0.490
288.000	220.114	79.982	19.992	100.088	19.886	6.203	0.495
296.000	224.053	79.982	19.992	100.079	19.885	6.296	0.458
304.000	228.044	79.984	19.992	100.100	19.876	6.977	0.480
312.000	232.060	79.982	19.990	100.080	19.876	6.981	0.489
320.000	236.020	79.982	19.992	100.099	19.870	7.445	0.503
328.000	240.028	79.982	19.992	100.103	19.864	7.933	0.500
336.000	244.056	79.978	19.993	100.110	19.861	8.228	0.502
344.000	248.064	79.982	19.991	100.096	19.856	8.572	0.502
352.000	252.171	79.980	19.991	100.091	19.850	9.113	0.502
360.000	256.195	79.984	19.993	100.088	19.841	9.818	0.493
368.000	260.207	79.982	19.993	100.037	19.831	10.589	0.484
376.000	264.246	79.980	19.996	100.094	19.820	11.470	0.516
384.000	268.266	79.986	19.990	100.100	19.811	12.250	0.507
392.000	272.294	79.983	19.992	100.104	19.800	13.128	0.511
400.000	276.299	79.984	19.992	100.112	19.786	14.235	0.490
408.000	280.292	79.983	19.991	100.114	19.770	15.573	0.497
416.000	284.291	79.978	19.992	100.116	19.753	16.942	0.507
424.000	288.259	79.982	19.993	100.113	19.730	18.760	0.519
432.000	292.261	79.980	19.993	100.134	19.703	20.966	0.490
440.000	296.229	79.984	19.992	100.140	19.680	22.814	0.498
448.000	300.213	79.980	19.996	100.145	19.649	25.260	0.494
456.000	304.202	79.981	19.994	100.149	19.620	27.662	0.505
464.000	308.208	79.984	19.992	100.169	19.585	30.409	0.476
472.000	312.316	79.983	19.991	100.186	19.550	33.262	0.501
480.000	316.326	79.981	19.992	100.188	19.516	36.030	0.517
488.000	320.309	79.982	19.992	100.188	19.477	39.130	0.494
496.000	324.358	79.982	19.992	100.198	19.446	41.622	0.522
504.000	328.407	79.982	19.992	100.205	19.415	44.140	0.525
512.000	332.464	79.983	19.992	100.212	19.384	46.623	0.521
520.000	336.504	79.983	19.993	100.213	19.359	48.711	0.485
528.000	340.559	79.984	19.993	100.223	19.333	50.791	0.518
536.000	344.574	79.982	19.992	100.226	19.305	53.002	0.527
544.000	348.604	79.981	19.992	100.232	19.281	54.950	0.504
552.000	352.626	79.983	19.992	100.242	19.249	57.599	0.488
560.000	356.717	79.982	19.991	100.260	19.207	60.952	0.492
568.000	360.781	79.982	19.992	100.271	19.168	64.124	0.505
576.000	364.849	79.981	19.994	100.301	19.117	68.268	0.542
584.000	368.891	79.982	19.992	100.298	19.065	72.452	0.536
592.000	372.958	79.981	19.992	100.309	19.028	75.432	0.490
600.000	376.983	79.983	19.993	100.299	19.017	76.209	0.494
608.000	381.085	79.983	19.992	100.254	19.055	73.128	0.507
616.000	385.131	79.981	19.993	100.191	19.150	65.420	0.500
624.000	389.188	79.982	19.993	100.134	19.293	53.933	0.517
632.000	393.267	79.984	19.993	100.070	19.464	40.155	0.527
640.000	397.353	79.980	19.992	100.043	19.611	28.344	0.493
648.000	401.453	79.983	19.992	100.031	19.725	19.131	0.538
656.000	405.453	79.982	19.992	100.032	19.787	14.178	0.537
664.000	409.499	79.981	19.992	100.035	19.816	11.794	0.517
672.000	413.484	79.981	19.992	100.034	19.829	10.805	0.495
680.000	417.505	79.984	19.992	100.030	19.838	10.079	0.549
688.000	421.492	79.983	19.991	100.029	19.842	9.732	0.474
696.000	425.594	79.983	19.992	100.027	19.847	9.317	0.509
704.000	429.725	79.986	19.992	100.024	19.845	9.483	0.539
712.000	433.933	79.984	19.993	100.031	19.858	8.451	0.637
720.000	437.802	79.981	19.993	100.028	19.863	8.078	0.488
728.000	441.940	79.980	19.993	100.032	19.865	7.900	0.424
736.000	446.047	79.981	19.992	100.030	19.866	7.798	0.489
744.000	450.183	79.982	19.992	100.030	19.869	7.571	0.536
752.000	454.301	79.982	19.993	100.030	19.876	7.005	0.494
760.000	458.386	79.984	19.992	100.026	19.879	6.786	0.504
768.000	462.506	79.984	19.992	100.008	19.883	6.426	0.512
776.000	466.571	79.982	19.993	100.025	19.886	6.156	0.540
784.000	470.723	79.984	19.992	100.031	19.890	5.858	0.536
792.000	474.880	79.985	19.993	100.023	19.893	5.605	0.513
800.000	478.933	79.982	19.993	100.022	19.899	5.156	0.529
808.000	483.065	79.982	19.994	100.023	19.901	4.987	0.537
816.000	487.131	79.982	19.993	100.024	19.906	4.606	0.504
824.000	491.268	79.982	19.992	100.010	19.905	4.644	0.508
832.000	495.418	79.981	19.992	100.011	19.910	4.245	0.529
840.000	499.504	79.982	19.992	100.017	19.913	4.031	0.522
848.000	503.558	79.984	19.993	100.021	19.917	3.727	0.510
856.000	507.619	79.982	19.992	100.023	19.920	3.463	0.478
864.000	511.667	79.984	19.992	100.012	19.917	3.716	0.521
872.000	515.689	79.984	19.993	100.001	19.917	3.669	0.492
880.000	519.838	79.982	19.994	100.010	19.919	3.552	0.508
888.000	523.946	79.981	19.993	100.019	19.918	3.630	0.507
896.000	528.063	79.980	19.994	100.008	19.916	3.784	0.534
904.000	532.162	79.981	19.992	100.007	19.919	3.495	0.489
912.000	536.305	79.982	19.992	100.010	19.918	3.599	0.479
920.000	540.437	79.982	19.993	100.009	19.921	3.402	0.529
928.000	544.551	79.983	19.992	100.010	19.921	3.359	0.528
936.000	548.672	79.983	19.992	99.998	19.922	3.261	0.521
944.000	552.791	79.983	19.991	99.996	19.920	3.415	0.526
952.000	556.921	79.984	19.992	99.997	19.923	3.218	0.507
960.000	561.027	79.981	19.993	99.995	19.923	3.209	0.464
968.000	565.181	79.981	19.992	99.998	19.925	3.057	0.501
976.000	569.325	79.981	19.994	100.018	19.925	3.060	0.519
984.000	573.462	79.982	19.993	99.993	19.923	3.183	0.529
992.000	577.554	79.981	19.993	100.000	19.932	2.498	0.496
1000.000	581.682	79.982	19.992	99.996	19.927	2.890	0.520
1008.000	585.760	79.983	19.992	99.992	19.927	2.899	0.520
1016.000	589.803	79.983	19.993	100.002	19.927	2.877	0.512
1024.000	593.934	79.982	19.992	99.991	19.926	2.958	0.547
1032.000	597.984	79.984	19.991	99.999	19.926	2.981	0.526
1040.000	602.044	79.984	19.994	100.005	19.928	2.795	0.466
1048.000	606.158	79.982	19.994	100.007	19.928	2.834	0.501
1056.000	610.226	79.981	19.992	99.995	19.933	2.409	0.525
1064.000	614.295	79.982	19.993	99.990	19.934	2.329	0.518
1072.000	618.388	79.981	19.994	99.991	19.930	2.665	0.511
1080.001	622.444	79.981	19.994	99.990	19.928	2.775	0.523
1088.000	626.514	79.983	19.991	99.998	19.930	2.682	0.525
1096.000	630.603	79.983	19.993	99.993	19.927	2.901	0.525
1104.001	634.732	79.984	19.992	99.991	19.934	2.295	0.512
1112.000	638.862	79.984	19.992	99.989	19.933	2.414	0.507
1120.001	642.898	79.981	19.993	99.992	19.928	2.849	0.525
1128.001	646.920	79.982	19.993	99.991	19.933	2.370	0.522
1136.000	651.050	79.982	19.993	99.991	19.929	2.691	0.559
1144.000	655.096	79.981	19.993	99.990	19.933	2.401	0.526
1152.001	659.169	79.981	19.993	99.987	19.930	2.689	0.530
1160.000	663.260	79.982	19.993	99.993	19.929	2.717	0.509
1168.000	667.348	79.983	19.995	99.991	19.929	2.743	0.503
1176.000	671.476	79.981	19.992	99.993	19.926	2.944	0.518
1184.000	675.689	79.984	19.992	99.988	19.928	2.773	0.556
1192.000	679.702	79.986	19.991	99.988	19.931	2.567	0.518
1200.000	683.804	79.982	19.993	99.987	19.930	2.669	0.515
1208.000	687.901	79.982	19.991	99.991	19.930	2.626	0.517
1216.000	691.987	79.982	19.992	99.989	19.927	2.886	0.485
1224.000	696.064	79.983	19.993	99.982	19.926	2.946	0.500
1232.001	700.046	79.983	19.992	99.991	19.924	3.105	0.470
1240.000	704.065	79.982	19.992	99.985	19.927	2.924	0.516
1248.000	708.082	79.982	19.993	99.986	19.928	2.780	0.523
1256.001	712.136	79.983	19.993	99.980	19.930	2.687	0.515
1264.000	716.252	79.984	19.991	99.988	19.933	2.435	0.518
1272.000	720.437	79.984	19.991	99.987	19.927	2.901	0.525
1280.000	724.505	79.982	19.992	99.968	19.929	2.699	0.494
1288.000	728.516	79.982	19.991	99.988	19.923	3.240	0.485
1296.000	732.595	79.982	19.993	99.991	19.931	2.602	0.503
1304.000	736.605	79.981	19.991	99.991	19.925	3.014	0.499
1312.000	740.592	79.981	19.994	99.992	19.927	2.914	0.475
1318.000	743.582	79.981	19.993	99.969	19.922	3.308	0.510