File: 01_Data/LW_GypBoard_Gypsum_Core/STA/N2/30K_min/Lw_Gypsum_Core_STA_N2_30KData_222802_R2.csv
##Temp./Â°C,Time/min,Mass loss(subtr.2)/mg,DSC(subtr.2)/(mW/mg),Sensit./(uV/mW)
48.881,10.00667,-0.01119,0.005164929,1.08882
52.481,10.91165,-0.01120821,0.14942,1.08579
56.081,11.1576,-0.01012146,0.24232,1.08278
59.681,11.34874,-0.01246861,0.31931,1.0798
63.281,11.51469,-0.01082892,0.38606,1.07684
66.881,11.66617,-0.01318348,0.44179,1.0739
70.481,11.8099,-0.01302022,0.49138,1.07098
74.081,11.94759,-0.01494975,0.53858,1.06808
77.681,12.08158,-0.01315581,0.58689,1.06521
81.281,12.21224,-0.0154081,0.6345,1.06236
84.881,12.34065,-0.01557982,0.68781,1.05953
88.481,12.46677,-0.01842933,0.74759,1.05672
92.081,12.59145,-0.02127246,0.81844,1.05394
95.681,12.7151,-0.02346368,0.89896,1.05117
99.281,12.8377,-0.0278002,1.00104,1.04843
102.881,12.9596,-0.03109198,1.13071,1.04571
106.481,13.0819,-0.03703914,1.30489,1.04302
110.081,13.2037,-0.04719971,1.50854,1.04034
113.681,13.32514,-0.06058911,1.73446,1.03769
117.281,13.44614,-0.07294217,2.05076,1.03505
120.881,13.56751,-0.09346103,2.71418,1.03244
124.481,13.68893,-0.12176,3.71916,1.02985
128.081,13.8103,-0.16678,5.00771,1.02728
131.681,13.93299,-0.22402,6.57237,1.02473
135.281,14.05577,-0.30046,8.20557,1.0222
138.881,14.17915,-0.38539,9.21865,1.0197
142.481,14.30075,-0.46527,8.62794,1.01721
146.081,14.41959,-0.5213,7.30049,1.01474
149.681,14.536,-0.56682,7.19097,1.01229
153.281,14.6519,-0.61906,7.54322,1.00987
156.881,14.76711,-0.67313,7.01101,1.00746
160.481,14.88049,-0.7043,4.51433,1.00507
164.081,14.9914,-0.71349,2.90582,1.0027
167.681,15.101,-0.71724,1.99779,1.00035
171.281,15.21016,-0.72038,1.4909,0.99801
174.881,15.31923,-0.72311,1.20814,0.9957
178.481,15.4285,-0.72644,1.04844,0.99341
182.081,15.5377,-0.72777,0.9451,0.99113
185.681,15.64662,-0.72841,0.88643,0.98887
189.281,15.75539,-0.73174,0.8455,0.98663
192.881,15.86484,-0.73298,0.81705,0.9844
196.481,15.97374,-0.73435,0.80024,0.98219
200.081,16.08294,-0.73575,0.78507,0.98
203.681,16.19185,-0.73698,0.77495,0.97783
207.281,16.30098,-0.73863,0.76749,0.97567
210.881,16.40992,-0.73962,0.75924,0.97353
214.481,16.5189,-0.73869,0.75469,0.9714
218.081,16.6279,-0.7417,0.75354,0.96929
221.681,16.73677,-0.74127,0.75183,0.96719
225.281,16.84563,-0.74258,0.74885,0.96511
228.881,16.95443,-0.74389,0.74398,0.96305
232.481,17.06326,-0.74389,0.74085,0.96099
236.081,17.172,-0.74588,0.7395,0.95895
239.681,17.28068,-0.74587,0.73726,0.95693
243.281,17.38941,-0.74619,0.73483,0.95492
246.881,17.4981,-0.74718,0.72914,0.95292
250.481,17.60647,-0.74718,0.72468,0.95093
254.081,17.7153,-0.7485,0.7198,0.94896
257.681,17.824,-0.74981,0.71027,0.947
261.281,17.93241,-0.74981,0.70595,0.94505
264.881,18.04103,-0.74983,0.69502,0.94311
268.481,18.1496,-0.751,0.68821,0.94118
272.081,18.2582,-0.75113,0.67926,0.93926
275.681,18.3668,-0.75245,0.66692,0.93735
279.281,18.47542,-0.75341,0.65932,0.93546
282.881,18.58374,-0.75409,0.64889,0.93357
286.481,18.69274,-0.75409,0.63433,0.93169
290.081,18.80159,-0.75299,0.62241,0.92982
293.681,18.9104,-0.75377,0.61275,0.92796
297.281,19.0193,-0.75377,0.60315,0.92611
300.881,19.12829,-0.75641,0.59464,0.92426
304.481,19.23732,-0.75639,0.58347,0.92243
308.081,19.3463,-0.75801,0.576,0.9206
311.681,19.45553,-0.75805,0.56483,0.91877
315.281,19.56472,-0.76005,0.55204,0.91696
318.881,19.67411,-0.76001,0.53202,0.91514
322.481,19.7835,-0.76133,0.51679,0.91334
326.081,19.8931,-0.7623,0.49713,0.91154
329.681,20.0027,-0.76331,0.48111,0.90975
333.281,20.1125,-0.76462,0.46478,0.90795
336.881,20.22229,-0.76463,0.45329,0.90617
340.481,20.33215,-0.76727,0.44569,0.90439
344.081,20.4423,-0.76726,0.44379,0.90261
347.681,20.55249,-0.76912,0.44608,0.90083
351.281,20.6628,-0.76989,0.44671,0.89906
354.881,20.7731,-0.7712,0.44877,0.89729
358.481,20.88374,-0.77252,0.44455,0.89552
362.081,20.9943,-0.77353,0.43871,0.89376
365.681,21.10497,-0.77254,0.43047,0.89199
369.281,21.21582,-0.77383,0.41788,0.89023
372.881,21.32679,-0.77647,0.40376,0.88846
376.481,21.4377,-0.77647,0.38866,0.8867
380.081,21.54877,-0.77778,0.38118,0.88494
383.681,21.66011,-0.7791,0.37717,0.88318
387.281,21.7714,-0.78037,0.37667,0.88141
390.881,21.88316,-0.77973,0.38498,0.87965
394.481,21.99492,-0.78238,0.39489,0.87788
398.081,22.1068,-0.78239,0.40398,0.87611
401.681,22.21868,-0.78233,0.39947,0.87434
405.281,22.33074,-0.78404,0.38656,0.87257
408.881,22.44304,-0.78173,0.36403,0.87079
412.481,22.55538,-0.78264,0.33601,0.86901
416.081,22.6678,-0.78437,0.29851,0.86723
419.681,22.7804,-0.78508,0.23381,0.86544
423.281,22.89313,-0.78701,0.17462,0.86365
426.881,23.0058,-0.78832,0.11764,0.86185
430.481,23.11842,-0.78745,0.05218896,0.86005
434.081,23.2316,-0.78731,-0.01325233,0.85825
437.681,23.3447,-0.7873,-0.07023905,0.85643
441.281,23.4579,-0.78876,-0.11512,0.85462
444.881,23.57079,-0.79007,-0.13394,0.85279
448.481,23.68449,-0.79106,-0.12584,0.85096
452.081,23.7982,-0.79106,-0.08429656,0.84913
455.681,23.912,-0.79106,-0.0186565,0.84728
459.281,24.02606,-0.79106,0.05289509,0.84543
462.881,24.14009,-0.79106,0.12606,0.84357
466.481,24.25439,-0.79271,0.19658,0.84171
470.081,24.36874,-0.79278,0.25428,0.83983
473.681,24.48329,-0.79282,0.3027,0.83795
477.281,24.5979,-0.79414,0.34228,0.83605
480.881,24.71251,-0.79545,0.37429,0.83415
484.481,24.8273,-0.79413,0.39744,0.83224
488.081,24.94196,-0.79413,0.41833,0.83032
491.681,25.0568,-0.79545,0.4293,0.82839
495.281,25.17175,-0.7954,0.4384,0.82645
498.881,25.28661,-0.79611,0.44313,0.82449
502.481,25.4018,-0.79569,0.44815,0.82253
506.081,25.51715,-0.79572,0.45317,0.82056
509.681,25.63255,-0.7983,0.45457,0.81857
513.281,25.74814,-0.7983,0.45378,0.81658
516.881,25.8639,-0.7983,0.44804,0.81457
520.481,25.97982,-0.79962,0.44985,0.81255
524.081,26.0956,-0.79889,0.45244,0.81052
527.681,26.21153,-0.79896,0.46754,0.80847
531.281,26.3276,-0.80041,0.48309,0.80641
534.881,26.44401,-0.80017,0.49283,0.80434
538.481,26.5603,-0.80016,0.49575,0.80226
542.081,26.67669,-0.80148,0.49273,0.80016
545.681,26.79314,-0.80148,0.48927,0.79805
549.281,26.90972,-0.80214,0.48602,0.79593
552.881,27.02655,-0.80279,0.48628,0.79379
556.481,27.1436,-0.80411,0.4863,0.79164
560.081,27.26046,-0.80411,0.48874,0.78948
563.681,27.3775,-0.80411,0.48632,0.7873
567.281,27.49462,-0.80438,0.48885,0.7851
570.881,27.6117,-0.79937,0.49233,0.78289
574.481,27.7289,-0.80203,0.49174,0.78067
578.081,27.846,-0.80361,0.49238,0.77843
581.681,27.96392,-0.8108,0.4901,0.77617
585.281,28.08158,-0.8085,0.48683,0.7739
588.881,28.1993,-0.80719,0.48092,0.77162
592.481,28.3171,-0.80719,0.47722,0.76932
596.081,28.4347,-0.80588,0.47103,0.767
599.681,28.5528,-0.80616,0.46674,0.76467
603.281,28.6708,-0.80714,0.46607,0.76232
606.881,28.7889,-0.80717,0.46817,0.75996
610.481,28.90721,-0.80819,0.46687,0.75758
614.081,29.02526,-0.8085,0.46363,0.75518
617.681,29.1438,-0.8085,0.45154,0.75277
621.281,29.2619,-0.8108,0.43412,0.75034
624.881,29.3804,-0.81212,0.41825,0.7479
628.481,29.4989,-0.81217,0.39646,0.74544
632.081,29.6174,-0.81344,0.3865,0.74296
635.681,29.7361,-0.81342,0.37699,0.74046
639.281,29.85472,-0.81475,0.36887,0.73795
642.881,29.9736,-0.81607,0.36893,0.73543
646.481,30.09252,-0.81739,0.3689,0.73288
650.081,30.21138,-0.8187,0.37287,0.73032
653.681,30.33019,-0.82135,0.384,0.72774
657.281,30.4492,-0.82265,0.39758,0.72515
660.881,30.568,-0.82298,0.41402,0.72253
664.481,30.687,-0.822,0.43454,0.71991
668.081,30.80592,-0.82868,0.45736,0.71726
671.681,30.9251,-0.83383,0.47726,0.7146
675.281,31.0443,-0.83645,0.49695,0.71192
678.881,31.16354,-0.84056,0.51494,0.70922
682.481,31.28293,-0.84449,0.53222,0.70651
686.081,31.4023,-0.84744,0.53947,0.70378
689.681,31.5219,-0.85134,0.53967,0.70103
693.281,31.6413,-0.85495,0.53565,0.69827
696.881,31.76084,-0.85959,0.52578,0.69549
700.481,31.8803,-0.86325,0.51143,0.69269
704.081,32.00013,-0.86664,0.49473,0.68988
707.681,32.11981,-0.86936,0.47045,0.68705
711.281,32.2395,-0.87394,0.41936,0.6842
714.881,32.35944,-0.87769,0.32705,0.68134
718.481,32.47903,-0.87902,0.21283,0.67846
722.081,32.59925,-0.88001,0.10569,0.67557
725.681,32.7192,-0.88372,0.03290807,0.67266
729.281,32.8393,-0.88441,-0.008188447,0.66973
732.881,32.9596,-0.88441,-0.0292089,0.66679
736.481,33.07963,-0.88408,-0.0415267,0.66383
740.081,33.19977,-0.88539,-0.05188828,0.66085
743.681,33.32,-0.8844,-0.05868944,0.65786
747.281,33.44038,-0.88671,-0.07218817,0.65486
750.881,33.56089,-0.8867,-0.07890625,0.65183
754.481,33.6812,-0.88637,-0.0841778,0.6488
758.081,33.8018,-0.8857,-0.08734362,0.64575
761.681,33.92216,-0.88572,-0.0898977,0.64268
765.281,34.0428,-0.88669,-0.09591026,0.6396
768.881,34.1634,-0.88809,-0.10377,0.6365
772.481,34.2841,-0.88784,-0.10759,0.63339
776.081,34.40477,-0.88808,-0.10885,0.63026
779.681,34.52545,-0.88703,-0.11292,0.62712
783.281,34.64609,-0.88703,-0.11769,0.62397
786.881,34.76695,-0.88835,-0.12379,0.6208
790.481,34.88769,-0.888,-0.12481,0.61762
794.081,35.00847,-0.88835,-0.12674,0.61442
797.681,35.1291,-0.88771,-0.13314,0.61121
801.281,35.25,-0.8878,-0.1313,0.60799
804.881,35.37113,-0.88769,-0.13627,0.60475
808.481,35.49197,-0.88901,-0.14266,0.6015
812.081,35.613,-0.88997,-0.14451,0.59824
815.681,35.7341,-0.88933,-0.14304,0.59497
819.281,35.85521,-0.89032,-0.14584,0.59168
822.881,35.97637,-0.89032,-0.14868,0.58839
826.481,36.0976,-0.88901,-0.14937,0.58508
830.081,36.21897,-0.89033,-0.15153,0.58175
833.681,36.34028,-0.88901,-0.15247,0.57842
837.281,36.46115,-0.89008,-0.14859,0.57508
840.881,36.5831,-0.88901,-0.1539,0.57172
844.481,36.7045,-0.88967,-0.15143,0.56836
848.081,36.82631,-0.89003,-0.15646,0.56498
851.681,36.94802,-0.89033,-0.15717,0.56159
855.281,37.06969,-0.89164,-0.15733,0.55819
858.881,37.19144,-0.89032,-0.15881,0.55479
862.481,37.31333,-0.89164,-0.15095,0.55137
866.081,37.43543,-0.89164,-0.14584,0.54795
869.681,37.55717,-0.89164,-0.14117,0.54451
873.281,37.6791,-0.89205,-0.13876,0.54107
876.881,37.80083,-0.89131,-0.13735,0.53761
880.481,37.9225,-0.89164,-0.13205,0.53415
884.081,38.04403,-0.89032,-0.13159,0.53069
887.681,38.16523,-0.89099,-0.12737,0.52721
891.281,38.28673,-0.8923,-0.13209,0.52372
892.581,38.33052,-0.89163,-0.13029,0.52246