File: 01_Data/PET/STA/N2/10K_min/PET_STA_N2_10KData_210830_R2.csv
##Temp./Â°C,Time/min,Mass loss(subtr.2)/mg,DSC(subtr.2)/(mW/mg),Sensit./(uV/mW)
49.763,10.01,-0.0023,-0.01379932,1.03585
52.363,12.39227,-0.002110891,0.04501081,1.03571
54.963,13.09282,-0.002480986,0.07201348,1.03555
57.563,13.6524,-0.00447501,0.0898335,1.03535
60.163,14.14003,-0.002847933,0.10132,1.03513
62.763,14.5829,-0.002710635,0.11708,1.03488
65.363,14.99206,-0.001008715,0.12928,1.03459
67.963,15.3756,-0.00364125,0.14362,1.03429
70.563,15.74034,-0.003944429,0.15331,1.03395
73.163,16.08906,-0.006202956,0.15809,1.03358
75.763,16.424,-0.004017318,0.16231,1.03319
78.363,16.74881,-0.002827534,0.1739,1.03277
80.963,17.0625,-0.00342969,0.19487,1.03232
83.563,17.37013,-0.001313189,0.21039,1.03184
86.163,17.66816,-0.00391368,0.22142,1.03133
88.763,17.95991,-0.003834812,0.22844,1.0308
91.363,18.24609,-0.003832113,0.2349,1.03024
93.963,18.52682,-0.003838404,0.2406,1.02966
96.563,18.8034,-0.004566949,0.24467,1.02904
99.163,19.0757,-0.003446116,0.25091,1.02841
101.763,19.34528,-0.00358817,0.25456,1.02774
104.363,19.6118,-0.003931362,0.25909,1.02705
106.963,19.87604,-0.003971612,0.2633,1.02633
109.563,20.13788,-0.004423788,0.26896,1.02559
112.163,20.398,-0.00526051,0.27334,1.02482
114.763,20.65674,-0.003914774,0.27779,1.02403
117.363,20.91229,-0.003927389,0.28202,1.02321
119.963,21.16799,-0.004290502,0.28662,1.02237
122.563,21.4211,-0.0025782,0.28761,1.0215
125.163,21.67224,-0.002628464,0.29251,1.02061
127.763,21.92149,-0.002851904,0.29497,1.01969
130.363,22.16937,-0.003935188,0.29836,1.01875
132.963,22.41509,-0.003950327,0.30155,1.01778
135.563,22.65961,-0.003257475,0.30611,1.01679
138.163,22.903,-0.004046236,0.30887,1.01578
140.763,23.14487,-0.00546076,0.31331,1.01475
143.363,23.38563,-0.00327289,0.31474,1.01369
145.963,23.62549,-0.004063752,0.31968,1.01261
148.563,23.86458,-0.003412379,0.32371,1.0115
151.163,24.10323,-0.003130483,0.32599,1.01038
153.763,24.3406,-0.002423672,0.33111,1.00923
156.363,24.57789,-0.002896297,0.33609,1.00806
158.963,24.81413,-0.002704813,0.33812,1.00687
161.563,25.05101,-0.001428813,0.34187,1.00565
164.163,25.287,-0.00259969,0.34548,1.00442
166.763,25.52294,-0.002744778,0.34699,1.00316
169.363,25.75861,-0.00274109,0.35112,1.00189
171.963,25.99391,-0.00274,0.35281,1.00059
174.563,26.22908,-0.00369115,0.35451,0.99927
177.163,26.46405,-0.001419559,0.35789,0.99793
179.763,26.69793,-0.003385552,0.35933,0.99657
182.363,26.93147,-0.002139973,0.36148,0.9952
184.963,27.165,-0.002832796,0.36323,0.9938
187.563,27.3982,-0.002739904,0.36526,0.99238
190.163,27.63133,-0.00208229,0.36517,0.99095
192.763,27.8637,-0.00207936,0.36931,0.98949
195.363,28.0961,-0.002079109,0.36962,0.98802
197.963,28.3283,-0.002090294,0.3695,0.98653
200.563,28.5599,-0.003400128,0.37275,0.98502
203.163,28.79229,-0.004713726,0.37504,0.98349
205.763,29.02458,-0.002191386,0.37459,0.98194
208.363,29.25597,-0.002083242,0.37864,0.98038
210.963,29.48811,-0.00325207,0.38079,0.9788
213.563,29.72045,-0.002408981,0.38048,0.9772
216.163,29.9522,-0.00339918,0.38293,0.97559
218.763,30.185,-0.001421328,0.38404,0.97396
221.363,30.41692,-0.002359264,0.38747,0.97231
223.963,30.64964,-0.00144991,0.39025,0.97065
226.563,30.8823,-0.002515546,0.39078,0.96897
229.163,31.11498,-0.002432378,0.39503,0.96728
231.763,31.3478,-0.00241,0.39573,0.96557
234.363,31.58062,-0.002410002,0.39579,0.96384
236.963,31.81338,-0.00208001,0.39916,0.9621
239.563,32.04687,-0.000770006,0.4004,0.96035
242.163,32.28027,-0.002409989,0.40171,0.95858
244.763,32.51324,-0.003729948,0.40313,0.95679
247.363,32.74664,-0.003704561,0.40334,0.955
249.963,32.97991,-0.00371895,0.40546,0.95319
252.563,33.2134,-0.002409653,0.40527,0.95136
255.163,33.44715,-0.002409985,0.40508,0.94952
257.763,33.6808,-0.002410202,0.40701,0.94767
260.363,33.91462,-0.003714426,0.40576,0.94581
262.963,34.14844,-0.00350333,0.40735,0.94393
265.563,34.382,-0.002410079,0.41071,0.94205
268.163,34.61632,-0.002739497,0.40937,0.94015
270.763,34.85011,-0.001424299,0.41305,0.93823
273.363,35.08444,-0.003389674,0.41226,0.93631
275.963,35.31909,-0.002410028,0.41439,0.93437
278.563,35.5541,-0.00372729,0.41562,0.93243
281.163,35.78861,-0.00274,0.41486,0.93047
283.763,36.0246,-0.00339795,0.41638,0.9285
286.363,36.26047,-0.002410007,0.41634,0.92652
288.963,36.49628,-0.0034,0.41726,0.92453
291.563,36.73233,-0.002401109,0.41818,0.92253
294.163,36.9686,-0.00373,0.41968,0.92053
296.763,37.2048,-0.002406375,0.41874,0.91851
299.363,37.44164,-0.00372,0.42324,0.91648
301.963,37.67832,-0.00372,0.42356,0.91444
304.563,37.9151,-0.003729966,0.42413,0.9124
307.163,38.1524,-0.004719926,0.42617,0.91034
309.763,38.38923,-0.003339593,0.42708,0.90828
312.363,38.6273,-0.004496836,0.42643,0.90621
314.963,38.86489,-0.003729063,0.42788,0.90413
317.563,39.10266,-0.004761399,0.42855,0.90204
320.163,39.3397,-0.004706025,0.42921,0.89995
322.763,39.57825,-0.00470046,0.43333,0.89785
325.363,39.81649,-0.00470325,0.43467,0.89574
327.963,40.05516,-0.005369409,0.4372,0.89362
330.563,40.29377,-0.005697455,0.44003,0.8915
333.163,40.53303,-0.004900943,0.44069,0.88937
335.763,40.77212,-0.00538011,0.44339,0.88724
338.363,41.01181,-0.00636024,0.44683,0.8851
340.963,41.25142,-0.00665123,0.45006,0.88295
343.563,41.4913,-0.008,0.45119,0.8808
346.163,41.73169,-0.00848906,0.45455,0.87864
348.763,41.97166,-0.00733984,0.45774,0.87648
351.363,42.21216,-0.009980016,0.46067,0.87431
353.963,42.45315,-0.01064,0.46847,0.87214
356.563,42.69445,-0.01229003,0.4718,0.86996
359.163,42.9353,-0.01229076,0.4798,0.86778
361.763,43.17733,-0.01504653,0.48696,0.8656
364.363,43.4187,-0.0149177,0.49794,0.86341
366.963,43.66066,-0.01886017,0.50958,0.86121
369.563,43.90317,-0.02247462,0.51844,0.85902
372.163,44.14503,-0.02281352,0.53181,0.85682
374.763,44.38824,-0.0283843,0.54369,0.85462
377.363,44.63197,-0.03674901,0.55623,0.85241
379.963,44.8763,-0.04409978,0.58478,0.8502
382.563,45.12064,-0.05826783,0.61695,0.84799
385.163,45.36481,-0.07438975,0.65293,0.84578
387.763,45.60915,-0.09382535,0.68626,0.84357
390.363,45.85326,-0.11628,0.72451,0.84135
392.963,46.09819,-0.14387,0.77038,0.83913
395.563,46.34313,-0.17937,0.82476,0.83691
398.163,46.58885,-0.21954,0.88677,0.83469
400.763,46.83464,-0.27073,0.96163,0.83247
403.363,47.08129,-0.3331,1.07313,0.83025
405.963,47.3273,-0.41115,1.17627,0.82802
408.563,47.5745,-0.50842,1.32464,0.8258
411.163,47.8206,-0.62955,1.44485,0.82357
413.763,48.06769,-0.77474,1.56049,0.82135
416.363,48.3148,-0.94276,1.65679,0.81912
418.963,48.5619,-1.1343,1.72664,0.8169
421.563,48.80936,-1.34867,1.76377,0.81468
424.163,49.0568,-1.58257,1.75549,0.81245
426.763,49.3042,-1.82953,1.69373,0.81023
429.363,49.5528,-2.08242,1.64853,0.80801
431.963,49.80003,-2.31702,1.43951,0.80579
434.563,50.04723,-2.53525,1.28323,0.80357
437.163,50.29355,-2.72791,1.0945,0.80135
439.763,50.54101,-2.90009,0.96426,0.79913
442.363,50.7883,-3.05262,0.83475,0.79692
444.963,51.0358,-3.18371,0.71498,0.79471
447.563,51.2831,-3.29484,0.60212,0.7925
450.163,51.53106,-3.38271,0.49943,0.79029
452.763,51.7797,-3.45109,0.40729,0.78808
455.363,52.02815,-3.50263,0.33561,0.78588
457.963,52.2773,-3.54302,0.27807,0.78368
460.563,52.52607,-3.5724,0.23023,0.78148
463.163,52.7753,-3.59749,0.19256,0.77928
465.763,53.0244,-3.61822,0.15166,0.77709
468.363,53.274,-3.63459,0.12055,0.7749
470.963,53.52355,-3.64694,0.09240969,0.77272
473.563,53.77401,-3.65899,0.0688904,0.77054
476.163,54.0243,-3.6691,0.05669219,0.76836
478.763,54.2748,-3.67633,0.04829328,0.76619
481.363,54.52625,-3.68386,0.04585524,0.76402
483.963,54.7778,-3.68925,0.04707078,0.76185
486.563,55.0289,-3.696,0.04362742,0.75969
489.163,55.28066,-3.70035,0.03844834,0.75753
491.763,55.5319,-3.70427,0.03606607,0.75538
494.363,55.78406,-3.70957,0.03667867,0.75324
496.963,56.03581,-3.71221,0.03517974,0.75109
499.563,56.2886,-3.71649,0.03624171,0.74896
502.163,56.54075,-3.71984,0.04297507,0.74682
504.763,56.7935,-3.72176,0.04236149,0.7447
507.363,57.04654,-3.7244,0.04266057,0.74258
509.963,57.2996,-3.72506,0.04439176,0.74046
512.563,57.5527,-3.72637,0.0482678,0.73835
515.163,57.8065,-3.73031,0.0496311,0.73624
517.763,58.06001,-3.73064,0.04964776,0.73415
520.363,58.31351,-3.73294,0.04822311,0.73205
522.963,58.56675,-3.73495,0.0490573,0.72997
525.563,58.82121,-3.73361,0.04885888,0.72788
528.163,59.07545,-3.73232,0.05047786,0.72581
530.763,59.33031,-3.73558,0.05312407,0.72374
533.363,59.58529,-3.73584,0.05546027,0.72168
535.963,59.8405,-3.73854,0.05514414,0.71963
538.563,60.09531,-3.73887,0.05888342,0.71758
541.163,60.34969,-3.74048,0.05197139,0.71554
543.763,60.60487,-3.74114,0.057936,0.7135
546.363,60.8596,-3.74249,0.05498505,0.71147
548.963,61.1152,-3.74281,0.05363205,0.70945
551.563,61.3705,-3.74479,0.05329864,0.70744
554.163,61.6264,-3.74742,0.05618614,0.70543
556.763,61.8825,-3.74842,0.06249805,0.70344
559.363,62.1391,-3.75005,0.07153185,0.70144
561.963,62.39552,-3.75104,0.07025125,0.69946
564.563,62.65201,-3.75203,0.05532326,0.69748
567.163,62.90806,-3.75238,0.0469029,0.69552
569.763,63.1647,-3.75374,0.04556242,0.69356
572.363,63.4214,-3.75565,0.04778516,0.6916
574.963,63.67816,-3.75598,0.0494879,0.68966
577.563,63.93444,-3.75616,0.05011247,0.68772
580.163,64.19116,-3.75701,0.05313776,0.68579
582.763,64.44795,-3.75853,0.04548247,0.68387
585.363,64.7052,-3.76191,0.05081647,0.68196
587.963,64.96268,-3.76335,0.0532059,0.68006
590.563,65.22052,-3.76531,0.05128821,0.67816
593.163,65.4787,-3.76398,0.04967359,0.67627
595.763,65.73683,-3.76727,0.04918398,0.67439
598.363,65.99459,-3.76721,0.04577378,0.67252
600.963,66.25273,-3.76859,0.04515787,0.67066
603.563,66.5107,-3.76858,0.04692327,0.66881
606.163,66.76906,-3.76925,0.04448406,0.66696
608.763,67.0274,-3.77188,0.04803448,0.66513
611.363,67.28556,-3.77427,0.05822017,0.6633
613.963,67.54486,-3.77413,0.06034275,0.66148
616.563,67.80407,-3.77494,0.06001829,0.65967
619.163,68.06354,-3.77485,0.0609452,0.65787
621.763,68.32313,-3.77566,0.06154025,0.65608
624.363,68.58241,-3.77846,0.06165731,0.6543
626.963,68.8421,-3.77748,0.06058145,0.65252
629.563,69.10217,-3.77881,0.05641822,0.65076
632.163,69.3619,-3.77896,0.05637802,0.649
634.763,69.62136,-3.77846,0.05667098,0.64726
637.363,69.88161,-3.77945,0.05620193,0.64552
638.463,69.99181,-3.78011,0.06007529,0.64479