File: 01_Data/PET/STA/N2/10K_min/PET_STA_N2_10KData_210830_R1.csv
##Temp./Â°C,Time/min,Mass loss(subtr.2)/mg,DSC(subtr.2)/(mW/mg),Sensit./(uV/mW)
49.729,10.01,-0.01546,-0.00153445,1.03585
52.329,12.37267,-0.01291402,0.05117941,1.03571
54.929,13.07391,-0.02100362,0.08005907,1.03555
57.529,13.62851,-0.02252441,0.0994451,1.03535
60.129,14.11685,-0.02180527,0.11218,1.03513
62.729,14.55884,-0.02245995,0.12454,1.03488
65.329,14.96994,-0.02357705,0.13961,1.0346
67.929,15.3545,-0.02221947,0.15275,1.03429
70.529,15.7194,-0.02334591,0.16581,1.03395
73.129,16.0671,-0.02115438,0.17343,1.03359
75.729,16.40203,-0.02390756,0.17542,1.03319
78.329,16.72648,-0.02379792,0.18411,1.03277
80.929,17.0415,-0.02500789,0.20543,1.03232
83.529,17.34763,-0.02453907,0.22113,1.03184
86.129,17.6473,-0.02621911,0.23098,1.03134
88.729,17.93921,-0.02611346,0.23842,1.03081
91.329,18.22529,-0.0260044,0.24411,1.03025
93.929,18.50627,-0.02600012,0.24846,1.02966
96.529,18.7831,-0.02531737,0.25457,1.02905
99.129,19.05476,-0.02595062,0.25941,1.02841
101.729,19.3243,-0.02731814,0.26471,1.02775
104.329,19.59042,-0.02730969,0.26737,1.02706
106.929,19.8549,-0.02550948,0.2716,1.02634
109.529,20.11615,-0.02818863,0.27608,1.0256
112.129,20.37755,-0.02686374,0.28122,1.02483
114.729,20.63586,-0.02673441,0.2843,1.02404
117.329,20.89215,-0.01952219,0.29001,1.02322
119.929,21.1466,-0.02698012,0.29176,1.02238
122.529,21.39925,-0.02830088,0.29569,1.02151
125.129,21.65022,-0.02586192,0.30073,1.02062
127.729,21.89896,-0.02687037,0.30262,1.0197
130.329,22.14699,-0.0264869,0.30582,1.01876
132.929,22.39323,-0.02693758,0.3083,1.0178
135.529,22.63811,-0.02770314,0.31365,1.01681
138.129,22.88101,-0.02720015,0.31671,1.0158
140.729,23.1233,-0.02849128,0.31933,1.01476
143.329,23.36425,-0.02852,0.3227,1.0137
145.929,23.60425,-0.02850814,0.32517,1.01262
148.529,23.8435,-0.02722572,0.33048,1.01152
151.129,24.08201,-0.02852037,0.33176,1.01039
153.729,24.31951,-0.02984,0.33544,1.00924
156.329,24.55714,-0.03092643,0.33922,1.00807
158.929,24.7942,-0.02829973,0.34118,1.00688
161.529,25.03042,-0.03193477,0.34193,1.00567
164.129,25.2671,-0.03091004,0.34382,1.00443
166.729,25.50296,-0.02824537,0.34891,1.00318
169.329,25.73871,-0.03092889,0.35083,1.0019
171.929,25.97411,-0.02916241,0.35414,1.0006
174.529,26.20934,-0.03094779,0.35563,0.99929
177.129,26.44394,-0.03008943,0.35725,0.99795
179.729,26.67822,-0.03093295,0.35946,0.99659
182.329,26.91183,-0.02961005,0.36273,0.99521
184.929,27.1454,-0.0353717,0.3644,0.99382
187.529,27.3783,-0.0294156,0.36607,0.9924
190.129,27.61102,-0.03202998,0.36473,0.99096
192.729,27.843,-0.03164994,0.36927,0.98951
195.329,28.0751,-0.03144029,0.36981,0.98804
197.929,28.30707,-0.03072007,0.37206,0.98655
200.529,28.539,-0.03303921,0.37165,0.98504
203.129,28.77093,-0.03360982,0.37492,0.98351
205.729,29.0029,-0.03203,0.37617,0.98196
208.329,29.23508,-0.03226899,0.37894,0.9804
210.929,29.46708,-0.03367091,0.38009,0.97882
213.529,29.69892,-0.03434023,0.38238,0.97722
216.129,29.93093,-0.03301677,0.38345,0.97561
218.729,30.16333,-0.03301405,0.38666,0.97398
221.329,30.39573,-0.03678893,0.3861,0.97233
223.929,30.6277,-0.03390003,0.38774,0.97067
226.529,30.8605,-0.03553291,0.38934,0.96899
229.129,31.0928,-0.03355601,0.38926,0.9673
231.729,31.32538,-0.03487987,0.39066,0.96559
234.329,31.5579,-0.0368469,0.39076,0.96386
236.929,31.7906,-0.03422,0.39164,0.96212
239.529,32.0233,-0.03421991,0.39338,0.96037
242.129,32.2563,-0.03324008,0.3939,0.9586
244.729,32.4893,-0.03455305,0.39413,0.95682
247.329,32.7222,-0.03455999,0.3965,0.95502
249.929,32.9552,-0.03356,0.39397,0.95321
252.529,33.1886,-0.03390361,0.39562,0.95139
255.129,33.42204,-0.03312834,0.39399,0.94955
257.729,33.65551,-0.03389012,0.39679,0.9477
260.329,33.88863,-0.03461096,0.39674,0.94584
262.929,34.122,-0.03355713,0.39933,0.94396
265.529,34.35613,-0.03356143,0.39811,0.94207
268.129,34.58972,-0.03554039,0.40219,0.94017
270.729,34.82353,-0.0348488,0.40167,0.93826
273.329,35.0574,-0.03422014,0.40049,0.93633
275.929,35.2921,-0.03421979,0.40155,0.9344
278.529,35.52661,-0.03620001,0.403,0.93245
281.129,35.7614,-0.0362,0.40316,0.9305
283.729,35.99575,-0.03587707,0.40297,0.92853
286.329,36.23052,-0.03851232,0.40551,0.92655
288.929,36.46543,-0.03850023,0.40636,0.92456
291.529,36.7012,-0.0385,0.40707,0.92256
294.129,36.93696,-0.03817002,0.40696,0.92055
296.729,37.17293,-0.03699205,0.4073,0.91853
299.329,37.40885,-0.03822319,0.40798,0.91651
301.929,37.6454,-0.03950146,0.40947,0.91447
304.529,37.8821,-0.03949,0.41172,0.91242
307.129,38.11892,-0.04080997,0.41159,0.91037
309.729,38.3559,-0.04088758,0.41185,0.90831
312.329,38.59274,-0.03817155,0.40951,0.90624
314.929,38.8298,-0.03816979,0.4116,0.90416
317.529,39.06732,-0.03947993,0.41492,0.90207
320.129,39.30494,-0.03982671,0.41841,0.89998
322.729,39.54306,-0.03863563,0.41718,0.89787
325.329,39.78055,-0.04113,0.41967,0.89577
327.929,40.01914,-0.03982,0.42018,0.89365
330.529,40.25693,-0.03982,0.42211,0.89153
333.129,40.49585,-0.04145981,0.42577,0.8894
335.729,40.73465,-0.04210743,0.42696,0.88727
338.329,40.97397,-0.04014118,0.43112,0.88512
340.929,41.2134,-0.04113,0.43308,0.88298
343.529,41.45324,-0.03974891,0.43485,0.88083
346.129,41.69314,-0.04343728,0.44024,0.87867
348.729,41.9339,-0.04379555,0.44792,0.87651
351.329,42.174,-0.04376,0.44927,0.87434
353.929,42.41494,-0.04482049,0.4548,0.87217
356.529,42.65597,-0.04604301,0.46139,0.86999
359.129,42.89723,-0.04768855,0.46695,0.86781
361.729,43.13831,-0.04947979,0.47318,0.86562
364.329,43.38002,-0.05067062,0.483,0.86343
366.929,43.62143,-0.05708927,0.49453,0.86124
369.529,43.86347,-0.05758194,0.50594,0.85905
372.129,44.106,-0.0626005,0.51952,0.85685
374.729,44.34864,-0.06548951,0.53819,0.85464
377.329,44.5916,-0.0740074,0.5603,0.85244
379.929,44.8351,-0.08075754,0.57404,0.85023
382.529,45.0787,-0.08990163,0.59462,0.84802
385.129,45.32308,-0.10523,0.63289,0.84581
387.729,45.56684,-0.12043,0.67134,0.84359
390.329,45.8112,-0.13863,0.71379,0.84138
392.929,46.0559,-0.16893,0.76768,0.83916
395.529,46.30073,-0.20027,0.83056,0.83694
398.129,46.54585,-0.23981,0.89934,0.83472
400.729,46.79092,-0.28336,0.97348,0.8325
403.329,47.03671,-0.33998,1.0694,0.83027
405.929,47.28349,-0.40504,1.18617,0.82805
408.529,47.53076,-0.49305,1.31927,0.82583
411.129,47.77807,-0.59863,1.44215,0.8236
413.729,48.02541,-0.72953,1.5,0.82138
416.329,48.27243,-0.87046,1.61156,0.81915
418.929,48.51976,-1.03144,1.6467,0.81693
421.529,48.7669,-1.22409,1.80504,0.8147
424.129,49.0144,-1.44038,1.83345,0.81248
426.729,49.26157,-1.663,1.73913,0.81026
429.329,49.5088,-1.88298,1.63128,0.80804
431.929,49.7559,-2.09725,1.43026,0.80582
434.529,50.00327,-2.29268,1.2716,0.8036
437.129,50.2508,-2.47302,1.14117,0.80138
439.729,50.498,-2.63233,0.97653,0.79916
442.329,50.7457,-2.77225,0.83574,0.79695
444.929,50.99354,-2.89027,0.71644,0.79473
447.529,51.24067,-2.99028,0.60709,0.79252
450.129,51.488,-3.07309,0.50938,0.79032
452.729,51.73619,-3.13771,0.41536,0.78811
455.329,51.9842,-3.18265,0.33685,0.78591
457.929,52.2324,-3.22108,0.27476,0.78371
460.529,52.48105,-3.24808,0.22353,0.78151
463.129,52.73075,-3.27089,0.18483,0.77931
465.729,52.9804,-3.29336,0.14288,0.77712
468.329,53.2302,-3.30836,0.10792,0.77493
470.929,53.4807,-3.32007,0.08343198,0.77275
473.529,53.7303,-3.3313,0.06208438,0.77057
476.129,53.98095,-3.33872,0.05116073,0.76839
478.729,54.23177,-3.34517,0.04238536,0.76622
481.329,54.48259,-3.35237,0.0397328,0.76405
483.929,54.734,-3.36059,0.03930871,0.76188
486.529,54.98579,-3.36541,0.03537728,0.75972
489.129,55.2369,-3.36998,0.03027339,0.75756
491.729,55.4885,-3.37183,0.0313771,0.75541
494.329,55.74054,-3.37603,0.0318756,0.75326
496.929,55.9933,-3.37985,0.03627778,0.75112
499.529,56.2462,-3.38137,0.03485611,0.74898
502.129,56.4988,-3.38261,0.03441079,0.74685
504.729,56.75175,-3.38525,0.04095264,0.74472
507.329,57.00455,-3.38788,0.04163033,0.7426
509.929,57.2584,-3.38512,0.04137491,0.74049
512.529,57.51194,-3.39194,0.04354077,0.73838
515.129,57.7653,-3.39082,0.04520356,0.73627
517.729,58.01882,-3.39734,0.04499534,0.73417
520.329,58.272,-3.39874,0.05149103,0.73208
522.929,58.5259,-3.39742,0.04769598,0.72999
525.529,58.77955,-3.40137,0.04946526,0.72791
528.129,59.03396,-3.40007,0.04482305,0.72584
530.729,59.2885,-3.40038,0.05033336,0.72377
533.329,59.54308,-3.40404,0.05145898,0.72171
535.929,59.7981,-3.40389,0.04964319,0.71965
538.529,60.0526,-3.40652,0.05052155,0.7176
541.129,60.3077,-3.40927,0.05169426,0.71556
543.729,60.56259,-3.412,0.05201084,0.71353
546.329,60.8185,-3.4097,0.05156308,0.7115
548.929,61.07365,-3.41087,0.05054382,0.70948
551.529,61.3292,-3.41316,0.05142457,0.70747
554.129,61.58466,-3.41453,0.05102403,0.70546
556.729,61.84025,-3.41323,0.05197193,0.70346
559.329,62.09626,-3.41607,0.04697555,0.70147
561.929,62.35233,-3.41871,0.04887632,0.69949
564.529,62.6087,-3.42132,0.04790986,0.69751
567.129,62.8644,-3.42456,0.05085963,0.69554
569.729,63.1212,-3.42188,0.04965415,0.69358
572.329,63.37835,-3.42351,0.04760735,0.69163
574.929,63.63475,-3.42586,0.04630794,0.68968
577.529,63.89135,-3.42462,0.04276009,0.68775
580.129,64.14836,-3.42693,0.0424477,0.68582
582.729,64.40557,-3.42852,0.03793289,0.6839
585.329,64.66282,-3.43088,0.04037848,0.68198
587.929,64.92027,-3.43219,0.04235864,0.68008
590.529,65.178,-3.43468,0.04593712,0.67818
593.129,65.43575,-3.4368,0.04777658,0.6763
595.729,65.69351,-3.43614,0.05555786,0.67442
598.329,65.95145,-3.43755,0.06396206,0.67255
600.929,66.20943,-3.43745,0.06225975,0.67068
603.529,66.4683,-3.43877,0.05886203,0.66883
606.129,66.72652,-3.44283,0.06257143,0.66699
608.729,66.98564,-3.44284,0.05939088,0.66515
611.329,67.24446,-3.44349,0.05549661,0.66332
613.929,67.50317,-3.44644,0.04859954,0.6615
616.529,67.76176,-3.44567,0.04916715,0.6597
619.129,68.0201,-3.44513,0.05136031,0.65789
621.729,68.27955,-3.44905,0.05272379,0.6561
624.329,68.53836,-3.44776,0.04813148,0.65432
626.929,68.79782,-3.44908,0.05161802,0.65255
629.529,69.05764,-3.4504,0.05127038,0.65078
632.129,69.31726,-3.45171,0.0514842,0.64903
634.729,69.57679,-3.45233,0.05333042,0.64728
637.329,69.83697,-3.4527,0.0566206,0.64554
638.929,69.99656,-3.45379,0.05492531,0.64448