File: 01_Data/Masonite_Board/MCC/Masonite_Board_30K_min_211022_R1.txt
Sample ID:	C:\MCC\MCC Cal\Test\Masonite_Board_30K_min_211022_R1.txt
Sample Weight (mg):	4.92
Heating Rate (C/s):	0.5
Combustor Temp (C):	900
N2 Flow Rate (cc/min):	80
O2 Flow Rate (cc/min):	20
Calibration File:	C:\MCC\MCC Cal\Coeff1 JN10440_30_210304.txt.txt
T Correction Coefficients:	0	1.024463	0
Time Shift (s):	14
*
Time (s)	Temperature (C)	N2 flow rate (cc/min)	O2 flow rate (cc/min)	Flow Rate (cc/min)	Oxygen (%)	HRR (W/g)	Heating rate (C/s)
0.000	107.979	80.000	19.995	103.036	20.109	-0.038	-0.034
8.000	107.946	80.001	19.996	103.035	20.105	0.175	-0.014
16.000	107.959	80.002	19.995	103.060	20.107	0.091	0.023
24.000	107.919	80.000	19.996	103.039	20.110	-0.116	-0.008
32.000	107.952	80.000	19.996	103.042	20.106	0.113	0.017
40.000	107.898	80.003	19.996	103.030	20.105	0.186	-0.017
48.000	107.871	80.001	19.996	103.033	20.107	0.095	-0.010
56.000	107.878	79.999	19.996	103.190	20.082	1.688	0.016
64.001	108.672	79.999	19.996	103.417	20.046	4.075	0.172
72.000	110.496	79.999	19.996	103.395	20.037	4.686	0.294
80.000	113.056	79.998	19.995	103.368	20.046	4.070	0.331
88.000	116.092	79.999	19.995	103.357	20.050	3.808	0.392
96.000	119.602	80.001	19.996	103.377	20.044	4.187	0.478
104.001	123.355	80.002	19.995	103.351	20.047	3.982	0.487
112.000	127.261	80.001	19.996	103.349	20.049	3.883	0.476
120.000	131.472	80.003	19.995	103.340	20.052	3.699	0.536
128.000	135.730	80.001	19.996	103.335	20.055	3.492	0.538
136.000	140.038	79.999	19.996	103.316	20.056	3.402	0.517
144.000	144.372	79.998	19.998	103.308	20.058	3.310	0.543
152.000	148.686	79.999	19.995	103.297	20.057	3.379	0.570
160.000	152.870	79.998	19.997	103.273	20.061	3.059	0.535
168.000	156.979	79.999	19.997	103.268	20.065	2.810	0.520
176.000	160.995	80.002	19.994	103.265	20.063	2.976	0.500
184.000	165.031	80.002	19.996	103.265	20.064	2.912	0.527
192.000	168.945	80.001	19.996	103.263	20.060	3.163	0.470
200.000	172.826	80.002	19.995	103.265	20.062	3.037	0.459
208.000	176.717	80.001	19.996	103.266	20.063	2.924	0.465
216.000	180.579	80.000	19.996	103.264	20.065	2.850	0.494
224.000	184.463	80.001	19.997	103.263	20.062	3.021	0.473
232.000	188.412	80.001	19.996	103.252	20.062	3.046	0.484
240.000	192.305	79.999	19.997	103.263	20.061	3.098	0.491
248.000	196.202	80.000	19.996	103.255	20.062	3.030	0.505
256.000	200.099	80.001	19.996	103.252	20.057	3.328	0.489
264.000	203.964	80.002	19.996	103.256	20.057	3.356	0.512
272.000	207.892	80.001	19.995	103.251	20.056	3.415	0.511
280.000	211.784	80.003	19.994	103.246	20.053	3.616	0.484
288.000	215.717	80.003	19.995	103.234	20.051	3.746	0.513
296.000	219.680	80.001	19.995	103.249	20.047	4.010	0.515
304.000	223.563	80.001	19.995	103.251	20.040	4.443	0.470
312.000	227.528	80.000	19.996	103.247	20.038	4.605	0.473
320.000	231.517	80.000	19.996	103.254	20.034	4.860	0.485
328.000	235.474	80.000	19.997	103.245	20.029	5.213	0.517
336.000	239.450	80.001	19.996	103.257	20.019	5.868	0.502
344.000	243.350	80.001	19.997	103.244	20.009	6.490	0.466
352.000	247.321	80.001	19.995	103.252	19.997	7.281	0.507
360.000	251.258	80.003	19.994	103.256	19.982	8.233	0.457
368.000	255.219	80.003	19.995	103.264	19.962	9.601	0.502
376.000	259.170	80.001	19.995	103.271	19.948	10.492	0.498
384.000	263.147	80.001	19.997	103.277	19.922	12.223	0.508
392.000	267.144	79.999	19.996	103.299	19.892	14.141	0.492
400.000	271.234	79.999	19.996	103.306	19.856	16.495	0.517
408.000	275.209	79.998	19.996	103.309	19.820	18.881	0.508
416.000	279.250	80.001	19.996	103.318	19.781	21.431	0.493
424.000	283.230	80.001	19.995	103.340	19.749	23.564	0.493
432.000	287.289	80.000	19.996	103.334	19.715	25.795	0.515
440.000	291.320	80.002	19.997	103.326	19.692	27.270	0.498
448.000	295.315	80.004	19.995	103.341	19.672	28.585	0.451
456.000	299.334	80.000	19.995	103.341	19.654	29.750	0.485
464.000	303.317	80.000	19.995	103.340	19.648	30.186	0.494
472.000	307.261	80.000	19.995	103.345	19.633	31.130	0.475
480.000	311.230	80.001	19.994	103.343	19.624	31.702	0.514
488.000	315.151	80.000	19.996	103.344	19.605	32.993	0.452
496.000	319.109	80.000	19.995	103.348	19.584	34.383	0.514
504.000	322.956	80.002	19.996	103.369	19.554	36.307	0.454
512.000	326.896	80.001	19.996	103.382	19.512	39.119	0.506
520.000	330.874	80.001	19.995	103.411	19.461	42.449	0.499
528.000	334.907	80.002	19.996	103.429	19.394	46.888	0.515
536.000	338.940	80.000	19.996	103.463	19.320	51.740	0.518
544.000	343.030	80.000	19.994	103.497	19.231	57.608	0.470
552.000	347.147	80.001	19.995	103.517	19.138	63.736	0.502
560.000	351.287	80.001	19.995	103.555	19.043	69.966	0.508
568.000	355.443	79.999	19.996	103.578	18.956	75.647	0.507
576.000	359.512	80.001	19.995	103.580	18.891	79.977	0.517
584.000	363.660	80.001	19.994	103.583	18.852	82.449	0.515
592.000	367.726	80.000	19.995	103.555	18.865	81.592	0.519
600.000	371.873	80.001	19.996	103.504	18.941	76.527	0.491
608.000	376.007	80.001	19.996	103.423	19.084	67.117	0.533
616.000	380.058	80.000	19.996	103.346	19.278	54.355	0.527
624.000	384.104	80.000	19.996	103.278	19.502	39.674	0.514
632.000	388.176	80.001	19.995	103.229	19.702	26.585	0.475
640.000	392.318	80.001	19.997	103.200	19.848	17.055	0.505
648.000	396.339	80.001	19.995	103.196	19.928	11.801	0.552
656.000	400.458	80.001	19.997	103.189	19.967	9.247	0.611
664.000	404.501	80.002	19.994	103.185	19.982	8.245	0.515
672.000	408.459	80.003	19.995	103.189	19.992	7.596	0.553
680.000	412.434	80.001	19.996	103.182	19.999	7.134	0.495
688.000	416.363	80.004	19.995	103.184	20.003	6.862	0.460
696.000	420.348	80.003	19.996	103.185	20.010	6.426	0.516
704.000	424.390	80.001	19.996	103.187	20.007	6.640	0.505
712.000	428.477	80.000	19.995	103.180	20.014	6.147	0.517
720.000	432.563	80.001	19.995	103.182	20.021	5.692	0.499
728.000	436.722	80.002	19.995	103.191	20.025	5.422	0.491
736.000	440.870	80.001	19.995	103.186	20.032	4.971	0.512
744.000	444.954	80.003	19.996	103.176	20.042	4.332	0.495
752.000	449.019	80.003	19.995	103.166	20.042	4.350	0.539
760.000	453.033	80.002	19.995	103.177	20.049	3.877	0.526
768.000	457.103	80.002	19.996	103.178	20.052	3.667	0.518
776.000	461.289	80.001	19.997	103.179	20.057	3.327	0.528
784.000	465.431	80.001	19.997	103.181	20.062	3.044	0.528
792.000	469.636	80.001	19.996	103.175	20.064	2.882	0.529
800.000	473.844	80.001	19.996	103.172	20.067	2.708	0.506
808.000	478.142	80.001	19.995	103.165	20.071	2.461	0.526
816.000	482.329	80.002	19.995	103.173	20.069	2.556	0.540
824.000	486.365	80.003	19.995	103.157	20.073	2.271	0.512
832.000	490.264	80.002	19.996	103.153	20.071	2.432	0.455
840.000	494.128	80.002	19.995	103.154	20.071	2.440	0.504
848.000	497.956	80.003	19.995	103.152	20.070	2.466	0.489
856.000	501.736	80.003	19.995	103.158	20.077	2.051	0.479
864.000	505.598	80.002	19.996	103.165	20.075	2.197	0.481
872.000	509.585	80.002	19.997	103.159	20.077	2.051	0.513
880.000	513.552	80.001	19.995	103.164	20.072	2.377	0.503
888.000	517.701	80.001	19.996	103.168	20.073	2.318	0.499
896.000	521.812	80.000	19.996	103.165	20.072	2.366	0.501
904.000	525.947	80.003	19.995	103.151	20.072	2.363	0.524
912.000	530.158	80.002	19.995	103.155	20.074	2.232	0.522
920.000	534.323	80.002	19.995	103.153	20.073	2.303	0.529
928.000	538.516	80.003	19.995	103.155	20.073	2.274	0.514
936.000	542.757	80.004	19.995	103.150	20.075	2.198	0.569
944.000	547.022	80.002	19.996	103.163	20.078	1.949	0.558
952.000	551.369	80.000	19.997	103.166	20.075	2.139	0.524
960.001	555.795	80.001	19.996	103.148	20.079	1.920	0.563
968.000	560.199	80.000	19.995	103.154	20.078	1.984	0.540
976.000	564.592	80.001	19.996	103.158	20.077	2.040	0.576
984.000	568.917	80.000	19.998	103.156	20.076	2.086	0.538
992.000	573.209	80.001	19.997	103.151	20.076	2.085	0.507
1000.000	577.482	80.002	19.994	103.149	20.075	2.172	0.543
1008.000	581.650	80.002	19.995	103.148	20.077	2.063	0.530
1016.000	585.712	80.004	19.996	103.141	20.075	2.201	0.519
1024.001	589.701	80.001	19.996	103.148	20.075	2.144	0.514
1032.000	593.631	79.999	19.994	103.152	20.075	2.170	0.486
1040.000	597.522	80.001	19.994	103.147	20.078	1.966	0.475
1048.000	601.356	80.000	19.996	103.142	20.078	1.961	0.448
1056.000	605.203	80.001	19.996	103.144	20.078	1.988	0.478
1064.001	609.050	80.002	19.996	103.140	20.081	1.750	0.453
1072.000	612.997	80.002	19.997	103.135	20.077	2.043	0.504
1080.000	616.957	80.002	19.996	103.147	20.082	1.685	0.495
1088.000	620.927	80.002	19.996	103.146	20.080	1.832	0.482
1096.000	624.982	80.003	19.995	103.147	20.078	1.979	0.478
1104.000	629.156	80.001	19.996	103.155	20.078	1.983	0.511
1112.000	633.356	80.000	19.997	103.147	20.077	2.031	0.522
1120.000	637.504	80.003	19.995	103.145	20.081	1.803	0.525
1128.000	641.733	80.002	19.995	103.144	20.079	1.905	0.525
1136.000	646.005	80.000	19.996	103.149	20.079	1.909	0.541
1144.000	650.369	80.002	19.996	103.140	20.084	1.554	0.528
1152.000	654.623	80.003	19.995	103.126	20.082	1.696	0.530
1160.000	658.698	80.002	19.996	103.123	20.084	1.580	0.491
1168.000	662.858	80.001	19.997	103.140	20.080	1.821	0.530
1176.000	666.857	80.002	19.995	103.123	20.084	1.601	0.527
1184.000	670.750	80.001	19.995	103.147	20.085	1.536	0.482
1192.000	674.789	80.000	19.995	103.142	20.084	1.568	0.498
1200.000	678.815	80.002	19.996	103.131	20.084	1.547	0.508
1208.000	682.672	80.001	19.995	103.141	20.082	1.742	0.476
1216.000	686.578	80.000	19.996	103.135	20.080	1.870	0.478
1224.000	690.729	80.002	19.995	103.139	20.079	1.907	0.523
1232.000	695.023	80.002	19.996	103.143	20.078	2.002	0.566
1240.000	699.381	80.001	19.996	103.124	20.078	1.950	0.545
1248.000	703.605	80.001	19.996	103.114	20.079	1.912	0.515
1256.000	707.547	80.003	19.996	103.118	20.080	1.819	0.494
1264.000	711.551	79.999	19.996	103.121	20.079	1.892	0.483
1272.000	715.753	80.001	19.995	103.132	20.078	1.961	0.538
1280.000	720.024	80.001	19.994	103.132	20.078	1.991	0.526
1288.001	724.266	80.000	19.996	103.131	20.075	2.149	0.537
1296.000	728.562	80.000	19.995	103.138	20.078	1.975	0.573
1304.000	732.552	80.002	19.995	103.118	20.077	2.062	0.502
1312.000	736.226	80.003	19.993	103.113	20.078	1.941	0.457
1320.000	740.045	80.002	19.996	103.134	20.079	1.891	0.460
1326.500	743.307	80.001	19.996	103.126	20.078	1.973	0.537