File: 01_Data/Masonite_Board/MCC/Masonite_Board_30K_min_211022_R2.txt
Sample ID:	C:\MCC\MCC Cal\Test\Masonite_Board_30K_min_211022_R2.txt
Sample Weight (mg):	4.83
Heating Rate (C/s):	0.5
Combustor Temp (C):	900
N2 Flow Rate (cc/min):	80
O2 Flow Rate (cc/min):	20
Calibration File:	C:\MCC\MCC Cal\Coeff1 JN10440_30_210304.txt.txt
T Correction Coefficients:	0	1.024463	0
Time Shift (s):	14
*
Time (s)	Temperature (C)	N2 flow rate (cc/min)	O2 flow rate (cc/min)	Flow Rate (cc/min)	Oxygen (%)	HRR (W/g)	Heating rate (C/s)
-0.001	108.339	80.004	19.995	103.033	20.131	-0.067	-0.008
8.000	108.227	79.991	19.996	103.041	20.128	0.120	-0.034
16.000	108.257	80.003	19.995	103.041	20.127	0.180	-0.017
24.000	108.407	80.000	19.994	103.036	20.128	0.170	0.058
32.000	108.289	79.996	19.996	103.080	20.128	0.159	0.013
39.999	108.558	79.991	19.995	103.107	20.117	0.881	0.021
47.999	109.024	80.012	19.994	103.175	20.106	1.573	0.067
55.999	109.907	80.000	19.995	103.191	20.100	2.017	0.126
63.999	111.072	79.999	19.994	103.223	20.097	2.224	0.148
71.999	112.613	80.004	19.995	103.232	20.090	2.688	0.187
79.999	114.538	80.008	19.994	103.252	20.087	2.867	0.305
87.999	116.690	79.997	19.995	103.270	20.084	3.074	0.297
96.000	119.198	80.003	19.995	103.271	20.084	3.098	0.335
103.999	121.904	80.010	19.995	103.271	20.081	3.251	0.337
111.999	124.846	79.998	19.996	103.274	20.077	3.570	0.287
119.999	127.989	80.004	19.995	103.264	20.079	3.379	0.401
127.999	131.208	80.004	19.995	103.267	20.081	3.270	0.403
136.000	134.577	80.004	19.994	103.265	20.082	3.220	0.428
144.000	137.992	80.000	19.995	103.270	20.081	3.260	0.388
152.000	141.539	80.002	19.995	103.265	20.087	2.882	0.427
160.000	145.090	80.001	19.996	103.267	20.085	3.024	0.474
168.000	148.748	80.001	19.998	103.256	20.087	2.893	0.462
176.000	152.444	79.999	19.997	103.265	20.083	3.127	0.500
184.000	156.077	79.999	19.995	103.250	20.084	3.055	0.432
192.000	159.823	80.002	19.995	103.264	20.085	3.011	0.466
200.000	163.614	79.998	19.996	103.254	20.082	3.177	0.467
208.000	167.506	80.003	19.994	103.257	20.078	3.440	0.457
216.000	171.298	80.000	19.994	103.260	20.081	3.289	0.458
224.000	175.249	79.998	19.996	103.260	20.082	3.216	0.498
232.000	179.167	79.999	19.995	103.247	20.082	3.234	0.508
240.000	183.083	79.998	19.995	103.257	20.079	3.407	0.499
248.000	187.159	80.000	19.995	103.247	20.076	3.575	0.493
256.000	191.182	80.001	19.996	103.231	20.078	3.496	0.476
264.000	195.237	79.999	19.995	103.232	20.078	3.476	0.482
272.000	199.291	80.001	19.996	103.230	20.074	3.712	0.480
280.000	203.338	79.999	19.996	103.235	20.081	3.283	0.492
288.000	207.472	80.001	19.997	103.225	20.076	3.637	0.513
296.000	211.526	79.998	19.995	103.288	20.073	3.797	0.478
304.000	215.644	79.998	19.995	103.225	20.070	4.007	0.506
312.000	219.706	79.999	19.995	103.226	20.069	4.057	0.516
320.000	223.687	80.000	19.996	103.224	20.062	4.542	0.476
328.000	227.646	79.999	19.995	103.225	20.057	4.847	0.520
336.000	231.626	80.001	19.995	103.225	20.052	5.205	0.517
344.000	235.545	80.001	19.995	103.227	20.049	5.382	0.475
352.000	239.392	79.999	19.997	103.214	20.039	6.092	0.479
360.000	243.237	80.001	19.995	103.223	20.029	6.742	0.472
368.000	247.060	80.002	19.996	103.224	20.015	7.666	0.515
376.000	250.963	80.000	19.996	103.223	20.000	8.688	0.478
384.000	254.802	79.998	19.996	103.229	19.984	9.726	0.455
392.000	258.691	79.998	19.996	103.231	19.965	11.007	0.477
400.000	262.555	80.000	19.995	103.248	19.938	12.794	0.503
408.000	266.415	80.000	19.994	103.270	19.911	14.610	0.478
416.000	270.384	80.000	19.995	103.278	19.879	16.739	0.505
424.000	274.417	80.001	19.993	103.302	19.844	19.098	0.484
432.000	278.428	80.002	19.994	103.304	19.801	21.959	0.505
440.000	282.443	80.000	19.995	103.352	19.773	23.794	0.487
448.000	286.526	80.001	19.996	103.312	19.736	26.268	0.485
456.000	290.527	80.000	19.995	103.313	19.703	28.502	0.475
464.000	294.552	79.998	19.997	103.318	19.686	29.649	0.481
472.000	298.543	79.997	19.997	103.306	19.670	30.720	0.518
480.000	302.565	80.000	19.995	103.312	19.658	31.498	0.499
488.000	306.616	79.998	19.995	103.321	19.649	32.096	0.517
496.000	310.704	79.999	19.997	103.312	19.637	32.918	0.521
504.000	314.747	80.000	19.996	103.331	19.617	34.259	0.489
512.000	318.803	80.004	19.993	103.343	19.596	35.635	0.502
520.000	322.776	80.002	19.997	103.348	19.562	37.929	0.504
528.000	326.700	80.002	19.996	103.385	19.524	40.447	0.516
536.000	330.706	80.000	19.996	103.385	19.474	43.788	0.487
544.000	334.682	80.000	19.995	103.386	19.410	48.119	0.513
552.000	338.674	80.001	19.996	103.423	19.340	52.811	0.482
560.000	342.693	79.999	19.996	103.455	19.253	58.633	0.492
568.000	346.852	79.998	19.996	103.459	19.159	64.975	0.500
576.000	351.059	80.000	19.995	103.531	19.065	71.254	0.529
584.000	355.281	80.000	19.996	103.560	18.974	77.319	0.540
592.000	359.479	79.998	19.995	103.577	18.898	82.378	0.489
600.000	363.638	80.000	19.996	103.555	18.860	84.925	0.509
608.000	367.711	80.000	19.995	103.533	18.870	84.177	0.482
616.000	371.814	80.001	19.995	103.474	18.944	79.222	0.485
624.000	375.835	79.999	19.996	103.406	19.082	69.930	0.535
632.000	379.863	80.001	19.997	103.328	19.272	57.194	0.521
640.000	383.809	79.999	19.997	103.250	19.496	42.271	0.489
648.000	387.798	79.999	19.995	103.194	19.692	29.179	0.500
656.000	391.809	79.997	19.997	103.175	19.853	18.456	0.528
664.000	395.802	80.000	19.996	103.155	19.941	12.617	0.484
672.000	399.824	80.000	19.995	103.152	19.989	9.370	0.508
680.000	403.808	79.999	19.994	103.151	20.007	8.208	0.484
688.000	407.789	80.004	19.995	103.149	20.014	7.746	0.515
696.000	411.806	80.001	19.994	103.149	20.018	7.479	0.492
704.000	415.767	80.001	19.995	103.159	20.021	7.268	0.488
712.000	419.838	79.999	19.993	103.153	20.021	7.237	0.497
720.000	423.816	79.999	19.995	103.152	20.027	6.862	0.489
728.000	427.880	79.997	19.996	103.153	20.030	6.642	0.516
736.000	432.017	79.994	20.002	103.154	20.036	6.268	0.536
744.000	436.122	80.001	19.997	103.147	20.040	5.976	0.519
752.000	440.225	80.001	19.997	103.145	20.046	5.615	0.515
760.000	444.283	80.000	19.996	103.147	20.055	5.002	0.485
768.000	448.366	80.000	19.996	103.147	20.059	4.743	0.543
776.000	452.387	80.006	19.992	103.143	20.066	4.285	0.453
784.000	456.364	79.999	19.995	103.151	20.070	3.973	0.498
792.000	460.395	80.003	19.991	103.155	20.071	3.939	0.492
800.000	464.526	80.003	19.994	103.149	20.078	3.497	0.510
808.000	468.681	80.002	19.994	103.150	20.078	3.468	0.524
816.000	472.785	80.001	20.000	103.144	20.084	3.061	0.468
824.000	476.842	80.002	19.998	103.147	20.084	3.048	0.057
832.000	481.061	79.997	20.004	103.148	20.089	2.753	0.490
840.000	485.146	80.002	19.997	103.150	20.081	3.245	0.526
848.000	489.320	80.001	19.993	103.150	20.084	3.037	0.501
856.000	493.300	80.006	19.994	103.149	20.087	2.866	0.540
864.000	497.379	80.001	19.997	103.145	20.086	2.935	0.539
872.000	501.490	79.998	19.997	103.141	20.094	2.412	0.521
880.000	505.555	79.998	19.996	103.147	20.095	2.342	0.503
888.000	509.713	80.003	19.995	103.137	20.093	2.443	0.569
896.000	513.690	79.998	20.000	103.144	20.097	2.218	0.513
904.000	517.776	80.000	19.993	103.141	20.095	2.355	0.514
912.000	521.880	80.002	19.994	103.136	20.097	2.182	0.502
920.000	525.920	80.001	19.991	103.144	20.096	2.263	0.530
928.000	529.974	79.998	19.993	103.147	20.096	2.293	0.499
936.000	533.989	80.003	19.993	103.133	20.098	2.165	0.487
944.000	538.068	80.002	20.001	103.141	20.097	2.176	0.505
952.000	542.075	79.997	19.998	103.122	20.097	2.180	0.501
960.000	546.061	79.999	19.993	103.146	20.096	2.302	0.485
968.000	550.109	79.997	20.000	103.148	20.098	2.114	0.510
976.000	554.182	80.001	19.992	103.145	20.096	2.255	0.515
984.000	558.227	80.004	19.994	103.149	20.095	2.326	0.533
992.000	562.221	79.999	19.995	103.142	20.096	2.284	0.460
1000.000	566.192	80.001	19.995	103.129	20.097	2.176	0.484
1008.000	570.199	80.000	19.997	103.131	20.100	2.024	0.505
1016.000	574.247	80.000	19.996	103.129	20.102	1.884	0.530
1024.000	578.277	80.002	19.993	103.144	20.097	2.174	0.499
1031.999	582.238	80.000	19.994	103.134	20.097	2.231	0.518
1039.999	586.205	80.000	19.995	103.138	20.096	2.275	0.488
1047.999	590.331	79.999	19.995	103.147	20.099	2.040	0.511
1055.999	594.561	80.001	19.996	103.133	20.094	2.400	0.503
1063.999	598.855	80.000	19.994	103.124	20.095	2.362	0.524
1071.999	603.117	80.006	19.991	103.137	20.093	2.486	0.517
1079.999	607.417	79.996	19.999	103.133	20.094	2.388	0.552
1087.999	611.786	80.001	19.996	103.141	20.095	2.304	0.521
1095.999	616.090	80.001	19.996	103.124	20.095	2.343	0.558
1103.999	620.319	80.003	19.993	103.134	20.095	2.320	0.543
1111.999	624.489	79.998	19.996	103.135	20.093	2.439	0.529
1119.999	628.620	79.999	19.996	103.128	20.096	2.265	0.517
1127.999	632.637	80.002	19.996	103.119	20.094	2.422	0.459
1135.999	636.691	80.000	19.995	103.122	20.089	2.725	0.505
1143.999	640.709	80.000	19.994	103.147	20.090	2.641	0.506
1151.999	644.858	80.000	19.995	103.118	20.095	2.349	0.507
1159.999	649.078	80.003	19.994	103.123	20.089	2.760	0.522
1167.999	653.390	80.002	19.997	103.125	20.089	2.738	0.581
1175.999	657.612	80.001	19.993	103.117	20.089	2.710	0.541
1183.999	661.890	80.003	19.994	103.116	20.089	2.737	0.517
1191.999	666.087	80.000	19.997	103.112	20.090	2.659	0.527
1199.999	670.104	80.002	19.995	103.109	20.093	2.495	0.489
1207.999	674.167	79.999	19.996	103.117	20.092	2.521	0.516
1215.999	678.208	80.000	19.998	103.115	20.096	2.270	0.473
1223.999	682.187	80.000	19.995	103.115	20.095	2.367	0.466
1231.999	686.118	80.001	19.995	103.120	20.092	2.564	0.508
1239.999	690.048	80.002	19.996	103.114	20.091	2.600	0.491
1247.999	694.000	80.001	19.996	103.112	20.092	2.524	0.520
1255.999	697.960	80.002	19.995	103.111	20.089	2.750	0.522
1263.999	701.916	80.003	19.996	103.111	20.093	2.495	0.508
1271.999	705.905	80.002	19.996	103.112	20.089	2.765	0.511
1279.999	710.097	80.001	19.995	103.128	20.091	2.597	0.532
1287.999	714.390	80.001	19.995	103.123	20.092	2.504	0.530
1295.999	718.803	80.000	19.996	103.117	20.088	2.818	0.576
1303.999	723.195	80.000	19.997	103.112	20.093	2.478	0.518
1312.000	727.582	79.998	19.997	103.115	20.091	2.586	0.587
1319.999	731.914	80.003	19.996	103.121	20.090	2.694	0.539
1327.999	736.154	80.002	19.996	103.113	20.089	2.745	0.487
1335.999	740.401	80.001	19.998	103.112	20.085	3.007	0.518
1342.000	743.491	80.002	19.995	103.112	20.090	2.668	0.530