File: 01_Data/FRP_Panel/MCC/FRP_Panel_MCC_30K_min_211029_R1.txt
Sample ID:	C:\MCC\MCC Cal\Test\FRP_Panel_MCC_30K_min_211029_R1.txt
Sample Weight (mg):	4.6
Heating Rate (C/s):	0.5
Combustor Temp (C):	900
N2 Flow Rate (cc/min):	80
O2 Flow Rate (cc/min):	20
Calibration File:	C:\MCC\MCC Cal\Coeff1 JN10440_30_210304.txt.txt
T Correction Coefficients:	0	1.024463	0
Time Shift (s):	14
*
Time (s)	Temperature (C)	N2 flow rate (cc/min)	O2 flow rate (cc/min)	Flow Rate (cc/min)	Oxygen (%)	HRR (W/g)	Heating rate (C/s)
0.001	107.706	79.994	19.998	102.914	20.052	0.006	-0.006
8.000	107.700	79.993	19.995	102.909	20.052	0.014	0.002
16.000	107.746	79.992	19.998	102.949	20.047	0.327	0.041
24.000	107.914	79.993	19.995	103.030	20.030	1.530	0.018
32.000	108.515	79.994	19.996	103.048	20.022	2.069	0.088
40.001	109.502	79.993	19.995	103.090	20.016	2.495	0.154
48.000	110.868	79.992	19.996	103.136	20.012	2.819	0.170
56.000	112.725	79.996	19.999	103.164	20.008	3.087	0.238
64.001	114.980	79.994	19.996	103.168	20.006	3.196	0.295
72.000	117.491	79.990	19.995	103.193	20.001	3.586	0.374
80.000	120.424	79.993	19.996	103.201	20.005	3.322	0.402
88.000	123.639	79.993	19.996	103.189	20.002	3.512	0.440
96.000	127.020	79.991	19.996	103.199	20.004	3.367	0.428
104.001	130.584	79.992	19.997	103.181	20.003	3.396	0.457
112.000	134.333	79.994	19.995	103.187	20.005	3.260	0.465
120.001	138.197	79.995	19.994	103.172	20.002	3.491	0.506
128.000	142.159	79.994	19.995	103.166	20.003	3.438	0.489
136.000	146.139	79.993	19.995	103.165	20.003	3.415	0.498
144.000	150.156	79.992	19.995	103.163	20.003	3.418	0.513
152.000	154.113	79.994	19.996	103.161	20.003	3.450	0.467
160.000	158.071	79.993	19.995	103.163	20.003	3.445	0.494
168.000	162.069	79.993	19.996	103.149	20.002	3.504	0.515
176.000	166.048	79.991	19.996	103.163	19.998	3.771	0.522
184.000	169.969	79.993	19.995	103.164	19.994	4.083	0.513
192.000	173.940	79.993	19.996	103.164	19.997	3.859	0.509
200.000	177.969	79.992	19.997	103.144	19.992	4.174	0.520
208.000	181.976	79.996	19.996	103.156	19.989	4.417	0.479
216.000	186.043	79.993	19.994	103.130	19.982	4.907	0.521
224.000	190.044	79.990	19.995	103.132	19.982	4.865	0.508
232.000	194.075	79.992	19.996	103.130	19.979	5.136	0.507
240.000	198.085	79.992	19.995	103.131	19.979	5.079	0.507
248.000	202.018	79.992	19.995	103.129	19.977	5.249	0.502
256.000	205.979	79.991	19.997	103.124	19.975	5.415	0.486
264.000	209.908	79.992	19.997	103.120	19.972	5.593	0.508
272.000	213.845	79.993	19.996	103.123	19.964	6.154	0.467
280.000	217.770	79.993	19.996	103.104	19.960	6.415	0.479
288.000	221.714	79.992	19.997	103.114	19.953	6.907	0.470
296.000	225.646	79.994	19.996	103.119	19.948	7.242	0.482
304.000	229.622	79.991	19.996	103.110	19.952	7.025	0.462
312.000	233.591	79.994	19.995	103.099	19.943	7.612	0.485
320.000	237.558	79.992	19.995	103.104	19.946	7.430	0.491
328.000	241.476	79.993	19.994	103.103	19.947	7.308	0.505
336.000	245.431	79.995	19.994	103.088	19.952	7.020	0.526
344.000	249.353	79.992	19.995	103.096	19.954	6.862	0.494
352.000	253.436	79.992	19.996	103.095	19.950	7.146	0.523
360.000	257.380	79.991	19.997	103.096	19.948	7.288	0.478
368.001	261.420	79.994	19.997	103.090	19.943	7.635	0.528
376.000	265.479	79.992	19.996	103.086	19.937	8.031	0.535
384.000	269.519	79.992	19.995	103.086	19.932	8.360	0.490
392.000	273.610	79.994	19.995	103.087	19.934	8.240	0.522
400.000	277.707	79.993	19.995	103.086	19.934	8.232	0.503
408.000	281.840	79.992	19.995	103.090	19.939	7.917	0.545
416.000	285.927	79.993	19.995	103.090	19.949	7.198	0.494
424.000	290.017	79.994	19.995	103.091	19.952	6.998	0.506
432.000	294.154	79.993	19.994	103.086	19.959	6.506	0.480
440.000	298.211	79.993	19.996	103.070	19.966	6.021	0.502
448.000	302.269	79.996	19.996	103.085	19.970	5.711	0.518
456.000	306.327	79.994	19.997	103.087	19.971	5.654	0.503
464.000	310.309	79.992	19.997	103.081	19.975	5.357	0.486
472.000	314.395	79.994	19.995	103.080	19.973	5.531	0.503
480.000	318.405	79.991	19.995	103.082	19.969	5.801	0.510
488.000	322.373	79.990	19.996	103.078	19.965	6.097	0.520
496.000	326.376	79.994	19.995	103.076	19.959	6.473	0.540
504.000	330.355	79.995	19.995	103.082	19.954	6.881	0.513
512.000	334.367	79.996	19.994	103.083	19.944	7.546	0.482
520.000	338.395	79.993	19.996	103.084	19.937	8.033	0.484
528.000	342.396	79.994	19.995	103.083	19.926	8.810	0.513
536.000	346.414	79.993	19.995	103.083	19.910	9.899	0.506
544.000	350.458	79.991	19.996	103.088	19.901	10.582	0.506
552.000	354.532	79.992	19.996	103.077	19.889	11.412	0.500
560.000	358.573	79.991	19.996	103.091	19.867	12.916	0.517
568.000	362.631	79.992	19.996	103.087	19.846	14.377	0.506
576.000	366.690	79.993	19.996	103.087	19.818	16.326	0.482
584.000	370.726	79.995	19.994	103.094	19.790	18.335	0.526
592.000	374.780	79.994	19.996	103.090	19.748	21.229	0.502
600.000	378.797	79.993	19.996	103.092	19.708	24.027	0.517
608.000	382.829	79.996	19.996	103.097	19.656	27.673	0.541
616.001	386.860	79.991	19.996	103.128	19.591	32.264	0.493
624.001	390.931	79.992	19.996	103.130	19.519	37.314	0.495
632.000	394.973	79.993	19.996	103.137	19.431	43.477	0.515
640.000	399.015	79.992	19.996	103.150	19.328	50.676	0.523
648.000	403.011	79.992	19.995	103.164	19.208	59.031	0.503
656.000	407.111	79.993	19.995	103.169	19.067	68.960	0.520
664.000	411.066	79.994	19.995	103.172	18.925	78.889	0.512
672.000	415.042	79.994	19.994	103.206	18.788	88.451	0.496
680.000	419.043	79.995	19.994	103.212	18.679	96.125	0.490
688.000	423.051	79.996	19.994	103.212	18.611	100.870	0.481
696.000	427.145	79.993	19.996	103.204	18.611	100.825	0.535
704.000	431.170	79.993	19.998	103.204	18.684	95.706	0.503
712.000	435.163	79.993	19.996	103.171	18.823	85.968	0.476
720.000	439.138	79.992	19.996	103.166	19.016	72.434	0.476
728.000	443.209	79.992	19.996	103.142	19.240	56.797	0.535
736.000	447.230	79.993	19.996	103.127	19.461	41.288	0.494
744.000	451.307	79.995	19.995	103.092	19.664	27.151	0.502
752.000	455.321	79.994	19.995	103.092	19.805	17.238	0.509
760.000	459.320	79.994	19.995	103.061	19.899	10.666	0.506
768.000	463.284	79.995	19.994	103.052	19.946	7.385	0.503
776.000	467.290	79.994	19.995	103.049	19.973	5.514	0.521
784.000	471.353	79.993	19.995	103.048	19.985	4.668	0.483
792.000	475.447	79.993	19.995	103.045	19.994	4.076	0.489
800.000	479.478	79.992	19.996	103.051	20.003	3.419	0.498
808.000	483.557	79.991	19.997	103.045	20.002	3.499	0.485
816.000	487.634	79.994	19.997	103.040	20.004	3.322	0.496
824.000	491.740	79.995	19.997	103.043	20.002	3.489	0.511
832.000	495.886	79.993	19.994	103.033	20.000	3.612	0.530
840.000	499.971	79.995	19.995	103.035	20.001	3.597	0.511
848.000	504.056	79.994	19.995	103.045	20.003	3.446	0.506
856.000	508.181	79.992	19.995	103.047	20.004	3.318	0.497
864.000	512.295	79.992	19.995	103.050	20.005	3.291	0.494
872.000	516.478	79.991	19.996	103.051	20.010	2.937	0.521
880.000	520.636	79.993	19.996	103.044	20.006	3.187	0.492
888.000	524.798	79.991	19.996	103.045	20.008	3.067	0.530
896.000	528.969	79.994	19.997	103.041	20.009	2.980	0.526
904.000	533.094	79.994	19.997	103.039	20.013	2.717	0.522
912.000	537.319	79.994	19.996	103.034	20.009	2.994	0.520
920.000	541.484	79.994	19.996	103.045	20.012	2.785	0.552
928.000	545.575	79.995	19.996	103.035	20.011	2.831	0.509
936.000	549.727	79.992	19.996	103.040	20.013	2.715	0.558
944.000	553.813	79.995	19.997	103.019	20.015	2.616	0.536
952.000	557.908	79.994	19.997	103.029	20.018	2.351	0.522
960.000	561.995	79.993	19.996	103.019	20.019	2.335	0.519
968.000	566.100	79.992	19.994	103.041	20.016	2.545	0.521
976.000	570.214	79.996	19.996	103.043	20.016	2.545	0.554
984.000	574.377	79.993	19.995	103.039	20.019	2.327	0.554
992.000	578.458	79.993	19.997	103.014	20.016	2.486	0.528
1000.000	582.536	79.995	19.996	103.029	20.015	2.602	0.537
1008.000	586.602	79.994	19.997	103.031	20.016	2.516	0.488
1016.000	590.690	79.992	19.995	103.027	20.018	2.390	0.495
1024.000	594.836	79.992	19.996	103.013	20.016	2.531	0.512
1032.000	598.929	79.993	19.996	103.037	20.015	2.594	0.531
1040.000	602.957	79.993	19.995	103.030	20.019	2.331	0.480
1048.000	606.999	79.993	19.997	103.035	20.015	2.565	0.493
1056.000	610.984	79.994	19.997	103.036	20.019	2.306	0.458
1064.000	615.050	79.995	19.995	103.039	20.014	2.641	0.503
1072.000	619.033	79.996	19.996	103.010	20.017	2.470	0.491
1080.000	623.021	79.994	19.998	103.032	20.013	2.725	0.509
1088.000	626.883	79.995	19.993	103.009	20.016	2.547	0.475
1096.001	631.035	79.994	19.995	103.046	20.014	2.620	0.534
1104.000	635.389	79.994	19.994	103.052	20.014	2.635	0.540
1112.000	639.875	79.993	19.996	103.052	20.012	2.776	0.535
1120.000	644.327	79.991	19.996	103.051	20.012	2.804	0.548
1128.000	648.762	79.993	19.995	103.054	20.009	2.988	0.565
1136.000	653.107	79.995	19.996	103.051	20.007	3.131	0.522
1144.000	657.533	79.996	19.996	103.059	20.009	2.996	0.549
1152.000	661.853	79.994	19.995	103.048	20.009	3.029	0.535
1160.000	666.099	79.995	19.995	103.072	20.007	3.154	0.556
1168.000	670.327	79.993	19.995	103.084	20.008	3.069	0.504
1176.001	674.512	79.992	19.995	103.088	20.007	3.140	0.530
1184.000	678.718	79.994	19.993	103.086	20.008	3.085	0.550
1192.001	682.833	79.992	20.000	103.093	20.008	3.079	0.526
1200.001	686.911	79.994	19.994	103.093	20.007	3.178	0.482
1208.000	690.978	79.997	19.995	103.113	20.001	3.586	0.490
1216.000	695.067	79.995	19.996	103.124	20.000	3.639	0.522
1224.000	699.104	79.994	19.998	103.129	20.003	3.397	0.822
1232.000	703.173	79.996	19.995	103.129	20.000	3.660	0.522
1240.001	707.310	79.996	19.994	103.153	19.995	3.999	0.477
1248.000	711.509	79.993	19.996	103.165	19.993	4.103	0.541
1256.000	715.718	79.994	19.997	103.165	19.993	4.135	0.550
1264.000	719.874	79.990	20.000	103.200	19.987	4.573	0.514
1272.000	724.012	79.992	19.997	103.200	19.991	4.285	0.538
1280.000	728.135	79.996	19.997	103.207	19.982	4.887	0.513
1288.000	732.197	79.994	19.996	103.205	19.982	4.892	0.520
1296.000	736.204	79.995	19.997	103.238	19.983	4.806	0.508
1304.000	740.213	79.994	19.996	103.238	19.974	5.455	0.513
1311.000	743.713	79.995	19.996	103.243	19.975	5.366	0.493