File: 01_Data/FRP_Panel/MCC/FRP_Panel_MCC_30K_min_211029_R2.txt
Sample ID:	C:\MCC\MCC Cal\Test\FRP_Panel_MCC_30K_min_211029_R2.txt
Sample Weight (mg):	4.56
Heating Rate (C/s):	0.5
Combustor Temp (C):	900
N2 Flow Rate (cc/min):	80
O2 Flow Rate (cc/min):	20
Calibration File:	C:\MCC\MCC Cal\Coeff1 JN10440_30_210304.txt.txt
T Correction Coefficients:	0	1.024463	0
Time Shift (s):	14
*
Time (s)	Temperature (C)	N2 flow rate (cc/min)	O2 flow rate (cc/min)	Flow Rate (cc/min)	Oxygen (%)	HRR (W/g)	Heating rate (C/s)
0.000	108.356	79.996	19.996	102.925	20.074	-0.631	-0.021
8.000	108.427	80.005	19.993	102.932	20.074	-0.628	0.003
16.001	108.344	79.984	19.996	102.966	20.062	0.182	-0.010
24.000	108.615	79.995	19.995	103.071	20.051	0.996	0.048
32.000	109.236	79.987	19.996	103.102	20.042	1.608	0.094
40.000	110.279	79.985	19.998	103.093	20.040	1.771	0.140
48.000	111.603	80.000	19.995	103.087	20.039	1.795	0.172
56.000	113.065	79.992	19.997	103.117	20.034	2.163	0.207
64.000	114.934	79.999	19.995	103.160	20.027	2.656	0.256
72.000	117.193	79.990	19.996	103.156	20.027	2.644	0.303
80.000	119.686	80.000	19.994	103.175	20.024	2.891	0.323
88.000	122.524	79.993	19.995	103.179	20.023	2.957	0.359
96.000	125.550	79.982	19.997	103.169	20.020	3.164	0.367
104.000	128.825	79.998	19.995	103.172	20.021	3.083	0.408
112.000	132.203	80.020	20.002	103.204	20.025	2.836	0.448
120.000	135.727	79.983	19.997	103.165	20.021	3.101	0.428
128.000	139.383	79.996	19.996	103.187	20.018	3.320	0.465
136.000	143.087	79.986	19.996	103.163	20.020	3.190	0.505
144.000	146.913	79.995	19.996	103.171	20.021	3.114	0.468
152.000	150.814	79.993	19.996	103.167	20.018	3.296	0.486
160.000	154.786	79.992	19.996	103.158	20.015	3.482	0.480
168.000	158.696	79.976	19.994	103.170	20.017	3.375	0.515
176.000	162.626	79.992	19.997	103.166	20.015	3.502	0.486
184.000	166.628	79.988	19.995	103.155	20.010	3.868	0.504
192.001	170.607	80.007	19.995	103.165	20.013	3.691	0.502
200.000	174.521	80.010	19.993	103.148	20.010	3.845	0.502
208.000	178.495	79.993	19.995	103.151	20.001	4.517	0.484
216.001	182.498	79.987	19.997	103.146	20.001	4.537	0.510
224.000	186.473	79.985	19.996	103.134	19.995	4.916	0.513
232.000	190.411	80.011	19.993	103.141	19.994	5.028	0.508
240.000	194.316	79.993	19.996	103.136	19.991	5.229	0.503
248.000	198.214	80.012	20.003	103.155	19.992	5.124	0.448
256.000	202.131	80.007	20.002	103.155	19.988	5.437	0.536
264.000	205.962	80.020	20.001	103.155	19.984	5.670	0.503
272.000	209.816	80.008	20.002	103.141	19.986	5.541	0.504
280.000	213.642	80.020	20.002	103.149	19.976	6.270	0.502
288.000	217.479	80.002	20.004	103.147	19.971	6.591	0.475
296.000	221.365	80.025	20.001	103.155	19.963	7.170	0.518
304.000	225.245	80.010	20.004	103.139	19.960	7.403	0.448
312.000	229.311	80.013	20.003	103.166	19.957	7.576	0.490
320.000	233.377	79.996	20.005	103.154	19.949	8.189	0.513
328.000	237.481	80.012	20.003	103.150	19.951	8.021	0.525
336.000	241.514	80.011	20.002	103.143	19.951	8.016	0.497
344.000	245.619	80.011	20.002	103.132	19.950	8.132	0.495
352.000	249.689	80.012	20.003	103.128	19.951	8.043	0.537
360.000	253.777	80.015	20.002	103.140	19.942	8.654	0.507
368.000	257.752	80.013	20.003	103.125	19.941	8.733	0.487
376.000	261.792	80.010	20.003	103.150	19.938	8.972	0.499
384.000	265.834	80.010	20.003	103.129	19.933	9.294	0.478
392.000	269.875	80.009	20.005	103.125	19.929	9.610	0.506
400.000	273.963	80.020	20.001	103.128	19.930	9.499	0.484
408.000	278.025	80.012	20.002	103.111	19.932	9.401	0.539
416.000	282.023	80.010	20.003	103.123	19.936	9.084	0.460
424.000	286.113	80.012	20.002	103.125	19.941	8.710	0.522
432.000	290.144	80.012	20.002	103.115	19.944	8.516	0.510
440.000	294.178	80.014	20.001	103.121	19.952	7.959	0.508
448.000	298.169	80.011	20.002	103.111	19.952	7.932	0.492
456.000	302.121	80.012	20.002	103.112	19.958	7.517	0.462
464.000	306.075	80.012	20.003	103.118	19.959	7.471	0.477
472.000	310.117	79.992	20.001	103.088	19.960	7.383	0.517
480.000	314.128	79.991	19.998	103.087	19.955	7.755	0.510
488.000	318.133	79.991	19.997	103.087	19.952	7.939	0.466
496.000	322.097	79.994	19.995	103.089	19.947	8.285	0.478
504.000	326.176	79.988	19.996	103.088	19.942	8.652	0.511
512.000	330.154	79.994	19.996	103.084	19.935	9.132	0.504
520.000	334.258	79.996	19.995	103.085	19.927	9.690	0.522
528.000	338.269	79.993	19.995	103.084	19.914	10.623	0.527
536.000	342.309	79.988	20.004	103.103	19.906	11.191	0.513
544.000	346.308	79.991	19.997	103.091	19.892	12.187	0.472
552.000	350.350	79.992	19.995	103.094	19.874	13.428	0.498
560.000	354.488	79.991	19.995	103.090	19.864	14.157	0.518
568.000	358.512	79.994	19.996	103.087	19.843	15.651	0.486
576.000	362.567	79.992	19.995	103.086	19.818	17.411	0.499
584.000	366.638	79.993	19.996	103.088	19.791	19.313	0.518
592.000	370.654	79.992	19.995	103.085	19.759	21.603	0.502
600.000	374.753	79.994	19.995	103.085	19.724	24.032	0.539
608.000	378.781	79.990	19.997	103.096	19.681	27.077	0.509
616.000	382.855	79.989	19.995	103.111	19.630	30.664	0.526
624.000	386.893	79.991	19.996	103.120	19.566	35.203	0.473
632.000	390.983	79.993	19.995	103.129	19.489	40.647	0.483
640.001	395.123	79.993	19.996	103.144	19.401	46.869	0.525
648.000	399.204	79.993	19.996	103.145	19.294	54.436	0.497
656.000	403.270	79.999	19.997	103.158	19.169	63.259	0.510
664.000	407.314	79.992	19.995	103.164	19.035	72.671	0.525
672.000	411.326	79.994	19.994	103.176	18.896	82.518	0.481
680.000	415.240	79.993	19.996	103.171	18.766	91.723	0.488
688.000	419.220	79.991	19.995	103.184	18.669	98.583	0.491
696.000	423.237	79.991	19.996	103.194	18.618	102.184	0.500
704.000	427.212	79.993	19.996	103.176	18.629	101.353	0.519
712.000	431.160	79.993	19.996	103.169	18.710	95.619	0.509
720.000	435.150	79.991	19.997	103.163	18.854	85.442	0.480
728.000	439.263	79.993	19.997	103.149	19.049	71.641	0.520
736.000	443.319	79.992	19.995	103.128	19.273	55.862	0.485
744.000	447.461	79.992	19.996	103.093	19.490	40.504	0.529
752.000	451.583	79.992	19.995	103.089	19.679	27.232	0.524
760.000	455.696	79.997	19.994	103.072	19.807	18.163	0.542
768.000	459.678	79.992	19.996	103.051	19.890	12.292	0.509
776.000	463.683	79.990	19.996	103.046	19.932	9.396	0.478
784.000	467.763	79.995	19.996	103.035	19.955	7.734	0.523
792.000	471.752	79.992	19.995	103.015	19.970	6.698	0.505
800.000	475.830	79.993	19.995	103.023	19.977	6.166	0.504
808.000	479.777	79.993	19.996	103.027	19.983	5.733	0.504
816.000	483.744	79.993	19.995	103.033	19.986	5.546	0.499
824.000	487.686	79.994	19.995	103.016	19.990	5.274	0.457
832.000	491.656	79.990	19.995	103.014	19.986	5.555	0.462
840.000	495.752	79.997	19.995	103.014	19.987	5.511	0.519
848.000	499.806	79.996	19.995	103.015	19.987	5.511	0.494
856.000	503.918	79.993	19.995	103.029	19.989	5.353	0.499
864.000	507.988	79.993	19.995	103.020	19.988	5.395	0.514
872.000	512.196	79.994	19.996	103.037	19.993	5.043	0.501
880.000	516.423	79.993	19.995	103.032	19.996	4.837	0.515
888.000	520.656	79.995	19.996	103.022	19.999	4.648	0.515
896.000	524.763	79.994	19.996	103.007	19.998	4.740	0.521
904.000	528.813	79.994	19.995	103.013	20.005	4.182	0.555
912.000	532.798	79.995	19.996	103.011	20.010	3.854	0.507
920.001	536.826	79.996	19.997	103.008	20.010	3.840	0.464
928.000	540.912	79.993	19.997	103.011	20.015	3.479	0.500
936.000	544.966	79.993	19.996	103.011	20.017	3.398	0.511
944.000	549.034	79.992	19.995	103.013	20.020	3.191	0.537
952.000	553.117	79.993	19.995	103.008	20.017	3.348	0.500
960.000	557.209	79.991	19.996	103.009	20.019	3.226	0.515
968.000	561.318	79.992	19.995	103.010	20.022	2.999	0.516
976.000	565.390	79.995	19.995	103.032	20.029	2.496	0.501
984.000	569.460	79.993	19.995	103.009	20.028	2.608	0.510
992.000	573.518	79.995	19.996	103.011	20.032	2.322	0.508
1000.000	577.461	79.995	19.996	103.013	20.028	2.628	0.487
1008.000	581.345	79.993	19.996	103.010	20.028	2.624	0.477
1016.000	585.199	79.992	19.997	103.007	20.029	2.543	0.457
1024.000	589.249	79.992	19.996	103.016	20.028	2.595	0.527
1032.000	593.484	79.993	19.995	103.014	20.031	2.399	0.568
1040.000	597.878	79.993	19.995	103.037	20.033	2.210	0.528
1048.000	602.489	79.992	19.996	103.032	20.028	2.567	0.572
1056.000	607.118	79.995	19.995	103.047	20.031	2.415	0.546
1064.000	611.712	79.993	19.994	103.033	20.030	2.472	0.546
1072.001	616.272	79.993	19.993	103.020	20.030	2.450	0.566
1080.000	620.649	79.996	19.996	103.008	20.033	2.261	0.548
1088.001	624.895	79.992	19.995	103.018	20.034	2.140	0.498
1096.000	629.122	79.992	19.995	103.016	20.030	2.448	0.508
1104.000	633.279	79.994	19.995	103.031	20.035	2.135	0.514
1112.000	637.393	79.990	19.996	103.035	20.033	2.247	0.521
1120.001	641.451	79.991	19.994	103.031	20.031	2.354	0.512
1128.001	645.412	79.992	19.994	103.017	20.031	2.348	0.511
1136.000	649.417	79.994	19.995	103.046	20.030	2.420	0.513
1144.000	653.371	79.993	19.995	103.048	20.030	2.437	0.509
1152.000	657.344	79.995	19.995	103.047	20.032	2.346	0.480
1160.000	661.344	79.998	19.994	103.050	20.030	2.477	0.485
1168.000	665.332	79.993	19.995	103.058	20.030	2.432	0.508
1176.001	669.368	79.992	19.996	103.073	20.030	2.448	0.496
1184.000	673.553	79.993	19.996	103.088	20.023	2.932	0.529
1192.001	677.914	79.991	19.995	103.085	20.024	2.847	0.557
1200.000	682.322	79.990	19.995	103.095	20.024	2.875	0.542
1208.000	686.722	79.995	19.994	103.094	20.023	2.977	0.545
1216.000	691.088	79.995	19.995	103.104	20.017	3.378	0.563
1224.000	695.908	79.992	19.995	103.123	20.019	3.254	0.498
1232.000	699.873	79.994	19.995	103.127	20.014	3.560	0.538
1240.000	704.148	79.997	19.996	103.137	20.009	3.948	0.533
1248.000	708.307	79.992	19.996	103.145	20.009	3.968	0.509
1256.000	712.552	79.992	19.996	103.167	20.006	4.127	0.548
1264.000	716.686	79.993	19.995	103.167	20.003	4.390	0.515
1272.000	720.752	79.994	19.996	103.165	19.997	4.774	0.495
1280.000	724.812	79.992	19.997	103.177	19.995	4.935	0.473
1288.000	728.860	79.992	19.996	103.195	19.996	4.888	0.481
1296.000	732.979	79.996	19.995	103.200	19.992	5.157	0.510
1304.000	736.987	79.994	19.995	103.215	19.991	5.238	0.522
1312.001	740.988	79.993	19.994	103.215	19.986	5.541	0.507
1317.001	743.503	79.995	19.995	103.222	19.986	5.597	0.524