File: 01_Data/Polyurethane_Foam/Cone/Polyurethane_Foam_Cone_HF75Scalar_210325_R1.csv
LABORATORY,FSRI
TEST IDENT,PUF_HF75_1
OPERATOR,Morrissey
MATERIAL,1'' inch PUF
ORIENTATION,Horizontal
HEAT FLUX,75
SURF AREA,0.01
C FACTOR,0.0386052
SPEC HOLDER DIFF,-89.86
SPECIMEN MASS,7.87
SCAN TIME,0.25
O2 DELAY TIME,11
CO DELAY TIME,11
CO2 DELAY TIME,8
FLOW FACTOR,1
SCAN COUNT,639
TIME TO IGN,1.5
END OF TEST SCAN,159
END OF TEST TIME,39.75
TEST STATUS,1
PRE TEST CMT,test w/o frame or grid