File: 01_Data/Polyurethane_Foam/Cone/Polyurethane_Foam_Cone_HF75Scalar_210325_R3.csv
LABORATORY,FSRI
TEST IDENT,PUF_HF75_3
OPERATOR,Morrissey
MATERIAL,1'' inch PUF
ORIENTATION,Horizontal
HEAT FLUX,75
SURF AREA,0.01
C FACTOR,0.0386052
SPEC HOLDER DIFF,-99
SPECIMEN MASS,7.76
SCAN TIME,0.25
O2 DELAY TIME,11
CO DELAY TIME,11
CO2 DELAY TIME,8
FLOW FACTOR,1
SCAN COUNT,631
TIME TO IGN,1
END OF TEST SCAN,151
END OF TEST TIME,37.75
TEST STATUS,1
PRE TEST CMT,test w/o frame or grid