File: 01_Data/Polyurethane_Foam/Cone/Polyurethane_Foam_Cone_HF50Scan_210326_R2.csv
Names,Time,Stack TC,Smoke TC,Exh Press,Smoke Comp,Smoke Meas,CO Meter,CO2 Meter,O2 Meter,Sample Mass,Ext Coeff,Start Test,Flame Verif
Chan Gain,,500,500,1,1,1,1,1,1,1,1,1.0,1.0
Offset,,0,0,0.138348,0,0,0,0,0,0,0,0.0,0.0
Gain,,1,1,25.011,13.5067,16.616,1,1,1,1.00091,1.04608,1.0,1.0
Units,sec,C,C,Pa,%,%,%,%,%,g,/m,,
Baseline,,34.2771,36.1044,159.204,101.725,97.8462,-0.00108697,0.0656053,20.9235,-0.14142,0.356757,,
8,1.75,31.1696,33.3468,159.285,101.72,97.1133,-0.000613311,0.0677537,20.9117,484.251,0.425292,0.0,1.0
16,3.75,33.212,36.012,142.864,101.717,85.2765,0.000997879,0.0787672,20.8249,483.951,1.6177,0.0,1.0
24,5.75,34.5416,38.7008,143.927,101.712,81.1514,0.00303352,0.107568,20.6519,483.72,2.07222,0.0,1.0
32,7.75,35.622,41.237,143.685,101.716,80.6418,0.00499802,0.146393,20.5328,483.45,2.13044,0.0,0.0
40,9.75,37.7839,44.2295,145.396,101.716,82.8085,0.00659189,0.187636,20.4518,483.19,1.8871,0.0,0.0
48,11.75,39.8992,47.8078,133.843,101.719,76.4625,0.0083219,0.234178,20.364,482.85,2.61903,0.0,0.0
56,13.75,42.2876,51.3484,143.291,101.721,79.1682,0.0100581,0.27714,20.2884,482.669,2.30011,0.0,0.0
64,15.75,44.3858,54.2397,141.996,101.731,77.2748,0.0115602,0.324765,20.2402,482.169,2.52309,0.0,0.0
72,17.75,45.8251,55.8495,143.931,101.719,79.8619,0.0125785,0.365229,20.2106,481.949,2.2198,0.0,0.0
80,19.75,46.7878,59.6851,126.248,101.725,80.1814,0.0130587,0.407969,20.0627,481.568,2.18376,0.0,0.0
88,21.75,52.2839,69.6992,109.068,101.727,89.2621,0.012957,0.475062,19.7128,481.008,1.19947,0.0,0.0
96,23.75,60.5134,82.7732,125.373,101.728,92.7478,0.0124849,0.579397,19.4243,480.467,0.84808,0.0,0.0
104,25.75,69.6837,98.4179,98.3446,101.734,95.7664,0.0121148,0.710272,19.028,479.767,0.554705,0.0,0.0
112,27.75,77.8502,113.533,97.7691,101.723,96.4662,0.0119751,0.874468,18.6861,479.156,0.486931,0.0,0.0
120,29.75,84.2839,123.806,111.549,101.725,96.4906,0.0118658,1.0505,18.5212,478.516,0.484766,0.0,0.0
128,31.75,90.8426,133.463,100.529,101.736,97.2973,0.0113795,1.18747,18.4688,477.935,0.409365,0.0,0.0
136,33.75,94.9476,138.46,113.284,101.734,95.8968,0.0102106,1.28959,18.588,477.595,0.542226,0.0,0.0
144,35.75,96.3839,139.29,116.47,101.727,94.7619,0.00883435,1.33319,18.8198,477.174,0.650794,0.0,0.0
152,37.75,95.5069,136.497,129.818,101.723,94.0414,0.00748999,1.32441,19.1402,476.974,0.720538,0.0,0.0
160,39.75,92.0782,130.255,139.582,101.727,96.52,0.00611513,1.26719,19.5554,476.804,0.482117,0.0,0.0
168,41.75,88.4487,123.366,144.864,101.726,96.3394,0.00507047,1.16609,19.8917,476.744,0.499221,0.0,0.0
176,43.75,85.2415,116.84,150.38,101.729,96.8704,0.00451279,1.05502,20.1138,476.764,0.449052,0.0,0.0
184,45.75,81.7682,109.491,144.676,101.731,97.3359,0.00417362,0.950759,20.2965,476.694,0.405286,0.0,0.0
192,47.75,78.274,103.582,151.311,101.732,98.0787,0.00368517,0.845553,20.4342,476.644,0.335593,0.0,0.0
200,49.75,73.994,97.3027,153.911,101.739,97.9849,0.00297443,0.745555,20.5234,476.604,0.345006,0.0,0.0
208,51.75,71.2041,91.997,148.7,101.721,98.1112,0.0024103,0.661038,20.5962,476.574,0.331554,0.0,0.0
216,53.75,68.9851,87.1691,153.942,101.74,98.4971,0.00219679,0.58585,20.663,476.594,0.297244,0.0,0.0
224,55.75,64.8315,81.7741,151.368,101.724,98.4732,0.00219291,0.517292,20.7153,476.604,0.298014,0.0,0.0
232,57.75,62.1588,77.0126,154.068,101.727,98.7516,0.00213045,0.459954,20.7539,476.574,0.272407,0.0,0.0
240,59.75,60.1173,73.0848,158.073,101.723,98.2881,0.0019995,0.416034,20.788,476.584,0.31524,0.0,0.0
248,61.75,58.1526,69.9722,156.886,101.723,98.5219,0.00180383,0.370279,20.8112,476.634,0.293367,0.0,0.0
256,63.75,56.4916,66.6901,155.886,101.725,98.2232,0.00152474,0.327867,20.8281,476.594,0.321451,0.0,0.0
264,65.75,54.6865,63.4969,154.493,101.717,98.5381,0.00117442,0.29526,20.84,476.584,0.291373,0.0,0.0
272,67.75,53.4831,61.7502,155.312,101.715,98.209,0.000878022,0.267073,20.8491,476.564,0.321885,0.0,0.0
280,69.75,52.314,59.3088,154.36,101.715,98.3759,0.000624363,0.241641,20.8582,476.564,0.30631,0.0,0.0
288,71.75,51.368,57.1888,156.36,101.719,98.459,0.000381903,0.219792,20.8663,476.584,0.298853,0.0,0.0
296,73.75,49.8752,56.1916,153.558,101.713,98.4636,0.000259832,0.20283,20.8749,476.624,0.297908,0.0,0.0
304,75.75,48.8174,54.5334,154.787,101.707,98.3809,0.000186507,0.186051,20.8816,476.644,0.30513,0.0,0.0
312,77.75,48.3552,52.9233,151.046,101.701,98.3972,-2.60777e-05,0.172342,20.8859,476.614,0.303059,0.0,0.0
320,79.75,47.3192,51.9496,160.864,101.723,98.2532,-0.000275034,0.160301,20.8895,476.624,0.318433,0.0,0.0
328,81.75,46.7647,50.0945,156.27,101.711,98.279,-0.00039682,0.149464,20.8934,476.614,0.31494,0.0,0.0
336,83.75,45.5188,49.8726,150.702,101.712,98.2425,-0.000393655,0.139858,20.8977,476.604,0.318423,0.0,0.0
344,85.75,44.8741,48.6735,155.358,101.708,98.6735,-0.000471736,0.131591,20.8996,476.574,0.277956,0.0,0.0
352,87.75,44.4953,48.1447,152.686,101.706,98.1974,-0.000538106,0.124946,20.9012,476.584,0.322119,0.0,0.0
360,89.75,44.3027,46.45,160.43,101.702,97.9753,-0.000538889,0.118274,20.9037,476.564,0.342526,0.0,0.0
368,91.75,44.0549,45.9134,158.82,101.707,98.5173,-0.000526978,0.112597,20.9053,476.594,0.292417,0.0,0.0
376,93.75,43.0601,45.5879,153.42,101.708,98.1938,-0.000562276,0.107799,20.9069,476.574,0.322637,0.0,0.0
384,95.75,42.8011,45.2478,152.22,101.709,98.3023,-0.000646112,0.103684,20.9095,476.614,0.312576,0.0,0.0
392,97.75,42.5703,44.765,156.84,101.711,98.2248,-0.000675062,0.0999893,20.911,476.594,0.320045,0.0,0.0
400,99.75,41.9557,43.9971,152.67,101.709,98.0539,-0.000707602,0.0964444,20.9127,476.544,0.335799,0.0,0.0
408,101.75,41.7066,43.6741,158.678,101.711,98.1279,-0.000714385,0.0931317,20.9141,476.574,0.329097,0.0,0.0
416,103.75,41.4848,43.518,159.308,101.706,98.3424,-0.000728765,0.0903264,20.9153,476.584,0.308577,0.0,0.0
424,105.75,41.6876,42.7587,152.925,101.713,98.3044,-0.000731615,0.0879996,20.9159,476.554,0.312796,0.0,0.0
432,107.75,41.0978,42.3436,155.581,101.711,98.2106,-0.000708324,0.085674,20.917,476.564,0.321334,0.0,0.0
440,109.75,40.1223,42.082,157.496,101.715,98.2993,-0.000699897,0.0836259,20.918,476.554,0.313455,0.0,0.0
448,111.75,40.3806,41.846,157.495,101.716,98.3607,-0.000628413,0.0818189,20.9198,476.554,0.307804,0.0,0.0
456,113.75,40.6109,41.6681,155.822,101.728,98.3728,-0.000513545,0.0802546,20.9205,476.564,0.307746,0.0,0.0
464,115.75,39.8438,41.6105,156.609,101.717,98.2146,-0.000618476,0.0788991,20.9218,476.564,0.32155,0.0,0.0
472,117.75,39.8342,41.2987,155.612,101.702,97.921,-0.000852014,0.0776765,20.9231,476.544,0.347646,0.0,0.0
480,119.75,39.6439,40.985,156.86,101.707,98.2608,-0.00107639,0.0763869,20.924,476.584,0.316273,0.0,0.0
488,121.75,39.4895,40.5672,153.187,101.703,98.4773,-0.0010768,0.0751265,20.9244,476.554,0.29574,0.0,0.0
496,123.75,39.3329,40.8815,152.791,101.701,98.3683,-0.00100198,0.0742368,20.9246,476.564,0.305755,0.0,0.0
504,125.75,38.9438,40.4095,157.363,101.692,98.0818,-0.0009592,0.0734281,20.9247,476.544,0.331664,0.0,0.0
512,127.75,39.0796,40.3529,156.579,101.696,97.9844,-0.000890468,0.072667,20.9259,476.594,0.34115,0.0,0.0
520,129.75,39.1154,40.0995,156.915,101.684,98.0899,-0.000886032,0.071953,20.9264,476.554,0.330199,0.0,0.0
528,131.75,38.7475,39.9391,152.875,101.682,98.2055,-0.000933513,0.0715295,20.9254,476.554,0.319204,0.0,0.0
536,133.75,38.6636,40.0983,154.201,101.674,98.0047,-0.000934235,0.0711201,20.925,476.514,0.337241,0.0,0.0
544,135.75,38.6673,39.5742,157.117,101.657,98.3921,-0.000913519,0.0705223,20.926,476.534,0.299552,0.0,0.0
552,137.75,38.5337,39.144,153.401,101.643,97.9611,-0.000938598,0.0700146,20.9266,476.554,0.33861,0.0,0.0
560,139.75,38.2825,39.2912,159.397,101.648,97.9844,-0.00100406,0.0695615,20.9269,476.574,0.336835,0.0,0.0
568,141.75,37.8655,39.3654,158.163,101.635,98.1472,-0.00107308,0.0690951,20.9263,476.544,0.32045,0.0,0.0
576,143.75,38.1566,39.0968,155.791,101.613,97.9753,-0.00108,0.0687436,20.9256,476.564,0.334526,0.0,0.0
584,145.75,38.0542,38.99,152.327,101.625,97.994,-0.00105589,0.068387,20.9253,476.524,0.333849,0.0,0.0
592,147.75,37.7364,39.5258,153.075,101.594,97.9104,-0.00109912,0.0682142,20.9252,476.554,0.338856,0.0,0.0
600,149.75,37.3651,38.8746,162.921,101.58,98.0904,-0.00121692,0.0680368,20.9251,476.554,0.320774,0.0,0.0
608,151.75,37.0526,38.4864,155.664,101.572,98.0782,-0.00130687,0.0678229,20.9246,476.544,0.321168,0.0,0.0
616,153.75,37.4554,38.6067,161.735,101.558,98.0417,-0.001266,0.0676095,20.9231,476.544,0.323355,0.0,0.0
624,155.75,37.9113,38.9681,157.162,101.541,98.025,-0.0011909,0.0674737,20.9224,476.564,0.323394,0.0,0.0
632,157.75,37.4474,38.8181,157.543,101.546,97.9205,-0.0011043,0.0673538,20.9221,476.514,0.333587,0.0,0.0
640,159.75,37.058,38.6635,153.918,101.542,98.0366,-0.00099247,0.0671097,20.922,476.524,0.32234,0.0,0.0
648,161.75,37.8388,38.3345,154.709,101.52,98.2937,-0.000931307,0.0670306,20.9219,476.534,0.29637,0.0,0.0
656,163.75,37.0149,38.613,157.591,101.523,98.0153,-0.00094778,0.0668982,20.9219,476.534,0.322619,0.0,0.0
664,165.75,37.147,38.5181,158.493,101.494,98.0473,,0.0667315,,476.554,0.317058,0.0,0.0
672,167.75,37.0051,37.8701,155.158,101.495,97.955,,,,476.524,0.325737,0.0,0.0
680,169.75,36.6219,38.234,157.967,101.492,97.921,,,,476.514,0.328659,0.0,0.0
688,171.75,36.6336,38.0411,157.767,101.474,97.884,,,,476.514,0.330525,0.0,0.0
696,173.75,36.6697,38.0398,159.897,101.468,97.7065,,,,476.524,0.34662,0.0,0.0
703,175.5,36.4791,37.9779,152.024,101.448,98.1066,,,,476.544,0.307333,0.0,0.0