File: 01_Data/Polyurethane_Foam/Cone/Polyurethane_Foam_Cone_HF25Scalar_210324_R1.csv
LABORATORY,FSRI
TEST IDENT,PUF-HF25-1
OPERATOR,Morrissey
MATERIAL,1'' PUF
ORIENTATION,Horizontal
HEAT FLUX,25
SURF AREA,0.01
C FACTOR,0.0386052
SPEC HOLDER DIFF,-97.4
SPECIMEN MASS,7.7
SCAN TIME,0.25
O2 DELAY TIME,11
CO DELAY TIME,11
CO2 DELAY TIME,8
FLOW FACTOR,1
SCAN COUNT,836
TIME TO IGN,5.5
END OF TEST SCAN,356
END OF TEST TIME,89
TEST STATUS,1
PRE TEST CMT,test w/o retainer grid or frame