File: 01_Data/Gypsum_Wallboard/Cone/Gypsum_Wallboard_Cone_HF25Scan_220510_R3.csv
Names,Time,Stack TC,Smoke TC,Exh Press,Smoke Comp,Smoke Meas,CO Meter,CO2 Meter,O2 Meter,Sample Mass,Ext Coeff,Start Test,Flame Verif
Chan Gain,,500,500,1,1,1,1,1,1,1,1,1.0,1.0
Offset,,0,0,0.138628,0,0,0,0,0,0,0,0.0,0.0
Gain,,1,1,25.011,13.1256,14.6231,1,1,1,1.001,0.958019,1.0,1.0
Units,sec,C,C,Pa,%,%,%,%,%,g,/m,,
Baseline,,19.309,19.9903,141.552,99.1307,98.2986,0.000315187,0.0419471,21.0063,-443.37,0.0708465,,
31,7.5,16.8672,18.4491,142.215,98.9906,98.07,0.000289524,0.0474578,21.0016,129.81,0.0785205,0.0,0.0
62,15.25,17.6841,18.1692,142.985,98.9641,98.0566,0.000149623,0.0436452,21.006,129.88,0.0774227,0.0,0.0
93,23,17.9579,18.3502,142.544,98.8291,98.082,2.68563e-05,0.0423584,21.0075,129.85,0.0637722,0.0,0.0
124,30.75,18.0021,18.4886,140.369,98.8091,97.9669,0.00016328,0.0433207,21.005,129.67,0.0719398,0.0,0.0
155,38.5,17.7783,18.4519,143.19,98.8059,97.9222,0.000475568,0.043171,21.0048,129.46,0.0754959,0.0,0.0
186,46.25,17.7566,18.6674,138.683,98.8199,97.9294,3.77091e-05,0.0422573,21.0061,129.42,0.0760757,0.0,0.0
217,54,18.2088,18.8077,141.553,98.8476,97.9629,0.00018265,0.0418642,21.0069,129.28,0.0755535,0.0,0.0
248,61.75,18.2429,18.5195,142.16,98.8744,97.9339,6.85543e-05,0.0431006,21.0047,129.179,0.0803236,0.0,0.0
279,69.5,18.5725,19.276,141.255,98.8996,98.036,0.000316476,0.0426966,21.005,129.029,0.0737036,0.0,0.0
310,77.25,18.2363,19.215,144.988,98.9449,97.9861,0.000318402,0.0419381,21.0099,128.879,0.0818347,0.0,0.0
341,85,18.4371,18.8976,141.768,98.9737,97.8227,0.000244598,0.0415931,21.0096,128.759,0.0983031,0.0,0.0
372,92.75,18.4955,19.2735,142.652,99.0146,97.9428,0.000480197,0.0417468,21.0092,128.619,0.0914664,0.0,0.0
403,100.5,18.6686,19.1837,140.089,99.0418,97.7495,0.000583142,0.0442999,21.0069,128.469,0.110373,0.0,0.0
434,108.25,18.6055,19.3607,140.351,99.0587,97.6487,0.000162357,0.0437033,21.0093,128.299,0.120476,0.0,0.0
465,116,18.7141,19.5513,139.222,99.0847,97.6545,0.000550717,0.0427939,21.0077,128.068,0.122185,0.0,0.0
496,123.75,19.0156,19.4637,141.814,99.0951,97.3849,0.000548323,0.0427071,21.0099,127.938,0.146296,0.0,0.0
527,131.5,18.9306,19.4426,138.932,99.0995,97.4782,0.00049617,0.0437175,21.0083,127.738,0.138625,0.0,0.0
558,139.25,18.8266,19.4099,140.317,99.1031,97.4532,0.000386544,0.0435914,21.0078,127.588,0.141085,0.0,0.0
589,147,18.8117,19.7808,135.368,99.0995,97.0944,0.000955788,0.043292,21.0056,127.408,0.171777,0.0,0.0
620,154.75,18.9001,19.6688,142.473,99.1083,96.7812,0.00122822,0.0442506,21.0055,127.217,0.199682,0.0,0.0
651,162.5,19.1744,19.9444,139.031,99.1087,96.6174,0.00143207,0.0454949,21.005,127.027,0.21395,0.0,0.0
682,170.25,19.5997,20.1447,143.861,99.1003,96.197,0.00203646,0.0464515,21.0038,126.707,0.24988,0.0,0.0
713,178,19.2772,20.0867,140.37,99.1003,96.0408,0.00243073,0.0483869,21.0008,126.437,0.263535,0.0,0.0
744,185.75,19.3955,20.387,138.461,99.1147,96.2251,0.00351087,0.0516677,20.997,126.196,0.248647,0.0,0.0
775,193.5,19.6177,20.2979,136.966,99.1115,97.218,0.00448934,0.0547718,20.9923,125.946,0.162103,0.0,0.0
806,201.25,19.0077,20.3881,140.663,99.1015,97.7107,0.00518425,0.056442,20.9865,125.796,0.118775,0.0,0.0
837,209,19.9416,20.2209,140.323,99.0999,97.9736,0.00634306,0.0614935,20.982,125.426,0.0960631,0.0,0.0
868,216.75,19.5133,20.4955,140.441,99.1107,98.0771,0.00761542,0.066724,20.9781,125.115,0.0881034,0.0,0.0
899,224.5,19.77,20.491,139.03,99.13,98.1146,0.0083876,0.0719358,20.9704,124.915,0.086522,0.0,0.0
930,232.25,19.8975,20.2755,140.478,99.1176,98.207,0.00874223,0.0725746,20.9702,124.655,0.0775617,0.0,0.0
961,240,20.158,20.9001,141.246,99.1224,98.2534,0.0080232,0.0703551,20.9718,124.345,0.0739985,0.0,0.0
992,247.75,19.8668,21.2948,138.124,99.118,98.4238,0.00744435,0.0698443,20.9719,124.094,0.0590563,0.0,0.0
1023,255.5,20.2738,21.0886,140.338,99.1107,98.2917,0.00635317,0.0688968,20.974,123.834,0.0697315,0.0,0.0
1054,263.25,20.2918,21.0475,140.275,99.1107,98.3654,0.00619312,0.0670866,20.9756,123.584,0.0634382,0.0,0.0
1085,271,20.6958,20.893,141.138,99.0979,98.3408,0.00538195,0.0640623,20.9807,123.374,0.0644483,0.0,0.0
1116,278.75,20.1771,20.9207,138.87,99.1051,98.4368,0.00464461,0.0615013,20.9845,123.153,0.0568655,0.0,0.0
1147,286.5,20.481,21.652,139.551,99.1264,98.4252,0.00385514,0.0572375,20.9897,122.973,0.0596551,0.0,0.0
1178,294.25,20.3434,21.0171,136.514,99.1284,98.418,0.00339616,0.0582305,20.9881,122.713,0.0604349,0.0,0.0
1209,302,20.3996,21.413,141.082,99.1364,98.2953,0.00263527,0.0538767,20.9938,122.653,0.0716001,0.0,0.0
1240,309.75,20.093,21.3736,142.834,99.136,98.4529,0.00241882,0.0515658,20.9939,122.423,0.0581082,0.0,0.0
1271,317.5,20.4566,20.7798,139.815,99.1368,98.4578,0.0021773,0.0497908,20.9975,122.313,0.057757,0.0,0.0
1302,325.25,20.2295,21.2915,141.598,99.1284,98.5109,0.00216416,0.0488177,21.0002,122.072,0.0525131,0.0,0.0
1333,333,20.3075,20.4183,138.904,99.1328,98.2565,0.00175572,0.0480369,21.0017,121.902,0.0746142,0.0,0.0
1364,340.75,19.7016,21.1039,141.11,99.1336,98.6385,0.00183059,0.0473785,21.002,121.812,0.0420731,0.0,0.0
1395,348.5,20.1802,20.8222,139.367,99.1396,98.3748,0.00181194,0.0469157,21.0041,121.702,0.0650825,0.0,0.0
1426,356.25,19.9789,20.9563,141.828,99.144,98.381,0.00111627,0.0457951,21.0044,121.482,0.0649225,0.0,0.0
1457,364,20.0713,20.8438,141.089,99.134,98.3007,0.00104793,0.0450909,21.0078,121.462,0.0709375,0.0,0.0
1488,371.75,19.7848,21.0885,145.514,99.1304,98.5234,0.000827949,0.0442993,21.0077,121.332,0.051617,0.0,0.0
1519,379.5,19.9411,20.9443,139.903,99.1155,98.5185,0.000884996,0.0441373,21.006,121.141,0.0507786,0.0,0.0
1550,387.25,19.9607,20.6028,137.641,99.1071,98.3127,0.000923623,0.0441706,21.0063,121.111,0.0676329,0.0,0.0
1581,395,20.1244,20.7361,140.108,99.1027,98.4069,0.000541921,0.043618,21.0061,120.991,0.0592145,0.0,0.0
1612,402.75,20.0589,20.7116,139.413,99.0911,98.4533,0.000430749,0.0428884,21.007,120.941,0.054267,0.0,0.0
1643,410.5,19.5124,20.9529,137.55,99.0671,98.4238,0.000240931,0.0424885,21.0111,120.741,0.0547418,0.0,0.0
1674,418.25,19.6199,20.675,141.673,99.0495,98.2128,0.000410367,0.0421909,21.0092,120.771,0.0712892,0.0,0.0
1705,426,20.0619,20.5992,140.495,99.0547,98.2784,0.000237137,0.0421037,21.0102,120.681,0.0661192,0.0,0.0
1736,433.75,19.6859,20.6134,143.463,99.0611,98.2284,0.000344297,0.042293,21.0112,120.601,0.0709385,0.0,0.0
1767,441.5,19.6574,20.6881,141.542,99.0759,98.3395,0.000109279,0.0420831,21.0125,120.511,0.0626954,0.0,0.0
1798,449.25,19.9181,20.8121,145.365,99.0899,98.3078,0.00028135,0.0421154,21.0112,120.381,0.0665914,0.0,0.0
1829,457,19.5933,19.8576,142.09,99.1027,98.3011,-3.69152e-05,0.0417212,21.0133,120.301,0.068251,0.0,0.0
1860,464.75,19.5775,20.6463,143.288,99.1103,98.3377,0.000111477,0.0419293,21.01,120.18,0.0657684,0.0,0.0
1891,472.5,19.8688,20.1314,142.509,99.126,98.3333,0.000148725,0.0419046,21.0089,120.13,0.0674739,0.0,0.0
1922,480.25,19.6811,20.1017,143.562,99.1035,98.4002,0.000444064,0.0420981,21.0104,120.04,0.0598541,0.0,0.0
1953,488,19.6481,20.4983,141.769,99.0983,98.3761,0.000236834,0.0417448,21.0116,119.91,0.0614713,0.0,0.0
1984,495.75,20.0001,20.5709,141.605,99.0975,98.2775,-0.000165493,0.0418493,21.0128,119.87,0.0698318,0.0,0.0
2015,503.5,19.3662,20.3638,143.174,99.0703,98.4131,0.000110558,0.0419869,21.0115,119.73,0.0559291,0.0,0.0
2046,511.25,19.6281,20.4525,139.441,99.0406,98.1717,5.46598e-05,0.0416553,21.0099,119.63,0.0740551,0.0,0.0
2077,519,19.6606,20.5473,144.247,99.015,98.2159,0.000341732,0.0416334,21.0097,119.58,0.0680989,0.0,0.0
2108,526.75,19.3871,20.4106,139.36,98.9998,98.2538,0.000356839,0.0417479,21.0118,119.44,0.0635614,0.0,0.0
2139,534.5,19.4858,20.0051,141.118,98.9577,98.2851,0.000230638,0.0420442,21.009,119.48,0.0573192,0.0,0.0
2170,542.25,19.7859,20.818,142.403,98.9257,98.107,0.000374774,0.0419668,21.0099,119.27,0.0698358,0.0,0.0
2201,550,19.3527,20.3366,142.324,98.8868,98.153,-8.85088e-05,0.0419787,21.0064,119.27,0.062598,0.0,0.0
2232,557.75,19.6701,20.6766,139.99,98.8604,98.2846,-3.9624e-05,0.0419478,21.0087,119.249,0.0490876,0.0,0.0
2263,565.5,19.5381,20.5007,142.382,98.8324,98.0575,3.61653e-05,0.0420481,21.0088,119.169,0.0661481,0.0,0.0
2294,573.25,19.5197,20.7402,139.093,98.7979,98.0615,0.000530291,0.0418683,21.009,119.069,0.0628744,0.0,0.0
2325,581,19.3958,20.4921,138.571,98.7835,97.9655,0.00015411,0.041883,21.0099,119.049,0.0698745,0.0,0.0
2356,588.75,19.6756,20.5849,142.679,98.8784,98.1739,7.84881e-06,0.0419157,21.0095,118.899,0.0600888,0.0,0.0
2387,596.5,19.0884,20.0315,141.112,99.0214,98.2717,0.000264123,0.0419612,21.0084,118.839,0.0638716,0.0,0.0
2418,604.25,19.5274,20.0405,140.029,99.1087,98.4247,0.000228852,0.0418096,21.0108,118.919,0.0581997,0.0,0.0
2449,612,19.188,19.7513,140.154,99.1488,98.3498,0.00012211,0.0419361,21.011,118.679,0.0679996,0.0,0.0
2480,619.75,19.1548,19.8806,143.43,99.2029,98.4091,0.000280535,0.0420064,21.0111,118.659,0.0675106,0.0,0.0
2511,627.5,18.7,20.0834,143.549,99.2153,98.5653,5.04155e-05,0.0416287,21.0092,118.589,0.0552355,0.0,0.0
2542,635.25,19.2588,19.8342,140.602,99.1772,98.5314,0.000526665,0.0418124,21.0065,118.499,0.054904,0.0,0.0
2573,643,19.4262,19.5082,142.398,99.1484,98.4653,0.000460225,0.0417794,21.0068,118.228,0.0580943,0.0,0.0
2604,650.75,19.2225,19.5718,140.52,99.1296,98.5484,0.000525583,0.0418517,21.0104,118.349,0.0494173,0.0,0.0
2635,658.5,19.1817,19.9287,143.056,99.1035,98.3855,6.80037e-05,0.0417585,21.01,118.279,0.0611112,0.0,0.0
2666,666.25,19.0374,18.9234,144.926,99.1256,98.4216,0.000448318,0.0419558,21.0104,118.248,0.0598929,0.0,0.0
2697,674,19.2525,19.7885,142.313,99.1844,98.4689,-0.000282684,0.0417892,21.0094,118.118,0.0608447,0.0,0.0
2728,681.75,19.6144,20.088,141.307,99.2413,98.576,7.77005e-07,0.041849,21.0076,118.138,0.0565272,0.0,0.0
2759,689.5,19.0702,19.5122,142.579,99.2614,98.551,0.000336866,0.0418913,21.0069,118.038,0.0603544,0.0,0.0
2790,697.25,19.4457,19.3835,139.932,99.2433,98.4399,0.000124414,0.0419312,21.0082,117.978,0.0683076,0.0,0.0
2821,705,18.8968,20.2663,140.623,99.2453,98.4814,0.000332834,0.0419666,21.0083,117.938,0.0649354,0.0,0.0
2852,712.75,19.4014,19.9221,144.307,99.2089,98.4515,,,,117.768,0.0643995,0.0,0.0
2882,720.25,19.2722,19.4803,144.45,99.172,98.4944,,,,117.738,0.0576217,0.0,0.0