File: 01_Data/Gypsum_Wallboard/Cone/Gypsum_Wallboard_Cone_HF25Scan_220510_R1.csv
Names,Time,Stack TC,Smoke TC,Exh Press,Smoke Comp,Smoke Meas,CO Meter,CO2 Meter,O2 Meter,Sample Mass,Ext Coeff,Start Test,Flame Verif
Chan Gain,,500,500,1,1,1,1,1,1,1,1,1.0,1.0
Offset,,0,0,0.138628,0,0,0,0,0,0,0,0.0,0.0
Gain,,1,1,25.011,13.1256,14.6231,1,1,1,1.001,0.958019,1.0,1.0
Units,sec,C,C,Pa,%,%,%,%,%,g,/m,,
Baseline,,16.9891,17.47,143.343,98.6755,97.7443,0.000368462,0.0417217,21.0096,-443.066,0.079683,,
56,13.75,15.4366,15.5676,143.143,98.6357,97.7308,0.000483293,0.0437909,21.0079,135.566,0.0774495,0.0,0.0
112,27.75,16.0905,16.057,146.173,98.5311,97.6706,0.000237635,0.0417553,21.0106,135.506,0.0737205,0.0,0.0
168,41.75,15.7723,16.4776,142.35,98.5932,97.659,0.000392797,0.0410947,21.0105,135.245,0.0800131,0.0,0.0
224,55.75,15.9518,16.8747,141.246,98.7118,97.7522,9.83405e-05,0.0408941,21.0131,135.005,0.0820907,0.0,0.0
280,69.75,16.8935,16.9057,144.257,98.7927,97.8647,0.000102587,0.0434163,21.0074,134.775,0.0793135,0.0,0.0
336,83.75,16.1875,16.9915,143.281,98.7687,97.8379,0.00026834,0.0438493,21.0074,134.485,0.0795685,0.0,0.0
392,97.75,17.142,17.3201,142.417,98.6982,97.8232,0.00031448,0.0437577,21.0075,134.305,0.0748336,0.0,0.0
448,111.75,17.046,17.4661,140.105,98.6841,97.5795,0.000171879,0.0419595,21.0106,134.034,0.0945972,0.0,0.0
504,125.75,17.5795,18.0938,144.501,98.6709,97.5563,0.00049619,0.0450892,21.0086,133.664,0.0954708,0.0,0.0
560,139.75,17.2903,17.6586,143.185,98.6261,97.1962,0.00047085,0.0436095,21.0108,133.424,0.122728,0.0,0.0
616,153.75,17.4561,17.8152,143.625,98.4955,96.8142,0.000515263,0.0431534,21.0101,133.103,0.144688,0.0,0.0
672,167.75,17.4909,18.5133,141.508,98.3793,96.5562,0.000776942,0.0435055,21.009,132.683,0.15719,0.0,0.0
728,181.75,17.5922,18.4108,141.744,98.2952,96.4054,0.0013189,0.0445087,21.0085,132.373,0.163141,0.0,0.0
784,195.75,18.0769,18.6382,144.103,98.308,96.2813,0.00113363,0.0455542,21.0061,131.902,0.175058,0.0,0.0
840,209.75,18.0636,19.1722,144.004,98.3801,95.8601,0.00207958,0.0474509,21.0026,131.622,0.218069,0.0,0.0
896,223.75,18.6143,18.8074,142.161,98.431,96.1069,0.00231184,0.0489891,21.0013,131.121,0.200806,0.0,0.0
952,237.75,18.5191,19.0559,143.041,98.4474,96.2497,0.00346547,0.0529653,20.9974,130.751,0.189731,0.0,0.0
1008,251.75,18.7856,19.0441,142.079,98.4058,97.0569,0.00470381,0.057912,20.9912,130.2,0.115982,0.0,0.0
1064,265.75,18.7975,19.4452,143.665,98.3284,97.1324,0.00646213,0.0629399,20.9804,129.64,0.102851,0.0,0.0
1120,279.75,18.553,19.6111,143.508,98.2664,97.4224,0.00800265,0.0696515,20.9689,129.199,0.0724841,0.0,0.0
1176,293.75,19.1476,19.7707,140.297,98.2263,97.5166,0.00792874,0.0731316,20.97,128.739,0.0609392,0.0,0.0
1232,307.75,19.4069,20.1742,138.033,98.2335,97.5742,0.00621912,0.068196,20.9769,128.429,0.0565958,0.0,0.0
1288,321.75,19.0976,19.7268,141,98.3349,97.6442,0.00505338,0.0645673,20.9809,127.948,0.0592294,0.0,0.0
1344,335.75,19.6029,20.2182,141.709,98.5131,97.9513,0.00422595,0.0603584,20.9857,127.598,0.0480657,0.0,0.0
1400,349.75,19.6555,19.8728,142.228,98.7759,98.0579,0.0025948,0.0545386,20.9919,127.227,0.0613062,0.0,0.0
1456,363.75,19.2456,20.1072,140.574,98.8972,98.1356,0.00205793,0.0518597,20.9952,126.977,0.0649732,0.0,0.0
1512,377.75,19.4477,19.7136,139.345,98.9593,98.2284,0.00202501,0.0496042,21.0015,126.627,0.0623026,0.0,0.0
1568,391.75,19.7128,20.5119,144.823,98.9033,98.2998,0.00150788,0.0474031,21.0055,126.447,0.0514328,0.0,0.0
1624,405.75,19.3061,20.2391,140.778,98.7715,98.0454,0.000839742,0.0462931,21.0047,126.126,0.0620023,0.0,0.0
1680,419.75,19.332,20.0022,140.22,98.7094,97.9325,0.000714324,0.0447311,21.0084,126.036,0.0664005,0.0,0.0
1736,433.75,19.4674,20.0479,139.873,98.8215,98.0883,0.000663687,0.0441348,21.0094,125.836,0.06259,0.0,0.0
1792,447.75,19.3291,20.1724,142.625,98.9213,98.2061,0.000883374,0.0447608,21.0074,125.626,0.06098,0.0,0.0
1848,461.75,19.6923,20.4808,140.23,99.0899,98.4591,0.000440056,0.0435881,21.0072,125.576,0.0536698,0.0,0.0
1904,475.75,19.4561,20.143,140.597,99.176,98.4743,0.000322557,0.0436779,21.0081,125.326,0.059675,0.0,0.0
1960,489.75,19.5547,20.4008,141.776,99.128,98.4069,0.000132416,0.0431337,21.0106,125.195,0.0613539,0.0,0.0
2016,503.75,20.1472,20.7258,137.889,99.0002,98.2851,6.38071e-05,0.0445319,21.0091,125.065,0.0609253,0.0,0.0
2072,517.75,20.5452,21.3116,140.064,98.8904,98.1436,0.000143562,0.0441017,21.007,124.845,0.0637076,0.0,0.0
2128,531.75,20.5903,20.9895,140.241,99.5646,98.7469,0.000200508,0.0443698,21.0087,124.665,0.0692973,0.0,0.0
2184,545.75,20.0033,20.5469,145.774,99.5502,98.9335,0.000470525,0.042608,21.0119,124.615,0.0522204,0.0,0.0
2240,559.75,19.0484,19.7151,143.84,99.2762,98.4466,0.000339029,0.0420261,21.0115,124.445,0.0705183,0.0,0.0
2296,573.75,19.5362,20.3788,142.304,99.8486,99.0241,0.000178998,0.0422931,21.0096,124.285,0.0696818,0.0,0.0
2352,587.75,19.1787,19.7695,140.98,99.4837,98.6099,0.000217254,0.0459646,21.0054,124.164,0.0741326,0.0,0.0
2408,601.75,19.2094,19.8882,139.429,98.0236,97.1248,0.00030193,0.0460899,21.0059,124.004,0.0774138,0.0,0.0
2464,615.75,18.7914,20.3115,141.815,98.29,97.4796,0.000149528,0.0442744,21.0085,123.864,0.0695785,0.0,0.0
2520,629.75,19.3373,20.142,137.954,99.2113,98.4653,-3.12156e-05,0.0434117,21.0094,123.744,0.0634232,0.0,0.0
2576,643.75,19.8157,19.9645,139.884,98.9886,98.1913,0.000481124,0.0443874,21.0106,123.604,0.0679549,0.0,0.0
2632,657.75,19.2012,20.047,139.557,99.1196,98.1324,3.64655e-05,0.0444919,21.0086,123.454,0.0841103,0.0,0.0
2688,671.75,19.6691,19.8437,139.129,99.8926,98.8719,0.000239922,0.0419765,21.0104,123.284,0.0863138,0.0,0.0
2744,685.75,18.8985,20.0452,138.898,98.28,97.4233,0.000400969,0.0420636,21.0091,123.133,0.0735715,0.0,0.0
2800,699.75,19.3543,20.0178,141.737,98.5668,97.8147,4.82166e-06,0.0422008,21.012,123.043,0.0643677,0.0,0.0
2856,713.75,19.5201,20.0803,139.231,99.1087,98.2886,0.000239479,0.0416687,21.0107,122.793,0.0698288,0.0,0.0
2912,727.75,19.4701,19.7085,142.072,99.5301,98.717,0.000207616,0.0418053,21.0108,122.683,0.0689336,0.0,0.0
2968,741.75,19.5008,19.8197,135.862,99.1945,98.3109,0.000223473,0.0420297,21.0097,122.583,0.0751861,0.0,0.0
3024,755.75,19.3534,20.0201,141.551,99.8534,99.0151,0.000336448,0.0420233,21.0093,122.443,0.0708441,0.0,0.0
3080,769.75,19.3426,19.8164,138.755,99.6888,99.0058,0.000201383,0.0424401,21.0092,122.323,0.0577729,0.0,0.0
3136,783.75,19.4584,20.0931,139.142,98.9657,98.049,0.00040663,0.0415119,21.0113,122.232,0.0782089,0.0,0.0
3192,797.75,19.4636,19.9268,140.101,98.3168,97.4032,0.000201522,0.0415001,21.0129,122.132,0.078455,0.0,0.0
3248,811.75,19.2371,19.9387,144.865,97.9503,97.3443,0.000147709,0.0424729,21.0114,121.982,0.0521517,0.0,0.0
3304,825.75,19.2814,19.7157,138.491,97.9351,97.2082,0.000133801,0.0420935,21.0117,121.802,0.0626039,0.0,0.0
3360,839.75,18.8773,19.9571,141.98,98.2163,97.3095,0.000429022,0.0417894,21.0117,121.702,0.0779458,0.0,0.0
3416,853.75,19.0733,19.772,140.663,98.5936,97.7531,0.000173825,0.0416658,21.011,121.572,0.0719487,0.0,0.0
3472,867.75,18.6345,20.0258,140.151,98.9061,98.1088,0.000384195,0.0417805,21.0155,121.482,0.0680155,0.0,0.0
3528,881.75,18.8131,19.8961,143.953,99.0487,98.3359,0.000446104,0.0416228,21.0118,121.432,0.0606886,0.0,0.0
3584,895.75,19.155,19.4801,141.63,99.0883,98.2507,0.000317238,0.0418384,21.013,121.272,0.0713398,0.0,0.0
3640,909.75,19.2264,19.7671,143.158,99.0843,98.3297,0.000308344,0.0418746,21.0105,121.111,0.0642474,0.0,0.0
3696,923.75,18.9294,19.5234,140.85,99.0398,98.377,0.000384778,0.0419876,21.0122,121.081,0.0564336,0.0,0.0
3752,937.75,18.812,19.9345,141.282,98.9461,98.2949,0.000109466,0.0416737,21.0124,120.911,0.0554932,0.0,0.0
3808,951.75,19.0604,19.958,137.723,98.8484,98.2288,0.000160297,0.0415933,21.0105,120.851,0.0528366,0.0,0.0
3864,965.75,19.3539,20.0069,144.842,98.7062,97.9289,0.000637573,0.0419532,21.0103,120.741,0.0664343,0.0,0.0
3920,979.75,19.3535,19.7681,141.295,98.5532,97.8482,-8.15177e-05,0.0418395,21.0117,120.561,0.0603315,0.0,0.0
3976,993.75,18.9544,19.9887,143.427,98.4494,97.6081,0.00046939,0.0419093,21.0104,120.401,0.0721255,0.0,0.0
4032,1007.75,18.919,19.3914,142.908,98.2888,97.3631,0.000215462,0.0415735,21.0108,120.391,0.0795228,0.0,0.0
4088,1021.75,19.0263,20.0393,141.412,98.1005,97.3149,0.00029268,0.041702,21.0158,120.281,0.0675713,0.0,0.0
4144,1035.75,18.8472,19.7054,144.655,97.9583,97.1801,0.00044324,0.0415553,21.012,120.15,0.0670287,0.0,0.0
4200,1049.75,18.8947,19.4401,138.885,97.8918,97.3185,0.000361352,0.0415132,21.0127,120.1,0.0493675,0.0,0.0
4256,1063.75,18.6873,19.6915,147.328,97.9279,97.1757,8.34127e-05,0.0417903,21.0101,119.98,0.0648022,0.0,0.0
4312,1077.75,19.2,19.6131,143.04,98.042,97.3564,-0.000142955,0.04144,21.0118,119.95,0.0589777,0.0,0.0
4368,1091.75,19.134,19.7385,144.242,98.2111,97.5108,0.000410156,0.0416856,21.0146,119.8,0.0601365,0.0,0.0
4424,1105.75,19.4872,20.1628,137.7,98.4911,97.7094,0.000233966,0.0414298,21.0148,119.72,0.0669631,0.0,0.0
4480,1119.75,19.6082,20.1396,141.596,98.856,98.0575,0.000327984,0.041412,21.0126,119.64,0.0681576,0.0,0.0
4536,1133.75,18.7286,19.4077,143.265,99.3154,98.5765,0.00025174,0.0413078,21.0122,119.51,0.062762,0.0,0.0
4592,1147.75,18.9193,19.4752,142.067,99.7088,98.9549,0.000219773,0.0414528,21.0101,119.49,0.0637802,0.0,0.0
4648,1161.75,18.9534,20.2639,140.167,99.8806,99.187,0.000233043,0.0415253,21.0146,119.45,0.0585668,0.0,0.0
4704,1175.75,19.2613,19.6835,139.435,99.8257,99.0562,0.000272786,0.041692,21.0131,119.37,0.0650338,0.0,0.0
4760,1189.75,19.2646,19.8447,138.829,99.559,98.8331,0.000259466,0.0413712,21.0148,119.249,0.0614971,0.0,0.0
4816,1203.75,18.8595,19.3774,140.525,99.2393,98.5225,0.000530966,0.0414529,21.0154,119.199,0.0609243,0.0,0.0
4872,1217.75,18.9061,19.4361,140.683,99.2061,98.3806,0.000311277,0.0428026,21.0126,119.109,0.0702222,0.0,0.0
4928,1231.75,18.8147,19.4738,140.188,99.5898,98.842,0.00012844,0.0418946,21.0119,119.079,0.0633407,0.0,0.0
4984,1245.75,19.0164,19.3475,134.457,99.4917,98.7768,0.000294195,0.0417163,21.0127,119.069,0.0605971,0.0,0.0
5040,1259.75,19.1186,18.8741,140.064,98.898,98.1039,-0.000140146,0.0416234,21.0133,118.889,0.0677551,0.0,0.0
5096,1273.75,18.7143,19.4767,147.666,98.862,98.1463,0.000141218,0.0418341,21.0102,118.839,0.0610605,0.0,0.0
5152,1287.75,18.6599,19.0093,141.599,99.0414,98.4096,0.000514677,0.0418273,21.0119,118.849,0.0537873,0.0,0.0
5208,1301.75,18.9806,19.3102,141.544,99.1748,98.4011,5.37531e-05,0.0418643,21.0117,118.839,0.0658221,0.0,0.0
5264,1315.75,18.7052,19.5495,140.699,99.166,98.2618,,,,118.719,0.0769741,0.0,0.0
5287,1321.5,18.5943,19.3385,142.803,99.0711,98.3623,,,,118.739,0.0603424,0.0,0.0