File: 01_Data/Pressure_Treated_Deck/STA/N2/10K_min/Pressure_Treated_Deck_STA_N2_10KData_211706_R1.csv
##Temp./Â°C,Time/min,Mass loss(subtr.2)/mg,DSC(subtr.2)/mW,Sensit./(uV/mW)
49.387,10.01,-0.00801,-0.03207959,0.61835
52.387,12.35877,-0.009449279,0.18377,0.61993
55.387,13.04304,-0.007171178,0.3032,0.62148
58.387,13.59394,-0.0155681,0.35926,0.623
61.387,14.0824,-0.01120644,0.42695,0.62449
64.387,14.5319,-0.01172796,0.49944,0.62595
67.387,14.9544,-0.01201285,0.5626,0.62738
70.387,15.3544,-0.01337553,0.6087,0.62877
73.387,15.73674,-0.01600278,0.64938,0.63014
76.387,16.10594,-0.0172903,0.70394,0.63147
79.387,16.46164,-0.02073503,0.73684,0.63277
82.387,16.80719,-0.02072975,0.77512,0.63404
85.387,17.14311,-0.02548947,0.78811,0.63527
88.387,17.47176,-0.02336876,0.80218,0.63648
91.387,17.79255,-0.02583894,0.78458,0.63765
94.387,18.10621,-0.02711659,0.76976,0.63879
97.387,18.41639,-0.0294497,0.76205,0.6399
100.387,18.72175,-0.03082037,0.74,0.64098
103.387,19.02372,-0.03220238,0.73343,0.64203
106.387,19.32299,-0.03355301,0.72622,0.64305
109.387,19.62043,-0.03213977,0.70723,0.64403
112.387,19.91512,-0.03213838,0.70981,0.64498
115.387,20.20799,-0.03344966,0.7133,0.6459
118.387,20.49934,-0.04157419,0.70078,0.64679
121.387,20.78886,-0.03411,0.70555,0.64765
124.387,21.07591,-0.03237103,0.69583,0.64848
127.387,21.36092,-0.03323888,0.71886,0.64927
130.387,21.6438,-0.03603143,0.72625,0.65003
133.387,21.92587,-0.03466598,0.75407,0.65077
136.387,22.20571,-0.03598371,0.75829,0.65147
139.387,22.48406,-0.03726221,0.78477,0.65214
142.387,22.7607,-0.03597999,0.78424,0.65278
145.387,23.0356,-0.03457646,0.78214,0.65339
148.387,23.30956,-0.03858182,0.78872,0.65396
151.387,23.5822,-0.03724726,0.79027,0.65451
154.387,23.85541,-0.03779882,0.80411,0.65503
157.387,24.12821,-0.03730001,0.81563,0.65551
160.387,24.39967,-0.03731046,0.82933,0.65597
163.387,24.67107,-0.03771746,0.82439,0.65639
166.387,24.94174,-0.04015391,0.84631,0.65679
169.387,25.213,-0.0403837,0.86281,0.65715
172.387,25.48394,-0.04235054,0.8647,0.65749
175.387,25.75444,-0.04234005,0.87415,0.65779
178.387,26.02443,-0.04325997,0.88017,0.65806
181.387,26.2935,-0.0446614,0.91427,0.65831
184.387,26.5625,-0.04661,0.93063,0.65853
187.387,26.8307,-0.04657274,0.93469,0.65871
190.387,27.0979,-0.04934941,0.96789,0.65887
193.387,27.36559,-0.0504878,0.95773,0.659
196.387,27.63271,-0.05182512,0.97492,0.6591
199.387,27.89947,-0.05319004,0.99545,0.65917
202.387,28.1662,-0.0558137,1.00463,0.65921
205.387,28.433,-0.06183071,1.03229,0.65922
208.387,28.69936,-0.06054965,1.04755,0.65921
211.387,28.9667,-0.06251875,1.07084,0.65917
214.387,29.2335,-0.06580822,1.08599,0.6591
217.387,29.50007,-0.06998205,1.11023,0.659
220.387,29.76687,-0.07140998,1.13765,0.65888
223.387,30.0335,-0.07564079,1.12288,0.65872
226.387,30.3007,-0.08052224,1.1414,0.65854
229.387,30.56782,-0.08880791,1.12855,0.65834
232.387,30.835,-0.09309151,1.10023,0.65811
235.387,31.10261,-0.10113,1.07929,0.65785
238.387,31.3706,-0.10935,1.05243,0.65756
241.387,31.63764,-0.11691,1.03112,0.65725
244.387,31.9052,-0.12712,1.01034,0.65691
247.387,32.17317,-0.13778,0.99398,0.65655
250.387,32.4407,-0.14946,0.9767,0.65616
253.387,32.70859,-0.15833,0.97252,0.65575
256.387,32.97623,-0.17046,0.99324,0.65531
259.387,33.24453,-0.18413,0.98495,0.65485
262.387,33.513,-0.19705,0.99018,0.65436
265.387,33.78065,-0.21149,1.01383,0.65385
268.387,34.04932,-0.22962,1.0358,0.65332
271.387,34.31755,-0.24826,1.04317,0.65276
274.387,34.58598,-0.27046,1.06507,0.65218
277.387,34.85438,-0.29513,1.08746,0.65157
280.387,35.12378,-0.31925,1.08465,0.65094
283.387,35.39273,-0.34742,1.08949,0.65029
286.387,35.66199,-0.38175,1.12547,0.64962
289.387,35.93225,-0.41575,1.10735,0.64892
292.387,36.2023,-0.45356,1.11772,0.64821
295.387,36.4726,-0.50491,1.14344,0.64747
298.387,36.7434,-0.56824,1.16675,0.64671
301.387,37.01513,-0.56155,1.14145,0.64593
304.387,37.28628,-0.63028,1.19361,0.64513
307.387,37.5569,-0.68062,1.22525,0.6443
310.387,37.8279,-0.73135,1.26857,0.64346
313.387,38.1001,-0.78855,1.30721,0.6426
316.387,38.3726,-0.84751,1.35657,0.64172
319.387,38.64433,-0.90645,1.40624,0.64082
322.387,38.917,-0.97175,1.42975,0.63989
325.387,39.18998,-1.03871,1.48179,0.63896
328.387,39.46311,-1.10721,1.52559,0.638
331.387,39.73639,-1.18049,1.582,0.63702
334.387,40.01017,-1.2553,1.62044,0.63603
337.387,40.28453,-1.3343,1.6835,0.63502
340.387,40.55835,-1.41656,1.73624,0.63399
343.387,40.8334,-1.50132,1.81298,0.63294
346.387,41.1083,-1.58855,1.87452,0.63188
349.387,41.38367,-1.68208,1.96253,0.6308
352.387,41.65886,-1.77781,2.02639,0.6297
355.387,41.9345,-1.8778,2.05952,0.62859
358.387,42.21035,-1.97797,2.05967,0.62746
361.387,42.48689,-2.08153,1.97584,0.62632
364.387,42.76401,-2.18174,1.7895,0.62516
367.387,43.04057,-2.26826,1.46766,0.62399
370.387,43.31735,-2.341,1.02455,0.62281
373.387,43.59515,-2.39388,0.54855,0.6216
376.387,43.87285,-2.42884,0.20091,0.62039
379.387,44.1513,-2.45016,-0.000701779,0.61916
382.387,44.42929,-2.46505,-0.08077812,0.61792
385.387,44.70824,-2.48225,-0.13832,0.61667
388.387,44.98737,-2.49156,-0.16777,0.6154
391.387,45.26664,-2.50378,-0.21434,0.61412
394.387,45.5467,-2.51347,-0.2571,0.61283
397.387,45.82748,-2.52327,-0.30758,0.61153
400.387,46.1088,-2.53419,-0.35601,0.61021
403.387,46.38961,-2.54348,-0.38598,0.60889
406.387,46.67113,-2.55282,-0.43423,0.60755
409.387,46.95296,-2.56245,-0.4941,0.60621
412.387,47.23499,-2.57253,-0.51873,0.60485
415.387,47.5174,-2.58043,-0.55212,0.60348
418.387,47.8003,-2.59004,-0.57397,0.60211
421.387,48.08338,-2.59812,-0.60622,0.60072
424.387,48.36694,-2.60558,-0.63143,0.59933
427.387,48.6514,-2.61348,-0.6482,0.59793
430.387,48.93572,-2.62294,-0.64608,0.59651
433.387,49.22,-2.63148,-0.6513,0.59509
436.387,49.5058,-2.63927,-0.63783,0.59367
439.387,49.7909,-2.64676,-0.62717,0.59223
442.387,50.07649,-2.65309,-0.6195,0.59079
445.387,50.36242,-2.66108,-0.59478,0.58934
448.387,50.64907,-2.66769,-0.57648,0.58788
451.387,50.9367,-2.67296,-0.54276,0.58642
454.387,51.2246,-2.67945,-0.53378,0.58495
457.387,51.51201,-2.68501,-0.51597,0.58348
460.387,51.7989,-2.69027,-0.50283,0.582
463.387,52.08662,-2.69619,-0.49779,0.58052
466.387,52.37453,-2.70084,-0.47622,0.57903
469.387,52.6634,-2.70618,-0.47592,0.57753
472.387,52.95208,-2.70983,-0.47602,0.57603
475.387,53.2415,-2.71429,-0.46481,0.57453
478.387,53.53018,-2.7199,-0.47668,0.57302
481.387,53.8202,-2.72493,-0.4779,0.57151
484.387,54.10983,-2.72789,-0.49659,0.57
487.387,54.4,-2.73052,-0.52341,0.56848
490.387,54.6905,-2.73447,-0.50969,0.56696
493.387,54.98185,-2.73843,-0.5266,0.56544
496.387,55.2731,-2.74171,-0.54501,0.56391
499.387,55.56448,-2.74568,-0.55291,0.56239
502.387,55.8565,-2.74972,-0.57577,0.56086
505.387,56.14875,-2.75334,-0.58358,0.55933
508.387,56.44248,-2.75727,-0.6096,0.5578
511.387,56.7343,-2.75795,-0.63225,0.55627
514.387,57.0281,-2.76255,-0.67102,0.55473
517.387,57.3216,-2.76477,-0.63673,0.5532
520.387,57.61486,-2.76952,-0.62401,0.55167
523.387,57.9084,-2.77097,-0.66969,0.55013
526.387,58.2021,-2.77563,-0.6684,0.5486
529.387,58.4962,-2.77953,-0.71816,0.54707
532.387,58.7912,-2.77868,-0.73245,0.54553
535.387,59.0862,-2.78197,-0.7664,0.544
538.387,59.382,-2.7865,-0.78047,0.54247
541.387,59.67754,-2.78843,-0.83522,0.54094
544.387,59.9734,-2.79095,-0.85651,0.53941
547.387,60.26896,-2.79371,-0.86062,0.53789
550.387,60.5658,-2.79503,-0.89461,0.53636
553.387,60.86243,-2.79766,-0.91883,0.53484
556.387,61.15876,-2.80054,-0.93379,0.53332
559.387,61.4566,-2.80353,-0.94844,0.5318
562.387,61.7537,-2.80456,-0.9639,0.53029
565.387,62.0518,-2.80851,-0.97696,0.52878
568.387,62.3494,-2.81114,-0.99809,0.52727
571.387,62.64702,-2.8125,-1.04329,0.52576
574.387,62.94596,-2.81639,-1.07407,0.52426
577.387,63.24471,-2.81789,-1.08521,0.52276
580.387,63.5429,-2.82036,-1.10356,0.52127
583.387,63.84256,-2.823,-1.09748,0.51978
586.387,64.14275,-2.82445,-1.1433,0.5183
589.387,64.44305,-2.82783,-1.16439,0.51681
592.387,64.74334,-2.8288,-1.17799,0.51534
595.387,65.0435,-2.83056,-1.15081,0.51387
598.387,65.3437,-2.83384,-1.13735,0.5124
601.387,65.6442,-2.83583,-1.13111,0.51094
604.387,65.9451,-2.83845,-1.10833,0.50948
607.387,66.2469,-2.84076,-1.10824,0.50803
610.387,66.5487,-2.84306,-1.10391,0.50658
613.387,66.84993,-2.84373,-1.07694,0.50514
616.387,67.1512,-2.84639,-1.08347,0.50371
619.387,67.4526,-2.84536,-1.03799,0.50228
622.387,67.75435,-2.84587,-1.03831,0.50086
625.387,68.0568,-2.85063,-1.04566,0.49944
628.387,68.3585,-2.85304,-1.02468,0.49803
631.387,68.66124,-2.85326,-1.02043,0.49663
634.387,68.96466,-2.85458,-1.01036,0.49523
637.387,69.2684,-2.85689,-1.00624,0.49384
640.387,69.57263,-2.85755,-0.99012,0.49246
643.387,69.87528,-2.85986,-0.99986,0.49108
646.387,70.17922,-2.86116,-1.00588,0.48971
649.387,70.48366,-2.86379,-1.01544,0.48835
652.387,70.788,-2.86511,-0.99271,0.48699
655.387,71.09249,-2.86647,-0.98136,0.48564
658.387,71.39787,-2.86906,-0.9967,0.4843
661.387,71.70325,-2.87047,-0.98103,0.48297
664.387,72.00808,-2.86764,-0.94462,0.48164
667.387,72.31264,-2.87028,-0.91898,0.48033
670.387,72.61869,-2.8729,-0.93274,0.47902
673.387,72.92493,-2.87158,-0.87789,0.47771
676.387,73.23116,-2.87256,-0.88184,0.47642
679.387,73.5369,-2.87389,-0.87513,0.47513
682.387,73.84274,-2.8765,-0.86589,0.47385
685.387,74.14945,-2.87481,-0.84457,0.47258
688.387,74.4564,-2.87783,-0.79211,0.47132
691.387,74.7632,-2.87718,-0.81387,0.47006
694.387,75.0708,-2.88048,-0.81561,0.46882
697.387,75.37817,-2.87904,-0.76689,0.46758
700.387,75.6857,-2.88299,-0.75753,0.46635
703.387,75.9927,-2.88332,-0.72137,0.46512
706.387,76.29925,-2.88374,-0.67313,0.46391
709.387,76.60699,-2.88518,-0.69503,0.46271
712.387,76.91476,-2.88717,-0.77886,0.46151
715.387,77.22338,-2.88782,-0.83067,0.46032
718.387,77.53134,-2.88234,-0.76653,0.45914
721.387,77.8387,-2.88935,-0.78391,0.45797
724.387,78.14716,-2.89132,-0.72059,0.4568
727.387,78.4559,-2.89166,-0.69949,0.45565
730.387,78.76576,-2.89166,-0.64694,0.4545
733.387,79.07502,-2.893,-0.63357,0.45337
736.387,79.385,-2.89527,-0.60878,0.45224
739.387,79.69476,-2.89411,-0.56759,0.45112
742.287,79.9939,-2.89528,-0.5375,0.45004