File: 01_Data/Pressure_Treated_Deck/STA/N2/10K_min/Pressure_Treated_Deck_STA_N2_10KData_211706_R2.csv
##Temp./Â°C,Time/min,Mass loss(subtr.2)/mg,DSC(subtr.2)/mW,Sensit./(uV/mW)
49.227,10.00917,-0.02555,-0.0505935,0.61826
52.227,12.34867,-0.02808277,0.31992,0.61985
55.227,13.03359,-0.03000398,0.50504,0.6214
58.227,13.58355,-0.03289666,0.61692,0.62292
61.227,14.0715,-0.0342195,0.73697,0.62442
64.227,14.52048,-0.0359754,0.82577,0.62587
67.227,14.942,-0.03799094,0.90555,0.6273
70.227,15.3423,-0.04143494,0.97785,0.6287
73.227,15.72489,-0.03262741,1.05973,0.63006
76.227,16.09199,-0.0445091,1.13752,0.6314
79.227,16.44802,-0.04608936,1.20362,0.6327
82.227,16.79255,-0.04849404,1.25835,0.63397
85.227,17.12869,-0.05556772,1.29336,0.63521
88.227,17.45569,-0.05624508,1.33768,0.63642
91.227,17.77637,-0.05336148,1.35534,0.63759
94.227,18.09085,-0.06076625,1.35679,0.63873
97.227,18.4006,-0.05991092,1.35975,0.63985
100.227,18.70598,-0.06076932,1.34748,0.64093
103.227,19.00865,-0.06339999,1.34046,0.64197
106.227,19.30734,-0.06458669,1.33182,0.64299
109.227,19.60454,-0.06597972,1.34352,0.64398
112.227,19.89923,-0.06734,1.33675,0.64493
115.227,20.19231,-0.06896481,1.3107,0.64585
118.227,20.48295,-0.0674602,1.318,0.64674
121.227,20.77212,-0.06747472,1.31153,0.6476
124.227,21.05921,-0.06745962,1.32367,0.64843
127.227,21.34477,-0.06909953,1.34306,0.64923
130.227,21.6278,-0.07042,1.36465,0.64999
133.227,21.90906,-0.07042,1.3612,0.65073
136.227,22.1884,-0.07063998,1.38328,0.65143
139.227,22.46613,-0.07064001,1.40656,0.6521
142.227,22.74241,-0.07078655,1.42227,0.65274
145.227,23.018,-0.07293455,1.44956,0.65335
148.227,23.29225,-0.07196069,1.46051,0.65393
151.227,23.56567,-0.07360957,1.47189,0.65448
154.227,23.8387,-0.07393015,1.50199,0.655
157.227,24.11114,-0.07736117,1.51139,0.65549
160.227,24.3828,-0.07788,1.53192,0.65594
163.227,24.65384,-0.07656835,1.55771,0.65637
166.227,24.9251,-0.0758074,1.57541,0.65677
169.227,25.19546,-0.07798958,1.59584,0.65713
172.227,25.46659,-0.07447953,1.59662,0.65747
175.227,25.7361,-0.07531629,1.62854,0.65777
178.227,26.00587,-0.07798006,1.62864,0.65805
181.227,26.2752,-0.07920265,1.64782,0.6583
184.227,26.54288,-0.08205033,1.66609,0.65851
187.227,26.81235,-0.08347825,1.66377,0.6587
190.227,27.0804,-0.08335988,1.67745,0.65886
193.227,27.34849,-0.0884632,1.69918,0.65899
196.227,27.6158,-0.08807998,1.72143,0.65909
199.227,27.88253,-0.08939963,1.74503,0.65916
202.227,28.1496,-0.09238975,1.75674,0.65921
205.227,28.4167,-0.0955185,1.77934,0.65922
208.227,28.68295,-0.10172,1.80271,0.65921
211.227,28.9494,-0.10769,1.82641,0.65917
214.227,29.2165,-0.10146,1.84957,0.6591
217.227,29.4832,-0.10559,1.86625,0.65901
220.227,29.7501,-0.10982,1.89331,0.65888
223.227,30.0172,-0.1153,1.89253,0.65873
226.227,30.2836,-0.12107,1.89289,0.65855
229.227,30.551,-0.12868,1.88129,0.65835
232.227,30.81815,-0.13547,1.88669,0.65812
235.227,31.0846,-0.14606,1.8631,0.65786
238.227,31.35203,-0.15605,1.84852,0.65758
241.227,31.61958,-0.16399,1.81771,0.65727
244.227,31.88707,-0.17607,1.81125,0.65693
247.227,32.15478,-0.18651,1.78249,0.65657
250.227,32.4223,-0.19983,1.76809,0.65618
253.227,32.69042,-0.20952,1.76103,0.65577
256.227,32.95813,-0.22367,1.75121,0.65534
259.227,33.22505,-0.23777,1.74716,0.65487
262.227,33.49353,-0.25324,1.75786,0.65439
265.227,33.7612,-0.26959,1.75578,0.65388
268.227,34.0294,-0.29057,1.75408,0.65335
271.227,34.29775,-0.31063,1.75,0.65279
274.227,34.56647,-0.33538,1.74348,0.65221
277.227,34.83526,-0.3615,1.74169,0.6516
280.227,35.1041,-0.39059,1.73934,0.65098
283.227,35.37353,-0.42431,1.72365,0.65033
286.227,35.6428,-0.46091,1.71962,0.64966
289.227,35.91207,-0.49797,1.73269,0.64896
292.227,36.1818,-0.54199,1.72878,0.64825
295.227,36.45173,-0.58995,1.72629,0.64751
298.227,36.72141,-0.63638,1.74526,0.64675
301.227,36.99243,-0.68792,1.75651,0.64597
304.227,37.26356,-0.74318,1.77434,0.64517
307.227,37.53481,-0.79762,1.79339,0.64435
310.227,37.80601,-0.85866,1.82403,0.64351
313.227,38.07779,-0.92419,1.84817,0.64265
316.227,38.3495,-0.9911,1.89497,0.64176
319.227,38.622,-1.06123,1.93646,0.64086
322.227,38.89424,-1.13146,1.96979,0.63994
325.227,39.1676,-1.20625,2.008,0.63901
328.227,39.44059,-1.28447,2.04209,0.63805
331.227,39.71397,-1.36681,2.07383,0.63707
334.227,39.9876,-1.45402,2.13142,0.63608
337.227,40.262,-1.54284,2.17864,0.63507
340.227,40.53608,-1.63624,2.23371,0.63404
343.227,40.81107,-1.73503,2.28879,0.633
346.227,41.08652,-1.83636,2.35856,0.63193
349.227,41.3619,-1.93981,2.41827,0.63086
352.227,41.63765,-2.04972,2.46926,0.62976
355.227,41.91402,-2.1623,2.50737,0.62865
358.227,42.1901,-2.28116,2.4985,0.62752
361.227,42.46633,-2.39957,2.4181,0.62638
364.227,42.74388,-2.51166,2.20178,0.62523
367.227,43.02062,-2.61361,1.85595,0.62405
370.227,43.29813,-2.69856,1.38465,0.62287
373.227,43.5754,-2.76319,0.89246,0.62167
376.227,43.85287,-2.80408,0.50889,0.62046
379.227,44.1303,-2.82644,0.29644,0.61923
382.227,44.40834,-2.84492,0.18248,0.61799
385.227,44.6867,-2.86283,0.13649,0.61673
388.227,44.966,-2.87786,0.09165433,0.61547
391.227,45.24577,-2.89235,0.0564012,0.61419
394.227,45.5261,-2.90367,0.01427698,0.6129
397.227,45.8056,-2.9159,-0.03526813,0.6116
400.227,46.08713,-2.92746,-0.0872293,0.61028
403.227,46.3686,-2.94176,-0.12389,0.60896
406.227,46.65016,-2.95003,-0.18525,0.60762
409.227,46.93251,-2.96299,-0.21353,0.60628
412.227,47.21542,-2.97094,-0.25719,0.60492
415.227,47.49858,-2.98255,-0.28804,0.60356
418.227,47.7819,-2.99514,-0.32391,0.60218
421.227,48.0648,-3.00189,-0.35724,0.6008
424.227,48.3489,-3.01338,-0.37162,0.5994
427.227,48.6327,-3.02448,-0.38962,0.598
430.227,48.91714,-3.03472,-0.39832,0.59659
433.227,49.20203,-3.04309,-0.38372,0.59517
436.227,49.48715,-3.05117,-0.38432,0.59374
439.227,49.77207,-3.05991,-0.36393,0.59231
442.227,50.0578,-3.07011,-0.33184,0.59087
445.227,50.34383,-3.07829,-0.31471,0.58942
448.227,50.63041,-3.0835,-0.26706,0.58796
451.227,50.91745,-3.0959,-0.24615,0.5865
454.227,51.20407,-3.10016,-0.2135,0.58503
457.227,51.49185,-3.10698,-0.20638,0.58356
460.227,51.7794,-3.114,-0.18208,0.58208
463.227,52.06745,-3.11795,-0.1662,0.5806
466.227,52.35625,-3.12606,-0.15789,0.57911
469.227,52.6453,-3.12883,-0.13498,0.57761
472.227,52.9348,-3.13499,-0.13457,0.57611
475.227,53.2239,-3.14294,-0.12567,0.57461
478.227,53.513,-3.14839,-0.13084,0.5731
481.227,53.8022,-3.15375,-0.13266,0.57159
484.227,54.09125,-3.1564,-0.14007,0.57008
487.227,54.38142,-3.16051,-0.10837,0.56856
490.227,54.6724,-3.16581,-0.13038,0.56704
493.227,54.96394,-3.16969,-0.14019,0.56552
496.227,55.25611,-3.17501,-0.14847,0.564
499.227,55.5477,-3.1776,-0.15973,0.56247
502.227,55.8395,-3.18255,-0.16562,0.56094
505.227,56.13231,-3.18649,-0.15198,0.55941
508.227,56.4257,-3.18976,-0.18963,0.55788
511.227,56.7187,-3.19451,-0.19486,0.55635
514.227,57.01106,-3.20318,-0.19343,0.55482
517.227,57.3039,-3.20187,-0.15723,0.55328
520.227,57.59723,-3.20745,-0.16481,0.55175
523.227,57.89036,-3.21002,-0.16254,0.55021
526.227,58.18317,-3.21346,-0.19757,0.54868
529.227,58.47671,-3.2161,-0.20392,0.54715
532.227,58.77098,-3.22238,-0.18213,0.54561
535.227,59.06632,-3.22397,-0.2209,0.54408
538.227,59.3617,-3.22782,-0.24402,0.54255
541.227,59.65759,-3.22916,-0.26893,0.54102
544.227,59.9532,-3.23587,-0.28648,0.53949
547.227,60.25,-3.23859,-0.28008,0.53797
550.227,60.5465,-3.23955,-0.33424,0.53644
553.227,60.84236,-3.24243,-0.33921,0.53492
556.227,61.13909,-3.24638,-0.33044,0.5334
559.227,61.43611,-3.25143,-0.36356,0.53188
562.227,61.73395,-3.25474,-0.36721,0.53037
565.227,62.03141,-3.25783,-0.39954,0.52886
568.227,62.32982,-3.25943,-0.38295,0.52735
571.227,62.62786,-3.26227,-0.40367,0.52584
574.227,62.92651,-3.26689,-0.39924,0.52434
577.227,63.2252,-3.26787,-0.40008,0.52284
580.227,63.5252,-3.27127,-0.38084,0.52135
583.227,63.8245,-3.27265,-0.36573,0.51986
586.227,64.12424,-3.27667,-0.37874,0.51837
589.227,64.4233,-3.27907,-0.37114,0.51689
592.227,64.72301,-3.28135,-0.37954,0.51542
595.227,65.02263,-3.284,-0.3809,0.51394
598.227,65.3232,-3.28532,-0.40876,0.51248
601.227,65.62398,-3.29057,-0.36567,0.51101
604.227,65.92495,-3.29374,-0.34666,0.50956
607.227,66.2272,-3.29627,-0.3299,0.50811
610.227,66.5287,-3.29628,-0.28707,0.50666
613.227,66.83038,-3.29607,-0.26521,0.50522
616.227,67.13218,-3.30013,-0.20245,0.50378
619.227,67.43313,-3.30276,-0.17839,0.50236
622.227,67.73539,-3.30574,-0.17906,0.50093
625.227,68.03829,-3.30803,-0.2076,0.49952
628.227,68.3415,-3.30918,-0.17233,0.49811
631.227,68.64455,-3.31065,-0.1257,0.4967
634.227,68.94721,-3.3107,-0.12046,0.49531
637.227,69.25024,-3.31329,-0.11077,0.49391
640.227,69.554,-3.31656,-0.07041118,0.49253
643.227,69.8582,-3.31922,-0.0512701,0.49115
646.227,70.1623,-3.3202,-0.02992829,0.48978
649.227,70.46687,-3.32349,-0.01599812,0.48842
652.227,70.7722,-3.32343,0.07459086,0.48706
655.227,71.07714,-3.32741,0.12589,0.48572
658.227,71.38135,-3.32667,0.13279,0.48437
661.227,71.68568,-3.33061,0.14945,0.48304
664.227,71.99055,-3.33062,0.15874,0.48171
667.227,72.2957,-3.33321,0.18731,0.4804
670.227,72.60087,-3.3327,0.26344,0.47908
673.227,72.90638,-3.33413,0.33256,0.47778
676.227,73.2119,-3.33545,0.29825,0.47649
679.227,73.5174,-3.33808,0.28699,0.4752
682.227,73.82389,-3.33775,0.3323,0.47392
685.227,74.13001,-3.34475,0.39768,0.47265
688.227,74.43633,-3.34091,0.43276,0.47138
691.227,74.74247,-3.34093,0.46728,0.47013
694.227,75.04919,-3.34368,0.51743,0.46888
697.227,75.3561,-3.34235,0.56913,0.46764
700.227,75.66337,-3.34596,0.64139,0.46641
703.227,75.97071,-3.35384,0.67459,0.46519
706.227,76.27924,-3.34674,0.71529,0.46398
709.227,76.58748,-3.34751,0.70536,0.46277
712.227,76.89599,-3.35014,0.7051,0.46157
715.227,77.20419,-3.35149,0.71526,0.46038
718.227,77.5129,-3.35146,0.76035,0.4592
721.227,77.82197,-3.35278,0.77624,0.45803
724.227,78.13055,-3.35694,0.79672,0.45687
727.227,78.4397,-3.35398,0.84849,0.45571
730.227,78.74883,-3.35387,0.94834,0.45456
733.227,79.05784,-3.35563,1.01774,0.45343
736.227,79.3669,-3.35793,1.08176,0.4523
739.227,79.67676,-3.36365,1.18012,0.45118
742.227,79.9864,-3.35947,1.24534,0.45006
742.327,79.99553,-3.35947,1.25067,0.45003