File: 01_Data/Bamboo_Rug_A/STA/N2/30K_min/Bamboo_Rug_A_STA_N2_30KData_220121_R1.csv
##Temp./Â°C,Time/min,Mass loss(subtr.2)/mg,DSC(subtr.2)/(mW/mg),Sensit./(uV/mW)
48.62,10.01,-0.01119,-0.00792532,1.06962
51.72,10.87018,-0.01063722,0.08672566,1.06934
54.82,11.1007,-0.01415204,0.15571,1.06903
57.92,11.27747,-0.01347758,0.20657,1.0687
61.02,11.4298,-0.01349387,0.25171,1.06833
64.12,11.568,-0.01331748,0.28661,1.06794
67.22,11.69716,-0.0135331,0.31663,1.06753
70.32,11.8208,-0.01402286,0.34533,1.06709
73.42,11.94008,-0.0129371,0.36669,1.06662
76.52,12.0556,-0.01319257,0.3894,1.06612
79.62,12.16963,-0.01438829,0.40722,1.0656
82.72,12.28115,-0.01417294,0.42564,1.06505
85.82,12.3912,-0.01684457,0.43949,1.06448
88.92,12.4999,-0.01634241,0.45236,1.06388
92.02,12.60708,-0.01652195,0.46794,1.06326
95.12,12.71354,-0.01776092,0.47664,1.06261
98.22,12.81917,-0.01908996,0.48276,1.06194
101.32,12.92427,-0.01887998,0.48856,1.06124
104.42,13.029,-0.01886815,0.49408,1.06051
107.52,13.1337,-0.02051672,0.49607,1.05976
110.62,13.23802,-0.0205099,0.49691,1.05899
113.72,13.342,-0.02247887,0.49771,1.05819
116.82,13.4458,-0.02210317,0.49692,1.05736
119.92,13.5486,-0.02250202,0.49738,1.05651
123.02,13.652,-0.02112911,0.49878,1.05564
126.12,13.75448,-0.02248003,0.49795,1.05475
129.22,13.85625,-0.02248188,0.5007,1.05382
132.32,13.95786,-0.02281193,0.50258,1.05288
135.42,14.05866,-0.02415228,0.50936,1.05191
138.52,14.1593,-0.02412308,0.5128,1.05092
141.62,14.2593,-0.02380493,0.51982,1.04991
144.72,14.359,-0.0238,0.52896,1.04887
147.82,14.45824,-0.02430909,0.53379,1.04781
150.92,14.5573,-0.02643999,0.54519,1.04672
154.02,14.6557,-0.02764351,0.55286,1.04561
157.12,14.75419,-0.0290544,0.56269,1.04448
160.22,14.8522,-0.0271016,0.57239,1.04333
163.32,14.95021,-0.02875753,0.58195,1.04216
166.42,15.048,-0.0307483,0.59091,1.04096
169.52,15.14521,-0.0293846,0.60117,1.03974
172.62,15.2426,-0.03069213,0.6103,1.0385
175.72,15.33949,-0.03368044,0.62046,1.03724
178.82,15.43612,-0.03368194,0.63078,1.03595
181.92,15.5324,-0.03498823,0.64154,1.03465
185.02,15.62851,-0.03631008,0.65059,1.03332
188.12,15.7243,-0.03768278,0.66395,1.03197
191.22,15.81998,-0.03894,0.67279,1.03061
194.32,15.9152,-0.03962355,0.68939,1.02922
197.42,16.0104,-0.04092072,0.70243,1.02781
200.52,16.10531,-0.04213734,0.71603,1.02638
203.62,16.20056,-0.04560607,0.73302,1.02493
206.72,16.2955,-0.04871988,0.74552,1.02346
209.82,16.3903,-0.05298002,0.76143,1.02197
212.92,16.48476,-0.05584272,0.77618,1.02046
216.02,16.57938,-0.0567614,0.78922,1.01893
219.12,16.6739,-0.0611571,0.80246,1.01738
222.22,16.7684,-0.06639668,0.81687,1.01581
225.32,16.8625,-0.07060083,0.82789,1.01423
228.42,16.95694,-0.07489608,0.8375,1.01262
231.52,17.05114,-0.08108946,0.84589,1.011
234.62,17.1452,-0.08769977,0.85442,1.00936
237.72,17.2392,-0.09491126,0.86201,1.0077
240.82,17.33323,-0.10262,0.87501,1.00602
243.92,17.42725,-0.10982,0.88866,1.00432
247.02,17.521,-0.11833,0.90679,1.00261
250.12,17.61484,-0.12505,0.92004,1.00088
253.22,17.70864,-0.13434,0.90641,0.99913
256.32,17.8022,-0.14504,0.88705,0.99736
259.42,17.89585,-0.15313,0.87469,0.99558
262.52,17.98946,-0.16481,0.86507,0.99378
265.62,18.08302,-0.17731,0.86389,0.99197
268.72,18.17662,-0.19276,0.85862,0.99013
271.82,18.2702,-0.20812,0.85851,0.98829
274.92,18.36363,-0.22679,0.85427,0.98642
278.02,18.45721,-0.24651,0.84994,0.98454
281.12,18.5506,-0.27044,0.84131,0.98265
284.22,18.64425,-0.29856,0.83542,0.98073
287.32,18.73816,-0.32631,0.82065,0.97881
290.42,18.83191,-0.35999,0.8072,0.97687
293.52,18.92557,-0.39535,0.78744,0.97491
296.62,19.0193,-0.43524,0.76976,0.97294
299.72,19.1129,-0.47779,0.74589,0.97095
302.82,19.20658,-0.52292,0.72262,0.96895
305.92,19.30021,-0.57356,0.69673,0.96694
309.02,19.3938,-0.62804,0.67423,0.96491
312.12,19.48773,-0.68484,0.65331,0.96287
315.22,19.58127,-0.74537,0.63703,0.96081
318.32,19.6748,-0.80383,0.62278,0.95874
321.42,19.76885,-0.86639,0.6089,0.95666
324.52,19.8626,-0.93226,0.60122,0.95457
327.62,19.9569,-0.99486,0.60009,0.95246
330.72,20.05105,-1.05916,0.60802,0.95034
333.82,20.14525,-1.12481,0.61695,0.94821
336.92,20.23968,-1.18867,0.62701,0.94606
340.02,20.334,-1.25323,0.64867,0.9439
343.12,20.42851,-1.31795,0.67357,0.94173
346.22,20.52318,-1.38363,0.70273,0.93955
349.32,20.61797,-1.44947,0.74264,0.93736
352.42,20.7129,-1.51731,0.7907,0.93516
355.52,20.80752,-1.59072,0.84892,0.93294
358.62,20.9029,-1.66848,0.92444,0.93071
361.72,20.99785,-1.75183,1.01242,0.92848
364.82,21.09327,-1.84605,1.11915,0.92623
367.92,21.18883,-1.95066,1.24042,0.92397
371.02,21.28453,-2.07081,1.35177,0.9217
374.12,21.38031,-2.20701,1.40034,0.91943
377.22,21.4761,-2.34434,1.30961,0.91714
380.32,21.5719,-2.48108,1.04686,0.91484
383.42,21.66783,-2.59009,0.69331,0.91253
386.52,21.7634,-2.66371,0.36191,0.91022
389.62,21.85878,-2.71258,0.12941,0.90789
392.72,21.95455,-2.74264,-0.02274634,0.90556
395.82,22.05022,-2.76258,-0.12051,0.90321
398.92,22.1461,-2.77765,-0.18489,0.90086
402.02,22.24213,-2.79109,-0.22825,0.8985
405.12,22.33831,-2.8054,-0.26799,0.89613
408.22,22.4345,-2.81463,-0.29904,0.89375
411.32,22.53081,-2.82448,-0.32902,0.89137
414.42,22.62748,-2.83489,-0.35503,0.88897
417.52,22.7241,-2.84464,-0.37662,0.88657
420.62,22.8207,-2.8552,-0.39657,0.88416
423.72,22.91766,-2.86284,-0.4134,0.88175
426.82,23.0144,-2.87048,-0.43328,0.87933
429.92,23.1115,-2.87934,-0.44584,0.8769
433.02,23.20834,-2.88746,-0.45749,0.87446
436.12,23.3058,-2.89439,-0.46394,0.87202
439.22,23.40296,-2.90256,-0.4722,0.86957
442.32,23.5005,-2.90957,-0.47417,0.86711
445.42,23.59822,-2.91789,-0.47507,0.86465
448.52,23.6957,-2.92398,-0.47222,0.86218
451.62,23.79356,-2.93342,-0.46848,0.85971
454.72,23.8913,-2.93869,-0.46069,0.85723
457.82,23.98946,-2.94699,-0.44957,0.85475
460.92,24.0874,-2.95525,-0.44286,0.85226
464.02,24.1855,-2.96011,-0.43395,0.84976
467.12,24.2838,-2.9655,-0.41989,0.84726
470.22,24.38201,-2.97282,-0.40849,0.84475
473.32,24.48033,-2.97589,-0.39173,0.84225
476.42,24.5789,-2.98171,-0.38332,0.83973
479.52,24.6775,-2.98695,-0.376,0.83721
482.62,24.77601,-2.99243,-0.36522,0.83469
485.72,24.87482,-2.9973,-0.35664,0.83216
488.82,24.97371,-3.00189,-0.35218,0.82963
491.92,25.0725,-3.00644,-0.34474,0.8271
495.02,25.17154,-3.01156,-0.341,0.82456
498.12,25.27065,-3.01509,-0.33786,0.82201
501.22,25.36986,-3.0191,-0.33551,0.81947
504.32,25.46901,-3.02174,-0.33107,0.81692
507.42,25.56839,-3.0264,-0.32962,0.81437
510.52,25.66765,-3.029,-0.33,0.81181
513.62,25.7672,-3.034,-0.32952,0.80926
516.72,25.86683,-3.03684,-0.32674,0.8067
519.82,25.96649,-3.04131,-0.3278,0.80413
522.92,26.0661,-3.04403,-0.33014,0.80157
526.02,26.16584,-3.04675,-0.33093,0.799
529.12,26.2658,-3.04938,-0.33492,0.79643
532.22,26.36573,-3.05322,-0.33497,0.79386
535.32,26.4657,-3.05461,-0.33949,0.79128
538.42,26.5658,-3.0586,-0.3409,0.78871
541.52,26.666,-3.06129,-0.33893,0.78613
544.62,26.76615,-3.06364,-0.33718,0.78355
547.72,26.8664,-3.06573,-0.3341,0.78097
550.82,26.9669,-3.06931,-0.33399,0.77839
553.92,27.06731,-3.06971,-0.33418,0.77581
557.02,27.1677,-3.07365,-0.33669,0.77322
560.12,27.2683,-3.07583,-0.33251,0.77064
563.22,27.36898,-3.07946,-0.33429,0.76805
566.32,27.4697,-3.08119,-0.33526,0.76547
569.42,27.5706,-3.08394,-0.33387,0.76288
572.52,27.6714,-3.08757,-0.33726,0.76029
575.62,27.7722,-3.08942,-0.34108,0.75771
578.72,27.8733,-3.08944,-0.34684,0.75512
581.82,27.97417,-3.0911,-0.35129,0.75253
584.92,28.0753,-3.09338,-0.35437,0.74994
588.02,28.17645,-3.09583,-0.35622,0.74736
591.12,28.2776,-3.09748,-0.3664,0.74477
594.22,28.37893,-3.09866,-0.37211,0.74218
597.32,28.4801,-3.10258,-0.38086,0.73959
600.42,28.5815,-3.10388,-0.38525,0.73701
603.52,28.6829,-3.106,-0.39383,0.73442
606.62,28.78418,-3.10557,-0.39662,0.73184
609.72,28.88565,-3.10784,-0.40291,0.72925
612.82,28.9872,-3.11048,-0.40858,0.72667
615.92,29.0889,-3.1131,-0.41077,0.72409
619.02,29.1905,-3.11585,-0.41903,0.7215
622.12,29.2923,-3.11641,-0.42735,0.71892
625.22,29.3941,-3.11849,-0.42788,0.71634
628.32,29.49602,-3.12092,-0.4311,0.71377
631.42,29.598,-3.12112,-0.43904,0.71119
634.52,29.69985,-3.12287,-0.4472,0.70862
637.62,29.8018,-3.12384,-0.4528,0.70604
640.72,29.904,-3.12647,-0.45957,0.70347
643.82,30.0061,-3.12815,-0.46498,0.7009
646.92,30.1083,-3.12779,-0.46995,0.69833
650.02,30.21047,-3.12912,-0.47615,0.69577
653.12,30.31271,-3.13044,-0.48243,0.6932
656.22,30.41494,-3.13202,-0.48826,0.69064
659.32,30.51715,-3.13426,-0.49256,0.68808
662.42,30.61962,-3.1334,-0.49717,0.68553
665.52,30.72199,-3.13524,-0.50102,0.68297
668.62,30.82452,-3.13966,-0.50492,0.68042
671.72,30.9268,-3.13998,-0.51213,0.67787
674.82,31.02952,-3.1413,-0.51,0.67532
677.92,31.13219,-3.14163,-0.51903,0.67278
681.02,31.2346,-3.14187,-0.52278,0.67023
684.12,31.33724,-3.14431,-0.53238,0.66769
687.22,31.4398,-3.14426,-0.53268,0.66516
690.32,31.5424,-3.14558,-0.53831,0.66262
693.42,31.6451,-3.14435,-0.54702,0.66009
696.52,31.74782,-3.14492,-0.55271,0.65756
699.62,31.85075,-3.1463,-0.56324,0.65504
702.72,31.95372,-3.14753,-0.567,0.65252
705.82,32.0565,-3.15053,-0.57428,0.65
708.92,32.15952,-3.15314,-0.5787,0.64748
712.02,32.26255,-3.15314,-0.59134,0.64497
715.12,32.36595,-3.15315,-0.59485,0.64246
718.22,32.46909,-3.15314,-0.59892,0.63996
721.32,32.57247,-3.15447,-0.60468,0.63745
724.42,32.67572,-3.15448,-0.60762,0.63496
727.52,32.77913,-3.15449,-0.61874,0.63246
730.62,32.88259,-3.1558,-0.62551,0.62997
733.72,32.9861,-3.15712,-0.62705,0.62748
736.82,33.08944,-3.15841,-0.63355,0.625
739.92,33.1931,-3.16115,-0.63947,0.62252
743.02,33.29659,-3.1607,-0.64656,0.62004
746.12,33.40031,-3.16049,-0.64826,0.61757
749.22,33.50379,-3.16185,-0.65135,0.6151
752.32,33.60763,-3.16116,-0.66026,0.61264
755.42,33.71155,-3.16248,-0.66543,0.61017
758.52,33.81542,-3.16117,-0.66232,0.60772
761.62,33.9193,-3.16379,-0.66748,0.60526
764.72,34.0233,-3.16247,-0.67212,0.60282
767.82,34.12741,-3.16379,-0.66867,0.60037
770.92,34.23146,-3.16413,-0.67869,0.59793
774.02,34.33559,-3.1651,-0.68218,0.5955
777.12,34.43978,-3.1651,-0.68155,0.59306
780.22,34.54394,-3.16622,-0.682,0.59064
783.32,34.64785,-3.16777,-0.68406,0.58821
786.42,34.75219,-3.16873,-0.68606,0.58579
789.52,34.85622,-3.17041,-0.68304,0.58338
792.62,34.96056,-3.17168,-0.68648,0.58097
793.72,34.9976,-3.17062,-0.68684,0.58011