File: 01_Data/Bamboo_Rug_A/STA/N2/30K_min/Bamboo_Rug_A_STA_N2_30KData_220124_R3.csv
##Temp./Â°C,Time/min,Mass loss(subtr.2)/mg,DSC(subtr.2)/(mW/mg),Sensit./(uV/mW)
48.597,10.00917,0.00231,0.009135575,1.06963
51.797,10.87527,0.0015924,0.16976,1.06933
54.997,11.10908,0.004387416,0.27821,1.06901
58.197,11.28832,0.00352336,0.36337,1.06867
61.397,11.443,0.004426973,0.43089,1.06829
64.597,11.58408,0.00345586,0.48855,1.06788
67.797,11.71652,0.00381663,0.53757,1.06745
70.997,11.8428,0.002696755,0.57986,1.06699
74.197,11.96505,0.003204049,0.61677,1.0665
77.397,12.08446,0.002185204,0.64673,1.06598
80.597,12.20102,0.002004691,0.67856,1.06543
83.797,12.3154,0.002042858,0.7054,1.06486
86.997,12.4282,0.001347998,0.73232,1.06426
90.197,12.53957,-9.468387e-05,0.75659,1.06363
93.397,12.64963,0.001979677,0.77845,1.06297
96.597,12.7593,-0.0006541515,0.79692,1.06229
99.797,12.868,-0.001899342,0.81478,1.06158
102.997,12.97644,-0.00195668,0.82977,1.06085
106.197,13.08455,-0.003168781,0.8386,1.06008
109.397,13.19236,-0.00449428,0.84734,1.05929
112.597,13.29996,-0.004819743,0.85432,1.05848
115.797,13.40709,-0.0048344,0.85508,1.05764
118.997,13.51416,-0.00482613,0.85689,1.05677
122.197,13.6206,-0.00546067,0.8599,1.05588
125.397,13.7264,-0.007214873,0.86191,1.05496
128.597,13.83187,-0.008439992,0.86636,1.05401
131.797,13.9369,-0.007407431,0.87327,1.05304
134.997,14.0411,-0.006482986,0.87665,1.05205
138.197,14.14485,-0.008042394,0.88528,1.05102
141.397,14.2482,-0.01041911,0.89647,1.04998
144.597,14.3512,-0.009100008,0.90799,1.04891
147.797,14.45369,-0.01012214,0.92054,1.04781
150.997,14.5557,-0.01042,0.93295,1.04669
154.197,14.65755,-0.01041998,0.94563,1.04555
157.397,14.75888,-0.01173991,0.96008,1.04438
160.597,14.8601,-0.01271121,0.96841,1.04319
163.797,14.9612,-0.01239176,0.98459,1.04197
166.997,15.0618,-0.01450375,0.9968,1.04073
170.197,15.1625,-0.01469831,1.01125,1.03947
173.397,15.2627,-0.01503007,1.02518,1.03819
176.597,15.3629,-0.01766056,1.03705,1.03688
179.797,15.4624,-0.01780109,1.05236,1.03554
182.997,15.56185,-0.01766013,1.06633,1.03419
186.197,15.66097,-0.0203331,1.08187,1.03281
189.397,15.76,-0.02159999,1.09787,1.03141
192.597,15.85859,-0.02291866,1.11526,1.02999
195.797,15.95713,-0.02557082,1.13339,1.02855
198.997,16.05552,-0.02655678,1.15093,1.02708
202.197,16.15365,-0.02926802,1.17307,1.0256
205.397,16.2515,-0.0318956,1.19101,1.02409
208.597,16.34935,-0.03445054,1.20723,1.02256
211.797,16.44719,-0.03730031,1.22809,1.02101
214.997,16.54486,-0.04030694,1.24571,1.01944
218.197,16.6424,-0.0450522,1.26126,1.01784
221.397,16.73984,-0.04811033,1.27753,1.01623
224.597,16.83708,-0.05222572,1.291,1.0146
227.797,16.93432,-0.0569799,1.30469,1.01295
230.997,17.03148,-0.06227747,1.31796,1.01128
234.197,17.12854,-0.06914497,1.32767,1.00958
237.397,17.22544,-0.07489782,1.33855,1.00787
240.597,17.32228,-0.08229591,1.34931,1.00614
243.797,17.41924,-0.08994727,1.3671,1.00439
246.997,17.51601,-0.09713017,1.38839,1.00262
250.197,17.61287,-0.10481,1.40137,1.00084
253.397,17.7094,-0.11421,1.38716,0.99903
256.597,17.80623,-0.12436,1.36587,0.99721
259.797,17.90288,-0.13528,1.3499,0.99536
262.997,17.9995,-0.14735,1.34477,0.9935
266.197,18.09597,-0.16055,1.33599,0.99163
269.397,18.19246,-0.17489,1.33318,0.98973
272.597,18.28901,-0.19181,1.32749,0.98782
275.797,18.3856,-0.21229,1.3209,0.98589
278.997,18.48197,-0.23185,1.31222,0.98395
282.197,18.57846,-0.25875,1.29725,0.98198
285.397,18.67513,-0.28749,1.28321,0.98
288.597,18.77161,-0.31893,1.26522,0.97801
291.797,18.86824,-0.35558,1.24209,0.976
294.997,18.96482,-0.39346,1.21581,0.97397
298.197,19.0614,-0.43761,1.1898,0.97193
301.397,19.1581,-0.48294,1.15962,0.96987
304.597,19.2548,-0.53385,1.13063,0.9678
307.797,19.35148,-0.59098,1.10514,0.96571
310.997,19.44828,-0.64903,1.07659,0.96361
314.197,19.54509,-0.71213,1.05199,0.96149
317.397,19.64188,-0.77382,1.03301,0.95936
320.597,19.73883,-0.84156,1.01967,0.95722
323.797,19.83588,-0.90973,1.00818,0.95506
326.997,19.9329,-0.97635,1.00857,0.95288
330.197,20.03023,-1.04647,1.01205,0.9507
333.397,20.12765,-1.11246,1.0237,0.9485
336.597,20.22499,-1.18018,1.04271,0.94628
339.797,20.32275,-1.24477,1.06244,0.94406
342.997,20.42022,-1.31383,1.09247,0.94182
346.197,20.5182,-1.38093,1.12865,0.93957
349.397,20.61613,-1.45054,1.1726,0.93731
352.597,20.71433,-1.52248,1.21822,0.93503
355.797,20.81256,-1.59773,1.28436,0.93274
358.997,20.91094,-1.68227,1.36071,0.93044
362.197,21.00941,-1.77299,1.45152,0.92813
365.397,21.1082,-1.87919,1.55696,0.92581
368.597,21.20717,-1.99649,1.66808,0.92348
371.797,21.30596,-2.13302,1.74106,0.92113
374.997,21.40483,-2.27935,1.704,0.91878
378.197,21.50395,-2.42774,1.50246,0.91642
381.397,21.60272,-2.55075,1.19102,0.91404
384.597,21.7016,-2.64184,0.887,0.91165
387.797,21.80049,-2.70031,0.66627,0.90926
390.997,21.89926,-2.73901,0.52871,0.90685
394.197,21.99819,-2.76186,0.44048,0.90444
397.397,22.0972,-2.78116,0.38687,0.90202
400.597,22.1962,-2.79597,0.34194,0.89958
403.797,22.29565,-2.80838,0.3049,0.89714
406.997,22.3952,-2.82259,0.27426,0.89469
410.197,22.4946,-2.8325,0.24589,0.89223
413.397,22.59419,-2.84432,0.22068,0.88976
416.597,22.69387,-2.85369,0.19738,0.88729
419.797,22.79368,-2.86482,0.17729,0.8848
422.997,22.8934,-2.87276,0.1555,0.88231
426.197,22.99329,-2.88252,0.13787,0.87981
429.397,23.0931,-2.89287,0.12545,0.87731
432.597,23.19334,-2.90296,0.11389,0.87479
435.797,23.29349,-2.9115,0.10482,0.87227
438.997,23.39384,-2.92119,0.0959897,0.86974
442.197,23.4941,-2.93032,0.09510579,0.86721
445.397,23.59476,-2.9373,0.0957696,0.86467
448.597,23.69535,-2.9474,0.09934688,0.86212
451.797,23.79608,-2.95547,0.10454,0.85957
454.997,23.89697,-2.96241,0.11316,0.85701
458.197,23.99798,-2.97007,0.12293,0.85444
461.397,24.0992,-2.97612,0.13323,0.85187
464.597,24.20058,-2.98406,0.14838,0.8493
467.797,24.3019,-2.99029,0.16544,0.84671
470.997,24.40342,-2.99703,0.17976,0.84413
474.197,24.50489,-3.00349,0.19524,0.84153
477.397,24.6067,-3.01103,0.21199,0.83894
480.597,24.7086,-3.01614,0.22338,0.83634
483.797,24.81042,-3.01959,0.23798,0.83373
486.997,24.91252,-3.02556,0.24788,0.83112
490.197,25.01468,-3.02979,0.25554,0.8285
493.397,25.11686,-3.03442,0.26402,0.82589
496.597,25.2192,-3.04083,0.27322,0.82326
499.797,25.32166,-3.04436,0.28132,0.82064
502.997,25.4242,-3.04983,0.28567,0.81801
506.197,25.5266,-3.05433,0.2925,0.81538
509.397,25.62914,-3.0586,0.29803,0.81274
512.597,25.73186,-3.06274,0.3013,0.8101
515.797,25.8346,-3.06562,0.30321,0.80746
518.997,25.9375,-3.06986,0.30682,0.80481
522.197,26.04035,-3.07265,0.31109,0.80217
525.397,26.14321,-3.0768,0.31248,0.79952
528.597,26.2463,-3.08053,0.31346,0.79686
531.797,26.34938,-3.08492,0.31939,0.79421
534.997,26.45243,-3.08486,0.32111,0.79155
538.197,26.5557,-3.09076,0.31907,0.78889
541.397,26.65885,-3.09337,0.32229,0.78623
544.597,26.76228,-3.09535,0.32554,0.78357
547.797,26.86572,-3.09844,0.333,0.78091
550.997,26.96927,-3.10247,0.3376,0.77824
554.197,27.07295,-3.10454,0.3445,0.77558
557.397,27.17657,-3.10774,0.35073,0.77291
560.597,27.2803,-3.11057,0.35522,0.77024
563.797,27.38437,-3.11218,0.35885,0.76757
566.997,27.4881,-3.11584,0.36022,0.7649
570.197,27.5922,-3.11849,0.36126,0.76223
573.397,27.6964,-3.11995,0.36454,0.75956
576.597,27.8006,-3.12243,0.36745,0.75689
579.797,27.90496,-3.12538,0.3681,0.75422
582.997,28.00931,-3.1288,0.37232,0.75155
586.197,28.1135,-3.12884,0.36709,0.74888
589.397,28.2176,-3.134,0.36751,0.74621
592.597,28.32253,-3.13527,0.36713,0.74353
595.797,28.427,-3.1367,0.36664,0.74086
598.997,28.5318,-3.13937,0.36654,0.73819
602.197,28.6365,-3.14198,0.36248,0.73552
605.397,28.74135,-3.14375,0.35753,0.73286
608.597,28.84621,-3.14458,0.35807,0.73019
611.797,28.95133,-3.14718,0.35447,0.72752
614.997,29.0563,-3.14868,0.35681,0.72485
618.197,29.16145,-3.15118,0.35682,0.72219
621.397,29.2666,-3.1525,0.35864,0.71953
624.597,29.37197,-3.15512,0.35729,0.71686
627.797,29.47703,-3.15785,0.3591,0.7142
630.997,29.5823,-3.15917,0.35568,0.71154
634.197,29.6877,-3.16049,0.36171,0.70888
637.397,29.79307,-3.16254,0.36552,0.70623
640.597,29.89848,-3.16444,0.36502,0.70357
643.797,30.00403,-3.16578,0.3615,0.70092
646.997,30.1097,-3.16675,0.36115,0.69827
650.197,30.2149,-3.16708,0.35806,0.69562
653.397,30.3207,-3.16982,0.36282,0.69298
656.597,30.42629,-3.16984,0.36069,0.69033
659.797,30.53221,-3.17234,0.36291,0.68769
662.997,30.63808,-3.17454,0.35976,0.68505
666.197,30.7439,-3.17552,0.36236,0.68241
669.397,30.84954,-3.17695,0.35858,0.67978
672.597,30.9552,-3.17757,0.35521,0.67715
675.797,31.0612,-3.17892,0.36005,0.67452
678.997,31.1669,-3.18022,0.35935,0.67189
682.197,31.27272,-3.18155,0.35897,0.66927
685.397,31.3788,-3.18156,0.35654,0.66665
688.597,31.48452,-3.18377,0.35384,0.66403
691.797,31.59048,-3.18419,0.35195,0.66142
694.997,31.6962,-3.18419,0.3503,0.6588
698.197,31.8022,-3.1855,0.34327,0.6562
701.397,31.9085,-3.18682,0.3387,0.65359
704.597,32.0146,-3.18682,0.33442,0.65099
707.797,32.12076,-3.1882,0.3307,0.64839
710.997,32.22702,-3.18939,0.32569,0.6458
714.197,32.33331,-3.1908,0.32143,0.64321
717.397,32.43995,-3.19077,0.31649,0.64062
720.597,32.5464,-3.19208,0.31576,0.63804
723.797,32.6531,-3.19339,0.31374,0.63546
726.997,32.75979,-3.19344,0.30887,0.63288
730.197,32.86647,-3.19462,0.30292,0.63031
733.397,32.97323,-3.19603,0.30008,0.62774
736.597,33.07998,-3.19568,0.29866,0.62518
739.797,33.1871,-3.19702,0.2928,0.62262
742.997,33.29407,-3.19739,0.29468,0.62006
746.197,33.4011,-3.19867,0.28922,0.61751
749.397,33.50817,-3.19999,0.28398,0.61496
752.597,33.61522,-3.2013,0.28662,0.61242
755.797,33.72244,-3.20131,0.29043,0.60988
758.997,33.82971,-3.20229,0.28361,0.60734
762.197,33.93704,-3.20356,0.28744,0.60481
765.397,34.0445,-3.20485,0.28737,0.60228
768.597,34.15202,-3.20449,0.28333,0.59976
771.797,34.25918,-3.20492,0.27972,0.59724
774.997,34.3668,-3.20557,0.2804,0.59473
778.197,34.4741,-3.20548,0.28137,0.59222
781.397,34.5816,-3.2082,0.27955,0.58971
784.597,34.68913,-3.20689,0.28001,0.58722
787.797,34.79625,-3.20816,0.28129,0.58472
790.997,34.9041,-3.20985,0.28418,0.58223
793.797,34.9982,-3.2102,0.28128,0.58005