File: 01_Data/MDF/STA/N2/10K_min/MDF_STA_N2_10KData_211008_R1.csv
##Temp./Â°C,Time/min,Mass(subtr.2)/%,DSC(subtr.2)/(mW/mg),Sensit./(uV/mW)
49.951,10.01,100.074,0.0174493,1.03584
52.451,12.34702,100.113,0.07529577,1.0357
54.951,13.03262,100.11,0.10726,1.03555
57.451,13.5763,100.08,0.12593,1.03536
59.951,14.0512,100.107,0.14594,1.03515
62.451,14.48313,100.066,0.16083,1.03491
64.951,14.8833,100.081,0.17476,1.03464
67.451,15.25939,100.055,0.18872,1.03435
69.951,15.6159,100.011,0.20226,1.03403
72.451,15.9559,99.98444,0.21294,1.03368
74.951,16.2839,99.95347,0.22469,1.03331
77.451,16.60047,99.9538,0.23467,1.03292
79.951,16.90794,99.95062,0.24099,1.03249
82.451,17.20789,99.91575,0.24698,1.03205
84.951,17.49909,99.91334,0.25362,1.03157
87.451,17.78271,99.85516,0.25569,1.03107
89.951,18.06158,99.84935,0.25786,1.03055
92.451,18.33462,99.8313,0.25885,1.03
94.951,18.60342,99.81696,0.26014,1.02943
97.451,18.86921,99.8174,0.26147,1.02883
99.951,19.13035,99.78453,0.26383,1.02821
102.451,19.38879,99.75394,0.26537,1.02756
104.951,19.64462,99.7787,0.27096,1.02689
107.451,19.89856,99.7239,0.27269,1.0262
109.951,20.15072,99.74978,0.27363,1.02548
112.451,20.40101,99.72395,0.27464,1.02474
114.951,20.64948,99.70855,0.27632,1.02397
117.451,20.89629,99.72553,0.27633,1.02318
119.951,21.14105,99.69374,0.27678,1.02237
122.451,21.38447,99.72765,0.27793,1.02154
124.951,21.626,99.69403,0.28109,1.02068
127.451,21.86647,99.6935,0.28317,1.0198
129.951,22.10437,99.699,0.28643,1.0189
132.451,22.342,99.69369,0.28974,1.01797
134.951,22.57745,99.69331,0.28993,1.01703
137.451,22.81232,99.69377,0.29408,1.01606
139.951,23.046,99.69207,0.29507,1.01507
142.451,23.27736,99.65813,0.30005,1.01406
144.951,23.50892,99.65809,0.30203,1.01303
147.451,23.73977,99.65808,0.30436,1.01198
149.951,23.96931,99.69066,0.30753,1.01091
152.451,24.19865,99.6584,0.30998,1.00981
154.951,24.42708,99.66309,0.31221,1.0087
157.451,24.65579,99.62521,0.31351,1.00756
159.951,24.8841,99.62505,0.31708,1.00641
162.451,25.11158,99.6254,0.31988,1.00523
164.951,25.3391,99.60245,0.32525,1.00404
167.451,25.56648,99.5922,0.32646,1.00283
169.951,25.794,99.59252,0.32701,1.00159
172.451,26.02064,99.55967,0.33135,1.00034
174.951,26.2473,99.55985,0.33312,0.99907
177.451,26.4735,99.5596,0.33713,0.99778
179.951,26.699,99.5596,0.33961,0.99647
182.451,26.9246,99.49388,0.34213,0.99515
184.951,27.14888,99.494,0.34576,0.9938
187.451,27.373,99.48589,0.35088,0.99244
189.951,27.5973,99.48697,0.35479,0.99106
192.451,27.8206,99.4521,0.35872,0.98967
194.951,28.0445,99.40374,0.36126,0.98825
197.451,28.2679,99.3385,0.3693,0.98682
199.951,28.4915,99.32132,0.37187,0.98537
202.451,28.7149,99.26409,0.37783,0.98391
204.951,28.93788,99.20699,0.37978,0.98243
207.451,29.1615,99.20698,0.38623,0.98093
209.951,29.38472,99.1306,0.38931,0.97942
212.451,29.60809,99.101,0.39227,0.97789
214.951,29.83199,98.99974,0.39376,0.97634
217.451,30.0552,98.90205,0.39516,0.97478
219.951,30.2789,98.83739,0.39667,0.97321
222.451,30.50262,98.70604,0.39958,0.97162
224.951,30.72617,98.64039,0.40117,0.97001
227.451,30.9488,98.54213,0.40157,0.96839
229.951,31.1723,98.44204,0.40308,0.96676
232.451,31.39733,98.30526,0.40604,0.96511
234.951,31.6211,98.14001,0.40637,0.96345
237.451,31.84443,97.96136,0.40665,0.96177
239.951,32.06879,97.8273,0.40749,0.96008
242.451,32.2933,97.6464,0.40665,0.95838
244.951,32.51745,97.44641,0.40637,0.95667
247.451,32.74219,97.21803,0.40554,0.95494
249.951,32.96642,96.9388,0.40469,0.9532
252.451,33.19075,96.68382,0.40328,0.95144
254.951,33.41531,96.43794,0.4001,0.94968
257.451,33.63967,96.12518,0.40022,0.9479
259.951,33.86475,95.76846,0.39451,0.94611
262.451,34.08927,95.40509,0.39064,0.94431
264.951,34.31378,94.96919,0.38724,0.94249
267.451,34.53848,94.56656,0.37779,0.94067
269.951,34.7624,94.06496,0.37235,0.93883
272.451,34.98772,93.53541,0.36098,0.93699
274.951,35.2121,92.91368,0.35041,0.93513
277.451,35.43784,92.37155,0.34004,0.93326
279.951,35.66346,91.66085,0.32869,0.93138
282.451,35.88862,90.97577,0.31979,0.9295
284.951,36.1143,90.26058,0.3085,0.9276
287.451,36.34044,89.49688,0.29868,0.92569
289.951,36.5668,88.68754,0.29034,0.92378
292.451,36.79299,87.90595,0.28375,0.92185
294.951,37.01947,87.08343,0.27901,0.91992
297.451,37.24645,86.18991,0.27762,0.91797
299.951,37.4737,85.32128,0.27751,0.91602
302.451,37.70101,84.34796,0.27796,0.91406
304.951,37.9288,83.44659,0.28354,0.91209
307.451,38.15654,82.51446,0.2913,0.91011
309.951,38.38438,81.52724,0.29916,0.90813
312.451,38.61223,80.46449,0.31205,0.90614
314.951,38.84046,79.4058,0.32491,0.90414
317.451,39.06883,78.35776,0.33841,0.90213
319.951,39.29744,77.2591,0.35435,0.90012
322.451,39.52616,76.0831,0.36929,0.8981
324.951,39.75571,74.8704,0.38558,0.89607
327.451,39.98534,73.61968,0.40424,0.89404
329.951,40.21584,72.2672,0.42235,0.892
332.451,40.4461,70.84089,0.4408,0.88996
334.951,40.6764,69.37744,0.46122,0.88791
337.451,40.90623,67.8139,0.47908,0.88585
339.951,41.13637,66.15739,0.50205,0.88379
342.451,41.36646,64.46648,0.52438,0.88172
344.951,41.5966,62.65935,0.54446,0.87965
347.451,41.8273,60.75705,0.56597,0.87757
349.951,42.05812,58.7122,0.59068,0.87549
352.451,42.28975,56.50532,0.60862,0.8734
354.951,42.52133,54.2507,0.62588,0.87131
357.451,42.7537,51.86888,0.63716,0.86922
359.951,42.98519,49.50101,0.63621,0.86712
362.451,43.21812,47.11569,0.61858,0.86502
364.951,43.45067,44.73788,0.58103,0.86291
367.451,43.68346,42.51654,0.52587,0.8608
369.951,43.91648,40.5055,0.44459,0.85869
372.451,44.15015,38.93302,0.34419,0.85657
374.951,44.38303,37.67365,0.24428,0.85446
377.451,44.61671,36.8687,0.16253,0.85234
379.951,44.85048,36.30956,0.10929,0.85021
382.451,45.08416,35.94527,0.0814345,0.84809
384.951,45.31788,35.67827,0.06179227,0.84596
387.451,45.55175,35.3376,0.04966585,0.84383
389.951,45.786,35.12202,0.04013446,0.8417
392.451,46.0209,34.9082,0.03105377,0.83957
394.951,46.2552,34.6856,0.02416372,0.83743
397.451,46.49053,34.42881,0.01591241,0.8353
399.951,46.72593,34.21416,0.01057246,0.83316
402.451,46.96164,34.0225,0.001546966,0.83103
404.951,47.19732,33.78884,-0.00384165,0.82889
407.451,47.43327,33.59848,-0.004376375,0.82675
409.951,47.6714,33.43217,-0.009252053,0.82461
412.451,47.9092,33.1654,-0.01040576,0.82247
414.951,48.14697,32.98765,-0.01262996,0.82033
417.451,48.3844,32.8009,-0.0130918,0.81819
419.951,48.62117,32.5514,-0.01476411,0.81605
422.451,48.85889,32.45179,-0.01684142,0.81392
424.951,49.096,32.2702,-0.0172063,0.81178
427.451,49.33336,32.06027,-0.01463617,0.80964
429.951,49.57046,31.85507,-0.009588615,0.80751
432.451,49.80885,31.68477,-0.00787438,0.80537
434.951,50.0471,31.5179,-0.001266049,0.80324
437.451,50.2862,31.3572,0.001401611,0.8011
439.951,50.52533,31.1973,0.00712519,0.79897
442.451,50.76372,31.02712,0.009639545,0.79684
444.951,51.00245,30.88937,0.01324891,0.79472
447.451,51.24109,30.7798,0.0181314,0.79259
449.951,51.48033,30.61595,0.02214788,0.79047
452.451,51.72,30.4738,0.02196183,0.78835
454.951,51.95952,30.32902,0.02700868,0.78623
457.451,52.20069,30.18518,0.0312975,0.78411
459.951,52.4417,30.07654,0.03679442,0.782
462.451,52.6827,29.9101,0.03822279,0.77988
464.951,52.9247,29.77908,0.04213382,0.77778
467.451,53.16449,29.6686,0.04329904,0.77567
469.951,53.40348,29.59195,0.04362483,0.77357
472.451,53.6429,29.4262,0.0415731,0.77147
474.951,53.8838,29.34508,0.04163607,0.76937
477.451,54.12551,29.2195,0.04262049,0.76728
479.951,54.3674,29.11385,0.04598419,0.7652
482.451,54.6113,28.97477,0.0486397,0.76311
484.951,54.8556,28.88577,0.05364243,0.76103
487.451,55.0981,28.7713,0.05085508,0.75895
489.951,55.3387,28.67255,0.04874547,0.75688
492.451,55.5785,28.54559,0.04843791,0.75481
494.951,55.81989,28.50198,0.04827755,0.75275
497.451,56.0618,28.4115,0.0467384,0.75069
499.951,56.30525,28.2799,0.04581873,0.74864
502.451,56.54981,28.2145,0.04688875,0.74659
504.951,56.79308,28.11575,0.0480385,0.74454
507.451,57.03703,28.00943,0.0475613,0.7425
509.951,57.2808,27.9445,0.04573374,0.74047
512.451,57.52551,27.80973,0.04275729,0.73844
514.951,57.7691,27.7112,0.03804258,0.73642
517.451,58.01234,27.68696,0.03238827,0.7344
519.951,58.25521,27.60973,0.02931093,0.73238
522.451,58.49905,27.4463,0.02805351,0.73038
524.951,58.74321,27.41357,0.03196515,0.72837
527.451,58.9871,27.3741,0.02811992,0.72638
529.951,59.2315,27.2818,0.02621891,0.72439
532.451,59.47671,27.14951,0.02365116,0.7224
534.951,59.7213,27.12303,0.02572718,0.72042
537.451,59.96598,27.0436,0.02054024,0.71845
539.951,60.2109,26.98449,0.02188717,0.71649
542.451,60.45626,26.95066,0.02075986,0.71453
544.951,60.7014,26.8547,0.01616662,0.71257
547.451,60.94716,26.7635,0.01589586,0.71063
549.951,61.1919,26.72209,0.01229472,0.70869
552.451,61.43883,26.6583,0.01220817,0.70675
554.951,61.68538,26.58646,0.009031328,0.70483
557.451,61.93164,26.51094,0.007941657,0.70291
559.951,62.1771,26.46032,0.004021943,0.701
562.451,62.42411,26.38604,0.005447985,0.69909
564.951,62.6709,26.32145,0.002158799,0.69719
567.451,62.91806,26.2806,-0.0007251038,0.6953
569.951,63.1646,26.19264,-0.007474184,0.69341
572.451,63.41169,26.18204,-0.00693932,0.69154
574.951,63.6587,26.12774,-0.00948364,0.68967
577.451,63.9051,26.05994,-0.009636872,0.6878
579.951,64.15172,26.00903,-0.009808959,0.68595
582.451,64.3985,26.00982,-0.00730609,0.6841
584.951,64.6465,25.93277,-0.000760713,0.68226
587.451,64.8942,25.8675,0.004030189,0.68043
589.951,65.1421,25.84389,0.00569952,0.6786
592.451,65.3899,25.76928,0.00675072,0.67679
594.951,65.63745,25.7444,0.005598856,0.67498
597.451,65.88464,25.67943,0.00693919,0.67318
599.951,66.13333,25.6132,0.01059534,0.67138
602.451,66.3832,25.60482,0.008875586,0.6696
604.951,66.63286,25.56635,0.00868265,0.66782
607.451,66.88091,25.5065,0.008275794,0.66605
609.951,67.1288,25.44913,0.01282376,0.66429
612.451,67.377,25.4033,0.01493261,0.66254
614.951,67.62478,25.40015,0.01611941,0.66079
617.451,67.87183,25.33432,0.01778713,0.65906
619.951,68.12168,25.3514,0.02361807,0.65733
622.451,68.37358,25.28501,0.03515804,0.65561
624.951,68.62447,25.28504,0.04038974,0.6539
627.451,68.8736,25.21921,0.04875078,0.65219
629.951,69.12387,25.15375,0.04887872,0.6505
632.451,69.37384,25.1292,0.05364665,0.64881
634.951,69.62384,25.0636,0.05668653,0.64713
637.451,69.87305,25.0716,0.05820889,0.64546
638.651,69.99343,25.07157,0.0616816,0.64466