File: 01_Data/MDF/STA/N2/10K_min/MDF_STA_N2_10KData_211011_R2.csv
##Temp./Â°C,Time/min,Mass(subtr.2)/%,DSC(subtr.2)/(mW/mg),Sensit./(uV/mW)
49.876,10.00917,99.72095,-0.008816467,1.03584
52.376,12.33947,99.64227,0.07000429,1.03571
54.876,13.02493,99.6404,0.11075,1.03555
57.376,13.56848,99.56694,0.13684,1.03537
59.876,14.04375,99.53921,0.16029,1.03515
62.376,14.47608,99.51774,0.17866,1.03492
64.876,14.8766,99.48561,0.1979,1.03465
67.376,15.2514,99.46251,0.21645,1.03436
69.876,15.60684,99.43149,0.23192,1.03404
72.376,15.94714,99.38892,0.24868,1.0337
74.876,16.27431,99.3166,0.2628,1.03333
77.376,16.5904,99.31891,0.27464,1.03293
79.876,16.89498,99.27935,0.28672,1.03251
82.376,17.19312,99.23245,0.29557,1.03206
84.876,17.48653,99.22584,0.30217,1.03159
87.376,17.77082,99.19015,0.30966,1.03109
89.876,18.04952,99.18564,0.31401,1.03057
92.376,18.32253,99.16035,0.31953,1.03002
94.876,18.59161,99.12475,0.32418,1.02944
97.376,18.85681,99.0921,0.32577,1.02885
99.876,19.11777,99.10327,0.33144,1.02823
102.376,19.37643,99.0864,0.33916,1.02758
104.876,19.63285,99.05779,0.34336,1.02691
107.376,19.88693,99.02625,0.34729,1.02622
109.876,20.139,98.99327,0.34786,1.0255
112.376,20.3891,99.02342,0.35108,1.02476
114.876,20.63712,98.99044,0.35454,1.02399
117.376,20.88404,99.02556,0.35744,1.02321
119.876,21.1285,98.97681,0.36045,1.02239
122.376,21.37189,98.9768,0.36458,1.02156
124.876,21.6137,98.964,0.36998,1.02071
127.376,21.85343,98.944,0.37389,1.01983
129.876,22.092,98.94447,0.38041,1.01893
132.376,22.32863,99.05331,0.38352,1.018
134.876,22.56425,98.95915,0.38864,1.01706
137.376,22.79842,98.9263,0.39111,1.01609
139.876,23.0309,98.96141,0.39471,1.0151
142.376,23.26236,98.93141,0.39884,1.01409
144.876,23.49338,98.92705,0.40322,1.01306
147.376,23.72489,98.89556,0.4088,1.01201
149.876,23.95334,98.88016,0.41399,1.01094
152.376,24.18235,98.92404,0.41579,1.00984
154.876,24.41185,98.9827,0.42142,1.00873
157.376,24.63983,98.8948,0.42412,1.0076
159.876,24.86794,98.89849,0.42707,1.00644
162.376,25.09543,98.84823,0.42801,1.00527
164.876,25.32232,98.85634,0.43255,1.00408
167.376,25.54867,98.84289,0.43655,1.00286
169.876,25.77654,98.77422,0.43969,1.00163
172.376,26.0025,98.83997,0.44451,1.00038
174.876,26.22852,98.82369,0.44464,0.99911
177.376,26.45444,98.76089,0.44895,0.99782
179.876,26.67935,98.77456,0.45534,0.99651
182.376,26.90405,98.73284,0.45805,0.99519
184.876,27.12868,98.74718,0.46191,0.99385
187.376,27.3511,98.68405,0.46654,0.99248
189.876,27.57491,98.6761,0.47086,0.99111
192.376,27.7988,98.6686,0.47655,0.98971
194.876,28.02307,98.6228,0.48153,0.9883
197.376,28.24597,98.58583,0.48501,0.98686
199.876,28.47014,98.58915,0.49118,0.98542
202.376,28.6931,98.52246,0.49411,0.98395
204.876,28.9163,98.4899,0.49871,0.98247
207.376,29.1394,98.39152,0.50021,0.98098
209.876,29.36256,98.2906,0.50427,0.97946
212.376,29.5856,98.30917,0.5106,0.97793
214.876,29.8087,98.20826,0.51088,0.97639
217.376,30.0324,98.09945,0.51503,0.97483
219.876,30.2555,98.0073,0.51586,0.97326
222.376,30.4789,97.9374,0.51814,0.97167
224.876,30.70219,97.83131,0.51783,0.97006
227.376,30.9261,97.73516,0.51865,0.96844
229.876,31.1492,97.61752,0.5213,0.96681
232.376,31.3722,97.48365,0.52137,0.96516
234.876,31.59563,97.31289,0.52221,0.9635
237.376,31.8192,97.17706,0.52202,0.96182
239.876,32.04283,96.99844,0.52345,0.96013
242.376,32.26643,96.85551,0.52055,0.95843
244.876,32.49057,96.64945,0.52027,0.95672
247.376,32.7146,96.38006,0.51915,0.95499
249.876,32.93906,96.20874,0.51894,0.95325
252.376,33.16344,95.91335,0.51583,0.95149
254.876,33.3876,95.63369,0.51241,0.94973
257.376,33.61144,95.37536,0.50953,0.94795
259.876,33.83603,95.00577,0.50553,0.94616
262.376,34.06115,94.65352,0.50147,0.94436
264.876,34.28457,94.29266,0.49599,0.94255
267.376,34.51011,93.78809,0.48799,0.94072
269.876,34.73518,93.36496,0.4815,0.93889
272.376,34.9602,92.8096,0.47457,0.93704
274.876,35.18567,92.21405,0.46444,0.93518
277.376,35.4114,91.64174,0.45198,0.93332
279.876,35.6366,90.96613,0.43839,0.93144
282.376,35.86182,90.28334,0.43089,0.92955
284.876,36.0875,89.5643,0.41715,0.92766
287.376,36.31349,88.7978,0.40755,0.92575
289.876,36.53928,88.04085,0.40014,0.92383
292.376,36.76577,87.21311,0.39301,0.92191
294.876,36.99184,86.41657,0.38611,0.91997
297.376,37.21862,85.56509,0.38109,0.91803
299.876,37.44582,84.69329,0.37949,0.91608
302.376,37.67263,83.84954,0.38097,0.91412
304.876,37.89947,82.85151,0.38462,0.91215
307.376,38.12702,81.9588,0.3894,0.91017
309.876,38.3546,80.94402,0.39966,0.90819
312.376,38.58207,79.9495,0.41097,0.9062
314.876,38.81008,78.8822,0.42425,0.9042
317.376,39.03889,77.7984,0.4386,0.90219
319.876,39.26717,76.65199,0.45266,0.90018
322.376,39.49595,75.57517,0.46652,0.89816
324.876,39.7249,74.35814,0.48074,0.89613
327.376,39.95433,73.09561,0.49795,0.8941
329.876,40.18329,71.79364,0.51451,0.89206
332.376,40.41219,70.422,0.53276,0.89002
334.876,40.6419,69.04127,0.55058,0.88797
337.376,40.87154,67.51555,0.57282,0.88591
339.876,41.10157,65.87513,0.59264,0.88385
342.376,41.33194,64.18896,0.61428,0.88178
344.876,41.56278,62.4264,0.63896,0.87971
347.376,41.79378,60.44686,0.66429,0.87763
349.876,42.02516,58.43255,0.68618,0.87555
352.376,42.2563,56.3374,0.7057,0.87346
354.876,42.48823,54.0708,0.72318,0.87137
357.376,42.7205,51.70259,0.73057,0.86928
359.876,42.95325,49.35051,0.72658,0.86718
362.376,43.18543,46.89877,0.71277,0.86508
364.876,43.41819,44.54733,0.67636,0.86297
367.376,43.65103,42.35597,0.61907,0.86087
369.876,43.884,40.41762,0.53833,0.85875
372.376,44.1166,38.76417,0.43661,0.85664
374.876,44.34919,37.55255,0.33441,0.85452
377.376,44.58251,36.65676,0.25004,0.8524
379.876,44.81539,36.16077,0.19574,0.85028
382.376,45.04851,35.81496,0.16549,0.84815
384.876,45.28222,35.45971,0.14678,0.84602
387.376,45.51621,35.20778,0.13332,0.8439
389.876,45.75006,34.99807,0.12283,0.84176
392.376,45.98352,34.77487,0.11013,0.83963
394.876,46.21801,34.55466,0.10373,0.8375
397.376,46.4527,34.32096,0.09735915,0.83536
399.876,46.68764,34.06882,0.0905096,0.83323
402.376,46.92263,33.89844,0.08775776,0.83109
404.876,47.15749,33.67671,0.08246877,0.82895
407.376,47.3932,33.52397,0.08008064,0.82681
409.876,47.62859,33.32,0.07798174,0.82467
412.376,47.86493,33.1447,0.07912123,0.82254
414.876,48.10127,32.92887,0.07873992,0.8204
417.376,48.3384,32.67535,0.07976649,0.81826
419.876,48.57515,32.54718,0.07665887,0.81612
422.376,48.8119,32.3273,0.0785963,0.81398
424.876,49.04847,32.17289,0.08269106,0.81184
427.376,49.28533,32.0366,0.08959813,0.80971
429.876,49.52243,31.8226,0.09162475,0.80757
432.376,49.75976,31.666,0.09635842,0.80543
434.876,49.99778,31.58138,0.09884029,0.8033
437.376,50.23558,31.33936,0.10442,0.80117
439.876,50.4741,31.15744,0.11352,0.79904
442.376,50.71264,31.052,0.11765,0.79691
444.876,50.95203,30.91665,0.12103,0.79478
447.376,51.19082,30.76732,0.12821,0.79265
449.876,51.42948,30.66187,0.13288,0.79053
452.376,51.6685,30.43553,0.14014,0.78841
454.876,51.9076,30.30213,0.14472,0.78629
457.376,52.1467,30.20058,0.1456,0.78417
459.876,52.38621,30.08452,0.15069,0.78206
462.376,52.62689,29.92884,0.15839,0.77995
464.876,52.8675,29.80514,0.16309,0.77784
467.376,53.1083,29.6968,0.16609,0.77573
469.876,53.34907,29.59825,0.16697,0.77363
472.376,53.59016,29.48992,0.1707,0.77153
474.876,53.8313,29.33318,0.17411,0.76944
477.376,54.07225,29.25361,0.17419,0.76735
479.876,54.31326,29.1515,0.17803,0.76526
482.376,54.5547,29.07992,0.17738,0.76317
484.876,54.79605,28.93887,0.17674,0.76109
487.376,55.03816,28.8351,0.17877,0.75902
489.876,55.28035,28.7362,0.17978,0.75694
492.376,55.52166,28.63845,0.18239,0.75488
494.876,55.7638,28.53748,0.18144,0.75281
497.376,56.00555,28.42213,0.18518,0.75075
499.876,56.2486,28.3567,0.1881,0.7487
502.376,56.4916,28.2523,0.19177,0.74665
504.876,56.73324,28.17768,0.19408,0.7446
507.376,56.97778,28.0531,0.19654,0.74256
509.876,57.22081,27.9706,0.19481,0.74053
512.376,57.4637,27.9025,0.19369,0.7385
514.876,57.70618,27.7368,0.19518,0.73648
517.376,57.94945,27.7163,0.19405,0.73446
519.876,58.1927,27.64276,0.19707,0.73244
522.376,58.4358,27.54808,0.19756,0.73044
524.876,58.6789,27.5115,0.19929,0.72843
527.376,58.9229,27.42346,0.20099,0.72644
529.876,59.16698,27.3528,0.20669,0.72445
532.376,59.412,27.2965,0.20586,0.72246
534.876,59.65729,27.1859,0.20959,0.72048
537.376,59.9019,27.1145,0.21244,0.71851
539.876,60.14669,27.06515,0.21761,0.71655
542.376,60.3924,26.96051,0.21982,0.71459
544.876,60.6381,26.93425,0.22218,0.71263
547.376,60.88403,26.89896,0.22576,0.71069
549.876,61.1295,26.79477,0.22314,0.70875
552.376,61.37559,26.7578,0.22386,0.70681
554.876,61.6217,26.64175,0.22397,0.70489
557.376,61.8675,26.5354,0.22798,0.70297
559.876,62.1139,26.5324,0.22614,0.70105
562.376,62.3604,26.4608,0.22525,0.69915
564.876,62.60719,26.4283,0.22431,0.69725
567.376,62.854,26.3306,0.22517,0.69536
569.876,63.1004,26.36239,0.22526,0.69347
572.376,63.34689,26.25047,0.22941,0.69159
574.876,63.5932,26.1991,0.23111,0.68972
577.376,63.84007,26.11371,0.23259,0.68786
579.876,64.08713,26.1133,0.23358,0.68601
582.376,64.33381,26.05559,0.23199,0.68416
584.876,64.58099,26.0095,0.23653,0.68232
587.376,64.8284,25.9766,0.23705,0.68048
589.876,65.07554,25.90024,0.24171,0.67866
592.376,65.32311,25.89476,0.25028,0.67684
594.876,65.57205,25.85124,0.24942,0.67503
597.376,65.82091,25.7892,0.25731,0.67323
599.876,66.0697,25.72202,0.26324,0.67144
602.376,66.31811,25.75542,0.26854,0.66965
604.876,66.56621,25.66007,0.27527,0.66787
607.376,66.8143,25.6478,0.2834,0.6661
609.876,67.06251,25.58579,0.2872,0.66434
612.376,67.31063,25.55435,0.29118,0.66259
614.876,67.55938,25.55545,0.2977,0.66084
617.376,67.8081,25.45711,0.30238,0.65911
619.876,68.05721,25.42471,0.31115,0.65738
622.376,68.3066,25.4136,0.32495,0.65566
624.876,68.55609,25.34919,0.33422,0.65395
627.376,68.8052,25.30646,0.34402,0.65224
629.876,69.05498,25.27409,0.34913,0.65055
632.376,69.3049,25.24083,0.35308,0.64886
634.876,69.55419,25.2094,0.34856,0.64718
637.376,69.80471,25.1583,0.36058,0.64551
639.276,69.99508,25.17009,0.36454,0.64425