File: 01_Data/Exterior_Plywood/HFM/Exterior_Plywood_Density_Wet_R3.csv
,Exterior_Plywood_3_WET
Sample Mass [g],316.4
Sample Volume [cm3],602.6
Sample Density [kg/m3],525