File: 01_Data/Exterior_Plywood/HFM/Exterior_Plywood_Density_Wet_R1.csv
,Exterior_Plywood_1_WET
Sample Mass [g],305.1
Sample Volume [cm3],602.0
Sample Density [kg/m3],507