File: 01_Data/Exterior_Plywood/HFM/Exterior_Plywood_Ignition_Temp_Properties.csv
Thermal Conductivity (W/m-K),0.121
Heat Capacity (J/kg-K),1656.0
Density (kg/m3),523.667