File: 01_Data/Exterior_Plywood/HFM/Exterior_Plywood_Density_Wet_R2.csv
,Exterior_Plywood_2_WET
Sample Mass [g],324.3
Sample Volume [cm3],602.0
Sample Density [kg/m3],539