File: 01_Data/Bean_Bag_Chair_Outer_Cover/STA/N2/30K_min/Bean_Bag_Outer_Cover_STA_N2_30KData_220511_R1.csv
##Temp./Â°C,Time/min,Mass loss(subtr.2)/mg,DSC(subtr.2)/(mW/mg),Sensit./(uV/mW)
48.638,10.00667,-0.00626,0.01455093,1.05399
51.938,10.89349,-0.007812104,0.18828,1.05331
55.238,11.13069,-0.007818784,0.31276,1.05261
58.538,11.3123,-0.00683022,0.40684,1.0519
61.838,11.46974,-0.0059769,0.48454,1.05116
65.138,11.613,-0.006708491,0.55052,1.0504
68.438,11.74755,-0.006582165,0.60829,1.04963
71.738,11.8759,-0.00607357,0.66134,1.04883
75.038,12.00032,-0.007954062,0.70874,1.04802
78.338,12.12152,-0.00744766,0.75222,1.04718
81.638,12.24039,-0.008114917,0.79249,1.04633
84.938,12.35698,-0.008630545,0.82935,1.04546
88.238,12.4718,-0.008547551,0.86618,1.04457
91.538,12.58558,-0.01041705,0.89974,1.04366
94.838,12.69818,-0.01295244,0.9318,1.04273
98.138,12.80985,-0.01295966,0.95808,1.04178
101.438,12.92098,-0.01405167,0.97994,1.04081
104.738,13.0319,-0.0156041,1.00176,1.03982
108.038,13.14264,-0.0156037,1.01539,1.03882
111.338,13.2528,-0.01823063,1.02583,1.0378
114.638,13.36231,-0.01955,1.03274,1.03675
117.938,13.47233,-0.02086998,1.03513,1.03569
121.238,13.5815,-0.01988,1.0322,1.03462
124.538,13.6901,-0.01955781,1.03046,1.03352
127.838,13.79815,-0.02118713,1.02546,1.03241
131.138,13.9056,-0.01987401,1.02344,1.03127
134.438,14.0124,-0.02119,1.02192,1.03012
137.738,14.1189,-0.02250997,1.02286,1.02896
141.038,14.2248,-0.0235035,1.02452,1.02777
144.338,14.33009,-0.02394,1.02977,1.02657
147.638,14.435,-0.02396479,1.0392,1.02535
150.938,14.5396,-0.0229198,1.04733,1.02411
154.238,14.64365,-0.02394,1.05635,1.02285
157.538,14.74745,-0.02260022,1.07004,1.02158
160.838,14.8512,-0.02262,1.08259,1.02029
164.138,14.9544,-0.02129394,1.0928,1.01898
167.438,15.0576,-0.02228992,1.10975,1.01766
170.738,15.16024,-0.02131,1.12534,1.01632
174.038,15.26309,-0.02146051,1.13602,1.01496
177.338,15.36535,-0.02131,1.14728,1.01359
180.638,15.4674,-0.02131001,1.1571,1.0122
183.938,15.56879,-0.02262,1.16951,1.01079
187.238,15.67004,-0.02262,1.18056,1.00937
190.538,15.7713,-0.02262,1.19042,1.00793
193.838,15.87219,-0.02265853,1.20148,1.00648
197.138,15.9728,-0.0213,1.21231,1.00501
200.438,16.07306,-0.02130022,1.22358,1.00352
203.738,16.17379,-0.02262,1.23244,1.00202
207.038,16.27405,-0.02263247,1.24258,1.0005
210.338,16.37464,-0.02361001,1.25451,0.99896
213.638,16.47484,-0.02261955,1.26463,0.99741
216.938,16.5749,-0.02262122,1.27321,0.99585
220.238,16.675,-0.02262461,1.28172,0.99427
223.538,16.7747,-0.02493152,1.28886,0.99267
226.838,16.87463,-0.02525996,1.29731,0.99106
230.138,16.97427,-0.02394064,1.30029,0.98944
233.438,17.07401,-0.02394006,1.30664,0.9878
236.738,17.17351,-0.02525,1.31305,0.98614
240.038,17.27305,-0.02426,1.31729,0.98447
243.338,17.37229,-0.02427305,1.32504,0.98279
246.638,17.47213,-0.02690389,1.33215,0.98109
249.938,17.57157,-0.02949622,1.33599,0.97938
253.238,17.67083,-0.03088829,1.34133,0.97765
256.538,17.77016,-0.0322172,1.35104,0.97591
259.838,17.8694,-0.03212762,1.35518,0.97415
263.138,17.96865,-0.03549818,1.36651,0.97239
266.438,18.06782,-0.03832568,1.37258,0.9706
269.738,18.1668,-0.03963999,1.37864,0.96881
273.038,18.26625,-0.04226843,1.38137,0.967
276.338,18.36552,-0.04491856,1.38544,0.96517
279.638,18.46483,-0.04923246,1.38965,0.96333
282.938,18.56426,-0.05289521,1.39432,0.96148
286.238,18.6635,-0.05645667,1.39815,0.95962
289.538,18.7631,-0.05937777,1.40514,0.95775
292.838,18.8625,-0.06387949,1.41275,0.95586
296.138,18.96184,-0.06956133,1.41569,0.95395
299.438,19.0613,-0.07448442,1.42452,0.95204
302.738,19.16081,-0.08123487,1.43176,0.95011
306.038,19.26053,-0.09020235,1.44172,0.94817
309.338,19.36027,-0.09783931,1.45323,0.94622
312.638,19.45966,-0.10932,1.46606,0.94425
315.938,19.55945,-0.1195,1.48229,0.94228
319.238,19.65931,-0.13151,1.49844,0.94029
322.538,19.75871,-0.14597,1.52285,0.93829
325.838,19.8587,-0.16152,1.54988,0.93628
329.138,19.9583,-0.18087,1.58343,0.93425
332.438,20.05869,-0.20362,1.63153,0.93222
335.738,20.15879,-0.22846,1.688,0.93017
339.038,20.259,-0.25722,1.75607,0.92811
342.338,20.3593,-0.29152,1.84136,0.92604
345.638,20.4599,-0.33435,1.9461,0.92396
348.938,20.56052,-0.38166,2.08175,0.92186
352.238,20.6614,-0.43946,2.25067,0.91976
355.538,20.76238,-0.50726,2.4564,0.91765
358.838,20.86364,-0.58825,2.70479,0.91552
362.138,20.96511,-0.68425,2.99904,0.91339
365.438,21.06673,-0.80041,3.3388,0.91124
368.738,21.16844,-0.93789,3.71921,0.90908
372.038,21.27069,-1.09858,4.12615,0.90692
375.338,21.3731,-1.28376,4.53341,0.90474
378.638,21.47564,-1.48895,4.90312,0.90255
381.938,21.57834,-1.71481,5.19275,0.90035
385.238,21.6811,-1.95284,5.36419,0.89815
388.538,21.78397,-2.19404,5.38352,0.89593
391.838,21.88673,-2.43043,5.24075,0.8937
395.138,21.9892,-2.65587,4.89343,0.89146
398.438,22.09137,-2.85414,4.29991,0.88922
401.738,22.19302,-3.01653,3.42591,0.88696
405.038,22.29399,-3.13057,2.40317,0.8847
408.338,22.39518,-3.19353,1.49072,0.88242
411.638,22.4958,-3.21865,0.91512,0.88014
414.938,22.5967,-3.22989,0.6289,0.87785
418.238,22.69793,-3.23472,0.49262,0.87555
421.538,22.79971,-3.24124,0.43029,0.87324
424.838,22.90181,-3.24393,0.38913,0.87092
428.138,23.0043,-3.24949,0.36448,0.86859
431.438,23.1068,-3.25289,0.34689,0.86626
434.738,23.20926,-3.25539,0.33219,0.86392
438.038,23.31242,-3.25937,0.32123,0.86156
441.338,23.41546,-3.26135,0.30992,0.8592
444.638,23.5187,-3.26543,0.30037,0.85684
447.938,23.62203,-3.2683,0.28988,0.85446
451.238,23.72565,-3.27125,0.28231,0.85208
454.538,23.8293,-3.27505,0.27252,0.84969
457.838,23.9331,-3.27701,0.26923,0.84729
461.138,24.037,-3.28076,0.25925,0.84488
464.438,24.14105,-3.2845,0.25392,0.84247
467.738,24.24537,-3.28714,0.24648,0.84005
471.038,24.34956,-3.28844,0.24058,0.83762
474.338,24.45394,-3.29255,0.23384,0.83518
477.638,24.55848,-3.29536,0.23081,0.83274
480.938,24.66316,-3.29779,0.22481,0.83029
484.238,24.76784,-3.29976,0.22085,0.82783
487.538,24.8724,-3.30372,0.21619,0.82537
490.838,24.97702,-3.30404,0.21141,0.8229
494.138,25.08222,-3.30636,0.20861,0.82043
497.438,25.18736,-3.30822,0.20165,0.81794
500.738,25.29231,-3.31085,0.19795,0.81545
504.038,25.3973,-3.31348,0.1941,0.81296
507.338,25.5027,-3.31744,0.19331,0.81046
510.638,25.608,-3.31942,0.19334,0.80795
513.938,25.71334,-3.32073,0.18824,0.80544
517.238,25.819,-3.32337,0.18125,0.80292
520.538,25.92452,-3.32485,0.1758,0.8004
523.838,26.03021,-3.328,0.17071,0.79787
527.138,26.13607,-3.32995,0.16056,0.79533
530.438,26.24212,-3.33125,0.16006,0.79279
533.738,26.3479,-3.33394,0.16702,0.79024
537.038,26.45397,-3.33615,0.17822,0.78769
540.338,26.5601,-3.33654,0.1857,0.78514
543.638,26.66617,-3.33978,0.18689,0.78257
546.938,26.7724,-3.34181,0.18161,0.78001
550.238,26.8789,-3.34313,0.17811,0.77744
553.538,26.9854,-3.34313,0.1711,0.77486
556.838,27.09202,-3.34309,0.16189,0.77228
560.138,27.19868,-3.34423,0.15472,0.7697
563.438,27.30534,-3.345,0.14759,0.76711
566.738,27.4121,-3.3474,0.13397,0.76451
570.038,27.51913,-3.35005,0.11563,0.76191
573.338,27.62619,-3.35004,0.08565246,0.75931
576.638,27.7332,-3.35136,0.06262549,0.7567
579.938,27.84045,-3.35136,0.04478907,0.75409
583.238,27.94765,-3.354,0.02841698,0.75148
586.538,28.05495,-3.35536,0.009996072,0.74886
589.838,28.1624,-3.35794,-0.00789306,0.74624
593.138,28.26988,-3.35819,-0.02089483,0.74361
596.438,28.3772,-3.35926,-0.03437276,0.74098
599.738,28.48498,-3.36025,-0.04557943,0.73835
603.038,28.59252,-3.36189,-0.05809933,0.73572
606.338,28.7002,-3.36224,-0.06856112,0.73308
609.638,28.80811,-3.3619,-0.07737185,0.73044
612.938,28.91597,-3.36322,-0.091959,0.72779
616.238,29.0237,-3.36355,-0.1021,0.72514
619.538,29.1319,-3.36403,-0.11095,0.72249
622.838,29.23995,-3.36618,-0.12056,0.71984
626.138,29.3479,-3.3675,-0.12423,0.71718
629.438,29.456,-3.36887,-0.12551,0.71452
632.738,29.56434,-3.36882,-0.13239,0.71186
636.038,29.67241,-3.3708,-0.13812,0.70919
639.338,29.78074,-3.37211,-0.13827,0.70653
642.638,29.8891,-3.37061,-0.14239,0.70386
645.938,29.9976,-3.36953,-0.14466,0.70119
649.238,30.1062,-3.37212,-0.14337,0.69852
652.538,30.21463,-3.37343,-0.14809,0.69584
655.838,30.32292,-3.37343,-0.15193,0.69316
659.138,30.432,-3.37473,-0.15697,0.69048
662.438,30.54045,-3.37606,-0.15847,0.6878
665.738,30.6489,-3.37588,-0.15747,0.68512
669.038,30.75791,-3.37505,-0.1609,0.68244
672.338,30.8666,-3.37771,-0.15993,0.67975
675.638,30.97526,-3.37903,-0.15848,0.67707
678.938,31.08413,-3.37909,-0.15051,0.67438
682.238,31.1929,-3.37903,-0.14798,0.67169
685.538,31.30166,-3.38067,-0.14429,0.669
688.838,31.41047,-3.37998,-0.14043,0.66631
692.138,31.51936,-3.37869,-0.14011,0.66361
695.438,31.62824,-3.3787,-0.13438,0.66092
698.738,31.7373,-3.381,-0.13159,0.65823
702.038,31.8464,-3.37969,-0.13066,0.65553
705.338,31.9555,-3.37969,-0.12966,0.65284
708.638,32.06469,-3.38082,-0.12649,0.65014
711.938,32.17391,-3.38199,-0.12023,0.64744
715.238,32.28302,-3.38069,-0.12153,0.64475
718.538,32.3928,-3.38199,-0.11522,0.64205
721.838,32.5023,-3.38199,-0.11365,0.63935
725.138,32.61207,-3.38199,-0.11598,0.63666
728.438,32.7218,-3.38331,-0.11213,0.63396
731.738,32.8314,-3.38331,-0.11276,0.63126
735.038,32.94113,-3.38331,-0.11157,0.62856
738.338,33.0508,-3.38199,-0.11529,0.62587
741.638,33.16025,-3.38199,-0.10529,0.62317
744.938,33.27,-3.38463,-0.10459,0.62047
748.238,33.3799,-3.38561,-0.09928769,0.61778
751.538,33.48961,-3.38693,-0.09854653,0.61508
754.838,33.59963,-3.38693,-0.09290194,0.61238
758.138,33.70968,-3.38561,-0.09300683,0.60969
761.438,33.81975,-3.38594,-0.09150736,0.607
764.738,33.9295,-3.38693,-0.08770151,0.6043
768.038,34.0398,-3.38661,-0.08742695,0.60161
771.338,34.1501,-3.38693,-0.08641682,0.59892
774.638,34.2603,-3.38726,-0.08657222,0.59623
777.938,34.3705,-3.38889,-0.08140632,0.59354
781.238,34.48081,-3.38858,-0.0856014,0.59085
784.538,34.59089,-3.38858,-0.08069253,0.58816
787.838,34.7012,-3.3899,-0.08084857,0.58548
791.138,34.81157,-3.3887,-0.08203107,0.5828
794.438,34.92207,-3.38858,-0.07270115,0.58011
796.738,34.99906,-3.38989,-0.07093785,0.57824