File: 01_Data/Bean_Bag_Chair_Outer_Cover/STA/N2/30K_min/Bean_Bag_Cover_STA_N2_30KData_220512_R2.csv
##Temp./Â°C,Time/min,Mass loss(subtr.2)/mg,DSC(subtr.2)/(mW/mg),Sensit./(uV/mW)
48.571,10.00667,-0.0179,0.005170363,1.054
51.671,10.87595,-0.02015562,0.1314,1.05337
54.771,11.106,-0.01742907,0.23001,1.05271
57.871,11.28245,-0.02186507,0.30767,1.05204
60.971,11.43405,-0.02231526,0.37203,1.05136
64.071,11.57175,-0.02187695,0.42856,1.05065
67.171,11.70015,-0.02218638,0.47882,1.04993
70.271,11.823,-0.02377839,0.51987,1.04919
73.371,11.94007,-0.02502341,0.55995,1.04843
76.471,12.05636,-0.02384607,0.60067,1.04766
79.571,12.16902,-0.02620709,0.63393,1.04687
82.671,12.2798,-0.02547862,0.668,1.04606
85.771,12.38893,-0.02946973,0.70191,1.04523
88.871,12.49665,-0.02955681,0.73141,1.04439
91.971,12.60299,-0.03088144,0.7603,1.04353
95.071,12.70861,-0.0309295,0.78753,1.04266
98.171,12.81352,-0.03116422,0.81154,1.04177
101.271,12.9177,-0.03332964,0.83121,1.04086
104.371,13.0219,-0.03480985,0.84849,1.03993
107.471,13.1257,-0.03612005,0.86094,1.03899
110.571,13.2294,-0.03744411,0.86433,1.03804
113.671,13.3326,-0.03873237,0.86837,1.03706
116.771,13.43566,-0.04106,0.86502,1.03607
119.871,13.538,-0.04283961,0.8645,1.03507
122.971,13.64065,-0.04414,0.85207,1.03404
126.071,13.7425,-0.045459,0.84058,1.033
129.171,13.8438,-0.04481257,0.82683,1.03195
132.271,13.94465,-0.04777766,0.81588,1.03088
135.371,14.04495,-0.04841798,0.80716,1.0298
138.471,14.1452,-0.0483123,0.79916,1.02869
141.571,14.24458,-0.04831,0.79371,1.02758
144.671,14.3436,-0.04830999,0.79163,1.02644
147.771,14.4422,-0.04962991,0.79507,1.0253
150.871,14.54075,-0.05094002,0.79701,1.02413
153.971,14.6386,-0.04962,0.8,1.02296
157.071,14.73634,-0.05026259,0.80626,1.02176
160.171,14.8338,-0.04962,0.81224,1.02055
163.271,14.931,-0.0496011,0.81802,1.01933
166.371,15.0283,-0.04963006,0.82931,1.01809
169.471,15.12476,-0.04963,0.83611,1.01684
172.571,15.22153,-0.05099481,0.8453,1.01557
175.671,15.3178,-0.05095,0.85218,1.01429
178.771,15.4137,-0.05096798,0.86099,1.01299
181.871,15.50944,-0.05226,0.86997,1.01168
184.971,15.60474,-0.05225997,0.87505,1.01035
188.071,15.6999,-0.04939918,0.88464,1.00901
191.171,15.79485,-0.05094,0.8944,1.00765
194.271,15.8897,-0.05226026,0.90043,1.00628
197.371,15.98444,-0.05232088,0.91059,1.0049
200.471,16.07903,-0.05127,0.91823,1.0035
203.571,16.17325,-0.05126546,0.92712,1.00209
206.671,16.26761,-0.05225935,0.93496,1.00067
209.771,16.36175,-0.05390953,0.94389,0.99923
212.871,16.45589,-0.05390972,0.94849,0.99778
215.971,16.55,-0.05259,0.95502,0.99631
219.071,16.64406,-0.05259,0.96329,0.99483
222.171,16.73762,-0.05259,0.96899,0.99334
225.271,16.8319,-0.05258885,0.97462,0.99183
228.371,16.92556,-0.05524349,0.97976,0.99031
231.471,17.01928,-0.05490235,0.98629,0.98878
234.571,17.11275,-0.05655,0.99199,0.98723
237.671,17.2064,-0.05655,0.99571,0.98567
240.771,17.29999,-0.05655,1.00193,0.9841
243.871,17.39339,-0.05786,1.0066,0.98252
246.971,17.48682,-0.05951328,1.01095,0.98092
250.071,17.58022,-0.06181949,1.02314,0.97931
253.171,17.6735,-0.06280016,1.0285,0.97769
256.271,17.76681,-0.06312692,1.03696,0.97605
259.371,17.86015,-0.06576017,1.04414,0.9744
262.471,17.9536,-0.06708029,1.05305,0.97274
265.571,18.04668,-0.06971004,1.06143,0.97107
268.671,18.14009,-0.07234883,1.06755,0.96939
271.771,18.23321,-0.07608061,1.076,0.96769
274.871,18.3265,-0.07872108,1.08178,0.96598
277.971,18.41999,-0.07936813,1.08938,0.96426
281.071,18.51326,-0.08442044,1.09622,0.96253
284.171,18.60641,-0.08716566,1.10174,0.96079
287.271,18.70005,-0.09068307,1.10865,0.95904
290.371,18.79356,-0.09517942,1.11542,0.95727
293.471,18.88706,-0.1011,1.12227,0.95549
296.571,18.98064,-0.10666,1.13005,0.9537
299.671,19.07416,-0.11361,1.1385,0.9519
302.771,19.1679,-0.12067,1.14946,0.95009
305.871,19.2614,-0.12932,1.15631,0.94827
308.971,19.35501,-0.13908,1.17294,0.94644
312.071,19.4487,-0.14755,1.18707,0.94459
315.171,19.5425,-0.15781,1.20423,0.94274
318.271,19.63618,-0.17073,1.22656,0.94087
321.371,19.72993,-0.18369,1.25167,0.939
324.471,19.82348,-0.20161,1.28033,0.93711
327.571,19.91765,-0.21933,1.31819,0.93521
330.671,20.01161,-0.24072,1.36017,0.93331
333.771,20.1058,-0.26554,1.41164,0.93139
336.871,20.19979,-0.29404,1.47173,0.92946
339.971,20.2942,-0.32546,1.54676,0.92752
343.071,20.38839,-0.3623,1.64205,0.92558
346.171,20.48297,-0.40529,1.75856,0.92362
349.271,20.57769,-0.45732,1.90024,0.92165
352.371,20.6725,-0.51712,2.0724,0.91968
355.471,20.76732,-0.58611,2.28249,0.91769
358.571,20.8624,-0.66909,2.53026,0.91569
361.671,20.95784,-0.76662,2.81504,0.91369
364.771,21.05345,-0.88128,3.14216,0.91167
367.871,21.14909,-1.01527,3.49644,0.90965
370.971,21.24485,-1.17007,3.86989,0.90762
374.071,21.34098,-1.34417,4.23949,0.90558
377.171,21.4374,-1.53962,4.57992,0.90352
380.271,21.53376,-1.75103,4.84991,0.90146
383.371,21.63019,-1.97354,5.01442,0.8994
386.471,21.72661,-2.20191,5.05542,0.89732
389.571,21.82255,-2.42537,4.95554,0.89523
392.671,21.91897,-2.64204,4.70803,0.89314
395.771,22.0149,-2.84121,4.29966,0.89103
398.871,22.11039,-3.0176,3.70197,0.88892
401.971,22.2056,-3.16147,2.91392,0.8868
405.071,22.30061,-3.26692,2.01863,0.88468
408.171,22.39524,-3.33205,1.19842,0.88254
411.271,22.4895,-3.36351,0.61943,0.8804
414.371,22.58395,-3.37665,0.29737,0.87824
417.471,22.67905,-3.38384,0.13271,0.87608
420.571,22.77434,-3.38699,0.05541888,0.87392
423.671,22.86983,-3.392,0.01937992,0.87174
426.771,22.96571,-3.39647,-0.00242479,0.86956
429.871,23.0618,-3.40095,-0.01660762,0.86737
432.971,23.1583,-3.40559,-0.02580706,0.86517
436.071,23.2549,-3.40888,-0.02997921,0.86297
439.171,23.35162,-3.4117,-0.03624042,0.86075
442.271,23.44847,-3.41665,-0.04275233,0.85854
445.371,23.5456,-3.4201,-0.04690926,0.85631
448.471,23.64285,-3.42294,-0.04994489,0.85408
451.571,23.74,-3.42558,-0.05316503,0.85184
454.671,23.83751,-3.42797,-0.05790392,0.84959
457.771,23.93502,-3.43257,-0.06355377,0.84734
460.871,24.03292,-3.43685,-0.06562224,0.84508
463.971,24.1308,-3.44005,-0.06579258,0.84281
467.071,24.22857,-3.44309,-0.06722878,0.84054
470.171,24.32667,-3.44522,-0.0683733,0.83826
473.271,24.42483,-3.44785,-0.0681883,0.83597
476.371,24.52308,-3.44927,-0.07094584,0.83368
479.471,24.62124,-3.45313,-0.07026226,0.83138
482.571,24.71971,-3.45718,-0.07252793,0.82908
485.671,24.81825,-3.45933,-0.07051638,0.82677
488.771,24.91678,-3.46114,-0.07064334,0.82445
491.871,25.01526,-3.46258,-0.07043857,0.82213
494.971,25.1137,-3.46642,-0.06970029,0.8198
498.071,25.2127,-3.46905,-0.06640883,0.81747
501.171,25.31128,-3.47328,-0.06627982,0.81513
504.271,25.41023,-3.47531,-0.05998751,0.81278
507.371,25.50894,-3.47717,-0.06068665,0.81043
510.471,25.608,-3.47934,-0.05168732,0.80808
513.571,25.7071,-3.48189,-0.04924192,0.80572
516.671,25.80571,-3.4853,-0.0535403,0.80335
519.771,25.90539,-3.4879,-0.05473095,0.80098
522.871,26.00463,-3.48925,-0.05725555,0.79861
525.971,26.1039,-3.49058,-0.05561798,0.79623
529.071,26.20346,-3.49441,-0.05689998,0.79384
532.171,26.3029,-3.49494,-0.05657612,0.79145
535.271,26.4025,-3.49766,-0.05817901,0.78906
538.371,26.50191,-3.49879,-0.05002885,0.78666
541.471,26.60155,-3.50016,-0.04188555,0.78426
544.571,26.7014,-3.50254,-0.03456209,0.78185
547.671,26.80118,-3.5041,-0.03037143,0.77944
550.771,26.90118,-3.50549,-0.02884768,0.77702
553.871,27.00122,-3.50681,-0.03258311,0.7746
556.971,27.10122,-3.50813,-0.03465289,0.77218
560.071,27.20167,-3.51043,-0.03577868,0.76975
563.171,27.3019,-3.51033,-0.03882941,0.76732
566.271,27.40227,-3.51108,-0.0403436,0.76488
569.371,27.50275,-3.51373,-0.04557742,0.76244
572.471,27.60343,-3.51537,-0.04911515,0.75999
575.571,27.7039,-3.5177,-0.05265797,0.75755
578.671,27.80463,-3.51636,-0.05794887,0.7551
581.771,27.9055,-3.5177,-0.06310717,0.75264
584.871,28.006,-3.51768,-0.0668765,0.75018
587.971,28.10734,-3.52359,-0.07169204,0.74772
591.071,28.20815,-3.51976,-0.07453118,0.74526
594.171,28.3094,-3.52245,-0.07610997,0.74279
597.271,28.41064,-3.52376,-0.07881893,0.74032
600.371,28.5119,-3.52505,-0.07861964,0.73785
603.471,28.61325,-3.52503,-0.07972188,0.73537
606.571,28.71465,-3.52503,-0.08414541,0.73289
609.671,28.8163,-3.52635,-0.08348879,0.73041
612.771,28.9177,-3.52767,-0.08558409,0.72792
615.871,29.01932,-3.52898,-0.08705354,0.72544
618.971,29.12075,-3.52938,-0.08621789,0.72295
622.071,29.22227,-3.5303,-0.08771373,0.72045
625.171,29.3237,-3.53162,-0.08376175,0.71796
628.271,29.4253,-3.53162,-0.08532341,0.71546
631.371,29.52685,-3.53295,-0.08406911,0.71296
634.471,29.62827,-3.53491,-0.08154442,0.71046
637.571,29.73003,-3.53359,-0.07784632,0.70796
640.671,29.8317,-3.53491,-0.07823664,0.70545
643.771,29.93351,-3.53591,-0.07673848,0.70294
646.871,30.0351,-3.53503,-0.07615667,0.70043
649.971,30.13679,-3.53623,-0.07446117,0.69792
653.071,30.2385,-3.53755,-0.07181161,0.69541
656.171,30.34034,-3.53887,-0.0718,0.69289
659.271,30.4423,-3.53755,-0.07233783,0.69038
662.371,30.5442,-3.53886,-0.06947352,0.68786
665.471,30.6461,-3.54011,-0.0685411,0.68534
668.571,30.74782,-3.54004,-0.07117688,0.68282
671.671,30.85015,-3.54018,-0.06624446,0.6803
674.771,30.9519,-3.5415,-0.06657019,0.67777
677.871,31.0542,-3.54282,-0.06838059,0.67525
680.971,31.1566,-3.54314,-0.06848064,0.67272
684.071,31.259,-3.54345,-0.06903768,0.67019
687.171,31.3614,-3.54547,-0.06705832,0.66767
690.271,31.4638,-3.54545,-0.07058025,0.66514
693.371,31.56649,-3.54544,-0.07344083,0.66261
696.471,31.669,-3.5453,-0.07857309,0.66008
699.571,31.7717,-3.54513,-0.07955245,0.65755
702.671,31.87443,-3.54615,-0.07992502,0.65502
705.771,31.97703,-3.54809,-0.07902186,0.65248
708.871,32.07958,-3.54907,-0.0798142,0.64995
711.971,32.18237,-3.54776,-0.07875553,0.64742
715.071,32.28533,-3.54776,-0.07940449,0.64488
718.171,32.38807,-3.54943,-0.08050367,0.64235
721.271,32.49082,-3.54941,-0.0811787,0.63982
724.371,32.59357,-3.55073,-0.07580386,0.63728
727.471,32.69673,-3.55073,-0.07283735,0.63475
730.571,32.79957,-3.55205,-0.0742618,0.63221
733.671,32.9028,-3.55205,-0.07463079,0.62968
736.771,33.00587,-3.55202,-0.0696992,0.62715
739.871,33.10905,-3.55204,-0.07306814,0.62461
742.971,33.2123,-3.55204,-0.07280773,0.62208
746.071,33.31548,-3.55336,-0.07227158,0.61955
746.571,33.33243,-3.55336,-0.07310496,0.61914