File: 01_Data/Wool_Rug/HFM/Wool_Rug_Density_Dry_R3.csv
,Wool_Rug_DRY_3
Sample Mass [g],122.2
Sample Volume [cm3],538.7
Sample Density [kg/m3],227