File: 01_Data/Wool_Rug/HFM/Wool_Rug_Density_Wet_R2.csv
,Wool_Rug_WET_2
Sample Mass [g],124.2
Sample Volume [cm3],546.4
Sample Density [kg/m3],227