File: 01_Data/Wool_Rug/HFM/Wool_Rug_Density_Wet_R3.csv
,Wool_Rug_WET_3
Sample Mass [g],130.0
Sample Volume [cm3],538.7
Sample Density [kg/m3],241