File: 01_Data/Wool_Rug/HFM/Wool_Rug_Density_Wet_R1.csv
,Wool_Rug_WET_1
Sample Mass [g],122.3
Sample Volume [cm3],583.3
Sample Density [kg/m3],210