File: 01_Data/Wool_Rug/HFM/Wool_Rug_Density_Dry_R1.csv
,Wool_Rug_DRY_1
Sample Mass [g],114.0
Sample Volume [cm3],583.3
Sample Density [kg/m3],195