File: 01_Data/Wool_Rug/HFM/Wool_Rug_Density_Dry_R2.csv
,Wool_Rug_DRY_2
Sample Mass [g],116.7
Sample Volume [cm3],546.4
Sample Density [kg/m3],214