File: 01_Data/MDF/STA/N2/30K_min/MDF_STA_N2_30KData_211012_R1.csv
##Temp./Â°C,Time/min,DSC(subtr.2)/mW,Mass loss(subtr.2)/mg,Sensit./(uV/mW)
49.528,10.01,0.0419829,-0.01821,1.05401
52.028,11.5385,0.41132,-0.02073674,1.05405
54.528,11.88664,0.64983,-0.02058582,1.05406
57.028,12.1403,0.85364,-0.02061749,1.05404
59.528,12.35402,1.00217,-0.02201314,1.05399
62.028,12.54348,1.1413,-0.02310712,1.05391
64.528,12.71745,1.27098,-0.0236752,1.0538
67.028,12.88129,1.37438,-0.0231314,1.05365
69.528,13.03783,1.4671,-0.02257146,1.05348
72.028,13.1874,1.57306,-0.02457273,1.05328
74.528,13.33196,1.66819,-0.02433774,1.05305
77.028,13.4714,1.75143,-0.02455442,1.05279
79.528,13.6065,1.83227,-0.02486643,1.0525
82.028,13.73736,1.92164,-0.02726909,1.05218
84.528,13.86478,1.99794,-0.02708403,1.05184
87.028,13.9879,2.0673,-0.03034225,1.05146
89.528,14.1076,2.13044,-0.02999587,1.05106
92.028,14.2242,2.1943,-0.03214087,1.05062
94.528,14.3376,2.25859,-0.03072526,1.05016
97.028,14.4482,2.30679,-0.03209726,1.04967
99.528,14.55605,2.36492,-0.03305003,1.04916
102.028,14.6618,2.39348,-0.03313128,1.04861
104.528,14.7654,2.41776,-0.03456227,1.04804
107.028,14.86714,2.45619,-0.03363015,1.04744
109.528,14.9672,2.48366,-0.03521105,1.04681
112.028,15.0656,2.53992,-0.03627404,1.04616
114.528,15.16291,2.57159,-0.03457992,1.04548
117.028,15.25844,2.60319,-0.03707998,1.04477
119.528,15.3528,2.61937,-0.03721382,1.04404
122.028,15.44585,2.64192,-0.03738586,1.04328
124.528,15.5375,2.66561,-0.03652145,1.04249
127.028,15.6283,2.6879,-0.03747849,1.04168
129.528,15.7179,2.69897,-0.03736811,1.04084
132.028,15.806,2.71907,-0.03970854,1.03998
134.528,15.8934,2.74216,-0.04060785,1.0391
137.028,15.98011,2.7573,-0.0392695,1.03818
139.528,16.0657,2.77972,-0.03923974,1.03725
142.028,16.1505,2.80961,-0.03949229,1.03628
144.528,16.23372,2.83332,-0.04199968,1.0353
147.028,16.3167,2.86486,-0.04138334,1.03429
149.528,16.39922,2.89024,-0.03914899,1.03325
152.028,16.48103,2.92454,-0.03941604,1.0322
154.528,16.56213,2.95082,-0.04059012,1.03112
157.028,16.64317,2.97637,-0.0421755,1.03001
159.528,16.72312,3.01433,-0.04213904,1.02888
162.028,16.8028,3.04783,-0.04179081,1.02773
164.528,16.88168,3.07962,-0.04179308,1.02656
167.028,16.96027,3.1148,-0.04309483,1.02536
169.528,17.03833,3.1396,-0.04080627,1.02415
172.028,17.11584,3.17987,-0.0421736,1.02291
174.528,17.19304,3.2075,-0.04212056,1.02165
177.028,17.2697,3.24595,-0.0421199,1.02036
179.528,17.34569,3.28525,-0.04279537,1.01906
182.028,17.42152,3.30784,-0.0434325,1.01773
184.528,17.49661,3.3534,-0.04342328,1.01639
187.028,17.57144,3.39358,-0.04364919,1.01502
189.528,17.64578,3.43039,-0.0446499,1.01363
192.028,17.71969,3.45929,-0.04594153,1.01223
194.528,17.79336,3.51572,-0.04596001,1.0108
197.028,17.86671,3.55682,-0.04547385,1.00935
199.528,17.9398,3.60009,-0.04726614,1.00789
202.028,18.01237,3.64941,-0.04858257,1.0064
204.528,18.08492,3.70785,-0.04853193,1.0049
207.028,18.15716,3.74976,-0.04859959,1.00337
209.528,18.2292,3.78769,-0.04991096,1.00183
212.028,18.30092,3.85568,-0.05266752,1.00027
214.528,18.37252,3.89471,-0.05400293,0.9987
217.028,18.4439,3.94354,-0.05539281,0.9971
219.528,18.51502,3.98783,-0.05671008,0.99549
222.028,18.5858,4.02842,-0.0585771,0.99386
224.528,18.65665,4.075,-0.06069558,0.99221
227.028,18.7273,4.10606,-0.06194967,0.99055
229.528,18.79736,4.13238,-0.06409019,0.98886
232.028,18.86778,4.1655,-0.06758203,0.98717
234.528,18.93797,4.18512,-0.07221191,0.98545
237.028,19.00781,4.20117,-0.07366442,0.98373
239.528,19.0775,4.22392,-0.07898435,0.98198
242.028,19.1471,4.23675,-0.08282396,0.98022
244.528,19.2165,4.23381,-0.08627797,0.97845
247.028,19.28574,4.23618,-0.09134577,0.97666
249.528,19.35492,4.24365,-0.09679496,0.97485
252.028,19.42408,4.2321,-0.10362,0.97303
254.528,19.493,4.23141,-0.10855,0.9712
257.028,19.5615,4.20937,-0.11392,0.96935
259.528,19.63065,4.19414,-0.12094,0.96749
262.028,19.6993,4.18033,-0.13046,0.96562
264.528,19.76775,4.15214,-0.13467,0.96373
267.028,19.83634,4.1205,-0.14487,0.96183
269.528,19.9049,4.08331,-0.15513,0.95992
272.028,19.9731,4.03649,-0.16184,0.95799
274.528,20.0413,3.99066,-0.17433,0.95606
277.028,20.10962,3.92756,-0.18467,0.95411
279.528,20.17776,3.85465,-0.1979,0.95215
282.028,20.24548,3.76205,-0.21354,0.95017
284.528,20.31352,3.66784,-0.23133,0.94819
287.028,20.38158,3.5487,-0.24562,0.94619
289.528,20.44991,3.41663,-0.2664,0.94419
292.028,20.518,3.27494,-0.28464,0.94217
294.528,20.58589,3.12819,-0.30607,0.94015
297.028,20.65389,2.96007,-0.32732,0.93811
299.528,20.72176,2.80145,-0.35182,0.93607
302.028,20.78971,2.63822,-0.37819,0.93401
304.528,20.85744,2.48995,-0.40547,0.93195
307.028,20.92551,2.34738,-0.43302,0.92987
309.528,20.99338,2.21683,-0.46307,0.92779
312.028,21.06111,2.10837,-0.48976,0.9257
314.528,21.12895,2.01595,-0.52104,0.9236
317.028,21.19693,1.94737,-0.55537,0.92149
319.528,21.2647,1.89327,-0.58646,0.91938
322.028,21.3324,1.85784,-0.6198,0.91725
324.528,21.40059,1.84869,-0.65329,0.91512
327.028,21.4684,1.86321,-0.69057,0.91299
329.528,21.53655,1.89605,-0.72878,0.91084
332.028,21.60454,1.95136,-0.76771,0.90869
334.528,21.6725,2.02205,-0.80532,0.90653
337.028,21.74062,2.12931,-0.84754,0.90437
339.528,21.80872,2.23619,-0.88959,0.9022
342.028,21.87678,2.34326,-0.93264,0.90002
344.528,21.94521,2.47146,-0.97404,0.89784
347.028,22.0135,2.60576,-1.02141,0.89566
349.528,22.0819,2.74074,-1.06977,0.89347
352.028,22.15031,2.89619,-1.11848,0.89127
354.528,22.21886,3.06299,-1.17016,0.88907
357.028,22.28722,3.23339,-1.22414,0.88686
359.528,22.35588,3.42141,-1.28044,0.88465
362.028,22.42447,3.62356,-1.34109,0.88244
364.528,22.49319,3.82637,-1.40346,0.88022
367.028,22.56162,4.04123,-1.47053,0.878
369.528,22.63075,4.25634,-1.53877,0.87578
372.028,22.69967,4.48654,-1.61268,0.87355
374.528,22.76865,4.68343,-1.69238,0.87132
377.028,22.83776,4.8498,-1.77441,0.86909
379.528,22.90695,4.97858,-1.85893,0.86685
382.028,22.97643,5.03102,-1.94731,0.86462
384.528,23.04587,4.97741,-2.03916,0.86238
387.028,23.1155,4.78141,-2.12928,0.86014
389.528,23.18522,4.42304,-2.21315,0.85789
392.028,23.25495,3.87394,-2.29855,0.85565
394.528,23.32505,3.1238,-2.37345,0.8534
397.028,23.3951,2.25312,-2.43664,0.85116
399.528,23.46552,1.35803,-2.48445,0.84891
402.028,23.5361,0.58201,-2.52292,0.84666
404.528,23.60677,-0.02102593,-2.54568,0.84442
407.028,23.67748,-0.43684,-2.56135,0.84217
409.528,23.7481,-0.73109,-2.57488,0.83992
412.028,23.81891,-0.92673,-2.58649,0.83767
414.528,23.88962,-1.0917,-2.59752,0.83542
417.028,23.9604,-1.21764,-2.60694,0.83318
419.528,24.03131,-1.33004,-2.61164,0.83093
422.028,24.10229,-1.43177,-2.62245,0.82868
424.528,24.17349,-1.50871,-2.63061,0.82644
427.028,24.24474,-1.58943,-2.64024,0.8242
429.528,24.31635,-1.65177,-2.64556,0.82195
432.028,24.3878,-1.71058,-2.65309,0.81971
434.528,24.45938,-1.76621,-2.66047,0.81748
437.028,24.5311,-1.80203,-2.6667,0.81524
439.528,24.603,-1.82897,-2.67684,0.81301
442.028,24.67494,-1.85402,-2.68186,0.81077
444.528,24.74703,-1.86578,-2.68959,0.80855
447.028,24.81915,-1.87406,-2.69555,0.80632
449.528,24.89157,-1.87109,-2.70438,0.8041
452.028,24.96394,-1.86184,-2.71105,0.80188
454.528,25.03644,-1.83986,-2.71713,0.79966
457.028,25.10906,-1.81539,-2.72254,0.79745
459.528,25.18178,-1.78649,-2.73125,0.79524
462.028,25.25453,-1.74602,-2.73492,0.79303
464.528,25.32767,-1.71511,-2.74163,0.79083
467.028,25.40086,-1.68525,-2.74767,0.78863
469.528,25.47393,-1.65248,-2.75349,0.78643
472.028,25.5472,-1.61346,-2.75817,0.78424
474.528,25.62058,-1.57619,-2.76449,0.78206
477.028,25.69412,-1.55526,-2.76931,0.77988
479.528,25.76774,-1.52417,-2.77482,0.7777
482.028,25.84146,-1.50743,-2.77893,0.77553
484.528,25.91519,-1.47255,-2.78369,0.77336
487.028,25.98915,-1.45931,-2.79063,0.7712
489.528,26.06309,-1.44951,-2.79328,0.76905
492.028,26.13717,-1.43905,-2.79762,0.7669
494.528,26.21142,-1.42883,-2.80391,0.76475
497.028,26.28534,-1.42175,-2.80785,0.76261
499.528,26.3601,-1.42158,-2.81169,0.76048
502.028,26.4345,-1.42516,-2.81658,0.75835
504.528,26.5093,-1.42355,-2.82007,0.75623
507.028,26.5841,-1.42888,-2.82277,0.75412
509.528,26.65881,-1.42944,-2.82795,0.75201
512.028,26.7338,-1.44586,-2.83127,0.74991
514.528,26.80885,-1.43666,-2.83542,0.74781
517.028,26.88397,-1.44321,-2.84084,0.74573
519.528,26.9593,-1.45076,-2.84209,0.74365
522.028,27.0345,-1.4509,-2.84729,0.74157
524.528,27.10987,-1.46602,-2.85128,0.7395
527.028,27.1854,-1.48136,-2.85502,0.73744
529.528,27.2612,-1.50418,-2.85906,0.73539
532.028,27.33703,-1.52549,-2.86234,0.73334
534.528,27.41269,-1.56266,-2.86386,0.73131
537.028,27.4885,-1.57608,-2.86827,0.72928
539.528,27.56447,-1.60367,-2.87106,0.72725
542.028,27.64047,-1.62558,-2.87466,0.72524
544.528,27.7166,-1.63402,-2.87699,0.72323
547.028,27.79285,-1.66021,-2.87668,0.72123
549.528,27.86905,-1.68568,-2.88238,0.71924
552.028,27.94544,-1.71594,-2.88537,0.71726
554.528,28.022,-1.72764,-2.88815,0.71528
557.028,28.09849,-1.75206,-2.89174,0.71332
559.528,28.17512,-1.77253,-2.89473,0.71136
562.028,28.2518,-1.78429,-2.90281,0.70941
564.528,28.32866,-1.81052,-2.90082,0.70747
567.028,28.4055,-1.83718,-2.90381,0.70554
569.528,28.48252,-1.85252,-2.90647,0.70361
572.028,28.55957,-1.87753,-2.90778,0.7017
574.528,28.63669,-1.89622,-2.91074,0.69979
577.028,28.71392,-1.91632,-2.91496,0.6979
579.528,28.7912,-1.93214,-2.91678,0.69601
582.028,28.86866,-1.95582,-2.91952,0.69413
584.528,28.9462,-1.96594,-2.92228,0.69226
587.028,29.02378,-1.99146,-2.92363,0.6904
589.528,29.10111,-2.01009,-2.92633,0.68855
592.028,29.17918,-2.01071,-2.92808,0.68671
594.528,29.2572,-2.0325,-2.9293,0.68487
597.028,29.3351,-2.0286,-2.93126,0.68305
599.528,29.41315,-2.04005,-2.93533,0.68124
602.028,29.49118,-2.0558,-2.93663,0.67943
604.528,29.56928,-2.06152,-2.93805,0.67764
607.028,29.6475,-2.08002,-2.93937,0.67585
609.528,29.7257,-2.07863,-2.94153,0.67408
612.028,29.804,-2.09314,-2.94514,0.67231
614.528,29.88225,-2.10241,-2.94647,0.67055
617.028,29.96064,-2.11029,-2.94784,0.66881
618.228,29.9985,-2.11581,-2.94912,0.66797