File: 01_Data/MDF/STA/N2/30K_min/MDF_STA_N2_30KData_211012_R2.csv
##Temp./Â°C,Time/min,DSC(subtr.2)/mW,Mass loss(subtr.2)/mg,Sensit./(uV/mW)
49.498,10.01,0.07962281,-0.02842,1.05401
51.998,11.53704,0.49498,-0.03289376,1.05405
54.498,11.88448,0.78413,-0.03221275,1.05406
56.998,12.1395,1.00508,-0.03547055,1.05404
59.498,12.353,1.18153,-0.0330248,1.05399
61.998,12.54245,1.34597,-0.03629291,1.05391
64.498,12.7174,1.48708,-0.03689661,1.0538
66.998,12.88144,1.60546,-0.03635701,1.05366
69.498,13.03839,1.72414,-0.03610789,1.05349
71.998,13.1882,1.82829,-0.03844984,1.05328
74.498,13.33337,1.94073,-0.03545749,1.05305
76.998,13.4732,2.04475,-0.03858348,1.05279
79.498,13.6088,2.13732,-0.03952463,1.05251
81.998,13.7401,2.2384,-0.0397036,1.05219
84.498,13.867,2.32319,-0.04115745,1.05184
86.998,13.9908,2.41325,-0.04332316,1.05146
89.498,14.1101,2.48832,-0.04290451,1.05106
91.998,14.227,2.56747,-0.04490739,1.05063
94.498,14.3407,2.64126,-0.04578794,1.05017
96.998,14.45134,2.71048,-0.04820793,1.04968
99.498,14.5595,2.77996,-0.04786377,1.04916
101.998,14.66523,2.82683,-0.04631435,1.04862
104.498,14.7691,2.86202,-0.04931767,1.04805
106.998,14.87098,2.91073,-0.04923945,1.04745
109.498,14.97095,2.94843,-0.05070629,1.04682
111.998,15.0699,2.99942,-0.05089938,1.04617
114.498,15.16699,3.05409,-0.04933619,1.04549
116.998,15.26261,3.10165,-0.05115867,1.04478
119.498,15.35694,3.14332,-0.04864951,1.04405
121.998,15.45025,3.16429,-0.05459324,1.04329
124.498,15.54231,3.19021,-0.05167622,1.0425
126.998,15.63304,3.2321,-0.0500309,1.04169
129.498,15.7226,3.25663,-0.05174512,1.04086
131.998,15.8111,3.28719,-0.05407233,1.03999
134.498,15.8985,3.31833,-0.05440482,1.03911
136.998,15.98528,3.35395,-0.05423699,1.03819
139.498,16.07068,3.38627,-0.04829422,1.03726
141.998,16.1554,3.41938,-0.05823627,1.0363
144.498,16.23978,3.44808,-0.05739777,1.03531
146.998,16.32239,3.49488,-0.05573862,1.0343
149.498,16.40554,3.53061,-0.0546013,1.03327
151.998,16.48751,3.57565,-0.05569943,1.03221
154.498,16.56876,3.61981,-0.05592466,1.03113
156.998,16.64951,3.65437,-0.05685774,1.03002
159.498,16.72973,3.70297,-0.05814432,1.0289
161.998,16.80924,3.74243,-0.05883325,1.02775
164.498,16.88842,3.78994,-0.0571569,1.02657
166.998,16.9671,3.83507,-0.05888015,1.02538
169.498,17.04526,3.88229,-0.05797957,1.02416
171.998,17.12282,3.92015,-0.057477,1.02292
174.498,17.2,3.96978,-0.0588,1.02166
176.998,17.27675,4.02438,-0.05748012,1.02038
179.498,17.3531,4.05394,-0.05816173,1.01907
181.998,17.4289,4.10347,-0.05946073,1.01775
184.498,17.50423,4.15231,-0.05946,1.0164
186.998,17.57915,4.19368,-0.05947131,1.01504
189.498,17.6536,4.24196,-0.06011488,1.01365
191.998,17.7275,4.28415,-0.06147676,1.01224
194.498,17.80102,4.33786,-0.06142967,1.01082
196.998,17.87451,4.38768,-0.06051451,1.00937
199.498,17.94766,4.45169,-0.06409317,1.0079
201.998,18.02054,4.50714,-0.06274889,1.00642
204.498,18.09315,4.55909,-0.06401568,1.00492
206.998,18.1653,4.60912,-0.06538003,1.00339
209.498,18.23735,4.66601,-0.06538013,1.00185
211.998,18.3092,4.73781,-0.0666835,1.00029
214.498,18.3808,4.78493,-0.06841248,0.99871
216.998,18.45212,4.83587,-0.07074753,0.99712
219.498,18.52347,4.88535,-0.07207179,0.99551
221.998,18.59434,4.93209,-0.07340997,0.99388
224.498,18.66505,4.97886,-0.07631214,0.99223
226.998,18.7354,5.02391,-0.07899373,0.99057
229.498,18.80613,5.05919,-0.07968069,0.98888
231.998,18.87615,5.09407,-0.08327906,0.98719
234.498,18.94631,5.12598,-0.08703829,0.98548
236.998,19.0162,5.15006,-0.0908723,0.98375
239.498,19.08602,5.17365,-0.09564728,0.982
241.998,19.15558,5.19869,-0.09838309,0.98024
244.498,19.2251,5.20414,-0.1025,0.97847
246.998,19.2943,5.20386,-0.10755,0.97668
249.498,19.3637,5.21254,-0.11217,0.97487
251.998,19.43274,5.21587,-0.11977,0.97305
254.498,19.50171,5.22014,-0.12234,0.97122
256.998,19.57072,5.19726,-0.13007,0.96938
259.498,19.63928,5.18667,-0.13671,0.96751
261.998,19.70794,5.18369,-0.14549,0.96564
264.498,19.77658,5.15432,-0.14873,0.96375
266.998,19.8452,5.12958,-0.15973,0.96185
269.498,19.91398,5.09845,-0.16879,0.95994
271.998,19.98238,5.05049,-0.17714,0.95802
274.498,20.05079,5.02055,-0.19114,0.95608
276.998,20.11908,4.93786,-0.20076,0.95413
279.498,20.18735,4.86832,-0.21326,0.95217
281.998,20.2555,4.77845,-0.22954,0.9502
284.498,20.32364,4.67499,-0.24567,0.94821
286.998,20.39181,4.55075,-0.26024,0.94622
289.498,20.45978,4.42602,-0.2803,0.94421
291.998,20.52775,4.28995,-0.30067,0.9422
294.498,20.59573,4.12828,-0.32164,0.94017
296.998,20.66364,3.96245,-0.34226,0.93814
299.498,20.73154,3.80731,-0.37047,0.93609
301.998,20.79941,3.65175,-0.39232,0.93404
304.498,20.86732,3.50891,-0.42152,0.93197
306.998,20.93511,3.35242,-0.44706,0.9299
309.498,21.00252,3.22479,-0.47764,0.92781
311.998,21.07038,3.10992,-0.5056,0.92572
314.498,21.13834,3.01902,-0.53539,0.92362
316.998,21.20618,2.94952,-0.57113,0.92152
319.498,21.27403,2.89691,-0.59996,0.9194
321.998,21.34181,2.86777,-0.63513,0.91728
324.498,21.4096,2.85189,-0.6703,0.91515
326.998,21.47764,2.85729,-0.70803,0.91301
329.498,21.54566,2.88855,-0.74333,0.91087
331.998,21.61366,2.9604,-0.78206,0.90872
334.498,21.6816,3.03992,-0.82408,0.90656
336.998,21.7497,3.12526,-0.86315,0.9044
339.498,21.81798,3.2407,-0.90682,0.90223
341.998,21.88624,3.36525,-0.95021,0.90005
344.498,21.95457,3.49498,-0.99299,0.89787
346.998,22.0229,3.64231,-1.0396,0.89568
349.498,22.0913,3.77979,-1.08935,0.89349
351.998,22.15975,3.92408,-1.13384,0.8913
354.498,22.2283,4.1092,-1.19125,0.8891
356.998,22.2969,4.27906,-1.24403,0.88689
359.498,22.36555,4.47892,-1.30168,0.88468
361.998,22.43429,4.67918,-1.36073,0.88247
364.498,22.50307,4.87794,-1.4254,0.88025
366.998,22.57196,5.10223,-1.49136,0.87803
369.498,22.64091,5.31058,-1.56207,0.87581
371.998,22.70984,5.53143,-1.63449,0.87358
374.498,22.77897,5.7234,-1.71604,0.87135
376.998,22.84824,5.89646,-1.79771,0.86912
379.498,22.9174,6.00772,-1.88127,0.86688
381.998,22.9867,6.05416,-1.97114,0.86464
384.498,23.05623,5.99202,-2.06361,0.86241
386.998,23.12586,5.79344,-2.15352,0.86016
389.498,23.19555,5.42014,-2.2393,0.85792
391.998,23.26521,4.87461,-2.32434,0.85568
394.498,23.33501,4.13742,-2.40161,0.85343
396.998,23.40535,3.29098,-2.46354,0.85119
399.498,23.47578,2.42605,-2.51255,0.84894
401.998,23.5464,1.68787,-2.55231,0.84669
404.498,23.6172,1.11219,-2.57289,0.84444
406.998,23.68788,0.70181,-2.59205,0.84219
409.498,23.7586,0.42739,-2.60381,0.83995
411.998,23.82936,0.22597,-2.61576,0.8377
414.498,23.90016,0.06376607,-2.62395,0.83545
416.998,23.9711,-0.07342298,-2.63475,0.8332
419.498,24.0423,-0.18425,-2.64299,0.83096
421.998,24.1132,-0.27153,-2.65369,0.82871
424.498,24.18457,-0.3611,-2.66035,0.82647
426.998,24.25575,-0.4503,-2.66828,0.82422
429.498,24.32721,-0.53536,-2.67671,0.82198
431.998,24.39875,-0.59225,-2.68491,0.81974
434.498,24.47029,-0.64871,-2.69108,0.8175
436.998,24.5418,-0.69211,-2.69849,0.81527
439.498,24.61285,-0.7338,-2.70662,0.81303
441.998,24.68532,-0.74889,-2.71508,0.8108
444.498,24.7574,-0.77311,-2.72019,0.80857
446.998,24.82921,-0.77398,-2.7305,0.80635
449.498,24.9015,-0.76795,-2.73472,0.80412
451.998,24.97409,-0.76417,-2.74228,0.8019
454.498,25.04652,-0.75466,-2.7483,0.79969
456.998,25.1192,-0.73494,-2.75469,0.79747
459.498,25.19187,-0.70572,-2.76184,0.79526
461.998,25.26471,-0.68165,-2.76694,0.79306
464.498,25.33765,-0.65232,-2.77392,0.79085
466.998,25.4107,-0.62355,-2.78094,0.78865
469.498,25.48374,-0.59954,-2.78639,0.78646
471.998,25.55696,-0.56536,-2.79226,0.78427
474.498,25.6303,-0.53435,-2.79793,0.78208
476.998,25.7038,-0.51138,-2.80226,0.7799
479.498,25.77734,-0.48903,-2.80705,0.77773
481.998,25.85117,-0.45833,-2.81227,0.77556
484.498,25.92504,-0.44699,-2.81582,0.77339
486.998,25.99896,-0.4302,-2.82273,0.77123
489.498,26.07326,-0.42916,-2.82763,0.76907
491.998,26.14736,-0.42591,-2.83062,0.76692
494.498,26.22155,-0.41315,-2.83733,0.76478
496.998,26.29601,-0.41393,-2.8412,0.76264
499.498,26.3704,-0.42116,-2.84806,0.76051
501.998,26.44492,-0.42204,-2.8485,0.75838
504.498,26.51965,-0.41879,-2.8529,0.75626
506.998,26.59403,-0.43848,-2.85736,0.75414
509.498,26.66868,-0.44102,-2.86062,0.75204
511.998,26.74401,-0.45453,-2.86698,0.74993
514.498,26.81891,-0.46302,-2.87009,0.74784
516.998,26.89402,-0.47096,-2.87325,0.74575
519.498,26.96926,-0.47955,-2.8769,0.74367
521.998,27.0446,-0.4935,-2.88196,0.7416
524.498,27.12,-0.51377,-2.88585,0.73953
526.998,27.19561,-0.53224,-2.8882,0.73747
529.498,27.27125,-0.56457,-2.89389,0.73541
531.998,27.34698,-0.60089,-2.8968,0.73337
534.498,27.42285,-0.62819,-2.90001,0.73133
536.998,27.4988,-0.65227,-2.90291,0.7293
539.498,27.57487,-0.67803,-2.9063,0.72728
541.998,27.6508,-0.70465,-2.90893,0.72526
544.498,27.72703,-0.72993,-2.916,0.72326
546.998,27.8034,-0.77739,-2.90863,0.72126
549.498,27.8796,-0.79989,-2.91821,0.71927
551.998,27.95605,-0.83172,-2.92009,0.71728
554.498,28.03257,-0.85446,-2.92367,0.71531
556.998,28.109,-0.88059,-2.92861,0.71334
559.498,28.1856,-0.91261,-2.92916,0.71138
561.998,28.2622,-0.93232,-2.93952,0.70943
564.498,28.3389,-0.95993,-2.93456,0.70749
566.998,28.41572,-0.99226,-2.93892,0.70556
569.498,28.4924,-1.01183,-2.94188,0.70364
571.998,28.56942,-1.04689,-2.94383,0.70172
574.498,28.6466,-1.0747,-2.94612,0.69982
576.998,28.72372,-1.09867,-2.95018,0.69792
579.498,28.80081,-1.13158,-2.95235,0.69603
581.998,28.8783,-1.15946,-2.95531,0.69415
584.498,28.9558,-1.18969,-2.95791,0.69228
586.998,29.03332,-1.2227,-2.95946,0.69042
589.498,29.11082,-1.24397,-2.96072,0.68857
591.998,29.1886,-1.24979,-2.96334,0.68673
594.498,29.26655,-1.28297,-2.96736,0.6849
596.998,29.34419,-1.2853,-2.9676,0.68307
599.498,29.4222,-1.30932,-2.97241,0.68126
601.998,29.50007,-1.33736,-2.9724,0.67945
604.498,29.57783,-1.35118,-2.97463,0.67766
606.998,29.6559,-1.37395,-2.97564,0.67587
609.498,29.73405,-1.3935,-2.97928,0.6741
611.998,29.8125,-1.4002,-2.98115,0.67233
614.498,29.89087,-1.40728,-2.98116,0.67058
616.998,29.96915,-1.43312,-2.98377,0.66883
617.898,29.9974,-1.44121,-2.9838,0.6682