File: 01_Data/Vinyl_Plan_Flooring/Cone/Vinyl_Plan_Flooring_Cone_HF25Scalar_220311_R3.csv
LABORATORY,FSRI
TEST IDENT,VinylPF_HF25_3
OPERATOR,Dow
MATERIAL,Vinyl Plan Flooring
ORIENTATION,Horizontal
HEAT FLUX,25
SURF AREA,0.01
C FACTOR,0.0377281
SPEC HOLDER DIFF,-566
SPECIMEN MASS,16.5
SCAN TIME,0.25
O2 DELAY TIME,11
CO DELAY TIME,11
CO2 DELAY TIME,8
FLOW FACTOR,1
SCAN COUNT,925
TIME TO IGN,24.5
END OF TEST SCAN,445
END OF TEST TIME,111.25
TEST STATUS,1
PRE TEST CMT,Dimensions: 100.77 x 102.05 x 2.32 mm