File: 01_Data/Vinyl_Plan_Flooring/Cone/Vinyl_Plan_Flooring_Cone_HF75Scalar_220311_R1.csv
LABORATORY,FSRI
TEST IDENT,VinylPF_HF75_1
OPERATOR,Dow
MATERIAL,Vinyl Plan Flooring
ORIENTATION,Horizontal
HEAT FLUX,75
SURF AREA,0.01
C FACTOR,0.0377281
SPEC HOLDER DIFF,-566
SPECIMEN MASS,16.35
SCAN TIME,0.25
O2 DELAY TIME,11
CO DELAY TIME,11
CO2 DELAY TIME,8
FLOW FACTOR,1
SCAN COUNT,736
TIME TO IGN,4.5
END OF TEST SCAN,256
END OF TEST TIME,64
TEST STATUS,1
PRE TEST CMT,Dimensions: 101.46 x 101.53 x 2.29 mm