File: 01_Data/Vinyl_Plan_Flooring/Cone/Vinyl_Plan_Flooring_Cone_HF25Scan_220311_R1.csv
Names,Time,Stack TC,Smoke TC,Exh Press,Smoke Comp,Smoke Meas,CO Meter,CO2 Meter,O2 Meter,Sample Mass,Ext Coeff,Start Test,Flame Verif
Chan Gain,,500,500,1,1,1,1,1,1,1,1,1.0,1.0
Offset,,0,0,0.136191,0,0,0,0,0,0,0,0.0,0.0
Gain,,1,1,25.011,13.291,13.2919,1,1,1,1.00093,1.00758,1.0,1.0
Units,sec,C,C,Pa,%,%,%,%,%,g,/m,,
Baseline,,18.0558,18.6609,176.195,99.6913,96.6602,0.000551276,0.0407727,21.0845,-1.05352,0.272938,,
11,2.5,16.7254,16.6889,175.111,99.6338,96.8632,0.000469516,0.0495109,21.0746,488.473,0.249253,0.0,0.0
22,5.25,16.3784,17.0888,176.3,99.8552,97.5832,0.000626963,0.0518354,21.0734,488.373,0.203423,0.0,0.0
33,8,16.6514,17.31,175.495,100.077,97.6838,0.000751616,0.0510945,21.074,488.343,0.213896,0.0,0.0
44,10.75,16.8948,17.2371,179.648,100.258,97.9248,0.000824632,0.0488861,21.0763,488.263,0.208156,0.0,0.0
55,13.5,16.3613,17.902,180.308,100.383,98.1008,0.000752684,0.0467032,21.0776,488.283,0.203251,0.0,0.0
66,16.25,17.1684,17.3037,177.548,100.498,97.9564,0.000598289,0.044648,21.0805,488.273,0.226372,0.0,0.0
77,19,16.5984,17.1824,176.15,100.551,97.3151,0.000512594,0.0431898,21.0827,488.293,0.289134,0.0,0.0
88,21.75,17.065,17.693,179.871,100.558,95.7668,0.000531832,0.0422056,21.0827,488.323,0.431457,0.0,0.0
99,24.5,16.6946,17.4794,171.194,100.506,92.5189,0.000887232,0.0429269,21.0774,488.303,0.731848,0.0,0.0
110,27.25,17.3638,17.5265,175.018,100.421,94.0753,0.00800752,0.0643062,21.037,488.183,0.576941,0.0,1.0
121,30,18.4544,18.8236,148.864,100.299,72.5822,0.0283992,0.169613,20.8452,487.392,2.85865,0.0,1.0
132,32.75,20.3927,20.658,153.319,100.165,50.2896,0.0467633,0.326025,20.615,486.521,6.08981,0.0,0.0
143,35.5,22.7568,23.4117,159.057,100.01,48.0822,0.0469781,0.38206,20.5403,485.961,6.4729,0.0,0.0
154,38.25,24.2974,25.1537,155.571,99.8788,48.0367,0.040539,0.366597,20.5496,485.57,6.46963,0.0,0.0
165,41,25.715,26.9275,158.529,99.7936,51.7102,0.0370556,0.367743,20.5433,485.14,5.8108,0.0,0.0
176,43.75,27.9329,28.8419,157.301,99.9319,56.5514,0.0358396,0.382155,20.52,484.719,5.03204,0.0,0.0
187,46.5,29.427,30.3122,155.742,100.156,57.9042,0.0352861,0.396172,20.5109,484.209,4.84288,0.0,0.0
198,49.25,31.0835,31.6719,149.066,100.293,58.8721,0.0343139,0.396627,20.5138,483.769,4.7085,0.0,0.0
209,52,32.1756,33.084,152.277,100.362,57.6775,0.0328939,0.38529,20.5351,483.268,4.89572,0.0,0.0
220,54.75,32.4795,33.8827,159.507,100.361,57.4045,0.0316751,0.37431,20.5536,482.838,4.93762,0.0,0.0
231,57.5,33.7765,35.5181,156.897,100.3,57.2098,0.0306372,0.36945,20.5652,482.447,4.96222,0.0,0.0
242,60.25,34.7168,36.4106,158.296,100.164,56.8184,0.0291717,0.366028,20.5753,482.047,5.01092,0.0,0.0
253,63,35.8439,37.8016,152.896,99.9854,58.2819,0.0271184,0.354742,20.5981,481.637,4.77038,0.0,0.0
264,65.75,36.0265,38.3266,168.128,99.7433,56.0825,0.0246161,0.341804,20.6218,481.256,5.08893,0.0,0.0
275,68.5,36.7488,38.9941,161.286,99.5522,53.8698,0.0229718,0.33496,20.6301,480.936,5.42778,0.0,0.0
286,71.25,36.7312,38.6784,156.519,99.6005,56.9567,0.0219665,0.334169,20.6303,480.586,4.93957,0.0,0.0
297,74,37.7607,39.6481,158.659,99.6196,56.689,0.020876,0.334186,20.6302,480.165,4.98291,0.0,0.0
308,76.75,36.7821,40.1326,162.94,99.6512,61.4779,0.0187445,0.328025,20.6432,479.965,4.26893,0.0,0.0
319,79.5,37.9352,40.1618,159.841,99.6954,65.2402,0.0159345,0.31309,20.6681,479.785,3.74787,0.0,0.0
330,82.25,37.9886,40.2687,160.096,99.7453,68.0841,0.0130771,0.296315,20.6992,479.615,3.37518,0.0,0.0
341,85,37.8031,40.2115,158.942,99.7696,75.9815,0.0105655,0.274807,20.7408,479.405,2.40736,0.0,0.0
352,87.75,37.2733,40.0642,170.739,99.8005,82.4372,0.0084435,0.247934,20.7872,479.304,1.68934,0.0,0.0
363,90.5,37.2011,39.7032,160.708,99.8212,82.5236,0.00670415,0.227002,20.8149,479.204,1.68192,0.0,0.0
374,93.25,36.57,39.5295,165.224,99.8427,83.3405,0.00571571,0.215637,20.8315,479.124,1.59675,0.0,0.0
385,96,36.7069,39.3651,166.841,99.8455,86.339,0.00496222,0.204592,20.8466,479.004,1.2846,0.0,0.0
396,98.75,35.9306,38.8917,165.47,99.8573,88.5055,0.0042676,0.19335,20.8667,478.964,1.06659,0.0,0.0
407,101.5,35.051,37.9134,164.663,99.8613,90.109,0.0039766,0.180436,20.8866,478.894,0.908258,0.0,0.0
418,104.25,35.2735,38.0543,172.945,99.8682,92.5943,0.00389674,0.168084,20.9014,478.844,0.668393,0.0,0.0
429,107,34.8737,37.9376,175.05,99.8731,93.4689,0.0039581,0.153508,20.9278,478.814,0.585738,0.0,0.0
440,109.75,34.1726,36.9249,170.531,99.893,94.446,0.00398934,0.135715,20.9543,478.764,0.495574,0.0,0.0
451,112.5,33.4418,36.4604,174.044,99.8848,95.5473,0.00388171,0.11945,20.9762,478.644,0.39239,0.0,0.0
462,115.25,32.7529,36.0933,166.653,99.8844,95.7461,0.00377436,0.105779,20.9959,478.704,0.373988,0.0,0.0
473,118,32.0297,34.7112,171.381,99.8844,94.9847,0.00359957,0.0936768,21.0126,478.694,0.444553,0.0,0.0
484,120.75,31.7519,34.039,169.436,99.8917,96.1254,0.00335808,0.0828806,21.0278,478.674,0.339693,0.0,0.0
495,123.5,30.8668,33.701,173.916,99.8958,96.6373,0.00319022,0.0751454,21.0374,478.644,0.293107,0.0,0.0
506,126.25,30.3286,32.6268,169.86,99.8942,96.1984,0.00314601,0.0703366,21.0414,478.644,0.333197,0.0,0.0
517,129,29.8434,32.1225,175.534,99.8897,96.7764,0.00317207,0.0668142,21.0473,478.604,0.279853,0.0,0.0
528,131.75,28.7779,31.7888,177.125,99.8966,97.1017,0.00310069,0.063852,21.0507,478.624,0.250802,0.0,0.0
539,134.5,28.3109,30.5444,176.891,99.9011,96.2381,0.0028794,0.0606295,21.0558,478.624,0.330155,0.0,0.0
550,137.25,27.7379,29.6585,170.942,99.8913,96.6178,0.00268638,0.0584043,21.0576,478.604,0.294493,0.0,0.0
561,140,26.8527,29.6755,169.218,99.8966,96.5651,0.00262971,0.0570003,21.0593,478.594,0.299785,0.0,0.0
572,142.75,26.6556,29.1106,170.528,99.8925,96.8182,0.00256515,0.0557965,21.0617,478.554,0.276289,0.0,0.0
583,145.5,25.8876,28.5442,161.612,99.9007,96.591,0.00251965,0.0547085,21.063,478.554,0.297768,0.0,0.0
594,148.25,25.6312,28.138,173.773,99.9108,97.1374,0.00233363,0.0537842,21.0653,478.574,0.248809,0.0,0.0
605,151,24.977,27.8888,175.88,99.9055,96.9302,0.00212,0.052841,21.0668,478.574,0.267223,0.0,0.0
616,153.75,25.1258,27.6458,177.104,99.8966,96.7509,0.00193679,0.0520742,21.0686,478.574,0.282798,0.0,0.0
627,156.5,24.677,27.0038,171.114,99.9047,96.7387,0.00164299,0.0513611,21.0687,478.594,0.284627,0.0,0.0
638,159.25,23.7932,26.6887,173.326,99.895,97.1484,0.00138906,0.0507453,21.0689,478.534,0.246414,0.0,0.0
649,162,24.5429,26.6335,175.588,99.8934,96.8527,0.00114098,0.0500002,21.0703,478.384,0.273214,0.0,0.0
660,164.75,23.8618,26.0155,174.036,99.8775,97.1967,0.00100876,0.049432,21.0712,478.524,0.24048,0.0,0.0
671,167.5,23.7414,25.3629,178.371,99.8629,96.1643,0.00121272,0.0489422,21.0726,478.554,0.333563,0.0,0.0
682,170.25,23.2614,25.359,171.893,99.8719,97.3853,0.00141132,0.048591,21.0731,478.594,0.222842,0.0,0.0
693,173,23.4038,24.6937,171.352,99.8836,96.6413,0.00128331,0.048359,21.0733,478.584,0.29166,0.0,0.0
704,175.75,22.8782,24.6792,175.44,99.8666,96.7999,0.00101359,0.0481279,21.0739,478.474,0.275658,0.0,0.0
715,178.5,22.8995,24.0661,179.082,99.869,97.5208,0.00100812,0.0478042,21.0752,478.514,0.210303,0.0,0.0
726,181.25,22.4511,24.0171,172.979,99.8443,96.7574,0.0012372,0.0475196,21.0756,478.594,0.277573,0.0,0.0
737,184,22.1002,24.0807,178.229,99.837,96.6397,0.00133125,0.0471077,21.076,478.534,0.287679,0.0,0.0
748,186.75,21.8505,24.1395,175.26,99.8224,96.3107,0.0012012,0.0468348,21.0775,478.534,0.316525,0.0,0.0
759,189.5,22.175,23.7249,170.359,99.8078,97.4652,0.00117549,0.0466269,21.0767,478.494,0.209919,0.0,0.0
770,192.25,22.0946,23.4965,175.324,99.7684,96.6929,0.0013191,0.0463231,21.0761,478.424,0.276751,0.0,0.0
781,195,21.1404,22.7453,171.972,99.7433,96.3756,0.00113182,0.046194,21.0759,478.454,0.303565,0.0,0.0
792,197.75,21.4449,23.1469,176.091,99.7275,96.7829,0.000972565,0.0460188,21.0767,478.524,0.264892,0.0,0.0
803,200.5,21.4573,23.2046,177.23,99.6873,96.6953,0.00108886,0.0458852,21.077,478.554,0.269339,0.0,0.0
814,203.25,21.2056,23.0743,167.681,99.6654,96.5983,0.0011781,0.0458737,21.0785,478.464,0.276262,0.0,0.0
825,206,21.3902,22.8958,170.19,99.6358,96.5014,0.0011043,0.045756,21.0792,478.504,0.282511,0.0,0.0
836,208.75,21.0146,22.8338,172.394,99.6127,96.7192,0.000969111,0.0456691,21.0794,478.504,0.260532,0.0,0.0
847,211.5,21.4668,22.2705,172.552,99.5973,96.7756,0.00100974,0.0454236,21.0794,478.514,0.254012,0.0,0.0
858,214.25,21.1144,21.6928,175.741,99.5786,96.6142,0.00105685,0.0454332,21.0804,478.464,0.267114,0.0,0.0
869,217,21.1713,22.1416,177.383,99.6772,97.0368,0.000902276,0.0455492,21.0814,478.524,0.237275,0.0,0.0
880,219.75,21.1465,21.7506,171.491,99.8094,96.6665,0.00101774,0.0455826,21.0817,478.444,0.28279,0.0,0.0
891,222.5,20.3018,22.1115,176.06,99.9546,97.0948,0.0012632,0.0454793,21.0818,478.494,0.25656,0.0,0.0
902,225.25,20.5336,22.2885,176.782,100.069,97.1516,0.00132107,0.045345,21.0818,478.434,0.261536,0.0,0.0
913,228,20.6669,21.7739,174.497,100.173,97.4465,0.00126527,0.0453942,21.0818,478.494,0.243914,0.0,0.0
924,230.75,20.01,20.7704,172.846,100.252,97.5869,0.00117157,0.0453788,21.0818,478.504,0.238098,0.0,0.0
935,233.5,20.4545,21.6541,174.438,100.319,97.118,0.00118353,0.045236,21.0818,478.454,0.286641,0.0,0.0
946,236.25,20.3786,21.9869,173.432,100.372,97.8587,0.00135517,0.0450929,21.0818,478.314,0.224132,0.0,0.0
957,239,20.4003,21.3804,173.017,100.397,97.7065,0.00138546,0.044875,21.0818,478.364,0.24006,0.0,0.0
968,241.75,19.8808,21.2779,177.598,100.408,97.3366,0.00123561,0.0450421,21.0813,478.424,0.274552,0.0,0.0
979,244.5,20.7106,20.7258,175.577,100.385,96.9979,,0.045337,,478.424,0.303397,0.0,0.0
990,247.25,20.3944,20.9035,175.178,100.378,96.4864,,,,478.504,0.349485,0.0,0.0
1001,250,20.072,20.7585,172.22,100.338,96.7294,,,,478.484,0.32372,0.0,0.0
1012,252.75,19.8992,20.6949,171.334,100.258,96.6113,,,,478.454,0.327506,0.0,0.0
1014,253.25,20.2009,21.1933,176.891,100.245,96.2783,,,,478.434,0.356846,0.0,0.0