File: 01_Data/Vinyl_Plan_Flooring/Cone/Vinyl_Plan_Flooring_Cone_HF50Scan_220311_R1.csv
Names,Time,Stack TC,Smoke TC,Exh Press,Smoke Comp,Smoke Meas,CO Meter,CO2 Meter,O2 Meter,Sample Mass,Ext Coeff,Start Test,Flame Verif
Chan Gain,,500,500,1,1,1,1,1,1,1,1,1.0,1.0
Offset,,0,0,0.136191,0,0,0,0,0,0,0,0.0,0.0
Gain,,1,1,25.011,13.291,13.2919,1,1,1,1.00093,1.00758,1.0,1.0
Units,sec,C,C,Pa,%,%,%,%,%,g,/m,,
Baseline,,27.3259,28.4821,168.852,100.392,94.165,0.000550325,0.0417386,21.0837,-1.39609,0.566044,,
8,1.75,25.5992,27.0914,163.195,99.9011,93.7727,0.000570067,0.0417313,21.0852,487.432,0.559531,0.0,0.0
16,3.75,25.384,26.6257,170.653,99.6946,93.4887,0.000681446,0.0418374,21.0838,487.472,0.568051,0.0,0.0
24,5.75,25.4723,26.5541,164.883,99.6265,93.967,0.00127252,0.0418409,21.0806,487.442,0.516909,0.0,0.0
32,7.75,25.0721,26.3982,169.493,99.6549,92.1258,0.00661436,0.0454328,21.0681,487.392,0.694326,0.0,0.0
40,9.75,26.1784,27.056,156.64,99.6812,73.3387,0.0262469,0.122595,21.0039,486.942,2.7124,0.0,1.0
48,11.75,29.3455,29.6177,136.742,99.7133,42.787,0.0568174,0.326412,20.6196,485.951,7.47786,0.0,1.0
56,13.75,32.1229,32.4558,141.253,99.7709,33.9498,0.072431,0.479421,20.3725,485.27,9.52775,0.0,0.0
64,15.75,34.2549,35.3692,153.094,99.8272,24.4084,0.0707642,0.513754,20.2962,484.81,12.449,0.0,0.0
72,17.75,35.4969,36.704,146.931,99.8848,37.366,0.0631746,0.506721,20.2908,484.359,8.69041,0.0,0.0
80,19.75,37.6058,39.2473,142.728,99.9315,36.8716,0.0575442,0.506316,20.2895,483.949,8.81228,0.0,0.0
88,21.75,38.6543,40.3717,143.481,99.9741,39.9593,0.0551838,0.520544,20.2706,483.488,8.10526,0.0,0.0
96,23.75,41.2374,42.8189,134.511,100.039,41.0135,0.0550115,0.550461,20.232,482.968,7.88083,0.0,0.0
104,25.75,42.9419,44.6473,146.617,100.072,40.2392,0.0553441,0.581883,20.1881,482.477,8.0522,0.0,0.0
112,27.75,44.6106,46.6619,138.925,100.084,40.7032,0.0551843,0.604989,20.1655,481.927,7.95197,0.0,0.0
120,29.75,46.8288,49.1519,139.641,100.086,36.7069,0.0535666,0.614933,20.1583,481.396,8.8655,0.0,0.0
128,31.75,48.3522,51.4703,148.295,100.081,35.5107,0.0504279,0.61161,20.1698,480.936,9.15786,0.0,0.0
136,33.75,48.8445,51.6936,144.327,100.025,34.1441,0.0470789,0.599691,20.2005,480.506,9.49977,0.0,0.0
144,35.75,50.3225,53.0901,142.284,99.9599,36.367,0.0433104,0.593313,20.2231,480.105,8.93658,0.0,0.0
152,37.75,51.7516,54.6615,145.825,99.8674,38.944,0.0394864,0.591279,20.2397,479.735,8.3233,0.0,0.0
160,39.75,52.2244,55.3971,145.778,99.7575,42.6113,0.035289,0.580864,20.2736,479.355,7.51814,0.0,0.0
168,41.75,52.4397,55.8861,153.783,99.6386,49.1624,0.0311458,0.559806,20.3253,479.004,6.24364,0.0,0.0
176,43.75,52.9183,56.8537,154.661,99.5206,54.8198,0.0268352,0.532668,20.3744,478.734,5.27046,0.0,0.0
184,45.75,53.6928,57.6889,148.975,99.3786,57.9322,0.0226907,0.502613,20.4298,478.474,4.76976,0.0,0.0
192,47.75,53.4379,57.5095,153.931,99.2424,63.9357,0.0186971,0.462986,20.4994,478.314,3.88614,0.0,0.0
200,49.75,53.6022,57.5822,151.781,99.1296,67.1941,0.0152461,0.417121,20.5591,478.143,3.43674,0.0,0.0
208,51.75,53.5146,57.2461,156.318,99.0185,73.7233,0.0123566,0.373397,20.6215,478.043,2.60722,0.0,0.0
216,53.75,53.069,56.6571,156.877,98.9049,76.3262,0.00970683,0.326231,20.7023,477.953,2.2904,0.0,0.0
224,55.75,52.6493,56.9626,156.66,98.823,79.6228,0.00820178,0.283479,20.7476,477.883,1.90935,0.0,0.0
232,57.75,51.8928,56.3417,153.498,98.799,83.5413,0.00662602,0.251025,20.7874,477.813,1.48261,0.0,0.0
240,59.75,51.5815,55.5378,167.73,98.7731,86.2437,0.00551764,0.22184,20.8329,477.793,1.19892,0.0,0.0
248,61.75,50.4037,54.8518,162.868,98.7812,89.6283,0.00476048,0.194472,20.8803,477.753,0.859412,0.0,0.0
256,63.75,49.8873,54.0081,162.049,98.8083,91.4334,0.00434821,0.169611,20.9137,477.703,0.685609,0.0,0.0
264,65.75,49.2435,53.7184,163.562,98.8757,91.6528,0.004081,0.149879,20.9435,477.693,0.670441,0.0,0.0
272,67.75,48.6096,52.4916,169.247,98.9734,91.8163,0.00392209,0.132273,20.9686,477.643,0.663426,0.0,0.0
280,69.75,47.7595,51.7853,168.338,99.0988,91.9765,0.00380999,0.118421,20.9898,477.613,0.659202,0.0,0.0
288,71.75,46.1912,50.4368,165.872,99.231,92.9359,0.0036834,0.109253,21.0052,477.593,0.579277,0.0,0.0
296,73.75,46.2248,50.6964,163.088,99.3669,92.4649,0.00344815,0.100997,21.0187,477.573,0.636274,0.0,0.0
304,75.75,45.3474,49.3665,169.403,99.5433,93.4283,0.00326098,0.0950006,21.0272,477.553,0.560344,0.0,0.0
312,77.75,44.4186,48.4938,168.298,99.7064,93.2993,0.00316866,0.0900562,21.0341,477.513,0.587021,0.0,0.0
320,79.75,43.3908,46.9966,172.29,99.8893,93.3135,0.00309403,0.0860504,21.0372,477.523,0.601877,0.0,0.0
328,81.75,42.9814,47.1391,167.751,100.05,93.595,0.00302243,0.0829956,21.0389,477.523,0.589417,0.0,0.0
336,83.75,42.3269,46.6052,167.267,100.2,93.6769,0.002952,0.0805334,21.0415,477.533,0.594966,0.0,0.0
344,85.75,41.8159,45.4944,165.819,100.362,93.511,0.00285901,0.0787849,21.0426,477.503,0.624897,0.0,0.0
352,87.75,41.053,45.0998,167.522,100.494,93.8019,0.00265833,0.0775268,21.0446,477.493,0.609123,0.0,0.0
360,89.75,40.6075,44.2109,163.592,100.588,94.2878,0.00254549,0.0762967,21.0454,477.443,0.571654,0.0,0.0
368,91.75,40.2456,43.8782,166.077,100.686,95.0849,0.00259691,0.0755423,21.0457,477.433,0.505871,0.0,0.0
376,93.75,39.677,43.5458,166.885,100.744,93.9435,0.00272993,0.0753099,21.0463,477.403,0.617741,0.0,0.0
384,95.75,39.5566,43.0117,163.477,100.78,94.2327,0.00279729,0.0750229,21.047,477.413,0.593739,0.0,0.0
392,97.75,39.0276,42.5761,160.52,100.774,94.4769,0.00271714,0.0745727,21.0473,477.403,0.57026,0.0,0.0
400,99.75,38.4199,41.8767,165.15,100.766,94.0465,0.00251939,0.0740469,21.0474,477.413,0.609939,0.0,0.0
408,101.75,38.0552,41.4477,168.367,100.735,94.4846,0.00240175,0.0734309,21.0481,477.403,0.56616,0.0,0.0
416,103.75,37.4023,40.8051,166.96,100.68,94.3353,0.00244641,0.0727176,21.05,477.383,0.575293,0.0,0.0
424,105.75,38.0228,40.596,164.778,100.63,94.5012,0.00254382,0.071905,21.0509,477.363,0.555381,0.0,0.0
432,107.75,36.3609,39.5689,164.648,100.568,94.7507,0.00263059,0.0714924,21.0514,477.353,0.526663,0.0,0.0
440,109.75,37.0247,39.5957,167.289,100.475,93.9463,0.00265835,0.07148,21.0516,477.343,0.593778,0.0,0.0
448,111.75,35.9965,39.137,165.5,100.392,94.0871,0.00267244,0.0711697,21.0516,477.313,0.573264,0.0,0.0
456,113.75,36.3429,38.8946,166.921,100.31,93.1983,0.00268602,0.0706509,21.0517,477.313,0.649933,0.0,0.0
464,115.75,35.836,38.7836,167.265,100.228,94.1179,0.00268707,0.0704971,21.0517,477.303,0.555895,0.0,0.0
472,117.75,35.8194,38.962,167.201,100.157,93.8773,0.0026869,0.0705121,21.0517,477.293,0.572251,0.0,0.0
480,119.75,35.2755,38.5047,162.443,100.092,93.6307,0.00259033,0.0699602,21.053,477.283,0.589808,0.0,0.0
488,121.75,35.2983,38.4202,163.421,100.044,93.7074,0.0024971,0.0691802,21.0542,477.253,0.578346,0.0,0.0
496,123.75,34.8567,37.9559,164.348,99.9749,93.4851,0.00245805,0.0684158,21.0559,477.263,0.593208,0.0,0.0
504,125.75,34.6961,37.599,166.943,100.123,93.8741,0.00245937,0.0678735,21.0563,477.203,0.569585,0.0,0.0
512,127.75,34.1098,37.6839,161.956,100.269,93.6709,0.00242418,0.0673016,21.0568,477.203,0.60162,0.0,0.0
520,129.75,34.6006,37.4441,163.404,100.38,94.4197,0.00235473,0.0666642,21.0573,477.203,0.541003,0.0,0.0
528,131.75,34.4665,36.2328,167.855,100.472,95.0768,0.00235169,0.0661095,21.0575,477.172,0.487842,0.0,0.0
536,133.75,34.3355,36.5634,165.555,100.527,94.2611,0.00239936,0.0655524,21.0575,477.172,0.568781,0.0,0.0
544,135.75,33.7977,36.8701,166.819,100.54,94.5462,0.00238978,0.0651355,21.0571,477.142,0.543259,0.0,0.0
552,137.75,33.5591,36.535,172.163,100.522,94.3905,0.00229679,0.0648284,21.0576,477.142,0.556228,0.0,0.0
560,139.75,33.7877,36.3482,167.815,100.486,94.7393,0.0022525,0.0644078,21.0585,477.142,0.52052,0.0,0.0
568,141.75,33.9718,36.3631,164.973,100.392,94.1053,0.00229022,0.0639111,21.0589,477.122,0.571585,0.0,0.0
576,143.75,33.5372,35.9683,168.742,100.27,93.5832,0.00233743,0.0632996,21.0597,477.132,0.609999,0.0,0.0
584,145.75,33.5186,35.5001,170.15,100.13,93.971,0.00229236,0.0626923,21.0607,477.142,0.561071,0.0,0.0
592,147.75,33.485,35.6459,168.518,99.94,93.4948,0.0021405,0.0619804,21.0612,477.122,0.589203,0.0,0.0
600,149.75,33.1185,34.9961,164.958,99.7222,94.072,0.00196722,0.0612888,21.0622,477.102,0.515521,0.0,0.0
608,151.75,33.0745,35.4451,168.6,99.6877,93.7698,0.0018924,0.0608059,21.0641,477.102,0.540904,0.0,0.0
616,153.75,33.0521,35.4095,171.711,99.7287,93.4616,0.00183279,0.0601156,21.0658,477.112,0.57364,0.0,0.0
624,155.75,33.1542,35.1976,165.764,99.7534,93.8607,0.00173807,0.0595802,21.0665,477.082,0.538167,0.0,0.0
632,157.75,32.9143,34.9477,168.268,99.8118,93.3662,0.00172784,0.0590254,21.0668,477.092,0.590025,0.0,0.0
640,159.75,32.9225,35.1307,168.931,99.8601,93.8919,0.00174622,0.0584712,21.0669,477.082,0.544673,0.0,0.0
648,161.75,32.5802,34.3989,167.118,99.925,94.2891,0.00177731,0.0580129,21.067,477.092,0.513111,0.0,0.0
656,163.75,32.2397,34.6827,165.952,99.9773,94.0242,0.00176453,0.0575698,21.0678,477.102,0.542602,0.0,0.0
664,165.75,31.9272,34.7118,162.058,100.008,94.0684,0.00166057,0.0570665,21.0685,477.082,0.541172,0.0,0.0
672,167.75,32.3948,34.465,175.69,100.056,94.6517,0.00157398,0.0564579,21.0685,477.052,0.4908,0.0,0.0
680,169.75,31.4967,34.4066,174.332,100.086,94.2392,0.00151218,0.0560673,21.0685,477.042,0.532021,0.0,0.0
688,171.75,32.2191,33.6629,167.953,100.091,94.8533,0.0014546,0.0557322,21.0686,477.032,0.47504,0.0,0.0
696,173.75,31.9669,34.2564,166.808,100.072,94.6687,0.00136441,0.0553691,21.07,477.032,0.490607,0.0,0.0
704,175.75,31.1635,33.419,168.03,100.028,94.3609,0.0012299,0.0551857,21.071,477.012,0.515492,0.0,0.0
712,177.75,31.2444,33.8526,166.581,99.9603,94.7685,0.00114371,0.0547828,21.0718,477.022,0.471403,0.0,0.0
720,179.75,31.923,33.5991,164.903,99.8686,94.6432,0.00111169,0.05435,21.0723,477.012,0.474991,0.0,0.0
728,181.75,30.9523,32.7817,169.985,99.7871,94.2635,0.00112297,0.0539445,21.0724,477.022,0.503301,0.0,0.0
736,183.75,31.6568,33.1866,171.987,99.6837,93.9224,0.00116902,0.0535262,21.0725,477.022,0.526179,0.0,0.0
744,185.75,30.7791,32.6761,170.233,99.5725,93.666,0.00114502,0.0531896,21.0726,477.012,0.540476,0.0,0.0
752,187.75,31.7466,33.2553,164.555,99.4577,93.969,,0.0528158,,477.002,0.501736,0.0,0.0
760,189.75,31.95,33.6456,168.38,99.3162,93.595,,,,477.012,0.524395,0.0,0.0
768,191.75,31.2897,33.2229,165.245,99.1925,93.6717,,,,476.992,0.506142,0.0,0.0
776,193.75,31.7263,33.024,165.049,99.0687,93.7581,,,,477.002,0.486963,0.0,0.0
784,195.75,31.6869,32.8183,166.303,98.9609,93.6733,,,,476.992,0.485327,0.0,0.0
790,197.25,31.1578,32.8022,164.837,98.8887,92.9103,,,,476.992,0.551164,0.0,0.0