File: 01_Data/Vinyl_Plan_Flooring/Cone/Vinyl_Plan_Flooring_Cone_HF50Scalar_220311_R3.csv
LABORATORY,FSRI
TEST IDENT,VinylPF_HF50_3
OPERATOR,Dow
MATERIAL,Vinyl Plan Flooring
ORIENTATION,Horizontal
HEAT FLUX,50
SURF AREA,0.01
C FACTOR,0.0377281
SPEC HOLDER DIFF,-566
SPECIMEN MASS,16.2
SCAN TIME,0.25
O2 DELAY TIME,11
CO DELAY TIME,11
CO2 DELAY TIME,8
FLOW FACTOR,1
SCAN COUNT,756
TIME TO IGN,8.25
END OF TEST SCAN,276
END OF TEST TIME,69
TEST STATUS,1
PRE TEST CMT,Dimensions: 99.71 x 100.93 x 2.32 mm