File: 01_Data/PEX_Pipe/MCC/PEX_Pipe_MCC_30K_min_220128_R2.txt
Sample ID:	C:\MCC\MCC Cal\Test\PEX_Pipe_MCC_30K_min_220128_R2.txt
Sample Weight (mg):	4.46
Heating Rate (C/s):	0.5
Combustor Temp (C):	900
N2 Flow Rate (cc/min):	80
O2 Flow Rate (cc/min):	20
Calibration File:	C:\MCC\MCC Cal\Coeff1 JN10440_30_210304.txt.txt
T Correction Coefficients:	0	1.024463	0
Time Shift (s):	14
*
Time (s)	Temperature (C)	N2 flow rate (cc/min)	O2 flow rate (cc/min)	Flow Rate (cc/min)	Oxygen (%)	HRR (W/g)	Heating rate (C/s)
0.000	110.455	80.005	19.991	103.733	19.978	0.473	-0.011
8.000	110.457	80.006	19.995	103.741	19.981	0.323	0.020
16.000	110.462	80.008	19.996	103.786	19.973	0.900	0.001
24.000	110.681	80.009	19.993	103.831	19.968	1.263	0.024
32.000	111.212	80.008	19.993	103.887	19.953	2.341	0.112
40.000	112.122	80.008	19.994	103.923	19.947	2.791	0.134
48.000	113.439	80.008	19.993	103.942	19.943	3.048	0.199
56.001	115.199	80.007	19.995	103.948	19.940	3.243	0.236
64.000	117.221	80.006	19.995	103.969	19.934	3.693	0.268
72.000	119.562	80.009	19.993	103.978	19.935	3.642	0.301
80.000	122.269	80.008	19.994	103.982	19.932	3.852	0.346
88.000	125.179	80.006	19.994	103.994	19.926	4.307	0.389
96.001	128.285	80.007	19.994	103.999	19.926	4.270	0.385
104.001	131.589	80.008	19.994	103.995	19.928	4.155	0.437
112.000	135.002	80.009	19.993	103.980	19.929	4.097	0.451
120.001	138.560	80.008	19.994	103.982	19.928	4.117	0.456
128.000	142.197	80.009	19.994	103.981	19.932	3.871	0.484
136.000	145.897	80.008	19.996	103.983	19.930	4.029	0.494
144.000	149.747	80.007	19.994	103.999	19.929	4.051	0.498
152.000	153.480	80.007	19.994	103.986	19.929	4.063	0.454
160.000	157.384	80.005	19.996	103.982	19.930	3.991	0.508
168.000	161.324	80.007	19.993	103.983	19.934	3.679	0.445
176.000	165.293	80.008	19.993	103.977	19.930	3.995	0.477
184.000	169.306	80.009	19.994	103.977	19.932	3.885	0.517
192.000	173.206	80.008	19.993	103.953	19.933	3.761	0.521
200.000	177.128	80.008	19.994	103.979	19.934	3.684	0.493
208.000	181.122	80.010	19.994	103.974	19.934	3.728	0.497
216.000	185.060	80.009	19.993	103.959	19.932	3.842	0.505
224.000	189.087	80.008	19.994	103.941	19.937	3.502	0.516
232.000	193.032	80.007	19.994	103.940	19.940	3.250	0.496
240.000	197.002	80.008	19.994	103.939	19.938	3.398	0.530
248.000	200.916	80.008	19.995	103.938	19.937	3.520	0.485
256.000	204.808	80.006	19.996	103.947	19.939	3.368	0.469
264.000	208.788	80.008	19.994	103.941	19.938	3.436	0.504
272.000	212.706	80.011	19.992	103.940	19.936	3.588	0.482
280.000	216.661	80.008	19.994	103.940	19.939	3.318	0.515
288.000	220.590	80.008	19.992	103.937	19.945	2.936	0.498
296.000	224.585	80.011	19.994	103.919	19.939	3.344	0.491
304.000	228.509	80.008	19.992	103.935	19.938	3.428	0.486
312.000	232.499	80.006	19.994	103.939	19.936	3.570	0.488
320.000	236.507	80.008	19.994	103.936	19.941	3.232	0.518
328.000	240.526	80.008	19.994	103.938	19.939	3.329	0.502
336.000	244.567	80.006	19.994	103.939	19.935	3.647	0.493
344.000	248.644	80.005	19.994	103.919	19.939	3.355	0.502
352.000	252.755	80.009	19.994	103.908	19.935	3.663	0.513
360.000	256.773	80.009	19.994	103.905	19.941	3.199	0.498
368.000	260.809	80.008	19.993	103.903	19.937	3.510	0.483
376.000	264.810	80.010	19.994	103.909	19.941	3.213	0.508
384.000	268.818	80.008	19.993	103.900	19.939	3.357	0.527
392.000	272.876	80.007	19.992	103.908	19.940	3.251	0.466
400.000	276.857	80.008	19.993	103.903	19.937	3.521	0.490
408.000	280.813	80.006	19.994	103.903	19.936	3.582	0.488
416.000	284.768	80.007	19.996	103.899	19.940	3.287	0.453
424.000	288.750	80.007	19.993	103.900	19.941	3.195	0.517
432.000	292.824	80.008	19.993	103.899	19.935	3.606	0.534
440.000	296.783	80.009	19.995	103.898	19.938	3.413	0.474
448.000	300.766	80.009	19.995	103.898	19.937	3.492	0.469
456.000	304.794	80.011	19.995	103.900	19.936	3.526	0.515
464.000	308.747	80.009	19.993	103.900	19.936	3.547	0.484
472.000	312.832	80.007	19.995	103.904	19.939	3.313	0.540
480.000	316.850	80.006	19.995	103.901	19.937	3.474	0.482
488.000	320.865	80.009	19.994	103.900	19.933	3.764	0.489
496.000	325.023	80.007	19.996	103.899	19.934	3.726	0.557
504.000	328.984	80.006	19.996	103.895	19.932	3.875	0.513
512.000	333.065	80.009	19.994	103.879	19.928	4.110	0.503
520.000	337.108	80.008	19.994	103.892	19.929	4.034	0.511
528.000	341.155	80.008	19.994	103.895	19.926	4.266	0.517
536.000	345.192	80.009	19.995	103.898	19.925	4.393	0.515
544.000	349.281	80.011	19.994	103.899	19.923	4.501	0.498
552.000	353.417	80.009	19.993	103.879	19.920	4.713	0.506
560.000	357.537	80.008	19.993	103.886	19.915	5.055	0.505
568.000	361.687	80.008	19.995	103.883	19.907	5.630	0.511
576.000	365.813	80.008	19.994	103.879	19.900	6.189	0.510
584.000	369.922	80.008	19.994	103.875	19.894	6.610	0.503
592.000	374.058	80.008	19.994	103.866	19.886	7.201	0.516
600.000	378.116	80.008	19.993	103.862	19.878	7.789	0.515
608.001	382.188	80.009	19.994	103.867	19.869	8.391	0.484
616.000	386.310	80.011	19.995	103.861	19.862	8.907	0.515
624.000	390.350	80.010	19.995	103.860	19.853	9.555	0.509
632.000	394.468	80.007	19.996	103.858	19.847	10.030	0.511
640.000	398.540	80.009	19.994	103.859	19.842	10.368	0.501
648.000	402.640	80.009	19.993	103.863	19.834	10.959	0.508
656.000	406.667	80.009	19.993	103.859	19.836	10.810	0.517
664.000	410.684	80.009	19.993	103.863	19.835	10.925	0.483
672.000	414.669	80.008	19.994	103.862	19.824	11.721	0.466
680.000	418.769	80.010	19.995	103.858	19.809	12.777	0.520
688.000	422.878	80.008	19.994	103.859	19.798	13.584	0.503
696.000	426.960	80.007	19.994	103.854	19.769	15.717	0.496
704.000	430.987	80.011	19.995	103.851	19.742	17.660	0.494
712.000	435.056	80.007	19.995	103.850	19.696	21.016	0.509
720.000	439.083	80.007	19.994	103.858	19.640	25.058	0.473
728.000	443.098	80.007	19.994	103.830	19.540	32.300	0.496
736.000	447.125	80.008	19.996	103.819	19.408	41.884	0.501
744.000	451.109	80.008	19.994	103.820	19.225	55.203	0.516
752.000	455.214	80.007	19.995	103.801	18.983	72.773	0.513
760.000	459.309	80.010	19.995	103.752	18.647	96.963	0.551
768.000	463.383	80.011	19.992	103.678	18.117	135.384	0.507
776.000	467.489	80.009	19.994	103.672	17.558	175.857	0.497
784.000	471.544	80.011	19.993	103.608	16.846	227.115	0.458
792.000	475.703	80.009	19.994	103.459	15.898	295.162	0.497
800.000	479.774	80.007	19.993	103.268	14.748	377.119	0.515
808.000	483.874	80.009	19.993	103.041	13.431	470.607	0.485
816.000	487.901	80.008	19.995	102.740	12.056	568.425	0.517
824.000	491.949	80.008	19.994	102.527	11.055	640.335	0.501
832.000	496.007	80.009	19.995	102.429	10.955	648.623	0.489
840.000	499.997	80.009	19.995	102.570	11.990	575.783	0.507
848.000	504.032	80.009	19.993	102.857	14.131	424.027	0.508
856.000	508.073	80.008	19.994	103.343	16.720	237.312	0.551
864.000	512.295	80.010	19.993	103.825	18.616	99.529	0.613
872.000	516.494	80.011	19.994	103.946	19.501	35.195	0.566
880.000	520.537	80.008	19.996	103.908	19.787	14.388	0.485
888.000	524.852	80.008	19.995	103.898	19.872	8.244	0.491
896.000	529.150	80.009	19.994	103.883	19.904	5.902	0.550
904.000	533.462	80.009	19.996	103.841	19.915	5.105	0.515
912.000	537.809	80.008	19.994	103.649	19.917	4.909	0.558
920.000	542.087	80.010	19.995	103.872	19.926	4.300	0.533
928.000	546.361	80.009	19.993	103.905	19.925	4.334	0.545
936.000	550.649	80.009	19.995	103.900	19.928	4.124	0.562
944.000	554.876	80.010	19.994	103.897	19.929	4.056	0.544
952.000	559.023	80.012	19.993	103.891	19.928	4.160	0.513
960.000	563.177	80.008	19.995	103.893	19.926	4.276	0.506
968.000	567.307	80.009	19.996	103.864	19.930	3.996	0.541
976.000	571.351	80.009	19.995	103.868	19.932	3.871	0.527
984.000	575.506	80.008	19.994	103.881	19.931	3.900	0.514
992.001	579.586	80.006	19.995	103.892	19.934	3.700	0.479
1000.000	583.662	80.009	19.994	103.891	19.933	3.790	0.510
1008.000	587.713	80.009	19.995	103.886	19.931	3.942	0.520
1016.000	591.772	80.010	19.993	103.890	19.932	3.848	0.517
1024.000	595.884	80.009	19.994	103.889	19.934	3.698	0.507
1032.001	599.987	80.011	19.995	103.869	19.935	3.664	0.520
1040.001	604.123	80.008	19.993	103.883	19.935	3.610	0.511
1048.000	608.183	80.008	19.994	103.869	19.933	3.770	0.485
1056.001	612.328	80.009	19.995	103.870	19.938	3.438	0.485
1064.000	616.430	80.010	19.994	103.868	19.935	3.595	0.515
1072.001	620.501	80.009	19.995	103.878	19.936	3.535	0.513
1080.000	624.521	80.010	19.995	103.867	19.936	3.583	0.509
1088.000	628.480	80.010	19.996	103.863	19.935	3.633	0.499
1096.000	632.526	80.008	19.999	103.865	19.936	3.535	0.482
1104.000	636.588	80.008	19.995	103.863	19.938	3.382	0.501
1112.001	640.655	80.009	19.995	103.865	19.939	3.328	0.479
1120.000	644.623	80.009	19.993	103.882	19.939	3.308	0.457
1128.000	648.636	80.009	19.994	103.873	19.939	3.304	0.505
1136.001	652.657	80.009	19.994	103.879	19.935	3.650	0.477
1144.000	656.655	80.010	19.993	103.877	19.935	3.613	0.499
1152.000	660.657	80.010	19.996	103.895	19.939	3.361	0.506
1160.000	664.588	80.008	19.996	103.871	19.935	3.616	0.499
1168.000	668.622	80.009	19.995	103.888	19.937	3.464	0.512
1176.000	672.916	80.008	19.994	103.894	19.932	3.842	0.584
1184.000	677.360	80.008	19.995	103.896	19.934	3.699	0.596
1192.000	681.826	80.009	19.996	103.889	19.935	3.644	0.570
1200.000	686.375	80.009	19.993	103.886	19.934	3.670	0.577
1208.001	690.901	80.007	19.993	103.884	19.934	3.728	0.531
1216.000	695.375	80.008	19.994	103.883	19.934	3.702	0.527
1224.000	699.782	80.008	19.993	103.890	19.934	3.677	0.601
1232.000	704.034	80.008	19.994	103.884	19.931	3.887	0.546
1240.001	708.122	80.008	19.994	103.875	19.932	3.825	0.516
1248.000	712.187	80.010	19.994	103.865	19.932	3.819	0.516
1256.001	716.307	80.009	19.993	103.864	19.931	3.955	0.505
1264.000	720.185	80.009	19.994	103.863	19.932	3.817	0.497
1272.000	724.048	80.010	19.993	103.859	19.933	3.793	0.470
1280.000	727.935	80.009	19.995	103.868	19.931	3.923	0.492
1288.000	731.919	80.007	19.995	103.867	19.932	3.855	0.520
1296.001	735.932	80.008	19.994	103.873	19.931	3.893	0.507
1304.000	739.957	80.008	19.993	103.868	19.931	3.891	0.486
1311.000	743.519	80.009	19.994	103.872	19.935	3.640	0.534