File: 01_Data/Wood_Veneer_MDF/MCC/Wood_Veneer_MDF_MCC_30K_min_220315_R1.txt
Sample ID:	C:\MCC\MCC Cal\Test\Wood_Veneer_MDF_MCC_30K_min_220315_R1.txt
Sample Weight (mg):	4.43
Heating Rate (C/s):	0.5
Combustor Temp (C):	900
N2 Flow Rate (cc/min):	80
O2 Flow Rate (cc/min):	20
Calibration File:	C:\MCC\MCC Cal\Coeff1 JN10440_30_210304.txt.txt
T Correction Coefficients:	0	1.024463	0
Time Shift (s):	14
*
Time (s)	Temperature (C)	N2 flow rate (cc/min)	O2 flow rate (cc/min)	Flow Rate (cc/min)	Oxygen (%)	HRR (W/g)	Heating rate (C/s)
0.000	108.771	80.015	19.994	103.855	19.959	-0.121	0.026
7.999	108.734	80.015	19.993	103.882	19.950	0.566	0.036
15.999	108.796	80.013	19.994	103.932	19.944	0.979	0.027
23.999	109.150	80.013	19.993	103.981	19.930	1.998	0.077
31.999	109.938	80.014	19.993	104.038	19.924	2.467	0.127
40.000	111.089	80.014	19.993	104.039	19.916	3.052	0.132
48.000	112.626	80.012	19.992	104.064	19.916	3.028	0.271
55.999	114.490	80.014	19.994	104.099	19.912	3.328	0.250
63.999	116.730	80.015	19.993	104.108	19.910	3.503	0.293
71.999	119.290	80.015	19.994	104.104	19.910	3.483	0.358
79.999	122.124	80.015	19.994	104.100	19.912	3.336	0.387
87.999	125.218	80.017	19.993	104.105	19.908	3.632	0.425
95.999	128.450	80.016	19.994	104.111	19.909	3.580	0.400
104.000	131.961	80.013	19.995	104.110	19.909	3.514	0.439
111.999	135.609	80.014	19.993	104.102	19.910	3.458	0.464
119.999	139.348	80.013	19.993	104.101	19.908	3.653	0.463
127.999	143.275	80.013	19.993	104.100	19.909	3.515	0.496
136.000	147.181	80.012	19.994	104.099	19.912	3.350	0.451
144.000	151.254	80.015	19.993	104.097	19.912	3.309	0.524
152.000	155.222	80.017	19.992	104.095	19.914	3.210	0.490
160.000	159.260	80.014	19.993	104.091	19.912	3.329	0.481
168.000	163.296	80.014	19.993	104.091	19.914	3.156	0.494
176.000	167.384	80.016	19.994	104.067	19.910	3.478	0.511
184.000	171.375	80.013	19.993	104.067	19.905	3.814	0.505
192.000	175.338	80.012	19.994	104.075	19.902	4.078	0.517
200.000	179.289	80.013	19.995	104.061	19.901	4.158	0.498
208.000	183.243	80.014	19.994	104.073	19.896	4.471	0.487
216.000	187.191	80.015	19.993	104.059	19.885	5.282	0.479
224.000	191.132	80.015	19.993	104.060	19.882	5.532	0.512
232.000	194.995	80.014	19.994	104.060	19.874	6.119	0.479
240.000	198.940	80.015	19.993	104.059	19.863	6.893	0.463
248.000	202.898	80.015	19.994	104.063	19.860	7.118	0.477
256.000	206.833	80.017	19.992	104.064	19.857	7.377	0.494
264.000	210.805	80.015	19.994	104.057	19.852	7.714	0.488
272.000	214.825	80.014	19.995	104.056	19.847	8.119	0.484
280.000	218.781	80.015	19.993	104.057	19.846	8.179	0.481
288.000	222.759	80.014	19.995	104.062	19.845	8.213	0.521
296.000	226.762	80.014	19.994	104.056	19.841	8.516	0.509
304.000	230.807	80.013	19.994	104.058	19.836	8.889	0.530
312.000	234.782	80.015	19.993	104.061	19.833	9.125	0.514
320.000	238.792	80.014	19.993	104.062	19.828	9.445	0.517
328.000	242.761	80.015	19.992	104.062	19.820	10.045	0.504
336.000	246.752	80.015	19.993	104.081	19.806	11.123	0.514
344.000	250.769	80.018	19.993	104.091	19.796	11.850	0.535
352.000	254.675	80.015	19.994	104.074	19.786	12.583	0.474
360.000	258.687	80.013	19.995	104.092	19.770	13.738	0.525
368.000	262.682	80.016	19.994	104.094	19.752	15.077	0.532
376.000	266.569	80.016	19.993	104.092	19.736	16.246	0.452
384.000	270.433	80.013	19.993	104.099	19.713	17.943	0.479
392.000	274.275	80.014	19.995	104.100	19.692	19.487	0.476
400.000	278.059	80.034	19.996	104.115	19.667	21.291	0.495
408.000	281.804	80.014	19.994	104.124	19.649	22.652	0.455
416.000	285.673	80.011	19.993	104.134	19.624	24.456	0.485
424.000	289.594	80.014	19.993	104.136	19.603	26.026	0.524
432.000	293.465	80.015	19.994	104.135	19.576	27.972	0.477
440.000	297.387	80.012	19.993	104.139	19.551	29.833	0.476
448.000	301.355	80.012	19.993	104.143	19.529	31.456	0.491
456.000	305.252	80.012	19.995	104.146	19.501	33.509	0.504
464.000	309.243	80.012	19.994	104.151	19.478	35.199	0.519
472.000	313.258	80.012	19.995	104.172	19.444	37.645	0.481
480.000	317.341	80.015	19.994	104.176	19.411	40.066	0.532
488.000	321.439	80.016	19.993	104.181	19.373	42.886	0.526
496.000	325.516	80.013	19.994	104.211	19.326	46.355	0.484
504.000	329.661	80.015	19.994	104.231	19.278	49.892	0.498
512.000	333.734	80.017	19.993	104.252	19.219	54.201	0.531
520.000	337.738	80.014	19.994	104.253	19.165	58.227	0.491
528.000	341.736	80.014	19.993	104.288	19.118	61.641	0.509
536.000	345.696	80.015	19.994	104.288	19.075	64.792	0.517
544.000	349.757	80.017	19.993	104.284	19.058	66.047	0.498
552.000	353.877	80.014	19.994	104.248	19.078	64.525	0.512
560.000	357.957	80.014	19.994	104.187	19.151	59.153	0.500
568.000	362.043	80.015	19.994	104.118	19.287	49.113	0.489
576.000	366.141	80.016	19.994	104.053	19.454	36.839	0.515
584.000	370.230	80.014	19.994	104.008	19.614	25.155	0.508
592.000	374.299	80.016	19.995	103.979	19.729	16.697	0.546
600.000	378.371	80.016	19.994	103.972	19.791	12.152	0.514
608.000	382.407	80.013	19.994	103.977	19.826	9.633	0.514
616.000	386.366	80.014	19.994	103.976	19.837	8.796	0.484
624.000	390.416	80.015	19.994	103.975	19.853	7.640	0.521
632.000	394.516	80.015	19.994	103.967	19.855	7.525	0.525
640.000	398.592	80.014	19.994	103.963	19.865	6.781	0.501
648.000	402.688	80.016	19.994	103.981	19.868	6.566	0.535
656.000	406.734	80.016	19.994	103.962	19.875	6.052	0.534
664.000	410.800	80.015	19.995	103.967	19.875	6.033	0.527
672.000	414.833	80.016	19.994	103.960	19.880	5.681	0.525
680.000	418.870	80.017	19.993	103.953	19.881	5.578	0.518
688.000	422.903	80.013	19.994	103.948	19.885	5.326	0.489
696.000	426.924	80.011	19.994	103.949	19.891	4.838	0.504
704.000	431.017	80.015	19.993	103.956	19.895	4.576	0.497
712.000	435.186	80.014	19.994	103.950	19.897	4.397	0.541
720.000	439.336	80.013	19.994	103.947	19.899	4.261	0.498
728.000	443.521	80.015	19.994	103.946	19.902	4.076	0.516
736.000	447.680	80.016	19.994	103.943	19.910	3.468	0.521
744.000	451.842	80.015	19.993	103.941	19.914	3.199	0.549
752.000	455.964	80.016	19.994	103.939	19.914	3.205	0.511
760.000	459.993	80.017	19.994	103.937	19.922	2.598	0.491
768.000	464.010	80.015	19.994	103.938	19.927	2.227	0.503
776.000	468.055	80.014	19.994	103.939	19.926	2.293	0.523
784.000	472.025	80.013	19.994	103.941	19.929	2.084	0.497
792.000	476.104	80.013	19.994	103.941	19.931	1.902	0.507
800.000	480.114	80.014	19.995	103.933	19.935	1.603	0.493
808.000	484.197	80.014	19.993	103.937	19.939	1.315	0.510
816.000	488.293	80.017	19.994	103.933	19.939	1.361	0.537
824.000	492.406	80.016	19.994	103.937	19.946	0.827	0.540
832.000	496.497	80.016	19.994	103.935	19.944	1.014	0.488
840.000	500.617	80.017	19.993	103.930	19.947	0.723	0.510
848.000	504.685	80.017	19.992	103.932	19.946	0.825	0.497
856.000	508.876	80.014	19.994	103.932	19.950	0.536	0.531
864.000	512.909	80.015	19.996	103.922	19.951	0.470	0.507
872.000	517.028	80.015	19.996	103.925	19.951	0.480	0.510
880.000	521.068	80.015	19.993	103.906	19.947	0.749	0.503
888.000	525.084	80.014	19.995	103.923	19.950	0.576	0.507
896.000	529.098	80.015	19.995	103.928	19.953	0.337	0.496
904.000	533.148	80.017	19.994	103.918	19.954	0.271	0.490
912.000	537.191	80.016	19.994	103.916	19.952	0.390	0.490
920.000	541.214	80.016	19.994	103.920	19.953	0.301	0.482
928.000	545.328	80.017	19.992	103.910	19.950	0.544	0.532
936.000	549.476	80.015	19.995	103.922	19.954	0.231	0.501
944.000	553.655	80.015	19.993	103.913	19.954	0.213	0.550
952.000	557.829	80.015	19.995	103.913	19.960	-0.161	0.532
960.000	561.945	80.016	19.995	103.909	19.958	-0.018	0.506
968.000	566.092	80.014	19.995	103.903	19.957	0.030	0.524
976.000	570.152	80.015	19.993	103.910	19.962	-0.325	0.535
984.000	574.277	80.016	19.994	103.911	19.955	0.137	0.552
992.000	578.382	80.015	19.994	103.915	19.956	0.127	0.530
1000.000	582.418	80.017	19.994	103.907	19.960	-0.185	0.490
1008.000	586.460	80.018	19.994	103.909	19.960	-0.169	0.500
1016.000	590.523	80.017	19.995	103.915	19.957	0.024	0.498
1024.000	594.509	80.016	19.993	103.910	19.962	-0.305	0.499
1031.999	598.521	80.015	19.991	103.905	19.958	-0.018	0.486
1040.000	602.584	80.014	19.994	103.910	19.962	-0.321	0.487
1047.999	606.708	80.015	19.995	103.917	19.958	-0.026	0.534
1055.999	610.765	80.014	19.994	103.910	19.960	-0.199	0.510
1063.999	614.820	80.015	19.995	103.905	19.960	-0.165	0.498
1071.999	618.864	80.017	19.995	103.903	19.958	-0.010	0.518
1079.999	622.887	80.016	19.993	103.902	19.961	-0.251	0.543
1088.000	626.997	80.016	19.996	103.903	19.962	-0.331	0.559
1095.999	631.167	80.017	19.995	103.901	19.965	-0.564	0.533
1103.999	635.292	80.017	19.993	103.904	19.965	-0.583	0.512
1111.999	639.449	80.016	19.994	103.904	19.963	-0.442	0.495
1119.999	643.592	80.014	19.994	103.905	19.961	-0.249	0.522
1127.999	647.673	80.016	19.994	103.904	19.963	-0.400	0.506
1135.999	651.756	80.018	19.994	103.901	19.963	-0.428	0.480
1143.999	655.941	80.014	19.993	103.902	19.961	-0.261	0.531
1152.000	660.032	80.015	19.995	103.900	19.963	-0.402	0.529
1159.999	664.044	80.015	19.994	103.899	19.966	-0.629	0.496
1167.999	668.078	80.014	19.993	103.903	19.959	-0.147	0.515
1175.999	672.084	80.017	19.994	103.903	19.967	-0.689	0.488
1183.999	676.110	80.016	19.992	103.901	19.966	-0.623	0.528
1191.999	680.004	80.014	19.995	103.900	19.969	-0.814	0.492
1199.999	683.980	80.015	19.993	103.898	19.966	-0.623	0.454
1207.999	687.944	80.015	19.994	103.899	19.964	-0.458	0.515
1215.999	691.891	80.015	19.994	103.894	19.965	-0.554	0.519
1223.999	695.820	80.014	19.993	103.893	19.967	-0.677	0.478
1231.999	699.777	80.016	19.994	103.898	19.966	-0.663	0.505
1239.999	703.754	80.017	19.993	103.901	19.970	-0.932	0.484
1247.999	707.749	80.017	19.994	103.903	19.965	-0.552	0.521
1255.999	711.782	80.015	19.994	103.903	19.969	-0.838	0.509
1263.999	715.962	80.019	19.994	103.897	19.969	-0.860	0.519
1271.999	720.121	80.016	19.993	103.890	19.964	-0.486	0.520
1279.999	724.194	80.015	19.995	103.899	19.962	-0.321	0.496
1287.999	728.355	80.015	19.995	103.898	19.963	-0.428	0.537
1295.999	732.585	80.014	19.993	103.899	19.960	-0.217	0.519
1303.999	736.784	80.015	19.993	103.902	19.962	-0.345	0.520
1312.000	740.969	80.014	19.993	103.900	19.961	-0.279	0.527
1316.999	743.560	80.015	19.993	103.896	19.961	-0.263	0.529