File: 01_Data/Wood_Veneer_MDF/MCC/Wood_Veneer_MDF_MCC_30K_min_220315_R2.txt
Sample ID:	C:\MCC\MCC Cal\Test\Wood_Veneer_MDF_MCC_30K_min_220315_R2.txt
Sample Weight (mg):	4.66
Heating Rate (C/s):	0.5
Combustor Temp (C):	900
N2 Flow Rate (cc/min):	80
O2 Flow Rate (cc/min):	20
Calibration File:	C:\MCC\MCC Cal\Coeff1 JN10440_30_210304.txt.txt
T Correction Coefficients:	0	1.024463	0
Time Shift (s):	14
*
Time (s)	Temperature (C)	N2 flow rate (cc/min)	O2 flow rate (cc/min)	Flow Rate (cc/min)	Oxygen (%)	HRR (W/g)	Heating rate (C/s)
0.000	116.556	80.012	19.993	103.715	19.888	-0.263	0.018
8.000	116.485	80.014	19.993	103.716	19.885	-0.047	-0.006
16.000	116.366	80.016	19.992	103.827	19.870	0.987	0.018
24.000	116.736	80.012	19.992	103.855	19.867	1.195	0.034
32.000	117.420	80.016	19.995	103.867	19.866	1.318	0.067
40.000	118.285	80.017	19.991	103.880	19.862	1.590	0.160
48.000	119.612	80.017	19.990	103.943	19.848	2.528	0.188
56.001	121.318	80.012	19.991	103.952	19.848	2.534	0.228
64.000	123.401	80.015	19.994	103.956	19.846	2.693	0.290
72.000	125.878	80.015	19.993	103.946	19.843	2.881	0.300
80.000	128.471	80.012	19.993	103.951	19.844	2.844	0.303
88.000	131.298	80.014	19.994	103.981	19.844	2.815	0.380
96.000	134.365	80.016	19.994	103.976	19.839	3.189	0.396
104.000	137.596	80.015	19.991	103.983	19.837	3.333	0.459
112.001	141.032	80.015	19.993	103.978	19.837	3.325	0.425
120.000	144.619	80.014	19.994	103.999	19.839	3.169	0.479
128.000	148.319	80.015	19.992	103.973	19.837	3.286	0.488
136.000	152.137	80.014	19.993	103.945	19.838	3.233	0.489
144.000	155.980	80.014	19.994	103.952	19.838	3.220	0.520
152.000	159.998	80.013	19.993	103.946	19.832	3.637	0.587
160.000	163.831	80.012	19.995	103.951	19.834	3.533	0.522
168.000	167.831	80.012	19.992	103.955	19.830	3.783	0.495
176.000	171.865	80.015	19.993	103.948	19.832	3.631	0.511
184.000	175.916	80.015	19.995	103.944	19.827	4.033	0.497
192.000	179.975	80.016	19.994	103.946	19.826	4.095	0.535
200.000	183.932	80.015	19.994	103.942	19.819	4.587	0.490
208.000	187.961	80.017	19.994	103.941	19.814	4.927	0.461
216.000	191.950	80.013	19.994	103.937	19.806	5.478	0.504
224.000	195.927	80.013	19.996	103.943	19.805	5.520	0.511
232.000	199.793	80.013	19.995	103.934	19.797	6.122	0.490
240.000	203.791	80.013	19.994	103.943	19.791	6.545	0.491
248.000	207.746	80.012	19.994	103.914	19.787	6.799	0.495
256.000	211.660	80.013	19.993	103.933	19.782	7.121	0.470
264.000	215.620	80.015	19.994	103.928	19.777	7.506	0.473
272.001	219.599	80.013	19.994	103.926	19.775	7.638	0.516
280.000	223.535	80.014	19.995	103.919	19.772	7.852	0.526
288.000	227.485	80.014	19.994	103.929	19.770	7.997	0.464
296.000	231.488	80.015	19.993	103.928	19.763	8.430	0.486
304.000	235.533	80.013	19.993	103.914	19.756	8.963	0.511
312.000	239.450	80.012	19.993	103.920	19.752	9.247	0.476
320.000	243.439	80.014	19.993	103.922	19.743	9.865	0.541
328.000	247.332	80.013	19.993	103.930	19.733	10.572	0.479
336.000	251.310	80.012	19.994	103.931	19.720	11.436	0.508
344.000	255.307	80.014	19.993	103.931	19.708	12.276	0.509
352.000	259.283	80.014	19.994	103.940	19.693	13.354	0.535
360.000	263.227	80.013	19.995	103.946	19.677	14.481	0.515
368.000	267.175	80.014	19.994	103.944	19.658	15.805	0.485
376.000	271.206	80.013	19.994	103.959	19.640	16.998	0.516
384.000	275.152	80.012	19.994	103.964	19.616	18.724	0.516
392.000	279.098	80.013	19.993	103.972	19.593	20.316	0.503
400.000	283.040	80.012	19.993	103.969	19.570	21.893	0.509
408.000	286.940	80.014	19.993	103.971	19.549	23.359	0.486
416.000	290.795	80.012	19.995	103.982	19.527	24.927	0.456
424.000	294.690	80.014	19.993	103.982	19.501	26.674	0.486
432.000	298.543	80.013	19.994	103.982	19.480	28.139	0.484
440.000	302.350	80.012	19.995	103.984	19.458	29.694	0.493
448.000	306.281	80.014	19.994	103.991	19.434	31.398	0.471
456.000	310.212	80.013	19.993	104.003	19.412	32.943	0.502
464.000	314.191	80.012	19.994	104.022	19.388	34.564	0.488
472.000	318.174	80.012	19.995	104.016	19.359	36.611	0.506
480.000	322.196	80.011	19.995	104.031	19.323	39.118	0.505
488.000	326.165	80.012	19.993	104.052	19.285	41.799	0.516
496.000	330.192	80.013	19.995	104.043	19.239	44.984	0.511
504.000	334.193	80.012	19.994	104.076	19.192	48.264	0.517
512.000	338.192	80.014	19.993	104.101	19.144	51.651	0.500
520.000	342.210	80.013	19.993	104.119	19.093	55.213	0.511
528.000	346.152	80.014	19.993	104.127	19.050	58.211	0.488
536.000	350.155	80.015	19.994	104.137	19.025	59.887	0.501
544.000	354.192	80.012	19.994	104.120	19.027	59.770	0.490
552.000	358.154	80.012	19.994	104.071	19.074	56.404	0.521
560.000	362.141	80.012	19.994	104.013	19.172	49.570	0.514
568.000	366.164	80.011	19.995	103.943	19.311	39.887	0.506
576.000	370.063	80.011	19.994	103.883	19.469	28.902	0.467
584.000	374.092	80.014	19.997	103.867	19.608	19.223	0.484
592.000	378.162	80.015	19.994	103.853	19.710	12.128	0.520
600.000	382.143	80.012	19.995	103.834	19.768	8.073	0.488
608.000	386.207	80.015	19.993	103.829	19.797	6.080	0.476
616.000	390.218	80.016	19.994	103.825	19.814	4.899	0.485
624.000	394.184	80.012	19.995	103.825	19.817	4.728	0.468
632.000	398.271	80.013	19.995	103.830	19.825	4.168	0.493
640.000	402.251	80.012	19.995	103.831	19.830	3.779	0.491
648.000	406.295	80.014	19.994	103.829	19.839	3.173	0.525
656.000	410.241	80.011	19.990	103.833	19.844	2.811	0.512
664.000	414.200	80.010	19.998	103.827	19.847	2.588	0.477
672.000	418.247	80.014	19.994	103.822	19.852	2.292	0.518
680.000	422.351	80.013	19.989	103.821	19.852	2.237	0.535
688.000	426.403	80.019	19.994	103.811	19.859	1.760	0.513
696.000	430.465	80.017	19.994	103.827	19.865	1.378	0.520
704.000	434.604	80.013	19.991	103.829	19.866	1.304	0.516
712.000	438.653	80.012	19.990	103.833	19.870	0.997	0.511
720.000	442.716	80.014	19.991	103.829	19.871	0.935	0.517
728.000	446.851	80.014	19.991	103.809	19.873	0.793	0.503
736.000	450.958	80.012	19.998	103.805	19.875	0.644	0.521
744.001	455.039	80.015	19.995	103.813	19.881	0.250	0.504
752.000	459.161	80.013	19.996	103.803	19.886	-0.108	0.495
760.000	463.288	80.012	19.991	103.802	19.887	-0.185	0.515
768.000	467.378	80.011	19.994	103.808	19.894	-0.670	0.538
776.000	471.405	80.014	19.994	103.793	19.902	-1.202	0.503
784.000	475.550	80.012	19.993	103.817	19.908	-1.598	0.506
792.000	479.545	80.014	19.996	103.799	19.909	-1.707	0.510
800.000	483.658	80.019	19.991	103.796	19.914	-2.038	0.502
808.000	487.721	80.016	19.990	103.793	19.915	-2.127	0.515
816.000	491.790	80.010	19.992	103.792	19.916	-2.199	0.504
824.000	495.937	80.009	19.996	103.792	19.925	-2.782	0.518
832.000	500.073	80.015	19.995	103.813	19.925	-2.829	0.521
840.000	504.224	80.013	19.994	103.807	19.929	-3.064	0.497
848.000	508.367	80.008	20.001	103.796	19.931	-3.207	0.540
856.000	512.487	80.015	19.993	103.792	19.932	-3.308	0.511
864.000	516.829	80.012	19.994	103.788	19.934	-3.423	0.555
872.000	521.056	80.012	19.994	103.793	19.933	-3.382	0.560
880.000	525.289	80.011	19.994	103.790	19.938	-3.698	0.576
888.000	529.439	80.013	19.990	103.791	19.938	-3.722	0.492
896.000	533.658	80.012	19.993	103.794	19.937	-3.635	0.521
904.000	537.854	80.017	19.990	103.792	19.937	-3.661	0.528
912.000	541.999	80.012	19.993	103.790	19.941	-3.917	0.492
920.000	546.162	80.010	19.994	103.786	19.940	-3.822	0.531
928.000	550.305	80.012	19.993	103.786	19.942	-3.960	0.519
936.000	554.395	80.018	19.992	103.792	19.945	-4.182	0.528
944.000	558.439	80.010	19.992	103.782	19.945	-4.218	0.508
952.000	562.468	80.011	19.996	103.790	19.945	-4.229	0.453
960.000	566.531	80.012	19.996	103.792	19.945	-4.201	0.527
968.000	570.679	80.012	19.994	103.788	19.946	-4.244	0.543
976.000	574.859	80.013	19.991	103.790	19.944	-4.112	0.514
984.000	578.963	80.012	19.992	103.774	19.944	-4.153	0.516
992.000	583.138	80.012	19.997	103.785	19.943	-4.047	0.546
1000.000	587.253	80.014	19.994	103.787	19.949	-4.452	0.520
1008.000	591.426	80.012	19.994	103.785	19.951	-4.626	0.534
1016.000	595.538	80.013	19.995	103.775	19.950	-4.511	0.510
1024.000	599.536	80.011	19.990	103.789	19.947	-4.335	0.488
1032.000	603.592	80.009	19.995	103.782	19.957	-5.060	0.523
1040.000	607.597	80.009	19.994	103.788	19.951	-4.607	0.518
1048.000	611.699	80.016	19.989	103.780	19.948	-4.373	0.545
1056.000	615.760	80.010	19.997	103.785	19.953	-4.734	0.529
1064.000	619.797	80.016	19.993	103.775	19.955	-4.917	0.508
1072.001	623.815	80.012	19.997	103.775	19.955	-4.906	0.498
1080.000	627.914	80.015	19.994	103.786	19.958	-5.090	0.505
1088.000	632.013	80.012	19.993	103.788	19.953	-4.729	0.520
1096.000	636.179	80.014	19.993	103.789	19.958	-5.105	0.548
1104.001	640.340	80.011	19.992	103.780	19.952	-4.668	0.502
1112.000	644.514	80.006	19.995	103.784	19.961	-5.323	0.509
1120.001	648.601	80.009	19.996	103.790	19.959	-5.179	0.517
1128.000	652.759	80.013	19.992	103.787	19.968	-5.821	0.537
1136.000	656.922	80.015	19.994	103.785	19.959	-5.186	0.517
1144.000	661.129	80.011	19.995	103.782	19.960	-5.239	0.530
1152.001	665.300	80.012	19.993	103.783	19.959	-5.135	0.526
1160.001	669.494	80.015	19.993	103.782	19.958	-5.097	0.512
1168.000	673.631	80.014	19.992	103.772	19.963	-5.418	0.514
1176.000	677.700	80.016	19.994	103.767	19.960	-5.265	0.518
1184.001	681.704	80.018	19.996	103.770	19.964	-5.535	0.510
1192.000	685.819	80.013	19.994	103.758	19.962	-5.351	0.533
1200.001	689.893	80.013	19.993	103.776	19.964	-5.520	0.524
1208.000	693.951	80.009	19.989	103.765	19.962	-5.407	0.546
1216.000	697.962	80.017	19.990	103.757	19.967	-5.712	0.486
1224.001	701.953	80.012	19.994	103.757	19.967	-5.732	0.482
1232.000	705.920	80.015	19.989	103.764	19.960	-5.242	0.495
1240.000	709.827	80.016	19.991	103.774	19.961	-5.325	0.465
1248.000	713.845	80.014	19.994	103.778	19.961	-5.300	0.493
1256.000	717.882	80.010	19.991	103.763	19.961	-5.276	0.474
1264.001	721.937	80.009	19.992	103.755	19.959	-5.162	0.505
1272.001	726.000	80.013	19.991	103.771	19.959	-5.179	0.521
1280.001	730.071	80.014	19.993	103.768	19.962	-5.348	0.512
1288.000	734.156	80.011	19.990	103.774	19.959	-5.187	0.541
1296.000	738.216	80.012	19.996	103.778	19.960	-5.232	0.516
1304.000	742.265	80.013	19.997	103.754	19.960	-5.238	0.506
1307.000	743.777	80.012	19.993	103.756	19.958	-5.117	0.515