File: 01_Data/Bamboo_Rug_B/STA/N2/10K_min/Bamboo_Rug_B_STA_N2_10KData_220124_R2.csv
##Temp./Â°C,Time/min,Mass loss(subtr.2)/mg,DSC(subtr.2)/(mW/mg),Sensit./(uV/mW)
49.171,10.01,0.00591,0.004849158,1.07448
52.471,11.3336,0.007934621,0.1108,1.07424
55.771,11.79703,0.00641698,0.15982,1.07398
59.071,12.19475,0.005750365,0.18911,1.07369
62.371,12.56748,0.006320511,0.20849,1.07338
65.671,12.92793,0.006545217,0.22568,1.07304
68.971,13.2833,0.003718472,0.23135,1.07268
72.271,13.63313,0.00504454,0.23596,1.07229
75.571,13.9806,0.003720701,0.24123,1.07187
78.871,14.32337,0.00376577,0.24595,1.07143
82.171,14.6641,0.002411327,0.2494,1.07097
85.471,14.99951,0.001096797,0.24918,1.07048
88.771,15.3319,0.00109187,0.25054,1.06996
92.071,15.66271,0.0004223494,0.24774,1.06942
95.371,15.9899,-0.000889995,0.2528,1.06886
98.671,16.3151,-0.001921945,0.25578,1.06826
101.971,16.6386,-0.000881129,0.2561,1.06765
105.271,16.9628,-0.002525784,0.25682,1.06701
108.571,17.2866,-0.004160917,0.25709,1.06634
111.871,17.60943,-0.00515998,0.25893,1.06565
115.171,17.93253,-0.003543819,0.25918,1.06494
118.471,18.2546,-0.005160009,0.26389,1.0642
121.771,18.57635,-0.005160071,0.26509,1.06344
125.071,18.8975,-0.005173002,0.26756,1.06265
128.371,19.218,-0.00763917,0.27153,1.06184
131.671,19.53793,-0.006480005,0.27185,1.061
134.971,19.8576,-0.00614999,0.27711,1.06014
138.271,20.17616,-0.00779547,0.2824,1.05926
141.571,20.4943,-0.008449991,0.28531,1.05835
144.871,20.81119,-0.00779207,0.28723,1.05742
148.171,21.12874,-0.009109996,0.29366,1.05646
151.471,21.4459,-0.009100214,0.30036,1.05548
154.771,21.76264,-0.01039563,0.30324,1.05448
158.071,22.0789,-0.00973731,0.30645,1.05345
161.371,22.39515,-0.01173993,0.31171,1.0524
164.671,22.71183,-0.01056591,0.31316,1.05133
167.971,23.02864,-0.0117466,0.31713,1.05023
171.271,23.34528,-0.01304998,0.32317,1.04911
174.571,23.66166,-0.01503,0.32665,1.04797
177.871,23.9792,-0.01503203,0.33112,1.0468
181.171,24.2956,-0.01799037,0.33247,1.04561
184.471,24.61208,-0.01933786,0.33582,1.0444
187.771,24.9271,-0.02060704,0.33995,1.04317
191.071,25.2411,-0.02195,0.34561,1.04191
194.371,25.55554,-0.02194645,0.35043,1.04063
197.671,25.87017,-0.02457,0.35847,1.03933
200.971,26.1842,-0.02753009,0.35903,1.038
204.271,26.49835,-0.02903433,0.36328,1.03666
207.571,26.8133,-0.03095304,0.361,1.03529
210.871,27.12919,-0.03404532,0.36252,1.0339
214.171,27.44487,-0.03774009,0.36617,1.03249
217.471,27.7605,-0.04136,0.37,1.03105
220.771,28.07524,-0.04497,0.37785,1.0296
224.071,28.39017,-0.04925528,0.38317,1.02812
227.371,28.7052,-0.05319737,0.38913,1.02662
230.671,29.0193,-0.05681098,0.39758,1.0251
233.971,29.3346,-0.06105358,0.40209,1.02356
237.271,29.6494,-0.06767058,0.41632,1.022
240.571,29.9643,-0.07426686,0.43954,1.02042
243.871,30.2796,-0.08094767,0.47612,1.01881
247.171,30.5951,-0.08780375,0.53617,1.01719
250.471,30.91136,-0.09691776,0.63357,1.01554
253.771,31.2275,-0.10742,0.63516,1.01388
257.071,31.5425,-0.11756,0.51362,1.01219
260.371,31.85603,-0.13142,0.43759,1.01049
263.671,32.16968,-0.1452,0.42225,1.00876
266.971,32.48348,-0.16214,0.42458,1.00702
270.271,32.7981,-0.18327,0.43016,1.00525
273.571,33.1143,-0.20609,0.43459,1.00347
276.871,33.42947,-0.23246,0.43763,1.00167
280.171,33.7458,-0.25909,0.44127,0.99984
283.471,34.0612,-0.28891,0.44492,0.998
286.771,34.37738,-0.31874,0.44354,0.99614
290.071,34.69341,-0.35236,0.4457,0.99426
293.371,35.00878,-0.3856,0.44468,0.99236
296.671,35.32476,-0.42067,0.44941,0.99044
299.971,35.6406,-0.45734,0.4523,0.98851
303.271,35.9563,-0.49664,0.46077,0.98655
306.571,36.2729,-0.53764,0.47118,0.98458
309.871,36.58878,-0.58227,0.48428,0.98259
313.171,36.90625,-0.62981,0.49944,0.98058
316.471,37.22421,-0.68043,0.52532,0.97855
319.771,37.54198,-0.7366,0.55404,0.97651
323.071,37.86031,-0.80046,0.5956,0.97445
326.371,38.17868,-0.87497,0.64434,0.97237
329.671,38.49673,-0.95789,0.7084,0.97027
332.971,38.81541,-1.06085,0.7838,0.96816
336.271,39.13427,-1.18525,0.86034,0.96603
339.571,39.4531,-1.33456,0.90744,0.96388
342.871,39.772,-1.50136,0.86358,0.96172
346.171,40.09005,-1.66924,0.67075,0.95954
349.471,40.40735,-1.80737,0.46534,0.95734
352.771,40.72497,-1.90885,0.3357,0.95513
356.071,41.04285,-1.97926,0.26311,0.9529
359.371,41.3645,-2.03156,0.22372,0.95066
362.671,41.687,-2.07376,0.20939,0.9484
365.971,42.00995,-2.11134,0.20199,0.94612
369.271,42.33256,-2.15072,0.20155,0.94383
372.571,42.6544,-2.18304,0.1969,0.94153
375.871,42.97661,-2.2189,0.20032,0.93921
379.171,43.29743,-2.25653,0.19945,0.93687
382.471,43.61792,-2.29264,0.19936,0.93452
385.771,43.93943,-2.32725,0.19279,0.93216
389.071,44.26084,-2.36596,0.19189,0.92978
392.371,44.58247,-2.40462,0.18948,0.92738
395.671,44.90331,-2.44357,0.18506,0.92498
398.971,45.225,-2.48485,0.18748,0.92255
402.271,45.5471,-2.52872,0.18576,0.92012
405.571,45.86938,-2.57525,0.18527,0.91767
408.871,46.19208,-2.62232,0.19289,0.91521
412.171,46.51482,-2.66882,0.19349,0.91273
415.471,46.83763,-2.71764,0.1925,0.91024
418.771,47.1607,-2.76547,0.19466,0.90774
422.071,47.48388,-2.8107,0.1955,0.90522
425.371,47.80715,-2.85429,0.19638,0.9027
428.671,48.13066,-2.89495,0.1962,0.90016
431.971,48.4538,-2.93265,0.19083,0.8976
435.271,48.77641,-2.96852,0.18489,0.89504
438.571,49.0987,-3.00025,0.17942,0.89246
441.871,49.42089,-3.03103,0.16482,0.88987
445.171,49.74418,-3.05775,0.14697,0.88727
448.471,50.06797,-3.08339,0.12874,0.88466
451.771,50.3912,-3.10318,0.1112,0.88204
455.071,50.7156,-3.12213,0.09108566,0.8794
458.371,51.0394,-3.13711,0.07817715,0.87676
461.671,51.3634,-3.15101,0.06604582,0.8741
464.971,51.68795,-3.16301,0.05938775,0.87143
468.271,52.0137,-3.17312,0.05415674,0.86876
471.571,52.3401,-3.18156,0.04724009,0.86607
474.871,52.6661,-3.18835,0.04352815,0.86337
478.171,52.9922,-3.19514,0.04112328,0.86066
481.471,53.3181,-3.20272,0.03805439,0.85794
484.771,53.64329,-3.20892,0.04099041,0.85521
488.071,53.9692,-3.21359,0.04544852,0.85248
491.371,54.2952,-3.21852,0.04865118,0.84973
494.671,54.621,-3.22245,0.0531907,0.84697
497.971,54.9466,-3.22939,0.05465587,0.84421
501.271,55.27295,-3.23311,0.05751914,0.84143
504.571,55.5999,-3.23716,0.05302218,0.83865
507.871,55.9264,-3.24254,0.05227952,0.83586
511.171,56.2526,-3.24634,0.05537167,0.83306
514.471,56.57864,-3.24913,0.05213469,0.83025
517.771,56.9052,-3.2531,0.04978893,0.82743
521.071,57.23166,-3.25638,0.04508085,0.82461
524.371,57.55865,-3.259,0.04408011,0.82177
527.671,57.8852,-3.26286,0.04183496,0.81893
530.971,58.2131,-3.26688,0.04043549,0.81609
534.271,58.54136,-3.2702,0.0392074,0.81323
537.571,58.8697,-3.27414,0.03562431,0.81037
540.871,59.19771,-3.27562,0.0336849,0.8075
544.171,59.52553,-3.27816,0.03550163,0.80462
547.471,59.85435,-3.28137,0.03222549,0.80174
550.771,60.1835,-3.28534,0.03442871,0.79885
554.071,60.51206,-3.28796,0.03223604,0.79595
557.371,60.84061,-3.29125,0.03024215,0.79305
560.671,61.1703,-3.29388,0.03157775,0.79014
563.971,61.5,-3.29618,0.03238554,0.78723
567.271,61.83002,-3.29793,0.03203508,0.78431
570.571,62.1602,-3.30221,0.03216325,0.78138
573.871,62.48998,-3.30353,0.03346603,0.77845
577.171,62.8213,-3.3068,0.02678154,0.77552
580.471,63.15084,-3.30946,0.02268539,0.77258
583.771,63.4801,-3.31341,0.01523755,0.76963
587.071,63.80956,-3.3157,0.00842941,0.76668
590.371,64.13908,-3.32098,0.00394962,0.76372
593.671,64.4688,-3.32229,0.00364763,0.76076
596.971,64.7989,-3.32623,-0.000746003,0.7578
600.271,65.1297,-3.32788,0.0002711051,0.75483
603.571,65.46125,-3.33096,0.001529613,0.75185
606.871,65.7925,-3.33446,0.01015227,0.74888
610.171,66.12266,-3.33713,0.01173971,0.7459
613.471,66.45198,-3.33725,0.02171214,0.74291
616.771,66.7813,-3.34105,0.02935218,0.73992
620.071,67.11234,-3.34351,0.03355447,0.73693
623.371,67.4437,-3.34235,0.03465089,0.73394
626.671,67.77458,-3.34598,0.03534236,0.73094
629.971,68.1058,-3.34598,0.03226044,0.72794
633.271,68.43757,-3.34763,0.02959463,0.72494
636.571,68.76884,-3.34895,0.03048293,0.72193
639.871,69.10005,-3.35124,0.02873686,0.71892
643.171,69.43133,-3.35289,0.03104388,0.71591
646.471,69.76335,-3.35457,0.03179471,0.7129
649.771,70.09529,-3.35456,0.03282997,0.70988
653.071,70.4269,-3.35586,0.03088997,0.70687
656.371,70.75883,-3.35717,0.02936811,0.70385
659.671,71.0909,-3.35914,0.0292067,0.70083
662.971,71.4225,-3.3611,0.02653433,0.69781
666.271,71.7535,-3.36112,0.03301715,0.69478
669.571,72.08406,-3.36177,0.03300476,0.69176
672.871,72.41466,-3.36309,0.03253339,0.68873
676.171,72.74622,-3.36441,0.03256813,0.68571
679.471,73.07822,-3.36441,0.03077673,0.68268
682.771,73.4101,-3.36703,0.02902352,0.67965
686.071,73.74308,-3.36845,0.03100014,0.67663
689.371,74.07593,-3.36841,0.03213872,0.6736
692.671,74.41067,-3.36967,0.03355462,0.67057
695.971,74.74455,-3.37196,0.02562415,0.66754
699.271,75.0775,-3.37066,0.02655157,0.66451
702.571,75.4095,-3.3736,0.02421137,0.66148
705.871,75.74172,-3.37559,0.02251303,0.65846
709.171,76.0736,-3.37494,0.02270727,0.65543
712.471,76.40604,-3.37494,0.02027038,0.6524
715.771,76.73935,-3.37724,0.0113928,0.64938
719.071,77.07376,-3.37658,0.00934343,0.64635
722.371,77.40924,-3.3792,0.003705,0.64332
725.671,77.7448,-3.3779,0.007074937,0.6403
728.971,78.07951,-3.37988,-0.001921811,0.63728
732.271,78.4144,-3.37974,-0.007349169,0.63426
735.571,78.7488,-3.38053,-0.005326845,0.63124
738.871,79.08287,-3.38185,-0.01024551,0.62822
742.171,79.41547,-3.38217,-0.00865248,0.6252
745.471,79.75004,-3.38217,-0.008666016,0.62219
748.771,80.08389,-3.3829,-0.009432328,0.61918
752.071,80.41864,-3.38551,-0.007702668,0.61617
755.371,80.75404,-3.3861,-0.01133014,0.61316
758.671,81.0885,-3.38612,-0.01436564,0.61015
761.971,81.42183,-3.38695,-0.01965284,0.60715
765.271,81.756,-3.38776,-0.01554357,0.60415
768.571,82.09094,-3.38908,-0.01985427,0.60115
771.871,82.42627,-3.38944,-0.0187604,0.59815
775.171,82.7618,-3.39102,-0.01975972,0.59516
778.471,83.09764,-3.39022,-0.02683946,0.59217
781.771,83.43189,-3.39172,-0.02892775,0.58918
785.071,83.76656,-3.39303,-0.02593377,0.5862
788.371,84.10076,-3.39402,-0.0335144,0.58322
791.671,84.43541,-3.39172,-0.03836622,0.58024
794.971,84.7713,-3.39401,-0.03856325,0.57726
797.171,84.99481,-3.39435,-0.0388237,0.57528