File: 01_Data/Bamboo_Rug_B/STA/N2/10K_min/Bamboo_Rug_B_STA_N2_10KData_220125_R3.csv
##Temp./Â°C,Time/min,Mass loss(subtr.2)/mg,DSC(subtr.2)/(mW/mg),Sensit./(uV/mW)
49.296,10.00917,-0.00955,0.01920514,1.07447
52.596,11.3329,-0.008893485,0.1283,1.07423
55.896,11.79572,-0.009373576,0.17729,1.07397
59.196,12.19098,-0.009503509,0.20648,1.07368
62.496,12.56473,-0.00915639,0.22445,1.07337
65.796,12.92592,-0.009353634,0.2391,1.07303
69.096,13.28241,-0.009431199,0.24614,1.07266
72.396,13.63419,-0.01074948,0.24676,1.07227
75.696,13.9826,-0.01156539,0.25286,1.07186
78.996,14.32646,-0.01316862,0.25699,1.07141
82.296,14.66683,-0.01492176,0.25755,1.07095
85.596,15.0039,-0.01624633,0.26057,1.07046
88.896,15.3373,-0.02120865,0.26113,1.06994
92.196,15.6674,-0.01779545,0.25895,1.0694
95.496,15.9962,-0.01485607,0.25768,1.06883
98.796,16.32299,-0.01800606,0.25664,1.06824
102.096,16.6493,-0.01909014,0.25588,1.06763
105.396,16.97304,-0.01909257,0.25953,1.06698
108.696,17.29648,-0.01777567,0.25978,1.06632
111.996,17.61975,-0.01876996,0.26518,1.06563
115.296,17.94166,-0.01909331,0.26696,1.06491
118.596,18.26309,-0.01909,0.2679,1.06417
121.896,18.5843,-0.01788935,0.2707,1.06341
125.196,18.90598,-0.01755463,0.27319,1.06262
128.496,19.22673,-0.01621485,0.27628,1.06181
131.796,19.54756,-0.01624675,0.28113,1.06097
135.096,19.86767,-0.01756052,0.28356,1.06011
138.396,20.18743,-0.01888071,0.28613,1.05923
141.696,20.50647,-0.02052001,0.28588,1.05832
144.996,20.82508,-0.02054303,0.29086,1.05738
148.296,21.14255,-0.02183,0.29562,1.05643
151.596,21.46033,-0.02315,0.30112,1.05545
154.896,21.7778,-0.02436682,0.30571,1.05444
158.196,22.09499,-0.02413001,0.31104,1.05341
161.496,22.41186,-0.02511054,0.31545,1.05236
164.796,22.72851,-0.02677,0.31958,1.05129
168.096,23.04554,-0.02941002,0.3232,1.05019
171.396,23.36259,-0.02972993,0.32691,1.04907
174.696,23.67907,-0.02972977,0.33005,1.04793
177.996,23.99452,-0.03106243,0.33645,1.04676
181.296,24.31071,-0.03257748,0.33754,1.04557
184.596,24.6274,-0.03335,0.34105,1.04436
187.896,24.9432,-0.03360176,0.34377,1.04312
191.196,25.25887,-0.03563759,0.34603,1.04186
194.496,25.57401,-0.0359951,0.35218,1.04058
197.796,25.8886,-0.0396,0.35402,1.03928
201.096,26.20263,-0.04092069,0.35931,1.03795
204.396,26.5167,-0.04354598,0.36449,1.03661
207.696,26.8302,-0.04748842,0.36758,1.03524
210.996,27.1435,-0.05012996,0.37021,1.03385
214.296,27.45755,-0.0527838,0.3768,1.03243
217.596,27.7714,-0.05671001,0.38056,1.031
220.896,28.0851,-0.05900494,0.3863,1.02954
224.196,28.3986,-0.06329464,0.39206,1.02806
227.496,28.71245,-0.0678158,0.39836,1.02656
230.796,29.02618,-0.07255372,0.40322,1.02504
234.096,29.34008,-0.07780353,0.40872,1.0235
237.396,29.6549,-0.08299171,0.42396,1.02194
240.696,29.96957,-0.08698091,0.45147,1.02036
243.996,30.284,-0.09367519,0.48401,1.01875
247.296,30.5998,-0.1017,0.54561,1.01713
250.596,30.91542,-0.11091,0.64115,1.01548
253.896,31.2312,-0.12055,0.63968,1.01382
257.196,31.54547,-0.13158,0.51697,1.01213
260.496,31.85878,-0.14575,0.44765,1.01042
263.796,32.17238,-0.15932,0.43457,1.0087
267.096,32.48676,-0.17684,0.43465,1.00695
270.396,32.8017,-0.19675,0.44092,1.00519
273.696,33.11861,-0.21936,0.44562,1.0034
276.996,33.43468,-0.24225,0.44841,1.0016
280.296,33.75078,-0.2713,0.45298,0.99977
283.596,34.06747,-0.29898,0.45701,0.99793
286.896,34.38426,-0.32992,0.45792,0.99607
290.196,34.70109,-0.36266,0.45897,0.99419
293.496,35.0171,-0.39653,0.46466,0.99229
296.796,35.3331,-0.4311,0.46723,0.99037
300.096,35.64867,-0.46723,0.47215,0.98843
303.396,35.96481,-0.50625,0.48016,0.98648
306.696,36.28141,-0.54373,0.48887,0.9845
309.996,36.5985,-0.58707,0.50443,0.98251
313.296,36.91536,-0.63261,0.521,0.9805
316.596,37.23302,-0.68263,0.54465,0.97848
319.896,37.5504,-0.73606,0.57434,0.97643
323.196,37.86769,-0.7987,0.61446,0.97437
326.496,38.18593,-0.86895,0.66076,0.97229
329.796,38.50441,-0.95193,0.72506,0.97019
333.096,38.82285,-1.04677,0.80718,0.96808
336.396,39.14261,-1.16643,0.89525,0.96595
339.696,39.4626,-1.31034,0.96626,0.9638
342.996,39.7827,-1.47488,0.96364,0.96164
346.296,40.1014,-1.64398,0.83193,0.95946
349.596,40.41941,-1.79347,0.62183,0.95726
352.896,40.737,-1.90791,0.45112,0.95505
356.196,41.05468,-1.98667,0.33774,0.95282
359.496,41.3726,-2.04301,0.27967,0.95057
362.796,41.69121,-2.08746,0.24818,0.94831
366.096,42.0105,-2.12709,0.23828,0.94604
369.396,42.32922,-2.16334,0.22969,0.94375
372.696,42.6481,-2.19895,0.22966,0.94144
375.996,42.9686,-2.23447,0.22341,0.93912
379.296,43.28886,-2.26981,0.22271,0.93678
382.596,43.61009,-2.30637,0.2189,0.93443
385.896,43.93165,-2.34248,0.2126,0.93207
389.196,44.2541,-2.37904,0.20917,0.92969
392.496,44.57602,-2.4175,0.20474,0.92729
395.796,44.89765,-2.45615,0.2041,0.92488
399.096,45.21848,-2.49606,0.2021,0.92246
402.396,45.53992,-2.54036,0.20343,0.92003
405.696,45.86176,-2.58467,0.20311,0.91758
408.996,46.18379,-2.63069,0.20186,0.91511
412.296,46.50622,-2.675,0.20341,0.91264
415.596,46.8292,-2.71956,0.20426,0.91015
418.896,47.15178,-2.76589,0.20777,0.90764
422.196,47.47418,-2.80824,0.20797,0.90513
425.496,47.79736,-2.85058,0.20511,0.9026
428.796,48.12133,-2.88731,0.20238,0.90006
432.096,48.44615,-2.92247,0.19876,0.89751
435.396,48.7704,-2.95939,0.19583,0.89494
438.696,49.0943,-2.99163,0.18578,0.89236
441.996,49.41778,-3.01712,0.17211,0.88977
445.296,49.74129,-3.04328,0.15502,0.88717
448.596,50.06518,-3.0651,0.13848,0.88456
451.896,50.3887,-3.0838,0.11928,0.88194
455.196,50.71168,-3.09983,0.1022,0.8793
458.496,51.03575,-3.11513,0.09384802,0.87666
461.796,51.36016,-3.12916,0.08283434,0.874
465.096,51.686,-3.13893,0.07477306,0.87133
468.396,52.0118,-3.15095,0.07012957,0.86865
471.696,52.3375,-3.15777,0.06484947,0.86597
474.996,52.663,-3.16598,0.06105761,0.86327
478.296,52.9886,-3.17257,0.05605793,0.86056
481.596,53.3137,-3.17785,0.05346321,0.85784
484.896,53.6398,-3.18424,0.0539755,0.85511
488.196,53.96643,-3.18825,0.05513993,0.85237
491.496,54.2927,-3.19354,0.05688933,0.84963
494.796,54.6184,-3.19878,0.05914568,0.84687
498.096,54.94405,-3.20225,0.06087248,0.8441
501.396,55.2697,-3.20536,0.06513803,0.84133
504.696,55.59595,-3.21135,0.06658256,0.83854
507.996,55.9223,-3.21489,0.06053689,0.83575
511.296,56.24895,-3.21721,0.06048255,0.83295
514.596,56.5752,-3.22247,0.05863064,0.83014
517.896,56.90185,-3.22511,0.05468542,0.82733
521.196,57.22851,-3.23004,0.0544716,0.8245
524.496,57.55434,-3.23355,0.05355938,0.82167
527.796,57.87998,-3.23794,0.05064422,0.81883
531.096,58.207,-3.23921,0.05163377,0.81598
534.396,58.53504,-3.24322,0.04626303,0.81312
537.696,58.8635,-3.24584,0.04484458,0.81026
540.996,59.19085,-3.24847,0.04318031,0.80739
544.296,59.5193,-3.25111,0.04423386,0.80451
547.596,59.8477,-3.25374,0.04550621,0.80163
550.896,60.1763,-3.25769,0.04219737,0.79874
554.196,60.50541,-3.259,0.04350202,0.79584
557.496,60.8351,-3.26164,0.04337006,0.79294
560.796,61.1646,-3.26426,0.04336145,0.79003
564.096,61.4942,-3.2669,0.04071831,0.78712
567.396,61.8239,-3.26814,0.04221476,0.7842
570.696,62.15308,-3.27084,0.04440731,0.78127
573.996,62.48262,-3.27284,0.04330145,0.77834
577.296,62.813,-3.27743,0.03654787,0.77541
580.596,63.1438,-3.28006,0.0272774,0.77246
583.896,63.47435,-3.28538,0.02027683,0.76952
587.196,63.8048,-3.28734,0.01609039,0.76657
590.496,64.13517,-3.29124,0.01957853,0.76361
593.796,64.4657,-3.2932,0.02291854,0.76065
597.096,64.79579,-3.29656,0.02812042,0.75768
600.396,65.12637,-3.2998,0.03110551,0.75471
603.696,65.45647,-3.30211,0.03678891,0.75174
606.996,65.786,-3.30375,0.04600932,0.74876
610.296,66.11631,-3.30606,0.05504657,0.74578
613.596,66.4472,-3.30854,0.0592435,0.7428
616.896,66.7781,-3.31,0.06202567,0.73981
620.196,67.10986,-3.31264,0.06051891,0.73682
623.496,67.44123,-3.31396,0.06368307,0.73382
626.796,67.77248,-3.31656,0.06042893,0.73083
630.096,68.10405,-3.3179,0.05886446,0.72783
633.396,68.4353,-3.31922,0.06169543,0.72482
636.696,68.76674,-3.32185,0.06092743,0.72182
639.996,69.09869,-3.32186,0.05448893,0.71881
643.296,69.4306,-3.32485,0.05879776,0.7158
646.596,69.76346,-3.32317,0.06084931,0.71278
649.896,70.09616,-3.32507,0.05558967,0.70977
653.196,70.4293,-3.32689,0.05546056,0.70675
656.496,70.7624,-3.32822,0.05616314,0.70373
659.796,71.09557,-3.32821,0.05812976,0.70071
663.096,71.42845,-3.3302,0.05850309,0.69769
666.396,71.7609,-3.33142,0.05815234,0.69467
669.696,72.09233,-3.33282,0.05995185,0.69165
672.996,72.4238,-3.33534,0.05848748,0.68862
676.296,72.75556,-3.33468,0.05693442,0.68559
679.596,73.0868,-3.33601,0.05697506,0.68257
682.896,73.41841,-3.33731,0.05666293,0.67954
686.196,73.75075,-3.3378,0.05710021,0.67651
689.496,74.08412,-3.34126,0.05482453,0.67348
692.796,74.41726,-3.34012,0.05638913,0.67046
696.096,74.75059,-3.34357,0.0531819,0.66743
699.396,75.08277,-3.34423,0.05779151,0.6644
702.696,75.41664,-3.34423,0.05109238,0.66137
705.996,75.7494,-3.3462,0.04449001,0.65834
709.296,76.0826,-3.34654,0.03916733,0.65531
712.596,76.41641,-3.34621,0.03713416,0.65229
715.896,76.74972,-3.3488,0.02819945,0.64926
719.196,77.08292,-3.34949,0.02517373,0.64624
722.496,77.4173,-3.34949,0.02654293,0.64321
725.796,77.75054,-3.35015,0.02191233,0.64019
729.096,78.08389,-3.3504,0.01854313,0.63716
732.396,78.418,-3.35276,0.01585405,0.63414
735.696,78.75239,-3.35476,0.01241337,0.63112
738.996,79.0869,-3.35409,0.007487086,0.62811
742.296,79.42103,-3.35541,0.00579946,0.62509
745.596,79.75673,-3.35706,0.00565018,0.62207
748.896,80.09132,-3.35686,0.004357307,0.61906
752.196,80.4254,-3.35863,-0.002294974,0.61605
755.496,80.7594,-3.3587,-0.005651137,0.61304
758.796,81.09236,-3.36002,-0.005249797,0.61004
762.096,81.42621,-3.36068,-0.007493068,0.60703
765.396,81.76076,-3.36003,-0.00707023,0.60403
768.696,82.0958,-3.36134,-0.00891529,0.60103
771.996,82.43134,-3.36266,-0.009452588,0.59804
775.296,82.76547,-3.3626,-0.00655886,0.59504
778.596,83.10038,-3.36331,-0.01105677,0.59205
781.896,83.43511,-3.36602,-0.01755083,0.58907
785.196,83.77046,-3.36693,-0.009625979,0.58608
788.496,84.10651,-3.36792,-0.01631392,0.5831
791.796,84.4427,-3.36808,-0.01428668,0.58013
795.096,84.7785,-3.3699,-0.01506381,0.57715
797.196,84.99301,-3.36957,-0.01196637,0.57526