File: 01_Data/Homasote/HFM/Homasote_Density_Dry_R1.csv
,Homasote_1_DRY
Sample Mass [g],202.6
Sample Volume [cm3],490.9
Sample Density [kg/m3],413