File: 01_Data/Homasote/HFM/Homasote_Ignition_Temp_Properties.csv
Thermal Conductivity (W/m-K),0.076
Heat Capacity (J/kg-K),1546.0
Density (kg/m3),448.333