File: 01_Data/Homasote/HFM/Homasote_Density_Wet_R3.csv
,Homasote_3_WET
Sample Mass [g],216.5
Sample Volume [cm3],486.1
Sample Density [kg/m3],445