File: 01_Data/Homasote/HFM/Homasote_Density_Dry_R2.csv
,Homasote_2_DRY
Sample Mass [g],201.9
Sample Volume [cm3],493.9
Sample Density [kg/m3],409