File: 01_Data/Homasote/HFM/Homasote_Density_Wet_R1.csv
,Homasote_1_WET
Sample Mass [g],220.8
Sample Volume [cm3],490.9
Sample Density [kg/m3],450