File: 01_Data/Homasote/HFM/Homasote_Density_Wet_R2.csv
,Homasote_2_WET
Sample Mass [g],222.1
Sample Volume [cm3],493.9
Sample Density [kg/m3],450