File: 01_Data/Homasote/HFM/Homasote_Density_Dry_R3.csv
,Homasote_3_DRY
Sample Mass [g],197.1
Sample Volume [cm3],486.1
Sample Density [kg/m3],406