File: 01_Data/PC/STA/N2/30K_min/PC_STA_N2_30KData_211709_R2.csv
##Temp./Â°C,Time/min,DSC(subtr.2)/mW,Mass loss(subtr.2)/mg,DTG(subtr.2)/(mg/min),Sensit./(uV/mW)
49.403,10.01,0.00723845,-0.02435,-0.04966694,1.05401
52.603,11.6514,0.40176,-0.02624855,-0.003817462,1.05406
55.803,12.0349,0.66455,-0.02893055,-0.004197328,1.05406
59.003,12.32037,0.84492,-0.02993443,0.002536715,1.054
62.203,12.56292,0.9963,-0.02886805,0.000858617,1.0539
65.403,12.78249,1.11538,-0.02873607,0.001218819,1.05375
68.603,12.98572,1.21467,-0.0284425,0.001548304,1.05355
71.803,13.17878,1.30826,-0.02556471,-0.00870715,1.0533
75.003,13.3628,1.39717,-0.02911654,0.005760995,1.053
78.203,13.53933,1.49628,-0.02783922,-0.01027316,1.05266
81.403,13.709,1.58134,-0.02862073,0.005093183,1.05227
84.603,13.87166,1.65709,-0.02996742,-0.003523443,1.05183
87.803,14.02854,1.69138,-0.02923832,-0.001140743,1.05134
91.003,14.1799,1.7346,-0.02972149,-0.00631272,1.0508
94.203,14.326,1.81072,-0.03031884,0.003705853,1.05022
97.403,14.46766,1.85839,-0.03177412,-0.005184369,1.0496
100.603,14.60481,1.93802,-0.02901011,0.00194832,1.04892
103.803,14.73877,2.01168,-0.03028217,-0.0007595977,1.04821
107.003,14.8696,2.09817,-0.03124457,-0.005105373,1.04744
110.203,14.9972,2.16944,-0.03150964,-0.004770534,1.04664
113.403,15.12285,2.23994,-0.03256222,0.004993809,1.04579
116.603,15.2458,2.30592,-0.03101193,0.005715185,1.04489
119.803,15.36669,2.37115,-0.02855227,-0.00706622,1.04396
123.003,15.48554,2.43512,-0.03294598,-0.001978365,1.04298
126.203,15.60203,2.50132,-0.03016217,0.003022552,1.04195
129.403,15.7167,2.55841,-0.03124686,-0.001330316,1.04089
132.603,15.83035,2.61288,-0.03238738,-0.003160103,1.03978
135.803,15.94196,2.67752,-0.03221402,-0.003282075,1.03863
139.003,16.05185,2.73737,-0.03288683,-0.00203221,1.03744
142.203,16.16082,2.80392,-0.03149559,-0.003228417,1.03622
145.403,16.26804,2.87554,-0.03323922,-0.00290515,1.03495
148.603,16.37428,3.02036,-0.0331708,0.000761648,1.03364
151.803,16.47937,3.22138,-0.03172706,0.000393566,1.03229
155.003,16.58345,3.42151,-0.0335832,-0.000773608,1.03091
158.203,16.68686,3.51394,-0.03187202,0.001542574,1.02948
161.403,16.78837,3.58622,-0.03332501,-0.00219757,1.02802
164.603,16.8907,3.66154,-0.03334681,0.001047585,1.02652
167.803,16.99142,3.72954,-0.03204268,-0.00376733,1.02499
171.003,17.0912,3.77037,-0.03468449,-0.002632609,1.02342
174.203,17.19035,3.84027,-0.03335281,-0.0001513939,1.02181
177.403,17.28859,3.88769,-0.0333355,-0.00391596,1.02017
180.603,17.3861,3.94316,-0.03466474,-4.52708e-05,1.01849
183.803,17.48266,3.99492,-0.03226331,-0.005941907,1.01678
187.003,17.57864,4.05015,-0.03645504,-0.008098838,1.01503
190.203,17.6738,4.09041,-0.03520973,0.003206647,1.01326
193.403,17.7683,4.14913,-0.03403829,0.004866777,1.01144
196.603,17.86241,4.19638,-0.03486785,0.000796793,1.0096
199.803,17.9561,4.24364,-0.03470163,0.00146485,1.00772
203.003,18.0492,4.28856,-0.03356076,-0.001666991,1.00582
206.203,18.14163,4.32926,-0.03488227,-0.002647052,1.00388
209.403,18.2343,4.38105,-0.0345488,-0.005871492,1.00191
212.603,18.32628,4.42786,-0.03555674,-0.01067083,0.99991
215.803,18.41776,4.47417,-0.03729487,-0.004243767,0.99788
219.003,18.50907,4.51023,-0.03722951,0.001639566,0.99583
222.203,18.60003,4.56041,-0.03597,0.002911709,0.99374
225.403,18.69067,4.60103,-0.0359704,-0.00233366,0.99163
228.603,18.78094,4.65155,-0.03756828,-0.00641917,0.98949
231.803,18.87098,4.68832,-0.03750967,-0.000954121,0.98732
235.003,18.9607,4.73567,-0.03618915,-0.001054672,0.98513
238.203,19.05025,4.77947,-0.03751001,-0.003493782,0.98291
241.403,19.1396,4.82201,-0.03750907,0.00103453,0.98066
244.603,19.22864,4.85588,-0.03629385,0.002404157,0.97839
247.803,19.3176,4.89129,-0.03749783,-0.00108422,0.9761
251.003,19.40625,4.92828,-0.03750815,-0.0002527423,0.97378
254.203,19.49471,4.95989,-0.03643353,-0.003745283,0.97144
257.403,19.58306,4.98495,-0.03794849,-0.00737106,0.96907
260.603,19.67095,5.0194,-0.03931574,-0.006065654,0.96669
263.803,19.7588,5.03745,-0.03794434,-0.004313338,0.96428
267.003,19.84706,5.06545,-0.03927003,-0.001150007,0.96185
270.203,19.9349,5.08678,-0.04140992,0.01397746,0.9594
273.403,20.02243,5.12017,-0.03310732,0.009336194,0.95693
276.603,20.11007,5.14387,-0.03762615,-0.0136831,0.95444
279.803,20.1974,5.17364,-0.0397017,-0.004924746,0.95193
283.003,20.2849,5.19554,-0.03828012,0.002128142,0.9494
286.203,20.37228,5.22184,-0.03828044,-0.00370905,0.94685
289.403,20.4597,5.24618,-0.04022303,-0.002222244,0.94429
292.603,20.54695,5.26066,-0.03827546,-0.000320057,0.94171
295.803,20.63419,5.29185,-0.03959682,-0.00603489,0.93911
299.003,20.72154,5.31338,-0.03964905,-0.0116629,0.9365
302.203,20.80871,5.32902,-0.03980556,-0.01993566,0.93387
305.403,20.89592,5.37482,-0.04351776,-0.003512738,0.93122
308.603,20.9831,5.39313,-0.0431054,0.02613878,0.92856
311.803,21.07019,5.41694,-0.03795435,-5.02943e-05,0.92589
315.003,21.15737,5.43919,-0.04342737,-0.01345638,0.9232
318.203,21.24445,5.45002,-0.04054925,-0.004016288,0.9205
321.403,21.33168,5.47876,-0.04319999,0.002558341,0.91779
324.603,21.4189,5.50181,-0.04048649,0.005468567,0.91506
327.803,21.50603,5.51578,-0.04042938,-0.004314222,0.91232
331.003,21.59337,5.55139,-0.04210405,-0.004563954,0.90957
334.203,21.68071,5.5563,-0.04195253,0.0006669431,0.90681
337.403,21.7681,5.56746,-0.04254507,-0.00868871,0.90404
340.603,21.85568,5.60223,-0.04464929,-0.01278683,0.90127
343.803,21.94315,5.63114,-0.04464017,-0.002317262,0.89848
347.003,22.03079,5.64304,-0.04332847,0.000830303,0.89568
350.203,22.11867,5.67148,-0.04467707,-0.00567311,0.89287
353.403,22.20664,5.69014,-0.04512774,-0.00622749,0.89006
356.603,22.29455,5.70068,-0.04519421,0.001692025,0.88724
359.803,22.38273,5.7197,-0.04397985,-0.004085985,0.88441
363.003,22.47104,5.74208,-0.04533797,-0.01313587,0.88158
366.203,22.55946,5.7632,-0.0479301,-0.005385395,0.87874
369.403,22.64794,5.77364,-0.04661922,0.0007669036,0.87589
372.603,22.7364,5.79314,-0.04779862,-0.00136849,0.87304
375.803,22.82518,5.8268,-0.04663275,-0.000624523,0.87018
379.003,22.91401,5.83031,-0.04662152,-0.004661828,0.86732
382.203,23.00304,5.84706,-0.04792987,-0.006353197,0.86446
385.403,23.0918,5.87025,-0.0484609,-0.00432041,0.86159
388.603,23.18123,5.89522,-0.04850394,-0.00608627,0.85872
391.803,23.27058,5.91506,-0.04969134,-0.01069207,0.85585
395.003,23.36017,5.92734,-0.0500186,-0.01015973,0.85298
398.203,23.45,5.92962,-0.05133,-0.007159109,0.8501
401.403,23.5397,5.93418,-0.05132992,-0.007030725,0.84723
404.603,23.6296,5.9585,-0.05265003,-0.00624452,0.84435
407.803,23.71949,5.96759,-0.05264862,-0.003762965,0.84147
411.003,23.80988,5.97091,-0.0533,0.0003077202,0.83859
414.203,23.9005,6.00045,-0.05292837,0.0003945685,0.83571
417.403,23.99085,6.01132,-0.05202406,-0.01167107,0.83284
420.603,24.0816,6.02858,-0.05418797,-0.01863321,0.82996
423.803,24.17248,6.04139,-0.05682023,-0.01355807,0.82709
427.003,24.26357,6.05542,-0.05683812,-0.01258239,0.82422
430.203,24.35484,6.06741,-0.05822495,-0.01831541,0.82135
433.403,24.44593,6.06679,-0.06124148,-0.01626445,0.81848
436.603,24.53789,6.06515,-0.06219044,-0.004393004,0.81562
439.803,24.62961,6.0518,-0.05957556,-0.006936057,0.81276
443.003,24.72172,6.04535,-0.06368246,-0.01464133,0.8099
446.203,24.81385,6.00884,-0.05931399,-0.03442161,0.80705
449.403,24.90618,6.00088,-0.0709502,-0.03566979,0.80421
452.603,24.9987,5.96256,-0.07119007,-0.01953177,0.80137
455.803,25.0914,5.9094,-0.07175702,-0.02364027,0.79853
459.003,25.18419,5.86376,-0.07545121,-0.03128579,0.7957
462.203,25.27739,5.79325,-0.07847098,-0.0431698,0.79287
465.403,25.3706,5.72784,-0.08310479,-0.05840104,0.79006
468.603,25.46404,5.62582,-0.08950283,-0.06915759,0.78724
471.803,25.5576,5.54258,-0.09587799,-0.09430075,0.78444
475.003,25.65149,5.45353,-0.10654,-0.12409,0.78164
478.203,25.74522,5.35353,-0.11886,-0.15276,0.77885
481.403,25.83942,5.23249,-0.13526,-0.18402,0.77607
484.603,25.93358,5.11094,-0.154,-0.22944,0.7733
487.803,26.02796,5.07274,-0.17823,-0.28476,0.77053
491.003,26.1225,5.04249,-0.20649,-0.3445,0.76778
494.203,26.2173,5.07838,-0.24318,-0.42422,0.76503
497.403,26.3121,5.19343,-0.28811,-0.53252,0.76229
500.603,26.4071,5.6768,-0.34062,-0.6697,0.75957
503.803,26.5024,6.08355,-0.41308,-0.81813,0.75685
507.003,26.59785,6.46944,-0.499,-0.97882,0.75414
510.203,26.6934,6.90569,-0.59678,-1.1261,0.75144
513.403,26.7894,6.85397,-0.71864,-1.24434,0.74876
516.603,26.8853,6.94915,-0.83747,-1.36254,0.74608
519.803,26.9815,7.1153,-0.97656,-1.50371,0.74342
523.003,27.07788,7.12633,-1.13152,-1.62991,0.74076
526.203,27.1744,6.98778,-1.28273,-1.77106,0.73812
529.403,27.2712,6.88265,-1.47388,-1.9235,0.73549
532.603,27.3679,6.79697,-1.66209,-2.04078,0.73288
535.803,27.4649,6.6001,-1.86877,-2.13233,0.73027
539.003,27.56192,6.226,-2.07994,-2.14143,0.72768
542.203,27.65945,5.55093,-2.28641,-2.01152,0.7251
545.403,27.75693,4.57668,-2.48098,-1.74913,0.72253
548.603,27.85456,3.45982,-2.63316,-1.39787,0.71998
551.803,27.9522,2.39661,-2.75349,-1.03309,0.71744
555.003,28.05,1.57914,-2.83289,-0.71535,0.71491
558.203,28.1481,1.08185,-2.88848,-0.48951,0.7124
561.403,28.24642,0.81913,-2.92668,-0.3392,0.7099
564.603,28.3448,0.69827,-2.95263,-0.24521,0.70741
567.803,28.4432,0.66869,-2.97443,-0.18332,0.70494
571.003,28.542,0.64426,-2.98897,-0.14132,0.70248
574.203,28.64065,0.64748,-3.00185,-0.12151,0.70004
577.403,28.7396,0.60151,-3.01249,-0.105,0.69761
580.603,28.83871,0.5904,-3.02163,-0.09084576,0.6952
583.803,28.93801,0.56495,-3.02885,-0.09186115,0.6928
587.003,29.0374,0.54339,-3.0404,-0.09010689,0.69042
590.203,29.13686,0.52319,-3.04886,-0.07371653,0.68805
593.403,29.2363,0.49934,-3.05429,-0.07677609,0.6857
596.603,29.3357,0.47462,-3.06357,-0.07784898,0.68336
599.803,29.4356,0.44764,-3.07079,-0.06758923,0.68104
603.003,29.5356,0.43537,-3.07617,-0.06927479,0.67873
606.203,29.6355,0.41927,-3.08435,-0.06522762,0.67644
609.403,29.73548,0.41628,-3.09076,-0.05877155,0.67417
612.603,29.8357,0.40578,-3.09427,-0.0534716,0.67191
615.803,29.93618,0.41787,-3.10023,-0.05241981,0.66966
617.803,29.999,0.43628,-3.10412,-0.04607466,0.66827