File: 01_Data/PC/STA/N2/30K_min/PC_STA_N2_30KData_211709_R1.csv
##Temp./Â°C,Time/min,DSC(subtr.2)/mW,Mass loss(subtr.2)/mg,DTG(subtr.2)/(mg/min),Sensit./(uV/mW)
49.383,10.01,0.10713,-0.02973,0.01310461,1.05401
52.583,11.65294,0.54551,-0.03289979,0.00751387,1.05406
55.783,12.0377,0.83917,-0.03566674,0.01591922,1.05406
58.983,12.323,1.02242,-0.0352886,-0.02293781,1.054
62.183,12.5657,1.18,-0.03616358,0.01352796,1.0539
65.383,12.7852,1.31439,-0.03455049,0.02719438,1.05375
68.583,12.98885,1.43689,-0.03701354,-0.007689941,1.05355
71.783,13.18164,1.53242,-0.03670699,-6.954641e-05,1.0533
74.983,13.3658,1.63284,-0.03749055,-0.003846511,1.05301
78.183,13.5418,1.73368,-0.03649395,-0.01786028,1.05266
81.383,13.71186,1.83572,-0.03546041,0.01504184,1.05227
84.583,13.8751,1.90034,-0.03926813,-0.009875823,1.05183
87.783,14.0321,1.94833,-0.03723802,-0.00316773,1.05134
90.983,14.1835,2.0166,-0.03907545,-0.00828828,1.05081
94.183,14.32961,2.08705,-0.03815025,0.07511657,1.05023
97.383,14.471,2.16459,-0.03864998,0.03425502,1.0496
100.583,14.60859,2.24406,-0.03908874,0.005486991,1.04893
103.783,14.74244,2.33464,-0.03759361,0.01205686,1.04821
106.983,14.8734,2.4134,-0.0376851,0.02047296,1.04745
110.183,15.00102,2.4953,-0.0394955,0.004292508,1.04664
113.383,15.1265,2.57729,-0.03869478,0.02355724,1.04579
116.583,15.24964,2.65531,-0.03788038,0.01334451,1.0449
119.783,15.37062,2.73636,-0.03900009,0.006499953,1.04396
122.983,15.4894,2.80952,-0.03845277,0.02028622,1.04298
126.183,15.60619,2.87873,-0.04050141,-0.01139059,1.04196
129.383,15.721,2.94627,-0.04167485,0.0002376127,1.04089
132.583,15.83435,3.00579,-0.03937263,0.001332093,1.03979
135.783,15.9458,3.07685,-0.04041774,-0.003899498,1.03864
138.983,16.05576,3.14887,-0.04165259,0.005160574,1.03745
142.183,16.16463,3.21809,-0.04187102,-0.008949331,1.03622
145.383,16.27179,3.3162,-0.04035017,-0.008726722,1.03496
148.583,16.37811,3.4516,-0.04049492,0.0038999,1.03365
151.783,16.48327,3.67529,-0.04048059,-0.001284972,1.0323
154.983,16.5872,3.88522,-0.04188998,-0.01822604,1.03092
158.183,16.69022,3.98201,-0.0420353,-0.00717528,1.02949
161.383,16.7927,4.06536,-0.04202421,-0.01236319,1.02803
164.583,16.89418,4.14553,-0.0420035,-0.01295085,1.02653
167.783,16.9946,4.20844,-0.04342602,-0.000186971,1.025
170.983,17.09449,4.27962,-0.04332817,-0.00330923,1.02343
174.183,17.19367,4.33984,-0.04333037,0.00452255,1.02182
177.383,17.29159,4.396,-0.04212351,-0.02062531,1.02018
180.583,17.38924,4.46141,-0.04333282,0.01755615,1.0185
183.783,17.4861,4.51278,-0.04094032,-0.001793018,1.01679
186.983,17.58195,4.57682,-0.04233999,-1.816285e-06,1.01505
190.183,17.67711,4.63675,-0.04233073,0.00584838,1.01327
193.383,17.7714,4.6752,-0.04201701,-0.01736995,1.01146
196.583,17.8657,4.73988,-0.04333003,4.246579e-06,1.00961
199.783,17.9593,4.78255,-0.04466146,-0.01720012,1.00774
202.983,18.05249,4.83833,-0.04201069,0.01061815,1.00583
206.183,18.1452,4.88488,-0.04440827,-0.01703681,1.00389
209.383,18.23761,4.94207,-0.0432773,0.01140264,1.00192
212.583,18.32966,4.98452,-0.04263787,-0.02687392,0.99992
215.783,18.4212,5.03186,-0.04354843,-0.01523039,0.9979
218.983,18.51239,5.06762,-0.04350129,0.01461527,0.99584
222.183,18.60331,5.12317,-0.0440489,0.02381775,0.99376
225.383,18.69388,5.16783,-0.04365438,-0.01701242,0.99164
228.583,18.7842,5.22014,-0.04356348,0.02150013,0.9895
231.783,18.8745,5.26789,-0.0450203,-0.01883434,0.98733
234.983,18.96428,5.30977,-0.04364638,-0.0006101297,0.98514
238.183,19.0537,5.35356,-0.04497027,-0.0008294185,0.98292
241.383,19.14315,5.38373,-0.04500294,0.01835341,0.98068
244.583,19.2322,5.43545,-0.04363537,0.01978699,0.97841
247.783,19.3209,5.47204,-0.04371909,-0.02677868,0.97611
250.983,19.4096,5.52066,-0.04497424,0.01772792,0.97379
254.183,19.49821,5.5591,-0.04566984,-0.0108818,0.97145
257.383,19.58655,5.58597,-0.04057789,-0.14759,0.96909
260.583,19.67472,5.61858,-0.04770558,0.06042738,0.9667
263.783,19.76248,5.64839,-0.04494501,-0.003391192,0.96429
266.983,19.85039,5.67913,-0.04594358,0.01239372,0.96187
270.183,19.93826,5.71468,-0.04561604,0.009333698,0.95942
273.383,20.02591,5.73174,-0.04496996,-2.67277e-06,0.95694
276.583,20.1132,5.75527,-0.0459225,-0.03483299,0.95445
279.783,20.20085,5.77988,-0.04695,8.988788e-09,0.95194
282.983,20.2882,5.79915,-0.04669429,0.01235849,0.94942
286.183,20.37575,5.84327,-0.04629,5.022097e-07,0.94687
289.383,20.4631,5.85876,-0.04628999,-0.0003138418,0.94431
292.583,20.55044,5.88802,-0.04772186,-0.01172915,0.94172
295.783,20.63774,5.91161,-0.04761684,0.002912945,0.93913
298.983,20.72489,5.92229,-0.04635886,0.02283653,0.93651
302.183,20.812,5.946,-0.04835501,-0.02729143,0.93388
305.383,20.8991,5.96305,-0.04750004,0.00139929,0.93124
308.583,20.9864,5.98515,-0.0475123,-0.01523785,0.92858
311.783,21.07365,6.00838,-0.0488551,0.02343639,0.9259
314.983,21.16067,6.02256,-0.04772,3.82379e-07,0.92322
318.183,21.24792,6.05206,-0.04772581,0.01984976,0.92052
321.383,21.33517,6.06649,-0.04640174,-0.010932,0.9178
324.583,21.42227,6.08306,-0.04771992,-0.0003019778,0.91508
327.783,21.5094,6.11035,-0.0490354,-0.01625519,0.91234
330.983,21.5967,6.13497,-0.04772224,0.002689149,0.90959
334.183,21.68402,6.15371,-0.05035631,-0.01686775,0.90683
337.383,21.77133,6.16292,-0.04892958,0.04133756,0.90406
340.583,21.859,6.16945,-0.04396704,0.05534691,0.90128
343.783,21.9466,6.17747,-0.03977009,0.03202679,0.89849
346.983,22.0343,6.19423,-0.04050165,-0.08479337,0.8957
350.183,22.12183,6.23445,-0.05008815,-0.06363419,0.89289
353.383,22.20968,6.25655,-0.05078755,0.01556931,0.89008
356.583,22.2976,6.26863,-0.05078916,-0.009044704,0.88726
359.783,22.38565,6.29385,-0.05078985,-0.002702661,0.88443
362.983,22.4738,6.31984,-0.05345932,-0.0335887,0.88159
366.183,22.56195,6.34274,-0.05473999,-1.756386e-06,0.87875
369.383,22.6504,6.35076,-0.05474004,0.00330776,0.87591
372.583,22.73893,6.36168,-0.0534204,0.00181609,0.87306
375.783,22.8277,6.39065,-0.05473363,-0.01076435,0.8702
378.983,22.9163,6.40647,-0.05514409,-0.01009933,0.86734
382.183,23.00534,6.41061,-0.05440997,0.0004099943,0.86448
385.383,23.0945,6.42785,-0.05440999,1.965903e-06,0.86161
388.583,23.1835,6.44571,-0.05475981,-0.02703798,0.85874
391.783,23.273,6.44371,-0.0558045,0.02359453,0.85587
394.983,23.3625,6.45874,-0.05702555,-0.01798422,0.853
398.183,23.45228,6.47605,-0.05635533,0.0069319,0.85012
401.383,23.54211,6.49513,-0.05705012,-0.01346006,0.84724
404.583,23.63211,6.50649,-0.05980189,0.01189102,0.84437
407.783,23.7224,6.52336,-0.0582401,0.000446956,0.84149
410.983,23.81279,6.54669,-0.05692448,0.002255878,0.83861
414.183,23.90315,6.55338,-0.05889033,-0.02157277,0.83573
417.383,23.99389,6.57451,-0.06154365,-0.00709383,0.83286
420.583,24.08483,6.58584,-0.06330403,-0.04263357,0.82998
423.783,24.17585,6.58912,-0.06417,-1.86291e-07,0.82711
426.983,24.26709,6.61543,-0.06416823,0.003871803,0.82424
430.183,24.3584,6.62064,-0.06416107,-0.020771,0.82137
433.383,24.45014,6.64046,-0.06570854,-0.03323059,0.8185
436.583,24.54179,6.64785,-0.06833857,-0.01297391,0.81564
439.783,24.6335,6.63696,-0.06837353,-0.02059495,0.81278
442.983,24.72574,6.62018,-0.07031296,-0.005651611,0.80992
446.183,24.81788,6.59861,-0.07109528,-0.0250651,0.80707
449.383,24.91025,6.57986,-0.07295097,-0.01101036,0.80423
452.583,25.00291,6.55472,-0.07499479,-0.03401059,0.80138
455.783,25.0957,6.50881,-0.0783224,-0.03799281,0.79855
458.983,25.18845,6.47,-0.08027092,-0.02516751,0.79572
462.183,25.28153,6.41971,-0.08156972,-0.02376096,0.79289
465.383,25.3747,6.34624,-0.08708411,-0.06299786,0.79007
468.583,25.46807,6.28716,-0.09438991,-0.10166,0.78726
471.783,25.56155,6.19718,-0.10216,-0.07005761,0.78446
474.983,25.65537,6.11885,-0.11154,-0.13148,0.78166
478.183,25.74928,6.01618,-0.12552,-0.12629,0.77887
481.383,25.8433,5.93059,-0.13964,-0.16135,0.77609
484.583,25.93746,5.78833,-0.15633,-0.22043,0.77332
487.783,26.03185,5.77741,-0.17933,-0.2547,0.77055
490.983,26.1264,5.74167,-0.2114,-0.37721,0.7678
494.183,26.2211,5.71664,-0.24511,-0.37177,0.76505
497.383,26.31578,5.78849,-0.28588,-0.47386,0.76231
500.583,26.4109,6.03825,-0.3351,-0.62523,0.75958
503.783,26.50592,6.58361,-0.40157,-0.77756,0.75686
506.983,26.60155,6.91907,-0.48003,-0.89,0.75416
510.183,26.697,7.25171,-0.57573,-1.09369,0.75146
513.383,26.79283,7.60407,-0.68432,-1.21369,0.74877
516.583,26.8889,7.78484,-0.80552,-1.3005,0.7461
519.783,26.98514,7.72992,-0.94122,-1.47189,0.74343
522.983,27.08132,7.63623,-1.08362,-1.56771,0.74078
526.183,27.17793,7.76996,-1.24779,-1.74847,0.73814
529.383,27.27464,7.68453,-1.42392,-1.91217,0.73551
532.583,27.37167,7.68494,-1.61861,-2.08403,0.73289
535.783,27.4688,7.51628,-1.82618,-2.17539,0.73029
538.983,27.5664,7.14863,-2.04166,-2.22897,0.72769
542.183,27.66385,6.48609,-2.25629,-2.11982,0.72511
545.383,27.76159,5.5319,-2.4483,-1.84367,0.72255
548.583,27.85945,4.42962,-2.61606,-1.48697,0.71999
551.783,27.95727,3.33029,-2.73557,-1.06818,0.71745
554.983,28.0552,2.47349,-2.82379,-0.72478,0.71493
558.183,28.1534,1.92391,-2.88171,-0.48835,0.71241
561.383,28.2515,1.62206,-2.91966,-0.3299,0.70991
564.583,28.3497,1.50075,-2.94667,-0.22023,0.70743
567.783,28.44837,1.46876,-2.9683,-0.18838,0.70496
570.983,28.54697,1.44264,-2.98355,-0.19408,0.7025
574.183,28.6457,1.44337,-2.99773,-0.07284719,0.70006
577.383,28.7446,1.42897,-3.00612,-0.09496695,0.69763
580.583,28.8435,1.42262,-3.01332,-0.0784544,0.69522
583.783,28.94233,1.42381,-3.02332,-0.11907,0.69282
586.983,29.0417,1.40705,-3.03259,-0.11292,0.69043
590.183,29.14118,1.3936,-3.04126,-0.08475924,0.68807
593.383,29.2405,1.38987,-3.04843,-0.08359024,0.68571
596.583,29.34005,1.38661,-3.0562,-0.06891025,0.68338
599.783,29.43983,1.38239,-3.06396,-0.08775956,0.68105
602.983,29.5399,1.39486,-3.07142,-0.07016078,0.67875
606.183,29.6398,1.40314,-3.07854,-0.06108671,0.67646
609.383,29.73982,1.42468,-3.08568,-0.07516298,0.67418
612.583,29.8402,1.4457,-3.08966,-0.0420808,0.67192
615.783,29.94032,1.48007,-3.09546,-0.04878035,0.66968
617.683,29.9999,1.50107,-3.09929,-0.10158,0.66835