File: 01_Data/PETG/Cone/PET-G_Cone_HF75Scan_220215_R1.csv
Names,Time,Stack TC,Smoke TC,Exh Press,Smoke Comp,Smoke Meas,CO Meter,CO2 Meter,O2 Meter,Sample Mass,Ext Coeff,Start Test,Flame Verif
Chan Gain,,500,500,1,1,1,1,1,1,1,1,1.0,1.0
Offset,,0,0,0.140898,0,0,0,0,0,0,0,0.0,0.0
Gain,,1,1,25.011,12.9668,12.6588,1,1,1,1.00088,1.01977,1.0,1.0
Units,sec,C,C,Pa,%,%,%,%,%,g,/m,,
Baseline,,36.494,39.3038,150.825,98.4854,97.9363,-0.00239373,0.0736745,20.9587,-872.168,0.0501313,,
10,2.25,34.8852,36.9941,154.375,98.9057,98.8083,-0.00225363,0.0837613,20.9472,35.6613,0.00881558,0.0,0.0
20,4.75,35.0022,37.1841,148.954,99.0122,98.5406,-0.00232142,0.0825245,20.9482,35.6113,0.0427083,0.0,0.0
30,7.25,35.0441,37.2095,149.398,99.0945,98.5784,-0.00237582,0.0819507,20.949,35.6613,0.0467052,0.0,0.0
40,9.75,35.161,37.468,149.474,99.18,98.5479,-0.0023735,0.0818181,20.9479,35.6213,0.0571874,0.0,0.0
50,12.25,35.3008,37.8864,151.744,99.2544,98.8883,-0.00240006,0.0827365,20.9477,35.6313,0.0330538,0.0,0.0
60,14.75,35.5094,37.8037,153.762,99.2658,98.7534,-0.00237583,0.084458,20.9464,35.6213,0.0462926,0.0,0.0
70,17.25,35.5661,37.6737,150.835,99.2643,99.151,-0.00228783,0.085328,20.946,35.6413,0.0102142,0.0,0.0
80,19.75,35.4735,37.8452,150.141,99.231,98.7898,-0.00221408,0.0841614,20.948,35.6513,0.0398657,0.0,0.0
90,22.25,35.829,37.5541,153.579,99.1637,99.0065,-0.00211343,0.0819027,20.9491,35.5812,0.014197,0.0,0.0
100,24.75,35.4339,38.4726,149.363,99.083,97.3334,-0.00202942,0.0799576,20.9522,35.5712,0.159374,0.0,0.0
110,27.25,35.9378,38.3012,155.756,98.9619,97.1649,-0.0019884,0.0787448,20.9533,35.5612,0.163928,0.0,0.0
120,29.75,35.9648,38.1983,152.603,98.8511,95.9442,-0.00173045,0.0784062,20.9562,35.5412,0.267006,0.0,0.0
130,32.25,35.698,39.0803,146.827,98.7075,93.34,-0.000539698,0.0931402,20.9309,35.4812,0.500153,0.0,1.0
140,34.75,37.0093,40.0869,136.87,98.6074,74.456,0.00230581,0.186938,20.7721,35.301,2.51308,0.0,1.0
150,37.25,38.6836,42.1912,130.164,98.5282,66.5628,0.00687762,0.345682,20.5717,34.9407,3.50833,0.0,0.0
160,39.75,40.8179,45.6151,132.38,98.4697,57.6072,0.0127637,0.501571,20.3667,34.5503,4.7956,0.0,0.0
170,42.25,44.1106,49.712,122.967,98.5547,51.9678,0.018864,0.670257,20.1012,34.12,5.72491,0.0,0.0
180,44.75,47.4883,55.2118,116.303,98.6829,41.9784,0.0270736,0.900817,19.8081,33.4594,7.6461,0.0,0.0
190,47.25,52.9884,61.8659,120.433,98.7973,38.6151,0.0366862,1.18552,19.4316,32.7488,8.40349,0.0,0.0
200,49.75,58.986,70.7866,109.804,98.8832,36.9234,0.0476302,1.4813,19.0861,31.838,8.81199,0.0,0.0
210,52.25,64.5116,78.9383,95.688,98.9453,35.2897,0.0617819,1.76927,18.7898,30.8171,9.22244,0.0,0.0
220,54.75,70.8311,88.774,92.5525,98.9896,33.5679,0.0828349,2.1133,18.3116,29.6961,9.6739,0.0,0.0
230,57.25,80.3688,102.92,89.6795,99.0205,30.5148,0.107051,2.6288,17.6302,28.3149,10.5297,0.0,0.0
240,59.75,90.6693,117.441,76.6298,99.0245,24.8228,0.141149,3.28521,16.9925,26.7635,12.3768,0.0,0.0
250,62.25,100.579,134.25,79.5631,99.0482,24.7992,0.182573,4.00647,16.0637,25.1121,12.3874,0.0,0.0
260,64.75,112.872,154.536,87.9988,99.0264,23.874,0.227999,5.06896,14.9011,23.0102,12.7256,0.0,0.0
270,67.25,126.863,179.028,63.2618,99.0292,33.2739,0.266456,6.20851,13.6285,20.7582,9.75616,0.0,0.0
280,69.75,139.839,203.253,74.4659,99.0233,22.7189,0.296235,7.06796,12.6796,18.5563,13.1689,0.0,0.0
290,72.25,152.067,224.782,83.5145,99.0027,23.565,0.318004,7.57139,12.1709,16.1642,12.84,0.0,0.0
300,74.75,162.995,244.82,59.2607,99.0142,34.1709,0.330274,7.93906,11.9156,13.8822,9.51684,0.0,0.0
310,77.25,173.38,262.331,67.1011,98.9916,19.6716,0.337378,8.02305,11.8581,11.6002,14.4544,0.0,0.0
320,79.75,181.048,273.866,57.3334,98.9884,23.5016,0.326749,7.79784,12.0998,9.46832,12.8628,0.0,0.0
330,82.25,187.481,281.859,72.8279,98.9683,23.4174,0.282496,7.1017,13.1293,7.5166,12.8931,0.0,0.0
340,84.75,189.126,280.987,97.5718,98.9979,31.3349,0.215408,5.76008,14.7445,6.18543,10.2904,0.0,0.0
350,87.25,185.866,273.378,97.7267,98.9892,36.7739,0.153199,4.37152,16.1963,5.17454,8.85787,0.0,0.0
360,89.75,182.531,264.236,99.6792,98.9979,41.1903,0.108673,3.2975,17.3799,4.26374,7.84414,0.0,0.0
370,92.25,178.169,254.436,112.077,99.0011,46.3325,0.0814754,2.51967,18.1756,3.48306,6.79207,0.0,0.0
380,94.75,172.756,243.726,115.308,99.0268,50.1756,0.0587039,1.94305,18.7964,2.87252,6.08159,0.0,0.0
390,97.25,167.36,233.251,125.137,99.028,58.5479,0.0413917,1.49428,19.3112,2.44214,4.70129,0.0,0.0
400,99.75,161.062,221.161,129.238,99.0462,72.0068,0.0275336,1.08769,19.7763,2.19193,2.85201,0.0,0.0
410,102.25,153.876,208.663,132.248,99.028,87.0948,0.0164523,0.716601,20.2318,2.11185,1.14863,0.0,0.0
420,104.75,146.923,197.588,134.442,99.0241,91.5038,0.00972295,0.467191,20.5152,2.0518,0.706521,0.0,0.0
430,107.25,140.749,186.637,140.927,98.9912,91.7364,0.00616494,0.335216,20.656,2.03178,0.680847,0.0,0.0
440,109.75,134.904,177.411,135.727,98.9481,91.2404,0.00451637,0.263393,20.741,1.98174,0.725448,0.0,0.0
450,112.25,129.12,168.338,138.082,98.8717,93.4945,0.0038622,0.218273,20.7987,1.97173,0.500227,0.0,0.0
460,114.75,123.846,159.791,140.688,98.7981,92.8899,0.00367659,0.189175,20.8325,1.95171,0.551598,0.0,0.0
470,117.25,118.148,151.277,139.582,98.6913,94.3942,0.00369733,0.169591,20.8564,1.96172,0.398212,0.0,0.0
480,119.75,115.251,144.695,141.311,98.5342,94.5237,0.00377557,0.15647,20.87,1.95171,0.371705,0.0,0.0
490,122.25,110.953,138.096,134.825,98.5065,93.7518,0.00390096,0.149252,20.8749,1.9317,0.442537,0.0,0.0
500,124.75,107.2,132.733,142.676,98.5642,93.7244,0.00401972,0.143895,20.8793,1.87164,0.4504,0.0,0.0
510,127.25,104.176,127.193,141.533,98.6426,93.226,0.00411334,0.14047,20.8827,1.94171,0.505198,0.0,0.0
520,129.75,101.09,122.929,142.898,98.7221,93.5772,0.00417904,0.137791,20.8862,1.9317,0.478776,0.0,0.0
530,132.25,97.7772,118.263,143.343,98.8393,94.0636,0.00415366,0.135127,20.8902,1.83161,0.44301,0.0,0.0
540,134.75,95.5689,113.566,145.193,98.9267,94.441,0.00416439,0.133096,20.8927,1.80158,0.415099,0.0,0.0
550,137.25,92.4584,109.439,142.147,99.0399,94.9575,0.0040777,0.131181,20.8948,1.78156,0.376538,0.0,0.0
560,139.75,90.4835,106.235,138.483,99.1309,94.3603,0.00391124,0.129747,20.8975,1.75154,0.441195,0.0,0.0
570,142.25,89.0051,102.886,141.872,99.2207,94.4762,0.00379617,0.128185,20.8998,1.7115,0.438317,0.0,0.0
580,144.75,86.2895,99.7705,143.113,99.2571,94.0751,0.00368556,0.126378,20.9019,1.69149,0.479647,0.0,0.0
590,147.25,84.3146,96.9193,140.675,99.2848,95.4887,0.00372233,0.124731,20.9028,1.7115,0.348734,0.0,0.0
600,149.75,82.6851,94.052,140.419,99.2346,94.5155,0.00379335,0.123414,20.9042,1.67147,0.435836,0.0,0.0
610,152.25,80.964,91.2724,144.644,99.1641,95.1959,0.00380531,0.121816,20.9063,1.62142,0.365328,0.0,0.0
620,154.75,79.6099,89.0659,142.885,99.0498,93.9596,0.00387255,0.12061,20.9081,1.62142,0.47193,0.0,0.0
630,157.25,78.1087,86.637,139.44,98.859,95.0197,0.00403828,0.119534,20.9094,1.64144,0.354333,0.0,0.0
640,159.75,76.7322,84.6165,140.759,98.6414,93.7043,0.00406298,0.118643,20.9099,1.65145,0.459317,0.0,0.0
650,162.25,75.3935,83.1894,142.062,98.3873,94.7207,0.00393626,0.117416,20.9115,1.56137,0.339742,0.0,0.0
660,164.75,74.3989,81.6758,142.197,98.1282,92.8907,0.00377991,0.11619,20.9132,1.55136,0.490658,0.0,0.0
670,167.25,73.0094,79.7367,142.616,97.8531,93.2283,0.00361349,0.115283,20.9138,1.54135,0.433097,0.0,0.0
680,169.75,72.1589,78.5601,140.385,97.6438,93.0924,0.00343036,0.114139,20.9125,1.52134,0.426997,0.0,0.0
690,172.25,71.2864,77.2093,139.288,97.4325,92.4789,0.00332414,0.113119,20.9131,1.50132,0.466762,0.0,0.0
700,174.75,70.5779,76.0608,143.841,97.334,93.0873,0.00321221,0.112593,20.9149,1.51133,0.399049,0.0,0.0
710,177.25,69.1552,74.9095,138.702,97.2968,93.4451,0.00313863,0.111691,20.9166,1.51133,0.361319,0.0,0.0
720,179.75,69.1792,73.1915,137.899,97.4064,93.17,0.00312013,0.110858,20.9179,1.49131,0.397761,0.0,0.0
730,182.25,68.3226,72.5889,141.784,97.592,92.8691,0.00309339,0.110012,20.9183,1.47129,0.443729,0.0,0.0
740,184.75,67.4828,71.085,142.61,97.8231,93.8638,0.00315269,0.109572,20.9189,1.46128,0.369577,0.0,0.0
750,187.25,66.9929,70.3769,144.772,98.087,94.1184,0.00314782,0.109043,20.9201,1.45127,0.369452,0.0,0.0
760,189.75,65.7293,69.2808,143.156,98.3319,94.0296,0.00295548,0.108389,20.9214,1.42125,0.400212,0.0,0.0
770,192.25,65.1354,68.2196,142.311,98.5306,94.3788,0.00269296,0.107503,20.9234,1.41124,0.385103,0.0,0.0
780,194.75,64.4792,68.3647,144.415,98.5951,93.3813,0.00263076,0.106734,20.9251,1.39122,0.486002,0.0,0.0
790,197.25,64.3852,66.7377,143.711,98.6113,94.4819,0.00253206,0.105936,20.9261,1.39122,0.382658,0.0,0.0
800,199.75,64.0397,66.8385,144.245,98.5116,94.4043,0.00255638,0.105361,20.9275,1.3712,0.380962,0.0,0.0
810,202.25,63.4365,65.7118,141.44,98.4087,93.0858,0.00263708,0.104901,20.928,1.3612,0.49743,0.0,0.0
820,204.75,62.9172,64.6614,144.44,98.2516,93.7159,0.00259907,0.103875,20.9291,1.31115,0.422793,0.0,0.0
830,207.25,62.1839,64.73,141.936,98.1784,94.0048,0.00257183,0.102877,20.9311,1.32116,0.388587,0.0,0.0
840,209.75,61.6239,64.5036,140.656,98.3893,94.7423,0.00245733,0.101957,20.933,1.29113,0.33788,0.0,0.0
850,212.25,61.4926,63.6428,145.77,98.7842,94.3008,0.00235983,0.101175,20.9343,1.28113,0.415502,0.0,0.0
860,214.75,61.2038,63.2484,141.181,98.9817,94.7076,0.00217986,0.100584,20.9352,1.31115,0.39486,0.0,0.0
870,217.25,60.8535,62.4004,143.963,98.9861,94.1466,0.00189376,0.100171,20.9355,1.31115,0.448391,0.0,0.0
880,219.75,60.2669,61.535,142.756,98.7589,94.5967,0.00172165,0.099647,20.9356,1.26111,0.385181,0.0,0.0
890,222.25,59.9751,61.7752,140.345,98.4962,94.1037,,0.0988489,,1.30114,0.408086,0.0,0.0
900,224.75,59.0715,60.3105,147.144,98.6849,94.0215,,0.0983377,,1.24109,0.433037,0.0,0.0
910,227.25,59.2189,60.3594,143.413,98.9243,94.1729,,,,1.23108,0.440316,0.0,0.0
920,229.75,59.0703,59.9804,146.265,99.1392,94.4487,,,,1.21106,0.433562,0.0,0.0
930,232.25,59.146,60.0927,142.34,99.2512,94.8497,,,,1.21106,0.405762,0.0,0.0
933,233,58.9432,60.0444,144.449,99.2591,94.4557,,,,1.19105,0.443716,0.0,0.0