File: 01_Data/PETG/Cone/PET-G_Cone_HF25Scan_220215_R3.csv
Names,Time,Stack TC,Smoke TC,Exh Press,Smoke Comp,Smoke Meas,CO Meter,CO2 Meter,O2 Meter,Sample Mass,Ext Coeff,Start Test,Flame Verif
Chan Gain,,500,500,1,1,1,1,1,1,1,1,1.0,1.0
Offset,,0,0,0.140898,0,0,0,0,0,0,0,0.0,0.0
Gain,,1,1,25.011,12.9668,12.6588,1,1,1,1.00088,1.01977,1.0,1.0
Units,sec,C,C,Pa,%,%,%,%,%,g,/m,,
Baseline,,20.1908,20.464,163.588,98.5104,101.545,-0.000864891,0.0660785,20.9759,-871.583,-0.271415,,
21,5,18.6386,18.8071,164.609,97.163,100.363,-0.00103954,0.0713475,20.9727,33.4994,-0.289882,0.0,0.0
42,10.25,18.4747,19.2308,166.651,97.0657,100.498,-0.0010628,0.0672029,20.9776,33.4694,-0.310823,0.0,0.0
63,15.5,18.6055,18.9122,165.632,97.1262,100.513,-0.00125578,0.066304,20.9799,33.4294,-0.306585,0.0,0.0
84,20.75,18.6308,19.1971,161.329,97.3478,100.873,-0.00131705,0.0657378,20.9809,33.4494,-0.318185,0.0,0.0
105,26,18.7341,19.0544,166.71,97.658,100.9,-0.00098418,0.0647135,20.9818,33.4294,-0.292121,0.0,0.0
126,31.25,19.1192,19.1936,166.226,98.0015,100.994,-0.001134,0.0645257,20.9821,33.4193,-0.269066,0.0,0.0
147,36.5,18.6333,19.1464,163.11,98.349,102.08,-0.00138871,0.0648244,20.9821,33.3993,-0.333114,0.0,0.0
168,41.75,19.2584,19.6545,162.833,98.6576,102.297,-0.00137394,0.0644523,20.9809,33.4394,-0.324055,0.0,0.0
189,47,19.2502,19.1576,161.769,98.8788,102.543,-0.00106587,0.0646071,20.982,33.4294,-0.32548,0.0,0.0
210,52.25,18.4031,19.5659,164.371,99.0039,102.359,-0.00100983,0.0645673,20.9799,33.4093,-0.298153,0.0,0.0
231,57.5,18.9904,19.6809,163.062,99.0209,102.524,-0.000854147,0.064614,20.9801,33.3893,-0.31102,0.0,0.0
252,62.75,18.4012,19.7915,164.018,98.9342,102.442,-0.000726018,0.0646001,20.9819,33.3993,-0.311636,0.0,0.0
273,68,19.0489,19.7075,166.838,98.7637,102.639,-0.000819837,0.0646436,20.9815,33.3893,-0.344325,0.0,0.0
294,73.25,18.4936,19.5045,160.798,98.5698,101.954,-0.0011168,0.064837,20.98,33.3693,-0.301942,0.0,0.0
315,78.5,18.8515,19.8924,159.891,98.368,102.137,-0.000684598,0.064786,20.9797,33.3593,-0.336361,0.0,0.0
336,83.75,18.7999,19.4404,161.97,98.2445,101.958,-0.000705342,0.0650542,20.9797,33.3593,-0.331917,0.0,0.0
357,89,18.9328,19.9494,161.923,98.5816,101.824,-0.00092587,0.0649379,20.9774,33.3593,-0.289469,0.0,0.0
378,94.25,19.0734,19.5545,164.954,98.7617,102.208,-0.00112161,0.0647622,20.9789,33.3393,-0.306784,0.0,0.0
399,99.5,18.819,19.5217,168.072,98.7815,102.016,-0.000986986,0.064656,20.9812,33.3393,-0.288206,0.0,0.0
420,104.75,18.4797,19.8396,160.266,98.6406,102.19,-0.000912722,0.0646439,20.9817,33.3493,-0.316236,0.0,0.0
441,110,18.785,19.9353,164.177,98.3042,101.572,-0.000829363,0.0645604,20.9818,33.3293,-0.292521,0.0,0.0
462,115.25,18.8491,19.3606,162.989,97.9663,101.237,-0.000753059,0.0645419,20.9818,33.3393,-0.293778,0.0,0.0
483,120.5,18.8322,19.9839,162.743,98.0569,101.274,-0.000870574,0.0648144,20.9802,33.3193,-0.288784,0.0,0.0
504,125.75,18.8046,19.483,167.528,98.1713,101.271,-0.00104279,0.0648569,20.9795,33.3193,-0.278084,0.0,0.0
525,131,18.9007,19.5579,161.189,98.275,101.833,-0.0012214,0.0647977,20.9799,33.3193,-0.318155,0.0,0.0
546,136.25,18.9032,19.3752,164.877,98.3715,101.683,-0.00126632,0.0649006,20.9803,33.3093,-0.29616,0.0,0.0
567,141.5,19.1648,20.169,162.693,98.3371,101.671,-0.00115094,0.0650608,20.9809,33.3093,-0.298238,0.0,0.0
588,146.75,19.3145,20.0199,159.396,98.1946,101.254,-0.000985077,0.0650212,20.9815,33.2992,-0.274456,0.0,0.0
609,152,19.2612,19.8635,163.503,98.0047,101.096,-0.00117321,0.065153,20.9796,33.2792,-0.277772,0.0,0.0
630,157.25,18.9439,19.9196,163.427,97.7795,100.873,-0.00144436,0.0655489,20.9805,33.2792,-0.278635,0.0,0.0
651,162.5,19.2235,19.8835,169.604,97.5271,100.347,-0.00113114,0.0655024,20.9815,33.2692,-0.254946,0.0,0.0
672,167.75,19.1398,19.9546,160.368,97.307,99.8479,-0.0008685,0.0652289,20.9816,33.2592,-0.23058,0.0,0.0
693,173,19.2383,20.2547,165.976,97.1535,99.9626,-0.00092099,0.0648551,20.9794,33.2492,-0.254978,0.0,0.0
714,178.25,19.6016,19.8428,163.842,97.034,99.1015,-0.0011875,0.0649656,20.9804,33.2492,-0.188598,0.0,0.0
735,183.5,19.296,20.0606,165.913,97.0581,99.7208,-0.00116299,0.0649497,20.9812,33.2392,-0.242096,0.0,0.0
756,188.75,19.0807,19.7241,170.687,97.1646,99.6737,-0.00084784,0.0646986,20.9812,33.2292,-0.228062,0.0,0.0
777,194,19.4911,20.4209,164.051,97.3854,99.9205,-0.000835542,0.0650452,20.9795,33.2092,-0.229883,0.0,0.0
798,199.25,18.8635,20.4186,157.911,97.7206,100.09,-0.00103124,0.065356,20.9797,33.1992,-0.214354,0.0,0.0
819,204.5,18.7471,19.941,161.966,98.1056,100.229,-0.000989711,0.0649619,20.9799,33.1992,-0.191564,0.0,0.0
840,209.75,18.973,19.9365,158.038,98.4697,100.028,-0.00110218,0.0647949,20.9799,33.1891,-0.140449,0.0,0.0
861,215,19.1725,19.7127,161.482,98.7585,100.477,-0.000927229,0.0653027,20.9799,33.1791,-0.154299,0.0,0.0
882,220.25,19.4414,19.9345,163.823,98.9548,101.43,-0.000614977,0.0655709,20.978,33.1691,-0.220988,0.0,0.0
903,225.5,19.5297,20.6429,163.679,99.0225,100.875,-0.000614323,0.0659442,20.9777,33.1391,-0.16578,0.0,0.0
924,230.75,19.4213,20.521,163.135,98.9374,100.713,-0.000662426,0.0666611,20.9763,33.1191,-0.159103,0.0,0.0
945,236,19.2946,20.5899,160.728,98.7451,100.828,-0.00107453,0.0668942,20.9755,33.0991,-0.186728,0.0,0.0
966,241.25,19.0372,20.2357,161.059,98.4645,100.252,-0.000686721,0.0675335,20.9754,33.049,-0.160897,0.0,0.0
987,246.5,19.5994,20.573,158.522,98.2465,98.8025,-0.000656175,0.0690435,20.9724,33.049,-0.0504843,0.0,0.0
1008,251.75,19.4768,20.9402,162.604,98.5437,100.464,-6.90904e-05,0.0828518,20.9446,32.9489,-0.172648,0.0,1.0
1029,257,20.8702,22.2979,154.578,98.7633,84.4323,0.00354788,0.208718,20.7953,32.6687,1.40241,0.0,1.0
1050,262.25,23.9967,27.5137,144.88,98.7993,71.6004,0.00925255,0.40547,20.5169,32.0982,2.88031,0.0,0.0
1071,267.5,28.3373,32.3308,143.751,98.7467,70.6076,0.0132627,0.565101,20.3111,31.4877,3.00045,0.0,0.0
1092,272.75,33.0543,39.1259,134.881,98.622,71.3137,0.0169618,0.679259,20.1508,30.687,2.90013,0.0,0.0
1113,278,39.1757,46.5359,134.723,98.4716,66.9453,0.0202757,0.781953,20.0287,29.7561,3.45194,0.0,0.0
1134,283.25,43.8102,54.0276,125.864,98.3031,60.0205,0.0243406,0.883724,19.9011,28.7653,4.41335,0.0,0.0
1155,288.5,49.9034,61.8716,115.799,98.1388,54.1717,0.0314452,1.05432,19.6659,27.5542,5.31554,0.0,0.0
1176,293.75,57.2412,70.927,115.278,97.9889,49.3694,0.0393098,1.28807,19.3471,26.133,6.13224,0.0,0.0
1197,299,65.4624,82.975,104.592,97.996,46.2337,0.0520688,1.60509,18.9759,24.3714,6.7199,0.0,0.0
1218,304.25,74.5833,96.4389,103.953,97.9904,44.3353,0.064306,1.88574,18.6697,22.5698,7.09445,0.0,0.0
1239,309.5,83.5885,109.205,106.564,98.0031,38.4702,0.077139,2.21097,18.24,20.2878,8.36492,0.0,0.0
1260,314.75,94.9834,126.103,95.8147,98.0316,43.1331,0.0967571,2.67946,17.6972,17.9558,7.34412,0.0,0.0
1281,320,107.954,144.778,80.55,98.22,41.3135,0.125083,3.30457,17.0442,15.1033,7.74684,0.0,0.0
1302,325.25,122.669,165.277,82.0956,98.4756,43.6863,0.152473,3.9591,16.3973,11.8304,7.27054,0.0,0.0
1323,330.5,132.191,181.083,102.773,98.6798,45.8412,0.151564,3.981,16.5304,8.73767,6.85837,0.0,0.0
1344,335.75,133.708,179.775,99.2602,98.8298,45.5514,0.114388,3.11558,17.5031,6.20545,6.92867,0.0,0.0
1365,341,131.023,174.55,118.025,98.7882,51.2739,0.0802519,2.27172,18.4348,4.06357,5.86632,0.0,0.0
1386,346.25,123.849,161.823,137.296,98.5571,60.3416,0.0457136,1.36136,19.4774,2.92257,4.38872,0.0,0.0
1407,351.5,114.385,146.215,134.688,98.2983,68.015,0.0234156,0.818047,20.081,2.1619,3.29438,0.0,0.0
1428,356.75,104.877,132.636,143.617,98.5005,76.4606,0.0131605,0.573546,20.3945,1.61142,2.26573,0.0,0.0
1449,362,96.5081,120.351,145.519,98.7795,85.1597,0.00784875,0.422509,20.5817,1.24109,1.32714,0.0,0.0
1470,367.25,89.0274,108.782,151.43,98.9888,93.5065,0.00464174,0.292521,20.7371,1.04091,0.509671,0.0,0.0
1491,372.5,81.485,98.5349,150.412,99.051,98.4112,0.00353018,0.178551,20.859,0.970853,0.0579672,0.0,0.0
1512,377.75,74.3908,88.081,158.422,98.8539,98.0187,0.00266432,0.112248,20.9299,0.960844,0.075901,0.0,0.0
1533,383,68.6875,79.4637,159.249,98.4166,98.68,0.00115807,0.0845938,20.9604,0.980861,-0.02391,0.0,0.0
1554,388.25,64.1152,72.9283,156.658,97.81,97.4292,0.000621896,0.0761046,20.97,1.00088,0.0348991,0.0,0.0
1575,393.5,60.1068,66.2549,154.058,97.2869,96.9107,6.12955e-05,0.072504,20.9725,0.950835,0.0346537,0.0,0.0
1596,398.75,55.9511,61.401,155.111,97.0439,96.7805,0.000152527,0.0693548,20.9752,0.99087,0.02431,0.0,0.0
1617,404,52.7841,56.8645,157.5,97.2192,96.6778,0.000295001,0.0673778,20.9774,0.980861,0.0499582,0.0,0.0
1638,409.25,49.5691,52.84,158.861,97.6462,97.5026,0.000416096,0.06644,20.9795,0.970853,0.0131663,0.0,0.0
1659,414.5,48.1223,49.7467,162.827,98.1143,97.7015,9.91072e-05,0.0658963,20.9797,1.00088,0.0377146,0.0,0.0
1680,419.75,45.8478,47.3977,157.665,98.3608,98.1527,1.17028e-05,0.0656771,20.9786,0.970853,0.0189463,0.0,0.0
1701,425,44.3119,44.7418,157.974,98.2445,97.8997,3.59221e-06,0.0652167,20.9779,0.980861,0.0314505,0.0,0.0
1722,430.25,42.4019,42.0855,156.287,98.0435,98.264,0.000105919,0.0650776,20.9783,0.99087,-0.0200964,0.0,0.0
1743,435.5,39.8462,39.9563,156.731,98.2659,98.4417,0.000201793,0.0650288,20.9781,0.970853,-0.0159917,0.0,0.0
1764,440.75,40.0971,39.6104,158.855,98.791,98.2532,6.70064e-05,0.0650081,20.9775,0.99087,0.0488309,0.0,0.0
1785,446,38.2111,37.3678,157.028,98.4301,98.7442,-0.000150278,0.0647575,20.9804,0.99087,-0.0284998,0.0,0.0
1806,451.25,37.988,36.6382,156.869,98.5385,98.5023,-3.79332e-06,0.0645666,20.981,0.970853,0.00328381,0.0,0.0
1827,456.5,37.0866,35.6849,156.713,98.9694,99.448,-0.000252097,0.0645329,20.9799,1.00088,-0.0431537,0.0,0.0
1848,461.75,36.2486,34.81,157.254,98.9386,98.8956,-0.000601592,0.0645692,20.9809,0.980861,0.003885,0.0,0.0
1869,467,35.5967,33.4301,157.846,98.307,98.0874,-0.000500484,0.064172,20.9782,0.980861,0.0200019,0.0,0.0
1890,472.25,33.7612,32.4804,157.935,97.4416,97.8425,0.000152213,0.0641568,20.9792,1.00088,-0.0367301,0.0,0.0
1911,477.5,34.2637,32.8614,156.188,97.0657,96.7253,0.000138918,0.0639825,20.9797,0.980861,0.0314228,0.0,0.0
1932,482.75,33.1577,31.13,160.74,97.4729,98.0735,-8.3943e-05,0.0640134,20.9797,1.00088,-0.0549568,0.0,0.0
1953,488,32.9234,31.5508,159.16,98.1392,98.3374,-0.00015284,0.0639394,20.9803,0.970853,-0.018043,0.0,0.0
1974,493.25,32.9702,31.2153,159.214,98.3731,98.8906,,,,1.00088,-0.0469338,0.0,0.0
1995,498.5,31.91,30.4236,154.608,98.0878,97.4307,,,,1.01089,0.0601261,0.0,0.0
1997,499,31.9905,30.5147,161.594,98.053,98.4417,,,,1.01089,-0.0353923,0.0,0.0