File: 01_Data/PETG/Cone/PET-G_Cone_HF75Scalar_220215_R1.csv
LABORATORY,FSRI
TEST IDENT,PET-G_HF75_1
OPERATOR,Dow
MATERIAL,PET-G
ORIENTATION,Horizontal
HEAT FLUX,75
SURF AREA,0.01
C FACTOR,0.0393671
SPEC HOLDER DIFF,304.84
SPECIMEN MASS,34.6
SCAN TIME,0.25
O2 DELAY TIME,11
CO DELAY TIME,11
CO2 DELAY TIME,8
FLOW FACTOR,1
SCAN COUNT,933
TIME TO IGN,32.25
END OF TEST SCAN,453
END OF TEST TIME,113.25
TEST STATUS,1
PRE TEST CMT,Dimensions: 99.18 x 99.16 x 2.66 mm