File: 01_Data/PETG/Cone/PET-G_Cone_HF75Scan_220215_R2.csv
Names,Time,Stack TC,Smoke TC,Exh Press,Smoke Comp,Smoke Meas,CO Meter,CO2 Meter,O2 Meter,Sample Mass,Ext Coeff,Start Test,Flame Verif
Chan Gain,,500,500,1,1,1,1,1,1,1,1,1.0,1.0
Offset,,0,0,0.140898,0,0,0,0,0,0,0,0.0,0.0
Gain,,1,1,25.011,12.9668,12.6588,1,1,1,1.00088,1.01977,1.0,1.0
Units,sec,C,C,Pa,%,%,%,%,%,g,/m,,
Baseline,,42.9077,44.9,148.259,97.9762,95.4573,-0.002516,0.0734043,20.9591,-872.593,0.233117,,
10,2.25,39.379,40.6702,145.986,98.5045,97.0007,-0.00256709,0.0882063,20.9395,33.4594,0.137611,0.0,0.0
20,4.75,39.7206,41.2242,149.371,98.548,95.8835,-0.00253211,0.0855659,20.9449,33.3993,0.245191,0.0,0.0
30,7.25,39.6801,41.8041,145.735,98.6778,97.4311,-0.00251884,0.0850308,20.946,33.4193,0.113738,0.0,0.0
40,9.75,39.8048,41.9434,148.774,98.8313,96.2737,-0.00263102,0.0847487,20.9468,33.4394,0.234544,0.0,0.0
50,12.25,39.3409,41.5244,149.536,98.9081,96.3482,-0.00279769,0.082546,20.9486,33.4193,0.234566,0.0,0.0
60,14.75,40.6025,42.1839,145.908,98.9607,97.3785,-0.00280865,0.0800726,20.9509,33.2092,0.144175,0.0,0.0
70,17.25,40.3315,41.5399,147.583,98.9619,96.7291,-0.0025784,0.0795689,20.9508,33.4093,0.204137,0.0,0.0
80,19.75,40.3836,41.9727,146.012,98.9544,96.4147,-0.00230255,0.0810565,20.9489,33.3993,0.232584,0.0,0.0
90,22.25,39.9307,42.1717,147.767,98.8701,96.0388,-0.00207501,0.0837691,20.9455,33.3793,0.259904,0.0,0.0
100,24.75,40.3724,42.6379,144.651,98.7518,95.384,-0.00193832,0.0889493,20.9401,33.3493,0.310393,0.0,0.0
110,27.25,40.4038,42.3972,145.111,98.6054,94.3796,-0.00191829,0.0918889,20.9401,33.3093,0.391817,0.0,0.0
120,29.75,40.3852,42.2419,152.032,98.3751,92.3777,-0.00126716,0.0958156,20.9326,33.2992,0.562682,0.0,1.0
130,32.25,41.2994,43.2944,140.246,98.1357,79.8401,0.00104218,0.147432,20.8348,33.1091,1.84564,0.0,1.0
140,34.75,42.3617,45.1389,135.096,98.106,67.8419,0.00474559,0.283102,20.6533,32.9089,3.29965,0.0,0.0
150,37.25,44.5303,47.9125,128.405,98.1646,59.0721,0.00961982,0.437107,20.4663,32.5186,4.54321,0.0,0.0
160,39.75,47.2622,51.2981,125.605,98.2136,56.699,0.0145105,0.583131,20.246,32.1482,4.91447,0.0,0.0
170,42.25,49.6749,55.2609,109.63,98.2959,47.6124,0.020221,0.745478,20.0477,31.6178,6.48438,0.0,0.0
180,44.75,53.9912,61.5491,115.366,98.3375,42.9762,0.0277878,0.935204,19.7621,30.9272,7.40458,0.0,0.0
190,47.25,57.6794,67.1343,105.077,98.4146,37.2746,0.0356045,1.20084,19.47,30.1765,8.68483,0.0,0.0
200,49.75,64.1521,76.3474,109.451,98.4946,35.139,0.0462029,1.49403,19.1712,29.3558,9.21987,0.0,0.0
210,52.25,69.6944,84.3792,95.6873,98.5583,35.4709,0.0592733,1.73648,18.8125,28.3549,9.14157,0.0,0.0
220,54.75,75.5871,93.0232,89.7703,98.6256,28.7795,0.0766957,2.03866,18.4139,27.2239,11.0177,0.0,0.0
230,57.25,83.0265,104.008,90.8168,98.6315,24.484,0.106692,2.51693,17.8704,25.7526,12.4642,0.0,0.0
240,59.75,92.3103,118.544,84.8236,98.6632,24.5589,0.152549,3.23538,16.9227,24.2913,12.4397,0.0,0.0
250,62.25,103.991,137.717,58.0418,98.6481,26.6621,0.202157,4.30374,15.6918,22.3096,11.7033,0.0,0.0
260,64.75,117.028,159.864,77.3221,98.6355,24.1321,0.243049,5.42014,14.6427,20.2077,12.594,0.0,0.0
270,67.25,131.229,186.464,68.6292,98.5935,33.3253,0.267908,6.54038,13.3332,17.9358,9.70292,0.0,0.0
280,69.75,144.818,209.648,101.026,98.5361,24.6714,0.285223,7.3361,12.4853,15.8639,12.3873,0.0,0.0
290,72.25,157.224,231.352,55.207,98.4649,25.755,0.299826,7.76006,12.1417,13.5519,11.9963,0.0,0.0
300,74.75,166.881,248.611,69.5794,98.3838,18.4741,0.313266,7.75131,12.1248,11.3199,14.9611,0.0,0.0
310,77.25,175.211,260.87,57.5846,98.2674,21.8412,0.31877,7.5249,12.335,9.16805,13.4528,0.0,0.0
320,79.75,181.303,269.656,60.0286,98.1749,22.2557,0.306355,7.15923,12.8261,6.99614,13.2762,0.0,0.0
330,82.25,186.116,275.187,85.293,98.072,22.6737,0.277951,6.44409,13.7393,5.20457,13.1004,0.0,0.0
340,84.75,188.469,276.424,83.3405,97.9422,25.9663,0.232351,5.61265,14.6288,3.66322,11.8756,0.0,0.0
350,87.25,188.409,273.402,95.6239,97.8393,27.5718,0.178356,4.69252,15.8345,2.38209,11.3296,0.0,0.0
360,89.75,185.942,266.119,97.9114,97.7269,31.6324,0.128675,3.61361,17.0367,1.43126,10.0903,0.0,0.0
370,92.25,181.148,255.673,113.817,97.6331,47.4274,0.0893418,2.61036,17.982,0.690607,6.45869,0.0,0.0
380,94.75,174.382,243.219,120.949,97.5476,55.9368,0.0582843,1.77522,18.8969,0.370325,4.97467,0.0,0.0
390,97.25,167.351,230.797,127.897,97.4804,64.6984,0.03655,1.23667,19.5613,0.130114,3.66682,0.0,0.0
400,99.75,160.832,218.733,134.809,97.4163,78.3605,0.0219959,0.830754,20.0406,-0.0400352,1.94716,0.0,0.0
410,102.25,153.885,206.649,137.67,97.3969,90.2328,0.0130726,0.540487,20.3966,-0.0700615,0.683429,0.0,0.0
420,104.75,147.242,195.327,134.461,97.3739,91.5734,0.00824584,0.360425,20.6069,-0.130114,0.549405,0.0,0.0
430,107.25,140.449,184.413,140.486,97.4103,92.2398,0.00570299,0.262966,20.7306,-0.100088,0.487888,0.0,0.0
440,109.75,135.105,175.391,134.809,97.4163,91.9238,0.00445214,0.209666,20.7995,-0.130114,0.519132,0.0,0.0
450,112.25,129.711,165.993,136.888,97.4903,91.9064,0.00387866,0.182844,20.8334,-0.120105,0.527616,0.0,0.0
460,114.75,124.033,157.806,137.817,97.5615,92.3394,0.00369775,0.168267,20.8531,-0.130114,0.492098,0.0,0.0
470,117.25,120.22,151.491,140.608,97.6727,92.6303,0.00362466,0.159998,20.8608,-0.160141,0.47415,0.0,0.0
480,119.75,116.419,144.63,136.417,97.7863,92.0207,0.00337917,0.155062,20.8614,-0.180158,0.543611,0.0,0.0
490,122.25,112.453,138.229,136.566,97.9346,93.3995,0.00315756,0.150052,20.8674,-0.210185,0.42414,0.0,0.0
500,124.75,109.016,133.289,138.257,98.0803,92.9792,0.00298966,0.146637,20.8716,-0.230202,0.477777,0.0,0.0
510,127.25,105.529,127.751,139.212,98.2477,93.0128,0.00287861,0.144412,20.8732,-0.230202,0.489798,0.0,0.0
520,129.75,102.205,123.153,136.459,98.4052,93.019,0.00269164,0.14279,20.8755,-0.270237,0.503531,0.0,0.0
530,132.25,99.7789,118.779,140.208,98.5615,93.6873,0.00249064,0.140842,20.8778,-0.290255,0.453688,0.0,0.0
540,134.75,96.9753,114.57,137.069,98.7217,94.4483,0.0023515,0.139349,20.8796,-0.320281,0.395849,0.0,0.0
550,137.25,94.8159,111.026,137.222,98.8515,94.1594,0.00243193,0.138127,20.8802,-0.33029,0.435013,0.0,0.0
560,139.75,92.5099,106.63,137.179,99.0039,94.3317,0.00254235,0.136628,20.8826,-0.380334,0.432436,0.0,0.0
570,142.25,89.9744,103.632,139.118,99.0941,93.491,0.00254749,0.135875,20.8829,-0.41036,0.520657,0.0,0.0
580,144.75,88.7347,101.158,137.514,99.1768,94.4394,0.00249175,0.13537,20.884,-0.370325,0.437831,0.0,0.0
590,147.25,86.5121,98.3865,140.994,99.229,93.8403,0.00255733,0.134411,20.8848,-0.41036,0.499477,0.0,0.0
600,149.75,84.4171,95.0875,137.948,99.2817,94.1335,0.00262868,0.132514,20.8875,-0.450396,0.476313,0.0,0.0
610,152.25,83.389,93.3841,139.21,99.271,94.033,0.00271203,0.130547,20.8903,-0.440387,0.4849,0.0,0.0
620,154.75,81.4923,90.4957,140.024,99.2738,94.3,0.00279868,0.129177,20.8915,-0.470413,0.459791,0.0,0.0
630,157.25,80.3985,89.0227,141.488,99.2108,94.2876,0.00279226,0.127895,20.8928,-0.470413,0.455294,0.0,0.0
640,159.75,79.0579,87.084,139.205,99.1574,94.5194,0.00264196,0.126459,20.8953,-0.520457,0.428511,0.0,0.0
650,162.25,77.8984,85.2336,138.451,99.0731,94.9266,0.00243122,0.124734,20.8962,-0.530466,0.382451,0.0,0.0
660,164.75,76.9484,83.303,143.826,98.9738,93.977,0.00241868,0.12364,20.8969,-0.560492,0.463412,0.0,0.0
670,167.25,75.4059,81.9528,143.039,98.8713,94.1856,0.00254518,0.122579,20.8978,-0.570501,0.434308,0.0,0.0
680,169.75,74.078,80.3907,144.796,98.774,94.2868,0.00269242,0.121833,20.8992,-0.58051,0.415889,0.0,0.0
690,172.25,73.6536,78.9582,142.112,98.6636,93.284,0.00267903,0.121141,20.9001,-0.600527,0.501541,0.0,0.0
700,174.75,72.523,77.5822,138.602,98.5682,93.8851,0.00264843,0.120179,20.9001,-0.610536,0.435434,0.0,0.0
710,177.25,71.882,76.2592,143.31,98.4922,93.6123,0.00270138,0.119431,20.9003,-0.620545,0.454559,0.0,0.0
720,179.75,70.9156,75.0523,143.382,98.5401,94.1192,0.00275857,0.118222,20.9014,-0.630554,0.410605,0.0,0.0
730,182.25,70.7991,73.8976,140.305,98.7387,94.5248,0.00291119,0.116723,20.9024,-0.610536,0.39015,0.0,0.0
740,184.75,69.2676,72.5569,140.147,98.8701,94.5287,0.00304636,0.115406,20.9036,-0.630554,0.401679,0.0,0.0
750,187.25,68.8779,71.899,138.186,98.9512,94.5503,0.00307988,0.114535,20.9054,-0.680598,0.406968,0.0,0.0
760,189.75,67.9841,71.3882,140.139,98.9908,95.2542,0.00308345,0.113578,20.9066,-0.670589,0.3442,0.0,0.0
770,192.25,67.9277,70.4431,137.938,98.9888,94.9324,0.00304468,0.112544,20.9088,-0.700615,0.374292,0.0,0.0
780,194.75,67.4455,69.5313,142.516,98.9235,94.4808,0.00288838,0.111193,20.91,-0.670589,0.411045,0.0,0.0
790,197.25,66.4801,68.8435,144.286,98.8266,94.8316,0.00284991,0.110052,20.9117,-0.720633,0.369125,0.0,0.0
800,199.75,65.8111,68.3405,143.426,98.6786,94.2807,0.00291522,0.108713,20.9143,-0.750659,0.407835,0.0,0.0
810,202.25,65.8541,67.5927,143.221,98.4807,94.4661,0.00280727,0.107413,20.9164,-0.770677,0.372304,0.0,0.0
820,204.75,64.9099,67.3458,140.295,98.2437,95.1537,0.00260761,0.106211,20.9182,-0.780686,0.285868,0.0,0.0
830,207.25,64.8416,66.1609,142.814,98.1218,93.685,0.00252655,0.104782,20.92,-0.790694,0.413919,0.0,0.0
840,209.75,64.2024,65.7113,141.47,98.1559,94.5638,0.00256397,0.10388,20.9214,-0.810712,0.333495,0.0,0.0
850,212.25,63.6646,65.203,139.747,98.2271,94.8188,0.00250719,0.103141,20.9228,-0.780686,0.315897,0.0,0.0
860,214.75,63.2577,64.5585,141.194,98.3173,95.5856,,0.102741,,-0.810712,0.252057,0.0,0.0
870,217.25,63.1685,64.0567,140.975,98.3703,94.295,,0.102104,,-0.810712,0.37849,0.0,0.0
880,219.75,62.3935,63.5198,141.989,98.4491,95.6316,,,,-0.840738,0.259737,0.0,0.0
890,222.25,62.1648,62.4541,141.436,98.5191,94.8339,,,,-0.820721,0.341031,0.0,0.0
900,224.75,60.8714,62.6398,140.782,98.5923,95.0753,,,,-0.820721,0.324931,0.0,0.0
903,225.5,61.9292,62.6563,145.476,98.6113,95.9747,,,,-0.840738,0.242435,0.0,0.0