File: 01_Data/PETG/Cone/PET-G_Cone_HF25Scan_220215_R2.csv
Names,Time,Stack TC,Smoke TC,Exh Press,Smoke Comp,Smoke Meas,CO Meter,CO2 Meter,O2 Meter,Sample Mass,Ext Coeff,Start Test,Flame Verif
Chan Gain,,500,500,1,1,1,1,1,1,1,1,1.0,1.0
Offset,,0,0,0.140898,0,0,0,0,0,0,0,0.0,0.0
Gain,,1,1,25.011,12.9668,12.6588,1,1,1,1.00088,1.01977,1.0,1.0
Units,sec,C,C,Pa,%,%,%,%,%,g,/m,,
Baseline,,18.7485,19.3628,164.445,98.1146,101.667,-0.000670594,0.0694062,20.9734,-871.592,-0.318133,,
21,5,17.6874,18.374,166.066,98.049,101.667,-0.000512883,0.0848863,20.9543,33.6496,-0.324108,0.0,0.0
42,10.25,17.6576,18.6312,165.691,98.0605,101.975,-0.000559388,0.0775556,20.9632,33.6696,-0.350144,0.0,0.0
63,15.5,17.7326,18.0426,165.009,98.1847,101.895,-0.000666566,0.0746858,20.9677,33.6696,-0.331765,0.0,0.0
84,20.75,17.8336,18.3303,160.024,98.2766,101.979,-0.000561805,0.0717439,20.972,33.6696,-0.330828,0.0,0.0
105,26,18.0388,18.7343,166.941,98.3569,102.097,-0.000791245,0.0687031,20.9765,33.6295,-0.333849,0.0,0.0
126,31.25,17.548,18.6371,164.96,98.2991,102.196,-0.000765488,0.0670886,20.9783,33.6596,-0.3478,0.0,0.0
147,36.5,17.755,18.4492,163.246,98.1107,102.019,-0.00093044,0.0659119,20.9804,33.6596,-0.349424,0.0,0.0
168,41.75,17.5915,18.3632,162.616,97.8662,101.433,-0.000827733,0.0654892,20.9817,33.6496,-0.320248,0.0,0.0
189,47,17.7804,18.5095,165.928,97.5374,101.106,-0.000840037,0.0651685,20.9818,33.6395,-0.321419,0.0,0.0
210,52.25,18.3983,18.6823,166.226,97.2524,100.923,-0.000824616,0.0656512,20.9818,33.6496,-0.33144,0.0,0.0
231,57.5,17.9456,18.6625,163.3,97.051,100.971,-0.000574267,0.0671289,20.9799,33.6496,-0.354231,0.0,0.0
252,62.75,17.7722,18.5332,166.441,97.0091,100.948,-0.000611882,0.0675263,20.9791,33.6195,-0.35601,0.0,0.0
273,68,17.7874,18.6198,163.649,97.0676,100.478,-0.000670663,0.0674436,20.9807,33.6095,-0.308852,0.0,0.0
294,73.25,18.3047,18.9576,168.645,97.3027,100.978,-0.000691919,0.0688301,20.9778,33.6095,-0.331645,0.0,0.0
315,78.5,18.2178,19.3671,159.316,97.6201,101.382,-0.000679214,0.0697637,20.9766,33.5995,-0.338276,0.0,0.0
336,83.75,17.8968,18.8991,166.04,98.0106,102.102,-0.000594482,0.0700455,20.9755,33.5995,-0.365836,0.0,0.0
357,89,18.2135,19.0031,166.737,98.4115,102.149,-0.000682913,0.0701932,20.9745,33.5995,-0.333419,0.0,0.0
378,94.25,18.1846,18.9089,165.891,98.7486,102.343,-0.000740294,0.0690226,20.9778,33.6095,-0.319793,0.0,0.0
399,99.5,18.071,18.8592,163.075,98.9457,102.77,-0.000352978,0.0686294,20.9762,33.5895,-0.339226,0.0,0.0
420,104.75,18.4162,19.3149,163.39,99.0296,103.112,-0.000417289,0.0683497,20.9757,33.5695,-0.361355,0.0,0.0
441,110,18.2973,19.3432,163.43,98.9477,102.612,-0.000561989,0.067866,20.9766,33.5595,-0.32525,0.0,0.0
462,115.25,18.7301,18.8925,158.507,98.7957,102.468,-0.000521349,0.0675345,20.9782,33.5495,-0.326495,0.0,0.0
483,120.5,18.8011,19.4036,161.578,98.6719,102.169,-0.000618359,0.0678276,20.9767,33.5695,-0.311575,0.0,0.0
504,125.75,18.3203,19.7243,160.889,98.5623,101.995,-0.000764252,0.0689534,20.9738,33.5695,-0.306284,0.0,0.0
525,131,18.9571,19.6279,162.265,98.4661,101.746,-0.00073691,0.0697765,20.9731,33.5495,-0.293101,0.0,0.0
546,136.25,19.0767,20.0855,161.173,98.4202,101.631,-0.000755697,0.0697032,20.9738,33.5395,-0.28718,0.0,0.0
567,141.5,18.4072,19.4284,161.949,98.3569,101.316,-0.000746138,0.0702558,20.9737,33.5294,-0.265113,0.0,0.0
588,146.75,18.6673,20.7243,167.221,98.3264,101.383,-0.000512437,0.0682159,20.9778,33.5294,-0.273851,0.0,0.0
609,152,18.9289,20.4186,162.478,98.324,100.796,-0.000220404,0.0670623,20.9799,33.5395,-0.222072,0.0,0.0
630,157.25,18.9606,19.9969,161.962,98.3327,100.767,-0.000310641,0.0673607,20.9793,33.5094,-0.218743,0.0,0.0
651,162.5,18.6842,19.7875,167.69,98.3474,100.965,-0.000523246,0.066295,20.98,33.5294,-0.234952,0.0,0.0
672,167.75,19.0426,20.1426,162.24,98.3549,100.533,-0.000443495,0.0658136,20.9813,33.5094,-0.19592,0.0,0.0
693,173,19.0305,20.0242,163.245,98.4297,100.347,-0.000465744,0.0659826,20.9812,33.4794,-0.172537,0.0,0.0
714,178.25,19.0225,20.1528,159.512,98.4744,100.561,-0.000145023,0.0656301,20.982,33.4794,-0.187532,0.0,0.0
735,183.5,18.9657,19.7775,161.856,98.5627,99.9974,-0.000374968,0.0648967,20.9835,33.4594,-0.129275,0.0,0.0
756,188.75,18.4819,20.3437,167.54,98.6849,100.465,-0.000604097,0.0646205,20.9855,33.4794,-0.159937,0.0,0.0
777,194,19.6182,20.3992,161.71,98.8234,100.458,-0.000753507,0.0647099,20.9858,33.4394,-0.146738,0.0,0.0
798,199.25,19.3367,20.3196,164.273,98.9326,100.173,-0.000560242,0.0651905,20.9853,33.4594,-0.111434,0.0,0.0
819,204.5,19.0985,19.9831,167.205,99.0094,100.148,-0.000555088,0.0648231,20.9821,33.4193,-0.102287,0.0,0.0
840,209.75,18.8059,20.361,165.46,99.0157,99.6489,-0.000430624,0.0640393,20.9833,33.4294,-0.0570225,0.0,0.0
861,215,19.69,20.7559,165.995,98.8848,99.9746,-0.000633604,0.0646801,20.9817,33.3693,-0.0980499,0.0,0.0
882,220.25,19.1077,20.5502,162.297,98.6489,99.6899,-0.000617432,0.0647348,20.9796,33.3893,-0.0938985,0.0,0.0
903,225.5,19.0649,20.4878,162.227,98.2556,98.8763,-0.000740585,0.0643514,20.9844,33.3593,-0.0563335,0.0,0.0
924,230.75,19.407,20.4763,165.276,97.7641,98.1836,-0.000753628,0.0641368,20.9855,33.3293,-0.0383048,0.0,0.0
945,236,19.4295,20.3729,163.925,97.2995,97.4709,-0.000358585,0.0641835,20.9854,33.2892,-0.015739,0.0,0.0
966,241.25,19.1631,21.0132,162.633,97.0332,97.2124,-9.34885e-05,0.0666925,20.9816,33.2692,-0.0165071,0.0,0.0
987,246.5,19.2574,20.3152,154.701,97.032,90.2784,0.00126372,0.112713,20.9291,33.1591,0.64534,0.0,1.0
1008,251.75,21.4685,23.5483,150.916,97.3225,75.8062,0.00555769,0.263525,20.7124,32.7187,2.23499,0.0,0.0
1029,257,25.4455,28.8959,146.694,97.7499,71.7789,0.0109848,0.453606,20.4564,32.1883,2.76251,0.0,0.0
1050,262.25,30.603,35.1883,142.094,98.1574,69.291,0.0156196,0.602871,20.2569,31.4176,3.11529,0.0,0.0
1071,267.5,35.4867,41.8083,139.224,98.3561,64.1572,0.0187496,0.716741,20.1225,30.5869,3.82197,0.0,0.0
1092,272.75,40.2899,48.667,130.881,98.2845,63.6732,0.0222396,0.827769,19.9722,29.616,3.8832,0.0,0.0
1113,278,45.171,55.3341,134.889,98.1016,57.4867,0.0269018,0.950377,19.8031,28.5251,4.78084,0.0,0.0
1134,283.25,51.8829,64.3862,118.928,98.2204,53.0599,0.0325003,1.12601,19.5819,27.2439,5.50847,0.0,0.0
1155,288.5,58.6373,74.5063,117.632,98.7965,49.5065,0.0393432,1.36359,19.3019,25.7226,6.18085,0.0,0.0
1176,293.75,67.3249,85.4996,115.413,98.6327,44.3279,0.0481763,1.6398,18.9603,24.0611,7.15437,0.0,0.0
1197,299,76.5206,98.229,120.34,98.4012,43.4367,0.0606963,1.97442,18.543,22.0994,7.31503,0.0,0.0
1218,304.25,86.2732,113.312,95.8552,98.8511,40.8924,0.0754177,2.32828,18.1136,19.9675,7.89578,0.0,0.0
1239,309.5,97.3183,129.325,95.8308,99.0217,40.7947,0.09439,2.77799,17.597,17.3452,7.93261,0.0,0.0
1260,314.75,111.147,148.669,87.0203,98.6339,40.4895,0.12372,3.44922,16.921,14.4127,7.96468,0.0,0.0
1281,320,126.259,171.543,82.2658,97.8009,40.3585,0.160029,4.29105,16.0765,10.9496,7.91779,0.0,0.0
1302,325.25,135.737,185.313,99.4723,97.125,41.2088,0.143118,4.14906,16.4115,7.75681,7.66925,0.0,0.0
1323,330.5,137.553,186.013,103.542,97.1685,46.8266,0.10367,3.12324,17.5688,5.29465,6.53005,0.0,0.0
1344,335.75,132.913,176.602,118.185,97.8187,46.0227,0.0770704,2.15038,18.6359,3.33293,6.74461,0.0,0.0
1365,341,125.024,163.187,136.049,98.3343,61.99,0.0426725,1.35571,19.5297,2.12186,4.12738,0.0,0.0
1386,346.25,113.866,146.612,142.959,98.2196,73.2627,0.018997,0.763476,20.2116,1.47129,2.62236,0.0,0.0
1407,351.5,104.57,132.374,149.552,97.9722,84.457,0.00874308,0.47034,20.5364,1.08095,1.32786,0.0,0.0
1428,356.75,95.3059,118.779,150.575,98.7937,94.5206,0.00468311,0.297762,20.7408,0.9108,0.395534,0.0,0.0
1449,362,87.0946,106.416,159.694,98.2908,95.7923,0.0039484,0.179361,20.8615,0.880774,0.230323,0.0,0.0
1470,367.25,79.1372,94.9908,159.876,98.8919,95.8321,0.00312598,0.105665,20.9435,0.890782,0.281145,0.0,0.0
1491,372.5,72.8045,85.9427,160.005,98.9295,96.8694,0.00199785,0.0799667,20.9688,0.880774,0.188243,0.0,0.0
1512,377.75,66.9967,77.8346,155.926,97.9976,95.7595,0.00110115,0.0719872,20.9772,0.870765,0.206663,0.0,0.0
1533,383,62.5985,70.5131,158.86,97.1226,95.4261,0.000509625,0.0686595,20.9795,0.860756,0.157639,0.0,0.0
1554,388.25,59.1728,64.9746,153.858,97.3344,94.9822,0.000202494,0.0669629,20.9825,0.900791,0.218822,0.0,0.0
1575,393.5,54.6286,59.8771,159.395,98.1325,96.1107,0.00023961,0.0658936,20.9839,0.880774,0.186229,0.0,0.0
1596,398.75,51.7568,55.5669,154.929,98.3228,95.8843,0.000155886,0.0652779,20.9848,0.880774,0.224657,0.0,0.0
1617,404,49.4557,52.1204,156.326,97.958,96.1373,0.000230533,0.0648998,20.9844,0.9108,0.167826,0.0,0.0
1638,409.25,46.642,49.35,154.152,98.6841,97.134,0.000359961,0.0646366,20.9833,0.920809,0.141629,0.0,0.0
1659,414.5,45.4756,46.5449,154.224,98.3711,96.0743,0.000556914,0.0643991,20.9829,0.870765,0.211334,0.0,0.0
1680,419.75,42.9309,43.3329,159.26,98.7019,97.0834,0.000471458,0.0640781,20.9835,0.9108,0.147904,0.0,0.0
1701,425,42.3908,41.9318,158.123,99.0193,96.6442,0.000190938,0.0637473,20.985,0.900791,0.217184,0.0,0.0
1722,430.25,40.5581,40.7202,160.939,98.4645,96.0094,-4.67473e-06,0.0633687,20.9851,0.880774,0.225868,0.0,0.0
1743,435.5,39.4682,38.731,158.602,97.5057,95.7518,0.000199259,0.0635296,20.9851,0.880774,0.162373,0.0,0.0
1764,440.75,38.4205,37.6932,159.26,97.0775,95.3264,0.000347678,0.0634492,20.9851,0.83073,0.162831,0.0,0.0
1785,446,36.6628,35.7527,158.664,97.4543,95.5613,0.000167918,0.0633299,20.9851,0.890782,0.175463,0.0,0.0
1806,451.25,37.2249,35.2229,158.032,98.0692,96.6994,4.75882e-05,0.0628385,20.9851,0.900791,0.125825,0.0,0.0
1827,456.5,35.67,34.7496,156.46,98.3672,96.9799,3.86477e-05,0.0627899,20.9862,0.880774,0.127056,0.0,0.0
1848,461.75,35.5763,33.6223,160.174,98.1879,96.8752,0.000177297,0.06295,20.9866,0.880774,0.120402,0.0,0.0
1869,467,34.6864,33.2309,162.501,97.9659,97.2422,5.44052e-05,0.0631472,20.9859,0.880774,0.06633,0.0,0.0
1890,472.25,34.1809,32.1764,154.819,98.1167,98.0801,0.000195677,0.0632484,20.9848,0.860756,0.00333498,0.0,0.0
1911,477.5,33.6986,31.9165,159.048,98.6283,97.8835,,0.0634637,,0.900791,0.0678149,0.0,0.0
1932,482.75,32.662,31.0192,156.02,98.7067,97.7143,,,,0.860756,0.0903951,0.0,0.0
1943,485.5,32.1554,29.8348,162.235,98.569,98.2621,,,,0.9108,0.0278974,0.0,0.0