File: 01_Data/PETG/Cone/PET-G_Cone_HF50Scan_220215_R1.csv
Names,Time,Stack TC,Smoke TC,Exh Press,Smoke Comp,Smoke Meas,CO Meter,CO2 Meter,O2 Meter,Sample Mass,Ext Coeff,Start Test,Flame Verif
Chan Gain,,500,500,1,1,1,1,1,1,1,1,1.0,1.0
Offset,,0,0,0.140898,0,0,0,0,0,0,0,0.0,0.0
Gain,,1,1,25.011,12.9668,12.6588,1,1,1,1.00088,1.01977,1.0,1.0
Units,sec,C,C,Pa,%,%,%,%,%,g,/m,,
Baseline,,29.1638,30.9273,156.963,98.0561,99.203,-0.000940145,0.0666454,20.9723,-872.029,-0.103948,,
11,2.5,27.0944,28.1186,156.846,99.0292,101.003,-0.000682578,0.0764926,20.9577,35.341,-0.176504,0.0,0.0
22,5.25,27.342,28.6564,158.125,99.0106,99.9043,-0.000683998,0.0743131,20.963,35.321,-0.0803803,0.0,0.0
33,8,27.2164,28.4904,160.182,98.939,100.056,-0.000629856,0.0729111,20.9654,35.251,-0.100472,0.0,0.0
44,10.75,27.3574,29.2149,154.017,98.8543,99.9646,-0.000625028,0.0716771,20.9674,35.281,-0.0999077,0.0,0.0
55,13.5,27.5516,29.2555,155.732,98.7494,99.9468,-0.000910525,0.0707166,20.9688,35.261,-0.107812,0.0,0.0
66,16.25,27.634,29.5994,153.486,98.6363,99.9024,-0.00114578,0.0693951,20.9717,35.251,-0.114093,0.0,0.0
77,19,27.7183,28.6201,161.021,98.5306,99.9468,-0.0012061,0.06819,20.9741,35.251,-0.127657,0.0,0.0
88,21.75,27.8563,29.4093,158.038,98.4388,100.43,-0.00115605,0.0671457,20.9747,35.241,-0.179111,0.0,0.0
99,24.5,27.8635,29.2615,158.009,98.3438,100.452,-0.000961874,0.0665506,20.9753,35.2309,-0.189741,0.0,0.0
110,27.25,28.1176,29.4416,159.548,98.2587,99.8946,-0.000678508,0.066171,20.9756,35.241,-0.147703,0.0,0.0
121,30,27.982,29.184,156.578,98.269,100.087,-0.000573042,0.0660491,20.9756,35.241,-0.164012,0.0,0.0
132,32.75,27.5343,29.6832,159.95,98.4459,99.3685,-0.000608241,0.0659672,20.9752,35.241,-0.0834382,0.0,0.0
143,35.5,28.058,29.7745,165.784,98.584,100.524,-0.00063666,0.0660796,20.9749,35.241,-0.174351,0.0,0.0
154,38.25,27.7954,29.6056,155.608,98.6794,100.335,-0.000684552,0.0660121,20.9754,35.2009,-0.148875,0.0,0.0
165,41,28.5344,29.7076,158.925,98.7316,100.045,-0.000724768,0.0659756,20.9747,35.2209,-0.118203,0.0,0.0
176,43.75,28.1222,30.2218,161.119,98.7427,100.274,-0.000635782,0.0665544,20.9721,35.2109,-0.137693,0.0,0.0
187,46.5,28.4587,30.0258,153.27,98.738,99.3677,-0.000523945,0.0680889,20.9708,35.2209,-0.0568712,0.0,0.0
198,49.25,28.1666,30.6477,156.596,98.7023,98.6982,-0.000654943,0.0696078,20.9698,35.1809,0.000374287,0.0,0.0
209,52,28.285,30.1139,158.099,98.6082,98.1523,-0.000656407,0.0707748,20.9694,35.1709,0.0414463,0.0,0.0
220,54.75,28.1422,30.7465,156.365,98.4807,97.3279,-0.000432321,0.0706204,20.97,35.1609,0.10533,0.0,0.0
231,57.5,28.6275,30.3311,159.934,98.3296,97.9951,-0.000180543,0.0700653,20.9704,35.1309,0.0304792,0.0,0.0
242,60.25,28.9216,30.6007,157.563,98.1278,95.9071,0.000364393,0.0852722,20.946,35.0808,0.204764,0.0,1.0
253,63,29.103,31.5809,143.36,97.8864,81.7014,0.00245867,0.155393,20.8303,34.9207,1.61674,0.0,1.0
264,65.75,30.5888,33.3462,141.333,97.8959,73.4632,0.00614373,0.276951,20.6803,34.5804,2.56838,0.0,0.0
275,68.5,33.0357,36.371,137.013,97.9362,66.7683,0.0102536,0.414634,20.5089,34.2901,3.42685,0.0,0.0
286,71.25,35.908,40.5017,136.716,98.0079,60.6332,0.0147459,0.547691,20.3341,33.8597,4.29559,0.0,0.0
297,74,39.2344,44.8373,133.894,98.0823,61.1826,0.0188187,0.686523,20.159,33.3093,4.2217,0.0,0.0
308,76.75,42.6941,49.8389,125.209,98.1412,62.3898,0.0220868,0.802599,19.9954,32.8188,4.05229,0.0,0.0
319,79.5,45.9441,54.665,123.013,98.1966,57.0289,0.0249791,0.907479,19.851,32.2183,4.86102,0.0,0.0
330,82.25,50.1493,60.2784,116.33,98.2678,53.1236,0.0296975,1.0245,19.7053,31.6278,5.50206,0.0,0.0
341,85,54.5219,66.0726,123.418,98.3395,44.6664,0.0375571,1.19222,19.472,30.777,7.0597,0.0,0.0
352,87.75,60.3503,74.6799,104.487,98.3846,42.7649,0.0509621,1.49328,19.1291,29.7762,7.45295,0.0,0.0
363,90.5,67.1585,85.0523,100.321,98.3949,38.4946,0.0687874,1.89563,18.5642,28.5251,8.39495,0.0,0.0
374,93.25,74.5531,97.1956,111.102,98.4055,35.8116,0.0868928,2.33208,18.1476,27.2039,9.04218,0.0,0.0
385,96,83.4812,110.803,94.7713,98.3818,32.2942,0.118104,2.83228,17.5942,25.5925,9.96483,0.0,0.0
396,98.75,94.3416,126.649,87.0989,98.3466,29.6525,0.152975,3.55226,16.6237,23.901,10.725,0.0,0.0
407,101.5,105.186,144.48,70.5625,98.3011,28.8656,0.19219,4.26046,15.8496,22.0594,10.9615,0.0,0.0
418,104.25,117.121,164.576,74.6003,98.212,29.6135,0.228743,4.92011,15.0761,19.9775,10.7245,0.0,0.0
429,107,129.025,184.599,70.0901,98.1416,28.9425,0.262726,5.69272,14.2651,17.6055,10.9232,0.0,0.0
440,109.75,140.476,205.263,71.867,98.0625,27.6866,0.285557,6.33956,13.6303,15.2634,11.3128,0.0,0.0
451,112.5,150.69,222.683,63.7999,97.9394,31.2503,0.289562,6.5507,13.4612,12.9714,10.2184,0.0,0.0
462,115.25,158.592,234.247,76.8069,97.8199,30.8184,0.277828,6.34608,13.6281,10.8195,10.332,0.0,0.0
473,118,163.857,241.81,80.666,97.6937,34.5004,0.240003,5.89289,14.2153,8.86779,9.31089,0.0,0.0
484,120.75,166.376,242.794,94.2302,97.5726,38.4142,0.195978,5.11486,15.212,7.25637,8.33857,0.0,0.0
495,123.5,166.938,242.327,96.246,97.4523,35.8831,0.153711,4.33415,16.1017,5.84513,8.93726,0.0,0.0
506,126.25,166.544,236.984,95.4499,97.3537,41.1601,0.120444,3.59028,16.9916,4.65409,7.70087,0.0,0.0
517,129,163.667,230.724,108.168,97.2619,48.453,0.0885932,2.87377,17.7756,3.65321,6.23322,0.0,0.0
528,131.75,158.765,220.557,124.529,97.1848,54.1018,0.0618421,2.09386,18.69,2.99263,5.23971,0.0,0.0
539,134.5,151.968,208.006,128.352,97.129,61.4638,0.0415759,1.44412,19.3936,2.55224,4.09331,0.0,0.0
550,137.25,144.67,196.786,137.587,97.1262,68.3186,0.0269164,0.98928,19.8713,2.282,3.14723,0.0,0.0
561,140,138.187,184.838,140.679,97.1211,77.8116,0.0172212,0.688891,20.2254,2.12186,1.98289,0.0,0.0
572,142.75,132.072,173.389,142.592,97.146,87.512,0.0110044,0.479253,20.4825,2.02178,0.934241,0.0,0.0
583,145.5,125.457,163.255,145.928,97.2002,93.5131,0.0079369,0.320276,20.6853,2.01177,0.345931,0.0,0.0
594,148.25,118.807,153.676,144.058,97.2797,93.581,0.00701414,0.214263,20.8035,1.98174,0.346747,0.0,0.0
605,151,113.599,144.747,143.705,97.4048,93.8125,0.00741938,0.156927,20.868,2.00176,0.336145,0.0,0.0
616,153.75,107.996,136.511,147.872,97.5223,94.9691,0.008244,0.126465,20.9003,1.98174,0.237319,0.0,0.0
627,156.5,102.563,129.064,145.741,97.6434,95.5914,0.00902974,0.112076,20.9172,1.97173,0.189988,0.0,0.0
638,159.25,98.5181,122.399,147.324,97.7997,95.897,0.00971292,0.10422,20.9253,1.96172,0.175747,0.0,0.0
649,162,95.0376,116.555,146.794,97.9252,95.6479,0.0102266,0.101248,20.928,1.9317,0.210486,0.0,0.0
660,164.75,91.4171,110.952,147.429,98.0862,96.1419,0.0104018,0.100521,20.9254,1.94171,0.179096,0.0,0.0
671,167.5,87.6651,105.263,145.696,98.2283,95.5667,0.0106284,0.100748,20.9239,1.89166,0.245723,0.0,0.0
682,170.25,84.1837,100.707,146.638,98.3593,95.7193,0.0106966,0.101756,20.9218,1.91168,0.243372,0.0,0.0
693,173,82.2869,97.076,145.605,98.4997,96.7601,0.0102729,0.102919,20.9201,1.88165,0.159402,0.0,0.0
704,175.75,79.6366,93.3404,145.82,98.6355,96.7655,0.00983325,0.104059,20.9195,1.85163,0.17122,0.0,0.0
715,178.5,77.4457,89.7245,147.669,98.7522,97.321,0.00964505,0.104645,20.9193,1.86164,0.130593,0.0,0.0
726,181.25,75.4316,86.1137,143.496,98.8302,95.7552,0.0094755,0.105641,20.9178,1.83161,0.282739,0.0,0.0
737,184,73.4503,82.8561,147.626,98.9109,96.7531,0.00949521,0.106513,20.9161,1.80158,0.197306,0.0,0.0
748,186.75,71.6937,80.2161,149.896,98.975,96.3258,0.0098029,0.107035,20.915,1.79157,0.242692,0.0,0.0
759,189.5,69.8851,77.8202,148.396,99.0256,98.0674,0.0100172,0.107347,20.9151,1.73152,0.0869869,0.0,0.0
770,192.25,68.668,75.8419,149.963,99.0407,98.2481,0.0100583,0.107756,20.9152,1.70149,0.0718684,0.0,0.0
781,195,66.0096,72.413,146.75,99.0395,96.8157,0.0100209,0.107494,20.9162,1.67147,0.203146,0.0,0.0
792,197.75,65.4857,70.9016,146.33,99.0122,97.3388,0.00987231,0.107065,20.9171,1.68148,0.15248,0.0,0.0
803,200.5,64.0264,69.021,146.544,98.9833,97.5122,0.0095403,0.106979,20.9174,1.67147,0.133942,0.0,0.0
814,203.25,62.548,66.7058,146.742,98.9303,98.2118,0.0094074,0.10673,20.9175,1.65145,0.0651984,0.0,0.0
825,206,62.0134,66.0402,147.208,98.8499,96.7002,0.00950624,0.106622,20.9175,1.62142,0.196687,0.0,0.0
836,208.75,61.0712,64.5061,152.087,98.7601,97.5678,0.00952766,0.106376,20.9162,1.5914,0.108649,0.0,0.0
847,211.5,59.6603,63.5064,152.976,98.6667,97.8626,0.00948535,0.105685,20.9155,1.60141,0.0732022,0.0,0.0
858,214.25,59.0972,62.0907,145.09,98.5832,97.6698,0.00944757,0.104738,20.9165,1.5914,0.0832667,0.0,0.0
869,217,57.912,60.5393,148.978,98.4776,97.4164,0.00959246,0.103929,20.9171,1.57138,0.0969156,0.0,0.0
880,219.75,56.9013,59.1797,143.789,98.3953,97.863,0.00974813,0.103687,20.9189,1.54135,0.0485212,0.0,0.0
891,222.5,56.5765,58.7083,148.944,98.3074,97.2279,0.00967563,0.103237,20.9203,1.51133,0.0987731,0.0,0.0
902,225.25,56.3987,57.7614,154.482,98.2485,96.8667,0.00952563,0.101899,20.9215,1.4813,0.126701,0.0,0.0
913,228,54.99,56.9688,149.751,98.3304,96.8018,0.00934726,0.101339,20.9219,1.50132,0.140152,0.0,0.0
924,230.75,55.0079,56.2286,149.591,98.4728,98.5464,0.00939418,0.101226,20.922,1.50132,-0.00668009,0.0,0.0
935,233.5,53.4082,55.2177,145.852,98.5888,98.6078,0.00950165,0.100706,20.9237,1.46128,-0.00172768,0.0,0.0
946,236.25,53.5984,54.3397,146.059,98.6837,97.3727,0.00956596,0.100231,20.925,1.44127,0.119633,0.0,0.0
957,239,52.796,53.9695,150.69,98.7506,98.3513,0.00950028,0.0996703,20.9269,1.43126,0.0362448,0.0,0.0
968,241.75,52.051,53.4417,148.131,98.7854,98.4004,0.00927154,0.098855,20.9287,1.41124,0.0349394,0.0,0.0
979,244.5,52.1117,52.7135,153.619,98.7823,98.4722,0.00922367,0.0985204,20.9296,1.38121,0.0281217,0.0,0.0
990,247.25,51.1069,51.7813,150.659,98.7558,97.5408,0.00930117,0.098325,20.9299,1.38121,0.110734,0.0,0.0
1001,250,51.4482,51.5928,153.808,98.7008,98.0272,0.00932276,0.0975234,20.9308,1.3712,0.0612563,0.0,0.0
1012,252.75,50.6363,50.9833,151.805,98.6418,98.648,0.00938558,0.0972179,20.9315,1.3712,-0.000561993,0.0,0.0
1023,255.5,49.924,50.5192,149.363,98.55,97.6899,0.00936629,0.0968541,20.9318,1.35119,0.0784108,0.0,0.0
1034,258.25,50.373,50.2075,146.947,98.4412,98.1921,0.00932481,0.0963653,20.9322,1.30114,0.0226582,0.0,0.0
1045,261,49.3675,49.5197,145.675,98.2813,97.8916,,0.0961326,,1.32116,0.0355417,0.0,0.0
1056,263.75,49.6626,49.3227,147.708,98.1143,97.9229,,,,1.27112,0.0174714,0.0,0.0
1067,266.5,49.0369,49.065,148.15,97.9445,97.5512,,,,1.26111,0.0359931,0.0,0.0
1078,269.25,48.7459,48.5788,152.407,97.9382,97.7907,,,,1.2511,0.0134783,0.0,0.0
1086,271.25,48.3112,48.1885,151.045,97.9568,98.7793,,,,1.21106,-0.0747987,0.0,0.0