File: 01_Data/PETG/Cone/PET-G_Cone_HF75Scalar_220215_R3.csv
LABORATORY,FSRI
TEST IDENT,PET-G_HF75_3
OPERATOR,Dow
MATERIAL,PET-G
ORIENTATION,Horizontal
HEAT FLUX,75
SURF AREA,0.01
C FACTOR,0.0393671
SPEC HOLDER DIFF,301.3
SPECIMEN MASS,34.4
SCAN TIME,0.25
O2 DELAY TIME,11
CO DELAY TIME,11
CO2 DELAY TIME,8
FLOW FACTOR,1
SCAN COUNT,898
TIME TO IGN,29.25
END OF TEST SCAN,418
END OF TEST TIME,104.5
TEST STATUS,1
PRE TEST CMT,Dimensions: 99.03 x 98.83 x 2.63 mm