File: 01_Data/PETG/Cone/PET-G_Cone_HF25Scalar_220215_R2.csv
LABORATORY,FSRI
TEST IDENT,PET-G_HF25_2
OPERATOR,Dow
MATERIAL,PET-G
ORIENTATION,Horizontal
HEAT FLUX,25
SURF AREA,0.01
C FACTOR,0.0393671
SPEC HOLDER DIFF,303.64
SPECIMEN MASS,34.6
SCAN TIME,0.25
O2 DELAY TIME,11
CO DELAY TIME,11
CO2 DELAY TIME,8
FLOW FACTOR,1
SCAN COUNT,1943
TIME TO IGN,242.5
END OF TEST SCAN,1463
END OF TEST TIME,365.75
TEST STATUS,1
PRE TEST CMT,Dimensions: 99.13 x 98.88 x 2.62 mm
POST TEST CMT,Sample warped near the end of the test with corners rising up.