File: 01_Data/PETG/Cone/PETG_Cone_HF75Scalar_220215_R2.csv
LABORATORY,FSRI
TEST IDENT,PET-G_HF75_2
OPERATOR,Dow
MATERIAL,PET-G
ORIENTATION,Horizontal
HEAT FLUX,75
SURF AREA,0.01
C FACTOR,0.0393671
SPEC HOLDER DIFF,304.94
SPECIMEN MASS,34.4
SCAN TIME,0.25
O2 DELAY TIME,11
CO DELAY TIME,11
CO2 DELAY TIME,8
FLOW FACTOR,1
SCAN COUNT,903
TIME TO IGN,29.75
END OF TEST SCAN,423
END OF TEST TIME,105.75
TEST STATUS,1
PRE TEST CMT,Dimensions: 99.04 x 99.22 x 2.64 mm