File: 01_Data/PETG/Cone/PETG_Cone_HF25Scan_220215_R1.csv
Names,Time,Stack TC,Smoke TC,Exh Press,Smoke Comp,Smoke Meas,CO Meter,CO2 Meter,O2 Meter,Sample Mass,Ext Coeff,Start Test,Flame Verif
Chan Gain,,500,500,1,1,1,1,1,1,1,1,1.0,1.0
Offset,,0,0,0.140898,0,0,0,0,0,0,0,0.0,0.0
Gain,,1,1,25.011,12.9668,12.6588,1,1,1,1.00088,1.01977,1.0,1.0
Units,sec,C,C,Pa,%,%,%,%,%,g,/m,,
Baseline,,16.1088,16.989,165.907,98.5469,101.386,-0.000477459,0.067648,20.9775,-871.594,-0.254017,,
22,5.25,14.9206,15.907,164.881,97.2164,99.7737,-0.000641339,0.074883,20.9691,33.6395,-0.232266,0.0,0.0
44,10.75,14.8182,15.7575,162.012,97.3177,100.407,-0.000438364,0.0819891,20.9592,33.6796,-0.279503,0.0,0.0
66,16.25,14.8759,16.089,166.757,97.7728,100.956,-0.00068739,0.0860145,20.9562,33.6896,-0.286614,0.0,0.0
88,21.75,15.2269,15.5633,168.157,98.3703,101.375,-0.000501722,0.081885,20.9605,33.6796,-0.269141,0.0,0.0
110,27.25,15.3468,16.4317,164.993,98.8796,101.907,-0.000339193,0.0789041,20.9639,33.6996,-0.269765,0.0,0.0
132,32.75,16.1227,16.6155,170.992,99.1459,102.43,-0.000352882,0.0748388,20.9698,33.6596,-0.291502,0.0,0.0
154,38.25,15.2595,16.5392,170.295,99.1863,102.387,-0.000576916,0.0692781,20.9762,33.6596,-0.284116,0.0,0.0
176,43.75,15.7533,16.6052,167.21,99.0616,102.11,-0.000638709,0.0705567,20.9742,33.6596,-0.271098,0.0,0.0
198,49.25,14.9454,16.4428,167.669,98.7882,102.036,-0.000508402,0.0811278,20.9596,33.6596,-0.289324,0.0,0.0
220,54.75,16.0246,16.6498,166.416,98.5634,101.816,-0.000694553,0.0822126,20.9575,33.6496,-0.290408,0.0,0.0
242,60.25,15.3366,16.9218,162.53,98.4736,101.685,-0.000670682,0.0818236,20.9581,33.6395,-0.287086,0.0,0.0
264,65.75,15.7063,16.1293,163.604,98.8468,102.107,-0.000716924,0.0774255,20.9623,33.6496,-0.290252,0.0,0.0
286,71.25,15.8908,17.1456,167.627,98.9876,102.447,-0.000764139,0.0766481,20.9642,33.6395,-0.307313,0.0,0.0
308,76.75,16.0008,17.0669,166.541,98.8448,102.143,-0.000845274,0.0747795,20.9675,33.6395,-0.293612,0.0,0.0
330,82.25,16.3436,16.8576,168.854,98.4685,101.731,-0.000504521,0.074105,20.97,33.6295,-0.291595,0.0,0.0
352,87.75,16.3368,17.4269,166.618,98.1851,101.508,-0.000513416,0.0747134,20.9703,33.6195,-0.297716,0.0,0.0
374,93.25,16.1942,17.2176,167.717,98.2995,101.787,-0.000647229,0.0772602,20.9649,33.6195,-0.311882,0.0,0.0
396,98.75,16.4144,17.2902,166.667,98.4048,101.757,-0.000505046,0.0796612,20.9619,33.5895,-0.299661,0.0,0.0
418,104.25,16.5911,17.4895,164.123,98.4946,101.808,-0.000368891,0.0783448,20.9637,33.5895,-0.295981,0.0,0.0
440,109.75,16.1085,17.3326,157.348,98.5041,101.609,-0.00035238,0.0761895,20.9658,33.5995,-0.277654,0.0,0.0
462,115.25,16.4041,17.4881,167.047,98.2924,101.466,-0.000634461,0.0742464,20.9699,33.5795,-0.284239,0.0,0.0
484,120.75,15.6795,17.5804,164.409,97.9434,101.104,-0.000687883,0.0718193,20.9743,33.5795,-0.28409,0.0,0.0
506,126.25,16.7047,17.8234,161.15,97.5073,100.595,-0.000632682,0.0694447,20.9772,33.5695,-0.278843,0.0,0.0
528,131.75,16.6306,17.3148,164.958,97.2291,100.109,-0.000557241,0.070181,20.975,33.5495,-0.26108,0.0,0.0
550,137.25,16.6423,17.6775,162.715,97.1895,99.8869,-0.000449782,0.0685576,20.9782,33.5395,-0.244885,0.0,0.0
572,142.75,16.5811,18.2149,164.568,97.4258,100.308,-0.000695432,0.0668117,20.9814,33.5395,-0.260799,0.0,0.0
594,148.25,16.7209,17.8183,161.397,97.8678,100.659,-0.000379596,0.0663022,20.9838,33.5294,-0.251567,0.0,0.0
616,153.75,16.015,17.2068,167.391,98.3755,101.053,-0.000656323,0.0662835,20.9816,33.5595,-0.240232,0.0,0.0
638,159.25,16.7826,17.3435,159.181,98.8317,101.424,-0.000478871,0.0661734,20.9811,33.5495,-0.231643,0.0,0.0
660,164.75,16.0326,17.4053,165.291,99.1222,101.714,-0.000691125,0.0661888,20.9823,33.5395,-0.230909,0.0,0.0
682,170.25,15.9198,17.5529,164.488,99.1922,101.824,-0.000741517,0.0660452,20.9827,33.5194,-0.234268,0.0,0.0
704,175.75,16.2439,17.6564,163.903,99.0514,101.404,-0.000907942,0.0659661,20.9825,33.5094,-0.210015,0.0,0.0
726,181.25,16.7856,17.614,164.369,98.7846,101.663,-0.000544459,0.0658168,20.9826,33.5094,-0.256904,0.0,0.0
748,186.75,17.0208,17.9008,156.831,98.5163,100.539,-0.000259501,0.066065,20.9831,33.4794,-0.181764,0.0,0.0
770,192.25,16.6838,17.523,161.145,98.6093,100.859,-0.00074391,0.0662772,20.9816,33.4694,-0.201807,0.0,0.0
792,197.75,17.1978,18.4102,161.006,98.9544,101.032,-0.00065325,0.0662063,20.9808,33.4694,-0.185897,0.0,0.0
814,203.25,16.5644,17.8164,165.372,98.9481,101.167,-0.000628155,0.0661532,20.9824,33.4494,-0.198364,0.0,0.0
836,208.75,16.9806,17.6615,167.476,98.6121,100.262,-0.000562296,0.0662496,20.9809,33.4394,-0.148428,0.0,0.0
858,214.25,17.5707,18.2604,164.029,98.1931,99.8363,-0.000587918,0.0666408,20.9817,33.4294,-0.14846,0.0,0.0
880,219.75,16.8718,18.2289,167.257,98.2057,100.308,-0.000559696,0.066753,20.9821,33.3993,-0.189436,0.0,0.0
902,225.25,16.7784,18.3284,166.98,98.2991,99.584,-0.000338343,0.066905,20.9801,33.3793,-0.116173,0.0,0.0
924,230.75,17.3254,18.5438,159.487,98.3786,100.222,-0.000198027,0.0670515,20.9794,33.3493,-0.166082,0.0,0.0
946,236.25,17.4614,18.3607,165.034,98.4431,100.243,-0.000341253,0.0667715,20.9802,33.3293,-0.162045,0.0,0.0
968,241.75,17.2251,18.4557,162.468,98.4538,99.6424,-0.000297959,0.069383,20.9763,33.3093,-0.107342,0.0,0.0
990,247.25,17.4667,18.6451,158.668,98.4578,93.1909,0.00135266,0.120605,20.8956,33.2092,0.491798,0.0,1.0
1012,252.75,19.8495,22.0609,145.421,98.3565,81.9749,0.00579294,0.280647,20.6871,32.7187,1.62971,0.0,0.0
1034,258.25,23.6325,26.4844,146.029,98.1942,71.6,0.0108242,0.452912,20.462,32.1983,2.82541,0.0,0.0
1056,263.75,28.3891,33.1108,138.517,97.9643,67.0225,0.0143032,0.57303,20.3021,31.4276,3.39542,0.0,0.0
1078,269.25,32.8071,39.0105,140.073,97.7138,63.1574,0.0176697,0.669679,20.1762,30.6269,3.90386,0.0,0.0
1100,274.75,37.2104,45.1494,140.136,97.4515,62.2921,0.0211824,0.769293,20.0373,29.6861,4.00322,0.0,0.0
1122,280.25,43.1704,52.2275,129.497,97.2532,58.4359,0.0247438,0.891457,19.9018,28.6852,4.55665,0.0,0.0
1144,285.75,48.4766,59.6101,119.779,97.1306,52.4615,0.0292211,1.03224,19.712,27.4541,5.51012,0.0,0.0
1166,291.25,55.3183,68.8482,120.556,97.0621,49.0796,0.0355439,1.23308,19.4499,26.0128,6.09988,0.0,0.0
1188,296.75,62.7254,79.4467,107.301,97.0629,46.5956,0.0444139,1.51272,19.0908,24.3013,6.56456,0.0,0.0
1210,302.25,71.4949,91.3703,113.625,97.1448,42.9063,0.0556649,1.78797,18.7906,22.3997,7.30999,0.0,0.0
1232,307.75,82.0179,105.773,105.203,97.3288,42.9635,0.0684858,2.16505,18.3076,20.2278,7.315,0.0,0.0
1254,313.25,93.0285,122.147,114.179,97.6236,40.6483,0.0885219,2.67868,17.7052,17.6555,7.83757,0.0,0.0
1276,318.75,106.213,141.351,92.2556,97.9346,39.3333,0.109793,3.25147,17.1317,14.6829,8.16021,0.0,0.0
1298,324.25,118.246,158.944,92.4197,98.2659,40.0024,0.126934,3.67154,16.7608,11.5602,8.03952,0.0,0.0
1320,329.75,127.883,172.523,94.0943,98.531,44.518,0.125571,3.65087,16.9099,8.37736,7.10687,0.0,0.0
1342,335.25,128.003,170.77,122.11,98.7221,46.4589,0.0872506,2.70623,18.0654,5.93521,6.74247,0.0,0.0
1364,340.75,120.433,158.754,133.323,98.9109,55.9341,0.0518283,1.67912,19.1546,4.41388,5.09925,0.0,0.0
1386,346.25,113.01,146.376,133.688,99.0114,66.076,0.030793,1.10462,19.7995,3.3029,3.61775,0.0,0.0
1408,351.75,104.431,133.282,142.236,99.0624,71.0024,0.0192693,0.744965,20.2056,2.54223,2.97913,0.0,0.0
1430,357.25,95.7048,120.622,146.124,99.0351,78.4988,0.0116781,0.541782,20.4546,1.96172,2.07881,0.0,0.0
1452,362.75,88.2856,109.078,149.846,98.9544,85.8563,0.00705836,0.404302,20.6088,1.58139,1.2701,0.0,0.0
1474,368.25,81.572,98.7028,146.249,98.8523,90.8602,0.00460503,0.307135,20.7151,1.32116,0.754133,0.0,0.0
1496,373.75,75.0827,89.428,151.34,98.7486,95.6011,0.00278371,0.239736,20.7898,1.12098,0.289768,0.0,0.0
1518,379.25,69.5442,81.2347,154.085,98.6442,97.3982,0.00218206,0.182577,20.8571,1.04091,0.113703,0.0,0.0
1540,384.75,64.2989,73.2222,159.531,98.5476,98.6773,0.00279525,0.132011,20.9097,1.01089,-0.0117682,0.0,0.0
1562,390.25,59.2414,67.059,157.255,98.5211,97.4469,0.00276013,0.0939295,20.9523,0.99087,0.0980675,0.0,0.0
1584,395.75,54.9705,61.2493,160.502,98.5255,98.9899,0.0022947,0.0778539,20.9658,0.980861,-0.0420672,0.0,0.0
1606,401.25,51.5238,56.1925,162.037,98.5627,98.9787,0.0012331,0.072536,20.9707,0.960844,-0.0376772,0.0,0.0
1628,406.75,49.2292,52.3056,154.612,98.6216,99.5427,0.000715219,0.0705443,20.9724,0.970853,-0.0831578,0.0,0.0
1650,412.25,46.2591,49.0429,160.021,98.6881,99.421,0.000292091,0.069785,20.9727,0.970853,-0.0661879,0.0,0.0
1672,417.75,43.3788,45.3344,160.659,98.7922,100.014,0.00025144,0.0693358,20.9732,0.980861,-0.109921,0.0,0.0
1694,423.25,42.4079,43.1012,158.957,98.8764,100.262,6.9947e-05,0.0686635,20.974,0.970853,-0.124447,0.0,0.0
1716,428.75,40.3136,40.7552,156.335,98.9825,100.143,0.000143459,0.0682353,20.9747,0.970853,-0.10427,0.0,0.0
1738,434.25,38.0012,38.0921,157.885,99.0296,100.485,0.000154521,0.0679107,20.9736,0.980861,-0.130537,0.0,0.0
1760,439.75,37.6092,37.5033,160.379,99.0126,100.134,9.03456e-05,0.0679023,20.9759,0.970853,-0.100725,0.0,0.0
1782,445.25,36.6798,36.0082,158.256,98.8994,100.922,-4.82285e-05,0.0676434,20.9749,0.970853,-0.181117,0.0,0.0
1804,450.75,35.8305,34.7907,157.967,98.6723,100.025,3.24764e-05,0.0671957,20.9766,0.980861,-0.121821,0.0,0.0
1826,456.25,35.0901,34.084,161.372,98.3193,99.8154,0.000293592,0.0668435,20.977,0.970853,-0.135098,0.0,0.0
1848,461.75,34.1605,33.0458,152.838,97.9085,99.3785,0.000215808,0.0666191,20.977,0.980861,-0.133305,0.0,0.0
1870,467.25,32.9742,32.2313,160.954,97.5033,99.3097,0.000105965,0.0666956,20.9782,0.980861,-0.164212,0.0,0.0
1892,472.75,32.5193,31.2395,162.734,97.1682,98.0167,0.000104637,0.0664605,20.9779,0.980861,-0.0777821,0.0,0.0
1914,478.25,31.7646,30.9489,159.978,96.9968,98.7527,-8.00877e-05,0.0659169,20.9786,0.970853,-0.160484,0.0,0.0
1936,483.75,31.4519,29.89,158.527,97.0245,98.2458,-4.72216e-05,0.0656804,20.98,0.99087,-0.111899,0.0,0.0
1958,489.25,30.8164,29.3016,156.171,97.2718,98.6348,0.000220027,0.0656388,20.9813,0.980861,-0.124476,0.0,0.0
1980,494.75,30.6152,29.2098,159.692,97.6933,98.9172,,0.0652309,,0.960844,-0.111378,0.0,0.0
2002,500.25,30.2463,28.7368,157.745,98.0771,98.5626,,,,0.980861,-0.0441717,0.0,0.0
2023,505.5,28.7642,27.592,161.284,98.3359,99.8301,,,,0.99087,-0.134901,0.0,0.0