File: 01_Data/PETG/Cone/PETG_Cone_HF25Scalar_220215_R3.csv
LABORATORY,FSRI
TEST IDENT,PET-G_HF25_3
OPERATOR,Dow
MATERIAL,PET-G
ORIENTATION,Horizontal
HEAT FLUX,25
SURF AREA,0.01
C FACTOR,0.0393671
SPEC HOLDER DIFF,303.47
SPECIMEN MASS,34.6
SCAN TIME,0.25
O2 DELAY TIME,11
CO DELAY TIME,11
CO2 DELAY TIME,8
FLOW FACTOR,1
SCAN COUNT,1997
TIME TO IGN,250
END OF TEST SCAN,1517
END OF TEST TIME,379.25
TEST STATUS,1
PRE TEST CMT,Dimensions: 99.25 x 99.02 x 2.58 mm
POST TEST CMT,Sample warped near the end of the test with corners rising up.