File: 01_Data/PETG/Cone/PETG_Cone_HF50Scan_220215_R2.csv
Names,Time,Stack TC,Smoke TC,Exh Press,Smoke Comp,Smoke Meas,CO Meter,CO2 Meter,O2 Meter,Sample Mass,Ext Coeff,Start Test,Flame Verif
Chan Gain,,500,500,1,1,1,1,1,1,1,1,1.0,1.0
Offset,,0,0,0.140898,0,0,0,0,0,0,0,0.0,0.0
Gain,,1,1,25.011,12.9668,12.6588,1,1,1,1.00088,1.01977,1.0,1.0
Units,sec,C,C,Pa,%,%,%,%,%,g,/m,,
Baseline,,35.6038,36.2219,153.702,98.2994,99.3528,-0.00117878,0.0652744,20.9758,-872.0625,-0.0951957,,
12,2.75,32.7997,33.047,152.41,98.3612,98.9609,-0.00137332,0.0759969,20.9626,34.2601,-0.0543705,0.0,0.0
24,5.75,32.1719,32.9856,153.175,98.2671,99.3746,-0.00141182,0.0749096,20.9637,34.18,-0.100261,0.0,0.0
36,8.75,32.6737,33.7331,157.004,98.1523,99.2108,-0.00146568,0.0733519,20.9657,34.0899,-0.0959575,0.0,0.0
48,11.75,32.4586,34.0453,156.128,98.0288,98.733,-0.00147662,0.0719134,20.9675,34.11,-0.0640245,0.0,0.0
60,14.75,33.0138,33.4228,153.431,97.9481,98.631,-0.00149238,0.0701892,20.9716,34.14,-0.0621495,0.0,0.0
72,17.75,33.1483,33.6727,152.941,98.0906,98.0337,-0.00134678,0.0676482,20.9754,34.19,0.00518318,0.0,0.0
84,20.75,33.239,33.7648,155.411,98.493,98.9427,-0.00109911,0.0658508,20.9777,34.15,-0.0407533,0.0,0.0
96,23.75,33.0062,33.9559,153.335,98.7205,100.058,-0.000935171,0.0650894,20.9788,34.13,-0.120415,0.0,0.0
108,26.75,32.4045,33.5241,152.921,98.7744,100.189,-0.00091339,0.0644882,20.9805,34.16,-0.127172,0.0,0.0
120,29.75,32.6486,34.2231,151.252,98.6157,98.8342,-0.000890363,0.0640387,20.981,34.14,-0.0197993,0.0,0.0
132,32.75,33.0973,33.6291,155.861,98.294,98.641,-0.000888002,0.0637305,20.9812,34.13,-0.0315299,0.0,0.0
144,35.75,32.9016,33.7122,152.389,98.3648,98.2192,-0.000958369,0.0639296,20.9812,34.12,0.0132526,0.0,0.0
156,38.75,32.1892,33.4359,154.46,98.5706,97.8008,-0.00104826,0.0641891,20.9796,34.11,0.0701313,0.0,0.0
168,41.75,33.0582,33.4343,154.924,98.7906,98.2899,-0.00103057,0.0647638,20.9795,34.13,0.0454534,0.0,0.0
180,44.75,33.0278,33.8892,155.904,98.9694,97.8773,-0.000956517,0.0651967,20.9796,34.0699,0.0992635,0.0,0.0
192,47.75,33.086,33.9713,152.183,99.0379,98.7106,-0.000823297,0.0653796,20.9796,34.0499,0.0296141,0.0,0.0
204,50.75,32.855,34.2541,151.629,98.9429,96.969,-0.000762481,0.0654506,20.9796,34.0799,0.180261,0.0,0.0
216,53.75,33.3887,34.3531,151.806,98.6976,96.3305,-0.000708948,0.0653268,20.9791,34.0299,0.217155,0.0,0.0
228,56.75,33.4508,34.3433,151.737,98.2817,95.9461,-0.0005999,0.0651566,20.9788,34.0199,0.215147,0.0,0.0
240,59.75,32.6815,34.6616,152.377,97.8009,95.1418,-0.000264833,0.0675846,20.9735,33.9698,0.246584,0.0,0.0
252,62.75,33.9322,35.442,146.46,97.4068,85.4985,0.00125647,0.111772,20.8993,33.7997,1.16644,0.0,1.0
264,65.75,35.1233,37.1503,139.913,97.1373,74.1192,0.00459981,0.237139,20.7457,33.5294,2.41928,0.0,0.0
276,68.75,36.7702,39.8832,134.19,97.1159,65.4823,0.009385,0.37449,20.5762,33.1691,3.52559,0.0,0.0
288,71.75,39.7858,43.2666,124.537,97.3185,63.611,0.0135578,0.52814,20.3537,32.7488,3.80359,0.0,0.0
300,74.75,42.9679,48.3655,127.688,97.6276,58.1338,0.0174854,0.649348,20.2048,32.2784,4.63738,0.0,0.0
312,77.75,46.3478,53.1682,116.6,97.994,59.737,0.0216837,0.770455,20.0315,31.7078,4.42754,0.0,0.0
324,80.75,50.3594,58.3731,123.015,98.2706,55.5323,0.0265306,0.908124,19.8533,31.0873,5.10564,0.0,0.0
336,83.75,54.9443,64.6751,115.641,98.3925,49.0727,0.0334827,1.07485,19.6316,30.3467,6.22293,0.0,0.0
348,86.75,59.7099,72.9223,116.019,98.3137,43.67,0.0426833,1.33472,19.3315,29.3558,7.25915,0.0,0.0
360,89.75,67.7995,82.6473,103.699,98.1111,37.0606,0.0580514,1.71957,18.9027,28.1447,8.70871,0.0,0.0
372,92.75,75.8057,95.1343,100.941,97.9188,33.3809,0.0775749,2.2022,18.3099,26.7435,9.62657,0.0,0.0
384,95.75,84.6225,109.962,89.4109,98.237,32.5986,0.102393,2.7141,17.6695,25.1921,9.86772,0.0,0.0
396,98.75,95.6514,125.935,94.1981,98.6948,29.223,0.133279,3.32684,16.8542,23.4906,10.8872,0.0,0.0
408,101.75,106.314,143.929,81.859,98.7336,30.8803,0.161676,3.96609,16.1793,21.4789,10.3972,0.0,0.0
420,104.75,117.812,161.387,99.3548,98.3929,31.4423,0.189799,4.49609,15.5972,19.337,10.205,0.0,0.0
432,107.75,129.28,180.391,74.6445,98.3941,28.1776,0.223762,5.14287,14.9182,17.075,11.1857,0.0,0.0
444,110.75,140.933,201.006,80.1348,98.7067,28.7536,0.259254,5.92218,14.0499,14.5528,11.0331,0.0,0.0
456,113.75,152.508,220.07,74.8873,98.9718,29.0244,0.276844,6.36925,13.6672,12.0606,10.9732,0.0,0.0
468,116.75,161.582,233.256,85.9891,99.0347,33.761,0.264197,6.17973,13.8132,9.7886,9.62665,0.0,0.0
480,119.75,165.77,239.258,79.4707,98.8211,34.8025,0.225094,5.51875,14.6898,7.91695,9.33554,0.0,0.0
492,122.75,168.445,241.177,88.3598,98.3739,35.9754,0.182652,4.78056,15.4807,6.08534,8.99848,0.0,0.0
504,125.75,168.129,237.896,96.8642,97.8547,39.3862,0.142121,3.93786,16.5123,4.6641,8.14087,0.0,0.0
516,128.75,165.474,230.433,112.499,97.3696,41.3931,0.106,3.01982,17.5167,3.54311,7.65184,0.0,0.0
528,131.75,159.911,219.155,121.176,97.142,44.3059,0.073545,2.18052,18.5087,2.68236,7.02259,0.0,0.0
540,134.75,152.559,207.267,126.392,97.2196,53.3712,0.0492836,1.50102,19.2474,2.10185,5.36452,0.0,0.0
552,137.75,146.311,194.875,131.603,97.5528,59.4206,0.0324947,1.07734,19.7197,1.69149,4.43468,0.0,0.0
564,140.75,139.184,183.954,131.696,97.9529,66.9951,0.0214019,0.778242,20.1129,1.3712,3.39804,0.0,0.0
576,143.75,133.669,172.901,137.805,98.2694,72.1323,0.0139293,0.586133,20.3533,1.08095,2.76599,0.0,0.0
588,146.75,125.728,162.604,141.843,98.3929,82.3504,0.00869711,0.446423,20.5313,0.950835,1.59214,0.0,0.0
600,149.75,121.057,153.853,141.988,98.2718,91.5537,0.00569655,0.327458,20.6733,0.9108,0.633436,0.0,0.0
612,152.75,115.397,144.201,142.246,98.0344,93.5011,0.00467291,0.226928,20.7874,0.880774,0.423518,0.0,0.0
624,155.75,109.023,135.968,143.258,97.844,93.5104,0.00477647,0.16038,20.871,0.820721,0.405247,0.0,0.0
636,158.75,104.665,128.075,146.76,98.2932,93.3083,0.00564554,0.121043,20.9093,0.83073,0.465563,0.0,0.0
648,161.75,99.9673,121.237,147.886,98.6541,93.9863,0.00744334,0.10177,20.9284,0.760668,0.433584,0.0,0.0
660,164.75,95.7983,114.901,142.346,98.6746,94.3672,0.00891453,0.0928851,20.937,0.810712,0.39927,0.0,0.0
672,167.75,92.3175,109.306,145.268,98.3593,94.0968,0.0101105,0.089099,20.9399,0.810712,0.396302,0.0,0.0
684,170.75,89.0697,103.993,149.967,98.3102,94.2374,0.0107778,0.0885963,20.9395,0.780686,0.378481,0.0,0.0
696,173.75,85.564,99.2068,144.975,98.5812,95.2476,0.011073,0.0899477,20.9372,0.780686,0.307729,0.0,0.0
708,176.75,82.6817,94.6382,147.724,98.8278,94.1775,0.0111161,0.0917678,20.9351,0.750659,0.43114,0.0,0.0
720,179.75,80.6742,91.3145,148.259,98.99,94.5982,0.0108062,0.0936391,20.935,0.770677,0.405943,0.0,0.0
732,182.75,78.4945,87.8262,148.718,98.9904,93.8607,0.0103504,0.0953484,20.9335,0.680598,0.475989,0.0,0.0
744,185.75,75.7605,84.7582,148.755,98.8456,94.8428,0.010058,0.0968134,20.9303,0.710624,0.369787,0.0,0.0
756,188.75,74.3956,81.2,145.779,98.5666,94.1064,0.0100171,0.0980829,20.9284,0.680598,0.414223,0.0,0.0
768,191.75,72.4804,79.2412,145.983,98.2477,95.2874,0.00994905,0.0988877,20.9272,0.66058,0.27367,0.0,0.0
780,194.75,70.7224,76.5661,145.949,98.2061,93.7282,0.00997191,0.0993072,20.9256,0.650571,0.417469,0.0,0.0
792,197.75,68.8062,74.1207,147.089,97.9248,93.6684,0.00997992,0.0997788,20.9248,0.630554,0.397521,0.0,0.0
804,200.75,66.6991,71.517,146.391,97.6636,93.4694,0.00999451,0.10059,20.9241,0.58051,0.392652,0.0,0.0
816,203.75,66.1837,70.4171,149.62,97.4511,93.9044,0.0098906,0.101332,20.9238,0.540475,0.331634,0.0,0.0
828,206.75,65.1952,68.4876,146.039,97.2861,92.8517,0.00980036,0.101684,20.923,0.540475,0.417321,0.0,0.0
840,209.75,63.52,66.5773,144.982,97.2018,93.9013,0.00969112,0.102043,20.9221,0.520457,0.309015,0.0,0.0
852,212.75,62.0385,64.7925,148.118,97.1587,93.6854,0.00950223,0.102289,20.9224,0.470413,0.32564,0.0,0.0
864,215.75,62.1486,64.0473,146.228,97.1856,93.3898,0.0096317,0.102196,20.9224,0.480422,0.35638,0.0,0.0
876,218.75,60.9001,63.1783,148.591,97.2493,93.5613,0.00980372,0.102329,20.9224,0.480422,0.345829,0.0,0.0
888,221.75,59.7402,61.8636,144.132,97.3419,94.2741,0.00979656,0.102034,20.9224,0.460404,0.286455,0.0,0.0
900,224.75,59.3101,60.8299,152.931,97.4831,94.7952,0.00968064,0.10162,20.9224,0.440387,0.250114,0.0,0.0
912,227.75,58.42,59.5229,145.551,97.6165,94.0388,0.00971957,0.101364,20.9224,0.430378,0.334006,0.0,0.0
924,230.75,57.9607,58.5417,145.562,97.7463,94.3966,0.0100262,0.101074,20.9212,0.370325,0.311929,0.0,0.0
936,233.75,57.6891,58.0024,146.269,97.8864,93.8689,0.0104787,0.100383,20.921,0.370325,0.374887,0.0,0.0
948,236.75,56.0062,57.069,151.301,98.0292,93.9793,0.0102911,0.0999935,20.922,0.320281,0.377411,0.0,0.0
960,239.75,55.3989,56.0952,144.312,98.1396,95.34,0.00997679,0.0994875,20.9237,0.340299,0.2589,0.0,0.0
972,242.75,55.4128,56.18,151.238,98.2417,94.7636,0.00997215,0.0993105,20.9252,0.320281,0.322443,0.0,0.0
984,245.75,54.4375,55.0622,143.513,98.3165,95.3083,0.00979607,0.0987139,20.9264,0.33029,0.27798,0.0,0.0
996,248.75,54.1429,54.2991,142.64,98.3798,94.7056,0.00975321,0.0979951,20.9268,0.290255,0.340481,0.0,0.0
1008,251.75,53.126,52.8651,145.603,98.417,95.4446,0.00978362,0.0978621,20.9276,0.25022,0.27433,0.0,0.0
1020,254.75,53.2338,53.0554,145.89,98.4467,95.2047,0.00975278,0.0970841,20.9311,0.230202,0.29954,0.0,0.0
1032,257.75,52.7407,52.5327,148.226,98.44,95.2808,0.0098473,0.0966939,20.9324,0.230202,0.291781,0.0,0.0
1044,260.75,51.9643,51.9953,144.677,98.434,95.6896,0.00988763,0.0963394,20.9328,0.240211,0.252951,0.0,0.0
1056,263.75,51.8601,51.7849,147.35,98.3949,95.8143,0.00971667,0.0958517,20.9346,0.180158,0.237733,0.0,0.0
1068,266.75,51.8131,51.6552,145.348,98.3502,95.7166,,0.095511,,0.180158,0.242796,0.0,0.0
1080,269.75,51.8002,50.5455,148.386,98.2892,96.2976,,,,0.170149,0.183116,0.0,0.0
1092,272.75,50.1228,51.0738,147.488,98.2441,96.3529,,,,0.140123,0.17388,0.0,0.0
1100,274.75,50.332,50.4811,148.141,98.2144,96.084,,,,0.150132,0.196174,0.0,0.0