File: 01_Data/Tyvek_Wrap/Cone/Tyvek_Cone_HF50Scan_220308_R3.csv
Names,Time,Stack TC,Smoke TC,Exh Press,Smoke Comp,Smoke Meas,CO Meter,CO2 Meter,O2 Meter,Sample Mass,Ext Coeff,Start Test,Flame Verif
Chan Gain,,500,500,1,1,1,1,1,1,1,1,1.0,1.0
Offset,,0,0,0.134161,0,0,0,0,0,0,0,0.0,0.0
Gain,,1,1,25.011,15.9695,16.7489,1,1,1,1.00099,1.01863,1.0,1.0
Units,sec,C,C,Pa,%,%,%,%,%,g,/m,,
Baseline,,31.7389,33.1458,149.252,119.181,115.805,0.00110323,0.0586103,21.0039,-835.593,0.256843,,
30,7.25,30.5108,31.7407,148.4,119.463,115.475,0.00119447,0.0608611,21.0046,183.412,0.303384,0.0,0.0
60,14.75,30.2139,32.0927,149.14,119.452,113.632,0.00192114,0.059534,21.0015,183.362,0.446279,0.0,0.0
90,22.25,31.319,32.3502,147.184,119.426,113.165,0.00269813,0.0588565,21.0004,183.332,0.481122,0.0,0.0
120,29.75,30.8006,32.2898,144.744,119.425,113.861,0.00242428,0.0590631,21.0028,183.312,0.426326,0.0,0.0
150,37.25,31.5233,33.4177,150.837,119.408,115.551,0.0020775,0.0589134,21.003,183.292,0.293374,0.0,0.0
180,44.75,31.469,32.4535,147.473,119.383,115.55,0.00178228,0.0585961,21.0027,183.282,0.291632,0.0,0.0
210,52.25,31.5999,32.3967,145.045,119.347,115.118,0.001748,0.0585357,21.0033,183.272,0.322393,0.0,0.0
240,59.75,31.289,32.8812,153.518,119.323,115.758,0.00159188,0.0584916,21.0029,183.252,0.271033,0.0,0.0
270,67.25,30.4861,32.8726,148.187,119.316,115.631,0.00174623,0.0585417,21.0058,183.242,0.280276,0.0,0.0
300,74.75,31.1878,32.3015,151.183,119.308,115.04,0.00164906,0.0584752,21.0075,183.232,0.32551,0.0,0.0
330,82.25,31.3654,32.6425,150.827,119.264,115.136,0.00143283,0.058569,21.0093,183.212,0.31476,0.0,0.0
360,89.75,31.0216,32.1232,145.827,119.234,115.928,0.00200214,0.0587981,21.0069,183.182,0.251262,0.0,0.0
390,97.25,31.0172,32.6152,149.014,119.175,115.389,0.00155012,0.0585746,21.0056,183.182,0.288502,0.0,0.0
420,104.75,31.075,32.8007,142.392,119.166,116.007,0.00172479,0.0581134,21.0069,183.152,0.240079,0.0,0.0
450,112.25,31.3885,33.0944,152.324,119.16,115.841,0.00180496,0.0577865,21.0084,183.172,0.252406,0.0,0.0
480,119.75,31.6437,33.0331,146.555,119.143,114.856,0.00173338,0.0576316,21.0091,183.142,0.327505,0.0,0.0
510,127.25,31.5462,32.9774,149.418,119.165,115.329,0.0014393,0.0577223,21.009,183.102,0.292403,0.0,0.0
540,134.75,31.5499,32.8282,149.486,119.161,115.419,0.00144094,0.0584165,21.0074,183.112,0.285107,0.0,0.0
570,142.25,31.4573,33.4116,149.68,119.134,115.58,0.00138871,0.0582086,21.0069,183.092,0.270641,0.0,0.0
600,149.75,31.7432,33.393,145.709,119.109,115.74,0.00109613,0.0579666,21.0063,183.082,0.256377,0.0,0.0
630,157.25,31.9693,33.2848,147.181,119.081,115.167,0.000903265,0.0581167,21.0067,183.082,0.298606,0.0,0.0
660,164.75,31.3556,33.0295,147.337,119.048,115.455,0.00107661,0.0579294,21.0093,183.092,0.273893,0.0,0.0
690,172.25,31.9419,33.3036,148.626,119.037,114.566,0.00126463,0.0579245,21.0087,183.062,0.34207,0.0,0.0
720,179.75,32.0262,33.4869,148.913,119.034,115.986,0.00109667,0.0582169,21.0064,183.042,0.231788,0.0,0.0
750,187.25,32.0252,33.2431,150.18,119.003,115.513,0.000985857,0.0583705,21.0067,183.032,0.265905,0.0,0.0
780,194.75,31.6092,33.7746,148.343,118.949,115.56,0.00106062,0.0584934,21.0052,183.052,0.258242,0.0,0.0
810,202.25,31.4799,32.9499,148.917,118.903,115.567,0.00086308,0.0635188,20.9979,183.042,0.254325,0.0,0.0
840,209.75,32.0063,33.5822,149.148,118.839,115.18,0.00105756,0.0621367,21.0029,183.002,0.279494,0.0,0.0
870,217.25,31.9811,33.6143,142.944,118.788,115.112,0.0011705,0.0599256,21.0042,182.992,0.280881,0.0,0.0
900,224.75,32.1036,33.6797,149.647,118.721,114.444,0.0008251,0.0590385,21.0064,182.982,0.327865,0.0,0.0
930,232.25,31.8484,33.7543,146.238,118.652,114.82,0.00106186,0.0586375,21.0056,183.002,0.293371,0.0,0.0
960,239.75,32.0501,33.7743,149.578,118.604,115.59,0.00148233,0.0584988,21.0048,182.972,0.230033,0.0,0.0
990,247.25,32.6944,34.2201,152.107,118.552,115.238,0.00106784,0.0586626,21.003,182.972,0.253366,0.0,0.0
1020,254.75,32.0307,34.2896,148.27,118.538,114.952,0.00105504,0.0585965,21.0047,182.962,0.274445,0.0,0.0
1050,262.25,32.3013,33.5848,148.901,118.536,115.415,0.000940953,0.0584435,21.0037,182.952,0.238411,0.0,0.0
1080,269.75,31.8858,34.0208,150.261,118.568,115.891,0.00119914,0.0584031,21.0057,182.942,0.204073,0.0,0.0
1110,277.25,31.6552,33.4055,145.293,118.618,114.847,0.0013506,0.0584969,21.0072,182.942,0.288693,0.0,0.0
1140,284.75,32.2982,33.9384,146.076,118.654,115.156,0.00111067,0.0582397,21.0069,182.922,0.267346,0.0,0.0
1170,292.25,32.505,33.7073,149.757,118.674,115.761,0.000783134,0.0584173,21.0058,182.922,0.222015,0.0,0.0
1200,299.75,32.0027,33.5608,149.655,118.673,114.806,0.000836321,0.0583093,21.0061,182.932,0.296024,0.0,0.0
1230,307.25,32.7407,33.8858,147.072,118.649,114.374,0.000893213,0.0585299,21.0062,182.892,0.327904,0.0,0.0
1260,314.75,32.2816,34.1957,148.626,118.629,114.824,0.000896037,0.058639,21.0062,182.892,0.291251,0.0,0.0
1290,322.25,33.2112,34.3888,146.295,118.593,114.449,0.00117309,0.0587131,21.0046,182.902,0.317814,0.0,0.0
1320,329.75,32.55,34.025,146.558,118.619,115.432,0.00114142,0.0587776,21.0035,182.882,0.243388,0.0,0.0
1350,337.25,32.8132,33.8506,145.291,118.627,114.844,0.00106336,0.058947,21.0018,182.872,0.289553,0.0,0.0
1380,344.75,32.2899,34.1232,150.818,118.625,115.824,0.0010615,0.0590481,21.0034,182.862,0.21353,0.0,0.0
1410,352.25,32.5978,34.2554,146.949,118.638,115.788,0.00111174,0.058931,21.0043,182.842,0.217245,0.0,0.0
1440,359.75,32.7645,34.0806,148.613,118.617,115.117,0.00118927,0.0592824,21.0047,182.842,0.267571,0.0,0.0
1470,367.25,32.7675,34.0533,150.427,118.652,115.004,0.00106414,0.0592801,21.0046,182.832,0.278986,0.0,0.0
1500,374.75,32.6908,34.2226,147.754,118.645,114.824,0.00112499,0.0592182,21.0052,182.832,0.292539,0.0,0.0
1530,382.25,32.5015,34.1786,146.404,118.644,115.321,0.000945238,0.059101,21.0047,182.812,0.253811,0.0,0.0
1560,389.75,32.794,34.1308,146.894,118.691,115.868,0.000866422,0.0591701,21.006,182.812,0.215058,0.0,0.0
1590,397.25,32.6918,34.6131,146.741,118.708,115.444,0.00123571,0.0590544,21.0065,182.782,0.249115,0.0,0.0
1620,404.75,32.3541,34.217,149.078,118.75,115.91,0.0012026,0.0590961,21.0065,182.792,0.216264,0.0,0.0
1650,412.25,32.9898,34.4731,146.088,118.78,114.964,0.000931187,0.059132,21.0062,182.792,0.291808,0.0,0.0
1680,419.75,33.047,34.2383,146.131,118.801,114.907,0.000885317,0.0591767,21.0051,182.782,0.297759,0.0,0.0
1710,427.25,32.8711,34.783,147.368,118.842,114.7,0.000918059,0.0590842,21.0057,182.762,0.316989,0.0,0.0
1740,434.75,33.0062,34.6229,150.113,118.831,115.611,0.00119208,0.0590023,21.0056,182.762,0.245427,0.0,0.0
1770,442.25,32.734,34.1023,145.382,118.85,114.874,0.000988965,0.0593078,21.0046,182.742,0.30404,0.0,0.0
1800,449.75,33.0387,34.5504,145.234,118.858,116.41,0.00136244,0.0590898,21.0038,182.732,0.185908,0.0,0.0
1830,457.25,32.9723,34.5559,146.406,118.892,115.035,0.0012522,0.0589856,21.0041,182.732,0.29468,0.0,0.0
1860,464.75,33.5049,34.6897,145.227,118.927,114.919,0.000859706,0.0587848,21.0051,182.722,0.306334,0.0,0.0
1890,472.25,32.9332,34.6366,145.796,118.96,115.379,0.00112944,0.058779,21.0052,182.702,0.273086,0.0,0.0
1920,479.75,32.5577,34.8053,146.911,119.057,116.301,0.000846207,0.0585333,21.0059,182.702,0.209244,0.0,0.0
1950,487.25,32.9118,34.6933,145.056,119.13,115.338,0.000909066,0.0586959,21.0069,182.712,0.289062,0.0,0.0
1980,494.75,33.4148,34.4741,148.015,119.231,115.598,0.000955038,0.0585317,21.0055,182.691,0.276453,0.0,0.0
2010,502.25,32.8268,34.4348,153.351,119.32,115.661,0.000781593,0.0585971,21.0053,182.671,0.278316,0.0,0.0
2040,509.75,32.7943,35.004,148.957,119.382,116.537,0.00103906,0.0586792,21.0058,182.681,0.215559,0.0,0.0
2070,517.25,32.9669,34.7722,150.757,119.46,116.3,0.00103848,0.0586454,21.0058,182.651,0.239521,0.0,0.0
2100,524.75,33.0954,34.571,147.865,119.508,116.879,0.000990346,0.0587675,21.0058,182.661,0.198745,0.0,0.0
2130,532.25,32.4551,34.8647,148.874,119.545,116.899,0.000980394,0.0590004,21.0058,182.641,0.200027,0.0,0.0
2160,539.75,33.2184,34.9442,146.1,119.59,116.369,0.00108043,0.0589254,21.0054,182.631,0.243984,0.0,0.0
2190,547.25,33.6324,35.0373,148.615,119.588,116.66,0.00081192,0.0588483,21.0054,182.621,0.221498,0.0,0.0
2220,554.75,33.2254,34.9854,147.397,119.599,116.334,0.00084268,0.0587147,21.0075,182.591,0.247309,0.0,0.0
2250,562.25,33.1487,34.4329,147.11,119.603,115.753,0.000910885,0.058771,21.007,182.611,0.29235,0.0,0.0
2280,569.75,33.4571,34.7169,146.462,119.604,115.193,0.00125477,0.0587899,21.0065,182.601,0.335733,0.0,0.0
2310,577.25,32.9809,34.6723,149.284,119.61,116.609,0.00111799,0.058598,21.007,182.571,0.227089,0.0,0.0
2340,584.75,33.3325,35.2463,147.004,119.576,116.787,0.000899944,0.0585965,21.0071,182.601,0.210882,0.0,0.0
2370,592.25,33.5117,35.0019,151.445,119.576,116.368,0.000699142,0.0585872,21.005,182.551,0.24297,0.0,0.0
2400,599.75,33.4295,34.9514,148.001,119.553,117.534,0.000770674,0.0586309,21.0068,182.561,0.152178,0.0,0.0
2430,607.25,32.6965,34.8327,150.469,119.51,114.966,0.000623831,0.0587816,21.0048,182.551,0.346323,0.0,0.0
2460,614.75,32.7194,34.6126,150.151,119.486,115.404,0.00104026,0.0586562,21.0067,182.541,0.310561,0.0,0.0
2490,622.25,32.6257,34.8141,143.445,119.453,116.809,0.000975753,0.0586446,21.0053,182.521,0.199982,0.0,0.0
2520,629.75,32.8068,34.1927,145.358,119.459,115.483,0.00119316,0.0585048,21.0055,182.531,0.30246,0.0,0.0
2550,637.25,32.7516,34.2543,148.334,119.444,115.694,0.000934281,0.0586758,21.0061,182.521,0.285051,0.0,0.0
2580,644.75,33.287,34.1977,146.799,119.425,116.041,0.000518536,0.0585447,21.007,182.521,0.256828,0.0,0.0
2610,652.25,32.9784,34.8191,144.111,119.426,116.299,0.000817058,0.0583336,21.0066,182.501,0.237046,0.0,0.0
2640,659.75,32.7883,34.6202,145.367,119.413,115.413,0.00102211,0.0582714,21.0045,182.501,0.304456,0.0,0.0
2670,667.25,32.5742,34.586,148.059,119.403,115.96,0.00108946,0.0583173,21.0063,182.491,0.261444,0.0,0.0
2700,674.75,32.8768,34.3973,152.286,119.372,116.328,0.000873823,0.057872,21.0062,182.481,0.230797,0.0,0.0
2730,682.25,32.8098,34.3587,147.99,119.351,117.157,0.000501915,0.0581916,21.0062,182.461,0.165808,0.0,0.0
2760,689.75,33.2418,34.606,150.743,119.35,116.119,0.00065688,0.0584554,21.006,182.451,0.245267,0.0,0.0
2790,697.25,32.4789,34.6871,147.805,119.315,115.854,0.000765021,0.0582125,21.0055,182.441,0.262997,0.0,0.0
2820,704.75,33.1759,34.0508,146.768,119.317,115.957,0.000975098,0.0583645,21.0036,182.441,0.255262,0.0,0.0
2850,712.25,33.2608,35.1461,147.143,119.292,115.379,,0.0582762,,182.431,0.297983,0.0,0.0
2880,719.75,32.4686,34.5645,147.01,119.293,115.998,,,,182.421,0.250208,0.0,0.0
2886,721.25,32.454,34.5349,149.007,119.291,116.138,,,,182.411,0.239317,0.0,0.0