File: 01_Data/Tyvek_Wrap/Cone/Tyvek_Wrap_Cone_HF25Scan_220401_R2.csv
Names,Time,Stack TC,Smoke TC,Exh Press,Smoke Comp,Smoke Meas,CO Meter,CO2 Meter,O2 Meter,Sample Mass,Ext Coeff,Start Test,Flame Verif
Chan Gain,,500,500,1,1,1,1,1,1,1,1,1.0,1.0
Offset,,0,0,0.133521,0,0,0,0,0,0,0,0.0,0.0
Gain,,1,1,25.011,13.1585,13.8929,1,1,1,1.00096,1.01488,1.0,1.0
Units,sec,C,C,Pa,%,%,%,%,%,g,/m,,
Baseline,,19.4571,20.2811,152.676,97.7959,96.3065,0.00068481,0.0714402,21.0115,-834.331,0.136667,,
31,7.5,17.7116,18.6662,155.788,98.7989,97.1645,0.000459476,0.0737887,21.0082,179.963,0.148504,0.0,0.0
62,15.25,18.421,18.3511,150.072,98.937,97.3985,0.000518545,0.073143,21.0087,179.963,0.139526,0.0,0.0
93,23,18.1968,19.1663,154.196,99.0667,98.1621,0.000682033,0.0813443,20.9996,179.943,0.081668,0.0,0.0
124,30.75,18.3983,18.921,154.512,99.2137,97.4197,0.000962818,0.0797512,21.0052,179.933,0.16245,0.0,0.0
155,38.5,18.6649,19.0508,155.046,99.3378,98.4559,0.000655564,0.0732695,21.0122,179.933,0.0793858,0.0,0.0
186,46.25,18.1419,19.204,153.633,99.4342,98.2079,0.000457812,0.0707528,21.0179,179.933,0.110474,0.0,0.0
217,54,18.5918,20.0331,153.238,99.5185,98.1676,0.000716851,0.0693737,21.022,179.923,0.121672,0.0,0.0
248,61.75,18.172,19.4817,155.39,99.5486,98.0387,0.000881739,0.0690295,21.0201,179.923,0.136063,0.0,0.0
279,69.5,18.805,19.7285,156.515,99.5851,98.6255,0.000639725,0.0689931,21.0183,179.923,0.0862043,0.0,0.0
310,77.25,18.9462,20.2172,153.868,99.6261,98.5365,0.000422177,0.0693118,21.0186,179.913,0.0979062,0.0,0.0
341,85,19.11,19.8313,156.494,99.6675,98.1286,0.000235696,0.0690164,21.0179,179.913,0.138527,0.0,0.0
372,92.75,18.8472,19.6598,152.879,99.7072,98.4813,0.000419266,0.0687449,21.0193,179.913,0.110132,0.0,0.0
403,100.5,18.9278,19.5657,153.464,99.7321,98.6399,0.000512978,0.0691639,21.019,179.903,0.0980321,0.0,0.0
434,108.25,19.3148,19.6231,151.521,99.7526,98.0285,0.000673574,0.069584,21.019,179.913,0.155211,0.0,0.0
465,116,18.9486,19.5652,157.241,99.7703,98.8612,0.000528363,0.0685782,21.0195,179.923,0.081485,0.0,0.0
496,123.75,19.1977,19.9387,152.518,99.7855,98.0836,0.000237937,0.0680482,21.0204,179.923,0.153144,0.0,0.0
527,131.5,19.3231,19.7999,154.319,99.7883,98.7188,0.000625083,0.0681344,21.0216,179.913,0.0959357,0.0,0.0
558,139.25,18.4282,20.2126,155.691,99.7683,98.2795,0.000605622,0.0682221,21.0212,179.893,0.133844,0.0,0.0
589,147,19.2222,20.0831,151.926,99.7277,98.3647,0.000181908,0.0690878,21.021,179.893,0.122507,0.0,0.0
620,154.75,19.3107,20.1488,151.552,99.6984,98.3372,0.000278036,0.0706958,21.0192,179.903,0.122384,0.0,0.0
651,162.5,18.6439,20.0335,152.856,99.6285,98.5318,0.000475578,0.0711608,21.0177,179.883,0.0985433,0.0,0.0
682,170.25,18.5238,19.6494,150.864,99.5446,98.1735,0.000357699,0.0710583,21.019,179.883,0.123468,0.0,0.0
713,178,19.3128,19.9626,155.302,99.4868,98.3164,0.00048097,0.0701029,21.0206,179.893,0.105348,0.0,0.0
744,185.75,18.8056,20.4607,154.452,99.3992,97.7084,0.000599588,0.0704769,21.0169,179.883,0.152735,0.0,0.0
775,193.5,19.1297,20.3656,152.385,99.341,97.8776,0.000587065,0.0718379,21.0143,179.883,0.132119,0.0,0.0
806,201.25,19.5041,20.5924,153.401,99.2739,97.9819,0.000584432,0.0713786,21.0163,179.883,0.116625,0.0,0.0
837,209,19.3256,20.2638,152.795,99.239,97.8581,0.000449596,0.070153,21.015,179.873,0.124747,0.0,0.0
868,216.75,19.5549,20.2486,153.878,99.1944,97.803,0.000364973,0.0696167,21.0156,179.863,0.125764,0.0,0.0
899,224.5,19.4469,20.1377,152.087,99.1792,98.0578,0.000386096,0.0695964,21.0157,179.893,0.101231,0.0,0.0
930,232.25,19.8558,20.1108,151.441,99.125,97.5545,0.000535282,0.0698957,21.0207,179.883,0.142171,0.0,0.0
961,240,19.2798,19.8112,153.162,99.0732,97.8691,0.000384065,0.0694308,21.0206,179.863,0.108855,0.0,0.0
992,247.75,19.7091,20.3845,150.629,99.0338,97.7716,0.000670345,0.0700028,21.018,179.873,0.114192,0.0,0.0
1023,255.5,19.3747,20.2263,152.71,99.0025,98.051,0.000562258,0.0698954,21.0191,179.863,0.085972,0.0,0.0
1054,263.25,19.739,20.3128,149.712,99.1466,97.4235,0.000505148,0.0691206,21.0205,179.863,0.156081,0.0,0.0
1085,271,19.3946,20.2387,151.608,99.3016,98.3673,0.000464008,0.0690308,21.0187,179.863,0.0841619,0.0,0.0
1116,278.75,18.9658,20.7857,152.884,99.4277,98.2643,0.000340329,0.0692914,21.0181,179.853,0.104788,0.0,0.0
1147,286.5,19.7922,20.3902,150.878,99.5157,97.8797,0.000502134,0.0683917,21.0185,179.853,0.147566,0.0,0.0
1178,294.25,19.4689,20.3326,151.028,99.5615,98.4457,0.00063797,0.0683101,21.0187,179.843,0.100328,0.0,0.0
1209,302,19.6486,20.0827,150.015,99.5795,98.0048,0.000561858,0.067727,21.0231,179.853,0.141908,0.0,0.0
1240,309.75,19.6321,20.2635,149.2,99.5647,98.3792,0.000666648,0.0671349,21.0271,179.843,0.106637,0.0,0.0
1271,317.5,19.6343,20.331,150.249,99.5378,98.3516,0.000519317,0.0669814,21.0268,179.833,0.106725,0.0,0.0
1302,325.25,19.6759,20.4606,152.55,99.4872,97.9743,0.000757821,0.0670137,21.0256,179.843,0.13642,0.0,0.0
1333,333,19.6145,20.642,154.927,99.4185,97.8492,0.00089284,0.0670696,21.0251,179.843,0.141646,0.0,0.0
1364,340.75,19.2558,20.719,150.351,99.3338,98.2918,0.000761167,0.0676604,21.0254,179.833,0.0938746,0.0,0.0
1395,348.5,20.4704,20.5038,154.624,99.233,98.0875,0.000527498,0.0672123,21.0233,179.823,0.103365,0.0,0.0
1426,356.25,19.7548,20.4788,153.93,99.1065,97.6224,0.000541488,0.0672698,21.023,179.823,0.134323,0.0,0.0
1457,364,19.7411,21.0021,149.38,98.9318,97.8509,0.000585045,0.067414,21.023,179.833,0.0978022,0.0,0.0
1488,371.75,19.5849,19.7488,150.102,98.7724,97.3298,0.000495717,0.067732,21.023,179.833,0.13098,0.0,0.0
1519,379.5,19.6492,20.191,148.724,98.7836,97.8992,0.000370958,0.0679322,21.0219,179.833,0.0800621,0.0,0.0
1550,387.25,19.4465,20.5059,151.995,98.821,97.6105,0.000458232,0.0682852,21.0219,179.833,0.109722,0.0,0.0
1581,395,19.5301,21.0356,153.529,98.8651,98.4839,0.000250307,0.0681654,21.0247,179.833,0.0343967,0.0,0.0
1612,402.75,19.6844,20.8788,147.672,98.9049,97.566,0.000268916,0.067751,21.0249,179.823,0.12134,0.0,0.0
1643,410.5,19.7159,20.6129,152.095,98.9479,97.5914,0.000356431,0.0682203,21.0227,179.823,0.122886,0.0,0.0
1674,418.25,19.7009,20.4613,152.982,98.9756,97.9603,0.000250321,0.0682502,21.0219,179.803,0.091794,0.0,0.0
1705,426,19.3544,20.1165,150.043,98.9989,98.196,0.000432871,0.068035,21.0225,179.813,0.0724915,0.0,0.0
1736,433.75,19.6211,20.462,152.469,99.0254,98.0629,0.00015651,0.0677785,21.0226,179.813,0.0869526,0.0,0.0
1767,441.5,19.8073,21.1652,154.87,99.0679,97.976,0.000407928,0.0671412,21.0244,179.813,0.0986724,0.0,0.0
1798,449.25,19.7385,20.6506,150.791,99.0547,97.8759,0.000525359,0.0667712,21.027,179.813,0.106577,0.0,0.0
1829,457,19.5661,20.6088,153.533,99.0515,97.7165,0.000320594,0.0665455,21.0265,179.803,0.120801,0.0,0.0
1860,464.75,19.9507,20.359,155.18,99.0699,98.2185,0.000557795,0.0667823,21.0222,179.793,0.0768431,0.0,0.0
1891,472.5,20.0997,20.6475,149.08,99.0607,97.5159,0.000532935,0.0666188,21.0233,179.793,0.139921,0.0,0.0
1922,480.25,20.254,20.8882,153.996,99.0543,97.8615,0.000322787,0.0666688,21.0239,179.783,0.107853,0.0,0.0
1953,488,19.8659,20.6307,155.003,99.0563,98.2448,0.000416417,0.0666625,21.0267,179.793,0.0732346,0.0,0.0
1984,495.75,20.1759,20.7191,152.846,99.0615,98.0849,0.000319415,0.0664953,21.0269,179.793,0.088199,0.0,0.0
2015,503.5,20.166,21.0884,150.789,99.0663,98.2393,-6.74641e-06,0.0661009,21.0275,179.783,0.0746365,0.0,0.0
2046,511.25,19.8223,20.6312,157.051,99.0635,98.5615,0.000399558,0.0663609,21.029,179.773,0.0452314,0.0,0.0
2077,519,19.7206,20.5886,158.929,99.0603,97.4646,0.000627831,0.066138,21.0293,179.783,0.144569,0.0,0.0
2108,526.75,19.8831,20.7723,151.959,99.0591,98.0213,0.000690138,0.0661486,21.0293,179.793,0.093757,0.0,0.0
2139,534.5,19.8948,20.8114,152.259,99.0631,97.8093,0.000559232,0.066531,21.0277,179.793,0.113393,0.0,0.0
2170,542.25,19.9401,20.579,151.705,99.0643,98.1515,0.000480819,0.0668406,21.0264,179.783,0.0824124,0.0,0.0
2201,550,19.9011,20.9632,151.677,99.0848,98.2651,0.000524456,0.0669472,21.0262,179.783,0.0739524,0.0,0.0
2232,557.75,19.5513,20.779,154.89,99.1005,98.4877,0.000257577,0.0675233,21.0226,179.773,0.0552165,0.0,0.0
2263,565.5,19.4844,20.9687,150.873,99.0876,98.0306,0.00033542,0.0682082,21.0224,179.763,0.0954727,0.0,0.0
2294,573.25,20.1255,20.6081,152.625,99.1061,98.5055,0.000310531,0.0681989,21.0226,179.763,0.0541122,0.0,0.0
2325,581,19.9498,20.4688,149.422,99.0812,97.8458,0.000300365,0.0676783,21.0227,179.773,0.111698,0.0,0.0
2356,588.75,20.18,20.9901,153.891,99.0579,97.7288,0.000286253,0.0678601,21.0236,179.763,0.120259,0.0,0.0
2387,596.5,20.1416,20.9321,147.112,99.0495,98.478,0.000239111,0.0678049,21.0245,179.753,0.0515159,0.0,0.0
2418,604.25,19.5653,20.23,153.077,99.0049,98.1939,0.00033364,0.0675531,21.0239,179.683,0.0732251,0.0,0.0
2449,612,19.4536,20.4884,154.144,98.9643,97.4481,0.000335496,0.0676574,21.0231,179.773,0.13745,0.0,0.0
2480,619.75,18.979,19.9611,147.535,98.9194,97.7992,0.000500571,0.0691952,21.0208,179.743,0.10139,0.0,0.0
2511,627.5,19.775,20.4183,149.827,98.8282,97.6817,0.000302566,0.0684779,21.0212,179.743,0.10388,0.0,0.0
2542,635.25,19.3865,20.2607,155.732,98.7342,97.7411,0.000613207,0.0672412,21.0243,179.753,0.0900019,0.0,0.0
2573,643,19.5802,20.3769,152.417,98.6282,97.5075,0.000623476,0.0671277,21.0246,179.753,0.101742,0.0,0.0
2604,650.75,19.7202,20.4621,154.036,98.517,97.3701,0.00045338,0.0671083,21.0256,179.743,0.104247,0.0,0.0
2635,658.5,19.6724,20.2854,155.082,98.4331,97.4888,0.000340694,0.0669475,21.0254,179.753,0.0858123,0.0,0.0
2666,666.25,19.511,20.9871,152.113,98.372,97.1763,0.000428297,0.0668788,21.0255,179.723,0.108871,0.0,0.0
2697,674,19.8844,20.021,151.188,98.3536,97.8564,0.000425816,0.0666444,21.0287,179.733,0.0451142,0.0,0.0
2728,681.75,19.2048,20.4037,148.837,98.3343,97.4867,0.00024051,0.0667682,21.0291,179.723,0.0770672,0.0,0.0
2759,689.5,19.7946,20.1634,152.641,98.3536,97.4528,0.000467738,0.0669829,21.0279,179.713,0.0819109,0.0,0.0
2790,697.25,19.7165,20.3113,150.02,98.358,97.5422,0.000369565,0.0669066,21.0228,179.713,0.0741408,0.0,0.0
2821,705,19.8106,20.1657,151.005,98.3511,97.4583,0.000188398,0.0666724,21.0237,179.713,0.0811884,0.0,0.0
2852,712.75,19.4575,20.365,149.531,98.3612,97.3107,,0.0665678,,179.713,0.0955851,0.0,0.0
2883,720.5,19.1853,20.3327,153.915,98.3339,97.5287,,,,179.723,0.0731978,0.0,0.0
2886,721.25,19.4436,20.5998,152.401,98.3287,97.5147,,,,179.713,0.0740029,0.0,0.0