File: 01_Data/Tyvek_Wrap/Cone/Tyvek_Cone_HF25Scan_220401_R1.csv
Names,Time,Stack TC,Smoke TC,Exh Press,Smoke Comp,Smoke Meas,CO Meter,CO2 Meter,O2 Meter,Sample Mass,Ext Coeff,Start Test,Flame Verif
Chan Gain,,500,500,1,1,1,1,1,1,1,1,1.0,1.0
Offset,,0,0,0.133521,0,0,0,0,0,0,0,0.0,0.0
Gain,,1,1,25.011,13.1585,13.8929,1,1,1,1.00096,1.01488,1.0,1.0
Units,sec,C,C,Pa,%,%,%,%,%,g,/m,,
Baseline,,19.5801,20.3573,152.675,99.5743,98.6068,0.000787572,0.0685043,21.0166,-834.266,0.0869675,,
31,7.5,18.3592,18.7148,157.231,98.1475,96.5187,0.000605575,0.0671051,21.0227,185.409,0.14898,0.0,0.0
62,15.25,18.5813,19.6293,152.704,98.6648,96.8609,0.00100759,0.0672501,21.0234,185.429,0.164269,0.0,0.0
93,23,19.05,19.4737,154.216,99.0177,97.0212,0.000830338,0.0675872,21.0214,185.459,0.181343,0.0,0.0
124,30.75,18.6697,19.1072,151.978,99.0796,97.0212,0.000826046,0.0676937,21.0214,185.429,0.186901,0.0,0.0
155,38.5,19.2145,19.8689,154.857,99.0205,97.8042,0.000872502,0.0674207,21.0191,185.419,0.110029,0.0,0.0
186,46.25,18.8607,20.0299,150.111,98.8507,97.1144,0.000710731,0.0691925,21.015,185.419,0.157756,0.0,0.0
217,54,19.6427,20.3151,153.142,99.1021,97.0619,0.000574843,0.0705416,21.0138,185.399,0.185188,0.0,0.0
248,61.75,19.6912,19.6001,152.809,99.5703,97.4943,0.000770724,0.0695575,21.0159,185.399,0.187573,0.0,0.0
279,69.5,19.9147,20.2546,150.916,99.4358,97.7665,0.000768941,0.0700586,21.015,185.399,0.150717,0.0,0.0
310,77.25,19.7979,20.1227,149.939,99.0752,97.2505,0.000682416,0.0691625,21.0147,185.379,0.165482,0.0,0.0
341,85,19.7742,20.2462,153.694,99.4932,97.5325,0.000711609,0.0705877,21.0161,185.409,0.177192,0.0,0.0
372,92.75,19.3904,20.5727,153.816,99.7899,97.0178,0.000852024,0.0693466,21.0193,185.409,0.250812,0.0,0.0
403,100.5,19.7786,20.1884,151.861,99.5113,97.382,0.000403241,0.0684331,21.0196,185.369,0.192558,0.0,0.0
434,108.25,19.9281,20.5427,149.676,98.678,96.5259,0.00070517,0.0711535,21.0139,185.379,0.196302,0.0,0.0
465,116,19.4919,20.3585,152.653,97.8769,95.8739,0.000502129,0.0723431,21.0102,185.379,0.184077,0.0,0.0
496,123.75,20.1364,20.8495,151.421,97.8596,96.0091,0.000819277,0.0719145,21.0107,185.379,0.169957,0.0,0.0
527,131.5,20.164,20.7527,147.165,98.5596,96.5268,0.000828418,0.0726168,21.012,185.379,0.18553,0.0,0.0
558,139.25,20.0625,20.677,154.578,99.09,96.9109,0.000379025,0.0703579,21.0171,185.389,0.197959,0.0,0.0
589,147,19.8509,20.7841,154.264,98.9675,97.2844,0.000515655,0.0688776,21.0189,185.349,0.152703,0.0,0.0
620,154.75,19.8262,20.3543,148.551,98.8756,96.2915,0.000956738,0.068311,21.0177,185.369,0.235759,0.0,0.0
651,162.5,19.3037,20.3709,153.272,99.5506,96.8872,0.000648323,0.0691251,21.0174,185.389,0.241426,0.0,0.0
682,170.25,19.6341,20.3627,152.04,99.1511,96.8834,0.000564556,0.0686906,21.0205,185.389,0.205974,0.0,0.0
713,178,20.1253,20.6336,151.414,99.743,96.9453,0.000428792,0.066615,21.0256,185.389,0.253275,0.0,0.0
744,185.75,19.9398,20.7606,151.14,99.5121,97.0084,0.000426182,0.0655117,21.0277,185.399,0.226843,0.0,0.0
775,193.5,19.6727,20.5984,150.939,98.4407,95.9981,0.000423395,0.065438,21.0278,185.359,0.223682,0.0,0.0
806,201.25,19.6897,21.0038,154.396,97.7705,95.4664,0.000599596,0.0655305,21.0267,185.379,0.212306,0.0,0.0
837,209,19.5839,20.9041,150.791,98.064,95.5275,0.000350764,0.0653623,21.0254,185.329,0.233303,0.0,0.0
868,216.75,19.4728,21.0085,150.662,98.776,95.893,0.0005018,0.0667629,21.0204,185.359,0.26371,0.0,0.0
899,224.5,19.6471,20.9096,148.24,99.1161,96.5467,0.000563383,0.0711864,21.0135,185.359,0.233824,0.0,0.0
930,232.25,20.0358,20.532,151.014,98.9165,96.2754,0.000722559,0.071066,21.0128,185.339,0.240935,0.0,0.0
961,240,19.5902,21.2091,150.425,98.6985,96.0536,0.000643412,0.0712423,21.0131,185.339,0.241817,0.0,0.0
992,247.75,20.1735,20.9017,155.105,99.4269,96.5789,0.000441052,0.0701144,21.0164,185.329,0.258726,0.0,0.0
1023,255.5,19.443,20.5631,154.052,99.4667,96.7235,0.00038885,0.0693245,21.0177,185.349,0.248968,0.0,0.0
1054,263.25,20.0857,21.4599,155.746,99.0258,96.3267,0.000590582,0.0695477,21.0173,185.329,0.246018,0.0,0.0
1085,271,19.8574,21.065,150.427,99.3675,96.8058,0.000404116,0.0699756,21.0157,185.319,0.232518,0.0,0.0
1116,278.75,19.8852,20.9943,155.658,99.6904,96.6612,0.000761049,0.0693213,21.017,185.329,0.274702,0.0,0.0
1147,286.5,20.2993,20.7742,147.771,99.7883,96.98,0.000655423,0.0705565,21.0148,185.319,0.254132,0.0,0.0
1178,294.25,20.2102,20.77,151.334,99.6687,97.0178,0.000684746,0.0702033,21.0139,185.299,0.239986,0.0,0.0
1209,302,20.1785,20.7035,148.323,99.3816,97.2654,0.000437748,0.0696727,21.0137,185.299,0.191612,0.0,0.0
1240,309.75,20.3076,20.6307,151.889,99.0298,96.6773,0.000660546,0.0681473,21.0164,185.299,0.214032,0.0,0.0
1271,317.5,19.6778,20.7159,153.282,98.5909,95.4202,0.000640508,0.0675975,21.0187,185.309,0.291006,0.0,0.0
1302,325.25,20.2353,21.0848,152.009,98.1592,95.1489,0.000456868,0.0676436,21.0203,185.309,0.277294,0.0,0.0
1333,333,20.5808,21.0298,153.028,97.8901,95.3838,0.000657134,0.0673897,21.0207,185.299,0.230909,0.0,0.0
1364,340.75,20.3998,21.099,149.763,97.8026,95.0005,0.000556446,0.0671568,21.0167,185.278,0.258789,0.0,0.0
1395,348.5,20.2079,21.4047,152.463,97.8697,95.0615,0.000616745,0.0690546,21.0138,185.288,0.259171,0.0,0.0
1426,356.25,20.0566,21.2611,151.157,98.0624,95.6979,0.000279002,0.0703364,21.014,185.288,0.217288,0.0,0.0
1457,364,19.7136,20.9867,149.983,98.2941,96.0358,0.000595083,0.0685549,21.019,185.278,0.206919,0.0,0.0
1488,371.75,20.3561,21.0462,152.486,98.5411,95.594,0.000509275,0.0679729,21.018,185.288,0.270306,0.0,0.0
1519,379.5,19.9575,20.9135,150.631,98.7856,96.0138,0.000574284,0.0706794,21.0143,185.288,0.253368,0.0,0.0
1550,387.25,20.0911,21.1106,151.294,98.9394,95.9663,0.000259753,0.0696172,21.0156,185.278,0.271621,0.0,0.0
1581,395,19.971,20.9344,151.81,99.0298,96.6146,0.000286933,0.0676402,21.0173,185.288,0.219813,0.0,0.0
1612,402.75,19.7575,20.9196,148.464,99.0828,95.9188,0.000330838,0.0670997,21.0206,185.268,0.288918,0.0,0.0
1643,410.5,20.6345,21.2881,152.646,99.1133,96.1227,0.000333035,0.0669892,21.019,185.278,0.272752,0.0,0.0
1674,418.25,20.16,21.2704,155.466,99.1169,96.8431,0.000266545,0.0669346,21.0189,185.288,0.20661,0.0,0.0
1705,426,20.1946,21.1457,153.289,99.09,96.4882,0.00046397,0.0668081,21.0181,185.268,0.236875,0.0,0.0
1736,433.75,20.1168,21.1938,152.662,99.0659,96.0375,0.00064547,0.0687526,21.0199,185.258,0.276391,0.0,0.0
1767,441.5,20.1233,20.8666,149.931,99.0149,96.2279,0.000741941,0.0699426,21.0183,185.248,0.254178,0.0,0.0
1798,449.25,20.1624,20.8285,153.486,98.9744,96.2644,0.000421713,0.067567,21.019,185.258,0.247157,0.0,0.0
1829,457,20.1208,20.6504,152.83,98.935,96.4789,0.000427915,0.0667872,21.0207,185.258,0.223799,0.0,0.0
1860,464.75,20.1332,20.9812,151.181,98.9487,96.2775,0.000499402,0.0664781,21.0229,185.278,0.243631,0.0,0.0
1891,472.5,20.1617,21.1205,155.291,98.9443,96.2881,0.000476453,0.0661841,21.0231,185.258,0.242253,0.0,0.0
1922,480.25,20.5989,21.1328,152.036,98.9483,96.7282,0.000571309,0.0678327,21.0193,185.248,0.202018,0.0,0.0
1953,488,20.4356,20.7906,152.816,98.9571,96.2177,0.000557002,0.0678034,21.0192,185.238,0.249918,0.0,0.0
1984,495.75,20.2345,21.172,155.042,98.9728,96.0125,0.00037348,0.0698804,21.0139,185.238,0.270334,0.0,0.0
2015,503.5,20.1995,20.9762,153.901,99.0101,96.721,0.00057576,0.0690657,21.0213,185.238,0.208243,0.0,0.0
2046,511.25,20.1635,21.0812,150.638,99.0418,96.4009,0.000373378,0.0675289,21.0225,185.228,0.240607,0.0,0.0
2077,519,20.4556,20.9789,154.313,99.0531,96.2571,0.000339445,0.0675877,21.0226,185.228,0.254901,0.0,0.0
2108,526.75,20.2602,21.0749,153.826,99.0924,95.8921,0.000416927,0.0672761,21.0197,185.218,0.292263,0.0,0.0
2139,534.5,20.2488,21.3152,154.452,99.1041,96.6006,0.000222596,0.0669639,21.0197,185.228,0.227777,0.0,0.0
2170,542.25,20.0957,21.2273,151.48,99.1077,96.1414,0.000478009,0.0682669,21.0198,185.228,0.270519,0.0,0.0
2201,550,20.0084,20.6032,149.722,99.1049,96.2652,0.000175565,0.0673085,21.0226,185.238,0.258809,0.0,0.0
2232,557.75,19.9395,20.9712,146.69,99.096,96.8435,0.000664396,0.0668103,21.0219,185.208,0.204695,0.0,0.0
2263,565.5,19.9535,20.7441,151.503,99.1041,96.2766,0.000788108,0.066263,21.0219,185.238,0.25768,0.0,0.0
2294,573.25,20.2307,20.9756,150.508,99.1081,96.3678,0.000686709,0.0660902,21.0242,185.218,0.249615,0.0,0.0
2325,581,20.4185,21.0162,153.614,99.1037,96.5929,0.000676228,0.0662052,21.0263,185.208,0.228446,0.0,0.0
2356,588.75,20.0504,21.0487,151.55,99.1093,96.7651,0.00052888,0.065925,21.0275,185.218,0.213099,0.0,0.0
2387,596.5,20.1391,20.8552,151.447,99.1181,96.2491,0.000243931,0.066035,21.0234,185.238,0.26149,0.0,0.0
2418,604.25,19.4956,20.3757,152.161,99.1101,96.4479,0.000684596,0.0674783,21.0201,185.208,0.242397,0.0,0.0
2449,612,19.5052,20.6143,151.799,99.0756,96.6701,0.000224304,0.0674233,21.0187,185.188,0.21881,0.0,0.0
2480,619.75,20.0256,20.4428,154.665,99.0189,96.3793,0.000282994,0.0669495,21.0208,185.188,0.240547,0.0,0.0
2511,627.5,19.8248,20.5545,154.047,98.9266,96.0091,0.000450435,0.0665479,21.0233,185.198,0.266494,0.0,0.0
2542,635.25,19.6223,20.1716,152.343,98.7507,96.1431,0.000426983,0.0658486,21.0247,185.188,0.238237,0.0,0.0
2573,643,19.7938,20.3612,148.948,98.5977,95.8247,0.000488612,0.0648901,21.0272,185.198,0.253966,0.0,0.0
2604,650.75,19.728,20.4093,151.272,98.3736,95.7221,0.000537333,0.0653549,21.0274,185.208,0.243249,0.0,0.0
2635,658.5,20.2172,20.783,148.051,98.1857,96.0579,0.00045937,0.0655927,21.0254,185.299,0.19505,0.0,0.0
2666,666.25,19.3991,20.4673,155.248,98.0022,95.6992,0.000414853,0.0679325,21.0219,185.178,0.2117,0.0,0.0
2697,674,19.813,20.4957,151.705,97.8781,95.0399,0.00016443,0.070557,21.0173,185.178,0.261964,0.0,0.0
2728,681.75,19.6396,20.3664,151.686,97.7877,95.4325,0.000354158,0.0678167,21.0205,185.178,0.217042,0.0,0.0
2759,689.5,19.49,20.7083,154.236,97.8034,95.3007,0.00073496,0.0666502,21.0246,185.178,0.230777,0.0,0.0
2790,697.25,19.776,20.4133,153.197,97.9146,95.4033,0.000439784,0.0665267,21.025,185.168,0.231317,0.0,0.0
2821,705,20.002,20.2433,156.74,98.1303,95.536,0.000275083,0.0662223,21.0248,185.168,0.238526,0.0,0.0
2852,712.75,19.8104,21.0662,152.326,98.4086,96.113,,0.0663227,,185.168,0.210128,0.0,0.0
2883,720.5,20.1893,20.7323,153.022,98.7411,96.4827,,,,185.168,0.205978,0.0,0.0
2884,720.75,19.299,20.4719,154.215,98.7246,96.5158,,,,185.168,0.201442,0.0,0.0