File: 01_Data/Tyvek_Wrap/Cone/Tyvek_Cone_HF25Scalar_220401_R2.csv
LABORATORY,FSRI
TEST IDENT,Tyvek_HF25_2
OPERATOR,Dow
MATERIAL,Tyvek
ORIENTATION,Horizontal
HEAT FLUX,25
SURF AREA,0.00884
C FACTOR,0.0397155
SPEC HOLDER DIFF,-566
SPECIMEN MASS,0.65
SCAN TIME,0.25
O2 DELAY TIME,11
CO DELAY TIME,11
CO2 DELAY TIME,8
FLOW FACTOR,1
SCAN COUNT,2886
TIME TO IGN,0
END OF TEST SCAN,2406
END OF TEST TIME,601.5
TEST STATUS,1
PRE TEST CMT,Dimensions: 101.98 x 101.58 x 0.11 mm; with frame; with calcium silicate substrate
POST TEST CMT,The sample shriveled and did not ignite. Ended test after 10 minutes.