File: 01_Data/Tyvek_Wrap/Cone/Tyvek_Cone_HF75Scalar_220308_R3.csv
LABORATORY,FSRI
TEST IDENT,Tyvek_HF75_3
OPERATOR,Dow
MATERIAL,Tyvek
ORIENTATION,Horizontal
HEAT FLUX,75
SURF AREA,0.00884
C FACTOR,0.039038
SPEC HOLDER DIFF,-566
SPECIMEN MASS,0.7
SCAN TIME,0.25
O2 DELAY TIME,11
CO DELAY TIME,11
CO2 DELAY TIME,8
FLOW FACTOR,1
SCAN COUNT,579
TIME TO IGN,7.25
END OF TEST SCAN,99
END OF TEST TIME,24.75
TEST STATUS,1
PRE TEST CMT,Thickness: 0.12 mm; with frame; with calcium silicate substrate
POST TEST CMT,"The sample immediately shriveled towards the edges upon exposure. Ignition occurred along one edge of the sample and did not spread further due to a lack of sample mass to sustain flame travel. A small flame (less than 1 cm tall) returned after end of test, then extinguished during following 2 minutes of additional data collection. "