File: 01_Data/Tyvek_Wrap/Cone/Tyvek_Wrap_Cone_HF50Scan_220308_R2.csv
Names,Time,Stack TC,Smoke TC,Exh Press,Smoke Comp,Smoke Meas,CO Meter,CO2 Meter,O2 Meter,Sample Mass,Ext Coeff,Start Test,Flame Verif
Chan Gain,,500,500,1,1,1,1,1,1,1,1,1.0,1.0
Offset,,0,0,0.134161,0,0,0,0,0,0,0,0.0,0.0
Gain,,1,1,25.011,15.9695,16.7489,1,1,1,1.00099,1.01863,1.0,1.0
Units,sec,C,C,Pa,%,%,%,%,%,g,/m,,
Baseline,,31.9136,33.3865,149.097,120.309,116.723,0.00102956,0.0582495,21.0049,-835.356,0.270434,,
7,1.5,30.6933,32.5702,151.451,120.243,116.396,0.000915784,0.0606263,21.0032,194.994,0.290569,0.0,0.0
14,3.25,30.7469,32.3338,143.695,120.247,116.346,0.000910835,0.060678,21.0027,195.064,0.294665,0.0,0.0
21,5,30.9955,32.2621,149.653,120.242,116.084,0.000956465,0.0608074,21.002,195.034,0.314424,0.0,0.0
28,6.75,31.2168,32.3619,147.046,120.228,116.961,0.00100411,0.0615327,21.0021,195.074,0.246114,0.0,0.0
35,8.5,30.9259,31.8326,150.486,120.236,115.885,0.00105143,0.0623099,21.0011,195.034,0.329308,0.0,0.0
42,10.25,31.1822,32.398,142.293,120.251,115.877,0.00118743,0.0628326,21.0005,195.074,0.331065,0.0,0.0
49,12,30.3899,32.109,147.631,120.242,115.097,0.00142937,0.0626217,21.0002,195.034,0.390761,0.0,0.0
56,13.75,31.0147,32.5022,149.045,120.237,114.455,0.00168094,0.0621486,21,195.044,0.440339,0.0,0.0
63,15.5,31.0622,32.0966,151.927,120.231,114.353,0.00193326,0.061875,20.9992,195.034,0.447889,0.0,0.0
70,17.25,31.0339,32.5754,149.367,120.231,114.749,0.00220143,0.0617663,20.9983,195.024,0.416952,0.0,0.0
77,19,30.7499,32.1957,149.248,120.248,113.265,0.00241116,0.0616548,20.9979,195.004,0.534517,0.0,0.0
84,20.75,31.2676,32.8807,151.622,120.231,113.877,0.00254185,0.061528,20.9977,195.004,0.48515,0.0,0.0
91,22.5,31.4065,32.3176,147.497,120.22,113.013,0.00255931,0.062257,20.9964,194.984,0.552395,0.0,0.0
98,24.25,31.115,32.3564,146.865,120.227,116.857,0.00241661,0.065529,20.9913,194.994,0.254048,0.0,0.0
105,26,31.0015,32.393,148.291,120.219,115.963,0.00225882,0.0730292,20.9817,194.964,0.32209,0.0,0.0
112,27.75,31.1313,32.6201,145.644,120.226,115.244,0.00216209,0.0826277,20.9676,194.954,0.378142,0.0,0.0
119,29.5,31.4423,32.8227,143.994,120.212,113.268,0.0021453,0.09491,20.9431,194.914,0.531632,0.0,0.0
126,31.25,31.2574,32.9949,143.302,120.196,113.758,0.00208587,0.108504,20.9237,194.904,0.491895,0.0,0.0
133,33,31.7857,33.3845,148.371,120.212,114.941,0.00199508,0.115437,20.9157,194.874,0.400624,0.0,0.0
140,34.75,32.3299,33.2596,148.723,120.207,115.816,0.0019128,0.114448,20.9218,194.854,0.332532,0.0,1.0
147,36.5,32.5736,34.0829,146.775,120.225,115.478,0.00184639,0.108193,20.9326,194.784,0.359977,0.0,1.0
154,38.25,33.0285,33.8962,146.082,120.177,115.913,0.00173344,0.0998383,20.9461,194.874,0.322836,0.0,1.0
161,40,32.2083,33.8763,149.905,120.185,116.699,0.00163289,0.09109,20.9593,194.894,0.26298,0.0,0.0
168,41.75,31.8433,33.3555,151.331,120.191,117.062,0.00159943,0.0835233,20.9707,194.884,0.235747,0.0,0.0
175,43.5,32.2652,34.0005,150.796,120.203,116.057,0.00162527,0.0786293,20.9771,194.864,0.313652,0.0,0.0
182,45.25,32.4531,34.3782,149.509,120.172,116.271,0.00161753,0.0754042,20.9826,194.844,0.294856,0.0,0.0
189,47,32.0189,33.9253,146.875,120.179,117.339,0.00153874,0.0724537,20.9869,194.864,0.213683,0.0,0.0
196,48.75,32.4818,33.6971,150.102,120.18,116.896,0.00147626,0.0695765,20.9896,194.844,0.2476,0.0,0.0
203,50.5,31.4644,33.3651,148.655,120.167,117.072,0.00140625,0.0671807,20.993,194.854,0.233116,0.0,0.0
210,52.25,31.5722,33.302,147.929,120.146,116.201,0.00137469,0.0656504,20.9951,194.864,0.298321,0.0,0.0
217,54,31.7686,33.1296,144.689,120.148,116.637,0.00141013,0.0647824,20.9961,194.854,0.265038,0.0,0.0
224,55.75,31.7707,33.1991,146.794,120.152,116.353,0.00147525,0.0639325,20.998,194.854,0.287091,0.0,0.0
231,57.5,31.4616,33.0777,148.365,120.146,116.613,0.00146435,0.0632237,20.9999,194.844,0.266698,0.0,0.0
238,59.25,31.2163,33.1653,149.309,120.138,116.395,0.00131203,0.0624488,21.001,194.844,0.282818,0.0,0.0
245,61,31.7268,32.9905,153.352,120.131,115.641,0.00116783,0.0617433,21.0018,194.834,0.340376,0.0,0.0
252,62.75,31.417,33.0091,150.323,120.13,116.523,0.00102905,0.0611114,21.0032,194.854,0.272395,0.0,0.0
259,64.5,31.1758,32.9556,150.997,120.143,116.474,0.00086115,0.0605049,21.0041,194.834,0.27714,0.0,0.0
266,66.25,31.4589,33.0929,150.895,120.15,116.546,0.000740749,0.0598585,21.0045,194.824,0.272081,0.0,0.0
273,68,31.0851,32.7481,147.955,120.141,116.043,0.000772374,0.0593785,21.0056,194.824,0.310112,0.0,0.0
280,69.75,31.2228,32.8632,147.649,120.118,115.716,0.000868131,0.058985,21.0063,194.814,0.333594,0.0,0.0
287,71.5,30.9022,32.8667,151.971,120.131,116.037,0.000927489,0.0588263,21.0063,194.814,0.309859,0.0,0.0
294,73.25,31.0425,32.7131,150.522,120.127,117.135,0.000988219,0.0585274,21.0071,194.814,0.225383,0.0,0.0
301,75,30.9777,32.4431,145.201,120.108,116.528,0.00111725,0.0582992,21.0079,194.804,0.270335,0.0,0.0
308,76.75,31.2608,32.7648,149.038,120.107,116.922,0.00131484,0.0582156,21.0083,194.804,0.24021,0.0,0.0
315,78.5,30.7885,31.6705,148.157,120.115,116.526,0.00144525,0.0581623,21.0084,194.794,0.271036,0.0,0.0
322,80.25,30.9182,32.9817,144.172,120.125,116.102,0.00144764,0.0581825,21.0085,194.784,0.304391,0.0,0.0
329,82,31.1069,32.6366,150.499,120.087,115.826,0.00139757,0.0582411,21.0086,194.814,0.322827,0.0,0.0
336,83.75,30.8911,32.2967,148.176,120.075,115.844,0.00135293,0.0581908,21.008,194.794,0.32058,0.0,0.0
343,85.5,30.9467,32.4901,151.537,120.082,116.308,0.00127975,0.0582765,21.0071,194.794,0.285324,0.0,0.0
350,87.25,31.3859,32.6081,147.787,120.088,116.368,0.00119828,0.0582884,21.0067,194.794,0.2812,0.0,0.0
357,89,31.3334,32.5271,148.523,120.078,115.804,0.0011388,0.0582728,21.0065,194.794,0.323798,0.0,0.0
364,90.75,31.1001,32.8097,149.201,120.072,116.672,0.0010669,0.0582843,21.0064,194.794,0.256645,0.0,0.0
371,92.5,31.2272,32.532,150.966,120.05,116.195,0.000904161,0.0582724,21.0067,194.784,0.291646,0.0,0.0
378,94.25,31.5523,32.8462,148.056,120.063,117.227,0.00073849,0.0583267,21.0069,194.784,0.21362,0.0,0.0
385,96,30.7706,32.0714,151.346,120.051,116.049,0.000719537,0.0583773,21.0072,194.773,0.302931,0.0,0.0
392,97.75,31.4125,32.2718,147.028,120.029,115.696,0.000857144,0.0584165,21.0074,194.773,0.328496,0.0,0.0
399,99.5,30.9932,32.7239,146.295,120.017,116.985,0.000969152,0.0583551,21.0075,194.773,0.228658,0.0,0.0
406,101.25,31.0502,32.6234,151.151,120.03,116.186,0.00110412,0.0582974,21.0074,194.784,0.290831,0.0,0.0
413,103,31.2505,32.098,152.42,120.043,116.627,0.00119185,0.0584415,21.0071,194.794,0.25799,0.0,0.0
420,104.75,31.1493,32.4046,148.48,120.025,116.349,0.00111102,0.0584913,21.0069,194.794,0.278012,0.0,0.0
427,106.5,30.6262,31.9835,150.998,119.99,117.702,0.000950498,0.0584245,21.0068,194.784,0.172093,0.0,0.0
434,108.25,30.9636,32.5699,152.185,120.007,117.183,0.00084748,0.0583524,21.0068,194.784,0.212835,0.0,0.0
441,110,30.142,32.1505,147.952,120,115.849,0.00086268,0.0583418,21.0068,194.773,0.31456,0.0,0.0
448,111.75,30.5892,32.944,148.127,119.998,116.553,0.000936836,0.0583711,21.0068,194.794,0.260292,0.0,0.0
455,113.5,31.023,32.3791,149.89,120.021,116.172,0.00103001,0.0584293,21.0068,194.773,0.291242,0.0,0.0
462,115.25,31.0217,32.4256,146.89,119.971,115.757,0.00114798,0.0584913,21.0068,194.763,0.319481,0.0,0.0
469,117,31.0518,32.3314,150.809,119.979,115.995,0.00121369,0.0584963,21.0068,194.743,0.301696,0.0,0.0
476,118.75,31.0361,32.3501,147.393,119.972,116.027,0.0012447,0.0584092,21.0072,194.743,0.298783,0.0,0.0
483,120.5,30.4201,32.3497,148.964,119.967,116.014,0.00127235,0.0582977,21.0077,194.753,0.299331,0.0,0.0
490,122.25,31.1826,32.6973,149.529,119.942,115.74,0.00125763,0.0582644,21.008,194.753,0.318681,0.0,0.0
497,124,31.1821,32.5349,149.609,119.94,116.678,0.0011975,0.0582246,21.0081,194.743,0.246417,0.0,0.0
504,125.75,30.813,32.4452,149.26,119.939,115.978,0.00114212,0.0582598,21.0082,194.733,0.300018,0.0,0.0
511,127.5,30.9159,32.4804,146.706,119.933,115.674,0.00114621,0.0582224,21.0082,194.733,0.323119,0.0,0.0
518,129.25,30.974,32.3121,147.924,119.908,116.679,0.00119894,0.0582421,21.0083,194.713,0.243942,0.0,0.0
525,131,31.1342,32.6639,148.526,119.885,115.371,0.00123671,0.058222,21.0083,194.723,0.342932,0.0,0.0
532,132.75,30.8169,32.8746,152.242,119.887,116.874,0.00127306,0.0581548,21.0075,194.743,0.227404,0.0,0.0
539,134.5,30.7927,32.3378,147.995,119.882,115.889,0.00133516,0.0581483,21.0067,194.733,0.302662,0.0,0.0
546,136.25,30.7296,32.1069,147.106,119.862,115.238,0.00140231,0.0582186,21.0063,194.723,0.35152,0.0,0.0
553,138,30.7377,32.6277,150.463,119.834,116.536,0.00141345,0.0582707,21.0061,194.723,0.249423,0.0,0.0
560,139.75,30.6141,32.4579,146.899,119.832,115.667,0.00136243,0.0582899,21.006,194.723,0.316081,0.0,0.0
567,141.5,30.6978,31.9312,148.318,119.823,115.57,0.00128566,0.0583495,21.006,194.713,0.322892,0.0,0.0
574,143.25,31.2458,31.5444,149.616,119.813,116.059,0.00119776,0.0583055,21.0056,194.723,0.284461,0.0,0.0
581,145,30.4195,31.927,153.6,119.786,115.949,0.00116808,0.0583433,21.0054,194.723,0.290893,0.0,0.0
588,146.75,31.0334,32.8106,147.761,119.776,115.728,0.00121843,0.0584502,21.0054,194.723,0.307239,0.0,0.0
595,148.5,30.6143,32.9752,148.616,119.788,115.771,0.0013022,0.0584676,21.0053,194.723,0.304795,0.0,0.0
602,150.25,31.2578,32.7424,144.609,119.764,115.735,0.00142564,0.0584721,21.0053,194.723,0.305775,0.0,0.0
609,152,31.0383,32.5532,146.044,119.751,116.18,0.00154848,0.0584008,21.0053,194.723,0.270526,0.0,0.0
616,153.75,30.6875,31.9369,154.221,119.732,116.015,0.00161525,0.0583394,21.0053,194.723,0.281739,0.0,0.0
623,155.5,30.6707,32.2852,152.48,119.724,115.858,0.00161143,0.0583176,21.0053,194.733,0.29329,0.0,0.0
630,157.25,30.5886,32.494,150.362,119.731,116.865,,0.0584137,,194.713,0.216438,0.0,0.0
637,159,30.9881,32.4566,144.311,119.719,116.168,,0.0588296,,194.713,0.26903,0.0,0.0
644,160.75,31.0844,32.5063,147.326,119.684,115.64,,,,194.693,0.307117,0.0,0.0
651,162.5,31.2727,32.591,147.835,119.678,115.681,,,,194.683,0.30352,0.0,0.0
658,164.25,31.1305,32.2196,147.263,119.687,116.012,,,,194.683,0.278629,0.0,0.0
665,166,31.0731,32.3376,148.188,119.683,115.251,,,,194.683,0.337185,0.0,0.0
672,167.75,31.2282,32.8312,145.968,119.659,115.927,,,,194.683,0.283168,0.0,0.0
673,168,30.2737,32.5288,148.498,119.68,114.98,,,,194.683,0.357959,0.0,0.0