File: 01_Data/Tyvek_Wrap/Cone/Tyvek_Cone_HF75Scan_220308_R3.csv
Names,Time,Stack TC,Smoke TC,Exh Press,Smoke Comp,Smoke Meas,CO Meter,CO2 Meter,O2 Meter,Sample Mass,Ext Coeff,Start Test,Flame Verif
Chan Gain,,500,500,1,1,1,1,1,1,1,1,1.0,1.0
Offset,,0,0,0.134161,0,0,0,0,0,0,0,0.0,0.0
Gain,,1,1,25.011,15.9695,16.7489,1,1,1,1.00099,1.01863,1.0,1.0
Units,sec,C,C,Pa,%,%,%,%,%,g,/m,,
Baseline,,42.1898,44.2505,141.481,119.428,115.38,0.000820012,0.0586784,20.9997,-836.772,0.308129,,
6,1.25,41.7234,43.2478,142.713,119.402,116.24,0.00081214,0.0588814,21.0025,180.84,0.239853,0.0,0.0
12,2.75,41.4295,43.7579,141.901,119.421,114.561,0.000912085,0.0589653,21.0017,180.97,0.371288,0.0,0.0
18,4.25,41.2254,43.8692,138.434,119.454,114.466,0.00110816,0.0592583,20.9995,181.02,0.38115,0.0,0.0
24,5.75,41.3731,42.978,143.217,119.458,114.612,0.00135474,0.0606084,20.9947,180.98,0.369997,0.0,0.0
30,7.25,41.5454,43.1189,143.386,119.49,114.168,0.00159161,0.0635495,20.9889,180.96,0.407134,0.0,1.0
36,8.75,41.5129,43.4832,141.122,119.508,115.154,0.0018126,0.0694463,20.9803,180.97,0.331647,0.0,1.0
42,10.25,41.5051,44.1988,136.028,119.547,112.664,0.00202594,0.0789081,20.9684,180.96,0.529872,0.0,1.0
48,11.75,41.7445,43.9195,142.362,119.553,112.247,0.00225101,0.0912521,20.9486,180.92,0.563413,0.0,1.0
54,13.25,41.4592,43.4557,138.371,119.601,113.285,0.00233619,0.101214,20.9323,180.88,0.484764,0.0,0.0
60,14.75,42.2516,43.8726,138.374,119.595,115.08,0.0023007,0.106999,20.9236,180.86,0.343807,0.0,0.0
66,16.25,41.7498,44.2382,146.637,119.624,114.228,0.0021963,0.105881,20.927,180.85,0.412473,0.0,0.0
72,17.75,42.1914,44.5504,140.3,119.638,114.742,0.00211276,0.100766,20.9362,180.82,0.373358,0.0,0.0
78,19.25,42.2349,43.9758,138.195,119.67,114.571,0.00200908,0.0943429,20.9487,180.83,0.389069,0.0,0.0
84,20.75,42.1953,43.8283,138.415,119.671,114.076,0.0018942,0.0876074,20.959,180.84,0.427889,0.0,0.0
90,22.25,42.7009,44.875,137.261,119.712,115.236,0.00181969,0.0826693,20.966,180.84,0.340521,0.0,0.0
96,23.75,42.1437,44.6492,137.312,119.715,114.803,0.00182484,0.0783807,20.9724,180.86,0.374333,0.0,0.0
102,25.25,42.349,44.8665,140.149,119.745,115.691,0.00189666,0.0753861,20.9769,180.73,0.307754,0.0,0.0
108,26.75,41.8459,44.3116,141.623,119.752,115.365,0.00198182,0.0732716,20.9801,180.78,0.333522,0.0,0.0
114,28.25,42.1118,44.2505,141.782,119.767,114.974,0.00204678,0.0720888,20.982,180.78,0.364947,0.0,0.0
120,29.75,41.6379,44.1411,141.055,119.795,114.482,0.00203102,0.0716632,20.9829,180.79,0.405315,0.0,0.0
126,31.25,42.1559,44.311,139.798,119.803,115.639,0.00201304,0.0717352,20.9825,180.81,0.316108,0.0,0.0
132,32.75,42.1094,44.5212,139.048,119.84,114.537,0.00198475,0.0720622,20.9822,180.79,0.404467,0.0,0.0
138,34.25,41.7154,44.5687,138.734,119.854,115.323,0.00197584,0.0723576,20.9806,180.78,0.344402,0.0,0.0
144,35.75,42.3715,44.2724,141.261,119.883,114.835,0.00197887,0.0726599,20.9786,180.75,0.384407,0.0,0.0
150,37.25,42.2591,44.1543,139.781,119.883,115.19,0.00195421,0.0728009,20.9776,180.75,0.356772,0.0,0.0
156,38.75,41.9097,44.4688,138.867,119.92,115.746,0.00185939,0.0730098,20.9771,180.74,0.316573,0.0,0.0
162,40.25,41.9179,44.0169,144.027,119.931,115.125,0.00172559,0.072936,20.9779,180.74,0.36548,0.0,0.0
168,41.75,41.9896,44.2429,141.877,119.965,115.204,0.00165495,0.072703,20.9775,180.73,0.361802,0.0,0.0
174,43.25,41.5181,44.4431,139.26,119.963,115.102,0.00168361,0.0727394,20.9771,180.73,0.369626,0.0,0.0
180,44.75,42.366,44.3219,139.322,120.013,114.82,0.00177718,0.0726995,20.9768,180.73,0.395293,0.0,0.0
186,46.25,42.0419,45.2534,138.265,120.002,115.232,0.00184449,0.0726732,20.9766,180.73,0.362417,0.0,0.0
192,47.75,42.0444,44.7293,138.226,120.024,116.082,0.0018327,0.0727091,20.9766,180.689,0.298418,0.0,0.0
198,49.25,42.6688,44.326,141.932,120.042,115.555,0.00174394,0.072752,20.9765,180.71,0.340341,0.0,0.0
204,50.75,42.0481,44.4022,143.609,120.076,115.349,0.00161883,0.0727819,20.9765,180.7,0.358898,0.0,0.0
210,52.25,42.2051,44.8125,135.455,120.089,115.78,0.00155086,0.0727147,20.9765,180.669,0.326486,0.0,0.0
216,53.75,42.0373,45.2175,142.148,120.117,115.79,0.00157452,0.0725283,20.9774,180.689,0.327803,0.0,0.0
222,55.25,42.696,44.8813,139.127,120.114,116.717,0.00164237,0.0722406,20.978,180.669,0.256355,0.0,0.0
228,56.75,42.0899,44.3386,138.562,120.129,115.767,0.00167742,0.0719619,20.9786,180.68,0.330482,0.0,0.0
234,58.25,42.4804,43.7693,138.459,120.143,115.47,0.0016769,0.0718726,20.9793,180.659,0.354483,0.0,0.0
240,59.75,42.3222,44.6862,138.51,120.157,115.37,0.00164781,0.0718015,20.9797,180.659,0.363253,0.0,0.0
246,61.25,42.5674,44.5378,137.905,120.168,114.709,0.0016298,0.0716797,20.9803,180.659,0.415461,0.0,0.0
252,62.75,41.8077,44.0932,138.601,120.173,116.485,0.00164027,0.0715726,20.9812,180.649,0.278528,0.0,0.0
258,64.25,42.7459,44.9252,141.346,120.194,115.994,0.00167764,0.0714049,20.9817,180.619,0.317802,0.0,0.0
264,65.75,42.5427,44.5858,137.69,120.225,116.462,0.00174287,0.0711992,20.9816,180.609,0.284165,0.0,0.0
270,67.25,42.5498,44.5632,139.249,120.223,115.332,0.00178509,0.071129,20.9809,180.619,0.37115,0.0,0.0
276,68.75,42.6626,44.9473,141.4,120.241,116.07,0.00176806,0.0711925,20.9805,180.639,0.315491,0.0,0.0
282,70.25,43.0771,45.0838,138.988,120.255,115.23,0.001718,0.0712804,20.9803,180.639,0.381353,0.0,0.0
288,71.75,42.7172,44.9321,138.485,120.238,115.593,0.0016995,0.071282,20.9802,180.599,0.352099,0.0,0.0
294,73.25,41.5212,45.0159,138.29,120.251,115.228,0.00174256,0.0712739,20.9801,180.609,0.381258,0.0,0.0
300,74.75,42.8561,45.0782,136.316,120.249,116.027,0.00183701,0.0712254,20.9801,180.609,0.319378,0.0,0.0
306,76.25,42.694,44.8139,137.407,120.27,115.675,0.00193538,0.0711282,20.9801,180.609,0.348059,0.0,0.0
312,77.75,42.6479,45.0959,140.991,120.255,115.986,0.00196168,0.0709834,20.981,180.579,0.322923,0.0,0.0
318,79.25,42.6841,45.0311,141.956,120.262,115.847,0.00193932,0.0706046,20.9817,180.599,0.334223,0.0,0.0
324,80.75,43.0464,44.7402,140.646,120.268,116.584,0.00187836,0.0701821,20.9828,180.599,0.278024,0.0,0.0
330,82.25,42.7023,45.0744,140.375,120.283,115.67,0.00184695,0.0698479,20.9846,180.609,0.349431,0.0,0.0
336,83.75,42.5085,45.1214,140.501,120.262,116.737,0.0018196,0.0694891,20.9861,180.599,0.265808,0.0,0.0
342,85.25,42.6325,45.1353,142.169,120.274,116.693,0.00175245,0.0690102,20.987,180.579,0.270081,0.0,0.0
348,86.75,42.665,45.0091,140.587,120.257,116.087,0.00169805,0.068467,20.9885,180.579,0.315347,0.0,0.0
354,88.25,42.8621,45.0694,136.857,120.276,116.026,0.00170493,0.0678802,20.9893,180.609,0.321482,0.0,0.0
360,89.75,42.8746,45.4171,141,120.262,115.354,0.00173571,0.0667625,20.9913,180.589,0.372269,0.0,0.0
366,91.25,42.4351,45.0169,144.337,120.28,115.305,0.00173253,0.0650815,20.9931,180.579,0.377487,0.0,0.0
372,92.75,42.357,44.9397,138.571,120.252,115.301,0.00167681,0.0636182,20.9946,180.559,0.375628,0.0,0.0
378,94.25,42.8521,44.8429,145.344,120.259,115.825,0.00166314,0.0623483,20.9957,180.569,0.335737,0.0,0.0
384,95.75,42.5792,44.7232,140.052,120.244,115.987,0.00175447,0.0615232,20.9971,180.549,0.322124,0.0,0.0
390,97.25,42.6916,44.4096,139.221,120.248,115.851,0.00190387,0.0610197,20.9978,180.539,0.332818,0.0,0.0
396,98.75,42.3968,44.7532,142.211,120.238,115.706,0.00204611,0.0607304,20.9982,180.529,0.343297,0.0,0.0
402,100.25,42.7028,44.8866,144.052,120.235,115.121,0.00213158,0.0606817,20.9984,180.529,0.38839,0.0,0.0
408,101.75,42.8736,44.8777,141.713,120.247,115.087,0.00214311,0.0606649,20.9985,180.519,0.391918,0.0,0.0
414,103.25,42.2912,44.7918,137.112,120.22,114.797,0.00210242,0.0605537,20.9981,180.509,0.412492,0.0,0.0
420,104.75,42.7679,44.5496,142.04,120.24,115.543,0.00205946,0.0604143,20.9976,180.519,0.356042,0.0,0.0
426,106.25,42.6154,44.2296,136.996,120.228,115.885,0.0020344,0.0601653,20.9973,180.529,0.328731,0.0,0.0
432,107.75,42.2317,44.771,142.29,120.223,115.22,0.00200405,0.0599852,20.9972,180.529,0.379751,0.0,0.0
438,109.25,43.0788,44.6065,144.093,120.212,116.572,0.00192086,0.0597656,20.9982,180.519,0.274723,0.0,0.0
444,110.75,42.8849,45.1071,138.575,120.215,115.261,0.00178692,0.0595902,20.9987,180.529,0.376041,0.0,0.0
450,112.25,42.4824,44.6355,138.121,120.193,115.312,0.0016506,0.0594027,20.999,180.509,0.37041,0.0,0.0
456,113.75,42.5292,44.8157,143.349,120.192,115.614,0.00156525,0.0592761,20.9992,180.529,0.346999,0.0,0.0
462,115.25,42.0093,45.1766,143.135,120.164,116.485,0.00160797,0.0591341,20.9981,180.509,0.277911,0.0,0.0
468,116.75,41.7585,44.8921,142.814,120.174,115.932,0.00171654,0.0591101,20.9984,180.479,0.321045,0.0,0.0
474,118.25,42.4624,44.8604,144.125,120.16,116.217,0.00175994,0.0592803,20.9988,180.509,0.298151,0.0,0.0
480,119.75,41.9701,44.5395,139.601,120.16,116.347,0.0016447,0.0592342,20.9991,180.489,0.288102,0.0,0.0
486,121.25,42.6968,45.0186,138.502,120.133,116.542,0.00148603,0.059128,20.9992,180.489,0.271126,0.0,0.0
492,122.75,42.9223,44.8744,140.01,120.119,115.294,0.00137487,0.0591369,20.9988,180.479,0.366327,0.0,0.0
498,124.25,41.8902,44.2395,141.365,120.099,115.922,0.00137593,0.0591618,20.9983,180.489,0.31629,0.0,0.0
504,125.75,42.1934,44.9094,138.429,120.106,115.668,0.00142698,0.0591499,20.9981,180.469,0.336435,0.0,0.0
510,127.25,42.5815,44.9526,142.415,120.058,115.866,0.00155461,0.0591683,20.9979,180.479,0.31754,0.0,0.0
516,128.75,41.8524,44.4436,141.338,120.073,115.539,0.00163738,0.0591091,20.9984,180.449,0.343964,0.0,0.0
522,130.25,41.9337,44.6642,139.507,120.028,115.114,0.00164787,0.0591197,20.9986,180.449,0.373499,0.0,0.0
528,131.75,42.0244,45.0641,138.774,120.001,116.407,0.00160403,0.0591202,20.9993,180.439,0.271686,0.0,0.0
534,133.25,42.9119,44.4842,139.701,119.984,115.414,0.0015436,0.0590851,20.9994,180.479,0.346978,0.0,0.0
540,134.75,42.1259,45.0645,142.688,119.946,115.936,,0.0591429,,180.449,0.303834,0.0,0.0
546,136.25,42.4325,44.5664,140.994,119.926,115.778,,0.0592104,,180.439,0.314487,0.0,0.0
552,137.75,42.2685,44.6475,140.033,119.888,115.5,,,,180.459,0.333179,0.0,0.0
558,139.25,41.7846,44.9005,142.19,119.851,115.296,,,,180.449,0.346207,0.0,0.0
564,140.75,42.7801,44.1419,140.655,119.817,115.81,,,,180.479,0.303941,0.0,0.0
570,142.25,42.6793,44.8662,141.387,119.791,115.769,,,,180.449,0.30517,0.0,0.0
576,143.75,42.4289,44.4397,142.865,119.748,115.613,,,,180.479,0.314051,0.0,0.0
579,144.5,42.2096,44.4181,137.547,119.728,116.072,,,,180.439,0.277115,0.0,0.0