File: 01_Data/Tyvek_Wrap/Cone/Tyvek_Cone_HF75Scan_220308_R1.csv
Names,Time,Stack TC,Smoke TC,Exh Press,Smoke Comp,Smoke Meas,CO Meter,CO2 Meter,O2 Meter,Sample Mass,Ext Coeff,Start Test,Flame Verif
Chan Gain,,500,500,1,1,1,1,1,1,1,1,1.0,1.0
Offset,,0,0,0.134161,0,0,0,0,0,0,0,0.0,0.0
Gain,,1,1,25.011,15.9695,16.7489,1,1,1,1.00099,1.01863,1.0,1.0
Units,sec,C,C,Pa,%,%,%,%,%,g,/m,,
Baseline,,39.1041,41.2164,144.295,120.134,116.603,0.00100108,0.0603572,20.9974,-836.097,0.266605,,
9,2,38.7949,40.7518,142.885,119.161,116.276,0.00107331,0.067149,20.9883,176.455,0.218953,0.0,0.0
18,4.25,38.6581,40.7581,143.739,119.164,115.364,0.00118076,0.0663432,20.9888,176.515,0.289598,0.0,0.0
27,6.5,39.1482,40.7843,141.462,119.174,112.914,0.00147634,0.0652032,20.989,176.475,0.482165,0.0,0.0
36,8.75,38.3367,40.8186,139.836,119.173,111.547,0.00190617,0.0642872,20.988,176.445,0.590871,0.0,0.0
45,11,38.9227,40.7736,146.243,119.212,112.879,0.00217082,0.0652804,20.983,176.415,0.487729,0.0,0.0
54,13.25,38.5175,40.993,136.095,119.225,114.326,0.00218102,0.0726767,20.9722,176.425,0.374859,0.0,1.0
63,15.5,39.096,41.097,139.91,119.253,112.497,0.00215103,0.0857548,20.9535,176.195,0.52115,0.0,1.0
72,17.75,38.9909,40.9213,138.846,119.266,110.78,0.0022235,0.105151,20.9095,176.365,0.659515,0.0,1.0
81,20,39.477,41.4498,136.686,119.296,108.548,0.00234067,0.133749,20.8664,176.305,0.8437,0.0,0.0
90,22.25,39.7343,41.6674,137.769,119.291,110.302,0.00255462,0.151917,20.8457,176.295,0.699973,0.0,0.0
99,24.5,40.5834,43.1027,139.79,119.338,112.896,0.00250156,0.150527,20.849,176.225,0.49581,0.0,0.0
108,26.75,40.6177,42.9848,142.507,119.358,113.746,0.00224733,0.137613,20.8745,176.235,0.430322,0.0,0.0
117,29,41.3373,43.4437,141.903,119.374,114.394,0.00186903,0.12286,20.8995,176.215,0.380753,0.0,0.0
126,31.25,41.3759,43.6857,137.282,119.383,115.724,0.00153147,0.110527,20.9203,176.175,0.278163,0.0,0.0
135,33.5,41.4115,43.7925,142.323,119.4,115.284,0.00144249,0.101391,20.9343,176.145,0.313449,0.0,0.0
144,35.75,41.3666,44.2258,142.22,119.441,115.696,0.00157557,0.095275,20.9426,176.155,0.284635,0.0,0.0
153,38,41.2841,43.8807,143.614,119.447,115.566,0.00163066,0.0913002,20.9479,176.135,0.295145,0.0,0.0
162,40.25,41.4719,43.9568,147.51,119.467,116.187,0.00150992,0.088814,20.9517,176.135,0.248789,0.0,0.0
171,42.5,41.4748,44.0086,145.079,119.506,115.76,0.0012942,0.0870609,20.9545,176.115,0.284586,0.0,0.0
180,44.75,41.6592,43.9537,142.464,119.512,115.924,0.00118081,0.0851955,20.957,176.155,0.272407,0.0,0.0
189,47,41.7528,43.7456,144.577,119.5,115.253,0.00126441,0.0837028,20.9586,176.125,0.32334,0.0,0.0
198,49.25,42.0611,43.6808,143.697,119.523,115.651,0.00137398,0.0824007,20.9611,176.105,0.294232,0.0,0.0
207,51.5,41.7875,44.1931,142.405,119.561,115.546,0.0013669,0.0805997,20.9643,176.065,0.305253,0.0,0.0
216,53.75,42.0252,43.8202,145.616,119.576,115.936,0.00128323,0.0785371,20.9691,176.055,0.276272,0.0,0.0
225,56,41.3078,44.4462,140.337,119.589,115.595,0.00130821,0.0764688,20.9732,176.065,0.303494,0.0,0.0
234,58.25,41.8139,44.0517,140.899,119.623,115.66,0.0013784,0.0750574,20.975,176.035,0.301027,0.0,0.0
243,60.5,41.6476,44.1945,141.839,119.637,115.352,0.0014311,0.0737362,20.977,176.055,0.325889,0.0,0.0
252,62.75,41.7584,43.9369,142.287,119.652,115.839,0.00143274,0.0725153,20.9778,176.045,0.289324,0.0,0.0
261,65,41.3427,43.7085,142.035,119.652,115.718,0.0012713,0.0719095,20.9781,176.055,0.29871,0.0,0.0
270,67.25,41.4663,43.923,141.834,119.684,115.879,0.00106243,0.0720472,20.9785,176.015,0.288691,0.0,0.0
279,69.5,41.5342,44.0264,141.635,119.672,116.094,0.0010242,0.0721968,20.9793,176.015,0.271239,0.0,0.0
288,71.75,41.5707,43.705,145.544,119.677,116.085,0.00113209,0.0719808,20.9799,176.005,0.272276,0.0,0.0
297,74,41.6078,44.4249,139.986,119.696,115.517,0.00131335,0.07137,20.9813,175.995,0.317474,0.0,0.0
306,76.25,41.3559,43.7445,140.459,119.717,115.567,0.00154938,0.0705664,20.9829,175.985,0.315315,0.0,0.0
315,78.5,41.7359,43.7585,140.018,119.676,116.312,0.0017467,0.0697582,20.9839,175.995,0.254788,0.0,0.0
324,80.75,41.5669,43.8913,141.874,119.678,115.836,0.00181949,0.0688608,20.9857,175.995,0.291526,0.0,0.0
333,83,41.256,44.068,139.507,119.689,115.119,0.00180661,0.0686987,20.9864,175.965,0.347853,0.0,0.0
342,85.25,41.5792,44.0907,143.404,119.698,115.755,0.00175642,0.0683023,20.9866,175.975,0.299329,0.0,0.0
351,87.5,40.9422,43.7303,140.651,119.673,115.64,0.00169469,0.0680404,20.9869,175.945,0.30628,0.0,0.0
360,89.75,40.1666,43.5132,142.219,119.691,115.837,0.00163565,0.0673216,20.988,175.965,0.292469,0.0,0.0
369,92,41.0652,43.2947,143.043,119.672,115.43,0.00154748,0.0665803,20.9893,175.945,0.322493,0.0,0.0
378,94.25,40.2424,42.6301,140.873,119.65,115.41,0.00140624,0.0662284,20.9898,175.925,0.322399,0.0,0.0
387,96.5,40.812,42.886,142.216,119.641,115.79,0.00142672,0.0660408,20.9914,175.935,0.292385,0.0,0.0
396,98.75,40.8374,42.996,142.046,119.634,114.722,0.00154529,0.06504,20.9921,175.925,0.374623,0.0,0.0
405,101,40.783,43.2208,142.432,119.627,114.676,0.0015226,0.0636469,20.9947,175.945,0.377734,0.0,0.0
414,103.25,40.6299,43.2479,144.522,119.607,116.136,0.00150948,0.0623997,20.9962,175.925,0.263098,0.0,0.0
423,105.5,40.338,42.9462,142.698,119.577,115.746,0.00156715,0.0614973,20.9967,175.915,0.290933,0.0,0.0
432,107.75,40.2245,42.4467,144.306,119.565,114.924,0.00166404,0.0609955,20.997,175.905,0.353775,0.0,0.0
441,110,40.8969,42.8891,143.307,119.552,115.703,0.00172089,0.0607042,20.997,175.915,0.292394,0.0,0.0
450,112.25,39.9682,42.7331,143.344,119.517,115.422,0.00162492,0.0604711,20.9971,175.905,0.311508,0.0,0.0
459,114.5,39.9737,42.4044,141.662,119.498,115.571,0.00144397,0.0603469,20.9975,175.905,0.29854,0.0,0.0
468,116.75,40.0282,42.6029,141.766,119.488,116.469,0.00133872,0.0602844,20.9979,175.885,0.228685,0.0,0.0
477,119,39.8886,42.2769,141.376,119.46,115.365,0.00136551,0.0602332,20.998,175.895,0.311713,0.0,0.0
486,121.25,40.2778,42.4909,141.633,119.411,115.59,0.00143495,0.0601714,20.998,175.885,0.290665,0.0,0.0
495,123.5,40.1176,42.1118,145.915,119.399,114.521,0.0013795,0.0601498,20.998,175.895,0.372757,0.0,0.0
504,125.75,40.6059,42.3623,144.015,119.358,115.06,0.00129576,0.0601073,20.9981,175.885,0.327641,0.0,0.0
513,128,40.0164,42.5628,144.175,119.321,115.866,0.0013027,0.0598771,20.9981,175.885,0.262528,0.0,0.0
522,130.25,40.4906,42.4834,138.291,119.299,115.562,0.00134078,0.0596889,20.9987,175.885,0.284368,0.0,0.0
531,132.5,40.8083,42.6431,140.752,119.294,115.783,0.00135512,0.0598337,20.9992,175.875,0.266909,0.0,0.0
540,134.75,40.0689,42.2275,140.613,119.238,115.477,0.00128191,0.0598481,20.9994,175.855,0.286445,0.0,0.0
549,137,39.9914,42.7489,141.969,119.198,114.899,0.00122751,0.0598631,20.9983,175.855,0.328215,0.0,0.0
558,139.25,39.8652,42.9826,142.899,119.172,116.338,0.00124821,0.0599211,20.9978,175.835,0.215082,0.0,0.0
567,141.5,40.3468,42.4068,143.038,119.141,115.371,0.00122388,0.0598665,20.9976,175.825,0.287326,0.0,0.0
576,143.75,40.2319,42.3887,143.445,119.103,114.807,0.00133137,0.0597084,20.9975,175.825,0.328247,0.0,0.0
585,146,40.1677,42.1358,144.216,119.061,115.778,0.00136711,0.0597065,20.9974,175.835,0.249838,0.0,0.0
594,148.25,40.2196,42.3407,142.299,119.05,114.814,0.00127379,0.0597352,20.9985,175.825,0.323706,0.0,0.0
603,150.5,39.9752,42.5085,143.173,118.987,115.42,0.00127328,0.059849,20.9993,175.805,0.27197,0.0,0.0
612,152.75,40.6655,42.1692,137.687,118.967,115.576,0.00127288,0.0600255,20.9985,175.815,0.258411,0.0,0.0
621,155,39.4787,42.1548,141.945,118.935,115.511,0.00134735,0.0602667,20.9978,175.815,0.260976,0.0,0.0
630,157.25,39.9345,42.1573,141.455,118.921,115.215,0.00143684,0.060326,20.9976,175.825,0.282875,0.0,0.0
639,159.5,39.6905,41.7182,144.953,118.899,114.6,0.00148821,0.0603676,20.9975,175.795,0.329043,0.0,0.0
648,161.75,39.9197,42.7265,138.661,118.853,114.636,0.00148389,0.0603093,20.9977,175.795,0.32277,0.0,0.0
657,164,40.1571,42.2991,144.203,118.847,114.431,0.00134533,0.0602917,20.998,175.805,0.338324,0.0,0.0
666,166.25,40.269,42.5535,140.043,118.835,113.716,0.00118637,0.0604718,20.9982,175.785,0.393458,0.0,0.0
675,168.5,40.5036,42.0862,140.468,118.811,115.056,0.00115643,0.0604563,20.9982,175.785,0.28693,0.0,0.0
684,170.75,40.0207,42.3444,144.03,118.803,115.101,0.00120363,0.0603773,20.9983,175.775,0.282854,0.0,0.0
693,173,40.2267,42.8456,141.791,118.795,114.459,0.00126252,0.0603245,20.9983,175.775,0.332242,0.0,0.0
702,175.25,39.9191,42.8047,142.014,118.759,114.244,0.0012518,0.0604629,20.9983,175.755,0.346347,0.0,0.0
711,177.5,40.3566,42.3765,142.877,118.749,114.742,0.00117857,0.0606441,20.9983,175.755,0.30672,0.0,0.0
720,179.75,40.5092,43.1305,141.497,118.75,114.404,0.00106382,0.0605784,20.9983,175.735,0.333105,0.0,0.0
729,182,39.8709,42.021,140.4,118.747,115.636,0.000981373,0.060524,20.9983,175.755,0.23719,0.0,0.0
738,184.25,40.7032,42.6764,141.755,118.729,114.783,0.0010047,0.0603954,20.9986,175.735,0.301995,0.0,0.0
747,186.5,40.1238,43.1649,139.432,118.74,115.151,0.00106769,0.0603917,20.9983,175.725,0.274197,0.0,0.0
756,188.75,40.1789,43.0148,137.87,118.744,114.323,0.00103435,0.0604539,20.9975,175.735,0.339052,0.0,0.0
765,191,40.4359,42.53,140.453,118.743,114.455,0.000945298,0.0605077,20.9972,175.735,0.328601,0.0,0.0
774,193.25,40.2612,42.568,142.319,118.733,114.462,0.000927195,0.0606356,20.9971,175.715,0.327312,0.0,0.0
783,195.5,40.3317,43.1316,143.431,118.768,114.776,,0.0605287,,175.725,0.305523,0.0,0.0
792,197.75,40.8284,42.6023,142.322,118.764,114.491,,,,175.745,0.327424,0.0,0.0
801,200,40.3041,42.7342,143.571,118.76,114.647,,,,175.725,0.314933,0.0,0.0
810,202.25,39.9464,42.1535,140.705,118.76,114.499,,,,175.695,0.326453,0.0,0.0
819,204.5,40.3626,42.6812,141.8,118.78,114.709,,,,175.715,0.311577,0.0,0.0