File: 01_Data/Composite_Deck_Board/STA/N2/30K_min/Composite_Deck_Board_STA_N2_30KData_210629_R1.csv
##Temp./Â°C,Time/min,Mass loss(subtr.2)/mg,DSC(subtr.2)/mW,Sensit./(uV/mW)
50.673,10.01,0.00976,-0.14561,0.6235
53.673,11.56785,0.01050042,0.3956,0.62346
56.673,11.91745,0.00849647,0.80805,0.62341
59.673,12.17256,0.009315012,1.12649,0.62335
62.673,12.3858,0.009081749,1.39057,0.62327
65.673,12.57564,0.007846139,1.58741,0.62318
68.673,12.75165,0.007267234,1.74147,0.62308
71.673,12.91676,0.009764119,1.88425,0.62296
74.673,13.07494,0.008255459,2.01964,0.62283
77.673,13.2272,0.007749864,2.15033,0.62268
80.673,13.37495,0.004677023,2.29149,0.62252
83.673,13.51861,0.00767534,2.42473,0.62235
86.673,13.65756,0.00637377,2.56316,0.62217
89.673,13.79323,0.005145775,2.72031,0.62197
92.673,13.92535,0.00482112,2.86067,0.62176
95.673,14.05422,0.004799505,3.00128,0.62154
98.673,14.1801,0.004172034,3.17188,0.6213
101.673,14.30303,0.002612668,3.36303,0.62106
104.673,14.42329,0.00185378,3.60247,0.6208
107.673,14.5413,0.00189275,3.88237,0.62052
110.673,14.6569,0.001870195,4.21121,0.62024
113.673,14.77081,0.0018705,4.62407,0.61994
116.673,14.882,0.000563035,5.07208,0.61963
119.673,14.99255,0.000554716,5.64048,0.61931
122.673,15.1008,0.00160291,6.48329,0.61898
125.673,15.2075,0.00149785,7.16354,0.61863
128.673,15.3124,0.001706871,6.22157,0.61827
131.673,15.4155,0.0005518028,5.72816,0.6179
134.673,15.51709,0.003050653,5.15335,0.61752
137.673,15.617,0.00192001,4.50752,0.61713
140.673,15.71584,-0.000781413,4.14352,0.61672
143.673,15.81318,-0.0008736564,3.97422,0.61631
146.673,15.9099,-0.0008704333,3.90582,0.61588
149.673,16.0056,-0.000974116,3.89779,0.61544
152.673,16.10035,-0.0008680835,3.9314,0.61499
155.673,16.19475,-0.000880495,3.93329,0.61453
158.673,16.2883,-0.000884975,3.9569,0.61406
161.673,16.38113,-0.0009326624,3.99306,0.61357
164.673,16.4736,-0.00146657,3.98545,0.61308
167.673,16.56543,-0.002076258,4.02756,0.61258
170.673,16.65681,0.0005478722,4.08103,0.61206
173.673,16.7476,-0.0007599374,4.11336,0.61154
176.673,16.83774,-0.000753951,4.18371,0.611
179.673,16.92744,-0.003380824,4.21923,0.61045
182.673,17.01642,-0.001380039,4.24997,0.6099
185.673,17.10484,-0.001429966,4.30232,0.60933
188.673,17.19281,-0.002746565,4.35538,0.60875
191.673,17.28001,-0.00274,4.41958,0.60816
194.673,17.36714,-0.00273974,4.47293,0.60757
197.673,17.4536,-0.00406365,4.5352,0.60696
200.673,17.53996,-0.00406,4.56247,0.60634
203.673,17.62586,-0.003989446,4.61252,0.60572
206.673,17.71123,-0.004719996,4.66341,0.60508
209.673,17.7966,-0.004719512,4.69018,0.60444
212.673,17.88156,-0.00674255,4.72866,0.60378
215.673,17.96615,-0.008010276,4.76722,0.60312
218.673,18.0506,-0.009315336,4.8226,0.60245
221.673,18.13484,-0.009272902,4.86404,0.60177
224.673,18.21892,-0.0119604,4.91311,0.60107
227.673,18.30255,-0.01194646,4.955,0.60038
230.673,18.38627,-0.01327688,4.98426,0.59967
233.673,18.46973,-0.0135822,5.04133,0.59895
236.673,18.55303,-0.01588221,5.10813,0.59822
239.673,18.6357,-0.01817001,5.16048,0.59749
242.673,18.71848,-0.02261628,5.1978,0.59675
245.673,18.8013,-0.02543134,5.23658,0.596
248.673,18.88426,-0.0254194,5.30553,0.59524
251.673,18.9667,-0.02961687,5.37091,0.59447
254.673,19.049,-0.0344643,5.38776,0.5937
257.673,19.13146,-0.03902171,5.42615,0.59292
260.673,19.21371,-0.04380538,5.47414,0.59213
263.673,19.29569,-0.04916568,5.5127,0.59133
266.673,19.37769,-0.05563776,5.58095,0.59053
269.673,19.45952,-0.06038744,5.6191,0.58971
272.673,19.5413,-0.06889382,5.64745,0.58889
275.673,19.62336,-0.07947845,5.67859,0.58807
278.673,19.70513,-0.08933171,5.7208,0.58723
281.673,19.7869,-0.09917611,5.74505,0.58639
284.673,19.86872,-0.1118,5.79804,0.58554
287.673,19.95039,-0.12742,5.82155,0.58469
290.673,20.0322,-0.14554,5.87807,0.58383
293.673,20.11402,-0.16191,5.90142,0.58296
296.673,20.19574,-0.18436,5.9453,0.58209
299.673,20.2775,-0.20646,5.9406,0.58121
302.673,20.35947,-0.2318,5.95344,0.58032
305.673,20.44116,-0.25913,5.92716,0.57943
308.673,20.52299,-0.2894,5.89235,0.57853
311.673,20.6048,-0.31938,5.84998,0.57762
314.673,20.68664,-0.35034,5.80981,0.57671
317.673,20.7685,-0.38063,5.79036,0.57579
320.673,20.8505,-0.41378,5.79389,0.57487
323.673,20.93226,-0.44766,5.78311,0.57394
326.673,21.01438,-0.48217,5.78119,0.57301
329.673,21.09647,-0.51625,5.79938,0.57207
332.673,21.17848,-0.54767,5.82988,0.57112
335.673,21.26078,-0.58243,5.88422,0.57018
338.673,21.3432,-0.61513,5.95011,0.56922
341.673,21.4256,-0.64851,6.03062,0.56826
344.673,21.50834,-0.68642,6.1343,0.5673
347.673,21.59104,-0.72156,6.27125,0.56633
350.673,21.67381,-0.75889,6.42833,0.56535
353.673,21.75679,-0.79766,6.62518,0.56438
356.673,21.83977,-0.8403,6.84198,0.56339
359.673,21.92288,-0.88386,7.10594,0.56241
362.673,22.00615,-0.93069,7.4186,0.56141
365.673,22.08946,-0.98283,7.81194,0.56042
368.673,22.17298,-1.03585,8.25235,0.55942
371.673,22.25645,-1.09822,8.72116,0.55841
374.673,22.3402,-1.16485,9.21314,0.55741
377.673,22.42393,-1.23405,9.69463,0.5564
380.673,22.5079,-1.30895,10.14593,0.55538
383.673,22.59216,-1.38724,10.40349,0.55436
386.673,22.6763,-1.46388,10.455,0.55334
389.673,22.7608,-1.54022,10.19218,0.55231
392.673,22.8456,-1.61146,9.53245,0.55129
395.673,22.93059,-1.67043,8.54258,0.55025
398.673,23.0157,-1.72083,7.29645,0.54922
401.673,23.10089,-1.75643,6.03174,0.54818
404.673,23.18611,-1.78117,4.88868,0.54714
407.673,23.27135,-1.79735,4.04025,0.54609
410.673,23.35675,-1.80939,3.48574,0.54505
413.673,23.44218,-1.81742,3.181,0.544
416.673,23.52767,-1.82691,3.01114,0.54295
419.673,23.61342,-1.83389,2.91881,0.54189
422.673,23.69918,-1.84055,2.87157,0.54083
425.673,23.78511,-1.84883,2.8473,0.53978
428.673,23.87141,-1.85694,2.85077,0.53871
431.673,23.9577,-1.8645,2.85681,0.53765
434.673,24.04413,-1.87464,2.9043,0.53658
437.673,24.13072,-1.88408,2.97643,0.53552
440.673,24.2177,-1.89443,3.06432,0.53445
443.673,24.3046,-1.90492,3.18598,0.53338
446.673,24.3918,-1.91664,3.34108,0.5323
449.673,24.47909,-1.9281,3.52638,0.53123
452.673,24.56652,-1.94488,3.7569,0.53015
455.673,24.65418,-1.96073,4.03714,0.52908
458.673,24.74193,-1.97809,4.35855,0.528
461.673,24.8297,-2.00246,4.73211,0.52692
464.673,24.91766,-2.02928,5.15667,0.52584
467.673,25.00574,-2.06004,5.62887,0.52475
470.673,25.0939,-2.09638,6.1516,0.52367
473.673,25.18269,-2.14039,6.70135,0.52259
476.673,25.2714,-2.18993,7.28097,0.5215
479.673,25.36028,-2.24557,7.80212,0.52042
482.673,25.44923,-2.31321,8.35313,0.51933
485.673,25.5385,-2.38885,8.84993,0.51824
488.673,25.62796,-2.47951,9.27711,0.51716
491.673,25.7174,-2.57605,9.66032,0.51607
494.673,25.8069,-2.68291,9.92607,0.51498
497.673,25.89665,-2.80446,10.04295,0.51389
500.673,25.98665,-2.93617,9.92633,0.5128
503.673,26.07696,-3.06951,9.52908,0.51171
506.673,26.16754,-3.19821,8.79678,0.51062
509.673,26.25863,-3.31941,7.73126,0.50953
512.673,26.35013,-3.42893,6.38415,0.50845
515.673,26.4421,-3.51397,4.85527,0.50736
518.673,26.53459,-3.57554,3.3467,0.50627
521.673,26.62715,-3.61468,1.97336,0.50518
524.673,26.71974,-3.63747,0.83669,0.50409
527.673,26.81202,-3.65006,0.04279824,0.503
530.673,26.9044,-3.65727,-0.40557,0.50192
533.673,26.9966,-3.65916,-0.61815,0.50083
536.673,27.08847,-3.66273,-0.68682,0.49974
539.673,27.18105,-3.66768,-0.74121,0.49866
542.673,27.2735,-3.67048,-0.78926,0.49757
545.673,27.366,-3.67075,-0.83065,0.49649
548.673,27.4587,-3.67387,-0.86667,0.49541
551.673,27.55142,-3.67651,-0.91065,0.49432
554.673,27.6444,-3.67998,-0.95481,0.49324
557.673,27.73746,-3.68249,-0.99776,0.49216
560.673,27.83063,-3.68286,-1.03525,0.49109
563.673,27.92404,-3.6851,-1.10009,0.49001
566.673,28.01735,-3.68904,-1.12687,0.48893
569.673,28.11115,-3.6869,-1.18411,0.48786
572.673,28.20485,-3.69408,-1.25125,0.48678
575.673,28.29865,-3.69696,-1.30367,0.48571
578.673,28.3928,-3.6983,-1.34935,0.48464
581.673,28.48695,-3.70028,-1.3978,0.48357
584.673,28.5811,-3.703,-1.45525,0.4825
587.673,28.6752,-3.7043,-1.51786,0.48144
590.673,28.7695,-3.70429,-1.551,0.48037
593.673,28.8641,-3.70781,-1.62616,0.47931
596.673,28.9587,-3.71024,-1.67539,0.47825
599.673,29.0536,-3.71187,-1.73849,0.47719
602.673,29.14837,-3.71436,-1.78128,0.47613
605.673,29.2433,-3.71171,-1.82838,0.47508
608.673,29.33848,-3.72686,-1.9004,0.47403
611.673,29.43399,-3.71989,-1.92883,0.47297
614.673,29.5294,-3.72121,-1.98145,0.47193
617.673,29.625,-3.72253,-2.03774,0.47088
620.673,29.7206,-3.72385,-2.09912,0.46983
623.673,29.81653,-3.7245,-2.14728,0.46879
626.673,29.91228,-3.72582,-2.2029,0.46775
629.673,30.0083,-3.72706,-2.25248,0.46671
632.673,30.10456,-3.72978,-2.28304,0.46568
635.673,30.2006,-3.72978,-2.3121,0.46465
638.673,30.29735,-3.7323,-2.35284,0.46361
641.673,30.39384,-3.73371,-2.3728,0.46259
644.673,30.4905,-3.73371,-2.40529,0.46156
647.673,30.58715,-3.73634,-2.43901,0.46054
650.673,30.6836,-3.73695,-2.46879,0.45952
653.673,30.7802,-3.73635,-2.49906,0.4585
656.673,30.87732,-3.73767,-2.50627,0.45748
659.673,30.9747,-3.7404,-2.52799,0.45647
662.673,31.0719,-3.74039,-2.56275,0.45546
665.673,31.1693,-3.74303,-2.55507,0.45445
668.673,31.2665,-3.74436,-2.56372,0.45345
671.673,31.36419,-3.74436,-2.58719,0.45245
674.673,31.46172,-3.74567,-2.57794,0.45145
677.673,31.5592,-3.74567,-2.59836,0.45045
680.673,31.65725,-3.74698,-2.60154,0.44946
683.673,31.75494,-3.7483,-2.63564,0.44847
686.673,31.8529,-3.74796,-2.65458,0.44748
689.673,31.95082,-3.75009,-2.6491,0.4465
692.673,32.04883,-3.74973,-2.69145,0.44552
695.673,32.14691,-3.75041,-2.74958,0.44454
698.673,32.2453,-3.75036,-2.76818,0.44357
701.673,32.3435,-3.75163,-2.81492,0.44259
704.673,32.44188,-3.75301,-2.78732,0.44163
707.673,32.54027,-3.75236,-2.82008,0.44066
710.673,32.6388,-3.75335,-2.81748,0.4397
713.673,32.73749,-3.7553,-2.84152,0.43874
716.673,32.8362,-3.75432,-2.82216,0.43778
719.673,32.93505,-3.75683,-2.82199,0.43683
722.673,33.0338,-3.75763,-2.79743,0.43588
725.673,33.13272,-3.75763,-2.82127,0.43493
728.673,33.2316,-3.75742,-2.80243,0.43399
731.673,33.33173,-3.75795,-2.77422,0.43305