File: 01_Data/Composite_Deck_Board/STA/N2/30K_min/Composite_Deck_Board_STA_N2_30KData_210629_R2.csv
##Temp./Â°C,Time/min,Mass loss(subtr.2)/mg,DSC(subtr.2)/mW,Sensit./(uV/mW)
50.629,10.01,-0.02885,0.03181458,0.6235
53.529,11.54542,-0.03085478,0.61624,0.62347
56.429,11.8911,-0.03222455,1.05361,0.62342
59.329,12.14143,-0.03323312,1.4231,0.62336
62.229,12.3509,-0.03232634,1.6936,0.62328
65.129,12.5375,-0.03332077,1.92064,0.6232
68.029,12.709,-0.03238035,2.10175,0.6231
70.929,12.87049,-0.03345003,2.26364,0.62299
73.829,13.02464,-0.03552468,2.42145,0.62286
76.729,13.1734,-0.03631656,2.57827,0.62273
79.629,13.3171,-0.03775774,2.70013,0.62258
82.529,13.45734,-0.03755538,2.83417,0.62242
85.429,13.59335,-0.03832754,2.95926,0.62225
88.329,13.7261,-0.03701244,3.09814,0.62206
91.229,13.85554,-0.03815779,3.25697,0.62186
94.129,13.9817,-0.03697066,3.41273,0.62166
97.029,14.1048,-0.03800452,3.55921,0.62143
99.929,14.2251,-0.03800283,3.72733,0.6212
102.829,14.34286,-0.03797482,3.92772,0.62096
105.729,14.4583,-0.04022095,4.17803,0.6207
108.629,14.57182,-0.04052146,4.47007,0.62043
111.529,14.6835,-0.04095886,4.80994,0.62015
114.429,14.79287,-0.04316004,5.23113,0.61986
117.329,14.9006,-0.04248415,5.70057,0.61956
120.229,15.00676,-0.04108752,6.29926,0.61925
123.129,15.1111,-0.04103044,7.14663,0.61892
126.029,15.214,-0.0410497,7.52358,0.61859
128.929,15.3155,-0.04125102,6.54266,0.61824
131.829,15.4152,-0.04102457,6.08506,0.61788
134.729,15.51329,-0.04254211,5.52465,0.61751
137.629,15.60987,-0.04388052,5.01225,0.61713
140.529,15.7054,-0.04390371,4.7015,0.61674
143.429,15.79982,-0.0438787,4.57759,0.61634
146.329,15.89284,-0.04128768,4.5725,0.61593
149.229,15.98579,-0.0425033,4.58726,0.61551
152.129,16.0778,-0.04265248,4.64976,0.61507
155.029,16.16909,-0.04390724,4.67929,0.61463
157.929,16.25969,-0.04387998,4.71786,0.61418
160.829,16.34968,-0.04385352,4.75205,0.61371
163.729,16.43914,-0.04453643,4.78708,0.61324
166.629,16.52799,-0.04400323,4.84609,0.61275
169.529,16.61644,-0.04399,4.9169,0.61226
172.429,16.70433,-0.04399008,4.96277,0.61175
175.329,16.79174,-0.04483907,5.06344,0.61124
178.229,16.8786,-0.04398997,5.09782,0.61072
181.129,16.96504,-0.04667438,5.15797,0.61018
184.029,17.05092,-0.04794171,5.21637,0.60964
186.929,17.13637,-0.04794,5.28992,0.60909
189.829,17.22116,-0.04794002,5.32679,0.60853
192.729,17.30561,-0.04930453,5.39351,0.60796
195.629,17.38952,-0.04925947,5.4466,0.60738
198.529,17.4729,-0.04826957,5.55215,0.60679
201.429,17.55645,-0.04793712,5.59283,0.60619
204.329,17.63939,-0.0482293,5.66335,0.60558
207.229,17.72208,-0.05088844,5.73215,0.60496
210.129,17.8045,-0.05169031,5.79557,0.60434
213.029,17.8866,-0.04468122,5.85684,0.6037
215.929,17.9685,-0.05878335,5.91899,0.60306
218.829,18.05036,-0.05375041,5.99456,0.60241
221.729,18.1319,-0.05374862,6.05297,0.60175
224.629,18.2131,-0.05513361,6.12954,0.60108
227.529,18.29427,-0.05658763,6.18489,0.60041
230.429,18.37531,-0.06109248,6.23419,0.59972
233.329,18.456,-0.05979403,6.29248,0.59903
236.229,18.53659,-0.06100424,6.34529,0.59833
239.129,18.61702,-0.0644515,6.39377,0.59762
242.029,18.69739,-0.06572608,6.44112,0.59691
244.929,18.77753,-0.06703263,6.46989,0.59619
247.829,18.85737,-0.0696663,6.53234,0.59545
250.729,18.93736,-0.0726164,6.604,0.59472
253.629,19.0169,-0.07687756,6.65173,0.59397
256.529,19.09648,-0.08177814,6.70503,0.59322
259.429,19.17609,-0.08498254,6.75907,0.59246
262.329,19.25555,-0.08888075,6.79552,0.59169
265.229,19.3348,-0.09459631,6.82881,0.59091
268.129,19.41423,-0.09207353,6.88448,0.59013
271.029,19.49323,-0.11406,6.91649,0.58934
273.929,19.57255,-0.11687,6.97426,0.58855
276.829,19.65152,-0.12337,7.01932,0.58775
279.729,19.7306,-0.13394,7.08349,0.58694
282.629,19.80971,-0.14552,7.12103,0.58612
285.529,19.88883,-0.14847,7.19651,0.5853
288.429,19.96787,-0.17331,7.24561,0.58447
291.329,20.04699,-0.1852,7.27708,0.58364
294.229,20.12596,-0.19967,7.33796,0.5828
297.129,20.20489,-0.21931,7.3806,0.58195
300.029,20.2839,-0.24096,7.43605,0.5811
302.929,20.36272,-0.26468,7.44755,0.58024
305.829,20.44174,-0.28883,7.47459,0.57938
308.729,20.5207,-0.31384,7.48011,0.57851
311.629,20.5997,-0.34112,7.47181,0.57763
314.529,20.67897,-0.37062,7.4834,0.57675
317.429,20.758,-0.3981,7.44142,0.57587
320.329,20.83748,-0.42666,7.4182,0.57498
323.229,20.91703,-0.45487,7.41777,0.57408
326.129,20.9964,-0.48602,7.41254,0.57318
329.029,21.07565,-0.51545,7.44312,0.57227
331.929,21.15511,-0.54563,7.45825,0.57136
334.829,21.2346,-0.57634,7.51506,0.57044
337.729,21.31427,-0.60461,7.56838,0.56952
340.629,21.394,-0.63577,7.65525,0.5686
343.529,21.47383,-0.66835,7.74552,0.56767
346.429,21.55365,-0.69956,7.84512,0.56673
349.329,21.6337,-0.7323,7.95106,0.56579
352.229,21.71392,-0.76606,8.12163,0.56485
355.129,21.79417,-0.80306,8.30215,0.5639
358.029,21.87451,-0.83751,8.51873,0.56295
360.929,21.95486,-0.88103,8.77892,0.56199
363.829,22.0355,-0.92209,9.08537,0.56103
366.729,22.11605,-0.97024,9.45723,0.56007
369.629,22.19679,-1.01993,9.86097,0.5591
372.529,22.2777,-1.07524,10.30127,0.55813
375.429,22.3587,-1.13483,10.74559,0.55715
378.329,22.43975,-1.19779,11.16094,0.55617
381.229,22.52111,-1.26365,11.50555,0.55519
384.129,22.60248,-1.33328,11.7133,0.55421
387.029,22.68395,-1.40562,11.7349,0.55322
389.929,22.76588,-1.47225,11.45202,0.55223
392.829,22.84786,-1.5361,10.846,0.55123
395.729,22.92998,-1.58968,9.93083,0.55023
398.629,23.0122,-1.63363,8.80757,0.54923
401.529,23.09471,-1.66884,7.62714,0.54823
404.429,23.177,-1.69368,6.57632,0.54722
407.329,23.2594,-1.70653,5.76405,0.54621
410.229,23.34186,-1.71513,5.22383,0.5452
413.129,23.42447,-1.7272,4.9179,0.54419
416.029,23.507,-1.73259,4.70775,0.54317
418.929,23.5899,-1.7394,4.6059,0.54215
421.829,23.67266,-1.74533,4.55361,0.54113
424.729,23.75606,-1.75309,4.52483,0.54011
427.629,23.83942,-1.76052,4.52877,0.53908
430.529,23.92284,-1.76829,4.52957,0.53806
433.429,24.00646,-1.77604,4.57407,0.53703
436.329,24.09028,-1.7832,4.61186,0.536
439.229,24.17425,-1.79125,4.69045,0.53496
442.129,24.25844,-1.80063,4.76679,0.53393
445.029,24.34272,-1.80991,4.89662,0.53289
447.929,24.42707,-1.82105,5.04283,0.53185
450.829,24.5117,-1.83465,5.22969,0.53082
453.729,24.59648,-1.84881,5.45507,0.52977
456.629,24.68124,-1.86484,5.69501,0.52873
459.529,24.76615,-1.8822,5.98622,0.52769
462.429,24.85143,-1.90538,6.2943,0.52665
465.329,24.93666,-1.93026,6.68676,0.5256
468.229,25.0219,-1.95956,7.11066,0.52455
471.129,25.1074,-1.993,7.55617,0.52351
474.029,25.1932,-2.03257,8.05164,0.52246
476.929,25.27896,-2.07664,8.53242,0.52141
479.829,25.36486,-2.13074,9.03751,0.52036
482.729,25.45104,-2.19059,9.50469,0.51931
485.629,25.53744,-2.26061,9.93472,0.51826
488.529,25.6239,-2.34228,10.35092,0.51721
491.429,25.71051,-2.43253,10.69003,0.51616
494.329,25.79715,-2.5308,10.9442,0.5151
497.229,25.88401,-2.63901,11.03829,0.51405
500.129,25.97128,-2.7523,10.938,0.513
503.029,26.05865,-2.87154,10.5814,0.51195
505.929,26.1462,-2.9901,9.94545,0.51089
508.829,26.23442,-3.10151,8.99626,0.50984
511.729,26.32289,-3.19788,7.80527,0.50879
514.629,26.4117,-3.28128,6.40578,0.50774
517.529,26.501,-3.34328,4.91622,0.50668
520.429,26.5908,-3.38422,3.4714,0.50563
523.329,26.68042,-3.40868,2.23231,0.50458
526.229,26.77018,-3.42212,1.17853,0.50353
529.129,26.85957,-3.42845,0.63058,0.50248
532.029,26.94865,-3.43252,0.39122,0.50142
534.929,27.03783,-3.43309,0.29446,0.50037
537.829,27.12701,-3.4357,0.26239,0.49933
540.729,27.2162,-3.43706,0.23793,0.49828
543.629,27.30572,-3.44126,0.22468,0.49723
546.529,27.3953,-3.44121,0.20153,0.49618
549.429,27.4849,-3.44488,0.19081,0.49513
552.329,27.57455,-3.44683,0.1721,0.49409
555.229,27.66449,-3.4505,0.13414,0.49304
558.129,27.7545,-3.45203,0.09279429,0.492
561.029,27.84474,-3.45465,0.06833798,0.49096
563.929,27.935,-3.45571,0.0580178,0.48992
566.829,28.02518,-3.45734,0.01819553,0.48888
569.729,28.11566,-3.4612,-0.02400688,0.48784
572.629,28.20624,-3.46137,-0.03233817,0.4868
575.529,28.29715,-3.46415,-0.07732846,0.48576
578.429,28.388,-3.46663,-0.09363313,0.48473
581.329,28.4789,-3.46902,-0.12052,0.48369
584.229,28.57,-3.46926,-0.16597,0.48266
587.129,28.66139,-3.47136,-0.22539,0.48163
590.029,28.75273,-3.47459,-0.23492,0.4806
592.929,28.8442,-3.47444,-0.24925,0.47957
595.829,28.93585,-3.47593,-0.2899,0.47855
598.729,29.0274,-3.47828,-0.32446,0.47752
601.629,29.11927,-3.47979,-0.34932,0.4765
604.529,29.2111,-3.48241,-0.38569,0.47548
607.429,29.3034,-3.48497,-0.4026,0.47446
610.329,29.39548,-3.48649,-0.43468,0.47345
613.229,29.4878,-3.48914,-0.46731,0.47243
616.129,29.58025,-3.49188,-0.47608,0.47142
619.029,29.67287,-3.49055,-0.49282,0.47041
621.929,29.7656,-3.49108,-0.50861,0.4694
624.829,29.85841,-3.49318,-0.50841,0.46839
627.729,29.95125,-3.49318,-0.53804,0.46739
630.629,30.0442,-3.49319,-0.53483,0.46638
633.529,30.1373,-3.49429,-0.57323,0.46538
636.429,30.2305,-3.49732,-0.60294,0.46439
639.329,30.3237,-3.49888,-0.61877,0.46339
642.229,30.41705,-3.5002,-0.65052,0.4624
645.129,30.5105,-3.5002,-0.68067,0.46141
648.029,30.60393,-3.50019,-0.68907,0.46042
650.929,30.69759,-3.50299,-0.69902,0.45943
653.829,30.79137,-3.503,-0.72295,0.45845
656.729,30.88509,-3.50426,-0.7594,0.45747
659.629,30.97911,-3.50461,-0.76146,0.45649
662.529,31.0731,-3.50559,-0.77302,0.45551
665.429,31.1662,-3.50821,-0.76939,0.45454
668.329,31.2612,-3.50884,-0.81941,0.45357
671.229,31.3551,-3.50853,-0.85176,0.4526
674.129,31.44955,-3.51115,-0.89394,0.45163
677.029,31.5442,-3.50843,-0.86734,0.45067
679.929,31.6387,-3.5101,-0.89858,0.44971
682.829,31.7332,-3.51248,-0.92039,0.44875
685.729,31.82795,-3.51233,-0.8928,0.44779
688.629,31.92277,-3.51326,-0.92018,0.44684
691.529,32.01766,-3.51511,-0.97266,0.44589
694.429,32.11253,-3.51508,-1.02116,0.44495
697.329,32.20751,-3.515,-1.03026,0.444
700.229,32.3022,-3.51614,-1.05292,0.44306
703.129,32.39771,-3.51646,-1.08794,0.44212
706.029,32.49272,-3.51683,-1.11359,0.44119
708.929,32.58784,-3.51829,-1.11378,0.44026
711.829,32.683,-3.51896,-1.16956,0.43933
714.729,32.77819,-3.5182,-1.26623,0.4384
717.629,32.87365,-3.51832,-1.37679,0.43748
720.529,32.96898,-3.52051,-1.39159,0.43656
723.429,33.06439,-3.51962,-1.37719,0.43564
726.329,33.16004,-3.52093,-1.40051,0.43473
729.229,33.25569,-3.52061,-1.38236,0.43381
731.529,33.33233,-3.51863,-1.39325,0.43309