File: 01_Data/Pine_Siding/HFM/Pine_Siding_Density_Wet_R3.csv
,Pine_Siding_WET_3
Sample Mass [g],124.5
Sample Volume [cm3],373.8
Sample Density [kg/m3],333