File: 01_Data/Pine_Siding/HFM/Pine_Siding_Density_Dry_R1.csv
,Pine_Siding_DRY_1
Sample Mass [g],99.4
Sample Volume [cm3],376.8
Sample Density [kg/m3],264