File: 01_Data/Pine_Siding/HFM/Pine_Siding_Ignition_Temp_Properties.csv
Thermal Conductivity (W/m-K),0.114
Heat Capacity (J/kg-K),1838.0
Density (kg/m3),327.667