File: 01_Data/Pine_Siding/HFM/Pine_Siding_Density_Dry_R3.csv
,Pine_Siding_DRY_3
Sample Mass [g],114.4
Sample Volume [cm3],365.3
Sample Density [kg/m3],313