File: 01_Data/Pine_Siding/HFM/Pine_Siding_Density_Wet_R1.csv
,Pine_Siding_WET_1
Sample Mass [g],109.8
Sample Volume [cm3],375.6
Sample Density [kg/m3],292