File: 01_Data/Pine_Siding/HFM/Pine_Siding_Density_Wet_R2.csv
,Pine_Siding_WET_2
Sample Mass [g],133.6
Sample Volume [cm3],373.5
Sample Density [kg/m3],358