File: 01_Data/Pine_Siding/HFM/Pine_Siding_Density_Dry_R2.csv
,Pine_Siding_DRY_2
Sample Mass [g],122.9
Sample Volume [cm3],373.5
Sample Density [kg/m3],329