File: 01_Data/Black_PMMA/STA/30K_min/Black_PMMA_STA_N2_30KData_220214_R1.csv
##Temp./Â°C,Time/min,DSC(subtr.2)/(mW/mg),Mass(subtr.2)/%,Sensit./(uV/mW)
48.949,10.00917,0.001380782,99.23818,1.08876
51.049,10.759,0.12079,99.23259,1.08699
53.149,10.9541,0.21176,99.2475,1.08523
55.249,11.0986,0.28411,99.27605,1.08348
57.349,11.2211,0.34374,99.2386,1.08173
59.449,11.32958,0.40006,99.23014,1.07999
61.549,11.4305,0.44703,99.19564,1.07826
63.649,11.52453,0.48881,99.23659,1.07653
65.749,11.61394,0.52773,99.20917,1.07482
67.849,11.70012,0.56442,99.2218,1.07311
69.949,11.7836,0.59614,99.20959,1.07141
72.049,11.8653,0.62704,99.20631,1.06971
74.149,11.9449,0.65637,99.23524,1.06803
76.249,12.02341,0.68255,99.29276,1.06635
78.349,12.1008,0.70903,99.26313,1.06468
80.449,12.17698,0.7362,99.2337,1.06301
82.549,12.25178,0.75919,99.20099,1.06136
84.649,12.32723,0.77554,99.27035,1.05971
86.749,12.40063,0.7881,99.23346,1.05807
88.849,12.47367,0.7925,99.23925,1.05644
90.949,12.54693,0.79348,99.2821,1.05481
93.049,12.6191,0.79578,99.26504,1.05319
95.149,12.69103,0.80166,99.28315,1.05158
97.249,12.7627,0.8068,99.28191,1.04998
99.349,12.83393,0.81625,99.2428,1.04838
101.449,12.9051,0.82625,99.2158,1.04679
103.549,12.97616,0.83246,99.23262,1.04521
105.649,13.04701,0.84542,99.24858,1.04364
107.749,13.1177,0.85714,99.24919,1.04207
109.849,13.1886,0.86983,99.24908,1.04051
111.949,13.2587,0.88244,99.24067,1.03896
114.049,13.3292,0.89682,99.2409,1.03742
116.149,13.3995,0.9117,99.21667,1.03588
118.249,13.46962,0.92849,99.2165,1.03435
120.349,13.53956,0.94932,99.23357,1.03283
122.449,13.6095,0.97273,99.21651,1.03131
124.549,13.679,0.99517,99.1845,1.0298
126.649,13.7483,1.02372,99.18451,1.0283
128.749,13.81753,1.04955,99.20385,1.02681
130.849,13.88619,1.07379,99.18485,1.02532
132.949,13.955,1.08972,99.2161,1.02384
135.049,14.0236,1.10943,99.18424,1.02237
137.149,14.0919,1.12662,99.18424,1.0209
139.249,14.16,1.1366,99.15165,1.01944
141.349,14.22795,1.15047,99.15172,1.01799
143.449,14.29558,1.16399,99.15177,1.01654
145.549,14.36316,1.17452,99.13678,1.0151
147.649,14.43043,1.1851,99.11946,1.01367
149.749,14.4976,1.19254,99.09872,1.01225
151.849,14.56445,1.2048,99.08699,1.01083
153.949,14.63134,1.21435,99.06028,1.00942
156.049,14.6981,1.2239,99.02189,1.00801
158.149,14.76455,1.23632,98.98829,1.00661
160.249,14.83121,1.24748,98.9894,1.00522
162.349,14.89751,1.25985,98.9894,1.00384
164.449,14.96369,1.27075,98.98912,1.00246
166.549,15.03004,1.2859,98.9572,1.00108
168.649,15.09622,1.29917,98.92491,0.99972
170.749,15.16208,1.31542,98.869,0.99836
172.849,15.22785,1.33263,98.82749,0.99701
174.949,15.29355,1.34878,98.80269,0.99566
177.049,15.35909,1.37091,98.76267,0.99432
179.149,15.4246,1.39341,98.73017,0.99298
181.249,15.4898,1.4143,98.6977,0.99165
183.349,15.55505,1.43859,98.6897,0.99033
185.449,15.6203,1.46339,98.6644,0.98901
187.549,15.68511,1.48593,98.57749,0.9877
189.649,15.7498,1.51058,98.50698,0.9864
191.749,15.8146,1.53027,98.37747,0.9851
193.849,15.8793,1.54721,98.2925,0.98381
195.949,15.94375,1.56501,98.20909,0.98252
198.049,16.00814,1.57521,98.13895,0.98124
200.149,16.07253,1.58241,98.06595,0.97996
202.249,16.13692,1.58992,97.91225,0.97869
204.349,16.20114,1.5916,97.81891,0.97743
206.449,16.26539,1.58761,97.6865,0.97617
208.549,16.3296,1.58534,97.5698,0.97491
210.649,16.3937,1.5847,97.4596,0.97367
212.749,16.458,1.58186,97.38171,0.97242
214.849,16.52209,1.58317,97.3018,0.97119
216.949,16.5861,1.58605,97.2367,0.96995
219.049,16.65001,1.59155,97.08375,0.96873
221.149,16.71395,1.60111,97.01864,0.9675
223.249,16.7777,1.61151,96.89346,0.96629
225.349,16.84171,1.62168,96.81777,0.96507
227.449,16.90555,1.63257,96.70948,0.96387
229.549,16.96947,1.64204,96.6365,0.96266
231.649,17.03339,1.64613,96.52851,0.96147
233.749,17.09713,1.64686,96.42562,0.96027
235.849,17.1608,1.64169,96.3219,0.95909
237.949,17.22438,1.63236,96.2337,0.9579
240.049,17.28792,1.61235,96.15741,0.95672
242.149,17.3513,1.59403,96.08751,0.95555
244.249,17.41522,1.57501,96.02569,0.95438
246.349,17.47896,1.56002,95.97983,0.95321
248.449,17.54244,1.54756,95.94753,0.95205
250.549,17.60604,1.53906,95.91543,0.95089
252.649,17.6697,1.5338,95.91456,0.94974
254.749,17.7331,1.52835,95.8827,0.94859
256.849,17.7968,1.52777,95.8496,0.94745
258.949,17.86027,1.52629,95.84925,0.94631
261.049,17.9239,1.52705,95.8199,0.94517
263.149,17.9875,1.53441,95.7803,0.94404
265.249,18.05094,1.53871,95.75296,0.94291
267.349,18.11441,1.54456,95.7553,0.94178
269.449,18.178,1.55041,95.72044,0.94066
271.549,18.24169,1.55838,95.72025,0.93954
273.649,18.30529,1.5657,95.6557,0.93843
275.749,18.36891,1.57574,95.65594,0.93732
277.849,18.43253,1.58612,95.59498,0.93621
279.949,18.49621,1.60043,95.54955,0.93511
282.049,18.55987,1.61192,95.50315,0.934
284.149,18.62343,1.62855,95.43575,0.93291
286.249,18.68719,1.64618,95.3518,0.93181
288.349,18.75088,1.66207,95.28349,0.93072
290.449,18.81457,1.68046,95.19145,0.92963
292.549,18.87835,1.70322,95.12316,0.92854
294.649,18.9421,1.72563,95.02598,0.92746
296.749,19.0058,1.75764,94.91826,0.92638
298.849,19.06922,1.79755,94.82372,0.9253
300.949,19.13289,1.83474,94.6651,0.92423
303.049,19.19664,1.86861,94.50009,0.92316
305.149,19.26037,1.89666,94.32339,0.92209
307.249,19.3242,1.92596,94.14909,0.92102
309.349,19.38815,1.9492,93.9568,0.91995
311.449,19.45191,1.97115,93.7887,0.91889
313.549,19.51579,1.99391,93.60462,0.91783
315.649,19.5798,2.0201,93.43562,0.91677
317.749,19.6437,2.0426,93.17099,0.91571
319.849,19.70753,2.06687,92.94949,0.91466
321.949,19.7714,2.09174,92.71913,0.91361
324.049,19.8354,2.12306,92.42255,0.91256
326.149,19.89945,2.15869,92.1558,0.91151
328.249,19.9634,2.21026,91.87931,0.91046
330.349,20.0275,2.27117,91.53665,0.90941
332.449,20.09144,2.35695,91.14956,0.90837
334.549,20.1556,2.45636,90.7212,0.90733
336.649,20.2198,2.57193,90.25117,0.90628
338.749,20.2842,2.70799,89.69445,0.90524
340.849,20.3486,2.86077,89.07552,0.90421
342.949,20.41307,3.036,88.4314,0.90317
345.049,20.4775,3.23376,87.6293,0.90213
347.149,20.5422,3.45572,86.76655,0.9011
349.249,20.60691,3.70376,85.72578,0.90006
351.349,20.67184,3.98029,84.5861,0.89903
353.449,20.73674,4.27869,83.34346,0.89799
355.549,20.8018,4.60277,81.9123,0.89696
357.649,20.8671,4.95906,80.2231,0.89593
359.749,20.93236,5.33188,78.482,0.8949
361.849,20.99784,5.72892,76.49978,0.89387
363.949,21.06343,6.13536,74.29047,0.89284
366.049,21.12905,6.54573,71.96132,0.89181
368.149,21.19484,6.95931,69.31151,0.89078
370.249,21.2608,7.35333,66.59956,0.88975
372.349,21.3267,7.72322,63.6654,0.88873
374.449,21.39259,8.03921,60.4111,0.8877
376.549,21.4587,8.29203,57.1639,0.88667
378.649,21.5248,8.51428,53.7066,0.88564
380.749,21.5908,8.65982,50.02425,0.88461
382.849,21.65699,8.7708,46.5651,0.88358
384.949,21.72286,8.8318,42.92814,0.88255
387.049,21.78857,8.81441,39.1419,0.88152
389.149,21.85424,8.68899,35.63646,0.8805
391.249,21.91984,8.48799,31.9941,0.87946
393.349,21.9852,8.18454,28.44762,0.87843
395.449,22.05048,7.78388,25.18046,0.8774
397.549,22.1156,7.2959,21.94285,0.87637
399.649,22.1804,6.76314,19.02427,0.87534
401.749,22.2451,6.20731,16.31638,0.87431
403.849,22.30965,5.62251,13.8006,0.87327
405.949,22.374,5.04789,11.6432,0.87224
408.049,22.43855,4.46332,9.68252,0.8712
410.149,22.50275,3.90679,7.95406,0.87016
412.249,22.56702,3.41337,6.47318,0.86912
414.349,22.6312,2.95186,5.15166,0.86808
416.449,22.6954,2.52379,4.04599,0.86704
418.549,22.75966,2.12994,3.09804,0.866
420.649,22.82398,1.77545,2.34922,0.86496
422.749,22.88849,1.46477,1.69937,0.86391
424.849,22.95297,1.20174,1.17727,0.86287
426.949,23.01742,0.97807,0.79225,0.86182
429.049,23.0822,0.79376,0.45303,0.86077
431.149,23.14705,0.64515,0.19337,0.85972
433.249,23.2121,0.52323,-0.05245314,0.85866
435.349,23.27713,0.42619,-0.18044,0.85761
437.449,23.34241,0.3496,-0.32676,0.85655
439.549,23.40776,0.29116,-0.42504,0.85549
441.649,23.47318,0.24896,-0.48725,0.85443
443.749,23.53817,0.2306,-0.51962,0.85337
445.849,23.60342,0.23011,-0.59179,0.8523
447.949,23.66885,0.23791,-0.62754,0.85123
450.049,23.7346,0.24156,-0.66011,0.85016
452.149,23.8006,0.21758,-0.69459,0.84909
454.249,23.867,0.17217,-0.72488,0.84802
456.349,23.9335,0.10044,-0.75949,0.84694
458.449,24.00009,0.02572083,-0.75715,0.84586
460.549,24.0668,0.01631142,-0.73774,0.84478
462.649,24.1334,0.04954984,-0.73279,0.84369
464.749,24.2,0.0924334,-0.76526,0.8426
466.849,24.26666,0.12546,-0.76543,0.84151
468.949,24.3333,0.14616,-0.73272,0.84042
471.049,24.4,0.16034,-0.70065,0.83932
473.149,24.4668,0.16137,-0.76596,0.83823
475.249,24.5337,0.16379,-0.76513,0.83712
477.349,24.60039,0.16149,-0.79783,0.83602
479.449,24.66718,0.16657,-0.76529,0.83491
481.549,24.73418,0.16553,-0.76528,0.8338
483.649,24.80106,0.16913,-0.76528,0.83268
485.749,24.86816,0.16818,-0.78741,0.83156
487.849,24.93509,0.1738,-0.79781,0.83044
489.949,25.00197,0.17277,-0.80802,0.82932
492.049,25.069,0.17652,-0.79778,0.82819
494.149,25.13597,0.17801,-0.79778,0.82706
496.249,25.20305,0.18006,-0.79915,0.82592
498.349,25.27032,0.18091,-0.78153,0.82478
500.449,25.33756,0.18172,-0.76508,0.82364
502.549,25.40479,0.18574,-0.76528,0.82249
504.649,25.47214,0.18924,-0.76521,0.82134
506.749,25.53941,0.19279,-0.74088,0.82019
508.849,25.60689,0.19579,-0.77671,0.81903
510.949,25.67411,0.19818,-0.81132,0.81787
513.049,25.74126,0.19722,-0.84373,0.81671
515.149,25.80855,0.20191,-0.80852,0.81554
517.249,25.87598,0.20114,-0.84607,0.81436
519.349,25.9436,0.20499,-0.87907,0.81319
521.449,26.01098,0.20737,-0.84648,0.812
523.549,26.07874,0.20876,-0.81438,0.81082
525.649,26.14634,0.21283,-0.81404,0.80963
527.749,26.21404,0.21276,-0.81373,0.80843
529.849,26.28175,0.21714,-0.78155,0.80723
531.949,26.3495,0.21706,-0.78153,0.80603
534.049,26.41746,0.22027,-0.79887,0.80482
536.149,26.4853,0.22197,-0.79782,0.80361
538.249,26.553,0.22194,-0.79778,0.8024
540.349,26.6212,0.22394,-0.79872,0.80117
541.649,26.66347,0.2263,-0.76531,0.80042