File: 01_Data/Black_PMMA/STA/30K_min/Black_PMMA_STA_N2_30KData_220214_R2.csv
##Temp./Â°C,Time/min,DSC(subtr.2)/(mW/mg),Mass(subtr.2)/%,Sensit./(uV/mW)
48.906,10.01,-0.004797188,99.43423,1.0888
51.006,10.76592,0.10615,99.36475,1.08703
53.106,10.95764,0.1934,99.32698,1.08527
55.206,11.1019,0.26411,99.3617,1.08351
57.306,11.2232,0.32657,99.32427,1.08176
59.406,11.33163,0.37902,99.34128,1.08003
61.506,11.43126,0.42466,99.30722,1.07829
63.606,11.52468,0.46659,99.31505,1.07657
65.706,11.6144,0.50069,99.31153,1.07485
67.806,11.70016,0.53421,99.31092,1.07314
69.906,11.78351,0.5652,99.3253,1.07144
72.006,11.86458,0.59108,99.32091,1.06975
74.106,11.94438,0.61818,99.35149,1.06806
76.206,12.0229,0.64131,99.36555,1.06638
78.306,12.0999,0.66431,99.3216,1.06471
80.406,12.1761,0.68708,99.33105,1.06305
82.506,12.2514,0.70774,99.36299,1.06139
84.606,12.32602,0.72194,99.3591,1.05974
86.706,12.40012,0.73199,99.36999,1.0581
88.806,12.4733,0.73333,99.3334,1.05647
90.906,12.54595,0.73113,99.33827,1.05484
93.006,12.61838,0.7361,99.3222,1.05323
95.106,12.69031,0.7381,99.29443,1.05161
97.206,12.76184,0.74087,99.26473,1.05001
99.306,12.83335,0.74853,99.32042,1.04841
101.406,12.90446,0.7542,99.29734,1.04683
103.506,12.97537,0.76501,99.3199,1.04524
105.606,13.04646,0.77335,99.301,1.04367
107.706,13.11721,0.78261,99.30946,1.0421
109.806,13.188,0.79399,99.29807,1.04054
111.906,13.2586,0.80612,99.29646,1.03899
114.006,13.3291,0.81972,99.2867,1.03745
116.106,13.3996,0.83446,99.26259,1.03591
118.206,13.4698,0.84972,99.23903,1.03438
120.306,13.5399,0.86705,99.2303,1.03286
122.406,13.6099,0.88804,99.23018,1.03134
124.506,13.67942,0.91109,99.26258,1.02983
126.606,13.7489,0.93409,99.23063,1.02833
128.706,13.81809,0.95666,99.23043,1.02684
130.806,13.8873,0.97875,99.2626,1.02535
132.906,13.95615,0.99665,99.26259,1.02387
135.006,14.02471,1.01127,99.26259,1.0224
137.106,14.0929,1.02725,99.26205,1.02093
139.206,14.1613,1.04159,99.2303,1.01947
141.306,14.22925,1.04967,99.2217,1.01802
143.406,14.29689,1.05992,99.22225,1.01657
145.506,14.36459,1.07236,99.21659,1.01513
147.606,14.4324,1.08145,99.15818,1.0137
149.706,14.4996,1.09043,99.15809,1.01228
151.806,14.56686,1.09933,99.0936,1.01086
153.906,14.6341,1.10805,99.0847,1.00945
156.006,14.70099,1.11729,99.0855,1.00804
158.106,14.76767,1.12715,99.06314,1.00664
160.206,14.83469,1.13836,99.03456,1.00525
162.306,14.9011,1.14697,99.02925,1.00386
164.406,14.9677,1.16045,99.00265,1.00249
166.506,15.03406,1.17135,98.9468,1.00111
168.606,15.10012,1.18783,98.90049,0.99975
170.706,15.16641,1.20207,98.90045,0.99839
172.806,15.2326,1.21902,98.86848,0.99703
174.906,15.29835,1.2393,98.83614,0.99569
177.006,15.36409,1.25977,98.80291,0.99434
179.106,15.4299,1.28055,98.8044,0.99301
181.206,15.4953,1.3026,98.74162,0.99168
183.306,15.5606,1.32459,98.66735,0.99036
185.406,15.6257,1.35176,98.59536,0.98904
187.506,15.69081,1.37468,98.48725,0.98773
189.606,15.75569,1.39563,98.3629,0.98643
191.706,15.82049,1.41495,98.30128,0.98513
193.806,15.88515,1.4309,98.225,0.98383
195.906,15.9497,1.44441,98.09951,0.98255
198.006,16.01419,1.45635,97.9586,0.98126
200.106,16.07881,1.45991,97.84164,0.97999
202.206,16.14326,1.46179,97.75185,0.97872
204.306,16.2076,1.45998,97.6637,0.97745
206.406,16.27175,1.45761,97.5017,0.97619
208.506,16.3359,1.45022,97.41072,0.97494
210.606,16.39998,1.44411,97.31838,0.97369
212.706,16.46433,1.43964,97.22619,0.97245
214.806,16.5283,1.43933,97.1217,0.97121
216.906,16.59234,1.44032,96.9632,0.96998
219.006,16.6563,1.44573,96.89256,0.96875
221.106,16.72014,1.45466,96.80604,0.96753
223.206,16.78406,1.46506,96.708,0.96631
225.306,16.84797,1.47494,96.63894,0.9651
227.406,16.9117,1.48324,96.55127,0.96389
229.506,16.97534,1.48973,96.4376,0.96269
231.606,17.03923,1.49626,96.34139,0.96149
233.706,17.1031,1.49322,96.20249,0.9603
235.806,17.16675,1.4845,96.10911,0.95911
237.906,17.23036,1.47338,96.039,0.95793
240.006,17.294,1.45213,95.96389,0.95675
242.106,17.35764,1.43004,95.92392,0.95557
244.206,17.42128,1.41096,95.85601,0.9544
246.306,17.48488,1.39261,95.8242,0.95324
248.406,17.54833,1.38029,95.76039,0.95208
250.506,17.6118,1.36923,95.72775,0.95092
252.606,17.6753,1.36625,95.72787,0.94977
254.706,17.7389,1.36009,95.72769,0.94862
256.806,17.8023,1.3604,95.69587,0.94747
258.906,17.866,1.35852,95.69584,0.94633
261.006,17.9295,1.36351,95.70357,0.94519
263.106,17.99292,1.36403,95.69659,0.94406
265.206,18.05627,1.3713,95.63603,0.94293
267.306,18.11981,1.37574,95.5939,0.94181
269.406,18.1832,1.38223,95.5591,0.94068
271.506,18.24675,1.38806,95.52808,0.93957
273.606,18.31028,1.39873,95.49465,0.93845
275.706,18.37366,1.41081,95.42268,0.93734
277.806,18.4367,1.41625,95.36108,0.93623
279.906,18.5004,1.4293,95.3284,0.93513
282.006,18.56425,1.44372,95.29279,0.93403
284.106,18.62795,1.45532,95.22097,0.93293
286.206,18.6913,1.4698,95.17623,0.93183
288.306,18.75459,1.48448,95.08354,0.93074
290.406,18.81804,1.50628,95.01038,0.92965
292.506,18.8816,1.53056,94.89623,0.92857
294.606,18.9453,1.55681,94.79924,0.92748
296.706,19.0088,1.58908,94.64138,0.9264
298.806,19.0726,1.61997,94.5526,0.92533
300.906,19.1362,1.64629,94.41666,0.92425
303.006,19.2,1.67388,94.27967,0.92318
305.106,19.26379,1.69948,94.12365,0.92211
307.206,19.3275,1.72541,93.9575,0.92104
309.306,19.3913,1.74703,93.78299,0.91997
311.406,19.45526,1.77034,93.58196,0.91891
313.506,19.5191,1.79425,93.36718,0.91785
315.606,19.5828,1.81234,93.15778,0.91679
317.706,19.64687,1.83515,92.9379,0.91574
319.806,19.711,1.85586,92.67519,0.91468
321.906,19.77487,1.88137,92.43387,0.91363
324.006,19.83879,1.91122,92.18129,0.91258
326.106,19.90286,1.95148,91.88129,0.91153
328.206,19.96687,1.99971,91.5685,0.91048
330.306,20.0309,2.05661,91.21861,0.90943
332.406,20.095,2.1312,90.81004,0.90839
334.506,20.15921,2.21966,90.3695,0.90735
336.606,20.22356,2.32206,89.94201,0.90631
338.706,20.28787,2.44274,89.3918,0.90527
340.806,20.35226,2.5806,88.797,0.90423
342.906,20.4166,2.73785,88.10015,0.90319
345.006,20.48114,2.91893,87.27088,0.90215
347.106,20.54584,3.12654,86.36315,0.90112
349.206,20.61007,3.35494,85.32688,0.90008
351.306,20.67491,3.6131,84.19,0.89905
353.406,20.74026,3.89781,82.94123,0.89802
355.506,20.80548,4.20602,81.53949,0.89698
357.606,20.8707,4.53716,79.94162,0.89595
359.706,20.9361,4.88412,78.15395,0.89492
361.806,21.00143,5.24934,76.14149,0.89389
363.906,21.06713,5.62943,74.04866,0.89286
366.006,21.13285,6.0166,71.74039,0.89183
368.106,21.1986,6.40004,69.10875,0.8908
370.206,21.26468,6.77798,66.43722,0.88977
372.306,21.3306,7.11713,63.4657,0.88875
374.406,21.39649,7.4031,60.2943,0.88772
376.506,21.46291,7.64146,57.1262,0.88669
378.606,21.529,7.82887,53.6981,0.88566
380.706,21.59506,7.99892,50.192,0.88463
382.806,21.6612,8.08156,46.76607,0.8836
384.906,21.7272,8.05328,43.1281,0.88257
387.006,21.793,7.98078,39.5725,0.88155
389.106,21.8588,7.97841,36.11175,0.88052
391.206,21.92445,7.71358,32.52941,0.87949
393.306,21.99002,7.56604,29.20707,0.87846
395.406,22.05546,7.30489,25.92858,0.87742
397.506,22.1207,6.97624,22.62118,0.87639
399.606,22.18587,6.55607,19.68,0.87536
401.706,22.25066,6.05475,16.83244,0.87433
403.806,22.31547,5.48893,14.15616,0.87329
405.906,22.38,4.89834,11.85337,0.87226
408.006,22.44444,4.31201,9.71141,0.87122
410.106,22.5087,3.75812,7.96718,0.87018
412.206,22.5729,3.24342,6.4203,0.86915
414.306,22.6371,2.76562,5.05786,0.86811
416.406,22.70123,2.3222,3.9584,0.86707
418.506,22.76547,1.92255,2.97576,0.86602
420.606,22.82986,1.5668,2.17495,0.86498
422.706,22.89415,1.26005,1.53346,0.86393
424.806,22.95863,0.99644,1.00915,0.86289
426.906,23.02318,0.77822,0.61695,0.86184
429.006,23.0878,0.59777,0.23046,0.86079
431.106,23.15258,0.45313,-0.02436501,0.85974
433.206,23.2175,0.33513,-0.21743,0.85869
435.306,23.2825,0.2391,-0.41557,0.85763
437.406,23.3477,0.16559,-0.54865,0.85657
439.506,23.41319,0.10433,-0.6369,0.85551
441.606,23.4786,0.05451518,-0.70929,0.85445
443.706,23.54403,0.01968926,-0.78151,0.85339
445.806,23.6096,-0.0101134,-0.88673,0.85232
447.906,23.67545,-0.03066126,-0.91759,0.85126
450.006,23.74119,-0.04660047,-0.93553,0.85019
452.106,23.80695,-0.05844457,-0.96719,0.84911
454.206,23.87293,-0.06121869,-0.96767,0.84804
456.306,23.93897,-0.05540901,-0.96748,0.84696
458.406,24.00491,-0.05098382,-0.99094,0.84588
460.506,24.07118,-0.05972049,-0.96783,0.8448
462.606,24.13746,-0.07437721,-0.99834,0.84371
464.706,24.2039,-0.09517202,-1.06384,0.84263
466.806,24.27061,-0.11521,-1.06382,0.84154
468.906,24.33719,-0.12433,-1.06382,0.84044
471.006,24.40389,-0.12865,-1.03053,0.83935
473.106,24.4707,-0.12711,-1.03176,0.83825
475.206,24.53753,-0.12643,-1.06379,0.83715
477.306,24.6042,-0.12267,-1.06382,0.83604
479.406,24.6711,-0.11637,-1.06382,0.83493
481.506,24.73805,-0.11237,-1.07805,0.83382
483.606,24.8051,-0.1063,-1.11254,0.83271
485.706,24.87205,-0.09771837,-1.11247,0.83159
487.806,24.93907,-0.09433486,-1.11247,0.83047
489.906,25.00611,-0.09075761,-1.11246,0.82934
492.006,25.07301,-0.08519697,-1.14466,0.82821
494.106,25.14016,-0.0825448,-1.14437,0.82708
496.206,25.20735,-0.07990933,-1.10167,0.82595
498.306,25.27449,-0.07800881,-1.08018,0.82481
500.406,25.3417,-0.07475801,-1.07208,0.82366
502.506,25.40917,-0.06797808,-1.07266,0.82252
504.606,25.47645,-0.06507702,-1.04223,0.82137
506.706,25.5438,-0.05660071,-1.00848,0.82021
508.806,25.61121,-0.04988044,-0.99975,0.81906
510.906,25.67868,-0.04751077,-1.0306,0.8179
513.006,25.74605,-0.04063679,-1.03178,0.81673
515.106,25.81362,-0.03934169,-1.03181,0.81556
517.206,25.88123,-0.03342016,-1.06404,0.81439
519.306,25.94875,-0.03158343,-1.08574,0.81321
521.406,26.01635,-0.02894603,-1.08802,0.81203
523.506,26.08399,-0.02654115,-1.08803,0.81084
525.606,26.15156,-0.02484723,-1.09613,0.80965
527.706,26.2192,-0.02473325,-1.12712,0.80846
529.806,26.28694,-0.0196606,-1.09463,0.80726
531.906,26.3547,-0.01639815,-1.09551,0.80606
534.006,26.42241,-0.01421624,-1.06413,0.80485
536.106,26.4902,-0.01372144,-1.1283,0.80364
538.206,26.558,-0.008330535,-1.12836,0.80242
540.306,26.6261,-0.009294438,-1.09433,0.8012
541.506,26.66488,-0.006647563,-1.09608,0.8005