File: 01_Data/Polyester_Batting_81B/MCC/Polyester_Batting_81B_MCC_30K_min_220301_R1.txt
Sample ID:	C:\MCC\MCC Cal\Test\Polyester_Batting_81B_MCC_30K_min_220301_R1.txt
Sample Weight (mg):	4.52
Heating Rate (C/s):	0.5
Combustor Temp (C):	900
N2 Flow Rate (cc/min):	80
O2 Flow Rate (cc/min):	20
Calibration File:	C:\MCC\MCC Cal\Coeff1 JN10440_30_210304.txt.txt
T Correction Coefficients:	0	1.024463	0
Time Shift (s):	14
*
Time (s)	Temperature (C)	N2 flow rate (cc/min)	O2 flow rate (cc/min)	Flow Rate (cc/min)	Oxygen (%)	HRR (W/g)	Heating rate (C/s)
0.000	115.661	80.011	19.992	103.748	20.113	-0.079	-0.007
7.500	115.645	80.008	19.994	103.752	20.108	0.323	-0.024
15.000	115.717	80.008	19.993	103.777	20.105	0.487	0.015
22.500	115.887	80.009	19.994	103.846	20.093	1.341	0.029
30.000	116.344	80.010	19.995	103.917	20.089	1.625	0.091
37.500	117.267	80.009	19.994	103.941	20.080	2.305	0.163
45.000	118.603	80.010	19.994	103.955	20.074	2.731	0.205
52.500	120.247	80.010	19.994	103.949	20.076	2.620	0.197
60.000	122.228	80.010	19.993	103.941	20.076	2.596	0.250
67.500	124.412	80.009	19.993	103.966	20.073	2.791	0.309
75.000	126.713	80.010	19.994	103.962	20.075	2.680	0.333
82.500	129.287	80.011	19.993	103.978	20.069	3.063	0.338
90.000	131.960	80.008	19.994	103.973	20.071	2.961	0.383
97.500	134.800	80.009	19.994	103.979	20.077	2.553	0.398
105.000	137.859	80.010	19.994	103.979	20.069	3.126	0.445
112.500	141.085	80.009	19.994	103.986	20.071	2.938	0.458
120.000	144.453	80.008	19.993	103.984	20.067	3.249	0.456
127.501	147.876	80.006	19.995	103.982	20.060	3.758	0.434
135.000	151.411	80.008	19.995	103.980	20.070	3.031	0.479
142.500	155.030	80.012	19.993	103.982	20.063	3.546	0.501
150.000	158.729	80.009	19.993	103.980	20.069	3.108	0.474
157.500	162.460	80.012	19.993	103.970	20.064	3.478	0.468
165.001	166.378	80.011	19.996	103.969	20.067	3.224	0.513
172.501	170.171	80.010	19.994	103.975	20.069	3.103	0.468
180.000	174.080	80.009	19.993	103.941	20.072	2.859	0.527
187.500	177.858	80.009	19.995	103.941	20.072	2.850	0.541
195.000	181.674	80.009	19.995	103.939	20.069	3.071	0.520
202.500	185.454	80.008	19.994	103.939	20.077	2.534	0.486
210.001	189.183	80.009	19.995	103.939	20.082	2.128	0.444
217.501	192.984	80.010	19.995	103.917	20.080	2.272	0.518
225.001	196.675	80.011	19.994	103.924	20.080	2.282	0.467
232.500	200.352	80.010	19.995	103.904	20.077	2.530	0.529
240.000	203.977	80.011	19.995	103.912	20.074	2.734	0.490
247.501	207.614	80.012	19.993	103.904	20.078	2.437	0.500
255.001	211.260	80.009	19.994	103.909	20.078	2.435	0.478
262.500	214.889	80.008	19.994	103.908	20.078	2.419	0.469
270.000	218.624	80.009	19.994	103.909	20.079	2.349	0.479
277.500	222.291	80.008	19.993	103.906	20.081	2.199	0.488
285.000	226.045	80.010	19.993	103.902	20.081	2.240	0.513
292.500	229.849	80.008	19.995	103.902	20.079	2.401	0.531
300.000	233.600	80.010	19.995	103.893	20.080	2.335	0.497
307.500	237.302	80.010	19.994	103.892	20.084	2.042	0.475
315.000	240.917	80.010	19.994	103.880	20.085	1.931	0.473
322.500	244.500	80.010	19.994	103.891	20.086	1.903	0.465
330.000	248.068	80.009	19.994	103.875	20.081	2.242	0.478
337.500	251.748	80.008	19.994	103.884	20.085	1.959	0.518
345.000	255.385	80.008	19.994	103.900	20.080	2.311	0.485
352.500	259.114	80.010	19.995	103.892	20.082	2.180	0.474
360.000	262.839	80.010	19.994	103.878	20.084	2.026	0.489
367.500	266.610	80.009	19.994	103.874	20.087	1.768	0.478
375.000	270.532	80.010	19.993	103.867	20.088	1.759	0.545
382.500	274.400	80.011	19.993	103.872	20.083	2.075	0.520
390.000	278.242	80.009	19.994	103.879	20.083	2.125	0.486
397.501	282.102	80.029	19.997	103.880	20.087	1.838	0.484
405.000	285.997	80.011	19.994	103.868	20.089	1.671	0.506
412.500	289.889	80.010	19.995	103.864	20.087	1.788	0.531
420.000	293.755	80.009	19.995	103.853	20.086	1.843	0.492
427.500	297.550	80.007	19.994	103.861	20.090	1.598	0.529
435.000	301.309	80.009	19.994	103.861	20.087	1.798	0.557
442.500	305.069	80.009	19.993	103.861	20.088	1.752	0.469
450.000	308.864	80.008	19.993	103.864	20.087	1.830	0.517
457.500	312.633	80.010	19.993	103.861	20.087	1.802	0.524
465.000	316.375	80.011	19.993	103.863	20.086	1.855	0.487
472.500	320.162	80.010	19.994	103.867	20.090	1.620	0.510
480.000	323.937	80.010	19.994	103.863	20.087	1.814	0.487
487.500	327.765	80.011	19.995	103.857	20.088	1.697	0.497
495.000	331.535	80.012	19.992	103.860	20.089	1.637	0.495
502.500	335.423	80.009	19.993	103.859	20.089	1.627	0.523
510.000	339.228	80.009	19.996	103.855	20.084	2.007	0.521
517.500	342.973	80.007	19.995	103.838	20.088	1.697	0.471
525.000	346.698	80.009	19.994	103.848	20.083	2.095	0.479
532.500	350.503	80.009	19.993	103.853	20.079	2.356	0.504
540.000	354.280	80.010	19.993	103.852	20.079	2.386	0.497
547.500	358.173	80.012	19.995	103.848	20.068	3.184	0.544
555.000	361.990	80.009	19.993	103.846	20.064	3.465	0.476
562.500	366.022	80.011	19.992	103.856	20.059	3.811	0.877
570.000	369.668	80.012	19.993	103.858	20.051	4.366	0.510
577.500	373.565	80.014	19.992	103.850	20.034	5.588	0.537
585.000	377.519	80.008	19.993	103.862	20.023	6.378	0.528
592.500	381.317	80.009	19.994	103.865	20.003	7.792	0.500
600.000	385.221	80.008	19.994	103.872	19.973	9.969	0.520
607.500	388.998	80.008	19.993	103.883	19.938	12.518	0.522
615.000	392.814	80.007	19.996	103.901	19.890	15.953	0.456
622.500	396.644	80.010	19.995	103.924	19.823	20.753	0.511
630.000	400.435	80.010	19.994	103.942	19.742	26.535	0.513
637.500	404.166	80.010	19.994	103.949	19.663	32.259	0.469
645.000	407.806	80.007	19.992	104.043	19.554	40.147	0.460
652.500	411.477	80.013	19.993	104.082	19.380	52.572	0.472
660.000	415.147	80.010	19.993	104.054	19.178	67.194	0.494
667.500	418.935	80.009	19.993	104.283	19.059	75.792	0.483
675.000	422.687	80.010	19.996	104.274	18.838	91.794	0.471
682.500	426.534	80.011	19.993	104.361	18.589	109.890	0.513
690.000	430.374	80.010	19.995	104.397	18.350	127.188	0.507
697.500	434.225	80.007	19.995	104.605	18.040	149.700	0.516
705.000	438.059	80.008	19.995	104.547	17.804	166.870	0.506
712.500	441.922	80.009	19.994	104.698	17.658	177.393	0.514
720.000	445.711	80.009	19.994	104.724	17.558	184.573	0.518
727.500	449.571	80.010	19.993	104.738	17.569	183.650	0.533
735.000	453.366	80.011	19.994	104.681	17.738	171.292	0.514
742.500	457.125	80.010	19.994	104.562	18.054	148.249	0.501
750.000	460.853	80.010	19.994	104.430	18.481	117.340	0.466
757.500	464.574	80.010	19.996	104.293	18.966	82.352	0.499
765.000	468.251	80.010	19.994	104.163	19.343	55.227	0.513
772.500	471.925	80.011	19.994	104.061	19.596	37.022	0.502
780.000	475.703	80.009	19.994	103.985	19.748	26.155	0.530
787.500	479.437	80.010	19.994	103.947	19.851	18.715	0.512
795.000	483.213	80.011	19.994	103.916	19.915	14.156	0.496
802.500	487.101	80.009	19.993	103.904	19.965	10.571	0.519
810.000	491.016	80.010	19.994	103.862	19.999	8.088	0.521
817.500	494.998	80.012	19.994	103.859	20.026	6.186	0.518
825.000	498.935	80.011	19.993	103.836	20.041	5.069	0.520
832.500	502.833	80.009	19.995	103.836	20.046	4.747	0.514
840.000	506.816	80.008	19.993	103.831	20.052	4.343	0.535
847.500	510.670	80.009	19.994	103.827	20.057	3.979	0.499
855.001	514.582	80.009	19.994	103.825	20.059	3.781	0.524
862.500	518.523	80.008	19.994	103.818	20.061	3.695	0.534
870.000	522.375	80.009	19.993	103.826	20.063	3.519	0.510
877.500	526.309	80.011	19.993	103.823	20.063	3.493	0.538
885.000	530.322	80.011	19.995	103.818	20.057	3.956	0.532
892.500	534.320	80.010	19.994	103.818	20.057	3.920	0.537
900.000	538.296	80.011	19.995	103.802	20.063	3.537	0.551
907.500	542.309	80.008	19.994	103.819	20.064	3.453	0.573
915.000	546.235	80.010	19.993	103.822	20.062	3.571	0.500
922.500	550.143	80.009	19.993	103.803	20.062	3.592	0.509
930.000	553.924	80.009	19.993	103.796	20.060	3.742	0.512
937.500	557.649	80.009	19.994	103.793	20.058	3.859	0.476
945.000	561.350	80.010	19.994	103.791	20.062	3.609	0.511
952.500	565.078	80.010	19.994	103.808	20.063	3.550	0.464
960.000	568.943	80.010	19.995	103.795	20.057	3.964	0.537
967.500	572.761	80.011	19.994	103.790	20.059	3.823	0.553
975.000	576.668	80.011	19.994	103.814	20.062	3.596	0.539
982.500	580.615	80.013	19.994	103.793	20.056	4.006	0.533
990.000	584.697	80.010	19.995	103.807	20.055	4.092	0.571
997.500	588.692	80.008	19.994	103.797	20.052	4.326	0.533
1005.000	592.724	80.010	19.995	103.804	20.050	4.486	0.547
1012.500	596.661	80.009	19.995	103.810	20.048	4.627	0.509
1020.000	600.579	80.010	19.995	103.795	20.047	4.690	0.537
1027.500	604.377	80.010	19.994	103.808	20.050	4.444	0.501
1035.000	608.116	80.011	19.994	103.800	20.048	4.575	0.494
1042.500	611.838	80.011	19.993	103.807	20.049	4.506	0.492
1050.000	615.590	80.011	19.995	103.807	20.050	4.421	0.541
1057.500	619.447	80.010	19.994	103.793	20.048	4.617	0.522
1065.001	623.304	80.011	19.992	103.803	20.052	4.296	0.544
1072.500	627.181	80.010	19.995	103.787	20.053	4.242	0.528
1080.000	631.069	80.009	19.994	103.787	20.054	4.151	0.525
1087.500	635.004	80.009	19.996	103.791	20.054	4.173	0.530
1095.000	638.929	80.011	19.994	103.786	20.058	3.856	0.507
1102.500	642.786	80.010	19.994	103.801	20.063	3.536	0.501
1110.000	646.657	80.010	19.995	103.797	20.061	3.635	0.501
1117.500	650.547	80.011	19.993	103.788	20.059	3.791	0.490
1125.000	654.385	80.010	19.994	103.790	20.055	4.058	0.507
1132.500	658.133	80.011	19.994	103.801	20.059	3.819	0.499
1140.000	661.919	80.013	19.993	103.792	20.063	3.492	0.453
1147.500	665.743	80.012	19.994	103.787	20.065	3.397	0.482
1155.000	669.520	80.010	19.994	103.788	20.064	3.415	0.543
1162.500	673.362	80.010	19.994	103.787	20.065	3.383	0.520
1170.000	677.191	80.010	19.994	103.788	20.059	3.791	0.516
1177.500	680.984	80.009	19.994	103.787	20.063	3.536	0.517
1185.000	684.819	80.007	19.995	103.796	20.061	3.682	0.557
1192.500	688.690	80.009	19.994	103.789	20.063	3.498	0.533
1200.000	692.487	80.011	19.993	103.789	20.065	3.395	0.520
1207.501	696.296	80.011	19.995	103.784	20.056	4.042	0.477
1215.000	700.129	80.011	19.994	103.786	20.059	3.803	0.503
1222.500	703.905	80.012	19.993	103.783	20.060	3.720	0.506
1230.001	707.798	80.012	19.994	103.782	20.061	3.655	0.530
1237.500	711.601	80.010	19.992	103.786	20.060	3.753	0.530
1245.001	715.415	80.010	19.993	103.789	20.057	3.949	0.391
1252.500	719.271	80.008	19.995	103.792	20.061	3.678	0.508
1260.001	723.019	80.010	19.993	103.788	20.059	3.795	0.505
1267.501	726.802	80.010	19.995	103.784	20.053	4.228	0.496
1275.000	730.478	80.009	19.994	103.782	20.057	3.947	0.489
1282.500	734.184	80.010	19.995	103.785	20.058	3.866	0.490
1290.000	737.951	80.011	19.993	103.777	20.053	4.238	0.533
1297.500	741.673	80.011	19.994	103.780	20.060	3.710	0.532
1301.000	743.378	80.010	19.993	103.778	20.056	3.993	0.474