File: 01_Data/Feather_PillowA_Cover/MCC/Feather_PillowA_Cover_MCC_30K_min_220106_R2.txt
Sample ID:	C:\MCC\MCC Cal\Test\Feather_PillowA_Cover_MCC_30K_min_220106_R2.txt
Sample Weight (mg):	4.09
Heating Rate (C/s):	0.5
Combustor Temp (C):	900
N2 Flow Rate (cc/min):	80
O2 Flow Rate (cc/min):	20
Calibration File:	C:\MCC\MCC Cal\Coeff1 JN10440_30_210304.txt.txt
T Correction Coefficients:	0	1.024463	0
Time Shift (s):	14
*
Time (s)	Temperature (C)	N2 flow rate (cc/min)	O2 flow rate (cc/min)	Flow Rate (cc/min)	Oxygen (%)	HRR (W/g)	Heating rate (C/s)
0.000	111.897	80.008	19.994	104.220	20.061	-0.355	-0.018
8.000	111.894	80.010	19.994	104.240	20.056	0.028	-0.009
16.000	111.987	80.009	19.993	104.283	20.052	0.364	0.025
24.000	112.301	80.006	19.993	104.317	20.046	0.849	0.051
32.000	112.843	80.007	19.995	104.391	20.035	1.744	0.053
40.000	113.850	80.010	19.994	104.407	20.029	2.199	0.155
48.000	115.123	80.011	19.993	104.422	20.021	2.861	0.173
56.000	116.769	80.010	19.993	104.453	20.019	2.995	0.240
64.000	118.795	80.011	19.993	104.481	20.018	3.100	0.265
72.000	121.246	80.012	19.993	104.471	20.016	3.249	0.309
80.000	123.930	80.008	19.993	104.494	20.015	3.279	0.310
88.000	126.924	80.009	19.992	104.490	20.019	3.002	0.352
96.000	130.110	80.009	19.993	104.493	20.016	3.238	0.404
104.000	133.423	80.009	19.993	104.498	20.017	3.148	0.428
112.000	136.847	80.009	19.994	104.493	20.016	3.200	0.426
120.000	140.446	80.008	19.994	104.492	20.016	3.216	0.439
128.000	144.113	80.010	19.995	104.492	20.015	3.316	0.462
136.000	147.831	80.009	19.993	104.487	20.014	3.357	0.491
144.000	151.703	80.010	19.993	104.478	20.012	3.580	0.469
152.000	155.455	80.012	19.992	104.478	20.017	3.189	0.455
160.000	159.347	80.009	19.993	104.473	20.014	3.390	0.444
168.000	163.269	80.009	19.992	104.467	20.014	3.398	0.466
176.000	167.237	80.011	19.992	104.457	20.020	2.915	0.482
184.000	171.214	80.011	19.993	104.468	20.016	3.263	0.514
192.000	175.223	80.010	19.994	104.456	20.014	3.396	0.489
200.000	179.239	80.009	19.994	104.456	20.018	3.108	0.499
208.000	183.241	80.009	19.993	104.454	20.018	3.033	0.517
216.000	187.327	80.009	19.994	104.454	20.017	3.186	0.506
224.000	191.365	80.009	19.994	104.439	20.013	3.487	0.515
232.000	195.310	80.011	19.992	104.431	20.010	3.681	0.476
240.000	199.320	80.012	19.993	104.430	20.015	3.279	0.510
248.000	203.326	80.009	19.993	104.416	20.014	3.368	0.512
256.001	207.299	80.009	19.994	104.420	20.009	3.759	0.481
264.000	211.302	80.011	19.992	104.416	20.012	3.541	0.472
272.000	215.265	80.011	19.993	104.410	20.012	3.523	0.495
280.000	219.191	80.008	19.994	104.414	20.006	3.991	0.520
288.000	223.138	80.010	19.994	104.416	20.011	3.652	0.496
296.000	227.129	80.010	19.993	104.418	20.011	3.659	0.482
304.001	231.155	80.010	19.993	104.419	20.009	3.785	0.478
312.000	235.180	80.011	19.996	104.413	20.008	3.903	0.492
320.000	239.098	80.011	19.994	104.410	20.007	3.923	0.454
328.000	243.041	80.008	19.992	104.413	20.006	4.041	0.482
336.000	247.034	80.009	19.992	104.416	20.010	3.740	0.498
344.000	251.031	80.008	19.992	104.414	20.006	4.060	0.492
352.000	255.015	80.008	19.992	104.417	20.000	4.466	0.498
360.001	259.030	80.009	19.993	104.412	20.002	4.333	0.527
368.000	262.973	80.011	19.993	104.418	19.998	4.667	0.503
376.000	266.904	80.009	19.993	104.414	19.995	4.916	0.509
384.000	270.902	80.011	19.992	104.408	19.991	5.254	0.481
392.000	274.888	80.011	19.993	104.412	19.985	5.726	0.485
400.000	278.846	80.013	19.993	104.412	19.974	6.560	0.437
408.000	282.846	80.009	19.995	104.415	19.967	7.139	0.482
416.000	286.843	80.007	19.993	104.417	19.956	7.986	0.503
424.000	290.910	80.008	19.993	104.421	19.947	8.731	0.500
432.000	294.979	80.009	19.992	104.419	19.933	9.847	0.505
440.000	298.987	80.010	19.994	104.415	19.920	10.883	0.500
448.000	303.011	80.009	19.993	104.434	19.900	12.469	0.541
456.000	307.042	80.011	19.992	104.443	19.882	13.946	0.496
464.000	311.109	80.011	19.993	104.453	19.856	15.990	0.513
472.000	315.259	80.010	19.993	104.473	19.827	18.309	0.540
480.000	319.200	80.010	19.993	104.486	19.787	21.514	0.485
488.000	323.298	80.011	19.994	104.505	19.732	25.862	0.534
496.000	327.378	80.008	19.993	104.535	19.671	30.737	0.500
504.000	331.336	80.008	19.994	104.571	19.593	36.959	0.438
512.000	335.435	80.010	19.994	104.602	19.491	45.131	0.467
520.000	339.455	80.008	19.993	104.662	19.367	55.126	0.508
528.000	343.457	80.010	19.994	104.727	19.205	68.128	0.470
536.000	347.431	80.011	19.993	104.801	19.019	83.031	0.482
544.000	351.391	80.010	19.993	104.879	18.802	100.471	0.492
552.000	355.415	80.009	19.993	104.974	18.559	119.990	0.496
560.000	359.413	80.013	19.994	105.039	18.331	138.281	0.506
568.000	363.392	80.012	19.994	105.074	18.149	152.860	0.512
576.000	367.356	80.008	19.994	105.051	18.052	160.431	0.486
584.000	371.431	80.009	19.995	104.967	18.113	155.239	0.501
592.000	375.723	80.009	19.993	104.787	18.395	132.518	0.538
600.000	380.067	80.009	19.995	104.588	18.857	95.561	0.553
608.000	384.487	80.007	19.994	104.465	19.341	56.931	0.530
616.000	388.963	80.010	19.993	104.377	19.691	29.059	0.564
624.000	393.320	80.010	19.991	104.350	19.889	13.352	0.543
632.000	397.628	80.010	19.994	104.338	19.980	6.119	0.501
640.000	401.804	80.010	19.992	104.343	19.999	4.561	0.521
648.000	405.904	80.013	19.993	104.342	20.007	3.924	0.484
656.000	409.929	80.010	19.992	104.338	20.007	3.946	0.494
664.000	413.867	80.009	19.994	104.339	20.017	3.152	0.452
672.000	417.742	80.011	19.995	104.346	20.018	3.030	0.471
680.000	421.644	80.010	19.993	104.346	20.013	3.453	0.461
688.000	425.512	80.008	19.995	104.343	20.022	2.786	0.485
696.000	429.413	80.010	19.995	104.348	20.015	3.283	0.493
704.000	433.349	80.012	19.994	104.351	20.026	2.435	0.469
712.000	437.329	80.009	19.993	104.342	20.025	2.500	0.514
720.000	441.302	80.010	19.993	104.341	20.023	2.637	0.472
728.000	445.285	80.012	19.993	104.346	20.026	2.435	0.490
736.000	449.375	80.009	19.993	104.354	20.024	2.605	0.525
744.000	453.465	80.008	19.993	104.344	20.023	2.696	0.537
752.000	457.538	80.009	19.994	104.352	20.026	2.426	0.474
760.000	461.647	80.010	19.993	104.340	20.029	2.160	0.515
768.000	465.720	80.008	19.993	104.341	20.027	2.360	0.514
776.000	469.803	80.009	19.994	104.342	20.027	2.382	0.508
784.000	473.903	80.011	19.994	104.337	20.028	2.279	0.522
792.000	478.050	80.010	19.995	104.335	20.029	2.186	0.551
800.001	482.095	80.010	19.994	104.338	20.030	2.088	0.526
808.000	486.168	80.013	19.993	104.339	20.032	1.950	0.488
816.000	490.215	80.009	19.994	104.340	20.030	2.131	0.492
824.000	494.336	80.011	19.994	104.350	20.027	2.376	0.509
832.000	498.517	80.009	19.994	104.337	20.025	2.522	0.510
840.000	502.762	80.011	19.992	104.341	20.031	2.057	0.534
848.000	507.036	80.010	19.994	104.339	20.027	2.334	0.541
856.000	511.333	80.010	19.995	104.340	20.028	2.269	0.569
864.000	515.574	80.012	19.994	104.338	20.028	2.304	0.540
872.000	519.818	80.011	19.994	104.339	20.026	2.467	0.542
880.000	523.977	80.009	19.994	104.342	20.027	2.341	0.505
888.000	528.067	80.011	19.993	104.335	20.030	2.087	0.475
896.000	532.238	80.013	19.994	104.334	20.030	2.077	0.495
904.000	536.323	80.009	19.994	104.336	20.031	2.037	0.492
912.000	540.400	80.009	19.992	104.333	20.027	2.371	0.478
920.000	544.512	80.010	19.994	104.338	20.030	2.116	0.513
928.001	548.657	80.010	19.993	104.334	20.029	2.223	0.536
936.000	552.756	80.009	19.993	104.341	20.036	1.634	0.491
944.001	556.998	80.009	19.993	104.341	20.035	1.712	0.518
952.000	561.185	80.009	19.993	104.337	20.033	1.880	0.486
960.000	565.305	80.011	19.993	104.334	20.034	1.771	0.514
968.000	569.408	80.012	19.994	104.335	20.033	1.863	0.521
976.000	573.478	80.010	19.995	104.328	20.036	1.636	0.524
984.000	577.504	80.009	19.994	104.333	20.032	1.939	0.484
992.001	581.542	80.008	19.993	104.335	20.032	1.926	0.507
1000.000	585.483	80.010	19.993	104.336	20.028	2.256	0.485
1008.000	589.518	80.009	19.993	104.340	20.030	2.079	0.515
1016.000	593.550	80.009	19.994	104.323	20.033	1.885	0.505
1024.000	597.689	80.012	19.994	104.338	20.031	2.070	0.510
1032.000	601.691	80.014	19.992	104.337	20.032	1.939	0.521
1040.001	605.773	80.012	19.993	104.335	20.037	1.562	0.527
1048.000	609.865	80.013	19.995	104.333	20.037	1.555	0.487
1056.000	613.912	80.013	19.993	104.328	20.037	1.544	0.506
1064.000	617.925	80.011	19.993	104.330	20.038	1.499	0.476
1072.000	621.948	80.010	19.995	104.333	20.036	1.599	0.497
1080.000	625.978	80.011	19.994	104.330	20.036	1.621	0.495
1088.000	630.066	80.011	19.993	104.329	20.038	1.514	0.485
1096.000	634.110	80.009	19.993	104.336	20.036	1.673	0.500
1104.000	638.234	80.009	19.994	104.336	20.035	1.701	0.505
1112.001	642.286	80.011	19.992	104.310	20.033	1.852	0.519
1120.000	646.286	80.012	19.993	104.332	20.032	1.937	0.509
1128.001	650.383	80.011	19.994	104.324	20.034	1.773	0.549
1136.000	654.403	80.012	19.993	104.337	20.035	1.747	0.494
1144.000	658.468	80.011	19.993	104.337	20.032	1.961	0.490
1152.000	662.500	80.008	19.993	104.336	20.034	1.830	0.530
1160.000	666.525	80.009	19.994	104.336	20.032	1.924	0.489
1168.000	670.551	80.010	19.995	104.334	20.034	1.773	0.494
1176.000	674.661	80.010	19.994	104.330	20.033	1.872	0.501
1184.000	678.730	80.009	19.994	104.336	20.031	2.022	0.495
1192.000	682.735	80.013	19.993	104.328	20.029	2.164	0.506
1200.000	686.815	80.011	19.993	104.332	20.028	2.251	0.522
1208.000	690.880	80.012	19.993	104.335	20.032	1.980	0.532
1216.000	694.852	80.013	19.993	104.334	20.028	2.253	0.506
1224.000	698.878	80.013	19.993	104.329	20.028	2.281	0.498
1232.001	702.872	80.010	19.994	104.323	20.033	1.884	0.537
1240.000	706.875	80.010	19.993	104.316	20.031	2.026	0.517
1248.001	710.918	80.011	19.994	104.337	20.034	1.799	0.487
1256.000	714.997	80.011	19.993	104.310	20.028	2.246	0.517
1264.001	719.142	80.007	19.995	104.323	20.028	2.273	0.516
1272.000	723.177	80.011	19.993	104.318	20.030	2.107	0.485
1280.000	727.277	80.012	19.993	104.316	20.028	2.306	0.500
1288.000	731.428	80.011	19.993	104.309	20.026	2.449	0.533
1296.001	735.535	80.012	19.993	104.310	20.024	2.567	0.505
1304.000	739.735	80.011	19.993	104.330	20.027	2.366	0.535
1311.000	743.437	80.010	19.993	104.333	20.022	2.724	0.552