File: 01_Data/Rubber_Foam_Pipe_Insulation/Cone/Rubber_Foam_Pipe_Insulation_Cone_HF25Scalar_220307_R3.csv
LABORATORY,FSRI
TEST IDENT,RFPI_HF25_3
OPERATOR,Dow
MATERIAL,Rubber Foam Pipe Insulation
ORIENTATION,Horizontal
HEAT FLUX,25
SURF AREA,0.01
C FACTOR,0.0370678
SPEC HOLDER DIFF,-91.3
SPECIMEN MASS,6.7
SCAN TIME,0.25
O2 DELAY TIME,11
CO DELAY TIME,11
CO2 DELAY TIME,8
FLOW FACTOR,1
SCAN COUNT,729
TIME TO IGN,4.75
END OF TEST SCAN,249
END OF TEST TIME,62.25
TEST STATUS,1
PRE TEST CMT,Dimensions: 100 x 99.5 x 13 mm
POST TEST CMT,"Sample warped after ignition, elevating surface height. Sample shriveled horizontally, reducing surface area. "