File: 01_Data/Rubber_Foam_Pipe_Insulation/Cone/Rubber_Foam_Pipe_Insulation_Cone_HF25Scalar_220307_R1.csv
LABORATORY,FSRI
TEST IDENT,RFPI_HF25_1
OPERATOR,Dow
MATERIAL,Rubber Foam Pipe Insulation
ORIENTATION,Horizontal
HEAT FLUX,25
SURF AREA,0.01
C FACTOR,0.0370678
SPEC HOLDER DIFF,306.07
SPECIMEN MASS,6.7
SCAN TIME,0.25
O2 DELAY TIME,11
CO DELAY TIME,11
CO2 DELAY TIME,8
FLOW FACTOR,1
SCAN COUNT,705
TIME TO IGN,1.5
END OF TEST SCAN,225
END OF TEST TIME,56.25
TEST STATUS,1
PRE TEST CMT,Dimensions: 100.5 x 102.0 x 12.0 mm
POST TEST CMT,"Sample warped immediately after ignition, elevating surface height. Sample shriveled horizontally, reducing surface area. See test pictures. "