File: 01_Data/Rubber_Foam_Pipe_Insulation/Cone/Rubber_Foam_Pipe_Insulation_Cone_HF75Scan_220307_R2.csv
Names,Time,Stack TC,Smoke TC,Exh Press,Smoke Comp,Smoke Meas,CO Meter,CO2 Meter,O2 Meter,Sample Mass,Ext Coeff,Start Test,Flame Verif
Chan Gain,,500,500,1,1,1,1,1,1,1,1,1.0,1.0
Offset,,0,0,0.13378,0,0,0,0,0,0,0,0.0,0.0
Gain,,1,1,25.011,14.4955,14.6297,1,1,1,1.00092,1.00831,1.0,1.0
Units,sec,C,C,Pa,%,%,%,%,%,g,/m,,
Baseline,,42.8029,44.5946,163.316,109.422,101.375,-0.00218803,0.038269,21.0621,-947.276,0.675652,,
7,1.5,40.4118,42.1714,134.76,110.359,56.6074,0.00882874,0.193754,20.8371,-465.286,5.90481,0.0,1.0
14,3.25,42.4526,43.2315,146.656,110.367,61.7413,0.0136651,0.320147,20.6465,-465.596,5.13761,0.0,1.0
21,5,44.0649,45.2807,144.186,110.394,68.9668,0.0162751,0.367915,20.5553,-465.896,4.16085,0.0,1.0
28,6.75,44.3961,46.0124,145.442,110.4,70.8415,0.0169851,0.381581,20.5205,-466.146,3.92413,0.0,0.0
35,8.5,46.6457,48.5915,147.461,110.398,73.2627,0.0169034,0.376756,20.5264,-466.387,3.62675,0.0,0.0
42,10.25,47.4297,48.8073,141.941,110.43,73.0372,0.0164633,0.369,20.5411,-466.627,3.65653,0.0,0.0
49,12,48.8423,50.7158,144.065,110.448,74.0324,0.0159194,0.364917,20.5494,-466.837,3.53832,0.0,0.0
56,13.75,49.5448,51.7036,148.595,110.456,76.6362,0.014951,0.361263,20.5572,-467.087,3.23322,0.0,0.0
63,15.5,50.442,52.9346,148.021,110.452,74.1949,0.014211,0.355397,20.5678,-467.308,3.51924,0.0,0.0
70,17.25,51.1525,53.9753,143.823,110.466,75.291,0.013572,0.349616,20.5772,-467.498,3.39067,0.0,0.0
77,19,52.048,54.8671,145.302,110.482,73.4163,0.01324,0.343896,20.5827,-467.698,3.61496,0.0,0.0
84,20.75,53.018,55.2297,150.252,110.492,72.1684,0.0129293,0.339277,20.5886,-467.898,3.76733,0.0,0.0
91,22.5,53.6736,55.7609,145.972,110.506,73.6176,0.0123208,0.332324,20.5996,-468.038,3.59261,0.0,0.0
98,24.25,54.399,56.9097,153.089,110.536,78.3108,0.0112492,0.320177,20.622,-468.248,3.04843,0.0,0.0
105,26,54.8544,57.313,153.884,110.537,77.8193,0.00995465,0.307818,20.6422,-468.369,3.1042,0.0,0.0
112,27.75,55.1605,58.0455,148.468,110.549,82.8723,0.00852504,0.293184,20.6628,-468.499,2.54871,0.0,0.0
119,29.5,55.2661,58.21,147.763,110.557,87.6526,0.00711604,0.277222,20.6951,-468.549,2.05336,0.0,0.0
126,31.25,56.1276,58.5964,152.837,110.563,93.52,0.00570147,0.25516,20.7318,-468.659,1.48073,0.0,0.0
133,33,55.9089,59.0417,151.838,110.573,97.2904,0.00435705,0.232814,20.7714,-468.709,1.13188,0.0,0.0
140,34.75,55.358,58.9563,159.41,110.591,100.755,0.00335379,0.207805,20.8075,-468.739,0.823844,0.0,0.0
147,36.5,55.9324,59.2594,157.962,110.593,101.322,0.00276841,0.185734,20.8463,-468.799,0.774382,0.0,0.0
154,38.25,55.6654,58.7616,156.401,110.592,101.76,0.0026082,0.165354,20.8857,-468.819,0.736129,0.0,0.0
161,40,55.0306,59.0929,160.115,110.609,102.09,0.0027644,0.146418,20.9192,-468.849,0.708873,0.0,0.0
168,41.75,55.2716,58.2347,160.385,110.622,102.187,0.00316364,0.131649,20.9427,-468.859,0.701549,0.0,0.0
175,43.5,54.1244,57.4574,162.53,110.616,101.967,0.00353726,0.121019,20.958,-468.909,0.720126,0.0,0.0
182,45.25,53.6939,57.1986,158.977,110.604,102.455,0.00389279,0.112956,20.9705,-468.929,0.676903,0.0,0.0
189,47,53.3016,56.6306,160.542,110.596,101.999,0.00421955,0.107707,20.9771,-468.939,0.715781,0.0,0.0
196,48.75,53.1159,56.6334,159.355,110.604,102.523,0.00449743,0.10459,20.9814,-468.969,0.671082,0.0,0.0
203,50.5,52.7228,56.1604,156.566,110.608,102.142,0.0045528,0.102634,20.9833,-469.009,0.704282,0.0,0.0
210,52.25,52.6592,56.1441,161.012,110.596,102.409,0.00438288,0.100358,20.9863,-469.019,0.680241,0.0,0.0
217,54,52.1511,56.0638,156.792,110.593,102.612,0.00409245,0.0986644,20.9883,-469.029,0.662502,0.0,0.0
224,55.75,51.7021,55.3786,159.694,110.587,102.22,0.00375851,0.0967385,20.9887,-469.059,0.69582,0.0,0.0
231,57.5,51.8268,55.1421,162.016,110.588,102.541,0.0034681,0.0953025,20.9892,-469.049,0.668159,0.0,0.0
238,59.25,51.9167,54.8383,158.138,110.575,102.405,0.00322454,0.0936725,20.9907,-469.069,0.678922,0.0,0.0
245,61,51.6157,54.5068,158.487,110.55,102.41,0.0030418,0.0918971,20.9927,-469.059,0.676554,0.0,0.0
252,62.75,51.6523,54.5009,161.044,110.541,102.4,0.00297877,0.090328,20.9947,-469.119,0.67666,0.0,0.0
259,64.5,51.2236,54.2352,161.895,110.531,102.19,0.00301812,0.0890446,20.9966,-469.119,0.694024,0.0,0.0
266,66.25,51.0397,54.1147,158.494,110.527,102.122,0.00305467,0.0879214,20.9989,-469.139,0.699472,0.0,0.0
273,68,50.9466,54.1649,158.054,110.498,102.374,0.0030615,0.0866935,21.0008,-469.129,0.675463,0.0,0.0
280,69.75,50.7186,54.1688,163.511,110.475,102.56,0.00305689,0.0856116,21.0017,-469.169,0.657554,0.0,0.0
287,71.5,50.1286,53.8938,164.245,110.459,102.695,0.00302712,0.0849341,21.0021,-469.159,0.644655,0.0,0.0
294,73.25,50.5028,53.9139,161.762,110.448,101.847,0.0029752,0.0839303,21.0031,-469.189,0.717098,0.0,0.0
301,75,50.1057,53.2253,158.326,110.431,102.269,0.00291528,0.0829744,21.004,-469.179,0.679148,0.0,0.0
308,76.75,49.9882,53.2573,165.104,110.405,102.222,0.00288634,0.0821078,21.0057,-469.229,0.68111,0.0,0.0
315,78.5,49.9516,53.1116,160.431,110.389,102.327,0.00287272,0.0814457,21.0065,-469.239,0.670799,0.0,0.0
322,80.25,49.2981,52.6091,159.206,110.372,102.258,0.00279015,0.0808758,21.0075,-469.249,0.675326,0.0,0.0
329,82,49.19,52.468,159.873,110.355,102.54,0.00262962,0.0800055,21.0074,-469.259,0.649642,0.0,0.0
336,83.75,48.8429,52.4341,161.018,110.323,102.422,0.00242789,0.0794612,21.0082,-469.279,0.657226,0.0,0.0
343,85.5,48.771,52.2974,163.964,110.3,102.106,0.00229096,0.0792754,21.0089,-469.299,0.682795,0.0,0.0
350,87.25,49.5122,52.8082,160.294,110.278,102.614,0.00218987,0.0791207,21.0095,-469.309,0.637045,0.0,0.0
357,89,48.4009,51.735,166.58,110.266,101.779,0.00202213,0.0789829,21.0108,-469.309,0.708347,0.0,0.0
364,90.75,48.7517,52.1203,157.986,110.233,102.041,0.00187328,0.0784039,21.0123,-469.319,0.68305,0.0,0.0
371,92.5,48.7723,52.3786,159.701,110.212,102.215,0.00183918,0.0777966,21.0133,-469.319,0.66623,0.0,0.0
378,94.25,47.9327,51.2188,162.088,110.173,101.678,0.00182495,0.0771676,21.0145,-469.319,0.709703,0.0,0.0
385,96,48.4571,51.441,161.174,110.165,102.512,0.00171701,0.076685,21.0156,-469.319,0.636813,0.0,0.0
392,97.75,48.3659,51.8566,160.083,110.137,101.438,0.001434,0.0761002,21.0161,-469.349,0.727742,0.0,0.0
399,99.5,47.9043,51.2204,159.953,110.109,101.956,0.00121415,0.0758321,21.0164,-469.379,0.680387,0.0,0.0
406,101.25,48.4927,51.6821,161.151,110.101,102.147,0.00110494,0.0756258,21.0165,-469.389,0.663222,0.0,0.0
413,103,48.2844,50.7444,163.034,110.069,101.729,0.00114799,0.0752445,21.0164,-469.399,0.696927,0.0,0.0
420,104.75,48.0634,51.3291,161.363,110.078,102.102,0.00122616,0.0747562,21.0163,-469.399,0.665243,0.0,0.0
427,106.5,48.2764,50.574,150.582,110.057,102.347,0.00119373,0.0741595,21.0163,-469.399,0.642404,0.0,0.0
434,108.25,47.026,50.2275,157.108,110.049,101.588,0.00101341,0.0734661,21.0165,-469.389,0.70756,0.0,0.0
441,110,47.7791,50.5044,163.977,110.035,101.66,0.000782492,0.0726823,21.0182,-469.389,0.700203,0.0,0.0
448,111.75,47.9585,50.6171,164.25,110.032,101.865,0.000588611,0.0716697,21.0197,-469.399,0.682142,0.0,0.0
455,113.5,47.9091,51.2269,164.786,110.005,102.027,0.000460751,0.0705884,21.0216,-469.419,0.665915,0.0,0.0
462,115.25,47.8216,51.0135,161.382,109.982,101.91,0.000350605,0.0695929,21.0224,-469.419,0.674177,0.0,0.0
469,117,47.8447,50.1399,160.405,109.966,101.939,0.000225533,0.0685103,21.0237,-469.43,0.67041,0.0,0.0
476,118.75,47.2816,50.3772,159.795,109.951,101.883,0.000126577,0.0669071,21.0257,-469.43,0.674082,0.0,0.0
483,120.5,47.6327,49.9711,163.75,109.944,102.181,1.03549e-05,0.0654374,21.0277,-469.43,0.647659,0.0,0.0
490,122.25,47.5144,50.113,159.669,109.928,101.798,-0.000134034,0.0637321,21.0302,-469.449,0.679602,0.0,0.0
497,124,47.1852,50.1732,157.749,109.918,101.765,-0.000230858,0.0622548,21.0324,-469.47,0.681652,0.0,0.0
504,125.75,47.4394,50.025,162.801,109.911,101.474,-0.000284945,0.060876,21.0331,-469.47,0.706418,0.0,0.0
511,127.5,47.1902,50.0141,158.22,109.918,101.187,-0.00037633,0.0598217,21.0351,-469.46,0.732045,0.0,0.0
518,129.25,47.3271,50.0401,159.817,109.943,101.315,-0.000516882,0.0585562,21.0365,-469.46,0.72281,0.0,0.0
525,131,46.8302,49.8766,158.143,109.976,101.764,-0.000691494,0.0573243,21.0372,-469.449,0.686394,0.0,0.0
532,132.75,47.2563,49.65,161.218,110.026,101.18,-0.000901362,0.0559432,21.038,-469.48,0.741354,0.0,0.0
539,134.5,46.9057,49.8471,160.864,110.047,101.463,-0.00107715,0.0548063,21.0391,-469.48,0.718277,0.0,0.0
546,136.25,47.2987,49.2815,156.41,110.097,102.038,-0.0011985,0.0536711,21.0396,-469.5,0.672417,0.0,0.0
553,138,46.223,49.6419,159.797,110.132,102.175,-0.00126669,0.0525789,21.0409,-469.51,0.663313,0.0,0.0
560,139.75,46.9728,49.6671,156.627,110.158,101.853,-0.00124501,0.0515683,21.043,-469.5,0.693246,0.0,0.0
567,141.5,46.528,49.3931,162.502,110.2,101.551,-0.00122043,0.0504056,21.0449,-469.48,0.722938,0.0,0.0
574,143.25,46.5902,49.2688,164.875,110.254,101.971,-0.00124255,0.0494426,21.0461,-469.5,0.690793,0.0,0.0
581,145,46.5859,49.25,165.864,110.299,102.564,-0.00127888,0.0486455,21.0469,-469.48,0.643098,0.0,0.0
588,146.75,46.4711,49.0835,159.848,110.331,102.421,-0.00131712,0.0479929,21.0483,-469.48,0.658016,0.0,0.0
595,148.5,46.8888,49.5496,161.636,110.368,102.533,-0.00140649,0.0473635,21.0501,-469.5,0.651289,0.0,0.0
602,150.25,46.4931,49.5051,160.918,110.399,102.498,-0.00155203,0.0467429,21.0511,-469.48,0.656772,0.0,0.0
609,152,46.533,49.0284,162.708,110.43,102.288,,0.0461589,,-469.51,0.67742,0.0,0.0
616,153.75,46.3154,49.2095,160.041,110.455,102.333,,0.045472,,-469.51,0.675538,0.0,0.0
623,155.5,45.8477,48.8227,162.698,110.503,102.202,,,,-469.52,0.690641,0.0,0.0
630,157.25,46.4195,48.8472,158.909,110.536,102.32,,,,-469.52,0.683175,0.0,0.0
637,159,46.178,49.2321,167.356,110.576,102.35,,,,-469.51,0.683701,0.0,0.0
644,160.75,45.9506,48.8774,162.802,110.594,102.538,,,,-469.52,0.668963,0.0,0.0
648,161.75,46.0291,49.077,162.238,110.613,102.938,,,,-469.52,0.636045,0.0,0.0