File: 01_Data/Rubber_Foam_Pipe_Insulation/Cone/Rubber_Foam_Pipe_Insulation_Cone_HF75Scan_220307_R1.csv
Names,Time,Stack TC,Smoke TC,Exh Press,Smoke Comp,Smoke Meas,CO Meter,CO2 Meter,O2 Meter,Sample Mass,Ext Coeff,Start Test,Flame Verif
Chan Gain,,500,500,1,1,1,1,1,1,1,1,1.0,1.0
Offset,,0,0,0.13378,0,0,0,0,0,0,0,0.0,0.0
Gain,,1,1,25.011,14.4955,14.6297,1,1,1,1.00092,1.00831,1.0,1.0
Units,sec,C,C,Pa,%,%,%,%,%,g,/m,,
Baseline,,41.0222,42.8981,162.874,110.263,102.204,-0.00162427,0.0387075,21.058,-947.019,0.67133,,
7,1.5,39.557,41.0766,139.608,110.84,60.8412,0.0125272,0.232487,20.7275,-457.689,5.30531,0.0,1.0
14,3.25,41.4573,41.6894,146.981,110.829,66.8796,0.0165808,0.335,20.5929,-458.079,4.46747,0.0,1.0
21,5,43.6886,44.1193,138.755,110.827,69.0722,0.0191065,0.388907,20.5109,-458.61,4.18202,0.0,0.0
28,6.75,44.7783,46.598,141.741,110.829,73.1225,0.0198883,0.410721,20.4725,-458.7,3.67814,0.0,1.0
35,8.5,46.6219,48.497,146.794,110.807,73.8525,0.0198893,0.419071,20.4558,-458.97,3.58856,0.0,1.0
42,10.25,47.5401,49.5531,145.909,110.811,70.8563,0.0199563,0.423357,20.4515,-459.27,3.95516,0.0,1.0
49,12,48.4948,50.5694,142.717,110.798,69.3102,0.0204353,0.434768,20.4376,-459.6,4.14927,0.0,0.0
56,13.75,49.7347,51.7026,140.37,110.788,59.1889,0.0211161,0.453052,20.4083,-459.931,5.54472,0.0,0.0
63,15.5,50.8329,53.344,143.43,110.773,57.7727,0.0214931,0.462598,20.3927,-460.231,5.75768,0.0,0.0
70,17.25,51.7782,54.2215,142.363,110.753,61.1868,0.0208286,0.457881,20.4001,-460.471,5.2483,0.0,0.0
77,19,53.042,55.1565,146.78,110.731,68.19,0.0191486,0.435808,20.4443,-460.702,4.28801,0.0,0.0
84,20.75,54.1087,56.8079,153.668,110.699,71.8724,0.0169483,0.406223,20.4985,-460.902,3.82024,0.0,0.0
91,22.5,54.1127,57.1803,148.416,110.686,79.1145,0.0139872,0.376366,20.5467,-461.052,2.97008,0.0,0.0
98,24.25,55.5153,57.985,156.303,110.642,89.5822,0.0109592,0.341948,20.6106,-461.152,1.86748,0.0,0.0
105,26,54.8098,58.1868,153.131,110.604,95.701,0.00811384,0.303065,20.685,-461.222,1.28012,0.0,0.0
112,27.75,55.2968,58.4504,152.403,110.576,100.402,0.00617588,0.264459,20.7466,-461.252,0.853768,0.0,0.0
119,29.5,55.2931,58.5561,156.388,110.544,102.186,0.00513072,0.22902,20.8013,-461.292,0.69536,0.0,0.0
126,31.25,54.6672,58.063,160.448,110.498,102.089,0.00484853,0.197056,20.8507,-461.322,0.700071,0.0,0.0
133,33,54.2471,58.0357,158.885,110.467,102.181,0.00507275,0.169448,20.8893,-461.362,0.689666,0.0,0.0
140,34.75,54.0868,57.2776,164.467,110.423,102.685,0.00544608,0.150696,20.9161,-461.372,0.642632,0.0,0.0
147,36.5,53.8105,57.0738,158.47,110.365,102.472,0.00571511,0.136534,20.9351,-461.382,0.65639,0.0,0.0
154,38.25,53.2156,56.6387,163.075,110.294,102.04,0.0057313,0.12683,20.9474,-461.402,0.68795,0.0,0.0
161,40,52.4757,56.4228,158.658,110.303,102.135,0.0055827,0.11959,20.957,-461.442,0.680533,0.0,0.0
168,41.75,52.8439,55.8361,158.181,110.317,101.89,0.00541942,0.114102,20.9629,-461.462,0.702841,0.0,0.0
175,43.5,52.5775,55.8221,163.617,110.342,102.603,0.00522394,0.110234,20.9679,-461.482,0.643149,0.0,0.0
182,45.25,51.7033,55.549,161.65,110.375,101.985,0.00506823,0.106277,20.9727,-461.512,0.699236,0.0,0.0
189,47,52.0833,55.3478,157.413,110.409,102.264,0.00499277,0.103141,20.9773,-461.512,0.67784,0.0,0.0
196,48.75,51.6827,55.1987,158.366,110.429,102.256,0.00495111,0.100899,20.9803,-461.552,0.680052,0.0,0.0
203,50.5,51.7053,55.0609,162.696,110.456,102.082,0.00485677,0.0987708,20.983,-461.542,0.697361,0.0,0.0
210,52.25,50.9178,54.5352,161.225,110.489,102.131,0.00464229,0.096119,20.987,-461.572,0.695728,0.0,0.0
217,54,50.5917,54.3926,159.042,110.519,102.195,0.0044539,0.0942376,20.9897,-461.602,0.692569,0.0,0.0
224,55.75,50.6785,54.2126,159.694,110.553,102.21,0.00435223,0.0930403,20.9908,-461.592,0.69402,0.0,0.0
231,57.5,50.6237,53.9931,164.439,110.584,102.411,0.00431702,0.0918111,20.9922,-461.632,0.679054,0.0,0.0
238,59.25,49.9958,53.54,156.203,110.62,102.514,0.00431398,0.0901036,20.993,-461.672,0.673088,0.0,0.0
245,61,50.7218,53.6604,165.913,110.664,103.081,0.00425835,0.0886603,20.995,-461.682,0.62788,0.0,0.0
252,62.75,49.4632,53.2751,162.007,110.707,102.442,0.00415428,0.087459,20.9969,-461.712,0.68626,0.0,0.0
259,64.5,49.7005,53.5231,154.76,110.718,102.555,0.0038955,0.0861381,20.9987,-461.692,0.677361,0.0,0.0
266,66.25,48.9461,52.0167,157.812,110.754,102.223,0.00367152,0.0849852,20.9999,-461.712,0.708949,0.0,0.0
273,68,49.9102,53.0299,160.631,110.791,102.354,0.00349505,0.0841113,21.0016,-461.722,0.70057,0.0,0.0
280,69.75,49.2385,52.4613,162.435,110.826,102.599,0.00333887,0.0836853,21.0023,-461.732,0.682169,0.0,0.0
287,71.5,49.0022,52.6577,158.126,110.855,102.635,0.00320968,0.0833269,21.0023,-461.742,0.681381,0.0,0.0
294,73.25,48.6653,52.5356,159.579,110.887,102.96,0.00308749,0.0828326,21.0032,-461.752,0.656034,0.0,0.0
301,75,48.6426,52.0791,158.835,110.909,102.307,0.0029449,0.0820789,21.004,-461.782,0.714049,0.0,0.0
308,76.75,48.5866,51.9526,153.189,110.946,103.246,0.00275912,0.081049,21.0052,-461.772,0.636172,0.0,0.0
315,78.5,48.3983,52.0286,158.172,110.983,103.275,0.0025603,0.0803363,21.0062,-461.782,0.636686,0.0,0.0
322,80.25,48.9955,52.2603,160.238,111.002,102.568,0.00237448,0.0798919,21.0092,-461.813,0.698942,0.0,0.0
329,82,48.5593,51.7598,162.85,111.034,102.7,0.00221862,0.0795654,21.0109,-461.813,0.690088,0.0,0.0
336,83.75,48.6257,51.5354,160.121,111.055,102.685,0.00205329,0.079161,21.0118,-461.823,0.693013,0.0,0.0
343,85.5,47.8309,51.5927,160.235,111.082,102.916,0.00186809,0.0789099,21.0122,-461.823,0.675337,0.0,0.0
350,87.25,47.9568,51.3273,158.429,111.095,102.844,0.00172087,0.078617,21.0124,-461.803,0.682538,0.0,0.0
357,89,48.5504,51.14,162.117,111.104,103.207,0.00159297,0.0778608,21.0141,-461.803,0.652081,0.0,0.0
364,90.75,48.0694,50.7497,163.989,111.134,102.312,0.00151652,0.0770104,21.0157,-461.833,0.731524,0.0,0.0
371,92.5,47.9466,51.3451,162.139,111.153,102.351,0.00147617,0.0763261,21.0165,-461.883,0.729643,0.0,0.0
378,94.25,47.9147,50.486,160.925,111.153,102.927,0.00139426,0.0759419,21.0171,-461.843,0.680086,0.0,0.0
385,96,46.907,50.5859,162.38,111.159,102.438,0.00117205,0.0756279,21.0184,-461.873,0.722618,0.0,0.0
392,97.75,47.5291,50.5061,158.733,111.172,102.965,0.000876841,0.0749552,21.0193,-461.923,0.678339,0.0,0.0
399,99.5,47.4446,50.8398,152.845,111.194,103.449,0.000631926,0.0740468,21.0207,-461.903,0.638587,0.0,0.0
406,101.25,46.1268,49.9624,160.58,111.198,102.768,0.000526921,0.0727212,21.0213,-461.923,0.69727,0.0,0.0
413,103,47.2061,50.1849,160.937,111.192,102.955,0.000504824,0.0713979,21.0214,-461.823,0.680769,0.0,0.0
420,104.75,46.7729,50.4796,162.871,111.2,103.073,0.000392394,0.0701248,21.0222,-461.843,0.671318,0.0,0.0
427,106.5,46.9669,50.0379,158.17,111.218,103.01,0.000129299,0.0684176,21.0241,-461.953,0.678163,0.0,0.0
434,108.25,46.727,49.7806,159.593,111.23,103.268,-0.0001923,0.0667071,21.0268,-461.933,0.65691,0.0,0.0
441,110,46.7497,49.8431,161.175,111.215,102.971,-0.000431654,0.0640657,21.0309,-461.953,0.681179,0.0,0.0
448,111.75,46.6347,49.9193,162.573,111.224,102.792,-0.000575243,0.0613941,21.0343,-461.933,0.697348,0.0,0.0
455,113.5,46.4345,49.8583,163.007,111.24,102.914,-0.000657496,0.0589459,21.0368,-461.943,0.68813,0.0,0.0
462,115.25,46.5782,49.5968,158.432,111.237,102.776,-0.000764514,0.0561073,21.0402,-461.923,0.699748,0.0,0.0
469,117,46.5809,49.4592,161.608,111.228,103.194,-0.000898814,0.0532004,21.0437,-461.953,0.663157,0.0,0.0
476,118.75,46.2447,48.9845,162.499,111.23,103.26,-0.00115966,0.0505537,21.0471,-461.953,0.657598,0.0,0.0
483,120.5,46.5187,49.5363,157.443,111.241,102.747,-0.00138607,0.0483797,21.0499,-461.933,0.702527,0.0,0.0
490,122.25,46.4643,49.1538,161.364,111.237,102.759,-0.00152935,0.0464964,21.052,-461.943,0.701208,0.0,0.0
497,124,45.9113,49.501,161.08,111.233,102.958,-0.00167212,0.0451654,21.0549,-461.963,0.683772,0.0,0.0
504,125.75,46.137,49.3222,163.437,111.225,102.793,-0.0017857,0.0437677,21.0567,-461.973,0.697264,0.0,0.0
511,127.5,46.3085,48.8194,164.323,111.216,102.95,-0.00181475,0.0426448,21.0578,-461.963,0.683087,0.0,0.0
518,129.25,45.7986,49.1324,159.94,111.218,102.94,-0.00172872,0.0418266,21.0594,-461.963,0.68411,0.0,0.0
525,131,45.8826,49.024,161.985,111.221,102.635,-0.00162754,0.0411472,21.0603,-461.953,0.71067,0.0,0.0
532,132.75,45.6571,48.7521,161.258,111.227,102.459,-0.00161494,0.0406966,21.0603,-461.973,0.726264,0.0,0.0
539,134.5,45.4638,47.968,158.272,111.214,103.105,-0.00168635,0.0403587,21.0595,-461.983,0.669646,0.0,0.0
546,136.25,45.7668,48.8092,158.336,111.204,103.044,-0.00175147,0.039931,21.0591,-461.973,0.674086,0.0,0.0
553,138,45.9539,48.5882,165.67,111.198,102.934,-0.00179478,0.0396881,21.06,-461.973,0.683029,0.0,0.0
560,139.75,45.3985,48.7559,159.094,111.189,102.812,-0.00184289,0.0394715,21.0606,-461.963,0.692804,0.0,0.0
567,141.5,45.4831,48.1719,166.928,111.179,102.849,-0.00178986,0.0393405,21.0609,-461.973,0.68884,0.0,0.0
574,143.25,45.5639,48.175,159.131,111.202,103.05,,0.0390108,,-461.963,0.673377,0.0,0.0
581,145,45.1614,47.8728,157.772,111.169,102.935,,0.0386957,,-461.973,0.680665,0.0,0.0
588,146.75,45.63,47.982,164.514,111.174,103.33,,,,-461.973,0.647163,0.0,0.0
595,148.5,45.222,48.1887,162.827,111.156,103.182,,,,-461.953,0.658343,0.0,0.0
602,150.25,45.5909,48.0866,161.173,111.14,103.18,,,,-461.953,0.657305,0.0,0.0
609,152,45.1124,48.1074,166.951,111.144,102.878,,,,-461.983,0.683529,0.0,0.0
616,153.75,45.1629,48.0619,160.743,111.147,102.831,,,,-461.963,0.687848,0.0,0.0