File: 01_Data/Rubber_Foam_Pipe_Insulation/Cone/Rubber_Foam_Pipe_Insulation_Cone_HF50Scan_220307_R1.csv
Names,Time,Stack TC,Smoke TC,Exh Press,Smoke Comp,Smoke Meas,CO Meter,CO2 Meter,O2 Meter,Sample Mass,Ext Coeff,Start Test,Flame Verif
Chan Gain,,500,500,1,1,1,1,1,1,1,1,1.0,1.0
Offset,,0,0,0.13378,0,0,0,0,0,0,0,0.0,0.0
Gain,,1,1,25.011,14.4955,14.6297,1,1,1,1.00092,1.00831,1.0,1.0
Units,sec,C,C,Pa,%,%,%,%,%,g,/m,,
Baseline,,28.6379,30.0091,170.449,110.088,102.554,-0.0015919,0.0394034,21.0618,-946.013,0.627053,,
7,1.5,27.4871,28.9439,153.864,110.288,61.8319,0.00635132,0.148764,20.8626,-463.594,5.11825,0.0,1.0
14,3.25,28.1536,29.1246,148.313,110.311,65.955,0.0095971,0.230923,20.7488,-464.035,4.54913,0.0,1.0
21,5,30.1079,30.3934,150.44,110.338,70.8795,0.0113635,0.281253,20.6846,-464.275,3.9144,0.0,1.0
28,6.75,30.799,31.8977,156.595,110.355,80.3253,0.0119796,0.301488,20.6559,-464.505,2.8093,0.0,0.0
35,8.5,32.0064,32.9886,162.021,110.392,81.633,0.0122124,0.307973,20.6439,-464.695,2.66944,0.0,0.0
42,10.25,32.9046,33.7615,157.811,110.413,80.632,0.0123494,0.312745,20.6356,-464.905,2.78023,0.0,0.0
49,12,34.1498,34.8038,155.55,110.434,81.7897,0.0124291,0.319961,20.626,-465.116,2.65585,0.0,0.0
56,13.75,35.0409,36.0576,151.793,110.454,81.8915,0.0126798,0.332543,20.6159,-465.376,2.6464,0.0,0.0
63,15.5,36.0307,37.2243,145.567,110.502,76.3509,0.0131966,0.345066,20.6008,-465.596,3.26986,0.0,0.0
70,17.25,36.799,38.3587,152.674,110.483,70.9362,0.013951,0.356352,20.5823,-465.846,3.91898,0.0,0.0
77,19,36.7802,39.4599,149.098,110.503,69.1463,0.0145036,0.362336,20.5713,-466.066,4.14661,0.0,0.0
84,20.75,38.7041,40.1629,144.297,110.519,68.5047,0.0146395,0.362403,20.567,-466.297,4.23034,0.0,0.0
91,22.5,39.2198,41.2686,154.817,110.537,67.3109,0.0142925,0.359241,20.569,-466.467,4.38725,0.0,0.0
98,24.25,40.0624,42.1531,155.22,110.553,75.1405,0.0132968,0.348985,20.581,-466.677,3.41526,0.0,0.0
105,26,40.2581,42.3094,150.828,110.561,81.1673,0.0116151,0.331529,20.6172,-466.847,2.73357,0.0,0.0
112,27.75,41.3087,43.2294,145.993,110.564,82.9697,0.00995243,0.313121,20.6546,-466.967,2.53953,0.0,0.0
119,29.5,41.6701,43.4253,151.123,110.563,87.6129,0.00846911,0.298276,20.679,-467.077,2.05779,0.0,0.0
126,31.25,41.7765,43.9427,160.292,110.579,90.1497,0.00708723,0.285198,20.7032,-467.167,1.80664,0.0,0.0
133,33,41.8248,44.4225,162.12,110.585,93.7928,0.00577986,0.272033,20.733,-467.258,1.45673,0.0,0.0
140,34.75,42.3292,44.3267,164.852,110.603,95.2514,0.00470005,0.255502,20.7577,-467.328,1.3217,0.0,0.0
147,36.5,41.9278,45.0788,163.312,110.597,98.9477,0.00378007,0.23784,20.7788,-467.408,0.984432,0.0,0.0
154,38.25,42.7923,44.6674,159.38,110.635,100.89,0.00302276,0.222908,20.8024,-467.428,0.815552,0.0,0.0
161,40,42.2109,44.7294,161.436,110.631,100.916,0.00267543,0.205922,20.8346,-467.478,0.812961,0.0,0.0
168,41.75,41.7234,45.3376,168.848,110.643,101.903,0.00272707,0.188095,20.8676,-467.508,0.727822,0.0,0.0
175,43.5,41.9864,44.4089,164.523,110.639,101.763,0.00304964,0.171743,20.8952,-467.538,0.739677,0.0,0.0
182,45.25,41.863,44.4877,171.381,110.667,102.299,0.00331993,0.157058,20.9181,-467.578,0.695423,0.0,0.0
189,47,41.4608,44.1663,168.152,110.677,102.61,0.00352027,0.14393,20.939,-467.598,0.66941,0.0,0.0
196,48.75,41.1828,44.0896,171.776,110.682,102.418,0.00365296,0.132426,20.9552,-467.618,0.686289,0.0,0.0
203,50.5,39.7413,43.5179,168.628,110.677,101.858,0.00380232,0.122944,20.9672,-467.638,0.734495,0.0,0.0
210,52.25,40.0399,42.9902,161.526,110.696,102.558,0.00395457,0.115218,20.9763,-467.688,0.67536,0.0,0.0
217,54,39.3899,42.4829,169.525,110.709,103.033,0.00401954,0.108542,20.9843,-467.708,0.635585,0.0,0.0
224,55.75,39.2705,42.19,169.327,110.715,102.11,0.00399139,0.103824,20.9897,-467.698,0.715697,0.0,0.0
231,57.5,38.9849,41.9731,168.729,110.713,102.447,0.00395295,0.100429,20.9938,-467.728,0.686334,0.0,0.0
238,59.25,38.6251,41.7449,166.903,110.707,102.79,0.00396235,0.0978611,20.9958,-467.758,0.65628,0.0,0.0
245,61,39.0687,41.266,164.201,110.727,102.817,0.00396913,0.0956612,20.9966,-467.778,0.655568,0.0,0.0
252,62.75,37.772,40.7459,170.158,110.744,102.21,0.00390561,0.093867,20.9973,-467.788,0.709296,0.0,0.0
259,64.5,37.97,40.4072,163.484,110.75,102.716,0.00378451,0.0924511,20.9976,-467.828,0.666125,0.0,0.0
266,66.25,37.1393,39.9596,164.594,110.754,102.54,0.00366409,0.0912801,20.9978,-467.828,0.681604,0.0,0.0
273,68,37.6177,40.8176,169.942,110.757,103.006,0.00356173,0.089782,20.9989,-467.868,0.641739,0.0,0.0
280,69.75,37.4402,40.4009,169.344,110.773,102.97,0.00347062,0.0886568,21.0004,-467.868,0.646076,0.0,0.0
287,71.5,37.7298,40.2377,167.073,110.788,103.041,0.00336347,0.0879133,21.0016,-467.888,0.641149,0.0,0.0
294,73.25,37.0026,39.713,164.546,110.776,102.586,0.0031763,0.0872361,21.0021,-467.888,0.679295,0.0,0.0
301,75,37.1774,39.868,167.7,110.79,103.106,0.00292076,0.0862138,21.0036,-467.888,0.635728,0.0,0.0
308,76.75,36.7078,39.9938,167.722,110.808,102.552,0.00266298,0.0851799,21.0053,-467.908,0.684798,0.0,0.0
315,78.5,36.5533,39.6639,167.147,110.812,102.957,0.00246267,0.0845116,21.0063,-467.928,0.650296,0.0,0.0
322,80.25,36.6437,39.4844,170.991,110.822,102.922,0.00233931,0.0840651,21.0068,-467.928,0.654176,0.0,0.0
329,82,36.5205,39.0001,172.861,110.834,102.365,0.00225074,0.0834752,21.0074,-467.948,0.70303,0.0,0.0
336,83.75,36.0991,38.9147,165.388,110.834,102.488,0.00217553,0.0828423,21.0101,-467.948,0.692464,0.0,0.0
343,85.5,35.701,38.6172,166.185,110.843,102.902,0.00213083,0.0819634,21.0118,-467.988,0.657528,0.0,0.0
350,87.25,35.6182,38.46,168.939,110.851,102.993,0.00205931,0.0811459,21.0126,-467.968,0.650334,0.0,0.0
357,89,35.7129,38.5411,171.595,110.854,103.074,0.00189445,0.0803995,21.013,-467.988,0.643644,0.0,0.0
364,90.75,35.7268,38.3721,170.059,110.858,103.258,0.00174768,0.0797601,21.014,-467.988,0.628154,0.0,0.0
371,92.5,35.2968,38.3528,168.984,110.876,102.707,0.0016268,0.0789372,21.0149,-467.998,0.676847,0.0,0.0
378,94.25,35.7078,37.773,171.33,110.875,102.27,0.00156087,0.0781371,21.0153,-468.028,0.714572,0.0,0.0
385,96,35.338,38.0615,165.972,110.884,102.628,0.00146583,0.0770657,21.0167,-468.038,0.684326,0.0,0.0
392,97.75,34.6706,37.1708,168.692,110.876,103.287,0.00135894,0.0762506,21.0174,-468.028,0.627153,0.0,0.0
399,99.5,35.0801,37.5207,170.669,110.889,102.715,0.00123899,0.0757177,21.0188,-468.048,0.677288,0.0,0.0
406,101.25,34.4483,36.8576,168.87,110.892,102.231,0.00104781,0.0752914,21.0199,-468.058,0.719268,0.0,0.0
413,103,34.9458,36.9403,169.443,110.897,102.781,0.000789449,0.0744284,21.0214,-468.068,0.672238,0.0,0.0
420,104.75,34.7803,37.1915,168.409,110.902,102.706,0.000521545,0.073627,21.0221,-468.078,0.679007,0.0,0.0
427,106.5,34.7264,37.2601,169.668,110.9,102.977,0.000272621,0.0730882,21.0223,-468.078,0.655634,0.0,0.0
434,108.25,34.7612,37.5394,166.157,110.922,103.863,0.000123628,0.072545,21.0234,-468.078,0.581602,0.0,0.0
441,110,34.6415,36.6277,167.564,110.926,102.523,-3.5697e-05,0.071871,21.0239,-468.108,0.69676,0.0,0.0
448,111.75,34.6302,37.1359,166.864,110.925,103.202,-0.000174624,0.0709545,21.025,-468.118,0.638301,0.0,0.0
455,113.5,34.4676,36.8873,168.068,110.922,103.014,-0.000258534,0.0700271,21.0259,-468.138,0.65418,0.0,0.0
462,115.25,34.2892,36.8717,164.814,110.937,102.603,-0.000262372,0.0693605,21.0272,-468.128,0.690715,0.0,0.0
469,117,34.4549,36.7507,169.937,110.929,103.231,-0.000277827,0.0687926,21.0282,-468.118,0.636133,0.0,0.0
476,118.75,34.5104,36.6699,167.973,110.933,103.106,-0.000332162,0.0680999,21.0299,-468.138,0.647202,0.0,0.0
483,120.5,35.0524,36.1525,161.326,110.94,102.722,-0.000393415,0.0674573,21.0307,-468.158,0.680734,0.0,0.0
490,122.25,34.633,36.3027,166.89,110.93,103.011,-0.000449643,0.0667088,21.0311,-468.158,0.655116,0.0,0.0
497,124,34.1785,36.739,169.408,110.941,102.103,-0.000478062,0.0658834,21.0313,-468.158,0.734207,0.0,0.0
504,125.75,34.0531,36.5889,166.646,110.95,103.231,-0.0005216,0.0649235,21.0314,-468.178,0.637863,0.0,0.0
511,127.5,33.7622,36.6076,167.716,110.926,102.612,-0.000636249,0.0640724,21.0319,-468.168,0.689099,0.0,0.0
518,129.25,34.6081,36.3767,167.556,110.931,103.39,-0.000761397,0.0633464,21.0336,-468.188,0.6227,0.0,0.0
525,131,34.5573,36.2916,169.579,110.937,102.427,-0.000873291,0.0623275,21.035,-468.188,0.705965,0.0,0.0
532,132.75,34.231,36.0972,169.768,110.94,102.949,-0.000967132,0.0607134,21.0365,-468.198,0.66115,0.0,0.0
539,134.5,33.387,35.6543,165.845,110.933,102.793,-0.00105034,0.05899,21.0391,-468.198,0.674094,0.0,0.0
546,136.25,33.7678,36.4651,169.491,110.926,102.356,-0.00116842,0.0575479,21.0415,-468.198,0.711142,0.0,0.0
553,138,34.2399,35.8965,167.44,110.925,102.593,-0.00125934,0.0558774,21.0431,-468.188,0.690612,0.0,0.0
560,139.75,34.0467,36.1881,168.264,110.94,103.202,-0.00132602,0.0540997,21.0453,-468.188,0.6395,0.0,0.0
567,141.5,33.6491,35.9988,168.443,110.919,102.969,-0.00142003,0.0525368,21.0463,-468.208,0.657804,0.0,0.0
574,143.25,33.9584,36.1733,167.124,110.916,103.31,-0.00160011,0.0510022,21.049,-468.218,0.628344,0.0,0.0
581,145,33.5368,35.8942,168.779,110.916,102.414,-0.00177298,0.0496185,21.0512,-468.218,0.705356,0.0,0.0
588,146.75,33.9818,35.5763,172.176,110.915,102.874,-0.00181855,0.0483448,21.0538,-468.228,0.665655,0.0,0.0
595,148.5,33.8214,35.8421,165.4,110.913,102.989,-0.00174128,0.0471943,21.0553,-468.238,0.655623,0.0,0.0
602,150.25,33.5421,36.1641,167.16,110.89,102.51,-0.00166403,0.0462425,21.0571,-468.208,0.694984,0.0,0.0
609,152,33.258,35.7146,163.531,110.885,103.298,-0.00158723,0.0451624,21.0586,-468.228,0.626903,0.0,0.0
616,153.75,33.8325,35.2135,169.516,110.883,103.348,-0.00146691,0.0441501,21.0599,-468.228,0.622449,0.0,0.0
623,155.5,33.7223,35.6073,167.351,110.881,102.664,-0.00135331,0.0433476,21.0608,-468.218,0.680998,0.0,0.0
630,157.25,33.5384,35.5254,164.901,110.884,102.639,-0.00137264,0.0423911,21.0623,-468.228,0.683404,0.0,0.0
637,159,33.8906,35.6095,170.87,110.851,102.81,,0.0416243,,-468.208,0.666106,0.0,0.0
644,160.75,33.2335,35.4961,166.559,110.856,103.256,,0.0407703,,-468.218,0.628171,0.0,0.0
651,162.5,33.3503,35.4109,169.095,110.845,102.814,,,,-468.228,0.665225,0.0,0.0
658,164.25,33.3946,35.6421,167.888,110.826,102.837,,,,-468.218,0.661787,0.0,0.0
665,166,33.4825,35.3964,161.192,110.816,102.499,,,,-468.218,0.690053,0.0,0.0
672,167.75,33.2609,34.9895,164.631,110.8,102.709,,,,-468.198,0.670696,0.0,0.0
679,169.5,33.3464,35.443,168.05,110.792,102.843,,,,-468.228,0.658569,0.0,0.0