File: 01_Data/Rubber_Foam_Pipe_Insulation/Cone/Rubber_Foam_Pipe_Insulation_Cone_HF25Scan_220307_R3.csv
Names,Time,Stack TC,Smoke TC,Exh Press,Smoke Comp,Smoke Meas,CO Meter,CO2 Meter,O2 Meter,Sample Mass,Ext Coeff,Start Test,Flame Verif
Chan Gain,,500,500,1,1,1,1,1,1,1,1,1.0,1.0
Offset,,0,0,0.13378,0,0,0,0,0,0,0,0.0,0.0
Gain,,1,1,25.011,14.4955,14.6297,1,1,1,1.00092,1.00831,1.0,1.0
Units,sec,C,C,Pa,%,%,%,%,%,g,/m,,
Baseline,,20.1955,20.7404,177.287,110.356,104.027,-0.00203549,0.037163,21.0666,-945.822,0.52242,,
8,1.75,18.6722,19.0687,173.616,110.242,97.6569,-0.00185193,0.044029,21.0557,-463.954,1.07211,0.0,0.0
16,3.75,18.5268,19.0479,172.143,110.211,93.6964,-0.000860913,0.054115,21.0452,-464.035,1.43585,0.0,0.0
24,5.75,18.7442,19.297,165.656,110.208,97.0261,0.000637795,0.0885089,20.9933,-464.245,1.12677,0.0,1.0
32,7.75,19.7071,20,161.49,110.2,84.3171,0.0028995,0.142872,20.8907,-464.445,2.36783,0.0,1.0
40,9.75,20.3713,20.4471,157.374,110.181,76.5076,0.00502131,0.193704,20.8116,-464.655,3.22601,0.0,1.0
48,11.75,21.0924,21.7485,161.1,110.174,76.8295,0.00684007,0.229283,20.762,-464.875,3.18831,0.0,0.0
56,13.75,22.61,22.2028,161.99,110.179,78.4068,0.00781083,0.248934,20.734,-465.086,3.00895,0.0,0.0
64,15.75,23.4266,23.4084,167.232,110.163,79.4292,0.00817582,0.258255,20.7204,-465.286,2.89312,0.0,0.0
72,17.75,23.9665,24.4532,161.828,110.166,81.391,0.00818144,0.263632,20.7126,-465.476,2.67753,0.0,0.0
80,19.75,25.0774,25.2616,167.47,110.135,82.0549,0.0080516,0.269569,20.7063,-465.716,2.60316,0.0,0.0
88,21.75,25.5425,26.4116,160.224,110.112,85.8221,0.00765366,0.27649,20.701,-465.926,2.20428,0.0,0.0
96,23.75,26.0692,27.4836,160.252,110.108,87.0008,0.00701673,0.283659,20.6974,-466.106,2.08335,0.0,0.0
104,25.75,26.8084,28.0318,161.228,110.106,82.8915,0.00636162,0.287172,20.6963,-466.337,2.51112,0.0,0.0
112,27.75,27.7359,28.7928,165.365,110.102,83.4612,0.00606687,0.283361,20.7023,-466.507,2.45022,0.0,0.0
120,29.75,28.5573,29.12,161.806,110.094,85.0506,0.00609969,0.278385,20.7086,-466.697,2.28276,0.0,0.0
128,31.75,28.9606,29.7081,166.387,110.088,82.542,0.00626951,0.275251,20.712,-466.887,2.54704,0.0,0.0
136,33.75,29.4845,30.6298,163.071,110.072,81.4816,0.00643171,0.272188,20.7142,-467.017,2.66016,0.0,0.0
144,35.75,30.0012,30.9492,168.731,110.071,84.8716,0.00637309,0.26678,20.7201,-467.127,2.29952,0.0,0.0
152,37.75,30.2787,31.6754,165.004,110.071,83.822,0.00609969,0.25917,20.7293,-467.237,2.40959,0.0,0.0
160,39.75,30.4303,31.7726,160.668,110.069,82.9987,0.00573729,0.251146,20.7415,-467.368,2.49671,0.0,0.0
168,41.75,31.0176,32.2857,167.219,110.06,87.5004,0.00538871,0.241839,20.7563,-467.468,2.02883,0.0,0.0
176,43.75,31.5344,32.6446,167.465,110.044,90.072,0.00500018,0.231184,20.7703,-467.548,1.77135,0.0,0.0
184,45.75,31.1523,32.8265,166.511,110.043,92.1217,0.0043897,0.221102,20.7867,-467.638,1.57226,0.0,0.0
192,47.75,31.3728,33.1024,162.828,110.024,93.6508,0.00379669,0.208391,20.8152,-467.708,1.42516,0.0,0.0
200,49.75,31.865,33.3301,173.648,110.013,96.11,0.00320086,0.193307,20.8461,-467.788,1.19501,0.0,0.0
208,51.75,31.8172,33.4562,169.692,109.997,97.5578,0.00277311,0.177838,20.8693,-467.818,1.06148,0.0,0.0
216,53.75,31.2784,32.8478,172.044,109.993,97.6936,0.00252916,0.161886,20.8931,-467.868,1.04883,0.0,0.0
224,55.75,31.0519,33.6557,172.626,109.973,99.5991,0.00244904,0.148198,20.9173,-467.918,0.876372,0.0,0.0
232,57.75,29.9974,33.0908,171.272,109.98,100.507,0.00243359,0.136573,20.9382,-467.948,0.796703,0.0,0.0
240,59.75,30.9117,32.5162,161.29,109.982,102.093,0.00236383,0.128074,20.954,-467.958,0.658374,0.0,0.0
248,61.75,30.2456,31.6357,173.969,109.952,102.435,0.00205717,0.119769,20.9691,-467.998,0.626338,0.0,0.0
256,63.75,30.0569,30.9656,168.636,109.951,100.983,0.00170397,0.111681,20.9823,-468.028,0.752567,0.0,0.0
264,65.75,28.9234,30.7601,174.35,109.951,102.603,0.00152554,0.105309,20.9907,-468.058,0.611822,0.0,0.0
272,67.75,28.79,30.7434,174.865,109.95,102.615,0.00154423,0.101172,20.9941,-468.088,0.610677,0.0,0.0
280,69.75,28.7747,30.1231,172.509,109.945,102.645,0.00158955,0.0982816,20.9974,-468.108,0.607671,0.0,0.0
288,71.75,28.084,30.3966,167.409,109.921,102.954,0.00162492,0.0963982,20.9994,-468.128,0.579168,0.0,0.0
296,73.75,27.9496,29.6492,170.543,109.919,103.301,0.00154945,0.0948111,21.0018,-468.148,0.549237,0.0,0.0
304,75.75,27.4869,29.9253,173.288,109.891,103.023,0.00131813,0.0929855,21.004,-468.178,0.570839,0.0,0.0
312,77.75,27.5777,29.4225,177.509,109.893,102.856,0.00110845,0.0913562,21.0063,-468.208,0.585255,0.0,0.0
320,79.75,27.1881,29.5538,174.796,109.901,103.285,0.000943967,0.0897252,21.0075,-468.218,0.549189,0.0,0.0
328,81.75,27.4273,28.8904,174.57,109.9,102.78,0.000810147,0.0885313,21.0089,-468.238,0.592465,0.0,0.0
336,83.75,26.658,28.6321,170.879,109.895,103.52,0.000740416,0.0870064,21.0099,-468.268,0.5286,0.0,0.0
344,85.75,26.6703,28.476,174.372,109.891,102.744,0.000713266,0.0858495,21.0117,-468.288,0.594793,0.0,0.0
352,87.75,26.6461,28.3163,176.918,109.891,103.526,0.000675913,0.0850217,21.0121,-468.308,0.527749,0.0,0.0
360,89.75,26.0174,28.4097,179.339,109.894,102.562,0.000598028,0.0842796,21.012,-468.318,0.610771,0.0,0.0
368,91.75,25.4185,27.2991,171.8,109.906,103.14,0.000532646,0.0836872,21.0125,-468.339,0.561977,0.0,0.0
376,93.75,25.9858,27.7716,175.17,109.89,103.415,0.000525466,0.0827733,21.0133,-468.359,0.537178,0.0,0.0
384,95.75,25.2835,27.3566,174.144,109.897,102.919,0.000453562,0.081722,21.0137,-468.359,0.580163,0.0,0.0
392,97.75,25.8079,26.7049,175.981,109.886,103.252,0.000324671,0.0806373,21.0144,-468.369,0.55077,0.0,0.0
400,99.75,25.9958,27.4822,173.906,109.872,103.18,0.000247753,0.07954,21.0151,-468.409,0.55579,0.0,0.0
408,101.75,24.8188,27.0855,172.551,109.88,102.883,0.000230326,0.0787221,21.0163,-468.409,0.581919,0.0,0.0
416,103.75,24.5789,26.7754,178.648,109.867,102.706,0.000157562,0.0779067,21.018,-468.419,0.596134,0.0,0.0
424,105.75,25.0712,27.0695,180.459,109.872,103.098,3.97972e-05,0.0764108,21.0189,-468.439,0.562909,0.0,0.0
432,107.75,24.589,26.4885,179.794,109.865,102.96,-0.000154176,0.0754908,21.0193,-468.459,0.574148,0.0,0.0
440,109.75,24.6479,26.4088,169.339,109.881,102.959,-0.000353373,0.074685,21.0206,-468.459,0.575503,0.0,0.0
448,111.75,24.7171,26.1762,174.386,109.847,102.919,-0.000495258,0.0737354,21.0214,-468.469,0.576288,0.0,0.0
456,113.75,24.25,26.1547,174.211,109.851,103.31,-0.000580045,0.0729743,21.0211,-468.479,0.542951,0.0,0.0
464,115.75,24.6863,26.2859,174.98,109.835,102.8,-0.000676552,0.0723021,21.0218,-468.489,0.585503,0.0,0.0
472,117.75,24.1347,25.3426,178.57,109.824,102.499,-0.000650504,0.0717499,21.0231,-468.499,0.610502,0.0,0.0
480,119.75,24.0622,24.9877,175.496,109.813,102.896,-0.000531481,0.0710833,21.0238,-468.519,0.575466,0.0,0.0
488,121.75,24.0931,25.8322,176.855,109.786,102.848,-0.00050009,0.0706175,21.0243,-468.519,0.577435,0.0,0.0
496,123.75,23.8021,24.8169,173.605,109.791,103.197,-0.000549127,0.0702917,21.0244,-468.529,0.547891,0.0,0.0
504,125.75,23.9632,25.6407,170.843,109.777,102.671,-0.00060876,0.0699475,21.0245,-468.539,0.591868,0.0,0.0
512,127.75,23.0801,24.716,168.305,109.755,102.686,-0.000634734,0.069244,21.0259,-468.539,0.588817,0.0,0.0
520,129.75,23.526,25.1663,171.203,109.732,102.71,-0.000595689,0.0684299,21.0269,-468.549,0.584958,0.0,0.0
528,131.75,23.7558,25.4245,180.84,109.72,103.002,-0.000593644,0.0675959,21.0279,-468.559,0.558854,0.0,0.0
536,133.75,23.858,25.1523,170.196,109.72,103.276,-0.000675197,0.066866,21.0292,-468.559,0.535381,0.0,0.0
544,135.75,23.4724,25.0797,164.35,109.706,103.119,-0.000769747,0.0662914,21.0303,-468.579,0.547707,0.0,0.0
552,137.75,23.6412,25.0641,175.005,109.7,103.022,-0.00074072,0.0657186,21.0319,-468.589,0.555485,0.0,0.0
560,139.75,23.4136,25.2457,174.577,109.702,102.489,-0.000686283,0.0651301,21.0321,-468.589,0.601587,0.0,0.0
568,141.75,23.5443,25.3749,176.808,109.693,103.47,-0.000741633,0.064493,21.0336,-468.599,0.516553,0.0,0.0
576,143.75,23.306,24.6252,170.32,109.703,102.973,-0.000829109,0.0634165,21.0353,-468.599,0.559988,0.0,0.0
584,145.75,23.4874,24.9694,174.089,109.687,103.466,-0.000797612,0.0623093,21.0363,-468.609,0.516394,0.0,0.0
592,147.75,22.8557,24.8386,177.307,109.695,102.738,-0.000746303,0.0609397,21.0379,-468.619,0.57958,0.0,0.0
600,149.75,23.18,24.525,178.536,109.679,103.39,-0.00076841,0.0594904,21.0398,-468.629,0.522317,0.0,0.0
608,151.75,23.2003,24.7794,174.97,109.674,103.204,-0.000908835,0.0582869,21.0422,-468.619,0.537792,0.0,0.0
616,153.75,23.267,24.1284,176.147,109.678,103.474,-0.00108555,0.0574303,21.0438,-468.629,0.514993,0.0,0.0
624,155.75,22.1776,23.7728,172.546,109.681,103.106,-0.00111742,0.0567378,21.0444,-468.639,0.546822,0.0,0.0
632,157.75,22.8942,24.1353,175.13,109.673,103.496,-0.00115068,0.0561625,21.0455,-468.629,0.51277,0.0,0.0
640,159.75,22.8235,24.1822,181.516,109.65,103.26,-0.00133677,0.0553799,21.0464,-468.629,0.531087,0.0,0.0
648,161.75,23.1159,24.5594,176.83,109.642,103.011,-0.00153933,0.0544807,21.0466,-468.639,0.551768,0.0,0.0
656,163.75,22.4178,23.6727,174.405,109.625,102.766,-0.00160506,0.0534334,21.0479,-468.629,0.57145,0.0,0.0
664,165.75,22.8406,24.363,170.043,109.606,102.977,-0.00157088,0.0524289,21.0484,-468.649,0.55179,0.0,0.0
672,167.75,21.6631,23.6046,173.477,109.6,103.24,-0.00147691,0.0514615,21.0486,-468.649,0.528736,0.0,0.0
680,169.75,22.764,23.8827,174.214,109.591,102.785,-0.00138673,0.0505191,21.0495,-468.659,0.567084,0.0,0.0
688,171.75,22.7261,23.6787,170.916,109.584,103.359,,0.0494993,,-468.669,0.517281,0.0,0.0
696,173.75,22.8148,23.7341,177.409,109.572,103.328,,0.0486007,,-468.649,0.51899,0.0,0.0
704,175.75,22.5339,23.7995,174.866,109.56,102.842,,,,-468.669,0.559742,0.0,0.0
712,177.75,22.1093,23.8003,173.184,109.547,102.385,,,,-468.649,0.598078,0.0,0.0
720,179.75,22.4486,23.9321,175.303,109.514,102.921,,,,-468.639,0.549198,0.0,0.0
728,181.75,22.1529,23.8287,173.89,109.525,103.153,,,,-468.639,0.530089,0.0,0.0
729,182,22.7654,23.6667,165.469,109.519,102.592,,,,-468.649,0.577875,0.0,0.0