File: 01_Data/Rubber_Foam_Pipe_Insulation/Cone/Rubber_Foam_Pipe_Insulation_Cone_HF25Scan_220307_R2.csv
Names,Time,Stack TC,Smoke TC,Exh Press,Smoke Comp,Smoke Meas,CO Meter,CO2 Meter,O2 Meter,Sample Mass,Ext Coeff,Start Test,Flame Verif
Chan Gain,,500,500,1,1,1,1,1,1,1,1,1.0,1.0
Offset,,0,0,0.13378,0,0,0,0,0,0,0,0.0,0.0
Gain,,1,1,25.011,14.4955,14.6297,1,1,1,1.00092,1.00831,1.0,1.0
Units,sec,C,C,Pa,%,%,%,%,%,g,/m,,
Baseline,,19.5818,20.2427,178.251,111.112,104.931,-0.0017978,0.0371905,21.0609,-945.835,0.506331,,
8,1.75,18.9159,19.4977,178.488,110.628,97.1221,-0.00134733,0.0394675,21.0597,-455.597,1.15165,0.0,0.0
16,3.75,18.1074,18.6878,168.535,110.611,95.8059,-0.000107785,0.0546597,21.0347,-452.354,1.27099,0.0,1.0
24,5.75,18.596,19.035,170.292,110.6,92.3159,0.00184677,0.100056,20.9504,-455.677,1.59825,0.0,1.0
32,7.75,19.765,19.8576,165.011,110.602,82.4991,0.00399907,0.156075,20.8665,-456.157,2.59284,0.0,1.0
40,9.75,19.6881,20.1188,164.716,110.592,79.9784,0.00596493,0.199613,20.8026,-456.338,2.86656,0.0,1.0
48,11.75,21.3484,21.4802,166.475,110.591,78.8881,0.0072925,0.22854,20.7591,-454.576,2.98782,0.0,1.0
56,13.75,21.8288,21.9151,175.677,110.588,81.9839,0.0079382,0.244833,20.7369,-450.402,2.64715,0.0,0.0
64,15.75,22.8871,23.0596,170.14,110.579,84.7144,0.00819077,0.250948,20.728,-448.691,2.35666,0.0,0.0
72,17.75,23.2938,23.9422,165.64,110.573,84.114,0.00811262,0.253441,20.7261,-452.024,2.41908,0.0,0.0
80,19.75,24.5363,24.4214,168.225,110.573,86.2244,0.00777192,0.255351,20.7248,-457.348,2.19994,0.0,0.0
88,21.75,24.8539,25.47,165.537,110.574,86.6048,0.00701482,0.259961,20.7247,-457.579,2.16104,0.0,0.0
96,23.75,25.2554,25.6765,164.078,110.575,85.8418,0.00673239,0.270718,20.713,-457.759,2.23942,0.0,0.0
104,25.75,26.1648,26.9504,161.966,110.56,83.4648,0.00684165,0.283848,20.6903,-457.989,2.48655,0.0,0.0
112,27.75,26.3238,27.0777,159.012,110.561,83.2063,0.00742109,0.298669,20.6617,-458.179,2.51405,0.0,0.0
120,29.75,27.4646,28.0355,164.575,110.562,81.3838,0.00862921,0.309978,20.6411,-458.459,2.71008,0.0,0.0
128,31.75,28.0398,28.7548,159.602,110.559,75.7352,0.00972221,0.318002,20.6279,-454.156,3.34603,0.0,0.0
136,33.75,28.6362,29.4891,166.312,110.56,77.5273,0.0103144,0.32116,20.6229,-455.717,3.13925,0.0,0.0
144,35.75,29.3555,30.8344,159.695,110.543,79.5591,0.0104409,0.319084,20.6271,-458.249,2.90912,0.0,0.0
152,37.75,30.3113,31.2741,165.291,110.549,76.6451,0.0102061,0.311971,20.6409,-459.16,3.23959,0.0,0.0
160,39.75,31.2426,32.0891,163.337,110.548,79.1252,0.00971174,0.304387,20.6556,-459.31,2.95785,0.0,0.0
168,41.75,30.7747,32.2045,160.939,110.542,82.3263,0.00902094,0.296694,20.6727,-459.44,2.60657,0.0,0.0
176,43.75,31.6496,32.9273,169.79,110.538,86.5396,0.00810067,0.2841,20.6882,-459.54,2.16483,0.0,0.0
184,45.75,31.7566,33.4193,164.154,110.545,89.5679,0.00713551,0.267384,20.7184,-459.13,1.86118,0.0,0.0
192,47.75,31.1579,32.7451,172.238,110.539,94.3513,0.00612335,0.242949,20.7702,-458.249,1.40051,0.0,0.0
200,49.75,31.6531,33.6277,172.645,110.537,100.892,0.00513584,0.216233,20.8215,-457.569,0.807577,0.0,0.0
208,51.75,30.6991,32.5344,173.635,110.544,102.467,0.00436205,0.188934,20.8662,-457.709,0.671051,0.0,0.0
216,53.75,30.7686,32.8214,177.582,110.565,102.513,0.00380826,0.162269,20.9122,-457.829,0.668854,0.0,0.0
224,55.75,30.0421,31.6677,176.886,110.565,103.407,0.00348135,0.140353,20.9419,-457.789,0.591959,0.0,0.0
232,57.75,29.7986,31.7159,177.614,110.56,103.58,0.00325932,0.125928,20.9605,-458.369,0.576768,0.0,0.0
240,59.75,29.704,31.2298,173.166,110.558,103.667,0.0030366,0.116257,20.9721,-458.76,0.569268,0.0,0.0
248,61.75,29.1407,30.7183,174.904,110.579,103.202,0.00274456,0.110128,20.9797,-459.07,0.610636,0.0,0.0
256,63.75,28.8352,30.5809,177.299,110.574,103.63,0.00248443,0.105833,20.9855,-459.651,0.573667,0.0,0.0
264,65.75,28.8141,30.7647,173.254,110.583,103.496,0.00236594,0.102857,20.9891,-459.891,0.585816,0.0,0.0
272,67.75,27.8798,29.6872,175.515,110.588,103.512,0.00225583,0.101223,20.9912,-460.001,0.584831,0.0,0.0
280,69.75,27.7094,30.0782,175.061,110.586,103.579,0.00200132,0.0998363,20.9928,-460.041,0.579006,0.0,0.0
288,71.75,27.6768,29.3997,176.853,110.602,103.811,0.00175254,0.0982461,20.9945,-460.071,0.560514,0.0,0.0
296,73.75,27.6892,30.0086,170.68,110.589,103.153,0.00148956,0.0966829,20.9968,-460.081,0.615625,0.0,0.0
304,75.75,27.4473,29.1582,177.925,110.588,103.857,0.00117941,0.0956076,20.9981,-460.101,0.555465,0.0,0.0
312,77.75,26.9412,28.641,175.325,110.608,103.418,0.00102913,0.0946797,20.9987,-460.131,0.594473,0.0,0.0
320,79.75,26.7353,29.4429,171.178,110.569,103.658,0.00110678,0.0940807,20.9999,-460.131,0.570806,0.0,0.0
328,81.75,26.8436,28.8158,179.684,110.587,103.142,0.00119355,0.0931901,21.0007,-460.141,0.616479,0.0,0.0
336,83.75,26.4304,28.3099,174.951,110.575,103.654,0.00114419,0.0914946,21.0012,-460.171,0.57168,0.0,0.0
344,85.75,25.9539,28.5088,173.07,110.563,103.627,0.000997463,0.0897944,21.0023,-460.171,0.57301,0.0,0.0
352,87.75,26.0258,28.0249,172.95,110.547,103.246,0.000868101,0.0883089,21.0034,-460.211,0.60434,0.0,0.0
360,89.75,26.0222,28.1887,173.597,110.548,103.616,0.000748989,0.0865894,21.0056,-460.231,0.572725,0.0,0.0
368,91.75,25.5308,27.3369,171.722,110.548,102.991,0.000577487,0.0850842,21.0079,-460.221,0.62628,0.0,0.0
376,93.75,25.413,27.3746,176.876,110.536,103.231,0.000343977,0.0836402,21.0098,-460.251,0.604793,0.0,0.0
384,95.75,25.7896,27.1583,177.236,110.525,102.901,0.000148976,0.0820218,21.013,-460.251,0.632224,0.0,0.0
392,97.75,25.3904,26.9694,173.048,110.544,103.511,0.000120576,0.0804912,21.0155,-460.261,0.581441,0.0,0.0
400,99.75,25.3441,27.1522,175.57,110.519,103.039,0.000180151,0.0792691,21.0168,-460.291,0.619912,0.0,0.0
408,101.75,25.3807,26.6444,175.763,110.525,103.317,0.000142549,0.078241,21.0186,-460.301,0.596529,0.0,0.0
416,103.75,25.2227,26.6979,176.109,110.524,103.556,5.91162e-05,0.076914,21.0195,-460.321,0.576034,0.0,0.0
424,105.75,24.618,26.5069,178.109,110.542,103.806,5.53573e-05,0.075432,21.0208,-460.321,0.556118,0.0,0.0
432,107.75,24.6967,26.6986,171.802,110.54,103.292,4.40987e-06,0.0740379,21.0226,-460.311,0.599835,0.0,0.0
440,109.75,24.6342,26.0632,177.249,110.542,103.039,-0.000184013,0.0728075,21.0233,-460.341,0.621679,0.0,0.0
448,111.75,24.6394,26.1742,173.436,110.549,103.106,-0.000376806,0.0718169,21.0237,-460.381,0.616499,0.0,0.0
456,113.75,24.0501,25.5758,176.701,110.583,103.283,-0.000497881,0.0708749,21.0238,-460.371,0.604035,0.0,0.0
464,115.75,24.1647,25.6109,172.134,110.589,102.618,-0.000624346,0.0698627,21.0253,-460.361,0.66168,0.0,0.0
472,117.75,24.5604,25.7753,180.562,110.615,103.618,-0.000773642,0.0687485,21.0281,-460.361,0.577915,0.0,0.0
480,119.75,24.0743,25.7017,175.721,110.638,103.411,-0.000828422,0.0677195,21.0305,-460.391,0.597491,0.0,0.0
488,121.75,24.2966,25.5646,165.682,110.652,103.466,-0.000822057,0.066667,21.0316,-460.391,0.593926,0.0,0.0
496,123.75,24.2212,25.4697,183.53,110.681,103.896,-0.000873496,0.0653798,21.0324,-460.381,0.559582,0.0,0.0
504,125.75,23.8701,25.7034,174.889,110.701,102.765,-0.000970562,0.0640487,21.0338,-460.381,0.657939,0.0,0.0
512,127.75,24.4232,25.8934,172.511,110.73,103.346,-0.00110371,0.0631313,21.0348,-460.401,0.610346,0.0,0.0
520,129.75,24.0077,25.3728,174.603,110.782,103.465,-0.00124944,0.0617953,21.0366,-460.401,0.604394,0.0,0.0
528,131.75,24.2282,25.243,169.244,110.818,104.074,-0.00131027,0.0600872,21.0398,-460.391,0.555344,0.0,0.0
536,133.75,23.3751,25.5758,177.166,110.867,103.76,-0.00127459,0.0582965,21.0424,-460.411,0.585944,0.0,0.0
544,135.75,23.5824,24.3968,176.733,110.913,103.611,-0.00123512,0.0564189,21.0448,-460.391,0.602371,0.0,0.0
552,137.75,23.8262,24.3383,181.149,110.949,103.824,-0.00125813,0.0548686,21.0449,-460.391,0.587065,0.0,0.0
560,139.75,23.8886,25.2417,175.444,110.984,104.094,-0.00136019,0.0533534,21.046,-460.401,0.566867,0.0,0.0
568,141.75,22.9281,24.5467,179.337,111.025,104.177,-0.00151475,0.0515534,21.048,-460.411,0.563096,0.0,0.0
576,143.75,23.7984,25.028,175.753,111.07,104.016,-0.00160696,0.0499917,21.0504,-460.411,0.580347,0.0,0.0
584,145.75,22.6992,24.244,177.508,111.092,103.819,-0.00163667,0.0482622,21.0524,-460.391,0.598863,0.0,0.0
592,147.75,23.5242,24.7104,176.24,111.137,104.017,-0.00165671,0.0469604,21.0528,-460.411,0.585588,0.0,0.0
600,149.75,23.3648,24.2413,170.651,111.173,104.239,-0.00175711,0.0457633,21.0529,-460.421,0.569662,0.0,0.0
608,151.75,23.1555,24.7495,178.2,111.197,104.67,-0.00179794,0.0448475,21.0529,-460.421,0.535081,0.0,0.0
616,153.75,22.6405,24.2022,176.308,111.249,104.417,-0.00179195,0.0440096,21.0534,-460.421,0.560576,0.0,0.0
624,155.75,22.9164,24.0819,170.033,111.271,104.492,-0.00179942,0.0432635,21.0545,-460.411,0.555946,0.0,0.0
632,157.75,22.8517,24.0171,176.221,111.275,104.32,-0.00185276,0.0426516,21.055,-460.421,0.570864,0.0,0.0
640,159.75,23.0967,24.0097,175.699,111.283,103.856,-0.00191887,0.0420319,21.0561,-460.421,0.610877,0.0,0.0
648,161.75,22.6028,23.7974,167.599,111.29,104.403,-0.00198179,0.0414486,21.0584,-460.431,0.564984,0.0,0.0
656,163.75,22.1667,23.9618,175.044,111.283,104.622,,0.0409495,,-460.421,0.545907,0.0,0.0
664,165.75,22.856,24.0368,175.882,111.27,104.019,,0.0403747,,-460.411,0.596025,0.0,0.0
672,167.75,23.0437,22.9666,175.363,111.248,104.011,,,,-460.421,0.595023,0.0,0.0
680,169.75,22.7664,23.5392,179.462,111.22,104.639,,,,-460.421,0.539479,0.0,0.0
688,171.75,22.9174,23.6296,176.205,111.18,104.235,,,,-460.401,0.570494,0.0,0.0
696,173.75,22.8661,23.2578,179.382,111.131,104.71,,,,-460.411,0.526407,0.0,0.0
699,174.5,22.4288,23.4663,177.5,111.128,104.424,,,,-460.411,0.550402,0.0,0.0