File: 01_Data/Rubber_Foam_Pipe_Insulation/Cone/Rubber_Foam_Pipe_Insulation_Cone_HF25Scan_220307_R1.csv
Names,Time,Stack TC,Smoke TC,Exh Press,Smoke Comp,Smoke Meas,CO Meter,CO2 Meter,O2 Meter,Sample Mass,Ext Coeff,Start Test,Flame Verif
Chan Gain,,500,500,1,1,1,1,1,1,1,1,1.0,1.0
Offset,,0,0,0.13378,0,0,0,0,0,0,0,0.0,0.0
Gain,,1,1,25.011,14.4955,14.6297,1,1,1,1.00092,1.00831,1.0,1.0
Units,sec,C,C,Pa,%,%,%,%,%,g,/m,,
Baseline,,19.7959,20.4549,179.313,110.51,104.088,-0.00184601,0.0386805,21.0604,-945.948,0.529631,,
8,1.75,18.0188,18.3076,167.103,110.231,99.4022,-0.000596785,0.0540563,21.0286,-66.5008,0.914592,0.0,1.0
16,3.75,18.2523,18.6048,164.901,110.243,96.285,0.000545834,0.0888122,20.9715,-66.7711,1.19733,0.0,1.0
24,5.75,19.0254,19.7345,165.903,110.255,94.3161,0.00188452,0.131208,20.9119,-66.9412,1.38109,0.0,1.0
32,7.75,19.5102,19.797,169.208,110.261,91.0975,0.00330006,0.169485,20.8578,-67.1014,1.68862,0.0,0.0
40,9.75,20.6854,20.7824,168.647,110.255,86.3177,0.00480238,0.20143,20.8074,-67.3216,2.1649,0.0,0.0
48,11.75,21.3872,21.7023,169.326,110.252,83.8907,0.0065918,0.229308,20.7676,-67.5318,2.4169,0.0,0.0
56,13.75,22.4923,23.0947,166.718,110.253,80.9892,0.00807649,0.249587,20.7339,-67.752,2.7283,0.0,0.0
64,15.75,23.5906,23.8522,166.849,110.239,81.0776,0.0090817,0.265835,20.7108,-67.9322,2.71755,0.0,0.0
72,17.75,24.2764,24.769,167.511,110.237,78.9314,0.00958153,0.274468,20.6964,-68.1524,2.95462,0.0,0.0
80,19.75,25.1509,25.711,167.246,110.228,78.6711,0.00979462,0.282139,20.6895,-68.3525,2.98312,0.0,0.0
88,21.75,26.3669,26.8058,163.45,110.223,78.3573,0.00977921,0.289965,20.6788,-68.6028,3.01806,0.0,0.0
96,23.75,26.6531,28.1813,163.35,110.216,81.0396,0.00950554,0.298296,20.6664,-68.9331,2.71981,0.0,0.0
104,25.75,26.6471,28.125,167.418,110.215,80.5115,0.00909353,0.305861,20.6578,-69.0932,2.77754,0.0,0.0
112,27.75,27.9026,29.4379,166.357,110.212,81.1222,0.00873591,0.308423,20.6543,-69.3234,2.71048,0.0,0.0
120,29.75,29.0751,29.8361,167.121,110.194,79.6324,0.00821645,0.304508,20.6594,-69.4936,2.87301,0.0,0.0
128,31.75,29.0075,31.0006,164.696,110.184,82.5098,0.00731921,0.294291,20.6741,-69.6637,2.55823,0.0,0.0
136,33.75,30.0927,31.0196,170.499,110.174,85.5234,0.00643093,0.281892,20.6978,-69.7638,2.24013,0.0,0.0
144,35.75,30.0516,31.3644,176.173,110.183,81.6986,0.00594881,0.270819,20.7135,-69.924,2.64552,0.0,0.0
152,37.75,30.6576,32.0447,167.031,110.162,82.312,0.00574994,0.263492,20.7233,-70.0641,2.57765,0.0,0.0
160,39.75,30.7486,32.0861,170.788,110.127,84.0193,0.00572293,0.254712,20.7318,-70.1442,2.3933,0.0,0.0
168,41.75,31.0934,32.7228,166.876,110.113,76.1312,0.00585392,0.247869,20.7433,-70.2243,3.26416,0.0,0.0
176,43.75,31.563,32.3447,171.105,110.105,82.7049,0.00576095,0.243315,20.7559,-70.3544,2.53102,0.0,0.0
184,45.75,31.6818,32.8054,168.415,110.075,90.0854,0.00536348,0.232734,20.7785,-70.4244,1.77256,0.0,0.0
192,47.75,31.5845,33.2252,170.892,110.062,93.633,0.00480563,0.216075,20.8098,-70.5345,1.42983,0.0,0.0
200,49.75,31.5975,33.3217,173.57,110.031,95.8229,0.00428081,0.199916,20.8438,-70.5445,1.22286,0.0,0.0
208,51.75,32.0289,33.2824,176.259,110.005,99.7718,0.00397292,0.182579,20.8737,-70.6146,0.863604,0.0,0.0
216,53.75,31.1604,32.9216,174.381,109.989,99.3892,0.0037969,0.166516,20.9017,-70.6346,0.896272,0.0,0.0
224,55.75,30.8915,32.7029,179.307,109.952,101.42,0.00356694,0.147953,20.933,-70.6747,0.714438,0.0,0.0
232,57.75,29.8065,31.7054,177.925,109.92,101.445,0.00328351,0.134306,20.9545,-70.7447,0.709734,0.0,0.0
240,59.75,29.7781,32.3362,178.706,109.878,102.786,0.00294534,0.125995,20.9657,-70.7647,0.590073,0.0,0.0
248,61.75,28.7241,30.8092,178.127,109.847,102.406,0.00266803,0.121262,20.9718,-70.7948,0.620408,0.0,0.0
256,63.75,29.108,31.3598,176.533,109.802,102.795,0.00259587,0.118667,20.974,-70.8148,0.583252,0.0,0.0
264,65.75,28.3013,30.7094,172.788,109.766,102.773,0.00270649,0.117483,20.974,-70.8648,0.58225,0.0,0.0
272,67.75,28.355,30.3126,178.517,109.734,103.439,0.00272534,0.116604,20.9752,-70.9049,0.522577,0.0,0.0
280,69.75,28.4907,30.0078,173.851,109.702,102.896,0.00260026,0.11522,20.9772,-70.9249,0.566515,0.0,0.0
288,71.75,27.9701,30.0862,175.738,109.659,102.339,0.00241309,0.113844,20.978,-70.9349,0.61097,0.0,0.0
296,73.75,27.4859,29.3547,181.189,109.625,102.65,0.00213301,0.112278,20.9795,-70.9549,0.581407,0.0,0.0
304,75.75,27.3308,29.179,179.271,109.571,102.477,0.00187397,0.109748,20.9818,-70.9849,0.592026,0.0,0.0
312,77.75,27.6757,29.251,174.35,109.535,102.444,0.00158455,0.106055,20.9867,-70.9849,0.591949,0.0,0.0
320,79.75,27.3609,28.9911,172.93,109.502,102.394,0.00128408,0.102381,20.9901,-70.995,0.593624,0.0,0.0
328,81.75,26.6128,28.6611,180.09,109.496,102.87,0.0010731,0.0991647,20.9929,-71.025,0.552144,0.0,0.0
336,83.75,26.4822,28.3589,176.333,109.484,102.439,0.000953378,0.0969649,20.9952,-71.065,0.588261,0.0,0.0
344,85.75,26.1033,27.9103,174.554,109.462,103.112,0.00086782,0.0954802,20.9965,-71.075,0.52861,0.0,0.0
352,87.75,26.3176,27.6273,172.281,109.462,102.917,0.000792707,0.0942837,20.9962,-71.095,0.545362,0.0,0.0
360,89.75,25.8029,27.8129,169.818,109.453,102.59,0.000793674,0.0933679,20.9967,-71.1151,0.572743,0.0,0.0
368,91.75,26.174,27.7369,174.535,109.436,102.432,0.000783986,0.0921943,20.997,-71.1151,0.584947,0.0,0.0
376,93.75,25.5394,27.1809,174.717,109.42,102.723,0.000673611,0.0904626,20.9991,-71.1451,0.558596,0.0,0.0
384,95.75,25.671,27.795,170.955,109.407,102.358,0.000489113,0.0889656,21.0011,-71.1451,0.589062,0.0,0.0
392,97.75,24.4837,26.7804,174.831,109.416,102.622,0.000403748,0.0878657,21.0029,-71.1351,0.567006,0.0,0.0
400,99.75,25.2945,27.235,174.267,109.442,102.309,0.000405098,0.0868625,21.0036,-71.1451,0.596129,0.0,0.0
408,101.75,25.1447,26.543,175.406,109.469,102.281,0.000324275,0.0860415,21.0039,-71.1651,0.600707,0.0,0.0
416,103.75,24.2766,27.0362,175.583,109.48,102.662,0.000189559,0.0852247,21.0042,-71.1851,0.568728,0.0,0.0
424,105.75,24.8048,26.9106,169.09,109.523,102.753,-1.73264e-06,0.0841311,21.0066,-71.2051,0.564351,0.0,0.0
432,107.75,25.0866,26.7596,179.668,109.556,102.476,-0.000175102,0.0826789,21.0088,-71.2252,0.590962,0.0,0.0
440,109.75,24.8239,27.1016,179.779,109.565,102.4,-0.000260303,0.0814487,21.0101,-71.2452,0.598157,0.0,0.0
448,111.75,24.8079,26.3169,180.181,109.59,102.597,-0.000312828,0.080343,21.0125,-71.2452,0.583128,0.0,0.0
456,113.75,24.1119,26.504,176.975,109.629,102.758,-0.000424261,0.0785337,21.0149,-71.2352,0.572423,0.0,0.0
464,115.75,24.7522,26.1543,178.348,109.654,102.491,-0.000528503,0.0766682,21.018,-71.2552,0.597503,0.0,0.0
472,117.75,24.4353,26.3024,175.019,109.694,102.714,-0.000558481,0.0750337,21.0195,-71.2752,0.581509,0.0,0.0
480,119.75,24.3075,25.7826,175.473,109.73,103.269,-0.000570084,0.0738845,21.0202,-71.2752,0.536777,0.0,0.0
488,121.75,24.3188,25.9976,176.976,109.789,103.648,-0.000627843,0.0724086,21.0213,-71.2652,0.509037,0.0,0.0
496,123.75,23.6755,25.5602,178.471,109.809,102.595,-0.000670516,0.0706054,21.0233,-71.2852,0.601047,0.0,0.0
504,125.75,24.15,25.9587,173.193,109.863,103.382,-0.000669313,0.0688004,21.0249,-71.2952,0.537759,0.0,0.0
512,127.75,23.6685,25.1487,173.608,109.923,103.225,-0.000713367,0.0664933,21.0283,-71.2952,0.556058,0.0,0.0
520,129.75,23.8351,24.6903,179.265,109.969,103.397,-0.000916534,0.064033,21.0318,-71.2852,0.545079,0.0,0.0
528,131.75,23.5743,25.269,174.409,110.028,102.981,-0.00124986,0.0607706,21.0348,-71.2952,0.585512,0.0,0.0
536,133.75,23.7452,25.0534,174.847,110.056,103.041,-0.00156386,0.0569889,21.04,-71.2752,0.582503,0.0,0.0
544,135.75,23.1016,24.6913,178.319,110.115,103.615,-0.00171979,0.0533545,21.0449,-71.2852,0.538083,0.0,0.0
552,137.75,23.2872,24.8087,176.316,110.165,103.032,-0.00176346,0.049346,21.0514,-71.2752,0.592046,0.0,0.0
560,139.75,23.1239,24.5535,175.405,110.205,103.467,-0.00180667,0.0460887,21.0567,-71.2852,0.558029,0.0,0.0
568,141.75,23.037,24.0482,175.436,110.235,103.187,-0.00186062,0.0435432,21.0606,-71.2652,0.58444,0.0,0.0
576,143.75,23.4564,24.5097,168.647,110.243,103.427,-0.0018561,0.0415699,21.0625,-71.2652,0.564517,0.0,0.0
584,145.75,23.3379,24.8065,174.371,110.246,103.074,-0.00184658,0.0402771,21.0632,-71.2552,0.594977,0.0,0.0
592,147.75,23.04,24.3053,177.96,110.246,103.752,-0.00191953,0.0393165,21.0636,-71.2652,0.53694,0.0,0.0
600,149.75,23.0587,24.2996,177.66,110.241,103.835,-0.00196516,0.0388713,21.0638,-71.2752,0.529511,0.0,0.0
608,151.75,22.9968,24.2605,175.508,110.202,103.998,-0.00195704,0.0382645,21.0638,-71.2652,0.512441,0.0,0.0
616,153.75,22.9161,23.5588,176.644,110.15,103.459,-0.00193957,0.0379673,21.0639,-71.2752,0.554312,0.0,0.0
624,155.75,22.5802,24.2329,174.19,110.086,103.018,-0.00195087,0.0376862,21.0639,-71.2752,0.586948,0.0,0.0
632,157.75,23.0712,24.0267,174.799,109.999,103.345,-0.00196831,0.0375699,21.0639,-71.2652,0.551855,0.0,0.0
640,159.75,22.7361,24.4958,180.446,109.887,103.482,-0.00199224,0.037501,21.0639,-71.2652,0.531203,0.0,0.0
648,161.75,22.1222,23.6904,173.78,109.778,102.907,-0.00198371,0.03746,21.0643,-71.2752,0.571691,0.0,0.0
656,163.75,21.5986,23.5782,175.544,109.652,103.122,-0.00200581,0.0374541,21.0662,-71.2652,0.543053,0.0,0.0
664,165.75,23.2975,23.8993,169.338,109.711,102.79,,0.0373533,,-71.2652,0.576293,0.0,0.0
672,167.75,21.8584,23.4645,175.116,109.743,102.996,,0.0372749,,-71.2852,0.561168,0.0,0.0
680,169.75,22.2425,23.2818,176.082,109.793,102.855,,,,-71.2752,0.577358,0.0,0.0
688,171.75,21.4685,23.0933,180.496,109.859,102.677,,,,-71.2652,0.597998,0.0,0.0
696,173.75,22.288,23.6689,173.851,109.934,103.566,,,,-71.2752,0.52777,0.0,0.0
704,175.75,22.4235,23.1451,172.38,110.002,103.864,,,,-71.2752,0.507853,0.0,0.0
705,176,22.3025,23.3478,166,110.01,103.713,,,,-71.2752,0.521316,0.0,0.0