File: 01_Data/Rubber_Foam_Pipe_Insulation/Cone/Rubber_Foam_Pipe_Insulation_Cone_HF50Scalar_220307_R1.csv
LABORATORY,FSRI
TEST IDENT,RFPI_HF50_1
OPERATOR,Dow
MATERIAL,Rubber Foam Pipe Insulation
ORIENTATION,Horizontal
HEAT FLUX,50
SURF AREA,0.01
C FACTOR,0.0370678
SPEC HOLDER DIFF,-90.38
SPECIMEN MASS,6.6
SCAN TIME,0.25
O2 DELAY TIME,11
CO DELAY TIME,11
CO2 DELAY TIME,8
FLOW FACTOR,1
SCAN COUNT,679
TIME TO IGN,0.5
END OF TEST SCAN,199
END OF TEST TIME,49.75
TEST STATUS,1
PRE TEST CMT,Dimensions: 100 x 101 x 13 mm