File: 01_Data/Rubber_Foam_Pipe_Insulation/Cone/Rubber_Foam_Pipe_Insulation_Cone_HF50Scan_220307_R2.csv
Names,Time,Stack TC,Smoke TC,Exh Press,Smoke Comp,Smoke Meas,CO Meter,CO2 Meter,O2 Meter,Sample Mass,Ext Coeff,Start Test,Flame Verif
Chan Gain,,500,500,1,1,1,1,1,1,1,1,1.0,1.0
Offset,,0,0,0.13378,0,0,0,0,0,0,0,0.0,0.0
Gain,,1,1,25.011,14.4955,14.6297,1,1,1,1.00092,1.00831,1.0,1.0
Units,sec,C,C,Pa,%,%,%,%,%,g,/m,,
Baseline,,30.9185,32.0609,169.869,111.129,103.386,-0.00190038,0.0381952,21.0644,-946.109,0.638832,,
8,1.75,30.0539,30.9421,149.376,109.323,60.5965,0.00761637,0.174275,20.8294,-456.688,5.21904,0.0,1.0
16,3.75,31.5052,32.0245,154.499,109.28,70.5424,0.0107147,0.255117,20.7132,-456.938,3.87137,0.0,1.0
24,5.75,32.7319,33.4258,155.634,109.253,74.4945,0.0118245,0.295886,20.6627,-457.188,3.38704,0.0,0.0
32,7.75,34.3295,34.7396,157.662,109.21,78.4662,0.0116392,0.304084,20.6536,-457.398,2.92417,0.0,0.0
40,9.75,35.1719,36.2021,159.195,109.196,79.9717,0.0113544,0.302215,20.6604,-457.609,2.7549,0.0,0.0
48,11.75,36.1146,36.6405,155.553,109.171,78.8153,0.0111265,0.302112,20.6614,-457.879,2.88172,0.0,0.0
56,13.75,37.2122,37.9957,155.056,109.156,81.0892,0.010724,0.305163,20.6588,-458.119,2.62894,0.0,0.0
64,15.75,37.8464,39.4019,156.054,109.136,78.8725,0.010448,0.309001,20.6552,-458.369,2.87248,0.0,0.0
72,17.75,38.5969,40.056,158.69,109.129,76.2879,0.0106072,0.312373,20.649,-458.59,3.16659,0.0,0.0
80,19.75,39.056,40.7151,158.174,109.118,75.1191,0.0111515,0.317164,20.6373,-458.83,3.30222,0.0,0.0
88,21.75,40.2663,41.9346,155.719,109.097,71.9787,0.0115733,0.320537,20.6312,-459.07,3.67829,0.0,0.0
96,23.75,40.7433,42.3863,156.831,109.09,75.3731,0.0113363,0.316572,20.6371,-459.24,3.27014,0.0,0.0
104,25.75,41.9407,43.6126,156.23,109.078,76.6857,0.0103137,0.30488,20.6546,-459.43,3.11647,0.0,0.0
112,27.75,41.7137,43.8229,157.069,109.079,81.3133,0.00908287,0.292254,20.6716,-459.58,2.59828,0.0,0.0
120,29.75,42.8338,44.7865,155.333,109.068,81.7589,0.00767961,0.280522,20.6929,-459.731,2.54909,0.0,0.0
128,31.75,42.8507,45.0861,159.955,109.057,84.6363,0.00643977,0.270186,20.7172,-459.821,2.24222,0.0,0.0
136,33.75,42.9724,45.5236,158.347,109.062,90.4184,0.00530297,0.258556,20.7433,-459.961,1.65814,0.0,0.0
144,35.75,43.416,46.0569,160.603,109.068,92.2668,0.00406085,0.243644,20.7709,-460.021,1.47966,0.0,0.0
152,37.75,43.8005,46.1162,160.738,109.061,97.1257,0.00298312,0.225978,20.8006,-460.101,1.02509,0.0,0.0
160,39.75,43.7026,46.0197,166.254,109.055,98.87,0.00225707,0.208295,20.8374,-460.151,0.867185,0.0,0.0
168,41.75,43.9373,46.1651,160.803,109.056,99.7062,0.00214963,0.187133,20.8709,-460.181,0.7928,0.0,0.0
176,43.75,43.8441,46.0235,163.146,109.064,100.357,0.00244262,0.165993,20.904,-460.211,0.735964,0.0,0.0
184,45.75,43.8672,45.6076,170.141,109.065,101.247,0.00270188,0.148056,20.9363,-460.251,0.657959,0.0,0.0
192,47.75,43.6747,45.181,160.686,109.073,100.873,0.00287261,0.133525,20.9578,-460.281,0.691235,0.0,0.0
200,49.75,42.6091,45.7858,165.663,109.084,100.781,0.00305502,0.121692,20.9719,-460.311,0.700275,0.0,0.0
208,51.75,42.5008,44.9064,163.347,109.087,100.86,0.00323844,0.112985,20.9816,-460.351,0.693595,0.0,0.0
216,53.75,42.1233,44.5326,169.385,109.097,100.743,0.00342133,0.106939,20.9883,-460.371,0.704572,0.0,0.0
224,55.75,41.0715,43.6123,167.821,109.099,100.872,0.00350195,0.103066,20.9919,-460.411,0.693434,0.0,0.0
232,57.75,40.7789,43.3118,167.838,109.108,100.877,0.00358899,0.100006,20.9945,-460.441,0.693757,0.0,0.0
240,59.75,40.3457,42.6244,170.788,109.132,100.922,0.0037436,0.0968495,20.9973,-460.461,0.691739,0.0,0.0
248,61.75,40.5647,43.3254,163.704,109.132,100.899,0.00392678,0.0944059,20.9998,-460.461,0.693771,0.0,0.0
256,63.75,39.8755,42.1808,165.304,109.146,101.201,0.0040608,0.0925723,21.0018,-460.471,0.668426,0.0,0.0
264,65.75,40.3078,42.8002,164.372,109.157,101.176,0.00403787,0.0909091,21.0033,-460.491,0.671623,0.0,0.0
272,67.75,39.2172,42.0687,170.534,109.159,101.13,0.00393441,0.0893127,21.0061,-460.511,0.675751,0.0,0.0
280,69.75,39.1948,42.0132,167.177,109.19,101.09,0.00388858,0.0879999,21.0076,-460.501,0.681735,0.0,0.0
288,71.75,38.8854,41.6138,166.739,109.184,101.264,0.0037626,0.086814,21.0083,-460.531,0.666047,0.0,0.0
296,73.75,39.1759,41.205,173.189,109.215,101.334,0.00355519,0.0855726,21.0086,-460.571,0.662435,0.0,0.0
304,75.75,38.8542,40.9075,172.474,109.224,100.969,0.00316469,0.084877,21.008,-460.561,0.695086,0.0,0.0
312,77.75,38.499,41.2004,163.996,109.229,101.088,0.00283332,0.0841685,21.0075,-460.601,0.685005,0.0,0.0
320,79.75,38.1212,41.335,165.661,109.248,100.951,0.00275162,0.0831996,21.0077,-460.621,0.698546,0.0,0.0
328,81.75,38.5472,40.5045,168.547,109.284,100.696,0.00275532,0.0827357,21.0091,-460.641,0.723885,0.0,0.0
336,83.75,38.039,40.8142,167.386,109.294,101.134,0.00266921,0.0823812,21.0098,-460.651,0.686285,0.0,0.0
344,85.75,37.8579,40.1453,165.832,109.32,100.93,0.00255703,0.081791,21.0103,-460.671,0.706256,0.0,0.0
352,87.75,37.5975,40.6286,168.669,109.32,100.935,0.00241845,0.0810419,21.0121,-460.702,0.705826,0.0,0.0
360,89.75,37.6925,39.8822,162.917,109.351,101.112,0.00223903,0.0800222,21.0138,-460.661,0.692891,0.0,0.0
368,91.75,37.9062,39.1078,163.671,109.349,101.384,0.00196613,0.079207,21.0148,-460.651,0.668957,0.0,0.0
376,93.75,36.8935,39.2413,168.372,109.377,101.319,0.00167864,0.0786586,21.0158,-460.681,0.676898,0.0,0.0
384,95.75,37.739,39.3281,168.031,109.386,101.11,0.00144682,0.0778977,21.0162,-460.702,0.695873,0.0,0.0
392,97.75,36.8411,39.3822,167.072,109.417,101.877,0.00125288,0.0768605,21.0172,-460.732,0.631493,0.0,0.0
400,99.75,36.7015,38.6782,169.953,109.43,101.299,0.0010565,0.0763559,21.0185,-460.772,0.682909,0.0,0.0
408,101.75,36.4212,38.9113,170.847,109.443,101.897,0.000862154,0.0759887,21.0194,-460.782,0.631902,0.0,0.0
416,103.75,36.5926,39.0806,162.599,109.452,101.717,0.000647526,0.0752149,21.0207,-460.752,0.648281,0.0,0.0
424,105.75,36.8205,38.6643,170.749,109.461,101.521,0.000447402,0.0742531,21.022,-460.782,0.666058,0.0,0.0
432,107.75,36.6792,38.1536,169.521,109.485,101.346,0.000371475,0.0732358,21.0233,-460.772,0.683209,0.0,0.0
440,109.75,36.1153,38.3136,167.211,109.497,101.804,0.000348721,0.0724722,21.0238,-460.762,0.644326,0.0,0.0
448,111.75,36.0799,38.7716,173.656,109.512,102.005,0.00033976,0.0719889,21.0241,-460.782,0.628061,0.0,0.0
456,113.75,36.1771,38.2725,169.501,109.527,101.182,0.000324713,0.071411,21.0246,-460.812,0.700952,0.0,0.0
464,115.75,36.051,38.4284,167.792,109.548,101.526,0.000269429,0.070957,21.0258,-460.812,0.672666,0.0,0.0
472,117.75,36.2272,38.7208,171.99,109.557,101.714,0.000107937,0.0702034,21.0271,-460.822,0.65702,0.0,0.0
480,119.75,36.0456,38.2578,172.903,109.575,102.011,-6.49441e-05,0.0692987,21.0281,-460.842,0.632666,0.0,0.0
488,121.75,35.0493,37.8425,169.31,109.594,101.729,-0.000198857,0.0685876,21.0288,-460.852,0.658629,0.0,0.0
496,123.75,35.8997,37.7809,167.628,109.596,101.918,-0.000340749,0.067764,21.0291,-460.842,0.642402,0.0,0.0
504,125.75,35.6188,37.5433,165.936,109.625,101.808,-0.000560812,0.0668482,21.0297,-460.852,0.654334,0.0,0.0
512,127.75,35.9262,37.8986,170.444,109.626,101.722,-0.000834087,0.065679,21.0308,-460.842,0.661856,0.0,0.0
520,129.75,35.3581,37.4392,165.445,109.642,101.634,-0.00106815,0.0643676,21.0324,-460.852,0.670866,0.0,0.0
528,131.75,35.5332,37.6954,166.403,109.657,101.33,-0.00121139,0.0631667,21.0333,-460.882,0.698578,0.0,0.0
536,133.75,35.719,37.5915,167.873,109.675,101.966,-0.00125247,0.0618667,21.035,-460.862,0.64461,0.0,0.0
544,135.75,35.5521,37.8917,170.893,109.692,101.604,-0.00118985,0.0603754,21.0364,-460.882,0.677462,0.0,0.0
552,137.75,35.6058,37.7251,169.282,109.697,100.963,-0.00113548,0.058703,21.0391,-460.892,0.733845,0.0,0.0
560,139.75,35.3832,37.5994,168.601,109.702,102.187,-0.00111409,0.05707,21.0413,-460.862,0.627669,0.0,0.0
568,141.75,35.0613,38.1883,170.29,109.725,101.672,-0.00116209,0.055457,21.0425,-460.902,0.674192,0.0,0.0
576,143.75,35.4369,37.2785,168.689,109.729,101.857,-0.00125481,0.0537297,21.044,-460.892,0.658452,0.0,0.0
584,145.75,35.1439,37.1756,169.876,109.739,101.184,-0.00140714,0.0520083,21.0473,-460.892,0.71789,0.0,0.0
592,147.75,35.1288,37.1727,170.118,109.773,102.251,-0.00156271,0.0502935,21.0507,-460.912,0.627889,0.0,0.0
600,149.75,34.8158,36.6466,171.146,109.77,101.982,-0.00157366,0.0486811,21.0537,-460.922,0.650919,0.0,0.0
608,151.75,35.3504,36.637,169.073,109.786,102.696,-0.0015168,0.0472016,21.0561,-460.912,0.590538,0.0,0.0
616,153.75,34.9077,36.3949,170.272,109.804,101.895,-0.00158157,0.0460149,21.0581,-460.912,0.661178,0.0,0.0
624,155.75,34.1804,36.9006,169.402,109.828,101.761,-0.00178307,0.0451333,21.0593,-460.892,0.674771,0.0,0.0
632,157.75,34.6434,37.0781,167.622,109.855,101.859,-0.00192261,0.0437883,21.0598,-460.892,0.668453,0.0,0.0
640,159.75,34.674,36.3705,167.406,109.878,101.181,-0.00200009,0.0424977,21.0625,-460.902,0.729317,0.0,0.0
648,161.75,34.221,36.5307,167.648,109.899,101.772,-0.00199577,0.0414643,21.0639,-460.902,0.679464,0.0,0.0
656,163.75,34.6364,36.5974,169.279,109.924,102.167,,0.040454,,-460.892,0.647333,0.0,0.0
664,165.75,34.7151,36.0488,169.848,109.934,101.847,,0.0396153,,-460.902,0.675759,0.0,0.0
672,167.75,33.6206,35.6542,165.028,109.952,102.03,,,,-460.912,0.661414,0.0,0.0
680,169.75,34.4275,35.9824,162.418,109.996,101.839,,,,-460.922,0.681475,0.0,0.0
688,171.75,34.5092,36.6585,169.949,110.024,102.333,,,,-460.912,0.641007,0.0,0.0
696,173.75,34.786,36.3017,167.584,110.063,102.561,,,,-460.922,0.624404,0.0,0.0
699,174.5,34.2561,36.3359,165.908,110.089,102.869,,,,-460.912,0.599935,0.0,0.0