File: 01_Data/Rubber_Foam_Pipe_Insulation/Cone/Rubber_Foam_Pipe_Insulation_Cone_HF50Scan_220307_R3.csv
Names,Time,Stack TC,Smoke TC,Exh Press,Smoke Comp,Smoke Meas,CO Meter,CO2 Meter,O2 Meter,Sample Mass,Ext Coeff,Start Test,Flame Verif
Chan Gain,,500,500,1,1,1,1,1,1,1,1,1.0,1.0
Offset,,0,0,0.13378,0,0,0,0,0,0,0,0.0,0.0
Gain,,1,1,25.011,14.4955,14.6297,1,1,1,1.00092,1.00831,1.0,1.0
Units,sec,C,C,Pa,%,%,%,%,%,g,/m,,
Baseline,,31.923,32.9984,169.681,110.573,102.966,-0.00195912,0.0382522,21.0656,-946.175,0.630464,,
7,1.5,30.6083,31.8955,152.151,111.187,58.9424,0.00682349,0.159961,20.8431,-464.825,5.61335,0.0,1.0
14,3.25,31.7739,32.7853,151.672,111.185,70.9813,0.00978914,0.243351,20.7238,-465.096,3.96935,0.0,1.0
21,5,33.8785,33.9864,157.268,111.201,73.5261,0.0113641,0.29312,20.6632,-465.346,3.65906,0.0,1.0
28,6.75,33.789,34.5045,154.28,111.202,79.306,0.0117227,0.312066,20.6399,-465.566,2.98989,0.0,0.0
35,8.5,35.2584,36.178,152.283,111.196,80.4373,0.0114409,0.311596,20.6416,-465.746,2.86408,0.0,0.0
42,10.25,36.1284,37.2039,147.841,111.212,81.3454,0.0112136,0.307505,20.6472,-465.956,2.76605,0.0,0.0
49,12,37.2373,38.0851,153.403,111.202,81.1298,0.0111525,0.308371,20.6461,-466.177,2.78879,0.0,0.0
56,13.75,37.8492,38.8634,162.846,111.212,81.3312,0.0111824,0.314343,20.6388,-466.377,2.7676,0.0,0.0
63,15.5,38.2904,39.6052,158.603,111.212,76.9835,0.0114553,0.326323,20.6271,-466.587,3.25352,0.0,0.0
70,17.25,39.3824,40.4697,149.753,111.204,73.26,0.0118855,0.337985,20.6081,-466.857,3.69141,0.0,0.0
77,19,40.7987,42.1109,143.606,111.206,72.38,0.0124058,0.344959,20.5935,-467.047,3.79844,0.0,0.0
84,20.75,41.1533,42.8469,155.207,111.202,75.9165,0.0125974,0.345079,20.5914,-467.227,3.37616,0.0,0.0
91,22.5,41.8263,43.3971,153.099,111.197,74.3172,0.0123357,0.338556,20.6003,-467.438,3.56409,0.0,0.0
98,24.25,42.8975,44.2416,156.403,111.176,75.5731,0.0114768,0.326224,20.6172,-467.638,3.41425,0.0,0.0
105,26,43.369,44.803,155.313,111.172,78.3327,0.0103055,0.313452,20.6403,-467.788,3.09668,0.0,0.0
112,27.75,43.4599,45.1696,155.739,111.168,82.433,0.00913839,0.300799,20.6617,-467.898,2.64513,0.0,0.0
119,29.5,43.7211,45.7019,156.188,111.156,84.4091,0.00792233,0.290773,20.6807,-468.018,2.43466,0.0,0.0
126,31.25,44.4338,46.3484,164.71,111.149,85.502,0.00674394,0.280316,20.6982,-468.128,2.32027,0.0,0.0
133,33,44.6057,46.6622,158.632,111.12,90.8435,0.00554431,0.268372,20.7228,-468.208,1.782,0.0,0.0
140,34.75,44.7139,46.9923,157.955,111.117,95.4845,0.00427675,0.253941,20.7576,-468.318,1.34102,0.0,0.0
147,36.5,45.2285,47.3302,156.058,111.11,96.4993,0.00328493,0.23571,20.7874,-468.359,1.24702,0.0,0.0
154,38.25,45.0398,47.3519,164.71,111.089,100.116,0.00263364,0.21583,20.8115,-468.419,0.919894,0.0,0.0
161,40,45.0215,47.6034,165.059,111.06,100.961,0.00224699,0.197946,20.8373,-468.459,0.843214,0.0,0.0
168,41.75,44.309,46.7327,164.604,111.039,102.119,0.00210234,0.17917,20.8721,-468.469,0.740641,0.0,0.0
175,43.5,44.4583,47.2511,164.049,111.021,101.763,0.0021524,0.159992,20.9042,-468.509,0.770143,0.0,0.0
182,45.25,44.1816,46.8905,164.24,110.993,101.761,0.00242246,0.144335,20.9289,-468.529,0.768077,0.0,0.0
189,47,43.8854,46.7417,167.514,110.965,102.274,0.00270506,0.131864,20.9474,-468.559,0.721346,0.0,0.0
196,48.75,43.9463,46.0329,164.039,110.925,102.442,0.00298563,0.121513,20.9659,-468.579,0.703631,0.0,0.0
203,50.5,42.9604,45.8284,157.767,110.902,103.32,0.00316504,0.114076,20.978,-468.599,0.626297,0.0,0.0
210,52.25,42.3425,45.0573,166.252,110.869,102.714,0.00323881,0.108152,20.9846,-468.619,0.675739,0.0,0.0
217,54,41.8133,44.5293,166.799,110.838,102.48,0.00330251,0.103842,20.9898,-468.639,0.69344,0.0,0.0
224,55.75,42.2876,44.4375,168.69,110.785,102.725,0.00342278,0.100407,20.9942,-468.659,0.668108,0.0,0.0
231,57.5,41.8939,44.5417,166.629,110.754,102.379,0.00356487,0.0976482,20.9979,-468.679,0.695477,0.0,0.0
238,59.25,41.6688,44.1745,164.155,110.706,102.741,0.00364314,0.095362,20.9999,-468.689,0.660365,0.0,0.0
245,61,41.3723,43.6994,163.729,110.664,102.642,0.00364144,0.0938245,21.0007,-468.729,0.665617,0.0,0.0
252,62.75,41.0392,43.9383,168.594,110.608,102.901,0.00358785,0.0930098,21.001,-468.759,0.638876,0.0,0.0
259,64.5,41.3346,43.271,169.288,110.572,102.787,0.00356038,0.0921625,21.0012,-468.769,0.645766,0.0,0.0
266,66.25,40.2689,42.7776,170.766,110.536,102.758,0.00346708,0.0913282,21.0013,-468.779,0.645396,0.0,0.0
273,68,39.7645,42.7941,162.167,110.491,102.143,0.00328123,0.0904998,21.0015,-468.799,0.694825,0.0,0.0
280,69.75,40.3166,43.0454,157.788,110.442,102.167,0.00311886,0.089207,21.0031,-468.809,0.688807,0.0,0.0
287,71.5,40.0128,42.5159,167.035,110.39,102.673,0.00302496,0.0877017,21.0043,-468.829,0.641051,0.0,0.0
294,73.25,40.3267,42.6868,166.302,110.343,102.077,0.00288796,0.0865951,21.0047,-468.839,0.68871,0.0,0.0
301,75,39.5902,42.261,171.988,110.315,102.339,0.00277762,0.0856364,21.005,-468.869,0.663839,0.0,0.0
308,76.75,38.9168,41.3498,170.415,110.258,102.357,0.00273213,0.0851231,21.0051,-468.869,0.657645,0.0,0.0
315,78.5,39.2652,41.6602,167.506,110.196,102.638,0.00270037,0.0843303,21.006,-468.859,0.628441,0.0,0.0
322,80.25,38.8378,40.8772,164.91,110.151,101.887,0.00259809,0.0833131,21.008,-468.889,0.689768,0.0,0.0
329,82,38.8497,41.4578,167.796,110.108,102.2,0.00239525,0.0824534,21.0094,-468.909,0.65923,0.0,0.0
336,83.75,38.756,41.3094,155.227,110.055,101.597,0.00218062,0.0820686,21.0102,-468.909,0.70721,0.0,0.0
343,85.5,38.9252,40.6272,161.109,110.014,101.836,0.00196036,0.0815272,21.0116,-468.919,0.683168,0.0,0.0
350,87.25,38.0882,40.7963,169.405,109.954,102.366,0.00174925,0.0804967,21.013,-468.919,0.632457,0.0,0.0
357,89,38.2744,40.4852,162.148,109.923,102,0.00159044,0.0794979,21.0144,-468.929,0.661619,0.0,0.0
364,90.75,38.0575,40.7301,166.99,109.865,102.231,0.0014374,0.0783366,21.0151,-468.949,0.636963,0.0,0.0
371,92.5,37.6635,40.2669,170.455,109.827,102.811,0.00120486,0.0775567,21.0165,-468.979,0.583901,0.0,0.0
378,94.25,38.0546,40.0797,163.375,109.792,101.81,0.000900544,0.0769739,21.0169,-468.969,0.667585,0.0,0.0
385,96,37.9274,39.9393,156.975,109.755,101.885,0.000670302,0.0764739,21.0171,-468.979,0.658074,0.0,0.0
392,97.75,37.6111,40.0274,164.705,109.705,101.931,0.000480419,0.0757842,21.018,-469.009,0.650127,0.0,0.0
399,99.5,38.2882,40.0913,171.246,109.671,101.184,0.000274511,0.0747551,21.0193,-468.999,0.712433,0.0,0.0
406,101.25,37.7614,39.279,172.679,109.618,101.611,0.000124268,0.0737993,21.0207,-469.019,0.670885,0.0,0.0
413,103,37.3427,39.9339,167.776,109.581,101.777,8.15026e-05,0.0730829,21.0213,-469.029,0.65344,0.0,0.0
420,104.75,37.0223,39.6331,163.765,109.556,101.308,5.80632e-05,0.0722091,21.0217,-469.019,0.692277,0.0,0.0
427,106.5,37.3143,39.8533,164.278,109.531,102.521,3.95446e-05,0.0713492,21.0229,-469.019,0.585,0.0,0.0
434,108.25,37.2376,39.3967,170.045,109.498,101.901,5.56503e-05,0.0704744,21.0247,-469.009,0.635942,0.0,0.0
441,110,37.292,39.0176,166.483,109.472,101.658,2.78415e-05,0.0697286,21.0264,-469.029,0.654979,0.0,0.0
448,111.75,36.1895,38.9844,166.915,109.449,101.394,-5.86685e-05,0.0689483,21.0281,-469.019,0.676146,0.0,0.0
455,113.5,36.4639,39.2327,167.014,109.437,101.998,-0.000209962,0.068066,21.0292,-469.039,0.622608,0.0,0.0
462,115.25,37.0031,38.8988,170.212,109.419,101.863,-0.00036132,0.067217,21.0298,-469.049,0.632914,0.0,0.0
469,117,36.772,39.2155,165.651,109.378,101.451,-0.000377168,0.0664288,21.03,-469.049,0.665367,0.0,0.0
476,118.75,37.0499,39.1319,173.889,109.359,101.415,-0.000291615,0.0656384,21.0306,-469.079,0.667017,0.0,0.0
483,120.5,36.6968,38.587,165.084,109.347,102.032,-0.000193976,0.0649808,21.0316,-469.099,0.612403,0.0,0.0
490,122.25,36.6281,38.9855,166.309,109.327,102.039,-0.000158348,0.0639944,21.0334,-469.079,0.610251,0.0,0.0
497,124,36.8668,38.5139,170.521,109.311,101.645,-0.000266153,0.0629475,21.0353,-469.119,0.643125,0.0,0.0
504,125.75,36.1068,38.6484,167.983,109.284,101.581,-0.000427936,0.0619109,21.0368,-469.079,0.646496,0.0,0.0
511,127.5,36.6664,38.5538,168.878,109.282,100.792,-0.000602105,0.0609753,21.0391,-469.089,0.715239,0.0,0.0
518,129.25,36.4106,38.9575,169.395,109.267,101.887,-0.000758877,0.0600126,21.0411,-469.109,0.61851,0.0,0.0
525,131,36.4183,38.5479,166.016,109.239,101.872,-0.000840587,0.0590345,21.0419,-469.109,0.617572,0.0,0.0
532,132.75,36.5755,38.2469,164.291,109.222,101.434,-0.000901999,0.0576861,21.0425,-469.149,0.654281,0.0,0.0
539,134.5,36.3088,37.93,164.739,109.207,101.263,-0.00110385,0.0561654,21.0436,-469.139,0.668024,0.0,0.0
546,136.25,36.2042,38.3283,167.54,109.212,101.484,-0.00136822,0.054691,21.0454,-469.119,0.649101,0.0,0.0
553,138,36.2622,37.815,165.013,109.197,101.201,-0.00146514,0.0531617,21.0475,-469.129,0.672662,0.0,0.0
560,139.75,36.374,38.0354,168.495,109.174,101.19,-0.00149538,0.0516708,21.0494,-469.159,0.671661,0.0,0.0
567,141.5,36.18,38.131,163.275,109.167,101.387,-0.00152023,0.0501811,21.0512,-469.139,0.653969,0.0,0.0
574,143.25,36.0034,38.3917,167.984,109.148,101.5,-0.00151421,0.0487801,21.0525,-469.139,0.64254,0.0,0.0
581,145,35.6117,37.4788,168.553,109.147,100.68,-0.00142926,0.0476143,21.0533,-469.119,0.714227,0.0,0.0
588,146.75,35.321,38.1892,166.365,109.123,100.739,-0.00132022,0.0465136,21.0547,-469.139,0.70708,0.0,0.0
595,148.5,35.4329,37.7897,172.032,109.109,101.12,-0.00130778,0.0456107,21.0553,-469.149,0.672559,0.0,0.0
602,150.25,35.9721,37.8353,166.729,109.103,101.243,-0.00145675,0.0448408,21.0556,-469.149,0.661282,0.0,0.0
609,152,36.1596,37.3588,171.63,109.105,101.086,-0.00165305,0.0440917,21.0565,-469.159,0.675201,0.0,0.0
616,153.75,35.9694,37.485,166.351,109.093,101.343,-0.0018351,0.0435112,21.0569,-469.159,0.651762,0.0,0.0
623,155.5,35.6094,37.4435,164.572,109.078,101.751,-0.00192593,0.0429542,21.057,-469.169,0.61504,0.0,0.0
630,157.25,35.4368,37.434,158.17,109.084,101.577,-0.00196159,0.0424243,21.0583,-469.149,0.630616,0.0,0.0
637,159,35.4751,36.9689,167.978,109.074,101.732,,0.0418803,,-469.149,0.616308,0.0,0.0
644,160.75,35.6287,37.4941,167.932,109.082,101.114,,0.0412826,,-469.149,0.670875,0.0,0.0
651,162.5,35.715,36.9996,169.902,109.083,101.445,,,,-469.169,0.642094,0.0,0.0
658,164.25,35.674,37.1453,167.982,109.071,101.313,,,,-469.149,0.652542,0.0,0.0
665,166,35.6278,37.5052,169.387,109.082,101.093,,,,-469.159,0.67275,0.0,0.0
672,167.75,34.8971,36.6563,170.77,109.092,101.581,,,,-469.129,0.630946,0.0,0.0
676,168.75,35.8813,37.0599,161.476,109.094,101.543,,,,-469.129,0.634431,0.0,0.0