File: 01_Data/PVC_R06/MCC/PVC_R06_MCC_30K_min_211014_R1.txt
Sample ID:	C:\MCC\MCC Cal\Test\PVC_R06_MCC_30K_min_211014_R1.txt
Sample Weight (mg):	4.8
Heating Rate (C/s):	0.5
Combustor Temp (C):	900
N2 Flow Rate (cc/min):	80
O2 Flow Rate (cc/min):	20
Calibration File:	C:\MCC\MCC Cal\Coeff1 JN10440_30_210304.txt.txt
T Correction Coefficients:	0	1.024463	0
Time Shift (s):	14
*
Time (s)	Temperature (C)	N2 flow rate (cc/min)	O2 flow rate (cc/min)	Flow Rate (cc/min)	Oxygen (%)	HRR (W/g)	Heating rate (C/s)
0.000	107.192	79.993	19.998	102.703	20.322	-0.176	0.004
8.000	107.181	79.995	19.996	102.720	20.316	0.248	0.021
16.000	107.264	79.994	19.995	102.785	20.308	0.721	-0.005
24.000	107.666	79.993	19.996	102.857	20.300	1.295	0.096
32.000	108.439	79.993	19.997	102.810	20.304	1.023	0.133
39.999	109.303	79.996	19.998	102.822	20.302	1.179	0.093
47.999	110.374	79.996	19.996	102.880	20.293	1.752	0.137
55.999	111.772	79.992	19.996	102.908	20.291	1.923	0.171
63.999	113.456	79.992	19.996	102.912	20.284	2.342	0.220
71.999	115.410	79.993	19.996	102.929	20.282	2.462	0.254
79.999	117.666	79.991	19.999	102.944	20.285	2.295	0.308
87.999	120.135	79.992	19.997	102.951	20.285	2.323	0.314
95.999	122.821	79.991	19.997	102.962	20.285	2.277	0.358
103.999	125.740	79.996	19.997	102.976	20.280	2.621	0.372
111.999	128.909	79.994	19.996	102.971	20.279	2.690	0.418
119.999	132.264	79.995	19.995	102.966	20.281	2.592	0.426
127.999	135.674	79.998	19.994	103.026	20.284	2.353	0.432
136.000	139.290	79.992	19.993	102.972	20.284	2.367	0.427
144.000	143.012	79.994	19.996	102.966	20.279	2.698	0.481
152.000	146.841	79.993	19.996	102.980	20.282	2.505	0.463
160.000	150.750	79.993	19.996	102.970	20.284	2.326	0.486
168.000	154.701	79.991	19.996	102.956	20.289	2.048	0.473
176.000	158.689	79.992	19.997	102.951	20.291	1.916	0.501
184.000	162.664	79.995	19.995	102.951	20.292	1.803	0.536
192.000	166.688	79.994	19.996	102.942	20.293	1.784	0.489
200.000	170.688	79.995	19.995	102.950	20.291	1.864	0.505
208.000	174.648	79.996	19.995	102.924	20.296	1.565	0.498
216.000	178.615	79.994	19.996	102.941	20.290	1.940	0.503
224.000	182.594	79.994	19.996	102.919	20.297	1.478	0.482
232.000	186.624	79.992	19.995	102.936	20.292	1.849	0.493
240.000	190.603	79.995	19.998	102.925	20.297	1.476	0.513
248.000	194.560	79.992	19.996	102.916	20.293	1.767	0.520
256.000	198.509	79.993	19.997	102.912	20.297	1.515	0.494
264.000	202.452	79.991	19.997	102.912	20.298	1.448	0.509
272.000	206.425	79.993	19.995	102.913	20.301	1.191	0.482
280.000	210.426	79.994	19.993	102.913	20.300	1.261	0.498
288.000	214.360	79.992	19.995	102.904	20.300	1.283	0.507
296.000	218.252	79.993	19.996	102.906	20.299	1.339	0.482
304.000	222.145	79.994	19.997	102.908	20.300	1.300	0.508
312.000	226.026	79.993	19.996	102.895	20.301	1.240	0.455
320.000	229.975	79.991	19.997	102.893	20.295	1.615	0.485
328.000	233.834	79.992	19.996	102.891	20.288	2.101	0.533
336.000	237.733	79.994	19.995	102.907	20.286	2.199	0.504
344.000	241.610	79.992	19.998	102.906	20.277	2.819	0.510
352.000	245.631	79.994	19.996	102.926	20.271	3.240	0.475
360.000	249.694	79.996	19.997	102.916	20.248	4.758	0.530
368.000	253.774	79.995	19.996	102.911	20.221	6.590	0.512
376.000	257.845	79.993	19.995	102.910	20.205	7.629	0.502
384.000	261.923	79.994	19.994	102.915	20.197	8.167	0.506
392.000	265.946	79.994	19.996	102.914	20.201	7.930	0.481
400.000	269.947	79.992	19.995	102.917	20.203	7.753	0.488
408.000	274.004	79.992	19.996	102.932	20.200	7.981	0.486
416.000	278.023	79.993	19.996	102.915	20.215	7.001	0.508
424.000	281.969	79.994	19.997	102.950	20.209	7.374	0.483
432.000	285.995	79.996	19.998	102.980	20.199	8.089	0.517
440.000	289.946	79.994	19.996	103.026	20.180	9.337	0.519
448.000	293.934	79.993	19.993	103.095	20.150	11.342	0.509
456.000	297.937	79.993	19.995	103.110	20.114	13.720	0.538
464.000	301.865	79.992	19.996	102.939	20.092	15.185	0.516
472.000	305.816	79.992	19.998	102.751	20.103	14.490	0.490
480.000	309.764	79.993	19.996	102.838	20.119	13.389	0.484
488.000	313.829	79.992	19.994	102.873	20.140	12.014	0.505
496.000	317.945	79.995	19.996	102.886	20.148	11.456	0.521
504.000	322.150	79.994	19.997	102.879	20.162	10.494	0.544
512.000	326.358	79.994	19.996	102.839	20.175	9.639	0.528
520.000	330.550	79.994	19.996	102.845	20.191	8.567	0.538
528.000	334.671	79.991	19.998	102.804	20.197	8.158	0.510
536.000	338.662	79.994	19.997	102.782	20.201	7.921	0.480
544.000	342.637	79.994	19.997	102.776	20.201	7.894	0.504
552.000	346.520	79.993	19.996	102.776	20.209	7.390	0.514
560.000	350.555	79.993	19.997	102.796	20.210	7.302	0.537
568.000	354.661	79.994	19.996	102.805	20.213	7.074	0.524
576.000	358.794	79.995	19.995	102.830	20.226	6.264	0.555
584.000	363.026	79.994	19.997	102.831	20.236	5.554	0.542
592.000	367.161	79.994	19.996	102.843	20.240	5.329	0.531
600.000	371.303	79.995	19.995	102.856	20.243	5.118	0.501
608.000	375.553	79.993	19.998	102.844	20.246	4.894	0.567
616.000	379.720	79.993	19.999	102.850	20.245	4.971	0.519
624.000	383.841	79.994	19.998	102.868	20.238	5.408	0.497
632.000	388.024	79.993	19.996	102.874	20.227	6.181	0.535
640.000	392.142	79.993	19.996	102.858	20.213	7.113	0.522
648.000	396.262	79.993	19.996	102.864	20.192	8.525	0.519
656.000	400.339	79.993	19.995	102.868	20.179	9.393	0.503
664.000	404.381	79.995	19.996	102.863	20.145	11.648	0.477
672.000	408.388	79.996	19.997	102.856	20.118	13.429	0.505
680.000	412.454	79.995	19.995	102.867	20.076	16.246	0.533
688.000	416.409	79.992	19.997	102.876	20.025	19.652	0.499
696.000	420.408	79.992	19.996	102.870	19.961	23.925	0.496
704.000	424.402	79.992	19.997	102.873	19.886	28.990	0.517
712.000	428.418	79.991	19.996	102.874	19.804	34.438	0.464
720.000	432.392	79.993	19.997	102.877	19.708	40.871	0.490
728.000	436.432	79.993	19.996	102.876	19.619	46.833	0.495
736.000	440.458	79.993	19.998	102.873	19.528	52.891	0.549
744.000	444.539	79.994	19.995	102.869	19.445	58.470	0.514
752.000	448.650	79.996	19.996	102.871	19.359	64.195	0.522
760.000	452.662	79.994	19.996	102.875	19.278	69.634	0.464
768.000	456.817	79.992	19.996	102.868	19.307	67.715	0.491
776.000	460.917	79.993	19.996	102.874	19.370	63.441	0.509
784.000	465.009	79.993	19.996	102.878	19.434	59.153	0.492
792.000	469.140	79.993	19.998	102.855	19.488	55.576	0.544
800.000	473.202	79.991	19.997	102.881	19.566	50.395	0.519
808.000	477.323	79.994	19.996	102.877	19.639	45.487	0.523
816.000	481.380	79.993	19.996	102.837	19.686	42.359	0.484
824.000	485.398	79.992	19.996	102.857	19.731	39.354	0.512
832.000	489.221	79.995	19.995	102.846	19.764	37.148	0.493
840.000	493.053	79.994	19.996	102.853	19.844	31.776	0.463
848.000	496.804	79.992	19.996	102.839	19.919	26.764	0.453
856.000	500.631	79.992	19.995	102.841	19.988	22.115	0.490
864.000	504.509	79.992	19.996	102.845	20.043	18.482	0.501
872.000	508.432	79.993	19.996	102.847	20.091	15.235	0.496
880.000	512.416	79.992	19.998	102.848	20.139	12.078	0.498
888.000	516.478	79.993	19.997	102.835	20.171	9.916	0.541
896.000	520.597	79.994	19.996	102.845	20.203	7.755	0.530
904.000	524.700	79.994	19.996	102.850	20.230	5.945	0.515
912.000	528.915	79.995	19.995	102.837	20.255	4.277	0.511
920.000	533.189	79.992	19.996	102.833	20.267	3.493	0.528
928.000	537.477	79.991	19.995	102.835	20.280	2.616	0.510
936.000	541.726	79.993	19.996	102.835	20.293	1.725	0.538
944.000	545.917	79.991	19.998	102.823	20.300	1.308	0.498
952.000	550.098	79.991	19.997	102.835	20.307	0.812	0.541
960.000	554.302	79.991	19.996	102.848	20.313	0.395	0.551
968.000	558.703	79.994	19.996	102.836	20.322	-0.195	0.529
976.000	563.226	79.992	19.996	102.836	20.324	-0.302	0.569
984.000	567.622	79.996	19.995	102.833	20.325	-0.361	0.532
992.000	572.082	79.995	19.995	102.840	20.326	-0.456	0.561
1000.000	576.535	79.991	19.996	102.832	20.330	-0.695	0.552
1008.000	580.869	79.993	19.996	102.829	20.332	-0.862	0.541
1016.000	585.167	79.993	19.995	102.836	20.335	-1.049	0.531
1024.000	589.368	79.992	19.996	102.830	20.338	-1.229	0.524
1031.999	593.536	79.991	19.997	102.837	20.342	-1.492	0.503
1039.999	597.708	79.994	19.996	102.837	20.341	-1.436	0.482
1047.999	601.819	79.992	19.996	102.832	20.343	-1.603	0.503
1055.999	605.900	79.991	19.997	102.832	20.345	-1.747	0.527
1064.000	609.965	79.994	19.997	102.834	20.347	-1.881	0.523
1071.999	614.019	79.994	19.995	102.831	20.352	-2.175	0.525
1079.999	618.070	79.992	19.996	102.838	20.352	-2.183	0.504
1087.999	622.101	79.992	19.995	102.833	20.356	-2.440	0.507
1095.999	626.151	79.991	19.995	102.837	20.352	-2.198	0.518
1103.999	630.167	79.991	19.996	102.838	20.349	-1.983	0.488
1111.999	634.200	79.993	19.996	102.820	20.351	-2.114	0.504
1119.999	638.235	79.993	19.997	102.829	20.356	-2.437	0.487
1127.999	642.212	79.993	19.997	102.831	20.354	-2.342	0.473
1135.999	646.276	79.992	19.996	102.836	20.353	-2.268	0.511
1143.999	650.328	79.992	19.996	102.843	20.358	-2.603	0.497
1151.999	654.452	79.992	19.996	102.831	20.349	-1.999	0.498
1159.999	658.536	79.991	19.996	102.836	20.352	-2.160	0.518
1167.999	662.618	79.992	19.995	102.837	20.353	-2.227	0.533
1175.999	666.663	79.994	19.996	102.834	20.351	-2.127	0.507
1183.999	670.769	79.993	19.996	102.832	20.353	-2.275	0.512
1191.999	674.861	79.992	19.996	102.833	20.354	-2.303	0.501
1199.999	678.966	79.994	19.996	102.832	20.355	-2.377	0.511
1207.999	683.065	79.993	19.996	102.830	20.357	-2.505	0.500
1215.999	687.128	79.992	19.996	102.833	20.356	-2.459	0.508
1224.000	691.227	79.995	19.996	102.834	20.352	-2.195	0.505
1231.999	695.295	79.994	19.996	102.817	20.355	-2.358	0.535
1239.999	699.354	79.992	19.996	102.824	20.359	-2.645	0.522
1247.999	703.385	79.993	19.996	102.815	20.364	-3.000	0.529
1255.999	707.357	79.993	19.997	102.824	20.362	-2.877	0.503
1264.000	711.308	79.993	19.996	102.814	20.361	-2.764	0.492
1271.999	715.216	79.993	19.996	102.823	20.360	-2.753	0.517
1279.999	719.187	79.994	19.996	102.808	20.362	-2.831	0.513
1287.999	723.102	79.994	19.995	102.813	20.365	-3.036	0.500
1295.999	727.085	79.994	19.996	102.804	20.368	-3.229	0.503
1303.999	731.080	79.996	19.997	102.807	20.364	-2.988	0.489
1311.999	735.052	79.995	19.996	102.806	20.366	-3.105	0.496
1319.999	739.117	79.991	19.997	102.812	20.370	-3.416	0.491
1328.000	743.216	79.991	19.997	102.801	20.364	-3.021	0.544
1328.999	743.712	79.991	19.997	102.809	20.367	-3.208	0.494