File: 01_Data/Black_PMMA/Cone/Black_PMMA_Cone_HF50Scalar_220315_R1.csv
LABORATORY,FSRI
TEST IDENT,BlackPMMA_HF50_1
OPERATOR,Dow
MATERIAL,Black PMMA
ORIENTATION,Horizontal
HEAT FLUX,50
SURF AREA,0.01
C FACTOR,0.0394682
SPEC HOLDER DIFF,-566
SPECIMEN MASS,105.1
SCAN TIME,0.25
O2 DELAY TIME,11
CO DELAY TIME,11
CO2 DELAY TIME,8
FLOW FACTOR,1
SCAN COUNT,2033
TIME TO IGN,26.25
END OF TEST SCAN,1553
END OF TEST TIME,388.25
TEST STATUS,1
PRE TEST CMT,Dimensions: 100.97 x 100.99 x 8.60 mm