File: 01_Data/Black_PMMA/Cone/Black_PMMA_Cone_HF50Scan_220315_R3.csv
Names,Time,Stack TC,Smoke TC,Exh Press,Smoke Comp,Smoke Meas,CO Meter,CO2 Meter,O2 Meter,Sample Mass,Ext Coeff,Start Test,Flame Verif
Chan Gain,,500,500,1,1,1,1,1,1,1,1,1.0,1.0
Offset,,0,0,0.132973,0,0,0,0,0,0,0,0.0,0.0
Gain,,1,1,25.011,13.0548,13.4146,1,1,1,1.00087,1.01298,1.0,1.0
Units,sec,C,C,Pa,%,%,%,%,%,g,/m,,
Baseline,,28.8407,29.8984,153.588,99.2414,95.4706,0.000917305,0.0536925,21.0136,-832.772,0.344269,,
21,5,27.7269,28.3878,152.67,99.0897,95.3568,0.000467446,0.0566757,21.0124,-240.289,0.341216,0.0,0.0
42,10.25,27.7428,28.6098,155.104,99.2407,95.9041,0.000555934,0.0549843,21.0148,-240.279,0.303888,0.0,0.0
63,15.5,27.8579,28.4028,156.891,99.2941,96.8633,0.000650773,0.0540704,21.0166,-240.299,0.220238,0.0,0.0
84,20.75,28.1148,28.8446,154.631,99.2104,95.7833,0.00067737,0.0537272,21.0166,-240.299,0.312373,0.0,0.0
105,26,27.9411,28.9764,153.106,98.9961,95.1558,0.000986396,0.0612614,20.9939,-240.359,0.351566,0.0,0.0
126,31.25,30.0198,30.6432,120.374,98.6853,93.5882,0.00319408,0.336164,20.5595,-240.939,0.471225,0.0,1.0
147,36.5,38.6132,38.7637,107.703,98.3451,90.2428,0.00598788,0.780684,19.9647,-241.86,0.763989,0.0,0.0
168,41.75,49.5274,51.1669,112.744,98.0957,89.1293,0.00802545,1.07945,19.5782,-242.881,0.851751,0.0,0.0
189,47,60.1726,63.1344,104.2,97.9989,88.8722,0.00914812,1.25121,19.3543,-244.052,0.868645,0.0,0.0
210,52.25,70.6486,74.6181,107.099,98.112,89.1534,0.00988253,1.36173,19.2109,-245.213,0.850823,0.0,0.0
231,57.5,79.6033,84.9231,100.896,98.4347,88.6384,0.0105097,1.41574,19.1518,-246.434,0.93148,0.0,0.0
252,62.75,88.882,95.3902,110.12,98.904,88.9373,0.0112313,1.47851,19.071,-247.665,0.943836,0.0,0.0
273,68,96.3114,103.962,107.657,99.3554,89.6111,0.0112931,1.52461,19.0118,-248.926,0.917229,0.0,0.0
294,73.25,104.297,112.782,103.757,99.7196,89.6926,0.0113816,1.56764,18.9581,-250.177,0.94166,0.0,0.0
315,78.5,110.512,120.42,101.72,99.916,89.0064,0.0118257,1.60829,18.905,-251.498,1.02738,0.0,0.0
336,83.75,116.04,127.433,102.505,99.9506,88.7162,0.0121727,1.62459,18.8857,-252.819,1.05949,0.0,0.0
357,89,121.489,133.608,103.051,99.8674,89.5006,0.0122706,1.66272,18.8337,-254.141,0.973862,0.0,0.0
378,94.25,126.071,139.006,103.854,99.661,89.2488,0.0126446,1.69454,18.7942,-255.432,0.980513,0.0,0.0
399,99.5,130.669,145.309,94.1628,99.4148,88.0207,0.0128751,1.7173,18.7666,-256.803,1.08166,0.0,0.0
420,104.75,133.775,149.131,98.8958,99.22,88.1038,0.0128851,1.73063,18.7415,-258.174,1.05584,0.0,0.0
441,110,138.452,154.664,100.761,99.3236,87.2215,0.0135875,1.77051,18.6969,-259.535,1.15454,0.0,0.0
462,115.25,141.896,159.272,101.209,99.6148,87.94,0.0134338,1.80271,18.6544,-260.927,1.10766,0.0,0.0
483,120.5,145.657,163.575,94.4895,99.6742,88.2655,0.0140141,1.85361,18.5863,-262.308,1.08013,0.0,0.0
504,125.75,148.854,167.535,96.4694,99.5503,88.7678,0.0138473,1.88836,18.5368,-263.739,1.01865,0.0,0.0
525,131,152.761,172.119,96.6259,99.2224,88.3391,0.0144788,1.92681,18.4965,-265.2,1.03235,0.0,0.0
546,136.25,155.22,175.529,97.5372,98.8172,86.4437,0.0149057,1.92692,18.4866,-266.661,1.18872,0.0,0.0
567,141.5,157.364,179.308,98.4883,98.8897,88.1893,0.0154231,1.94708,18.4578,-268.073,1.01759,0.0,0.0
588,146.75,161.155,182.385,93.6354,99.0092,88.0108,0.0158725,1.95393,18.4527,-269.504,1.04633,0.0,0.0
609,152,163.492,185.556,92.1424,99.1232,87.3832,0.0159982,1.97986,18.4229,-271.075,1.12014,0.0,0.0
630,157.25,166.265,188.313,87.7787,99.2232,88.0686,0.0162408,2.01447,18.3771,-272.527,1.05968,0.0,0.0
651,162.5,167.626,190.994,89.1648,99.2841,88.1443,0.0162023,2.04479,18.3376,-273.978,1.0575,0.0,0.0
672,167.75,171.183,194.684,93.9949,99.2654,87.9068,0.0159368,2.08998,18.2739,-275.509,1.07979,0.0,0.0
693,173,173.506,197.916,91.3005,99.2566,88.857,0.016035,2.12208,18.236,-277.021,0.983477,0.0,0.0
714,178.25,175.509,200.545,88.4466,99.2084,88.4677,0.0160187,2.15044,18.204,-278.542,1.01818,0.0,0.0
735,183.5,178.201,203.731,89.8701,99.1706,88.5508,0.0168729,2.17895,18.169,-280.093,1.00645,0.0,0.0
756,188.75,180.419,206.393,88.842,99.1829,87.0701,0.0173051,2.20755,18.1285,-281.645,1.15739,0.0,0.0
777,194,182.157,208.324,88.4306,99.2029,86.7037,0.0170559,2.21928,18.1095,-283.266,1.19665,0.0,0.0
798,199.25,184.914,211.501,86.0186,99.2136,88.0383,0.0178218,2.27662,18.0364,-284.807,1.06188,0.0,0.0
819,204.5,187.431,214.267,83.2945,99.2558,87.4021,0.0176792,2.28322,18.0261,-286.499,1.13011,0.0,0.0
840,209.75,188.658,216.306,86.3308,99.2917,86.5649,0.0176798,2.2967,18.0019,-288,1.21884,0.0,0.0
861,215,190.68,218.435,92.9461,99.2953,86.1138,0.0180144,2.3424,17.9375,-289.681,1.26559,0.0,0.0
882,220.25,192.811,221.083,84.0143,99.2973,87.8057,0.01925,2.40921,17.8639,-291.333,1.09287,0.0,0.0
903,225.5,195.244,223.977,95.6809,99.2264,87.1229,0.0200961,2.42572,17.8433,-292.994,1.1559,0.0,0.0
924,230.75,197.57,225.536,81.4084,99.1331,86.9108,0.0204583,2.47518,17.7701,-294.666,1.1692,0.0,0.0
945,236,200.184,229.034,88.7824,99.0299,84.2617,0.0208255,2.49838,17.7488,-296.417,1.435,0.0,0.0
966,241.25,201.641,231.104,87.133,98.906,87.642,0.0210845,2.53587,17.6954,-298.059,1.07438,0.0,0.0
987,246.5,204.43,235.083,85.1584,98.8479,86.5158,0.0216523,2.59966,17.631,-299.84,1.18407,0.0,0.0
1008,251.75,207.133,237.311,82.6724,99.3746,85.8698,0.0208898,2.5875,17.6343,-301.542,1.29789,0.0,0.0
1029,257,209.56,239.497,84.5676,99.6634,86.7188,0.0211576,2.62926,17.5766,-303.403,1.23625,0.0,0.0
1050,262.25,211.472,242.373,86.282,99.6566,87.6047,0.0218464,2.66179,17.5319,-305.035,1.14533,0.0,0.0
1071,267.5,213.341,244.648,85.8141,99.3112,86.5256,0.0217975,2.70258,17.4909,-306.896,1.22462,0.0,0.0
1092,272.75,215.199,246.776,85.8973,99.3224,86.2104,0.0224313,2.74135,17.443,-308.668,1.25805,0.0,0.0
1113,278,217.344,249.117,83.3189,99.6554,84.3493,0.0227934,2.78952,17.374,-310.54,1.48172,0.0,0.0
1134,283.25,219.927,251.768,81.5741,99.9287,86.0867,0.0226998,2.85589,17.2875,-312.271,1.32488,0.0,0.0
1155,288.5,222.057,254.436,76.8761,99.9291,86.1514,0.0227774,2.87883,17.2627,-314.233,1.31825,0.0,0.0
1176,293.75,223.519,257.221,89.229,99.5355,84.7804,0.0241085,2.94425,17.1751,-316.114,1.42572,0.0,0.0
1197,299,226.175,259.506,76.9959,98.8467,85.1623,0.0245597,2.97879,17.1295,-317.976,1.32407,0.0,0.0
1218,304.25,229.181,262.819,77.6386,98.218,84.71,0.025288,3.02693,17.0825,-319.848,1.3147,0.0,0.0
1239,309.5,231.165,265.699,84.3654,98.0519,82.0465,0.0254074,3.02849,17.0688,-321.799,1.58353,0.0,0.0
1260,314.75,233.763,268.478,74.3123,98.4387,85.0436,0.0253869,3.11577,16.9645,-323.751,1.29972,0.0,0.0
1281,320,236.627,271.505,80.5467,99.0228,84.7743,0.0262274,3.18498,16.8768,-325.653,1.38047,0.0,0.0
1302,325.25,238.761,274.196,72.2591,99.3307,84.3841,0.0273301,3.19609,16.8557,-327.715,1.44905,0.0,0.0
1323,330.5,240.865,276.745,70.2242,99.1188,85.5128,0.0278977,3.24582,16.7929,-329.726,1.31201,0.0,0.0
1344,335.75,241.671,279.298,78.9637,98.8284,82.5751,0.0269607,3.32171,16.7038,-331.678,1.59657,0.0,0.0
1365,341,245.029,282.664,69.6403,99.5264,84.983,0.0284887,3.44606,16.544,-333.77,1.40369,0.0,0.0
1386,346.25,247.755,285.612,75.6472,99.5359,85.3404,0.0287744,3.4668,16.5211,-335.741,1.36725,0.0,0.0
1407,351.5,249.393,288.525,77.9546,99.3546,85.5959,0.0261003,3.29316,16.7433,-337.693,1.3245,0.0,0.0
1428,356.75,248.715,286.84,84.7775,99.863,85.7404,0.0224345,2.90496,17.2381,-339.275,1.35486,0.0,0.0
1449,362,242.599,280.297,96.3747,99.8893,84.3788,0.0176507,2.21702,18.0766,-340.476,1.49944,0.0,0.0
1470,367.25,230.084,265.842,117.968,99.1809,89.668,0.0119022,1.29932,19.4362,-341.056,0.895967,0.0,0.0
1491,372.5,212.119,245.607,127.626,98.2459,94.4246,0.00657224,0.629077,20.3054,-341.236,0.352513,0.0,0.0
1512,377.75,194.314,225.787,134.101,98.1132,96.9583,0.00365709,0.285623,20.7549,-341.306,0.105222,0.0,0.0
1533,383,179.035,207.033,136.129,98.7558,97.3345,0.00223039,0.141384,20.9234,-341.336,0.128819,0.0,0.0
1554,388.25,164.214,190.016,136.125,99.3144,98.1217,0.00136296,0.0865423,20.9882,-341.306,0.107356,0.0,0.0
1575,393.5,152.776,175.98,138.777,99.0754,96.9656,0.000906334,0.0683874,21.0083,-341.316,0.191258,0.0,0.0
1596,398.75,142.417,163.107,138.895,98.8431,96.7315,0.000662212,0.061135,21.0154,-341.316,0.191888,0.0,0.0
1617,404,133.711,152.414,137.353,99.6431,97.6681,0.000611748,0.0574484,21.0175,-341.326,0.177887,0.0,0.0
1638,409.25,126.058,142.566,136.613,99.2415,96.6565,0.000774778,0.0554744,21.0149,-341.336,0.234515,0.0,0.0
1659,414.5,119.026,134.344,137.75,99.8395,97.2432,0.000452462,0.0543417,21.0165,-341.346,0.23413,0.0,0.0
1680,419.75,112.899,126.32,139.502,99.8072,97.4409,0.000869196,0.0536177,21.0169,-341.336,0.213207,0.0,0.0
1701,425,107.475,119.77,139.24,98.8403,96.5595,0.000860447,0.053523,21.0169,-341.346,0.207444,0.0,0.0
1722,430.25,102.794,113.338,139.52,98.0626,95.7784,0.000888548,0.0533985,21.0164,-341.346,0.209427,0.0,0.0
1743,435.5,98.6797,107.583,139.988,98.4594,95.7899,0.000695444,0.0533254,21.0161,-341.296,0.244247,0.0,0.0
1764,440.75,93.8816,102.528,140.686,99.1977,96.5878,0.000627797,0.0531337,21.0155,-341.316,0.236916,0.0,0.0
1785,446,91.0018,98.2296,139.489,99.1977,96.2644,0.000668178,0.0530197,21.0154,-341.296,0.266718,0.0,0.0
1806,451.25,88.4311,94.2819,144.704,98.7694,95.4673,0.000555017,0.0528238,21.0147,-341.326,0.302151,0.0,0.0
1827,456.5,86.0065,90.2067,139.548,99.3865,95.8816,0.000687814,0.0524179,21.0163,-341.346,0.319021,0.0,0.0
1848,461.75,83.3246,86.6734,141.777,99.5638,96.2001,0.000714465,0.0524604,21.0166,-341.336,0.305389,0.0,0.0
1869,467,80.9947,83.7235,140.374,99.1857,95.2331,0.000856349,0.052378,21.0166,-341.346,0.361349,0.0,0.0
1890,472.25,78.5543,80.4295,142.432,99.6224,95.706,0.000501906,0.0518452,21.0178,-341.376,0.356373,0.0,0.0
1911,477.5,76.842,78.7459,143.008,99.9395,95.8918,0.000396173,0.0514097,21.016,-341.336,0.367375,0.0,0.0
1932,482.75,75.5484,76.2553,141.845,99.8973,96.4146,0.000250948,0.0514061,21.0192,-341.336,0.315308,0.0,0.0
1953,488,73.5571,73.7111,145.176,99.5515,95.4481,0.000295217,0.0510908,21.0194,-341.376,0.374023,0.0,0.0
1974,493.25,72.5499,72.3109,142.357,99.0116,94.5576,,0.0512643,,-341.346,0.408989,0.0,0.0
1995,498.5,71.2728,69.9779,143.533,98.5371,93.7319,,,,-341.366,0.444238,0.0,0.0
2011,502.5,70.1996,69.39,142.269,98.2698,93.6554,,,,-341.356,0.427359,0.0,0.0