File: 01_Data/Black_PMMA/Cone/Black_PMMA_Cone_HF25Scalar_220309_R1.csv
LABORATORY,FSRI
TEST IDENT,Black_PMMA_HF25_1
OPERATOR,Dow
MATERIAL,black PMMA
ORIENTATION,Horizontal
HEAT FLUX,25
SURF AREA,0.01
C FACTOR,0.0374868
SPEC HOLDER DIFF,-85.1
SPECIMEN MASS,103.6
SCAN TIME,0.25
O2 DELAY TIME,11
CO DELAY TIME,11
CO2 DELAY TIME,8
FLOW FACTOR,1
SCAN COUNT,3297
TIME TO IGN,109.5
END OF TEST SCAN,2817
END OF TEST TIME,704.25
TEST STATUS,1
PRE TEST CMT,Dimensions: 100.83 x 100.80 x 8.25 mm