File: 01_Data/Black_PMMA/Cone/Black_PMMA_Cone_HF25Scalar_220909_R4.csv
LABORATORY,FSRI
TEST IDENT,PMMA_HF25
OPERATOR,Dow
MATERIAL,Black PMMA
ORIENTATION,Horizontal
HEAT FLUX,25
SURF AREA,0.01
C FACTOR,0.0424895
SPEC HOLDER DIFF,-566
SPECIMEN MASS,101.43
SCAN TIME,0.25
O2 DELAY TIME,11
CO DELAY TIME,11
CO2 DELAY TIME,8
FLOW FACTOR,1
SCAN COUNT,3045
TIME TO IGN,102.25
END OF TEST SCAN,2565
END OF TEST TIME,641.25
TEST STATUS,1
PRE TEST CMT,Dimensions: 101.14 x 100.87 x 8.32 mm
POST TEST CMT,sample slightly preheated due to false start with shutter