File: 01_Data/Black_PMMA/Cone/Black_PMMA_Cone_HF75Scan_220315_R2.csv
Names,Time,Stack TC,Smoke TC,Exh Press,Smoke Comp,Smoke Meas,CO Meter,CO2 Meter,O2 Meter,Sample Mass,Ext Coeff,Start Test,Flame Verif
Chan Gain,,500,500,1,1,1,1,1,1,1,1,1.0,1.0
Offset,,0,0,0.132973,0,0,0,0,0,0,0,0.0,0.0
Gain,,1,1,25.011,13.0548,13.4146,1,1,1,1.00087,1.01298,1.0,1.0
Units,sec,C,C,Pa,%,%,%,%,%,g,/m,,
Baseline,,48.8948,48.4652,144.512,99.3813,94.7789,0.000567432,0.047817,21.0247,-833.515,0.421357,,
16,3.75,47.2026,46.9656,146.95,99.4431,95.5287,0.000262014,0.0556216,21.0178,-238.767,0.356841,0.0,0.0
32,7.75,47.1714,46.6145,143.713,99.455,94.8033,0.00039222,0.0532056,21.0186,-238.817,0.425642,0.0,0.0
48,11.75,46.8032,46.9795,147.439,99.4427,95.2364,0.00130138,0.070095,20.9683,-238.927,0.384036,0.0,0.0
64,15.75,50.0559,49.1496,111.855,99.4287,89.094,0.00533903,0.53829,20.2506,-239.658,0.9752,0.0,1.0
80,19.75,60.3873,60.4652,94.8749,99.4036,86.9812,0.0107667,1.23589,19.3162,-240.779,1.18622,0.0,0.0
96,23.75,73.9342,75.0457,89.6472,99.3483,84.3845,0.0153354,1.74502,18.7342,-241.95,1.45058,0.0,0.0
112,27.75,86.9125,90.2102,92.74,99.2813,83.978,0.0182987,2.06343,18.2869,-243.231,1.4875,0.0,0.0
128,31.75,99.6125,105.158,104.014,99.2172,83.4712,0.0202698,2.27385,18.0249,-244.502,1.53554,0.0,0.0
144,35.75,111.529,119.509,87.0636,99.1192,80.077,0.0216314,2.41745,17.8426,-245.843,1.89564,0.0,0.0
160,39.75,122.081,131.817,85.4973,99.0303,83.264,0.0225769,2.53388,17.6939,-247.265,1.54087,0.0,0.0
176,43.75,132.768,144.672,84.1234,98.9419,84.6588,0.0228578,2.67169,17.5239,-248.656,1.38532,0.0,0.0
192,47.75,142.886,156.546,82.6999,98.8662,83.4802,0.022986,2.73826,17.4566,-249.977,1.5031,0.0,0.0
208,51.75,151.18,166.808,80.4902,98.7969,82.6025,0.0237423,2.78091,17.3932,-251.488,1.59078,0.0,0.0
224,55.75,159.091,177.352,85.9286,98.6913,82.1776,0.0239364,2.85675,17.2984,-252.98,1.62711,0.0,0.0
240,59.75,166.83,186.641,81.984,98.6044,82.7302,0.024511,2.93964,17.2047,-254.411,1.55973,0.0,0.0
256,63.75,173.739,195.756,85.8278,98.5415,81.6237,0.024527,2.9786,17.1439,-255.842,1.67371,0.0,0.0
272,67.75,180.182,203.284,76.8769,98.4714,83.7246,0.0250107,3.00716,17.1199,-257.333,1.44156,0.0,0.0
288,71.75,185.422,210.371,84.1807,98.4319,81.0923,0.0260664,3.01623,17.1045,-258.805,1.72186,0.0,0.0
304,75.75,190.434,217.224,78.6797,98.3674,82.0953,0.0271348,3.08699,17.016,-260.386,1.6068,0.0,0.0
320,79.75,195.721,223.811,76.9326,98.3355,80.1151,0.0277035,3.11338,16.9765,-261.807,1.82088,0.0,0.0
336,83.75,200.441,230.121,80.9245,98.2985,81.1168,0.0278194,3.15533,16.9292,-263.339,1.70711,0.0,0.0
352,87.75,204.675,235.735,77.6966,98.273,83.2035,0.0279647,3.18171,16.8836,-264.9,1.47912,0.0,0.0
368,91.75,208.753,241.005,84.831,98.2566,81.2667,0.0287227,3.24841,16.8102,-266.491,1.68693,0.0,0.0
384,95.75,213.086,246.827,80.13,98.228,82.0674,0.0285629,3.27108,16.7838,-268.003,1.59721,0.0,0.0
400,99.75,216.86,251.558,76.8876,98.2276,82.5787,0.0283532,3.29335,16.7683,-269.484,1.54199,0.0,0.0
416,103.75,219.409,255.546,73.0704,98.226,81.8427,0.0277774,3.31082,16.7164,-271.125,1.6214,0.0,0.0
432,107.75,223.027,259.925,78.4843,98.218,80.0263,0.0285535,3.36718,16.6584,-272.707,1.82011,0.0,0.0
448,111.75,226.075,263.759,73.5437,98.2208,82.3008,0.0286893,3.38258,16.6367,-274.248,1.57133,0.0,0.0
464,115.75,228.515,267.054,83.5441,98.2212,81.1258,0.029226,3.42714,16.5936,-275.849,1.69914,0.0,0.0
480,119.75,231.427,270.895,76.725,98.2299,83.1588,0.0301289,3.50465,16.4875,-277.481,1.48,0.0,0.0
496,123.75,235.33,275.128,82.2427,98.2435,81.4132,0.0298986,3.56452,16.421,-279.112,1.66973,0.0,0.0
512,127.75,237.121,278.535,79.0568,98.2511,80.2526,0.0300562,3.55327,16.4241,-280.714,1.798,0.0,0.0
528,131.75,239.537,281.476,79.8704,98.2782,79.9648,0.0301223,3.58966,16.378,-282.355,1.83237,0.0,0.0
544,135.75,241.672,284.536,67.9756,98.3021,82.7785,0.0300596,3.65793,16.3032,-284.007,1.52725,0.0,0.0
560,139.75,244.094,287.647,70.2288,98.3311,81.5344,0.0301533,3.69645,16.2458,-285.688,1.66444,0.0,0.0
576,143.75,246.717,290.647,72.7811,98.3702,81.4484,0.0302009,3.73968,16.19,-287.329,1.67734,0.0,0.0
592,147.75,249.471,293.621,77.6669,98.3945,81.3125,0.0303381,3.77523,16.1447,-289.021,1.69438,0.0,0.0
608,151.75,251.998,296.858,75.5121,98.4168,81.6437,0.0299606,3.80867,16.1071,-290.702,1.66027,0.0,0.0
624,155.75,253.398,299.443,70.9523,98.4451,80.4287,0.0293859,3.84082,16.0667,-292.424,1.79606,0.0,0.0
640,159.75,256.022,302.456,70.8012,98.475,82.422,0.0297577,3.91023,15.9809,-294.105,1.58123,0.0,0.0
656,163.75,259.305,306.457,69.5456,98.4977,80.6694,0.0308881,3.98903,15.8882,-295.877,1.77425,0.0,0.0
672,167.75,261.534,309.244,70.2043,98.5088,81.2998,0.0311004,4.04075,15.8122,-297.588,1.70609,0.0,0.0
688,171.75,264.761,312.588,74.6359,98.5248,82.71875,0.0316237,4.0775,15.7622,-299.32,1.55378,0.0,0.0
704,175.75,266.41,315.267,72.156,98.5371,82.4678,0.0322496,4.1794,15.6444,-301.121,1.58189,0.0,0.0
720,179.75,269.848,319.575,74.9504,98.5554,82.0097,0.0316082,4.20905,15.6054,-302.873,1.63304,0.0,0.0
736,183.75,271.791,322.397,64.1775,98.5678,81.9336,0.0315869,4.23388,15.5829,-304.715,1.64241,0.0,0.0
752,187.75,274.353,325.595,79.2621,98.5877,81.595,0.0321762,4.23944,15.5661,-306.436,1.681,0.0,0.0
768,191.75,275.995,327.626,66.4956,98.5881,82.2586,0.0328091,4.30978,15.4816,-308.308,1.60906,0.0,0.0
784,195.75,278.054,330.632,69.8494,98.5853,81.1451,0.033162,4.35455,15.4257,-310.179,1.72991,0.0,0.0
800,199.75,280.969,333.685,62.7311,98.5774,82.3745,0.0334809,4.42608,15.3447,-311.961,1.59558,0.0,0.0
816,203.75,282.356,335.896,63.1204,98.5722,82.3364,0.0338539,4.46016,15.295,-313.752,1.59922,0.0,0.0
832,207.75,284.82,338.5,77.7287,98.5694,79.989,0.033944,4.47535,15.2664,-315.654,1.85598,0.0,0.0
848,211.75,287.049,341.588,72.3308,98.5662,82.232,0.0335772,4.57138,15.1705,-317.516,1.60996,0.0,0.0
864,215.75,289.52,344.978,76.0022,98.5754,81.8762,0.0335032,4.56078,15.1695,-319.287,1.64931,0.0,0.0
880,219.75,290.982,346.998,61.9518,98.5702,82.6848,0.0338879,4.51316,15.2126,-321.199,1.56152,0.0,0.0
896,223.75,292.774,348.905,61.345,98.555,83.4593,0.0335071,4.54109,15.1923,-322.97,1.47731,0.0,0.0
912,227.75,294.853,352.011,61.7343,98.557,83.1609,0.0335141,4.58752,15.1233,-324.832,1.50932,0.0,0.0
928,231.75,296.979,354.453,75.3534,98.5411,81.7997,0.0344823,4.70059,14.9996,-326.644,1.65453,0.0,0.0
944,235.75,298.008,356.109,57.7965,98.5395,80.9981,0.0360625,4.8385,14.7904,-328.685,1.74189,0.0,0.0
960,239.75,302.747,361.941,59.101,98.5104,81.593,0.0382944,5.09417,14.496,-330.687,1.67425,0.0,0.0
976,243.75,306.189,366.989,78.827,98.4754,79.1064,0.0395606,5.23762,14.3172,-332.729,1.9461,0.0,0.0
992,247.75,308.746,370.55,71.8034,98.4547,82.1186,0.0410868,5.45077,14.0735,-334.781,1.61216,0.0,0.0
1008,251.75,312.723,376.454,70.1906,98.4064,79.9562,0.0427882,5.72529,13.754,-336.912,1.84492,0.0,0.0
1024,255.75,315.595,381.055,72.9086,98.369,81.5463,0.0443945,5.755,13.7072,-339.014,1.66657,0.0,0.0
1040,259.75,317.157,383.755,73.4513,98.3307,75.8497,0.0415811,5.00429,14.5874,-340.676,2.30659,0.0,0.0
1056,263.75,311.333,375.405,94.162,98.2805,81.7854,0.0301406,3.50395,16.6207,-341.687,1.63256,0.0,0.0
1072,267.75,297.154,358.525,118.769,98.2499,93.2472,0.0190061,1.90112,18.6815,-342.027,0.464367,0.0,0.0
1088,271.75,277.88,335.099,126.842,98.2208,97.9314,0.0129035,0.794475,20.1299,-342.087,0.0262226,0.0,0.0
1104,275.75,258.089,310.46,125,98.2248,97.7173,0.0102214,0.344094,20.6935,-342.097,0.0460306,0.0,0.0
1120,279.75,240.83,289.88,128.094,98.2136,98.0718,0.00740294,0.188543,20.871,-342.107,0.0128417,0.0,0.0
1136,283.75,226.181,271.035,126.685,98.222,98.1909,0.00521289,0.132415,20.9435,-342.137,0.0028119,0.0,0.0
1152,287.75,212.852,253.931,129.918,98.2491,97.8024,0.00354206,0.106794,20.9725,-342.077,0.0404891,0.0,0.0
1168,291.75,201.744,239.078,128.225,98.3064,97.8282,0.00256252,0.0899228,20.9913,-342.117,0.0433335,0.0,0.0
1184,295.75,190.798,226.206,131.181,98.3503,98.0087,0.00187281,0.0792474,21.0017,-342.107,0.0309106,0.0,0.0
1200,299.75,181.666,213.104,131.201,98.4156,98.2748,0.00134748,0.071367,21.0096,-342.077,0.012719,0.0,0.0
1216,303.75,173.939,203.444,128.167,98.5056,97.9465,0.00100715,0.0657755,21.0106,-342.107,0.0505818,0.0,0.0
1232,307.75,166.223,192.877,128.844,98.604,98.4668,0.00084881,0.0613892,21.0141,-342.107,0.0123742,0.0,0.0
1248,311.75,159.219,184.09,128.32,98.7017,98.3678,0.000799695,0.058062,21.0173,-342.087,0.0301104,0.0,0.0
1264,315.75,152.936,175.944,131.291,98.8148,98.2609,0.000722378,0.055484,21.0213,-342.107,0.0499477,0.0,0.0
1280,319.75,147.645,167.576,131.725,98.9068,98.1414,0.000889629,0.0534504,21.0243,-342.137,0.0690367,0.0,0.0
1296,323.75,142.39,160.564,129.947,99.0104,98.4169,0.000857985,0.0520544,21.0232,-342.097,0.0534272,0.0,0.0
1312,327.75,137.98,154.094,131.459,99.108,98.6904,0.000742428,0.0510606,21.0226,-342.077,0.0375267,0.0,0.0
1328,331.75,133.528,148.596,133.312,99.1985,98.4836,0.000601875,0.0502492,21.0241,-342.107,0.0642646,0.0,0.0
1344,335.75,129.993,143.2,131.768,99.2789,97.8352,0.000493756,0.0496687,21.0246,-342.117,0.130172,0.0,0.0
1360,339.75,126.627,137.953,131.108,99.3264,97.9072,0.000446751,0.0491515,21.0254,-342.177,0.127874,0.0,0.0
1376,343.75,123.073,133.608,131.034,99.369,98.6003,0.000247943,0.0486186,21.0256,-342.127,0.0690051,0.0,0.0
1392,347.75,119.965,129.646,134.468,99.4136,98.5446,0.00026112,0.0482059,21.0251,-342.137,0.0780135,0.0,0.0
1408,351.75,117.522,125.79,131.602,99.4443,98.3031,4.80627e-05,0.0482119,21.0254,-342.127,0.102561,0.0,0.0
1424,355.75,114.333,121.765,134.764,99.4423,98.8631,0.00019033,0.0480498,21.026,-342.137,0.0519035,0.0,0.0
1440,359.75,112.062,118.618,134.445,99.4172,97.5179,0.00018161,0.0478383,21.0267,-342.137,0.1714,0.0,0.0
1456,363.75,109.674,115.281,130.39,99.3933,97.9891,0.000279941,0.0475747,21.0269,-342.157,0.126431,0.0,0.0
1472,367.75,108.329,112.737,132.466,99.3562,97.2743,0.000249322,0.0474773,21.027,-342.177,0.188173,0.0,0.0
1488,371.75,106.134,109.688,132.492,99.2945,97.486,0.00015537,0.0471837,21.0265,-342.157,0.163335,0.0,0.0
1504,375.75,104.162,106.991,136.624,99.2379,97.558,0.000352249,0.0471611,21.0264,-342.137,0.151706,0.0,0.0
1520,379.75,102.38,104.638,130.24,99.1602,97.4753,0.000390225,0.0472039,21.0274,-342.137,0.152282,0.0,0.0
1536,383.75,100.674,102.457,134.731,99.0925,97.5163,,0.0471675,,-342.147,0.142479,0.0,0.0
1552,387.75,99.0883,100.426,132.86,99.0275,97.4982,,,,-342.167,0.138296,0.0,0.0
1568,391.75,97.7925,98.5659,133.777,98.9789,96.4322,,,,-342.137,0.231624,0.0,0.0
1576,393.75,97.6769,97.6282,135.591,98.965,96.6234,,,,-342.177,0.212774,0.0,0.0