File: 01_Data/Black_PMMA/Cone/Black_PMMA_Cone_HF25Scalar_220315_R3.csv
LABORATORY,FSRI
TEST IDENT,BlackPMMA_HF25_3
OPERATOR,Dow
MATERIAL,Black PMMA
ORIENTATION,Horizontal
HEAT FLUX,25
SURF AREA,0.01
C FACTOR,0.0394682
SPEC HOLDER DIFF,-566
SPECIMEN MASS,102.5
SCAN TIME,0.25
O2 DELAY TIME,11
CO DELAY TIME,11
CO2 DELAY TIME,8
FLOW FACTOR,1
SCAN COUNT,3132
TIME TO IGN,116.75
END OF TEST SCAN,2652
END OF TEST TIME,663
TEST STATUS,1
PRE TEST CMT,Dimensions: 100.17 x 100.94 x 8.38 mm