File: 01_Data/Black_PMMA/Cone/Black_PMMA_Cone_HF75Scan_220315_R3.csv
Names,Time,Stack TC,Smoke TC,Exh Press,Smoke Comp,Smoke Meas,CO Meter,CO2 Meter,O2 Meter,Sample Mass,Ext Coeff,Start Test,Flame Verif
Chan Gain,,500,500,1,1,1,1,1,1,1,1,1.0,1.0
Offset,,0,0,0.132973,0,0,0,0,0,0,0,0.0,0.0
Gain,,1,1,25.011,13.0548,13.4146,1,1,1,1.00087,1.01298,1.0,1.0
Units,sec,C,C,Pa,%,%,%,%,%,g,/m,,
Baseline,,54.8734,54.0266,142.736,98.9834,93.4208,0.000329859,0.0466014,21.0257,-833.677,0.513958,,
16,3.75,50.366,50.1251,140.699,99.0331,93.49,0.000371301,0.0525009,21.0193,-243.932,0.511821,0.0,0.0
32,7.75,50.2297,49.8514,141.148,99.2718,93.6873,0.000634361,0.0548305,21.0159,-243.952,0.514473,0.0,0.0
48,11.75,49.9342,49.4552,139.142,99.3917,95.055,0.0016173,0.0840697,20.964,-244.122,0.396415,0.0,0.0
64,15.75,52.8916,52.3499,109.38,99.4993,89.2639,0.00550081,0.579317,20.4168,-244.813,0.964572,0.0,1.0
80,19.75,63.9368,63.3318,94.059,99.52,87.5928,0.0111481,1.24086,19.3513,-245.954,1.13435,0.0,0.0
96,23.75,76.2362,78.1265,79.9078,99.5192,86.2145,0.0151264,1.75093,18.7072,-247.125,1.27522,0.0,0.0
112,27.75,89.6641,92.5774,93.5689,99.4522,86.9612,0.0186689,2.09394,18.2572,-248.316,1.19261,0.0,0.0
128,31.75,102.637,107.782,84.4623,99.404,83.8437,0.0208785,2.27956,18.023,-249.637,1.51269,0.0,0.0
144,35.75,114.219,122.101,80.8032,99.3005,84.1295,0.0223937,2.46225,17.7864,-251.008,1.4732,0.0,0.0
160,39.75,125.197,135.176,84.0509,99.1845,83.4724,0.0236624,2.59482,17.6345,-252.449,1.53249,0.0,0.0
176,43.75,136.095,147.946,85.4225,99.0766,82.7413,0.024766,2.74611,17.4384,-253.74,1.60098,0.0,0.0
192,47.75,146.319,160.109,87.9207,99.1108,83.4712,0.0250545,2.83399,17.3303,-255.212,1.52601,0.0,0.0
208,51.75,154.68,171.353,90.4678,99.163,82.9656,0.0251026,2.89337,17.2563,-256.683,1.58468,0.0,0.0
224,55.75,163.933,181.279,78.1989,99.208,83.0454,0.024931,2.94571,17.1971,-258.164,1.58016,0.0,0.0
240,59.75,171.361,191.211,79.6155,99.2618,83.6656,0.0254539,2.9963,17.1425,-259.645,1.51886,0.0,0.0
256,63.75,177.482,201.077,79.3125,99.3291,82.7024,0.0261239,3.07745,17.0373,-261.157,1.62779,0.0,0.0
272,67.75,184.305,208.705,81.0176,99.3877,82.3434,0.0261437,3.0862,17.0198,-262.668,1.67168,0.0,0.0
288,71.75,190.074,216.615,84.3417,99.4526,85.4133,0.0264669,3.14461,16.9532,-264.169,1.35223,0.0,0.0
304,75.75,195.289,224.13,74.2924,99.5164,82.1399,0.0268656,3.19318,16.8852,-265.731,1.70516,0.0,0.0
320,79.75,200.429,230.257,80.2154,99.5825,83.2415,0.0270525,3.24388,16.8389,-267.202,1.59269,0.0,0.0
336,83.75,205.777,237.33,84.8913,99.651,83.5887,0.0269674,3.26294,16.7984,-268.783,1.56182,0.0,0.0
352,87.75,210.585,243.093,80.6528,99.7072,83.2825,0.0271298,3.30796,16.7485,-270.285,1.59944,0.0,0.0
368,91.75,214.849,248.517,73.5895,99.7598,82.5501,0.027163,3.33439,16.7068,-271.876,1.68261,0.0,0.0
384,95.75,218.827,253.65,84.8249,99.8076,83.5916,0.0268104,3.37039,16.6624,-273.387,1.57546,0.0,0.0
400,99.75,221.917,258.254,73.178,99.865,82.7875,0.0265223,3.40286,16.6284,-274.989,1.66645,0.0,0.0
416,103.75,224.953,262.205,76.354,99.8989,82.2627,0.0270304,3.44126,16.5705,-276.68,1.72597,0.0,0.0
432,107.75,229.184,266.566,77.2501,99.9299,84.4832,0.0278653,3.51676,16.4881,-278.182,1.49207,0.0,0.0
448,111.75,232.186,271.237,77.6615,99.9415,83.0106,0.0284161,3.54343,16.4443,-279.773,1.64934,0.0,0.0
464,115.75,235.38,275.318,79.6621,99.9534,82.7814,0.028303,3.5893,16.3924,-281.484,1.67498,0.0,0.0
480,119.75,237.829,279.37,76.0846,99.9479,82.521,0.0284612,3.65212,16.3228,-283.056,1.70247,0.0,0.0
496,123.75,241.464,282.603,70.0013,99.9339,83.7103,0.0290926,3.68528,16.2828,-284.697,1.57409,0.0,0.0
512,127.75,244.189,286.409,78.9194,99.9168,83.5952,0.0297682,3.69142,16.263,-286.409,1.58478,0.0,0.0
528,131.75,246.307,290.133,75.7297,99.8909,82.7036,0.0305054,3.73198,16.2159,-288.06,1.67777,0.0,0.0
544,135.75,249.456,293.758,77.4547,99.8642,82.9611,0.0306472,3.85119,16.0777,-289.681,1.64777,0.0,0.0
560,139.75,252.408,297.741,74.0024,99.8371,84.3501,0.0301845,3.84123,16.0685,-291.403,1.49781,0.0,0.0
576,143.75,255.123,300.922,78.0355,99.7698,84.0832,0.0297321,3.89094,16.0212,-293.165,1.51998,0.0,0.0
592,147.75,257.162,304.127,72.8254,99.7204,83.6824,0.0301339,3.9361,15.9573,-294.866,1.55804,0.0,0.0
608,151.75,259.677,307.189,72.9926,99.6722,81.5999,0.0311766,3.9723,15.9046,-296.537,1.77767,0.0,0.0
624,155.75,262.275,310.212,77.3356,99.6188,81.2188,0.0322209,4.05963,15.8099,-298.289,1.81451,0.0,0.0
640,159.75,264.971,313.948,72.1736,99.5773,83.5649,0.0323627,4.16469,15.6865,-300.091,1.55777,0.0,0.0
656,163.75,267.774,317.898,76.3204,99.5343,81.6073,0.0319213,4.14004,15.6777,-301.832,1.76457,0.0,0.0
672,167.75,270.021,320.462,66.3857,99.4941,83.1723,0.031926,4.20414,15.6136,-303.604,1.59218,0.0,0.0
688,171.75,271.915,324.099,79.888,99.4582,82.0056,0.0322471,4.24456,15.5723,-305.445,1.71451,0.0,0.0
704,175.75,274.791,326.482,69.915,99.4287,82.5431,0.0326299,4.30504,15.4967,-307.147,1.65382,0.0,0.0
720,179.75,276.874,329.606,72.7766,99.4028,81.5148,0.032949,4.34947,15.4454,-309.008,1.7629,0.0,0.0
736,183.75,279.481,332.543,61.9732,99.3646,82.9067,0.03208,4.36327,15.4178,-310.83,1.60904,0.0,0.0
752,187.75,281.574,335.673,73.7459,99.3379,81.3092,0.031772,4.39128,15.3866,-312.571,1.77953,0.0,0.0
768,191.75,284.577,338.285,68.9579,99.3052,82.6086,0.0319215,4.40637,15.3778,-314.363,1.63573,0.0,0.0
784,195.75,285.727,340.605,74.0604,99.2626,81.6036,0.0324202,4.38936,15.3853,-316.225,1.74068,0.0,0.0
800,199.75,287.419,343.173,68.806,99.2323,82.0056,0.0326683,4.4559,15.321,-317.956,1.6943,0.0,0.0
816,203.75,289.359,345.454,64.6332,99.1973,85.593,0.0321807,4.4217,15.3355,-319.818,1.31071,0.0,0.0
832,207.75,290.969,347.13,67.8664,99.1327,81.6994,0.0319503,4.4793,15.2789,-321.539,1.71862,0.0,0.0
848,211.75,292.38,350.27,65.2324,99.0594,82.2918,0.032214,4.48046,15.2736,-323.431,1.64785,0.0,0.0
864,215.75,293.943,351.594,61.9152,98.9813,82.833,0.032576,4.46237,15.3183,-325.182,1.5826,0.0,0.0
880,219.75,294.897,352.681,66.8719,98.8865,82.9697,0.032611,4.37859,15.3646,-327.014,1.55943,0.0,0.0
896,223.75,296.058,353.22,65.5667,98.8033,82.3323,0.0334327,4.53177,15.2163,-328.886,1.62047,0.0,0.0
912,227.75,297.348,355.592,62.1815,98.7136,81.1357,0.034298,4.75979,14.9674,-330.817,1.7425,0.0,0.0
928,231.75,300.042,359.2,57.5424,98.6538,83.1036,0.036021,5.03446,14.5809,-332.839,1.52417,0.0,0.0
944,235.75,303.336,363.893,64.7194,98.5857,80.0267,0.0379703,5.25217,14.3117,-334.861,1.85327,0.0,0.0
960,239.75,307.036,368.812,68.3748,98.5347,80.0672,0.0399819,5.44515,14.0991,-337.063,1.84418,0.0,0.0
976,243.75,310.468,373.123,65.0087,98.4809,80.4696,0.0434001,5.67313,13.8365,-339.114,1.79478,0.0,0.0
992,247.75,312.791,377.548,70.3654,98.4475,81.6683,0.0435593,5.60097,13.8386,-341.126,1.66037,0.0,0.0
1008,251.75,313.871,378.182,67.7321,98.4188,76.244,0.0407787,4.9847,14.689,-342.828,2.26847,0.0,0.0
1024,255.75,309.073,372.899,83.0716,98.3861,81.2589,0.0320695,3.72759,16.2918,-344.009,1.69948,0.0,0.0
1040,259.75,298.299,358.575,109.347,98.3817,87.3984,0.0211549,2.2071,18.2693,-344.589,1.05188,0.0,0.0
1056,263.75,280.597,337.193,119.152,98.3622,94.5609,0.0133885,1.06714,19.7484,-344.749,0.35021,0.0,0.0
1072,267.75,263.033,315.3125,127.107,98.3371,98.089,0.00915253,0.492601,20.497,-344.849,0.0224513,0.0,0.0
1088,271.75,245.929,293.641,128.615,98.3176,98.3072,0.00700309,0.246796,20.8023,-344.829,0.000941636,0.0,0.0
1104,275.75,230.473,274.97,127.935,98.3041,98.2789,0.00546579,0.145152,20.9269,-344.819,0.00227183,0.0,0.0
1120,279.75,216.573,257.777,127.506,98.2965,98.2384,0.00402785,0.103437,20.9798,-344.799,0.0052524,0.0,0.0
1136,283.75,204.547,242.568,126.812,98.2813,98.3379,0.00269481,0.0832217,21.003,-344.799,-0.00510977,0.0,0.0
1152,287.75,193.804,228.371,128.516,98.2865,98.615,0.0018727,0.0704926,21.0157,-344.819,-0.0296495,0.0,0.0
1168,291.75,184.864,216.608,128.18,98.273,98.4091,0.00157433,0.0632691,21.0228,-344.829,-0.0123002,0.0,0.0
1184,295.75,176.451,205.967,130.039,98.2718,98.4992,0.00127428,0.0585214,21.0218,-344.809,-0.0205364,0.0,0.0
1200,299.75,169.067,195.45,126.078,98.2658,98.3215,0.000868522,0.0554718,21.0239,-344.829,-0.00503505,0.0,0.0
1216,303.75,162.101,185.904,129.823,98.2634,98.5258,0.000641555,0.0536953,21.0258,-344.859,-0.0236929,0.0,0.0
1232,307.75,155.882,178.199,128.171,98.2738,98.536,0.000541869,0.0522376,21.0277,-344.839,-0.0236801,0.0,0.0
1248,311.75,149.749,170.3,127.23,98.263,98.2568,0.000699304,0.0509745,21.0292,-344.789,0.000560333,0.0,0.0
1264,315.75,144.705,162.872,130.152,98.2754,98.4693,0.00097002,0.0499654,21.0292,-344.829,-0.0175163,0.0,0.0
1280,319.75,140.068,156.724,129.639,98.2674,98.1246,0.000927961,0.0493209,21.0274,-344.849,0.0129232,0.0,0.0
1296,323.75,135.75,150.585,130.147,98.2885,98.5262,0.000626796,0.0486221,21.0287,-344.849,-0.0214612,0.0,0.0
1312,327.75,132.126,145.225,131.113,98.2833,98.1876,0.000357647,0.048241,21.0291,-344.849,0.00865633,0.0,0.0
1328,331.75,128.279,140.572,131.791,98.2989,98.482,0.000305717,0.0478417,21.0306,-344.859,-0.0165367,0.0,0.0
1344,335.75,125.491,135.642,129.615,98.2694,98.5741,0.000345552,0.0476716,21.0314,-344.809,-0.0275087,0.0,0.0
1360,339.75,122.148,131.274,129.215,98.2857,97.8753,0.0003325,0.0474371,21.0298,-344.879,0.0371859,0.0,0.0
1376,343.75,119.944,127.328,132.4,98.2706,97.8863,0.000108744,0.0474059,21.0283,-344.859,0.0348133,0.0,0.0
1392,347.75,116.819,123.795,133.473,98.2897,98.396,0.000205023,0.0471522,21.028,-344.849,-0.00960424,0.0,0.0
1408,351.75,113.735,120.082,134.048,98.2802,98.2077,0.000251598,0.0468027,21.0279,-344.859,0.00655337,0.0,0.0
1424,355.75,111.38,116.842,136.083,98.2849,97.5379,0.000352096,0.0467083,21.03,-344.869,0.0677911,0.0,0.0
1440,359.75,110.083,114.326,132.433,98.2817,97.8847,0.000569548,0.0463378,21.0319,-344.869,0.0359707,0.0,0.0
1456,363.75,108.015,111.307,133.705,98.2758,97.6051,0.00064943,0.0462703,21.0304,-344.889,0.0608493,0.0,0.0
1472,367.75,105.766,108.757,136.571,98.2929,97.3521,0.000587931,0.0461397,21.0295,-344.859,0.0854602,0.0,0.0
1488,371.75,104.27,106.068,134.982,98.2841,97.8352,0.000521864,0.0461736,21.0311,-344.829,0.0406852,0.0,0.0
1504,375.75,102.111,104.163,133.733,98.2786,97.7074,0.000354455,0.046139,21.0309,-344.869,0.0517888,0.0,0.0
1520,379.75,100.932,101.799,131.161,98.2686,97.4188,,0.046162,,-344.839,0.0771735,0.0,0.0
1536,383.75,99.0616,99.6848,131.407,98.2754,97.4164,,,,-344.819,0.0780104,0.0,0.0
1552,387.75,97.4484,98.0563,136.905,98.2722,97.0405,,,,-344.859,0.112068,0.0,0.0
1562,390.25,97.276,96.7228,132.936,98.2722,97.7254,,,,-344.839,0.0495738,0.0,0.0