File: 01_Data/Black_PMMA/Cone/Black_PMMA_Cone_HF25Scalar_220315_R2.csv
LABORATORY,FSRI
TEST IDENT,BlackPMMA_HF25_2
OPERATOR,Dow
MATERIAL,Black PMMA
ORIENTATION,Horizontal
HEAT FLUX,25
SURF AREA,0.01
C FACTOR,0.0394682
SPEC HOLDER DIFF,-566
SPECIMEN MASS,100.7
SCAN TIME,0.25
O2 DELAY TIME,11
CO DELAY TIME,11
CO2 DELAY TIME,8
FLOW FACTOR,1
SCAN COUNT,3153
TIME TO IGN,119
END OF TEST SCAN,2673
END OF TEST TIME,668.25
TEST STATUS,1
PRE TEST CMT,Dimensions: 100.93 x 100.99 x 8.27 mm