File: 01_Data/Black_PMMA/Cone/Black_PMMA_Cone_HF25Scan_220909_R4.csv
Names,Time,Stack TC,Smoke TC,Exh Press,Smoke Comp,Smoke Meas,CO Meter,CO2 Meter,O2 Meter,Sample Mass,Ext Coeff,Start Test,Flame Verif
Chan Gain,,500,500,1,1,1,1,1,1,1,1,1.0,1.0
Offset,,0,0,0.142519,0,0,0,0,0,0,0,0.0,0.0
Gain,,1,1,25.011,13.0826,14.7555,1,1,1,1.00088,1.03743,1.0,1.0
Units,sec,C,C,Pa,%,%,%,%,%,g,/m,,
Baseline,,43.0835,43.7684,138.131,100.044,107.935,6.03809e-05,0.0448369,21.0016,-443.229,-0.690866,,
32,7.75,41.5839,41.7464,138.676,100.038,107.955,0.000293461,0.0556429,20.9878,151.573,-0.693075,0.0,0.0
64,15.75,41.8211,42.2264,136.133,100.038,108.029,-1.3675e-05,0.053426,20.99,151.533,-0.69941,0.0,0.0
96,23.75,42.1223,42.6232,139.728,100.023,107.877,0.000207369,0.050434,20.9945,151.523,-0.687886,0.0,0.0
128,31.75,41.7475,42.4413,133.441,100.014,107.975,-9.06362e-05,0.0510482,20.9946,151.513,-0.697036,0.0,0.0
160,39.75,41.9781,42.2725,137.86,100.026,108.007,-0.000251512,0.0508433,20.9946,151.493,-0.698566,0.0,0.0
192,47.75,41.9787,42.6813,138.886,100.017,107.917,-0.000520491,0.0498465,20.9962,151.503,-0.691812,0.0,0.0
224,55.75,41.8485,42.9305,135.12,100.023,107.898,-0.000122649,0.0482911,20.9963,151.503,-0.689745,0.0,0.0
256,63.75,42.1006,42.6394,133.922,100.055,107.896,6.88237e-05,0.0495445,20.9959,151.483,-0.686612,0.0,0.0
288,71.75,42.0634,42.6052,135.3,100.057,107.979,-0.000206127,0.049853,20.9956,151.473,-0.693455,0.0,0.0
320,79.75,42.2365,43.0527,134.867,100.057,107.897,-0.000252867,0.0455935,20.9996,151.463,-0.68647,0.0,0.0
352,87.75,42.355,43.0878,137.187,100.076,108.042,-0.000256616,0.0436883,21.0034,151.433,-0.696911,0.0,0.0
384,95.75,42.0566,42.9428,137.344,100.068,107.953,-6.61544e-05,0.0434632,21.0039,151.393,-0.690237,0.0,0.0
416,103.75,42.8994,43.3544,124.328,100.054,106.158,0.00100463,0.106914,20.9143,151.213,-0.538925,0.0,1.0
448,111.75,52.4856,47.661,115.009,100.059,101.527,0.00311274,0.488457,20.4171,150.392,-0.132477,0.0,0.0
480,119.75,66.4536,59.0131,112.135,100.06,99.0724,0.00470416,0.741568,20.0595,149.301,0.0902383,0.0,0.0
512,127.75,77.6141,69.3666,106.702,100.066,99.3147,0.00543388,0.807337,19.9744,148.12,0.0685935,0.0,0.0
544,135.75,85.7786,78.1448,110.847,100.073,98.673,0.00562614,0.818754,19.9628,146.959,0.128236,0.0,0.0
576,143.75,92.0903,85.5589,111.119,100.088,98.3173,0.00539832,0.82861,19.9514,145.798,0.16241,0.0,0.0
608,151.75,96.2794,91.5353,109.852,100.095,98.6802,0.00560742,0.837111,19.9391,144.647,0.129531,0.0,0.0
640,159.75,99.5276,96.2223,102.247,100.108,96.8574,0.00576136,0.85225,19.9191,143.416,0.300366,0.0,0.0
672,167.75,103.298,102.287,108.787,100.104,97.4675,0.00583595,0.870079,19.894,142.225,0.242855,0.0,0.0
704,175.75,105.946,105.88,107.614,100.132,97.5607,0.00599185,0.875886,19.8858,140.994,0.236697,0.0,0.0
736,183.75,108.108,109.361,103.536,100.197,95.9869,0.00625652,0.881044,19.8778,139.813,0.390644,0.0,0.0
768,191.75,110.363,112.901,112.278,100.31,97.821,0.00654059,0.883447,19.8751,138.582,0.228656,0.0,0.0
800,199.75,111.987,115.495,111.775,100.456,95.9478,0.0059332,0.90666,19.846,137.291,0.417863,0.0,0.0
832,207.75,114.63,118.903,106.988,100.619,96.8947,0.00651477,0.934853,19.8062,136.02,0.343194,0.0,0.0
864,215.75,116.457,121.439,102.8,100.801,96.0342,0.00647033,0.965384,19.7627,134.729,0.440861,0.0,0.0
896,223.75,118.67,124.064,106.6,100.993,98.7851,0.00658606,0.963675,19.765,133.387,0.201133,0.0,0.0
928,231.75,120.361,126.473,110.277,101.151,96.6354,0.00643585,0.98677,19.7379,132.076,0.415593,0.0,0.0
960,239.75,122.243,128.756,96.8092,101.2,95.8068,0.0071916,1.01998,19.687,130.655,0.498337,0.0,0.0
992,247.75,124.296,131.287,110.753,101.189,96.8277,0.00699349,1.02888,19.6771,129.274,0.400952,0.0,0.0
1024,255.75,126.779,133.94,98.5678,101.107,96.0648,0.00683896,1.04705,19.6557,127.913,0.465528,0.0,0.0
1056,263.75,128.263,135.874,101.242,100.93,97.4572,0.0068195,1.04493,19.6576,126.521,0.318645,0.0,0.0
1088,271.75,129.882,138.148,98.4441,100.676,96.1945,0.00717999,1.06382,19.6333,125.1,0.414394,0.0,0.0
1120,279.75,131.844,140.104,98.9662,100.435,94.3424,0.00751459,1.09917,19.5897,123.679,0.569493,0.0,0.0
1152,287.75,133.485,141.925,101.266,100.674,96.8884,0.00703203,1.09892,19.5873,122.248,0.348767,0.0,0.0
1184,295.75,134.845,143.933,100.109,100.898,94.2767,0.00767095,1.10884,19.5677,120.766,0.617704,0.0,0.0
1216,303.75,137.039,145.762,98.264,100.951,95.017,0.00811367,1.16574,19.4959,119.235,0.551313,0.0,0.0
1248,311.75,138.366,147.546,92.8455,100.606,94.6104,0.00846221,1.1391,19.5277,117.784,0.559156,0.0,0.0
1280,319.75,140.19,149.664,97.6412,100.895,95.2228,0.0081213,1.19407,19.461,116.222,0.526584,0.0,0.0
1312,327.75,142.048,151.241,105.247,101.26,95.5245,0.00799817,1.19507,19.4555,114.691,0.530651,0.0,0.0
1344,335.75,143.556,153.297,103.304,101.503,95.7208,0.00927409,1.21917,19.4255,113.1,0.533791,0.0,0.0
1376,343.75,145.129,154.86,102.42,101.501,96.2634,0.00880118,1.23661,19.3984,111.538,0.482136,0.0,0.0
1408,351.75,146.669,156.653,95.6368,101.242,94.1628,0.00882613,1.25368,19.379,109.947,0.659696,0.0,0.0
1440,359.75,148.998,158.618,96.2016,100.842,95.6569,0.00905792,1.28951,19.3323,108.285,0.480366,0.0,0.0
1472,367.75,150.919,160.637,96.9008,100.427,93.6386,0.00926361,1.29974,19.3207,106.674,0.636951,0.0,0.0
1504,375.75,152.576,162.856,91.6472,100.129,94.4564,0.00970591,1.3226,19.29,105.043,0.530721,0.0,0.0
1536,383.75,153.942,164.618,94.5865,100.023,93.4508,0.00942201,1.33669,19.2662,103.351,0.618496,0.0,0.0
1568,391.75,155.879,166.658,91.996,100.152,93.4279,0.0095616,1.35313,19.2509,101.66,0.632495,0.0,0.0
1600,399.75,157.39,168.492,93.2417,100.435,93.4977,0.0092613,1.35744,19.2436,100.018,0.651311,0.0,0.0
1632,407.75,158.591,169.743,86.7553,100.83,94.0083,0.00980494,1.39629,19.1898,98.2365,0.637487,0.0,0.0
1664,415.75,160.517,171.303,90.9763,101.124,94.9715,0.0099052,1.41737,19.1675,96.485,0.57124,0.0,0.0
1696,423.75,162.731,173.758,90.0901,101.237,94.3343,0.0102291,1.44356,19.135,94.7835,0.642627,0.0,0.0
1728,431.75,163.4,174.835,93.4554,101.146,92.4917,0.0101129,1.42839,19.1504,93.0319,0.813993,0.0,0.0
1760,439.75,164.943,176.655,97.3542,100.881,92.0018,0.011361,1.47565,19.089,91.2404,0.838405,0.0,0.0
1792,447.75,167.313,179.068,90.274,100.579,92.611,0.0115905,1.50608,19.0523,89.4187,0.751071,0.0,0.0
1824,455.75,168.759,180.703,97.9511,100.543,90.074,0.011323,1.51632,19.0372,87.6572,1.00059,0.0,0.0
1856,463.75,170.594,182.963,88.9185,100.801,92.299,0.0114607,1.54126,19.0105,85.7555,0.80185,0.0,0.0
1888,471.75,172.104,184.482,88.4933,100.94,92.7682,0.0114429,1.54479,18.9964,83.9439,0.768239,0.0,0.0
1920,479.75,174.171,186.374,86.5126,100.785,92.9812,0.0118106,1.58198,18.957,82.0923,0.733392,0.0,0.0
1952,487.75,175.152,188.308,91.9296,100.714,90.486,0.0125507,1.59457,18.9262,80.2206,0.97455,0.0,0.0
1984,495.75,177.688,189.948,88.0399,101.067,91.198,0.0131006,1.67661,18.8239,78.2589,0.93503,0.0,0.0
2016,503.75,179.941,193.031,91.5327,101.375,92.3386,0.0135261,1.68423,18.8121,76.2972,0.849628,0.0,0.0
2048,511.75,181.648,194.849,86.0402,101.514,93.2595,0.0125574,1.69332,18.807,74.3555,0.771787,0.0,0.0
2080,519.75,182.983,196.662,93.1859,101.381,92.6858,0.0124837,1.68487,18.8143,72.4038,0.816014,0.0,0.0
2112,527.75,184.379,198.13,82.1932,101.004,93.5643,0.0122962,1.7051,18.79,70.4821,0.696231,0.0,0.0
2144,535.75,186.043,200.251,87.0874,100.459,93.1856,0.0129159,1.72387,18.7705,68.5203,0.683941,0.0,0.0
2176,543.75,187.534,201.837,89.8497,100.078,90.8751,0.0124313,1.73389,18.7561,66.5486,0.877855,0.0,0.0
2208,551.75,189.637,203.281,89.0406,100.069,91.3713,0.0127052,1.77714,18.7096,64.5669,0.827499,0.0,0.0
2240,559.75,190.607,205.207,89.4215,100.395,91.9846,0.0127885,1.744,18.7439,62.5951,0.796197,0.0,0.0
2272,567.75,190.645,205.593,89.7901,100.862,92.8209,0.0123548,1.70057,18.7983,60.7335,0.75605,0.0,0.0
2304,575.75,190.592,206.487,89.8581,101.193,92.6997,0.0123497,1.66708,18.8334,58.7818,0.797749,0.0,0.0
2336,583.75,190.093,206.261,87.2835,101.205,92.9123,0.011901,1.64374,18.8662,56.9401,0.77802,0.0,0.0
2368,591.75,188.596,205.814,88.836,100.877,92.5268,0.0119838,1.59012,18.9408,55.0685,0.786294,0.0,0.0
2400,599.75,184.897,202.993,94.4362,100.462,93.78,0.0103809,1.39526,19.186,53.4571,0.626331,0.0,0.0
2432,607.75,178.55,197.863,92.8623,100.744,93.2023,0.00960889,1.19624,19.4661,51.9758,0.708065,0.0,0.0
2464,615.75,168.737,189.728,103.275,100.893,91.3749,0.00916437,0.924346,19.8202,50.8348,0.901772,0.0,0.0
2496,623.75,154.354,177.506,116.444,100.541,97.1429,0.00528088,0.549112,20.3259,50.1542,0.312876,0.0,0.0
2528,631.75,137.982,162.774,129.093,100.934,106.049,0.00211001,0.242984,20.7657,49.914,-0.449858,0.0,0.0
2560,639.75,122.68,148.28,125.627,101.361,107.699,0.000538112,0.0997492,20.9399,49.8939,-0.551915,0.0,0.0
2592,647.75,109.298,133.859,130.589,101.477,108.268,0.000164056,0.058057,20.9867,49.8939,-0.589421,0.0,0.0
2624,655.75,100.463,123.131,127.059,101.182,108.017,4.03954e-06,0.0508157,20.9969,49.8839,-0.59485,0.0,0.0
2656,663.75,94.0597,113.711,128.103,100.64,107.066,6.88637e-06,0.0481738,21,49.8639,-0.563227,0.0,0.0
2688,671.75,88.611,106.085,128.389,100.153,106.871,-0.000188413,0.0465558,21.0008,49.8739,-0.590829,0.0,0.0
2720,679.75,84.0184,98.9534,131.167,100.036,106.683,-0.00023922,0.0459736,21.0034,49.8839,-0.585385,0.0,0.0
2752,687.75,80.1967,93.5328,130.933,100.334,107.128,-0.000186663,0.0469586,20.9991,49.8839,-0.596278,0.0,0.0
2784,695.75,78.0885,88.9012,133.144,100.745,107.785,-0.000231137,0.0463226,21.0015,49.8539,-0.614696,0.0,0.0
2816,703.75,75.7634,84.2505,133.243,101.102,108.323,-0.000138351,0.0466594,21.0021,49.8739,-0.627831,0.0,0.0
2848,711.75,73.2242,80.699,129.323,101.239,108.361,-0.000259513,0.04573,21.001,49.8739,-0.618726,0.0,0.0
2880,719.75,71.7031,77.8518,132.55,101.151,108.392,-0.000216826,0.0446597,21.0015,49.8839,-0.629234,0.0,0.0
2912,727.75,70.1006,74.989,128.275,100.893,108.274,-0.00032962,0.0443399,21.0019,49.8839,-0.642555,0.0,0.0
2944,735.75,69.3586,72.505,133.051,100.581,107.92,-0.000275904,0.0441229,21.0018,49.8339,-0.640927,0.0,0.0
2976,743.75,68.1638,70.3904,130.012,100.517,107.563,-0.000300755,0.0439169,21.0037,49.8639,-0.616585,0.0,0.0
3008,751.75,66.7943,68.5672,130.92,100.753,107.99,,0.0438535,,49.8739,-0.631255,0.0,0.0
3040,759.75,65.985,66.5084,136.58,100.806,108.18,,,,49.8639,-0.642498,0.0,0.0
3045,761,65.8815,66.5621,135.198,100.819,108.16,,,,49.8839,-0.639677,0.0,0.0