File: 01_Data/Black_PMMA/Cone/Black_PMMA_Cone_HF25Scan_220309_R1.csv
Names,Time,Stack TC,Smoke TC,Exh Press,Smoke Comp,Smoke Meas,CO Meter,CO2 Meter,O2 Meter,Sample Mass,Ext Coeff,Start Test,Flame Verif
Chan Gain,,500,500,1,1,1,1,1,1,1,1,1.0,1.0
Offset,,0,0,0.134647,0,0,0,0,0,0,0,0.0,0.0
Gain,,1,1,25.011,13.2859,13.1681,1,1,1,1.00096,0.993885,1.0,1.0
Units,sec,C,C,Pa,%,%,%,%,%,g,/m,,
Baseline,,16.9235,17.4311,165.179,99.9874,96.2545,0.00108421,0.0716553,20.982,-870.724,0.331797,,
34,8.25,15.6246,15.99,165.03,100.201,96.6794,0.000861818,0.0762875,20.9784,-285.044,0.311953,0.0,0.0
68,16.75,16.0741,16.5169,164.199,100.011,96.249,0.00105838,0.0758618,20.9825,-284.974,0.334254,0.0,0.0
102,25.25,15.6386,16.2747,170.182,99.6945,96.8196,0.00122399,0.0802876,20.9777,-285.004,0.255105,0.0,0.0
136,33.75,15.9561,16.6424,169.068,99.3649,95.9496,0.00124747,0.0786154,20.9765,-285.024,0.304927,0.0,0.0
170,42.25,16.8129,17.076,166.866,99.032,95.7571,0.000929285,0.0840292,20.9692,-285.044,0.29318,0.0,0.0
204,50.75,16.1987,16.8576,165.195,98.8763,95.5638,0.00086213,0.0833521,20.971,-285.054,0.297079,0.0,0.0
238,59.25,17.0416,17.0948,162.193,98.8532,95.4778,0.000942333,0.0815523,20.9709,-285.095,0.30289,0.0,0.0
272,67.75,15.8556,17.3923,165.496,99.0535,95.5417,0.000678182,0.0764939,20.9755,-285.044,0.314705,0.0,0.0
306,76.25,16.1885,17.5058,164.56,99.3718,96.0947,0.000773397,0.0733984,20.9769,-285.054,0.292361,0.0,0.0
340,84.75,16.9207,17.0606,161.51,99.7943,96.4632,0.00109297,0.0789644,20.9714,-285.095,0.295979,0.0,0.0
374,93.25,16.9034,17.387,163.073,100.255,96.5934,0.000871497,0.0764569,20.9761,-285.105,0.324366,0.0,0.0
408,101.75,16.8028,17.411,164.038,100.618,97.365,0.000946881,0.0797471,20.9706,-285.165,0.286501,0.0,0.0
442,110.25,17.2764,17.8146,160.217,100.852,96.218,0.00169138,0.103303,20.9324,-285.275,0.410091,0.0,1.0
476,118.75,19.9147,20.0587,144.388,100.925,92.5209,0.00296756,0.320951,20.6222,-285.765,0.757997,0.0,0.0
510,127.25,26.923,26.5614,140.45,100.879,91.3973,0.00403535,0.513978,20.3746,-286.536,0.860529,0.0,0.0
544,135.75,35.0202,35.4987,136.473,100.705,90.6969,0.00486706,0.622151,20.2307,-287.477,0.91252,0.0,0.0
578,144.25,42.4117,43.6652,133.95,100.503,90.2766,0.00523857,0.677766,20.1585,-288.508,0.935592,0.0,0.0
612,152.75,49.0572,50.8425,140.216,100.291,90.0049,0.0055062,0.713394,20.114,-289.519,0.943382,0.0,0.0
646,161.25,54.1018,57.856,132.687,100.14,89.5645,0.00591489,0.736178,20.0825,-290.61,0.973063,0.0,0.0
680,169.75,58.7176,63.1967,122.813,100.452,89.9936,0.00609049,0.762642,20.0512,-291.691,0.958524,0.0,0.0
714,178.25,64.058,67.9897,130.243,100.684,90.6889,0.00661899,0.784533,20.0184,-292.832,0.911501,0.0,0.0
748,186.75,67.8221,72.605,137.492,100.746,90.3264,0.00640804,0.806379,19.987,-294.013,0.951788,0.0,0.0
782,195.25,70.198,76.9876,130.678,100.664,89.4057,0.00653149,0.819282,19.9711,-295.184,1.03402,0.0,0.0
816,203.75,73.755,81.2658,122.259,100.444,88.639,0.00673971,0.843292,19.9326,-296.415,1.09002,0.0,0.0
850,212.25,76.9083,84.1255,129.759,100.084,88.463,0.00645082,0.853043,19.9215,-297.627,1.07604,0.0,0.0
884,220.75,79.7798,86.6203,124.272,99.9783,88.4389,0.00697586,0.875641,19.896,-298.908,1.06923,0.0,0.0
918,229.25,81.4966,90.5497,123.509,100.061,88.9191,0.00718658,0.896124,19.8697,-300.169,1.02919,0.0,0.0
952,237.75,84.3847,93.06,126.142,100.151,88.8913,0.00749531,0.916588,19.8428,-301.48,1.03979,0.0,0.0
986,246.25,86.9031,95.6257,125.037,100.217,89.1325,0.00722854,0.93586,19.811,-302.792,1.02189,0.0,0.0
1020,254.75,89.2625,98.6378,123.297,100.241,88.9777,0.0074073,0.968112,19.7693,-304.183,1.03911,0.0,0.0
1054,263.25,91.3495,101.699,121.277,100.214,88.5176,0.00759915,0.997294,19.7315,-305.554,1.08202,0.0,0.0
1088,271.75,93.63,103.568,123.29,100.215,88.7575,0.00839057,0.998275,19.7263,-307.046,1.05846,0.0,0.0
1122,280.25,95.689,106.434,123.896,100.181,89.0336,0.00815304,1.03117,19.6826,-308.417,1.02842,0.0,0.0
1156,288.75,97.7511,108.637,113.71,100.127,88.8825,0.00807758,1.05547,19.6572,-309.888,1.03857,0.0,0.0
1190,297.25,99.4408,110.447,117.669,100.031,88.7853,0.00828799,1.06846,19.6376,-311.29,1.03971,0.0,0.0
1224,305.75,101.055,112.907,121.888,99.9094,88.7627,0.00844229,1.08172,19.6198,-312.771,1.03135,0.0,0.0
1258,314.25,103.149,114.88,112.491,99.7922,88.1913,0.00852144,1.10813,19.5792,-314.333,1.07742,0.0,0.0
1292,322.75,104.659,117.304,112.875,99.6657,86.7161,0.00868568,1.13201,19.5469,-315.864,1.21343,0.0,0.0
1326,331.25,107.234,119.145,119.082,99.5319,88.4557,0.00888431,1.14571,19.5329,-317.386,1.02855,0.0,0.0
1360,339.75,108.532,121.556,118.488,99.3722,87.5403,0.00897487,1.16485,19.5056,-318.937,1.10524,0.0,0.0
1394,348.25,110.842,123.631,111.089,99.2428,88.5136,0.00913387,1.19021,19.4723,-320.609,0.997491,0.0,0.0
1428,356.75,112.653,125.853,118.488,99.1492,87.4772,0.00935728,1.2246,19.4329,-322.16,1.09194,0.0,0.0
1462,365.25,114.49,128.238,116.559,99.1313,87.2385,0.00929272,1.22173,19.432,-323.782,1.1142,0.0,0.0
1496,373.75,115.905,129.67,116.172,99.1078,87.6022,0.00930387,1.23626,19.4117,-325.453,1.07586,0.0,0.0
1530,382.25,117.421,131.04,113.95,99.1318,88.3529,0.00929305,1.23477,19.4144,-327.005,1.00357,0.0,0.0
1564,390.75,119.678,133.334,110.602,99.212,88.4075,0.00972071,1.28279,19.3461,-328.757,1.00524,0.0,0.0
1598,399.25,121.402,135.7,114.314,99.3738,87.1658,0.00997017,1.27926,19.3531,-330.458,1.14277,0.0,0.0
1632,407.75,122.371,136.533,108.458,99.6402,88.2648,0.00968071,1.33146,19.2821,-332.14,1.05686,0.0,0.0
1666,416.25,125.214,140.029,112.3,99.892,88.8556,0.0102064,1.34728,19.2579,-333.962,1.02071,0.0,0.0
1700,424.75,127.578,141.906,108.554,100.121,89.2293,0.0103558,1.4046,19.1901,-335.733,1.00412,0.0,0.0
1734,433.25,129.384,144.821,106.121,100.214,88.7861,0.010052,1.41332,19.1723,-337.525,1.05555,0.0,0.0
1768,441.75,132.204,147.699,114.933,100.219,88.8021,0.0108044,1.45298,19.1252,-339.347,1.05443,0.0,0.0
1802,450.25,134.614,149.77,116.873,100.061,88.1013,0.0106183,1.45951,19.1175,-341.199,1.10974,0.0,0.0
1836,458.75,137.347,152.328,99.315,100.301,88.3641,0.0112829,1.53072,19.0266,-343.15,1.10473,0.0,0.0
1870,467.25,139.545,155.875,107.619,100.752,88.8765,0.0115922,1.54225,19.0077,-345.032,1.09339,0.0,0.0
1904,475.75,141.871,158.308,114.194,100.144,89.7385,0.0114901,1.57752,18.9656,-346.954,0.956494,0.0,0.0
1938,484.25,144.597,161.159,102.887,100.598,88.6619,0.0116572,1.59985,18.9316,-349.006,1.10116,0.0,0.0
1972,492.75,146.365,163.939,104.888,100.917,90.0322,0.0116807,1.61588,18.9127,-350.968,0.995055,0.0,0.0
2006,501.25,148.625,166.252,98.8906,100.345,88.5462,0.0121268,1.63742,18.8875,-352.88,1.09056,0.0,0.0
2040,509.75,150.268,168.306,105.085,99.1711,87.5463,0.0122418,1.66276,18.8491,-354.962,1.08698,0.0,0.0
2074,518.25,153.179,170.859,109.096,98.9225,87.8899,0.012209,1.70493,18.801,-356.994,1.03096,0.0,0.0
2108,526.75,154.567,173.844,103.27,99.8052,88.4425,0.0119928,1.72148,18.7753,-359.016,1.05376,0.0,0.0
2142,535.25,157.025,175.873,99.2875,100.208,88.7419,0.0121464,1.74986,18.7402,-361.098,1.0594,0.0,0.0
2176,543.75,159.544,178.298,98.5136,99.92,88.1748,0.0126818,1.77592,18.7022,-363.23,1.0902,0.0,0.0
2210,552.25,160.651,180.938,100.175,100.674,87.9,0.0130865,1.8216,18.6413,-365.302,1.18301,0.0,0.0
2244,560.75,163.532,183.686,99.2829,100.548,87.4125,0.0139415,1.86501,18.5899,-367.514,1.22057,0.0,0.0
2278,569.25,165.922,185.63,103.417,100.833,86.7197,0.0144601,1.85269,18.6005,-369.706,1.31455,0.0,0.0
2312,577.75,165.816,186.342,100.803,99.5202,85.5439,0.0157022,1.87505,18.577,-371.858,1.31935,0.0,0.0
2346,586.25,167.025,188.157,98.9563,98.9347,83.1873,0.0157395,1.83169,18.6312,-374.02,1.51144,0.0,0.0
2380,594.75,167.207,188.408,101.311,100.025,86.6771,0.0148999,1.77182,18.7056,-376.142,1.24869,0.0,0.0
2414,603.25,167.787,187.689,103.769,100.084,84.4247,0.014512,1.75273,18.7326,-378.194,1.4834,0.0,0.0
2448,611.75,167.604,187.593,97.3648,100.634,86.62,0.0139381,1.66459,18.8428,-380.226,1.30735,0.0,0.0
2482,620.25,165.985,185.636,101.428,100.345,88.041,0.0131543,1.61557,18.9102,-382.138,1.14048,0.0,0.0
2516,628.75,164.172,183.78,108.741,100.868,86.5794,0.0114571,1.4438,19.1369,-383.98,1.33171,0.0,0.0
2550,637.25,159.939,179.264,111.393,99.3402,87.2321,0.0107419,1.27945,19.3506,-385.521,1.13318,0.0,0.0
2584,645.75,153.267,171.424,125.194,99.2396,88.6832,0.008935,1.01465,19.7168,-386.822,0.980519,0.0,0.0
2618,654.25,144.827,161.322,130.872,100.227,84.8081,0.0078474,0.77156,20.0277,-387.863,1.45639,0.0,0.0
2652,662.75,132.517,148.063,140.036,99.9122,89.5484,0.00458475,0.463395,20.4647,-388.494,0.954767,0.0,0.0
2686,671.25,119.297,132.768,146.346,100.278,91.3471,0.00229468,0.251204,20.7591,-388.694,0.813202,0.0,0.0
2720,679.75,107.122,119.345,145.682,100.865,91.8948,0.00139643,0.155333,20.8806,-388.774,0.81201,0.0,0.0
2754,688.25,96.703,106.915,153.012,100.219,91.3949,0.000984141,0.110005,20.9397,-388.924,0.80356,0.0,0.0
2788,696.75,87.5898,96.231,153.45,98.9359,90.1464,0.00103083,0.0867162,20.9682,-388.914,0.81113,0.0,0.0
2822,705.25,80.2528,86.7635,146.216,99.4618,90.6258,0.00082821,0.0754304,20.9834,-388.914,0.811105,0.0,0.0
2856,713.75,73.5702,78.8263,154.011,100.212,91.2607,0.000932977,0.0689786,20.9929,-388.894,0.815738,0.0,0.0
2890,722.25,68.3449,72.7812,155.332,99.9516,90.7403,0.000640779,0.0664214,20.9947,-388.935,0.84292,0.0,0.0
2924,730.75,63.8486,67.3356,157.404,100.249,91.3037,0.000430165,0.0654416,20.9945,-388.914,0.814876,0.0,0.0
2958,739.25,60.4155,61.8922,156.313,100.56,91.632,0.000644626,0.0657243,20.9947,-388.924,0.81055,0.0,0.0
2992,747.75,57.5446,58.4641,155.309,100.241,91.5284,0.000835213,0.0688089,20.9888,-388.914,0.792747,0.0,0.0
3026,756.25,54.7458,55.3852,152.466,100.748,91.6348,0.000859059,0.0683197,20.9912,-388.914,0.826577,0.0,0.0
3060,764.75,52.4128,51.7754,152.324,100.898,92.1271,0.000642619,0.0655934,20.9964,-388.874,0.792839,0.0,0.0
3094,773.25,50.4293,49.3684,157.635,100.836,92.3092,0.000572865,0.0644223,20.9953,-389.005,0.770302,0.0,0.0
3128,781.75,48.6689,47.2309,153.789,100.49,91.9925,0.000894014,0.0638656,20.9973,-388.975,0.770308,0.0,0.0
3162,790.25,47.5425,45.2705,159.579,99.995,91.4138,0.000542577,0.0640053,20.9966,-388.954,0.782233,0.0,0.0
3196,798.75,46.1656,43.2946,153.411,99.5388,90.9481,0.000959739,0.0666108,20.9942,-388.924,0.786906,0.0,0.0
3230,807.25,44.268,42.0275,155.168,99.165,90.592,0.000759502,0.0686913,20.9931,-388.854,0.788299,0.0,0.0
3264,815.75,42.9356,41.0675,156.976,98.989,90.987,,0.0663023,,-388.914,0.734881,0.0,0.0
3297,824,42.6981,40.233,156.754,99.0142,90.9786,,,,-388.935,0.737903,0.0,0.0