File: 01_Data/Black_PMMA/Cone/Black_PMMA_Cone_HF50Scan_220315_R2.csv
Names,Time,Stack TC,Smoke TC,Exh Press,Smoke Comp,Smoke Meas,CO Meter,CO2 Meter,O2 Meter,Sample Mass,Ext Coeff,Start Test,Flame Verif
Chan Gain,,500,500,1,1,1,1,1,1,1,1,1.0,1.0
Offset,,0,0,0.136235,0,0,0,0,0,0,0,0.0,0.0
Gain,,1,1,25.011,13.6985,14.3472,1,1,1,1.00091,1.01482,1.0,1.0
Units,sec,C,C,Pa,%,%,%,%,%,g,/m,,
Baseline,,40.0356,38.347,165.487,103.658,99.4267,0.000801802,0.0449582,21.0156,-833.582,0.371054,,
21,5,36.462,35.1125,166.559,104.324,100.13,0.000715856,0.0485766,21.0128,-241.829,0.365237,0.0,0.0
42,10.25,36.4567,35.1742,168.462,104.18,100.131,0.000883715,0.0475628,21.0142,-241.789,0.35288,0.0,0.0
63,15.5,36.7026,34.7416,164.507,104.326,100.165,0.000804601,0.0477371,21.0138,-241.809,0.36234,0.0,0.0
84,20.75,36.7338,35.1483,166.855,104.572,100.449,0.000862777,0.050308,21.0103,-241.809,0.358144,0.0,0.0
105,26,36.2935,35.4582,164,104.636,100.709,0.00128946,0.051201,21.0078,-241.869,0.340532,0.0,0.0
126,31.25,38.0272,37.493,132.486,104.542,101.457,0.0032581,0.293356,20.5842,-242.46,0.266703,0.0,1.0
147,36.5,47.624,46.1041,120.354,104.274,99.2299,0.00615385,0.803169,19.8958,-243.441,0.441384,0.0,0.0
168,41.75,59.4807,59.1205,116.421,103.878,96.0691,0.00830334,1.09168,19.5457,-244.562,0.695656,0.0,0.0
189,47,71.0684,71.4922,114.706,103.771,96.4159,0.00990396,1.27119,19.3207,-245.693,0.654441,0.0,0.0
210,52.25,80.8621,83.2264,118.121,103.888,95.7096,0.011027,1.3695,19.1983,-246.984,0.729887,0.0,0.0
231,57.5,90.109,93.4678,110.552,104.001,95.3559,0.0116884,1.43506,19.1133,-248.205,0.772555,0.0,0.0
252,62.75,98.0309,103.558,115.327,104.172,96.1742,0.0121786,1.471,19.0686,-249.476,0.71111,0.0,0.0
273,68,106.431,112.767,111.73,104.297,96.4671,0.012133,1.52069,19.007,-250.778,0.694748,0.0,0.0
294,73.25,112.451,120.797,104.241,104.375,96.6527,0.0121968,1.56529,18.951,-252.139,0.684269,0.0,0.0
315,78.5,118.774,128.105,110.471,104.379,95.7893,0.0124697,1.59204,18.9207,-253.42,0.764433,0.0,0.0
336,83.75,124.317,134.288,107.998,104.322,95.3138,0.0126013,1.61015,18.89,-254.781,0.803883,0.0,0.0
357,89,129.269,140.81,100.154,104.196,95.1435,0.0129725,1.65495,18.828,-256.122,0.809096,0.0,0.0
378,94.25,134.069,146.915,102.238,104.054,96.0761,0.0132252,1.68784,18.7974,-257.534,0.710112,0.0,0.0
399,99.5,138.487,152.314,106.297,103.862,94.8716,0.0131888,1.69172,18.7823,-258.915,0.80599,0.0,0.0
420,104.75,142.112,156.89,110.989,103.671,95.2424,0.0138784,1.73786,18.7262,-260.316,0.754835,0.0,0.0
441,110,146.021,161.722,103.054,103.453,95.189,0.0144529,1.76503,18.6903,-261.707,0.741107,0.0,0.0
462,115.25,150.034,166.061,107.955,103.272,94.2665,0.0141263,1.77143,18.6836,-263.119,0.812213,0.0,0.0
483,120.5,152.932,169.607,102.912,103.139,93.6378,0.0142309,1.81076,18.6279,-264.56,0.860283,0.0,0.0
504,125.75,156.289,173.727,100.158,103.078,93.8983,0.0147337,1.84132,18.5906,-266.031,0.830281,0.0,0.0
525,131,158.83,177.447,106.708,103.119,93.5392,0.0152255,1.87242,18.5469,-267.493,0.867957,0.0,0.0
546,136.25,161.801,181.288,102.522,103.217,93.2634,0.0155405,1.89292,18.5208,-268.994,0.902688,0.0,0.0
567,141.5,164.615,184.031,106.676,103.431,94.0126,0.0160121,1.91604,18.5031,-270.485,0.849908,0.0,0.0
588,146.75,166.831,187.636,106.655,103.666,94.1268,0.0167874,1.9384,18.4637,-271.977,0.859292,0.0,0.0
609,152,169.209,190.355,100.845,103.955,95.4653,0.0171861,1.96999,18.4249,-273.528,0.758441,0.0,0.0
630,157.25,172.135,193.842,96.8267,104.245,95.0205,0.017484,1.99757,18.3808,-275.08,0.824757,0.0,0.0
651,162.5,174.296,196.124,102.983,104.544,94.7043,0.0169203,1.9939,18.3752,-276.561,0.879911,0.0,0.0
672,167.75,176.692,199.43,102.365,104.789,94.2258,0.0173225,2.03933,18.3309,-278.142,0.945843,0.0,0.0
693,173,178.563,201.7,98.2227,104.946,95.4075,0.0172762,2.07453,18.2846,-279.654,0.848237,0.0,0.0
714,178.25,181.213,204.689,93.1561,105.024,96.0726,0.0176576,2.10172,18.2499,-281.365,0.793025,0.0,0.0
735,183.5,183.612,207.61,100.879,104.972,94.5958,0.0177162,2.1357,18.206,-282.937,0.926499,0.0,0.0
756,188.75,185.402,209.889,101.092,104.859,95.2083,0.0188265,2.16885,18.1637,-284.578,0.859465,0.0,0.0
777,194,188.567,213.168,100.053,104.673,95.4115,0.0188615,2.2089,18.1094,-286.18,0.824683,0.0,0.0
798,199.25,190.338,215.457,92.3684,104.472,95.4535,0.0189738,2.2375,18.0708,-287.831,0.80368,0.0,0.0
819,204.5,191.538,217.283,100.911,104.247,93.8847,0.0188299,2.2498,18.0534,-289.453,0.932016,0.0,0.0
840,209.75,194.514,219.78,100.313,104.187,93.5839,0.0191236,2.29191,18.0095,-291.204,0.955404,0.0,0.0
861,215,196.82,222.703,95.6947,104.504,93.2279,0.0195352,2.32946,17.9539,-292.816,1.01643,0.0,0.0
882,220.25,198.804,225.753,96.271,104.631,94.4964,0.0199147,2.39847,17.872,-294.527,0.906953,0.0,0.0
903,225.5,200.939,228.677,97.7182,104.626,94.0743,0.0204137,2.38689,17.8827,-296.149,0.946376,0.0,0.0
924,230.75,202.721,230.881,102.713,104.44,94.8567,0.0209119,2.39256,17.8785,-297.93,0.856732,0.0,0.0
945,236,204.731,232.964,100.343,104.086,93.682,0.0213286,2.41709,17.8442,-299.662,0.937468,0.0,0.0
966,241.25,206.473,235.288,98.1784,103.752,92.2043,0.0211097,2.46636,17.7811,-301.444,1.05043,0.0,0.0
987,246.5,209.531,237.934,96.081,103.851,93.1018,0.0215094,2.5506,17.6648,-303.265,0.97265,0.0,0.0
1008,251.75,211.789,240.684,87.0491,103.97,92.9517,0.0215392,2.59483,17.6123,-305.037,0.997191,0.0,0.0
1029,257,214.479,242.832,90.9075,104.139,91.9696,0.02269,2.64078,17.5698,-306.748,1.10619,0.0,0.0
1050,262.25,215.853,245.48,84.3807,104.268,92.3299,0.0234303,2.63358,17.5607,-308.65,1.08242,0.0,0.0
1071,267.5,217.37,247.595,86.666,104.335,91.6583,0.0236545,2.67988,17.4986,-310.492,1.15319,0.0,0.0
1092,272.75,220.025,250.461,98.3716,104.373,92.8155,0.0233205,2.72239,17.4428,-312.343,1.04468,0.0,0.0
1113,278,222.323,253.082,88.9413,104.35,92.7174,0.0234186,2.75432,17.4091,-314.245,1.05213,0.0,0.0
1134,283.25,224.736,256.304,85.1516,104.252,92.2362,0.0237261,2.82726,17.325,-316.147,1.09014,0.0,0.0
1155,288.5,226.688,258.338,85.418,104.123,90.9428,0.0236467,2.82507,17.3158,-317.968,1.20481,0.0,0.0
1176,293.75,229.036,260.952,96.0275,104.002,90.9652,0.0231958,2.83821,17.2972,-319.96,1.19225,0.0,0.0
1197,299,230.289,262.463,93.1637,103.888,90.6871,0.0236941,2.86217,17.2727,-321.852,1.20977,0.0,0.0
1218,304.25,232.846,265.659,95.6474,103.805,91.1626,0.0248289,2.93307,17.1882,-323.754,1.15605,0.0,0.0
1239,309.5,233.831,266.799,89.1054,103.778,90.6644,0.0257739,2.94487,17.1647,-325.736,1.20254,0.0,0.0
1260,314.75,235.077,268.659,90.822,103.761,90.3553,0.0266242,3.01017,17.086,-327.667,1.23154,0.0,0.0
1281,320,238.466,272.121,91.4112,103.82,90.9323,0.0271573,2.99715,17.096,-329.599,1.17985,0.0,0.0
1302,325.25,239.962,273.845,98.9051,103.917,90.8737,0.026738,2.99268,17.1008,-331.621,1.19398,0.0,0.0
1323,330.5,242.079,276.568,94.143,104.029,90.1368,0.0269036,3.07516,17.002,-333.493,1.27602,0.0,0.0
1344,335.75,243.505,278.541,91.6318,104.16,89.9126,0.0271893,3.09474,16.9623,-335.534,1.30938,0.0,0.0
1365,341,245.014,279.672,84.7532,104.275,91.6149,0.0277437,3.16435,16.8906,-337.536,1.15227,0.0,0.0
1386,346.25,246.552,282.124,90.3434,104.356,90.1131,0.0278929,3.09097,16.9661,-339.468,1.30629,0.0,0.0
1407,351.5,244.926,280.647,96.4817,104.349,91.1,0.026731,2.83137,17.3345,-341.24,1.20872,0.0,0.0
1428,356.75,241.024,276.098,97.0557,104.263,88.2593,0.0230813,2.39803,17.9296,-342.791,1.48341,0.0,0.0
1449,362,233.027,266.635,109.238,104.055,90.5466,0.0171112,1.84381,18.7015,-343.902,1.23789,0.0,0.0
1470,367.25,221.153,253.139,131.198,103.868,94.957,0.0113461,1.14474,19.5019,-344.503,0.798449,0.0,0.0
1491,372.5,204.179,233.933,145.15,103.752,104.486,0.00580255,0.493477,20.4558,-344.623,-0.062782,0.0,0.0
1512,377.75,186.871,213.918,147.051,104.36,104.709,0.0036026,0.185304,20.8634,-344.603,-0.0297498,0.0,0.0
1533,383,172.031,196.408,150.941,104.644,105.336,0.00268074,0.0962671,20.9723,-344.623,-0.058677,0.0,0.0
1554,388.25,159.466,181.224,151.417,104.489,104.336,0.00204733,0.0699744,21.0005,-344.613,0.0130357,0.0,0.0
1575,393.5,148.329,168.634,151.788,104.251,104.508,0.00173603,0.0596781,21.0068,-344.633,-0.0219598,0.0,0.0
1596,398.75,139.318,156.908,150.063,104.648,104.341,0.000938636,0.0544306,21.0103,-344.663,0.0261465,0.0,0.0
1617,404,131.392,146.816,151.618,104.973,104.421,0.000886969,0.0515985,21.0125,-344.673,0.046865,0.0,0.0
1638,409.25,124.082,137.552,155.442,104.95,104.956,0.00137826,0.0498999,21.0144,-344.633,-0.000436161,0.0,0.0
1659,414.5,118.262,129.857,146.909,104.462,104.559,0.00126414,0.0488755,21.0136,-344.663,-0.00823868,0.0,0.0
1680,419.75,111.99,122.335,152.952,103.695,103.117,0.00104531,0.0481047,21.0129,-344.653,0.0497559,0.0,0.0
1701,425,106.602,115.894,151.035,103.155,102.252,0.00112529,0.0473061,21.0129,-344.653,0.0782692,0.0,0.0
1722,430.25,102.653,110.303,148.679,103.172,102.328,0.000952225,0.046965,21.0145,-344.683,0.0731208,0.0,0.0
1743,435.5,98.7728,105.016,154.339,103.672,102.678,0.000694579,0.0466185,21.0151,-344.673,0.085701,0.0,0.0
1764,440.75,94.8014,99.6028,154.691,104.249,102.018,0.000969372,0.046248,21.0121,-344.673,0.192564,0.0,0.0
1785,446,92.2277,96.2432,154.687,104.353,103.155,0.0013394,0.0461349,21.0135,-344.673,0.102777,0.0,0.0
1806,451.25,88.2555,91.5485,154.358,103.92,101.953,0.00116599,0.0461716,21.0137,-344.663,0.170156,0.0,0.0
1827,456.5,86.1034,88.661,151.708,104.051,102.195,0.0010903,0.0458551,21.0148,-344.663,0.160204,0.0,0.0
1848,461.75,83.7419,85.1841,155.776,104.628,102.767,0.00107875,0.045784,21.0143,-344.793,0.159717,0.0,0.0
1869,467,81.0927,82.0525,157.881,104.131,102.037,0.000904114,0.0458611,21.0155,-344.673,0.180849,0.0,0.0
1890,472.25,79.4443,79.478,157.841,104.656,102.487,0.000754636,0.0458814,21.0142,-344.723,0.186441,0.0,0.0
1911,477.5,77.8556,77.4567,157.964,104.993,102.836,0.000701801,0.0457815,21.0135,-344.663,0.184722,0.0,0.0
1932,482.75,74.8913,74.6743,155.649,104.64,102.079,0.000908152,0.0455231,21.0139,-344.663,0.22057,0.0,0.0
1953,488,74.2298,73.1285,153.144,103.739,102.057,,,,-344.713,0.145468,0.0,0.0
1974,493.25,72.8834,71.0372,158.095,103.118,100.345,,,,-344.733,0.242707,0.0,0.0
1979,494.5,72.4515,71.1303,154.9,103.1,100.243,,,,-344.713,0.250171,0.0,0.0