File: 01_Data/Black_PMMA/Cone/Black_PMMA_Cone_HF25Scan_220315_R3.csv
Names,Time,Stack TC,Smoke TC,Exh Press,Smoke Comp,Smoke Meas,CO Meter,CO2 Meter,O2 Meter,Sample Mass,Ext Coeff,Start Test,Flame Verif
Chan Gain,,500,500,1,1,1,1,1,1,1,1,1.0,1.0
Offset,,0,0,0.136235,0,0,0,0,0,0,0,0.0,0.0
Gain,,1,1,25.011,13.6985,14.3472,1,1,1,1.00091,1.01482,1.0,1.0
Units,sec,C,C,Pa,%,%,%,%,%,g,/m,,
Baseline,,22.6693,21.6627,174.833,103.744,99.4638,0.000950575,0.0455087,21.0201,-832.134,0.375064,,
33,8,21.0115,19.7503,177.438,102.963,98.3358,0.000928407,0.0543984,21.0076,-237.806,0.409325,0.0,0.0
66,16.25,20.7209,20.3162,175.269,103.505,98.7053,0.00107533,0.0507943,21.0132,-237.806,0.422691,0.0,0.0
99,24.5,20.4549,19.7971,179.587,104.074,99.2045,0.00114401,0.0458953,21.0213,-237.816,0.426551,0.0,0.0
132,32.75,20.9226,20.2497,176.019,104.195,99.0232,0.000898111,0.0468547,21.0194,-237.776,0.453196,0.0,0.0
165,41,20.8764,19.8652,173.717,103.819,98.9518,0.000833409,0.0450571,21.0209,-237.856,0.427447,0.0,0.0
198,49.25,20.8801,20.1011,172.82,103.792,98.796,0.000957752,0.0442043,21.0224,-237.846,0.439114,0.0,0.0
231,57.5,21.0556,20.4449,175.208,104.471,99.2929,0.000927315,0.0440715,21.0211,-237.816,0.452523,0.0,0.0
264,65.75,20.554,20.6252,172.402,104.088,98.8231,0.00082884,0.0440969,21.0245,-237.846,0.462017,0.0,0.0
297,74,20.6751,20.2007,170.402,104.465,99.1576,0.00105596,0.0447368,21.0233,-237.866,0.464162,0.0,0.0
330,82.25,20.4704,20.4249,173.449,104.878,99.6857,0.000943668,0.0452837,21.0223,-237.866,0.45201,0.0,0.0
363,90.5,20.7889,20.0781,173.559,104.726,99.3656,0.00141073,0.0450932,21.0243,-237.886,0.467748,0.0,0.0
396,98.75,21.1587,20.7496,176.493,103.868,98.7062,0.000949613,0.0441079,21.0236,-237.886,0.45373,0.0,0.0
429,107,20.5481,20.3708,174.391,103.142,97.7184,0.00110897,0.0440864,21.0231,-237.916,0.480844,0.0,0.0
462,115.25,20.2846,20.4104,175.544,103.195,97.7614,0.00109441,0.0445896,21.0198,-237.976,0.481554,0.0,0.0
495,123.5,23.0592,22.3092,154.336,103.65,97.3384,0.0030534,0.235533,20.7139,-238.436,0.5593,0.0,1.0
528,131.75,31.2593,30.9113,138.94,104.086,101.186,0.00445348,0.570449,20.286,-239.427,0.251557,0.0,0.0
561,140,41.7881,42.5369,139.669,104.352,100.827,0.00599631,0.742278,20.0575,-240.688,0.30591,0.0,0.0
594,148.25,50.7955,53.1563,139.01,104.423,99.9611,0.00642614,0.794538,19.9923,-241.909,0.388725,0.0,0.0
627,156.5,58.6514,61.6235,132.601,104.282,99.9865,0.0065599,0.826301,19.9533,-243.261,0.374481,0.0,0.0
660,164.75,64.4463,68.3435,134.629,104.146,99.8836,0.00623781,0.821486,19.9627,-244.512,0.37197,0.0,0.0
693,173,70.1353,74.9862,125.327,104.054,100.021,0.00637412,0.835682,19.9402,-245.763,0.351858,0.0,0.0
726,181.25,74.3818,80.5874,136.831,104.001,99.9961,0.00685409,0.839759,19.9375,-247.094,0.349611,0.0,0.0
759,189.5,78.1694,84.9496,135.758,103.983,100.012,0.00675815,0.852896,19.9187,-248.395,0.346558,0.0,0.0
792,197.75,80.9509,88.6603,134.979,104.012,98.6996,0.00682215,0.859192,19.907,-249.667,0.466674,0.0,0.0
825,206,84.0692,91.9028,129.931,104.09,99.7111,0.00704883,0.871487,19.8919,-251.068,0.382604,0.0,0.0
858,214.25,86.0877,94.656,131.85,104.216,99.9755,0.00696465,0.871973,19.8935,-252.359,0.36978,0.0,0.0
891,222.5,88.8925,96.8094,128.747,104.301,99.2737,0.00707876,0.863636,19.9018,-253.66,0.43974,0.0,0.0
924,230.75,90.28,99.1504,135.062,104.38,100.595,0.0069781,0.874076,19.8875,-255.001,0.328846,0.0,0.0
957,239,91.5671,101.324,140.017,104.43,99.6918,0.00669148,0.881521,19.8799,-256.383,0.413379,0.0,0.0
990,247.25,93.4585,103.185,130.06,104.392,99.1638,0.00698477,0.907894,19.843,-257.764,0.457375,0.0,0.0
1023,255.5,95.2863,105.325,126.031,104.287,99.0092,0.00734039,0.932497,19.8097,-259.195,0.462345,0.0,0.0
1056,263.75,96.6582,107.743,133.665,104.081,99.8323,0.00776218,0.95701,19.7779,-260.586,0.371032,0.0,0.0
1089,272,97.9328,109.048,123.4,103.823,99.4164,0.00739856,0.947696,19.7898,-262.068,0.386039,0.0,0.0
1122,280.25,99.8008,110.673,131.179,103.568,99.0004,0.00766639,0.949029,19.7856,-263.459,0.401543,0.0,0.0
1155,288.5,101.499,112.154,131.861,103.329,98.711,0.00790625,0.974734,19.7521,-264.93,0.407027,0.0,0.0
1188,296.75,102.393,113.785,129.215,103.179,97.7684,0.0076795,0.98398,19.741,-266.302,0.47951,0.0,0.0
1221,305,104.611,115.623,134.722,103.18,98.7408,0.00776487,1.00621,19.7114,-267.833,0.391476,0.0,0.0
1254,313.25,106.163,116.932,130.17,103.264,97.7009,0.00796651,1.02623,19.6851,-269.344,0.492934,0.0,0.0
1287,321.5,107.357,118.973,131.408,103.48,98.6217,0.00780367,1.03421,19.6738,-270.896,0.428042,0.0,0.0
1320,329.75,108.497,120.264,127.938,103.782,98.9037,0.0077218,1.04834,19.6555,-272.387,0.428554,0.0,0.0
1353,338,109.337,122.189,124.126,104.177,98.7925,0.00821621,1.07383,19.6201,-273.999,0.472427,0.0,0.0
1386,346.25,111.712,123.042,123.31,104.544,98.539,0.00851976,1.09944,19.5844,-275.57,0.526573,0.0,0.0
1419,354.5,113.835,125.373,121.321,104.825,98.3472,0.00868275,1.1211,19.5514,-277.161,0.567839,0.0,0.0
1452,362.75,115.873,127.476,117.987,105,99.7014,0.00872221,1.14398,19.5235,-278.793,0.460922,0.0,0.0
1485,371,117.139,129.918,122.714,105.007,99.6852,0.00864822,1.16189,19.5005,-280.484,0.462971,0.0,0.0
1518,379.25,118.791,131.648,121.179,104.841,99.6314,0.00882511,1.16485,19.4957,-282.116,0.453737,0.0,0.0
1551,387.5,120.834,133.25,121.442,104.572,98.2649,0.00921858,1.19853,19.4516,-283.807,0.553824,0.0,0.0
1584,395.75,122.219,135.441,123.556,104.287,97.366,0.00893072,1.2001,19.4462,-285.479,0.611255,0.0,0.0
1617,404,123.431,136.958,126.035,104.241,99.0766,0.00944739,1.22736,19.409,-287.221,0.452323,0.0,0.0
1650,412.25,124.891,138.383,119.379,104.581,99.0521,0.00943389,1.25222,19.3841,-288.962,0.483538,0.0,0.0
1683,420.5,126.693,140.22,124.05,104.583,97.82,0.00975995,1.2564,19.3798,-290.704,0.595069,0.0,0.0
1716,428.75,128.477,141.751,111.543,104.23,97.6808,0.00947237,1.26719,19.362,-292.485,0.577702,0.0,0.0
1749,437,129.904,144.251,120.917,103.766,96.2924,0.00992623,1.30568,19.3111,-294.277,0.665454,0.0,0.0
1782,445.25,131.779,145.509,124.893,103.974,97.5061,0.00998649,1.31138,19.3034,-296.089,0.571723,0.0,0.0
1815,453.5,133.547,147.402,121.536,104.295,97.9934,0.00989466,1.32552,19.2814,-297.97,0.554824,0.0,0.0
1848,461.75,134.919,149.942,112.97,104.427,96.6886,0.0100602,1.34643,19.2593,-299.712,0.685382,0.0,0.0
1881,470,136.91,150.45,119.928,104.254,97.1501,0.0101385,1.34472,19.2581,-301.564,0.628228,0.0,0.0
1914,478.25,137.411,151.716,115.822,103.854,97.3673,0.0105461,1.37039,19.2166,-303.425,0.574125,0.0,0.0
1947,486.5,139.71,154.585,123.254,103.358,96.2219,0.0111946,1.38754,19.1972,-305.297,0.63683,0.0,0.0
1980,494.75,141.982,155.384,111.648,103.129,96.1238,0.0109185,1.4228,19.1442,-307.209,0.626155,0.0,0.0
2013,503,143.467,158.306,113.045,103.411,95.6155,0.0112116,1.45397,19.1022,-309.201,0.697681,0.0,0.0
2046,511.25,145.118,160.642,107.093,104.098,95.559,0.0118522,1.49049,19.0616,-311.082,0.761907,0.0,0.0
2079,519.5,147.05,162.971,109.961,104.734,95.0822,0.011634,1.49608,19.049,-313.094,0.860645,0.0,0.0
2112,527.75,148.932,164.56,114.86,105.032,97.4343,0.0119192,1.5351,19.0032,-315.086,0.668448,0.0,0.0
2145,536,150.763,167.304,118.397,104.911,95.605,0.0127402,1.55874,18.9687,-317.128,0.826851,0.0,0.0
2178,544.25,152.623,169.246,108.793,104.526,96.2626,0.0118542,1.56926,18.96,-319.14,0.733169,0.0,0.0
2211,552.5,154.679,170.724,111.616,104.166,96.5573,0.0119737,1.58317,18.9421,-321.241,0.675182,0.0,0.0
2244,560.75,155.133,172.464,108.406,104.631,95.0682,0.0131007,1.62393,18.8861,-323.333,0.853177,0.0,0.0
2277,569,157.557,175.169,109.193,104.484,94.3007,0.0128211,1.65242,18.8509,-325.425,0.912845,0.0,0.0
2310,577.25,159.663,177.342,109.746,103.766,95.3834,0.012782,1.65516,18.8465,-327.497,0.749812,0.0,0.0
2343,585.5,160.516,178.162,108.714,104.023,94.2065,0.0131114,1.6475,18.8591,-329.659,0.882399,0.0,0.0
2376,593.75,161.014,179.048,114.951,104.381,96.4408,0.0127427,1.61576,18.8923,-331.661,0.70427,0.0,0.0
2409,602,160.891,179.211,109.454,104.352,95.5411,0.0124786,1.55825,18.9792,-333.723,0.785289,0.0,0.0
2442,610.25,160.487,178.249,112.981,103.985,94.0765,0.0123486,1.50043,19.0662,-335.625,0.891439,0.0,0.0
2475,618.5,158.82,176.285,112.227,103.477,95.0437,0.0124531,1.4382,19.1292,-337.546,0.756762,0.0,0.0
2508,626.75,155.203,171.733,128.899,103.152,96.0884,0.0104186,1.19484,19.4827,-339.048,0.631461,0.0,0.0
2541,635,147.084,162.022,143.844,103.134,94.1312,0.00813041,0.778138,20.0857,-340.109,0.813135,0.0,0.0
2574,643.25,132.645,146.92,150.435,103.363,98.1475,0.00427655,0.354414,20.6322,-340.469,0.460907,0.0,0.0
2607,651.5,117.584,130.051,162.757,103.721,99.518,0.00185737,0.15802,20.8928,-340.609,0.368234,0.0,0.0
2640,659.75,105.748,114.973,163.775,104.052,99.592,0.00142533,0.0836932,20.9821,-340.649,0.389989,0.0,0.0
2673,668,94.5937,102.482,165.747,104.258,99.9287,0.00084443,0.0564057,21.0101,-340.659,0.377558,0.0,0.0
2706,676.25,85.6572,92.1088,163.992,104.416,99.7308,0.000640141,0.0487046,21.0172,-340.609,0.408652,0.0,0.0
2739,684.5,78.3018,83.3162,167.346,104.504,99.909,0.000728351,0.0475953,21.0193,-340.649,0.400313,0.0,0.0
2772,692.75,71.9165,76.131,161.97,104.519,99.7579,0.000551806,0.0463776,21.0187,-340.619,0.415029,0.0,0.0
2805,701,66.5561,69.5894,169.605,104.491,99.9865,0.000519458,0.0454093,21.0202,-340.639,0.392235,0.0,0.0
2838,709.25,63.1295,64.9263,164.67,104.418,99.5876,0.000440002,0.0452826,21.021,-340.649,0.42162,0.0,0.0
2871,717.5,59.2045,59.9203,172.605,104.216,99.4129,0.000769512,0.0461025,21.0188,-340.669,0.420054,0.0,0.0
2904,725.75,55.5224,55.412,166.635,103.912,99.2334,0.000655932,0.0461128,21.0208,-340.639,0.410074,0.0,0.0
2937,734,53.3631,53.173,170.11,103.58,98.7102,0.000357208,0.0468079,21.0196,-340.669,0.428726,0.0,0.0
2970,742.25,50.8618,50.3731,165.288,103.306,98.2771,0.000790658,0.0460188,21.0216,-340.679,0.444227,0.0,0.0
3003,750.5,48.7958,47.3335,171.177,103.131,98.2574,0.000410396,0.0463102,21.0209,-340.709,0.430941,0.0,0.0
3036,758.75,46.2961,44.4747,172.325,103.186,98.2307,0.000429602,0.0455033,21.0213,-340.699,0.438123,0.0,0.0
3069,767,45.5677,43.5011,169.3,103.468,98.5385,0.000661831,0.044821,21.0207,-340.669,0.434547,0.0,0.0
3102,775.25,44.1495,41.4391,164.332,103.877,98.9151,,,,-340.669,0.435738,0.0,0.0
3132,782.75,42.8968,40.6269,165.035,104.256,99.4773,,,,-340.669,0.417648,0.0,0.0