File: 01_Data/Black_PMMA/Cone/Black_PMMA_Cone_HF75Scan_220315_R1.csv
Names,Time,Stack TC,Smoke TC,Exh Press,Smoke Comp,Smoke Meas,CO Meter,CO2 Meter,O2 Meter,Sample Mass,Ext Coeff,Start Test,Flame Verif
Chan Gain,,500,500,1,1,1,1,1,1,1,1,1.0,1.0
Offset,,0,0,0.132973,0,0,0,0,0,0,0,0.0,0.0
Gain,,1,1,25.011,13.0548,13.4146,1,1,1,1.00087,1.01298,1.0,1.0
Units,sec,C,C,Pa,%,%,%,%,%,g,/m,,
Baseline,,41.1469,42.3511,146.688,99.3361,94.3244,0.000593551,0.0519158,21.0197,-833.136,0.460067,,
17,4,39.7464,41.1739,144.827,99.4566,93.7925,0.000228822,0.0589086,21.0145,-238.307,0.52103,0.0,0.0
34,8.25,40.1208,41.3575,146.207,99.467,93.8822,0.000542085,0.0585505,21.0111,-238.317,0.513466,0.0,0.0
51,12.5,40.1012,41.2101,124.34,99.4841,92.0457,0.00277536,0.157949,20.8074,-238.747,0.690539,0.0,1.0
68,16.75,47.27,48.1608,93.9139,99.508,88.1365,0.00797342,0.881452,19.7786,-239.688,1.0783,0.0,1.0
85,21,60.1992,62.5472,107.281,99.4997,86.0094,0.0132519,1.4985,18.9579,-240.849,1.29464,0.0,0.0
102,25.25,74.6297,79.0191,97.6326,99.4993,83.7795,0.0168717,1.90381,18.4758,-242.21,1.52802,0.0,0.0
119,29.5,88.6429,94.3354,84.6333,99.4997,83.086,0.0195606,2.18412,18.1265,-243.541,1.60191,0.0,0.0
136,33.75,102.043,110.11,88.7725,99.4929,86.1277,0.0212638,2.39445,17.8829,-245.023,1.28182,0.0,0.0
153,38,114.176,124.421,78.7629,99.4909,84.3035,0.0224389,2.5194,17.7045,-246.424,1.47186,0.0,0.0
170,42.25,125.778,138.289,84.5852,99.4917,84.0971,0.0238227,2.65571,17.5222,-247.915,1.49371,0.0,0.0
187,46.5,136.549,151.642,80.7146,99.5009,83.5695,0.024403,2.72873,17.452,-249.497,1.55046,0.0,0.0
204,50.75,146.094,162.986,85.4469,99.4758,82.9984,0.0241582,2.8008,17.3698,-250.908,1.60915,0.0,0.0
221,55,154.869,174.277,81.2505,99.4913,82.3937,0.0245019,2.88624,17.2647,-252.519,1.67551,0.0,0.0
238,59.25,163.36,183.956,75.6343,99.4638,82.6504,0.0248817,2.95221,17.1782,-254.051,1.64541,0.0,0.0
255,63.5,170.712,193.4,88.4733,99.461,83.6161,0.0255629,3.0011,17.1189,-255.682,1.54194,0.0,0.0
272,67.75,177.133,202.684,80.7757,99.4714,82.9279,0.0257685,3.0486,17.0572,-257.213,1.6163,0.0,0.0
289,72,183.7,210.824,78.8507,99.4542,82.4387,0.0256921,3.10218,16.9979,-258.875,1.66734,0.0,0.0
306,76.25,189.245,218.565,86.7521,99.4331,82.5972,0.0259316,3.09894,16.9925,-260.436,1.64839,0.0,0.0
323,80.5,193.469,224.158,75.1336,99.4339,82.3257,0.0263269,3.11786,16.9776,-262.088,1.67771,0.0,0.0
340,84.75,198.639,230.372,83.7219,99.4351,82.4117,0.0262781,3.1794,16.8937,-263.749,1.66855,0.0,0.0
357,89,202.792,236.487,83.7738,99.4256,83.0127,0.0263828,3.24813,16.8194,-265.33,1.60313,0.0,0.0
374,93.25,207.873,242.554,74.5649,99.4204,82.8145,0.0264067,3.27018,16.7769,-267.032,1.6239,0.0,0.0
391,97.5,212.441,247.969,87.2116,99.4204,83.5277,0.0273719,3.31497,16.7303,-268.633,1.54771,0.0,0.0
408,101.75,216.031,252.952,80.6444,99.4156,83.54,0.0276692,3.33575,16.712,-270.325,1.54598,0.0,0.0
425,106,219.662,257.785,79.2392,99.4032,82.9337,0.028646,3.33787,16.7016,-271.946,1.6096,0.0,0.0
442,110.25,222.404,262.194,72.2278,99.4092,82.6897,0.029091,3.39063,16.6366,-273.648,1.63631,0.0,0.0
459,114.5,226.354,266.28,74.1528,99.4076,83.0307,0.02857,3.41566,16.6053,-275.369,1.5996,0.0,0.0
476,118.75,229.075,269.953,86.4743,99.4064,82.5734,0.0288248,3.43388,16.5774,-277.021,1.64856,0.0,0.0
493,123,230.787,272.81,71.0554,99.416,82.9689,0.0291431,3.48362,16.5217,-278.742,1.60696,0.0,0.0
510,127.25,234.031,276.74,80.4337,99.4176,82.4093,0.0295249,3.56815,16.4271,-280.493,1.66724,0.0,0.0
527,131.5,237.915,280.464,84.8813,99.4287,83.1007,0.0289515,3.56747,16.4121,-282.215,1.594,0.0,0.0
544,135.75,239.905,284.122,72.5346,99.4287,84.493,0.0287789,3.59218,16.3803,-283.987,1.44636,0.0,0.0
561,140,242.949,287.248,71.8286,99.4335,83.8343,0.0297168,3.65237,16.3075,-285.698,1.51633,0.0,0.0
578,144.25,244.826,290.745,78.2073,99.4367,82.1649,0.0306903,3.69215,16.2612,-287.47,1.69534,0.0,0.0
595,148.5,247.397,293.978,89.3793,99.4355,82.7826,0.0301095,3.76701,16.1611,-289.211,1.62868,0.0,0.0
612,152.75,249.943,296.658,84.5783,99.4534,82.7712,0.0298567,3.79009,16.1345,-291.033,1.63151,0.0,0.0
629,157,252.959,299.67,70.9241,99.4526,83.35,0.0302858,3.82128,16.101,-292.794,1.56952,0.0,0.0
646,161.25,255.557,303.547,68.2893,99.4574,84.5913,0.0306349,3.90655,16.0101,-294.646,1.43859,0.0,0.0
663,165.5,257.779,306.073,69.5357,99.4765,82.3626,0.0308224,3.90407,15.9986,-296.497,1.67755,0.0,0.0
680,169.75,260.648,309.318,69.151,99.4762,84.0709,0.0316678,4.04695,15.8247,-298.199,1.49509,0.0,0.0
697,174,263.399,313.441,75.2618,99.4654,81.769,0.0324856,4.0697,15.773,-300.131,1.74082,0.0,0.0
714,178.25,265.977,316.004,72.4522,99.4837,82.4134,0.0341845,4.13686,15.7123,-301.972,1.67271,0.0,0.0
731,182.5,268.296,319.506,69.4876,99.4937,83.0876,0.033781,4.1488,15.6821,-303.914,1.6012,0.0,0.0
748,186.75,270.64,322.33,71.002,99.475,81.8312,0.0336272,4.20712,15.6016,-305.826,1.73492,0.0,0.0
765,191,272.627,324.641,63.4463,99.4941,84.4836,0.0338547,4.28962,15.5287,-307.727,1.45318,0.0,0.0
782,195.25,275.551,328.614,73.0574,99.4925,81.4525,0.0339733,4.27216,15.522,-309.559,1.7777,0.0,0.0
799,199.5,277.666,330.938,64.4248,99.4989,81.4173,0.0347345,4.3142,15.4764,-311.43,1.78211,0.0,0.0
816,203.75,279.614,333.269,72.3781,99.4889,79.6463,0.0341451,4.31852,15.4667,-313.472,1.97664,0.0,0.0
833,208,281.52,335.553,73.5948,99.5016,81.0886,0.0349136,4.42593,15.3326,-315.314,1.81831,0.0,0.0
850,212.25,283.793,338.922,74.6962,99.4965,81.6933,0.035698,4.47158,15.2842,-317.235,1.75183,0.0,0.0
867,216.5,286.234,340.777,62.3693,99.4821,82.6901,0.03522,4.44668,15.2991,-319.217,1.64278,0.0,0.0
884,220.75,288.126,342.657,77.3524,99.4921,82.3556,0.0347787,4.49592,15.2497,-321.159,1.67969,0.0,0.0
901,225,289.377,346.005,70.6753,99.4985,82.4592,0.0355116,4.55379,15.1801,-323.151,1.66909,0.0,0.0
918,229.25,291.488,348.446,75.2343,99.4865,82.0396,0.0366681,4.61802,15.0942,-325.152,1.71335,0.0,0.0
935,233.5,294.31,351.819,75.2946,99.5056,82.9189,0.0379659,4.69576,14.999,-327.144,1.62032,0.0,0.0
952,237.75,296.7,355.051,72.6598,99.4977,82.7151,0.039786,4.81331,14.8623,-329.246,1.64149,0.0,0.0
969,242,299.787,358.646,67.1207,99.4913,81.1647,0.0415174,4.99542,14.6153,-331.318,1.80904,0.0,0.0
986,246.25,302.892,362.979,71.089,99.4973,82.3163,0.0438039,5.25803,14.2877,-333.51,1.68439,0.0,0.0
1003,250.5,306.935,369.294,69.3495,99.5112,81.5332,0.0458482,5.44287,14.0685,-335.731,1.77058,0.0,0.0
1020,254.75,309.278,372.838,62.1991,99.4925,82.7662,0.0469561,5.47664,14.0231,-338.043,1.63553,0.0,0.0
1037,259,311.038,375.666,60.9168,99.4965,77.8565,0.0455524,5.37081,14.1405,-340.085,2.17927,0.0,0.0
1054,263.25,311.061,375.687,71.347,99.4949,80.2269,0.0419443,4.86723,14.8278,-341.907,1.91264,0.0,0.0
1071,267.5,307.829,370.274,83.6616,99.4853,79.4535,0.0340296,3.8918,16.0098,-343.288,1.99785,0.0,0.0
1088,271.75,297.678,358.399,101.043,99.4905,84.4992,0.0234457,2.57281,17.805,-344.229,1.45123,0.0,0.0
1105,276,281.309,337.509,122.411,99.4877,96.546,0.0141751,1.29822,19.5255,-344.409,0.2667,0.0,0.0
1122,280.25,261.296,313.2,127.023,99.471,99.3249,0.0101427,0.543182,20.4561,-344.399,0.0130585,0.0,0.0
1139,284.5,241.989,289.63,127.498,99.4662,99.5075,0.00808201,0.250442,20.8002,-344.429,-0.00368701,0.0,0.0
1156,288.75,225.507,270.298,126.304,99.4606,99.5394,0.0060977,0.153529,20.9181,-344.389,-0.0070363,0.0,0.0
1173,293,211.487,252.247,130.814,99.4646,99.252,0.00456036,0.115741,20.9637,-344.409,0.0190115,0.0,0.0
1190,297.25,199.042,236.43,128.408,99.4479,99.3519,0.00309649,0.0962526,20.9845,-344.449,0.00857802,0.0,0.0
1207,301.5,187.405,222.152,131.648,99.4343,99.2107,0.00206972,0.0836553,20.9995,-344.429,0.0200082,0.0,0.0
1224,305.75,177.749,209.487,128.808,99.4351,99.1464,0.00140709,0.0751832,21.0005,-344.419,0.0258381,0.0,0.0
1241,310,168.728,197.855,131.04,99.4542,99.0003,0.000880532,0.0684805,21.0064,-344.429,0.0406546,0.0,0.0
1258,314.25,161.296,187.63,131.582,99.4252,99.6012,0.000832221,0.0638514,21.012,-344.449,-0.0157217,0.0,0.0
1275,318.5,154.056,178.436,131.869,99.4287,99.0752,0.000690787,0.0605863,21.0168,-344.439,0.0316537,0.0,0.0
1292,322.75,148.088,169.647,134.571,99.4208,99.3335,0.000626374,0.0582572,21.02,-344.479,0.00780441,0.0,0.0
1309,327,142.412,161.543,131.04,99.4068,98.8385,0.000692447,0.0566728,21.0207,-344.449,0.0509431,0.0,0.0
1326,331.25,136.893,154.123,132.234,99.412,99.3748,0.000427085,0.0553744,21.0173,-344.459,0.00332335,0.0,0.0
1343,335.5,132.237,147.277,129.372,99.3949,98.7571,0.000124912,0.0544342,21.0194,-344.459,0.0572011,0.0,0.0
1360,339.75,128.077,141.571,132.534,99.3889,99.0973,0.000671308,0.053506,21.0223,-344.459,0.0261106,0.0,0.0
1377,344,124.591,136.759,134.99,99.3861,98.4955,0.000494676,0.0529697,21.0233,-344.479,0.0799873,0.0,0.0
1394,348.25,121.33,132.436,133.821,99.377,99.1628,0.000497474,0.0525496,21.0235,-344.449,0.0191711,0.0,0.0
1411,352.5,118.064,127.347,132.675,99.361,98.5733,0.000730339,0.0521275,21.0233,-344.479,0.0707277,0.0,0.0
1428,356.75,115.151,123.578,133.4,99.3526,98.2973,0.000572426,0.0516461,21.0243,-344.489,0.0948868,0.0,0.0
1445,361,112.25,119.708,131.024,99.3399,98.3244,0.000282264,0.0514152,21.0254,-344.479,0.091305,0.0,0.0
1462,365.25,109.356,115.173,134.431,99.3236,98.7059,0.000547616,0.051195,21.0255,-344.449,0.0554297,0.0,0.0
1479,369.5,107.515,112.941,132.986,99.3096,98.5896,0.000772622,0.050981,21.0255,-344.469,0.0646537,0.0,0.0
1496,373.75,105.256,109.949,133.213,99.3124,97.7447,0.000662029,0.0508352,21.0254,-344.469,0.141388,0.0,0.0
1513,378,102.785,106.71,133.232,99.2997,97.9498,0.00031834,0.0506504,21.0263,-344.459,0.121621,0.0,0.0
1530,382.25,101.089,104.049,136.105,99.3032,98.2695,0.00064414,0.0504687,21.0265,-344.499,0.0929845,0.0,0.0
1547,386.5,99.4191,102.028,134.148,99.3044,97.7304,0.000786593,0.050356,21.0265,-344.469,0.141978,0.0,0.0
1564,390.75,96.8614,98.6712,135.266,99.3287,97.4266,,0.0503154,,-344.459,0.171813,0.0,0.0
1581,395,96.4321,97.3127,135.328,99.3072,97.481,,,,-344.459,0.164923,0.0,0.0
1598,399.25,94.4698,95.7683,138.987,99.3024,97.9379,,,,-344.479,0.122947,0.0,0.0
1605,401,93.6105,94.595,136.933,99.2941,97.0921,,,,-344.449,0.19927,0.0,0.0