File: 01_Data/Black_PMMA/Cone/Black_PMMA_Cone_HF50Scalar_220315_R2.csv
LABORATORY,FSRI
TEST IDENT,BlackPMMA_HF50_2
OPERATOR,Dow
MATERIAL,Black PMMA
ORIENTATION,Horizontal
HEAT FLUX,50
SURF AREA,0.01
C FACTOR,0.0394682
SPEC HOLDER DIFF,-566
SPECIMEN MASS,102.5
SCAN TIME,0.25
O2 DELAY TIME,11
CO DELAY TIME,11
CO2 DELAY TIME,8
FLOW FACTOR,1
SCAN COUNT,1979
TIME TO IGN,27.5
END OF TEST SCAN,1499
END OF TEST TIME,374.75
TEST STATUS,1
PRE TEST CMT,Dimensions: 101.01 x 100.90 x 8.36 mm