File: 01_Data/Black_PMMA/Cone/Black_PMMA_Cone_HF75Scalar_220315_R1.csv
LABORATORY,FSRI
TEST IDENT,BlackPMMA_HF75_1
OPERATOR,Dow
MATERIAL,Black PMMA
ORIENTATION,Horizontal
HEAT FLUX,75
SURF AREA,0.01
C FACTOR,0.0390023
SPEC HOLDER DIFF,-566
SPECIMEN MASS,105.8
SCAN TIME,0.25
O2 DELAY TIME,11
CO DELAY TIME,11
CO2 DELAY TIME,8
FLOW FACTOR,1
SCAN COUNT,1605
TIME TO IGN,11.75
END OF TEST SCAN,1125
END OF TEST TIME,281.25
TEST STATUS,1
PRE TEST CMT,Dimensions: 100.90 x 100.06 x 8.72 mm