File: 01_Data/Black_PMMA/Cone/Black_PMMA_Cone_HF25Scan_220315_R2.csv
Names,Time,Stack TC,Smoke TC,Exh Press,Smoke Comp,Smoke Meas,CO Meter,CO2 Meter,O2 Meter,Sample Mass,Ext Coeff,Start Test,Flame Verif
Chan Gain,,500,500,1,1,1,1,1,1,1,1,1.0,1.0
Offset,,0,0,0.136235,0,0,0,0,0,0,0,0.0,0.0
Gain,,1,1,25.011,13.6985,14.3472,1,1,1,1.00091,1.01482,1.0,1.0
Units,sec,C,C,Pa,%,%,%,%,%,g,/m,,
Baseline,,14.1989,14.2175,179.11,103.878,101.375,0.00093695,0.0453828,21.0189,-831.93,0.217208,,
33,8,13.261,13.7015,172.934,103.749,102.123,0.000738566,0.0527858,21.0142,-242.04,0.140605,0.0,0.0
66,16.25,13.6425,14.0997,176.863,104.56,103.205,0.00068271,0.0483475,21.0189,-242.04,0.116105,0.0,0.0
99,24.5,14.0455,13.6782,176.534,104.373,103.224,0.000992844,0.046068,21.0225,-242.07,0.0985563,0.0,0.0
132,32.75,13.9003,14.3452,180.165,103.753,102.497,0.00114658,0.0450139,21.0225,-242.05,0.108389,0.0,0.0
165,41,13.7818,14.1399,180.898,104.283,103.218,0.000862769,0.045559,21.0214,-242.04,0.0913831,0.0,0.0
198,49.25,14.4741,14.6341,178.086,103.422,102.578,0.000845995,0.0461521,21.0217,-242.06,0.0729061,0.0,0.0
231,57.5,14.3948,14.41,177.953,103.759,102.387,0.000848512,0.0451733,21.0242,-242.08,0.118442,0.0,0.0
264,65.75,14.2229,14.2961,177.693,103.878,102.827,0.000844176,0.0440939,21.0258,-242.08,0.0905565,0.0,0.0
297,74,14.7473,14.662,180.715,103.522,102.218,0.000968777,0.0447007,21.0215,-242.11,0.112826,0.0,0.0
330,82.25,14.7319,14.5218,182.441,103.035,101.975,0.000963128,0.044452,21.0212,-242.12,0.0921099,0.0,0.0
363,90.5,14.4067,15.1361,173.717,102.726,101.799,0.00105229,0.0455333,21.0213,-242.11,0.0807188,0.0,0.0
396,98.75,14.4945,14.4945,175.925,102.589,101.348,0.00109925,0.0473213,21.0205,-242.11,0.108316,0.0,0.0
429,107,14.8417,14.7458,180.672,102.542,101.406,0.000866094,0.0466865,21.0216,-242.14,0.0991765,0.0,0.0
462,115.25,15.1142,15.4095,176.365,102.542,101.034,0.000188631,0.0467853,21.0207,-242.19,0.131907,0.0,0.0
495,123.5,16.8315,16.3996,156.572,102.55,96.4286,0.00188635,0.175422,20.7951,-242.53,0.547859,0.0,1.0
528,131.75,22.9832,23.8642,141.612,102.56,98.4623,0.00417895,0.505756,20.3299,-243.481,0.362932,0.0,0.0
561,140,33.5294,34.4033,148.516,102.54,97.3082,0.00522527,0.679203,20.138,-244.662,0.466225,0.0,0.0
594,148.25,42.688,44.6824,134.345,102.584,97.7635,0.00591117,0.744511,20.0615,-245.833,0.428475,0.0,0.0
627,156.5,50.0325,52.7159,139.934,102.69,97.0201,0.00623222,0.763825,20.0421,-247.024,0.505603,0.0,0.0
660,164.75,55.9544,59.7433,135.808,102.93,97.0538,0.00627435,0.78898,20.0096,-248.235,0.523287,0.0,0.0
693,173,61.9413,67.0616,138.392,103.252,96.7985,0.00632852,0.79928,19.9969,-249.556,0.574527,0.0,0.0
726,181.25,66.123,72.1514,140.604,103.594,97.1847,0.0060813,0.79956,19.9993,-250.758,0.568553,0.0,0.0
759,189.5,69.3993,76.5131,137.54,103.858,97.8424,0.00653282,0.811823,19.9785,-252.049,0.531192,0.0,0.0
792,197.75,73.3672,80.7329,131.259,103.907,96.5603,0.00608648,0.816181,19.971,-253.29,0.652722,0.0,0.0
825,206,75.6782,83.4114,132.049,103.643,97.5626,0.00642804,0.837458,19.945,-254.621,0.538176,0.0,0.0
858,214.25,78.1347,87.0333,137.408,103.59,97.3178,0.00681155,0.837366,19.9447,-255.912,0.55601,0.0,0.0
891,222.5,80.6675,90.3454,134.984,104.344,98.2242,0.00674408,0.850581,19.9264,-257.243,0.538062,0.0,0.0
924,230.75,82.7336,91.9861,131.611,103.787,97.331,0.00696096,0.863018,19.9094,-258.535,0.571748,0.0,0.0
957,239,85.2594,94.8258,135.387,104.349,97.7522,0.00751041,0.887987,19.8759,-259.926,0.581369,0.0,0.0
990,247.25,87.0431,97.2693,137.936,104.614,98.5595,0.00710573,0.903455,19.8552,-261.307,0.530727,0.0,0.0
1023,255.5,89.3799,99.3871,133.741,103.918,97.7605,0.00712848,0.913765,19.8388,-262.688,0.543767,0.0,0.0
1056,263.75,90.9876,101.802,133.166,102.824,97.3892,0.00736197,0.925954,19.8238,-264.09,0.48339,0.0,0.0
1089,272,92.9899,103.735,125.424,102.683,97.1523,0.00771009,0.937666,19.8068,-265.481,0.4929,0.0,0.0
1122,280.25,93.5345,106.259,130.45,103.474,96.4491,0.00762669,0.957541,19.7822,-266.922,0.625871,0.0,0.0
1155,288.5,96.3952,107.946,128.374,103.927,97.7828,0.00744121,0.963687,19.7735,-268.363,0.54245,0.0,0.0
1188,296.75,98.1631,109.455,131.559,103.474,96.6523,0.00783281,0.990956,19.7384,-269.825,0.607139,0.0,0.0
1221,305,99.1602,111.338,134.501,104.237,96.4286,0.00773115,1.00306,19.7224,-271.306,0.693165,0.0,0.0
1254,313.25,101.152,112.388,130.815,103.811,97.6633,0.00775815,1.00436,19.7179,-272.818,0.543449,0.0,0.0
1287,321.5,101.454,114.185,131.001,104.583,98.4317,0.0078798,1.01841,19.7015,-274.359,0.53965,0.0,0.0
1320,329.75,104.34,116.593,125.466,104.057,98.2001,0.00829846,1.04211,19.6672,-275.84,0.515709,0.0,0.0
1353,338,106.427,118.683,117.376,102.727,97.0853,0.00834917,1.06397,19.6396,-277.382,0.502843,0.0,0.0
1386,346.25,108.095,120.217,123.841,103.068,96.7456,0.00833092,1.07505,19.6234,-278.963,0.563492,0.0,0.0
1419,354.5,109.877,122.617,130.721,103.924,99.032,0.00858433,1.1087,19.5791,-280.605,0.429198,0.0,0.0
1452,362.75,111.446,124.394,126.529,103.487,96.443,0.00852545,1.11766,19.5624,-282.216,0.627552,0.0,0.0
1485,371,112.283,125.619,130.507,104.252,98.7609,0.0086838,1.13808,19.54,-283.818,0.481659,0.0,0.0
1518,379.25,115.187,128.428,124.727,103.939,97.1497,0.00939987,1.15486,19.5147,-285.479,0.601314,0.0,0.0
1551,387.5,115.672,130.162,129.744,104.591,97.5691,0.00921196,1.16689,19.4971,-287.171,0.618641,0.0,0.0
1584,395.75,118.603,131.724,116.312,103.74,96.8366,0.00953096,1.18877,19.4687,-288.852,0.612987,0.0,0.0
1617,404,119.347,132.815,121.57,102.63,95.8904,0.00947207,1.20044,19.4511,-290.574,0.604639,0.0,0.0
1650,412.25,121.236,135.557,126.12,103.315,96.8358,0.00949201,1.22204,19.4266,-292.255,0.57651,0.0,0.0
1683,420.5,123.447,137.956,115.17,103.937,96.2828,0.00975807,1.25262,19.3823,-294.017,0.680964,0.0,0.0
1716,428.75,125.214,138.102,112.317,103.417,97.6173,0.00964904,1.26293,19.3738,-295.788,0.513773,0.0,0.0
1749,437,126.408,141.016,120.293,104.235,97.3454,0.0100069,1.26894,19.3622,-297.56,0.608748,0.0,0.0
1782,445.25,128.784,143.324,118.139,103.98,96.5814,0.0103933,1.32741,19.2795,-299.372,0.65705,0.0,0.0
1815,453.5,130.033,144.908,113.426,104.576,97.0897,0.0101833,1.322,19.2871,-301.183,0.661211,0.0,0.0
1848,461.75,132.682,147.759,115.412,103.582,95.6571,0.0104729,1.35687,19.2457,-303.045,0.708515,0.0,0.0
1881,470,134.516,149.587,114.676,102.749,95.9465,0.0108001,1.38895,19.1997,-304.967,0.609767,0.0,0.0
1914,478.25,136.577,152.175,113.915,102.782,94.3979,0.0110916,1.40902,19.1774,-306.818,0.757483,0.0,0.0
1947,486.5,137.992,153.844,118.305,103.38,95.4732,0.0109622,1.42594,19.1517,-308.73,0.708311,0.0,0.0
1980,494.75,140.054,155.992,120.968,103.901,95.7144,0.0111936,1.44847,19.1261,-310.692,0.730549,0.0,0.0
2013,503,141.913,157.147,114.572,104.035,96.5065,0.0114309,1.47904,19.087,-312.614,0.668677,0.0,0.0
2046,511.25,143.189,159.387,118.622,103.863,95.1689,0.0110198,1.45013,19.1204,-314.535,0.778174,0.0,0.0
2079,519.5,144.612,160.877,118.875,103.585,96.5695,0.0114509,1.49225,19.0642,-316.567,0.62429,0.0,0.0
2112,527.75,145.662,163.313,119.033,103.448,95.4574,0.011436,1.51816,19.0313,-318.529,0.715646,0.0,0.0
2145,536,147.89,164.872,110.683,103.868,95.3248,0.01206,1.55049,18.9883,-320.511,0.764036,0.0,0.0
2178,544.25,149.088,166.51,106.835,104.164,95.122,0.0121936,1.56117,18.9798,-322.503,0.808354,0.0,0.0
2211,552.5,151.113,168.624,108.448,104.298,93.9118,0.0134223,1.63353,18.8789,-324.655,0.933761,0.0,0.0
2244,560.75,154.106,172.409,115.66,104.354,93.8344,0.0139517,1.69164,18.8067,-326.837,0.945889,0.0,0.0
2277,569,156.562,174.77,113.481,104.349,94.1097,0.0138792,1.67547,18.824,-328.988,0.919408,0.0,0.0
2310,577.25,158.374,176.142,107.163,104.317,95.0051,0.0138302,1.68563,18.8236,-331.13,0.832367,0.0,0.0
2343,585.5,158.862,177.169,113.935,104.282,93.5353,0.0137395,1.64313,18.8773,-333.172,0.968205,0.0,0.0
2376,593.75,159.44,177.565,114.754,104.261,94.9224,0.0128648,1.5731,18.967,-335.264,0.835378,0.0,0.0
2409,602,159.02,176.959,102.842,104.278,94.5988,0.0123946,1.53599,19.0159,-337.206,0.867202,0.0,0.0
2442,610.25,157.385,175.215,109.304,104.284,93.8138,0.0118888,1.45563,19.1269,-339.118,0.94192,0.0,0.0
2475,618.5,156.244,173.077,131.177,104.312,97.1589,0.0109748,1.33805,19.2803,-340.909,0.632387,0.0,0.0
2508,626.75,149.927,166.426,132.51,104.336,94.8445,0.00938195,1.00489,19.7619,-342.19,0.849077,0.0,0.0
2541,635,137.813,152.688,152.635,104.368,98.3349,0.00598793,0.511433,20.4618,-342.821,0.530097,0.0,0.0
2574,643.25,122.502,134.987,160.549,104.369,100.042,0.00285887,0.20546,20.8376,-342.971,0.376955,0.0,0.0
2607,651.5,108.593,120.314,168.657,104.361,99.9939,0.00152292,0.0920912,20.9778,-343.011,0.380526,0.0,0.0
2640,659.75,97.1069,106.221,165.115,104.353,99.8109,0.00106328,0.0559592,21.0176,-343.041,0.396191,0.0,0.0
2673,668,87.6306,94.9509,166.037,104.27,99.7667,0.000775449,0.0496988,21.0191,-343.021,0.393037,0.0,0.0
2706,676.25,78.8563,84.372,160.896,104.162,99.6064,0.00097402,0.0477311,21.02,-343.061,0.398099,0.0,0.0
2739,684.5,72.5571,77.2396,165.431,104.009,99.1699,0.000887622,0.0470377,21.0201,-343.041,0.424111,0.0,0.0
2772,692.75,66.4935,70.5799,170.261,103.751,98.775,0.000768629,0.0463261,21.0209,-343.051,0.437494,0.0,0.0
2805,701,62.4708,64.742,167.787,103.472,98.5066,0.000751868,0.0458501,21.0225,-343.021,0.437795,0.0,0.0
2838,709.25,58.3623,60.4497,165.276,103.572,98.5355,0.000781568,0.0457283,21.0226,-343.041,0.443776,0.0,0.0
2871,717.5,54.8746,56.4485,167.337,103.708,98.7964,0.000462423,0.0457097,21.0212,-343.021,0.431901,0.0,0.0
2904,725.75,52.1888,52.4189,169.415,103.891,99.0679,0.000790349,0.0454984,21.0216,-343.031,0.423142,0.0,0.0
2937,734,49.7818,49.6031,167.868,104.029,99.1598,0.000608067,0.0450795,21.0221,-343.071,0.426697,0.0,0.0
2970,742.25,47.7933,46.4394,173.328,104.105,99.3284,0.00104763,0.0451125,21.0233,-343.031,0.418086,0.0,0.0
3003,750.5,45.9578,44.485,166.262,104.084,99.2399,0.000803427,0.0453275,21.0238,-342.991,0.424263,0.0,0.0
3036,758.75,44.4347,42.3173,166.797,103.926,99.0009,0.000586557,0.0453414,21.022,-343.061,0.432172,0.0,0.0
3069,767,42.8984,40.96875,169.023,103.65,98.8932,0.000744469,0.045288,21.0226,-343.081,0.418234,0.0,0.0
3102,775.25,41.3607,39.0833,165.934,103.323,98.6309,0.000514694,0.0454618,21.0232,-343.081,0.413716,0.0,0.0
3135,783.5,40.6352,37.6113,167.372,102.999,98.2929,,,,-343.041,0.416354,0.0,0.0
3153,788,39.7643,36.8707,167.307,102.859,98.1681,,,,-343.091,0.415551,0.0,0.0