File: 01_Data/Nylon/MCC/Nylon_MCC_30K_min_220329_R1.txt
Sample ID:	C:\MCC\MCC Cal\Test\nylon_MCC_30K_min_220329_R1.txt
Sample Weight (mg):	4.58
Heating Rate (C/s):	0.5
Combustor Temp (C):	900
N2 Flow Rate (cc/min):	80
O2 Flow Rate (cc/min):	20
Calibration File:	C:\MCC\MCC Cal\Coeff1 JN10440_30_210304.txt.txt
T Correction Coefficients:	0	1.024463	0
Time Shift (s):	14
*
Time (s)	Temperature (C)	N2 flow rate (cc/min)	O2 flow rate (cc/min)	Flow Rate (cc/min)	Oxygen (%)	HRR (W/g)	Heating rate (C/s)
0.000	111.526	80.010	19.994	103.669	20.054	-0.163	-0.024
8.000	111.520	80.011	19.993	103.662	20.055	-0.206	0.027
16.000	111.490	80.012	19.993	103.734	20.051	0.088	0.003
24.000	111.647	80.010	19.992	103.830	20.037	1.059	0.062
32.001	112.313	80.008	19.992	103.850	20.022	2.119	0.101
40.000	113.421	80.009	19.993	103.852	20.021	2.179	0.183
48.000	114.805	80.010	19.993	103.841	20.019	2.349	0.204
56.000	116.439	80.008	19.993	103.853	20.023	2.053	0.231
64.000	118.329	80.009	19.994	103.864	20.018	2.374	0.240
72.000	120.427	80.011	19.994	103.872	20.017	2.503	0.273
80.001	122.793	80.011	19.992	103.870	20.012	2.845	0.305
88.001	125.238	80.009	19.994	103.880	20.016	2.522	0.294
96.000	127.901	80.010	19.994	103.885	20.013	2.751	0.365
104.000	130.704	80.011	19.992	103.881	20.016	2.560	0.357
112.000	133.591	80.010	19.992	103.899	20.019	2.328	0.393
120.001	136.627	80.011	19.994	103.874	20.013	2.776	0.370
128.000	139.637	80.011	19.993	103.896	20.016	2.511	0.371
136.000	142.869	80.011	19.992	103.887	20.016	2.562	0.449
144.000	146.225	80.011	19.994	103.898	20.011	2.865	0.420
152.000	149.584	80.010	19.994	103.892	20.013	2.741	0.403
160.000	153.055	80.009	19.993	103.905	20.015	2.631	0.438
168.000	156.546	80.010	19.994	103.866	20.010	2.971	0.455
176.000	160.187	80.012	19.995	103.893	20.012	2.816	0.468
184.001	163.792	80.013	19.993	103.903	20.012	2.844	0.453
192.000	167.590	80.009	19.995	103.887	20.019	2.326	0.462
200.000	171.381	80.009	19.991	103.899	20.018	2.390	0.474
208.000	175.250	80.010	19.993	103.872	20.018	2.371	0.501
216.000	179.077	80.010	19.992	103.891	20.019	2.334	0.496
224.000	182.956	80.010	19.993	103.868	20.019	2.309	0.500
232.000	186.892	80.011	19.992	103.889	20.016	2.549	0.474
240.000	190.864	80.013	19.993	103.872	20.020	2.234	0.516
248.000	194.742	80.013	19.992	103.869	20.018	2.393	0.457
256.000	198.772	80.011	19.993	103.863	20.018	2.376	0.498
264.000	202.719	80.013	19.993	103.866	20.020	2.279	0.497
272.000	206.719	80.012	19.992	103.864	20.020	2.285	0.498
280.000	210.680	80.009	19.993	103.865	20.021	2.181	0.467
288.001	214.796	80.010	19.994	103.856	20.025	1.930	0.521
296.000	218.725	80.012	19.994	103.861	20.024	1.969	0.449
304.000	222.759	80.011	19.993	103.832	20.019	2.340	0.492
312.000	226.663	80.010	19.993	103.878	20.026	1.854	0.478
320.000	230.650	80.011	19.991	103.846	20.029	1.603	0.546
328.000	234.543	80.012	19.992	103.842	20.021	2.185	0.481
336.000	238.485	80.011	19.993	103.848	20.027	1.788	0.497
344.000	242.502	80.013	19.993	103.829	20.026	1.833	0.490
352.000	246.556	80.012	19.994	103.826	20.026	1.848	0.533
360.000	250.756	80.009	19.992	103.844	20.030	1.584	0.547
368.000	254.708	80.011	19.994	103.834	20.030	1.579	0.458
376.000	258.762	80.010	19.994	103.833	20.034	1.237	0.500
384.000	262.666	80.011	19.995	103.831	20.033	1.305	0.523
392.000	266.537	80.011	19.995	103.825	20.032	1.391	0.440
400.000	270.414	80.011	19.993	103.808	20.033	1.301	0.487
408.000	274.267	80.011	19.992	103.805	20.040	0.834	0.473
416.000	278.048	80.010	19.992	103.829	20.037	1.041	0.483
424.000	281.877	80.010	19.992	103.818	20.037	1.045	0.475
432.000	285.677	80.013	19.991	103.817	20.036	1.124	0.472
440.000	289.378	80.010	19.992	103.816	20.036	1.111	0.458
448.000	293.273	80.011	19.993	103.809	20.031	1.486	0.461
456.000	297.155	80.010	19.994	103.819	20.033	1.358	0.463
464.000	301.020	80.011	19.994	103.824	20.036	1.115	0.471
472.000	304.965	80.009	19.993	103.823	20.033	1.338	0.495
480.000	308.917	80.012	19.994	103.822	20.033	1.317	0.501
488.000	312.986	80.011	19.993	103.823	20.035	1.165	0.549
496.000	317.043	80.010	19.993	103.820	20.038	1.008	0.539
504.000	321.148	80.011	19.994	103.814	20.035	1.187	0.584
512.000	325.329	80.013	19.994	103.815	20.030	1.558	0.618
520.000	329.568	80.012	19.993	103.817	20.039	0.939	0.530
528.000	333.762	80.011	19.994	103.771	20.037	1.025	0.533
536.000	337.876	80.010	19.992	103.800	20.041	0.762	0.500
544.000	341.872	80.011	19.993	103.818	20.042	0.688	0.477
552.000	345.880	80.009	19.994	103.788	20.040	0.819	0.510
560.000	349.804	80.009	19.993	103.808	20.038	0.986	0.503
568.000	353.723	80.011	19.994	103.815	20.030	1.546	0.486
576.000	357.586	80.012	19.993	103.785	20.032	1.441	0.478
584.000	361.546	80.012	19.994	103.829	20.026	1.846	0.515
592.000	365.631	80.012	19.993	103.811	20.016	2.560	0.486
600.000	369.960	80.013	19.994	103.817	20.006	3.258	0.560
608.000	374.246	80.009	19.993	103.828	19.993	4.178	0.547
616.000	378.669	80.011	19.993	103.824	19.966	6.069	0.558
624.000	383.063	80.010	19.993	103.832	19.938	8.044	0.537
632.000	387.335	80.010	19.994	103.796	19.904	10.441	0.543
640.000	391.567	80.010	19.994	103.820	19.864	13.276	0.497
648.000	395.887	80.011	19.994	103.836	19.809	17.163	0.563
656.000	400.197	80.013	19.992	103.832	19.748	21.470	0.543
664.000	404.383	80.012	19.995	103.824	19.641	29.037	0.535
672.000	408.399	80.011	19.994	103.854	19.471	41.150	0.508
680.000	412.392	80.011	19.992	103.876	19.244	57.208	0.490
688.000	416.294	80.009	19.993	103.880	18.956	77.570	0.478
696.000	420.434	80.010	19.993	103.906	18.658	98.658	0.525
704.000	424.631	80.010	19.992	103.920	18.369	119.099	0.507
712.000	428.864	80.012	19.994	103.829	18.087	139.038	0.542
720.000	432.935	80.009	19.992	103.866	17.835	156.857	0.474
728.000	436.890	80.011	19.993	103.891	17.522	178.986	0.492
736.000	440.672	80.011	19.994	103.828	17.181	203.000	0.452
744.000	444.319	80.010	19.993	103.775	16.899	222.822	0.471
752.000	448.020	80.011	19.993	103.808	16.616	242.766	0.468
760.000	451.781	80.012	19.993	103.751	16.387	258.908	0.450
768.000	455.500	80.011	19.995	103.731	16.280	266.461	0.454
776.000	459.185	80.010	19.995	103.705	16.259	267.959	0.458
784.000	462.936	80.010	19.993	103.708	16.349	261.558	0.430
792.000	466.838	80.011	19.993	103.723	16.567	246.211	0.501
800.000	470.985	80.008	19.991	103.644	16.968	217.785	0.494
808.000	475.361	80.009	19.992	103.671	17.511	179.467	0.547
816.000	479.764	80.011	19.994	103.665	18.125	136.144	0.545
824.000	484.199	80.012	19.992	103.716	18.732	93.292	0.560
832.000	488.618	80.011	19.993	103.771	19.242	57.279	0.533
840.000	493.074	80.012	19.994	103.783	19.600	31.949	0.539
848.000	497.535	80.014	19.991	103.776	19.823	16.145	0.561
856.000	501.869	80.012	19.994	103.770	19.938	8.018	0.543
864.000	506.124	80.011	19.993	103.756	19.992	4.218	0.541
872.000	510.331	80.012	19.994	103.739	20.014	2.713	0.521
880.000	514.533	80.010	19.994	103.740	20.026	1.842	0.555
888.000	518.754	80.010	19.994	103.723	20.030	1.522	0.534
896.000	522.879	80.012	19.992	103.716	20.031	1.444	0.523
904.000	526.966	80.012	19.992	103.715	20.036	1.098	0.499
912.000	531.105	80.011	19.992	103.742	20.035	1.180	0.527
920.000	535.148	80.012	19.991	103.743	20.037	1.054	0.514
928.000	539.170	80.011	19.992	103.745	20.037	1.044	0.497
936.000	543.260	80.010	19.993	103.755	20.037	1.040	0.503
944.000	547.215	80.010	19.992	103.749	20.032	1.376	0.500
952.000	551.259	80.010	19.993	103.753	20.033	1.304	0.486
960.000	555.359	80.010	19.994	103.768	20.041	0.745	0.542
968.000	559.493	80.010	19.994	103.760	20.042	0.727	0.560
976.000	563.591	80.012	19.993	103.748	20.038	0.976	0.489
984.000	567.718	80.013	19.993	103.752	20.042	0.677	0.515
992.000	571.840	80.012	19.993	103.753	20.041	0.791	0.537
1000.000	576.029	80.011	19.993	103.751	20.046	0.393	0.546
1008.000	580.082	80.014	19.992	103.753	20.044	0.585	0.520
1016.000	584.243	80.011	19.991	103.755	20.043	0.653	0.479
1024.000	588.452	80.009	19.994	103.753	20.041	0.743	0.532
1032.000	592.561	80.011	19.994	103.746	20.040	0.849	0.539
1040.000	596.767	80.013	19.991	103.754	20.041	0.754	0.491
1048.000	600.965	80.012	19.994	103.761	20.040	0.844	0.512
1056.000	605.103	80.010	19.994	103.756	20.039	0.933	0.530
1064.000	609.178	80.009	19.994	103.746	20.038	1.009	0.514
1072.000	613.267	80.013	19.994	103.747	20.041	0.768	0.480
1080.000	617.363	80.010	19.993	103.750	20.041	0.776	0.504
1088.000	621.488	80.012	19.991	103.749	20.041	0.776	0.489
1096.000	625.602	80.015	19.993	103.745	20.043	0.645	0.533
1104.001	629.664	80.010	19.993	103.739	20.044	0.589	0.510
1112.000	633.752	80.011	19.992	103.751	20.044	0.552	0.527
1120.000	637.702	80.012	19.994	103.746	20.043	0.595	0.496
1128.000	641.734	80.008	19.994	103.745	20.048	0.249	0.540
1136.000	645.675	80.008	19.992	103.750	20.039	0.908	0.485
1144.000	649.794	80.012	19.994	103.750	20.041	0.766	0.502
1152.000	653.827	80.010	19.994	103.748	20.040	0.847	0.543
1160.000	657.858	80.009	19.992	103.742	20.047	0.328	0.536
1168.000	661.862	80.013	19.993	103.742	20.042	0.698	0.513
1176.000	665.861	80.012	19.993	103.736	20.040	0.847	0.469
1184.001	669.778	80.010	19.993	103.745	20.038	0.984	0.510
1192.000	673.774	80.011	19.994	103.753	20.040	0.867	0.469
1200.000	677.867	80.010	19.992	103.747	20.045	0.486	0.510
1208.000	682.039	80.011	19.991	103.746	20.043	0.603	0.521
1216.001	686.228	80.010	19.994	103.749	20.050	0.134	0.541
1224.001	690.313	80.009	19.995	103.750	20.046	0.398	0.500
1232.001	694.355	80.014	19.995	103.747	20.045	0.492	0.515
1240.001	698.323	80.013	19.994	103.740	20.042	0.721	0.423
1248.000	702.399	80.013	19.994	103.744	20.038	0.964	0.505
1256.001	706.440	80.015	19.994	103.744	20.039	0.902	0.536
1264.000	710.536	80.010	19.993	103.749	20.040	0.834	0.480
1272.000	714.697	80.012	19.992	103.751	20.039	0.919	0.516
1280.000	718.859	80.009	19.991	103.739	20.036	1.088	0.493
1288.000	722.927	80.011	19.993	103.744	20.033	1.353	0.557
1296.000	726.974	80.009	19.992	103.749	20.038	0.984	0.524
1304.001	730.987	80.010	19.993	103.748	20.037	1.018	0.456
1312.000	735.130	80.012	19.994	103.747	20.038	0.997	0.490
1320.000	739.182	80.011	19.992	103.744	20.033	1.320	0.499
1328.000	743.187	80.010	19.994	103.731	20.032	1.380	0.481
1329.000	743.701	80.011	19.994	103.737	20.035	1.184	0.498