File: 01_Data/Nylon/MCC/Nylon_MCC_30K_min_220329_R2.txt
Sample ID:	C:\MCC\MCC Cal\Test\Nylon_MCC_30K_min_220329_R2.txt
Sample Weight (mg):	4.39
Heating Rate (C/s):	0.5
Combustor Temp (C):	900
N2 Flow Rate (cc/min):	80
O2 Flow Rate (cc/min):	20
Calibration File:	C:\MCC\MCC Cal\Coeff1 JN10440_30_210304.txt.txt
T Correction Coefficients:	0	1.024463	0
Time Shift (s):	14
*
Time (s)	Temperature (C)	N2 flow rate (cc/min)	O2 flow rate (cc/min)	Flow Rate (cc/min)	Oxygen (%)	HRR (W/g)	Heating rate (C/s)
0.000	108.818	80.012	19.993	103.656	19.994	0.376	-0.000
8.000	108.810	80.011	19.994	103.651	19.997	0.151	-0.017
16.000	108.872	80.014	19.994	103.647	19.993	0.459	0.062
24.000	108.978	80.011	19.994	103.696	19.988	0.859	0.028
32.000	109.252	80.011	19.994	103.806	19.976	1.724	0.051
40.000	109.975	80.011	19.994	103.825	19.965	2.574	0.140
48.000	111.071	80.008	19.994	103.859	19.955	3.269	0.140
56.000	112.571	80.010	19.994	103.875	19.957	3.108	0.216
64.000	114.526	80.011	19.993	103.902	19.949	3.739	0.218
72.000	116.819	80.013	19.993	103.900	19.948	3.782	0.295
80.000	119.325	80.010	19.994	103.902	19.946	3.987	0.339
88.000	122.172	80.011	19.993	103.913	19.946	3.927	0.373
96.000	125.208	80.013	19.993	103.909	19.946	3.935	0.375
104.000	128.326	80.012	19.991	103.919	19.952	3.507	0.366
112.000	131.713	80.010	19.994	103.913	19.950	3.657	0.447
120.001	135.174	80.011	19.994	103.904	19.953	3.436	0.434
128.000	138.762	80.012	19.992	103.913	19.953	3.449	0.452
136.000	142.385	80.009	19.994	103.915	19.947	3.852	0.453
144.000	146.125	80.010	19.993	103.906	19.952	3.515	0.450
152.000	150.016	80.012	19.996	103.915	19.953	3.420	0.527
160.000	153.864	80.011	19.992	103.904	19.949	3.751	0.477
168.000	157.739	80.011	19.993	103.905	19.949	3.714	0.486
176.000	161.643	80.014	19.993	103.900	19.953	3.440	0.506
184.000	165.642	80.014	19.993	103.894	19.951	3.608	0.526
192.000	169.597	80.012	19.993	103.892	19.954	3.357	0.479
200.000	173.573	80.012	19.994	103.893	19.955	3.315	0.495
208.000	177.566	80.017	19.995	103.893	19.959	2.992	0.498
216.000	181.503	80.009	19.994	103.877	19.963	2.729	0.482
224.000	185.471	80.009	19.994	103.870	19.959	2.969	0.497
232.000	189.476	80.012	19.994	103.871	19.959	2.973	0.479
240.000	193.314	80.010	19.993	103.860	19.958	3.066	0.476
248.000	197.208	80.012	19.995	103.859	19.955	3.255	0.508
256.000	201.120	80.013	19.993	103.859	19.955	3.249	0.476
264.000	205.040	80.014	19.994	103.855	19.956	3.178	0.493
272.000	208.907	80.011	19.995	103.853	19.959	2.995	0.488
280.000	212.801	80.011	19.994	103.856	19.959	3.011	0.518
288.000	216.646	80.011	19.992	103.837	19.960	2.915	0.439
296.000	220.601	80.011	19.992	103.856	19.962	2.798	0.486
304.000	224.590	80.011	19.993	103.866	19.960	2.926	0.521
312.000	228.691	80.012	19.993	103.854	19.961	2.813	0.540
320.000	232.775	80.013	19.994	103.855	19.957	3.148	0.512
328.000	236.891	80.011	19.994	103.833	19.960	2.918	0.530
336.000	240.959	80.012	19.994	103.824	19.964	2.601	0.533
344.000	245.094	80.012	19.993	103.832	19.964	2.621	0.531
352.000	249.427	80.013	19.994	103.824	19.961	2.832	0.570
360.000	253.499	80.010	19.994	103.801	19.964	2.653	0.468
368.000	257.408	80.011	19.993	103.813	19.961	2.837	0.503
376.000	261.154	80.011	19.993	103.822	19.965	2.528	0.472
384.000	264.953	80.010	19.993	103.810	19.966	2.480	0.475
392.001	268.783	80.011	19.996	103.820	19.964	2.639	0.465
400.000	272.646	80.011	19.992	103.822	19.960	2.922	0.497
408.000	276.457	80.011	19.992	103.818	19.960	2.934	0.468
416.000	280.349	80.011	19.994	103.823	19.960	2.885	0.494
424.000	284.289	80.012	19.993	103.823	19.957	3.165	0.511
432.000	288.347	80.012	19.992	103.823	19.958	3.095	0.511
440.000	292.473	80.011	19.994	103.817	19.958	3.086	0.518
448.000	296.545	80.011	19.994	103.800	19.960	2.905	0.545
456.000	300.625	80.011	19.992	103.795	19.961	2.836	0.525
464.000	304.547	80.012	19.993	103.795	19.962	2.802	0.521
472.000	308.500	80.011	19.992	103.789	19.964	2.657	0.476
480.000	312.413	80.012	19.993	103.793	19.961	2.854	0.500
488.001	316.247	80.012	19.993	103.803	19.960	2.899	0.488
496.000	320.077	80.010	19.993	103.805	19.968	2.346	0.479
504.000	323.953	80.013	19.995	103.806	19.967	2.387	0.536
512.000	327.986	80.016	19.994	103.818	19.962	2.744	0.700
520.000	332.029	80.011	19.996	103.819	19.962	2.758	0.533
528.000	336.169	80.010	19.995	103.807	19.965	2.579	0.553
536.000	340.261	80.012	19.993	103.794	19.961	2.872	0.533
544.000	344.307	80.011	19.993	103.799	19.961	2.856	0.488
552.000	348.348	80.011	19.994	103.788	19.957	3.104	0.508
560.000	352.489	80.011	19.992	103.788	19.961	2.836	0.518
568.000	356.529	80.013	19.993	103.790	19.957	3.138	0.481
576.000	360.615	80.014	19.994	103.792	19.953	3.421	0.507
584.000	364.689	80.014	19.993	103.794	19.948	3.769	0.539
592.000	368.678	80.015	19.992	103.784	19.932	4.951	0.523
600.000	372.665	80.013	19.996	103.789	19.925	5.519	0.495
608.000	376.700	80.012	19.994	103.812	19.907	6.807	0.496
616.000	380.726	80.011	19.994	103.798	19.891	8.006	0.517
624.000	384.735	80.011	19.994	103.818	19.856	10.578	0.513
632.000	388.863	80.010	19.994	103.824	19.832	12.358	0.513
640.000	393.100	80.012	19.995	103.806	19.806	14.291	0.558
648.000	397.229	80.012	19.992	103.822	19.741	19.087	0.491
656.000	401.370	80.013	19.993	103.821	19.662	24.913	0.497
664.000	405.487	80.011	19.993	103.830	19.549	33.284	0.528
672.000	409.563	80.014	19.992	103.845	19.396	44.527	0.516
680.000	413.532	80.013	19.993	103.861	19.194	59.497	0.468
688.000	417.530	80.010	19.993	103.867	18.963	76.552	0.486
696.000	421.463	80.010	19.994	103.894	18.713	94.931	0.494
704.000	425.411	80.011	19.993	103.880	18.429	115.938	0.516
712.000	429.287	80.011	19.994	103.886	18.139	137.358	0.437
720.000	433.274	80.010	19.994	103.857	17.843	159.141	0.478
728.000	437.207	80.013	19.994	103.860	17.549	180.798	0.485
736.000	441.209	80.012	19.993	103.832	17.279	200.682	0.484
744.000	445.118	80.012	19.994	103.826	17.015	220.155	0.489
752.000	449.091	80.014	19.994	103.776	16.790	236.669	0.504
760.000	453.138	80.013	19.994	103.745	16.585	251.751	0.503
768.000	457.224	80.010	19.994	103.728	16.424	263.595	0.521
776.000	461.291	80.011	19.992	103.741	16.341	269.621	0.501
784.000	465.256	80.012	19.993	103.717	16.329	270.417	0.517
792.000	469.215	80.012	19.995	103.688	16.466	260.331	0.478
800.000	473.270	80.009	19.994	103.668	16.836	233.049	0.498
808.000	477.376	80.011	19.993	103.671	17.403	191.302	0.513
816.000	481.423	80.013	19.993	103.668	18.062	142.866	0.516
824.000	485.582	80.012	19.994	103.690	18.726	93.933	0.549
832.000	489.654	80.012	19.994	103.753	19.244	55.718	0.468
840.000	493.876	80.013	19.993	103.779	19.586	30.520	0.521
848.000	498.125	80.010	19.993	103.782	19.773	16.716	0.511
856.000	502.361	80.012	19.994	103.766	19.864	9.987	0.521
864.000	506.514	80.012	19.994	103.745	19.913	6.386	0.529
872.000	510.637	80.011	19.994	103.742	19.924	5.560	0.493
880.000	514.770	80.010	19.994	103.740	19.937	4.637	0.514
888.000	518.882	80.012	19.995	103.723	19.941	4.346	0.504
896.000	522.918	80.013	19.994	103.724	19.942	4.217	0.512
904.000	526.846	80.012	19.992	103.743	19.945	3.987	0.509
912.000	530.788	80.011	19.994	103.744	19.942	4.213	0.507
920.000	534.739	80.013	19.994	103.743	19.945	4.048	0.488
928.000	538.774	80.010	19.992	103.745	19.947	3.857	0.516
936.000	542.899	80.012	19.994	103.750	19.952	3.497	0.515
944.000	546.994	80.010	19.992	103.763	19.948	3.800	0.515
952.000	551.210	80.011	19.992	103.771	19.951	3.591	0.524
960.000	555.492	80.010	19.994	103.751	19.946	3.956	0.528
968.000	559.595	80.013	19.993	103.760	19.947	3.877	0.497
976.000	563.802	80.013	19.994	103.759	19.942	4.256	0.496
984.000	568.006	80.011	19.993	103.778	19.946	3.923	0.497
992.000	572.151	80.014	19.997	103.761	19.950	3.678	0.540
1000.000	576.400	80.014	19.995	103.774	19.945	4.016	0.536
1008.000	580.719	80.012	19.994	103.767	19.942	4.265	0.525
1016.000	585.118	80.009	19.994	103.773	19.941	4.299	0.552
1024.000	589.676	80.011	19.994	103.781	19.940	4.367	0.555
1032.000	594.273	80.011	19.994	103.752	19.936	4.683	0.589
1040.000	598.872	80.011	19.993	103.770	19.946	3.943	0.590
1048.001	603.357	80.009	19.994	103.767	19.944	4.088	0.591
1056.001	607.811	80.011	19.993	103.756	19.946	3.919	0.563
1064.000	612.026	80.013	19.993	103.752	19.946	3.963	0.500
1072.000	616.254	80.011	19.992	103.754	19.946	3.959	0.497
1080.000	620.332	80.010	19.994	103.751	19.947	3.897	0.507
1088.000	624.442	80.011	19.992	103.750	19.941	4.336	0.492
1096.000	628.437	80.010	19.994	103.755	19.945	4.020	0.513
1104.000	632.413	80.009	19.995	103.747	19.942	4.275	0.502
1112.000	636.497	80.029	20.000	103.753	19.947	3.882	0.559
1120.000	640.483	80.011	19.996	103.744	19.950	3.651	0.484
1128.000	644.378	80.010	19.993	103.745	19.948	3.798	0.453
1136.000	648.337	80.011	19.993	103.750	19.948	3.814	0.499
1144.000	652.227	80.011	19.993	103.749	19.945	4.016	0.503
1152.001	656.238	80.012	19.993	103.750	19.950	3.641	0.479
1160.000	660.318	80.012	19.992	103.749	19.944	4.058	0.514
1168.001	664.296	80.014	19.994	103.743	19.946	3.929	0.498
1176.000	668.178	80.010	19.992	103.744	19.955	3.316	0.490
1184.000	672.112	80.011	19.994	103.740	19.947	3.874	0.479
1192.000	676.185	80.010	19.992	103.750	19.948	3.780	0.456
1200.000	680.114	80.010	19.996	103.747	19.950	3.631	0.466
1208.000	684.070	80.009	19.994	103.744	19.949	3.717	0.507
1216.000	688.104	80.009	19.994	103.760	19.947	3.871	0.525
1224.000	692.383	80.011	19.993	103.752	19.940	4.373	0.537
1232.001	696.722	80.012	19.994	103.755	19.941	4.312	0.551
1240.000	701.011	80.011	19.992	103.755	19.945	4.046	0.538
1248.000	705.401	80.012	19.992	103.748	19.947	3.890	0.545
1256.000	709.765	80.012	19.992	103.743	19.948	3.794	0.577
1264.000	713.986	80.010	19.992	103.746	19.950	3.615	0.506
1272.000	718.274	80.010	19.994	103.745	19.949	3.736	0.521
1280.000	722.490	80.009	19.994	103.747	19.952	3.496	0.527
1288.001	726.669	80.010	19.993	103.751	19.946	3.935	0.523
1296.000	730.887	80.010	19.995	103.746	19.945	4.056	0.513
1304.000	734.916	80.012	19.995	103.743	19.942	4.243	0.512
1312.000	738.794	80.011	19.994	103.743	19.946	3.963	0.504
1320.001	742.607	80.012	19.994	103.739	19.944	4.120	0.480
1326.000	745.480	80.012	19.992	103.744	19.939	4.445	0.476