File: 01_Data/Cotton_Felt/MCC/Cotton_Felt_MCC_30K_min_210708_R1.txt
Sample ID:	C:\MCC\MCC Cal\Test\Cotton_Felt\Cotton_Felt_MCC_30K_min_21_07_08_R1.txt
Sample Weight (mg):	4.08
Heating Rate (C/s):	0.5
Combustor Temp (C):	900
N2 Flow Rate (cc/min):	80
O2 Flow Rate (cc/min):	20
Calibration File:	C:\MCC\MCC Cal\Coeff1 JN10440_30_210304.txt.txt
T Correction Coefficients:	0	1.024463	0
Time Shift (s):	14
*
Time (s)	Temperature (C)	N2 flow rate (cc/min)	O2 flow rate (cc/min)	Flow Rate (cc/min)	Oxygen (%)	HRR (W/g)	Heating rate (C/s)
0.000	112.567	79.996	19.995	99.921	20.249	-0.136	-0.014
7.500	112.522	79.996	19.995	99.912	20.248	-0.090	-0.023
15.000	112.449	79.996	19.996	99.923	20.244	0.243	-0.047
22.500	112.493	79.995	19.997	99.991	20.234	1.003	-0.004
30.000	112.805	79.997	19.996	100.109	20.217	2.286	0.072
37.500	113.662	79.997	19.996	100.183	20.201	3.547	0.149
44.999	115.207	79.995	19.997	100.192	20.193	4.135	0.269
52.500	117.164	79.997	19.996	100.191	20.193	4.169	0.267
59.999	119.508	79.997	19.995	100.197	20.191	4.314	0.298
67.499	122.250	79.996	19.994	100.198	20.193	4.154	0.364
74.999	125.276	79.996	19.995	100.196	20.195	3.978	0.444
82.499	128.476	79.995	19.995	100.196	20.198	3.784	0.447
90.001	131.890	79.997	19.995	100.193	20.198	3.795	0.481
97.499	135.371	79.995	19.995	100.196	20.199	3.717	0.446
105.001	139.077	79.995	19.996	100.181	20.195	3.983	0.493
112.501	142.916	79.998	19.995	100.190	20.197	3.880	0.527
119.999	146.746	79.996	19.995	100.182	20.195	3.972	0.511
127.500	150.633	79.995	19.996	100.166	20.202	3.464	0.559
135.000	154.471	79.996	19.995	100.159	20.200	3.645	0.505
142.500	158.289	79.998	19.995	100.152	20.204	3.296	0.454
150.000	162.176	79.997	19.995	100.154	20.205	3.243	0.508
157.499	166.019	79.996	19.996	100.131	20.202	3.480	0.512
165.000	169.768	79.995	19.995	100.144	20.209	2.905	0.508
172.500	173.494	79.997	19.995	100.125	20.206	3.140	0.494
180.000	177.191	79.996	19.995	100.131	20.206	3.144	0.501
187.499	180.857	79.994	19.995	100.130	20.205	3.211	0.482
194.999	184.506	79.996	19.995	100.128	20.206	3.174	0.505
202.500	188.185	79.997	19.995	100.120	20.206	3.134	0.491
209.999	191.827	79.996	19.995	100.118	20.206	3.150	0.491
217.499	195.471	79.997	19.995	100.116	20.205	3.266	0.475
224.999	199.178	79.996	19.996	100.126	20.205	3.203	0.503
232.499	202.897	79.994	19.995	100.128	20.208	3.035	0.490
239.999	206.577	79.997	19.995	100.122	20.206	3.186	0.496
247.500	210.340	79.994	19.995	100.125	20.203	3.392	0.533
255.000	214.037	79.995	19.994	100.140	20.200	3.625	0.518
262.499	217.765	79.998	19.995	100.123	20.204	3.306	0.459
270.000	221.501	79.997	19.995	100.120	20.198	3.754	0.517
277.500	225.216	79.996	19.995	100.124	20.194	4.100	0.479
285.000	228.924	79.999	19.996	100.121	20.195	4.017	0.495
292.499	232.593	79.999	19.996	100.118	20.193	4.185	0.493
300.000	236.259	79.998	19.996	100.121	20.184	4.860	0.452
307.500	239.898	79.994	19.996	100.127	20.180	5.116	0.485
315.000	243.526	79.993	19.996	100.133	20.174	5.589	0.455
322.499	247.214	79.997	19.995	100.145	20.170	5.912	0.499
329.999	250.938	79.996	19.995	100.139	20.162	6.546	0.523
337.500	254.644	79.994	19.995	100.151	20.149	7.546	0.531
344.999	258.387	79.997	19.995	100.149	20.144	7.927	0.490
352.500	262.067	79.997	19.995	100.150	20.132	8.790	0.462
359.999	265.833	79.995	19.996	100.161	20.126	9.304	0.527
367.500	269.595	79.997	19.994	100.165	20.108	10.681	0.501
374.999	273.436	79.996	19.994	100.176	20.094	11.720	0.505
382.500	277.199	79.996	19.995	100.166	20.072	13.411	0.488
390.000	280.916	79.994	19.996	100.182	20.047	15.371	0.502
397.500	284.641	79.995	19.997	100.198	20.022	17.246	0.505
404.999	288.298	79.996	19.996	100.218	19.988	19.867	0.481
412.500	292.063	79.995	19.995	100.234	19.953	22.548	0.521
419.999	295.750	79.998	19.995	100.253	19.917	25.319	0.484
427.500	299.495	79.999	19.995	100.272	19.869	28.987	0.488
434.999	303.214	79.996	19.995	100.280	19.828	32.143	0.484
442.499	306.877	79.996	19.995	100.301	19.778	36.012	0.488
449.999	310.662	79.999	19.995	100.335	19.726	39.980	0.491
457.499	314.437	79.997	19.995	100.316	19.672	44.143	0.503
464.999	318.186	79.997	19.996	100.361	19.614	48.583	0.501
472.500	321.932	79.997	19.996	100.377	19.549	53.635	0.490
480.000	325.714	79.995	19.996	100.421	19.485	58.537	0.500
487.500	329.527	79.996	19.996	100.462	19.414	63.993	0.546
495.000	333.323	79.997	19.996	100.422	19.346	69.189	0.516
502.499	337.106	79.997	19.994	100.433	19.296	73.032	0.502
509.999	340.965	79.996	19.994	100.426	19.268	75.172	0.523
517.500	344.688	79.997	19.995	100.360	19.277	74.386	0.484
525.000	348.536	79.998	19.996	100.293	19.354	68.408	0.525
532.500	352.364	79.999	19.994	100.181	19.504	56.920	0.494
540.000	356.195	79.996	19.996	100.120	19.697	42.078	0.495
547.499	359.937	79.995	19.996	100.083	19.884	27.779	0.497
555.000	363.790	79.997	19.995	100.078	20.021	17.342	0.513
562.500	367.491	79.994	19.996	100.055	20.097	11.477	0.474
569.999	371.317	79.994	19.995	100.064	20.136	8.529	0.501
577.499	375.116	79.996	19.996	100.079	20.156	6.965	0.500
584.999	378.845	79.997	19.995	100.079	20.163	6.447	0.491
592.499	382.589	79.997	19.994	100.078	20.170	5.921	0.519
600.000	386.293	79.997	19.995	100.079	20.176	5.435	0.507
607.500	390.021	79.998	19.995	100.066	20.180	5.157	0.517
614.999	393.798	79.997	19.994	100.069	20.177	5.375	0.545
622.499	397.596	79.994	19.996	100.065	20.183	4.916	0.493
629.999	401.450	79.995	19.997	100.090	20.180	5.127	0.527
637.499	405.252	79.995	19.996	100.082	20.186	4.666	0.505
644.999	409.071	79.995	19.995	100.077	20.182	5.023	0.514
652.499	412.838	79.996	19.997	100.066	20.181	5.059	0.497
659.999	416.684	79.995	19.997	100.062	20.180	5.120	0.515
667.500	420.541	79.997	19.995	100.058	20.175	5.516	0.544
674.999	424.316	79.997	19.995	100.078	20.181	5.101	0.551
682.499	427.854	79.997	19.994	100.079	20.181	5.084	0.589
690.000	432.021	79.996	19.993	100.072	20.182	4.994	0.479
697.499	435.932	79.996	19.994	100.074	20.178	5.299	0.521
704.999	439.853	79.997	19.995	100.078	20.181	5.045	0.536
712.500	443.686	79.996	19.995	100.068	20.176	5.425	0.536
719.999	447.603	79.996	19.996	100.060	20.176	5.425	0.510
727.499	451.434	79.996	19.996	100.056	20.181	5.049	0.548
734.999	455.283	79.996	19.996	100.064	20.185	4.771	0.502
742.499	459.124	79.997	19.995	100.052	20.182	4.999	0.491
749.999	462.975	79.997	19.996	100.048	20.186	4.707	0.475
757.500	466.722	79.997	19.994	100.047	20.189	4.437	0.488
765.000	470.523	80.000	19.994	100.044	20.191	4.294	0.507
772.500	474.431	79.996	19.996	100.036	20.190	4.393	0.535
779.999	478.319	79.996	19.996	100.042	20.194	4.045	0.492
787.500	482.164	79.998	19.995	100.030	20.196	3.936	0.523
794.999	486.013	79.998	19.995	100.029	20.193	4.173	0.507
802.499	489.864	79.994	19.995	100.044	20.198	3.793	0.512
809.999	493.710	79.995	19.994	100.027	20.200	3.630	0.538
817.499	497.540	79.997	19.994	100.043	20.204	3.338	0.495
824.999	501.360	79.997	19.997	100.040	20.208	2.970	0.511
832.500	505.162	79.995	19.997	100.035	20.211	2.794	0.493
839.999	509.038	79.998	19.995	100.024	20.215	2.498	0.534
847.499	512.783	79.998	19.995	100.037	20.212	2.660	0.479
854.999	516.705	79.996	19.996	100.035	20.212	2.733	0.493
862.499	520.559	79.995	19.995	100.036	20.216	2.364	0.504
870.000	524.372	79.997	19.994	100.016	20.211	2.741	0.515
877.499	528.185	79.996	19.995	100.025	20.214	2.550	0.493
885.000	531.967	79.995	19.996	100.045	20.216	2.400	0.509
892.500	535.819	79.996	19.998	100.041	20.215	2.498	0.546
900.000	539.615	79.997	19.997	100.045	20.218	2.221	0.495
907.500	543.448	79.995	19.996	100.023	20.218	2.224	0.522
915.000	547.228	79.997	19.997	100.041	20.216	2.427	0.493
922.500	551.017	79.996	19.996	100.041	20.218	2.259	0.509
930.000	554.892	79.994	19.995	100.041	20.216	2.404	0.503
937.500	558.717	79.995	19.996	100.044	20.215	2.498	0.533
944.999	562.507	79.995	19.995	100.045	20.212	2.661	0.504
952.499	566.270	79.996	19.997	100.038	20.217	2.307	0.507
960.000	570.126	79.995	19.996	100.033	20.213	2.624	0.541
967.500	573.963	79.997	19.996	100.033	20.216	2.412	0.533
974.999	577.864	79.997	19.996	100.018	20.214	2.509	0.510
982.499	581.687	79.996	19.996	100.045	20.214	2.563	0.526
990.000	585.514	79.995	19.996	100.038	20.218	2.249	0.504
997.500	589.346	79.995	19.995	100.038	20.211	2.747	0.510
1004.999	593.140	79.995	19.995	100.040	20.216	2.368	0.531
1012.500	596.954	79.996	19.996	100.029	20.216	2.397	0.509
1019.999	600.743	79.994	19.995	100.035	20.212	2.687	0.525
1027.500	604.519	79.995	19.995	100.031	20.212	2.699	0.519
1034.999	608.292	79.996	19.996	100.022	20.213	2.607	0.514
1042.499	612.132	79.995	19.996	100.040	20.213	2.630	0.503
1050.001	615.990	79.997	19.995	100.040	20.220	2.079	0.509
1057.499	619.837	79.998	19.996	100.032	20.214	2.515	0.522
1065.000	623.729	79.996	19.996	100.036	20.215	2.483	0.505
1072.499	627.777	79.997	19.994	100.055	20.216	2.377	0.557
1079.999	631.799	79.998	19.996	100.030	20.214	2.580	0.539
1087.499	635.895	79.995	19.996	100.037	20.219	2.123	0.557
1094.999	639.969	79.996	19.997	100.029	20.219	2.173	0.536
1102.500	644.006	79.995	19.995	100.008	20.218	2.271	0.512
1109.999	647.961	79.995	19.994	100.013	20.219	2.123	0.528
1117.500	651.867	79.995	19.996	100.008	20.213	2.653	0.506
1124.999	655.686	79.995	19.995	100.011	20.213	2.596	0.495
1132.500	659.471	79.997	19.994	100.014	20.220	2.076	0.505
1139.999	663.250	79.999	19.995	100.023	20.220	2.050	0.499
1147.499	667.012	79.997	19.996	100.010	20.217	2.323	0.479
1155.000	670.890	79.999	19.996	100.005	20.220	2.099	0.530
1162.499	674.665	79.996	19.995	100.018	20.216	2.380	0.497
1170.000	678.457	79.995	19.995	100.019	20.217	2.281	0.497
1177.499	682.167	79.994	19.996	100.010	20.213	2.619	0.466
1185.000	685.940	79.997	19.995	100.011	20.219	2.189	0.496
1192.500	689.628	79.995	19.994	100.018	20.219	2.181	0.476
1199.999	693.286	79.997	19.996	100.004	20.215	2.491	0.523
1207.500	696.900	79.997	19.995	100.003	20.220	2.085	0.498
1214.999	700.569	79.998	19.995	100.007	20.216	2.393	0.494
1222.500	704.276	79.998	19.995	100.014	20.219	2.153	0.506
1229.999	707.950	79.997	19.995	100.015	20.216	2.416	0.495
1237.499	711.690	79.998	19.996	100.004	20.217	2.302	0.486
1244.999	715.459	79.996	19.995	100.010	20.212	2.701	0.496
1252.500	719.281	79.997	19.996	100.011	20.214	2.516	0.493
1260.000	723.122	79.996	19.996	100.003	20.212	2.690	0.546
1267.500	726.907	79.996	19.996	100.001	20.214	2.543	0.511
1274.999	730.698	79.995	19.995	100.003	20.220	2.110	0.506
1282.499	734.493	79.997	19.996	100.005	20.215	2.483	0.505
1290.000	738.277	79.998	19.996	100.000	20.217	2.294	0.519
1297.500	742.103	79.997	19.994	100.005	20.215	2.453	0.528
1300.000	743.406	79.997	19.996	100.009	20.214	2.560	0.524