File: 01_Data/Cotton_Felt/MCC/Cotton_Felt_MCC_30K_min_210708_R2.txt
Sample ID:	C:\MCC\MCC Cal\Test\Cotton_Felt\Cotton_Felt_MCC_30K_min_21_07_08_R2.txt
Sample Weight (mg):	3.97
Heating Rate (C/s):	0.5
Combustor Temp (C):	900
N2 Flow Rate (cc/min):	80
O2 Flow Rate (cc/min):	20
Calibration File:	C:\MCC\MCC Cal\Coeff1 JN10440_30_210304.txt.txt
T Correction Coefficients:	0	1.024463	0
Time Shift (s):	14
*
Time (s)	Temperature (C)	N2 flow rate (cc/min)	O2 flow rate (cc/min)	Flow Rate (cc/min)	Oxygen (%)	HRR (W/g)	Heating rate (C/s)
0.000	114.900	80.001	19.990	99.881	20.281	0.006	0.011
8.000	114.822	79.996	19.997	99.887	20.274	0.536	-0.043
16.000	114.775	79.998	19.993	99.901	20.276	0.332	-0.010
24.000	114.797	79.997	19.996	99.988	20.262	1.442	0.022
32.000	115.230	79.997	19.995	100.079	20.245	2.769	0.078
39.999	116.161	79.997	19.996	100.056	20.239	3.294	0.135
47.999	117.511	79.993	19.996	100.098	20.232	3.787	0.198
55.999	119.298	79.997	19.993	100.117	20.220	4.729	0.233
64.000	121.526	79.993	19.999	100.120	20.217	5.027	0.297
72.000	124.039	79.996	19.995	100.124	20.221	4.713	0.325
80.001	126.812	80.001	19.992	100.135	20.216	5.082	0.348
88.001	129.853	79.996	19.994	100.141	20.223	4.544	0.345
95.999	133.005	79.998	19.993	100.155	20.219	4.865	0.403
103.999	136.405	79.994	19.995	100.156	20.218	4.914	0.400
112.000	139.942	79.998	19.996	100.158	20.222	4.608	0.453
120.000	143.717	79.998	19.996	100.151	20.220	4.752	0.520
128.000	147.504	80.000	19.995	100.152	20.223	4.528	0.461
136.000	151.361	79.997	19.995	100.150	20.220	4.800	0.490
144.000	155.247	79.995	19.995	100.157	20.216	5.108	0.493
152.000	159.227	79.994	19.996	100.157	20.220	4.784	0.468
160.001	163.204	79.995	19.998	100.132	20.220	4.795	0.489
168.000	167.242	79.999	19.991	100.129	20.224	4.432	0.502
176.000	171.290	79.997	19.996	100.129	20.225	4.348	0.490
184.000	175.315	79.997	19.995	100.119	20.229	4.036	0.520
192.000	179.398	79.998	19.996	100.048	20.231	3.893	0.489
200.000	183.399	79.996	19.995	100.117	20.232	3.796	0.519
208.000	187.398	79.995	19.996	100.120	20.231	3.880	0.499
216.000	191.390	79.995	19.996	100.118	20.230	4.018	0.490
224.000	195.317	79.996	19.995	100.109	20.227	4.209	0.477
232.000	199.231	79.995	19.996	100.116	20.227	4.181	0.481
240.000	203.141	79.997	19.996	100.098	20.229	4.097	0.515
248.000	207.030	79.997	19.995	100.099	20.226	4.293	0.502
256.000	210.968	79.996	19.996	100.112	20.225	4.395	0.513
264.000	214.767	79.996	19.997	100.109	20.222	4.617	0.470
272.000	218.673	79.997	19.998	100.114	20.219	4.826	0.463
280.000	222.608	79.993	19.997	100.123	20.215	5.157	0.473
288.000	226.542	79.996	19.994	100.082	20.213	5.307	0.500
296.000	230.476	79.996	19.996	100.116	20.204	6.014	0.479
304.000	234.430	79.996	19.996	100.118	20.199	6.454	0.510
312.000	238.371	79.996	19.996	100.123	20.196	6.693	0.489
320.000	242.314	79.996	19.995	100.121	20.189	7.200	0.515
328.000	246.396	79.997	19.996	100.129	20.180	7.901	0.515
336.000	250.452	79.996	19.994	100.134	20.174	8.367	0.527
344.000	254.491	79.999	19.994	100.130	20.164	9.145	0.527
352.000	258.538	79.999	19.995	100.145	20.153	10.022	0.517
360.000	262.549	79.997	19.995	100.146	20.147	10.521	0.488
368.000	266.567	79.997	19.995	100.151	20.133	11.653	0.515
376.000	270.572	79.997	19.995	100.159	20.122	12.446	0.516
384.000	274.601	79.996	19.996	100.163	20.101	14.111	0.473
392.000	278.628	79.995	19.995	100.172	20.083	15.577	0.473
400.000	282.595	79.998	19.994	100.198	20.058	17.548	0.526
408.000	286.564	79.997	19.995	100.211	20.024	20.194	0.454
416.000	290.615	79.996	19.996	100.227	19.988	23.031	0.512
424.000	294.631	79.999	19.995	100.235	19.950	26.070	0.489
432.000	298.644	79.999	19.994	100.246	19.905	29.610	0.505
440.000	302.612	79.995	19.996	100.275	19.859	33.211	0.478
448.000	306.549	79.996	19.995	100.287	19.813	36.886	0.450
456.000	310.562	79.997	19.995	100.310	19.754	41.491	0.515
464.000	314.587	79.996	19.994	100.326	19.705	45.407	0.504
472.000	318.468	79.996	19.996	100.332	19.647	49.963	0.479
480.000	322.463	79.997	19.995	100.362	19.588	54.619	0.480
488.000	326.409	79.996	19.996	100.389	19.522	59.879	0.454
496.000	330.443	79.997	19.996	100.394	19.455	65.183	0.480
504.001	334.508	79.998	19.995	100.425	19.391	70.177	0.520
512.000	338.512	79.997	19.994	100.420	19.332	74.860	0.492
520.000	342.546	79.996	19.995	100.407	19.299	77.400	0.484
528.000	346.550	79.996	19.994	100.374	19.312	76.331	0.529
536.000	350.566	79.997	19.995	100.289	19.393	69.844	0.517
544.000	354.598	79.995	19.994	100.195	19.539	58.351	0.513
552.000	358.611	79.996	19.995	100.094	19.736	42.792	0.498
560.000	362.569	79.997	19.995	100.076	19.923	28.154	0.491
568.000	366.592	79.996	19.996	100.076	20.052	17.977	0.509
576.000	370.650	79.997	19.995	100.072	20.113	13.169	0.506
584.000	374.633	79.997	19.997	100.073	20.142	10.885	0.496
592.000	378.608	79.995	19.996	100.079	20.158	9.657	0.467
600.000	382.609	79.996	19.994	100.077	20.165	9.088	0.472
608.000	386.674	79.997	19.995	100.078	20.171	8.651	0.529
616.000	390.786	79.996	19.995	100.076	20.173	8.439	0.502
624.000	395.006	79.996	19.995	100.069	20.175	8.285	0.521
632.000	399.170	79.998	19.994	100.081	20.174	8.366	0.504
640.000	403.360	79.997	19.996	100.074	20.175	8.302	0.533
648.000	407.504	79.997	19.996	100.078	20.181	7.801	0.510
656.000	411.695	79.999	19.994	100.070	20.178	8.073	0.544
664.000	415.741	79.997	19.996	100.064	20.179	7.992	0.442
672.000	419.820	79.996	19.996	100.060	20.178	8.097	0.361
680.000	423.897	79.995	19.997	100.066	20.179	8.006	0.490
688.000	427.898	79.997	19.994	100.055	20.177	8.116	0.506
696.000	431.897	79.995	19.995	100.069	20.179	7.954	0.504
704.000	435.958	79.997	19.995	100.061	20.178	8.043	0.531
712.000	440.033	79.997	19.996	100.056	20.176	8.203	0.498
720.000	444.067	79.997	19.996	100.050	20.182	7.732	0.491
728.000	448.126	79.995	19.995	100.043	20.193	6.912	0.500
736.000	452.162	79.998	19.996	100.045	20.181	7.853	0.489
744.000	456.189	79.996	19.995	100.040	20.185	7.493	0.489
752.000	460.272	79.994	19.996	100.041	20.186	7.409	0.483
760.000	464.395	79.995	19.996	100.041	20.186	7.403	0.508
768.000	468.475	79.995	19.996	100.038	20.190	7.102	0.506
776.000	472.586	79.995	19.996	100.037	20.191	7.077	0.508
784.000	476.723	79.996	19.995	100.040	20.192	6.984	0.502
792.000	480.807	79.999	19.995	100.035	20.195	6.689	0.488
800.000	484.889	79.996	19.994	100.029	20.195	6.748	0.516
808.000	488.979	79.999	19.995	100.038	20.196	6.655	0.481
816.000	493.181	79.999	19.995	100.039	20.197	6.545	0.537
824.000	497.369	79.995	19.995	100.031	20.200	6.332	0.521
832.000	501.533	79.996	19.994	100.025	20.202	6.171	0.515
840.000	505.633	79.996	19.995	100.024	20.203	6.079	0.495
848.000	509.748	79.996	19.996	100.019	20.208	5.720	0.510
856.000	513.823	79.995	19.997	100.016	20.204	6.044	0.531
864.000	517.865	79.997	19.994	100.028	20.207	5.752	0.475
872.000	521.869	79.999	19.995	100.032	20.207	5.779	0.505
880.000	525.928	79.997	19.995	100.021	20.210	5.532	0.516
888.000	529.910	79.996	19.995	100.021	20.211	5.508	0.520
896.000	533.914	79.997	19.995	100.007	20.213	5.278	0.474
904.000	537.940	79.995	19.996	100.014	20.215	5.185	0.485
912.000	541.987	79.995	19.996	100.021	20.212	5.429	0.493
920.000	546.034	79.996	19.995	100.016	20.209	5.588	0.498
928.000	550.182	79.995	19.996	100.009	20.212	5.364	0.513
936.000	554.261	79.995	19.996	100.024	20.211	5.432	0.509
944.000	558.403	79.997	19.996	100.025	20.214	5.213	0.510
952.000	562.522	79.998	19.995	100.015	20.212	5.386	0.490
960.000	566.687	79.996	19.996	100.027	20.213	5.273	0.514
968.000	570.812	79.999	19.995	100.016	20.212	5.416	0.529
976.000	574.989	79.999	19.994	100.004	20.214	5.248	0.558
984.000	579.093	79.997	19.995	100.023	20.214	5.204	0.487
992.000	583.238	79.996	19.995	100.014	20.210	5.532	0.533
1000.000	587.301	79.997	19.995	100.017	20.216	5.112	0.510
1008.000	591.350	79.994	19.996	100.022	20.216	5.086	0.532
1016.000	595.477	79.996	19.996	100.023	20.211	5.434	0.510
1024.000	599.459	79.996	19.995	100.007	20.216	5.084	0.481
1031.999	603.442	79.998	19.995	100.010	20.217	4.980	0.507
1039.999	607.320	79.998	19.995	100.007	20.218	4.888	0.479
1048.000	611.259	80.000	19.994	100.008	20.217	4.965	0.525
1056.000	615.200	79.998	19.996	100.016	20.213	5.285	0.508
1064.000	619.236	79.997	19.995	100.027	20.213	5.278	0.507
1072.000	623.412	79.995	19.995	100.009	20.213	5.325	0.554
1080.000	627.584	79.996	19.997	100.025	20.214	5.227	0.550
1088.000	631.809	79.996	19.996	100.015	20.212	5.409	0.535
1096.000	635.997	79.997	19.996	100.013	20.213	5.346	0.523
1104.000	640.210	79.997	19.997	100.010	20.217	5.015	0.547
1112.000	644.335	79.997	19.997	100.004	20.219	4.877	0.508
1120.000	648.469	79.998	19.995	100.003	20.214	5.229	0.502
1128.000	652.538	80.000	19.995	100.011	20.214	5.233	0.488
1136.000	656.579	79.996	19.995	100.002	20.215	5.150	0.505
1144.000	660.603	79.995	19.994	100.007	20.216	5.075	0.502
1152.000	664.603	79.997	19.995	100.006	20.211	5.469	0.491
1160.000	668.531	79.997	19.994	100.003	20.214	5.268	0.475
1168.000	672.523	79.994	19.995	100.002	20.213	5.273	0.508
1176.000	676.544	79.998	19.996	100.008	20.216	5.101	0.481
1184.000	680.531	79.998	19.995	100.010	20.209	5.629	0.486
1191.999	684.510	79.997	19.996	100.005	20.210	5.572	0.496
1199.999	688.586	79.997	19.996	100.009	20.211	5.444	0.523
1208.000	692.638	80.000	19.995	100.011	20.208	5.671	0.495
1216.000	696.770	79.996	19.995	100.030	20.212	5.407	0.503
1224.000	700.843	79.995	19.995	100.029	20.211	5.474	0.488
1232.000	705.016	79.997	19.996	100.019	20.208	5.680	0.531
1239.999	709.154	79.996	19.994	100.019	20.207	5.771	0.531
1248.000	713.325	79.996	19.996	100.012	20.207	5.821	0.499
1256.000	717.428	79.995	19.996	100.022	20.210	5.554	0.501
1263.999	721.441	79.997	19.994	100.013	20.205	5.972	0.505
1272.000	725.406	79.997	19.995	100.015	20.208	5.723	0.505
1280.000	729.364	79.998	19.996	100.036	20.213	5.346	0.516
1287.999	733.303	79.998	19.995	100.009	20.205	5.910	0.490
1295.999	737.291	79.998	19.994	100.032	20.207	5.810	0.504
1303.999	741.271	79.997	19.995	100.007	20.203	6.120	0.467
1308.499	743.606	79.997	19.995	100.016	20.205	5.965	0.511