File: 01_Data/LDPE/STA/N2/10K_min/LDPE_STA_N2_10KData_210903_R1.csv
##Temp./Â°C,Time/min,Mass(subtr.2)/%,DSC(subtr.2)/(mW/mg),Sensit./(uV/mW)
49.785,10.01,101.833,0.02043446,1.03584
52.285,12.34564,102.017,0.13507,1.03571
54.785,13.02946,102.1586,0.19696,1.03556
57.285,13.57262,102.227,0.23769,1.03537
59.785,14.04855,102.232,0.2666,1.03516
62.285,14.48047,102.291,0.28784,1.03492
64.785,14.88,102.307,0.30979,1.03466
67.285,15.25581,102.286,0.32756,1.03437
69.785,15.61232,102.371,0.34728,1.03405
72.285,15.95212,102.391,0.36831,1.03371
74.785,16.27936,102.496,0.39615,1.03334
77.285,16.5949,102.488,0.41565,1.03294
79.785,16.90263,102.525,0.44311,1.03252
82.285,17.19983,102.5246,0.46994,1.03208
84.785,17.49322,102.564,0.49996,1.0316
87.285,17.77843,102.604,0.5342,1.03111
89.785,18.0577,102.63,0.57315,1.03059
92.285,18.33145,102.603,0.61495,1.03004
94.785,18.60116,102.646,0.66712,1.02947
97.285,18.86668,102.645,0.73495,1.02887
99.785,19.12929,102.687,0.82881,1.02825
102.285,19.38959,102.685,0.95141,1.0276
104.785,19.64659,102.715,1.10147,1.02693
107.285,19.90182,102.767,1.28391,1.02624
109.785,20.15709,102.766,1.47925,1.02553
112.285,20.40871,102.846,1.2724,1.02479
114.785,20.6557,102.846,0.64883,1.02402
117.285,20.90044,102.836,0.48451,1.02323
119.785,21.14344,102.844,0.44793,1.02242
122.285,21.38642,102.896,0.44138,1.02159
124.785,21.6268,102.894,0.43877,1.02074
127.285,21.86651,102.915,0.44513,1.01986
129.785,22.1052,102.895,0.4464,1.01896
132.285,22.342,102.946,0.44655,1.01804
134.785,22.57731,102.975,0.45568,1.01709
137.285,22.8115,102.946,0.45235,1.01613
139.785,23.04443,103.032,0.45849,1.01514
142.285,23.27655,103.05,0.46255,1.01413
144.785,23.5073,103.027,0.4616,1.0131
147.285,23.73691,103,0.46696,1.01205
149.785,23.96565,103.003,0.46405,1.01098
152.285,24.19579,103.043,0.47197,1.00988
154.785,24.42461,103.014,0.47381,1.00877
157.285,24.6525,103.044,0.47493,1.00764
159.785,24.8801,103.003,0.47678,1.00649
162.285,25.10759,103.023,0.48198,1.00531
164.785,25.33413,103.102,0.48254,1.00412
167.285,25.56135,103.083,0.48262,1.00291
169.785,25.78756,103.053,0.48462,1.00168
172.285,26.0141,103.053,0.48946,1.00043
174.785,26.24015,103.133,0.48938,0.99916
177.285,26.46572,103.126,0.48825,0.99787
179.785,26.69035,103.087,0.49015,0.99656
182.285,26.9155,103.087,0.49162,0.99524
184.785,27.1394,103.127,0.49395,0.99389
187.285,27.36304,103.116,0.49581,0.99253
189.785,27.58667,103.1369,0.49511,0.99116
192.285,27.8103,103.106,0.4933,0.98976
194.785,28.0334,103.137,0.49487,0.98835
197.285,28.2565,103.177,0.49947,0.98692
199.785,28.47935,103.107,0.49876,0.98547
202.285,28.70229,103.185,0.49967,0.98401
204.785,28.9249,103.123,0.50146,0.98253
207.285,29.14834,103.18,0.5038,0.98103
209.785,29.37132,103.18,0.50378,0.97952
212.285,29.5943,103.18,0.50727,0.97799
214.785,29.8176,103.19,0.50687,0.97645
217.285,30.04015,103.23,0.50655,0.97489
219.785,30.2634,103.1791,0.50849,0.97331
222.285,30.48651,103.26,0.50955,0.97172
224.785,30.7096,103.301,0.50996,0.97012
227.285,30.93267,103.22,0.50908,0.9685
229.785,31.1562,103.263,0.50926,0.96687
232.285,31.37942,103.2506,0.51195,0.96522
234.785,31.60277,103.326,0.5127,0.96356
237.285,31.82651,103.2907,0.51249,0.96188
239.785,32.05039,103.271,0.51241,0.9602
242.285,32.27405,103.291,0.51361,0.95849
244.785,32.49771,103.291,0.51209,0.95678
247.285,32.72184,103.341,0.51649,0.95505
249.785,32.946,103.342,0.51506,0.95331
252.285,33.17017,103.301,0.51159,0.95156
254.785,33.39444,103.3003,0.51362,0.94979
257.285,33.61838,103.37,0.51579,0.94802
259.785,33.84248,103.361,0.5145,0.94623
262.285,34.06688,103.3081,0.51008,0.94443
264.785,34.2911,103.361,0.51496,0.94261
267.285,34.51551,103.32,0.51687,0.94079
269.785,34.74002,103.384,0.51824,0.93895
272.285,34.96485,103.385,0.52021,0.93711
274.785,35.18999,103.424,0.52005,0.93525
277.285,35.41519,103.385,0.52145,0.93339
279.785,35.6404,103.404,0.52188,0.93151
282.285,35.86544,103.431,0.52178,0.92962
284.785,36.0918,103.438,0.52463,0.92772
287.285,36.3173,103.449,0.52684,0.92582
289.785,36.54319,103.3909,0.52646,0.9239
292.285,36.7696,103.451,0.52691,0.92198
294.785,36.9957,103.471,0.52732,0.92004
297.285,37.2226,103.431,0.52961,0.9181
299.785,37.44955,103.471,0.5338,0.91615
302.285,37.67609,103.511,0.53814,0.91419
304.785,37.90368,103.4714,0.54519,0.91222
307.285,38.13158,103.511,0.55399,0.91025
309.785,38.35892,103.511,0.5596,0.90826
312.285,38.58674,103.511,0.5669,0.90627
314.785,38.81518,103.484,0.57622,0.90427
317.285,39.04313,103.473,0.57813,0.90227
319.785,39.27182,103.441,0.58368,0.90025
322.285,39.50016,103.491,0.58958,0.89823
324.785,39.72893,103.551,0.5873,0.89621
327.285,39.958,103.521,0.59214,0.89418
329.785,40.18717,103.4811,0.59395,0.89214
332.285,40.4165,103.522,0.6041,0.89009
334.785,40.64581,103.564,0.60283,0.88804
337.285,40.87519,103.521,0.60401,0.88599
339.785,41.10479,103.55,0.60716,0.88392
342.285,41.3352,103.568,0.61025,0.88186
344.785,41.56538,103.479,0.61477,0.87978
347.285,41.79627,103.448,0.61745,0.87771
349.785,42.02684,103.419,0.62159,0.87563
352.285,42.25855,103.408,0.62551,0.87354
354.785,42.49026,103.417,0.63078,0.87145
357.285,42.72229,103.448,0.63562,0.86936
359.785,42.95476,103.335,0.63901,0.86726
362.285,43.1862,103.448,0.64441,0.86516
364.785,43.41896,103.448,0.64661,0.86305
367.285,43.651,103.408,0.65678,0.86094
369.785,43.88343,103.2872,0.66768,0.85883
372.285,44.11613,103.247,0.67521,0.85671
374.785,44.34864,103.2431,0.67585,0.8546
377.285,44.58147,103.2033,0.68351,0.85248
379.785,44.81467,103.163,0.69191,0.85035
382.285,45.04784,103.1235,0.70187,0.84823
384.785,45.28118,103.123,0.7088,0.8461
387.285,45.51514,103.053,0.71621,0.84397
389.785,45.74888,102.951,0.72255,0.84184
392.285,45.98276,102.764,0.72976,0.83971
394.785,46.21731,102.661,0.74323,0.83758
397.285,46.45205,102.308,0.75256,0.83544
399.785,46.68687,102.629,0.75251,0.8333
402.285,46.9217,102.302,0.76956,0.83117
404.785,47.1573,102.26,0.77186,0.82903
407.285,47.39334,102.058,0.7866,0.82689
409.785,47.6292,101.918,0.79614,0.82475
412.285,47.86458,101.745,0.81158,0.82261
414.785,48.10093,101.578,0.82723,0.82047
417.285,48.33735,101.254,0.83727,0.81834
419.785,48.57432,100.921,0.84977,0.8162
422.285,48.81111,100.668,0.86758,0.81406
424.785,49.04795,100.287,0.88596,0.81192
427.285,49.2851,99.86465,0.90262,0.80978
429.785,49.52231,99.4192,0.91878,0.80765
432.285,49.7598,98.8399,0.93703,0.80551
434.785,49.9977,98.19,0.95478,0.80338
437.285,50.23591,97.44191,0.98495,0.80125
439.785,50.4744,96.5017,1.01807,0.79911
442.285,50.71224,95.47061,1.05854,0.79698
444.785,50.95055,94.37094,1.11774,0.79486
447.285,51.189,93.0209,1.18172,0.79273
449.785,51.4285,91.39658,1.25406,0.79061
452.285,51.66715,89.50072,1.33055,0.78849
454.785,51.90668,87.35005,1.4202,0.78637
457.285,52.14611,84.84524,1.51951,0.78425
459.785,52.3859,81.84987,1.61745,0.78214
462.285,52.6255,78.4988,1.70077,0.78002
464.785,52.86531,74.47389,1.79189,0.77792
467.285,53.10487,70.03729,1.8691,0.77581
469.785,53.34496,64.86815,1.94592,0.77371
472.285,53.58555,59.23925,2.00256,0.77161
474.785,53.826,52.9707,2.03524,0.76951
477.285,54.06645,46.18688,2.03153,0.76742
479.785,54.30724,39.17532,1.98362,0.76533
482.285,54.54798,31.9725,1.87472,0.76325
484.785,54.78881,25.0621,1.70162,0.76117
487.285,55.031,18.662,1.47118,0.75909
489.785,55.2736,13.3529,1.20565,0.75702
492.285,55.51653,9.27616,0.92526,0.75495
494.785,55.7592,6.48972,0.65243,0.75289
497.285,56.00221,4.8426,0.4063,0.75083
499.785,56.24449,4.12943,0.21363,0.74877
502.285,56.48766,3.86559,0.10448,0.74672
504.785,56.7301,3.72684,0.03778247,0.74468
507.285,56.97277,3.60698,-0.00305635,0.74264
509.785,57.21524,3.6508,-0.11382,0.7406
512.285,57.4581,3.64329,-0.04870764,0.73857
514.785,57.70145,3.72296,-0.03386364,0.73655
517.285,57.94503,3.68353,-0.03672532,0.73453
519.785,58.189,3.71618,-0.03412615,0.73252
522.285,58.43269,3.6752,-0.03246957,0.73051
524.785,58.67621,3.64339,-0.03122407,0.72851
527.285,58.92015,3.61287,-0.02883201,0.72651
529.785,59.1639,3.66011,-0.02354105,0.72452
532.285,59.4082,3.70507,-0.02350652,0.72253
534.785,59.6529,3.7348,-0.02012946,0.72056
537.285,59.8979,3.71373,-0.01272715,0.71858
539.785,60.14272,3.67155,-0.00771239,0.71662
542.285,60.38725,3.67306,-0.00891862,0.71466
544.785,60.63281,3.71341,-0.004075784,0.7127
547.285,60.8786,3.7142,0.0003220323,0.71076
549.785,61.1244,3.70642,0.0139697,0.70882
552.285,61.3699,3.73714,0.01544442,0.70688
554.785,61.6149,3.66337,0.02354835,0.70496
557.285,61.86056,3.72348,0.02610327,0.70304
559.785,62.10632,3.68353,0.03346575,0.70112
562.285,62.3528,3.68334,0.03572232,0.69922
564.785,62.59891,3.75364,0.03803476,0.69732
567.285,62.84593,3.6701,0.04323189,0.69542
569.785,63.0932,3.71372,0.03812027,0.69354
572.285,63.3405,3.7136,0.03984485,0.69166
574.785,63.587,3.67319,0.04290064,0.68979
577.285,63.83466,3.757,0.03830242,0.68793
579.785,64.0823,3.71706,0.03590289,0.68607
582.285,64.3304,3.72288,0.03571193,0.68422
584.785,64.57802,3.76372,0.03530849,0.68238
587.285,64.8254,3.76266,0.02651595,0.68055
589.785,65.07264,3.76718,0.02600023,0.67873
592.285,65.3201,3.71341,0.02918359,0.67691
594.785,65.568,3.75194,0.03036929,0.6751
597.285,65.8169,3.86878,0.0209648,0.6733
599.785,66.06538,3.89421,0.02098986,0.6715
602.285,66.3133,3.82382,0.01629512,0.66972
604.785,66.56188,3.89418,0.01067165,0.66794
607.285,66.81064,3.86394,0.0118239,0.66617
609.785,67.0594,3.89455,0.008303474,0.66441
612.285,67.3083,3.91478,0.001134847,0.66265
614.785,67.55664,3.9378,0.00107938,0.66091
617.285,67.80591,3.72617,0.00360231,0.65917
619.785,68.05519,3.90732,-5.53922e-05,0.65744
622.285,68.30391,3.94756,-0.006637822,0.65572
624.785,68.5538,3.9204,-0.00590771,0.65401
627.285,68.80303,3.95196,-0.003480633,0.6523
629.785,69.05311,3.91424,-0.00565418,0.65061
632.285,69.3031,3.95765,-0.008807123,0.64892
634.785,69.55329,3.97775,-0.01466464,0.64724
637.285,69.80279,3.99893,-0.01518584,0.64557
639.185,69.99265,3.95762,-0.01763697,0.64431