File: 01_Data/LDPE/STA/N2/10K_min/LDPE_STA_N2_10KData_210907_R2.csv
##Temp./Â°C,Time/min,Mass(subtr.2)/%,DSC(subtr.2)/(mW/mg),Sensit./(uV/mW)
49.232,10.01,99.21576,0.01681189,1.03587
51.732,12.30056,99.08835,0.15636,1.03575
54.232,12.99164,98.99741,0.23744,1.03559
56.732,13.53744,99.03171,0.2926,1.03542
59.232,14.016,99.03839,0.32858,1.03521
61.732,14.44953,99.02626,0.36039,1.03498
64.232,14.85038,98.99795,0.38572,1.03472
66.732,15.22546,99.00022,0.41041,1.03444
69.232,15.583,98.97281,0.43722,1.03412
71.732,15.92319,98.973,0.46524,1.03379
74.232,16.25067,98.95315,0.49638,1.03342
76.732,16.5666,98.95782,0.52545,1.03303
79.232,16.8742,98.95521,0.55489,1.03262
81.732,17.17336,98.9816,0.58824,1.03218
84.232,17.46549,98.95822,0.61915,1.03171
86.732,17.7506,98.9489,0.66035,1.03122
89.232,18.02889,98.91454,0.69613,1.0307
91.732,18.30335,98.88417,0.70529,1.03016
94.232,18.57287,98.9468,0.68117,1.02959
96.732,18.83825,98.8854,0.65481,1.029
99.232,19.10024,98.9209,0.66957,1.02839
101.732,19.35906,98.88514,0.76235,1.02775
104.232,19.61586,98.88507,0.94491,1.02709
106.732,19.8716,98.86882,1.1567,1.0264
109.232,20.12687,98.92084,1.37433,1.02569
111.732,20.3778,98.88123,1.28237,1.02495
114.232,20.625,98.88206,0.63984,1.02419
116.732,20.8692,98.90165,0.44211,1.02341
119.232,21.11242,98.88332,0.3928,1.02261
121.732,21.35428,98.8087,0.38633,1.02178
124.232,21.59519,98.81058,0.38425,1.02093
126.732,21.83425,98.84647,0.38797,1.02005
129.232,22.072,98.81782,0.39285,1.01916
131.732,22.30882,98.84644,0.39526,1.01824
134.232,22.54354,98.7911,0.40159,1.0173
136.732,22.7774,98.84729,0.40524,1.01634
139.232,23.0102,98.8464,0.40876,1.01536
141.732,23.24201,98.84663,0.4115,1.01435
144.232,23.47268,98.81994,0.41413,1.01333
146.732,23.70279,98.85341,0.41765,1.01228
149.232,23.9319,98.84647,0.42406,1.01122
151.732,24.16121,98.8106,0.42646,1.01013
154.232,24.38909,98.81062,0.43009,1.00902
156.732,24.61656,98.80471,0.43447,1.00789
159.232,24.84385,98.81152,0.43374,1.00674
161.732,25.07114,98.80163,0.43883,1.00557
164.232,25.29821,98.81093,0.4407,1.00439
166.732,25.52451,98.8106,0.44122,1.00318
169.232,25.75129,98.81058,0.44779,1.00195
171.732,25.97772,98.84314,0.45212,1.0007
174.232,26.20372,98.79252,0.45258,0.99944
176.732,26.429,98.82853,0.45304,0.99815
179.232,26.65428,98.79266,0.45758,0.99685
181.732,26.8789,98.79266,0.46028,0.99553
184.232,27.10337,98.79296,0.46161,0.99419
186.732,27.3272,98.79425,0.46209,0.99284
189.232,27.551,98.79293,0.46576,0.99146
191.732,27.77478,98.7568,0.468,0.99007
194.232,27.9981,98.7576,0.46875,0.98866
196.732,28.2212,98.7496,0.47186,0.98723
199.232,28.44394,98.7672,0.47513,0.98579
201.732,28.6669,98.73017,0.47817,0.98433
204.232,28.88983,98.75667,0.47971,0.98286
206.732,29.1131,98.73016,0.4816,0.98136
209.232,29.3357,98.73914,0.48154,0.97985
211.732,29.5591,98.76611,0.48114,0.97833
214.232,29.78221,98.73016,0.48655,0.97679
216.732,30.00494,98.7392,0.48989,0.97523
219.232,30.22778,98.69461,0.49102,0.97366
221.732,30.4508,98.7652,0.48973,0.97208
224.232,30.6738,98.73017,0.49388,0.97048
226.732,30.8968,98.73016,0.49383,0.96886
229.232,31.12025,98.73017,0.49621,0.96723
231.732,31.3436,98.7302,0.49741,0.96559
234.232,31.567,98.73016,0.50043,0.96393
236.732,31.7905,98.73016,0.50044,0.96226
239.232,32.01408,98.73016,0.50362,0.96057
241.732,32.23782,98.73016,0.50112,0.95887
244.232,32.46151,98.7401,0.50741,0.95716
246.732,32.68452,98.70365,0.50988,0.95544
249.232,32.90916,98.73017,0.50909,0.9537
251.732,33.13308,98.7302,0.51202,0.95195
254.232,33.35715,98.70393,0.51603,0.95018
256.732,33.58106,98.73906,0.51598,0.94841
259.232,33.80512,98.67033,0.51729,0.94662
261.732,34.02946,98.69174,0.51901,0.94482
264.232,34.25403,98.69421,0.52012,0.94301
266.732,34.47814,98.75408,0.52194,0.94119
269.232,34.70285,98.71821,0.52323,0.93936
271.732,34.92738,98.68234,0.52745,0.93752
274.232,35.15224,98.6815,0.52741,0.93566
276.732,35.3774,98.64599,0.53,0.9338
279.232,35.60239,98.67962,0.52826,0.93192
281.732,35.82804,98.69086,0.5332,0.93004
284.232,36.05431,98.6883,0.5379,0.92815
286.732,36.28004,98.6524,0.54211,0.92624
289.232,36.50635,98.67935,0.54365,0.92433
291.732,36.7329,98.64375,0.55075,0.9224
294.232,36.95983,98.66171,0.55587,0.92047
296.732,37.18676,98.67962,0.56193,0.91853
299.232,37.4139,98.68859,0.56827,0.91658
301.732,37.6408,98.65272,0.57348,0.91462
304.232,37.86725,98.61707,0.58152,0.91266
306.732,38.09561,98.65268,0.58125,0.91068
309.232,38.32343,98.6251,0.58639,0.9087
311.732,38.5513,98.58125,0.58979,0.90671
314.232,38.77905,98.6348,0.59477,0.90472
316.732,39.00743,98.59918,0.59861,0.90271
319.232,39.23534,98.6168,0.60122,0.9007
321.732,39.46403,98.61681,0.60553,0.89868
324.232,39.69218,98.6169,0.60813,0.89666
326.732,39.92075,98.58107,0.61369,0.89463
329.232,40.14979,98.5809,0.61459,0.89259
331.732,40.37915,98.5633,0.61826,0.89054
334.232,40.60841,98.5633,0.62131,0.8885
336.732,40.83846,98.55435,0.62503,0.88644
339.232,41.06844,98.5633,0.64544,0.88438
341.732,41.29889,98.56328,0.67019,0.88231
344.232,41.52913,98.53633,0.6745,0.88024
346.732,41.75952,98.53641,0.67742,0.87817
349.232,41.99005,98.50078,0.6801,0.87609
351.732,42.22166,98.49785,0.68454,0.874
354.232,42.4525,98.52745,0.69193,0.87191
356.732,42.68399,98.47605,0.69792,0.86982
359.232,42.91565,98.4742,0.69767,0.86772
361.732,43.1474,98.40775,0.703,0.86562
364.232,43.3795,98.4204,0.70899,0.86352
366.732,43.61197,98.44681,0.71468,0.86141
369.232,43.84406,98.3931,0.72306,0.8593
371.732,44.07671,98.33971,0.72795,0.85718
374.232,44.30942,98.33968,0.73225,0.85507
376.732,44.54251,98.30376,0.74088,0.85295
379.232,44.7761,98.26821,0.74908,0.85082
381.732,45.00938,98.23232,0.7553,0.8487
384.232,45.24329,98.15375,0.7627,0.84657
386.732,45.4775,98.125,0.76629,0.84444
389.232,45.71127,98.05251,0.77082,0.84231
391.732,45.9463,98.0226,0.77908,0.84018
394.232,46.18079,97.91134,0.78552,0.83805
396.732,46.41506,97.8659,0.79138,0.83591
399.232,46.6502,97.7401,0.8032,0.83378
401.732,46.88518,97.68678,0.81208,0.83164
404.232,47.12058,97.54117,0.82252,0.8295
406.732,47.356,97.39849,0.83456,0.82736
409.232,47.59187,97.2686,0.84559,0.82523
411.732,47.82793,97.0818,0.85907,0.82309
414.232,48.06457,96.84567,0.87694,0.82095
416.732,48.3012,96.64259,0.89299,0.81881
419.232,48.53791,96.22192,0.91551,0.81667
421.732,48.77449,95.96136,0.9335,0.81453
424.232,49.0112,95.69583,0.95943,0.81239
426.732,49.24824,95.23589,0.98433,0.81026
429.232,49.48534,94.82796,1.01399,0.80812
431.732,49.72322,94.3233,1.04955,0.80598
434.232,49.96093,93.67571,1.08746,0.80385
436.732,50.19925,92.91503,1.1264,0.80172
439.232,50.43697,92.0656,1.17565,0.79959
441.732,50.6761,91.08235,1.22653,0.79746
444.232,50.91455,90.0094,1.28394,0.79533
446.732,51.1537,88.70006,1.351,0.7932
449.232,51.39282,87.10509,1.42261,0.79108
451.732,51.63243,85.297,1.50153,0.78896
454.232,51.87202,83.20053,1.59002,0.78684
456.732,52.11189,80.7389,1.69222,0.78472
459.232,52.35133,77.83006,1.79319,0.7826
461.732,52.5915,74.36554,1.91217,0.78049
464.232,52.83126,70.37635,2.02196,0.77838
466.732,53.0704,65.8685,2.12715,0.77628
469.232,53.31116,60.7623,2.23205,0.77417
471.732,53.551,55.0745,2.31364,0.77207
474.232,53.7923,48.76755,2.37881,0.76998
476.732,54.03297,42.04671,2.40663,0.76788
479.232,54.2737,35.045,2.37805,0.7658
481.732,54.5149,27.84357,2.28527,0.76371
484.232,54.7561,20.87085,2.10985,0.76163
486.732,54.9981,14.4879,1.84844,0.75955
489.232,55.24025,9.0062,1.51621,0.75748
491.732,55.48301,4.79765,1.15782,0.75541
494.232,55.7258,1.88226,0.80299,0.75334
496.732,55.9683,0.19837,0.51294,0.75128
499.232,56.2107,-0.6397,0.31877,0.74923
501.732,56.4528,-0.9827,0.20056,0.74718
504.232,56.69515,-1.08994,0.13967,0.74513
506.732,56.9376,-1.15887,0.09278731,0.74309
509.232,57.1801,-1.13506,0.04169905,0.74105
511.732,57.4226,-1.14401,0.06436455,0.73902
514.232,57.6658,-1.13576,0.07152286,0.737
516.732,57.90911,-1.08126,0.07870805,0.73498
519.232,58.1522,-1.10049,0.08313572,0.73296
521.732,58.3956,-1.12168,0.08233434,0.73095
524.232,58.63958,-1.09021,0.0816005,0.72895
526.732,58.8834,-1.1348,0.08801517,0.72695
529.232,59.1278,-1.13886,0.09400095,0.72496
531.732,59.37243,-1.10788,0.09720644,0.72297
534.232,59.61708,-1.12582,0.09260673,0.72099
536.732,59.86181,-1.12564,0.09409619,0.71902
539.232,60.10631,-1.13448,0.09541014,0.71705
541.732,60.3516,-1.09294,0.09216722,0.71509
544.232,60.5964,-1.12887,0.09152377,0.71314
546.732,60.84166,-1.11087,0.09886906,0.71119
549.232,61.08744,-1.11151,0.09959041,0.70924
551.732,61.33348,-1.1481,0.10918,0.70731
554.232,61.57926,-1.0866,0.10971,0.70538
556.732,61.82465,-1.11114,0.10779,0.70346
559.232,62.07108,-1.08424,0.11057,0.70154
561.732,62.31749,-1.11984,0.1137,0.69964
564.232,62.56395,-1.15711,0.11883,0.69774
566.732,62.8109,-1.10216,0.11314,0.69584
569.232,63.0581,-1.12878,0.11232,0.69396
571.732,63.3057,-1.1289,0.11555,0.69208
574.232,63.55296,-1.13209,0.1157,0.6902
576.732,63.79991,-1.11087,0.10995,0.68834
579.232,64.0474,-1.13772,0.11285,0.68648
581.732,64.2945,-1.1019,0.10882,0.68463
584.232,64.54139,-1.1378,0.10646,0.68279
586.732,64.78817,-1.11667,0.10797,0.68096
589.232,65.0351,-1.10218,0.10555,0.67913
591.732,65.2827,-1.10189,0.10465,0.67731
594.232,65.5309,-1.1019,0.10605,0.6755
596.732,65.77869,-1.1019,0.10593,0.67369
599.232,66.02716,-1.1383,0.10003,0.6719
601.732,66.27577,-1.07494,0.10128,0.67011
604.232,66.5244,-1.11087,0.1037,0.66833
606.732,66.77264,-1.0754,0.09950623,0.66656
609.232,67.02149,-1.10043,0.10078,0.6648
611.732,67.27054,-1.06625,0.10664,0.66304
614.232,67.51908,-1.06932,0.10367,0.66129
616.732,67.76801,-1.14907,0.10308,0.65955
619.232,68.01664,-1.11386,0.10588,0.65782
621.732,68.26722,-1.06929,0.10617,0.6561
624.232,68.51638,-1.08723,0.10455,0.65439
626.732,68.76653,-1.08723,0.10097,0.65268
629.232,69.016,-1.05181,0.09795292,0.65098
631.732,69.2662,-1.06036,0.0992286,0.64929
634.232,69.51573,-1.08723,0.09746817,0.64761
636.732,69.76555,-1.05115,0.08682617,0.64594
639.032,69.99585,-1.07826,0.08595565,0.64441