File: 01_Data/Pine_Lap_Siding_Paint/STA/N2/30K_min/Pine_Lap_Siding_Paint_STA_N2_30KData_220315_R1.csv
##Temp./Â°C,Time/min,Mass loss(subtr.2)/mg,DSC(subtr.2)/(mW/mg),Sensit./(uV/mW)
48.601,10.00667,-0.01448,0.00207062,1.08906
51.601,10.8552,-0.01607771,0.11293,1.08653
54.601,11.08071,-0.01654477,0.1894,1.08402
57.601,11.25352,-0.01658483,0.24935,1.08152
60.601,11.40223,-0.01532527,0.29629,1.07904
63.601,11.53642,-0.01586508,0.33575,1.07657
66.601,11.66227,-0.01609864,0.36913,1.07412
69.601,11.78222,-0.01834414,0.39952,1.07169
72.601,11.8978,-0.01667288,0.42528,1.06927
75.601,12.01046,-0.01743525,0.4454,1.06687
78.601,12.1206,-0.01764993,0.46409,1.06448
81.601,12.22904,-0.01996012,0.48418,1.06211
84.601,12.3355,-0.01990804,0.4986,1.05975
87.601,12.4405,-0.02005721,0.51332,1.05741
90.601,12.5444,-0.01874544,0.52539,1.05508
93.601,12.64735,-0.01995884,0.53533,1.05277
96.601,12.74956,-0.02139286,0.54712,1.05047
99.601,12.85138,-0.02252852,0.55511,1.04819
102.601,12.95282,-0.02268396,0.56463,1.04593
105.601,13.05392,-0.02065652,0.56977,1.04367
108.601,13.15441,-0.02007999,0.57777,1.04144
111.601,13.25486,-0.021065,0.58383,1.03922
114.601,13.35508,-0.02171124,0.59035,1.03701
117.601,13.45526,-0.02171001,0.59829,1.03482
120.601,13.55478,-0.02266604,0.60213,1.03264
123.601,13.65417,-0.02137882,0.60865,1.03048
126.601,13.75262,-0.02079209,0.61374,1.02834
129.601,13.8509,-0.02269986,0.62004,1.0262
132.601,13.94899,-0.0233599,0.62693,1.02408
135.601,14.04654,-0.02336,0.63309,1.02198
138.601,14.14335,-0.02467656,0.63904,1.01989
141.601,14.24,-0.02468,0.64583,1.01781
144.601,14.33635,-0.02633011,0.65403,1.01575
147.601,14.4321,-0.02633,0.65839,1.0137
150.601,14.5275,-0.02709054,0.66601,1.01167
153.601,14.6228,-0.02763997,0.67314,1.00965
156.601,14.71776,-0.02697279,0.67739,1.00764
159.601,14.81254,-0.02665,0.68361,1.00565
162.601,14.9071,-0.02664983,0.6887,1.00367
165.601,15.00155,-0.02599,0.69688,1.0017
168.601,15.09554,-0.02598999,0.70254,0.99975
171.601,15.1896,-0.0250983,0.70677,0.99781
174.601,15.28328,-0.02764001,0.7128,0.99588
177.601,15.3766,-0.02828991,0.71936,0.99397
180.601,15.4698,-0.02829,0.72581,0.99206
183.601,15.56275,-0.02829,0.73306,0.99017
186.601,15.65528,-0.0282903,0.73936,0.98829
189.601,15.7475,-0.02895,0.74683,0.98643
192.601,15.8397,-0.02895,0.75364,0.98457
195.601,15.9315,-0.02914449,0.75871,0.98273
198.601,16.02336,-0.03026873,0.76281,0.9809
201.601,16.11514,-0.03247327,0.76803,0.97908
204.601,16.20663,-0.03291,0.77357,0.97728
207.601,16.2983,-0.03291,0.77939,0.97548
210.601,16.38972,-0.03291105,0.78231,0.97369
213.601,16.4809,-0.03290994,0.7875,0.97192
216.601,16.57216,-0.0345468,0.7924,0.97016
219.601,16.66348,-0.03456298,0.80206,0.9684
222.601,16.75456,-0.03618996,0.80726,0.96666
225.601,16.84553,-0.03684381,0.81148,0.96493
228.601,16.93659,-0.03817354,0.81838,0.96321
231.601,17.0274,-0.03817101,0.82501,0.96149
234.601,17.11814,-0.03948,0.83082,0.95979
237.601,17.2089,-0.03958282,0.83621,0.9581
240.601,17.29972,-0.03980994,0.8413,0.95641
243.601,17.39034,-0.04112999,0.84671,0.95474
246.601,17.48111,-0.04113031,0.85215,0.95307
249.601,17.57174,-0.04245,0.85776,0.95142
252.601,17.6623,-0.04245002,0.86524,0.94977
255.601,17.75277,-0.04507925,0.8701,0.94813
258.601,17.8433,-0.04375991,0.8822,0.9465
261.601,17.93382,-0.04507966,0.88942,0.94487
264.601,18.0241,-0.04771973,0.90088,0.94326
267.601,18.1146,-0.04904597,0.90824,0.94165
270.601,18.20494,-0.05002071,0.92181,0.94005
273.601,18.29549,-0.05133463,0.93011,0.93845
276.601,18.386,-0.05292672,0.94089,0.93687
279.601,18.47682,-0.05527877,0.95004,0.93529
282.601,18.5676,-0.0590854,0.95571,0.93372
285.601,18.6586,-0.0606542,0.95807,0.93215
288.601,18.74928,-0.06064429,0.95893,0.93059
291.601,18.8404,-0.06470988,0.95582,0.92903
294.601,18.93169,-0.06792281,0.94823,0.92749
297.601,19.02271,-0.07107366,0.94272,0.92594
300.601,19.1138,-0.07373343,0.93766,0.92441
303.601,19.2053,-0.07584873,0.93227,0.92287
306.601,19.29655,-0.07738337,0.92986,0.92135
309.601,19.38792,-0.07897601,0.92778,0.91983
312.601,19.47918,-0.08167413,0.92764,0.91831
315.601,19.57046,-0.08543399,0.92761,0.91679
318.601,19.6618,-0.08841677,0.93097,0.91529
321.601,19.75329,-0.08971987,0.93158,0.91378
324.601,19.84479,-0.09236112,0.93788,0.91228
327.601,19.9364,-0.09510333,0.94092,0.91078
330.601,20.02798,-0.09828623,0.94921,0.90929
333.601,20.11966,-0.10384,0.95437,0.9078
336.601,20.21155,-0.10622,0.96389,0.90631
339.601,20.30336,-0.11143,0.96743,0.90482
342.601,20.39524,-0.11653,0.97322,0.90334
345.601,20.4873,-0.12538,0.97173,0.90186
348.601,20.5791,-0.13268,0.97685,0.90038
351.601,20.67139,-0.13831,0.97654,0.8989
354.601,20.7634,-0.14621,0.97412,0.89743
357.601,20.85577,-0.15538,0.97024,0.89595
360.601,20.94789,-0.16393,0.96962,0.89448
363.601,21.04028,-0.17354,0.96589,0.89301
366.601,21.13265,-0.18135,0.95983,0.89154
369.601,21.2252,-0.18837,0.95624,0.89007
372.601,21.31767,-0.19667,0.95505,0.8886
375.601,21.4103,-0.20362,0.94723,0.88713
378.601,21.50303,-0.20848,0.94381,0.88566
381.601,21.5957,-0.21486,0.9362,0.88419
384.601,21.68852,-0.21989,0.93388,0.88272
387.601,21.78138,-0.22459,0.93642,0.88125
390.601,21.87446,-0.2297,0.93765,0.87978
393.601,21.96741,-0.23435,0.94129,0.87831
396.601,22.0605,-0.24011,0.95104,0.87684
399.601,22.1538,-0.24694,0.95935,0.87536
402.601,22.24711,-0.252,0.97269,0.87389
405.601,22.3403,-0.25967,0.98738,0.87241
408.601,22.43391,-0.26707,1.00648,0.87093
411.601,22.5274,-0.27661,1.02712,0.86945
414.601,22.62092,-0.28424,1.0459,0.86796
417.601,22.7146,-0.29359,1.06928,0.86647
420.601,22.80827,-0.30471,1.08831,0.86498
423.601,22.90225,-0.31764,1.10639,0.86349
426.601,22.99634,-0.32967,1.11978,0.86199
429.601,23.0905,-0.34092,1.11774,0.86049
432.601,23.18453,-0.35411,1.11027,0.85899
435.601,23.27887,-0.37047,1.09154,0.85748
438.601,23.37332,-0.38182,1.06168,0.85597
441.601,23.46774,-0.39224,1.03303,0.85446
444.601,23.5622,-0.39942,0.99921,0.85294
447.601,23.65719,-0.40803,0.9718,0.85141
450.601,23.752,-0.41463,0.95049,0.84988
453.601,23.84678,-0.41847,0.9354,0.84835
456.601,23.94165,-0.42475,0.92243,0.84681
459.601,24.0369,-0.4273,0.91426,0.84527
462.601,24.13198,-0.43318,0.91448,0.84372
465.601,24.22748,-0.43884,0.91421,0.84216
468.601,24.3228,-0.44235,0.91683,0.8406
471.601,24.41807,-0.44529,0.92067,0.83904
474.601,24.51361,-0.45197,0.92392,0.83746
477.601,24.6091,-0.45769,0.92626,0.83588
480.601,24.70443,-0.4621,0.93065,0.8343
483.601,24.80019,-0.46518,0.9299,0.83271
486.601,24.89586,-0.47004,0.927,0.83111
489.601,24.99152,-0.47477,0.92644,0.8295
492.601,25.08707,-0.47944,0.92082,0.82789
495.601,25.183,-0.48381,0.91752,0.82627
498.601,25.27881,-0.48824,0.91183,0.82465
501.601,25.3747,-0.49084,0.8999,0.82301
504.601,25.47064,-0.49481,0.89645,0.82137
507.601,25.56638,-0.49673,0.89122,0.81972
510.601,25.66282,-0.50172,0.88839,0.81806
513.601,25.75897,-0.5048,0.88562,0.8164
516.601,25.85509,-0.50746,0.88518,0.81473
519.601,25.95137,-0.5089,0.88667,0.81304
522.601,26.0482,-0.51136,0.89079,0.81135
525.601,26.14474,-0.51262,0.89867,0.80965
528.601,26.24125,-0.51531,0.90466,0.80795
531.601,26.338,-0.51662,0.90991,0.80623
534.601,26.43468,-0.51729,0.92023,0.80451
537.601,26.5314,-0.51854,0.92807,0.80277
540.601,26.6282,-0.52201,0.93216,0.80103
543.601,26.7252,-0.52353,0.94128,0.79927
546.601,26.82204,-0.52485,0.93959,0.79751
549.601,26.9192,-0.52617,0.94923,0.79574
552.601,27.016,-0.52891,0.96639,0.79396
555.601,27.1131,-0.53022,0.97452,0.79217
558.601,27.21015,-0.53154,0.98429,0.79037
561.601,27.30722,-0.5332,0.98979,0.78856
564.601,27.40455,-0.53516,0.98579,0.78674
567.601,27.50195,-0.53844,0.97067,0.78491
570.601,27.59957,-0.53976,0.95098,0.78306
573.601,27.69715,-0.54108,0.93656,0.78121
576.601,27.79485,-0.54239,0.91834,0.77935
579.601,27.8926,-0.54371,0.90043,0.77748
582.601,27.99056,-0.54516,0.8771,0.7756
585.601,28.0887,-0.54634,0.85437,0.7737
588.601,28.1866,-0.54766,0.83273,0.7718
591.601,28.2846,-0.54764,0.81281,0.76988
594.601,28.38275,-0.55004,0.7967,0.76796
597.601,28.48113,-0.55128,0.77542,0.76602
600.601,28.57933,-0.55259,0.76001,0.76407
603.601,28.6776,-0.55424,0.75178,0.76211
606.601,28.7761,-0.55556,0.7366,0.76014
609.601,28.8746,-0.55687,0.72908,0.75816
612.601,28.97314,-0.55556,0.73007,0.75617
615.601,29.07175,-0.55819,0.72458,0.75417
618.601,29.1703,-0.5582,0.72827,0.75215
621.601,29.26898,-0.56212,0.73023,0.75013
624.601,29.3677,-0.56323,0.74151,0.74809
627.601,29.46653,-0.56544,0.75262,0.74604
630.601,29.56545,-0.56675,0.76316,0.74398
633.601,29.66433,-0.56872,0.77707,0.74191
636.601,29.76343,-0.57135,0.79846,0.73982
639.601,29.86252,-0.57398,0.81612,0.73773
642.601,29.96138,-0.57529,0.84271,0.73562
645.601,30.06073,-0.57806,0.86612,0.7335
648.601,30.1598,-0.58142,0.89251,0.73137
651.601,30.25934,-0.58341,0.91965,0.72923
654.601,30.35844,-0.58614,0.94739,0.72708
657.601,30.45795,-0.58874,0.98482,0.72491
660.601,30.5573,-0.59272,1.01944,0.72274
663.601,30.6569,-0.59618,1.05559,0.72055
666.601,30.7564,-0.60058,1.093,0.71835
669.601,30.8559,-0.60488,1.1357,0.71614
672.601,30.9556,-0.60885,1.18076,0.71391
675.601,31.05521,-0.61378,1.23182,0.71168
678.601,31.1549,-0.61787,1.28458,0.70943
681.601,31.2545,-0.62424,1.3416,0.70717
684.601,31.3543,-0.6305,1.39593,0.7049
687.601,31.45409,-0.63616,1.46055,0.70262
690.601,31.5539,-0.64428,1.5217,0.70033
693.601,31.65365,-0.64989,1.59479,0.69802
696.601,31.7537,-0.65828,1.67167,0.69571
699.601,31.85363,-0.66617,1.75711,0.69338
702.601,31.9536,-0.67392,1.84425,0.69104
705.601,32.05355,-0.68525,1.94169,0.68869
708.601,32.15352,-0.69325,2.04259,0.68633
711.601,32.2536,-0.70411,2.15352,0.68395
714.601,32.35385,-0.71662,2.27337,0.68157
717.601,32.4538,-0.72803,2.40506,0.67917
720.601,32.554,-0.74039,2.54232,0.67676
723.601,32.65412,-0.75489,2.68759,0.67434
726.601,32.75443,-0.76854,2.84517,0.67191
729.601,32.8548,-0.78541,3.00938,0.66947
732.601,32.95528,-0.80295,3.18293,0.66702
735.601,33.0556,-0.81969,3.36596,0.66455
738.601,33.1563,-0.83969,3.55564,0.66208
741.601,33.25692,-0.86084,3.74919,0.65959
743.801,33.33075,-0.87607,3.89771,0.65776