File: 01_Data/Pine_Lap_Siding_Paint/STA/N2/30K_min/Pine_Lap_Siding_Paint_STA_N2_30KData_220317_R2.csv
##Temp./Â°C,Time/min,Mass loss(subtr.2)/mg,DSC(subtr.2)/(mW/mg),Sensit./(uV/mW)
48.876,10.01,0.00428,0.0005229193,1.08882
52.276,10.89339,0.00506079,0.11749,1.08596
55.676,11.13309,0.005286185,0.19679,1.08312
59.076,11.31669,0.003169383,0.2555,1.0803
62.476,11.47775,0.004783759,0.30544,1.0775
65.876,11.6236,0.003829799,0.34687,1.07471
69.276,11.76088,0.002619174,0.37997,1.07195
72.676,11.89228,0.002895075,0.40774,1.06921
76.076,12.01982,0.00351515,0.4333,1.06649
79.476,12.1439,0.00161814,0.45321,1.06378
82.876,12.2662,0.00204756,0.47103,1.0611
86.276,12.38626,0.004313809,0.48715,1.05844
89.676,12.50469,0.002680867,0.49866,1.0558
93.076,12.62173,0.004310114,0.51014,1.05317
96.476,12.7379,-0.00151682,0.51966,1.05057
99.876,12.85327,-6.305592e-05,0.52806,1.04798
103.276,12.96809,-0.0002080383,0.53158,1.04542
106.676,13.08244,0.000933623,0.53985,1.04287
110.076,13.19684,-0.0002245345,0.54553,1.04034
113.476,13.3107,-0.00155609,0.55141,1.03784
116.876,13.42401,-0.00152604,0.55722,1.03535
120.276,13.5368,-0.00153182,0.56548,1.03288
123.676,13.6494,-0.00285,0.56672,1.03043
127.076,13.7612,-0.001539719,0.573,1.028
130.476,13.87235,-0.001552119,0.57698,1.02558
133.876,13.9832,-0.001533205,0.58141,1.02319
137.276,14.093,-0.00167386,0.58665,1.02081
140.676,14.2028,-0.002848945,0.59083,1.01845
144.076,14.3126,-0.00149313,0.59652,1.01611
147.476,14.42126,-0.001539999,0.60119,1.01379
150.876,14.5297,-0.00285856,0.60394,1.01148
154.276,14.6375,-0.002872257,0.61057,1.0092
157.676,14.74533,-0.003205547,0.61555,1.00693
161.076,14.8526,-0.00317986,0.61987,1.00467
164.476,14.96001,-0.004499999,0.62439,1.00244
167.876,15.06688,-0.00482931,0.62888,1.00022
171.276,15.17345,-0.00483,0.63498,0.99802
174.676,15.2798,-0.00483,0.6396,0.99583
178.076,15.38592,-0.004812987,0.64398,0.99366
181.476,15.4916,-0.00581,0.64977,0.99151
184.876,15.5968,-0.0054255,0.65416,0.98937
188.276,15.70164,-0.00569024,0.65985,0.98725
191.676,15.8063,-0.00700961,0.6673,0.98514
195.076,15.91075,-0.00702378,0.67152,0.98305
198.476,16.01504,-0.00800999,0.67555,0.98098
201.876,16.11929,-0.00801,0.68005,0.97892
205.276,16.22319,-0.00801,0.68557,0.97687
208.676,16.3271,-0.008036658,0.69006,0.97484
212.076,16.43076,-0.008990001,0.69522,0.97282
215.476,16.53451,-0.00899,0.69865,0.97082
218.876,16.63808,-0.008987993,0.70404,0.96883
222.276,16.74169,-0.009364653,0.70705,0.96685
225.676,16.84506,-0.01096827,0.71459,0.96489
229.076,16.94843,-0.01097348,0.71532,0.96293
232.476,17.05161,-0.01031,0.72129,0.961
235.876,17.1547,-0.01170727,0.72592,0.95907
239.276,17.25769,-0.01392421,0.73217,0.95716
242.676,17.36081,-0.01524997,0.7344,0.95525
246.076,17.4637,-0.01558018,0.73935,0.95336
249.476,17.56658,-0.01552841,0.74724,0.95149
252.876,17.6694,-0.01821506,0.75615,0.94962
256.276,17.7722,-0.01953578,0.7608,0.94776
259.676,17.87497,-0.01953,0.76844,0.94591
263.076,17.97759,-0.01999109,0.77766,0.94408
266.476,18.08041,-0.0225165,0.78305,0.94225
269.876,18.1831,-0.02446065,0.7946,0.94043
273.276,18.2857,-0.02576317,0.80588,0.93863
276.676,18.38832,-0.02729977,0.81696,0.93683
280.076,18.491,-0.02841186,0.82561,0.93504
283.476,18.5937,-0.03074295,0.82728,0.93326
286.876,18.69651,-0.03365265,0.83107,0.93149
290.276,18.7994,-0.03428252,0.8308,0.92972
293.676,18.90211,-0.03632494,0.8244,0.92796
297.076,19.00497,-0.03889185,0.82088,0.92621
300.476,19.10799,-0.04158093,0.81614,0.92447
303.876,19.21098,-0.04551914,0.80997,0.92273
307.276,19.3139,-0.04690332,0.8082,0.921
310.676,19.41699,-0.05075554,0.80608,0.91928
314.076,19.52006,-0.05210339,0.80707,0.91756
317.476,19.62325,-0.05500882,0.80887,0.91585
320.876,19.72658,-0.05668883,0.81015,0.91414
324.276,19.82985,-0.05999146,0.81553,0.91244
327.676,19.9335,-0.06394708,0.81749,0.91074
331.076,20.03699,-0.06840238,0.82116,0.90905
334.476,20.14055,-0.07282782,0.82634,0.90736
337.876,20.2444,-0.07607215,0.82957,0.90568
341.276,20.3481,-0.0817134,0.83684,0.90399
344.676,20.4521,-0.08815365,0.84063,0.90232
348.076,20.55611,-0.09347276,0.84032,0.90064
351.476,20.66018,-0.10102,0.84088,0.89896
354.876,20.76437,-0.11009,0.83637,0.89729
358.276,20.86871,-0.11923,0.83383,0.89562
361.676,20.973,-0.1294,0.82983,0.89396
365.076,21.07747,-0.13615,0.82187,0.89229
368.476,21.18222,-0.14404,0.81813,0.89062
371.876,21.28689,-0.15069,0.81214,0.88896
375.276,21.39163,-0.15698,0.80678,0.88729
378.676,21.49653,-0.1636,0.8025,0.88563
382.076,21.60138,-0.17088,0.80091,0.88396
385.476,21.70652,-0.1772,0.79849,0.8823
388.876,21.81188,-0.18215,0.79996,0.88063
392.276,21.91723,-0.18876,0.80495,0.87896
395.676,22.02269,-0.19556,0.80986,0.87729
399.076,22.1284,-0.20149,0.81959,0.87562
402.476,22.23411,-0.20857,0.83317,0.87395
405.876,22.33986,-0.21673,0.85002,0.87227
409.276,22.4459,-0.2243,0.87497,0.87059
412.676,22.55194,-0.23502,0.89766,0.86891
416.076,22.6579,-0.24739,0.9227,0.86723
419.476,22.7643,-0.25705,0.95169,0.86554
422.876,22.87073,-0.27172,0.97292,0.86385
426.276,22.97723,-0.28622,0.99264,0.86215
429.676,23.08407,-0.30154,0.99505,0.86045
433.076,23.19085,-0.31617,0.98329,0.85875
436.476,23.2978,-0.33002,0.95503,0.85704
439.876,23.4045,-0.34275,0.91691,0.85533
443.276,23.51172,-0.35427,0.87281,0.85361
446.676,23.61889,-0.36448,0.83582,0.85188
450.076,23.72622,-0.37176,0.80428,0.85015
453.476,23.83376,-0.37715,0.77902,0.84841
456.876,23.94128,-0.38268,0.76349,0.84667
460.276,24.04908,-0.38722,0.75536,0.84492
463.676,24.1569,-0.39337,0.75116,0.84316
467.076,24.2647,-0.39804,0.75461,0.8414
470.476,24.37278,-0.40353,0.75828,0.83962
473.876,24.48077,-0.40996,0.76172,0.83784
477.276,24.5892,-0.41464,0.76851,0.83606
480.676,24.69736,-0.41853,0.77204,0.83426
484.076,24.8057,-0.42501,0.77425,0.83246
487.476,24.91429,-0.43064,0.77327,0.83064
490.876,25.0226,-0.43465,0.77149,0.82882
494.276,25.13113,-0.43823,0.7651,0.82699
497.676,25.23966,-0.44224,0.75948,0.82515
501.076,25.34825,-0.44778,0.75007,0.8233
504.476,25.4571,-0.45202,0.74071,0.82144
507.876,25.5659,-0.45495,0.73152,0.81957
511.276,25.6749,-0.45752,0.72412,0.81769
514.676,25.7836,-0.46006,0.72185,0.8158
518.076,25.89304,-0.46272,0.7202,0.8139
521.476,26.0023,-0.46467,0.72618,0.81199
524.876,26.11161,-0.46858,0.72563,0.81007
528.276,26.2211,-0.47077,0.7349,0.80813
531.676,26.33073,-0.47389,0.74533,0.80619
535.076,26.4405,-0.47518,0.75796,0.80423
538.476,26.5502,-0.47648,0.76911,0.80226
541.876,26.6603,-0.47924,0.78267,0.80028
545.276,26.7705,-0.47921,0.79641,0.79829
548.676,26.88058,-0.48186,0.80704,0.79629
552.076,26.991,-0.48423,0.80583,0.79427
555.476,27.1013,-0.48589,0.80929,0.79224
558.876,27.2117,-0.48892,0.82091,0.7902
562.276,27.3221,-0.49239,0.82439,0.78815
565.676,27.4327,-0.49238,0.82669,0.78608
569.076,27.5434,-0.49632,0.82728,0.784
572.476,27.6544,-0.49765,0.82435,0.78191
575.876,27.7653,-0.49827,0.79782,0.7798
579.276,27.87642,-0.50111,0.76864,0.77768
582.676,27.98745,-0.5017,0.74538,0.77555
586.076,28.0988,-0.50171,0.7243,0.7734
589.476,28.2101,-0.50786,0.69762,0.77124
592.876,28.32167,-0.50785,0.66739,0.76907
596.276,28.43327,-0.50916,0.63964,0.76688
599.676,28.54492,-0.51049,0.61511,0.76467
603.076,28.65625,-0.5119,0.59312,0.76246
606.476,28.7677,-0.51548,0.57585,0.76023
609.876,28.87971,-0.51412,0.56082,0.75798
613.276,28.9917,-0.51539,0.55415,0.75572
616.676,29.1035,-0.51673,0.54783,0.75345
620.076,29.21537,-0.51856,0.54738,0.75116
623.476,29.32791,-0.51937,0.54678,0.74885
626.876,29.43995,-0.52068,0.55393,0.74654
630.276,29.55205,-0.52346,0.56603,0.7442
633.676,29.66426,-0.52596,0.57782,0.74186
637.076,29.7764,-0.52594,0.59597,0.73949
640.476,29.88867,-0.52856,0.61834,0.73712
643.876,30.00086,-0.53123,0.64123,0.73472
647.276,30.1132,-0.53379,0.66737,0.73232
650.676,30.2255,-0.5354,0.6951,0.72989
654.076,30.3378,-0.53948,0.72862,0.72746
657.476,30.4502,-0.54207,0.76046,0.725
660.876,30.56257,-0.54471,0.79431,0.72254
664.276,30.67486,-0.54912,0.83118,0.72006
667.676,30.7873,-0.55344,0.87323,0.71756
671.076,30.89994,-0.5583,0.91301,0.71505
674.476,31.0128,-0.56454,0.95928,0.71252
677.876,31.12557,-0.56682,1.00574,0.70998
681.276,31.23852,-0.57276,1.05553,0.70742
684.676,31.3517,-0.57764,1.11415,0.70485
688.076,31.4645,-0.58377,1.1717,0.70226
691.476,31.5775,-0.58888,1.23298,0.69966
694.876,31.69071,-0.59553,1.30761,0.69704
698.276,31.8039,-0.60413,1.38512,0.69441
701.676,31.9174,-0.61188,1.46996,0.69176
705.076,32.03089,-0.62234,1.55945,0.6891
708.476,32.14432,-0.63042,1.66391,0.68642
711.876,32.25775,-0.639,1.77548,0.68373
715.276,32.37145,-0.65168,1.89862,0.68103
718.676,32.485,-0.66085,2.02853,0.67831
722.076,32.59858,-0.67489,2.17689,0.67557
725.476,32.71202,-0.68987,2.32489,0.67282
728.876,32.82565,-0.70162,2.49161,0.67006
732.276,32.93949,-0.71826,2.66362,0.66728
735.676,33.05314,-0.73698,2.84493,0.66449
739.076,33.16703,-0.75384,3.03661,0.66168
742.476,33.28076,-0.77486,3.24295,0.65886
745.876,33.39461,-0.79677,3.46038,0.65603
749.276,33.50865,-0.82219,3.70035,0.65318
752.676,33.62259,-0.84616,3.94929,0.65032
756.076,33.73665,-0.87332,4.21409,0.64745
759.476,33.8514,-0.90242,4.49095,0.64456
762.876,33.96543,-0.9342,4.77755,0.64166
766.276,34.0798,-0.9689,5.08694,0.63874
769.676,34.1942,-1.00598,5.39737,0.63581
773.076,34.3082,-1.04326,5.71054,0.63287
776.476,34.42326,-1.0848,6.02791,0.62992
779.876,34.53787,-1.12713,6.32828,0.62695
783.276,34.6526,-1.17503,6.60862,0.62397
786.676,34.76753,-1.22594,6.84678,0.62098
790.076,34.88219,-1.27395,6.9988,0.61798
793.476,34.9968,-1.32211,6.963,0.61496
796.876,35.11139,-1.37376,6.57379,0.61193
800.276,35.22545,-1.4192,5.3821,0.60889
803.676,35.3386,-1.44819,2.18695,0.60584
807.076,35.45139,-1.45477,0.59947,0.60277
810.476,35.565,-1.45546,0.20087,0.5997
813.876,35.67921,-1.45476,0.08088859,0.59661
817.276,35.7939,-1.45479,0.03463136,0.59352
820.676,35.90865,-1.45663,0.01489894,0.59041
824.076,36.02325,-1.45739,0.00109629,0.58729
827.476,36.1379,-1.4574,-0.0108638,0.58416
830.876,36.25251,-1.45873,-0.01709099,0.58102
834.276,36.36755,-1.46001,-0.02156365,0.57787
837.676,36.48233,-1.46003,-0.02827416,0.57471
841.076,36.5971,-1.46123,-0.04188119,0.57154
843.076,36.66506,-1.46036,-0.04628056,0.56967