File: 01_Data/Rebond_Foam_Carpet_Pad/Cone/Rebond_Foam_Carpet_Pad_Cone_HF25Scan_220413_R1.csv
Names,Time,Stack TC,Smoke TC,Exh Press,Smoke Comp,Smoke Meas,CO Meter,CO2 Meter,O2 Meter,Sample Mass,Ext Coeff,Start Test,Flame Verif
Chan Gain,,500,500,1,1,1,1,1,1,1,1,1.0,1.0
Offset,,0,0,0.132909,0,0,0,0,0,0,0,0.0,0.0
Gain,,1,1,25.011,13.171,13.8983,1,1,1,1.00092,1.00459,1.0,1.0
Units,sec,C,C,Pa,%,%,%,%,%,g,/m,,
Baseline,,21.9445,22.439,151.154,99.5335,94.859,0.000913108,0.0562125,21.011,-833.836,0.4239,,
9,2,19.8197,20.3919,151.285,100.083,95.0462,0.000674835,0.065151,21.0021,-351.742,0.455074,0.0,0.0
18,4.25,20.5251,20.4522,152.326,100.09,93.5736,0.000917311,0.0633968,21.0015,-351.732,0.593208,0.0,0.0
27,6.5,20.0332,20.5007,145.302,100.091,91.9547,0.0016643,0.0787029,20.9574,-351.852,0.747112,0.0,1.0
36,8.75,20.4644,20.7845,141.317,100.092,85.6867,0.00343036,0.132738,20.8431,-351.962,1.36935,0.0,1.0
45,11,21.329,21.6034,137.859,100.096,83.9778,0.00546043,0.209764,20.7329,-352.172,1.54726,0.0,1.0
54,13.25,22.8678,22.4151,133.124,100.08,82.7987,0.00744635,0.274663,20.6565,-352.342,1.67041,0.0,1.0
63,15.5,23.4964,23.2165,138.801,100.096,83.1121,0.00918947,0.320397,20.604,-352.563,1.6385,0.0,0.0
72,17.75,25.2855,24.6541,140.8,100.096,83.2534,0.0103572,0.35364,20.5699,-352.783,1.62353,0.0,0.0
81,20,26.3479,25.8802,132.306,100.082,80.1482,0.0111557,0.371555,20.5532,-353.023,1.95733,0.0,0.0
90,22.25,27.4981,27.3791,134.987,100.078,81.3545,0.0117827,0.383783,20.5406,-353.203,1.8253,0.0,0.0
99,24.5,28.6529,28.0838,137.471,100.075,79.1375,0.0124809,0.394788,20.521,-353.443,2.06849,0.0,0.0
108,26.75,29.894,30.1962,137.692,100.08,78.7591,0.0132763,0.408244,20.4954,-353.684,2.11118,0.0,0.0
117,29,31.3422,30.9773,129.797,100.045,77.133,0.0145731,0.436973,20.4393,-353.884,2.29196,0.0,0.0
126,31.25,32.7405,33.1034,131.959,100.04,79.2265,0.0157109,0.492155,20.3199,-354.204,2.05553,0.0,0.0
135,33.5,35.0022,35.3568,121.245,100.026,79.1926,0.0163457,0.574328,20.1773,-354.554,2.05811,0.0,0.0
144,35.75,37.8033,38.3391,113.631,100.014,78.564,0.0165132,0.667356,20.0455,-354.905,2.12727,0.0,0.0
153,38,40.7672,41.2302,115.207,99.9967,80.6126,0.0162268,0.76203,19.8883,-355.265,1.89887,0.0,0.0
162,40.25,43.987,44.7204,111.988,99.9822,83.1198,0.0157313,0.863766,19.7643,-355.685,1.6277,0.0,0.0
171,42.5,48.0677,49.8225,105.404,99.9392,84.1848,0.015119,0.95149,19.6306,-356.176,1.51172,0.0,0.0
180,44.75,51.8435,53.7061,109.25,99.9175,86.9795,0.0143955,1.05289,19.4621,-356.596,1.22201,0.0,0.0
189,47,56.7631,58.9756,105.842,99.9046,88.4279,0.0137153,1.14171,19.3685,-357.047,1.07534,0.0,0.0
198,49.25,60.8822,64.2086,105.387,99.8857,88.1628,0.0130754,1.18037,19.3396,-357.487,1.10013,0.0,0.0
207,51.5,64.9705,68.4619,104.261,99.8672,88.6972,0.0124644,1.16171,19.3946,-357.847,1.04524,0.0,0.0
216,53.75,67.6103,72.0167,110.779,99.8548,87.8447,0.0118337,1.08483,19.567,-358.158,1.12925,0.0,0.0
225,56,69.7075,74.5045,124.005,99.8391,83.7725,0.0115954,0.958963,19.7405,-358.418,1.54615,0.0,0.0
234,58.25,70.3442,76.1558,129.673,99.8282,80.3259,0.0116984,0.815016,19.9285,-358.628,1.91541,0.0,0.0
243,60.5,70.4643,75.7977,130.675,99.7973,78.458,0.0113748,0.696142,20.1404,-358.818,2.12002,0.0,0.0
252,62.75,69.5241,75.0132,137.771,99.7816,84.5101,0.010331,0.559603,20.3054,-358.938,1.46383,0.0,0.0
261,65,67.9469,74.0907,138.026,99.7651,86.2813,0.00871231,0.449582,20.4582,-359.029,1.27959,0.0,0.0
270,67.25,66.8746,72.1804,143.287,99.7302,92.3593,0.00770195,0.345229,20.6228,-359.059,0.67662,0.0,0.0
279,69.5,64.8203,70.5853,147.075,99.7065,94.4855,0.00721484,0.258591,20.7502,-359.049,0.473954,0.0,0.0
288,71.75,63.1493,69.1339,148.004,99.6811,94.6395,0.00692927,0.190804,20.8447,-359.049,0.457369,0.0,0.0
297,74,61.4938,66.8056,144.499,99.6695,95.1005,0.00642581,0.144266,20.9018,-359.029,0.413513,0.0,0.0
306,76.25,59.4142,64.9369,147.675,99.6413,95.0734,0.00557167,0.118202,20.9384,-359.019,0.41354,0.0,0.0
315,78.5,58.0173,63.2179,145.614,99.6188,95.0993,0.00453567,0.0999567,20.9589,-359.039,0.409152,0.0,0.0
324,80.75,56.1496,61.4058,149.587,99.6144,95.0577,0.00368729,0.0889431,20.9744,-359.049,0.412613,0.0,0.0
333,83,53.3033,59.5924,148.966,99.6044,94.8885,0.00325603,0.0816302,20.9842,-359.039,0.427427,0.0,0.0
342,85.25,51.6635,57.2453,149.4,99.5827,95.1124,0.00301245,0.0764187,20.9911,-359.039,0.404734,0.0,0.0
351,87.5,51.1158,55.902,151.929,99.5843,94.7913,0.00278776,0.0720262,20.9943,-359.049,0.434675,0.0,0.0
360,89.75,49.433,54.4352,148.379,99.5847,94.835,0.0026018,0.0685344,20.9983,-359.039,0.43065,0.0,0.0
369,92,47.7499,53.3328,148.11,99.5722,94.7154,0.00248665,0.0659185,21.002,-359.039,0.440668,0.0,0.0
378,94.25,46.9437,51.9865,152.021,99.5606,94.8507,0.00237537,0.0632938,21.006,-359.039,0.427057,0.0,0.0
387,96.5,45.6871,50.4765,148.551,99.5654,94.8057,0.0022148,0.0613224,21.0088,-359.049,0.431662,0.0,0.0
396,98.75,44.2092,49.4368,146.611,99.5678,94.768,0.00206067,0.0599173,21.0099,-359.049,0.435384,0.0,0.0
405,101,43.3793,47.8523,150.128,99.6172,94.8185,0.00195597,0.058743,21.0111,-359.049,0.435066,0.0,0.0
414,103.25,42.2927,47.378,150.36,99.6679,95.056,0.00185868,0.0580464,21.0116,-359.049,0.417498,0.0,0.0
423,105.5,41.2702,46.7267,150.918,99.7097,94.9797,0.00188712,0.0573963,21.0126,-359.069,0.428275,0.0,0.0
432,107.75,40.3539,45.4881,146.3,99.7374,95.0895,0.00201973,0.0568663,21.0136,-359.069,0.42054,0.0,0.0
441,110,39.8275,44.3004,151.747,99.7816,95.1027,0.00218396,0.0564455,21.0138,-359.049,0.423226,0.0,0.0
450,112.25,38.4171,43.6082,149.223,99.8447,95.1714,0.00237585,0.0563054,21.0135,-359.059,0.422433,0.0,0.0
459,114.5,38.3241,42.8978,149.765,99.8781,94.986,0.0024359,0.0562725,21.0134,-359.059,0.442556,0.0,0.0
468,116.75,37.3866,41.866,150.675,99.9054,95.3228,0.00247937,0.0563825,21.0133,-359.059,0.413779,0.0,0.0
477,119,37.057,41.0207,151.769,99.94,95.1862,0.00241613,0.0570105,21.0133,-359.069,0.429462,0.0,0.0
486,121.25,36.3828,39.8207,148.895,99.989,95.3491,0.00225471,0.0578551,21.0123,-359.069,0.41872,0.0,0.0
495,123.5,35.3939,39.3429,146.952,100.026,95.2816,0.00201169,0.0582488,21.0115,-359.069,0.428178,0.0,0.0
504,125.75,34.8531,38.7523,149.283,100.059,95.2766,0.00175041,0.0581392,21.0122,-359.049,0.431587,0.0,0.0
513,128,34.0303,38.2247,148.651,100.1,95.4784,0.00160654,0.057857,21.0129,-359.059,0.416544,0.0,0.0
522,130.25,33.7267,37.3518,151.552,100.121,95.2829,0.00156699,0.0573554,21.0131,-359.069,0.436484,0.0,0.0
531,132.5,32.6907,36.6594,151.499,100.137,95.4055,0.0016293,0.0567975,21.0132,-359.079,0.426535,0.0,0.0
540,134.75,33.2222,36.6909,151.323,100.169,95.3665,0.00165468,0.0563085,21.0137,-359.079,0.432969,0.0,0.0
549,137,31.9383,35.4745,149.793,100.204,95.5035,0.00154815,0.0559397,21.0152,-359.069,0.423359,0.0,0.0
558,139.25,31.0796,34.8717,151.723,100.232,95.5459,0.00148825,0.0556283,21.016,-359.079,0.42192,0.0,0.0
567,141.5,30.7757,34.2931,151.184,100.247,95.4174,0.00157215,0.0555005,21.0164,-359.079,0.435124,0.0,0.0
576,143.75,31.4167,34.2784,150.396,100.264,95.6078,0.00159681,0.0554363,21.0151,-359.079,0.419003,0.0,0.0
585,146,30.5212,33.5309,151.28,100.293,95.5416,0.00150372,0.055687,21.0146,-359.089,0.427717,0.0,0.0
594,148.25,30.575,32.7904,151.012,100.319,95.7753,0.00132706,0.0558615,21.0144,-359.089,0.408448,0.0,0.0
603,150.5,30.0909,32.9955,148.13,100.324,95.52,0.00118956,0.0557224,21.0143,-359.089,0.432431,0.0,0.0
612,152.75,29.7616,32.8848,150.116,100.353,95.4284,0.00114502,0.0558604,21.0143,-359.089,0.44343,0.0,0.0
621,155,29.9603,31.8557,149.523,100.383,95.7092,0.00116587,0.055899,21.0143,-359.069,0.420185,0.0,0.0
630,157.25,29.0185,31.7011,149.301,100.385,95.7236,0.00115063,0.0558143,21.0143,-359.089,0.418999,0.0,0.0
639,159.5,29.1264,31.2246,150.161,100.424,95.6099,0.00109062,0.0556627,21.0145,-359.099,0.432926,0.0,0.0
648,161.75,28.4434,30.9202,150.369,100.418,95.6379,0.0011474,0.0554644,21.0145,-359.089,0.429818,0.0,0.0
657,164,28.3877,30.812,152.692,100.428,95.6574,0.0011513,0.0551789,21.0146,-359.089,0.428902,0.0,0.0
666,166.25,28.3668,30.2758,147.771,100.43,95.6337,0.00112813,0.0548282,21.0146,-359.099,0.431231,0.0,0.0
675,168.5,28.4946,30.2426,151.203,100.434,95.7842,0.00113413,0.0548522,21.0146,-359.089,0.417685,0.0,0.0
684,170.75,27.1731,29.5666,149.564,100.437,95.6439,0.00121583,0.054777,21.0146,-359.099,0.430928,0.0,0.0
693,173,26.9362,28.9734,148.761,100.434,95.6888,0.00131217,0.0548765,21.0146,-359.099,0.42654,0.0,0.0
702,175.25,27.1221,29.0945,148.509,100.434,95.5955,0.00127001,0.0549092,21.0146,-359.109,0.435067,0.0,0.0
711,177.5,27.0909,28.8242,148.465,100.436,95.6829,0.00117212,0.0547951,21.0146,-359.099,0.427229,0.0,0.0
720,179.75,26.8339,29.0582,151.235,100.43,95.7953,0.00111206,0.0546863,21.0148,-359.099,0.416354,0.0,0.0
729,182,26.605,28.9567,148.89,100.403,95.5951,0.00103652,0.0546742,21.0159,-359.099,0.432389,0.0,0.0
738,184.25,26.773,28.2317,152.503,100.408,95.6082,0.000949336,0.0546895,21.0166,-359.109,0.431637,0.0,0.0
747,186.5,26.3698,28.1196,146.888,100.389,95.6239,0.000912214,0.0545842,21.0171,-359.109,0.428497,0.0,0.0
756,188.75,26.163,28.0757,150.739,100.35,95.4657,0.00096364,0.0545538,21.0173,-359.099,0.439665,0.0,0.0
765,191,26.4027,27.5335,148.774,100.338,95.59,,0.0545715,,-359.089,0.427214,0.0,0.0
774,193.25,25.9647,27.3805,149.098,100.324,95.534,,,,-359.089,0.431105,0.0,0.0
783,195.5,25.8663,27.2779,149.994,100.299,95.548,,,,-359.119,0.427659,0.0,0.0
792,197.75,25.2858,26.742,150.529,100.261,95.3783,,,,-359.119,0.439966,0.0,0.0
801,200,25.1893,27.1356,150.763,100.223,95.4611,,,,-359.129,0.429006,0.0,0.0
802,200.25,25.5486,26.7178,150.469,100.225,95.4275,,,,-359.129,0.432241,0.0,0.0