File: 01_Data/Rebond_Foam_Carpet_Pad/Cone/Rebond_Foam_Carpet_Pad_Cone_HF75Scan_220414_R2.csv
Names,Time,Stack TC,Smoke TC,Exh Press,Smoke Comp,Smoke Meas,CO Meter,CO2 Meter,O2 Meter,Sample Mass,Ext Coeff,Start Test,Flame Verif
Chan Gain,,500,500,1,1,1,1,1,1,1,1,1.0,1.0
Offset,,0,0,0.134258,0,0,0,0,0,0,0,0.0,0.0
Gain,,1,1,25.011,13.171,13.8983,1,1,1,1.00092,1.00459,1.0,1.0
Units,sec,C,C,Pa,%,%,%,%,%,g,/m,,
Baseline,,49.0235,50.3999,141.386,101.618,102.977,0.00115488,0.0449082,21.0282,-835.318,-0.11689,,
7,1.5,46.9657,48.496,126.507,101.871,76.9006,0.00736149,0.152994,20.8138,-354.604,2.47798,0.0,1.0
14,3.25,47.8653,49.1647,116.552,101.868,68.7455,0.0134832,0.290556,20.6361,-354.905,3.46556,0.0,1.0
21,5,49.8445,50.4816,113.003,101.862,65.3359,0.0196774,0.463306,20.3936,-355.235,3.91332,0.0,1.0
28,6.75,50.3119,50.9553,117.24,101.863,68.3129,0.024374,0.640694,20.1191,-355.635,3.52074,0.0,1.0
35,8.5,52.684,54.4583,107.379,101.845,68.8325,0.0278933,0.770758,19.9237,-356.036,3.45244,0.0,1.0
42,10.25,56.9202,58.6773,103.021,101.824,68.4775,0.0312342,0.877705,19.7922,-356.356,3.4962,0.0,0.0
49,12,59.2304,60.7708,103.388,101.812,63.621,0.0356377,0.990867,19.647,-356.816,4.14339,0.0,0.0
56,13.75,63.8867,65.7612,93.2658,101.804,59.4958,0.0402123,1.25094,19.3368,-357.377,4.73345,0.0,0.0
63,15.5,69.0935,71.2972,79.1926,101.785,62.7511,0.0443728,1.65931,18.821,-358.008,4.26238,0.0,0.0
70,17.25,75.1443,78.2501,66.1948,101.754,70.4375,0.0478121,2.2866,17.8327,-358.828,3.24146,0.0,0.0
77,19,84.9442,87.9983,63.192,101.746,73.4132,0.0496207,2.8358,16.7766,-359.749,2.87612,0.0,0.0
84,20.75,95.153,101.302,56.2378,101.738,72.7147,0.0498026,3.48252,16.1467,-360.53,2.95965,0.0,0.0
91,22.5,106.411,115.698,73.1887,101.708,70.0214,0.0476895,3.70681,15.8437,-361.16,3.28967,0.0,0.0
98,24.25,115.975,128.425,80.2879,101.685,68.5322,0.0437621,3.43985,16.1451,-361.571,3.47708,0.0,0.0
105,26,121.369,136.498,102.279,101.641,72.5561,0.0365973,2.80579,17.0302,-361.831,2.97053,0.0,0.0
112,27.75,122.885,138.832,115.166,101.626,83.2746,0.0290369,2.16758,18.198,-361.961,1.75499,0.0,0.0
119,29.5,122.343,138.526,124.388,101.603,87.1232,0.0225162,1.50096,19.0542,-362.101,1.3549,0.0,0.0
126,31.25,120.356,136.234,125.863,101.555,96.3925,0.0166083,1.03628,19.636,-362.171,0.459722,0.0,0.0
133,33,118.382,134.309,133.595,101.527,101.896,0.0124752,0.710195,20.0555,-362.161,-0.0319589,0.0,0.0
140,34.75,115.538,131.817,133.773,101.505,104.202,0.00974559,0.492032,20.3631,-362.181,-0.231052,0.0,0.0
147,36.5,112.556,128.453,134.393,101.469,103.411,0.00815768,0.348622,20.5699,-362.191,-0.167078,0.0,0.0
154,38.25,109.719,125.456,137.672,101.429,104.531,0.00718567,0.257601,20.7152,-362.211,-0.265405,0.0,0.0
161,40,106.459,121.418,133.581,101.374,104.687,0.00663736,0.202274,20.7963,-362.231,-0.283374,0.0,0.0
168,41.75,104.641,118.602,138.343,101.33,103.891,0.0062663,0.172917,20.8563,-362.241,-0.219949,0.0,0.0
175,43.5,101.491,116.273,136.141,101.297,103.82,0.00610356,0.150446,20.8924,-362.241,-0.216769,0.0,0.0
182,45.25,100.369,113.815,136.603,101.271,104.168,0.00600318,0.135572,20.9145,-362.271,-0.248586,0.0,0.0
189,47,97.8377,112.05,135.989,101.21,103.32,0.0059528,0.125738,20.9298,-362.282,-0.181885,0.0,0.0
196,48.75,95.7627,108.658,141.285,101.17,104.168,0.00598694,0.117869,20.9413,-362.292,-0.257334,0.0,0.0
203,50.5,93.879,106.64,136.757,101.135,103.249,0.00603864,0.112211,20.9491,-362.302,-0.182317,0.0,0.0
210,52.25,92.5348,104.684,138.853,101.121,103.449,0.00599286,0.108175,20.9546,-362.292,-0.200648,0.0,0.0
217,54,90.13,102.621,139.832,101.071,103.63,0.00584861,0.104233,20.9601,-362.322,-0.220334,0.0,0.0
224,55.75,88.5184,101.299,140.616,101.02,104.928,0.00578863,0.100392,20.9646,-362.312,-0.334468,0.0,0.0
231,57.5,87.4482,98.7876,138.865,100.995,103.516,0.00587534,0.0967729,20.9667,-362.332,-0.21729,0.0,0.0
238,59.25,85.6125,97.4191,139.199,100.974,103.378,0.00597957,0.0938506,20.9695,-362.332,-0.207335,0.0,0.0
245,61,84.1103,95.877,140.806,100.941,102.657,0.00598543,0.0906167,20.974,-362.352,-0.148533,0.0,0.0
252,62.75,82.9638,94.2242,135.396,100.901,102.726,0.00587795,0.0869351,20.9794,-362.362,-0.157974,0.0,0.0
259,64.5,80.6984,92.5431,136.084,100.871,103.768,0.00579318,0.0835249,20.9834,-362.362,-0.24952,0.0,0.0
266,66.25,80.146,91.9229,139.472,100.857,103.342,0.00575368,0.0805229,20.9864,-362.372,-0.214511,0.0,0.0
273,68,78.7897,89.5866,139.151,100.823,102.604,0.00568708,0.0781832,20.9891,-362.372,-0.154339,0.0,0.0
280,69.75,77.9244,88.3007,137.655,100.777,102.838,0.00555748,0.0761545,20.9925,-362.382,-0.178394,0.0,0.0
287,71.5,76.382,87.368,138.585,100.757,103.783,0.0054222,0.0738821,20.9951,-362.392,-0.260759,0.0,0.0
294,73.25,75.3812,86.0968,141.033,100.73,102.663,0.00520774,0.0716889,20.9974,-362.412,-0.167484,0.0,0.0
301,75,74.4424,84.5799,141.691,100.713,102.985,0.00503812,0.0697089,20.9993,-362.422,-0.19655,0.0,0.0
308,76.75,73.4489,83.1378,136.86,100.674,103.419,0.00491359,0.0678171,21.0019,-362.422,-0.237013,0.0,0.0
315,78.5,72.773,82.482,137.16,100.649,102.816,0.0048357,0.0663029,21.0031,-362.442,-0.187723,0.0,0.0
322,80.25,72.0541,81.0322,140.726,100.624,102.976,0.00472055,0.0647143,21.0029,-362.442,-0.203564,0.0,0.0
329,82,70.7093,79.8235,138.064,100.614,102.145,0.00461965,0.0634606,21.0026,-362.452,-0.133051,0.0,0.0
336,83.75,70.249,79.1198,138.276,100.592,102.706,0.00461083,0.0621904,21.0043,-362.432,-0.1833,0.0,0.0
343,85.5,69.5343,77.6881,139.337,100.546,103.478,0.00462914,0.0611112,21.0057,-362.452,-0.253267,0.0,0.0
350,87.25,69.0719,77.1364,141.342,100.546,102.223,0.00454255,0.059914,21.0068,-362.452,-0.145804,0.0,0.0
357,89,68.1457,76.3632,135.97,100.522,103.15,0.0043076,0.0589717,21.0084,-362.452,-0.227486,0.0,0.0
364,90.75,67.1304,75.7622,141.36,100.522,102.977,0.00406592,0.0581013,21.0106,-362.452,-0.212619,0.0,0.0
371,92.5,66.477,74.6798,140.373,100.502,102.638,0.00391731,0.0571985,21.0116,-362.452,-0.185333,0.0,0.0
378,94.25,65.9204,73.4463,139.394,100.484,102.355,0.0038248,0.0564963,21.0127,-362.452,-0.162559,0.0,0.0
385,96,65.1198,73.0997,145.239,100.482,101.935,0.00377486,0.0557683,21.0138,-362.462,-0.126511,0.0,0.0
392,97.75,64.3629,72.2353,140.314,100.477,102.666,0.00375263,0.0548793,21.0152,-362.462,-0.189957,0.0,0.0
399,99.5,63.7036,71.602,143.337,100.475,101.407,0.00363619,0.0541042,21.0162,-362.472,-0.0814115,0.0,0.0
406,101.25,63.2259,70.4342,140.709,100.462,102.294,0.00347625,0.0533946,21.0163,-362.482,-0.159274,0.0,0.0
413,103,62.7641,70.2298,138.82,100.473,102.36,0.00334679,0.0525409,21.0177,-362.472,-0.163949,0.0,0.0
420,104.75,62.5738,69.2418,141.217,100.457,103.314,0.00327077,0.051947,21.0188,-362.482,-0.247138,0.0,0.0
427,106.5,62.0028,68.4518,136.143,100.485,102.849,0.00318453,0.0512975,21.0193,-362.492,-0.204964,0.0,0.0
434,108.25,61.4214,67.9595,138.018,100.489,102.568,0.00310269,0.0507109,21.0195,-362.472,-0.180449,0.0,0.0
441,110,61.1042,67.4637,140.925,100.49,103.03,0.00301562,0.0501791,21.0206,-362.502,-0.219975,0.0,0.0
448,111.75,60.5822,67.2041,139.723,100.513,102.799,0.00289396,0.0499401,21.0214,-362.502,-0.198172,0.0,0.0
455,113.5,60.224,65.9174,137.762,100.531,103.144,0.00269188,0.0500158,21.0217,-362.492,-0.22606,0.0,0.0
462,115.25,59.5587,66.0741,138.372,100.55,102.258,0.00247203,0.050109,21.0219,-362.512,-0.148414,0.0,0.0
469,117,59.6907,65.0651,141.63,100.575,103.208,0.00228613,0.0501864,21.0216,-362.522,-0.227799,0.0,0.0
476,118.75,58.8899,65.022,138.79,100.588,102.74,0.00216267,0.0502776,21.0206,-362.512,-0.186565,0.0,0.0
483,120.5,58.7677,64.2481,139.365,100.612,102.688,0.00205508,0.0506267,21.0201,-362.502,-0.180013,0.0,0.0
490,122.25,58.5263,63.7398,139.626,100.644,102.534,0.0019635,0.0510256,21.0199,-362.522,-0.163975,0.0,0.0
497,124,58.331,63.8666,136.76,100.658,102.209,0.00188163,0.0515889,21.0198,-362.502,-0.134703,0.0,0.0
504,125.75,57.881,63.3002,138.753,100.703,102.484,0.00183176,0.0520884,21.0195,-362.532,-0.1545,0.0,0.0
511,127.5,57.8586,62.9472,140.026,100.727,103.478,0.00185511,0.0523321,21.0191,-362.522,-0.237463,0.0,0.0
518,129.25,57.679,62.5563,138.473,100.757,103.288,0.00192517,0.0521082,21.0189,-362.522,-0.21863,0.0,0.0
525,131,57.2068,62.2159,139.236,100.783,101.876,0.00198857,0.0516319,21.0201,-362.542,-0.0950494,0.0,0.0
532,132.75,56.1146,61.3172,139.068,100.822,101.918,0.00195276,0.0511585,21.0211,-362.512,-0.0953069,0.0,0.0
539,134.5,56.5688,61.4044,141.058,100.858,101.551,0.00179918,0.0507052,21.0215,-362.512,-0.0604022,0.0,0.0
546,136.25,55.7393,60.6663,141.715,100.891,102.67,0.00170799,0.0503214,21.0217,-362.522,-0.154048,0.0,0.0
553,138,55.758,60.2306,137.657,100.93,102.626,0.00171913,0.050112,21.0218,-362.532,-0.146893,0.0,0.0
560,139.75,56.1844,60.2032,139.63,100.964,103.648,0.00173921,0.0500452,21.0219,-362.522,-0.231213,0.0,0.0
567,141.5,55.6127,60.2857,143.272,100.98,103.848,0.00165422,0.0498737,21.0219,-362.532,-0.246742,0.0,0.0
574,143.25,54.9923,59.4799,138.498,101.032,103.196,0.00151378,0.0497676,21.0227,-362.562,-0.186762,0.0,0.0
581,145,54.8903,59.1735,140.764,101.073,101.782,0.0014337,0.0496424,21.0235,-362.552,-0.0616346,0.0,0.0
588,146.75,54.3794,59.2523,139.44,101.105,103.082,,0.0494574,,-362.552,-0.170669,0.0,0.0
595,148.5,54.5195,58.7314,137.727,101.135,102.442,,0.0492549,,-362.552,-0.113156,0.0,0.0
602,150.25,55.1514,58.922,138.246,101.163,103.295,,,,-362.552,-0.183773,0.0,0.0
609,152,54.3935,58.2318,136.489,101.198,102.836,,,,-362.532,-0.141455,0.0,0.0
616,153.75,54.1578,57.5578,137.074,101.226,103.529,,,,-362.542,-0.198229,0.0,0.0
623,155.5,54.1135,57.3237,142.105,101.252,103.426,,,,-362.532,-0.187177,0.0,0.0
630,157.25,53.9119,56.9381,136.27,101.285,103.451,,,,-362.532,-0.186549,0.0,0.0