File: 01_Data/Rebond_Foam_Carpet_Pad/Cone/Rebond_Foam_Carpet_Pad_Cone_HF75Scalar_220414_R2.csv
LABORATORY,FSRI
TEST IDENT,Rebond_Foam_HF75_2
OPERATOR,Dow
MATERIAL,Rebond Foam Carpet Padding
ORIENTATION,Horizontal
HEAT FLUX,75
SURF AREA,0.01
C FACTOR,0.0401286
SPEC HOLDER DIFF,-566
SPECIMEN MASS,8.06
SCAN TIME,0.25
O2 DELAY TIME,11
CO DELAY TIME,11
CO2 DELAY TIME,8
FLOW FACTOR,1
SCAN COUNT,630
TIME TO IGN,0.5
END OF TEST SCAN,150
END OF TEST TIME,37.5
TEST STATUS,1
PRE TEST CMT,Dimensions: 99.78 x 99.07 x 9.07 mm