File: 01_Data/Rebond_Foam_Carpet_Pad/Cone/Rebond_Foam_Carpet_Pad_Cone_HF25Scan_220413_R2.csv
Names,Time,Stack TC,Smoke TC,Exh Press,Smoke Comp,Smoke Meas,CO Meter,CO2 Meter,O2 Meter,Sample Mass,Ext Coeff,Start Test,Flame Verif
Chan Gain,,500,500,1,1,1,1,1,1,1,1,1.0,1.0
Offset,,0,0,0.132909,0,0,0,0,0,0,0,0.0,0.0
Gain,,1,1,25.011,13.171,13.8983,1,1,1,1.00092,1.00459,1.0,1.0
Units,sec,C,C,Pa,%,%,%,%,%,g,/m,,
Baseline,,23.5021,23.7019,151.745,100.601,95.7745,0.000645105,0.0548222,21.0171,-833.907,0.433296,,
8,1.75,21.0955,20.9316,151.042,99.8403,94.7837,0.000437464,0.061979,21.0094,-352.302,0.458011,0.0,0.0
16,3.75,20.8209,20.8467,151.237,99.819,93.1787,0.000367663,0.0609679,21.0117,-352.392,0.606625,0.0,0.0
24,5.75,20.6292,20.7976,149.236,99.8094,92.1553,0.000597311,0.0602101,21.0118,-352.443,0.703101,0.0,0.0
32,7.75,20.7455,20.791,144.379,99.782,92.0073,0.00158687,0.0722211,20.976,-352.543,0.714854,0.0,1.0
40,9.75,20.8758,21.311,141.687,99.7635,84.8193,0.00334577,0.128807,20.8649,-352.713,1.43004,0.0,1.0
48,11.75,21.8111,21.3685,137.878,99.7583,80.5876,0.00538954,0.202796,20.7691,-352.853,1.88058,0.0,1.0
56,13.75,22.5565,22.1083,140.762,99.7426,79.8594,0.00753279,0.26493,20.6841,-352.983,1.95919,0.0,1.0
64,15.75,24.2476,23.8227,137.152,99.7045,78.3973,0.00914707,0.320492,20.611,-353.203,2.11864,0.0,0.0
72,17.75,25.1379,24.7602,134.407,99.6707,78.6086,0.0105531,0.369667,20.543,-353.403,2.09194,0.0,0.0
80,19.75,26.0287,25.327,136.844,99.6598,78.4983,0.0118406,0.401158,20.4944,-353.594,2.10335,0.0,0.0
88,21.75,27.3657,27.2421,130.745,99.6373,75.6438,0.0128699,0.429385,20.4517,-353.834,2.42778,0.0,0.0
96,23.75,28.6641,29.1396,130.995,99.6164,75.8576,0.0136789,0.452441,20.4218,-354.074,2.40106,0.0,0.0
104,25.75,30.2684,30.1196,134.542,99.5895,76.6842,0.0146082,0.468491,20.407,-354.314,2.30317,0.0,0.0
112,27.75,31.5849,31.696,130.428,99.577,74.9431,0.0158349,0.489385,20.3758,-354.534,2.50445,0.0,0.0
120,29.75,33.0227,33.1081,128.696,99.567,76.2156,0.0178026,0.527479,20.2756,-354.825,2.3552,0.0,0.0
128,31.75,35.0481,35.1394,117.549,99.5473,75.0063,0.0196831,0.6182,20.0909,-355.195,2.49439,0.0,0.0
136,33.75,37.5414,38.1564,113.93,99.5244,74.0987,0.0210252,0.750216,19.8948,-355.525,2.59965,0.0,0.0
144,35.75,41.2464,41.3402,114.449,99.497,78.637,0.021631,0.89975,19.6826,-355.936,2.07339,0.0,0.0
152,37.75,45.052,45.9953,106.55,99.4838,77.0702,0.0218015,1.04299,19.4549,-356.446,2.24957,0.0,0.0
160,39.75,49.7468,50.7919,104.43,99.4773,76.7894,0.0218801,1.16334,19.2885,-356.897,2.28116,0.0,0.0
168,41.75,54.0149,55.7351,103.959,99.4741,79.3025,0.0216321,1.25922,19.1838,-357.287,1.9971,0.0,0.0
176,43.75,58.2473,60.9167,94.4437,99.4408,80.9626,0.0207185,1.30851,19.1223,-357.807,1.81158,0.0,0.0
184,45.75,62.7418,65.6801,97.667,99.4287,82.1201,0.0195336,1.33,19.0959,-358.198,1.68541,0.0,0.0
192,47.75,66.5603,70.3748,107.949,99.3994,83.4625,0.0182021,1.33182,19.0972,-358.588,1.53993,0.0,0.0
200,49.75,69.9575,73.813,108.327,99.3732,84.0215,0.0167309,1.32611,19.1151,-358.988,1.47878,0.0,0.0
208,51.75,72.9582,77.6947,105.89,99.3503,82.9297,0.0155336,1.29629,19.189,-359.359,1.592,0.0,0.0
216,53.75,75.5738,81.093,109.951,99.3351,84.7468,0.0145095,1.23081,19.308,-359.739,1.39965,0.0,0.0
224,55.75,77.974,83.6178,118.875,99.3073,84.723,0.013815,1.13622,19.4669,-359.979,1.39966,0.0,0.0
232,57.75,78.9615,85.1833,122.638,99.282,83.7386,0.0133434,1.00809,19.6917,-360.2,1.50041,0.0,0.0
240,59.75,79.0154,85.5165,132.187,99.2599,76.1905,0.0128425,0.838534,19.9573,-360.36,2.33087,0.0,0.0
248,61.75,77.8047,84.9065,138.134,99.245,78.9263,0.0118684,0.667698,20.1915,-360.46,2.01869,0.0,0.0
256,63.75,76.8053,83.42,143.411,99.2129,88.2604,0.0105579,0.510152,20.4277,-360.51,1.03082,0.0,0.0
264,65.75,74.376,81.1827,145.971,99.1892,93.535,0.0095565,0.368534,20.6328,-360.5,0.517214,0.0,0.0
272,67.75,72.2051,79.2838,144.818,99.1606,94.8957,0.00883615,0.261779,20.7763,-360.51,0.387411,0.0,0.0
280,69.75,69.7294,77.3023,150.175,99.1441,94.5148,0.00816657,0.186761,20.8594,-360.51,0.421386,0.0,0.0
288,71.75,67.2794,74.4995,149.503,99.1072,94.3948,0.00697661,0.138939,20.9107,-360.51,0.429297,0.0,0.0
296,73.75,65.6598,72.4502,149.64,99.0802,94.4329,0.00562984,0.110499,20.9498,-360.51,0.423339,0.0,0.0
304,75.75,63.996,70.3263,151.148,99.0561,94.273,0.00447473,0.0922856,20.9721,-360.51,0.436128,0.0,0.0
312,77.75,61.9885,68.3919,151.055,99.0501,94.3485,0.00354854,0.0818682,20.9873,-360.52,0.428538,0.0,0.0
320,79.75,60.106,66.4422,150.021,99.0252,94.3943,0.00284806,0.0750951,20.9956,-360.52,0.422042,0.0,0.0
328,81.75,58.1674,64.7802,147.663,99.0075,94.3837,0.00236985,0.0706589,21.0015,-360.51,0.421458,0.0,0.0
336,83.75,56.6977,63.3669,150.196,98.9894,94.4011,0.00211689,0.0674995,21.0052,-360.51,0.418226,0.0,0.0
344,85.75,55.5317,61.7078,149.819,98.9701,94.2866,0.00192467,0.0651505,21.0089,-360.51,0.427205,0.0,0.0
352,87.75,54.0991,60.4462,151.27,98.95,94.3651,0.00172346,0.0633991,21.0117,-360.51,0.418084,0.0,0.0
360,89.75,52.9707,58.6902,148.704,98.9319,94.3761,0.00156149,0.0618893,21.0134,-360.52,0.415444,0.0,0.0
368,91.75,51.3182,56.9556,150.076,98.9319,94.2391,0.00149236,0.0609365,21.0141,-360.51,0.428245,0.0,0.0
376,93.75,50.1663,56.2123,146.892,98.8977,94.3218,0.00150584,0.0602199,21.0134,-360.51,0.417471,0.0,0.0
384,95.75,48.0735,55.2528,150.232,98.901,94.2747,0.00157709,0.05943,21.0125,-360.52,0.422156,0.0,0.0
392,97.75,47.6348,53.5058,149.623,98.8913,94.1742,0.00162969,0.058804,21.0131,-360.53,0.430699,0.0,0.0
400,99.75,46.4708,52.2305,147.891,98.8837,94.346,0.00164009,0.0584225,21.0136,-360.52,0.413958,0.0,0.0
408,101.75,45.8197,52.038,148.42,98.8507,94.1678,0.00153338,0.0581769,21.0138,-360.51,0.427675,0.0,0.0
416,103.75,44.8257,50.4925,145.711,98.8431,94.0822,0.00132678,0.058253,21.0139,-360.51,0.435015,0.0,0.0
424,105.75,44.1892,49.6485,151.563,98.8443,94.125,0.00119099,0.0583649,21.014,-360.52,0.431112,0.0,0.0
432,107.75,43.2217,48.564,149.673,98.819,94.0762,0.0012505,0.058408,21.014,-360.52,0.433421,0.0,0.0
440,109.75,41.5706,47.5024,150.179,98.8194,94.1674,0.00141476,0.0579609,21.0144,-360.52,0.424919,0.0,0.0
448,111.75,41.752,46.8912,147.833,98.8141,94.2251,0.00146595,0.0574912,21.0155,-360.53,0.419057,0.0,0.0
456,113.75,41.0074,45.7224,148.054,98.8117,94.0669,0.00131552,0.0569682,21.0169,-360.53,0.433651,0.0,0.0
464,115.75,39.6135,44.8795,149.825,98.8077,94.2387,0.00110334,0.0566255,21.0179,-360.52,0.417214,0.0,0.0
472,117.75,39.1627,43.891,150.675,98.8089,94.2081,0.000904238,0.0562751,21.0183,-360.53,0.420177,0.0,0.0
480,119.75,38.4563,43.3743,148.029,98.8025,94.1721,0.000791314,0.0558928,21.0185,-360.51,0.422977,0.0,0.0
488,121.75,38.1624,42.6444,146.998,98.7969,94.0987,0.000843841,0.0555837,21.0186,-360.52,0.429345,0.0,0.0
496,123.75,37.7178,41.9501,148.505,98.8013,94.1555,0.000915363,0.0554529,21.0186,-360.52,0.424417,0.0,0.0
504,125.75,36.4351,40.4258,148.408,98.8105,94.1852,0.00099216,0.0553671,21.0187,-360.52,0.422464,0.0,0.0
512,127.75,36.4577,40.718,148.738,98.8117,94.2268,0.00109444,0.0552536,21.0187,-360.53,0.418683,0.0,0.0
520,129.75,35.657,39.4437,149.286,98.8165,94.4088,0.00116395,0.0551128,21.0187,-360.53,0.402112,0.0,0.0
528,131.75,34.7112,39.3168,150.588,98.837,94.2815,0.00115286,0.0549227,21.0187,-360.53,0.415826,0.0,0.0
536,133.75,34.5773,38.0001,146.278,98.8503,94.1636,0.00120019,0.054901,21.0187,-360.53,0.428036,0.0,0.0
544,135.75,34.7677,38.0591,152.53,98.8455,94.0758,0.00126731,0.0547086,21.0187,-360.53,0.435827,0.0,0.0
552,137.75,33.8715,37.6656,147.958,98.8628,94.346,0.00133231,0.0547044,21.0187,-360.54,0.412096,0.0,0.0
560,139.75,33.9257,37.0867,152.075,98.876,94.0843,0.00138533,0.0546465,21.0187,-360.52,0.437756,0.0,0.0
568,141.75,33.2454,37.0685,151.328,98.8941,94.2785,0.00132825,0.0545999,21.0187,-360.53,0.421191,0.0,0.0
576,143.75,33.1513,36.2021,149.718,98.907,94.2709,0.00118273,0.0545279,21.0187,-360.53,0.423051,0.0,0.0
584,145.75,33.1111,36.3104,153.418,98.9367,94.0979,0.00102618,0.0545705,21.0187,-360.54,0.441892,0.0,0.0
592,147.75,32.1385,35.3328,146.673,98.9608,94.1992,0.000962398,0.0543669,21.0187,-360.54,0.434552,0.0,0.0
600,149.75,31.5234,34.9497,148.845,98.9641,94.2777,0.000980574,0.054237,21.0173,-360.54,0.4275,0.0,0.0
608,151.75,31.3531,34.3775,152.688,98.9898,94.206,0.000942108,0.0541581,21.0168,-360.54,0.436492,0.0,0.0
616,153.75,30.9961,33.6306,146.106,99.0163,94.2989,0.000926516,0.0540967,21.0173,-360.55,0.43017,0.0,0.0
624,155.75,30.9098,33.9046,150.091,99.0344,94.237,0.000937498,0.0541602,21.0181,-360.55,0.437568,0.0,0.0
632,157.75,30.5635,33.1694,149.229,99.0517,94.223,0.000925825,0.0544187,21.018,-360.52,0.440415,0.0,0.0
640,159.75,30.1659,33.2311,150.544,99.0714,94.3137,0.000989849,0.0543345,21.017,-360.54,0.433683,0.0,0.0
648,161.75,29.8084,32.0662,147.446,99.0927,94.5169,0.00108807,0.0544359,21.0166,-360.53,0.416614,0.0,0.0
656,163.75,29.6327,32.6115,150.007,99.1204,94.2938,0.00117802,0.0546057,21.0165,-360.54,0.439906,0.0,0.0
664,165.75,29.5012,32.3334,149.618,99.151,94.4736,0.00126461,0.0547518,21.0159,-360.52,0.425831,0.0,0.0
672,167.75,29.8757,31.6509,151.95,99.1847,94.5233,0.00132075,0.0549199,21.0148,-360.52,0.424203,0.0,0.0
680,169.75,28.7432,31.4168,148.48,99.2145,94.4792,0.00123249,0.0550513,21.0144,-360.54,0.430959,0.0,0.0
688,171.75,28.8387,31.0106,150.157,99.2603,94.5474,0.00101533,0.0552147,21.0142,-360.55,0.428661,0.0,0.0
696,173.75,28.4186,30.4441,148.541,99.2724,94.5801,0.000794711,0.0553424,21.0147,-360.54,0.426687,0.0,0.0
704,175.75,28.8036,30.8014,148.123,99.3069,94.6145,0.000857543,0.0553171,21.0156,-360.55,0.426555,0.0,0.0
712,177.75,28.6727,30.6031,148.171,99.3302,94.6229,0.000955183,0.0551651,21.016,-360.56,0.427833,0.0,0.0
720,179.75,28.2917,30.5772,148.173,99.356,94.7167,,0.0549202,,-360.56,0.42139,0.0,0.0
728,181.75,27.9174,29.6717,150.238,99.3825,94.6119,,,,-360.52,0.433495,0.0,0.0
736,183.75,28.0141,30.1801,145.31,99.4138,94.6857,,,,-360.54,0.429403,0.0,0.0
744,185.75,27.8947,29.4312,150.877,99.448,94.6365,,,,-360.54,0.437011,0.0,0.0
752,187.75,27.4211,28.8406,150.624,99.4918,94.6242,,,,-360.51,0.442038,0.0,0.0
758,189.25,27.6678,29.6316,153.263,99.5047,94.9466,,,,-360.5,0.41321,0.0,0.0