File: 01_Data/Rebond_Foam_Carpet_Pad/Cone/Rebond_Foam_Carpet_Pad_Cone_HF50Scan_220414_R3.csv
Names,Time,Stack TC,Smoke TC,Exh Press,Smoke Comp,Smoke Meas,CO Meter,CO2 Meter,O2 Meter,Sample Mass,Ext Coeff,Start Test,Flame Verif
Chan Gain,,500,500,1,1,1,1,1,1,1,1,1.0,1.0
Offset,,0,0,0.134258,0,0,0,0,0,0,0,0.0,0.0
Gain,,1,1,25.011,13.171,13.8983,1,1,1,1.00092,1.00459,1.0,1.0
Units,sec,C,C,Pa,%,%,%,%,%,g,/m,,
Baseline,,38.0836,38.8625,147.53,101.086,101.331,0.00115364,0.046437,21.0298,-833.5,-0.0212249,,
7,1.5,36.3747,36.9595,137.29,101.322,87.4371,0.00406109,0.0968081,20.9842,-353.674,1.2988,0.0,1.0
14,3.25,36.653,36.8209,129.989,101.352,78.1984,0.00743788,0.181388,20.835,-354.024,2.28542,0.0,1.0
21,5,37.3811,38.1808,124.422,101.367,74.2217,0.0110442,0.28154,20.6511,-354.204,2.74665,0.0,1.0
28,6.75,37.9831,37.7977,131.445,101.389,76.266,0.0140459,0.377467,20.5136,-354.454,2.5092,0.0,1.0
35,8.5,39.1188,39.622,124.859,101.403,73.2143,0.016808,0.458821,20.4066,-354.705,2.87022,0.0,1.0
42,10.25,40.7013,42.0918,127.417,101.43,74.706,0.0193601,0.520211,20.317,-354.975,2.69489,0.0,0.0
49,12,42.4444,43.2541,123.343,101.45,73.8896,0.0222138,0.57062,20.2046,-355.235,2.7934,0.0,0.0
56,13.75,44.6221,45.0486,110.715,101.471,71.3621,0.0243612,0.64987,20.1014,-355.585,3.102,0.0,0.0
63,15.5,46.9855,47.4201,112.653,101.491,67.0961,0.0277452,0.775371,19.8898,-355.946,3.6469,0.0,0.0
70,17.25,50.1817,51.0901,99.9789,101.516,67.5546,0.0315335,0.967567,19.5332,-356.426,3.58902,0.0,0.0
77,19,54.4986,55.3588,89.5838,101.539,68.0024,0.035174,1.2697,18.9958,-357.037,3.53284,0.0,0.0
84,20.75,59.8336,61.524,76.0242,101.564,75.0555,0.0377088,1.66472,18.5576,-357.647,2.66538,0.0,0.0
91,22.5,66.9501,69.4876,72.3437,101.588,78.0703,0.0386475,2.12442,18.0575,-358.298,2.32043,0.0,0.0
98,24.25,76.6957,80.2401,74.6694,101.603,76.7423,0.0381342,2.47904,17.555,-358.988,2.4729,0.0,0.0
105,26,85.3216,91.2324,80.7733,101.63,77.7662,0.0362402,2.65563,17.3584,-359.459,2.35841,0.0,0.0
112,27.75,93.3661,100.844,93.3697,101.652,76.8463,0.0330171,2.57218,17.4594,-359.909,2.46523,0.0,0.0
119,29.5,99.5418,108.194,107.303,101.678,76.5116,0.0287062,2.2484,17.8922,-360.21,2.50589,0.0,0.0
126,31.25,102.594,113.249,113.177,101.687,78.8707,0.023522,1.80235,18.5672,-360.4,2.23912,0.0,0.0
133,33,102.741,114.242,127.764,101.718,91.3473,0.0189044,1.31356,19.2862,-360.47,0.947647,0.0,0.0
140,34.75,101.805,113.333,139.01,101.749,98.9174,0.0154246,0.923533,19.8052,-360.52,0.248694,0.0,0.0
147,36.5,99.5699,111.446,138.476,101.756,102.087,0.013503,0.626506,20.2037,-360.51,-0.0286569,0.0,0.0
154,38.25,97.5289,108.918,142.294,101.762,104.49,0.0130573,0.429646,20.5032,-360.52,-0.233139,0.0,0.0
161,40,94.3097,106.506,144.944,101.779,103.442,0.0133042,0.297952,20.6955,-360.54,-0.142807,0.0,0.0
168,41.75,92.7372,103.596,142.568,101.816,102.973,0.0136697,0.217863,20.8084,-360.54,-0.0995524,0.0,0.0
175,43.5,90.3891,101.246,141.798,101.83,104.229,0.0138826,0.170203,20.8741,-360.54,-0.205198,0.0,0.0
182,45.25,88.8379,99.1541,139.037,101.836,103.088,0.0138642,0.141205,20.9075,-360.55,-0.107682,0.0,0.0
189,47,86.698,96.8593,146.027,101.858,103.963,0.0135866,0.124076,20.9257,-360.55,-0.180216,0.0,0.0
196,48.75,84.8464,94.4255,146.234,101.88,104.176,0.0131737,0.112435,20.9418,-360.58,-0.196366,0.0,0.0
203,50.5,82.0681,92.9894,143.544,101.889,103.674,0.01265,0.101105,20.9558,-360.58,-0.153091,0.0,0.0
210,52.25,79.3802,88.6163,144.18,101.914,104.01,0.0120773,0.0929238,20.9667,-360.59,-0.179407,0.0,0.0
217,54,77.8424,87.4852,143.398,101.928,102.26,0.0116005,0.0864285,20.976,-360.59,-0.0286969,0.0,0.0
224,55.75,76.2812,85.4522,145.398,101.915,103.414,0.0111529,0.0808109,20.983,-360.59,-0.128703,0.0,0.0
231,57.5,74.3721,84.3378,145.369,101.927,103.076,0.0107203,0.0755882,20.9899,-360.59,-0.0987732,0.0,0.0
238,59.25,73.2342,82.4667,144.917,101.942,103.991,0.0102094,0.0709108,20.9964,-360.61,-0.175392,0.0,0.0
245,61,71.8721,80.589,145.343,101.925,103.85,0.00976239,0.06693,21.001,-360.6,-0.164875,0.0,0.0
252,62.75,70.8049,79.4718,142.32,101.936,103.206,0.00912879,0.0636595,21.0046,-360.61,-0.109134,0.0,0.0
259,64.5,68.7032,78.1419,147.071,101.957,103.914,0.00856026,0.0614697,21.0092,-360.62,-0.167529,0.0,0.0
266,66.25,68.0403,76.5291,144.225,101.952,103.191,0.00808522,0.0592161,21.0133,-360.62,-0.106404,0.0,0.0
273,68,66.9851,75.6667,145.333,101.939,103.084,0.00778662,0.0574431,21.0147,-360.63,-0.0984194,0.0,0.0
280,69.75,65.3962,74.0413,146.77,101.942,103.594,0.00741653,0.0561276,21.0153,-360.63,-0.14165,0.0,0.0
287,71.5,65.1935,72.597,143.941,101.952,103.755,0.00698908,0.0550438,21.0168,-360.64,-0.154481,0.0,0.0
294,73.25,63.7932,71.4803,145.768,101.945,102.708,0.00660202,0.0539607,21.0181,-360.65,-0.0656422,0.0,0.0
301,75,62.4124,70.6796,148.419,101.938,103.519,0.00634492,0.0530724,21.0189,-360.65,-0.13554,0.0,0.0
308,76.75,61.7022,69.4368,146.17,101.928,102.936,0.00617378,0.052317,21.0203,-360.65,-0.0866936,0.0,0.0
315,78.5,60.9124,68.4127,143.547,101.929,104.28,0.00600677,0.051743,21.0212,-360.66,-0.200948,0.0,0.0
322,80.25,60.4431,67.6143,145.301,101.929,103.818,0.0057521,0.0513963,21.0216,-360.66,-0.161791,0.0,0.0
329,82,59.024,66.7601,144.301,101.915,103.951,0.00542766,0.0511427,21.0218,-360.66,-0.174307,0.0,0.0
336,83.75,58.5992,65.9124,142.936,101.906,103.597,0.005164,0.0508097,21.0231,-360.67,-0.145102,0.0,0.0
343,85.5,57.6816,64.9329,146.051,101.894,103.457,0.00504661,0.050511,21.0228,-360.68,-0.134161,0.0,0.0
350,87.25,56.5865,63.8078,147.083,101.899,103.147,0.00502,0.0501256,21.0224,-360.69,-0.10726,0.0,0.0
357,89,56.0436,63.2688,146.073,101.881,103.691,0.00494366,0.0498307,21.0222,-360.69,-0.155227,0.0,0.0
364,90.75,55.3552,61.972,144.861,101.861,103.959,0.00476736,0.0496346,21.0232,-360.69,-0.179647,0.0,0.0
371,92.5,54.625,60.9954,145.4,101.856,103.498,0.00452899,0.0493746,21.0248,-360.7,-0.140861,0.0,0.0
378,94.25,54.071,60.9859,143.176,101.841,102.875,0.00431491,0.0491738,21.0256,-360.71,-0.0890088,0.0,0.0
385,96,53.3772,60.1283,144.943,101.839,103.642,0.00422141,0.0489334,21.0259,-360.71,-0.154663,0.0,0.0
392,97.75,53.1434,59.3585,143.222,101.823,102.758,0.00424302,0.0487962,21.0261,-360.71,-0.0805405,0.0,0.0
399,99.5,52.6426,58.7269,143.041,101.814,103.341,0.00425522,0.0486602,21.0262,-360.72,-0.131176,0.0,0.0
406,101.25,52.0105,57.8492,147.489,101.801,102.234,0.00415614,0.0484381,21.0262,-360.73,-0.0374183,0.0,0.0
413,103,51.2533,57.707,141.94,101.801,102.958,0.00396676,0.0480926,21.0262,-360.73,-0.0996406,0.0,0.0
420,104.75,50.7703,56.7192,144.43,101.778,103.123,0.00373827,0.0479117,21.0262,-360.74,-0.1157,0.0,0.0
427,106.5,50.4415,55.7328,144.656,101.761,103.241,0.00361717,0.0479338,21.0262,-360.74,-0.127232,0.0,0.0
434,108.25,49.9825,55.2782,141.606,101.742,102.638,0.00360658,0.0478962,21.0275,-360.75,-0.077305,0.0,0.0
441,110,49.4388,55.2368,144.959,101.738,103.517,0.00359502,0.0478535,21.028,-360.74,-0.152787,0.0,0.0
448,111.75,49.2505,54.3382,141.92,101.726,103.541,0.00348822,0.0476393,21.029,-360.74,-0.155783,0.0,0.0
455,113.5,49.2955,54.1411,147.71,101.704,103.492,0.00332653,0.047454,21.03,-360.76,-0.153616,0.0,0.0
462,115.25,48.5844,53.695,142.564,101.668,103.635,0.00305345,0.0472247,21.0302,-360.75,-0.168914,0.0,0.0
469,117,47.8142,53.1611,143.724,101.659,102.769,0.00284662,0.0471464,21.0302,-360.75,-0.0956892,0.0,0.0
476,118.75,48.2028,52.435,143.573,101.647,102.613,0.00275233,0.0471009,21.0302,-360.76,-0.0833784,0.0,0.0
483,120.5,47.6604,52.1185,142.865,101.627,102.133,0.00275871,0.0471337,21.0303,-360.75,-0.0437899,0.0,0.0
490,122.25,47.6672,51.7842,147.293,101.585,102.409,0.00276285,0.047093,21.0303,-360.77,-0.0711722,0.0,0.0
497,124,46.9949,51.3605,142.888,101.546,102.266,0.00272089,0.0468594,21.0303,-360.76,-0.0622101,0.0,0.0
504,125.75,46.5428,51.1782,147.287,101.533,102.042,0.00259988,0.0467918,21.0303,-360.77,-0.0441146,0.0,0.0
511,127.5,46.5011,50.6349,147.384,101.506,102.186,0.00239438,0.0467481,21.0303,-360.77,-0.0588264,0.0,0.0
518,129.25,45.9561,50.2743,146.468,101.452,103.777,0.0021953,0.0466102,21.0303,-360.77,-0.199645,0.0,0.0
525,131,45.8249,49.8237,146.697,101.418,102.877,0.00206419,0.0466673,21.0303,-360.78,-0.125856,0.0,0.0
532,132.75,45.6024,49.7386,146.375,101.397,102.549,0.00195655,0.0466311,21.0303,-360.78,-0.0995429,0.0,0.0
539,134.5,45.5514,49.5796,149.623,101.372,103.265,0.00189615,0.0465402,21.0307,-360.77,-0.163089,0.0,0.0
546,136.25,45.3524,48.7078,145.588,101.344,103.264,0.0019107,0.0463155,21.0317,-360.77,-0.165389,0.0,0.0
553,138,44.6563,49.0099,148.701,101.281,103.117,0.00202454,0.0461375,21.0326,-360.77,-0.158312,0.0,0.0
560,139.75,44.7044,48.3736,143.853,101.249,102.029,0.00223014,0.0460718,21.0333,-360.79,-0.0676427,0.0,0.0
567,141.5,44.6071,48.059,146.458,101.216,102.386,0.00237337,0.0460584,21.0336,-360.79,-0.101303,0.0,0.0
574,143.25,44.6882,47.9862,137.767,101.176,102.039,0.00239786,0.0460656,21.0338,-360.79,-0.0748208,0.0,0.0
581,145,44.4156,47.3688,143.937,101.121,102.694,0.00241171,0.0460682,21.0339,-360.79,-0.135994,0.0,0.0
588,146.75,44.0919,47.0418,149.584,101.075,102.928,0.00246597,0.0459997,21.0327,-360.79,-0.160054,0.0,0.0
595,148.5,44.0709,47.2058,140.84,101.037,102.169,0.00245635,0.045848,21.0321,-360.77,-0.0982155,0.0,0.0
602,150.25,44.0297,47.2139,140.632,101.004,101.681,0.00239101,0.0458195,21.0318,-360.8,-0.0588481,0.0,0.0
609,152,43.5145,46.4213,143.199,100.95,101.314,0.00235009,0.0456558,21.0317,-360.79,-0.0316927,0.0,0.0
616,153.75,43.2683,46.6435,144.826,100.916,101.8,0.00228957,0.0455095,21.0317,-360.8,-0.0768541,0.0,0.0
623,155.5,43.1094,46.4294,146.081,100.872,102.059,0.00215494,0.0455649,21.0316,-360.78,-0.103121,0.0,0.0
630,157.25,43.0132,46.1651,143.655,100.836,101.744,0.00203308,0.0460276,21.0308,-360.78,-0.0789923,0.0,0.0
637,159,43.1734,45.7649,145.061,100.813,102.377,0.00194838,0.0469507,21.03,-360.79,-0.135671,0.0,0.0
644,160.75,42.4477,45.8252,141.762,100.772,102.148,,0.04812,,-360.79,-0.119517,0.0,0.0
651,162.5,42.9948,45.4768,144.588,100.716,101.17,,,,-360.79,-0.0396941,0.0,0.0
658,164.25,42.4053,45.4568,142.151,100.693,102.78,,,,-360.8,-0.180799,0.0,0.0
665,166,42.4271,44.6429,142.518,100.667,102.372,,,,-360.81,-0.147961,0.0,0.0
672,167.75,42.3471,44.4618,143.57,100.641,101.915,,,,-360.8,-0.110874,0.0,0.0
679,169.5,42.1637,45.3538,145.715,100.603,101.783,,,,-360.81,-0.102768,0.0,0.0
682,170.25,42.2098,44.5268,144.615,100.589,101.419,,,,-360.81,-0.0724394,0.0,0.0