File: 01_Data/Rebond_Foam_Carpet_Pad/Cone/Rebond_Foam_Carpet_Pad_Cone_HF50Scan_220414_R1.csv
Names,Time,Stack TC,Smoke TC,Exh Press,Smoke Comp,Smoke Meas,CO Meter,CO2 Meter,O2 Meter,Sample Mass,Ext Coeff,Start Test,Flame Verif
Chan Gain,,500,500,1,1,1,1,1,1,1,1,1.0,1.0
Offset,,0,0,0.134258,0,0,0,0,0,0,0,0.0,0.0
Gain,,1,1,25.011,13.171,13.8983,1,1,1,1.00092,1.00459,1.0,1.0
Units,sec,C,C,Pa,%,%,%,%,%,g,/m,,
Baseline,,29.4139,30.27,150.589,101.544,100.573,0.00142752,0.0475958,21.0264,-832.359,0.0847568,,
8,1.75,27.3933,29.177,144.172,101.548,89.2775,0.00380001,0.114801,20.9097,-350.491,1.13484,0.0,1.0
16,3.75,27.9809,29.1519,134.348,101.553,81.7706,0.0071948,0.193695,20.7774,-350.671,1.90925,0.0,1.0
24,5.75,28.8394,29.6827,132.057,101.549,78.3414,0.0108817,0.283436,20.6398,-350.911,2.28643,0.0,1.0
32,7.75,30.087,30.5261,135.715,101.55,77.1181,0.0139536,0.36953,20.5188,-351.151,2.42522,0.0,1.0
40,9.75,31.818,31.7309,131.83,101.558,82.1133,0.0161582,0.440372,20.4279,-351.432,1.87285,0.0,0.0
48,11.75,34,34.2202,135.512,101.548,82.1463,0.0174361,0.486104,20.3679,-351.682,1.86847,0.0,0.0
56,13.75,35.4436,36.4367,127.764,101.558,79.2702,0.0182799,0.511719,20.3279,-351.972,2.18337,0.0,0.0
64,15.75,36.6556,37.87,130.568,101.552,75.4691,0.0192881,0.536875,20.2752,-352.232,2.61591,0.0,0.0
72,17.75,39.3496,39.9786,120.205,101.554,75.0712,0.0209719,0.596018,20.2003,-352.543,2.66263,0.0,0.0
80,19.75,40.8956,42.2424,111.555,101.548,72.5849,0.0229339,0.716818,20.0647,-352.933,2.9589,0.0,0.0
88,21.75,44.4526,44.9424,106.644,101.544,71.6221,0.0255104,0.890456,19.7557,-353.403,3.07623,0.0,0.0
96,23.75,48.5007,49.6207,94.413,101.54,72.5514,0.0282478,1.17384,19.2865,-353.974,2.96231,0.0,0.0
104,25.75,54.3733,55.392,90.7203,101.531,76.0306,0.0306528,1.51601,18.7757,-354.624,2.54877,0.0,0.0
112,27.75,61.7482,64.1576,85.4522,101.535,78.7719,0.0319564,1.86377,18.2609,-355.295,2.23696,0.0,0.0
120,29.75,70.2574,73.8651,79.4277,101.526,80.6971,0.0319759,2.15418,17.9199,-355.936,2.02337,0.0,0.0
128,31.75,79.4311,84.0749,84.795,101.515,79.4191,0.0304817,2.24177,17.823,-356.526,2.16313,0.0,0.0
136,33.75,86.5183,93.4242,94.7138,101.505,79.1256,0.0275777,2.12638,18.0967,-356.927,2.19489,0.0,0.0
144,35.75,91.4762,100.061,108.01,101.48,79.0747,0.0241486,1.79572,18.6796,-357.227,2.1984,0.0,0.0
152,37.75,93.6928,103.112,118.929,101.475,81.2221,0.0211448,1.39966,19.1521,-357.497,1.96179,0.0,0.0
160,39.75,93.9743,103.789,132.956,101.455,85.4288,0.0173582,1.02961,19.6252,-357.637,1.51513,0.0,0.0
168,41.75,93.2317,103.369,132.492,101.453,90.4897,0.013986,0.788729,19.9908,-357.767,1.00776,0.0,0.0
176,43.75,91.3571,101.077,135.318,101.438,96.3662,0.0109389,0.572492,20.3045,-357.807,0.452041,0.0,0.0
184,45.75,89.0571,98.7663,148.772,101.427,101.756,0.00957723,0.405344,20.538,-357.807,-0.0284999,0.0,0.0
192,47.75,86.7511,96.491,145.298,101.416,102.708,0.0097496,0.282442,20.711,-357.817,-0.111559,0.0,0.0
200,49.75,84.3197,93.9698,144.752,101.392,101.089,0.010575,0.203846,20.818,-357.827,0.0263219,0.0,0.0
208,51.75,81.7478,91.1013,145.711,101.373,101.897,0.0112891,0.155215,20.8814,-357.837,-0.0454407,0.0,0.0
216,53.75,79.6226,89.152,149.252,101.359,101.431,0.0118199,0.127114,20.9197,-357.847,-0.00625952,0.0,0.0
224,55.75,77.637,86.5295,148.486,101.347,101.634,0.0121449,0.109638,20.9441,-357.857,-0.0249405,0.0,0.0
232,57.75,74.737,84.329,147.368,101.33,101.57,0.0121023,0.0982571,20.9613,-357.877,-0.0207808,0.0,0.0
240,59.75,73.1417,81.7757,151.763,101.319,102.984,0.0117453,0.09049,20.9714,-357.877,-0.143636,0.0,0.0
248,61.75,71.2732,80.276,145.824,101.303,101.813,0.0113937,0.0850978,20.9781,-357.887,-0.0442186,0.0,0.0
256,63.75,69.938,78.2426,149.197,101.301,102.074,0.0111647,0.0807917,20.9846,-357.908,-0.0670134,0.0,0.0
264,65.75,68.125,76.338,148.153,101.289,101.509,0.0110028,0.0776264,20.9888,-357.918,-0.0191193,0.0,0.0
272,67.75,66.4663,74.7128,145.825,101.28,102.095,0.0106775,0.0749161,20.9916,-357.918,-0.0706623,0.0,0.0
280,69.75,64.8765,73.1613,148.049,101.28,102.68,0.010415,0.0719036,20.9959,-357.928,-0.120933,0.0,0.0
288,71.75,62.854,70.9078,147.073,101.26,101.474,0.0102506,0.0696284,20.9984,-357.9375,-0.0186509,0.0,0.0
296,73.75,61.7061,69.4909,146.483,101.252,101.857,0.0101312,0.0679274,21,-357.948,-0.0525136,0.0,0.0
304,75.75,60.393,68.0395,143.755,101.236,102.166,0.0100217,0.0664508,21.0017,-357.958,-0.0805516,0.0,0.0
312,77.75,58.8218,66.331,147.321,101.243,102.148,0.00995263,0.064389,21.0057,-357.958,-0.0784554,0.0,0.0
320,79.75,57.4225,64.9532,147.845,101.222,101.889,0.00980035,0.06212,21.0082,-357.958,-0.057853,0.0,0.0
328,81.75,56.411,64.1761,147.509,101.228,101.008,0.00938832,0.0602094,21.0103,-357.978,0.0191948,0.0,0.0
336,83.75,55.1421,62.3167,148.175,101.228,101.06,0.00893201,0.0586597,21.0122,-357.978,0.01468,0.0,0.0
344,85.75,54.4311,61.9192,146.957,101.226,101.646,0.00852126,0.0571847,21.0145,-357.998,-0.0365316,0.0,0.0
352,87.75,53.0018,59.9697,145.775,101.223,102.117,0.00799857,0.0560417,21.0159,-357.998,-0.0774619,0.0,0.0
360,89.75,52.9239,59.6201,152.627,101.216,102.232,0.00742937,0.0550718,21.0169,-357.998,-0.0880782,0.0,0.0
368,91.75,51.8562,58.1003,152.037,101.232,100.989,0.00693053,0.0542124,21.0179,-358.018,0.0211359,0.0,0.0
376,93.75,50.586,57.7527,148.323,101.231,101.614,0.00654181,0.0534084,21.0196,-358.018,-0.0332094,0.0,0.0
384,95.75,50.232,56.4298,147.533,101.24,101.505,0.00630105,0.05282,21.0214,-358.028,-0.0230186,0.0,0.0
392,97.75,49.7924,55.8385,152.412,101.243,101.486,0.00617159,0.0522457,21.0222,-358.038,-0.0211146,0.0,0.0
400,99.75,48.4855,55.0626,147.755,101.244,102.029,0.00595857,0.0519498,21.0235,-358.048,-0.0680624,0.0,0.0
408,101.75,48.0699,54.4395,147.687,101.246,101.69,0.00550764,0.0515594,21.0244,-358.048,-0.0386405,0.0,0.0
416,103.75,46.8966,53.3165,144.495,101.247,101.721,0.00522303,0.0511012,21.0244,-358.058,-0.0411463,0.0,0.0
424,105.75,46.9822,52.4191,146.875,101.262,101.241,0.00514035,0.0507639,21.0244,-358.058,0.00180457,0.0,0.0
432,107.75,46.3653,51.9492,147.826,101.276,101.368,0.00501153,0.0504082,21.025,-358.058,-0.00796638,0.0,0.0
440,109.75,45.49,51.3282,149.768,101.261,101.357,0.0047454,0.0500638,21.0259,-358.078,-0.00841063,0.0,0.0
448,111.75,44.9266,50.1968,144.421,101.291,102.067,0.0045322,0.0499342,21.0263,-358.068,-0.0672669,0.0,0.0
456,113.75,44.5956,49.5004,146.948,101.304,101.171,0.00427369,0.0497114,21.0265,-358.048,0.011571,0.0,0.0
464,115.75,43.7778,49.1437,150.416,101.319,101.748,0.0040992,0.0493477,21.0266,-358.058,-0.0372727,0.0,0.0
472,117.75,43.6488,48.9459,146.013,101.301,101.74,0.00397758,0.0490938,21.0266,-358.068,-0.0380782,0.0,0.0
480,119.75,42.6928,47.9501,146.41,101.319,101.681,0.00389687,0.0488522,21.0266,-358.088,-0.031397,0.0,0.0
488,121.75,42.4573,46.9713,145.74,101.343,101.265,0.00380712,0.0487329,21.0274,-358.088,0.0068361,0.0,0.0
496,123.75,42.5082,46.7984,146.501,101.335,101.29,0.00373935,0.0485425,21.0282,-358.088,0.00392274,0.0,0.0
504,125.75,41.7258,46.401,147.735,101.333,101.24,0.00369534,0.0483295,21.0287,-358.088,0.00806834,0.0,0.0
512,127.75,41.287,45.82,146.13,101.339,101.369,0.003605,0.0481448,21.0288,-358.098,-0.00266079,0.0,0.0
520,129.75,41.2698,45.223,147.384,101.339,100.811,0.00340341,0.0482813,21.0289,-358.108,0.0460688,0.0,0.0
528,131.75,40.8123,44.813,147.192,101.341,102.145,0.00321389,0.04851,21.0289,-358.108,-0.0695955,0.0,0.0
536,133.75,40.2484,45.1679,149.847,101.344,101.403,0.00313736,0.0485141,21.029,-358.108,-0.00518942,0.0,0.0
544,135.75,40.3025,43.9961,146.247,101.353,101.441,0.00308571,0.048259,21.0291,-358.108,-0.0076683,0.0,0.0
552,137.75,40.1946,43.6778,147.998,101.355,100.942,0.00306278,0.0481157,21.0283,-358.118,0.0359461,0.0,0.0
560,139.75,39.423,43.5933,152.995,101.354,101.443,0.00306409,0.0479715,21.0277,-358.118,-0.00767356,0.0,0.0
568,141.75,39.5669,42.7918,150.158,101.366,101.528,0.0029946,0.0478979,21.0275,-358.128,-0.0140259,0.0,0.0
576,143.75,39.1622,42.241,146.316,101.358,101.599,0.0028225,0.0477434,21.0287,-358.128,-0.0209445,0.0,0.0
584,145.75,39.2297,42.8986,152.198,101.376,102.335,0.00262614,0.0476575,21.029,-358.128,-0.0829325,0.0,0.0
592,147.75,38.5193,42.0802,146.362,101.381,101.492,0.00245078,0.0474836,21.0289,-358.138,-0.00964255,0.0,0.0
600,149.75,37.8989,41.3695,145.615,101.389,101.097,0.00240336,0.0473583,21.0288,-358.138,0.0253394,0.0,0.0
608,151.75,37.7885,41.168,144.508,101.405,101.313,0.0024634,0.0472796,21.0288,-358.138,0.00804525,0.0,0.0
616,153.75,38.0424,41.0491,144.957,101.423,101.548,0.00252622,0.0471283,21.0278,-358.138,-0.0109046,0.0,0.0
624,155.75,37.0171,40.4504,147.593,101.449,101.269,0.00255672,0.0470972,21.027,-358.138,0.0156176,0.0,0.0
632,157.75,37.7489,40.7823,149.354,101.45,100.579,0.00256352,0.0469465,21.0267,-358.148,0.0760141,0.0,0.0
640,159.75,36.8199,40.0822,144.49,101.464,102.75,0.00246487,0.0469634,21.0284,-358.158,-0.11104,0.0,0.0
648,161.75,37.0863,40.0276,144.819,101.467,101.989,0.0023025,0.0469033,21.0299,-358.158,-0.0452222,0.0,0.0
656,163.75,36.6893,39.9952,146.613,101.481,102.024,0.00217713,0.0469061,21.0313,-358.148,-0.0470079,0.0,0.0
664,165.75,37.2539,39.6346,150.301,101.504,102.211,0.00214417,0.0468283,21.031,-358.168,-0.0611231,0.0,0.0
672,167.75,37.0201,39.1316,148.367,101.501,102.832,0.00214905,0.0468307,21.0317,-358.168,-0.114775,0.0,0.0
680,169.75,36.7535,39.6376,145.963,101.509,102.592,0.00218417,0.0467704,21.032,-358.168,-0.0935523,0.0,0.0
688,171.75,36.3998,39.2788,150.167,101.518,100.413,0.00227239,0.0467725,21.0322,-358.168,0.0964201,0.0,0.0
696,173.75,36.3132,38.9853,152.174,101.535,101.106,0.00228406,0.0467078,21.0322,-358.168,0.037236,0.0,0.0
704,175.75,36.514,38.7949,144.535,101.522,101.454,0.00221102,0.0465522,21.0323,-358.178,0.00589238,0.0,0.0
712,177.75,35.8131,38.4819,144.837,101.541,101.452,0.00206485,0.0464741,21.0323,-358.178,0.00768,0.0,0.0
720,179.75,36.1156,38.3407,147.042,101.54,101.459,,0.0463124,,-358.178,0.00705758,0.0,0.0
728,181.75,35.7856,38.048,146.091,101.551,102.069,,0.0462656,,-358.178,-0.0448537,0.0,0.0
736,183.75,36.0503,38.004,151.695,101.544,101.192,,,,-358.178,0.0306454,0.0,0.0
744,185.75,35.4913,37.6515,150.052,101.544,101.069,,,,-358.178,0.0412907,0.0,0.0
752,187.75,35.6503,38.1927,151.618,101.549,101.843,,,,-358.188,-0.0254167,0.0,0.0
760,189.75,35.3851,37.4872,145.814,101.535,100.793,,,,-358.208,0.0645974,0.0,0.0
762,190.25,35.706,37.4661,151.872,101.515,101.065,,,,-358.198,0.0391846,0.0,0.0