File: 01_Data/Rebond_Foam_Carpet_Pad/Cone/Rebond_Foam_Carpet_Pad_Cone_HF75Scalar_220414_R1.csv
LABORATORY,FSRI
TEST IDENT,Rebond_Foam_HF75_1
OPERATOR,Dow
MATERIAL,Rebond Foam Carpet Padding
ORIENTATION,Horizontal
HEAT FLUX,75
SURF AREA,0.01
C FACTOR,0.0401286
SPEC HOLDER DIFF,-566
SPECIMEN MASS,8.54
SCAN TIME,0.25
O2 DELAY TIME,11
CO DELAY TIME,11
CO2 DELAY TIME,8
FLOW FACTOR,1
SCAN COUNT,637
TIME TO IGN,0.75
END OF TEST SCAN,157
END OF TEST TIME,39.25
TEST STATUS,1
PRE TEST CMT,Dimensions: 101.18 x 98.88 x 8.86 mm