File: 01_Data/Rebond_Foam_Carpet_Pad/Cone/Rebond_Foam_Carpet_Pad_Cone_HF25Scan_220413_R3.csv
Names,Time,Stack TC,Smoke TC,Exh Press,Smoke Comp,Smoke Meas,CO Meter,CO2 Meter,O2 Meter,Sample Mass,Ext Coeff,Start Test,Flame Verif
Chan Gain,,500,500,1,1,1,1,1,1,1,1,1.0,1.0
Offset,,0,0,0.132909,0,0,0,0,0,0,0,0.0,0.0
Gain,,1,1,25.011,13.171,13.8983,1,1,1,1.00092,1.00459,1.0,1.0
Units,sec,C,C,Pa,%,%,%,%,%,g,/m,,
Baseline,,22.8887,23.0155,151.54,100.1,95.2568,0.000619318,0.053875,21.02,-833.968,0.437069,,
8,1.75,21.2972,21.7415,152.328,100.268,95.0102,0.000671437,0.0578775,21.0147,-353.584,0.474682,0.0,0.0
16,3.75,21.16,20.9021,153.862,100.283,93.6962,0.000774043,0.0576865,21.0155,-353.624,0.598713,0.0,0.0
24,5.75,21.6773,21.6879,152.407,100.305,92.3351,0.00101748,0.0587649,21.0125,-353.624,0.729569,0.0,0.0
32,7.75,21.4204,21.895,145.768,100.313,92.1048,0.00180238,0.0772814,20.977,-353.804,0.752319,0.0,1.0
40,9.75,21.7678,21.4797,139.601,100.355,86.3365,0.0032524,0.134317,20.874,-353.864,1.32592,0.0,1.0
48,11.75,22.6708,22.7254,137.608,100.368,84.027,0.0052024,0.211888,20.7633,-354.064,1.56598,0.0,1.0
56,13.75,22.9997,22.5425,136.744,100.387,82.9594,0.00720895,0.277464,20.6798,-354.234,1.68036,0.0,0.0
64,15.75,24.7068,24.403,133.046,100.403,80.3416,0.00897376,0.330074,20.6048,-354.374,1.96425,0.0,0.0
72,17.75,25.9259,25.5364,134.031,100.424,77.7552,0.0103023,0.369561,20.5487,-354.615,2.25444,0.0,0.0
80,19.75,27.2941,26.9729,137.283,100.438,77.9168,0.0112539,0.395535,20.5144,-354.805,2.23738,0.0,0.0
88,21.75,28.5142,28.5623,135.625,100.455,78.257,0.012104,0.410833,20.4935,-354.965,2.20055,0.0,0.0
96,23.75,29.8011,29.7093,130.041,100.472,75.9479,0.0128709,0.422242,20.4776,-355.185,2.46595,0.0,0.0
104,25.75,30.4614,30.6959,130.541,100.495,78.1441,0.0139506,0.439951,20.4492,-355.425,2.21678,0.0,0.0
112,27.75,31.8547,31.9207,128.543,100.509,77.8672,0.0149541,0.468146,20.4063,-355.695,2.24927,0.0,0.0
120,29.75,33.3538,33.754,126.051,100.527,78.3456,0.0156676,0.507703,20.3293,-355.956,2.19688,0.0,0.0
128,31.75,34.8764,35.27,122.49,100.552,82.9654,0.0161116,0.562648,20.2291,-356.186,1.69418,0.0,0.0
136,33.75,37.1705,37.7469,122.299,100.557,79.5154,0.0163937,0.643056,20.1173,-356.516,2.06892,0.0,0.0
144,35.75,39.8893,40.311,105.92,100.58,81.7833,0.0165561,0.73184,19.9842,-356.847,1.82307,0.0,0.0
152,37.75,42.6247,43.4183,118.284,100.591,80.4693,0.0164168,0.82533,19.8184,-357.197,1.96675,0.0,0.0
160,39.75,46.4949,46.8609,102.444,100.611,84.5071,0.0159141,0.936427,19.6411,-357.597,1.5371,0.0,0.0
168,41.75,50.0309,51.4469,99.6477,100.612,85.8733,0.0151775,1.0391,19.5011,-357.998,1.39588,0.0,0.0
176,43.75,53.9489,55.4468,102.385,100.627,87.2174,0.0144095,1.12035,19.3889,-358.398,1.26025,0.0,0.0
184,45.75,57.7371,60.2382,105.278,100.638,89.6494,0.0137854,1.18435,19.3002,-358.838,1.01888,0.0,0.0
192,47.75,61.7204,64.8201,101.217,100.645,88.2468,0.0133404,1.22603,19.2592,-359.269,1.15847,0.0,0.0
200,49.75,65.7679,68.9509,106.354,100.659,88.6777,0.0129545,1.22944,19.2688,-359.579,1.11681,0.0,0.0
208,51.75,68.6127,72.8794,111.103,100.657,89.0315,0.0125954,1.17283,19.3955,-359.929,1.08152,0.0,0.0
216,53.75,70.7007,75.4138,118.988,100.681,86.1405,0.0122751,1.06204,19.5682,-360.17,1.37449,0.0,0.0
224,55.75,71.6917,77.355,125.314,100.684,84.1063,0.0122401,0.925174,19.7546,-360.36,1.58537,0.0,0.0
232,57.75,72.7503,77.5132,128.405,100.701,77.3472,0.0121945,0.788807,19.9666,-360.54,2.32511,0.0,0.0
240,59.75,72.2755,77.7584,138.923,100.71,80.7675,0.0112445,0.651177,20.2005,-360.67,1.94458,0.0,0.0
248,61.75,70.8288,77.1345,140.356,100.717,87.1623,0.00958222,0.514807,20.3916,-360.69,1.27378,0.0,0.0
256,63.75,69.4626,75.3433,142.438,100.716,93.6856,0.00779574,0.388035,20.5648,-360.72,0.637633,0.0,0.0
264,65.75,67.7136,74.1597,143.886,100.732,96.1134,0.00646872,0.286954,20.7114,-360.7,0.413586,0.0,0.0
272,67.75,66.4804,71.6914,148.813,100.723,96.2232,0.00545891,0.213983,20.8155,-360.71,0.402712,0.0,0.0
280,69.75,63.8787,70.9126,153.238,100.72,95.9827,0.00462864,0.167669,20.8749,-360.72,0.424517,0.0,0.0
288,71.75,62.4992,68.0796,152.381,100.699,96.0336,0.0039879,0.135226,20.9129,-360.73,0.418052,0.0,0.0
296,73.75,60.5787,66.8008,147.062,100.705,95.8373,0.00359105,0.112817,20.942,-360.73,0.436618,0.0,0.0
304,75.75,58.9522,64.9938,151.813,100.687,95.9289,0.00331271,0.0966514,20.9633,-360.73,0.426615,0.0,0.0
312,77.75,57.2144,63.0269,148.347,100.682,95.962,0.00299504,0.0849506,20.9801,-360.73,0.423119,0.0,0.0
320,79.75,55.8839,60.9997,149.33,100.649,95.9302,0.00270565,0.0766478,20.9908,-360.73,0.423156,0.0,0.0
328,81.75,53.8437,59.5892,150.948,100.638,95.9174,0.00237793,0.0708892,20.9986,-360.73,0.423374,0.0,0.0
336,83.75,52.3325,57.7881,149.763,100.614,95.7936,0.00209855,0.0671912,21.0031,-360.74,0.432683,0.0,0.0
344,85.75,50.9916,57.2897,150.912,100.596,95.8559,0.00180758,0.0648111,21.0069,-360.72,0.425294,0.0,0.0
352,87.75,49.8416,56.0319,149.055,100.565,95.9123,0.00146423,0.0632235,21.0087,-360.71,0.417434,0.0,0.0
360,89.75,49.1732,54.4549,149.851,100.558,95.8475,0.001165,0.0621834,21.0094,-360.72,0.422799,0.0,0.0
368,91.75,48.0194,52.9539,149.877,100.529,95.6252,0.00103564,0.0616145,21.0108,-360.73,0.440685,0.0,0.0
376,93.75,46.8696,52.3774,147.533,100.513,95.7075,0.00105928,0.0612806,21.0118,-360.72,0.431731,0.0,0.0
384,95.75,45.8676,50.9436,152.811,100.494,95.8033,0.00112267,0.0609737,21.0122,-360.73,0.421253,0.0,0.0
392,97.75,44.7893,49.9321,148.361,100.461,95.6748,0.00117944,0.060584,21.0121,-360.72,0.430122,0.0,0.0
400,99.75,43.8042,48.7048,149.113,100.439,95.643,0.00119394,0.0599526,21.012,-360.72,0.431182,0.0,0.0
408,101.75,42.708,47.7749,145.554,100.418,95.6078,0.00117042,0.0593527,21.012,-360.74,0.432593,0.0,0.0
416,103.75,42.1915,46.7371,150.812,100.391,95.7397,0.00107437,0.0588564,21.0132,-360.74,0.418044,0.0,0.0
424,105.75,41.3288,45.2426,148.102,100.362,95.6142,0.00103353,0.0584128,21.014,-360.74,0.427032,0.0,0.0
432,107.75,40.497,45.25,148.825,100.354,95.6405,0.00105026,0.0578913,21.0146,-360.76,0.423903,0.0,0.0
440,109.75,40.0259,44.5781,148.382,100.319,95.4381,0.0010407,0.0572853,21.0149,-360.75,0.439492,0.0,0.0
448,111.75,39.409,43.834,149.451,100.298,95.4653,0.000951062,0.0567469,21.0164,-360.76,0.435149,0.0,0.0
456,113.75,38.7521,42.7044,149.169,100.277,95.6778,0.000854867,0.0562073,21.017,-360.76,0.413756,0.0,0.0
464,115.75,37.7774,42.0319,149.229,100.25,95.6362,0.000837403,0.0556676,21.0173,-360.75,0.415218,0.0,0.0
472,117.75,37.5415,41.4726,151.114,100.197,95.4895,0.000873257,0.0553433,21.0165,-360.75,0.42405,0.0,0.0
480,119.75,36.4443,40.8087,147.802,100.17,95.3427,0.00087275,0.0550414,21.017,-360.76,0.435198,0.0,0.0
488,121.75,35.796,40.3229,149.753,100.126,95.2757,0.000898934,0.0547096,21.0167,-360.76,0.437575,0.0,0.0
496,123.75,35.3006,39.5792,148.809,100.092,95.2723,0.00090256,0.0545278,21.0159,-360.75,0.434847,0.0,0.0
504,125.75,35.1209,39.2599,151.236,100.046,95.2693,0.000875595,0.0544293,21.0156,-360.75,0.431086,0.0,0.0
512,127.75,34.3915,38.2426,143.326,100.013,95.386,0.000897553,0.0543391,21.0154,-360.75,0.417436,0.0,0.0
520,129.75,33.9876,38.2235,156.152,99.9689,95.1336,0.000973121,0.0542549,21.0153,-360.76,0.436885,0.0,0.0
528,131.75,33.3681,36.9225,146.986,99.9376,95.0895,0.000941098,0.0542018,21.0153,-360.75,0.438208,0.0,0.0
536,133.75,33.1344,36.7643,150.861,99.9086,95.1455,0.00083467,0.0543318,21.0153,-360.75,0.430468,0.0,0.0
544,135.75,32.6311,36.2427,149.158,99.8697,95.1379,0.000817059,0.054363,21.0153,-360.77,0.427736,0.0,0.0
552,137.75,32.2025,35.3146,145.874,99.8407,95.1841,0.000871718,0.0543549,21.0153,-360.75,0.420901,0.0,0.0
560,139.75,32.0083,34.6861,149.006,99.7993,94.9288,0.000924224,0.0543323,21.0165,-360.76,0.440916,0.0,0.0
568,141.75,31.6575,34.8372,147.623,99.7543,95.0827,0.000995436,0.0542443,21.0182,-360.76,0.422659,0.0,0.0
576,143.75,31.9004,35.0527,149.478,99.7342,94.958,0.00103972,0.054136,21.0195,-360.77,0.432448,0.0,0.0
584,145.75,30.8124,34.11,147.371,99.7157,95.0827,0.00103965,0.0539938,21.02,-360.76,0.41925,0.0,0.0
592,147.75,31.2259,33.904,149.778,99.6932,94.9682,0.00110205,0.0539162,21.0197,-360.76,0.42788,0.0,0.0
600,149.75,30.691,33.3863,149.923,99.6502,94.919,0.00114592,0.053902,21.0183,-360.78,0.428645,0.0,0.0
608,151.75,30.1833,32.6119,145.75,99.6152,94.888,0.00113186,0.0539424,21.0177,-360.78,0.428427,0.0,0.0
616,153.75,29.9051,32.4735,146.872,99.5831,94.8261,0.00107519,0.0541469,21.0175,-360.77,0.431334,0.0,0.0
624,155.75,30.0131,32.3893,154.169,99.5364,94.846,0.00103554,0.0543395,21.0174,-360.76,0.425355,0.0,0.0
632,157.75,29.1275,31.6303,151.131,99.5047,94.8138,0.000979159,0.0544136,21.0174,-360.76,0.425539,0.0,0.0
640,159.75,29.1841,31.4062,149.695,99.4725,94.7014,0.000956518,0.0544442,21.0178,-360.77,0.433143,0.0,0.0
648,161.75,28.4844,31.3771,146.997,99.4343,94.7379,0.00103957,0.054351,21.0179,-360.78,0.426366,0.0,0.0
656,163.75,28.6625,31.4116,151.534,99.3982,94.6412,0.00115918,0.0542683,21.0177,-360.77,0.432159,0.0,0.0
664,165.75,28.1193,30.6836,150.046,99.3616,94.5033,0.00122437,0.0542084,21.0176,-360.77,0.441761,0.0,0.0
672,167.75,28.5139,30.481,145.04,99.333,94.5258,0.00120882,0.0540889,21.0175,-360.77,0.437133,0.0,0.0
680,169.75,28.1977,30.4793,151.376,99.2663,94.561,0.00127307,0.053872,21.0166,-360.76,0.427931,0.0,0.0
688,171.75,27.9224,30.2284,147.588,99.235,94.4317,0.001368,0.05372,21.0161,-360.78,0.437211,0.0,0.0
696,173.75,27.9787,29.771,149.642,99.1835,94.4155,0.00129438,0.0536196,21.0159,-360.77,0.434145,0.0,0.0
704,175.75,27.6555,29.9656,145.578,99.1554,94.4613,0.00117714,0.0537415,21.0158,-360.78,0.42737,0.0,0.0
712,177.75,27.9055,29.5595,149.558,99.1148,94.4575,0.00115616,0.0538624,21.0158,-360.76,0.424119,0.0,0.0
720,179.75,27.5662,29.3693,151.699,99.0718,94.4168,0.00129136,0.0538159,21.0159,-360.76,0.424094,0.0,0.0
728,181.75,27.2431,29.0349,148.626,99.0416,94.3405,0.00144985,0.0537448,21.0163,-360.77,0.428539,0.0,0.0
736,183.75,27.1371,28.4428,148.921,99.001,94.293,0.00158891,0.0535112,21.0165,-360.77,0.429365,0.0,0.0
744,185.75,26.7664,28.36,153.762,98.9737,94.301,0.0016528,0.053608,21.0182,-360.78,0.426179,0.0,0.0
752,187.75,26.9109,28.9472,151.035,98.956,94.3392,,0.0536821,,-360.78,0.421038,0.0,0.0
760,189.75,26.7952,28.6255,147.865,98.919,94.2713,,,,-360.78,0.424085,0.0,0.0
768,191.75,26.4401,28.1686,148.914,98.8925,94.1666,,,,-360.78,0.43152,0.0,0.0
776,193.75,26.4359,27.9716,149.5,98.8636,94.2446,,,,-360.78,0.42164,0.0,0.0
784,195.75,26.6163,28.4756,148.565,98.8499,94.1131,,,,-360.77,0.432724,0.0,0.0
788,196.75,25.8421,26.9429,148.184,98.8475,94.1835,,,,-360.77,0.42592,0.0,0.0