File: 01_Data/Rebond_Foam_Carpet_Pad/Cone/Rebond_Foam_Carpet_Pad_Cone_HF75Scan_220414_R1.csv
Names,Time,Stack TC,Smoke TC,Exh Press,Smoke Comp,Smoke Meas,CO Meter,CO2 Meter,O2 Meter,Sample Mass,Ext Coeff,Start Test,Flame Verif
Chan Gain,,500,500,1,1,1,1,1,1,1,1,1.0,1.0
Offset,,0,0,0.134258,0,0,0,0,0,0,0,0.0,0.0
Gain,,1,1,25.011,13.171,13.8983,1,1,1,1.00092,1.00459,1.0,1.0
Units,sec,C,C,Pa,%,%,%,%,%,g,/m,,
Baseline,,47.2105,49.0224,142.635,101.728,103.113,0.00139751,0.0464243,21.0244,-834.846,-0.119065,,
7,1.5,43.9673,46.0169,128.268,100.908,75.9471,0.00765768,0.144052,20.9013,-352.302,2.50418,0.0,1.0
14,3.25,44.9224,46.4736,122.798,100.875,67.1397,0.0141625,0.253012,20.6908,-352.613,3.58747,0.0,1.0
21,5,46.5503,47.9629,109.877,100.847,62.6006,0.0210448,0.428416,20.4069,-352.923,4.20192,0.0,1.0
28,6.75,47.1545,48.8906,112.132,100.815,64.4757,0.0263218,0.608695,20.1602,-353.333,3.93909,0.0,1.0
35,8.5,50.2971,50.8875,107.401,100.805,64.1614,0.0303307,0.754346,19.9472,-353.734,3.9812,0.0,0.0
42,10.25,53.9543,55.1203,104.889,100.796,68.589,0.0334041,0.874997,19.7681,-354.054,3.39242,0.0,0.0
49,12,56.0896,57.5678,108.781,100.773,62.1073,0.0368032,1.00074,19.5212,-354.474,4.26517,0.0,0.0
56,13.75,59.9802,62.2704,97.4715,100.737,58.0368,0.0417564,1.20059,19.2533,-355.035,4.85938,0.0,0.0
63,15.5,64.8166,66.8976,81.5633,100.725,60.222,0.0477014,1.50772,18.8218,-355.675,4.53266,0.0,0.0
70,17.25,70.4854,73.438,66.8794,100.711,66.7886,0.0549775,1.94439,18.1034,-356.546,3.61938,0.0,0.0
77,19,79.3401,83.0922,64.137,100.692,68.7235,0.0656867,2.65331,17.2136,-357.307,3.36606,0.0,0.0
84,20.75,89.7041,95.3341,58.3842,100.666,77.0299,0.0848621,3.42039,16.1699,-358.278,2.35827,0.0,0.0
91,22.5,101.425,110.158,52.9603,100.644,80.7806,0.0973386,4.08081,15.4365,-359.099,1.93741,0.0,0.0
98,24.25,114.709,127.001,66.4428,100.628,69.6867,0.0933011,4.31882,15.0811,-359.789,3.23781,0.0,0.0
105,26,124.938,141.344,83.6761,100.609,67.5461,0.0752308,3.8665,15.6132,-360.11,3.51106,0.0,0.0
112,27.75,129.479,148.765,113.248,100.572,81.6815,0.0555183,2.997,16.8437,-360.27,1.83334,0.0,0.0
119,29.5,129.408,150.182,126.882,100.543,89.761,0.038383,2.0688,18.0963,-360.34,0.999607,0.0,0.0
126,31.25,127.191,147.813,131.575,100.529,98.8245,0.0259697,1.36424,19.1348,-360.35,0.150716,0.0,0.0
133,33,124.234,144.926,135.882,100.536,101.806,0.017969,0.88235,19.847,-360.39,-0.110635,0.0,0.0
140,34.75,120.955,141.136,135.95,100.507,102.609,0.0130259,0.582085,20.2632,-360.4,-0.182396,0.0,0.0
147,36.5,118.11,137.279,137.063,100.475,102.832,0.0104686,0.403095,20.4921,-360.43,-0.204392,0.0,0.0
154,38.25,115.126,134.012,134.264,100.469,103.136,0.00868011,0.310105,20.6638,-360.45,-0.230871,0.0,0.0
161,40,112.197,130.262,140.09,100.462,102.48,0.00771314,0.240803,20.7693,-360.47,-0.175299,0.0,0.0
168,41.75,107.952,125.974,139.458,100.452,103.32,0.00709209,0.20002,20.8281,-360.47,-0.248067,0.0,0.0
175,43.5,105.798,123.27,139.047,100.456,103.784,0.00672328,0.174823,20.8647,-360.49,-0.287201,0.0,0.0
182,45.25,103.566,120.235,138.111,100.433,103.122,0.00657655,0.157505,20.89,-360.52,-0.232813,0.0,0.0
189,47,101.005,117.482,138.234,100.421,102.987,0.00648611,0.144638,20.9063,-360.51,-0.222338,0.0,0.0
196,48.75,98.4851,114.86,137.481,100.436,103.209,0.00643199,0.135585,20.9179,-360.53,-0.240029,0.0,0.0
203,50.5,96.5499,111.771,135.238,100.422,103.037,0.00639513,0.127052,20.9285,-360.55,-0.226514,0.0,0.0
210,52.25,94.7435,110.194,142.177,100.415,103.18,0.00635628,0.119704,20.94,-360.56,-0.239366,0.0,0.0
217,54,92.3123,107.853,140.324,100.418,103.436,0.00634651,0.112649,20.949,-360.56,-0.260935,0.0,0.0
224,55.75,90.6777,105.801,141.073,100.427,103.585,0.00640032,0.106489,20.9564,-360.6,-0.272833,0.0,0.0
231,57.5,88.6251,103.875,143.379,100.432,102.566,0.0065061,0.101413,20.9618,-360.58,-0.185273,0.0,0.0
238,59.25,87.0886,101.273,133.029,100.432,102.977,0.00656471,0.096247,20.9679,-360.62,-0.220516,0.0,0.0
245,61,85.8794,99.7417,137.765,100.44,103.029,0.00654253,0.0918884,20.9736,-360.61,-0.224237,0.0,0.0
252,62.75,84.1245,97.8236,141.006,100.454,102.619,0.00643668,0.0877518,20.9791,-360.63,-0.187853,0.0,0.0
259,64.5,82.4135,96.4465,139.493,100.469,102.666,0.00633248,0.0842872,20.9838,-360.63,-0.19059,0.0,0.0
266,66.25,82.0003,94.6954,137.739,100.478,102.375,0.00621986,0.0809064,20.9876,-360.65,-0.16484,0.0,0.0
273,68,80.1659,93.0107,137.018,100.495,102.218,0.00609598,0.0775218,20.9918,-360.65,-0.149804,0.0,0.0
280,69.75,78.533,91.383,139.423,100.503,102.239,0.00591565,0.0747597,20.994,-360.65,-0.150929,0.0,0.0
287,71.5,77.4473,89.4814,137.735,100.531,102.419,0.00568965,0.0723543,20.9954,-360.65,-0.163948,0.0,0.0
294,73.25,76.3108,88.773,138.623,100.532,103.027,0.00546735,0.0696661,20.9979,-360.67,-0.216054,0.0,0.0
301,75,75.0704,87.0837,140.278,100.557,103.387,0.0052335,0.0673289,21.0008,-360.68,-0.244583,0.0,0.0
308,76.75,73.7069,86.1044,138.16,100.572,102.938,0.00504134,0.0647638,21.0036,-360.68,-0.204875,0.0,0.0
315,78.5,73.0425,84.7183,142.978,100.589,102.589,0.00496505,0.0625228,21.006,-360.67,-0.173497,0.0,0.0
322,80.25,72.3072,82.9637,141.683,100.628,102.751,0.00495487,0.0603929,21.0079,-360.71,-0.183989,0.0,0.0
329,82,71.0675,82.1578,140.999,100.619,102.57,0.00490663,0.0586126,21.0103,-360.71,-0.169218,0.0,0.0
336,83.75,70.1599,80.5019,140.174,100.649,103.53,0.0046992,0.0568912,21.0122,-360.71,-0.248695,0.0,0.0
343,85.5,69.0979,79.9812,141.266,100.672,101.959,0.00444688,0.0557006,21.0149,-360.72,-0.111978,0.0,0.0
350,87.25,68.183,78.5694,139.839,100.704,101.912,0.00421997,0.0542618,21.0165,-360.73,-0.105094,0.0,0.0
357,89,67.408,77.5821,138.778,100.717,104.269,0.00406355,0.0530499,21.0172,-360.73,-0.30545,0.0,0.0
364,90.75,67.0597,76.2531,139.808,100.737,102.786,0.00396857,0.0520718,21.0188,-360.71,-0.177473,0.0,0.0
371,92.5,66.1871,75.9812,138.284,100.764,103.047,0.0038456,0.0512859,21.0195,-360.73,-0.197383,0.0,0.0
378,94.25,65.4786,74.4509,137.929,100.8,103.464,0.00359603,0.0505582,21.0218,-360.74,-0.229874,0.0,0.0
385,96,64.7533,74.0639,139.67,100.823,103.231,0.00336598,0.0498098,21.0231,-360.74,-0.208052,0.0,0.0
392,97.75,63.9805,72.9418,139.807,100.846,102.442,0.00318656,0.0490644,21.0248,-360.74,-0.138338,0.0,0.0
399,99.5,63.4534,72.3451,139.526,100.855,102.752,0.00304526,0.0484183,21.0257,-360.73,-0.164234,0.0,0.0
406,101.25,62.492,71.4824,140.355,100.893,103.6,0.00282041,0.0480823,21.0262,-360.74,-0.233348,0.0,0.0
413,103,62.1349,70.7651,139.621,100.934,102.74,0.00260803,0.0477486,21.0273,-360.75,-0.156297,0.0,0.0
420,104.75,61.5841,69.6861,137.515,100.947,103.657,0.00242543,0.0474245,21.0282,-360.75,-0.233444,0.0,0.0
427,106.5,61.5681,69.2196,137.185,100.968,102.948,0.00227626,0.0472107,21.0286,-360.76,-0.171159,0.0,0.0
434,108.25,61.0088,68.2683,140.619,101,103.66,0.00211422,0.0467535,21.0296,-360.76,-0.229066,0.0,0.0
441,110,60.1188,67.3915,140.406,101.035,103.798,0.00194444,0.0464442,21.0305,-360.77,-0.237726,0.0,0.0
448,111.75,59.7629,67.3627,140.433,101.054,103.507,0.00185378,0.0461269,21.0309,-360.77,-0.211413,0.0,0.0
455,113.5,59.7148,66.7037,142.16,101.076,103.586,0.00183946,0.0460041,21.0311,-360.76,-0.216164,0.0,0.0
462,115.25,58.6643,65.9876,140.263,101.108,103.096,0.00182118,0.0458796,21.0312,-360.75,-0.171551,0.0,0.0
469,117,58.503,64.7479,139.743,101.141,103.688,0.00175206,0.0458418,21.0301,-360.76,-0.219179,0.0,0.0
476,118.75,58.2553,64.5841,136.723,101.167,102.49,0.00166348,0.0457601,21.0295,-360.76,-0.114513,0.0,0.0
483,120.5,57.0923,64.0383,141.939,101.185,102.489,0.00166914,0.0456052,21.0303,-360.77,-0.112828,0.0,0.0
490,122.25,57.5861,64.0813,138.532,101.205,103.803,0.00167919,0.0454872,21.0308,-360.77,-0.223376,0.0,0.0
497,124,57.1328,63.3321,141.577,101.231,103.971,0.00161308,0.0453763,21.031,-360.78,-0.235313,0.0,0.0
504,125.75,56.9472,62.6638,139.926,101.272,102.973,0.00153696,0.0453402,21.0305,-360.78,-0.146784,0.0,0.0
511,127.5,56.3773,62.5287,140.244,101.271,103.364,0.00163041,0.0452702,21.0297,-360.78,-0.180257,0.0,0.0
518,129.25,56.2405,62.0192,138.627,101.288,103.935,0.00176805,0.045264,21.0293,-360.78,-0.227325,0.0,0.0
525,131,55.2617,61.6956,138.007,101.342,103.751,0.00172416,0.0452799,21.0291,-360.78,-0.206983,0.0,0.0
532,132.75,55.6721,60.6376,138.849,101.347,104.288,0.00144094,0.0451676,21.0293,-360.79,-0.252091,0.0,0.0
539,134.5,55.525,60.6204,141.493,101.366,102.868,0.00111485,0.0449781,21.0296,-360.79,-0.129598,0.0,0.0
546,136.25,54.5624,59.7248,143.302,101.377,103.294,0.000917875,0.0448864,21.0297,-360.8,-0.165129,0.0,0.0
553,138,54.9282,60.4236,136.658,101.398,102.743,0.000885824,0.0449086,21.0297,-360.79,-0.116077,0.0,0.0
560,139.75,54.6957,59.5415,139.162,101.428,103.44,0.00101167,0.0448656,21.0295,-360.8,-0.173132,0.0,0.0
567,141.5,54.2358,59.4123,138.549,101.433,103.574,0.0011502,0.0448009,21.0296,-360.8,-0.184053,0.0,0.0
574,143.25,54.0689,58.6853,137.269,101.444,104.198,0.0012298,0.0448175,21.0294,-360.8,-0.236106,0.0,0.0
581,145,53.5369,58.725,138.584,101.449,102.926,0.00128944,0.0446817,21.0287,-360.82,-0.127378,0.0,0.0
588,146.75,53.6432,58.5357,138.267,101.475,103.624,0.00135518,0.0444717,21.0284,-360.81,-0.184645,0.0,0.0
595,148.5,53.5597,58.4025,137.821,101.506,103.431,,0.044396,,-360.81,-0.165566,0.0,0.0
602,150.25,53.6321,57.5029,140.189,101.514,103.513,,0.0443351,,-360.82,-0.171841,0.0,0.0
609,152,53.386,57.3059,141.206,101.53,103.697,,,,-360.77,-0.186137,0.0,0.0
616,153.75,53.3158,56.975,139.172,101.549,103.579,,,,-360.78,-0.174434,0.0,0.0
623,155.5,52.6295,57.1727,137.824,101.559,103.037,,,,-360.78,-0.12736,0.0,0.0
630,157.25,51.7581,56.2866,139.127,101.588,103.422,,,,-360.78,-0.157691,0.0,0.0
637,159,51.9881,56.2559,134.325,101.579,104.567,,,,-360.77,-0.255499,0.0,0.0