File: 01_Data/Rebond_Foam_Carpet_Pad/Cone/Rebond_Foam_Carpet_Pad_Cone_HF50Scan_220414_R2.csv
Names,Time,Stack TC,Smoke TC,Exh Press,Smoke Comp,Smoke Meas,CO Meter,CO2 Meter,O2 Meter,Sample Mass,Ext Coeff,Start Test,Flame Verif
Chan Gain,,500,500,1,1,1,1,1,1,1,1,1.0,1.0
Offset,,0,0,0.134258,0,0,0,0,0,0,0,0.0,0.0
Gain,,1,1,25.011,13.171,13.8983,1,1,1,1.00092,1.00459,1.0,1.0
Units,sec,C,C,Pa,%,%,%,%,%,g,/m,,
Baseline,,34.5335,35.5237,148.229,100.501,100.349,0.00126309,0.0472457,21.0269,-833.061,0.0134107,,
7,1.5,33.8544,34.6997,134.398,101.579,85.0954,0.00517332,0.123351,20.8983,-352.453,1.5603,0.0,1.0
14,3.25,34.0847,34.979,130.389,101.576,81.2616,0.00893839,0.21556,20.747,-352.663,1.96626,0.0,1.0
21,5,35.7346,35.9924,125.243,101.555,79.7499,0.0128612,0.318811,20.5391,-352.903,2.12996,0.0,1.0
28,6.75,35.738,35.732,124.404,101.56,78.8953,0.0164578,0.43439,20.4049,-353.143,2.22536,0.0,1.0
35,8.5,37.724,38.0287,124.994,101.518,76.224,0.0193131,0.516991,20.3012,-353.413,2.52519,0.0,1.0
42,10.25,39.3398,40.1465,125.987,101.515,76.076,0.0212979,0.570856,20.2393,-353.724,2.54208,0.0,0.0
49,12,41.3025,42.2744,130.134,101.498,77.0723,0.0231859,0.611079,20.1901,-353.974,2.42599,0.0,0.0
56,13.75,43.3129,44.1034,118.28,101.483,72.9399,0.0256147,0.658556,20.1089,-354.264,2.91033,0.0,0.0
63,15.5,45.5711,46.4462,114.117,101.457,71.2043,0.0281972,0.745195,19.9718,-354.634,3.12028,0.0,0.0
70,17.25,47.5301,48.7431,96.9128,101.433,69.5468,0.0314544,0.907334,19.7122,-355.085,3.32575,0.0,0.0
77,19,51.3289,52.6436,95.6259,101.418,68.405,0.0347501,1.13863,19.2833,-355.595,3.4703,0.0,0.0
84,20.75,55.8727,57.3857,90.3959,101.392,70.7984,0.0374669,1.45202,18.7758,-356.186,3.16496,0.0,0.0
91,22.5,62.029,63.989,84.5599,101.364,74.0923,0.0390001,1.82557,18.394,-356.837,2.76182,0.0,0.0
98,24.25,69.0552,72.3599,83.4471,101.331,77.5181,0.0395009,2.14896,17.8536,-357.497,2.3606,0.0,0.0
105,26,77.3983,81.8557,87.197,101.326,81.0024,0.038796,2.54569,17.4059,-358.088,1.9727,0.0,0.0
112,27.75,86.6548,92.502,71.8598,101.292,78.3613,0.0370636,2.71678,17.1622,-358.718,2.26191,0.0,0.0
119,29.5,94.902,102.859,84.0546,101.262,75.1607,0.0346265,2.69544,17.2282,-359.199,2.62674,0.0,0.0
126,31.25,101.527,111.547,102.268,101.222,74.8829,0.0310995,2.44105,17.6261,-359.559,2.65594,0.0,0.0
133,33,105.507,116.894,114.83,101.201,80.7832,0.0272121,2.04393,18.108,-359.779,1.9857,0.0,0.0
140,34.75,106.514,119.302,124.338,101.175,84.4808,0.0220183,1.53767,18.8033,-359.899,1.5891,0.0,0.0
147,36.5,106.154,119.206,136.79,101.145,97.1021,0.0183873,1.13855,19.3852,-359.909,0.35951,0.0,0.0
154,38.25,103.995,117.667,140.716,101.113,102.172,0.0157152,0.767715,19.9395,-359.919,-0.0918133,0.0,0.0
161,40,101.54,114.759,144.572,101.08,101.906,0.0143579,0.520783,20.3344,-359.919,-0.0716832,0.0,0.0
168,41.75,98.8527,111.798,141.638,101.066,102.158,0.0138612,0.358441,20.5863,-359.929,-0.0947404,0.0,0.0
175,43.5,96.3856,108.769,145.077,101.029,102.02,0.0139345,0.260001,20.7281,-359.939,-0.0859935,0.0,0.0
182,45.25,93.6484,106.189,144.45,100.984,101.973,0.0147622,0.200035,20.8162,-359.959,-0.0859272,0.0,0.0
189,47,91.4572,103.615,146.089,100.952,101.784,0.0160287,0.162475,20.8703,-359.959,-0.0723706,0.0,0.0
196,48.75,88.9795,101.093,143.438,100.941,102.864,0.0172814,0.13487,20.9092,-359.969,-0.166319,0.0,0.0
203,50.5,86.494,98.134,143.056,100.91,101.422,0.0178914,0.116754,20.934,-359.969,-0.0445696,0.0,0.0
210,52.25,84.5047,95.8567,148.025,100.88,102.065,0.0177777,0.104872,20.95,-359.969,-0.102966,0.0,0.0
217,54,82.5503,93.5803,146.845,100.844,101.933,0.0171368,0.097068,20.9613,-359.989,-0.094657,0.0,0.0
224,55.75,80.2881,91.3025,140.767,100.822,102.374,0.0163333,0.0913653,20.97,-360.009,-0.134572,0.0,0.0
231,57.5,78.5258,89.5328,144.755,100.807,102.575,0.0155571,0.0861676,20.9748,-359.999,-0.153266,0.0,0.0
238,59.25,77.3675,87.8327,143.471,100.805,102.206,0.0146118,0.0821089,20.9785,-360.009,-0.121648,0.0,0.0
245,61,75.6797,85.8586,146.43,100.855,102.327,0.0136718,0.0777625,20.9849,-360.019,-0.127673,0.0,0.0
252,62.75,74.1727,84.1633,146.782,100.877,101.953,0.0128489,0.0735208,20.9912,-360.039,-0.0935374,0.0,0.0
259,64.5,72.299,82.6124,144.269,100.922,102.291,0.0119956,0.0698011,20.9974,-360.039,-0.118739,0.0,0.0
266,66.25,70.9173,80.699,145.323,100.958,101.805,0.0111101,0.0670888,21.002,-360.049,-0.0736088,0.0,0.0
273,68,69.5329,79.3468,146.577,100.969,101.956,0.010362,0.0644187,21.0054,-360.059,-0.0856853,0.0,0.0
280,69.75,68.0637,77.9367,140.24,100.992,103.054,0.00968315,0.0622307,21.0079,-360.059,-0.178127,0.0,0.0
287,71.5,67.4667,76.4308,143.929,101.022,102.339,0.0091625,0.0605999,21.0094,-360.069,-0.114171,0.0,0.0
294,73.25,65.7678,74.7524,146.272,101.048,101.285,0.00870719,0.0590152,21.0117,-360.09,-0.0206623,0.0,0.0
301,75,64.8149,74.1616,146.098,101.07,102.37,0.00827788,0.0576686,21.0145,-360.099,-0.112665,0.0,0.0
308,76.75,63.7577,72.6221,143.383,101.076,101.576,0.00785732,0.0564406,21.0171,-360.09,-0.0434521,0.0,0.0
315,78.5,62.2689,71.6229,148.063,101.1,102.544,0.00750602,0.0554312,21.0191,-360.09,-0.124922,0.0,0.0
322,80.25,61.7032,70.3983,143.26,101.14,102.355,0.00714921,0.0544816,21.0201,-360.09,-0.105256,0.0,0.0
329,82,60.7487,69.5984,144.929,101.158,102.837,0.00671284,0.0538336,21.0194,-360.11,-0.145029,0.0,0.0
336,83.75,60.1019,68.2078,144.229,101.153,102.218,0.00626307,0.0533615,21.0195,-360.11,-0.0922942,0.0,0.0
343,85.5,58.5757,66.8676,140.421,101.188,101.365,0.00591113,0.0526098,21.0203,-360.11,-0.0154064,0.0,0.0
350,87.25,57.9612,65.9068,144.295,101.194,102.943,0.0056745,0.0520702,21.0211,-360.12,-0.150923,0.0,0.0
357,89,57.1645,65.3239,139.789,101.214,102.088,0.00558372,0.0517015,21.0223,-360.12,-0.075777,0.0,0.0
364,90.75,56.2244,64.3794,144.948,101.228,102.819,0.00554321,0.0513826,21.0228,-360.13,-0.137447,0.0,0.0
371,92.5,55.4841,63.3684,145.082,101.236,101.895,0.00542931,0.0511569,21.0231,-360.13,-0.0571435,0.0,0.0
378,94.25,54.7596,62.2084,142.299,101.276,101.832,0.00526756,0.0507234,21.0232,-360.13,-0.0482848,0.0,0.0
385,96,54.4569,62.02,144.034,101.303,102.023,0.00516672,0.0503465,21.0243,-360.14,-0.06241,0.0,0.0
392,97.75,53.875,60.8035,144.637,101.321,102.762,0.00506701,0.0501639,21.0247,-360.15,-0.12446,0.0,0.0
399,99.5,53.6202,60.3216,146.478,101.328,102.12,0.00483035,0.0499786,21.0248,-360.14,-0.0686611,0.0,0.0
406,101.25,52.5936,59.8266,146.52,101.356,103.258,0.00455737,0.0499993,21.0248,-360.15,-0.163872,0.0,0.0
413,103,51.9052,58.9362,146.348,101.382,102.444,0.00433384,0.0500499,21.0248,-360.16,-0.09179,0.0,0.0
420,104.75,51.6465,57.9441,143.847,101.394,102.242,0.00418994,0.04996,21.0262,-360.16,-0.0733583,0.0,0.0
427,106.5,51.3391,57.2932,150.937,101.419,102.503,0.00412755,0.0497109,21.0268,-360.17,-0.0936834,0.0,0.0
434,108.25,50.0499,56.2861,146.682,101.433,102.944,0.00411841,0.0493492,21.0271,-360.17,-0.130302,0.0,0.0
441,110,49.3573,55.3743,145.631,101.446,102.614,0.00409687,0.0490272,21.0284,-360.17,-0.100857,0.0,0.0
448,111.75,49.5169,54.9333,147.35,101.483,101.588,0.00406051,0.0486652,21.0291,-360.18,-0.00909151,0.0,0.0
455,113.5,48.9583,54.9473,147.369,101.469,101.743,0.00398105,0.0483996,21.0304,-360.18,-0.0238018,0.0,0.0
462,115.25,48.714,54.437,146.207,101.472,103.375,0.00386424,0.0481333,21.0313,-360.18,-0.163725,0.0,0.0
469,117,48.0468,53.7393,145.598,101.475,102.661,0.0037674,0.0479204,21.0317,-360.19,-0.102349,0.0,0.0
476,118.75,47.4165,53.2785,150.805,101.486,102.2,0.0036809,0.0477277,21.0323,-360.19,-0.0618134,0.0,0.0
483,120.5,47.682,52.8687,143.462,101.488,103.128,0.00365589,0.0475056,21.0326,-360.19,-0.141262,0.0,0.0
490,122.25,47.0813,52.2759,142.755,101.481,102.074,0.00361245,0.0474107,21.0326,-360.19,-0.0513993,0.0,0.0
497,124,46.9423,51.7387,145.137,101.486,103.418,0.00351833,0.047186,21.0315,-360.2,-0.166155,0.0,0.0
504,125.75,46.5927,51.9014,147.677,101.483,101.56,0.00342273,0.0471223,21.031,-360.21,-0.00662589,0.0,0.0
511,127.5,45.7588,50.5517,147.165,101.48,102.025,0.00322221,0.0471605,21.0299,-360.21,-0.0471853,0.0,0.0
518,129.25,45.7504,50.2818,144.695,101.469,101.603,0.00301928,0.0470305,21.0296,-360.22,-0.0115636,0.0,0.0
525,131,45.8056,50.1135,143.501,101.456,103.289,0.00287284,0.047015,21.0298,-360.22,-0.157816,0.0,0.0
532,132.75,45.0888,49.8515,145.226,101.453,102.705,0.00279348,0.0469956,21.0298,-360.22,-0.108125,0.0,0.0
539,134.5,44.5265,49.3149,147.129,101.443,101.884,0.00264724,0.0468161,21.0299,-360.23,-0.0382607,0.0,0.0
546,136.25,43.9586,48.7885,149.17,101.43,102.117,0.00249679,0.0465945,21.0299,-360.23,-0.0594588,0.0,0.0
553,138,44.491,48.7394,143.865,101.39,102.883,0.00246387,0.0465522,21.0299,-360.24,-0.128773,0.0,0.0
560,139.75,43.8802,48.1883,145.698,101.382,102.24,0.00255822,0.0465932,21.0299,-360.24,-0.0742238,0.0,0.0
567,141.5,43.765,47.7314,145.111,101.364,102.26,0.00263705,0.0465847,21.0299,-360.24,-0.0775159,0.0,0.0
574,143.25,43.6675,48.0711,144.392,101.34,101.453,0.0026607,0.0465266,21.0299,-360.24,-0.00988759,0.0,0.0
581,145,43.5903,46.9483,142.668,101.296,103.355,0.00264373,0.0466112,21.0299,-360.24,-0.177329,0.0,0.0
588,146.75,43.5531,46.6325,149.59,101.251,102.645,0.00261965,0.0465171,21.0299,-360.25,-0.120465,0.0,0.0
595,148.5,43.138,46.5431,146.334,101.221,102.551,0.00258151,0.0463685,21.0299,-360.25,-0.114965,0.0,0.0
602,150.25,42.8587,46.3031,144.935,101.19,101.919,0.00247909,0.0460621,21.0298,-360.25,-0.0632221,0.0,0.0
609,152,42.8911,45.8357,145.951,101.152,102.448,0.00237944,0.0459674,21.0306,-360.24,-0.112234,0.0,0.0
616,153.75,42.7524,46.2831,143.668,101.09,101.123,0.00232159,0.0459552,21.0314,-360.25,-0.00294662,0.0,0.0
623,155.5,41.9395,45.3405,144.056,101.086,102.136,0.00232051,0.0459899,21.0317,-360.25,-0.0910501,0.0,0.0
630,157.25,41.9094,45.2481,142.216,101.112,101.616,,0.0459303,,-360.24,-0.0437567,0.0,0.0
637,159,41.6995,45.0061,149.393,101.131,101.948,,0.0457046,,-360.25,-0.070971,0.0,0.0
644,160.75,41.8568,45.2773,145.125,101.149,102.021,,,,-360.26,-0.0756615,0.0,0.0
651,162.5,41.66,44.5689,144.782,101.173,101.979,,,,-360.26,-0.0698978,0.0,0.0
658,164.25,41.7102,44.8535,145.691,101.194,102.276,,,,-360.26,-0.0936616,0.0,0.0
665,166,41.2472,44.4348,146.063,101.212,102.953,,,,-360.26,-0.150254,0.0,0.0
671,167.5,41.6636,44.1687,146.575,101.216,103.032,,,,-360.27,-0.156762,0.0,0.0