File: 01_Data/Gypsum_Wallboard/HFM/Gypsum_Wallboard_Density_Wet_R1.csv
,Lightweight_Gypsum_Wallboard_WET_1
Sample Mass [g],252.6
Sample Volume [cm3],510.5
Sample Density [kg/m3],495