File: 01_Data/Gypsum_Wallboard/HFM/Gypsum_Wallboard_Density_Dry_R1.csv
,Lightweight_Gypsum_Wallboard_DRY_1
Sample Mass [g],219.2
Sample Volume [cm3],510.5
Sample Density [kg/m3],429