File: 01_Data/Gypsum_Wallboard/HFM/Gypsum_Wallboard_Density_Wet_R3.csv
,Lightweight_Gypsum_Wallboard_WET_3
Sample Mass [g],263.7
Sample Volume [cm3],529.2
Sample Density [kg/m3],498