File: 01_Data/PETG/MCC/PETG_MCC_30K_min_210927_R2.txt
Sample ID:	C:\MCC\MCC Cal\Test\PETG_MCC_30K_min_210927_R2.txt
Sample Weight (mg):	4.59
Heating Rate (C/s):	0.5
Combustor Temp (C):	900
N2 Flow Rate (cc/min):	80
O2 Flow Rate (cc/min):	20
Calibration File:	C:\MCC\MCC Cal\Coeff1 JN10440_30_210304.txt.txt
T Correction Coefficients:	0	1.024463	0
Time Shift (s):	14
*
Time (s)	Temperature (C)	N2 flow rate (cc/min)	O2 flow rate (cc/min)	Flow Rate (cc/min)	Oxygen (%)	HRR (W/g)	Heating rate (C/s)
0.000	108.853	79.998	19.995	100.025	20.096	0.165	0.004
8.000	108.830	79.998	19.997	100.031	20.101	-0.195	-0.004
16.000	108.834	79.998	19.996	100.065	20.091	0.485	0.013
24.000	108.978	79.999	19.996	100.108	20.083	1.028	0.043
32.000	109.466	79.998	19.995	100.226	20.069	2.027	0.098
40.000	110.449	79.999	19.995	100.224	20.061	2.517	0.160
48.000	111.901	80.001	19.994	100.258	20.058	2.723	0.205
56.000	113.707	80.001	19.994	100.259	20.060	2.595	0.260
64.000	115.871	79.999	19.995	100.264	20.060	2.608	0.305
72.000	118.341	79.999	19.995	100.271	20.056	2.872	0.333
80.000	121.050	79.999	19.994	100.262	20.054	3.030	0.326
88.000	123.982	79.998	19.995	100.277	20.055	2.954	0.397
96.000	127.114	79.998	19.995	100.266	20.054	3.045	0.387
104.000	130.360	80.000	19.994	100.279	20.056	2.880	0.435
112.001	133.785	79.999	19.995	100.297	20.054	3.007	0.476
120.000	137.336	80.000	19.996	100.295	20.053	3.105	0.469
128.000	140.937	80.002	19.995	100.283	20.057	2.792	0.460
136.000	144.736	80.003	19.994	100.277	20.056	2.891	0.485
144.000	148.509	80.000	19.995	100.279	20.056	2.885	0.502
152.000	152.381	79.999	19.995	100.278	20.061	2.580	0.507
160.000	156.267	79.998	19.994	100.264	20.059	2.673	0.502
168.000	160.278	79.999	19.995	100.264	20.063	2.429	0.503
176.000	164.260	79.997	19.994	100.264	20.058	2.775	0.510
184.000	168.269	79.999	19.995	100.257	20.061	2.516	0.480
192.000	172.255	80.002	19.995	100.250	20.061	2.539	0.486
200.000	176.268	79.999	19.996	100.252	20.063	2.419	0.462
208.000	180.272	79.999	19.995	100.234	20.063	2.387	0.492
216.000	184.266	80.001	19.996	100.232	20.065	2.272	0.520
224.000	188.253	79.999	19.994	100.221	20.069	1.984	0.470
232.000	192.299	79.999	19.996	100.232	20.071	1.889	0.533
240.000	196.234	79.998	19.995	100.227	20.073	1.725	0.467
248.000	200.217	79.997	19.994	100.225	20.072	1.818	0.505
256.000	204.162	79.998	19.995	100.227	20.070	1.950	0.511
264.000	208.135	79.998	19.994	100.220	20.072	1.811	0.503
272.000	212.090	80.000	19.994	100.220	20.072	1.831	0.509
280.000	215.985	79.999	19.997	100.217	20.073	1.721	0.494
288.000	219.952	79.998	19.995	100.217	20.076	1.538	0.510
296.000	223.864	80.002	19.996	100.210	20.075	1.595	0.490
304.000	227.807	79.999	19.996	100.215	20.080	1.286	0.471
312.000	231.812	79.998	19.995	100.205	20.077	1.428	0.513
320.000	235.799	79.999	19.995	100.205	20.081	1.156	0.485
328.000	239.835	79.999	19.996	100.199	20.080	1.221	0.497
336.000	243.819	79.997	19.994	100.196	20.085	0.935	0.501
344.000	247.775	79.999	19.995	100.197	20.083	1.035	0.473
352.000	251.826	80.000	19.995	100.189	20.085	0.931	0.497
360.000	255.752	80.000	19.995	100.183	20.085	0.901	0.478
368.000	259.631	79.998	19.994	100.185	20.084	1.013	0.505
376.000	263.451	80.000	19.993	100.183	20.084	1.009	0.479
384.000	267.305	80.001	19.995	100.178	20.085	0.920	0.500
392.000	271.151	79.998	19.995	100.180	20.089	0.652	0.497
400.000	275.065	79.998	19.995	100.177	20.089	0.624	0.504
408.000	279.014	80.000	19.995	100.181	20.088	0.740	0.501
416.000	282.871	79.998	19.995	100.187	20.089	0.636	0.474
424.000	286.873	79.997	19.994	100.183	20.089	0.667	0.493
432.000	290.880	80.000	19.994	100.184	20.088	0.740	0.520
440.000	294.912	80.000	19.995	100.183	20.089	0.617	0.503
448.000	298.962	79.998	19.993	100.180	20.089	0.649	0.496
456.000	303.055	80.001	19.995	100.178	20.093	0.338	0.503
464.000	307.136	80.000	19.995	100.177	20.089	0.649	0.495
472.000	311.228	79.999	19.995	100.181	20.092	0.470	0.528
480.001	315.354	79.998	19.996	100.181	20.090	0.583	0.516
488.000	319.435	79.999	19.995	100.176	20.090	0.574	0.527
496.000	323.487	79.999	19.994	100.171	20.090	0.552	0.518
504.000	327.517	79.999	19.995	100.166	20.091	0.479	0.509
512.000	331.607	79.998	19.995	100.158	20.090	0.582	0.509
520.000	335.701	80.001	19.993	100.167	20.093	0.340	0.517
528.000	339.768	79.998	19.994	100.155	20.094	0.305	0.505
536.000	343.756	80.001	19.996	100.149	20.088	0.697	0.483
544.000	347.755	79.999	19.995	100.154	20.089	0.643	0.488
552.000	351.837	79.998	19.994	100.158	20.095	0.225	0.475
560.000	355.913	79.998	19.994	100.153	20.097	0.110	0.598
568.000	359.825	79.998	19.995	100.161	20.095	0.253	0.747
576.000	363.949	79.998	19.996	100.173	20.094	0.299	0.500
584.000	368.039	80.000	19.997	100.168	20.085	0.918	0.490
592.000	372.164	80.000	19.995	100.164	20.080	1.247	0.466
600.000	376.335	80.000	19.995	100.161	20.070	1.912	0.503
608.000	380.541	80.000	19.994	100.170	20.055	2.977	0.558
616.000	384.760	80.000	19.993	100.183	20.033	4.464	0.511
624.000	388.965	80.000	19.994	100.195	20.011	5.926	0.544
632.000	393.216	79.998	19.993	100.198	19.966	9.017	0.523
640.000	397.438	79.997	19.996	100.214	19.923	11.983	0.538
648.000	401.459	79.997	19.995	100.221	19.865	15.899	0.482
656.000	405.537	79.999	19.996	100.260	19.789	21.092	0.501
664.000	409.639	79.998	19.996	100.297	19.691	27.824	0.537
672.000	413.690	79.999	19.997	100.337	19.562	36.626	0.505
680.000	417.679	79.999	19.996	100.377	19.410	47.021	0.469
688.000	421.684	79.998	19.995	100.441	19.242	58.540	0.477
696.000	425.670	80.000	19.995	100.506	19.043	72.185	0.508
704.000	429.691	80.001	19.994	100.570	18.807	88.380	0.476
712.000	433.653	80.000	19.995	100.662	18.525	107.852	0.510
720.000	437.627	79.998	19.996	100.774	18.242	127.391	0.469
728.000	441.591	79.998	19.996	100.904	17.889	151.733	0.484
736.000	445.576	79.997	19.994	100.942	17.589	172.445	0.532
744.000	449.678	79.999	19.995	101.055	17.408	184.823	0.507
752.000	453.760	79.998	19.994	101.047	17.372	187.226	0.535
760.000	457.819	79.998	19.997	101.071	17.461	180.903	0.518
768.000	461.933	80.000	19.996	100.945	17.699	164.240	0.528
776.000	465.972	80.000	19.995	100.789	18.115	135.551	0.538
784.000	469.995	80.001	19.994	100.590	18.697	95.661	0.497
792.000	474.059	79.998	19.994	100.437	19.284	55.515	0.511
800.000	478.153	79.998	19.994	100.320	19.638	31.346	0.518
808.000	482.222	79.999	19.995	100.228	19.821	18.889	0.517
816.000	486.312	79.998	19.994	100.212	19.931	11.402	0.494
824.000	490.437	79.998	19.995	100.191	19.990	7.408	0.516
832.000	494.566	80.000	19.995	100.174	20.024	5.093	0.482
840.000	498.729	80.000	19.994	100.167	20.047	3.521	0.508
848.000	502.804	79.999	19.996	100.145	20.060	2.634	0.507
856.000	506.939	80.000	19.996	100.165	20.066	2.213	0.523
864.000	511.074	80.001	19.994	100.146	20.070	1.951	0.512
872.000	515.133	79.997	19.993	100.155	20.074	1.631	0.534
880.000	519.238	79.997	19.994	100.142	20.078	1.378	0.490
888.000	523.332	79.998	19.995	100.136	20.074	1.651	0.501
896.000	527.423	79.998	19.996	100.140	20.075	1.601	0.510
904.000	531.531	79.998	19.996	100.132	20.081	1.218	0.516
912.000	535.624	80.000	19.996	100.141	20.080	1.244	0.486
920.000	539.790	80.000	19.996	100.119	20.083	1.027	0.530
928.000	543.882	79.999	19.995	100.120	20.088	0.711	0.563
936.000	548.010	79.998	19.996	100.128	20.087	0.804	0.522
944.000	552.151	80.001	19.995	100.117	20.090	0.568	0.484
952.000	556.310	79.999	19.996	100.127	20.086	0.860	0.546
960.000	560.405	79.999	19.994	100.116	20.083	1.018	0.525
968.000	564.489	79.999	19.995	100.128	20.083	1.016	0.482
976.000	568.626	79.998	19.994	100.106	20.082	1.109	0.505
984.000	572.760	79.999	19.996	100.119	20.082	1.127	0.558
992.000	576.906	79.999	19.992	100.106	20.085	0.929	0.531
1000.000	580.994	79.999	19.994	100.112	20.082	1.113	0.524
1008.000	585.138	79.998	19.995	100.113	20.079	1.324	0.515
1016.000	589.193	80.000	19.994	100.126	20.084	1.014	0.477
1024.001	593.309	80.001	19.995	100.131	20.076	1.551	0.513
1032.000	597.457	79.998	19.996	100.110	20.078	1.389	0.485
1040.000	601.527	79.999	19.997	100.110	20.082	1.114	0.517
1048.001	605.635	79.999	19.995	100.103	20.079	1.295	0.521
1056.000	609.709	80.000	19.995	100.108	20.081	1.218	0.507
1064.000	613.805	80.000	19.996	100.116	20.080	1.229	0.487
1072.000	617.919	79.999	19.995	100.109	20.079	1.332	0.525
1080.001	621.910	79.999	19.993	100.114	20.077	1.482	0.497
1088.000	625.943	79.999	19.994	100.102	20.076	1.547	0.486
1096.001	629.988	80.002	19.997	100.102	20.079	1.291	0.473
1104.000	634.069	80.001	19.994	100.105	20.086	0.852	0.524
1112.000	638.144	79.998	19.995	100.112	20.081	1.200	0.488
1120.000	642.214	79.999	19.995	100.105	20.082	1.092	0.477
1128.000	646.241	79.998	19.995	100.109	20.084	1.012	0.514
1136.000	650.281	79.999	19.994	100.103	20.084	0.956	0.491
1144.000	654.333	79.999	19.996	100.104	20.083	1.062	0.535
1152.000	658.429	80.000	19.994	100.104	20.083	1.038	0.537
1160.000	662.426	80.000	19.996	100.106	20.085	0.912	0.474
1168.000	666.575	80.000	19.995	100.103	20.086	0.841	0.534
1176.000	670.641	80.002	19.994	100.104	20.083	1.077	0.503
1184.000	674.760	80.001	19.994	100.105	20.082	1.120	0.524
1192.000	678.893	80.000	19.995	100.109	20.085	0.934	0.525
1200.000	682.896	79.999	19.996	100.107	20.088	0.722	0.470
1208.001	686.989	79.999	19.995	100.106	20.091	0.513	0.504
1216.000	691.032	80.001	19.996	100.103	20.090	0.578	0.488
1224.000	695.104	79.999	19.996	100.106	20.085	0.901	0.501
1232.000	699.240	80.002	19.995	100.104	20.083	1.064	0.538
1240.000	703.249	80.001	19.995	100.107	20.085	0.940	0.499
1248.000	707.353	79.998	19.994	100.118	20.089	0.652	0.489
1256.000	711.427	80.002	19.994	100.107	20.085	0.927	0.525
1264.000	715.457	80.001	19.993	100.111	20.085	0.914	0.496
1272.000	719.466	79.999	19.996	100.106	20.081	1.159	0.494
1280.000	723.516	79.999	19.995	100.109	20.083	1.042	0.520
1288.000	727.593	80.001	19.996	100.110	20.087	0.765	0.558
1296.000	731.654	79.999	19.994	100.108	20.089	0.646	0.516
1304.000	735.684	79.998	19.996	100.107	20.088	0.741	0.486
1312.000	739.764	79.999	19.995	100.109	20.084	0.960	0.485
1319.500	743.566	79.999	19.994	100.107	20.085	0.888	0.498