File: 01_Data/PETG/MCC/PETG_MCC_30K_min_210927_R1.txt
Sample ID:	C:\MCC\MCC Cal\Test\PETG_MCC_30K_min_210927_R1.txt
Sample Weight (mg):	4.56
Heating Rate (C/s):	0.5
Combustor Temp (C):	900
N2 Flow Rate (cc/min):	80
O2 Flow Rate (cc/min):	20
Calibration File:	C:\MCC\MCC Cal\Coeff1 JN10440_30_210304.txt.txt
T Correction Coefficients:	0	1.024463	0
Time Shift (s):	14
*
Time (s)	Temperature (C)	N2 flow rate (cc/min)	O2 flow rate (cc/min)	Flow Rate (cc/min)	Oxygen (%)	HRR (W/g)	Heating rate (C/s)
0.000	108.561	79.996	19.994	100.064	20.128	0.159	0.007
8.000	108.588	79.999	19.996	100.064	20.131	-0.015	0.004
16.000	108.553	79.997	19.995	100.116	20.124	0.462	0.014
24.000	108.876	79.998	19.993	100.191	20.114	1.146	0.089
32.000	109.622	79.999	19.995	100.261	20.103	1.920	0.113
40.000	110.811	80.001	19.995	100.281	20.091	2.684	0.183
48.000	112.513	79.999	19.996	100.304	20.085	3.108	0.233
56.000	114.763	79.999	19.995	100.317	20.086	3.085	0.274
64.000	117.368	80.000	19.995	100.304	20.082	3.342	0.340
72.000	120.240	79.999	19.996	100.304	20.080	3.453	0.384
80.000	123.370	79.998	19.996	100.327	20.086	3.044	0.426
88.000	126.752	79.999	19.995	100.316	20.083	3.278	0.428
96.000	130.314	79.997	19.994	100.317	20.082	3.336	0.425
104.000	134.009	80.000	19.995	100.315	20.081	3.381	0.471
112.001	137.857	79.999	19.994	100.312	20.081	3.392	0.457
120.000	141.796	80.000	19.994	100.304	20.080	3.439	0.525
128.000	145.786	79.998	19.994	100.303	20.085	3.107	0.516
136.000	149.899	79.999	19.995	100.302	20.082	3.332	0.513
144.000	153.942	80.000	19.995	100.298	20.082	3.317	0.510
152.000	157.999	80.000	19.995	100.292	20.083	3.277	0.491
160.000	162.060	79.999	19.996	100.263	20.084	3.162	0.505
168.000	166.137	80.000	19.995	100.264	20.083	3.256	0.512
176.000	170.130	79.999	19.995	100.267	20.090	2.762	0.509
184.000	174.148	79.998	19.994	100.265	20.089	2.840	0.524
192.000	178.123	79.996	19.995	100.261	20.087	2.984	0.482
200.000	182.108	79.999	19.997	100.265	20.091	2.733	0.490
208.000	186.132	79.998	19.995	100.253	20.088	2.943	0.535
216.000	190.077	79.998	19.995	100.260	20.094	2.529	0.536
224.000	193.997	79.998	19.995	100.253	20.090	2.793	0.509
232.000	197.939	80.001	19.995	100.236	20.092	2.664	0.468
240.000	201.899	79.998	19.994	100.256	20.094	2.480	0.502
248.000	205.794	79.999	19.997	100.242	20.090	2.750	0.478
256.000	209.725	79.998	19.996	100.233	20.091	2.733	0.518
264.000	213.676	79.997	19.996	100.236	20.091	2.704	0.495
272.000	217.584	79.998	19.995	100.231	20.094	2.534	0.482
280.000	221.597	79.999	19.995	100.223	20.089	2.854	0.494
288.000	225.523	80.000	19.995	100.227	20.096	2.364	0.500
296.000	229.585	80.000	19.996	100.229	20.095	2.409	0.519
304.000	233.602	80.002	19.995	100.224	20.096	2.373	0.504
312.000	237.666	80.000	19.996	100.221	20.098	2.261	0.492
320.000	241.686	79.997	19.995	100.220	20.099	2.180	0.515
328.000	245.738	79.998	19.995	100.223	20.098	2.227	0.520
336.000	249.697	79.997	19.996	100.221	20.095	2.418	0.494
344.000	253.748	79.997	19.996	100.214	20.098	2.202	0.485
352.000	257.699	79.997	19.997	100.213	20.100	2.088	0.472
360.000	261.610	79.999	19.997	100.196	20.099	2.159	0.484
368.000	265.572	80.000	19.995	100.218	20.102	1.946	0.491
376.000	269.492	79.998	19.995	100.210	20.099	2.176	0.507
384.000	273.516	79.998	19.995	100.196	20.101	2.030	0.498
392.000	277.516	80.001	19.994	100.199	20.098	2.255	0.514
400.000	281.496	80.001	19.995	100.202	20.099	2.168	0.500
408.000	285.535	79.998	19.995	100.203	20.100	2.094	0.521
416.000	289.536	80.000	19.996	100.199	20.099	2.129	0.504
424.000	293.612	79.999	19.997	100.197	20.102	1.970	0.498
432.000	297.640	79.996	19.996	100.187	20.101	2.004	0.504
440.000	301.722	79.997	19.996	100.187	20.101	2.054	0.519
448.000	305.682	79.998	19.996	100.184	20.100	2.075	0.504
456.000	309.779	79.998	19.995	100.185	20.103	1.861	0.543
464.000	313.839	79.998	19.996	100.188	20.097	2.267	0.483
472.000	317.845	79.999	19.995	100.185	20.099	2.157	0.482
480.000	321.881	80.001	19.995	100.181	20.099	2.159	0.502
488.000	325.913	79.997	19.996	100.172	20.098	2.247	0.523
496.000	329.950	79.999	19.995	100.180	20.098	2.264	0.545
504.000	334.047	80.000	19.994	100.182	20.101	1.994	0.409
512.000	337.980	79.999	19.998	100.151	20.100	2.095	0.506
520.000	341.959	79.998	19.996	100.182	20.098	2.209	0.496
528.000	345.962	79.996	19.996	100.179	20.102	1.964	0.493
536.000	350.045	79.999	19.997	100.181	20.095	2.421	0.507
544.000	354.059	80.000	19.998	100.177	20.097	2.295	0.477
552.000	358.142	80.000	19.995	100.179	20.095	2.463	0.557
560.000	362.146	80.000	19.995	100.178	20.094	2.486	0.521
568.000	366.247	79.998	19.994	100.181	20.089	2.881	0.530
576.000	370.231	79.997	19.994	100.182	20.081	3.377	0.486
584.000	374.379	79.998	19.994	100.185	20.072	3.990	0.511
592.000	378.451	79.998	19.994	100.182	20.060	4.840	0.521
600.000	382.585	79.997	19.995	100.183	20.042	6.091	0.517
608.000	386.666	79.999	19.996	100.182	20.020	7.560	0.505
616.000	390.773	79.998	19.994	100.215	19.987	9.830	0.519
624.000	394.969	79.999	19.996	100.217	19.954	12.139	0.518
632.000	399.066	79.998	19.995	100.219	19.902	15.694	0.516
640.000	403.065	79.999	19.995	100.262	19.826	20.891	0.473
648.000	407.109	79.998	19.995	100.287	19.729	27.543	0.496
656.000	411.120	79.998	19.994	100.321	19.617	35.246	0.503
664.000	415.100	79.998	19.995	100.379	19.472	45.260	0.502
672.000	419.111	80.000	19.995	100.411	19.308	56.580	0.500
680.000	423.152	79.999	19.994	100.495	19.127	69.082	0.521
688.000	427.150	79.999	19.995	100.556	18.927	82.890	0.480
696.001	431.145	79.996	19.996	100.636	18.687	99.540	0.474
704.000	435.140	79.997	19.996	100.714	18.406	119.045	0.475
712.000	439.151	80.000	19.995	100.831	18.102	140.169	0.494
720.000	443.050	80.000	19.995	100.959	17.749	164.622	0.450
728.000	446.978	80.001	19.996	100.967	17.542	178.973	0.462
736.000	451.032	79.996	19.995	101.038	17.454	185.020	0.492
744.000	455.012	79.998	19.996	101.064	17.470	183.808	0.502
752.000	459.043	79.998	19.997	100.998	17.592	175.067	0.524
760.000	463.044	79.998	19.997	100.872	17.897	153.820	0.500
768.000	467.031	79.997	19.994	100.715	18.363	121.528	0.521
776.000	470.997	79.998	19.994	100.522	18.956	80.638	0.506
784.000	475.051	79.999	19.996	100.410	19.442	47.225	0.528
792.000	479.003	79.998	19.996	100.299	19.704	29.242	0.479
800.000	483.105	79.998	19.995	100.236	19.849	19.323	0.516
808.000	487.221	79.999	19.996	100.218	19.935	13.387	0.527
816.000	491.400	79.996	19.996	100.194	19.985	9.945	0.527
824.000	495.563	79.997	19.997	100.183	20.017	7.812	0.509
832.000	499.696	79.997	19.996	100.183	20.033	6.684	0.508
840.000	503.748	79.998	19.995	100.178	20.043	6.011	0.502
848.000	507.876	79.996	19.994	100.177	20.054	5.249	0.516
856.000	511.884	79.997	19.995	100.169	20.052	5.384	0.491
864.000	515.949	79.999	19.995	100.155	20.059	4.924	0.513
872.000	520.037	79.998	19.994	100.147	20.055	5.179	0.514
880.000	524.116	79.997	19.995	100.140	20.062	4.671	0.541
888.000	528.108	80.002	19.994	100.140	20.066	4.432	0.489
896.000	532.155	79.997	19.996	100.138	20.065	4.497	0.524
904.000	536.298	79.995	19.996	100.144	20.062	4.716	0.535
912.000	540.374	79.998	19.996	100.140	20.064	4.587	0.515
920.000	544.511	80.000	19.997	100.142	20.061	4.731	0.537
928.000	548.640	79.998	19.996	100.123	20.068	4.312	0.513
936.000	552.741	79.998	19.994	100.135	20.059	4.927	0.499
944.000	556.846	80.000	19.996	100.131	20.063	4.600	0.519
952.000	560.893	80.001	19.995	100.139	20.061	4.759	0.508
960.000	564.934	79.998	19.995	100.143	20.060	4.862	0.520
968.000	568.962	80.001	19.995	100.134	20.057	5.032	0.487
976.000	573.005	79.998	19.996	100.137	20.060	4.810	0.542
984.000	577.127	79.997	19.996	100.138	20.052	5.379	0.492
992.000	581.234	80.001	19.995	100.123	20.047	5.741	0.549
1000.000	585.232	79.999	19.997	100.132	20.046	5.769	0.494
1008.000	589.318	79.997	19.995	100.140	20.052	5.356	0.541
1016.000	593.390	79.998	19.995	100.142	20.049	5.559	0.525
1024.000	597.555	80.000	19.995	100.137	20.049	5.578	0.498
1032.000	601.661	80.000	19.995	100.129	20.046	5.774	0.504
1040.000	605.700	79.999	19.995	100.137	20.046	5.768	0.518
1048.000	609.800	80.001	19.994	100.146	20.043	6.005	0.524
1056.000	613.898	80.003	19.995	100.115	20.040	6.195	0.531
1064.000	617.972	79.998	19.995	100.139	20.046	5.774	0.511
1072.000	622.045	79.998	19.996	100.130	20.047	5.731	0.511
1080.000	626.085	80.001	19.997	100.128	20.044	5.931	0.501
1088.000	630.094	79.999	19.995	100.112	20.044	5.903	0.482
1096.000	634.179	79.998	19.996	100.141	20.045	5.828	0.539
1104.000	638.207	79.998	19.996	100.130	20.046	5.825	0.504
1112.001	642.226	80.000	19.994	100.120	20.043	6.030	0.502
1120.000	646.244	79.999	19.994	100.131	20.043	5.995	0.513
1128.000	650.296	80.000	19.996	100.127	20.044	5.940	0.516
1136.000	654.389	80.002	19.996	100.119	20.046	5.789	0.522
1144.000	658.481	80.000	19.996	100.139	20.049	5.559	0.502
1152.000	662.561	79.999	19.996	100.118	20.046	5.782	0.514
1160.001	666.714	79.999	19.995	100.125	20.053	5.332	0.534
1168.000	670.860	79.999	19.996	100.131	20.046	5.793	0.491
1176.000	675.023	79.998	19.994	100.122	20.047	5.750	0.520
1184.000	679.109	79.997	19.995	100.137	20.051	5.473	0.484
1192.000	683.183	80.000	19.997	100.127	20.050	5.552	0.502
1200.000	687.200	79.999	19.996	100.129	20.050	5.542	0.529
1208.000	691.219	80.000	19.994	100.112	20.047	5.717	0.548
1216.000	695.248	80.000	19.995	100.137	20.047	5.719	0.455
1224.000	699.306	80.000	19.994	100.112	20.042	6.100	0.540
1232.000	703.410	79.999	19.994	100.130	20.045	5.854	0.529
1240.000	707.397	79.998	19.993	100.140	20.045	5.846	0.501
1248.000	711.481	79.999	19.995	100.112	20.042	6.070	0.496
1256.000	715.570	79.999	19.995	100.130	20.045	5.873	0.491
1264.001	719.669	79.999	19.996	100.138	20.047	5.730	0.537
1272.000	723.796	80.000	19.995	100.139	20.047	5.728	0.554
1280.000	727.883	80.000	19.995	100.115	20.043	5.964	0.518
1288.000	731.926	79.998	19.996	100.128	20.043	5.996	0.489
1296.000	735.899	80.001	19.995	100.134	20.045	5.861	0.475
1304.000	739.938	80.001	19.994	100.136	20.039	6.276	0.517
1311.500	743.691	79.998	19.995	100.147	20.042	6.039	0.491