File: 01_Data/Fiberglass_Insulation_R13_Paper_Faced_Fiberglass/MCC/Fiberglass_Insulation_R13_Paper_Faced_Fiberglass_MCC_30K_min_220215_R1.txt
Sample ID:	C:\MCC\MCC Cal\Test\R13_Fiberglas_InsulationB_MCC_30K_min_220215_R1.txt
Sample Weight (mg):	4.74
Heating Rate (C/s):	0.5
Combustor Temp (C):	900
N2 Flow Rate (cc/min):	80
O2 Flow Rate (cc/min):	20
Calibration File:	C:\MCC\MCC Cal\Coeff1 JN10440_30_210304.txt.txt
T Correction Coefficients:	0	1.024463	0
Time Shift (s):	14
*
Time (s)	Temperature (C)	N2 flow rate (cc/min)	O2 flow rate (cc/min)	Flow Rate (cc/min)	Oxygen (%)	HRR (W/g)	Heating rate (C/s)
-0.001	111.714	80.010	19.994	103.704	20.001	0.002	0.034
7.999	111.706	80.011	19.994	103.704	19.999	0.105	0.006
15.999	111.694	80.008	19.994	103.715	19.998	0.176	0.001
23.999	111.876	80.009	19.994	103.804	19.985	1.064	0.064
31.999	112.353	80.012	19.993	103.851	19.974	1.871	0.104
39.999	113.193	80.008	19.994	103.855	19.971	2.026	0.106
48.000	114.449	80.007	19.994	103.914	19.960	2.816	0.211
55.999	116.117	80.007	19.994	103.940	19.954	3.214	0.228
63.999	118.123	80.008	19.993	103.970	19.945	3.839	0.277
71.999	120.508	80.008	19.994	103.977	19.947	3.710	0.309
79.999	123.356	80.008	19.993	103.978	19.950	3.471	0.385
87.999	126.405	80.010	19.993	103.977	19.946	3.771	0.394
95.999	129.641	80.010	19.994	103.978	19.944	3.874	0.384
103.999	133.059	80.008	19.993	103.977	19.942	4.019	0.424
111.999	136.601	80.010	19.994	103.977	19.943	3.986	0.446
119.999	140.265	80.010	19.994	103.978	19.944	3.870	0.487
127.999	144.169	80.008	19.994	103.973	19.944	3.875	0.559
135.999	148.009	80.008	19.995	103.971	19.949	3.575	0.495
143.999	151.960	80.007	19.995	103.957	19.947	3.685	0.500
151.999	155.932	80.008	19.995	103.944	19.948	3.597	0.514
159.999	159.922	80.009	19.994	103.952	19.949	3.531	0.509
167.999	163.941	80.010	19.993	103.940	19.948	3.643	0.509
175.999	167.960	80.010	19.993	103.940	19.950	3.483	0.497
183.999	172.021	80.010	19.993	103.940	19.952	3.349	0.523
191.999	175.956	80.011	19.994	103.940	19.953	3.269	0.486
199.999	179.930	80.009	19.995	103.930	19.950	3.513	0.470
207.999	183.974	80.007	19.995	103.934	19.950	3.477	0.480
215.999	187.974	80.008	19.995	103.913	19.956	3.098	0.511
223.999	191.923	80.009	19.995	103.931	19.956	3.092	0.469
231.999	195.918	80.007	19.996	103.909	19.958	2.938	0.513
239.999	199.859	80.008	19.994	103.907	19.953	3.287	0.500
247.999	203.796	80.010	19.994	103.909	19.956	3.061	0.481
255.999	207.782	80.010	19.993	103.911	19.955	3.111	0.515
263.999	211.674	80.009	19.994	103.906	19.956	3.070	0.463
271.999	215.593	80.011	19.994	103.901	19.954	3.211	0.495
279.999	219.566	80.010	19.992	103.900	19.952	3.340	0.486
287.999	223.541	80.009	19.993	103.899	19.956	3.103	0.517
295.999	227.524	80.009	19.994	103.898	19.955	3.133	0.479
303.999	231.603	80.008	19.993	103.899	19.957	2.976	0.493
311.999	235.629	80.008	19.993	103.898	19.954	3.215	0.509
320.000	239.682	80.008	19.994	103.902	19.957	3.033	0.537
327.999	243.617	80.009	19.995	103.900	19.956	3.050	0.510
335.999	247.660	80.009	19.995	103.893	19.959	2.880	0.504
343.999	251.737	80.010	19.994	103.888	19.959	2.868	0.529
351.999	255.687	80.011	19.993	103.872	19.957	3.036	0.478
359.999	259.647	80.008	19.993	103.868	19.959	2.886	0.489
367.999	263.604	80.009	19.993	103.872	19.956	3.082	0.481
375.999	267.594	80.009	19.994	103.879	19.957	3.004	0.531
383.999	271.636	80.007	19.993	103.880	19.956	3.054	0.518
391.999	275.597	80.008	19.994	103.868	19.957	3.034	0.486
399.999	279.610	80.009	19.993	103.867	19.959	2.880	0.514
408.000	283.604	80.011	19.994	103.866	19.958	2.930	0.509
416.000	287.642	80.009	19.995	103.862	19.957	3.034	0.493
423.999	291.677	80.011	19.994	103.866	19.961	2.726	0.515
431.999	295.701	80.011	19.993	103.861	19.961	2.707	0.508
439.999	299.724	80.007	19.994	103.863	19.960	2.821	0.490
447.999	303.728	80.008	19.995	103.867	19.961	2.742	0.499
455.999	307.760	80.008	19.993	103.863	19.964	2.494	0.480
463.999	311.822	80.010	19.993	103.861	19.963	2.601	0.500
471.999	315.875	80.009	19.995	103.862	19.961	2.740	0.494
479.999	319.898	80.009	19.994	103.855	19.961	2.702	0.490
487.999	323.955	80.010	19.994	103.855	19.962	2.658	0.513
495.999	327.983	80.009	19.994	103.849	19.963	2.569	0.510
503.999	332.030	80.009	19.994	103.845	19.964	2.520	0.496
511.999	336.138	80.010	19.994	103.855	19.968	2.263	0.519
519.999	340.192	80.008	19.993	103.847	19.962	2.661	0.491
527.999	344.270	80.008	19.994	103.840	19.965	2.474	0.507
536.000	348.281	80.008	19.994	103.831	19.966	2.395	0.502
543.999	352.307	80.007	19.993	103.841	19.968	2.250	0.510
551.999	356.378	80.008	19.994	103.834	19.965	2.461	0.510
560.000	360.419	80.007	19.993	103.842	19.963	2.589	0.520
567.999	364.405	80.009	19.994	103.845	19.963	2.617	0.491
575.999	368.411	80.008	19.995	103.833	19.962	2.686	0.501
583.999	372.438	80.010	19.994	103.833	19.966	2.391	0.464
591.999	376.509	80.010	19.994	103.822	19.968	2.253	0.522
599.999	380.551	80.007	19.995	103.821	19.969	2.172	0.497
607.999	384.618	80.008	19.994	103.820	19.968	2.237	0.507
616.000	388.688	80.008	19.993	103.821	19.965	2.426	0.500
623.999	392.678	80.009	19.994	103.823	19.964	2.539	0.489
632.000	396.697	80.007	19.993	103.824	19.962	2.642	0.491
639.999	400.701	80.008	19.993	103.825	19.962	2.646	0.489
647.999	404.662	80.009	19.992	103.825	19.961	2.699	0.439
655.999	408.653	80.009	19.993	103.820	19.959	2.879	0.481
664.000	412.700	80.010	19.993	103.820	19.962	2.655	0.504
671.999	416.667	80.011	19.994	103.818	19.959	2.837	0.500
679.999	420.720	80.009	19.993	103.820	19.963	2.585	0.506
687.999	424.796	80.006	19.995	103.825	19.962	2.694	0.506
695.999	428.939	80.008	19.995	103.824	19.964	2.514	0.524
703.999	433.083	80.008	19.994	103.825	19.959	2.894	0.530
711.999	437.194	80.008	19.994	103.825	19.960	2.796	0.518
720.000	441.320	80.010	19.994	103.822	19.964	2.497	0.511
727.999	445.379	80.010	19.994	103.818	19.963	2.627	0.500
735.999	449.497	80.008	19.993	103.822	19.963	2.596	0.518
744.000	453.510	80.009	19.994	103.822	19.964	2.506	0.499
751.999	457.582	80.011	19.993	103.822	19.964	2.537	0.490
759.999	461.651	80.009	19.994	103.817	19.966	2.385	0.475
768.000	465.710	80.007	19.994	103.819	19.962	2.671	0.522
775.999	469.831	80.007	19.993	103.819	19.963	2.623	0.497
783.999	473.936	80.007	19.995	103.806	19.966	2.420	0.521
791.999	478.030	80.007	19.994	103.803	19.967	2.335	0.510
799.999	482.110	80.009	19.994	103.804	19.971	2.023	0.500
807.999	486.207	80.010	19.994	103.811	19.967	2.304	0.540
815.999	490.276	80.008	19.995	103.814	19.972	1.981	0.488
823.999	494.381	80.011	19.992	103.808	19.969	2.161	0.531
831.999	498.482	80.011	19.992	103.801	19.969	2.157	0.520
839.999	502.513	80.009	19.993	103.810	19.971	2.053	0.475
848.000	506.558	80.007	19.993	103.815	19.972	2.003	0.500
855.999	510.670	80.008	19.994	103.802	19.975	1.800	0.498
863.999	514.787	80.008	19.995	103.807	19.971	2.047	0.511
871.999	518.944	80.008	19.994	103.798	19.970	2.124	0.525
879.999	523.106	80.009	19.994	103.797	19.973	1.930	0.538
888.000	527.262	80.009	19.994	103.816	19.972	2.012	0.525
895.999	531.392	80.007	19.994	103.799	19.972	2.005	0.515
903.999	535.541	80.009	19.993	103.790	19.971	2.058	0.501
911.999	539.706	80.011	19.993	103.801	19.972	2.007	0.515
919.999	543.785	80.008	19.993	103.791	19.969	2.190	0.532
927.999	547.902	80.008	19.993	103.801	19.969	2.196	0.496
935.999	552.004	80.008	19.993	103.794	19.973	1.889	0.520
943.999	556.150	80.008	19.995	103.786	19.973	1.895	0.526
952.000	560.235	80.007	19.995	103.788	19.975	1.750	0.526
960.000	564.336	80.009	19.994	103.791	19.969	2.154	0.478
967.999	568.437	80.008	19.994	103.799	19.970	2.122	0.511
975.999	572.548	80.008	19.994	103.794	19.974	1.818	0.537
983.999	576.675	80.008	19.993	103.781	19.975	1.794	0.505
992.000	580.808	80.010	19.993	103.789	19.972	1.948	0.523
1000.000	584.902	80.008	19.993	103.791	19.971	2.034	0.529
1007.999	589.035	80.007	19.993	103.793	19.971	2.076	0.492
1015.999	593.160	80.009	19.992	103.785	19.967	2.351	0.515
1023.999	597.293	80.008	19.993	103.792	19.967	2.320	0.505
1031.999	601.316	80.008	19.995	103.793	19.971	2.043	0.517
1039.999	605.321	80.009	19.994	103.786	19.968	2.241	0.495
1047.999	609.395	80.010	19.993	103.795	19.972	1.957	0.512
1056.000	613.467	80.009	19.993	103.785	19.971	2.040	0.518
1063.999	617.521	80.010	19.993	103.782	19.968	2.265	0.480
1072.000	621.570	80.009	19.993	103.786	19.974	1.858	0.513
1079.999	625.675	80.007	19.993	103.787	19.970	2.087	0.474
1088.000	629.331	80.007	19.993	103.787	19.969	2.163	0.414
1095.999	633.969	80.010	19.992	103.787	19.969	2.155	0.488
1103.999	638.070	80.009	19.993	103.782	19.969	2.175	0.496
1111.999	642.098	80.009	19.994	103.785	19.968	2.263	0.495
1119.999	646.148	80.009	19.993	103.784	19.979	1.500	0.528
1127.999	650.155	80.010	19.994	103.783	19.969	2.150	0.490
1136.000	654.233	80.009	19.993	103.782	19.970	2.093	0.505
1143.999	658.308	80.009	19.993	103.781	19.971	2.073	0.542
1152.000	662.330	80.008	19.994	103.785	19.966	2.359	0.513
1159.999	666.265	80.008	19.994	103.783	19.970	2.146	0.491
1167.999	670.165	80.007	19.993	103.782	19.964	2.502	0.487
1175.999	674.129	80.008	19.995	103.780	19.968	2.282	0.502
1183.999	678.151	80.009	19.994	103.779	19.965	2.441	0.516
1191.999	682.137	80.008	19.994	103.782	19.966	2.386	0.496
1199.999	686.102	80.009	19.992	103.782	19.966	2.421	0.501
1207.999	690.204	80.011	19.992	103.785	19.964	2.496	0.512
1215.999	694.240	80.009	19.992	103.782	19.963	2.568	0.504
1224.000	698.322	80.009	19.993	103.782	19.962	2.669	0.509
1231.999	702.428	80.010	19.994	103.780	19.963	2.625	0.521
1239.999	706.541	80.008	19.994	103.780	19.963	2.606	0.518
1247.999	710.578	80.008	19.995	103.780	19.964	2.529	0.500
1255.999	714.523	80.009	19.993	103.780	19.962	2.656	0.479
1263.999	718.642	80.008	19.993	103.785	19.964	2.494	0.493
1272.000	722.593	80.008	19.995	103.785	19.960	2.815	0.499
1279.999	726.697	80.009	19.994	103.785	19.961	2.703	0.525
1287.999	730.721	80.009	19.992	103.786	19.962	2.641	0.497
1295.999	734.812	80.009	19.994	103.775	19.964	2.555	0.503
1303.999	738.822	80.010	19.993	103.771	19.965	2.478	0.519
1311.999	742.828	80.010	19.993	103.781	19.963	2.564	0.487
1316.999	745.358	80.009	19.994	103.780	19.961	2.696	0.514