File: 01_Data/Fiberglass_Insulation_R13_Paper_Faced_Fiberglass/MCC/Fiberglass_Insulation_R13_Paper_Faced_Fiberglass_MCC_30K_min_220215_R2.txt
Sample ID:	C:\MCC\MCC Cal\Test\R13_Fiberglas_InsulationB_MCC_30K_min_220215_R2.txt
Sample Weight (mg):	4.33
Heating Rate (C/s):	0.5
Combustor Temp (C):	900
N2 Flow Rate (cc/min):	80
O2 Flow Rate (cc/min):	20
Calibration File:	C:\MCC\MCC Cal\Coeff1 JN10440_30_210304.txt.txt
T Correction Coefficients:	0	1.024463	0
Time Shift (s):	14
*
Time (s)	Temperature (C)	N2 flow rate (cc/min)	O2 flow rate (cc/min)	Flow Rate (cc/min)	Oxygen (%)	HRR (W/g)	Heating rate (C/s)
0.000	112.851	80.007	19.994	103.646	20.020	0.118	-0.031
8.000	112.854	80.006	19.994	103.648	20.018	0.261	-0.013
16.000	112.822	80.005	19.992	103.647	20.017	0.397	0.011
24.000	112.820	80.006	19.994	103.708	20.006	1.189	0.021
32.000	113.002	80.006	19.995	103.785	19.999	1.737	0.025
40.000	113.656	80.007	19.993	103.777	19.985	2.742	0.106
48.001	114.545	80.006	19.995	103.819	19.986	2.720	0.112
56.000	115.803	80.008	19.994	103.835	19.976	3.406	0.178
64.000	117.439	80.008	19.995	103.858	19.973	3.634	0.226
72.001	119.320	80.005	19.993	103.893	19.968	4.074	0.278
80.000	121.625	80.006	19.993	103.895	19.970	3.851	0.318
88.000	124.196	80.005	19.994	103.902	19.966	4.155	0.343
96.002	126.944	80.005	19.993	103.891	19.965	4.241	0.375
104.000	129.904	80.007	19.993	103.900	19.967	4.141	0.349
112.000	133.030	80.006	19.993	103.900	19.969	3.926	0.410
120.000	136.258	80.007	19.993	103.900	19.966	4.177	0.391
128.000	139.610	80.007	19.994	103.902	19.965	4.253	0.460
136.000	143.134	80.006	19.993	103.901	19.966	4.153	0.433
144.000	146.746	80.008	19.994	103.895	19.968	4.036	0.443
152.000	150.389	80.006	19.998	103.902	19.961	4.539	0.480
160.000	154.061	80.006	19.994	103.902	19.966	4.165	0.432
168.001	157.846	80.007	19.994	103.903	19.962	4.485	0.494
176.000	161.598	80.005	19.994	103.900	19.964	4.362	0.433
184.000	165.535	80.005	19.993	103.899	19.965	4.291	0.526
192.000	169.482	80.007	19.994	103.900	19.962	4.513	0.463
200.000	173.443	80.007	19.993	103.900	19.961	4.545	0.517
208.000	177.359	80.006	19.993	103.897	19.967	4.122	0.483
216.000	181.502	80.005	19.993	103.872	19.968	4.025	0.516
224.000	185.439	80.007	19.992	103.881	19.968	4.005	0.539
232.000	189.531	80.006	19.993	103.867	19.973	3.653	0.542
240.000	193.536	80.005	19.995	103.861	19.970	3.868	0.529
248.000	197.418	80.006	19.994	103.859	19.970	3.882	0.474
256.000	201.406	80.006	19.993	103.860	19.972	3.761	0.498
264.000	205.414	80.005	19.993	103.862	19.974	3.564	0.514
272.000	209.365	80.005	19.991	103.857	19.975	3.482	0.473
280.000	213.331	80.007	19.993	103.863	19.970	3.888	0.538
288.000	217.281	80.006	19.995	103.861	19.977	3.347	0.480
296.000	221.238	80.007	19.992	103.843	19.976	3.456	0.514
304.000	225.192	80.008	19.992	103.857	19.980	3.140	0.491
312.000	229.164	80.007	19.993	103.847	19.974	3.621	0.514
320.000	233.116	80.005	19.994	103.848	19.970	3.862	0.475
328.000	237.091	80.006	19.993	103.846	19.977	3.329	0.500
336.000	241.021	80.005	19.994	103.857	19.972	3.741	0.500
344.000	245.029	80.005	19.995	103.845	19.975	3.512	0.490
352.000	248.969	80.006	19.994	103.847	19.972	3.718	0.517
360.001	253.026	80.007	19.993	103.839	19.974	3.590	0.497
368.000	257.005	80.008	19.993	103.838	19.970	3.889	0.492
376.000	260.956	80.006	19.992	103.836	19.972	3.736	0.494
384.000	264.930	80.009	19.994	103.823	19.971	3.778	0.510
392.000	268.915	80.007	19.993	103.828	19.977	3.389	0.503
400.000	273.009	80.006	19.993	103.828	19.975	3.547	0.495
408.000	277.029	80.004	19.994	103.830	19.976	3.463	0.516
416.000	280.996	80.006	19.994	103.824	19.977	3.374	0.500
424.000	285.010	80.006	19.994	103.823	19.979	3.214	0.487
432.001	288.992	80.005	19.994	103.822	19.981	3.069	0.483
440.000	293.019	80.007	19.993	103.819	19.978	3.270	0.494
448.000	297.073	80.008	19.993	103.821	19.978	3.322	0.495
456.000	301.094	80.008	19.992	103.823	19.976	3.433	0.514
464.000	305.080	80.006	19.995	103.820	19.978	3.276	0.500
472.000	309.095	80.007	19.993	103.823	19.975	3.499	0.511
480.000	313.245	80.006	19.992	103.820	19.977	3.356	0.506
488.000	317.254	80.005	19.995	103.820	19.977	3.334	0.486
496.000	321.353	80.006	19.994	103.814	19.978	3.282	0.546
504.000	325.410	80.006	19.993	103.819	19.977	3.330	0.513
512.000	329.423	80.004	19.994	103.816	19.978	3.282	0.476
520.000	333.507	80.006	19.995	103.815	19.977	3.382	0.489
528.000	337.577	80.006	19.995	103.814	19.981	3.025	0.506
536.000	341.661	80.005	19.994	103.812	19.979	3.225	0.489
544.000	345.715	80.008	19.993	103.811	19.979	3.191	0.512
552.000	349.734	80.008	19.993	103.804	19.978	3.265	0.478
560.000	353.832	80.005	19.995	103.809	19.979	3.223	0.518
568.000	357.857	80.007	19.993	103.795	19.980	3.110	0.493
576.000	361.871	80.006	19.993	103.786	19.976	3.434	0.507
584.000	365.924	80.006	19.994	103.790	19.976	3.436	0.506
592.000	369.923	80.005	19.995	103.794	19.983	2.905	0.478
600.000	374.030	80.006	19.993	103.800	19.980	3.160	0.509
608.000	378.109	80.007	19.993	103.795	19.979	3.222	0.548
616.000	382.146	80.007	19.994	103.788	19.983	2.881	0.489
624.000	386.161	80.007	19.995	103.781	19.984	2.845	0.492
632.000	390.185	80.008	19.993	103.783	19.981	3.066	0.504
640.000	394.246	80.007	19.993	103.782	19.980	3.124	0.500
648.000	398.281	80.006	19.993	103.786	19.981	3.078	0.548
656.000	402.316	80.005	19.993	103.784	19.983	2.875	0.507
664.000	406.373	80.005	19.992	103.786	19.982	2.953	0.496
672.000	410.345	80.005	19.993	103.785	19.980	3.148	0.496
680.000	414.300	80.005	19.994	103.783	19.983	2.889	0.489
688.000	418.319	80.007	19.995	103.781	19.982	2.959	0.492
696.000	422.368	80.007	19.994	103.781	19.982	2.955	0.504
704.000	426.392	80.007	19.993	103.782	19.980	3.166	0.501
712.000	430.416	80.008	19.994	103.780	19.979	3.212	0.495
720.000	434.488	80.006	19.993	103.783	19.977	3.329	0.513
728.000	438.586	80.005	19.993	103.785	19.980	3.114	0.522
736.000	442.632	80.006	19.993	103.784	19.977	3.375	0.505
744.000	446.629	80.007	19.994	103.780	19.975	3.510	0.488
752.000	450.681	80.007	19.993	103.779	19.976	3.435	0.512
760.000	454.755	80.008	19.993	103.778	19.977	3.393	0.521
768.000	458.840	80.007	19.995	103.772	19.981	3.072	0.478
776.000	462.938	80.006	19.994	103.782	19.978	3.282	0.504
784.000	466.954	80.008	19.993	103.763	19.979	3.246	0.519
792.000	471.099	80.007	19.992	103.768	19.982	3.011	0.486
800.001	475.187	80.005	19.994	103.769	19.982	2.991	0.524
808.000	479.248	80.005	19.994	103.767	19.981	3.073	0.505
816.000	483.339	80.005	19.993	103.755	19.982	2.961	0.500
824.000	487.373	80.007	19.995	103.768	19.982	2.999	0.516
832.000	491.491	80.005	19.994	103.765	19.980	3.131	0.515
840.000	495.540	80.007	19.994	103.767	19.982	2.971	0.529
848.000	499.581	80.008	19.994	103.769	19.982	2.977	0.491
856.000	503.666	80.004	19.992	103.779	19.989	2.469	0.534
864.000	507.779	80.009	19.994	103.760	19.985	2.766	0.499
872.000	511.936	80.010	19.993	103.766	19.985	2.744	0.509
880.000	516.114	80.008	19.993	103.768	19.988	2.551	0.552
888.000	520.297	80.004	19.994	103.767	19.988	2.549	0.504
896.000	524.471	80.006	19.994	103.761	19.989	2.449	0.518
904.000	528.648	80.004	19.994	103.751	19.990	2.399	0.526
912.000	532.830	80.004	19.994	103.759	19.988	2.548	0.533
920.000	537.048	80.006	19.995	103.768	19.989	2.467	0.550
928.000	541.260	80.008	19.994	103.766	19.991	2.340	0.507
936.000	545.457	80.007	19.992	103.748	19.988	2.545	0.539
944.000	549.659	80.007	19.992	103.777	19.985	2.734	0.552
952.001	553.752	80.008	19.993	103.755	19.989	2.433	0.516
960.000	557.936	80.007	19.992	103.756	19.989	2.495	0.557
968.000	562.042	80.006	19.994	103.748	19.992	2.254	0.521
976.000	566.127	80.007	19.994	103.748	19.990	2.417	0.527
984.000	570.219	80.007	19.994	103.748	19.987	2.636	0.515
992.000	574.246	80.005	19.995	103.747	19.988	2.539	0.485
1000.000	578.342	80.006	19.994	103.747	19.989	2.453	0.510
1008.000	582.450	80.009	19.994	103.744	19.987	2.583	0.486
1016.000	586.492	80.007	19.993	103.749	19.988	2.537	0.500
1024.000	590.616	80.007	19.994	103.747	19.983	2.874	0.531
1032.000	594.715	80.008	19.993	103.748	19.985	2.744	0.543
1040.000	598.822	80.007	19.993	103.752	19.984	2.844	0.535
1048.000	602.868	80.006	19.993	103.752	19.984	2.862	0.501
1056.000	606.905	80.006	19.994	103.752	19.987	2.641	0.503
1064.001	610.934	80.006	19.994	103.747	19.980	3.121	0.494
1072.000	615.019	80.004	19.994	103.748	19.986	2.655	0.505
1080.001	619.045	80.004	19.995	103.753	19.978	3.253	0.503
1088.001	623.147	80.007	19.993	103.755	19.981	3.055	0.507
1096.000	627.233	80.007	19.994	103.765	19.982	2.987	0.531
1104.000	631.355	80.007	19.994	103.753	19.984	2.814	0.543
1112.000	635.435	80.007	19.992	103.754	19.984	2.838	0.519
1120.000	639.551	80.008	19.993	103.745	19.981	3.061	0.525
1128.000	643.625	80.006	19.994	103.745	19.987	2.589	0.503
1136.001	647.734	80.006	19.993	103.744	19.982	3.017	0.534
1144.000	651.871	80.006	19.994	103.745	19.979	3.219	0.523
1152.000	655.957	80.005	19.994	103.747	19.981	3.089	0.500
1160.000	659.955	80.006	19.994	103.746	19.977	3.392	0.503
1168.001	663.952	80.007	19.992	103.746	19.978	3.266	0.487
1176.001	668.011	80.005	19.995	103.746	19.976	3.444	0.510
1184.000	672.047	80.007	19.994	103.744	19.981	3.035	0.533
1192.000	676.133	80.009	19.993	103.742	19.981	3.077	0.486
1200.000	680.134	80.009	19.993	103.745	19.982	2.994	0.506
1208.000	684.159	80.007	19.993	103.744	19.980	3.149	0.499
1216.000	688.206	80.006	19.993	103.755	19.981	3.061	0.504
1224.000	692.390	80.007	19.993	103.751	19.982	2.982	0.695
1232.000	696.181	80.005	19.992	103.746	19.975	3.529	0.516
1240.000	700.170	80.005	19.994	103.747	19.978	3.320	0.483
1248.001	704.232	80.008	19.996	103.746	19.976	3.414	0.617
1256.000	708.300	80.008	19.993	103.744	19.978	3.320	0.522
1264.000	712.390	80.009	19.994	103.743	19.977	3.382	0.542
1272.001	716.492	80.008	19.995	103.742	19.980	3.127	0.515
1280.000	720.522	80.009	19.994	103.741	19.979	3.227	0.511
1288.001	724.591	80.007	19.993	103.746	19.975	3.540	0.491
1296.000	728.615	80.006	19.993	103.746	19.980	3.103	0.490
1304.000	732.660	80.006	19.993	103.746	19.978	3.306	0.516
1312.000	736.691	80.006	19.993	103.745	19.981	3.053	0.464
1320.000	740.748	80.007	19.993	103.746	19.979	3.227	0.490
1325.501	743.555	80.007	19.994	103.744	19.977	3.348	0.489