File: 01_Data/Pine_Lap_Siding_Wood/MCC/PineLap_SidingB_MCC_30K_min_211122_R1.txt
Sample ID:	C:\MCC\MCC Cal\Test\PineLap_SidingB_MCC_30K_min_211122_R1.txt
Sample Weight (mg):	4.9
Heating Rate (C/s):	0.5
Combustor Temp (C):	900
N2 Flow Rate (cc/min):	80
O2 Flow Rate (cc/min):	20
Calibration File:	C:\MCC\MCC Cal\Coeff1 JN10440_30_210304.txt.txt
T Correction Coefficients:	0	1.024463	0
Time Shift (s):	14
*
Time (s)	Temperature (C)	N2 flow rate (cc/min)	O2 flow rate (cc/min)	Flow Rate (cc/min)	Oxygen (%)	HRR (W/g)	Heating rate (C/s)
0.000	109.070	80.005	19.992	103.130	20.008	0.202	-0.010
8.000	109.088	80.007	19.996	103.132	20.006	0.285	0.004
16.000	109.065	80.007	19.996	103.116	19.999	0.771	-0.020
24.000	109.279	80.006	19.995	103.216	19.989	1.410	0.040
32.000	109.651	80.007	19.993	103.217	19.987	1.558	0.070
39.999	110.352	80.008	19.994	103.288	19.983	1.847	0.113
47.999	111.495	80.006	19.994	103.373	19.965	3.030	0.203
55.999	113.151	80.004	19.995	103.360	19.959	3.406	0.270
63.999	115.238	80.006	19.995	103.407	19.955	3.641	0.283
71.999	117.744	80.005	19.995	103.375	19.958	3.460	0.356
79.999	120.583	80.006	19.995	103.408	19.953	3.784	0.358
88.000	123.797	80.005	19.995	103.397	19.952	3.893	0.414
96.000	127.182	80.006	19.994	103.412	19.949	4.055	0.393
104.001	130.717	80.006	19.994	103.393	19.948	4.157	0.478
112.000	134.481	80.006	19.993	103.411	19.946	4.253	0.466
120.001	138.348	80.009	19.994	103.405	19.951	3.925	0.465
127.999	142.390	80.008	19.994	103.390	19.953	3.833	0.532
136.000	146.419	80.006	19.994	103.398	19.951	3.908	0.500
144.000	150.488	80.005	19.995	103.373	19.955	3.642	0.506
152.000	154.533	80.006	19.994	103.360	19.958	3.493	0.472
160.000	158.573	80.006	19.995	103.369	19.953	3.784	0.482
168.000	162.671	80.005	19.995	103.381	19.956	3.595	0.527
176.000	166.797	80.005	19.995	103.371	19.957	3.529	0.514
184.000	170.850	80.006	19.994	103.347	19.955	3.700	0.517
192.000	174.885	80.007	19.994	103.343	19.954	3.725	0.471
200.000	178.967	80.008	19.995	103.330	19.958	3.501	0.511
208.000	182.940	80.008	19.995	103.333	19.957	3.515	0.480
216.000	186.959	80.007	19.995	103.331	19.961	3.284	0.519
224.000	190.901	80.006	19.994	103.333	19.959	3.400	0.502
232.000	194.882	80.007	19.994	103.340	19.957	3.567	0.455
240.000	198.817	80.007	19.995	103.329	19.956	3.598	0.496
248.000	202.729	80.007	19.995	103.321	19.960	3.369	0.484
256.000	206.672	80.007	19.995	103.310	19.959	3.434	0.508
264.000	210.540	80.007	19.995	103.317	19.956	3.629	0.457
272.000	214.420	80.007	19.994	103.326	19.954	3.730	0.483
280.000	218.229	80.007	19.994	103.325	19.950	4.005	0.493
288.000	221.974	80.010	19.994	103.326	19.943	4.486	0.459
296.000	225.804	80.008	19.994	103.298	19.946	4.289	0.464
304.000	229.636	80.006	19.994	103.325	19.941	4.587	0.451
312.000	233.465	80.007	19.994	103.336	19.930	5.287	0.498
320.000	237.286	80.008	19.995	103.330	19.918	6.075	0.479
328.000	241.120	80.006	19.994	103.324	19.915	6.280	0.510
336.000	244.975	80.007	19.995	103.330	19.905	6.976	0.476
344.000	248.945	80.007	19.994	103.331	19.891	7.872	0.516
352.000	252.943	80.006	19.995	103.331	19.881	8.565	0.514
360.000	256.884	80.006	19.995	103.333	19.864	9.665	0.500
368.000	260.833	80.007	19.994	103.332	19.844	10.969	0.493
376.000	264.702	80.009	19.994	103.342	19.837	11.403	0.499
384.000	268.730	80.005	19.993	103.360	19.812	13.072	0.500
392.000	272.749	80.006	19.995	103.367	19.798	14.008	0.507
400.000	276.759	80.007	19.995	103.365	19.775	15.542	0.468
408.000	280.936	80.008	19.994	103.374	19.744	17.560	0.724
416.000	284.730	80.006	19.994	103.375	19.726	18.748	0.540
424.000	288.698	80.005	19.993	103.388	19.696	20.725	0.458
432.000	292.677	80.007	19.994	103.384	19.662	22.978	0.506
440.000	296.545	80.008	19.994	103.407	19.632	24.966	0.471
448.000	300.426	80.007	19.994	103.428	19.597	27.261	0.459
456.000	304.391	80.008	19.995	103.442	19.559	29.736	0.494
464.000	308.299	80.006	19.996	103.445	19.519	32.388	0.496
472.000	312.388	80.007	19.994	103.456	19.473	35.413	0.486
480.000	316.469	80.006	19.993	103.487	19.426	38.555	0.519
488.000	320.529	80.007	19.994	103.494	19.373	42.037	0.492
496.000	324.637	80.005	19.994	103.523	19.324	45.282	0.496
504.000	328.812	80.007	19.994	103.525	19.277	48.376	0.547
512.000	332.915	80.009	19.994	103.528	19.234	51.219	0.512
520.000	337.034	80.008	19.994	103.532	19.200	53.451	0.505
528.000	341.181	80.007	19.994	103.544	19.166	55.714	0.529
536.000	345.201	80.008	19.995	103.556	19.130	58.096	0.517
544.000	349.268	80.007	19.993	103.565	19.085	61.046	0.502
552.000	353.429	80.005	19.996	103.600	19.038	64.169	0.526
560.000	357.419	80.005	19.995	103.609	18.966	68.940	0.524
568.000	361.453	80.006	19.994	103.645	18.900	73.317	0.480
576.000	365.448	80.006	19.993	103.647	18.838	77.396	0.507
584.000	369.444	80.005	19.995	103.650	18.802	79.732	0.464
592.000	373.383	80.008	19.995	103.618	18.796	80.052	0.479
600.000	377.405	80.009	19.995	103.571	18.861	75.781	0.488
608.000	381.461	80.007	19.993	103.504	18.990	67.179	0.537
616.000	385.486	80.009	19.994	103.453	19.170	55.323	0.503
624.000	389.536	80.009	19.995	103.366	19.372	42.039	0.520
632.000	393.671	80.005	19.995	103.300	19.562	29.523	0.528
640.000	397.780	80.006	19.994	103.290	19.703	20.249	0.546
648.000	401.922	80.006	19.995	103.286	19.781	15.096	0.518
656.000	405.939	80.007	19.994	103.273	19.825	12.201	0.509
664.000	410.042	80.004	19.993	103.257	19.845	10.889	0.472
672.000	414.049	80.007	19.994	103.268	19.853	10.375	0.470
680.000	418.116	80.008	19.994	103.254	19.855	10.234	0.526
688.000	422.159	80.008	19.994	103.274	19.867	9.480	0.516
696.000	426.169	80.009	19.994	103.282	19.876	8.832	0.512
704.000	430.146	80.009	19.994	103.260	19.878	8.738	0.515
712.000	434.185	80.005	19.995	103.250	19.882	8.440	0.522
720.000	438.184	80.006	19.995	103.256	19.886	8.235	0.503
728.000	442.123	80.007	19.995	103.262	19.892	7.805	0.506
736.000	446.112	80.006	19.994	103.277	19.890	7.936	0.481
744.000	450.168	80.003	19.995	103.254	19.897	7.479	0.509
752.000	454.309	80.004	19.995	103.256	19.902	7.127	0.557
760.000	458.442	80.008	19.995	103.283	19.910	6.625	0.523
768.000	462.559	80.005	19.993	103.255	19.915	6.323	0.536
776.000	466.580	80.006	19.995	103.252	19.919	6.026	0.506
784.000	470.583	80.007	19.993	103.246	19.926	5.563	0.469
792.000	474.644	80.009	19.994	103.249	19.929	5.376	0.492
800.000	478.719	80.007	19.994	103.245	19.928	5.442	0.525
808.000	482.750	80.005	19.995	103.273	19.935	4.958	0.514
816.000	486.867	80.006	19.994	103.252	19.932	5.183	0.505
824.000	491.012	80.007	19.994	103.249	19.936	4.946	0.531
832.000	495.147	80.006	19.994	103.255	19.935	4.969	0.527
840.000	499.310	80.007	19.996	103.240	19.935	4.981	0.527
848.000	503.429	80.007	19.995	103.235	19.942	4.513	0.503
856.000	507.595	80.007	19.993	103.251	19.943	4.425	0.512
864.000	511.763	80.009	19.994	103.244	19.942	4.505	0.530
872.000	515.924	80.007	19.995	103.244	19.944	4.386	0.499
880.000	520.115	80.007	19.995	103.248	19.943	4.456	0.559
888.000	524.229	80.005	19.995	103.234	19.947	4.221	0.519
896.000	528.332	80.008	19.993	103.241	19.942	4.495	0.490
904.000	532.457	80.005	19.994	103.242	19.946	4.242	0.511
912.000	536.577	80.007	19.995	103.240	19.943	4.427	0.514
920.000	540.610	80.008	19.995	103.249	19.942	4.491	0.478
928.000	544.661	80.008	19.995	103.231	19.944	4.382	0.500
936.000	548.682	80.007	19.995	103.234	19.947	4.190	0.511
944.000	552.763	80.009	19.994	103.225	19.941	4.554	0.539
952.000	556.799	80.010	19.995	103.237	19.947	4.222	0.501
960.000	560.836	80.005	19.996	103.233	19.944	4.387	0.509
968.000	564.896	80.011	19.991	103.236	19.942	4.524	0.519
976.000	568.921	80.006	19.994	103.222	19.940	4.660	0.506
984.000	572.985	80.008	19.995	103.238	19.943	4.466	0.549
992.000	577.077	80.007	19.995	103.241	19.943	4.485	0.491
1000.000	581.132	80.007	19.995	103.251	19.937	4.825	0.508
1008.000	585.222	80.007	19.994	103.241	19.941	4.603	0.532
1016.000	589.263	80.002	20.003	103.227	19.942	4.493	0.527
1024.000	593.326	80.001	19.992	103.236	19.944	4.369	0.505
1031.999	597.479	80.007	19.991	103.233	19.941	4.577	0.545
1039.999	601.500	80.006	19.995	103.212	19.941	4.582	0.539
1047.999	605.505	80.006	19.996	103.222	19.942	4.522	0.500
1056.000	609.530	80.007	19.995	103.221	19.941	4.601	0.470
1063.999	613.568	80.005	19.994	103.241	19.942	4.530	0.495
1072.000	617.590	80.005	19.994	103.234	19.943	4.457	0.511
1080.000	621.669	80.007	19.995	103.248	19.940	4.662	0.482
1087.999	625.751	80.009	19.994	103.246	19.934	5.065	0.512
1096.000	629.874	80.008	19.994	103.243	19.935	4.966	0.479
1103.999	634.068	80.006	19.993	103.226	19.938	4.756	0.557
1111.999	638.295	80.009	19.995	103.220	19.934	5.030	0.558
1120.000	642.429	80.009	19.994	103.222	19.932	5.188	0.541
1127.999	646.416	80.007	19.996	103.212	19.937	4.852	0.546
1135.999	650.496	79.996	20.001	103.225	19.935	4.975	0.505
1143.999	654.615	80.005	19.994	103.225	19.937	4.827	0.502
1151.999	658.683	80.005	19.994	103.219	19.937	4.832	0.532
1159.999	662.761	80.008	19.990	103.233	19.934	5.041	0.502
1168.000	666.765	80.008	19.994	103.227	19.939	4.686	0.499
1175.999	670.872	80.008	19.994	103.221	19.936	4.940	0.514
1183.999	674.964	80.008	19.994	103.234	19.935	5.000	0.540
1191.999	678.993	80.009	19.995	103.234	19.935	4.962	0.497
1199.999	682.995	80.008	19.995	103.232	19.934	5.026	0.497
1207.999	687.056	80.006	19.995	103.225	19.933	5.132	0.503
1215.999	691.097	80.003	19.997	103.215	19.936	4.926	0.493
1223.999	695.240	80.006	19.994	103.217	19.936	4.923	0.545
1231.999	699.302	80.005	19.999	103.214	19.936	4.884	0.502
1239.999	703.336	80.006	19.994	103.218	19.938	4.784	0.506
1247.999	707.350	80.010	19.995	103.214	19.936	4.944	0.517
1255.999	711.388	80.008	19.994	103.210	19.937	4.815	0.533
1263.999	715.434	80.007	19.989	103.217	19.930	5.278	0.540
1271.999	719.439	80.013	19.991	103.215	19.935	5.010	0.478
1279.999	723.359	80.012	19.993	103.214	19.937	4.833	0.484
1287.999	727.195	80.006	19.994	103.214	19.935	4.980	0.493
1296.000	731.153	80.003	19.997	103.207	19.935	4.983	0.486
1303.999	735.137	80.008	19.996	103.212	19.937	4.854	0.515
1311.999	739.216	80.006	19.994	103.214	19.937	4.863	0.533
1319.999	743.241	80.007	19.996	103.212	19.942	4.496	0.531
1320.499	743.467	80.005	19.995	103.216	19.939	4.690	0.494