File: 01_Data/Pine_Lap_Siding_Wood/MCC/PineLap_SidingB_MCC_30K_min_211122_R2.txt
Sample ID:	C:\MCC\MCC Cal\Test\PineLap_SidingB_MCC_30K_min_211122_R2.txt
Sample Weight (mg):	4.39
Heating Rate (C/s):	0.5
Combustor Temp (C):	900
N2 Flow Rate (cc/min):	80
O2 Flow Rate (cc/min):	20
Calibration File:	C:\MCC\MCC Cal\Coeff1 JN10440_30_210304.txt.txt
T Correction Coefficients:	0	1.024463	0
Time Shift (s):	14
*
Time (s)	Temperature (C)	N2 flow rate (cc/min)	O2 flow rate (cc/min)	Flow Rate (cc/min)	Oxygen (%)	HRR (W/g)	Heating rate (C/s)
0.000	108.273	80.004	19.996	103.093	20.136	-0.224	0.027
8.000	108.293	80.003	19.995	103.095	20.134	-0.084	-0.009
16.000	108.286	80.005	19.994	103.093	20.133	-0.044	0.004
24.000	108.259	80.005	19.995	103.094	20.133	-0.018	-0.011
32.000	108.254	80.004	19.995	103.098	20.133	-0.056	-0.018
39.999	108.229	80.004	19.994	103.092	20.129	0.282	-0.002
47.999	108.234	80.004	19.995	103.081	20.132	0.016	-0.029
55.999	108.174	80.004	19.995	103.094	20.134	-0.116	0.027
63.999	108.163	80.003	19.996	103.077	20.129	0.266	-0.035
71.999	108.135	80.004	19.995	103.090	20.130	0.212	-0.024
79.999	108.143	80.007	19.994	103.095	20.130	0.150	0.033
87.999	108.108	80.004	19.996	103.088	20.133	-0.040	-0.017
96.000	108.137	80.005	19.995	103.098	20.132	0.030	0.021
103.999	108.116	80.008	19.995	103.092	20.129	0.280	0.001
111.999	108.061	80.005	19.995	103.090	20.127	0.376	-0.018
119.999	108.053	80.003	19.994	103.090	20.128	0.312	-0.011
127.999	108.014	80.003	19.995	103.093	20.127	0.382	-0.018
136.000	108.038	80.005	19.994	103.090	20.132	0.070	0.006
144.000	107.990	80.003	19.994	103.086	20.129	0.238	-0.012
152.000	108.030	80.003	19.995	103.096	20.130	0.194	-0.007
160.000	108.021	80.005	19.994	103.095	20.126	0.450	0.006
168.000	107.980	80.003	19.995	103.091	20.128	0.310	-0.020
176.000	107.943	80.005	19.996	103.084	20.131	0.076	0.002
184.000	107.943	80.006	19.995	103.090	20.125	0.560	-0.022
192.000	107.931	80.006	19.995	103.077	20.130	0.188	-0.020
200.000	107.904	80.004	19.995	103.088	20.131	0.098	-0.009
208.000	107.915	80.004	19.994	103.083	20.128	0.333	-0.016
216.000	107.876	80.003	19.993	103.103	20.087	3.370	0.008
224.000	109.503	80.004	19.994	104.106	19.965	12.396	0.394
232.000	114.339	80.006	19.995	104.009	19.955	13.126	0.730
240.000	121.337	80.008	19.994	103.921	19.966	12.272	0.965
248.000	129.926	80.006	19.995	103.808	19.986	10.825	1.096
256.000	139.234	80.004	19.995	103.720	20.005	9.411	1.150
264.000	148.868	80.008	19.994	103.633	20.021	8.199	1.226
272.000	158.313	80.006	19.996	103.593	20.027	7.735	1.137
280.000	167.712	80.003	19.995	103.539	20.033	7.293	1.159
288.000	176.780	80.004	19.994	103.506	20.042	6.666	1.099
296.000	185.641	80.006	19.993	103.489	20.049	6.169	1.085
304.000	194.227	80.005	19.995	103.455	20.055	5.671	1.066
312.000	202.380	80.005	19.995	103.430	20.050	6.066	0.986
320.000	210.261	80.005	19.994	103.408	20.053	5.844	0.989
328.000	217.784	80.006	19.994	103.411	20.048	6.206	0.926
336.000	225.008	80.005	19.993	103.400	20.048	6.198	0.863
344.000	232.057	80.006	19.994	103.387	20.043	6.593	0.865
352.000	238.642	80.007	19.995	103.367	20.035	7.186	0.830
360.000	244.965	80.004	19.995	103.353	20.019	8.322	0.765
368.000	251.020	80.004	19.996	103.366	20.004	9.473	0.758
376.000	256.667	80.005	19.995	103.365	19.985	10.798	0.684
384.000	262.092	80.005	19.995	103.362	19.960	12.693	0.666
392.000	267.394	80.003	19.994	103.359	19.940	14.146	0.678
400.000	272.486	80.004	19.994	103.371	19.911	16.295	0.631
408.000	277.379	80.005	19.996	103.369	19.888	17.977	0.599
416.000	282.109	80.004	19.995	103.371	19.864	19.754	0.593
424.000	286.699	80.006	19.995	103.369	19.835	21.853	0.585
432.000	291.156	80.005	19.995	103.371	19.809	23.762	0.549
440.000	295.515	80.003	19.994	103.389	19.775	26.248	0.518
448.000	299.838	80.003	19.995	103.391	19.745	28.477	0.547
456.000	303.977	80.003	19.994	103.402	19.711	30.992	0.529
464.000	307.988	80.002	19.995	103.408	19.670	34.012	0.491
472.000	312.023	80.003	19.995	103.412	19.635	36.538	0.501
480.000	315.929	80.004	19.995	103.437	19.592	39.699	0.489
488.000	319.763	80.005	19.994	103.442	19.560	42.116	0.447
496.000	323.613	80.004	19.994	103.444	19.522	44.909	0.474
504.000	327.472	80.004	19.995	103.470	19.488	47.375	0.463
512.000	331.312	80.009	19.995	103.454	19.462	49.310	0.459
520.000	335.133	80.005	19.994	103.456	19.440	50.927	0.485
528.000	338.989	80.005	19.995	103.469	19.421	52.343	0.471
536.000	342.860	80.003	19.995	103.491	19.396	54.167	0.456
544.000	346.751	80.004	19.995	103.485	19.362	56.652	0.508
552.000	350.641	80.003	19.995	103.497	19.328	59.168	0.508
560.000	354.466	80.004	19.995	103.503	19.275	63.074	0.479
568.000	358.333	80.006	19.995	103.531	19.216	67.470	0.489
576.000	362.216	80.005	19.994	103.561	19.153	72.145	0.473
584.000	366.141	80.005	19.994	103.583	19.086	77.029	0.494
592.000	370.145	80.006	19.994	103.575	19.045	80.069	0.479
600.000	374.260	80.006	19.994	103.565	19.043	80.114	0.521
608.000	378.348	80.004	19.995	103.531	19.095	76.243	0.538
616.000	382.501	80.004	19.994	103.444	19.215	67.358	0.485
624.000	386.681	80.005	19.996	103.391	19.393	54.327	0.516
632.000	390.889	80.003	19.994	103.324	19.582	40.434	0.517
640.000	395.187	80.004	19.995	103.278	19.745	28.426	0.547
648.000	399.495	80.005	19.995	103.247	19.868	19.376	0.538
656.000	403.690	80.004	19.996	103.244	19.935	14.518	0.514
664.000	407.857	80.005	19.995	103.250	19.965	12.295	0.532
672.000	411.957	80.007	19.992	103.238	19.989	10.537	0.524
680.000	415.887	80.005	19.995	103.240	19.994	10.168	0.558
688.000	419.685	80.003	19.995	103.231	20.001	9.640	0.658
696.000	423.888	80.004	19.995	103.218	20.006	9.251	0.499
704.000	427.784	80.005	19.995	103.227	20.012	8.864	0.491
712.000	431.767	80.003	19.995	103.229	20.014	8.659	0.485
720.000	435.787	80.003	19.994	103.219	20.017	8.497	0.469
728.000	439.786	80.004	19.997	103.247	20.021	8.187	0.501
736.000	443.783	80.005	19.994	103.218	20.022	8.072	0.491
744.000	447.789	80.004	19.996	103.220	20.027	7.705	0.480
752.000	451.816	80.005	19.995	103.229	20.034	7.198	0.512
760.000	455.884	80.005	19.994	103.220	20.038	6.928	0.512
768.000	460.026	80.005	19.993	103.216	20.035	7.114	0.490
776.000	464.111	80.004	19.994	103.213	20.043	6.532	0.528
784.000	468.156	80.004	19.995	103.231	20.047	6.235	0.548
792.000	472.300	80.005	19.995	103.216	20.049	6.107	0.507
800.000	476.447	80.004	19.993	103.221	20.052	5.897	0.534
808.000	480.608	80.004	19.995	103.228	20.054	5.757	0.564
816.000	484.776	80.005	19.994	103.221	20.058	5.454	0.520
824.000	488.970	80.005	19.995	103.219	20.059	5.354	0.532
832.000	493.222	80.004	19.996	103.209	20.061	5.266	0.560
840.000	497.352	80.007	19.994	103.222	20.062	5.186	0.523
848.000	501.483	80.004	19.998	103.212	20.059	5.354	0.505
856.000	505.570	80.005	19.994	103.219	20.058	5.484	0.518
864.000	509.576	80.004	19.992	103.215	20.061	5.228	0.501
872.000	513.593	80.004	19.996	103.215	20.061	5.224	0.490
880.000	517.719	80.004	19.996	103.205	20.061	5.225	0.493
888.000	521.803	80.006	19.994	103.228	20.062	5.176	0.512
896.000	525.905	80.004	19.994	103.213	20.061	5.264	0.555
904.000	529.965	80.004	19.996	103.214	20.060	5.320	0.509
912.000	534.081	80.006	19.995	103.211	20.062	5.164	0.503
920.000	538.222	80.006	19.995	103.208	20.060	5.320	0.509
928.000	542.355	80.004	19.994	103.213	20.055	5.646	0.508
936.000	546.434	80.004	19.996	103.215	20.058	5.478	0.499
944.000	550.454	80.005	19.996	103.201	20.060	5.339	0.501
952.000	554.436	80.006	19.996	103.210	20.059	5.413	0.520
960.000	558.411	80.005	19.996	103.204	20.056	5.588	0.493
968.000	562.347	80.006	19.994	103.202	20.054	5.758	0.505
976.000	566.373	80.005	19.996	103.202	20.053	5.794	0.506
984.000	570.395	80.005	19.993	103.214	20.054	5.780	0.518
992.000	574.433	80.004	19.994	103.216	20.058	5.460	0.504
1000.000	578.536	80.006	19.995	103.207	20.054	5.790	0.494
1008.000	582.699	80.008	19.995	103.208	20.057	5.546	0.446
1016.000	586.795	80.005	19.996	103.200	20.055	5.706	0.510
1024.000	590.932	80.005	19.995	103.163	20.048	6.166	0.513
1031.999	594.957	80.006	19.995	103.206	20.052	5.914	0.515
1039.999	599.066	80.005	19.995	103.209	20.052	5.904	0.518
1047.999	603.182	80.003	19.994	103.215	20.050	6.075	0.520
1056.000	607.248	80.006	19.994	103.202	20.048	6.183	0.515
1064.000	611.285	80.007	19.994	103.217	20.046	6.372	0.537
1072.000	615.363	80.006	19.994	103.212	20.047	6.278	0.501
1080.000	619.451	80.006	19.994	103.211	20.041	6.691	0.508
1088.000	623.427	80.006	19.994	103.210	20.046	6.377	0.501
1096.000	627.517	80.005	19.995	103.205	20.045	6.399	0.503
1104.000	631.571	80.005	19.995	103.213	20.043	6.591	0.486
1112.000	635.618	80.005	19.994	103.215	20.041	6.679	0.505
1120.000	639.581	80.003	19.995	103.195	20.043	6.571	0.527
1128.000	643.628	80.002	19.996	103.213	20.045	6.407	0.521
1136.000	647.683	80.006	19.994	103.204	20.040	6.801	0.513
1144.000	651.765	80.006	19.994	103.208	20.039	6.879	0.489
1152.000	655.922	80.005	19.994	103.211	20.037	7.020	0.488
1160.000	660.051	80.006	19.994	103.188	20.037	6.969	0.493
1168.001	664.158	80.007	19.994	103.209	20.036	7.103	0.481
1176.000	668.331	80.007	19.993	103.215	20.037	6.999	0.518
1184.000	672.457	80.004	19.993	103.189	20.037	7.037	0.525
1192.000	676.580	80.006	19.995	103.208	20.036	7.063	0.498
1200.000	680.681	80.005	19.995	103.201	20.033	7.296	0.499
1208.000	684.734	80.005	19.995	103.208	20.029	7.617	0.505
1216.000	688.736	80.004	19.995	103.206	20.030	7.503	0.488
1224.000	692.807	80.007	19.996	103.185	20.028	7.673	0.508
1232.000	696.808	80.005	19.994	103.198	20.025	7.897	0.487
1240.000	700.872	80.007	19.993	103.207	20.026	7.805	0.476
1248.000	704.856	80.009	19.993	103.213	20.030	7.537	0.522
1256.000	708.830	80.006	19.994	103.205	20.030	7.509	0.496
1264.000	712.848	80.005	19.994	103.178	20.025	7.912	0.494
1272.000	716.884	80.005	19.994	103.192	20.028	7.676	0.475
1280.000	720.951	80.006	19.994	103.209	20.025	7.859	0.489
1288.000	725.011	80.005	19.994	103.211	20.025	7.884	0.484
1296.000	729.080	80.003	19.994	103.197	20.021	8.183	0.529
1304.000	733.189	80.007	19.995	103.191	20.023	8.040	0.533
1312.000	737.208	80.004	19.995	103.208	20.020	8.233	0.504
1320.000	741.312	80.006	19.994	103.209	20.013	8.748	0.496
1324.500	743.645	80.008	19.994	103.209	20.014	8.723	0.489