File: 01_Data/Cellulose_Insulation/STA/N2/10K_min/Cellulose_Insulation_STA_N2_10KData_220728_R1.csv
##Temp./Â°C,Time/min,Mass loss(subtr.2)/mg,DSC(subtr.2)/(mW/mg),Sensit./(uV/mW)
49.357,10.01,-0.05709,0.03899491,1.07027
51.957,11.22884,-0.06045085,0.13183,1.06956
54.557,11.6274,-0.06074802,0.17848,1.06883
57.157,11.9604,-0.06299333,0.21516,1.0681
59.757,12.2662,-0.06405128,0.24268,1.06737
62.357,12.56022,-0.06643759,0.26292,1.06662
64.957,12.84636,-0.06713022,0.28307,1.06587
67.557,13.12691,-0.07009295,0.30533,1.06511
70.157,13.40414,-0.07245546,0.32765,1.06435
72.757,13.6807,-0.0751,0.34888,1.06358
75.357,13.9539,-0.07772824,0.3699,1.0628
77.957,14.224,-0.08232622,0.39142,1.06201
80.557,14.49215,-0.08695077,0.40899,1.06122
83.157,14.75854,-0.0909,0.42394,1.06042
85.757,15.0228,-0.09487496,0.43626,1.05961
88.357,15.2855,-0.09879681,0.44468,1.0588
90.957,15.5459,-0.10407,0.45112,1.05797
93.557,15.8051,-0.10797,0.45446,1.05715
96.157,16.0628,-0.11215,0.45647,1.05631
98.757,16.31932,-0.11593,0.45874,1.05547
101.357,16.57509,-0.12003,0.45875,1.05462
103.957,16.82899,-0.12384,0.45627,1.05376
106.557,17.08391,-0.12878,0.45352,1.05289
109.157,17.33835,-0.13174,0.44716,1.05202
111.757,17.59194,-0.13371,0.43965,1.05114
114.357,17.8449,-0.13692,0.43445,1.05025
116.957,18.09783,-0.1423,0.4267,1.04936
119.557,18.35077,-0.14458,0.42088,1.04846
122.157,18.60279,-0.14851,0.41923,1.04755
124.757,18.85506,-0.15119,0.41524,1.04663
127.357,19.107,-0.15522,0.41309,1.04571
129.957,19.35847,-0.15643,0.41279,1.04478
132.557,19.6092,-0.15908,0.40902,1.04384
135.157,19.86094,-0.16435,0.40773,1.0429
137.757,20.11218,-0.16588,0.40917,1.04194
140.357,20.3628,-0.16797,0.40855,1.04098
142.957,20.61369,-0.17061,0.409,1.04001
145.557,20.86401,-0.17455,0.40912,1.03904
148.157,21.11393,-0.17719,0.41083,1.03806
150.757,21.3633,-0.17971,0.41357,1.03706
153.357,21.61235,-0.18376,0.41447,1.03607
155.957,21.8611,-0.18646,0.41688,1.03506
158.557,22.11001,-0.18707,0.41694,1.03405
161.157,22.35804,-0.19232,0.41437,1.03303
163.757,22.60671,-0.19498,0.41632,1.032
166.357,22.85503,-0.19764,0.41122,1.03096
168.957,23.10342,-0.20156,0.41329,1.02992
171.557,23.3518,-0.2042,0.40891,1.02887
174.157,23.59955,-0.20683,0.40842,1.02781
176.757,23.84871,-0.20941,0.40829,1.02674
179.357,24.0966,-0.21338,0.4048,1.02567
181.957,24.34498,-0.21572,0.4031,1.02459
184.557,24.59304,-0.22001,0.40098,1.0235
187.157,24.8411,-0.22398,0.40427,1.0224
189.757,25.089,-0.2266,0.40827,1.02129
192.357,25.33661,-0.23055,0.41549,1.02018
194.957,25.58407,-0.23448,0.42071,1.01906
197.557,25.832,-0.23781,0.42891,1.01793
200.157,26.07999,-0.24306,0.43572,1.01679
202.757,26.3275,-0.24701,0.44534,1.01565
205.357,26.57475,-0.25229,0.45246,1.0145
207.957,26.82215,-0.25756,0.45978,1.01334
210.557,27.0697,-0.26283,0.46736,1.01217
213.157,27.3177,-0.2695,0.47212,1.01099
215.757,27.56545,-0.27744,0.47501,1.00981
218.357,27.8128,-0.28419,0.46605,1.00862
220.957,28.06059,-0.29334,0.4717,1.00742
223.557,28.30755,-0.30574,0.5168,1.00621
226.157,28.55592,-0.32405,0.62389,1.005
228.757,28.80435,-0.35635,0.81041,1.00377
231.357,29.05347,-0.4069,1.06736,1.00254
233.957,29.30375,-0.47875,1.287,1.0013
236.557,29.554,-0.56707,1.33484,1.00006
239.157,29.803,-0.6546,1.18993,0.9988
241.757,30.05064,-0.73198,0.96922,0.99754
244.357,30.297,-0.79636,0.76563,0.99627
246.957,30.54257,-0.84829,0.61944,0.99499
249.557,30.7883,-0.88908,0.51814,0.9937
252.157,31.03458,-0.92277,0.45211,0.9924
254.757,31.2811,-0.95217,0.40624,0.9911
257.357,31.5266,-0.97802,0.37542,0.98979
259.957,31.77357,-1.00144,0.35308,0.98847
262.557,32.02021,-1.02441,0.33572,0.98714
265.157,32.2665,-1.04492,0.32284,0.9858
267.757,32.51342,-1.06424,0.30876,0.98446
270.357,32.76031,-1.08423,0.29947,0.98311
272.957,33.00744,-1.10176,0.28924,0.98175
275.557,33.2553,-1.12059,0.28195,0.98038
278.157,33.503,-1.13853,0.2731,0.979
280.757,33.75075,-1.15697,0.26712,0.97761
283.357,33.999,-1.17542,0.25964,0.97622
285.957,34.24695,-1.1931,0.25237,0.97482
288.557,34.49599,-1.21044,0.2451,0.97341
291.157,34.74402,-1.22803,0.24101,0.97199
293.757,34.99306,-1.24668,0.23581,0.97056
296.357,35.24126,-1.26408,0.2306,0.96913
298.957,35.49041,-1.28313,0.22248,0.96769
301.557,35.739,-1.30243,0.21623,0.96624
304.157,35.9873,-1.32138,0.20947,0.96478
306.757,36.23672,-1.34085,0.20048,0.96331
309.357,36.48597,-1.36061,0.19321,0.96183
311.957,36.7354,-1.38009,0.1841,0.96035
314.557,36.9845,-1.40139,0.17652,0.95886
317.157,37.23415,-1.41955,0.16951,0.95736
319.757,37.48344,-1.43922,0.16176,0.95585
322.357,37.7328,-1.45822,0.15244,0.95433
324.957,37.98268,-1.47937,0.14339,0.95281
327.557,38.23233,-1.49851,0.1322,0.95127
330.157,38.48232,-1.51823,0.12415,0.94973
332.757,38.73261,-1.53706,0.11655,0.94818
335.357,38.9825,-1.55605,0.10787,0.94662
337.957,39.23236,-1.57524,0.09717199,0.94506
340.557,39.4831,-1.59548,0.08823696,0.94348
343.157,39.7333,-1.61237,0.07816127,0.9419
345.757,39.98418,-1.63069,0.07032467,0.94031
348.357,40.23466,-1.65057,0.05978165,0.93871
350.957,40.48567,-1.67174,0.05241511,0.9371
353.557,40.73652,-1.68987,0.0409014,0.93548
356.157,40.98786,-1.70636,0.03301944,0.93386
358.757,41.2384,-1.7284,0.02542706,0.93223
361.357,41.48981,-1.74402,0.01889317,0.93059
363.957,41.74129,-1.75941,0.01054462,0.92894
366.557,41.9927,-1.77654,0.0003712277,0.92728
369.157,42.24458,-1.79908,-0.005158678,0.92561
371.757,42.497,-1.81872,-0.01244673,0.92394
374.357,42.74938,-1.83839,-0.01651521,0.92226
376.957,43.00158,-1.8561,-0.02092107,0.92057
379.557,43.25376,-1.87464,-0.02047397,0.91887
382.157,43.50669,-1.89175,-0.02202725,0.91716
384.757,43.759,-1.9096,-0.02276624,0.91545
387.357,44.012,-1.92623,-0.02024768,0.91373
389.957,44.26507,-1.94247,-0.01612989,0.912
392.557,44.518,-1.95953,-0.01189686,0.91026
395.157,44.77048,-1.97523,-0.004159243,0.90851
397.757,45.02349,-1.98835,0.00166193,0.90675
400.357,45.27625,-2.00277,0.00801361,0.90499
402.957,45.52905,-2.01658,0.01485041,0.90322
405.557,45.7821,-2.02788,0.02088371,0.90144
408.157,46.03504,-2.04019,0.02965193,0.89965
410.757,46.28877,-2.05161,0.03537847,0.89786
413.357,46.54244,-2.06274,0.04395501,0.89605
415.957,46.79674,-2.07292,0.04702051,0.89424
418.557,47.05004,-2.0838,0.05332121,0.89242
421.157,47.30471,-2.09415,0.05914382,0.89059
423.757,47.55914,-2.1029,0.06487084,0.88876
426.357,47.81381,-2.1129,0.06803167,0.88692
428.957,48.0691,-2.11937,0.06996104,0.88506
431.557,48.32425,-2.12786,0.07669095,0.8832
434.157,48.5792,-2.13746,0.08091868,0.88134
436.757,48.83404,-2.14429,0.08414725,0.87946
439.357,49.0893,-2.15346,0.08709183,0.87758
441.957,49.3444,-2.16068,0.09204614,0.87569
444.557,49.59935,-2.16872,0.09488219,0.87379
447.157,49.85431,-2.17524,0.09651225,0.87188
449.757,50.10972,-2.18195,0.09813847,0.86997
452.357,50.36483,-2.18889,0.10148,0.86805
454.957,50.62063,-2.19522,0.10276,0.86612
457.557,50.8765,-2.20221,0.10326,0.86418
460.157,51.1331,-2.20761,0.1031,0.86224
462.757,51.38939,-2.21376,0.10273,0.86029
465.357,51.64569,-2.2205,0.1021,0.85833
467.957,51.9021,-2.22658,0.0993354,0.85636
470.557,52.1584,-2.23102,0.10028,0.85438
473.157,52.4139,-2.23637,0.10176,0.8524
475.757,52.6696,-2.24068,0.09946578,0.85041
478.357,52.92589,-2.24695,0.09677893,0.84841
480.957,53.1813,-2.25351,0.09805372,0.84641
483.557,53.4378,-2.25663,0.09443591,0.8444
486.157,53.69438,-2.26009,0.0923555,0.84238
488.757,53.9506,-2.26641,0.09184918,0.84035
491.357,54.2081,-2.27034,0.0929204,0.83832
493.957,54.46504,-2.27475,0.09209072,0.83627
496.557,54.7224,-2.27856,0.08882878,0.83423
499.157,54.97955,-2.28383,0.08758109,0.83217
501.757,55.23652,-2.28658,0.08656503,0.83011
504.357,55.49349,-2.29136,0.08542854,0.82804
506.957,55.75065,-2.29568,0.08580982,0.82596
509.557,56.0078,-2.29836,0.08295034,0.82388
512.157,56.2649,-2.30227,0.08362326,0.82179
514.757,56.5225,-2.30604,0.08223522,0.81969
517.357,56.7801,-2.31117,0.08339804,0.81758
519.957,57.03735,-2.31286,0.08801613,0.81547
522.557,57.29424,-2.31678,0.09304495,0.81335
525.157,57.55195,-2.32071,0.09606418,0.81123
527.757,57.80973,-2.32335,0.09570252,0.80909
530.357,58.06802,-2.32727,0.09750339,0.80695
532.957,58.32603,-2.33125,0.09763804,0.80481
535.557,58.5847,-2.33215,0.09787892,0.80266
538.157,58.8434,-2.33586,0.0976994,0.8005
540.757,59.10139,-2.33695,0.09751215,0.79833
543.357,59.3595,-2.34111,0.09868092,0.79616
545.957,59.61744,-2.34553,0.1029,0.79398
548.557,59.8757,-2.3531,0.10609,0.7918
551.157,60.13403,-2.36177,0.1083,0.78961
553.757,60.39275,-2.36177,0.11071,0.78741
556.357,60.65127,-2.36309,0.10922,0.7852
558.957,60.91,-2.36539,0.10902,0.78299
561.557,61.1692,-2.36969,0.10763,0.78078
564.157,61.42782,-2.37132,0.10999,0.77856
566.757,61.6868,-2.37396,0.11249,0.77633
569.357,61.94588,-2.37614,0.1128,0.77409
571.957,62.205,-2.37899,0.11333,0.77185
574.557,62.46515,-2.3827,0.11526,0.76961
577.157,62.7253,-2.38823,0.11499,0.76735
579.757,62.9856,-2.38932,0.11705,0.7651
582.357,63.2445,-2.39416,0.11722,0.76283
584.957,63.5048,-2.39612,0.11651,0.76056
587.557,63.7647,-2.39949,0.11605,0.75829
590.157,64.02529,-2.40468,0.11706,0.75601
592.757,64.28574,-2.40844,0.11816,0.75372
595.357,64.54619,-2.41129,0.11287,0.75143
597.957,64.8056,-2.41531,0.11335,0.74913
600.557,65.06515,-2.4193,0.11476,0.74683
603.157,65.32499,-2.42183,0.11344,0.74452
605.757,65.58585,-2.42704,0.11489,0.74221
608.357,65.84651,-2.42973,0.11184,0.73989
610.957,66.10716,-2.43303,0.1121,0.73756
613.557,66.36794,-2.43663,0.11378,0.73523
616.157,66.62931,-2.43928,0.11135,0.7329
618.757,66.89055,-2.44323,0.11376,0.73056
621.357,67.15141,-2.44718,0.11451,0.72822
623.957,67.41229,-2.44964,0.11697,0.72587
626.557,67.6739,-2.45409,0.11658,0.72352
629.157,67.93541,-2.45668,0.11943,0.72116
631.757,68.1965,-2.45935,0.11856,0.7188
634.357,68.45747,-2.46069,0.12173,0.71643
636.957,68.7175,-2.46596,0.12136,0.71406
639.557,68.97831,-2.46726,0.11944,0.71168
642.157,69.23873,-2.47209,0.12374,0.7093
644.757,69.49935,-2.4765,0.12662,0.70691
647.357,69.76,-2.47913,0.12974,0.70452
649.657,69.99127,-2.48143,0.1385,0.70241