File: 01_Data/Cellulose_Insulation/STA/N2/10K_min/Cellulose_Insulation_STA_N2_10KData_220729_R2.csv
##Temp./Â°C,Time/min,Mass loss(subtr.2)/mg,DSC(subtr.2)/(mW/mg),Sensit./(uV/mW)
49.606,10.00917,-0.0293,0.03176257,1.0702
52.606,11.29397,-0.02948562,0.14323,1.06938
55.606,11.73,-0.03449091,0.19937,1.06854
58.606,12.09742,-0.03236702,0.23898,1.06769
61.606,12.44137,-0.03467874,0.26501,1.06684
64.606,12.77319,-0.03684918,0.29113,1.06597
67.606,13.0992,-0.03589883,0.31614,1.0651
70.606,13.4206,-0.04060825,0.34279,1.06422
73.606,13.73829,-0.04456825,0.36555,1.06332
76.606,14.0524,-0.04869262,0.39322,1.06242
79.606,14.3636,-0.05122155,0.41768,1.06151
82.606,14.6716,-0.05559434,0.43877,1.06059
85.606,14.9768,-0.05951438,0.45315,1.05966
88.606,15.28016,-0.06476996,0.46592,1.05872
91.606,15.58087,-0.06869577,0.47386,1.05777
94.606,15.8805,-0.07410468,0.47919,1.05681
97.606,16.17715,-0.07810855,0.48409,1.05584
100.606,16.4731,-0.08333421,0.48667,1.05486
103.606,16.7665,-0.08569808,0.48505,1.05387
106.606,17.06042,-0.09243046,0.48429,1.05288
109.606,17.35406,-0.09635651,0.47599,1.05187
112.606,17.64775,-0.09987866,0.47102,1.05085
115.606,17.93976,-0.103,0.4614,1.04983
118.606,18.23265,-0.10824,0.45941,1.04879
121.606,18.52413,-0.1095,0.4536,1.04774
124.606,18.81571,-0.11481,0.44872,1.04669
127.606,19.1068,-0.11658,0.44702,1.04562
130.606,19.39794,-0.12185,0.44441,1.04455
133.606,19.68815,-0.12317,0.44514,1.04346
136.606,19.9782,-0.12745,0.44662,1.04237
139.606,20.26684,-0.12975,0.4465,1.04126
142.606,20.55647,-0.13266,0.44931,1.04014
145.606,20.8459,-0.13669,0.4504,1.03902
148.606,21.13394,-0.13926,0.451,1.03788
151.606,21.4226,-0.14273,0.45366,1.03674
154.606,21.71032,-0.14776,0.45412,1.03558
157.606,21.99846,-0.15313,0.45865,1.03442
160.606,22.28499,-0.1538,0.45969,1.03324
163.606,22.57186,-0.15374,0.46007,1.03206
166.606,22.85904,-0.15895,0.45872,1.03086
169.606,23.14588,-0.16204,0.45701,1.02966
172.606,23.43279,-0.16851,0.45786,1.02844
175.606,23.7198,-0.17042,0.45363,1.02722
178.606,24.00614,-0.16742,0.45189,1.02598
181.606,24.29269,-0.1743,0.45166,1.02473
184.606,24.57848,-0.18191,0.45259,1.02348
187.606,24.86453,-0.18453,0.45699,1.02221
190.606,25.14954,-0.18918,0.46185,1.02093
193.606,25.43505,-0.19356,0.47363,1.01964
196.606,25.72109,-0.19778,0.48015,1.01834
199.606,26.00692,-0.20407,0.49061,1.01704
202.606,26.29294,-0.20936,0.49866,1.01572
205.606,26.5793,-0.21595,0.50788,1.01439
208.606,26.86526,-0.22081,0.5156,1.01305
211.606,27.15076,-0.22712,0.52611,1.0117
214.606,27.436,-0.23532,0.5349,1.01034
217.606,27.72097,-0.24212,0.53607,1.00896
220.606,28.00527,-0.25182,0.53161,1.00758
223.606,28.2899,-0.26424,0.57248,1.00619
226.606,28.57573,-0.28742,0.69415,1.00479
229.606,28.86228,-0.32464,0.92894,1.00337
232.606,29.151,-0.38968,1.2418,1.00195
235.606,29.44,-0.48276,1.43552,1.00051
238.606,29.7289,-0.59031,1.34492,0.99907
241.606,30.0152,-0.6873,1.08356,0.99761
244.606,30.2994,-0.76413,0.8412,0.99614
247.606,30.58261,-0.82081,0.66884,0.99467
250.606,30.86621,-0.86557,0.56068,0.99318
253.606,31.14998,-0.90377,0.49615,0.99168
256.606,31.4336,-0.93482,0.453,0.99017
259.606,31.7182,-0.96389,0.42142,0.98865
262.606,32.00255,-0.98864,0.39723,0.98711
265.606,32.28703,-1.01633,0.38315,0.98557
268.606,32.5738,-1.03652,0.36873,0.98402
271.606,32.85953,-1.05868,0.35791,0.98245
274.606,33.1456,-1.08093,0.34814,0.98088
277.606,33.43175,-1.10182,0.34205,0.97929
280.606,33.71747,-1.12197,0.33712,0.97769
283.606,34.00403,-1.14128,0.33033,0.97609
286.606,34.2895,-1.16386,0.32227,0.97447
289.606,34.57544,-1.18383,0.31545,0.97284
292.606,34.8626,-1.20408,0.30829,0.9712
295.606,35.14891,-1.22648,0.30407,0.96955
298.606,35.43615,-1.24796,0.29849,0.96788
301.606,35.72309,-1.26813,0.292,0.96621
304.606,36.00997,-1.29156,0.28555,0.96452
307.606,36.29772,-1.31186,0.27626,0.96283
310.606,36.58517,-1.33587,0.26854,0.96112
313.606,36.87279,-1.35827,0.26124,0.9594
316.606,37.15992,-1.37939,0.25162,0.95768
319.606,37.44802,-1.40306,0.24332,0.95594
322.606,37.73587,-1.42513,0.23302,0.95419
325.606,38.02341,-1.44941,0.2255,0.95242
328.606,38.31239,-1.47338,0.21666,0.95065
331.606,38.6007,-1.49493,0.20645,0.94887
334.606,38.8899,-1.51801,0.19758,0.94707
337.606,39.17864,-1.53715,0.18742,0.94527
340.606,39.4675,-1.56052,0.17868,0.94345
343.606,39.75674,-1.58267,0.16983,0.94162
346.606,40.04618,-1.60581,0.16015,0.93979
349.606,40.3357,-1.62636,0.14814,0.93794
352.606,40.62523,-1.64847,0.137,0.93608
355.606,40.9139,-1.67,0.12664,0.9342
358.606,41.20466,-1.69064,0.11763,0.93232
361.606,41.49419,-1.71363,0.10606,0.93043
364.606,41.7851,-1.73617,0.0954057,0.92852
367.606,42.07515,-1.7578,0.08825827,0.92661
370.606,42.3658,-1.78024,0.08063512,0.92468
373.606,42.6567,-1.80207,0.07738231,0.92275
376.606,42.94745,-1.82257,0.07343253,0.9208
379.606,43.23812,-1.84524,0.07439245,0.91884
382.606,43.5291,-1.86565,0.07251725,0.91687
385.606,43.8204,-1.8853,0.07234289,0.91489
388.606,44.11193,-1.90519,0.0778108,0.9129
391.606,44.40388,-1.92354,0.08321632,0.91089
394.606,44.6961,-1.94177,0.0889239,0.90888
397.606,44.9882,-1.95864,0.09818082,0.90686
400.606,45.28086,-1.97473,0.10574,0.90482
403.606,45.57318,-1.98905,0.11709,0.90278
406.606,45.86589,-2.00557,0.12741,0.90072
409.606,46.1591,-2.01748,0.13576,0.89865
412.606,46.45224,-2.03122,0.14498,0.89657
415.606,46.74637,-2.04296,0.15245,0.89449
418.606,47.0396,-2.05529,0.16316,0.89239
421.606,47.333,-2.06661,0.16832,0.89028
424.606,47.6265,-2.07806,0.17481,0.88816
427.606,47.91928,-2.08907,0.18203,0.88603
430.606,48.21043,-2.09766,0.18949,0.88389
433.606,48.50502,-2.10782,0.19234,0.88173
436.606,48.79788,-2.11605,0.20014,0.87957
439.606,49.091,-2.12397,0.20228,0.8774
442.606,49.3842,-2.13518,0.20833,0.87522
445.606,49.6778,-2.14452,0.21178,0.87302
448.606,49.97235,-2.15185,0.21497,0.87082
451.606,50.26716,-2.16191,0.21819,0.8686
454.606,50.56422,-2.16904,0.21905,0.86638
457.606,50.86101,-2.17616,0.22187,0.86415
460.606,51.1588,-2.18281,0.22126,0.8619
463.606,51.45563,-2.18899,0.22452,0.85965
466.606,51.7517,-2.19601,0.22444,0.85738
469.606,52.04781,-2.20379,0.22633,0.85511
472.606,52.34403,-2.20916,0.22668,0.85282
475.606,52.63899,-2.21509,0.22715,0.85053
478.606,52.935,-2.22208,0.22447,0.84822
481.606,53.23059,-2.22805,0.22632,0.84591
484.606,53.52638,-2.23374,0.229,0.84358
487.606,53.8225,-2.23916,0.22847,0.84125
490.606,54.1193,-2.24407,0.23051,0.8389
493.606,54.41619,-2.2493,0.22906,0.83655
496.606,54.7128,-2.25348,0.2301,0.83419
499.606,55.01076,-2.25856,0.22917,0.83181
502.606,55.30862,-2.2624,0.23444,0.82943
505.606,55.6065,-2.26767,0.23729,0.82704
508.606,55.904,-2.27174,0.23644,0.82464
511.606,56.2013,-2.27523,0.23998,0.82223
514.606,56.49839,-2.28148,0.25529,0.81981
517.606,56.7949,-2.28377,0.26288,0.81738
520.606,57.09146,-2.2894,0.26527,0.81494
523.606,57.3881,-2.29216,0.26955,0.81249
526.606,57.6847,-2.29611,0.26901,0.81004
529.606,57.9819,-2.30029,0.27234,0.80757
532.606,58.2795,-2.30325,0.27371,0.8051
535.606,58.5777,-2.30885,0.27547,0.80262
538.606,58.87655,-2.3138,0.2753,0.80012
541.606,59.1756,-2.31639,0.27738,0.79762
544.606,59.47469,-2.31871,0.27995,0.79511
547.606,59.77375,-2.32367,0.28098,0.7926
550.606,60.07218,-2.32707,0.2797,0.79007
553.606,60.37073,-2.3296,0.28225,0.78754
556.606,60.67018,-2.33355,0.28336,0.78499
559.606,60.9692,-2.33761,0.28552,0.78244
562.606,61.26856,-2.34146,0.28601,0.77988
565.606,61.56776,-2.34618,0.28311,0.77731
568.606,61.86693,-2.3506,0.28496,0.77474
571.606,62.16595,-2.35213,0.28238,0.77215
574.606,62.46444,-2.35545,0.28072,0.76956
577.606,62.76359,-2.35942,0.27497,0.76696
580.606,63.06211,-2.36429,0.27409,0.76436
583.606,63.36166,-2.36786,0.26716,0.76174
586.606,63.6619,-2.37052,0.26353,0.75912
589.606,63.96244,-2.37595,0.25862,0.75649
592.606,64.26292,-2.37817,0.25376,0.75385
595.606,64.56275,-2.38261,0.2487,0.75121
598.606,64.86368,-2.38628,0.24445,0.74856
601.606,65.16441,-2.39006,0.2361,0.7459
604.606,65.46587,-2.39426,0.2284,0.74323
607.606,65.76729,-2.3982,0.22514,0.74056
610.606,66.06849,-2.40044,0.22111,0.73788
613.606,66.3695,-2.4048,0.21626,0.73519
616.606,66.66928,-2.40743,0.21295,0.7325
619.606,66.9692,-2.4127,0.20831,0.7298
622.606,67.2697,-2.41696,0.20379,0.72709
625.606,67.56952,-2.4206,0.19943,0.72438
628.606,67.87037,-2.42465,0.20009,0.72166
631.606,68.17102,-2.42849,0.19742,0.71893
634.606,68.47246,-2.43361,0.19411,0.7162
637.606,68.7739,-2.43642,0.19026,0.71346
640.606,69.07521,-2.44047,0.19494,0.71072
643.606,69.37558,-2.44495,0.19197,0.70797
646.606,69.67835,-2.45002,0.19495,0.70521
649.606,69.98001,-2.45398,0.19789,0.70245
652.606,70.28198,-2.45926,0.20586,0.69969
655.606,70.58344,-2.45952,0.21118,0.69691
658.606,70.8853,-2.46506,0.21819,0.69414
661.606,71.18653,-2.46902,0.22709,0.69135
664.606,71.4879,-2.47556,0.23617,0.68857
667.606,71.78995,-2.47966,0.2391,0.68577
670.606,72.09144,-2.48363,0.24233,0.68297
673.606,72.3943,-2.48746,0.23755,0.68017
676.606,72.69671,-2.49349,0.2281,0.67736
679.606,72.99945,-2.49539,0.21528,0.67455
682.606,73.3027,-2.50063,0.19642,0.67173
685.606,73.60517,-2.50319,0.17298,0.66891
688.606,73.9071,-2.5079,0.15804,0.66609
691.606,74.2084,-2.51051,0.14018,0.66326
694.606,74.51092,-2.51446,0.13136,0.66042
697.606,74.8133,-2.51715,0.12222,0.65759
700.606,75.11544,-2.51842,0.11357,0.65474
703.606,75.41768,-2.52237,0.10577,0.6519
706.606,75.71987,-2.52512,0.09951756,0.64905
709.606,76.02263,-2.52645,0.09143101,0.6462
712.606,76.32552,-2.52873,0.08580085,0.64334
715.606,76.6285,-2.53037,0.07946321,0.64048
718.606,76.93202,-2.5344,0.07651634,0.63762
721.606,77.235,-2.53641,0.07300955,0.63475
724.606,77.53846,-2.53829,0.07019526,0.63188
727.606,77.8424,-2.54211,0.06869522,0.62901
730.606,78.14573,-2.54288,0.06877336,0.62614
733.606,78.4487,-2.5462,0.06761829,0.62326
736.606,78.75215,-2.54843,0.06966096,0.62038
739.606,79.0566,-2.54883,0.06645351,0.6175
742.606,79.3605,-2.55224,0.07042915,0.61461
745.606,79.66396,-2.55355,0.07341088,0.61172
748.606,79.96815,-2.55479,0.08094477,0.60884
748.906,79.99818,-2.55588,0.07761978,0.60855