File: 01_Data/Rubber_Band/Cone/Rubber_Band_Cone_HF25-Frame+GridScalar_201013_R1.csv
LABORATORY,FSRI
TEST IDENT,HelmetStrap_25kW_1
OPERATOR,Dow
MATERIAL,Raw cotton
ORIENTATION,Horizontal
HEAT FLUX,25
SURF AREA,0.01
C FACTOR,0.0363987
SPEC HOLDER DIFF,366.6
SPECIMEN MASS,19.4
SCAN TIME,0.25
O2 DELAY TIME,11
CO DELAY TIME,11
CO2 DELAY TIME,8
FLOW FACTOR,1
SCAN COUNT,2212
TIME TO IGN,87.5
END OF TEST SCAN,1732
END OF TEST TIME,433
TEST STATUS,1