File: 01_Data/Rubber_Band/Cone/Rubber_Band_Cone_HF100-FrameScalar_201103_R1.csv
LABORATORY,FSRI
TEST IDENT,HelmetStrap_HF100_1
OPERATOR,Dow
MATERIAL,Phoenix Arizona Helmet Strap
ORIENTATION,Horizontal
HEAT FLUX,100
SURF AREA,0.01
C FACTOR,0.0377677
SPEC HOLDER DIFF,338.67
SPECIMEN MASS,19.81
SCAN TIME,0.25
O2 DELAY TIME,11
CO DELAY TIME,11
CO2 DELAY TIME,8
FLOW FACTOR,1
SCAN COUNT,1099
TIME TO IGN,2.75
END OF TEST SCAN,619
END OF TEST TIME,154.75
TEST STATUS,1