File: 01_Data/Rubber_Band/Cone/Rubber_Band_Cone_HF50-Frame+GridScalar_201013_R1.csv
LABORATORY,FSRI
TEST IDENT,HelmetStrap_50kW_1
OPERATOR,Dow
MATERIAL,Helmet rubber strap
ORIENTATION,Horizontal
HEAT FLUX,50
SURF AREA,0.01
C FACTOR,0.0363987
SPEC HOLDER DIFF,379.56
SPECIMEN MASS,18.85
SCAN TIME,0.25
O2 DELAY TIME,11
CO DELAY TIME,11
CO2 DELAY TIME,8
FLOW FACTOR,1
SCAN COUNT,1284
TIME TO IGN,25
END OF TEST SCAN,804
END OF TEST TIME,201
TEST STATUS,1