File: 01_Data/Rubber_Band/Cone/Rubber_Band_Cone_HF75-Frame+GridScan_201013_R1.csv
Names,Time,Stack TC,Smoke TC,Exh Press,Smoke Comp,Smoke Meas,CO Meter,CO2 Meter,O2 Meter,Sample Mass,Ext Coeff,Start Test,Flame Verif
Chan Gain,,500,500,1,1,1,1,1,1,1,1,1.0,1.0
Offset,,0,0,0.130609,0,0,0,0,0,0,0,0.0,0.0
Gain,,1,1,25.011,13.5216,16.6677,1,1,1,1.00092,1.03296,1.0,1.0
Units,sec,C,C,Pa,%,%,%,%,%,g,/m,,
Baseline,,36.3233,40.5789,174.087,100.011,100.439,0.00549068,0.0671899,20.9028,-942.474,-0.0387491,,
13,3,34.7242,38.4492,181.37,101.06,101.251,0.00524732,0.0750017,20.8941,10.1393,-0.0171134,0.0,0.0
26,6.25,34.2896,38.6025,176.342,101.087,101.004,0.00537266,0.0757561,20.8928,10.1293,0.00746945,0.0,0.0
39,9.5,34.2052,38.1824,173.457,101.119,99.2297,0.00569211,0.0773815,20.8895,10.0992,0.170894,0.0,0.0
52,12.75,35.257,39.1362,172.58,101.132,101.355,0.00697667,0.0964504,20.8761,10.0592,-0.0199314,0.0,1.0
65,16,37.887,44.4613,148.661,101.164,67.9921,0.0117366,0.243149,20.6292,9.76893,3.60037,0.0,1.0
78,19.25,43.1249,54.3073,146.731,101.133,65.0983,0.0186378,0.43778,20.3434,9.41861,3.99172,0.0,0.0
91,22.5,50.7857,66.5384,134.109,101.127,54.6099,0.0260075,0.636046,19.9872,8.87812,5.58305,0.0,0.0
104,25.75,61.0425,83.5705,129.418,101.079,45.6295,0.0362289,0.872652,19.5966,8.28758,7.20669,0.0,0.0
117,29,71.2192,99.8214,125.761,101.041,42.7943,0.0463297,1.07964,19.2677,7.60696,7.78452,0.0,0.0
130,32.25,80.4724,114.223,125.99,101.011,37.7972,0.0520287,1.19065,19.1043,6.92633,8.90691,0.0,0.0
143,35.5,86.6225,123.91,134.83,100.979,43.4403,0.0538386,1.21218,19.0729,6.30577,7.64325,0.0,0.0
156,38.75,91.5357,130.715,121.635,100.939,43.335,0.0534832,1.1962,19.0863,5.59512,7.66161,0.0,0.0
169,42,94.9259,134.576,131.555,100.899,40.43,0.0526058,1.20332,19.0863,4.91449,8.28673,0.0,0.0
182,45.25,98.2502,138.696,131.85,100.859,41.811,0.0512963,1.19114,19.1035,4.29393,7.97884,0.0,0.0
195,48.5,100.308,139.752,133.825,100.828,44.6829,0.0483853,1.14025,19.1936,3.70339,7.37409,0.0,0.0
208,51.75,99.8315,137.607,134.028,100.792,47.4719,0.0430116,1.00712,19.3826,3.15288,6.82225,0.0,0.0
221,55,96.9482,131.894,146.397,100.774,57.5972,0.0362695,0.830293,19.6649,2.80256,5.06883,0.0,0.0
234,58.25,91.8833,122.917,153.437,100.773,62.5134,0.0296885,0.654141,19.9407,2.49228,4.32653,0.0,0.0
247,61.5,86.2722,112.123,152.325,100.931,69.1122,0.0238285,0.511854,20.1702,2.25206,3.43149,0.0,0.0
260,64.75,81.119,103.085,153.938,101.097,74.1829,0.0198532,0.415173,20.355,2.03186,2.80485,0.0,0.0
273,68,77.3627,95.9272,154.281,101.27,77.1825,0.0172149,0.363022,20.4431,1.88172,2.46109,0.0,0.0
286,71.25,73.262,89.0271,161.937,101.385,78.0762,0.0155498,0.335034,20.4938,1.67153,2.36707,0.0,0.0
299,74.5,70.3849,84.4415,157.667,101.482,76.7547,0.0143263,0.321982,20.5155,1.58145,2.53045,0.0,0.0
312,77.75,68.1355,81.1372,161.038,101.565,79.1505,0.0135827,0.313482,20.531,1.38126,2.25939,0.0,0.0
325,81,66.283,78.1786,158.871,101.628,80.4496,0.0129183,0.306225,20.5411,1.19109,2.11743,0.0,0.0
338,84.25,65.3243,75.873,164.444,101.645,81.5773,0.0122618,0.298997,20.5533,1.05096,1.99288,0.0,0.0
351,87.5,64.3433,74.5085,157.797,101.655,82.4384,0.0118558,0.292178,20.5665,0.850778,1.89862,0.0,0.0
364,90.75,63.2987,72.9587,158.448,101.621,81.9466,0.0113841,0.290527,20.5723,0.720659,1.94979,0.0,0.0
377,94,62.8061,71.3321,158.422,101.549,80.2141,0.011178,0.288986,20.5749,0.570522,2.137,0.0,0.0
390,97.25,62.4153,70.7926,159.503,101.445,80.5661,0.0111029,0.28904,20.5757,0.440403,2.08797,0.0,0.0
403,100.5,61.7968,70.1316,164.998,101.33,81.8133,0.0110284,0.288605,20.5759,0.290265,1.93852,0.0,0.0
416,103.75,61.4612,69.329,155.134,101.142,83.2569,0.0108394,0.284984,20.5799,0.100092,1.76323,0.0,0.0
429,107,60.3774,68.9422,160.705,101.022,84.3988,0.0102464,0.27902,20.5912,-0.0300275,1.62904,0.0,0.0
442,110.25,60.594,68.1599,164.302,101.091,85.8525,0.00986132,0.266579,20.6106,-0.140128,1.48051,0.0,0.0
455,113.5,59.8276,67.0756,157.899,101.159,88.3897,0.00923205,0.254999,20.6346,-0.24022,1.22264,0.0,0.0
468,116.75,58.8831,66.2812,164.462,101.258,90.2743,0.0086458,0.243001,20.6544,-0.320293,1.04034,0.0,0.0
481,120,58.7717,65.2487,166.679,101.353,91.636,0.00844713,0.231397,20.6761,-0.430394,0.913178,0.0,0.0
494,123.25,57.9949,64.7694,164.652,101.456,94.1797,0.00809086,0.221006,20.6903,-0.520476,0.674366,0.0,0.0
507,126.5,57.6598,63.5375,161.953,101.567,94.8049,0.00765021,0.211356,20.7065,-0.570522,0.624255,0.0,0.0
520,129.75,56.6195,61.9103,160.326,101.641,97.2449,0.00739202,0.204562,20.7158,-0.690631,0.40066,0.0,0.0
533,133,55.8423,61.4602,159.389,101.702,98.7388,0.00730192,0.196744,20.7309,-0.730668,0.267887,0.0,0.0
546,136.25,55.2828,60.515,166.396,101.757,99.0481,0.00752057,0.190092,20.7413,-0.810741,0.244512,0.0,0.0
559,139.5,54.6502,59.6589,163.342,101.782,98.9245,0.00766367,0.185068,20.7507,-0.870796,0.258032,0.0,0.0
572,142.75,54.154,58.9377,163.165,101.755,99.9032,0.00781122,0.180109,20.7595,-0.930851,0.166444,0.0,0.0
585,146,53.7517,57.982,168.231,101.691,100.312,0.00789814,0.17508,20.7657,-0.990906,0.123694,0.0,0.0
598,149.25,53.1968,57.8753,165.194,101.606,100.601,0.00792737,0.169209,20.7768,-1.02093,0.0901398,0.0,0.0
611,152.5,52.802,56.8122,162.164,101.464,100.939,0.00814861,0.163688,20.7852,-1.07098,0.0469826,0.0,0.0
624,155.75,51.9999,56.0329,170.726,101.33,101.067,0.00872918,0.158538,20.7954,-1.17107,0.0235266,0.0,0.0
637,159,51.7837,55.4925,164.943,101.123,101.242,0.00923322,0.15462,20.8026,-1.2011,-0.0106431,0.0,0.0
650,162.25,51.2558,54.9836,163.897,100.898,101.496,0.00953609,0.150226,20.8086,-1.25114,-0.0535061,0.0,0.0
663,165.5,50.2036,53.8908,164.45,100.669,101.021,0.00965931,0.147593,20.8129,-1.30119,-0.0316282,0.0,0.0
676,168.75,50.1747,53.6851,168.478,100.447,101.226,0.00965426,0.144723,20.8167,-1.33122,-0.0699999,0.0,0.0
689,172,49.9301,52.9145,163.528,100.245,100.89,0.00965133,0.143179,20.8184,-1.36124,-0.0581491,0.0,0.0
702,175.25,49.4268,52.683,166.39,100.061,101.042,0.00972415,0.140954,20.8217,-1.4213,-0.0884033,0.0,0.0
715,178.5,49.003,51.945,168.441,99.905,100.413,0.00995391,0.14007,20.8229,-1.45133,-0.0459458,0.0,0.0
728,181.75,49.0022,51.851,165.935,99.7944,100.333,0.0101254,0.139378,20.8232,-1.47135,-0.0487727,0.0,0.0
741,185,48.4535,51.9089,166.798,99.7238,100.769,0.010356,0.138905,20.8247,-1.5314,-0.0944634,0.0,0.0
754,188.25,48.0937,50.9577,166.2,99.7073,100.392,0.0102647,0.138042,20.826,-1.54141,-0.0620543,0.0,0.0
767,191.5,48.3894,51.5936,167.569,99.7325,100.468,0.01031,0.136977,20.8287,-1.60146,-0.0665591,0.0,0.0
780,194.75,48.2718,50.8056,167.644,99.8034,100.587,0.0102847,0.136434,20.8299,-1.63149,-0.0708876,0.0,0.0
793,198,46.0564,49.3757,167.598,99.9111,101.025,0.0103221,0.136162,20.8302,-1.65151,-0.10048,0.0,0.0
806,201.25,46.1249,48.6848,170.901,100.075,101.085,0.010595,0.135319,20.8308,-1.71157,-0.0910177,0.0,0.0
819,204.5,45.477,48.745,169.836,100.243,101.033,0.0108495,0.13557,20.831,-1.74159,-0.0711717,0.0,0.0
832,207.75,45.5081,47.921,170.824,100.419,101.092,0.0108818,0.135635,20.8311,-1.79164,-0.0605862,0.0,0.0
845,211,45.3579,48.6027,171.874,100.618,101.205,0.0107017,0.135168,20.8317,-1.80165,-0.0526527,0.0,0.0
858,214.25,44.9669,47.9918,165.335,100.757,101.765,0.010589,0.134648,20.8323,-1.84168,-0.0902147,0.0,0.0
871,217.5,44.9649,48.214,170.942,100.891,101.722,0.010567,0.134561,20.8325,-1.88172,-0.0743202,0.0,0.0
884,220.75,44.7714,47.9362,162.369,100.996,102.642,0.0107412,0.134585,20.8329,-1.92176,-0.146508,0.0,0.0
897,224,45.1821,48.7004,166.234,101.088,101.958,0.0109444,0.134903,20.8339,-1.99182,-0.0776963,0.0,0.0
910,227.25,44.7542,48.161,167.492,101.126,101.979,0.0108524,0.134551,20.8341,-1.99182,-0.0761184,0.0,0.0
923,230.5,44.3675,48.1337,166.439,101.129,102.204,0.0107538,0.134125,20.8342,-2.06189,-0.0958508,0.0,0.0
936,233.75,44.5094,47.973,167.774,101.093,102.022,0.0106938,0.133117,20.8357,-2.05188,-0.0829011,0.0,0.0
949,237,44.3479,48.3291,171.21,101.032,101.725,0.0106991,0.133069,20.8363,-2.12194,-0.0619184,0.0,0.0
962,240.25,44.196,47.8472,165.297,100.946,101.575,0.0107516,0.13283,20.8365,-2.15197,-0.0562441,0.0,0.0
975,243.5,44.3877,47.5967,166.921,100.898,101.717,0.0108108,0.132832,20.8363,-2.17199,-0.0731925,0.0,0.0
988,246.75,43.8711,47.6431,171.781,100.838,101.827,0.010855,0.132341,20.8357,-2.21202,-0.0884764,0.0,0.0
1001,250,44.0544,47.1105,165.94,100.765,101.732,0.0105429,0.131398,20.8356,-2.22203,-0.0865738,0.0,0.0
1014,253.25,43.7761,47.7281,167.799,100.724,101.492,0.0103374,0.131076,20.8355,-2.28209,-0.0688303,0.0,0.0
1027,256.5,43.968,47.8694,169.211,100.901,102.039,0.0106783,0.131661,20.8355,-2.3021,-0.101578,0.0,0.0
1040,259.75,43.7802,47.03,169.298,101.183,102.184,0.0108901,0.132042,20.8355,-2.33213,-0.0892045,0.0,0.0
1053,263,43.3884,47.2908,165.547,101.394,102.523,0.0108135,0.131988,20.8355,-2.38218,-0.100376,0.0,0.0
1066,266.25,43.7693,47.0326,169.505,101.537,102.841,0.0106285,0.131849,20.8355,-2.41221,-0.115643,0.0,0.0
1079,269.5,43.076,47.3782,167.23,101.615,102.256,0.0107835,0.131304,20.8355,-2.42221,-0.0570001,0.0,0.0
1092,272.75,43.5064,47.6076,169.494,101.614,102.757,0.0107021,0.130895,20.8355,-2.45224,-0.101399,0.0,0.0
1105,276,43.6317,47.6051,161.837,101.566,102.564,0.0106871,0.131004,20.8358,-2.48227,-0.0886531,0.0,0.0
1118,279.25,43.9877,47.2999,170.855,101.454,102.509,0.0109232,0.130003,20.8373,-2.53232,-0.093772,0.0,0.0
1131,282.5,43.3098,46.86,168.847,101.262,102.011,0.0108585,0.130174,20.8361,-2.57235,-0.0668007,0.0,0.0
1144,285.75,43.5143,47.5361,167.176,101.025,102.057,0.0106861,0.129977,20.8359,-2.58236,-0.0920854,0.0,0.0
1157,289,43.6341,47.305,168.415,101.072,101.753,0.0105567,0.128974,20.8373,-2.6224,-0.0607836,0.0,0.0
1170,292.25,43.2349,46.9057,170.543,101.135,102.235,0.0102994,0.128973,20.8382,-2.67244,-0.0979644,0.0,0.0
1183,295.5,43.7309,47.2279,167.508,101.228,102.272,0.0101282,0.127919,20.8397,-2.70247,-0.0930227,0.0,0.0
1196,298.75,43.0268,46.741,165.793,101.347,102.737,0.010077,0.127966,20.8389,-2.72249,-0.123406,0.0,0.0
1209,302,43.1263,47.4202,164.49,101.442,102.36,0.0100951,0.128408,20.8386,-2.76253,-0.0816661,0.0,0.0
1222,305.25,42.9471,47.0419,165.4,101.529,102.514,0.0103908,0.128421,20.8385,-2.80256,-0.0874719,0.0,0.0
1235,308.5,42.9084,46.521,165.045,101.641,102.635,,0.128616,,-2.80256,-0.0881994,0.0,0.0
1248,311.75,42.6766,47.1461,168.992,101.713,103.002,,,,-2.86262,-0.114165,0.0,0.0
1261,315,43.0197,46.4433,168.444,101.73,103.094,,,,-2.86262,-0.120672,0.0,0.0
1268,316.75,42.5642,46.8247,165.403,101.751,102.669,,,,-2.85261,-0.0813909,0.0,0.0