File: 01_Data/Rubber_Band/Cone/Rubber_Band_Cone_HF75-Frame+GridScalar_201013_R1.csv
LABORATORY,FSRI
TEST IDENT,HelmetStrap_75kW_1
OPERATOR,Dow
MATERIAL,Helmet rubber strap
ORIENTATION,Horizontal
HEAT FLUX,75
SURF AREA,0.01
C FACTOR,0.0363987
SPEC HOLDER DIFF,366.65
SPECIMEN MASS,18.85
SCAN TIME,0.25
O2 DELAY TIME,11
CO DELAY TIME,11
CO2 DELAY TIME,8
FLOW FACTOR,1
SCAN COUNT,1268
TIME TO IGN,12.75
END OF TEST SCAN,788
END OF TEST TIME,197
TEST STATUS,1