File: 01_Data/Rubber_Band/Cone/Rubber_Band_Cone_HF50-Frame+GridScan_201013_R1.csv
Names,Time,Stack TC,Smoke TC,Exh Press,Smoke Comp,Smoke Meas,CO Meter,CO2 Meter,O2 Meter,Sample Mass,Ext Coeff,Start Test,Flame Verif
Chan Gain,,500,500,1,1,1,1,1,1,1,1,1.0,1.0
Offset,,0,0,0.130609,0,0,0,0,0,0,0,0.0,0.0
Gain,,1,1,25.011,28413.6,29762,1,1,1,1.00092,-11.006,1.0,1.0
Units,sec,C,C,Pa,%,%,%,%,%,g,/m,,
Baseline,,32.6998,35.9915,176.517,212953,181096,0.00525877,0.0672114,20.8969,-941.733,-15.6444,,
13,3,30.4343,33.037,175.55,212969,181196,0.00542881,0.0674476,20.9008,23.6216,-15.598,0.0,0.0
26,6.25,30.5029,34.358,171.056,213035,181110,0.00538548,0.0676251,20.9003,23.5816,-15.6742,0.0,0.0
39,9.5,30.6772,33.7085,175.467,213088,180904,0.00524023,0.0682428,20.8984,23.5716,-15.8082,0.0,0.0
52,12.75,30.4374,33.6445,179.162,213145,180180.75,0.00514863,0.0692867,20.8968,23.5615,-16.2207,0.0,0.0
65,16,30.3928,34.2907,178.769,213203,178920,0.00508875,0.0699549,20.8969,23.5215,-16.9245,0.0,0.0
78,19.25,30.8775,34.0981,178.715,213260,178233,0.0049045,0.0701135,20.8974,23.5215,-17.3221,0.0,0.0
91,22.5,30.8735,34.1787,170.834,213347,172797,0.00517477,0.0719451,20.8946,23.5115,-20.3517,0.0,0.0
104,25.75,31.652,35.0154,166.215,213443,173891,0.00664314,0.103694,20.8503,23.0611,-19.7857,0.0,1.0
117,29,34.5452,40.8118,168.95,213514,129633,0.0107318,0.220036,20.6531,23.2513,-48.1747,0.0,1.0
130,32.25,38.6724,48.3288,152.155,213559,120782,0.0156839,0.37666,20.4115,22.8909,-55.0227,0.0,0.0
143,35.5,45.5375,59.4929,143.295,213593,114305,0.0212178,0.540417,20.1557,22.5106,-60.359,0.0,0.0
156,38.75,53.1337,72.6895,144.331,213620,102257,0.0265975,0.707663,19.8972,22.0602,-71.1244,0.0,0.0
169,42,61.9466,86.0414,135.788,213614,95259.8,0.0325142,0.843569,19.6888,21.5197,-77.9649,0.0,0.0
182,45.25,68.132,96.4386,137.571,213639,95577.7,0.0366022,0.928099,19.5484,20.8891,-77.6546,0.0,0.0
195,48.5,73.2409,104.215,141.785,213652,90755.7,0.0387263,0.976042,19.4743,20.3886,-82.6583,0.0,0.0
208,51.75,78.2192,111.085,130.798,213668,95939.1,0.0391059,0.979211,19.4694,19.8782,-77.3035,0.0,0.0
221,55,80.7165,113.856,147.328,213672,86077.2,0.0392321,0.96566,19.4827,19.4077,-87.7771,0.0,0.0
234,58.25,82.724,115.896,144.119,213690,97588.6,0.0389898,0.940714,19.5209,18.8472,-75.6676,0.0,0.0
247,61.5,83.546,116.332,143.19,213707,92636.7,0.0386534,0.919475,19.5485,18.3368,-80.7029,0.0,0.0
260,64.75,84.7083,116.7,144.978,213689,93999.1,0.0377854,0.904329,19.5752,17.8563,-79.2852,0.0,0.0
273,68,84.8426,116.443,134.885,213680,98834.7,0.0360115,0.882223,19.6187,17.3559,-74.4379,0.0,0.0
286,71.25,85.4977,116.17,143.109,213664.875,101983,0.0339166,0.836603,19.6972,16.9055,-71.4041,0.0,0.0
299,74.5,83.6705,112.575,145.797,213645,103273,0.0311531,0.772681,19.7999,16.5251,-70.181,0.0,0.0
312,77.75,82.0944,108.615,157.1,213615,113159,0.0282796,0.690725,19.938,16.2348,-61.3422,0.0,0.0
325,81,79.1344,101.848,152.893,213579,116307,0.0249571,0.585452,20.1028,15.8845,-58.6766,0.0,0.0
338,84.25,75.4578,96.1818,156.618,213553,122401,0.0219464,0.497536,20.2249,15.6443,-53.7348,0.0,0.0
351,87.5,71.3218,89.409,159.288,213500.125,133402,0.0191469,0.422778,20.3432,15.4541,-45.4013,0.0,0.0
364,90.75,67.6523,82.9933,163.182,213447,136697,0.0165038,0.362773,20.4446,15.2539,-43.0223,0.0,0.0
377,94,64.9561,77.7375,165.904,213397,141439,0.0146286,0.325923,20.5059,15.1038,-39.7072,0.0,0.0
390,97.25,62.3327,72.7997,163.607,213307.625,148164,0.0133251,0.305096,20.538,14.9537,-35.1817,0.0,0.0
403,100.5,60.3495,70.0099,158.502,213240,144599,0.0126133,0.295542,20.5568,14.7935,-37.503,0.0,0.0
416,103.75,58.6901,68.1503,163.455,213126,148040,0.0118846,0.287438,20.5676,14.6534,-35.1808,0.0,0.0
429,107,57.4124,65.7606,162.605,213054,149048,0.0115211,0.283225,20.5753,14.4832,-34.4929,0.0,0.0
442,110.25,57.2127,64.4107,156.957,212979,146234,0.0115894,0.280031,20.5781,14.3431,-36.2988,0.0,0.0
455,113.5,56.113,62.9205,164.832,212910,149035,0.0119361,0.278885,20.5798,14.1329,-34.4361,0.0,0.0
468,116.75,55.3325,62.7168,162.533,212785.625,148654,0.0120753,0.280106,20.5803,14.1329,-34.6267,0.0,0.0
481,120,55.7726,62.2494,162.93,212658,148926,0.0114749,0.278516,20.5836,14.0128,-34.392,0.0,0.0
494,123.25,55.1829,61.5057,161.384,212567,152201,0.0107628,0.273394,20.5927,13.8126,-32.2511,0.0,0.0
507,126.5,54.835,61.4227,168.331,212493,156448,0.0102883,0.265983,20.6059,13.7225,-29.5605,0.0,0.0
520,129.75,54.2218,60.1119,164.365,212388,152948,0.00990752,0.256427,20.62,13.5624,-31.6969,0.0,0.0
533,133,53.7626,59.967,169.335,212338,156945,0.00975474,0.251373,20.6277,13.4323,-29.1839,0.0,0.0
546,136.25,52.9968,59.0311,171.416,212330,159059,0.00922208,0.247516,20.6369,13.3322,-27.8879,0.0,0.0
559,139.5,53.0486,58.7497,165.515,212293,159129,0.00855125,0.241087,20.6489,13.2821,-27.8289,0.0,0.0
572,142.75,52.6923,57.5318,166.519,212239,162591,0.00800393,0.230761,20.6695,13.142,-25.7264,0.0,0.0
585,146,51.2974,56.5014,164.551,212275,166793,0.00774159,0.218388,20.6885,13.082,-23.2795,0.0,0.0
598,149.25,51.3179,56.0304,165.437,212175,169283.375,0.00754203,0.210599,20.7034,12.9719,-21.8032,0.0,0.0
611,152.5,50.2884,55.4464,166.277,212172,173422,0.00722903,0.199123,20.7221,12.9418,-19.4695,0.0,0.0
624,155.75,49.6507,53.9832,162.101,212129,173579,0.00718746,0.189068,20.7364,12.8317,-19.3633,0.0,0.0
637,159,49.4663,53.2995,165.016,212230,174556,0.00736734,0.180806,20.7489,12.8217,-18.867,0.0,0.0
650,162.25,48.7267,52.5724,173.769,212343,177562,0.00731618,0.172456,20.7636,12.7416,-17.2697,0.0,0.0
663,165.5,47.4431,50.7518,169.624,212450,178735,0.00737801,0.167049,20.7732,12.6716,-16.6831,0.0,0.0
676,168.75,46.5703,49.6317,165.925,212564,178937,0.00750589,0.161879,20.782,12.7116,-16.6254,0.0,0.0
689,172,46.6328,49.1424,170.683,212688,180532.25,0.00779318,0.155391,20.7919,12.6315,-15.825,0.0,0.0
702,175.25,46.1406,48.2296,168.199,212776,180756,0.00814817,0.15265,20.7982,12.5915,-15.7457,0.0,0.0
715,178.5,44.8027,47.7914,173.282,212906,181296,0.00834236,0.148202,20.8043,12.4914,-15.5165,0.0,0.0
728,181.75,44.601,46.7108,171.719,212960,181606,0.00841388,0.145282,20.8084,12.4414,-15.376,0.0,0.0
741,185,43.8115,46.5782,166.438,213026,181877,0.00859963,0.142672,20.8136,12.4714,-15.2617,0.0,0.0
754,188.25,43.9644,45.9605,169.011,213113,182414,0.00863163,0.139081,20.8183,12.4314,-15.0164,0.0,0.0
767,191.5,43.4006,45.9749,173.16,213219,181865,0.00866215,0.13588,20.8238,12.4414,-15.356,0.0,0.0
780,194.75,43.0329,44.9293,169.653,213263,181743.875,0.00896297,0.131595,20.8284,12.3713,-15.4402,0.0,0.0
793,198,42.6167,45.1078,166.973,213332,181499,0.0092653,0.130729,20.8304,12.3713,-15.6015,0.0,0.0
806,201.25,41.9717,44.0639,171.116,213361.375,181427,0.00925189,0.128338,20.8341,12.2912,-15.653,0.0,0.0
819,204.5,40.0893,41.8331,170.804,213425,182388,0.00940622,0.127398,20.8382,12.2412,-15.1717,0.0,0.0
832,207.75,39.3875,41.292,179.602,213400,181793,0.00961561,0.130353,20.8354,12.1811,-15.4757,0.0,0.0
845,211,39.5865,41.3118,172.135,213445,182128,0.00952077,0.130906,20.8348,12.1811,-15.3187,0.0,0.0
858,214.25,39.4633,41.3975,172.139,213419,182331,0.00944085,0.128596,20.837,12.1411,-15.1992,0.0,0.0
871,217.5,39.0278,41.2659,172.689,213368,182176,0.00949524,0.126665,20.8389,12.1111,-15.2583,0.0,0.0
884,220.75,39.0849,40.8542,176.956,213315,181950,0.00934057,0.127352,20.8379,12.1111,-15.3539,0.0,0.0
897,224,38.6871,41.1464,174.218,213295,182114,0.00935938,0.126646,20.8394,12.031,-15.2581,0.0,0.0
910,227.25,38.6146,40.9268,165.938,213248,181886,0.00937847,0.126671,20.8398,12.001,-15.3574,0.0,0.0
923,230.5,38.9244,40.8048,173.557,213209,182526,0.00947819,0.126689,20.8399,11.991,-15.0009,0.0,0.0
936,233.75,38.2404,40.8921,170.39,213153,182224,0.00937143,0.127019,20.8399,11.9309,-15.1354,0.0,0.0
949,237,38.3015,40.6932,172.316,213049,182004,0.00931998,0.126339,20.8399,11.9209,-15.2053,0.0,0.0
962,240.25,38.5439,40.4918,171.913,212960,181969.125,0.00919667,0.127197,20.8399,11.9209,-15.1831,0.0,0.0
975,243.5,37.8432,40.3636,171.054,212869,181896,0.00925922,0.126746,20.8408,11.9309,-15.1804,0.0,0.0
988,246.75,37.7705,40.1517,175.168,212731,181678,0.00921904,0.125963,20.8418,11.8809,-15.2336,0.0,0.0
1001,250,37.5811,40.1568,173.403,212570,181911,0.00920037,0.125866,20.841,11.8709,-15.0369,0.0,0.0
1014,253.25,37.8907,39.9177,173.239,212433,180811,0.00894245,0.125377,20.8409,11.8208,-15.5602,0.0,0.0
1027,256.5,37.4863,39.5516,166.546,212278,181005,0.00879721,0.124077,20.8424,11.8108,-15.3868,0.0,0.0
1040,259.75,37.1394,39.8881,172.005,212074,180845,0.00884294,0.124902,20.8413,11.7207,-15.3789,0.0,0.0
1053,263,37.3756,39.308,177.485,211869,180946,0.00885058,0.124966,20.8408,11.7808,-15.2319,0.0,0.0
1066,266.25,37.3796,39.418,174.413,211553,180430,0.00887721,0.124798,20.8422,11.7307,-15.3632,0.0,0.0
1079,269.5,37.4797,39.7154,171.816,211544,179958,0.00890213,0.124103,20.8427,11.5806,-15.6118,0.0,0.0
1092,272.75,36.9269,38.9243,175.537,211550,180164,0.00896875,0.124397,20.8428,11.6406,-15.5041,0.0,0.0
1105,276,37.1546,39.2816,174.37,211620,180518.625,0.00893092,0.125171,20.8424,11.6206,-15.3465,0.0,0.0
1118,279.25,36.6903,39.8611,171.545,211698.25,180159,0.00885705,0.123464,20.8423,11.5706,-15.5746,0.0,0.0
1131,282.5,36.7285,39.4721,175.247,211800,180962,0.00910783,0.123569,20.8422,11.5706,-15.1916,0.0,0.0
1144,285.75,36.6575,39.4431,175.425,211862,180578,0.00883596,0.123726,20.8428,11.4905,-15.4252,0.0,0.0
1157,289,36.8092,39.3437,178.567,211931,181375.125,0.0086301,0.123171,20.8435,11.4505,-15.031,0.0,0.0
1170,292.25,36.5075,38.9409,171.37,212003,181442,0.00872554,0.124112,20.8419,11.3504,-15.028,0.0,0.0
1183,295.5,36.6601,39.3954,176.734,212166.5,181055,0.00872023,0.125146,20.8404,11.4305,-15.3087,0.0,0.0
1196,298.75,36.2966,39.5749,171.457,212273,181329,0.00877845,0.124532,20.843,11.3704,-15.2116,0.0,0.0
1209,302,36.151,38.9544,178.397,212347,181196,0.00872205,0.123827,20.8441,11.3404,-15.3157,0.0,0.0
1222,305.25,36.7993,39.0529,175.628,212422,181139.875,0.00894133,0.123355,20.8458,11.3003,-15.38,0.0,0.0
1235,308.5,36.7619,39.1815,173.015,212399.75,181243,0.00900107,0.122995,20.8466,11.3103,-15.3146,0.0,0.0
1248,311.75,36.6417,39.7237,172.234,212343,181079,,0.122696,,11.1902,-15.3766,0.0,0.0
1261,315,36.2551,39.5307,170.904,212224,181701,,,,11.2203,-14.991,0.0,0.0
1274,318.25,36.9936,39.2201,171.001,212031,180768,,,,11.2403,-15.4003,0.0,0.0
1284,320.75,36.6558,38.4445,172.025,211863,180822,,,,11.2303,-15.2951,0.0,0.0