File: 01_Data/Rubber_Band/Cone/Rubber_Band_Cone_HF35-Frame+GridScan_201013_R1.csv
Names,Time,Stack TC,Smoke TC,Exh Press,Smoke Comp,Smoke Meas,CO Meter,CO2 Meter,O2 Meter,Sample Mass,Ext Coeff,Start Test,Flame Verif
Chan Gain,,500,500,1,1,1,1,1,1,1,1,1.0,1.0
Offset,,0,0,0.130609,0,0,0,0,0,0,0,0.0,0.0
Gain,,1,1,25.011,28413.6,29762,1,1,1,1.00092,-11.006,1.0,1.0
Units,sec,C,C,Pa,%,%,%,%,%,g,/m,,
Baseline,,23.3199,25.5676,182.609,209514,177551,0.00511614,0.0617346,20.908,-939.148,-15.9812,,
19,4.5,22.2231,23.6933,186.155,209858,177747.5,0.00517661,0.0705783,20.8997,24.4724,-16.0328,0.0,0.0
38,9.25,21.783,23.9005,180.701,209968,177978,0.00503425,0.0708396,20.8999,24.4524,-15.9582,0.0,0.0
57,14,21.2689,24.2767,185.671,210152,178406,0.00507451,0.0695269,20.9014,24.4524,-15.8109,0.0,0.0
76,18.75,21.9387,24.1944,184.643,210237,177421,0.00511334,0.0664821,20.9045,24.4123,-16.3843,0.0,0.0
95,23.5,21.8956,24.2649,182.847,210378,177127,0.00525047,0.0666311,20.9027,24.4023,-16.609,0.0,0.0
114,28.25,22.2634,24.2148,188.753,210490,176190,0.00482827,0.0686868,20.9001,24.3823,-17.173,0.0,0.0
133,33,22.1769,24.2377,181.064,210624,174700,0.00504752,0.0665331,20.9023,24.3623,-18.0539,0.0,0.0
152,37.75,21.9558,24.6923,182.605,210763.5,176543,0.00563824,0.076281,20.89,24.2922,-17.1048,0.0,1.0
171,42.5,23.7235,29.164,172.699,210890,139940,0.0088756,0.209547,20.7231,24.112,-39.5947,0.0,0.0
190,47.25,31.2876,41.1692,158.302,211005,131847,0.0137996,0.37885,20.457,23.7417,-45.3981,0.0,0.0
209,52,38.417,51.4974,163.827,211129,127042,0.0175626,0.49872,20.266,23.2513,-49.0394,0.0,0.0
228,56.75,45.5183,63.2699,150.113,211219,112626,0.0219231,0.622594,20.058,22.6807,-60.7089,0.0,0.0
247,61.5,53.48,74.0151,148.354,211338,114322,0.025071,0.710139,19.9204,22.1002,-59.32,0.0,0.0
266,66.25,58.0418,81.1027,153.551,211454,108861,0.0264273,0.727801,19.8851,21.4896,-64.0985,0.0,0.0
285,71,61.2441,86.1496,156.285,211595,106873.75,0.0272618,0.731369,19.8765,20.8891,-65.9418,0.0,0.0
304,75.75,64.0798,87.6269,143.269,211718,105343,0.0270999,0.727483,19.8863,20.3086,-67.3904,0.0,0.0
323,80.5,65.2635,89.798,153.191,211880,119060,0.0261782,0.695172,19.926,19.7781,-55.6472,0.0,0.0
342,85.25,65.188,87.9367,156.24,212060,113753,0.0250308,0.647691,20.0001,19.2176,-60.1311,0.0,0.0
361,90,64.9375,87.0434,157.198,212225,120339,0.0244899,0.622797,20.038,18.7171,-54.7729,0.0,0.0
380,94.75,64.4787,85.0014,145.266,212368,114675,0.0237749,0.596266,20.0795,18.2267,-59.4919,0.0,0.0
399,99.5,63.4639,83.0836,158.649,212489,118516,0.0227649,0.556561,20.1384,17.7662,-56.3663,0.0,0.0
418,104.25,61.3861,79.1531,157.529,212547,130433,0.0214774,0.503508,20.2207,17.4059,-47.1424,0.0,0.0
437,109,59.0723,75.0662,159.3,212589,128658,0.019759,0.439581,20.3196,17.0256,-48.484,0.0,0.0
456,113.75,56.1593,69.1301,160.336,212635,128483,0.0175058,0.383001,20.3974,16.7553,-48.6365,0.0,0.0
475,118.5,53.817,64.2465,160.511,212615,134443,0.0156514,0.335431,20.4824,16.445,-44.2498,0.0,0.0
494,123.25,51.0211,61.125,166.557,212592.25,138013,0.014259,0.298216,20.5391,16.2248,-41.7097,0.0,0.0
513,128,49.2549,56.5498,165.985,212539,142971,0.0126498,0.274144,20.5825,16.0247,-38.2781,0.0,0.0
532,132.75,47.1447,53.9622,170.782,212494,150048,0.01132,0.256357,20.6136,15.8245,-33.5932,0.0,0.0
551,137.5,45.7477,51.9306,169.894,212424,149177,0.00981819,0.247136,20.6284,15.6243,-34.1233,0.0,0.0
570,142.25,44.6875,49.9568,165.934,212349,156099,0.00933974,0.237884,20.6446,15.4541,-29.7102,0.0,0.0
589,147,44.0847,48.9491,171.959,212221.125,156993,0.00899555,0.229344,20.6595,15.324,-29.1011,0.0,0.0
608,151.75,43.4741,48.1523,169.2,212080,160005,0.00821811,0.221641,20.6733,15.1939,-27.2021,0.0,0.0
627,156.5,42.4011,46.9701,180.157,211964,163319,0.00769407,0.212694,20.6882,15.0237,-25.1699,0.0,0.0
646,161.25,41.9348,45.5607,166.04,211896,166188,0.00719626,0.201727,20.7062,14.9236,-23.4577,0.0,0.0
665,166,40.8509,44.8951,165.119,212153,167674,0.0073062,0.195767,20.7177,14.7935,-22.7156,0.0,0.0
684,170.75,40.5116,44.1432,172.938,212715.375,171518,0.0072298,0.186492,20.7315,14.6734,-20.7828,0.0,0.0
703,175.5,39.8601,42.934,177.494,213141,173432,0.007341,0.179959,20.744,14.5933,-19.9041,0.0,0.0
722,180.25,39.0005,42.1021,173.955,213455,175258,0.0071799,0.172197,20.7562,14.5133,-19.0352,0.0,0.0
741,185,38.7708,41.4839,172.407,213602,176358,0.00705537,0.166728,20.7647,14.4132,-18.4979,0.0,0.0
760,189.75,38.0141,40.6592,177.045,213625,177567,0.00697554,0.161973,20.7742,14.3431,-17.8485,0.0,0.0
779,194.5,37.6411,40.1256,176.53,213509,177856.5,0.00725341,0.15808,20.7795,14.263,-17.6386,0.0,0.0
798,199.25,36.9387,39.4549,175.855,213153,177621.25,0.0075174,0.154048,20.7854,14.203,-17.6055,0.0,0.0
817,204,36.5434,38.9381,177.756,212647.75,178857,0.00750074,0.148143,20.7936,14.1329,-16.7067,0.0,0.0
836,208.75,35.9075,38.1313,173.304,212264,178231,0.00777719,0.143452,20.8001,14.0528,-16.871,0.0,0.0
855,213.5,35.0212,37.311,175.854,212414.5,178648,0.00772549,0.140691,20.8063,14.0128,-16.7141,0.0,0.0
874,218.25,34.6833,36.8811,174.752,212655,178557,0.00748293,0.136081,20.8122,13.9528,-16.8722,0.0,0.0
893,223,34.2688,36.1229,176.774,212907.875,178520,0.00753703,0.134651,20.8158,13.9027,-17.0068,0.0,0.0
912,227.75,34.3767,36.4077,177.614,213126,179506,0.00774991,0.131741,20.8192,13.8627,-16.5739,0.0,0.0
931,232.5,33.8977,35.4662,182.27,213374,179204,0.00781092,0.128883,20.8227,13.8026,-16.8489,0.0,0.0
950,237.25,33.6599,35.3743,179.614,213550,180386,0.00784019,0.127387,20.8272,13.7326,-16.2936,0.0,0.0
969,242,32.9842,34.7535,175.521,213720,180179,0.00774309,0.126097,20.8292,13.6725,-16.4817,0.0,0.0
988,246.75,32.9875,34.6938,176.547,213829.625,180565,0.00792136,0.125108,20.8313,13.6425,-16.3245,0.0,0.0
1007,251.5,32.1291,34.88,172.372,213778,180446.875,0.00783521,0.124025,20.8311,13.6024,-16.3645,0.0,0.0
1026,256.25,32.3704,34.2176,171.926,213644,180654,0.00771398,0.122971,20.8337,13.5424,-16.1931,0.0,0.0
1045,261,32.116,33.9275,178.713,213362.25,180251,0.00759948,0.121886,20.8357,13.4923,-16.2814,0.0,0.0
1064,265.75,32.0038,33.4879,179.238,213010,180458,0.00730947,0.120384,20.8397,13.4423,-16.0111,0.0,0.0
1083,270.5,31.8884,33.5381,173.636,212383,180199,0.00720493,0.120626,20.8389,13.4323,-15.8651,0.0,0.0
1102,275.25,31.8509,33.2509,173.748,211866,179819,0.00776978,0.120068,20.8399,13.3722,-15.8335,0.0,0.0
1121,280,31.8215,32.5106,175.089,211282,179060,0.00757609,0.118342,20.8423,13.3122,-15.9754,0.0,0.0
1140,284.75,31.3349,32.9447,182.673,210698,178725,0.0076568,0.116782,20.8465,13.2621,-15.8888,0.0,0.0
1159,289.5,30.5632,32.782,178.339,210171,177994,0.00759911,0.114835,20.8497,13.2421,-16.0431,0.0,0.0
1178,294.25,31.3324,32.8581,175.737,209822,178168,0.0079779,0.114071,20.8488,13.2121,-15.7879,0.0,0.0
1197,299,30.8497,32.3581,178.735,209524,177907,0.00797243,0.113274,20.8504,13.172,-15.7923,0.0,0.0
1216,303.75,30.5073,32.171,178.735,209348.375,177590.375,0.00797567,0.112294,20.8517,13.142,-15.8834,0.0,0.0
1235,308.5,29.6284,31.8911,178.691,209293.75,177909,0.00803419,0.110444,20.8537,13.122,-15.685,0.0,0.0
1254,313.25,29.8261,31.762,177.911,209333,177879,0.00798973,0.109087,20.8541,13.072,-15.7193,0.0,0.0
1273,318,29.5968,31.2183,179.085,209537,177687,0.00762262,0.109421,20.8542,13.0319,-15.9178,0.0,0.0
1292,322.75,29.563,30.9722,179.461,209817,178299,0.00738268,0.108556,20.8573,13.0019,-15.7147,0.0,0.0
1311,327.5,29.396,31.0736,178.484,210154,178368,0.00769318,0.108101,20.8592,12.9418,-15.8324,0.0,0.0
1330,332.25,29.6241,31.0229,178.146,210491,178845,0.00813585,0.107421,20.86,12.9118,-15.7295,0.0,0.0
1349,337,29.3776,30.9259,178.057,210882,179010,0.00769543,0.1068,20.863,12.8818,-15.8195,0.0,0.0
1368,341.75,29.2308,30.9238,178.867,211160,179408,0.00754394,0.1056,20.8647,12.8618,-15.7321,0.0,0.0
1387,346.5,28.9339,30.5022,180.731,211461,179578,0.00765495,0.104947,20.8626,12.8317,-15.7782,0.0,0.0
1406,351.25,27.3287,29.3478,178.11,211732,179661,0.00776583,0.104942,20.8629,12.7917,-15.8572,0.0,0.0
1425,356,26.7072,28.8346,173.819,211970,180236,0.00788918,0.104076,20.864,12.7817,-15.657,0.0,0.0
1444,360.75,27.0908,28.8241,180.113,212185,180112.625,0.00775749,0.103161,20.8645,12.7216,-15.8211,0.0,0.0
1463,365.5,26.9903,28.4964,177.926,212339,180142,0.00771173,0.102927,20.8639,12.7216,-15.8757,0.0,0.0
1482,370.25,26.7996,28.645,179.086,212482.125,180652,0.00751912,0.103544,20.8667,12.6616,-15.6675,0.0,0.0
1501,375,26.8928,28.4576,176.492,212574,180017,0.00742892,0.103065,20.8664,12.6516,-16.0492,0.0,0.0
1520,379.75,26.8898,28.7774,182.274,212582,180409.625,0.00751798,0.10279,20.8673,12.6315,-15.8425,0.0,0.0
1539,384.5,26.6066,29.0179,183.998,212555,180449,0.00751253,0.101826,20.8684,12.6015,-15.8094,0.0,0.0
1558,389.25,26.6456,28.8039,180.338,212475,180650,0.00751669,0.101403,20.8678,12.5415,-15.6653,0.0,0.0
1577,394,26.8957,28.7908,178.145,212405,180324.25,0.0074663,0.101107,20.869,12.5214,-15.8078,0.0,0.0
1596,398.75,26.3864,28.2191,177.823,212375,180121,0.00774958,0.101028,20.8708,12.5014,-15.9034,0.0,0.0
1615,403.5,26.9041,28.5402,177.146,212298,180337,0.00764662,0.101679,20.8703,12.4614,-15.7526,0.0,0.0
1634,408.25,26.5105,28.3329,175.885,212212,180065,0.00747228,0.101092,20.8721,12.4414,-15.8586,0.0,0.0
1653,413,26.8961,28.6677,176.899,212148,179946,0.00790159,0.101486,20.8706,12.4013,-15.8936,0.0,0.0
1672,417.75,26.2088,28.4734,176.106,212045,180106,0.00749609,0.101078,20.8711,12.3913,-15.7609,0.0,0.0
1691,422.5,26.1581,28.008,176.065,211918,180042,0.00736885,0.100499,20.8721,12.3313,-15.7374,0.0,0.0
1710,427.25,26.2738,28.4281,177.729,211883,179919,0.00755592,0.100315,20.8718,12.3113,-15.7874,0.0,0.0
1729,432,26.5133,28.4818,184.159,211836.125,180044,0.00762176,0.100606,20.8715,12.3012,-15.6993,0.0,0.0
1748,436.75,26.1761,28.3611,174.05,212264,180205,0.00762535,0.100986,20.8695,12.2512,-15.8073,0.0,0.0
1767,441.5,26.4334,28.3464,178.747,212608,180363,0.00744621,0.101238,20.8691,12.2312,-15.8791,0.0,0.0
1786,446.25,26.3477,28.1353,179.861,212993,180452,0.00718699,0.100057,20.8702,12.1911,-16.0062,0.0,0.0
1805,451,25.8353,27.7989,187.056,213256,180997,0.00715888,0.0999558,20.87,12.1511,-15.8344,0.0,0.0
1824,455.75,26.0664,27.7188,180.646,213455,181278,0.00757795,0.101732,20.8684,12.1711,-15.7747,0.0,0.0
1843,460.5,26.5732,28.0938,179.855,213543,181561,,0.100747,,12.1311,-15.6639,0.0,0.0
1862,465.25,26.3966,28.4951,176.121,213607,181442,,,,12.1011,-15.7558,0.0,0.0
1880,469.75,26.2933,28.5399,177.908,213635,181216,,,,12.071,-15.8892,0.0,0.0