File: 01_Data/Rubber_Band/Cone/Rubber_Band_Cone_HF25-Frame+GridScan_201013_R1.csv
Names,Time,Stack TC,Smoke TC,Exh Press,Smoke Comp,Smoke Meas,CO Meter,CO2 Meter,O2 Meter,Sample Mass,Ext Coeff,Start Test,Flame Verif
Chan Gain,,500,500,1,1,1,1,1,1,1,1,1.0,1.0
Offset,,0,0,0.130609,0,0,0,0,0,0,0,0.0,0.0
Gain,,1,1,25.011,28413.6,29762,1,1,1,1.00092,-11.006,1.0,1.0
Units,sec,C,C,Pa,%,%,%,%,%,g,/m,,
Baseline,,18.1042,19.5218,185.874,213045,180403,0.00438359,0.0607684,20.9006,-937.978,-16.0567,,
23,5.5,16.21,17.7604,183.946,212952,180392.375,0.00445709,0.0664764,20.8951,14.9637,-16.0198,0.0,0.0
46,11.25,16.0972,17.8992,192.919,212862,180337,0.00437851,0.0702585,20.8913,14.9637,-16.0085,0.0,0.0
69,17,16.7288,18.1355,191.381,212819,180096,0.00422205,0.0640745,20.8972,14.9537,-16.1182,0.0,0.0
92,22.75,16.3284,17.5709,187.007,212757,180124,0.00394548,0.0613377,20.9011,14.9337,-16.0753,0.0,0.0
115,28.5,16.5112,17.8938,188.72,212664,179583,0.00406609,0.0616308,20.9003,14.9236,-16.3232,0.0,0.0
138,34.25,16.6484,18.2045,186.609,212622,179608,0.00417771,0.0615235,20.9012,14.9136,-16.2908,0.0,0.0
161,40,16.4694,18.6366,186.054,212518,179193,0.00380241,0.0617191,20.9019,14.9036,-16.4664,0.0,0.0
184,45.75,16.7196,18.2102,183.514,212436,178558,0.00410485,0.0612472,20.902,14.8736,-16.7725,0.0,0.0
207,51.5,17.0139,17.7075,183.956,212347,178036,0.00408856,0.0623478,20.9,14.8636,-17.0142,0.0,0.0
230,57.25,16.457,18.1735,180.535,212214,177274,0.00416703,0.0634561,20.8985,14.8436,-17.368,0.0,0.0
253,63,16.4064,17.8485,190.878,212123,176692,0.00411447,0.0666763,20.8974,14.8035,-17.6441,0.0,0.0
276,68.75,17.1439,18.8033,182.175,211976,176006,0.00414107,0.0674052,20.8959,14.7735,-17.9524,0.0,0.0
299,74.5,16.971,18.4232,188.283,211803,176391,0.00433839,0.0660273,20.8958,14.7635,-17.6628,0.0,0.0
322,80.25,17.4724,19.0414,181.762,211657,175409.625,0.00450621,0.06688,20.8952,14.7335,-18.1349,0.0,0.0
345,86,17.3899,19.058,186.736,211528,174128,0.00463235,0.0677956,20.8954,14.7034,-18.7843,0.0,0.0
368,91.75,19.9832,23.2593,175.285,211442,148919,0.00756823,0.16859,20.7504,14.5033,-33.8429,0.0,1.0
391,97.5,25.0582,33.7128,170.42,211312,136103,0.0126029,0.339548,20.4983,14.1529,-42.4718,0.0,0.0
414,103.25,32.8134,45.6928,151.575,211211,126025,0.0168209,0.474105,20.2878,13.6024,-49.8532,0.0,0.0
437,109,41.5865,58.9305,151.583,211140,120488,0.0202486,0.606587,20.092,12.9919,-54.1583,0.0,0.0
460,114.75,48.2865,68.0307,149.908,211083,120046,0.0224371,0.656056,20.0049,12.2912,-54.4869,0.0,0.0
483,120.5,52.1037,73.3454,158.428,210937,118111,0.0230215,0.653323,19.998,11.7107,-55.9891,0.0,0.0
506,126.25,54.8583,76.3986,161.086,210937,117686,0.0235372,0.651802,19.998,11.0201,-56.3371,0.0,0.0
529,132,56.5776,77.9899,157.768,210840,121999,0.0234901,0.653184,19.999,10.3995,-52.8175,0.0,0.0
552,137.75,57.4507,78.8705,156.49,210858,116495,0.0228937,0.626469,20.0417,9.75892,-57.2828,0.0,0.0
575,143.5,57.2574,77.0737,148.791,210859,118784,0.0219631,0.588722,20.0945,9.1884,-55.4048,0.0,0.0
598,149.25,55.7678,74.1359,164.688,210872,125720,0.0200723,0.532667,20.1881,8.66792,-49.9315,0.0,0.0
621,155,53.6943,69.3293,165.877,210881,129216,0.0182996,0.462698,20.2858,8.25755,-47.2875,0.0,0.0
644,160.75,50.8605,63.9317,168.776,210854,131034,0.0170599,0.391783,20.3959,7.85718,-45.9268,0.0,0.0
667,166.5,47.1564,57.7817,167.824,210960,133858,0.0151036,0.3315,20.486,7.53689,-43.9165,0.0,0.0
690,172.25,44.0428,51.8634,174.549,211055,147553,0.0125563,0.282641,20.5651,7.29667,-34.5558,0.0,0.0
713,178,41.3483,47.4194,173.2,211220,150859,0.0101969,0.249882,20.6144,7.04644,-32.4923,0.0,0.0
736,183.75,38.954,44.0294,176.343,211388,154969.125,0.0081161,0.227011,20.6552,6.84626,-29.9737,0.0,0.0
759,189.5,37.0285,40.8175,168.461,211573,162047,0.00773246,0.211975,20.6822,6.70613,-25.7462,0.0,0.0
782,195.25,35.8439,39.9624,175.41,211714,163395,0.00710674,0.204227,20.6982,6.51596,-25.011,0.0,0.0
805,201,35.8572,39.0203,175.218,211886,166364,0.00662076,0.199873,20.7051,6.37583,-23.3507,0.0,0.0
828,206.75,35.0758,37.89,175.337,212055,168118,0.00653698,0.194314,20.714,6.22569,-22.4152,0.0,0.0
851,212.5,34.312,36.9251,176.772,212218,170725,0.00638599,0.189142,20.7226,6.10558,-21.004,0.0,0.0
874,218.25,33.2948,35.852,171.879,212328,173404,0.0062639,0.183538,20.7318,5.97546,-19.5506,0.0,0.0
897,224,33.0411,35.7532,171.686,212473,172693,0.0060475,0.180286,20.7377,5.86536,-20.0136,0.0,0.0
920,229.75,32.5668,35.8223,176.174,212584,173180,0.00614892,0.177009,20.7439,5.73524,-19.7919,0.0,0.0
943,235.5,32.1445,34.9217,180.896,212705,174288,0.00578816,0.172765,20.75,5.62514,-19.2312,0.0,0.0
966,241.25,32.4093,33.8434,175.24,212803,175995,0.00597884,0.168087,20.7563,5.51504,-18.3349,0.0,0.0
989,247,31.0072,33.0982,176.417,212851,175391,0.00635307,0.164208,20.7644,5.41495,-18.6885,0.0,0.0
1012,252.75,31.0892,32.7731,174.96,212961,176477.75,0.00613514,0.161063,20.7722,5.33488,-18.1418,0.0,0.0
1035,258.5,30.0993,32.3123,179.264,212971,177683,0.00612351,0.157299,20.7772,5.21477,-17.4894,0.0,0.0
1058,264.25,30.7258,32.8808,176.179,212985,178248.875,0.00620779,0.155095,20.7811,5.1347,-17.1887,0.0,0.0
1081,270,29.8519,31.5258,176.626,212982,178432,0.00620885,0.153009,20.7836,5.04461,-17.0878,0.0,0.0
1104,275.75,29.6438,31.4986,180.648,212963.375,178985,0.0064795,0.150708,20.7871,4.94452,-16.7808,0.0,0.0
1127,281.5,29.7279,31.5418,175.065,212943,178946,0.00624475,0.14746,20.7914,4.88447,-16.7933,0.0,0.0
1150,287.25,29.0115,31.2647,181.013,212893,179627,0.00626003,0.145424,20.7959,4.80439,-16.4037,0.0,0.0
1173,293,28.9399,30.8455,177.597,212845,179694,0.00589749,0.141831,20.8012,4.72432,-16.3455,0.0,0.0
1196,298.75,28.6113,30.1096,177.859,212841,179679,0.00613275,0.137945,20.8067,4.64425,-16.3518,0.0,0.0
1219,304.5,27.9306,29.6949,177.143,212825.5,179540,0.0060811,0.137815,20.8082,4.58419,-16.4199,0.0,0.0
1242,310.25,27.6824,29.533,181.889,212787,179784.75,0.00614827,0.133964,20.8142,4.50412,-16.2708,0.0,0.0
1265,316,27.081,29.1633,180.78,212724,180169,0.00628291,0.131505,20.8157,4.46408,-16.036,0.0,0.0
1288,321.75,26.9376,28.5166,179.242,212666,180325,0.00602745,0.130065,20.8167,4.374,-15.9259,0.0,0.0
1311,327.5,27.1745,28.7308,187.428,212591,179859,0.00607261,0.128316,20.8187,4.32395,-16.1418,0.0,0.0
1334,333.25,26.6937,27.8158,179.78,212557,180248.875,0.00620162,0.126997,20.8229,4.2639,-15.9172,0.0,0.0
1357,339,26.665,27.5244,182.031,212476,179891,0.00621288,0.124025,20.8268,4.20384,-16.0724,0.0,0.0
1380,344.75,25.7906,27.2943,174.673,212368,179985,0.00620496,0.121379,20.8308,4.14379,-15.9729,0.0,0.0
1403,350.5,25.9569,27.1705,177.304,212321,180421,0.00642799,0.119351,20.8327,4.09374,-15.7176,0.0,0.0
1426,356.25,25.2366,27.3048,183.316,212259,180054.5,0.00635348,0.118527,20.8341,4.03369,-15.8861,0.0,0.0
1449,362,25.0728,26.9402,178.984,212206,180061,0.00662814,0.117273,20.8362,4.02368,-15.8587,0.0,0.0
1472,367.75,25.4014,26.6337,179.384,212378,179984,0.00675708,0.116136,20.8374,3.95361,-15.9782,0.0,0.0
1495,373.5,25.191,25.843,175.948,212427.5,180092,0.006918,0.116663,20.8361,3.90357,-15.9427,0.0,0.0
1518,379.25,24.8347,25.4702,181.099,212536.75,179844,0.00667334,0.114179,20.8391,3.87354,-16.1253,0.0,0.0
1541,385,25.0128,25.9887,182.167,212545,180102,0.00650495,0.114644,20.8401,3.8235,-15.9905,0.0,0.0
1564,390.75,24.5134,25.6651,177.688,212512,180358,0.00666848,0.113355,20.8427,3.79347,-15.8387,0.0,0.0
1587,396.5,24.0534,25.4309,185.242,212355,179491.375,0.00670272,0.108734,20.8488,3.70339,-16.2319,0.0,0.0
1610,402.25,23.784,25.2315,181.438,212185,179451,0.00692463,0.108138,20.851,3.7234,-16.1761,0.0,0.0
1633,408,23.8577,24.6725,182.54,212211,179682,0.00670048,0.10875,20.8499,3.63332,-16.0639,0.0,0.0
1656,413.75,23.235,24.9588,180.192,212243,179533,0.00698141,0.106602,20.8501,3.63332,-16.1586,0.0,0.0
1679,419.5,23.6211,24.4451,184.292,212344.25,179495,0.00668964,0.106357,20.851,3.49319,-16.2252,0.0,0.0
1702,425.25,23.3087,24.4192,184.769,212429,179451,0.00686052,0.10585,20.8522,3.52322,-16.2873,0.0,0.0
1725,431,23.5732,24.7866,183.661,212563,179128,0.00738733,0.105408,20.8527,3.49319,-16.5221,0.0,0.0
1748,436.75,21.2543,22.576,179.864,212707,180403,0.00705544,0.102264,20.8569,3.42313,-15.9026,0.0,0.0
1771,442.5,21.3462,22.63,183.946,212779,179790,0.00696065,0.103545,20.8582,3.35307,-16.2639,0.0,0.0
1794,448.25,21.2582,22.6301,180.141,212888,180015,0.00695467,0.101861,20.8598,3.283,-16.1931,0.0,0.0
1817,454,21.2617,22.179,179.149,212924,180234,0.00657084,0.102496,20.8595,3.31303,-16.0918,0.0,0.0
1840,459.75,20.9907,22.2691,183.562,212916,180085.375,0.00684484,0.10184,20.8615,3.25297,-16.1677,0.0,0.0
1863,465.5,20.8384,21.7393,181.342,212750,180039,0.00665797,0.101416,20.862,3.20293,-16.1174,0.0,0.0
1886,471.25,20.9067,22.2868,178.199,212604,180242,0.00696285,0.101668,20.8628,3.15288,-15.9423,0.0,0.0
1909,477,20.6426,21.9137,177.717,212379,179564,0.00669368,0.0996859,20.8642,3.16289,-16.2039,0.0,0.0
1932,482.75,20.8508,21.8367,182.976,212219,179279.75,0.0068898,0.0990196,20.8609,3.08282,-16.2843,0.0,0.0
1955,488.5,20.5134,22.1652,180.414,211983,179354,0.00660242,0.0996462,20.8605,3.00275,-16.1365,0.0,0.0
1978,494.25,20.5335,22.0868,174.967,211759,179210,0.00659344,0.100941,20.8605,3.00275,-16.1123,0.0,0.0
2001,500,20.2654,21.9251,181.788,211525,179005,0.00678987,0.0997484,20.8605,2.96271,-16.1161,0.0,0.0
2024,505.75,20.5857,22.0767,175.166,211238,178820,0.00666826,0.100146,20.8633,2.93268,-16.0845,0.0,0.0
2047,511.5,20.3689,21.5751,176.7,210920,178582,0.00664456,0.0992873,20.8637,2.88264,-16.0675,0.0,0.0
2070,517.25,20.145,22.0338,184.481,210561,178455,0.00646889,0.0994974,20.8638,2.8426,-15.9722,0.0,0.0
2093,523,20.0326,21.2409,180.73,210276,177883,0.00650381,0.0978599,20.8656,2.77254,-16.1514,0.0,0.0
2116,528.75,20.5629,21.531,185.603,210007.375,178353,0.00673654,0.0997625,20.8637,2.76253,-15.7729,0.0,0.0
2139,534.5,20.1568,21.6274,183.226,209868,177601,0.00665195,0.0992187,20.8632,2.74251,-16.1167,0.0,0.0
2162,540.25,20.1697,21.7086,182.243,209708,177567,0.00637484,0.0984529,20.8651,2.72249,-16.062,0.0,0.0
2185,546,20.1898,21.5965,184.614,209626,177756,,,,2.69246,-15.9214,0.0,0.0
2208,551.75,19.871,21.7012,187.559,209589,177262.5,,,,2.64242,-16.1725,0.0,0.0
2212,552.75,19.5917,20.7638,182.266,209622,177472,,,,2.66243,-16.0739,0.0,0.0