File: 01_Data/Polyester_Fabric/Cone/Polyester_Fabric_Cone_HF25Scan_210325_R3.csv
Names,Time,Stack TC,Smoke TC,Exh Press,Smoke Comp,Smoke Meas,CO Meter,CO2 Meter,O2 Meter,Sample Mass,Ext Coeff,Start Test,Flame Verif
Chan Gain,,500,500,1,1,1,1,1,1,1,1,1.0,1.0
Offset,,0,0,0.138348,0,0,0,0,0,0,0,0.0,0.0
Gain,,1,1,25.011,13.5067,16.616,1,1,1,1.00091,1.04608,1.0,1.0
Units,sec,C,C,Pa,%,%,%,%,%,g,/m,,
Baseline,,15.9649,17.323,170.393,100.216,99.4575,-0.000107439,0.0848709,20.8282,0.001835,0.0696938,,
33,8,15.4818,16.5111,169.611,100.436,99.5974,-0.000325072,0.0933677,20.8144,483.77,0.0769524,0.0,0.0
66,16.25,15.1053,16.4988,173.005,100.649,99.9422,-0.000281469,0.0969184,20.8119,481.498,0.0646888,0.0,0.0
99,24.5,16.2011,16.8845,171.302,100.793,99.9204,-0.00030821,0.100141,20.806,481.448,0.0797582,0.0,0.0
132,32.75,15.8591,17.3447,173.684,100.827,100.084,-0.000136949,0.101569,20.8088,481.478,0.0678892,0.0,0.0
165,41,15.8225,17.051,172.271,100.754,100.045,-5.73047e-05,0.100543,20.8153,481.438,0.0648658,0.0,0.0
198,49.25,15.6362,17.4127,167.069,100.576,99.8074,-0.00025769,0.095586,20.8224,481.458,0.0703884,0.0,0.0
231,57.5,16.0919,17.5195,166.735,100.312,99.4879,-0.000242221,0.091193,20.8246,481.448,0.075669,0.0,0.0
264,65.75,16.1444,18.0722,172.104,100.001,99.0863,-0.000443269,0.0891911,20.825,481.448,0.0843116,0.0,0.0
297,74,15.9706,17.2811,170.723,99.674,98.8307,-5.23575e-05,0.0876269,20.8267,481.428,0.0779666,0.0,0.0
330,82.25,15.6395,17.5147,172.6,99.3571,98.5838,-0.000240951,0.0893658,20.8168,481.418,0.0716964,0.0,0.0
363,90.5,16.1221,17.5634,174.35,99.0809,98.2268,-0.000377239,0.0923826,20.8168,481.448,0.0794437,0.0,0.0
396,98.75,15.7113,17.5896,168.594,98.8814,98.0529,-0.000381973,0.0967007,20.8083,481.428,0.0772106,0.0,0.0
429,107,16.4635,17.9135,174.162,98.7788,98.0422,-0.000353628,0.1013,20.8035,481.408,0.0686775,0.0,0.0
462,115.25,17.1208,18.2037,166.323,98.8064,97.9758,-5.25071e-05,0.10461,20.7998,481.428,0.0774622,0.0,0.0
495,123.5,16.6169,17.7778,167.34,98.8818,98.0838,-0.000238403,0.104573,20.8009,481.398,0.0743551,0.0,0.0
528,131.75,15.9716,17.9894,170.467,99.0677,98.2025,-0.000421155,0.10259,20.8072,481.378,0.0804956,0.0,0.0
561,140,16.5857,17.4957,170.054,99.2849,98.5163,-0.000192671,0.0986465,20.8166,481.408,0.0713111,0.0,0.0
594,148.25,16.5825,17.8453,169.57,99.5174,98.6167,-0.000190514,0.0942875,20.82,481.398,0.0834249,0.0,0.0
627,156.5,16.3484,18.1103,170.694,99.7606,98.9002,-0.000253762,0.0909131,20.8253,481.378,0.0794849,0.0,0.0
660,164.75,16.9705,18.1037,171.915,99.9745,99.1071,-0.000100155,0.0885208,20.8278,481.368,0.0799653,0.0,0.0
693,173,16.241,17.8495,167.579,100.127,99.2582,-0.000318477,0.0870555,20.8297,481.378,0.0799729,0.0,0.0
726,181.25,16.1005,18.0695,173.116,100.22,99.3566,-0.000330373,0.0858154,20.8318,481.348,0.0794155,0.0,0.0
759,189.5,16.7641,18.3415,165.708,100.243,99.3484,-0.000129907,0.0846692,20.8325,481.358,0.082278,0.0,0.0
792,197.75,16.5925,17.904,170.315,100.22,99.3261,-0.000572409,0.0842523,20.8314,481.318,0.082226,0.0,0.0
825,206,16.7832,17.6717,167.94,100.155,99.3439,-0.000358552,0.084719,20.8311,481.368,0.0746221,0.0,0.0
858,214.25,16.9594,18.6703,170.221,100.084,99.2197,-0.000609041,0.0850601,20.829,481.338,0.0795684,0.0,0.0
891,222.5,16.1043,17.6902,166.83,100.018,99.1532,-0.000404207,0.0866991,20.825,481.358,0.0797029,0.0,0.0
924,230.75,17.2006,18.247,168.276,99.9547,99.0102,-0.000311883,0.0892711,20.8216,481.338,0.0871206,0.0,0.0
957,239,16.6127,18.2298,174.082,99.8876,98.9965,-0.000386761,0.0891054,20.8231,481.348,0.0822195,0.0,0.0
990,247.25,15.9804,18.6186,172.496,100.316,99.4717,-0.000381432,0.0884475,20.826,481.268,0.0775804,0.0,0.0
1023,255.5,16.5618,18.2048,167.884,100.589,99.8464,-0.000377959,0.087684,20.8268,481.328,0.0680032,0.0,0.0
1056,263.75,16.5221,18.2488,171.082,100.746,99.8231,1.97183e-05,0.0883519,20.8255,481.318,0.0844254,0.0,0.0
1089,272,16.7833,18.6389,163.855,100.801,99.89,-0.000462837,0.0881324,20.8293,481.298,0.0833035,0.0,0.0
1122,280.25,17.1014,18.3729,166.47,100.79,99.8844,-0.000332295,0.0887675,20.8278,481.298,0.0828027,0.0,0.0
1155,288.5,16.6042,18.1758,167.514,100.656,99.8621,-0.000513821,0.0879038,20.8313,481.308,0.0726862,0.0,0.0
1188,296.75,16.9871,17.7615,167.546,100.497,99.6476,-0.00052888,0.0866043,20.8307,481.308,0.0778624,0.0,0.0
1221,305,17.3325,18.4442,170.289,100.252,99.3307,-0.000499328,0.0864423,20.8301,481.288,0.0847484,0.0,0.0
1254,313.25,17.2409,18.3511,166.666,100.234,99.1902,-0.000670162,0.0867487,20.8282,481.288,0.0960349,0.0,0.0
1287,321.5,17.041,18.2259,168.643,100.327,99.3408,-0.000653561,0.086823,20.8281,481.268,0.090675,0.0,0.0
1320,329.75,16.8726,18.4484,172.137,100.442,99.6263,-0.000655896,0.0866125,20.8299,481.268,0.0748553,0.0,0.0
1353,338,17.0696,18.291,169.462,100.559,99.7272,-0.000618548,0.0875484,20.8287,481.268,0.0762158,0.0,0.0
1386,346.25,17.0905,18.9912,169.642,100.679,99.7637,-0.000196639,0.0890585,20.8266,481.248,0.0837967,0.0,0.0
1419,354.5,17.0239,18.3198,166.705,100.759,99.9072,-0.000565692,0.0901604,20.8241,481.298,0.0778917,0.0,0.0
1452,362.75,16.875,18.3459,168.81,100.853,100.001,-0.000139573,0.0957664,20.8131,481.228,0.0778809,0.0,0.0
1485,371,16.8769,18.6868,168.877,100.937,99.9286,-0.000271429,0.0976494,20.8168,481.258,0.092175,0.0,0.0
1518,379.25,17.4066,18.3921,171.842,100.967,100.095,-0.000254351,0.0954039,20.825,481.248,0.0795283,0.0,0.0
1551,387.5,17.2908,18.7841,174.923,100.988,100.003,-0.00029431,0.0910425,20.829,481.228,0.0899872,0.0,0.0
1584,395.75,16.8664,18.6763,164.818,100.952,100.055,-6.76294e-05,0.0882273,20.8337,481.228,0.0818997,0.0,0.0
1617,404,17.1104,18.8652,170.254,100.875,100.135,-0.000794534,0.0861977,20.8333,481.228,0.067583,0.0,0.0
1650,412.25,17.7989,18.7005,169.274,100.754,99.886,-0.000519807,0.0881959,20.826,481.218,0.079435,0.0,0.0
1683,420.5,17.3604,19.1695,166.913,100.61,99.7065,-0.000348054,0.089746,20.8286,481.228,0.0827539,0.0,0.0
1716,428.75,17.1813,18.7765,168.531,100.436,99.6162,-0.000121583,0.0892621,20.8295,481.218,0.0751863,0.0,0.0
1749,437,17.2906,18.6091,172.917,100.24,99.3434,-0.000268681,0.0878804,20.8283,481.228,0.082445,0.0,0.0
1782,445.25,17.1099,18.9636,167.389,100.026,99.0903,-0.000255032,0.0878928,20.8295,481.188,0.0862428,0.0,0.0
1815,453.5,17.1423,18.7467,168.586,99.8472,98.9687,-0.000592676,0.0875962,20.8316,481.198,0.0810941,0.0,0.0
1848,461.75,16.9402,18.9445,164.38,99.651,98.9479,-0.000827189,0.0871267,20.8323,481.198,0.0649723,0.0,0.0
1881,470,17.6399,19.3287,171.017,99.4502,98.5873,-0.000548722,0.0857347,20.8336,481.218,0.0799653,0.0,0.0
1914,478.25,17.1889,19.009,168.854,99.2866,98.4124,-0.000450387,0.0861855,20.8318,481.228,0.0811505,0.0,0.0
1947,486.5,17.2005,19.0616,170.575,99.1637,98.2902,-8.86445e-05,0.0870442,20.8276,481.198,0.0811938,0.0,0.0
1980,494.75,16.6833,18.2579,173.31,99.0323,98.2121,-9.90956e-05,0.0941403,20.8145,481.188,0.0763113,0.0,0.0
2013,503,17.8519,18.5011,170.341,98.9865,98.0944,6.31831e-05,0.101368,20.8096,481.198,0.0830694,0.0,0.0
2046,511.25,17.699,18.7162,166.643,98.9688,98.1883,-0.000438507,0.100792,20.8206,481.228,0.0726547,0.0,0.0
2079,519.5,17.2532,19.1066,169.157,98.9787,98.0625,-0.000264405,0.0988816,20.8189,481.198,0.0853315,0.0,0.0
2112,527.75,17.7007,19.1509,168.873,99.0623,98.1806,-0.000562216,0.095305,20.8243,481.178,0.0820373,0.0,0.0
2145,536,17.4667,18.8974,170.35,99.1662,98.2405,-2.72448e-05,0.094338,20.8185,481.188,0.086063,0.0,0.0
2178,544.25,17.9788,19.0322,168.156,99.3002,98.5092,-0.000428217,0.0949285,20.8183,481.188,0.0733818,0.0,0.0
2211,552.5,17.3944,18.9498,170.979,99.4519,98.7471,0.000237343,0.0977738,20.8175,481.178,0.0652623,0.0,0.0
2244,560.75,17.1475,19.0665,168.472,99.5883,98.7415,-0.000125895,0.0991598,20.8223,481.168,0.0783603,0.0,0.0
2277,569,17.7972,19.2504,169.933,99.773,98.8693,-0.000391052,0.094935,20.8284,481.168,0.0834921,0.0,0.0
2310,577.25,17.2629,19.2288,166.772,99.9354,99.0559,-0.000179559,0.0898031,20.8316,481.178,0.0811125,0.0,0.0
2343,585.5,17.3495,19.0448,168.561,100.084,99.2379,-0.000149546,0.0869212,20.8311,481.168,0.0779188,0.0,0.0
2376,593.75,17.395,18.8299,163.325,100.199,97.2613,0.000126092,0.0928838,20.8136,481.108,0.27303,0.0,0.0
2409,602,18.3053,20.498,164.881,100.289,94.23,0.000614775,0.11473,20.7724,480.968,0.571797,0.0,0.0
2442,610.25,19.7246,22.8142,159.352,100.359,91.2463,0.0021202,0.147605,20.7305,480.728,0.873454,0.0,0.0
2475,618.5,21.5701,25.2273,166.127,100.411,88.895,0.00331179,0.185204,20.6821,480.367,1.11784,0.0,0.0
2508,626.75,23.7547,27.2417,165.355,100.376,86.5112,0.00393762,0.225224,20.6372,479.957,1.36406,0.0,0.0
2541,635,24.8757,28.4495,164.307,100.333,94.9237,0.00273826,0.251179,20.6571,479.567,0.508528,0.0,0.0
2574,643.25,21.9222,24.352,162.19,100.241,99.5097,0.00131999,0.193651,20.7722,479.687,0.0672084,0.0,0.0
2607,651.5,20.3806,22.5762,168.048,100.172,99.39,0.000443063,0.137474,20.8116,479.557,0.0719471,0.0,0.0
2640,659.75,19.171,20.1984,169.435,100.142,99.3231,0.000220304,0.110572,20.8219,479.557,0.0753718,0.0,0.0
2673,668,18.3434,20.3183,167.351,100.096,99.4352,-0.000549376,0.0969784,20.8275,479.557,0.0607548,0.0,0.0
2706,676.25,18.2899,19.101,172.328,100.052,99.1477,-0.000391674,0.0909478,20.8279,479.557,0.0833577,0.0,0.0
2739,684.5,17.1836,19.1514,166.52,100.029,99.2557,-3.71853e-05,0.087783,20.8301,479.567,0.0712123,0.0,0.0
2772,692.75,17.9005,19.0216,168.918,100.016,99.349,-0.000509119,0.0861381,20.8316,479.567,0.0614176,0.0,0.0
2805,701,17.5133,18.3202,175.467,100.257,99.4433,-0.000441298,0.0848843,20.8299,479.567,0.0748065,0.0,0.0
2838,709.25,17.3971,18.3012,169.464,100.479,99.8728,-0.000260424,0.0844486,20.8297,479.577,0.0555732,0.0,0.0
2871,717.5,17.685,18.384,170.944,100.677,99.8733,-0.000400971,0.084255,20.8323,479.547,0.0735402,0.0,0.0
2904,725.75,16.7747,18.9421,170.511,100.817,100.018,6.62758e-05,0.0839996,20.8325,479.547,0.0729976,0.0,0.0
2937,734,17.4782,18.7987,171.219,100.89,100.172,-0.000272417,0.0838103,20.8336,479.557,0.0655327,0.0,0.0
2970,742.25,17.321,18.5688,171.769,100.918,100.156,-0.000541063,0.0837658,20.833,479.547,0.0694928,0.0,0.0
3003,750.5,17.0962,19.0338,170.115,100.913,100.112,-0.000509171,0.0835483,20.8329,479.547,0.0732082,0.0,0.0
3036,758.75,17.2128,18.2616,163.85,100.844,100.108,,,,479.547,0.0672801,0.0,0.0
3047,761.5,17.0064,18.7573,167.239,100.806,100.106,,,,479.547,0.0639686,0.0,0.0