File: 01_Data/Polyester_Fabric/Cone/Polyester_Fabric_Cone_HF25Scan_210324_R2.csv
Names,Time,Stack TC,Smoke TC,Exh Press,Smoke Comp,Smoke Meas,CO Meter,CO2 Meter,O2 Meter,Sample Mass,Ext Coeff,Start Test,Flame Verif
Chan Gain,,500,500,1,1,1,1,1,1,1,1,1,1
Offset,,0,0,0.194005,0,0,0,0,0,0,0,0,0
Gain,,1,1,25.011,13.5067,16.616,1,1,1,1.00091,1.04608,1,1
Units,sec,C,C,Pa,%,%,%,%,%,g,/m,,
Baseline,,20.871,22.0636,167.91,101.812,100.925,0.000529793,0.113373,20.6972,-1.35506,0.0803034,,
6,1.25,17.862,19.4366,168.578,101.649,100.751,0.000268431,0.118841,20.6812,469.658,0.0814085,0,0
12,2.75,18.6976,19.1208,169.009,101.642,100.78,0.000309559,0.11978,20.681,469.577,0.0781434,0,0
18,4.25,18.5586,19.5907,164.106,101.659,100.862,0.000354758,0.120483,20.6825,469.547,0.072239,0,0
24,5.75,18.7961,20.1414,164.975,101.643,100.589,0.00034459,0.120952,20.6843,469.688,0.0957144,0,0
30,7.25,18.8328,19.8373,162.832,101.655,100.752,0.000309,0.121261,20.6862,469.858,0.0818736,0,0
36,8.75,18.5311,19.9086,169.674,101.66,100.744,0.000276893,0.121484,20.6874,469.678,0.0829762,0,0
42,10.25,18.761,20.6052,163.928,101.648,100.741,0.000222209,0.121714,20.688,470.288,0.0822574,0,0
48,11.75,18.9047,20.4126,163.868,101.646,100.741,0.000151238,0.121717,20.6883,470.759,0.0819886,0,0
54,13.25,18.9891,20.1683,164.095,101.665,100.687,0.000141706,0.121565,20.6886,469.257,0.0887176,0,0
60,14.75,19.1045,20.1696,168.939,101.655,100.737,0.000228828,0.121498,20.6891,468.967,0.083297,0,0
66,16.25,18.8178,19.8557,168.866,101.657,100.581,0.000368251,0.121484,20.6887,468.927,0.0976368,0,0
72,17.75,18.8606,20.6758,167.205,101.67,100.463,0.000557518,0.121544,20.6871,468.927,0.109612,0,0
78,19.25,19.4544,20.6119,165.107,101.685,100.535,0.000659639,0.12175,20.6856,469.107,0.10434,0,0
84,20.75,19.3746,20.8866,166.872,101.654,100.463,0.000661677,0.122094,20.6834,469.247,0.108162,0,0
90,22.25,19.4737,20.6267,164.144,101.677,100.27,0.000617892,0.122653,20.6809,469.367,0.127907,0,0
96,23.75,19.1684,21.2416,169.106,101.67,100.248,0.000609853,0.123623,20.6776,469.387,0.129234,0,0
102,25.25,19.0438,21.1505,162.114,101.683,100.206,0.000650039,0.124979,20.6724,469.467,0.134194,0,0
108,26.75,19.6197,20.6996,164.254,101.676,100.101,0.000717646,0.126683,20.6684,469.287,0.143225,0,0
114,28.25,19.5823,21.8006,167.545,101.68,99.4859,0.0008382,0.128483,20.6658,469.457,0.200155,0,1
120,29.75,19.8236,21.2925,164.512,101.685,98.3307,0.000969197,0.13063,20.6621,469.427,0.307769,0,1
126,31.25,19.9538,21.8282,165.192,101.69,98.5721,0.001140152,0.133126,20.6575,469.367,0.285755,0,1
132,32.75,18.2532,20.9279,163.084,101.682,97.6705,0.001283232,0.135625,20.6535,469.377,0.369328,0,0
138,34.25,18.9137,20.1477,165.112,101.689,97.7755,0.001330504,0.138345,20.6477,469.397,0.360103,0,0
144,35.75,18.6053,21.0363,165.918,101.688,97.6274,0.001337154,0.141283,20.6427,469.377,0.373898,0,0
150,37.25,18.9493,21.5586,165.881,101.68,97.6376,0.00141741,0.144277,20.638,469.287,0.372239,0,0
156,38.75,19.1367,21.2299,162.254,101.672,97.3648,0.001544884,0.147526,20.6325,469.317,0.397168,0,0
162,40.25,19.7613,21.9838,166.321,101.662,96.989,0.001661052,0.151087,20.6253,469.297,0.431793,0,0
168,41.75,19.383,21.9428,163.193,101.668,96.0844,0.001753667,0.154926,20.6177,469.257,0.518303,0,0
174,43.25,19.8409,22.2634,167.098,101.671,95.8248,0.001866549,0.159347,20.6102,469.257,0.543392,0,0
180,44.75,20.1871,22.7817,160.078,101.657,95.2868,0.002034133,0.163696,20.6043,469.197,0.593828,0,0
186,46.25,20.0312,22.7155,162.454,101.644,95.1037,0.002255309,0.168071,20.5984,469.167,0.61032,0,0
192,47.75,20.0859,22.4215,160.182,101.641,95.2158,0.002443938,0.173285,20.5932,469.127,0.599178,0,0
198,49.25,20.3067,23.1978,167.859,101.618,94.9196,0.002603105,0.177915,20.5892,469.057,0.625678,0,0
204,50.75,20.8795,23.9919,164.49,101.63,94.1844,0.002796252,0.182403,20.5853,469.027,0.698151,0,0
210,52.25,20.6336,23.5104,162.929,101.611,93.3031,0.002985837,0.186869,20.5816,468.997,0.782744,0,0
216,53.75,20.9445,24.1734,161.831,101.622,92.8994,0.003121708,0.191348,20.5784,468.897,0.823457,0,0
222,55.25,21.7184,24.8619,159.844,101.588,91.9228,0.003252598,0.195834,20.5742,468.717,0.917419,0,0
228,56.75,22.0073,25.5719,161.236,101.579,91.4198,0.003438154,0.199927,20.5688,468.797,0.966914,0,0
234,58.25,23.3703,24.9189,161.432,101.579,89.251,0.00373913,0.20464,20.5616,468.717,1.18726,0,0
240,59.75,22.4168,26.054,159.564,101.577,88.8408,0.004023209,0.209261,20.5499,468.627,1.22931,0,0
246,61.25,21.8697,27.3926,159.885,101.562,88.6146,0.004378189,0.215628,20.5329,468.547,1.2514,0,0
252,62.75,23.1472,27.3813,160.251,101.545,88.856,0.004828093,0.223483,20.5122,468.436,1.22487,0,0
258,64.25,23.906,28.3274,157.245,101.546,87.4904,0.005271229,0.232597,20.4977,468.336,1.36706,0,0
264,65.75,24.4228,29.1856,164.529,101.54,85.9235,0.005761858,0.242271,20.4806,468.246,1.53237,0,0
270,67.25,24.8321,29.8579,161.235,101.533,86.5954,0.006017212,0.251939,20.4691,468.106,1.46022,0,0
276,68.75,25.2412,30.5949,159.572,101.529,87.0584,0.006011162,0.2633,20.4643,468.036,1.411,0,0
282,70.25,25.4941,30.9381,157.361,101.514,88.1805,0.005784417,0.272584,20.4683,467.936,1.29214,0,0
288,71.75,25.4968,30.724,163.597,101.524,90.2302,0.005400606,0.279382,20.4755,467.896,1.08211,0,0
294,73.25,25.5381,30.5831,159.285,101.509,92.476,0.004855747,0.282931,20.4886,467.836,0.855171,0,0
300,74.75,25.5122,30.5286,170.336,101.509,96.5134,0.004115848,0.283577,20.5141,467.796,0.463091,0,0
306,76.25,24.8042,29.6359,167.816,101.524,98.7851,0.00344862,0.279501,20.5462,467.786,0.250912,0,0
312,77.75,24.9502,28.9347,164.789,101.499,100.5,0.002896045,0.273112,20.5755,467.776,0.09078,0,0
318,79.25,24.0635,28.0286,166.855,101.496,100.557,0.002425316,0.262551,20.6009,467.776,0.0853358,0,0
324,80.75,23.5351,27.4251,166.754,101.491,100.68,0.002035353,0.251611,20.6238,467.796,0.073576,0,0
330,82.25,23.1303,26.6641,168.778,101.482,100.681,0.001724643,0.239131,20.6411,467.776,0.0727849,0,0
336,83.75,22.5088,26.7486,167.701,101.458,100.681,0.001506349,0.226151,20.6552,467.836,0.070548,0,0
342,85.25,21.3485,24.291,168.503,101.467,100.531,0.001362064,0.213794,20.6643,467.806,0.0850042,0,0
348,86.75,20.9346,23.9901,167.024,101.444,100.619,0.001274605,0.202885,20.6695,467.816,0.0749486,0,0
354,88.25,21.1261,23.7772,166.879,101.464,100.435,0.001140011,0.192454,20.6747,467.826,0.0935037,0,0
360,89.75,20.6362,23.8983,167.061,101.445,100.685,0.000923408,0.184614,20.6787,467.806,0.0690596,0,0
366,91.25,19.9972,23.149,165.938,101.458,100.537,0.000667906,0.175642,20.6817,467.816,0.0836732,0,0
372,92.75,20.0629,22.3196,166.881,101.446,100.568,0.000468551,0.1677441,20.6845,467.806,0.0797701,0,0
378,94.25,20.5142,22.2322,163.945,101.45,100.639,0.000382017,0.161375,20.6861,467.816,0.0736303,0,0
384,95.75,20.0545,21.4548,168.739,101.435,100.637,0.000318961,0.155917,20.6871,467.746,0.0724648,0,0
390,97.25,19.5393,21.5165,171.073,101.447,100.699,0.000265827,0.151275,20.6884,467.756,0.0679153,0,0
396,98.75,20.0139,21.2308,164.764,101.45,100.64,0.000285932,0.147244,20.6893,467.766,0.0735381,0,0
402,100.25,19.4442,20.9969,164.267,101.449,100.667,0.000390509,0.143449,20.6916,467.796,0.071005,0,0
408,101.75,19.2452,21.1593,165.472,101.435,100.52,0.00046112,0.140093,20.693,467.816,0.0831594,0,0
414,103.25,19.4939,20.86,170.369,101.464,100.69,0.00045249,0.137061,20.6938,467.816,0.07022994,0,0
420,104.75,19.0502,20.8781,163.898,101.446,100.709,0.000410239,0.134567,20.6927,467.826,0.0668707,0,0
426,106.25,19.2538,20.4046,167.796,101.455,100.615,0.000382385,0.132499,20.691,467.816,0.0763341,0,0
432,107.75,19.1258,21.0507,165.014,101.464,100.566,0.000396416,0.131076,20.6887,467.786,0.0815126,0,0
438,109.25,18.7004,20.7199,163.949,101.477,100.621,0.000450551,0.130219,20.6875,467.786,0.0777182,0,0
444,110.75,19.3279,20.3148,167.689,101.458,100.557,0.00049887,0.129695,20.6859,467.796,0.0818606,0,0
450,112.25,18.9918,20.6483,171.67,101.463,100.721,0.000523093,0.129298,20.685,467.806,0.0673745,0,0
456,113.75,19.2319,20.3176,171.27,101.479,100.673,0.000535859,0.12897,20.6857,467.776,0.0732179,0,0
462,115.25,18.8714,20.5614,168.332,101.483,100.675,0.000552438,0.128519,20.6877,467.796,0.0733677,0,0
468,116.75,18.3125,20.2052,167.563,101.485,100.704,0.000539811,0.127919,20.69,467.776,0.0708834,0,0
474,118.25,18.9703,19.9301,164.943,101.486,100.633,0.000519864,0.12697,20.6918,467.776,0.07745678,0,0
480,119.75,19.0399,19.8145,165.306,101.501,100.605,0.000446184,0.126154,20.6938,467.796,0.0813044,0,0
486,121.25,18.6156,19.3859,166.368,101.495,100.598,0.000363692,0.125338,20.6959,467.786,0.0814768,0,0
492,122.75,18.3798,19.4496,164.485,101.507,100.665,0.000328503,0.124314,20.6974,467.796,0.0764913,0,0
498,124.25,18.3974,19.7162,168.195,101.497,100.574,0.000322851,0.123249,20.6983,467.796,0.0838,0,0
504,125.75,18.6003,19.5711,166.521,101.531,100.744,0.000318521,0.122319,20.6987,467.816,0.071323,0,0
510,127.25,18.5486,19.7534,163.37,101.524,100.698,0.000317322,0.121485,20.6989,467.786,0.0750137,0,0
516,128.75,17.7309,19.4666,168.396,101.528,100.679,0.00034366,0.120981,20.699,467.796,0.0770977,0,0
522,130.25,17.9908,19.2462,169.919,101.54,100.708,0.00038207,0.120337,20.6991,467.796,0.0754228,0,0
528,131.75,17.807,19.5517,168.578,101.533,100.68,0.000403852,0.119635,20.6989,467.796,0.0774145,0,0
534,133.25,18.2192,19.3999,165.666,101.55,100.817,0.000417639,0.118949,20.632,467.796,0.0664254,0,0
540,134.75,17.724,19.2912,165.148,101.559,100.728,0.000436924,0.117968,20.4655,467.776,0.0753349,0,0
546,136.25,18.3072,19.2782,170.589,101.556,100.661,0.000426037,0.11645,20.288,467.816,0.0811732,0,0
552,137.75,17.9025,19.7578,171.603,101.579,100.654,0.000398408,0.1151,20.1896,467.816,0.0839897,0,0
556,138.75,18.3045,19.3044,168.04,101.577,100.669,0.000383891,0.114571,20.1508,467.816,0.08241678,0,0
,,,,,,,,,,,,,
,,,,,,,,,,,,,
,,,,,,,,,,,,,
,,,,,,,,,,,,,
,,,,,,,,,,,,,
,,,,,,,,,,,,,
,,,,,,,,,,,,,
,,,,,,,,,,,,,
,,,,,,,,,,,,,
,,,,,,,,,,,,,
,,,,,,,,,,,,,
,,,,,,,,,,,,,
,,,,,,,,,,,,,
,,,,,,,,,,,,,
,,,,,,,,,,,,,
,,,,,,,,,,,,,
,,,,,,,,,,,,,
,,,,,,,,,,,,,
,,,,,,,,,,,,,
,,,,,,,,,,,,,
,,,,,,,,,,,,,
,,,,,,,,,,,,,
,,,,,,,,,,,,,
,,,,,,,,,,,,,
,,,,,,,,,,,,,
,,,,,,,,,,,,,
,,,,,,,,,,,,,
,,,,,,,,,,,,,
,,,,,,,,,,,,,
,,,,,,,,,,,,,
,,,,,,,,,,,,,
,,,,,,,,,,,,,
,,,,,,,,,,,,,
,,,,,,,,,,,,,
,,,,,,,,,,,,,
,,,,,,,,,,,,,
,,,,,,,,,,,,,
,,,,,,,,,,,,,
,,,,,,,,,,,,,
,,,,,,,,,,,,,
,,,,,,,,,,,,,
,,,,,,,,,,,,,
,,,,,,,,,,,,,
,,,,,,,,,,,,,
,,,,,,,,,,,,,
,,,,,,,,,,,,,
,,,,,,,,,,,,,
,,,,,,,,,,,,,
,,,,,,,,,,,,,
,,,,,,,,,,,,,
,,,,,,,,,,,,,
,,,,,,,,,,,,,
,,,,,,,,,,,,,
,,,,,,,,,,,,,
,,,,,,,,,,,,,
,,,,,,,,,,,,,
,,,,,,,,,,,,,
,,,,,,,,,,,,,
,,,,,,,,,,,,,
,,,,,,,,,,,,,
,,,,,,,,,,,,,
,,,,,,,,,,,,,
,,,,,,,,,,,,,
,,,,,,,,,,,,,
,,,,,,,,,,,,,
,,,,,,,,,,,,,
,,,,,,,,,,,,,
,,,,,,,,,,,,,
,,,,,,,,,,,,,
,,,,,,,,,,,,,
,,,,,,,,,,,,,
,,,,,,,,,,,,,
,,,,,,,,,,,,,
,,,,,,,,,,,,,
,,,,,,,,,,,,,
,,,,,,,,,,,,,
,,,,,,,,,,,,,
,,,,,,,,,,,,,
,,,,,,,,,,,,,
,,,,,,,,,,,,,
,,,,,,,,,,,,,
,,,,,,,,,,,,,
,,,,,,,,,,,,,
,,,,,,,,,,,,,
,,,,,,,,,,,,,
,,,,,,,,,,,,,
,,,,,,,,,,,,,
,,,,,,,,,,,,,
,,,,,,,,,,,,,
,,,,,,,,,,,,,
,,,,,,,,,,,,,
,,,,,,,,,,,,,
,,,,,,,,,,,,,
,,,,,,,,,,,,,
,,,,,,,,,,,,,
,,,,,,,,,,,,,
,,,,,,,,,,,,,
,,,,,,,,,,,,,
,,,,,,,,,,,,,
,,,,,,,,,,,,,
,,,,,,,,,,,,,
,,,,,,,,,,,,,
,,,,,,,,,,,,,
,,,,,,,,,,,,,
,,,,,,,,,,,,,
,,,,,,,,,,,,,
,,,,,,,,,,,,,
,,,,,,,,,,,,,
,,,,,,,,,,,,,
,,,,,,,,,,,,,
,,,,,,,,,,,,,
,,,,,,,,,,,,,
,,,,,,,,,,,,,
,,,,,,,,,,,,,
,,,,,,,,,,,,,
,,,,,,,,,,,,,
,,,,,,,,,,,,,
,,,,,,,,,,,,,
,,,,,,,,,,,,,
,,,,,,,,,,,,,
,,,,,,,,,,,,,
,,,,,,,,,,,,,
,,,,,,,,,,,,,
,,,,,,,,,,,,,
,,,,,,,,,,,,,
,,,,,,,,,,,,,
,,,,,,,,,,,,,
,,,,,,,,,,,,,
,,,,,,,,,,,,,
,,,,,,,,,,,,,
,,,,,,,,,,,,,
,,,,,,,,,,,,,
,,,,,,,,,,,,,
,,,,,,,,,,,,,
,,,,,,,,,,,,,
,,,,,,,,,,,,,
,,,,,,,,,,,,,
,,,,,,,,,,,,,
,,,,,,,,,,,,,
,,,,,,,,,,,,,
,,,,,,,,,,,,,
,,,,,,,,,,,,,
,,,,,,,,,,,,,
,,,,,,,,,,,,,
,,,,,,,,,,,,,
,,,,,,,,,,,,,
,,,,,,,,,,,,,
,,,,,,,,,,,,,
,,,,,,,,,,,,,
,,,,,,,,,,,,,
,,,,,,,,,,,,,
,,,,,,,,,,,,,
,,,,,,,,,,,,,
,,,,,,,,,,,,,
,,,,,,,,,,,,,
,,,,,,,,,,,,,
,,,,,,,,,,,,,
,,,,,,,,,,,,,
,,,,,,,,,,,,,
,,,,,,,,,,,,,
,,,,,,,,,,,,,
,,,,,,,,,,,,,
,,,,,,,,,,,,,
,,,,,,,,,,,,,
,,,,,,,,,,,,,
,,,,,,,,,,,,,
,,,,,,,,,,,,,
,,,,,,,,,,,,,
,,,,,,,,,,,,,
,,,,,,,,,,,,,
,,,,,,,,,,,,,
,,,,,,,,,,,,,
,,,,,,,,,,,,,
,,,,,,,,,,,,,
,,,,,,,,,,,,,
,,,,,,,,,,,,,
,,,,,,,,,,,,,
,,,,,,,,,,,,,
,,,,,,,,,,,,,
,,,,,,,,,,,,,
,,,,,,,,,,,,,
,,,,,,,,,,,,,
,,,,,,,,,,,,,
,,,,,,,,,,,,,
,,,,,,,,,,,,,
,,,,,,,,,,,,,
,,,,,,,,,,,,,
,,,,,,,,,,,,,
,,,,,,,,,,,,,
,,,,,,,,,,,,,
,,,,,,,,,,,,,
,,,,,,,,,,,,,
,,,,,,,,,,,,,
,,,,,,,,,,,,,
,,,,,,,,,,,,,
,,,,,,,,,,,,,
,,,,,,,,,,,,,
,,,,,,,,,,,,,
,,,,,,,,,,,,,
,,,,,,,,,,,,,
,,,,,,,,,,,,,
,,,,,,,,,,,,,
,,,,,,,,,,,,,
,,,,,,,,,,,,,
,,,,,,,,,,,,,
,,,,,,,,,,,,,
,,,,,,,,,,,,,
,,,,,,,,,,,,,
,,,,,,,,,,,,,
,,,,,,,,,,,,,
,,,,,,,,,,,,,
,,,,,,,,,,,,,