File: 01_Data/PlasticC/HFM/PlasticC_Density_Wet_R3.csv
,PlasticC_WET_3
Sample Mass [g],126.1
Sample Volume [cm3],119.4
Sample Density [kg/m3],1056