File: 01_Data/PlasticC/HFM/PlasticC_Density_Wet_R1.csv
,PlasticC_WET_1
Sample Mass [g],125.1
Sample Volume [cm3],117.6
Sample Density [kg/m3],1064