File: 01_Data/PlasticC/HFM/PlasticC_Density_Wet_R2.csv
,PlasticC_WET_2
Sample Mass [g],125.8
Sample Volume [cm3],119.5
Sample Density [kg/m3],1053