File: 01_Data/Corian_Countertop/MCC/Corian_Countertop_30K_min_210930_R1.txt
Sample ID:	C:\MCC\MCC Cal\Test\Corian_Countertop_30K_min_210930_R1.txt
Sample Weight (mg):	4.69
Heating Rate (C/s):	0.5
Combustor Temp (C):	900
N2 Flow Rate (cc/min):	80
O2 Flow Rate (cc/min):	20
Calibration File:	C:\MCC\MCC Cal\Coeff1 JN10440_30_210304.txt.txt
T Correction Coefficients:	0	1.024463	0
Time Shift (s):	14
*
Time (s)	Temperature (C)	N2 flow rate (cc/min)	O2 flow rate (cc/min)	Flow Rate (cc/min)	Oxygen (%)	HRR (W/g)	Heating rate (C/s)
0.000	107.566	80.006	19.996	100.606	20.286	0.138	-0.013
8.000	107.514	80.003	19.997	100.599	20.282	0.403	0.008
16.000	107.529	80.002	19.997	100.608	20.289	-0.057	-0.029
24.000	107.571	80.004	19.996	100.678	20.282	0.383	0.025
32.000	107.860	80.002	19.995	100.644	20.279	0.584	0.055
40.000	108.270	80.004	19.996	100.712	20.272	1.049	0.078
48.000	108.985	80.002	19.999	100.731	20.270	1.182	0.115
56.000	109.947	80.006	19.997	100.739	20.273	1.031	0.146
64.001	111.209	80.004	19.996	100.784	20.256	2.125	0.176
72.000	112.785	80.001	19.997	100.810	20.255	2.207	0.193
80.000	114.727	80.004	20.000	100.823	20.249	2.613	0.273
88.000	116.992	80.007	19.996	100.839	20.245	2.915	0.305
96.000	119.493	80.001	19.995	100.843	20.246	2.801	0.315
104.000	122.275	80.002	19.994	100.845	20.250	2.565	0.343
112.000	125.339	80.000	19.996	100.849	20.245	2.862	0.427
120.000	128.569	80.004	19.995	100.852	20.243	3.011	0.425
128.000	131.947	80.002	19.996	100.847	20.244	2.945	0.466
136.000	135.441	80.003	19.996	100.846	20.239	3.279	0.442
144.001	139.032	80.005	19.998	100.846	20.240	3.199	0.462
152.000	142.698	80.005	19.996	100.843	20.242	3.074	0.433
160.000	146.542	80.004	19.996	100.841	20.238	3.363	0.464
168.000	150.328	80.005	19.995	100.845	20.234	3.641	0.487
176.000	154.254	80.001	19.995	100.853	20.225	4.246	0.467
184.000	158.301	80.000	19.997	100.849	20.218	4.689	0.520
192.000	162.307	79.999	19.995	100.847	20.214	4.986	0.498
200.000	166.408	80.004	19.994	100.903	20.206	5.478	0.468
208.000	170.550	80.002	19.996	100.842	20.197	6.085	0.494
216.000	174.703	80.004	19.996	100.834	20.201	5.841	0.529
224.000	178.768	80.003	19.996	100.826	20.196	6.202	0.484
232.000	182.895	80.002	19.996	100.817	20.202	5.774	0.557
240.000	186.913	80.002	19.995	100.805	20.205	5.597	0.492
248.000	190.917	80.003	19.995	100.815	20.214	4.988	0.494
256.000	194.959	80.004	19.997	100.812	20.226	4.163	0.492
264.000	198.979	80.002	19.998	100.833	20.237	3.447	0.484
272.000	202.895	80.003	19.997	100.804	20.240	3.204	0.515
280.000	206.901	80.003	19.998	100.799	20.241	3.180	0.512
288.000	210.839	80.001	19.997	100.801	20.240	3.200	0.492
296.000	214.717	80.004	19.997	100.806	20.242	3.093	0.487
304.000	218.627	80.004	19.996	100.809	20.245	2.898	0.463
312.000	222.603	80.004	19.997	100.807	20.245	2.913	0.471
320.000	226.525	80.002	19.996	100.813	20.236	3.475	0.485
328.000	230.534	80.003	19.996	100.803	20.236	3.500	0.513
336.000	234.480	80.003	19.996	100.821	20.236	3.510	0.524
344.000	238.482	80.001	19.997	100.816	20.230	3.910	0.520
352.000	242.457	80.003	19.996	100.821	20.230	3.913	0.504
360.000	246.460	80.001	19.997	100.829	20.228	4.006	0.524
368.000	250.383	80.002	19.997	100.829	20.233	3.698	0.509
376.000	254.263	80.002	19.995	100.827	20.223	4.380	0.473
384.000	258.060	80.002	19.996	100.846	20.213	5.004	0.482
392.000	261.931	80.002	19.996	100.842	20.198	6.011	0.468
400.000	265.844	80.002	19.995	100.840	20.185	6.887	0.500
408.000	269.773	80.005	19.995	100.833	20.147	9.476	0.499
416.000	273.854	80.004	19.995	100.805	20.102	12.465	0.528
424.000	277.867	80.001	19.997	100.768	20.043	16.387	0.513
432.000	281.871	80.003	19.996	100.692	19.972	21.140	0.505
440.000	286.080	80.002	19.996	100.612	19.896	26.293	0.534
448.000	290.360	79.999	19.997	100.683	19.815	31.722	0.566
456.000	294.728	80.001	19.996	100.754	19.785	33.725	0.518
464.000	298.983	80.006	19.995	100.773	19.835	30.337	0.499
472.000	303.471	80.003	19.996	100.764	19.909	25.371	0.771
480.000	307.495	80.003	19.996	100.755	19.991	19.889	0.548
488.000	311.615	80.003	19.994	100.747	20.055	15.593	0.491
496.001	315.721	80.005	19.994	100.750	20.090	13.258	0.485
504.000	319.667	80.001	19.995	100.759	20.094	12.976	0.482
512.000	323.556	80.000	19.997	100.759	20.090	13.266	0.496
520.000	327.395	80.001	19.995	100.752	20.075	14.252	0.483
528.000	331.229	80.002	19.997	100.763	20.061	15.211	0.448
536.000	335.096	80.002	19.998	100.765	20.039	16.714	0.487
544.000	338.896	80.003	19.996	100.764	20.014	18.368	0.504
552.000	342.744	80.003	19.994	100.770	19.992	19.824	0.472
560.000	346.612	80.003	19.996	100.772	19.957	22.195	0.484
568.000	350.556	80.002	19.997	100.783	19.932	23.890	0.490
576.000	354.499	80.003	19.995	100.767	19.894	26.450	0.465
584.000	358.455	80.002	19.996	100.796	19.855	29.033	0.503
592.000	362.385	80.002	19.996	100.779	19.816	31.639	0.481
600.000	366.346	80.001	19.996	100.792	19.772	34.628	0.487
608.000	370.242	80.003	19.996	100.799	19.743	36.584	0.480
616.000	374.172	80.000	19.996	100.804	19.714	38.494	0.468
624.000	378.183	79.999	19.995	100.793	19.692	39.940	0.511
632.000	382.266	80.002	19.996	100.787	19.679	40.869	0.532
640.000	386.235	80.003	19.997	100.801	19.687	40.287	0.487
648.000	390.317	80.004	19.996	100.781	19.708	38.899	0.527
656.000	394.446	80.004	19.996	100.766	19.739	36.780	0.511
664.000	398.567	80.002	19.996	100.765	19.784	33.810	0.517
672.000	402.645	80.003	19.996	100.765	19.844	29.784	0.514
680.000	406.715	80.002	19.994	100.753	19.914	25.057	0.500
688.000	410.809	80.005	19.996	100.737	19.988	20.105	0.513
696.000	414.829	80.000	19.996	100.734	20.047	16.121	0.490
704.000	418.978	80.002	19.997	100.730	20.111	11.845	0.541
712.000	422.963	80.003	19.997	100.730	20.157	8.796	0.487
720.000	426.919	80.002	19.998	100.715	20.195	6.238	0.478
728.000	430.923	80.001	19.998	100.721	20.223	4.377	0.522
736.001	435.051	80.005	19.996	100.726	20.242	3.061	0.498
744.000	439.260	80.003	19.996	100.727	20.258	1.989	0.529
752.000	443.464	80.001	19.997	100.725	20.264	1.607	0.535
760.000	447.702	80.003	19.996	100.729	20.274	0.971	0.557
768.000	451.906	80.002	19.996	100.731	20.269	1.288	0.553
776.000	456.186	80.004	19.996	100.728	20.280	0.534	0.537
784.000	460.334	80.001	19.997	100.712	20.281	0.481	0.541
792.000	464.400	80.004	19.997	100.702	20.277	0.708	0.500
800.000	468.481	80.003	19.997	100.722	20.275	0.877	0.500
808.000	472.454	80.003	19.998	100.725	20.284	0.271	0.492
816.000	476.435	80.004	19.998	100.720	20.280	0.538	0.506
824.000	480.371	80.003	19.997	100.708	20.284	0.240	0.496
832.000	484.244	80.000	19.996	100.719	20.287	0.077	0.471
840.000	488.192	80.001	19.996	100.711	20.282	0.415	0.495
848.000	492.172	80.002	19.997	100.724	20.283	0.350	0.492
856.000	496.428	80.001	19.996	100.726	20.287	0.070	0.522
864.000	500.743	80.001	19.993	100.693	20.287	0.092	0.540
872.000	505.192	80.004	19.996	100.721	20.287	0.087	0.547
880.000	509.764	80.004	19.995	100.727	20.289	-0.081	0.580
888.000	514.275	80.003	19.996	100.724	20.291	-0.229	0.603
896.000	518.802	80.003	19.996	100.722	20.286	0.105	0.556
904.000	523.340	80.002	19.995	100.706	20.288	-0.020	0.570
912.000	527.821	80.001	19.997	100.709	20.285	0.179	0.590
920.000	532.258	80.001	19.996	100.724	20.289	-0.068	0.605
928.000	536.665	80.003	19.995	100.709	20.288	-0.024	0.545
936.000	541.021	80.001	19.996	100.703	20.292	-0.291	0.532
944.000	545.347	80.002	19.996	100.707	20.295	-0.446	0.543
952.000	549.524	80.004	19.995	100.711	20.295	-0.488	0.492
960.000	553.713	80.003	19.996	100.693	20.295	-0.466	0.489
968.000	557.914	80.003	19.996	100.703	20.295	-0.496	0.497
976.000	562.065	80.006	19.998	100.688	20.297	-0.625	0.536
984.000	566.112	80.003	19.996	100.697	20.299	-0.748	0.510
992.000	570.194	80.002	19.998	100.690	20.299	-0.742	0.521
1000.000	574.274	80.002	19.997	100.689	20.304	-1.074	0.519
1008.000	578.357	80.001	19.996	100.692	20.302	-0.932	0.496
1016.000	582.370	80.000	19.995	100.693	20.304	-1.087	0.504
1024.001	586.385	80.000	19.995	100.692	20.305	-1.168	0.524
1032.000	590.376	80.004	19.996	100.691	20.303	-0.986	0.501
1040.000	594.502	80.004	19.994	100.691	20.306	-1.222	0.527
1048.000	598.569	80.003	19.996	100.692	20.306	-1.170	0.491
1056.000	602.630	80.005	19.997	100.689	20.311	-1.524	0.473
1064.000	606.730	80.004	19.997	100.693	20.315	-1.806	0.499
1072.000	610.807	80.002	19.996	100.698	20.311	-1.535	0.513
1080.001	614.932	80.002	19.997	100.691	20.314	-1.723	0.498
1088.000	619.005	80.002	19.996	100.691	20.314	-1.771	0.518
1096.000	623.021	80.002	19.996	100.695	20.314	-1.754	0.518
1104.000	627.033	80.002	19.996	100.692	20.315	-1.837	0.488
1112.000	631.057	80.003	19.996	100.695	20.315	-1.802	0.520
1120.000	635.070	80.004	19.996	100.689	20.316	-1.894	0.497
1128.000	639.113	80.003	19.995	100.687	20.313	-1.638	0.507
1136.000	643.091	80.003	19.995	100.693	20.321	-2.198	0.489
1144.000	647.138	80.004	19.996	100.689	20.319	-2.098	0.492
1152.001	651.245	80.002	19.996	100.694	20.318	-2.030	0.505
1160.001	655.329	80.001	19.995	100.692	20.318	-1.995	0.489
1168.000	659.368	80.003	19.997	100.689	20.321	-2.224	0.517
1176.000	663.400	80.002	19.995	100.687	20.320	-2.156	0.509
1184.000	667.434	80.001	19.997	100.695	20.317	-1.912	0.486
1192.000	671.485	80.003	19.996	100.690	20.318	-2.008	0.504
1200.000	675.540	80.004	19.996	100.694	20.317	-1.949	0.487
1208.000	679.651	80.004	19.996	100.691	20.318	-2.021	0.527
1216.000	683.618	80.005	19.995	100.695	20.317	-1.960	0.514
1224.000	687.581	80.005	19.995	100.697	20.319	-2.076	0.486
1232.000	691.545	80.004	19.995	100.688	20.312	-1.586	0.482
1240.000	695.611	80.003	19.996	100.690	20.313	-1.676	0.511
1248.000	699.632	80.002	19.996	100.689	20.314	-1.752	0.486
1256.000	703.669	80.002	19.995	100.689	20.311	-1.561	0.500
1264.000	707.711	80.002	19.997	100.698	20.313	-1.664	0.467
1272.000	711.737	80.002	19.997	100.688	20.312	-1.572	0.489
1280.000	715.776	80.003	19.996	100.696	20.311	-1.555	0.484
1288.000	719.686	80.003	19.995	100.693	20.319	-2.063	0.497
1296.000	723.576	80.005	19.995	100.693	20.309	-1.432	0.488
1304.001	727.408	80.005	19.995	100.686	20.313	-1.686	0.436
1312.000	731.278	80.002	19.996	100.704	20.312	-1.607	0.497
1320.001	735.122	80.003	19.996	100.687	20.313	-1.640	0.501
1328.000	739.015	80.003	19.996	100.694	20.309	-1.430	0.511
1336.001	742.948	80.002	19.996	100.695	20.315	-1.811	0.484
1337.000	743.458	80.002	19.998	100.694	20.313	-1.651	0.491