File: 01_Data/Corian_Countertop/MCC/Corian_Countertop_30K_min_210930_R2.txt
Sample ID:	C:\MCC\MCC Cal\Test\Corian_Countertop_30K_min_210930_R2.txt
Sample Weight (mg):	4.78
Heating Rate (C/s):	0.5
Combustor Temp (C):	900
N2 Flow Rate (cc/min):	80
O2 Flow Rate (cc/min):	20
Calibration File:	C:\MCC\MCC Cal\Coeff1 JN10440_30_210304.txt.txt
T Correction Coefficients:	0	1.024463	0
Time Shift (s):	14
*
Time (s)	Temperature (C)	N2 flow rate (cc/min)	O2 flow rate (cc/min)	Flow Rate (cc/min)	Oxygen (%)	HRR (W/g)	Heating rate (C/s)
-0.001	106.174	80.001	19.995	100.569	20.339	0.070	-0.013
7.999	106.153	80.002	19.996	100.569	20.339	0.052	-0.003
15.999	106.194	80.001	19.995	100.589	20.335	0.316	-0.000
23.999	106.271	80.001	19.996	100.666	20.326	0.920	0.021
32.000	106.648	80.001	19.996	100.688	20.318	1.441	0.070
39.999	107.304	80.000	19.997	100.695	20.319	1.385	0.099
48.000	108.226	80.001	19.996	100.722	20.313	1.737	0.112
55.999	109.447	80.002	19.996	100.764	20.305	2.301	0.144
63.999	111.015	80.003	19.996	100.768	20.305	2.253	0.209
71.999	112.855	80.001	19.995	100.786	20.295	2.937	0.251
79.999	115.009	80.002	19.995	100.807	20.299	2.685	0.256
87.999	117.458	80.003	19.994	100.844	20.296	2.886	0.338
95.999	120.245	80.003	19.995	100.845	20.288	3.393	0.369
104.000	123.283	80.001	19.996	100.823	20.286	3.523	0.394
111.999	126.490	80.001	19.997	100.848	20.287	3.469	0.423
120.000	129.902	80.003	19.997	100.841	20.285	3.615	0.451
127.999	133.448	80.001	19.996	100.844	20.284	3.632	0.442
136.000	137.090	80.001	19.997	100.843	20.284	3.690	0.482
144.000	140.868	80.000	19.996	100.836	20.279	4.005	0.456
152.000	144.694	80.002	19.995	100.840	20.276	4.180	0.465
160.000	148.585	80.002	19.996	100.847	20.272	4.482	0.472
168.000	152.483	80.003	19.996	100.829	20.268	4.732	0.500
176.000	156.457	80.004	19.994	100.841	20.265	4.901	0.492
184.000	160.365	80.003	19.995	100.826	20.255	5.590	0.483
192.000	164.353	80.001	19.995	100.821	20.250	5.920	0.485
200.000	168.313	80.001	19.995	100.819	20.241	6.483	0.494
208.000	172.292	80.001	19.996	100.825	20.237	6.747	0.482
216.000	176.247	80.002	19.996	100.819	20.230	7.236	0.500
224.000	180.242	80.000	19.996	100.821	20.230	7.215	0.508
232.000	184.231	80.001	19.997	100.804	20.230	7.181	0.534
240.000	188.190	80.002	19.997	100.804	20.237	6.761	0.477
248.000	192.116	80.003	19.996	100.805	20.248	6.008	0.504
256.000	196.051	80.003	19.995	100.800	20.256	5.523	0.524
264.000	199.960	80.003	19.995	100.802	20.259	5.282	0.492
272.000	203.919	80.000	19.994	100.811	20.270	4.586	0.492
280.000	207.875	80.001	19.995	100.805	20.273	4.410	0.506
288.000	211.797	80.004	19.995	100.804	20.273	4.387	0.478
296.000	215.826	80.001	19.995	100.789	20.271	4.544	0.495
304.000	219.735	80.002	19.996	100.802	20.270	4.589	0.464
312.000	223.717	80.002	19.995	100.799	20.269	4.674	0.506
320.000	227.703	80.002	19.996	100.802	20.267	4.770	0.495
328.000	231.635	80.002	19.996	100.802	20.268	4.745	0.457
336.000	235.527	80.003	19.996	100.807	20.263	5.062	0.492
344.000	239.390	80.003	19.996	100.829	20.262	5.084	0.487
352.000	243.315	80.002	19.995	100.820	20.256	5.504	0.531
360.000	247.152	80.001	19.996	100.810	20.256	5.530	0.481
368.000	251.137	80.003	19.995	100.831	20.247	6.108	0.494
376.000	255.039	80.003	19.995	100.844	20.239	6.630	0.475
384.000	258.956	80.000	19.996	100.832	20.230	7.209	0.485
392.000	262.938	80.002	19.996	100.840	20.214	8.279	0.470
400.000	266.939	80.002	19.997	100.829	20.196	9.429	0.462
408.000	271.011	80.000	19.998	100.836	20.160	11.816	0.560
416.000	274.963	80.003	19.998	100.820	20.118	14.571	0.482
424.000	278.735	80.002	19.997	100.767	20.059	18.419	0.274
432.000	283.008	80.003	19.995	100.719	19.996	22.591	0.517
440.000	287.109	80.001	19.995	100.647	19.914	27.991	0.526
448.000	291.375	80.001	19.997	100.629	19.837	33.022	0.568
456.000	295.669	80.001	19.997	100.719	19.807	35.040	0.561
464.000	299.927	80.000	19.996	100.750	19.846	32.457	0.549
472.000	304.077	80.001	19.996	100.740	19.926	27.209	0.534
480.000	308.255	80.003	19.995	100.739	20.007	21.899	0.540
488.000	312.338	79.999	19.997	100.742	20.065	18.063	0.519
496.000	316.369	80.002	19.997	100.754	20.101	15.692	0.492
504.000	320.344	80.003	19.996	100.763	20.105	15.450	0.525
512.000	324.334	80.003	19.997	100.762	20.099	15.800	0.504
520.000	328.339	80.001	19.998	100.762	20.083	16.878	0.523
528.000	332.247	80.002	19.997	100.766	20.063	18.174	0.479
536.000	336.246	80.002	19.997	100.769	20.039	19.793	0.501
544.000	340.217	80.003	19.996	100.769	20.012	21.534	0.505
552.000	344.108	79.999	19.997	100.770	19.981	23.592	0.486
560.000	347.997	80.001	19.994	100.768	19.952	25.500	0.488
568.000	351.958	80.004	19.995	100.781	19.919	27.647	0.496
576.000	355.942	80.001	19.996	100.767	19.879	30.297	0.465
584.000	359.943	80.003	19.998	100.770	19.843	32.658	0.505
592.000	363.870	80.004	19.995	100.789	19.807	35.010	0.509
600.000	367.870	80.002	19.998	100.788	19.763	37.950	0.496
608.000	371.888	80.000	19.996	100.799	19.731	40.071	0.505
616.000	375.863	80.003	19.996	100.788	19.704	41.807	0.491
624.000	379.912	80.004	19.996	100.794	19.685	43.072	0.488
632.000	383.874	80.002	19.996	100.775	19.681	43.326	0.477
640.000	387.843	80.003	19.997	100.774	19.696	42.333	0.489
648.000	391.825	80.003	19.997	100.763	19.718	40.887	0.508
656.000	395.771	80.005	19.996	100.760	19.762	37.993	0.487
664.000	399.749	80.003	19.996	100.769	19.809	34.894	0.478
672.000	403.726	80.004	19.996	100.756	19.875	30.534	0.511
680.000	407.706	80.004	19.995	100.753	19.940	26.256	0.523
688.000	411.953	80.002	19.996	100.764	20.005	22.021	0.552
696.000	416.356	80.002	19.997	100.739	20.066	17.982	0.569
704.000	420.832	80.002	19.997	100.741	20.114	14.822	0.598
712.000	425.369	80.001	19.996	100.727	20.163	11.642	0.579
720.000	429.914	80.001	19.995	100.726	20.195	9.528	0.558
728.000	434.446	80.002	19.997	100.733	20.222	7.760	0.565
736.000	438.904	80.003	19.997	100.728	20.242	6.441	0.565
744.000	443.278	80.002	19.997	100.732	20.251	5.843	0.518
752.000	447.670	80.004	19.996	100.728	20.260	5.220	0.541
760.000	451.962	80.006	19.996	100.721	20.266	4.810	0.542
768.000	456.243	80.003	19.997	100.721	20.268	4.714	0.534
776.000	460.454	80.000	19.996	100.720	20.267	4.764	0.544
784.000	464.550	80.001	19.995	100.707	20.267	4.761	0.487
792.000	468.673	80.002	19.997	100.707	20.267	4.799	0.531
800.000	472.720	80.000	19.996	100.718	20.269	4.672	0.508
808.000	476.875	80.001	19.996	100.723	20.259	5.298	0.553
816.000	480.943	80.003	19.995	100.715	20.267	4.757	0.536
824.000	484.981	80.003	19.995	100.714	20.266	4.835	0.499
832.000	489.053	80.003	19.995	100.708	20.267	4.768	0.526
840.000	493.076	80.006	19.995	100.704	20.267	4.746	0.496
848.000	497.193	80.003	19.995	100.723	20.269	4.630	0.509
856.000	501.255	80.001	19.997	100.717	20.275	4.269	0.519
864.000	505.291	80.000	19.996	100.707	20.272	4.460	0.477
872.000	509.360	80.001	19.996	100.721	20.265	4.889	0.517
880.000	513.250	80.001	19.997	100.708	20.261	5.188	0.464
888.000	517.242	80.001	19.996	100.706	20.263	5.014	0.515
896.000	521.125	80.004	19.997	100.699	20.262	5.077	0.483
904.000	524.986	80.004	19.996	100.715	20.263	5.037	0.485
912.000	528.874	80.004	19.996	100.705	20.271	4.484	0.484
920.000	532.808	80.004	19.995	100.711	20.267	4.764	0.450
928.000	536.940	80.005	19.995	100.696	20.266	4.862	0.532
936.000	541.037	80.003	19.995	100.696	20.268	4.719	0.503
944.000	545.179	80.003	19.996	100.704	20.263	5.069	0.492
952.000	549.386	80.003	19.995	100.719	20.265	4.877	0.512
960.000	553.622	80.003	19.996	100.702	20.269	4.662	0.567
968.000	557.794	80.001	19.996	100.705	20.271	4.536	0.525
976.000	561.929	80.004	19.996	100.701	20.270	4.549	0.533
984.000	566.061	80.004	19.997	100.696	20.268	4.712	0.514
992.000	570.193	80.001	19.995	100.709	20.272	4.468	0.526
1000.000	574.298	80.003	19.995	100.706	20.269	4.675	0.539
1008.000	578.350	80.004	19.994	100.701	20.276	4.180	0.471
1016.000	582.451	80.002	19.996	100.711	20.272	4.417	0.516
1024.000	586.490	80.002	19.995	100.709	20.270	4.569	0.504
1032.000	590.518	80.001	19.995	100.708	20.273	4.375	0.484
1039.999	594.625	80.003	19.997	100.698	20.268	4.718	0.523
1047.999	598.737	80.002	19.996	100.697	20.273	4.356	0.530
1055.999	602.796	80.002	19.995	100.700	20.272	4.461	0.508
1064.001	606.923	80.004	19.996	100.697	20.275	4.254	0.500
1071.999	610.972	80.003	19.996	100.708	20.275	4.259	0.506
1079.999	615.064	80.003	19.998	100.705	20.276	4.214	0.513
1087.999	619.071	80.004	19.996	100.695	20.272	4.452	0.487
1096.000	622.989	80.005	19.995	100.694	20.269	4.631	0.497
1103.999	626.905	80.003	19.995	100.689	20.270	4.570	0.467
1111.999	630.939	80.001	19.996	100.708	20.272	4.415	0.508
1119.999	635.071	80.003	19.996	100.693	20.274	4.335	0.491
1128.000	639.207	80.004	19.996	100.690	20.272	4.431	0.513
1135.999	643.267	80.002	19.995	100.691	20.269	4.620	0.473
1143.999	647.437	80.003	19.996	100.699	20.270	4.557	0.494
1151.999	651.552	80.004	19.997	100.701	20.271	4.517	0.516
1160.000	655.670	80.003	19.996	100.687	20.270	4.560	0.503
1167.999	659.708	80.004	19.998	100.687	20.271	4.521	0.506
1175.999	663.696	80.006	19.997	100.682	20.270	4.601	0.514
1183.999	667.628	80.003	19.997	100.688	20.271	4.510	0.489
1191.999	671.613	80.002	19.995	100.691	20.271	4.508	0.539
1199.999	675.628	80.003	19.997	100.689	20.270	4.602	0.493
1207.999	679.612	80.003	19.996	100.685	20.267	4.747	0.508
1215.999	683.644	80.004	19.995	100.688	20.269	4.624	0.507
1223.999	687.736	80.004	19.995	100.688	20.272	4.450	0.530
1231.999	691.837	80.003	19.996	100.690	20.261	5.135	0.498
1239.999	695.963	80.005	19.996	100.684	20.266	4.806	0.524
1247.999	700.096	80.006	19.995	100.685	20.270	4.582	0.525
1255.999	704.162	80.004	19.997	100.689	20.265	4.891	0.512
1264.000	708.166	80.000	19.997	100.694	20.265	4.921	0.502
1271.999	712.202	79.997	19.997	100.689	20.267	4.799	0.496
1280.000	716.233	80.001	19.995	100.690	20.269	4.674	0.534
1287.999	720.178	80.003	19.997	100.685	20.265	4.924	0.470
1295.999	724.177	80.003	19.997	100.685	20.267	4.765	0.510
1303.999	728.093	80.003	19.997	100.687	20.263	5.023	0.509
1312.000	732.106	80.004	19.997	100.683	20.267	4.750	0.504
1319.999	736.007	80.003	19.995	100.689	20.263	5.061	0.503
1327.999	739.989	80.003	19.996	100.688	20.265	4.893	0.479
1335.499	743.747	80.004	19.996	100.685	20.263	5.059	0.521