File: 01_Data/Polyolefin_Carpet_Low_Pile/STA/N2/10K_min/Polyolefin_Carpet_Low_Pile_STA_N2_10KData_220403_R2.csv
##Temp./Â°C,Time/min,DSC(subtr.2)/(mW/mg),Mass loss(subtr.2)/mg,Sensit./(uV/mW)
49.846,10.01,0.003962587,0.01152,1.07508
53.046,11.31152,0.11967,0.01455994,1.07341
56.246,11.75986,0.1765,0.01415632,1.07175
59.446,12.14645,0.20429,0.01406748,1.07008
62.646,12.50844,0.21702,0.01361229,1.06842
65.846,12.86177,0.2287,0.01440161,1.06676
69.046,13.2075,0.2385,0.01349376,1.0651
72.246,13.54865,0.24542,0.01456749,1.06344
75.446,13.8851,0.25261,0.01249681,1.06179
78.646,14.21825,0.25762,0.01383033,1.06013
81.846,14.54923,0.26093,0.01380994,1.05848
85.046,14.87638,0.26528,0.01254539,1.05683
88.246,15.2001,0.27013,0.01382,1.05518
91.446,15.5209,0.27554,0.01251876,1.05353
94.646,15.84022,0.2785,0.01251025,1.05188
97.846,16.15806,0.28479,0.01115002,1.05024
101.046,16.474,0.28553,0.0138181,1.0486
104.246,16.79,0.28835,0.01283,1.04695
107.446,17.10584,0.28968,0.01246535,1.04532
110.646,17.41987,0.29483,0.01021016,1.04368
113.846,17.73239,0.29539,0.01416,1.04204
117.046,18.04566,0.2999,0.01151,1.0404
120.246,18.3585,0.29924,0.01283996,1.03877
123.446,18.67034,0.30237,0.01284121,1.03714
126.646,18.98109,0.30669,0.01282964,1.03551
129.846,19.2921,0.31135,0.01184777,1.03388
133.046,19.6027,0.31277,0.01152085,1.03225
136.246,19.91284,0.31742,0.01224327,1.03062
139.446,20.22419,0.32557,0.01255259,1.029
142.646,20.53519,0.33415,0.01185013,1.02737
145.846,20.84519,0.34765,0.01140806,1.02575
149.046,21.15399,0.37422,0.01205396,1.02413
152.246,21.46221,0.40775,0.0105296,1.02251
155.446,21.7706,0.46775,0.01018044,1.02089
158.646,22.079,0.55887,0.01053994,1.01927
161.846,22.38704,0.66468,0.01052998,1.01765
165.046,22.69474,0.74083,0.01193839,1.01603
168.246,23.00303,0.62824,0.01053,1.01442
171.446,23.30891,0.43857,0.01054101,1.0128
174.646,23.6135,0.36791,0.00988,1.01118
177.846,23.91977,0.35565,0.007917252,1.00957
181.046,24.2253,0.35087,0.00921821,1.00796
184.246,24.53086,0.35222,0.00922006,1.00634
187.446,24.8373,0.35251,0.007886069,1.00473
190.646,25.1443,0.35569,0.00659,1.00312
193.846,25.45063,0.35624,0.006579781,1.0015
197.046,25.75555,0.35824,0.006577246,0.99989
200.246,26.06154,0.36183,0.00592,0.99828
203.446,26.36781,0.36171,0.006610785,0.99667
206.646,26.6736,0.36593,0.005601796,0.99506
209.846,26.97904,0.36565,0.005600172,0.99344
213.046,27.2831,0.36955,0.005670523,0.99183
216.246,27.58922,0.36821,0.00428,0.99022
219.446,27.8949,0.36803,0.00395766,0.98861
222.646,28.2005,0.36999,0.003791865,0.98699
225.846,28.50589,0.37491,0.0022,0.98538
229.046,28.8112,0.37661,0.002418093,0.98376
232.246,29.1164,0.37629,0.00154198,0.98215
235.446,29.4216,0.37855,0.00184493,0.98053
238.646,29.72737,0.37622,-0.000760044,0.97891
241.846,30.0328,0.37781,-0.000430074,0.9773
245.046,30.33863,0.37562,-0.001122256,0.97568
248.246,30.64521,0.37553,-0.001099997,0.97406
251.446,30.9518,0.37882,-0.00175,0.97243
254.646,31.25767,0.37877,-0.002081771,0.97081
257.846,31.56297,0.37908,-0.004273921,0.96919
261.046,31.86855,0.38213,-0.003279176,0.96756
264.246,32.17325,0.38319,-0.00331881,0.96593
267.446,32.47828,0.38489,-0.004930001,0.9643
270.646,32.78281,0.38591,-0.004956665,0.96267
273.846,33.08784,0.38743,-0.007561887,0.96104
277.046,33.39297,0.38672,-0.00756,0.9594
280.246,33.69932,0.38644,-0.008550001,0.95776
283.446,34.00515,0.38737,-0.01030174,0.95612
286.646,34.31204,0.38614,-0.009540003,0.95448
289.846,34.6186,0.38792,-0.01018602,0.95284
293.046,34.92511,0.38685,-0.01134373,0.95119
296.246,35.23205,0.38485,-0.0124999,0.94954
299.446,35.5389,0.38477,-0.01348,0.94789
302.646,35.8453,0.38685,-0.01480182,0.94623
305.846,36.1513,0.38573,-0.01612,0.94457
309.046,36.4584,0.39059,-0.01678131,0.94291
312.246,36.7649,0.38903,-0.01938291,0.94124
315.446,37.0727,0.38748,-0.02054754,0.93957
318.646,37.3805,0.388,-0.02237001,0.9379
321.846,37.68857,0.3914,-0.02336009,0.93623
325.046,37.9959,0.39424,-0.02468391,0.93455
328.246,38.3044,0.39331,-0.02830009,0.93286
331.446,38.6124,0.39206,-0.03159121,0.93117
334.646,38.9214,0.3964,-0.03422685,0.92948
337.846,39.23097,0.39158,-0.03817013,0.92779
341.046,39.54107,0.38819,-0.04047508,0.92609
344.246,39.8514,0.38869,-0.04442029,0.92438
347.446,40.16107,0.39178,-0.0483757,0.92268
350.646,40.47118,0.39506,-0.05372821,0.92096
353.846,40.78111,0.4003,-0.06021651,0.91925
357.046,41.091,0.40411,-0.06629895,0.91752
360.246,41.40188,0.40637,-0.0732825,0.9158
363.446,41.71252,0.40993,-0.08117708,0.91406
366.646,42.02321,0.41821,-0.09111522,0.91233
369.846,42.33408,0.42558,-0.10002,0.91058
373.046,42.64458,0.43862,-0.11238,0.90884
376.246,42.95565,0.4527,-0.12509,0.90708
379.446,43.2669,0.46381,-0.13887,0.90532
382.646,43.57731,0.47613,-0.15412,0.90356
385.846,43.88912,0.49118,-0.1717,0.90179
389.046,44.19984,0.50926,-0.18974,0.90001
392.246,44.5107,0.52134,-0.20964,0.89823
395.446,44.822,0.53894,-0.23095,0.89645
398.646,45.13473,0.54728,-0.25657,0.89465
401.846,45.44789,0.56189,-0.28118,0.89285
405.046,45.76116,0.58069,-0.30767,0.89105
408.246,46.07459,0.59501,-0.33884,0.88923
411.446,46.38817,0.6044,-0.36987,0.88741
414.646,46.7019,0.6228,-0.40326,0.88559
417.846,47.0156,0.64066,-0.43991,0.88376
421.046,47.3294,0.65901,-0.47944,0.88192
424.246,47.643,0.68064,-0.52211,0.88007
427.446,47.95626,0.70349,-0.56781,0.87822
430.646,48.27022,0.72812,-0.61756,0.87636
433.846,48.58383,0.7542,-0.67317,0.87449
437.046,48.89793,0.78065,-0.73259,0.87262
440.246,49.2117,0.80681,-0.79771,0.87074
443.446,49.52584,0.83381,-0.87028,0.86885
446.646,49.84023,0.85675,-0.94896,0.86695
449.846,50.15504,0.87584,-1.03334,0.86505
453.046,50.4696,0.88566,-1.12449,0.86313
456.246,50.7836,0.88986,-1.21988,0.86121
459.446,51.09748,0.88498,-1.32039,0.85929
462.646,51.41179,0.86394,-1.42509,0.85735
465.846,51.72575,0.81895,-1.52973,0.85541
469.046,52.04054,0.75617,-1.63127,0.85346
472.246,52.35388,0.67686,-1.7212,0.8515
475.446,52.6677,0.56216,-1.80031,0.84953
478.646,52.9807,0.4084,-1.85804,0.84756
481.846,53.2953,0.27264,-1.8858,0.84557
485.046,53.6112,0.19961,-1.89548,0.84358
488.246,53.9288,0.17256,-1.89688,0.84158
491.446,54.2453,0.17334,-1.89967,0.83957
494.646,54.5618,0.19597,-1.90141,0.83755
497.846,54.879,0.18417,-1.90272,0.83553
501.046,55.1966,0.16202,-1.90447,0.83349
504.246,55.5132,0.14306,-1.90393,0.83145
507.446,55.8306,0.13674,-1.90557,0.8294
510.646,56.14897,0.13349,-1.90689,0.82734
513.846,56.4667,0.13619,-1.90721,0.82526
517.046,56.78586,0.13569,-1.90853,0.82319
520.246,57.10369,0.13043,-1.90949,0.8211
523.446,57.4215,0.13609,-1.90952,0.819
526.646,57.7377,0.13727,-1.91084,0.81689
529.846,58.05451,0.14444,-1.91348,0.81478
533.046,58.37105,0.14504,-1.91346,0.81265
536.246,58.6882,0.14261,-1.91398,0.81052
539.446,59.00671,0.147,-1.9161,0.80838
542.646,59.32601,0.14411,-1.91746,0.80623
545.846,59.6461,0.14271,-1.92005,0.80406
549.046,59.9663,0.14776,-1.91976,0.80189
552.246,60.28722,0.14992,-1.92338,0.79971
555.446,60.6072,0.15324,-1.92334,0.79752
558.646,60.9269,0.15656,-1.92532,0.79533
561.846,61.24652,0.1613,-1.92729,0.79312
565.046,61.56619,0.16062,-1.92862,0.7909
568.246,61.8849,0.16627,-1.93224,0.78867
571.446,62.20318,0.17323,-1.93354,0.78644
574.646,62.5212,0.17915,-1.93617,0.78419
577.846,62.84025,0.183,-1.9388,0.78193
581.046,63.16041,0.1871,-1.94013,0.77967
584.246,63.48079,0.19433,-1.94203,0.77739
587.446,63.8015,0.20268,-1.94698,0.77511
590.646,64.12201,0.20943,-1.94836,0.77282
593.846,64.44255,0.21962,-1.95317,0.77051
597.046,64.76341,0.23561,-1.95624,0.7682
600.246,65.08412,0.2564,-1.96019,0.76588
603.446,65.4044,0.2834,-1.96546,0.76354
606.646,65.72691,0.32256,-1.97206,0.7612
609.846,66.04981,0.35902,-1.97764,0.75885
613.046,66.37241,0.40358,-1.98803,0.75649
616.246,66.69436,0.44852,-1.99718,0.75412
619.446,67.01539,0.47998,-2.00708,0.75174
622.646,67.33575,0.50617,-2.01828,0.74935
625.846,67.65644,0.51465,-2.0312,0.74695
629.046,67.97745,0.51225,-2.04101,0.74455
632.246,68.29778,0.49447,-2.05413,0.74213
635.446,68.6195,0.47266,-2.06466,0.7397
638.646,68.94168,0.42704,-2.07785,0.73727
641.846,69.2644,0.39366,-2.08672,0.73482
645.046,69.588,0.44184,-2.0954,0.73236
648.246,69.9106,0.56094,-2.10675,0.7299
651.446,70.23298,0.65806,-2.1202,0.72743
654.646,70.5555,0.75507,-2.13445,0.72495
657.846,70.87839,0.84082,-2.15077,0.72245
661.046,71.2011,0.92212,-2.16662,0.71995
664.246,71.52331,1.00251,-2.18643,0.71744
667.446,71.8459,1.07742,-2.20462,0.71492
670.646,72.16845,1.14625,-2.22741,0.7124
673.846,72.491,1.20317,-2.24825,0.70986
677.046,72.81403,1.23429,-2.27091,0.70731
680.246,73.1357,1.25013,-2.29316,0.70476
683.446,73.45766,1.27936,-2.31643,0.7022
686.646,73.78033,1.34638,-2.34115,0.69962
689.846,74.10347,1.43871,-2.36696,0.69704
693.046,74.4269,1.53363,-2.39413,0.69446
696.246,74.75015,1.62388,-2.42506,0.69186
699.446,75.0746,1.71098,-2.45601,0.68925
702.646,75.39944,1.7913,-2.49157,0.68664
705.846,75.7235,1.85919,-2.52533,0.68401
709.046,76.0472,1.91542,-2.56317,0.68138
712.246,76.3699,1.96194,-2.60043,0.67874
715.446,76.69321,1.99196,-2.63881,0.6761
718.646,77.01626,1.99852,-2.68031,0.67344
721.846,77.33914,1.91097,-2.71783,0.67078
725.046,77.66216,1.46573,-2.75406,0.66811
728.246,77.98475,0.18047,-2.76617,0.66543
731.446,78.30798,0.07519634,-2.7675,0.66274
734.646,78.63256,0.05935642,-2.76979,0.66005
737.846,78.9569,0.04622089,-2.77044,0.65734
741.046,79.2813,0.03681881,-2.77012,0.65463
744.246,79.6056,0.03276447,-2.77205,0.65192
747.446,79.92942,0.02432203,-2.7721,0.64919
750.646,80.25564,0.02199933,-2.77349,0.64646
753.846,80.58,0.0162371,-2.77275,0.64372
757.046,80.90417,0.01561318,-2.77225,0.64098
760.246,81.2289,0.00820126,-2.77177,0.63823
763.446,81.55297,0.01219933,-2.77303,0.63547
766.646,81.87689,0.004534076,-2.77308,0.6327
769.846,82.202,0.0008795836,-2.77341,0.62993
773.046,82.52779,-0.00421189,-2.77242,0.62715
776.246,82.8537,-0.00647853,-2.77374,0.62437
779.446,83.17826,-0.00956136,-2.77308,0.62158
782.646,83.5023,-0.01108393,-2.77406,0.61878
785.846,83.82765,-0.01096393,-2.77473,0.61598
789.046,84.15285,-0.0180213,-2.77497,0.61317
792.246,84.47731,-0.01788942,-2.77538,0.61035
795.446,84.80179,-0.02199959,-2.7767,0.60753
797.346,84.99441,-0.02653878,-2.77538,0.60585