File: 01_Data/Polyolefin_Carpet_Low_Pile/STA/N2/10K_min/Polyolefin_Carpet_Low_Pile_STA_N2_10KData_220303_R1.csv
##Temp./Â°C,Time/min,DSC(subtr.2)/(mW/mg),Mass loss(subtr.2)/mg,Sensit./(uV/mW)
49.583,10.00833,0.01491,-0.01513,1.07522
52.883,11.32517,0.12842,-0.01903218,1.0735
56.183,11.78813,0.1788,-0.01996223,1.07178
59.483,12.18398,0.20767,-0.01822354,1.07006
62.783,12.55746,0.22142,-0.02118898,1.06835
66.083,12.91946,0.23131,-0.0210709,1.06664
69.383,13.275,0.24117,-0.02367569,1.06492
72.683,13.6258,0.2446,-0.02184132,1.06322
75.983,13.9721,0.25059,-0.02204823,1.06151
79.283,14.31536,0.2544,-0.02235341,1.0598
82.583,14.6557,0.25737,-0.02369031,1.0581
85.883,14.99269,0.26041,-0.023701,1.0564
89.183,15.32674,0.26317,-0.02505338,1.0547
92.483,15.657,0.26774,-0.02730627,1.053
95.783,15.98489,0.26948,-0.02796032,1.0513
99.083,16.31149,0.27158,-0.02669915,1.0496
102.383,16.6362,0.2714,-0.02680968,1.04791
105.683,16.9608,0.27303,-0.02751557,1.04622
108.983,17.28487,0.27547,-0.02844378,1.04453
112.283,17.60705,0.27807,-0.02808031,1.04284
115.583,17.93088,0.27777,-0.02807906,1.04115
118.883,18.25401,0.27827,-0.02960753,1.03947
122.183,18.57562,0.28405,-0.02807948,1.03778
125.483,18.89731,0.28291,-0.02940815,1.0361
128.783,19.21799,0.2858,-0.0294,1.03442
132.083,19.53803,0.29216,-0.03139669,1.03274
135.383,19.8575,0.29603,-0.02906936,1.03106
138.683,20.1765,0.30534,-0.03058254,1.02938
141.983,20.49529,0.31542,-0.03185857,1.02771
145.283,20.81305,0.32894,-0.03094477,1.02604
148.583,21.13053,0.34791,-0.03170862,1.02436
151.883,21.4496,0.3831,-0.03201393,1.02269
155.183,21.76845,0.44213,-0.03104001,1.02102
158.483,22.0873,0.53529,-0.03212991,1.01935
161.783,22.40612,0.64756,-0.03213996,1.01768
165.083,22.72505,0.71975,-0.03213628,1.01601
168.383,23.0421,0.58262,-0.03212998,1.01435
171.683,23.35725,0.39984,-0.03477132,1.01268
174.983,23.67174,0.33359,-0.03509934,1.01101
178.283,23.98653,0.31933,-0.03378009,1.00935
181.583,24.3011,0.31741,-0.03318187,1.00769
184.883,24.61635,0.31701,-0.03410948,1.00602
188.183,24.93146,0.32102,-0.03348193,1.00436
191.483,25.24622,0.31904,-0.03471949,1.0027
194.783,25.56053,0.323,-0.03608834,1.00103
198.083,25.87523,0.32301,-0.03575955,0.99937
201.383,26.18925,0.3221,-0.03315475,0.99771
204.683,26.5044,0.32221,-0.0357498,0.99605
207.983,26.82023,0.322,-0.03707001,0.99438
211.283,27.1358,0.32275,-0.0373173,0.99272
214.583,27.4515,0.32236,-0.03935428,0.99106
217.883,27.76592,0.32401,-0.04069,0.98939
221.183,28.08121,0.32478,-0.039703,0.98773
224.483,28.39532,0.32596,-0.04011567,0.98607
227.783,28.70999,0.32709,-0.03970001,0.9844
231.083,29.02463,0.32951,-0.04102001,0.98273
234.383,29.3393,0.32945,-0.04070226,0.98107
237.683,29.6527,0.33414,-0.04069,0.9794
240.983,29.96769,0.331,-0.0389456,0.97773
244.283,30.2821,0.32936,-0.04069893,0.97606
247.583,30.598,0.32848,-0.03927,0.97439
250.883,30.9128,0.3291,-0.042068,0.97272
254.183,31.22762,0.3317,-0.04146023,0.97105
257.483,31.54233,0.32993,-0.04302458,0.96937
260.783,31.85802,0.33037,-0.04409025,0.96769
264.083,32.17344,0.3299,-0.04276357,0.96602
267.383,32.48887,0.32641,-0.04541,0.96433
270.683,32.80424,0.32586,-0.04672722,0.96265
273.983,33.11976,0.32338,-0.04738473,0.96097
277.283,33.43593,0.32565,-0.04738463,0.95928
280.583,33.75136,0.32494,-0.04586743,0.95759
283.883,34.06801,0.32583,-0.04705,0.9559
287.183,34.3857,0.32145,-0.04969,0.95421
290.483,34.70409,0.31703,-0.04964913,0.95251
293.783,35.02315,0.31516,-0.04935989,0.95081
297.083,35.34137,0.31901,-0.05167215,0.94911
300.383,35.65959,0.31987,-0.05198914,0.9474
303.683,35.97761,0.32067,-0.05439334,0.94569
306.983,36.29508,0.32404,-0.05309362,0.94398
310.283,36.61253,0.32083,-0.05827031,0.94226
313.583,36.92982,0.32147,-0.05835,0.94055
316.883,37.24722,0.32602,-0.05933142,0.93882
320.183,37.56445,0.32625,-0.06163998,0.9371
323.483,37.88303,0.32347,-0.06455706,0.93537
326.783,38.2018,0.3248,-0.0646,0.93363
330.083,38.52005,0.32562,-0.07009631,0.93189
333.383,38.83912,0.32627,-0.07139943,0.93015
336.683,39.1576,0.32816,-0.0773182,0.9284
339.983,39.47683,0.32761,-0.07996,0.92665
343.283,39.79606,0.32966,-0.08335099,0.9249
346.583,40.11502,0.32194,-0.08525859,0.92314
349.883,40.43379,0.32443,-0.09447215,0.92137
353.183,40.75265,0.32624,-0.09829779,0.9196
356.483,41.07139,0.33319,-0.10388,0.91783
359.783,41.39067,0.33541,-0.11628,0.91605
363.083,41.71014,0.33958,-0.11913,0.91426
366.383,42.02993,0.34729,-0.13163,0.91247
369.683,42.34928,0.35493,-0.14421,0.91067
372.983,42.66982,0.3668,-0.15172,0.90887
376.283,42.99112,0.37639,-0.16909,0.90706
379.583,43.3125,0.3848,-0.18083,0.90525
382.883,43.63371,0.40048,-0.19891,0.90343
386.183,43.9557,0.4098,-0.21761,0.9016
389.483,44.27734,0.42472,-0.23741,0.89977
392.783,44.59872,0.44244,-0.25833,0.89793
396.083,44.9201,0.45946,-0.28205,0.89609
399.383,45.2419,0.47631,-0.30935,0.89424
402.683,45.56346,0.48907,-0.33518,0.89238
405.983,45.88609,0.50509,-0.36739,0.89052
409.283,46.2085,0.51819,-0.3972,0.88864
412.583,46.5313,0.53903,-0.4314,0.88677
415.883,46.85317,0.55654,-0.47049,0.88488
419.183,47.17528,0.57397,-0.5133,0.88299
422.483,47.49822,0.59145,-0.55171,0.88109
425.783,47.82134,0.6168,-0.60361,0.87918
429.083,48.1445,0.64235,-0.65458,0.87727
432.383,48.46822,0.66571,-0.70943,0.87535
435.683,48.7919,0.69413,-0.77248,0.87342
438.983,49.11627,0.72351,-0.83881,0.87148
442.283,49.4405,0.74627,-0.91092,0.86953
445.583,49.76428,0.7715,-0.99707,0.86758
448.883,50.08822,0.7899,-1.08586,0.86562
452.183,50.4128,0.79723,-1.17955,0.86365
455.483,50.73803,0.80229,-1.28456,0.86167
458.783,51.06342,0.79566,-1.39334,0.85969
462.083,51.38939,0.76938,-1.50217,0.85769
465.383,51.71585,0.72625,-1.61228,0.85569
468.683,52.04088,0.66162,-1.72038,0.85368
471.983,52.36513,0.57541,-1.8172,0.85166
475.283,52.68863,0.46275,-1.90125,0.84963
478.583,53.0121,0.3025,-1.95947,0.8476
481.883,53.3355,0.17263,-1.97881,0.84555
485.183,53.6601,0.10699,-1.98773,0.8435
488.483,53.98542,0.09622829,-1.99168,0.84143
491.783,54.3102,0.1289,-1.99497,0.83936
495.083,54.63652,0.11777,-1.99226,0.83728
498.383,54.96431,0.08918181,-1.9954,0.83519
501.683,55.2928,0.06291296,-2.00134,0.83309
504.983,55.62115,0.05350745,-1.99641,0.83098
508.283,55.9494,0.04995416,-2.00186,0.82886
511.583,56.2775,0.04925638,-2.00309,0.82673
514.883,56.60493,0.04711358,-2.00616,0.82459
518.183,56.9318,0.0489842,-2.00616,0.82244
521.483,57.25855,0.04923831,-2.00616,0.82029
524.783,57.5851,0.05637936,-2.00343,0.81812
528.083,57.9118,0.05424352,-2.01105,0.81595
531.383,58.23961,0.0621236,-2.00849,0.81376
534.683,58.56807,0.0635395,-2.01142,0.81156
537.983,58.8962,0.06531543,-2.01442,0.80936
541.283,59.225,0.07405954,-2.01841,0.80714
544.583,59.55392,0.07221856,-2.01416,0.80492
547.883,59.882,0.07693737,-2.02078,0.80268
551.183,60.2108,0.07976794,-2.01926,0.80044
554.483,60.53923,0.08616475,-2.02206,0.79818
557.783,60.8682,0.08685629,-2.02337,0.79592
561.083,61.198,0.08956352,-2.02373,0.79364
564.383,61.52862,0.09152061,-2.02502,0.79136
567.683,61.86,0.09452214,-2.03127,0.78906
570.983,62.19138,0.10048,-2.03293,0.78676
574.283,62.52157,0.10583,-2.03425,0.78444
577.583,62.85051,0.11283,-2.03685,0.78212
580.883,63.1812,0.11846,-2.04245,0.77978
584.183,63.51178,0.12378,-2.04367,0.77744
587.483,63.8411,0.13414,-2.04631,0.77508
590.783,64.1709,0.14285,-2.05136,0.77272
594.083,64.5015,0.15457,-2.05453,0.77034
597.383,64.83179,0.17063,-2.06086,0.76795
600.683,65.16252,0.19911,-2.06519,0.76556
603.983,65.49271,0.22798,-2.06726,0.76315
607.283,65.82377,0.2645,-2.07809,0.76074
610.583,66.15565,0.30873,-2.08369,0.75831
613.883,66.48684,0.34646,-2.09332,0.75587
617.183,66.8181,0.38248,-2.10453,0.75342
620.483,67.14883,0.40788,-2.11237,0.75097
623.783,67.48125,0.4194,-2.12779,0.7485
627.083,67.81359,0.41971,-2.14042,0.74602
630.383,68.1455,0.40372,-2.15116,0.74354
633.683,68.4768,0.38096,-2.16118,0.74104
636.983,68.80712,0.37062,-2.17113,0.73853
640.283,69.13813,0.44683,-2.17979,0.73602
643.583,69.46928,0.55107,-2.19212,0.73349
646.883,69.80089,0.64411,-2.20753,0.73095
650.183,70.13199,0.73565,-2.22642,0.72841
653.483,70.46562,0.82882,-2.24291,0.72585
656.783,70.7997,0.91543,-2.26275,0.72328
660.083,71.13377,1.00078,-2.28681,0.72071
663.383,71.46723,1.07962,-2.31033,0.71812
666.683,71.80149,1.13722,-2.33212,0.71553
669.983,72.13381,1.17271,-2.35588,0.71292
673.283,72.46474,1.17903,-2.37749,0.71031
676.583,72.7952,1.20615,-2.40935,0.70768
679.883,73.12769,1.28814,-2.43534,0.70505
683.183,73.4611,1.4029,-2.45848,0.70241
686.483,73.7968,1.50902,-2.49125,0.69976
689.783,74.1322,1.6051,-2.52344,0.6971
693.083,74.46732,1.69804,-2.55887,0.69443
696.383,74.8026,1.78655,-2.59179,0.69175
699.683,75.13713,1.86375,-2.63391,0.68906
702.983,75.4705,1.92017,-2.67364,0.68636
706.283,75.80332,1.95376,-2.71292,0.68366
709.583,76.13636,1.95653,-2.75654,0.68094
712.883,76.4695,1.87602,-2.80117,0.67822
716.183,76.8023,1.46792,-2.83611,0.67549
719.483,77.13492,0.12774,-2.85408,0.67274
722.783,77.46924,-0.00736305,-2.85634,0.67
726.083,77.80298,-0.02773289,-2.85502,0.66724
729.383,78.13671,-0.03023718,-2.85897,0.66447
732.683,78.46988,-0.03243471,-2.85666,0.6617
735.983,78.80325,-0.03387604,-2.85898,0.65892
739.283,79.13687,-0.04089418,-2.85929,0.65613
742.583,79.4709,-0.03902811,-2.8595,0.65333
745.883,79.8065,-0.03599153,-2.85881,0.65053
749.183,80.14224,-0.04201301,-2.86149,0.64771
752.483,80.47797,-0.04406727,-2.86026,0.64489
755.783,80.8129,-0.04533117,-2.8616,0.64206
759.083,81.14796,-0.04113053,-2.86423,0.63923
762.383,81.4841,-0.04090727,-2.86117,0.63639
765.683,81.81891,-0.04357889,-2.86149,0.63354
768.983,82.15221,-0.04775332,-2.86049,0.63068
772.283,82.48584,-0.04848486,-2.85919,0.62782
775.583,82.82058,-0.0474521,-2.86115,0.62495
778.883,83.15514,-0.04573236,-2.866,0.62207
782.183,83.4896,-0.04278751,-2.85941,0.61918
785.483,83.82427,-0.0462693,-2.86204,0.61629
788.783,84.16043,-0.04808656,-2.86335,0.6134
792.083,84.49593,-0.04693563,-2.86204,0.61049
795.383,84.8318,-0.04515146,-2.86143,0.60759
796.983,84.99523,-0.04531825,-2.86105,0.60617