File: 01_Data/Polyester_Microfiber_Sheet/STA/N2/30K_min/Polyester_Microfiber_Sheet_STA_N2_30KData_220526_R2.csv
##Temp./Â°C,Time/min,Mass loss(subtr.2)/mg,DSC(subtr.2)/(mW/mg),Sensit./(uV/mW)
48.55,10.00667,-0.00132,0.01028912,1.05401
51.35,10.84808,-0.0002206345,0.15681,1.05343
54.15,11.06902,-0.0007180139,0.25441,1.05285
56.95,11.2364,-0.002863033,0.33007,1.05224
59.75,11.37947,-0.0005499951,0.39257,1.05163
62.55,11.50902,-0.0005409319,0.44813,1.051
65.35,11.62925,0.00695818,0.49601,1.05036
68.15,11.7431,0.001310591,0.54002,1.0497
70.95,11.85324,-0.00209014,0.58252,1.04903
73.75,11.95947,-0.00147692,0.62601,1.04834
76.55,12.0636,-0.001231715,0.6538,1.04764
79.35,12.16563,-0.003913533,0.65805,1.04692
82.15,12.26592,-0.00280742,0.65092,1.0462
84.95,12.3647,-0.002949733,0.63978,1.04546
87.75,12.46239,-0.000127604,0.63342,1.0447
90.55,12.55913,-0.002364736,0.63149,1.04393
93.35,12.65456,-0.004297404,0.62904,1.04315
96.15,12.74962,-0.004632479,0.63152,1.04235
98.95,12.84402,-0.00718557,0.63622,1.04154
101.75,12.93857,-0.01057718,0.64841,1.04072
104.55,13.0326,-0.01057019,0.66126,1.03988
107.35,13.12636,-0.006580027,0.6752,1.03903
110.15,13.21965,-0.00527049,0.69172,1.03817
112.95,13.3131,-0.003949999,0.70763,1.03729
115.75,13.40603,-0.00395664,0.72469,1.0364
118.55,13.49874,-0.00395007,0.74308,1.0355
121.35,13.59125,-0.003952349,0.76177,1.03458
124.15,13.68334,-0.003953555,0.77846,1.03365
126.95,13.77505,-0.002632862,0.79583,1.03271
129.75,13.86631,-0.00132002,0.81513,1.03175
132.55,13.9574,-0.002659135,0.83361,1.03078
135.35,14.0479,-0.002629717,0.85032,1.0298
138.15,14.13819,-0.002643141,0.86997,1.02881
140.95,14.22804,-0.002630817,0.88749,1.0278
143.75,14.31741,-0.002598972,0.90363,1.02678
146.55,14.4066,-0.003300313,0.91628,1.02575
149.35,14.4955,-0.002569338,0.93157,1.02471
152.15,14.58415,-0.002614095,0.94627,1.02365
154.95,14.67239,-0.00396004,0.95747,1.02258
157.75,14.76034,-0.003961447,0.9704,1.0215
160.55,14.84884,-0.004298642,0.9836,1.0204
163.35,14.9366,-0.003950643,0.9977,1.0193
166.15,15.02435,-0.00395,1.00571,1.01818
168.95,15.112,-0.003948872,1.01802,1.01705
171.75,15.19941,-0.004613042,1.02965,1.01591
174.55,15.2867,-0.00427993,1.04059,1.01475
177.35,15.3734,-0.00428,1.05137,1.01359
180.15,15.46003,-0.00428,1.0633,1.01241
182.95,15.5465,-0.00428,1.07318,1.01122
185.75,15.6327,-0.004282376,1.08481,1.01001
188.55,15.7182,-0.0056,1.09449,1.0088
191.35,15.80415,-0.00559628,1.1101,1.00758
194.15,15.88974,-0.006825219,1.11787,1.00634
196.95,15.97519,-0.0056,1.127,1.00509
199.75,16.0608,-0.006580707,1.14159,1.00383
202.55,16.14614,-0.00659,1.15228,1.00256
205.35,16.23125,-0.006590486,1.16484,1.00128
208.15,16.31618,-0.00725,1.17843,0.99998
210.95,16.40139,-0.007582105,1.18937,0.99868
213.75,16.48601,-0.00758,1.20748,0.99736
216.55,16.5713,-0.007579874,1.22061,0.99603
219.35,16.656,-0.008891865,1.23856,0.9947
222.15,16.74093,-0.00889,1.25487,0.99335
224.95,16.8257,-0.007581335,1.27346,0.99199
227.75,16.91023,-0.007576421,1.29571,0.99062
230.55,16.9949,-0.009533162,1.32302,0.98923
233.35,17.07955,-0.00955,1.35773,0.98784
236.15,17.16431,-0.008237422,1.40131,0.98644
238.95,17.2488,-0.00960144,1.45569,0.98503
241.75,17.33324,-0.01087,1.52995,0.9836
244.55,17.41793,-0.009568559,1.63602,0.98217
247.35,17.50248,-0.009560053,1.79474,0.98072
250.15,17.58718,-0.01087016,2.05213,0.97927
252.95,17.67212,-0.009549997,2.47129,0.9778
255.75,17.7572,-0.01085848,2.999,0.97633
258.55,17.84248,-0.0122417,3.26233,0.97484
261.35,17.92762,-0.01219007,2.92673,0.97335
264.15,18.01219,-0.01018668,2.40115,0.97184
266.95,18.0965,-0.01021,2.01002,0.97032
269.75,18.18056,-0.01155218,1.76056,0.9688
272.55,18.26426,-0.01152626,1.60934,0.96726
275.35,18.34819,-0.01283768,1.51872,0.96572
278.15,18.43205,-0.01152002,1.46559,0.96416
280.95,18.516,-0.01284246,1.43478,0.9626
283.75,18.60002,-0.01283999,1.41889,0.96103
286.55,18.68401,-0.01350036,1.41351,0.95944
289.35,18.76804,-0.01482001,1.40873,0.95785
292.15,18.85219,-0.01482273,1.40984,0.95625
294.95,18.93629,-0.01349977,1.40865,0.95464
297.75,19.0206,-0.01482001,1.40764,0.95302
300.55,19.1046,-0.01482,1.40931,0.95139
303.35,19.1891,-0.01482,1.40949,0.94975
306.15,19.27337,-0.01350015,1.41174,0.94811
308.95,19.3576,-0.01342819,1.41394,0.94645
311.75,19.44196,-0.01614,1.41451,0.94478
314.55,19.5263,-0.01643983,1.41403,0.94311
317.35,19.61086,-0.01729619,1.41706,0.94143
320.15,19.6954,-0.01705656,1.41807,0.93974
322.95,19.78012,-0.01745,1.41958,0.93804
325.75,19.86496,-0.01745124,1.42134,0.93633
328.55,19.9497,-0.01840752,1.42309,0.93461
331.35,20.03441,-0.01876996,1.42464,0.93289
334.15,20.1195,-0.01943,1.42573,0.93115
336.95,20.20441,-0.01943511,1.42714,0.92941
339.75,20.2894,-0.02073882,1.43202,0.92766
342.55,20.37455,-0.0216012,1.43217,0.92591
345.35,20.45984,-0.02207,1.43189,0.92414
348.15,20.54514,-0.02207,1.43551,0.92237
350.95,20.63052,-0.02207,1.43608,0.92058
353.75,20.7158,-0.02310081,1.44105,0.91879
356.55,20.80128,-0.02471788,1.44271,0.917
359.35,20.88695,-0.0247,1.44564,0.91519
362.15,20.9724,-0.02470065,1.44969,0.91338
364.95,21.05801,-0.02720631,1.45033,0.91156
367.75,21.14387,-0.02613297,1.45478,0.90973
370.55,21.22965,-0.02734,1.45973,0.90789
373.35,21.31549,-0.02733975,1.46531,0.90605
376.15,21.4013,-0.02864992,1.47818,0.9042
378.95,21.48736,-0.03130164,1.48718,0.90234
381.75,21.57341,-0.03260997,1.49866,0.90048
384.55,21.6598,-0.03260719,1.51124,0.89861
387.35,21.74622,-0.0339218,1.52525,0.89673
390.15,21.83268,-0.03662693,1.53926,0.89484
392.95,21.91905,-0.04020286,1.55782,0.89295
395.75,22.00531,-0.04244005,1.57714,0.89105
398.55,22.09221,-0.04759295,1.60105,0.88914
401.35,22.17867,-0.05438349,1.63095,0.88723
404.15,22.26577,-0.06119328,1.66516,0.88531
406.95,22.35256,-0.07080485,1.69855,0.88338
409.75,22.4398,-0.08232445,1.73319,0.88145
412.55,22.52681,-0.09466358,1.76482,0.87951
415.35,22.61392,-0.11184,1.79661,0.87756
418.15,22.70105,-0.13235,1.82992,0.87561
420.95,22.78825,-0.15947,1.85998,0.87365
423.75,22.87558,-0.18919,1.89263,0.87169
426.55,22.96321,-0.22864,1.94637,0.86972
429.35,23.05058,-0.27559,1.99656,0.86774
432.15,23.13835,-0.33098,2.06721,0.86575
434.95,23.2262,-0.39836,2.14495,0.86376
437.75,23.31384,-0.4782,2.25341,0.86177
440.55,23.40166,-0.57458,2.37684,0.85977
443.35,23.49005,-0.68912,2.48618,0.85776
446.15,23.57818,-0.81837,2.60992,0.85575
448.95,23.66655,-0.96885,2.70828,0.85373
451.75,23.75468,-1.13448,2.76287,0.85171
454.55,23.84305,-1.315,2.84005,0.84968
457.35,23.9316,-1.51175,2.88648,0.84764
460.15,24.02006,-1.71804,2.90022,0.8456
462.95,24.10864,-1.93189,2.85986,0.84356
465.75,24.19693,-2.1383,2.75354,0.8415
468.55,24.28526,-2.33475,2.59182,0.83945
471.35,24.37335,-2.50925,2.37765,0.83739
474.15,24.46173,-2.65441,2.1263,0.83532
476.95,24.55001,-2.76636,1.86534,0.83325
479.75,24.63776,-2.84998,1.63039,0.83117
482.55,24.72585,-2.91173,1.42785,0.82909
485.35,24.81411,-2.95892,1.25649,0.827
488.15,24.90241,-2.99418,1.09923,0.82491
490.95,24.991,-3.02342,0.95947,0.82282
493.75,25.0794,-3.04898,0.83367,0.82072
496.55,25.168,-3.06781,0.72681,0.81861
499.35,25.25662,-3.08283,0.63501,0.8165
502.15,25.3456,-3.09588,0.55618,0.81439
504.95,25.43454,-3.10638,0.49462,0.81227
507.75,25.52373,-3.11677,0.44407,0.81015
510.55,25.61285,-3.12495,0.4079,0.80802
513.35,25.7023,-3.12982,0.37954,0.80589
516.15,25.7917,-3.13511,0.35975,0.80375
518.95,25.88113,-3.14051,0.34801,0.80161
521.75,25.9709,-3.14496,0.33359,0.79947
524.55,26.0606,-3.14964,0.32232,0.79732
527.35,26.15033,-3.15147,0.31283,0.79517
530.15,26.23992,-3.15518,0.30587,0.79301
532.95,26.33002,-3.1578,0.28044,0.79085
535.75,26.42012,-3.16044,0.28778,0.78869
538.55,26.5101,-3.1632,0.29125,0.78652
541.35,26.60037,-3.16606,0.28888,0.78435
544.15,26.69035,-3.16868,0.28948,0.78218
546.95,26.7811,-3.17107,0.28661,0.78
549.75,26.87132,-3.17357,0.28613,0.77782
552.55,26.96167,-3.17474,0.28263,0.77563
555.35,27.05234,-3.17626,0.28126,0.77344
558.15,27.1428,-3.17757,0.27643,0.77125
560.95,27.23337,-3.17889,0.2751,0.76906
563.75,27.3239,-3.18021,0.27006,0.76686
566.55,27.4147,-3.18156,0.26808,0.76466
569.35,27.50535,-3.18284,0.26572,0.76246
572.15,27.5961,-3.18516,0.26396,0.76025
574.95,27.6867,-3.18679,0.25827,0.75804
577.75,27.778,-3.18679,0.2568,0.75583
580.55,27.86905,-3.18942,0.25421,0.75361
583.35,27.96017,-3.19075,0.25195,0.75139
586.15,28.05091,-3.19206,0.24949,0.74917
588.95,28.1424,-3.19213,0.24567,0.74695
591.75,28.2337,-3.19471,0.24473,0.74472
594.55,28.32497,-3.19728,0.23927,0.74249
597.35,28.4164,-3.19889,0.23724,0.74026
600.15,28.5079,-3.20129,0.23651,0.73802
602.95,28.5995,-3.20258,0.23372,0.73579
605.75,28.691,-3.20535,0.22853,0.73355
608.55,28.78252,-3.20535,0.22787,0.73131
611.35,28.8742,-3.20666,0.22689,0.72906
614.15,28.9657,-3.21029,0.22878,0.72682
616.95,29.0578,-3.21277,0.22745,0.72457
619.75,29.14935,-3.21455,0.22651,0.72232
622.55,29.2414,-3.21702,0.22539,0.72007
625.35,29.3331,-3.21861,0.22606,0.71781
628.15,29.42507,-3.22095,0.22774,0.71556
630.95,29.517,-3.22225,0.22757,0.7133
633.75,29.60875,-3.22354,0.22973,0.71104
636.55,29.70085,-3.22626,0.22888,0.70878
639.35,29.79291,-3.2262,0.22722,0.70652
642.15,29.8849,-3.22895,0.23221,0.70425
644.95,29.97699,-3.23117,0.23015,0.70199
647.75,30.069,-3.23286,0.23441,0.69972
650.55,30.16103,-3.23409,0.2382,0.69745
653.35,30.25313,-3.23675,0.24249,0.69518
656.15,30.3453,-3.23806,0.24646,0.69291
658.95,30.43739,-3.23806,0.2469,0.69064
661.75,30.5295,-3.23802,0.24558,0.68836
664.55,30.62176,-3.24069,0.25169,0.68609
667.35,30.71391,-3.24295,0.25649,0.68381
670.15,30.8061,-3.24333,0.26071,0.68153
672.95,30.8985,-3.24465,0.26484,0.67925
675.75,30.9908,-3.24474,0.26478,0.67697
678.55,31.0829,-3.24634,0.26456,0.67469
681.35,31.1755,-3.24733,0.26587,0.67241
684.15,31.2677,-3.24734,0.26583,0.67013
686.95,31.3601,-3.24894,0.26748,0.66785
689.75,31.45246,-3.25084,0.26648,0.66556
692.55,31.5449,-3.25091,0.26854,0.66328
695.35,31.63755,-3.25237,0.26659,0.66099
696.15,31.66395,-3.25255,0.26698,0.66034