File: 01_Data/Polyester_Microfiber_Sheet/STA/N2/30K_min/Polyester_Microfiber_Sheet_STA_N2_30KData_220526_R1.csv
##Temp./Â°C,Time/min,Mass loss(subtr.2)/mg,DSC(subtr.2)/(mW/mg),Sensit./(uV/mW)
48.586,10.00667,-0.00857,-0.00126359,1.054
51.386,10.8473,-0.00989628,0.12319,1.05343
54.186,11.06804,-0.00825085,0.21318,1.05284
56.986,11.23504,-0.00914615,0.28345,1.05224
59.786,11.37926,-0.00883098,0.34346,1.05162
62.586,11.50906,-0.008694465,0.3903,1.05099
65.386,11.62921,-0.01126962,0.43535,1.05035
68.186,11.74364,-0.00849692,0.47489,1.04969
70.986,11.85319,-0.009350554,0.51287,1.04902
73.786,11.95995,-0.01066796,0.5479,1.04833
76.586,12.0639,-0.00909902,0.57506,1.04763
79.386,12.1656,-0.007976916,0.58131,1.04692
82.186,12.26635,-0.009326546,0.57036,1.04619
84.986,12.36514,-0.01076005,0.55938,1.04545
87.786,12.46294,-0.009801987,0.54949,1.04469
90.586,12.55936,-0.009516421,0.54383,1.04392
93.386,12.65489,-0.01103092,0.53866,1.04314
96.186,12.75005,-0.01087737,0.53669,1.04234
98.986,12.84477,-0.01096612,0.54055,1.04153
101.786,12.93869,-0.009670219,0.54706,1.04071
104.586,13.0326,-0.009668219,0.55664,1.03987
107.386,13.12638,-0.009659909,0.57102,1.03902
110.186,13.2198,-0.00869485,0.5859,1.03816
112.986,13.31299,-0.00967011,0.6026,1.03728
115.786,13.4063,-0.0096769,0.61749,1.03639
118.586,13.4991,-0.01020526,0.63346,1.03548
121.386,13.59169,-0.00965987,0.64922,1.03457
124.186,13.684,-0.009664882,0.66554,1.03364
126.986,13.7757,-0.00968892,0.68226,1.0327
129.786,13.867,-0.009670134,0.69843,1.03174
132.586,13.95798,-0.009669957,0.71475,1.03077
135.386,14.04861,-0.01012399,0.72992,1.02979
138.186,14.13882,-0.009660003,0.74605,1.0288
140.986,14.2286,-0.009999672,0.76155,1.02779
143.786,14.31826,-0.01098009,0.77723,1.02677
146.586,14.40745,-0.009669996,0.78995,1.02574
149.386,14.4963,-0.01065573,0.80257,1.02469
152.186,14.58482,-0.01065757,0.81092,1.02364
154.986,14.6737,-0.01098389,0.8249,1.02257
157.786,14.7617,-0.01066,0.83805,1.02148
160.586,14.8499,-0.01066,0.84537,1.02039
163.386,14.93754,-0.01086868,0.85533,1.01928
166.186,15.0253,-0.01096494,0.86736,1.01817
168.986,15.1128,-0.0123,0.87728,1.01703
171.786,15.1999,-0.0123,0.88791,1.01589
174.586,15.28731,-0.0123,0.90108,1.01474
177.386,15.37393,-0.01229994,0.91224,1.01357
180.186,15.46057,-0.01171213,0.91721,1.01239
182.986,15.54698,-0.0123,0.92912,1.0112
185.786,15.63314,-0.0123,0.9413,1.01
188.586,15.7189,-0.01096756,0.95182,1.00878
191.386,15.8044,-0.01361953,0.96181,1.00756
194.186,15.89,-0.01427912,0.96886,1.00632
196.986,15.97528,-0.01297344,0.97955,1.00507
199.786,16.0606,-0.01334128,0.99165,1.00381
202.586,16.14591,-0.01428,1.00117,1.00254
205.386,16.23087,-0.01428,1.01258,1.00126
208.186,16.31602,-0.01558902,1.02235,0.99997
210.986,16.40096,-0.01494004,1.03634,0.99866
213.786,16.48586,-0.01626,1.04795,0.99734
216.586,16.57076,-0.01560535,1.06521,0.99602
219.386,16.65558,-0.0156,1.07902,0.99468
222.186,16.7403,-0.0156,1.09277,0.99333
224.986,16.82488,-0.01690722,1.11078,0.99197
227.786,16.90953,-0.01560512,1.13044,0.9906
230.586,16.9943,-0.01692256,1.1546,0.98922
233.386,17.07883,-0.01690861,1.18382,0.98782
236.186,17.16354,-0.01822877,1.22687,0.98642
238.986,17.24788,-0.01790137,1.27839,0.98501
241.786,17.33223,-0.01691981,1.3474,0.98358
244.586,17.41706,-0.01856548,1.44657,0.98215
247.386,17.50175,-0.01921,1.59532,0.9807
250.186,17.58626,-0.01920997,1.8367,0.97925
252.986,17.67124,-0.02052998,2.22533,0.97778
255.786,17.7561,-0.01986964,2.72637,0.97631
258.586,17.84137,-0.01987075,3.02695,0.97482
261.386,17.9265,-0.01921,2.76738,0.97333
264.186,18.01117,-0.01921,2.2439,0.97182
266.986,18.0954,-0.01987459,1.84592,0.9703
269.786,18.1793,-0.02020004,1.58985,0.96878
272.586,18.26296,-0.02151993,1.43549,0.96724
275.386,18.3468,-0.02152,1.34056,0.9657
278.186,18.4306,-0.02152,1.28651,0.96414
280.986,18.5146,-0.02284293,1.25632,0.96258
283.786,18.5987,-0.02282884,1.23839,0.96101
286.586,18.6827,-0.02159837,1.23032,0.95942
289.386,18.76697,-0.0224831,1.22494,0.95783
292.186,18.8512,-0.02152008,1.22436,0.95623
294.986,18.93542,-0.02316311,1.22412,0.95462
297.786,19.0196,-0.02317006,1.22184,0.953
300.586,19.10383,-0.02284005,1.22072,0.95137
303.386,19.1884,-0.02218128,1.22182,0.94973
306.186,19.27279,-0.0235,1.22079,0.94808
308.986,19.35749,-0.02343861,1.22255,0.94643
311.786,19.44175,-0.02449,1.22323,0.94476
314.586,19.52642,-0.02448632,1.22357,0.94309
317.386,19.6111,-0.02602623,1.22366,0.94141
320.186,19.6959,-0.02613,1.22327,0.93972
322.986,19.78055,-0.02613,1.22403,0.93802
325.786,19.86541,-0.02613,1.22566,0.93631
328.586,19.95045,-0.02744915,1.22645,0.93459
331.386,20.0352,-0.02745,1.22631,0.93287
334.186,20.12027,-0.02745035,1.22785,0.93113
336.986,20.2052,-0.02877,1.22905,0.92939
339.786,20.2903,-0.02877,1.23283,0.92764
342.586,20.37546,-0.02877,1.23252,0.92588
345.386,20.46077,-0.03008945,1.23477,0.92412
348.186,20.54573,-0.03009,1.23587,0.92234
350.986,20.63136,-0.0314008,1.23794,0.92056
353.786,20.7164,-0.0314,1.23833,0.91877
356.586,20.80239,-0.0313999,1.24017,0.91697
359.386,20.88795,-0.03304836,1.24126,0.91517
362.186,20.9736,-0.03370994,1.24441,0.91335
364.986,21.0592,-0.03370977,1.2496,0.91153
367.786,21.14469,-0.03489013,1.25447,0.90971
370.586,21.23092,-0.03627303,1.26033,0.90787
373.386,21.31685,-0.03634,1.26711,0.90603
376.186,21.40278,-0.03686384,1.27357,0.90418
378.986,21.4889,-0.03831776,1.28136,0.90232
381.786,21.57501,-0.03961412,1.29278,0.90045
384.586,21.6612,-0.04097557,1.30909,0.89858
387.386,21.74745,-0.04360059,1.32314,0.8967
390.186,21.8334,-0.04524512,1.34188,0.89482
392.986,21.91992,-0.04928862,1.36025,0.89292
395.786,22.00677,-0.05182143,1.38329,0.89102
398.586,22.0933,-0.05719999,1.41123,0.88912
401.386,22.18,-0.0638996,1.44538,0.8872
404.186,22.26669,-0.07027246,1.48055,0.88528
406.986,22.35353,-0.08016148,1.51675,0.88336
409.786,22.4405,-0.09140919,1.55374,0.88142
412.586,22.52746,-0.1065,1.58659,0.87948
415.386,22.61457,-0.12588,1.62221,0.87754
418.186,22.70158,-0.14864,1.65123,0.87559
420.986,22.78866,-0.17507,1.68324,0.87363
423.786,22.87578,-0.20797,1.62484,0.87166
426.586,22.96317,-0.24614,1.5745,0.86969
429.386,23.05041,-0.29042,1.54894,0.86771
432.186,23.13788,-0.34237,1.52773,0.86573
434.986,23.22544,-0.39956,1.48905,0.86374
437.786,23.31273,-0.46269,1.44012,0.86174
440.586,23.40036,-0.53005,1.46839,0.85974
443.386,23.48818,-0.61906,1.58063,0.85774
446.186,23.57602,-0.72376,1.72825,0.85572
448.986,23.66403,-0.85125,1.90285,0.8537
451.786,23.75229,-1.00644,2.05695,0.85168
454.586,23.8405,-1.17402,2.17907,0.84965
457.386,23.92902,-1.36865,2.27619,0.84762
460.186,24.0174,-1.57524,2.33177,0.84558
462.986,24.10594,-1.79381,2.32572,0.84353
465.786,24.19444,-2.02614,2.25028,0.84148
468.586,24.28304,-2.23992,2.10558,0.83942
471.386,24.3716,-2.43007,1.90261,0.83736
474.186,24.45945,-2.59288,1.65458,0.83529
476.986,24.54797,-2.73122,1.40025,0.83322
479.786,24.63616,-2.83181,1.14873,0.83115
482.586,24.7244,-2.9076,0.92945,0.82906
485.386,24.8126,-2.967,0.72885,0.82698
488.186,24.90103,-3.00922,0.55662,0.82489
490.986,24.98941,-3.04467,0.41409,0.82279
493.786,25.0781,-3.07065,0.28667,0.82069
496.586,25.1666,-3.0916,0.18253,0.81858
499.386,25.2554,-3.10867,0.09791145,0.81648
502.186,25.34415,-3.12471,0.0308448,0.81436
504.986,25.43342,-3.13499,-0.0204051,0.81224
507.786,25.52235,-3.14475,-0.0583741,0.81012
510.586,25.61166,-3.15276,-0.08633608,0.80799
513.386,25.70091,-3.15957,-0.10766,0.80586
516.186,25.79022,-3.16303,-0.12092,0.80372
518.986,25.87995,-3.16824,-0.13505,0.80158
521.786,25.96964,-3.1717,-0.13059,0.79944
524.586,26.0594,-3.17626,-0.14142,0.79729
527.386,26.14924,-3.1785,-0.14801,0.79514
530.186,26.2391,-3.18174,-0.15301,0.79298
532.986,26.32913,-3.18444,-0.1571,0.79082
535.786,26.4192,-3.18571,-0.15633,0.78866
538.586,26.50948,-3.18836,-0.16157,0.78649
541.386,26.5997,-3.19097,-0.16422,0.78432
544.186,26.6902,-3.19204,-0.16747,0.78215
546.986,26.7805,-3.19332,-0.16861,0.77997
549.786,26.87088,-3.19493,-0.17243,0.77779
552.586,26.9615,-3.19625,-0.17873,0.7756
555.386,27.05177,-3.19756,-0.18069,0.77342
558.186,27.1425,-3.19888,-0.18371,0.77122
560.986,27.23312,-3.20019,-0.18678,0.76903
563.786,27.32384,-3.2021,-0.18787,0.76683
566.586,27.4146,-3.20349,-0.18882,0.76463
569.386,27.50546,-3.2048,-0.19387,0.76243
572.186,27.59641,-3.20745,-0.19622,0.76022
574.986,27.68719,-3.21007,-0.19561,0.75801
577.786,27.7782,-3.21157,-0.19996,0.7558
580.586,27.8691,-3.21337,-0.20162,0.75358
583.386,27.9605,-3.21469,-0.20432,0.75136
586.186,28.05139,-3.21619,-0.20655,0.74914
588.986,28.14278,-3.21864,-0.20886,0.74692
591.786,28.23415,-3.21996,-0.20966,0.74469
594.586,28.32555,-3.22225,-0.21113,0.74246
597.386,28.41692,-3.22352,-0.21472,0.74023
600.186,28.50815,-3.22489,-0.21779,0.73799
602.986,28.5996,-3.22882,-0.22159,0.73576
605.786,28.6911,-3.22973,-0.22266,0.73352
608.586,28.7827,-3.23049,-0.22533,0.73128
611.386,28.8744,-3.23324,-0.22266,0.72903
614.186,28.96603,-3.23454,-0.22353,0.72679
616.986,29.0578,-3.23587,-0.22703,0.72454
619.786,29.1493,-3.23861,-0.22495,0.72229
622.586,29.2411,-3.2396,-0.22472,0.72004
625.386,29.33305,-3.24224,-0.22907,0.71779
628.186,29.4246,-3.24561,-0.23218,0.71553
630.986,29.5167,-3.24608,-0.23529,0.71327
633.786,29.60851,-3.24748,-0.23706,0.71101
636.586,29.70062,-3.24885,-0.23684,0.70875
639.386,29.79267,-3.25146,-0.25703,0.70649
642.186,29.8845,-3.25161,-0.24486,0.70423
644.986,29.9766,-3.25278,-0.24363,0.70196
647.786,30.0686,-3.25552,-0.24237,0.69969
650.586,30.16067,-3.25684,-0.2327,0.69742
653.386,30.2529,-3.25816,-0.2353,0.69515
656.186,30.34511,-3.25947,-0.2406,0.69288
658.986,30.4372,-3.26079,-0.24169,0.69061
661.786,30.5294,-3.26178,-0.23881,0.68833
664.586,30.6213,-3.26392,-0.24035,0.68606
667.386,30.7138,-3.26513,-0.24124,0.68378
670.186,30.80612,-3.26705,-0.24443,0.6815
672.986,30.89815,-3.26837,-0.2488,0.67923
675.786,30.9907,-3.2697,-0.21016,0.67695
678.586,31.0831,-3.27001,-0.25381,0.67466
681.386,31.1755,-3.27001,-0.27789,0.67238
684.186,31.26773,-3.27133,-0.30053,0.6701
686.986,31.3603,-3.27265,-0.31114,0.66782
689.786,31.4528,-3.27394,-0.32039,0.66553
692.586,31.54532,-3.27501,-0.32868,0.66325
695.386,31.63792,-3.27528,-0.34487,0.66096
696.186,31.66452,-3.27528,-0.34836,0.66031