File: 01_Data/OSB/FTIR/IS/OSB_IS_REFLECT_MEAS_210623_R5.dpt
5996.41,0.53286
5977.12,0.52023
5957.84,0.52459
5938.55,0.52808
5919.26,0.52974
5899.97,0.52030
5880.69,0.52158
5861.4,0.52877
5842.11,0.52205
5822.82,0.51727
5803.54,0.51635
5784.25,0.51590
5764.96,0.51915
5745.68,0.52182
5726.39,0.52374
5707.1,0.52147
5687.81,0.51964
5668.53,0.51893
5649.24,0.51923
5629.95,0.51616
5610.66,0.51715
5591.38,0.51928
5572.09,0.53038
5552.8,0.52434
5533.52,0.52909
5514.23,0.52666
5494.94,0.52615
5475.65,0.53115
5456.37,0.54106
5437.08,0.53905
5417.79,0.54520
5398.5,0.54239
5379.22,0.54431
5359.93,0.54761
5340.64,0.53157
5321.36,0.52645
5302.07,0.51196
5282.78,0.47559
5263.49,0.42520
5244.21,0.39305
5224.92,0.36868
5205.63,0.35653
5186.34,0.35339
5167.06,0.35910
5147.77,0.36823
5128.48,0.38236
5109.2,0.38831
5089.91,0.39820
5070.62,0.40804
5051.33,0.42009
5032.05,0.42884
5012.76,0.43749
4993.47,0.44413
4974.18,0.44283
4954.9,0.44015
4935.61,0.43130
4916.32,0.42001
4897.04,0.40535
4877.75,0.39586
4858.46,0.38760
4839.17,0.37159
4819.89,0.36716
4800.6,0.36262
4781.31,0.36027
4762.02,0.35561
4742.74,0.35488
4723.45,0.35475
4704.16,0.35758
4684.88,0.35889
4665.59,0.36249
4646.3,0.36981
4627.01,0.37888
4607.73,0.38760
4588.44,0.39481
4569.15,0.40228
4549.87,0.40598
4530.58,0.41202
4511.29,0.41120
4492,0.40530
4472.72,0.39230
4453.43,0.37069
4434.14,0.35083
4414.85,0.33182
4395.57,0.32072
4376.28,0.32341
4356.99,0.32924
4337.71,0.32435
4318.42,0.31838
4299.13,0.31463
4279.84,0.30911
4260.56,0.31105
4241.27,0.31254
4221.98,0.31430
4202.69,0.31459
4183.41,0.31433
4164.12,0.31833
4144.83,0.31339
4125.55,0.30508
4106.26,0.29245
4086.97,0.27735
4067.68,0.26388
4048.4,0.24953
4029.11,0.23858
4009.82,0.23475
3990.53,0.23949
3971.25,0.24244
3951.96,0.24772
3932.67,0.25586
3913.39,0.26259
3894.1,0.26964
3874.81,0.27238
3855.52,0.27383
3836.24,0.28186
3816.95,0.28269
3797.66,0.28251
3778.37,0.27919
3759.09,0.27170
3739.8,0.25979
3720.51,0.24411
3701.23,0.21736
3681.94,0.17506
3662.65,0.12123
3643.36,0.08397
3624.08,0.06368
3604.79,0.05274
3585.5,0.04458
3566.21,0.03921
3546.93,0.03490
3527.64,0.03243
3508.35,0.03047
3489.07,0.02818
3469.78,0.02688
3450.49,0.02642
3431.2,0.02561
3411.92,0.02638
3392.63,0.02695
3373.34,0.02742
3354.05,0.02715
3334.77,0.02938
3315.48,0.03158
3296.19,0.03273
3276.91,0.03364
3257.62,0.03598
3238.33,0.03786
3219.04,0.04036
3199.76,0.04375
3180.47,0.04550
3161.18,0.04869
3141.89,0.05200
3122.61,0.05586
3103.32,0.05962
3084.03,0.06225
3064.75,0.06644
3045.46,0.06964
3026.17,0.07201
3006.88,0.07004
2987.6,0.06674
2968.31,0.05503
2949.02,0.04868
2929.74,0.04647
2910.45,0.04792
2891.16,0.04989
2871.87,0.05297
2852.59,0.05619
2833.3,0.06862
2814.01,0.08235
2794.72,0.09014
2775.44,0.09501
2756.15,0.09754
2736.86,0.09941
2717.58,0.10310
2698.29,0.10840
2679,0.11444
2659.71,0.11913
2640.43,0.12316
2621.14,0.12818
2601.85,0.13265
2582.56,0.13685
2563.28,0.13903
2543.99,0.14082
2524.7,0.14544
2505.42,0.15051
2486.13,0.15745
2466.84,0.16412
2447.55,0.16968
2428.27,0.17635
2408.98,0.18367
2389.69,0.18898
2370.4,0.18665
2351.12,0.18413
2331.83,0.18665
2312.54,0.19808
2293.26,0.19943
2273.97,0.19785
2254.68,0.19408
2235.39,0.19133
2216.11,0.18979
2196.82,0.18619
2177.53,0.17828
2158.24,0.17238
2138.96,0.16863
2119.67,0.16931
2100.38,0.17163
2081.1,0.17216
2061.81,0.16988
2042.52,0.17297
2023.23,0.18010
2003.95,0.18685
1984.66,0.19208
1965.37,0.19755
1946.08,0.20369
1926.8,0.20873
1907.51,0.21028
1888.22,0.20879
1868.94,0.20962
1849.65,0.20320
1830.36,0.19646
1811.07,0.18040
1791.79,0.15773
1772.5,0.12380
1753.21,0.07193
1733.92,0.05561
1714.64,0.06187
1695.35,0.06470
1676.06,0.05437
1656.78,0.04674
1637.49,0.04794
1618.2,0.04791
1598.91,0.04716
1579.63,0.05753
1560.34,0.07697
1541.05,0.07894
1521.76,0.05069
1502.48,0.04312
1483.19,0.04653
1463.9,0.03640
1444.62,0.03864
1425.33,0.03647
1406.04,0.04135
1386.75,0.03780
1367.47,0.03530
1348.18,0.03812
1328.89,0.03670
1309.61,0.03800
1290.32,0.03643
1271.03,0.03338
1251.74,0.03576
1232.46,0.03643
1213.17,0.03686
1193.88,0.03772
1174.59,0.03005
1155.31,0.03395
1136.02,0.03017
1116.73,0.02897
1097.45,0.03040
1078.16,0.03226
1058.87,0.04657
1039.58,0.04839
1020.3,0.05627
1001.01,0.06066
981.722,0.07038
962.434,0.08003
943.147,0.08487
923.86,0.08711
904.573,0.07557
885.285,0.07762
865.998,0.07709
846.711,0.08016
827.424,0.07424
808.136,0.06779
788.849,0.06787
769.562,0.06297
750.274,0.06002
730.987,0.05795
711.7,0.05557
692.413,0.05448
673.125,0.05125
653.838,0.05423
634.551,0.05136
615.264,0.05776
595.976,0.05919
576.689,0.06237
557.402,0.06278
538.115,0.06592
518.827,0.06757
499.54,0.07275
480.253,0.07609
460.966,0.06609
441.678,0.07229
422.391,0.07434
403.104,0.08753
399.246,0.08164