File: 01_Data/OSB/FTIR/IS/OSB_IS_REFLECT_MEAS_210623_R3.dpt
5996.41,0.47884
5977.12,0.47601
5957.84,0.47207
5938.55,0.47709
5919.26,0.47728
5899.97,0.46819
5880.69,0.47263
5861.4,0.47296
5842.11,0.46970
5822.82,0.47030
5803.54,0.46636
5784.25,0.47078
5764.96,0.47133
5745.68,0.47546
5726.39,0.47086
5707.1,0.46931
5687.81,0.46565
5668.53,0.46360
5649.24,0.46448
5629.95,0.46977
5610.66,0.46335
5591.38,0.47007
5572.09,0.47577
5552.8,0.47441
5533.52,0.47502
5514.23,0.47647
5494.94,0.47552
5475.65,0.48283
5456.37,0.48167
5437.08,0.48524
5417.79,0.49246
5398.5,0.48779
5379.22,0.48879
5359.93,0.49447
5340.64,0.47400
5321.36,0.46863
5302.07,0.44521
5282.78,0.40792
5263.49,0.36726
5244.21,0.33431
5224.92,0.31136
5205.63,0.29748
5186.34,0.29449
5167.06,0.30036
5147.77,0.31423
5128.48,0.32070
5109.2,0.32550
5089.91,0.33697
5070.62,0.34947
5051.33,0.36054
5032.05,0.36611
5012.76,0.37620
4993.47,0.37929
4974.18,0.37887
4954.9,0.38084
4935.61,0.36994
4916.32,0.35949
4897.04,0.35077
4877.75,0.33884
4858.46,0.32753
4839.17,0.31740
4819.89,0.30891
4800.6,0.30471
4781.31,0.30259
4762.02,0.29735
4742.74,0.29643
4723.45,0.29899
4704.16,0.30240
4684.88,0.30385
4665.59,0.30793
4646.3,0.31577
4627.01,0.32260
4607.73,0.33066
4588.44,0.33881
4569.15,0.34477
4549.87,0.35054
4530.58,0.35350
4511.29,0.35275
4492,0.34832
4472.72,0.33794
4453.43,0.31851
4434.14,0.29912
4414.85,0.27977
4395.57,0.27127
4376.28,0.27388
4356.99,0.27924
4337.71,0.27579
4318.42,0.26764
4299.13,0.26520
4279.84,0.25941
4260.56,0.26002
4241.27,0.26274
4221.98,0.26387
4202.69,0.26469
4183.41,0.26386
4164.12,0.26764
4144.83,0.26273
4125.55,0.25371
4106.26,0.24216
4086.97,0.22790
4067.68,0.21743
4048.4,0.20200
4029.11,0.19442
4009.82,0.19197
3990.53,0.19441
3971.25,0.19757
3951.96,0.20179
3932.67,0.20979
3913.39,0.21591
3894.1,0.22002
3874.81,0.22534
3855.52,0.22696
3836.24,0.23424
3816.95,0.23348
3797.66,0.22974
3778.37,0.22831
3759.09,0.22197
3739.8,0.21070
3720.51,0.19842
3701.23,0.17406
3681.94,0.13894
3662.65,0.09617
3643.36,0.06604
3624.08,0.05179
3604.79,0.04377
3585.5,0.03671
3566.21,0.03292
3546.93,0.03052
3527.64,0.02865
3508.35,0.02765
3489.07,0.02594
3469.78,0.02512
3450.49,0.02466
3431.2,0.02386
3411.92,0.02420
3392.63,0.02482
3373.34,0.02638
3354.05,0.02626
3334.77,0.02772
3315.48,0.02931
3296.19,0.03000
3276.91,0.03064
3257.62,0.03235
3238.33,0.03326
3219.04,0.03437
3199.76,0.03697
3180.47,0.03937
3161.18,0.04080
3141.89,0.04416
3122.61,0.04620
3103.32,0.04862
3084.03,0.05180
3064.75,0.05449
3045.46,0.05711
3026.17,0.05852
3006.88,0.05770
2987.6,0.05496
2968.31,0.04647
2949.02,0.04195
2929.74,0.03995
2910.45,0.04042
2891.16,0.04194
2871.87,0.04312
2852.59,0.04650
2833.3,0.05582
2814.01,0.06605
2794.72,0.07207
2775.44,0.07546
2756.15,0.07669
2736.86,0.07781
2717.58,0.08096
2698.29,0.08566
2679,0.09033
2659.71,0.09407
2640.43,0.09748
2621.14,0.10203
2601.85,0.10460
2582.56,0.10818
2563.28,0.11005
2543.99,0.11067
2524.7,0.11419
2505.42,0.11846
2486.13,0.12425
2466.84,0.12954
2447.55,0.13414
2428.27,0.13889
2408.98,0.14612
2389.69,0.14961
2370.4,0.14717
2351.12,0.14747
2331.83,0.14951
2312.54,0.15654
2293.26,0.15837
2273.97,0.15669
2254.68,0.15333
2235.39,0.15133
2216.11,0.15002
2196.82,0.14674
2177.53,0.14040
2158.24,0.13592
2138.96,0.13304
2119.67,0.13245
2100.38,0.13506
2081.1,0.13620
2061.81,0.13491
2042.52,0.13682
2023.23,0.14294
2003.95,0.14930
1984.66,0.15318
1965.37,0.15790
1946.08,0.16302
1926.8,0.16681
1907.51,0.16751
1888.22,0.16684
1868.94,0.16722
1849.65,0.16158
1830.36,0.15569
1811.07,0.14207
1791.79,0.12412
1772.5,0.09732
1753.21,0.05783
1733.92,0.04695
1714.64,0.05041
1695.35,0.05279
1676.06,0.04439
1656.78,0.03880
1637.49,0.04038
1618.2,0.04045
1598.91,0.03916
1579.63,0.04671
1560.34,0.05996
1541.05,0.05997
1521.76,0.04258
1502.48,0.03704
1483.19,0.03761
1463.9,0.03111
1444.62,0.03267
1425.33,0.03071
1406.04,0.03390
1386.75,0.03077
1367.47,0.03037
1348.18,0.03200
1328.89,0.03137
1309.61,0.03221
1290.32,0.03056
1271.03,0.02895
1251.74,0.03002
1232.46,0.03058
1213.17,0.03172
1193.88,0.03199
1174.59,0.02634
1155.31,0.02764
1136.02,0.02521
1116.73,0.02362
1097.45,0.02684
1078.16,0.02785
1058.87,0.04132
1039.58,0.04251
1020.3,0.04791
1001.01,0.05029
981.722,0.05656
962.434,0.06219
943.147,0.06484
923.86,0.06746
904.573,0.05971
885.285,0.06075
865.998,0.06082
846.711,0.05992
827.424,0.05481
808.136,0.04978
788.849,0.04975
769.562,0.04766
750.274,0.04624
730.987,0.04333
711.7,0.04037
692.413,0.03994
673.125,0.03772
653.838,0.04022
634.551,0.04005
615.264,0.04118
595.976,0.04260
576.689,0.04458
557.402,0.04508
538.115,0.04705
518.827,0.05638
499.54,0.05270
480.253,0.06063
460.966,0.05479
441.678,0.04763
422.391,0.07009
403.104,0.08090
399.246,0.08943