File: 01_Data/OSB/FTIR/IS/OSB_IS_REFLECT_MEAS_210623_R6.dpt
5996.41,0.52916
5977.12,0.52168
5957.84,0.52920
5938.55,0.53664
5919.26,0.53182
5899.97,0.52294
5880.69,0.52486
5861.4,0.52518
5842.11,0.52493
5822.82,0.52268
5803.54,0.52411
5784.25,0.52164
5764.96,0.52175
5745.68,0.52792
5726.39,0.52386
5707.1,0.52112
5687.81,0.52222
5668.53,0.52833
5649.24,0.51905
5629.95,0.52269
5610.66,0.52061
5591.38,0.52620
5572.09,0.53163
5552.8,0.53042
5533.52,0.53585
5514.23,0.52896
5494.94,0.52941
5475.65,0.53420
5456.37,0.53921
5437.08,0.54395
5417.79,0.54738
5398.5,0.54767
5379.22,0.54404
5359.93,0.54887
5340.64,0.53306
5321.36,0.52557
5302.07,0.51223
5282.78,0.47278
5263.49,0.42983
5244.21,0.39576
5224.92,0.36920
5205.63,0.36097
5186.34,0.35385
5167.06,0.36180
5147.77,0.37088
5128.48,0.38600
5109.2,0.39245
5089.91,0.39997
5070.62,0.41219
5051.33,0.42433
5032.05,0.43429
5012.76,0.44072
4993.47,0.44546
4974.18,0.44488
4954.9,0.44480
4935.61,0.43274
4916.32,0.42399
4897.04,0.41036
4877.75,0.39965
4858.46,0.38756
4839.17,0.37852
4819.89,0.36940
4800.6,0.36501
4781.31,0.36053
4762.02,0.35820
4742.74,0.35693
4723.45,0.35836
4704.16,0.36102
4684.88,0.36207
4665.59,0.36713
4646.3,0.37277
4627.01,0.38217
4607.73,0.39058
4588.44,0.40024
4569.15,0.40603
4549.87,0.40955
4530.58,0.41577
4511.29,0.41307
4492,0.40713
4472.72,0.39272
4453.43,0.37490
4434.14,0.35427
4414.85,0.33143
4395.57,0.32296
4376.28,0.32681
4356.99,0.33246
4337.71,0.32722
4318.42,0.32138
4299.13,0.31558
4279.84,0.31289
4260.56,0.31438
4241.27,0.31722
4221.98,0.31665
4202.69,0.31584
4183.41,0.31847
4164.12,0.32134
4144.83,0.31788
4125.55,0.30889
4106.26,0.29510
4086.97,0.27973
4067.68,0.26807
4048.4,0.25330
4029.11,0.24252
4009.82,0.23867
3990.53,0.24238
3971.25,0.24635
3951.96,0.25056
3932.67,0.25859
3913.39,0.26615
3894.1,0.27020
3874.81,0.27645
3855.52,0.27796
3836.24,0.28550
3816.95,0.28423
3797.66,0.28352
3778.37,0.28174
3759.09,0.27319
3739.8,0.26005
3720.51,0.24537
3701.23,0.22055
3681.94,0.17831
3662.65,0.12458
3643.36,0.08549
3624.08,0.06529
3604.79,0.05322
3585.5,0.04560
3566.21,0.04056
3546.93,0.03583
3527.64,0.03234
3508.35,0.02974
3489.07,0.02827
3469.78,0.02717
3450.49,0.02596
3431.2,0.02626
3411.92,0.02505
3392.63,0.02687
3373.34,0.02601
3354.05,0.02767
3334.77,0.02802
3315.48,0.03062
3296.19,0.03226
3276.91,0.03341
3257.62,0.03495
3238.33,0.03722
3219.04,0.04061
3199.76,0.04343
3180.47,0.04706
3161.18,0.05042
3141.89,0.05385
3122.61,0.05804
3103.32,0.06211
3084.03,0.06609
3064.75,0.06941
3045.46,0.07414
3026.17,0.07675
3006.88,0.07458
2987.6,0.07002
2968.31,0.05788
2949.02,0.05033
2929.74,0.04681
2910.45,0.04919
2891.16,0.05083
2871.87,0.05384
2852.59,0.05765
2833.3,0.07195
2814.01,0.08622
2794.72,0.09514
2775.44,0.09921
2756.15,0.10318
2736.86,0.10482
2717.58,0.10847
2698.29,0.11436
2679,0.11995
2659.71,0.12497
2640.43,0.12940
2621.14,0.13467
2601.85,0.13870
2582.56,0.14294
2563.28,0.14550
2543.99,0.14676
2524.7,0.15089
2505.42,0.15602
2486.13,0.16399
2466.84,0.16944
2447.55,0.17595
2428.27,0.18200
2408.98,0.18956
2389.69,0.19472
2370.4,0.19052
2351.12,0.18795
2331.83,0.19133
2312.54,0.20280
2293.26,0.20418
2273.97,0.20104
2254.68,0.19750
2235.39,0.19526
2216.11,0.19338
2196.82,0.18858
2177.53,0.18130
2158.24,0.17458
2138.96,0.17128
2119.67,0.17099
2100.38,0.17382
2081.1,0.17445
2061.81,0.17169
2042.52,0.17497
2023.23,0.18205
2003.95,0.18873
1984.66,0.19438
1965.37,0.19961
1946.08,0.20602
1926.8,0.21037
1907.51,0.21231
1888.22,0.21120
1868.94,0.21219
1849.65,0.20571
1830.36,0.19980
1811.07,0.18431
1791.79,0.16289
1772.5,0.12779
1753.21,0.07245
1733.92,0.05613
1714.64,0.06432
1695.35,0.06838
1676.06,0.05629
1656.78,0.04736
1637.49,0.04964
1618.2,0.04873
1598.91,0.04889
1579.63,0.05884
1560.34,0.07975
1541.05,0.07947
1521.76,0.05064
1502.48,0.04350
1483.19,0.04762
1463.9,0.03707
1444.62,0.03854
1425.33,0.03656
1406.04,0.04155
1386.75,0.03748
1367.47,0.03554
1348.18,0.03824
1328.89,0.03707
1309.61,0.03874
1290.32,0.03631
1271.03,0.03284
1251.74,0.03556
1232.46,0.03662
1213.17,0.03724
1193.88,0.03800
1174.59,0.03042
1155.31,0.03190
1136.02,0.02955
1116.73,0.02874
1097.45,0.03159
1078.16,0.03274
1058.87,0.04526
1039.58,0.04698
1020.3,0.05657
1001.01,0.06229
981.722,0.07432
962.434,0.07937
943.147,0.08472
923.86,0.08815
904.573,0.07816
885.285,0.08028
865.998,0.07975
846.711,0.08220
827.424,0.07716
808.136,0.07103
788.849,0.07079
769.562,0.06811
750.274,0.06403
730.987,0.05978
711.7,0.05614
692.413,0.05644
673.125,0.05119
653.838,0.05417
634.551,0.05156
615.264,0.05372
595.976,0.05649
576.689,0.05886
557.402,0.06518
538.115,0.06543
518.827,0.06702
499.54,0.06876
480.253,0.07183
460.966,0.07384
441.678,0.08015
422.391,0.07678
403.104,0.08186
399.246,0.08642