File: 01_Data/OSB/FTIR/IS/OSB_IS_REFLECT_MEAS_210623_R2.dpt
5996.41,0.45695
5977.12,0.45054
5957.84,0.45070
5938.55,0.45230
5919.26,0.45874
5899.97,0.44972
5880.69,0.44798
5861.4,0.44868
5842.11,0.44703
5822.82,0.44415
5803.54,0.43922
5784.25,0.44251
5764.96,0.44057
5745.68,0.45115
5726.39,0.45639
5707.1,0.44112
5687.81,0.44603
5668.53,0.43893
5649.24,0.44045
5629.95,0.44485
5610.66,0.44279
5591.38,0.44527
5572.09,0.44526
5552.8,0.45206
5533.52,0.45002
5514.23,0.44930
5494.94,0.44448
5475.65,0.45236
5456.37,0.46200
5437.08,0.46072
5417.79,0.46902
5398.5,0.46352
5379.22,0.46506
5359.93,0.46649
5340.64,0.44957
5321.36,0.44272
5302.07,0.42450
5282.78,0.39381
5263.49,0.34594
5244.21,0.31294
5224.92,0.29218
5205.63,0.28189
5186.34,0.27972
5167.06,0.28318
5147.77,0.29311
5128.48,0.30075
5109.2,0.31127
5089.91,0.32115
5070.62,0.32864
5051.33,0.34073
5032.05,0.34684
5012.76,0.35375
4993.47,0.36044
4974.18,0.35872
4954.9,0.35530
4935.61,0.34728
4916.32,0.33799
4897.04,0.32590
4877.75,0.31291
4858.46,0.30218
4839.17,0.29460
4819.89,0.28386
4800.6,0.28062
4781.31,0.27582
4762.02,0.27284
4742.74,0.27447
4723.45,0.27474
4704.16,0.27608
4684.88,0.27978
4665.59,0.28453
4646.3,0.28801
4627.01,0.29743
4607.73,0.30690
4588.44,0.31304
4569.15,0.31981
4549.87,0.32374
4530.58,0.32835
4511.29,0.32771
4492,0.32320
4472.72,0.31111
4453.43,0.29562
4434.14,0.27538
4414.85,0.25531
4395.57,0.24817
4376.28,0.25108
4356.99,0.25627
4337.71,0.25189
4318.42,0.24735
4299.13,0.24375
4279.84,0.23837
4260.56,0.24121
4241.27,0.24244
4221.98,0.24298
4202.69,0.24304
4183.41,0.24354
4164.12,0.24614
4144.83,0.24221
4125.55,0.23408
4106.26,0.22392
4086.97,0.21022
4067.68,0.19818
4048.4,0.18496
4029.11,0.17687
4009.82,0.17523
3990.53,0.17880
3971.25,0.18151
3951.96,0.18424
3932.67,0.19176
3913.39,0.19757
3894.1,0.20254
3874.81,0.20619
3855.52,0.20479
3836.24,0.21510
3816.95,0.21289
3797.66,0.21209
3778.37,0.21051
3759.09,0.20407
3739.8,0.19417
3720.51,0.18309
3701.23,0.16320
3681.94,0.13062
3662.65,0.09173
3643.36,0.06396
3624.08,0.04990
3604.79,0.04360
3585.5,0.03769
3566.21,0.03269
3546.93,0.02990
3527.64,0.02811
3508.35,0.02666
3489.07,0.02527
3469.78,0.02453
3450.49,0.02356
3431.2,0.02439
3411.92,0.02418
3392.63,0.02581
3373.34,0.02539
3354.05,0.02691
3334.77,0.02832
3315.48,0.02779
3296.19,0.02977
3276.91,0.03157
3257.62,0.03291
3238.33,0.03370
3219.04,0.03531
3199.76,0.03717
3180.47,0.03973
3161.18,0.04165
3141.89,0.04423
3122.61,0.04717
3103.32,0.04856
3084.03,0.05129
3064.75,0.05383
3045.46,0.05577
3026.17,0.05851
3006.88,0.05697
2987.6,0.05359
2968.31,0.04537
2949.02,0.04170
2929.74,0.03921
2910.45,0.03976
2891.16,0.04148
2871.87,0.04292
2852.59,0.04708
2833.3,0.05429
2814.01,0.06301
2794.72,0.06834
2775.44,0.07104
2756.15,0.07314
2736.86,0.07419
2717.58,0.07678
2698.29,0.08071
2679,0.08438
2659.71,0.08772
2640.43,0.09062
2621.14,0.09435
2601.85,0.09729
2582.56,0.09934
2563.28,0.10107
2543.99,0.10217
2524.7,0.10480
2505.42,0.10819
2486.13,0.11380
2466.84,0.11783
2447.55,0.12216
2428.27,0.12757
2408.98,0.13234
2389.69,0.13637
2370.4,0.13243
2351.12,0.13244
2331.83,0.13584
2312.54,0.14315
2293.26,0.14419
2273.97,0.14265
2254.68,0.14027
2235.39,0.13838
2216.11,0.13763
2196.82,0.13461
2177.53,0.12973
2158.24,0.12445
2138.96,0.12167
2119.67,0.12240
2100.38,0.12368
2081.1,0.12510
2061.81,0.12397
2042.52,0.12562
2023.23,0.13074
2003.95,0.13595
1984.66,0.14011
1965.37,0.14399
1946.08,0.14908
1926.8,0.15243
1907.51,0.15361
1888.22,0.15314
1868.94,0.15278
1849.65,0.14808
1830.36,0.14313
1811.07,0.13265
1791.79,0.11702
1772.5,0.09351
1753.21,0.05776
1733.92,0.04733
1714.64,0.05003
1695.35,0.05333
1676.06,0.04632
1656.78,0.04093
1637.49,0.04203
1618.2,0.04128
1598.91,0.04002
1579.63,0.04760
1560.34,0.06100
1541.05,0.06232
1521.76,0.03966
1502.48,0.03593
1483.19,0.03865
1463.9,0.03191
1444.62,0.03364
1425.33,0.03141
1406.04,0.03542
1386.75,0.03184
1367.47,0.03141
1348.18,0.03290
1328.89,0.03129
1309.61,0.03275
1290.32,0.03081
1271.03,0.03030
1251.74,0.03218
1232.46,0.03230
1213.17,0.03390
1193.88,0.03372
1174.59,0.02720
1155.31,0.02879
1136.02,0.02717
1116.73,0.02574
1097.45,0.02896
1078.16,0.02935
1058.87,0.04290
1039.58,0.04479
1020.3,0.05181
1001.01,0.05316
981.722,0.05879
962.434,0.06341
943.147,0.06647
923.86,0.06792
904.573,0.06105
885.285,0.06205
865.998,0.06250
846.711,0.06342
827.424,0.05799
808.136,0.05245
788.849,0.05374
769.562,0.05059
750.274,0.04674
730.987,0.04448
711.7,0.04223
692.413,0.03922
673.125,0.04120
653.838,0.04260
634.551,0.04116
615.264,0.04186
595.976,0.04163
576.689,0.04727
557.402,0.04672
538.115,0.04178
518.827,0.05408
499.54,0.05284
480.253,0.05709
460.966,0.04808
441.678,0.05005
422.391,0.05680
403.104,0.04952
399.246,0.04281