File: 01_Data/OSB/FTIR/IS/OSB_IS_REFLECT_MEAS_210623_R7.dpt
5996.41,0.47993
5977.12,0.47510
5957.84,0.47021
5938.55,0.47024
5919.26,0.47789
5899.97,0.47069
5880.69,0.46477
5861.4,0.47118
5842.11,0.46506
5822.82,0.47470
5803.54,0.46468
5784.25,0.46769
5764.96,0.47200
5745.68,0.46993
5726.39,0.47119
5707.1,0.46560
5687.81,0.46751
5668.53,0.46994
5649.24,0.46601
5629.95,0.47081
5610.66,0.46518
5591.38,0.47312
5572.09,0.47683
5552.8,0.47207
5533.52,0.47714
5514.23,0.47255
5494.94,0.47458
5475.65,0.47689
5456.37,0.48410
5437.08,0.48897
5417.79,0.49021
5398.5,0.49046
5379.22,0.48883
5359.93,0.49228
5340.64,0.47434
5321.36,0.46943
5302.07,0.45253
5282.78,0.41255
5263.49,0.36505
5244.21,0.33205
5224.92,0.30955
5205.63,0.30314
5186.34,0.29823
5167.06,0.30465
5147.77,0.31130
5128.48,0.32666
5109.2,0.32800
5089.91,0.34076
5070.62,0.35092
5051.33,0.36135
5032.05,0.37182
5012.76,0.37720
4993.47,0.38168
4974.18,0.38422
4954.9,0.38373
4935.61,0.37274
4916.32,0.36383
4897.04,0.35195
4877.75,0.34194
4858.46,0.33053
4839.17,0.32109
4819.89,0.31164
4800.6,0.30985
4781.31,0.30656
4762.02,0.30309
4742.74,0.30352
4723.45,0.30456
4704.16,0.30642
4684.88,0.30660
4665.59,0.31082
4646.3,0.31869
4627.01,0.32450
4607.73,0.33428
4588.44,0.34145
4569.15,0.34516
4549.87,0.35155
4530.58,0.35718
4511.29,0.35398
4492,0.34867
4472.72,0.33822
4453.43,0.31771
4434.14,0.29881
4414.85,0.27861
4395.57,0.26973
4376.28,0.27289
4356.99,0.27502
4337.71,0.27394
4318.42,0.26843
4299.13,0.26392
4279.84,0.25934
4260.56,0.26015
4241.27,0.26321
4221.98,0.26309
4202.69,0.26409
4183.41,0.26423
4164.12,0.26858
4144.83,0.26266
4125.55,0.25477
4106.26,0.24390
4086.97,0.22941
4067.68,0.21755
4048.4,0.20364
4029.11,0.19637
4009.82,0.19260
3990.53,0.19594
3971.25,0.19872
3951.96,0.20322
3932.67,0.20965
3913.39,0.21574
3894.1,0.21940
3874.81,0.22384
3855.52,0.22648
3836.24,0.23038
3816.95,0.23098
3797.66,0.22997
3778.37,0.22802
3759.09,0.22089
3739.8,0.21020
3720.51,0.19610
3701.23,0.17357
3681.94,0.13707
3662.65,0.09365
3643.36,0.06500
3624.08,0.05086
3604.79,0.04232
3585.5,0.03727
3566.21,0.03491
3546.93,0.03070
3527.64,0.02837
3508.35,0.02722
3489.07,0.02587
3469.78,0.02535
3450.49,0.02442
3431.2,0.02427
3411.92,0.02428
3392.63,0.02433
3373.34,0.02516
3354.05,0.02567
3334.77,0.02802
3315.48,0.02834
3296.19,0.02874
3276.91,0.03033
3257.62,0.03172
3238.33,0.03362
3219.04,0.03551
3199.76,0.03748
3180.47,0.03982
3161.18,0.04250
3141.89,0.04378
3122.61,0.04665
3103.32,0.04941
3084.03,0.05302
3064.75,0.05485
3045.46,0.05715
3026.17,0.05884
3006.88,0.05758
2987.6,0.05533
2968.31,0.04781
2949.02,0.04382
2929.74,0.04154
2910.45,0.04186
2891.16,0.04293
2871.87,0.04599
2852.59,0.04882
2833.3,0.05736
2814.01,0.06594
2794.72,0.07177
2775.44,0.07530
2756.15,0.07709
2736.86,0.07818
2717.58,0.08129
2698.29,0.08538
2679,0.08908
2659.71,0.09289
2640.43,0.09552
2621.14,0.09949
2601.85,0.10225
2582.56,0.10576
2563.28,0.10706
2543.99,0.10874
2524.7,0.11148
2505.42,0.11614
2486.13,0.12137
2466.84,0.12525
2447.55,0.13039
2428.27,0.13460
2408.98,0.14052
2389.69,0.14442
2370.4,0.14158
2351.12,0.14186
2331.83,0.14402
2312.54,0.15242
2293.26,0.15275
2273.97,0.15106
2254.68,0.14888
2235.39,0.14725
2216.11,0.14608
2196.82,0.14323
2177.53,0.13799
2158.24,0.13337
2138.96,0.13027
2119.67,0.13070
2100.38,0.13208
2081.1,0.13303
2061.81,0.13146
2042.52,0.13302
2023.23,0.13806
2003.95,0.14354
1984.66,0.14760
1965.37,0.15151
1946.08,0.15576
1926.8,0.15888
1907.51,0.16042
1888.22,0.15887
1868.94,0.15871
1849.65,0.15356
1830.36,0.14719
1811.07,0.13614
1791.79,0.11905
1772.5,0.09472
1753.21,0.05691
1733.92,0.04527
1714.64,0.04974
1695.35,0.05091
1676.06,0.04429
1656.78,0.03779
1637.49,0.03934
1618.2,0.03827
1598.91,0.03846
1579.63,0.04542
1560.34,0.06097
1541.05,0.06280
1521.76,0.03948
1502.48,0.03551
1483.19,0.03712
1463.9,0.03134
1444.62,0.03244
1425.33,0.03113
1406.04,0.03430
1386.75,0.03151
1367.47,0.03121
1348.18,0.03260
1328.89,0.03192
1309.61,0.03251
1290.32,0.03202
1271.03,0.02930
1251.74,0.03237
1232.46,0.03226
1213.17,0.03445
1193.88,0.03510
1174.59,0.02812
1155.31,0.03021
1136.02,0.02782
1116.73,0.02801
1097.45,0.02954
1078.16,0.03021
1058.87,0.03911
1039.58,0.04161
1020.3,0.04812
1001.01,0.05131
981.722,0.05919
962.434,0.06416
943.147,0.06636
923.86,0.06935
904.573,0.06220
885.285,0.06414
865.998,0.06399
846.711,0.06439
827.424,0.05878
808.136,0.05422
788.849,0.05468
769.562,0.05274
750.274,0.05086
730.987,0.04932
711.7,0.04603
692.413,0.04478
673.125,0.04356
653.838,0.04733
634.551,0.04370
615.264,0.04362
595.976,0.04899
576.689,0.05364
557.402,0.05154
538.115,0.05547
518.827,0.05517
499.54,0.05965
480.253,0.05780
460.966,0.06236
441.678,0.06394
422.391,0.06406
403.104,0.05955
399.246,0.06500