File: 01_Data/OSB/FTIR/IS/OSB_IS_REFLECT_MEAS_210623_R4.dpt
5996.41,0.44809
5977.12,0.44854
5957.84,0.44238
5938.55,0.45447
5919.26,0.44498
5899.97,0.43918
5880.69,0.44073
5861.4,0.44023
5842.11,0.44942
5822.82,0.44252
5803.54,0.43879
5784.25,0.44558
5764.96,0.44064
5745.68,0.45066
5726.39,0.44510
5707.1,0.44090
5687.81,0.44226
5668.53,0.43613
5649.24,0.43679
5629.95,0.44501
5610.66,0.43777
5591.38,0.44179
5572.09,0.44835
5552.8,0.44883
5533.52,0.45055
5514.23,0.44737
5494.94,0.44373
5475.65,0.44739
5456.37,0.45498
5437.08,0.46314
5417.79,0.46285
5398.5,0.46399
5379.22,0.46260
5359.93,0.46958
5340.64,0.44994
5321.36,0.44196
5302.07,0.42724
5282.78,0.39146
5263.49,0.34685
5244.21,0.31688
5224.92,0.29336
5205.63,0.28630
5186.34,0.28324
5167.06,0.29100
5147.77,0.29796
5128.48,0.30766
5109.2,0.31488
5089.91,0.32211
5070.62,0.33710
5051.33,0.34319
5032.05,0.35039
5012.76,0.35776
4993.47,0.36360
4974.18,0.36321
4954.9,0.36103
4935.61,0.35435
4916.32,0.34148
4897.04,0.33449
4877.75,0.31856
4858.46,0.31247
4839.17,0.30020
4819.89,0.29326
4800.6,0.28803
4781.31,0.28493
4762.02,0.28346
4742.74,0.28235
4723.45,0.28162
4704.16,0.28494
4684.88,0.28745
4665.59,0.29079
4646.3,0.29711
4627.01,0.30588
4607.73,0.31272
4588.44,0.31864
4569.15,0.32681
4549.87,0.33199
4530.58,0.33535
4511.29,0.33409
4492,0.32803
4472.72,0.31981
4453.43,0.30051
4434.14,0.28201
4414.85,0.26279
4395.57,0.25329
4376.28,0.25675
4356.99,0.26139
4337.71,0.25814
4318.42,0.25188
4299.13,0.24770
4279.84,0.24581
4260.56,0.24650
4241.27,0.24879
4221.98,0.24836
4202.69,0.24979
4183.41,0.24894
4164.12,0.25272
4144.83,0.24650
4125.55,0.24066
4106.26,0.22895
4086.97,0.21565
4067.68,0.20481
4048.4,0.19187
4029.11,0.18328
4009.82,0.18187
3990.53,0.18463
3971.25,0.18766
3951.96,0.19161
3932.67,0.19891
3913.39,0.20359
3894.1,0.20976
3874.81,0.21331
3855.52,0.21620
3836.24,0.22097
3816.95,0.22120
3797.66,0.22052
3778.37,0.21732
3759.09,0.21194
3739.8,0.20245
3720.51,0.18960
3701.23,0.16836
3681.94,0.13372
3662.65,0.09305
3643.36,0.06338
3624.08,0.04727
3604.79,0.03872
3585.5,0.03279
3566.21,0.02960
3546.93,0.02675
3527.64,0.02538
3508.35,0.02334
3489.07,0.02184
3469.78,0.02142
3450.49,0.02024
3431.2,0.02072
3411.92,0.02054
3392.63,0.02001
3373.34,0.02136
3354.05,0.02181
3334.77,0.02317
3315.48,0.02524
3296.19,0.02479
3276.91,0.02543
3257.62,0.02799
3238.33,0.02887
3219.04,0.03037
3199.76,0.03206
3180.47,0.03362
3161.18,0.03662
3141.89,0.03950
3122.61,0.04196
3103.32,0.04450
3084.03,0.04651
3064.75,0.04937
3045.46,0.05220
3026.17,0.05380
3006.88,0.05238
2987.6,0.04920
2968.31,0.04047
2949.02,0.03690
2929.74,0.03440
2910.45,0.03505
2891.16,0.03606
2871.87,0.03813
2852.59,0.04046
2833.3,0.04997
2814.01,0.06023
2794.72,0.06590
2775.44,0.06963
2756.15,0.07187
2736.86,0.07245
2717.58,0.07479
2698.29,0.07936
2679,0.08362
2659.71,0.08660
2640.43,0.08973
2621.14,0.09316
2601.85,0.09638
2582.56,0.09914
2563.28,0.10094
2543.99,0.10214
2524.7,0.10564
2505.42,0.10905
2486.13,0.11484
2466.84,0.11938
2447.55,0.12392
2428.27,0.12920
2408.98,0.13456
2389.69,0.13915
2370.4,0.13535
2351.12,0.13769
2331.83,0.13921
2312.54,0.14720
2293.26,0.14729
2273.97,0.14642
2254.68,0.14389
2235.39,0.14177
2216.11,0.14099
2196.82,0.13783
2177.53,0.13204
2158.24,0.12754
2138.96,0.12457
2119.67,0.12505
2100.38,0.12720
2081.1,0.12802
2061.81,0.12628
2042.52,0.12832
2023.23,0.13346
2003.95,0.13906
1984.66,0.14324
1965.37,0.14698
1946.08,0.15191
1926.8,0.15504
1907.51,0.15607
1888.22,0.15600
1868.94,0.15578
1849.65,0.15050
1830.36,0.14539
1811.07,0.13310
1791.79,0.11607
1772.5,0.09119
1753.21,0.05394
1733.92,0.04234
1714.64,0.04670
1695.35,0.04783
1676.06,0.04071
1656.78,0.03491
1637.49,0.03557
1618.2,0.03588
1598.91,0.03553
1579.63,0.04296
1560.34,0.05775
1541.05,0.05663
1521.76,0.03625
1502.48,0.03165
1483.19,0.03476
1463.9,0.02793
1444.62,0.02843
1425.33,0.02714
1406.04,0.03040
1386.75,0.02780
1367.47,0.02618
1348.18,0.02876
1328.89,0.02674
1309.61,0.02774
1290.32,0.02649
1271.03,0.02517
1251.74,0.02655
1232.46,0.02760
1213.17,0.02766
1193.88,0.02904
1174.59,0.02339
1155.31,0.02440
1136.02,0.02197
1116.73,0.02226
1097.45,0.02297
1078.16,0.02461
1058.87,0.03341
1039.58,0.03523
1020.3,0.04195
1001.01,0.04304
981.722,0.05046
962.434,0.05334
943.147,0.05918
923.86,0.06062
904.573,0.05253
885.285,0.05387
865.998,0.05413
846.711,0.05634
827.424,0.05050
808.136,0.04593
788.849,0.04703
769.562,0.04310
750.274,0.04179
730.987,0.03946
711.7,0.03673
692.413,0.03589
673.125,0.03461
653.838,0.03583
634.551,0.03617
615.264,0.03495
595.976,0.03726
576.689,0.04080
557.402,0.03989
538.115,0.04210
518.827,0.04564
499.54,0.05116
480.253,0.05264
460.966,0.04164
441.678,0.04775
422.391,0.06360
403.104,0.06618
399.246,0.05998