File: 01_Data/OSB/FTIR/IS/OSB_IS_REFLECT_MEAS_210623_R1.dpt
5996.41,0.47369
5977.12,0.46747
5957.84,0.47681
5938.55,0.48475
5919.26,0.47651
5899.97,0.46185
5880.69,0.47332
5861.4,0.47117
5842.11,0.46639
5822.82,0.46702
5803.54,0.46412
5784.25,0.46336
5764.96,0.46532
5745.68,0.46395
5726.39,0.46439
5707.1,0.46128
5687.81,0.46087
5668.53,0.45933
5649.24,0.45959
5629.95,0.45791
5610.66,0.45725
5591.38,0.46307
5572.09,0.46923
5552.8,0.46755
5533.52,0.47197
5514.23,0.47305
5494.94,0.47013
5475.65,0.47450
5456.37,0.47845
5437.08,0.47961
5417.79,0.48284
5398.5,0.48346
5379.22,0.48056
5359.93,0.48758
5340.64,0.46682
5321.36,0.46299
5302.07,0.44405
5282.78,0.40695
5263.49,0.36083
5244.21,0.32922
5224.92,0.30713
5205.63,0.29824
5186.34,0.29429
5167.06,0.29846
5147.77,0.30657
5128.48,0.32114
5109.2,0.32870
5089.91,0.33542
5070.62,0.34413
5051.33,0.35588
5032.05,0.35956
5012.76,0.37195
4993.47,0.37527
4974.18,0.37922
4954.9,0.37516
4935.61,0.36530
4916.32,0.35709
4897.04,0.34792
4877.75,0.33491
4858.46,0.32445
4839.17,0.31279
4819.89,0.30582
4800.6,0.30046
4781.31,0.29832
4762.02,0.29329
4742.74,0.29565
4723.45,0.29921
4704.16,0.30145
4684.88,0.30225
4665.59,0.30690
4646.3,0.30904
4627.01,0.31901
4607.73,0.32505
4588.44,0.33485
4569.15,0.34033
4549.87,0.34749
4530.58,0.35091
4511.29,0.34935
4492,0.34564
4472.72,0.33338
4453.43,0.31432
4434.14,0.29476
4414.85,0.27541
4395.57,0.26730
4376.28,0.27127
4356.99,0.27456
4337.71,0.27072
4318.42,0.26403
4299.13,0.25919
4279.84,0.25650
4260.56,0.25733
4241.27,0.26064
4221.98,0.26163
4202.69,0.26086
4183.41,0.26182
4164.12,0.26414
4144.83,0.26021
4125.55,0.25310
4106.26,0.23975
4086.97,0.22765
4067.68,0.21355
4048.4,0.19815
4029.11,0.19192
4009.82,0.18901
3990.53,0.19256
3971.25,0.19490
3951.96,0.19980
3932.67,0.20687
3913.39,0.21262
3894.1,0.21617
3874.81,0.22080
3855.52,0.22201
3836.24,0.23007
3816.95,0.22726
3797.66,0.22824
3778.37,0.22608
3759.09,0.21849
3739.8,0.20612
3720.51,0.19554
3701.23,0.17270
3681.94,0.13654
3662.65,0.09343
3643.36,0.06556
3624.08,0.04972
3604.79,0.04212
3585.5,0.03606
3566.21,0.03380
3546.93,0.02991
3527.64,0.02972
3508.35,0.02705
3489.07,0.02580
3469.78,0.02474
3450.49,0.02352
3431.2,0.02395
3411.92,0.02481
3392.63,0.02563
3373.34,0.02483
3354.05,0.02598
3334.77,0.02661
3315.48,0.02802
3296.19,0.02811
3276.91,0.02998
3257.62,0.03200
3238.33,0.03327
3219.04,0.03412
3199.76,0.03650
3180.47,0.03860
3161.18,0.04071
3141.89,0.04251
3122.61,0.04483
3103.32,0.04855
3084.03,0.04993
3064.75,0.05334
3045.46,0.05576
3026.17,0.05687
3006.88,0.05647
2987.6,0.05358
2968.31,0.04520
2949.02,0.04024
2929.74,0.03896
2910.45,0.03983
2891.16,0.03979
2871.87,0.04325
2852.59,0.04588
2833.3,0.05467
2814.01,0.06371
2794.72,0.06992
2775.44,0.07304
2756.15,0.07472
2736.86,0.07648
2717.58,0.07833
2698.29,0.08307
2679,0.08759
2659.71,0.09125
2640.43,0.09436
2621.14,0.09889
2601.85,0.10231
2582.56,0.10445
2563.28,0.10618
2543.99,0.10781
2524.7,0.11036
2505.42,0.11430
2486.13,0.12018
2466.84,0.12545
2447.55,0.12997
2428.27,0.13572
2408.98,0.14078
2389.69,0.14447
2370.4,0.14226
2351.12,0.14243
2331.83,0.14364
2312.54,0.15134
2293.26,0.15311
2273.97,0.15191
2254.68,0.14825
2235.39,0.14711
2216.11,0.14562
2196.82,0.14266
2177.53,0.13690
2158.24,0.13179
2138.96,0.12930
2119.67,0.12962
2100.38,0.13105
2081.1,0.13294
2061.81,0.13108
2042.52,0.13305
2023.23,0.13902
2003.95,0.14486
1984.66,0.14903
1965.37,0.15318
1946.08,0.15834
1926.8,0.16237
1907.51,0.16367
1888.22,0.16291
1868.94,0.16268
1849.65,0.15707
1830.36,0.15175
1811.07,0.13833
1791.79,0.12172
1772.5,0.09618
1753.21,0.05786
1733.92,0.04703
1714.64,0.04917
1695.35,0.05186
1676.06,0.04346
1656.78,0.03814
1637.49,0.04064
1618.2,0.03931
1598.91,0.03774
1579.63,0.04573
1560.34,0.05930
1541.05,0.06222
1521.76,0.04004
1502.48,0.03514
1483.19,0.03619
1463.9,0.03090
1444.62,0.03136
1425.33,0.02998
1406.04,0.03313
1386.75,0.03099
1367.47,0.02989
1348.18,0.03146
1328.89,0.02972
1309.61,0.03073
1290.32,0.03003
1271.03,0.02737
1251.74,0.03048
1232.46,0.03009
1213.17,0.03144
1193.88,0.03195
1174.59,0.02624
1155.31,0.02748
1136.02,0.02566
1116.73,0.02430
1097.45,0.02576
1078.16,0.02821
1058.87,0.03962
1039.58,0.03913
1020.3,0.04692
1001.01,0.04681
981.722,0.05467
962.434,0.05815
943.147,0.06243
923.86,0.06433
904.573,0.05712
885.285,0.05872
865.998,0.05582
846.711,0.05756
827.424,0.05445
808.136,0.04891
788.849,0.04868
769.562,0.04675
750.274,0.04349
730.987,0.04457
711.7,0.03898
692.413,0.03766
673.125,0.03649
653.838,0.03972
634.551,0.03775
615.264,0.03913
595.976,0.04439
576.689,0.04126
557.402,0.04805
538.115,0.04739
518.827,0.05214
499.54,0.05017
480.253,0.05538
460.966,0.05190
441.678,0.05549
422.391,0.04400
403.104,0.04993
399.246,0.04862