File: 01_Data/Bean_Bag_Chair_Outer_Cover/MCC/Bean_Bag_Chair_Outer_Cover_MCC_30K_min_220310_R1.txt
Sample ID:	C:\MCC\MCC Cal\Test\Bean_Bag_Chair_Outer_Cover_MCC_30K_min_220310_R1.txt
Sample Weight (mg):	4.44
Heating Rate (C/s):	0.5
Combustor Temp (C):	900
N2 Flow Rate (cc/min):	80
O2 Flow Rate (cc/min):	20
Calibration File:	C:\MCC\MCC Cal\Coeff1 JN10440_30_210304.txt.txt
T Correction Coefficients:	0	1.024463	0
Time Shift (s):	14
*
Time (s)	Temperature (C)	N2 flow rate (cc/min)	O2 flow rate (cc/min)	Flow Rate (cc/min)	Oxygen (%)	HRR (W/g)	Heating rate (C/s)
-0.001	107.503	80.005	19.993	103.642	20.091	0.172	0.014
8.000	107.509	80.005	19.994	103.663	20.096	-0.224	0.029
16.000	107.530	80.006	19.993	103.699	20.087	0.458	-0.001
24.000	107.816	80.005	19.994	103.824	20.068	1.818	0.094
32.000	108.585	80.006	19.994	103.852	20.061	2.349	0.125
40.000	109.827	80.008	19.994	103.850	20.062	2.236	0.176
47.999	111.397	80.007	19.994	103.835	20.059	2.502	0.227
55.999	113.165	80.007	19.993	103.855	20.058	2.577	0.233
64.000	115.240	80.006	19.992	103.891	20.054	2.875	0.248
71.999	117.634	80.007	19.993	103.899	20.051	3.107	0.336
79.999	120.259	80.008	19.994	103.905	20.051	3.107	0.368
87.999	123.143	80.006	19.993	103.905	20.048	3.320	0.391
95.999	126.252	80.005	19.995	103.908	20.048	3.292	0.394
103.999	129.455	80.005	19.993	103.916	20.047	3.382	0.405
111.999	132.927	80.006	19.994	103.927	20.048	3.282	0.431
120.000	136.512	80.005	19.994	103.921	20.046	3.412	0.476
127.999	140.249	80.007	19.994	103.918	20.044	3.622	0.465
136.000	144.071	80.009	19.993	103.918	20.047	3.370	0.508
144.000	147.994	80.007	19.993	103.909	20.050	3.171	0.534
152.000	151.930	80.005	19.994	103.906	20.047	3.347	0.513
160.000	155.844	80.006	19.994	103.903	20.048	3.310	0.512
168.000	159.824	80.006	19.993	103.893	20.045	3.477	0.499
176.000	163.800	80.005	19.994	103.907	20.047	3.349	0.528
184.000	167.823	80.006	19.994	103.902	20.054	2.851	0.495
192.000	171.835	80.007	19.994	103.894	20.052	3.016	0.490
199.999	175.866	80.006	19.994	103.884	20.054	2.818	0.517
207.999	179.807	80.006	19.994	103.866	20.054	2.854	0.537
215.999	183.717	80.006	19.995	103.866	20.056	2.716	0.474
223.999	187.735	80.005	19.995	103.867	20.054	2.840	0.527
231.999	191.667	80.007	19.993	103.867	20.052	3.010	0.493
239.999	195.533	80.004	19.994	103.866	20.052	3.000	0.453
247.999	199.435	80.005	19.994	103.865	20.057	2.666	0.511
255.999	203.319	80.005	19.992	103.868	20.054	2.886	0.505
264.000	207.277	80.005	19.994	103.864	20.054	2.878	0.517
272.000	211.232	80.006	19.993	103.865	20.056	2.682	0.516
280.000	215.140	80.007	19.993	103.862	20.056	2.740	0.515
288.000	219.080	80.007	19.995	103.862	20.051	3.090	0.508
296.000	223.054	80.006	19.993	103.864	20.052	2.972	0.482
304.000	227.080	80.009	19.993	103.864	20.048	3.256	0.535
312.000	231.049	80.005	19.994	103.864	20.052	2.984	0.500
320.000	235.159	80.004	19.994	103.861	20.049	3.186	0.524
328.000	239.141	80.005	19.994	103.848	20.049	3.186	0.497
336.000	243.132	80.006	19.992	103.859	20.044	3.580	0.532
344.000	247.120	80.004	19.993	103.858	20.045	3.530	0.503
352.000	251.157	80.006	19.993	103.848	20.044	3.612	0.529
360.000	255.165	80.007	19.992	103.848	20.040	3.866	0.490
368.000	259.154	80.006	19.993	103.844	20.038	4.038	0.505
376.000	263.145	80.006	19.994	103.861	20.038	4.030	0.497
384.000	267.157	80.007	19.994	103.858	20.034	4.304	0.526
392.000	271.179	80.007	19.994	103.858	20.031	4.528	0.505
400.000	275.206	80.005	19.994	103.863	20.024	5.080	0.516
408.000	279.243	80.007	19.994	103.863	20.012	5.912	0.513
416.000	283.269	80.006	19.994	103.862	20.003	6.567	0.498
424.000	287.316	80.006	19.993	103.868	19.996	7.097	0.513
432.000	291.401	80.005	19.994	103.875	19.983	8.016	0.498
440.000	295.518	80.007	19.993	103.880	19.967	9.223	0.488
448.000	299.622	80.006	19.993	103.899	19.950	10.468	0.528
456.000	303.642	80.007	19.994	103.902	19.927	12.109	0.477
464.000	307.706	80.009	19.992	103.902	19.903	13.901	0.503
472.000	311.765	80.008	19.994	103.926	19.871	16.197	0.539
480.000	315.837	80.006	19.994	103.938	19.826	19.542	0.514
488.000	319.826	80.005	19.994	103.947	19.782	22.730	0.504
496.000	323.814	80.005	19.995	103.984	19.719	27.327	0.517
504.000	327.832	80.005	19.995	104.019	19.645	32.784	0.503
512.000	331.832	80.005	19.995	104.061	19.547	39.932	0.520
520.000	335.868	80.007	19.994	104.105	19.436	48.091	0.494
528.000	339.923	80.008	19.993	104.166	19.286	59.129	0.520
536.000	343.964	80.007	19.994	104.229	19.119	71.415	0.487
544.000	348.015	80.009	19.994	104.296	18.927	85.554	0.525
552.000	352.102	80.009	19.992	104.370	18.721	100.673	0.540
560.000	356.163	80.006	19.992	104.426	18.511	116.151	0.524
568.000	360.187	80.006	19.994	104.474	18.336	129.004	0.514
576.000	364.214	80.006	19.994	104.467	18.215	137.798	0.495
584.000	368.236	80.007	19.994	104.426	18.189	139.540	0.490
592.000	372.288	80.006	19.995	104.350	18.285	132.364	0.510
600.000	376.328	80.006	19.994	104.216	18.521	114.893	0.492
608.000	380.361	80.009	19.995	104.054	18.868	89.414	0.501
616.000	384.496	80.007	19.992	103.933	19.254	61.217	0.537
624.000	388.563	80.008	19.994	103.851	19.598	36.091	0.512
632.000	392.622	80.010	19.993	103.801	19.844	18.196	0.498
640.000	396.704	80.007	19.993	103.796	19.966	9.254	0.495
648.000	400.772	80.007	19.993	103.790	20.018	5.504	0.465
656.000	404.757	80.008	19.993	103.788	20.032	4.431	0.477
664.000	408.779	80.006	19.993	103.788	20.042	3.722	0.486
672.001	412.764	80.006	19.995	103.788	20.040	3.864	0.498
680.000	416.696	80.006	19.994	103.807	20.046	3.458	0.483
688.000	420.695	80.006	19.994	103.805	20.045	3.494	0.489
696.000	424.744	80.005	19.994	103.798	20.043	3.628	0.504
704.000	428.810	80.007	19.993	103.795	20.042	3.700	0.524
712.000	432.934	80.008	19.994	103.809	20.042	3.729	0.521
720.000	437.112	80.007	19.994	103.795	20.041	3.774	0.531
728.000	441.255	80.005	19.994	103.795	20.041	3.818	0.525
736.000	445.445	80.006	19.994	103.790	20.042	3.730	0.525
744.000	449.659	80.009	19.993	103.794	20.042	3.704	0.555
752.000	453.742	80.005	19.993	103.802	20.043	3.644	0.511
760.000	457.901	80.006	19.995	103.791	20.044	3.572	0.517
768.000	462.037	80.007	19.993	103.788	20.050	3.120	0.520
776.000	466.011	80.008	19.995	103.786	20.048	3.294	0.507
784.000	470.010	80.005	19.994	103.784	20.048	3.318	0.488
792.000	474.039	80.008	19.994	103.783	20.049	3.234	0.505
800.000	478.110	80.009	19.994	103.785	20.049	3.194	0.514
808.000	482.204	80.006	19.994	103.789	20.046	3.422	0.523
816.000	486.353	80.007	19.994	103.788	20.045	3.534	0.530
824.000	490.486	80.008	19.994	103.787	20.043	3.688	0.514
832.000	494.607	80.006	19.994	103.790	20.050	3.146	0.484
840.000	498.771	80.005	19.994	103.790	20.050	3.156	0.523
848.000	502.783	80.008	19.995	103.787	20.052	3.016	0.511
856.000	506.881	80.008	19.993	103.781	20.051	3.102	0.509
864.000	510.909	80.008	19.995	103.784	20.053	2.900	0.502
872.000	514.999	80.009	19.995	103.785	20.057	2.634	0.488
880.000	519.137	80.008	19.993	103.787	20.055	2.782	0.538
888.000	523.176	80.006	19.994	103.782	20.054	2.874	0.516
896.000	527.232	80.006	19.995	103.779	20.053	2.930	0.488
904.000	531.259	80.006	19.994	103.786	20.053	2.930	0.463
912.000	535.387	80.007	19.994	103.782	20.054	2.886	0.520
920.000	539.438	80.006	19.995	103.784	20.054	2.820	0.532
928.000	543.507	80.007	19.994	103.781	20.057	2.606	0.498
936.000	547.558	80.011	19.993	103.786	20.050	3.109	0.496
944.000	551.641	80.008	19.993	103.782	20.046	3.458	0.498
952.000	555.766	80.008	19.994	103.788	20.048	3.326	0.543
960.000	559.599	80.009	19.994	103.787	20.051	3.102	0.441
968.000	563.710	80.006	19.993	103.782	20.050	3.144	0.410
976.000	567.790	80.006	19.995	103.783	20.047	3.351	0.490
984.000	571.874	80.005	19.995	103.776	20.049	3.197	0.531
992.000	575.994	80.007	19.994	103.775	20.047	3.395	0.480
1000.000	580.106	80.006	19.993	103.774	20.050	3.139	0.520
1008.000	584.170	80.006	19.992	103.779	20.052	2.982	0.519
1016.000	588.172	80.007	19.994	103.782	20.052	3.018	0.505
1024.000	592.296	80.008	19.994	103.774	20.048	3.295	0.517
1032.001	596.389	80.008	19.993	103.790	20.051	3.057	0.512
1040.000	600.509	80.008	19.994	103.780	20.051	3.091	0.527
1048.000	604.594	80.008	19.995	103.768	20.047	3.337	0.509
1056.000	608.689	80.007	19.993	103.773	20.047	3.331	0.539
1064.000	612.753	80.007	19.994	103.774	20.047	3.337	0.492
1072.000	616.898	80.006	19.995	103.779	20.045	3.495	0.526
1080.000	620.939	80.006	19.994	103.776	20.049	3.247	0.517
1088.000	625.095	80.007	19.993	103.779	20.044	3.549	0.533
1096.000	629.191	80.007	19.994	103.778	20.052	3.000	0.504
1104.000	633.353	80.008	19.994	103.774	20.048	3.292	0.515
1112.000	637.592	80.009	19.993	103.783	20.045	3.495	0.523
1120.000	641.873	80.009	19.993	103.757	20.043	3.673	0.544
1128.000	646.098	80.011	19.993	103.782	20.045	3.475	0.527
1136.000	650.421	80.007	19.994	103.767	20.044	3.592	0.557
1144.000	654.682	80.007	19.994	103.761	20.046	3.429	0.528
1152.000	658.964	80.007	19.993	103.766	20.047	3.377	0.535
1160.000	663.003	80.006	19.994	103.760	20.043	3.659	0.491
1168.000	667.203	80.006	19.995	103.761	20.044	3.585	0.534
1176.001	671.314	80.009	19.995	103.763	20.044	3.556	0.532
1184.000	675.335	80.009	19.993	103.766	20.044	3.572	0.549
1192.000	679.393	80.007	19.993	103.768	20.045	3.510	0.517
1200.000	683.392	80.008	19.994	103.760	20.045	3.536	0.488
1208.000	687.423	80.010	19.993	103.762	20.047	3.343	0.503
1216.000	691.390	80.006	19.993	103.755	20.043	3.668	0.469
1224.000	695.415	80.007	19.992	103.778	20.042	3.738	0.505
1232.000	699.516	80.007	19.993	103.762	20.039	3.934	0.519
1240.000	703.615	80.007	19.994	103.768	20.040	3.872	0.527
1248.000	707.714	80.007	19.993	103.754	20.041	3.792	0.504
1256.000	711.852	80.008	19.994	103.756	20.043	3.620	0.529
1264.000	715.914	80.008	19.994	103.747	20.040	3.858	0.512
1272.000	719.904	80.007	19.994	103.751	20.039	3.966	0.517
1280.000	723.911	80.007	19.994	103.756	20.040	3.858	0.513
1288.000	727.864	80.009	19.992	103.755	20.036	4.128	0.502
1296.000	731.786	80.007	19.993	103.757	20.040	3.892	0.479
1304.000	735.738	80.006	19.993	103.753	20.035	4.211	0.462
1312.000	739.638	80.007	19.994	103.748	20.039	3.970	0.477
1320.000	743.587	80.007	19.993	103.748	20.039	3.946	0.497