File: 01_Data/Bean_Bag_Chair_Outer_Cover/MCC/Bean_Bag_Chair_Outer_Cover_MCC_30K_min_220330_R6.txt
Sample ID:	C:\MCC\MCC Cal\Test\Bean_Bag_Chair_Outer_Cover\Bean_Bag_Chair_Outer_Cover_MCC_30K_min_220330_R6.txt
Sample Weight (mg):	4.94
Heating Rate (C/s):	0.5
Combustor Temp (C):	900
N2 Flow Rate (cc/min):	80
O2 Flow Rate (cc/min):	20
Calibration File:	C:\MCC\MCC Cal\Coeff1 JN10440_30_210304.txt.txt
T Correction Coefficients:	0	1.024463	0
Time Shift (s):	14
*
Time (s)	Temperature (C)	N2 flow rate (cc/min)	O2 flow rate (cc/min)	Flow Rate (cc/min)	Oxygen (%)	HRR (W/g)	Heating rate (C/s)
0.000	108.526	80.010	19.992	103.685	20.079	-0.071	-0.028
8.001	108.475	80.012	19.993	103.676	20.075	0.150	-0.016
16.000	108.532	80.012	19.993	103.787	20.069	0.544	0.013
24.000	108.738	80.011	19.993	103.800	20.055	1.484	0.064
32.001	109.332	80.009	19.994	103.858	20.046	2.110	0.108
40.000	110.398	80.012	19.994	103.897	20.037	2.697	0.172
48.000	111.904	80.010	19.993	103.940	20.030	3.120	0.199
56.000	113.914	80.009	19.993	103.951	20.026	3.411	0.292
64.000	116.304	80.009	19.993	103.978	20.022	3.636	0.345
72.000	119.080	80.012	19.993	103.977	20.019	3.881	0.325
80.000	122.216	80.013	19.993	103.972	20.017	3.994	0.390
88.000	125.586	80.012	19.992	103.976	20.017	3.963	0.445
96.000	129.102	80.013	19.993	103.975	20.018	3.925	0.416
104.000	132.821	80.011	19.993	103.973	20.017	3.979	0.475
112.001	136.679	80.011	19.993	103.974	20.022	3.628	0.506
120.001	140.636	80.009	19.993	103.970	20.018	3.950	0.506
128.000	144.632	80.010	19.993	103.964	20.023	3.603	0.484
136.000	148.635	80.009	19.993	103.940	20.020	3.815	0.533
144.000	152.726	80.010	19.993	103.940	20.022	3.670	0.512
152.000	156.744	80.012	19.993	103.929	20.024	3.519	0.506
160.000	160.742	80.012	19.992	103.938	20.026	3.360	0.506
168.000	164.780	80.011	19.993	103.929	20.030	3.132	0.515
176.000	168.776	80.012	19.993	103.922	20.029	3.222	0.534
184.000	172.767	80.015	19.992	103.903	20.027	3.315	0.511
192.001	176.675	80.013	19.993	103.912	20.025	3.453	0.465
200.000	180.585	80.009	19.993	103.905	20.027	3.324	0.521
208.000	184.471	80.011	19.994	103.903	20.031	3.084	0.483
216.000	188.350	80.010	19.992	103.901	20.028	3.249	0.457
224.000	192.306	80.010	19.994	103.900	20.026	3.385	0.468
232.001	196.227	80.009	19.995	103.900	20.031	3.084	0.497
240.000	200.067	80.010	19.992	103.891	20.024	3.550	0.459
248.000	203.993	80.010	19.993	103.898	20.026	3.405	0.473
256.000	207.888	80.012	19.992	103.896	20.015	4.129	0.490
264.000	211.816	80.011	19.992	103.902	20.020	3.779	0.463
272.000	215.686	80.013	19.993	103.898	20.021	3.753	0.494
280.000	219.682	80.012	19.992	103.891	20.021	3.740	0.504
288.000	223.678	80.010	19.992	103.880	20.014	4.158	0.517
296.000	227.670	80.013	19.993	103.895	20.015	4.105	0.483
304.000	231.691	80.010	19.994	103.890	20.013	4.243	0.507
312.000	235.639	80.010	19.992	103.895	20.014	4.167	0.510
320.000	239.673	80.012	19.993	103.890	20.016	4.027	0.488
328.000	243.686	80.010	19.993	103.893	20.012	4.337	0.549
336.000	247.797	80.012	19.994	103.877	20.011	4.401	0.480
344.000	251.786	80.012	19.992	103.896	20.008	4.553	0.512
352.000	255.845	80.014	19.992	103.894	20.005	4.745	0.487
360.000	259.829	80.013	19.993	103.880	19.999	5.155	0.497
368.000	263.742	80.011	19.993	103.881	19.996	5.381	0.444
376.000	267.719	80.013	19.993	103.891	19.989	5.811	0.520
384.000	271.652	80.014	19.992	103.878	19.982	6.280	0.495
392.000	275.518	80.011	19.993	103.888	19.975	6.741	0.449
400.000	279.324	80.009	19.993	103.891	19.969	7.133	0.479
408.000	283.180	80.011	19.993	103.897	19.954	8.107	0.513
416.000	287.029	80.013	19.993	103.892	19.942	8.893	0.485
424.000	290.911	80.010	19.993	103.899	19.924	10.062	0.490
432.000	294.773	80.010	19.994	103.910	19.904	11.388	0.468
440.000	298.743	80.013	19.993	103.933	19.881	12.909	0.516
448.000	302.697	80.012	19.992	103.938	19.854	14.704	0.481
456.000	306.737	80.012	19.993	103.976	19.815	17.274	0.528
464.000	310.792	80.011	19.992	103.979	19.770	20.204	0.508
472.000	314.855	80.011	19.993	103.995	19.714	23.925	0.485
480.000	318.867	80.011	19.994	104.022	19.645	28.434	0.532
488.000	322.834	80.011	19.992	104.061	19.556	34.309	0.450
496.000	326.868	80.014	19.993	104.105	19.450	41.282	0.504
504.000	330.900	80.012	19.993	104.152	19.316	50.177	0.521
512.000	334.894	80.010	19.993	104.222	19.160	60.473	0.477
520.000	338.867	80.014	19.993	104.289	18.993	71.511	0.472
528.000	342.839	80.012	19.993	104.355	18.798	84.435	0.492
536.000	346.715	80.009	19.995	104.445	18.593	98.029	0.463
544.000	350.670	80.011	19.994	104.483	18.401	110.693	0.472
552.000	354.646	80.011	19.993	104.524	18.229	122.020	0.487
560.000	358.650	80.010	19.992	104.536	18.118	129.285	0.514
568.000	362.688	80.012	19.993	104.494	18.087	131.209	0.519
576.000	366.797	80.011	19.992	104.421	18.175	125.311	0.557
584.000	370.725	80.014	19.992	104.283	18.382	111.483	0.507
592.000	374.760	80.013	19.992	104.164	18.686	91.395	0.523
600.000	378.761	80.011	19.992	104.048	19.033	68.594	0.493
608.000	382.845	80.014	19.994	103.960	19.360	47.083	0.504
616.000	386.970	80.012	19.993	103.889	19.619	30.058	0.514
624.000	391.176	80.010	19.993	103.845	19.801	18.161	0.518
632.000	395.342	80.011	19.995	103.824	19.909	11.036	0.538
640.000	399.397	80.011	19.995	103.828	19.969	7.144	0.513
648.000	403.364	80.012	19.993	103.824	19.996	5.359	0.482
656.000	407.207	80.011	19.994	103.825	20.005	4.750	0.463
664.000	410.965	80.012	19.993	103.826	20.011	4.398	0.464
672.000	414.678	80.012	19.993	103.826	20.007	4.657	0.466
680.000	418.487	80.012	19.992	103.822	20.010	4.416	0.489
688.000	422.335	80.015	19.994	103.816	20.005	4.766	0.484
696.000	426.212	80.014	19.993	103.819	20.005	4.775	0.484
704.000	429.998	80.012	19.994	103.816	20.009	4.476	0.478
712.000	433.871	80.011	19.995	103.818	20.013	4.228	0.452
720.000	437.731	80.011	19.993	103.824	20.014	4.186	0.488
728.000	441.577	80.011	19.993	103.826	20.011	4.365	0.457
736.001	445.497	80.009	19.994	103.822	20.010	4.460	0.466
744.000	449.522	80.012	19.994	103.822	20.014	4.207	0.504
752.000	453.623	80.013	19.992	103.821	20.015	4.106	0.559
760.000	457.782	80.012	19.992	103.816	20.014	4.164	0.514
768.001	461.966	80.011	19.992	103.821	20.021	3.685	0.533
776.000	466.001	80.014	19.993	103.818	20.017	4.012	0.489
784.000	470.139	80.013	19.993	103.820	20.017	3.951	0.497
792.000	474.304	80.008	19.991	103.819	20.019	3.828	0.535
800.000	478.350	80.009	19.993	103.824	20.017	3.986	0.496
808.000	482.408	80.012	19.993	103.818	20.017	3.979	0.517
816.000	486.474	80.010	19.993	103.821	20.012	4.311	0.470
824.000	490.582	80.010	19.994	103.815	20.016	4.052	0.492
832.000	494.767	80.012	19.994	103.819	20.021	3.727	0.539
840.000	499.008	80.011	19.994	103.820	20.018	3.905	0.561
848.000	503.325	80.011	19.993	103.822	20.021	3.707	0.576
856.000	507.805	80.012	19.993	103.822	20.015	4.079	0.539
864.000	512.258	80.013	19.993	103.820	20.015	4.140	0.555
872.000	516.754	80.012	19.992	103.821	20.020	3.788	0.567
880.000	521.055	80.012	19.991	103.795	20.021	3.694	0.525
888.000	525.350	80.012	19.992	103.805	20.017	3.953	0.534
896.000	529.555	80.012	19.993	103.821	20.020	3.812	0.485
904.000	533.702	80.010	19.993	103.809	20.021	3.704	0.522
912.000	537.837	80.010	19.993	103.799	20.024	3.511	0.531
920.000	542.079	80.012	19.993	103.822	20.024	3.516	0.524
928.000	546.293	80.012	19.993	103.803	20.017	4.012	0.545
936.000	550.420	80.011	19.994	103.797	20.019	3.881	0.505
944.000	554.485	80.014	19.992	103.804	20.020	3.755	0.487
952.000	558.542	80.012	19.991	103.804	20.025	3.456	0.508
960.000	562.577	80.011	19.992	103.791	20.022	3.632	0.495
968.000	566.508	80.013	19.993	103.783	20.025	3.458	0.531
976.000	570.424	80.011	19.991	103.798	20.023	3.601	0.489
984.000	574.366	80.011	19.993	103.797	20.023	3.587	0.506
992.000	578.465	80.011	19.993	103.803	20.022	3.643	0.500
1000.000	582.525	80.011	19.993	103.806	20.023	3.563	0.520
1008.000	586.588	80.011	19.992	103.796	20.023	3.579	0.525
1016.000	590.577	80.012	19.993	103.793	20.028	3.250	0.496
1024.000	594.604	80.011	19.993	103.810	20.024	3.507	0.540
1032.001	598.568	80.013	19.994	103.805	20.022	3.656	0.511
1040.000	602.486	80.012	19.992	103.801	20.022	3.675	0.491
1048.000	606.537	80.011	19.993	103.808	20.024	3.523	0.539
1056.000	610.681	80.012	19.992	103.791	20.030	3.158	0.513
1064.000	614.907	80.011	19.992	103.792	20.031	3.090	0.523
1072.000	619.168	80.009	19.992	103.792	20.025	3.451	0.540
1080.000	623.371	80.010	19.993	103.795	20.027	3.340	0.531
1088.000	627.536	80.013	19.992	103.787	20.023	3.568	0.524
1096.000	631.679	80.013	19.993	103.782	20.031	3.054	0.516
1104.000	635.825	80.014	19.993	103.782	20.033	2.923	0.561
1112.000	639.894	80.014	19.992	103.793	20.034	2.840	0.487
1120.000	643.854	80.013	19.993	103.786	20.035	2.822	0.514
1128.000	647.752	80.010	19.994	103.789	20.029	3.171	0.489
1136.000	651.798	80.010	19.994	103.783	20.026	3.420	0.526
1144.000	655.868	80.011	19.993	103.786	20.025	3.441	0.529
1152.000	660.037	80.011	19.992	103.781	20.027	3.334	0.529
1160.000	664.179	80.010	19.992	103.783	20.026	3.418	0.519
1168.000	668.274	80.012	19.992	103.781	20.029	3.209	0.506
1176.001	672.327	80.013	19.993	103.775	20.026	3.367	0.493
1184.000	676.372	80.013	19.992	103.784	20.028	3.240	0.509
1192.000	680.572	80.014	19.992	103.785	20.026	3.380	0.526
1200.000	684.809	80.014	19.993	103.783	20.027	3.353	0.543
1208.000	689.054	80.012	19.993	103.787	20.031	3.053	0.532
1216.000	693.319	80.011	19.993	103.782	20.031	3.054	0.511
1224.000	697.689	80.010	19.994	103.790	20.027	3.307	0.499
1232.000	701.920	80.011	19.994	103.780	20.025	3.432	0.508
1240.001	706.094	80.012	19.993	103.782	20.026	3.416	0.535
1248.000	710.213	80.011	19.993	103.786	20.027	3.351	0.510
1256.000	714.407	80.013	19.993	103.789	20.026	3.403	0.528
1264.000	718.570	80.012	19.994	103.784	20.024	3.503	0.547
1272.000	722.670	80.012	19.992	103.786	20.027	3.342	0.525
1280.000	726.786	80.014	19.992	103.784	20.027	3.318	0.544
1288.000	730.975	80.014	19.991	103.781	20.028	3.284	0.545
1296.000	735.049	80.012	19.994	103.782	20.026	3.385	0.526
1304.000	739.093	80.012	19.993	103.779	20.028	3.235	0.501
1312.000	743.115	80.012	19.992	103.782	20.019	3.872	0.482
1313.500	743.835	80.012	19.995	103.783	20.025	3.452	0.481