File: 01_Data/Bean_Bag_Chair_Outer_Cover/MCC/Bean_Bag_Chair_Outer_Cover_MCC_30K_min_220316_R4.txt
Sample ID:	C:\MCC\MCC Cal\Test\Bean_Bag_Chair_Outer_Cover\Bean_Bag_Chair_Outer_Cover_MCC_30K_min_220316_R4.txt
Sample Weight (mg):	4.58
Heating Rate (C/s):	0.5
Combustor Temp (C):	900
N2 Flow Rate (cc/min):	80
O2 Flow Rate (cc/min):	20
Calibration File:	C:\MCC\MCC Cal\Coeff1 JN10440_30_210304.txt.txt
T Correction Coefficients:	0	1.024463	0
Time Shift (s):	14
*
Time (s)	Temperature (C)	N2 flow rate (cc/min)	O2 flow rate (cc/min)	Flow Rate (cc/min)	Oxygen (%)	HRR (W/g)	Heating rate (C/s)
-0.001	107.609	80.006	19.995	103.694	19.983	0.252	-0.000
8.000	107.559	80.008	19.993	103.706	19.979	0.523	-0.004
16.000	107.609	80.007	19.993	103.748	19.973	0.953	0.021
24.000	107.786	80.005	19.993	103.781	19.970	1.133	0.030
32.000	108.198	80.006	19.994	103.845	19.955	2.225	0.094
39.999	109.078	80.005	19.993	103.868	19.951	2.498	0.132
47.999	110.330	80.008	19.994	103.897	19.949	2.678	0.169
56.001	111.838	80.007	19.994	103.937	19.939	3.376	0.207
64.000	113.912	80.006	19.993	103.955	19.934	3.707	0.254
71.999	116.186	80.008	19.993	103.957	19.936	3.591	0.298
79.999	118.787	80.006	19.994	103.961	19.932	3.848	0.352
88.000	121.777	80.006	19.994	103.974	19.930	4.029	0.363
95.999	124.969	80.008	19.994	103.981	19.926	4.291	0.414
103.999	128.355	80.008	19.993	103.963	19.923	4.461	0.431
111.999	131.952	80.006	19.994	103.972	19.925	4.345	0.436
119.999	135.623	80.005	19.994	103.974	19.922	4.570	0.483
128.000	139.432	80.007	19.994	103.959	19.923	4.484	0.491
136.000	143.338	80.005	19.993	103.965	19.923	4.460	0.466
144.000	147.296	80.005	19.994	103.950	19.926	4.300	0.495
152.000	151.318	80.007	19.994	103.949	19.919	4.795	0.503
160.000	155.258	80.006	19.994	103.945	19.920	4.676	0.461
168.000	159.269	80.006	19.996	103.945	19.921	4.604	0.520
176.000	163.207	80.010	19.993	103.938	19.923	4.480	0.484
184.000	167.277	80.007	19.996	103.907	19.924	4.416	0.510
192.000	171.240	80.006	19.994	103.908	19.922	4.547	0.477
200.000	175.184	80.007	19.993	103.912	19.922	4.534	0.514
208.000	179.116	80.006	19.994	103.910	19.923	4.510	0.474
216.000	183.032	80.007	19.993	103.911	19.924	4.416	0.477
224.000	186.984	80.006	19.993	103.910	19.922	4.582	0.496
232.000	190.901	80.007	19.994	103.908	19.924	4.398	0.502
240.000	194.810	80.010	19.993	103.906	19.927	4.175	0.473
248.000	198.805	80.008	19.995	103.905	19.923	4.470	0.509
256.000	202.680	80.007	19.994	103.904	19.920	4.715	0.479
264.000	206.587	80.009	19.995	103.906	19.915	5.065	0.494
272.000	210.519	80.005	19.994	103.909	19.920	4.724	0.498
280.000	214.436	80.005	19.995	103.909	19.917	4.947	0.486
288.000	218.407	80.007	19.994	103.908	19.913	5.162	0.496
296.000	222.348	80.006	19.993	103.877	19.916	5.001	0.492
304.000	226.281	80.006	19.993	103.878	19.913	5.211	0.493
312.000	230.221	80.005	19.994	103.877	19.914	5.097	0.518
320.000	234.104	80.007	19.994	103.880	19.913	5.189	0.486
328.000	237.967	80.008	19.993	103.901	19.908	5.558	0.456
336.000	241.877	80.008	19.994	103.885	19.906	5.672	0.506
344.000	245.857	80.011	19.992	103.889	19.904	5.834	0.515
352.000	249.848	80.008	19.993	103.905	19.900	6.151	0.504
360.000	253.901	80.008	19.996	103.882	19.898	6.259	0.509
368.000	257.988	80.006	19.994	103.870	19.899	6.184	0.517
376.000	262.011	80.008	19.994	103.876	19.890	6.794	0.496
384.000	266.067	79.985	19.996	103.901	19.886	7.109	0.493
392.000	270.131	80.015	19.993	103.890	19.880	7.510	0.497
400.000	274.158	80.003	19.994	103.878	19.869	8.339	0.496
408.000	278.163	80.009	19.992	103.908	19.862	8.817	0.472
416.000	282.116	80.010	19.994	103.910	19.852	9.531	0.494
424.000	286.082	80.018	19.992	103.906	19.837	10.601	0.489
432.000	290.050	80.012	19.993	103.904	19.823	11.546	0.485
440.000	294.076	80.004	19.994	103.906	19.804	12.925	0.503
448.000	298.036	80.007	19.994	103.923	19.784	14.342	0.517
456.000	301.996	80.007	19.995	103.949	19.759	16.080	0.484
464.000	306.010	80.011	19.990	103.952	19.729	18.249	0.546
472.000	310.006	80.011	19.995	103.962	19.690	21.000	0.506
480.000	313.987	80.013	19.991	103.987	19.637	24.763	0.489
488.000	317.971	80.004	19.997	104.017	19.582	28.686	0.510
496.000	322.023	80.023	19.994	104.058	19.503	34.305	0.524
504.000	326.116	80.012	19.991	104.093	19.406	41.166	0.510
512.000	330.099	80.017	19.995	104.137	19.286	49.759	0.510
520.000	334.189	79.989	19.994	104.184	19.142	59.946	0.495
528.000	338.282	80.000	19.995	104.264	18.988	70.951	0.537
536.000	342.343	80.016	19.994	104.321	18.808	83.848	0.489
544.000	346.362	80.008	19.995	104.373	18.621	97.131	0.494
552.000	350.324	80.006	19.994	104.417	18.437	110.236	0.505
560.000	354.312	80.007	19.995	104.464	18.279	121.507	0.502
568.000	358.349	80.018	19.990	104.465	18.163	129.678	0.511
576.000	362.306	80.008	19.996	104.447	18.125	132.347	0.486
584.000	366.322	80.008	19.994	104.389	18.171	128.952	0.532
592.000	370.338	80.011	19.989	104.293	18.327	117.719	0.484
600.000	374.399	80.006	19.997	104.178	18.574	100.061	0.501
608.000	378.464	80.016	19.992	104.068	18.863	79.560	0.501
616.000	382.456	80.005	19.994	103.972	19.155	58.827	0.484
624.000	386.512	80.003	20.000	103.907	19.410	40.740	0.504
632.000	390.541	80.009	19.995	103.863	19.606	26.882	0.534
640.000	394.631	80.007	19.997	103.827	19.742	17.290	0.459
648.000	398.648	80.005	19.994	103.831	19.821	11.704	0.507
656.000	402.692	80.010	19.995	103.829	19.858	9.060	0.510
664.000	406.688	80.006	19.995	103.828	19.868	8.375	0.509
672.000	410.723	80.007	19.995	103.829	19.871	8.185	0.502
680.000	414.716	80.008	19.994	103.828	19.871	8.172	0.478
688.000	418.737	80.011	19.995	103.827	19.876	7.777	0.512
696.000	422.747	80.008	19.991	103.826	19.874	7.935	0.539
704.000	426.704	80.008	19.995	103.827	19.873	8.045	0.493
712.000	430.739	80.012	19.991	103.830	19.871	8.157	0.494
720.000	434.764	80.007	19.993	103.831	19.871	8.200	0.520
728.000	438.832	80.007	19.994	103.833	19.876	7.833	0.510
736.000	442.927	80.009	19.994	103.835	19.875	7.914	0.512
744.000	446.916	80.008	19.994	103.828	19.872	8.116	0.505
752.000	450.940	80.009	19.994	103.827	19.870	8.248	0.498
760.000	454.930	80.010	19.995	103.820	19.874	7.959	0.506
768.000	458.988	80.009	19.996	103.825	19.873	8.029	0.520
776.000	463.009	80.008	19.994	103.820	19.872	8.128	0.522
784.000	466.963	80.008	19.993	103.829	19.877	7.760	0.505
792.000	470.949	80.008	19.993	103.822	19.874	7.922	0.491
800.000	475.021	80.006	19.994	103.829	19.871	8.158	0.521
808.000	479.001	80.006	19.993	103.833	19.872	8.061	0.509
816.000	482.985	80.008	19.993	103.820	19.871	8.144	0.503
824.000	487.006	80.009	19.993	103.816	19.872	8.068	0.480
832.000	491.055	80.008	19.995	103.821	19.874	7.958	0.497
840.000	495.205	80.009	19.994	103.826	19.874	7.933	0.515
848.000	499.251	80.010	19.995	103.826	19.873	8.031	0.488
856.000	503.332	80.006	19.995	103.814	19.879	7.614	0.492
864.000	507.446	80.006	19.995	103.817	19.874	7.933	0.496
872.000	511.473	80.009	19.992	103.827	19.877	7.721	0.529
880.000	515.639	80.007	19.995	103.823	19.873	8.020	0.513
888.000	519.745	80.008	19.994	103.810	19.871	8.128	0.486
896.000	523.817	80.007	19.994	103.809	19.874	7.953	0.532
904.000	527.787	80.010	19.993	103.807	19.872	8.116	0.461
912.000	532.016	80.008	19.992	103.798	19.871	8.166	0.627
920.000	535.967	80.009	19.995	103.812	19.872	8.070	0.481
928.000	540.135	80.010	19.994	103.793	19.870	8.216	0.516
936.000	544.269	80.008	19.993	103.807	19.870	8.211	0.532
944.000	548.515	80.007	19.993	103.811	19.869	8.326	0.502
952.000	552.751	80.007	19.994	103.814	19.871	8.187	0.563
960.000	556.995	80.007	19.996	103.791	19.872	8.099	0.487
968.000	561.291	80.008	19.993	103.797	19.869	8.278	0.569
976.000	565.422	80.007	19.994	103.804	19.869	8.334	0.493
984.000	569.575	80.009	19.994	103.793	19.865	8.569	0.531
992.000	573.786	80.009	19.994	103.804	19.869	8.334	0.534
1000.000	577.942	80.007	19.993	103.799	19.869	8.278	0.525
1008.000	582.102	80.010	19.994	103.807	19.866	8.543	0.520
1016.000	586.185	80.009	19.994	103.788	19.865	8.554	0.511
1024.000	590.232	80.009	19.994	103.793	19.866	8.531	0.523
1031.999	594.340	80.009	19.993	103.791	19.865	8.553	0.539
1039.999	598.521	80.008	19.994	103.789	19.864	8.621	0.522
1048.001	602.744	80.007	19.995	103.790	19.864	8.683	0.516
1055.999	606.931	80.007	19.995	103.794	19.867	8.475	0.518
1063.999	611.173	80.008	19.994	103.792	19.864	8.691	0.538
1071.999	615.384	80.009	19.992	103.792	19.862	8.787	0.511
1079.999	619.569	80.007	19.993	103.789	19.862	8.805	0.533
1087.999	623.678	80.010	19.993	103.793	19.862	8.806	0.496
1095.999	627.759	80.011	19.993	103.788	19.865	8.569	0.502
1104.000	631.707	80.008	19.993	103.793	19.861	8.847	0.480
1111.999	635.670	80.008	19.993	103.792	19.858	9.099	0.499
1119.999	639.516	80.007	19.994	103.790	19.857	9.139	0.473
1128.001	643.322	80.007	19.995	103.794	19.860	8.935	0.474
1135.999	647.206	80.007	19.994	103.791	19.860	8.908	0.516
1143.999	651.112	80.007	19.995	103.788	19.851	9.583	0.820
1151.999	655.262	80.009	19.996	103.789	19.858	9.072	0.524
1159.999	659.169	80.009	19.995	103.798	19.857	9.137	0.161
1168.000	663.127	80.009	19.993	103.788	19.856	9.253	0.504
1175.999	667.100	80.009	19.994	103.789	19.851	9.590	0.519
1183.999	671.217	80.008	19.994	103.792	19.851	9.542	0.534
1191.999	675.431	80.008	19.993	103.800	19.853	9.456	0.501
1200.001	679.742	80.008	19.993	103.800	19.849	9.692	0.537
1207.999	684.030	80.009	19.993	103.789	19.847	9.886	0.557
1215.999	688.275	80.008	19.994	103.789	19.845	9.975	0.533
1223.999	692.545	80.007	19.993	103.790	19.847	9.852	0.545
1231.999	696.795	80.009	19.993	103.790	19.849	9.696	0.538
1239.999	701.082	80.008	19.994	103.789	19.848	9.808	0.561
1247.999	705.292	80.007	19.996	103.790	19.848	9.794	0.532
1256.000	709.472	80.011	19.994	103.790	19.847	9.879	0.519
1263.999	713.601	80.009	19.994	103.792	19.847	9.854	0.503
1271.999	717.698	80.007	19.994	103.788	19.845	10.032	0.479
1279.999	721.694	80.009	19.992	103.789	19.845	9.996	0.514
1287.999	725.683	80.009	19.993	103.786	19.841	10.266	0.507
1295.999	729.652	80.008	19.994	103.787	19.841	10.278	0.502
1303.999	733.581	80.007	19.994	103.789	19.838	10.481	0.506
1311.999	737.540	80.008	19.993	103.790	19.841	10.300	0.505
1319.999	741.614	80.009	19.994	103.790	19.843	10.168	0.514
1324.001	743.593	80.009	19.993	103.789	19.838	10.522	0.469