File: 01_Data/Bean_Bag_Chair_Outer_Cover/MCC/Bean_Bag_Chair_Outer_Cover_MCC_30K_min_220311_O3.txt
Sample ID:	C:\MCC\MCC Cal\Test\Bean_Bag_Chair_Outer_Cover_MCC_30K_min_220311_R3.txt
Sample Weight (mg):	4.12
Heating Rate (C/s):	1
Combustor Temp (C):	900
N2 Flow Rate (cc/min):	80
O2 Flow Rate (cc/min):	20
Calibration File:	C:\MCC\MCC Cal\Coeff1 JN10440_30_210304.txt.txt
T Correction Coefficients:	0	1.024463	0
Time Shift (s):	14
*
Time (s)	Temperature (C)	N2 flow rate (cc/min)	O2 flow rate (cc/min)	Flow Rate (cc/min)	Oxygen (%)	HRR (W/g)	Heating rate (C/s)
0.000	106.410	80.008	19.993	103.595	19.902	0.308	0.021
4.000	106.422	80.009	19.995	103.594	19.905	0.101	0.030
8.000	106.401	80.010	19.993	103.650	19.895	0.910	0.004
12.000	106.507	80.009	19.995	103.762	19.880	2.055	0.050
16.000	106.758	80.008	19.994	103.859	19.866	3.171	0.086
20.000	107.215	80.007	19.994	103.906	19.856	3.969	0.151
24.000	107.940	80.007	19.995	103.924	19.849	4.461	0.192
28.000	108.805	80.007	19.995	103.962	19.845	4.831	0.272
32.000	109.931	80.008	19.994	103.992	19.839	5.267	0.306
36.000	111.228	80.007	19.993	103.988	19.839	5.307	0.332
40.000	112.770	80.008	19.994	104.012	19.835	5.612	0.395
44.000	114.424	80.006	19.994	104.026	19.833	5.741	0.438
48.000	116.295	80.005	19.994	104.059	19.832	5.821	0.468
52.000	118.340	80.007	19.994	104.038	19.829	6.081	0.526
56.000	120.537	80.008	19.994	104.040	19.827	6.240	0.549
60.000	122.909	80.009	19.995	104.048	19.831	5.919	0.599
64.001	125.408	80.009	19.993	104.053	19.830	5.995	0.665
68.000	128.004	80.007	19.995	104.053	19.829	6.101	0.672
72.000	130.734	80.007	19.995	104.057	19.831	5.930	0.659
76.000	133.597	80.009	19.995	104.059	19.830	5.980	0.722
80.000	136.562	80.008	19.994	104.048	19.828	6.150	0.761
84.001	139.585	80.009	19.993	104.056	19.830	6.034	0.727
88.000	142.799	80.008	19.993	104.062	19.834	5.680	0.799
92.000	146.081	80.006	19.994	104.064	19.828	6.159	0.836
96.000	149.441	80.006	19.994	104.067	19.832	5.878	0.839
100.000	152.842	80.004	19.993	104.066	19.837	5.412	0.874
104.000	156.380	80.004	19.995	104.063	19.834	5.666	0.922
108.000	159.857	80.006	19.994	104.062	19.836	5.553	0.895
112.000	163.567	80.007	19.994	104.061	19.839	5.327	0.908
116.000	167.276	80.008	19.993	104.053	19.838	5.380	0.903
120.000	171.042	80.006	19.994	104.039	19.840	5.186	0.920
124.000	174.850	80.005	19.995	104.054	19.841	5.131	0.948
128.000	178.669	80.007	19.993	104.027	19.842	5.053	0.955
132.000	182.610	80.007	19.996	104.043	19.846	4.699	0.987
136.000	186.610	80.008	19.995	104.023	19.844	4.883	1.028
140.000	190.600	80.007	19.994	104.020	19.845	4.812	1.022
144.000	194.600	80.009	19.994	104.012	19.849	4.506	0.996
148.000	198.668	80.007	19.994	104.020	19.851	4.381	1.002
152.000	202.704	80.007	19.995	104.007	19.850	4.450	0.982
156.000	206.805	80.009	19.994	103.995	19.848	4.583	1.050
160.000	210.954	80.009	19.994	103.989	19.847	4.693	1.032
164.000	215.055	80.009	19.993	103.981	19.849	4.499	1.032
168.000	219.190	80.006	19.994	103.975	19.847	4.652	1.004
172.000	223.348	80.006	19.994	103.982	19.848	4.554	1.066
176.000	227.464	80.006	19.993	103.985	19.851	4.325	1.074
180.000	231.652	80.006	19.994	103.955	19.848	4.541	1.032
184.000	235.712	80.007	19.993	103.951	19.850	4.402	0.987
188.000	239.775	80.006	19.993	103.948	19.849	4.472	1.016
192.000	243.860	80.005	19.996	103.952	19.846	4.711	1.045
196.000	247.889	80.006	19.993	103.940	19.847	4.623	1.029
200.000	251.981	80.006	19.995	103.942	19.846	4.760	1.013
204.000	256.009	80.004	19.994	103.871	19.842	5.039	1.048
208.000	259.962	80.007	19.993	103.971	19.840	5.174	0.989
212.000	263.930	80.007	19.993	103.941	19.835	5.613	0.980
216.000	267.907	80.007	19.993	103.946	19.832	5.859	0.999
220.000	271.862	80.007	19.994	103.945	19.824	6.478	1.000
224.000	275.777	80.007	19.994	103.946	19.818	6.948	0.969
228.000	279.749	80.005	19.994	103.947	19.811	7.466	1.001
232.000	283.687	80.008	19.993	103.950	19.801	8.267	0.995
236.000	287.638	80.009	19.994	103.952	19.788	9.286	1.023
240.000	291.609	80.008	19.994	103.948	19.774	10.369	1.031
244.000	295.558	80.006	19.994	103.977	19.755	11.926	1.002
248.000	299.501	80.005	19.995	103.977	19.736	13.429	0.978
252.000	303.423	80.005	19.996	103.984	19.711	15.400	0.971
256.000	307.416	80.004	19.995	104.001	19.683	17.603	1.026
260.000	311.385	80.005	19.995	104.022	19.644	20.653	1.008
264.000	315.412	80.005	19.994	104.050	19.597	24.384	0.976
268.000	319.423	80.007	19.994	104.071	19.547	28.329	1.017
272.000	323.402	80.005	19.993	104.109	19.482	33.514	0.995
276.000	327.446	80.006	19.994	104.153	19.398	40.128	1.023
280.000	331.459	80.006	19.994	104.205	19.296	48.209	0.986
284.000	335.573	80.006	19.994	104.253	19.178	57.607	1.015
288.000	339.666	80.007	19.993	104.317	19.037	68.788	1.043
292.000	343.711	80.006	19.993	104.385	18.881	81.210	1.016
296.000	347.726	80.007	19.994	104.461	18.696	95.920	1.016
300.000	351.791	80.007	19.993	104.539	18.487	112.551	1.008
304.000	355.839	80.006	19.994	104.612	18.267	130.121	1.013
308.000	359.862	80.008	19.994	104.695	18.036	148.490	0.983
312.000	363.856	80.008	19.996	104.761	17.796	167.494	1.009
316.000	367.872	80.009	19.994	104.823	17.566	185.667	1.000
320.000	371.910	80.006	19.995	104.840	17.353	202.421	1.004
324.000	375.966	80.006	19.994	104.799	17.193	214.863	1.030
328.000	379.977	80.005	19.994	104.741	17.108	221.397	1.012
332.000	383.941	80.006	19.995	104.672	17.125	219.721	1.022
336.000	387.945	80.005	19.996	104.547	17.259	208.898	1.006
340.000	391.989	80.006	19.995	104.436	17.510	188.859	1.019
344.000	396.036	80.007	19.994	104.310	17.843	162.360	0.998
348.000	400.101	80.005	19.995	104.174	18.237	131.240	1.030
352.000	404.187	80.007	19.994	104.025	18.664	97.721	1.031
356.000	408.283	80.006	19.994	103.903	19.070	65.750	1.048
360.000	412.386	80.004	19.995	103.849	19.398	39.992	1.023
364.000	416.343	80.006	19.994	103.871	19.614	23.003	0.965
368.000	420.410	80.007	19.993	103.871	19.740	13.077	1.033
372.000	424.397	80.006	19.994	103.851	19.811	7.517	0.978
376.000	428.450	80.007	19.994	103.828	19.839	5.261	1.000
380.000	432.515	80.007	19.994	103.828	19.855	3.996	1.036
384.000	436.597	80.006	19.994	103.815	19.865	3.221	1.043
388.000	440.641	80.008	19.993	103.809	19.870	2.863	1.018
392.000	444.633	80.008	19.994	103.798	19.876	2.348	0.989
396.000	448.655	80.007	19.994	103.801	19.876	2.378	1.010
400.000	452.750	80.004	19.994	103.810	19.877	2.281	1.012
404.000	456.768	80.006	19.994	103.796	19.877	2.303	1.025
408.000	460.799	80.005	19.993	103.794	19.878	2.219	1.005
412.000	464.838	80.004	19.994	103.793	19.882	1.902	0.973
416.000	468.860	80.005	19.994	103.800	19.882	1.913	1.021
420.000	472.933	80.003	19.994	103.795	19.888	1.389	1.002
424.000	477.032	80.004	19.994	103.793	19.889	1.331	1.028
428.000	481.130	80.006	19.995	103.792	19.892	1.107	1.042
432.000	485.155	80.005	19.996	103.813	19.892	1.075	1.024
436.000	489.238	80.005	19.995	103.795	19.893	1.038	1.005
440.000	493.303	80.006	19.995	103.797	19.890	1.295	1.044
444.000	497.407	80.007	19.994	103.807	19.895	0.864	0.997
448.000	501.454	80.007	19.995	103.806	19.897	0.726	0.987
452.000	505.538	80.007	19.993	103.791	19.900	0.489	1.031
456.000	509.562	80.006	19.995	103.809	19.900	0.455	1.003
460.000	513.658	80.006	19.996	103.793	19.904	0.153	0.999
464.000	517.778	80.007	19.994	103.798	19.908	-0.151	1.048
468.000	521.853	80.008	19.993	103.802	19.908	-0.181	1.030
472.000	525.938	80.008	19.995	103.794	19.908	-0.185	1.013
476.000	530.076	80.005	19.994	103.796	19.907	-0.095	1.031
480.000	534.207	80.006	19.993	103.795	19.911	-0.396	1.014
484.000	538.375	80.006	19.993	103.794	19.914	-0.579	1.058
488.000	542.444	80.006	19.994	103.793	19.915	-0.691	1.027
492.000	546.493	80.005	19.995	103.793	19.915	-0.732	0.991
496.000	550.661	80.006	19.996	103.790	19.915	-0.709	1.039
500.000	554.731	80.007	19.994	103.800	19.917	-0.816	1.044
504.000	558.819	80.006	19.994	103.791	19.917	-0.844	1.009
508.000	562.849	80.004	19.996	103.787	19.921	-1.191	0.989
512.000	566.878	80.005	19.994	103.789	19.922	-1.264	1.010
516.000	570.940	80.005	19.995	103.789	19.916	-0.812	1.026
520.000	575.001	80.007	19.995	103.789	19.917	-0.821	1.017
524.000	579.051	80.004	19.994	103.788	19.918	-0.894	1.018
528.001	583.071	80.006	19.994	103.789	19.920	-1.101	1.011
532.000	587.043	80.006	19.994	103.792	19.922	-1.282	0.981
536.000	591.117	80.006	19.994	103.793	19.919	-1.010	1.047
540.000	595.206	80.007	19.994	103.796	19.918	-0.900	0.997
544.000	599.344	80.007	19.994	103.794	19.919	-1.008	1.059
548.000	603.422	80.008	19.992	103.795	19.918	-0.909	1.028
552.000	607.535	80.007	19.992	103.796	19.917	-0.874	1.045
556.000	611.656	80.006	19.993	103.790	19.920	-1.062	1.024
560.000	615.851	80.006	19.994	103.789	19.915	-0.678	1.057
564.000	619.992	80.005	19.992	103.791	19.919	-0.997	0.998
568.000	624.131	80.006	19.994	103.790	19.922	-1.281	1.059
572.000	628.249	80.006	19.994	103.792	19.920	-1.053	1.039
576.000	632.374	80.007	19.994	103.788	19.919	-1.038	1.024
580.000	636.558	80.005	19.995	103.777	19.920	-1.073	1.044
584.000	640.641	80.004	19.994	103.785	19.920	-1.083	1.012
588.000	644.618	80.005	19.995	103.788	19.923	-1.322	0.999
592.000	648.674	80.005	19.995	103.780	19.923	-1.322	0.993
596.000	652.698	80.005	19.993	103.790	19.927	-1.613	0.993
600.000	656.718	80.005	19.994	103.790	19.924	-1.417	0.973
604.000	660.726	80.008	19.994	103.781	19.925	-1.495	0.972
608.000	664.706	80.007	19.993	103.791	19.924	-1.383	1.022
612.000	668.688	80.005	19.997	103.791	19.924	-1.396	0.988
616.000	672.657	80.005	19.995	103.784	19.923	-1.340	0.997
620.000	676.745	80.007	19.994	103.787	19.924	-1.417	0.999
624.000	680.668	80.009	19.992	103.787	19.925	-1.469	0.997
628.000	684.683	80.008	19.994	103.786	19.926	-1.546	0.998
632.000	688.711	80.008	19.994	103.778	19.924	-1.400	1.009
636.000	692.725	80.006	19.993	103.786	19.922	-1.219	0.997
640.000	696.836	80.008	19.994	103.785	19.923	-1.361	0.997
644.000	700.934	80.007	19.994	103.787	19.926	-1.523	1.002
648.000	704.990	80.006	19.993	103.788	19.926	-1.555	1.016
652.000	709.060	80.005	19.993	103.788	19.924	-1.366	1.028
656.000	713.176	80.005	19.994	103.793	19.926	-1.534	1.026
660.000	717.274	80.006	19.993	103.789	19.922	-1.236	1.010
664.000	721.349	80.006	19.992	103.788	19.926	-1.592	1.040
668.000	725.438	80.007	19.993	103.792	19.923	-1.340	0.995
672.000	729.522	80.003	19.993	103.793	19.921	-1.148	1.017
676.000	733.652	80.006	19.993	103.783	19.919	-1.034	0.997
679.000	736.713	80.007	19.994	103.788	19.920	-1.105	1.012