File: 01_Data/Bean_Bag_Chair_Outer_Cover/MCC/Bean_Bag_Chair_Outer_Cover_MCC_30K_min_220318_R5.txt
Sample ID:	C:\MCC\MCC Cal\Test\Bean_Bag_Chair_Outer_Cover\Bean_Bag_Chair_Outer_Cover_MCC_30K_min_220318_R5.txt
Sample Weight (mg):	4.13
Heating Rate (C/s):	0.5
Combustor Temp (C):	900
N2 Flow Rate (cc/min):	80
O2 Flow Rate (cc/min):	20
Calibration File:	C:\MCC\MCC Cal\Coeff1 JN10440_30_210304.txt.txt
T Correction Coefficients:	0	1.024463	0
Time Shift (s):	14
*
Time (s)	Temperature (C)	N2 flow rate (cc/min)	O2 flow rate (cc/min)	Flow Rate (cc/min)	Oxygen (%)	HRR (W/g)	Heating rate (C/s)
0.000	110.772	80.005	19.993	103.738	20.095	0.152	-0.006
8.000	110.760	80.006	19.993	103.753	20.093	0.275	-0.002
16.000	110.843	80.007	19.993	103.856	20.076	1.617	0.023
24.000	111.335	80.002	19.994	103.902	20.063	2.624	0.085
32.000	112.202	80.003	19.994	103.948	20.054	3.321	0.150
40.000	113.589	80.003	19.994	103.934	20.053	3.385	0.212
48.000	115.271	80.004	19.994	103.971	20.054	3.376	0.248
56.000	117.316	80.002	19.995	103.971	20.046	3.992	0.286
64.001	119.700	80.004	19.996	103.968	20.047	3.893	0.318
72.001	122.255	80.006	19.995	103.970	20.047	3.882	0.340
80.001	125.020	80.005	19.992	103.973	20.049	3.756	0.341
88.000	127.983	80.005	19.994	103.983	20.044	4.152	0.383
96.000	131.131	80.006	19.993	103.978	20.039	4.506	0.413
104.000	134.427	80.004	19.992	103.987	20.040	4.403	0.405
112.000	137.886	80.004	19.994	104.003	20.041	4.393	0.416
120.000	141.509	80.004	19.993	103.988	20.046	3.945	0.426
128.000	145.276	80.002	19.995	103.982	20.041	4.364	0.470
136.000	149.079	80.004	19.994	103.973	20.044	4.147	0.441
144.000	152.880	80.003	19.994	103.972	20.038	4.559	0.469
152.000	156.700	80.005	19.995	103.971	20.043	4.231	0.477
160.000	160.627	80.002	19.995	103.972	20.043	4.210	0.519
168.000	164.652	80.005	19.995	103.971	20.043	4.168	0.531
176.000	168.569	80.008	19.994	103.963	20.043	4.178	0.489
184.000	172.588	80.005	19.993	103.952	20.047	3.916	0.502
192.000	176.594	80.004	19.994	103.938	20.046	3.998	0.516
200.000	180.521	80.005	19.994	103.942	20.045	4.024	0.485
208.000	184.576	80.004	19.993	103.947	20.047	3.889	0.497
216.000	188.603	80.003	19.993	103.939	20.046	3.959	0.490
224.000	192.596	80.002	19.995	103.936	20.048	3.779	0.494
232.000	196.533	80.005	19.995	103.932	20.053	3.433	0.502
240.000	200.496	80.004	19.995	103.928	20.051	3.602	0.474
248.000	204.486	80.005	19.994	103.928	20.049	3.694	0.449
256.001	208.502	80.006	19.994	103.926	20.053	3.424	0.484
264.000	212.481	80.006	19.994	103.924	20.050	3.635	0.515
272.000	216.337	80.003	19.992	103.922	20.052	3.494	0.510
280.000	220.242	80.004	19.994	103.911	20.054	3.370	0.493
288.000	224.155	80.003	19.993	103.930	20.048	3.802	0.482
296.000	228.103	80.003	19.993	103.932	20.048	3.832	0.486
304.000	232.083	80.004	19.994	103.928	20.049	3.763	0.508
312.000	236.024	80.005	19.994	103.917	20.045	4.042	0.511
320.000	239.978	80.005	19.995	103.919	20.046	3.992	0.479
328.000	243.943	80.004	19.994	103.922	20.042	4.272	0.486
336.000	247.880	80.005	19.994	103.916	20.043	4.240	0.457
344.000	251.971	80.006	19.994	103.913	20.037	4.704	0.518
352.000	255.890	80.002	19.997	103.908	20.034	4.886	0.519
360.000	259.807	80.003	19.994	103.914	20.036	4.721	0.486
368.000	263.697	80.003	19.993	103.906	20.030	5.186	0.488
376.000	267.666	80.003	19.993	103.919	20.026	5.559	0.475
384.000	271.665	80.004	19.994	103.906	20.023	5.736	0.493
392.000	275.589	80.006	19.994	103.907	20.013	6.562	0.478
400.000	279.579	80.007	19.996	103.916	20.017	6.271	0.479
408.000	283.553	80.006	19.994	103.926	20.007	7.035	0.507
416.000	287.423	80.006	19.995	103.923	19.996	7.902	0.464
424.000	291.365	80.005	19.994	103.928	19.986	8.679	0.498
432.000	295.352	80.005	19.995	103.933	19.972	9.764	0.510
440.000	299.311	80.005	19.995	103.934	19.959	10.838	0.478
448.000	303.314	80.005	19.995	103.933	19.936	12.629	0.507
456.000	307.239	80.004	19.994	103.944	19.918	14.027	0.489
464.000	311.236	80.005	19.994	103.966	19.888	16.390	0.508
472.000	315.249	80.004	19.994	103.983	19.852	19.249	0.521
480.000	319.212	80.006	19.994	104.007	19.808	22.713	0.506
488.000	323.282	80.004	19.994	104.027	19.753	26.993	0.495
496.000	327.379	80.005	19.993	104.064	19.688	32.152	0.478
504.000	331.475	80.008	19.994	104.086	19.601	38.954	0.517
512.000	335.478	80.004	19.994	104.123	19.494	47.436	0.490
520.000	339.457	80.005	19.995	104.178	19.362	57.880	0.500
528.000	343.378	80.003	19.994	104.242	19.203	70.422	0.500
536.000	347.279	80.003	19.995	104.312	19.027	84.343	0.524
544.000	351.419	80.004	19.996	104.368	18.830	99.920	0.404
552.000	355.198	80.002	19.995	104.438	18.633	115.549	0.506
560.000	359.082	80.003	19.996	104.488	18.460	129.125	0.505
568.000	363.033	80.004	19.996	104.477	18.346	138.099	0.491
576.000	366.977	80.005	19.994	104.443	18.315	140.419	0.480
584.000	370.963	80.007	19.994	104.366	18.396	133.864	0.497
592.000	375.057	80.006	19.993	104.250	18.606	117.142	0.492
600.000	379.129	80.002	19.994	104.097	18.919	92.456	0.542
608.000	383.204	80.005	19.995	103.972	19.286	63.588	0.502
616.000	387.341	80.004	19.996	103.908	19.614	37.862	0.517
624.000	391.641	80.003	19.994	103.862	19.834	20.571	0.567
632.000	395.989	80.004	19.994	103.853	19.957	10.908	0.523
640.000	400.240	80.006	19.996	103.849	20.009	6.885	0.540
648.000	404.460	80.006	19.993	103.851	20.023	5.762	0.517
656.000	408.611	80.005	19.994	103.850	20.029	5.302	0.511
664.000	412.644	80.006	19.993	103.851	20.036	4.758	0.528
672.000	416.559	80.005	19.994	103.852	20.036	4.730	0.475
680.000	420.512	80.004	19.994	103.855	20.036	4.732	0.490
688.000	424.489	80.005	19.994	103.854	20.037	4.691	0.495
696.000	428.540	80.002	19.993	103.854	20.039	4.510	0.504
704.000	432.511	80.004	19.995	103.849	20.035	4.792	0.520
712.000	436.545	80.003	19.994	103.851	20.039	4.489	0.488
720.000	440.583	80.005	19.995	103.852	20.037	4.673	0.533
728.000	444.600	80.006	19.994	103.842	20.039	4.547	0.498
736.000	448.555	80.004	19.995	103.845	20.040	4.443	0.511
744.001	452.676	80.005	19.996	103.851	20.037	4.632	0.542
752.000	456.692	80.006	19.994	103.850	20.039	4.539	0.488
760.000	460.773	80.004	19.995	103.847	20.040	4.430	0.500
768.000	464.841	80.003	19.995	103.848	20.041	4.376	0.476
776.000	468.927	80.005	19.993	103.853	20.039	4.508	0.496
784.000	473.071	80.004	19.994	103.849	20.037	4.697	0.530
792.000	477.153	80.005	19.993	103.846	20.042	4.244	0.499
800.000	481.230	80.003	19.994	103.853	20.041	4.359	0.541
808.000	485.184	80.006	19.995	103.852	20.044	4.105	0.488
816.000	489.264	80.004	19.994	103.842	20.043	4.166	0.503
824.000	493.394	80.004	19.995	103.855	20.040	4.406	0.507
832.000	497.510	80.007	19.995	103.848	20.042	4.309	0.499
840.001	501.602	80.005	19.994	103.832	20.040	4.417	0.508
848.000	505.715	80.004	19.995	103.838	20.039	4.519	0.552
856.000	509.729	80.004	19.994	103.850	20.040	4.417	0.518
864.000	513.808	80.004	19.994	103.844	20.044	4.120	0.522
872.000	517.879	80.004	19.993	103.840	20.044	4.095	0.524
880.000	521.931	80.002	19.994	103.829	20.043	4.224	0.479
888.000	526.061	80.005	19.994	103.849	20.045	4.025	0.563
896.000	530.106	80.004	19.995	103.822	20.048	3.790	0.486
904.000	534.135	80.005	19.995	103.846	20.045	4.051	0.496
912.000	538.283	80.007	19.995	103.844	20.047	3.872	0.505
920.000	542.430	80.006	19.995	103.821	20.048	3.799	0.516
928.000	546.501	80.002	19.995	103.830	20.048	3.798	0.491
936.000	550.523	80.005	19.993	103.827	20.045	4.033	0.493
944.000	554.560	80.003	19.994	103.838	20.046	3.940	0.514
952.001	558.697	80.002	19.994	103.841	20.044	4.104	0.533
960.000	562.959	80.002	19.994	103.829	20.047	3.892	0.527
968.000	567.183	80.005	19.993	103.834	20.049	3.714	0.547
976.000	571.418	80.006	19.993	103.828	20.049	3.738	0.547
984.000	575.716	80.005	19.994	103.821	20.046	3.974	0.518
992.000	579.873	80.006	19.994	103.816	20.049	3.735	0.532
1000.000	583.956	80.005	19.994	103.814	20.049	3.753	0.521
1008.000	588.007	80.004	19.995	103.819	20.047	3.909	0.502
1016.000	592.041	80.003	19.995	103.816	20.047	3.908	0.482
1024.000	596.131	80.003	19.996	103.817	20.051	3.586	0.506
1032.000	600.192	80.004	19.995	103.811	20.048	3.844	0.505
1040.000	604.333	80.003	19.994	103.820	20.049	3.701	0.532
1048.000	608.631	80.005	19.994	103.826	20.050	3.679	0.534
1056.000	612.963	80.006	19.994	103.827	20.049	3.731	0.517
1064.000	617.310	80.005	19.995	103.817	20.051	3.603	0.546
1072.000	621.552	80.007	19.993	103.819	20.050	3.659	0.549
1080.000	625.713	80.006	19.993	103.818	20.055	3.260	0.518
1088.000	629.767	80.002	19.993	103.813	20.053	3.434	0.494
1096.000	633.826	80.003	19.995	103.813	20.052	3.488	0.507
1104.001	637.816	80.004	19.995	103.815	20.057	3.130	0.501
1112.000	641.721	80.004	19.996	103.812	20.053	3.384	0.491
1120.000	645.731	80.004	19.996	103.812	20.052	3.527	0.492
1128.000	649.753	80.004	19.993	103.809	20.049	3.750	0.506
1136.000	653.856	80.005	19.993	103.815	20.051	3.546	0.486
1144.000	657.985	80.006	19.995	103.814	20.052	3.464	0.499
1152.000	662.000	80.006	19.994	103.814	20.052	3.525	0.501
1160.000	665.955	80.007	19.993	103.811	20.050	3.661	0.486
1168.000	670.085	80.006	19.994	103.808	20.049	3.704	0.499
1176.000	674.203	80.005	19.995	103.813	20.050	3.674	0.494
1184.000	678.361	80.003	19.995	103.811	20.051	3.544	0.517
1192.000	682.450	80.004	19.994	103.814	20.051	3.585	0.504
1200.000	686.589	80.004	19.994	103.770	20.050	3.618	0.499
1208.000	690.823	80.003	19.995	103.813	20.050	3.661	0.532
1216.000	695.117	80.005	19.995	103.815	20.053	3.442	0.540
1224.000	699.309	80.005	19.994	103.814	20.048	3.824	0.540
1232.000	703.424	80.006	19.993	103.812	20.047	3.867	0.526
1240.000	707.470	80.006	19.994	103.811	20.050	3.675	0.510
1248.000	711.594	80.006	19.995	103.715	20.048	3.772	0.491
1256.000	715.736	80.004	19.994	103.812	20.049	3.744	0.513
1264.000	719.814	80.003	19.994	103.820	20.052	3.523	0.515
1272.000	723.961	80.004	19.995	103.818	20.048	3.822	0.506
1280.000	728.064	80.003	19.995	103.811	20.050	3.620	0.466
1288.000	732.158	80.004	19.995	103.806	20.052	3.492	0.492
1296.000	736.169	80.006	19.994	103.808	20.050	3.646	0.499
1304.000	740.122	80.005	19.995	103.810	20.053	3.388	0.474
1311.000	743.684	80.005	19.995	103.809	20.051	3.565	0.528