File: 01_Data/PineLap_SidingA/MCC/PineLap_SidingA_MCC_30K_min_211123_R4.txt
Sample ID:	C:\MCC\MCC Cal\Test\PineLap_SidingA\PineLap_SidingA_MCC_30K_min_211123_R4.txt
Sample Weight (mg):	4.72
Heating Rate (C/s):	0.5
Combustor Temp (C):	900
N2 Flow Rate (cc/min):	80
O2 Flow Rate (cc/min):	20
Calibration File:	C:\MCC\MCC Cal\Coeff1 JN10440_30_210304.txt.txt
T Correction Coefficients:	0	1.024463	0
Time Shift (s):	14
*
Time (s)	Temperature (C)	N2 flow rate (cc/min)	O2 flow rate (cc/min)	Flow Rate (cc/min)	Oxygen (%)	HRR (W/g)	Heating rate (C/s)
0.000	109.179	80.008	19.995	103.133	20.040	-0.338	0.025
8.001	109.138	80.002	19.995	103.139	20.042	-0.490	-0.029
16.000	109.174	80.009	19.999	103.174	20.034	0.043	0.009
24.000	109.245	80.003	20.002	103.170	20.034	0.103	0.003
32.000	109.568	80.008	19.996	103.221	20.029	0.419	0.070
40.001	110.055	80.010	19.995	103.251	20.019	1.078	0.074
48.000	110.815	80.004	19.996	103.280	20.016	1.281	0.113
56.001	111.834	80.012	19.988	103.323	20.010	1.716	0.135
64.001	113.265	80.011	19.995	103.352	20.001	2.304	0.196
72.000	115.058	80.007	19.993	103.359	20.000	2.370	0.221
80.000	117.242	80.006	19.992	103.386	20.000	2.379	0.259
88.000	119.734	80.011	19.997	103.398	20.000	2.374	0.347
96.001	122.578	80.009	19.995	103.399	19.999	2.444	0.385
104.000	125.668	80.006	19.997	103.405	19.992	2.912	0.396
112.000	129.070	80.008	19.993	103.375	19.997	2.572	0.427
120.000	132.643	80.011	19.995	103.361	19.998	2.519	0.438
128.000	136.358	80.009	19.995	103.368	20.002	2.240	0.461
136.000	140.194	80.010	19.993	103.373	20.006	1.995	0.505
144.000	144.069	80.012	19.994	103.364	20.011	1.650	0.472
152.000	148.125	80.011	19.995	103.358	20.018	1.152	0.581
160.000	152.014	80.009	19.993	103.356	20.009	1.807	0.507
168.000	156.019	80.010	19.996	103.347	20.010	1.713	0.488
176.000	160.010	80.010	19.994	103.344	20.022	0.861	0.530
184.000	163.997	80.011	19.994	103.328	20.019	1.069	0.500
192.000	168.075	80.010	19.994	103.328	20.032	0.215	0.517
200.000	172.022	80.011	19.994	103.324	20.024	0.781	0.497
208.000	176.037	80.011	19.994	103.324	20.025	0.685	0.483
216.001	179.997	80.008	19.996	103.325	20.031	0.281	0.499
224.000	183.966	80.012	19.995	103.313	20.031	0.275	0.477
232.000	187.948	80.014	19.994	103.295	20.031	0.286	0.477
240.000	191.855	80.010	19.995	103.296	20.031	0.260	0.475
248.000	195.747	80.010	19.995	103.308	20.034	0.060	0.533
256.000	199.646	80.010	19.995	103.305	20.032	0.225	0.482
264.000	203.602	80.009	19.995	103.288	20.030	0.371	0.504
272.000	207.509	80.010	19.997	103.284	20.035	0.024	0.481
280.000	211.383	80.010	19.996	103.289	20.036	-0.051	0.485
288.000	215.313	80.012	19.994	103.289	20.037	-0.146	0.514
296.000	219.239	80.008	19.995	103.284	20.042	-0.449	0.510
304.000	223.121	80.010	19.995	103.283	20.042	-0.492	0.494
312.000	227.099	80.011	19.994	103.283	20.043	-0.573	0.479
320.000	231.029	80.010	19.995	103.281	20.046	-0.717	0.501
328.000	235.026	80.009	19.998	103.278	20.046	-0.780	0.486
336.000	239.020	80.013	19.994	103.287	20.047	-0.784	0.516
344.000	242.969	80.008	19.994	103.282	20.047	-0.816	0.480
352.000	246.959	80.008	19.995	103.286	20.049	-0.934	0.510
360.000	251.034	80.008	19.995	103.273	20.045	-0.674	0.516
368.000	255.006	80.010	19.995	103.255	20.045	-0.696	0.497
376.000	259.032	80.010	19.995	103.284	20.039	-0.247	0.509
384.000	263.039	80.009	19.995	103.289	20.046	-0.737	0.512
392.000	266.975	80.012	19.994	103.253	20.051	-1.082	0.507
400.000	271.021	80.009	19.994	103.261	20.046	-0.746	0.527
408.000	275.042	80.009	19.995	103.288	20.050	-1.029	0.495
416.000	279.013	80.006	19.998	103.272	20.053	-1.194	0.503
424.000	283.032	80.011	19.993	103.247	20.056	-1.431	0.513
432.000	287.117	80.009	19.995	103.261	20.056	-1.401	0.501
440.000	291.159	80.009	19.995	103.267	20.057	-1.484	0.498
448.000	295.322	80.012	19.995	103.269	20.055	-1.381	0.491
456.000	299.480	80.011	19.994	103.265	20.054	-1.308	0.518
464.000	303.565	80.010	19.993	103.259	20.053	-1.222	0.518
472.000	307.709	80.011	19.994	103.253	20.054	-1.319	0.526
480.000	311.752	80.011	19.996	103.250	20.056	-1.448	0.485
488.000	315.812	80.009	19.995	103.249	20.049	-0.971	0.514
496.000	319.747	80.009	19.996	103.246	20.047	-0.797	0.476
504.000	323.695	80.009	19.996	103.276	20.044	-0.602	0.531
512.000	327.611	80.009	19.997	103.243	20.039	-0.238	0.492
520.000	331.501	80.008	19.996	103.250	20.026	0.599	0.492
528.000	335.435	80.010	19.995	103.252	20.023	0.827	0.491
536.000	339.407	80.010	19.995	103.253	20.020	1.003	0.530
544.000	343.409	80.011	19.995	103.278	20.017	1.240	0.492
552.000	347.462	80.011	19.994	103.248	20.022	0.859	0.516
560.000	351.493	80.011	19.994	103.241	20.017	1.199	0.499
568.000	355.591	80.007	19.995	103.253	20.025	0.701	0.526
576.000	359.611	80.007	19.996	103.240	20.026	0.602	0.533
584.000	363.575	80.010	19.994	103.244	20.026	0.640	0.492
592.000	367.594	80.009	19.995	103.246	20.021	0.962	0.498
600.000	371.579	80.007	19.996	103.246	20.014	1.463	0.524
608.000	375.565	80.009	19.995	103.249	20.003	2.153	0.488
616.000	379.589	80.011	19.994	103.248	19.994	2.784	0.485
624.000	383.554	80.010	19.994	103.245	19.981	3.670	0.484
632.000	387.590	80.010	19.995	103.233	19.958	5.240	0.496
640.000	391.662	80.013	19.995	103.244	19.941	6.451	0.497
648.000	395.795	80.010	19.994	103.245	19.912	8.370	0.530
656.000	399.845	80.009	19.994	103.249	19.890	9.887	0.487
664.000	403.952	80.008	19.995	103.247	19.868	11.377	0.497
672.000	408.074	80.008	19.995	103.246	19.852	12.457	0.513
680.000	412.142	80.009	19.994	103.230	19.852	12.511	0.514
688.000	416.159	80.008	19.996	103.243	19.872	11.098	0.494
696.000	420.246	80.011	19.995	103.240	19.900	9.215	0.516
704.000	424.321	80.009	19.995	103.238	19.935	6.849	0.482
712.000	428.362	80.010	19.994	103.193	19.972	4.289	0.535
720.000	432.327	80.011	19.995	103.236	20.004	2.095	0.524
728.000	436.455	80.009	19.995	103.232	20.022	0.922	0.505
736.000	440.572	80.008	19.994	103.222	20.031	0.249	0.507
744.000	444.660	80.007	19.994	103.221	20.039	-0.253	0.505
752.000	448.748	80.009	19.995	103.236	20.046	-0.770	0.488
760.000	452.838	80.008	19.995	103.226	20.048	-0.898	0.503
768.001	456.950	80.009	19.995	103.224	20.047	-0.806	0.485
776.000	461.054	80.010	19.994	103.241	20.051	-1.074	0.503
784.000	465.101	80.010	19.995	103.242	20.058	-1.568	0.479
792.000	469.231	80.008	19.995	103.221	20.065	-2.065	0.500
800.000	473.264	80.010	19.995	103.208	20.066	-2.130	0.508
808.000	477.374	80.010	19.995	103.229	20.072	-2.517	0.511
816.001	481.439	80.008	19.995	103.223	20.081	-3.157	0.505
824.000	485.464	80.008	19.995	103.225	20.087	-3.568	0.515
832.000	489.558	80.010	19.996	103.217	20.095	-4.120	0.538
840.000	493.704	80.009	19.994	103.208	20.101	-4.476	0.554
848.000	497.777	80.010	19.995	103.219	20.101	-4.492	0.533
856.000	501.864	80.010	19.996	103.231	20.112	-5.244	0.552
864.000	505.946	80.012	19.995	103.212	20.115	-5.465	0.527
872.000	510.045	80.010	19.994	103.220	20.119	-5.725	0.502
880.000	514.180	80.010	19.996	103.210	20.125	-6.110	0.519
888.000	518.353	80.009	19.994	103.206	20.125	-6.143	0.510
896.000	522.474	80.009	19.994	103.212	20.127	-6.245	0.510
904.000	526.605	80.009	19.996	103.210	20.128	-6.375	0.502
912.001	530.764	80.010	19.994	103.209	20.134	-6.770	0.508
920.000	534.910	80.009	19.993	103.214	20.133	-6.686	0.508
928.000	539.021	80.008	19.994	103.211	20.136	-6.858	0.526
936.000	543.079	80.009	19.995	103.217	20.134	-6.762	0.528
944.000	547.102	80.010	19.995	103.207	20.141	-7.229	0.510
952.000	551.145	80.007	19.995	103.211	20.134	-6.768	0.511
960.000	555.309	80.010	19.995	103.208	20.144	-7.453	0.546
968.000	559.409	80.011	19.995	103.206	20.139	-7.086	0.536
976.000	563.543	80.008	19.995	103.207	20.139	-7.084	0.511
984.000	567.614	80.007	19.995	103.212	20.141	-7.260	0.522
992.000	571.749	80.008	19.995	103.209	20.139	-7.060	0.519
1000.000	575.849	80.008	19.994	103.214	20.142	-7.269	0.478
1008.000	579.959	80.009	19.995	103.208	20.145	-7.499	0.483
1016.000	584.026	80.010	19.996	103.208	20.149	-7.776	0.482
1024.001	588.100	80.010	19.994	103.207	20.143	-7.393	0.522
1032.000	592.160	80.010	19.994	103.214	20.146	-7.566	0.526
1040.000	596.248	80.010	19.993	103.263	20.148	-7.703	0.517
1048.000	600.287	80.012	19.995	103.219	20.152	-7.977	0.509
1056.000	604.365	80.010	19.995	103.206	20.148	-7.720	0.492
1064.000	608.424	80.008	19.995	103.213	20.152	-7.957	0.476
1072.000	612.498	80.008	19.996	103.213	20.154	-8.137	0.526
1080.000	616.651	80.009	19.996	103.205	20.154	-8.118	0.508
1088.000	620.696	80.009	19.995	103.207	20.153	-8.030	0.492
1096.000	624.804	80.009	19.995	103.215	20.153	-8.049	0.502
1104.000	628.845	80.011	19.994	103.210	20.152	-7.967	0.492
1112.000	632.899	80.010	19.995	103.227	20.151	-7.910	0.511
1120.000	636.974	80.012	19.994	103.237	20.152	-7.979	0.510
1128.001	640.994	80.013	19.994	103.228	20.155	-8.162	0.507
1136.000	644.992	80.009	19.995	103.235	20.155	-8.158	0.518
1144.000	649.010	80.009	19.995	103.245	20.155	-8.179	0.520
1152.000	653.057	80.008	19.996	103.241	20.157	-8.347	0.520
1160.001	657.119	80.008	19.995	103.254	20.154	-8.131	0.504
1168.000	661.209	80.008	19.997	103.252	20.157	-8.317	0.556
1176.000	665.136	80.007	19.995	103.263	20.154	-8.155	0.497
1184.000	669.158	80.011	19.994	103.262	20.151	-7.916	0.510
1192.000	673.159	80.009	19.994	103.271	20.154	-8.117	0.491
1200.000	677.244	80.009	19.995	103.287	20.151	-7.926	0.521
1208.001	681.292	80.012	19.995	103.287	20.151	-7.913	0.499
1216.000	685.349	80.011	19.994	103.301	20.150	-7.836	0.512
1224.001	689.402	80.010	19.994	103.308	20.147	-7.645	0.509
1232.000	693.443	80.008	19.996	103.297	20.146	-7.588	0.512
1240.001	697.463	80.010	19.995	103.326	20.146	-7.602	0.513
1248.000	701.546	80.008	19.995	103.337	20.143	-7.372	0.509
1256.001	705.551	80.008	19.996	103.355	20.143	-7.370	0.518
1264.000	709.575	80.008	19.995	103.364	20.146	-7.575	0.524
1272.000	713.567	80.009	19.995	103.365	20.142	-7.279	0.507
1280.000	717.594	80.008	19.995	103.398	20.139	-7.105	0.496
1288.001	721.608	80.013	19.994	103.400	20.141	-7.222	0.487
1296.000	725.637	80.010	19.994	103.419	20.134	-6.794	0.502
1304.000	729.642	80.008	19.995	103.427	20.131	-6.535	0.511
1312.000	733.669	80.009	19.995	103.455	20.128	-6.369	0.533
1320.000	737.702	80.008	19.994	103.458	20.129	-6.420	0.509
1328.000	741.731	80.008	19.996	103.480	20.127	-6.300	0.516
1331.500	743.466	80.007	19.996	103.483	20.127	-6.306	0.503