File: 01_Data/Rubber_Foam_Pipe_Insulation/STA/N2/10K_min/Rubber_Foam_Pipe_Insulation_STA_N2_10KData_220921_R2.csv
##Temp./Â°C,Time/min,Mass loss(subtr.2)/mg,DSC(subtr.2)/(mW/mg),Sensit./(uV/mW)
50.373,10.01,0.00494,-0.01077366,1.02682
53.373,11.44176,0.005510116,0.09292634,1.02656
56.373,11.9496,0.005069455,0.13788,1.0263
59.373,12.37755,0.00559672,0.16929,1.02603
62.373,12.77206,0.005336401,0.18583,1.02575
65.373,13.1448,0.0055847,0.19779,1.02547
68.373,13.50288,0.005682749,0.20276,1.02518
71.373,13.84946,0.004391288,0.21067,1.02488
74.373,14.18888,0.004390496,0.21826,1.02458
77.373,14.5194,0.00470778,0.22301,1.02427
80.373,14.8422,0.004297276,0.23065,1.02396
83.373,15.164,0.00438705,0.23639,1.02364
86.373,15.4787,0.004392017,0.23999,1.02331
89.373,15.78902,0.00306559,0.24726,1.02298
92.373,16.09515,0.002003018,0.25444,1.02264
95.373,16.39655,0.003066091,0.26135,1.02229
98.373,16.6987,0.001741384,0.26738,1.02193
101.373,16.99855,0.00169419,0.27375,1.02157
104.373,17.2951,0.00178927,0.2808,1.0212
107.373,17.58982,0.000774777,0.28287,1.02083
110.373,17.88458,0.0004688499,0.28544,1.02044
113.373,18.17829,-0.0008799764,0.29374,1.02005
116.373,18.47118,-0.00122598,0.30372,1.01965
119.373,18.7645,-0.00293555,0.30239,1.01924
122.373,19.05663,-0.00312562,0.29714,1.01883
125.373,19.34769,-0.0035263,0.29488,1.0184
128.373,19.63811,-0.005117671,0.29875,1.01797
131.373,19.92792,-0.003833988,0.3015,1.01753
134.373,20.21632,-0.00549749,0.3042,1.01708
137.373,20.50403,-0.006480796,0.30663,1.01663
140.373,20.79138,-0.008124062,0.30868,1.01616
143.373,21.0787,-0.008120081,0.31138,1.01569
146.373,21.36514,-0.009092219,0.31321,1.0152
149.373,21.65094,-0.01076,0.3133,1.01471
152.373,21.93684,-0.01273645,0.31421,1.01421
155.373,22.2222,-0.01536943,0.31769,1.0137
158.373,22.50777,-0.0153806,0.32274,1.01318
161.373,22.79334,-0.01737075,0.32548,1.01265
164.373,23.078,-0.02064,0.33335,1.01211
167.373,23.36338,-0.02260079,0.34274,1.01156
170.373,23.64866,-0.02459,0.35121,1.011
173.373,23.93277,-0.02723008,0.36103,1.01043
176.373,24.21744,-0.0298707,0.37208,1.00985
179.373,24.50287,-0.03381032,0.38621,1.00926
182.373,24.78734,-0.03843785,0.39688,1.00866
185.373,25.07133,-0.04309754,0.40915,1.00805
188.373,25.35635,-0.04561793,0.42116,1.00743
191.373,25.64149,-0.05224682,0.43066,1.0068
194.373,25.92665,-0.05752848,0.44121,1.00616
197.373,26.20934,-0.06471783,0.44821,1.0055
200.373,26.49457,-0.07007269,0.45255,1.00484
203.373,26.7805,-0.07676981,0.4572,1.00416
206.373,27.0647,-0.08338859,0.45873,1.00347
209.373,27.3488,-0.08985784,0.46218,1.00278
212.373,27.63239,-0.09782568,0.46494,1.00207
215.373,27.91596,-0.10525,0.46812,1.00134
218.373,28.20028,-0.11275,0.47559,1.00061
221.373,28.4845,-0.12045,0.49785,0.99987
224.373,28.76935,-0.13018,0.52951,0.99911
227.373,29.05159,-0.14209,0.57962,0.99834
230.373,29.33855,-0.15622,0.64876,0.99756
233.373,29.62425,-0.17158,0.73777,0.99676
236.373,29.9102,-0.19059,0.8479,0.99596
239.373,30.19602,-0.21374,0.97232,0.99514
242.373,30.4818,-0.24244,0.96002,0.99431
245.373,30.76653,-0.26787,0.68352,0.99346
248.373,31.05077,-0.29598,0.5478,0.9926
251.373,31.3353,-0.33209,0.59447,0.99173
254.373,31.62084,-0.37173,0.65717,0.99085
257.373,31.9066,-0.41864,0.66396,0.98995
260.373,32.19266,-0.47821,0.5756,0.98904
263.373,32.47651,-0.5618,0.1937,0.98812
266.373,32.75925,-0.67921,-0.10167,0.98718
269.373,33.04355,-0.77618,0.32243,0.98623
272.373,33.33228,-0.83209,0.66381,0.98527
275.373,33.61975,-0.87121,0.73987,0.98429
278.373,33.90733,-0.90041,0.69217,0.98329
281.373,34.19372,-0.92627,0.60607,0.98229
284.373,34.4794,-0.94754,0.52829,0.98127
287.373,34.7659,-0.96625,0.4662,0.98023
290.373,35.0524,-0.98191,0.42443,0.97918
293.373,35.33821,-0.99766,0.39443,0.97812
296.373,35.6245,-1.01014,0.37642,0.97704
299.373,35.91138,-1.02564,0.36127,0.97595
302.373,36.19809,-1.03837,0.34919,0.97484
305.373,36.48492,-1.05073,0.3381,0.97372
308.373,36.77217,-1.06414,0.33516,0.97258
311.373,37.05966,-1.07389,0.33106,0.97142
314.373,37.34648,-1.0867,0.32778,0.97026
317.373,37.63476,-1.1002,0.32489,0.96907
320.373,37.9223,-1.10924,0.32228,0.96788
323.373,38.21072,-1.12186,0.31946,0.96666
326.373,38.49835,-1.1318,0.31536,0.96543
329.373,38.7866,-1.14413,0.31479,0.96419
332.373,39.07454,-1.15553,0.31181,0.96293
335.373,39.36268,-1.16634,0.30796,0.96165
338.373,39.65144,-1.17644,0.30467,0.96036
341.373,39.9407,-1.18896,0.29794,0.95905
344.373,40.23002,-1.20026,0.29395,0.95773
347.373,40.51967,-1.21191,0.28921,0.95639
350.373,40.80959,-1.22552,0.28552,0.95503
353.373,41.09912,-1.23526,0.28361,0.95366
356.373,41.38847,-1.24671,0.28007,0.95227
359.373,41.67881,-1.2599,0.27821,0.95087
362.373,41.96914,-1.27053,0.27636,0.94945
365.373,42.25918,-1.28204,0.27888,0.94801
368.373,42.54967,-1.29475,0.30366,0.94656
371.373,42.8405,-1.31114,0.39225,0.94509
374.373,43.1318,-1.33139,0.54468,0.9436
377.373,43.42348,-1.35765,0.62525,0.9421
380.373,43.71461,-1.38322,0.5875,0.94058
383.373,44.006,-1.40616,0.51094,0.93905
386.373,44.2967,-1.42582,0.44335,0.93749
389.373,44.58703,-1.44486,0.37929,0.93592
392.373,44.87754,-1.46033,0.33414,0.93434
395.373,45.16775,-1.47471,0.29817,0.93273
398.373,45.4584,-1.48697,0.27503,0.93111
401.373,45.7493,-1.50298,0.25983,0.92948
404.373,46.0385,-1.51627,0.25104,0.92782
407.373,46.33166,-1.53262,0.24531,0.92615
410.373,46.6235,-1.54594,0.24636,0.92446
413.373,46.91584,-1.56511,0.24569,0.92276
416.373,47.208,-1.58132,0.25003,0.92104
419.373,47.50062,-1.60158,0.25646,0.9193
422.373,47.79333,-1.6225,0.26243,0.91754
425.373,48.08607,-1.64453,0.27232,0.91577
428.373,48.37892,-1.66977,0.28505,0.91398
431.373,48.67145,-1.69663,0.30029,0.91217
434.373,48.964,-1.72594,0.31327,0.91035
437.373,49.25724,-1.75534,0.32568,0.9085
440.373,49.54958,-1.78888,0.34079,0.90665
443.373,49.84265,-1.82179,0.35013,0.90477
446.373,50.13629,-1.85845,0.35989,0.90288
449.373,50.43014,-1.89444,0.36605,0.90096
452.373,50.7245,-1.93184,0.36905,0.89904
455.373,51.01783,-1.96845,0.36893,0.89709
458.373,51.31162,-2.00361,0.36584,0.89513
461.373,51.6058,-2.03628,0.35357,0.89315
464.373,51.90044,-2.06814,0.33685,0.89115
467.373,52.1946,-2.09763,0.32192,0.88914
470.373,52.4892,-2.12698,0.31605,0.88711
473.373,52.7836,-2.14841,0.31061,0.88506
476.373,53.0779,-2.17009,0.31874,0.88299
479.373,53.37248,-2.18881,0.33424,0.88091
482.373,53.6678,-2.20593,0.36531,0.87881
485.373,53.9626,-2.22236,0.39888,0.8767
488.373,54.25829,-2.23998,0.42417,0.87456
491.373,54.55393,-2.25628,0.44146,0.87241
494.373,54.84935,-2.27129,0.44233,0.87024
497.373,55.1447,-2.28435,0.4295,0.86806
500.373,55.44007,-2.29864,0.41126,0.86586
503.373,55.73535,-2.31035,0.3869,0.86364
506.373,56.03065,-2.32252,0.36004,0.8614
509.373,56.32598,-2.3328,0.33199,0.85915
512.373,56.62164,-2.34199,0.3082,0.85688
515.373,56.9177,-2.35083,0.28672,0.8546
518.373,57.21409,-2.35688,0.25747,0.8523
521.373,57.5105,-2.36601,0.23805,0.84998
524.373,57.8073,-2.3713,0.21725,0.84764
527.373,58.10434,-2.37757,0.19728,0.84529
530.373,58.4011,-2.3817,0.181,0.84292
533.373,58.69849,-2.38682,0.1703,0.84054
536.373,58.9948,-2.39208,0.16621,0.83814
539.373,59.29084,-2.39733,0.16336,0.83572
542.373,59.5872,-2.39997,0.16704,0.83329
545.373,59.88589,-2.40253,0.16982,0.83084
548.373,60.18303,-2.40819,0.17448,0.82838
551.373,60.4798,-2.41116,0.17691,0.8259
554.373,60.77612,-2.41643,0.1803,0.8234
557.373,61.073,-2.42081,0.18663,0.82089
560.373,61.37055,-2.42445,0.19318,0.81836
563.373,61.6677,-2.42971,0.20264,0.81581
566.373,61.96519,-2.43569,0.21526,0.81325
569.373,62.26236,-2.43825,0.22925,0.81068
572.373,62.56001,-2.44487,0.24264,0.80809
575.373,62.8579,-2.44959,0.2526,0.80548
578.373,63.1556,-2.45618,0.24917,0.80286
581.373,63.4531,-2.4615,0.22989,0.80023
584.373,63.7507,-2.46474,0.20675,0.79758
587.373,64.04836,-2.46983,0.19258,0.79491
590.373,64.3467,-2.47622,0.18052,0.79223
593.373,64.6447,-2.48087,0.1664,0.78954
596.373,64.94277,-2.48578,0.15416,0.78683
599.373,65.24056,-2.48978,0.14465,0.7841
602.373,65.53918,-2.49307,0.13795,0.78137
605.373,65.83792,-2.49772,0.13373,0.77861
608.373,66.1371,-2.5004,0.12942,0.77585
611.373,66.4361,-2.50328,0.12713,0.77307
614.373,66.73415,-2.50867,0.12529,0.77027
617.373,67.03237,-2.51002,0.12153,0.76747
620.373,67.33102,-2.51564,0.11277,0.76464
623.373,67.6292,-2.51648,0.10343,0.76181
626.373,67.9284,-2.51952,0.09354511,0.75896
629.373,68.22737,-2.52183,0.09042622,0.7561
632.373,68.5252,-2.52545,0.07595303,0.75322
635.373,68.82409,-2.52809,0.062549,0.75034
638.373,69.1228,-2.52939,0.05076381,0.74744
641.373,69.42269,-2.53204,0.03673713,0.74452
644.373,69.72247,-2.53336,0.02766742,0.7416
647.373,70.02229,-2.53467,0.02008427,0.73866
650.373,70.322,-2.53599,0.01433131,0.73571
653.373,70.6211,-2.53731,0.007563824,0.73275
656.373,70.92054,-2.53731,0.001927474,0.72977
659.373,71.21998,-2.53994,0.00551143,0.72678
662.373,71.51994,-2.54027,0.002103572,0.72379
665.373,71.81973,-2.54321,0.005804561,0.72078
668.373,72.11968,-2.54079,0.009548212,0.71775
671.373,72.41996,-2.54378,0.01013737,0.71472
674.373,72.71976,-2.54752,0.01393758,0.71168
677.373,73.01995,-2.54412,0.01400073,0.70862
680.373,73.31973,-2.54521,0.0132658,0.70556
683.373,73.61961,-2.54984,0.01579422,0.70248
686.373,73.92027,-2.54851,0.01909945,0.6994
689.373,74.22022,-2.55114,0.01973186,0.6963
692.373,74.52045,-2.55114,0.0275151,0.69319
695.373,74.82089,-2.55278,0.03263491,0.69008
698.373,75.12127,-2.55245,0.03590441,0.68695
701.373,75.4219,-2.55444,0.04435774,0.68381
704.373,75.72231,-2.55575,0.04954797,0.68067
707.373,76.023,-2.55936,0.06079728,0.67751
710.373,76.32204,-2.55937,0.06475868,0.67435
713.373,76.62349,-2.56066,0.07727315,0.67117
716.373,76.92448,-2.56259,0.07952223,0.66799
719.373,77.22596,-2.56333,0.08943569,0.6648
722.373,77.5273,-2.56496,0.09431488,0.6616
725.373,77.82892,-2.56629,0.10072,0.65839
728.373,78.13015,-2.56761,0.11149,0.65518
731.373,78.4315,-2.57024,0.12276,0.65195
734.373,78.73334,-2.57105,0.1439,0.64872
737.373,79.0351,-2.574,0.16594,0.64548
740.373,79.3369,-2.57686,0.20269,0.64224
743.373,79.6386,-2.57941,0.23436,0.63898
746.373,79.94028,-2.58411,0.22832,0.63572
746.873,79.99082,-2.58309,0.22433,0.63518