File: 01_Data/Rubber_Foam_Pipe_Insulation/STA/N2/10K_min/Rubber_Foam_Pipe_Insulation_STA_N2_10KData_220922_R4.csv
##Temp./Â°C,Time/min,Mass loss(subtr.2)/mg,DSC(subtr.2)/(mW/mg),Sensit./(uV/mW)
50.426,10.00917,-0.00044,-0.007320341,1.02682
53.426,11.44202,0.004199613,0.08879587,1.02656
56.426,11.9505,0.006701545,0.13529,1.02629
59.426,12.37819,-0.002323922,0.16445,1.02602
62.426,12.77196,0.00400774,0.17987,1.02574
65.426,13.14371,-0.00194363,0.19152,1.02546
68.426,13.50105,0.005937144,0.19581,1.02517
71.426,13.8486,-0.00220038,0.20001,1.02488
74.426,14.18649,-0.0009445086,0.20963,1.02458
77.426,14.5178,0.008875185,0.21285,1.02427
80.426,14.8431,0.002922523,0.21847,1.02395
83.426,15.16381,-0.0002557915,0.22592,1.02363
86.426,15.47815,-0.003019414,0.23452,1.02331
89.426,15.7888,-0.0007589054,0.23995,1.02297
92.426,16.0949,-0.000769995,0.24157,1.02263
95.426,16.39837,-0.004059521,0.24819,1.02228
98.426,16.69879,-0.00131822,0.25208,1.02193
101.426,16.99704,-0.00595524,0.25939,1.02157
104.426,17.29373,0.003047707,0.26226,1.0212
107.426,17.58911,-0.00625735,0.26619,1.02082
110.426,17.8837,-0.008449295,0.27032,1.02044
113.426,18.17764,-0.005818915,0.27541,1.02004
116.426,18.47099,-0.007130514,0.28239,1.01964
119.426,18.76321,-0.005819601,0.28546,1.01924
122.426,19.05474,-0.009756861,0.28107,1.01882
125.426,19.3458,-0.006580587,0.27957,1.0184
128.426,19.6358,-0.007845513,0.28037,1.01796
131.426,19.9248,-0.01146417,0.2834,1.01752
134.426,20.21327,-0.0148802,0.28844,1.01708
137.426,20.5015,-0.01053063,0.28832,1.01662
140.426,20.78878,-0.0177785,0.29147,1.01615
143.426,21.0762,-0.014492,0.29503,1.01568
146.426,21.3618,-0.01608416,0.29508,1.01519
149.426,21.6481,-0.01570489,0.29606,1.0147
152.426,21.93368,-0.02007796,0.29763,1.0142
155.426,22.21905,-0.02305641,0.30198,1.01369
158.426,22.50348,-0.02176008,0.30436,1.01317
161.426,22.78858,-0.02382915,0.31006,1.01264
164.426,23.07295,-0.02330314,0.31478,1.0121
167.426,23.3584,-0.02679001,0.32175,1.01155
170.426,23.64349,-0.03093629,0.33072,1.01099
173.426,23.92791,-0.03292838,0.33941,1.01042
176.426,24.21347,-0.03909208,0.35013,1.00984
179.426,24.49811,-0.03908,0.35973,1.00925
182.426,24.7834,-0.04371638,0.37398,1.00865
185.426,25.06833,-0.05072267,0.38493,1.00804
188.426,25.35274,-0.05599,0.39708,1.00742
191.426,25.63736,-0.05598246,0.40592,1.00679
194.426,25.9217,-0.06443873,0.41628,1.00614
197.426,26.20611,-0.07011993,0.4248,1.00549
200.426,26.49125,-0.08001929,0.43066,1.00483
203.426,26.7754,-0.08352845,0.43361,1.00415
206.426,27.05892,-0.09012948,0.43688,1.00346
209.426,27.3436,-0.09907085,0.43853,1.00276
212.426,27.62783,-0.10008,0.43751,1.00205
215.426,27.9121,-0.11329,0.44304,1.00133
218.426,28.19637,-0.12179,0.45258,1.0006
221.426,28.48123,-0.12977,0.47263,0.99985
224.426,28.76574,-0.13772,0.50401,0.9991
227.426,29.05136,-0.15568,0.54878,0.99833
230.426,29.33666,-0.16358,0.61118,0.99754
233.426,29.62193,-0.1834,0.69766,0.99675
236.426,29.9079,-0.19608,0.80014,0.99594
239.426,30.1935,-0.2212,0.92096,0.99512
242.426,30.47999,-0.25096,0.90217,0.99429
245.426,30.7642,-0.27749,0.64006,0.99345
248.426,31.04856,-0.30294,0.51229,0.99259
251.426,31.3334,-0.33765,0.55008,0.99172
254.426,31.6189,-0.37871,0.60366,0.99083
257.426,31.9038,-0.42479,0.60096,0.98994
260.426,32.18973,-0.48502,0.48828,0.98903
263.426,32.47376,-0.5699,0.03849491,0.9881
266.426,32.75609,-0.68789,-0.2493,0.98717
269.426,33.0411,-0.78365,0.22552,0.98621
272.426,33.32816,-0.83734,0.58343,0.98525
275.426,33.61568,-0.87036,0.6763,0.98427
278.426,33.9022,-0.90623,0.64765,0.98328
281.426,34.18742,-0.93027,0.57997,0.98227
284.426,34.47335,-0.95005,0.50877,0.98125
287.426,34.75912,-0.96499,0.45762,0.98021
290.426,35.04446,-0.98348,0.41714,0.97916
293.426,35.3311,-1.00396,0.39166,0.9781
296.426,35.61699,-1.0138,0.37087,0.97702
299.426,35.90399,-1.02825,0.35713,0.97593
302.426,36.19025,-1.04172,0.34396,0.97482
305.426,36.4777,-1.05503,0.33425,0.9737
308.426,36.76475,-1.06569,0.3262,0.97256
311.426,37.0527,-1.07686,0.32055,0.9714
314.426,37.33996,-1.09481,0.31956,0.97024
317.426,37.6277,-1.10132,0.31547,0.96905
320.426,37.915,-1.11371,0.31458,0.96785
323.426,38.2027,-1.12424,0.3077,0.96664
326.426,38.48986,-1.13721,0.30531,0.96541
329.426,38.77845,-1.15024,0.30262,0.96417
332.426,39.06668,-1.16052,0.30274,0.9629
335.426,39.35499,-1.17355,0.30107,0.96163
338.426,39.64383,-1.18621,0.29654,0.96034
341.426,39.93255,-1.19527,0.29461,0.95903
344.426,40.22156,-1.21017,0.29037,0.9577
347.426,40.51057,-1.22157,0.28578,0.95636
350.426,40.79994,-1.23048,0.28326,0.95501
353.426,41.08941,-1.24374,0.27963,0.95364
356.426,41.3786,-1.25702,0.27434,0.95225
359.426,41.66843,-1.26852,0.2686,0.95084
362.426,41.95816,-1.28119,0.26334,0.94942
365.426,42.24794,-1.2939,0.26439,0.94799
368.426,42.53771,-1.30761,0.28611,0.94653
371.426,42.82825,-1.32273,0.36945,0.94506
374.426,43.12016,-1.34457,0.49987,0.94358
377.426,43.41193,-1.36623,0.55533,0.94207
380.426,43.7031,-1.39059,0.51754,0.94055
383.426,43.994,-1.41534,0.45632,0.93902
386.426,44.28459,-1.4322,0.39468,0.93747
389.426,44.57633,-1.45085,0.34248,0.9359
392.426,44.8673,-1.46543,0.29947,0.93431
395.426,45.15817,-1.48,0.26292,0.93271
398.426,45.44913,-1.49546,0.23876,0.93109
401.426,45.74022,-1.50995,0.22158,0.92945
404.426,46.03135,-1.52372,0.21331,0.92779
407.426,46.3224,-1.54077,0.20636,0.92612
410.426,46.61407,-1.55407,0.20581,0.92443
413.426,46.90647,-1.56941,0.20638,0.92273
416.426,47.19865,-1.58678,0.20672,0.92101
419.426,47.49088,-1.60775,0.21173,0.91927
422.426,47.78382,-1.62896,0.21688,0.91751
425.426,48.0773,-1.65812,0.22607,0.91574
428.426,48.37,-1.67977,0.23439,0.91395
431.426,48.6629,-1.70345,0.24571,0.91214
434.426,48.95612,-1.73135,0.25936,0.91031
437.426,49.24899,-1.76519,0.272,0.90847
440.426,49.54228,-1.79839,0.28781,0.90661
443.426,49.8358,-1.82965,0.29738,0.90474
446.426,50.1295,-1.86757,0.30805,0.90284
449.426,50.42268,-1.90074,0.31596,0.90093
452.426,50.71632,-1.9429,0.31947,0.899
455.426,51.0099,-1.97606,0.32661,0.89706
458.426,51.30385,-2.01362,0.3229,0.89509
461.426,51.598,-2.04892,0.30609,0.89311
464.426,51.89203,-2.08218,0.28474,0.89112
467.426,52.18605,-2.1077,0.26703,0.8891
470.426,52.4809,-2.13761,0.25581,0.88707
473.426,52.7755,-2.16133,0.24779,0.88502
476.426,53.0702,-2.17985,0.25209,0.88296
479.426,53.36456,-2.1967,0.26732,0.88088
482.426,53.6582,-2.2151,0.29576,0.87878
485.426,53.95293,-2.23091,0.33456,0.87666
488.426,54.2477,-2.25247,0.36733,0.87452
491.426,54.5423,-2.26695,0.38837,0.87237
494.426,54.83706,-2.28507,0.39616,0.87021
497.426,55.13234,-2.29836,0.38512,0.86802
500.426,55.42795,-2.31296,0.36305,0.86582
503.426,55.72356,-2.3257,0.33554,0.8636
506.426,56.0189,-2.33872,0.30588,0.86136
509.426,56.31531,-2.35075,0.27711,0.85911
512.426,56.61045,-2.35676,0.25098,0.85684
515.426,56.9065,-2.36939,0.22666,0.85456
518.426,57.2028,-2.37671,0.20001,0.85226
521.426,57.49834,-2.38746,0.17998,0.84994
524.426,57.7948,-2.39008,0.15896,0.8476
527.426,58.0916,-2.39493,0.13878,0.84525
530.426,58.3886,-2.39942,0.12391,0.84288
533.426,58.68518,-2.40338,0.10807,0.8405
536.426,58.9817,-2.40959,0.10422,0.8381
539.426,59.27887,-2.41357,0.10187,0.83568
542.426,59.57646,-2.42028,0.0975258,0.83325
545.426,59.87384,-2.42226,0.09925204,0.8308
548.426,60.1716,-2.42415,0.09700875,0.82833
551.426,60.4684,-2.43663,0.09896961,0.82585
554.426,60.7652,-2.43263,0.09860361,0.82335
557.426,61.06134,-2.43677,0.10736,0.82084
560.426,61.35836,-2.44922,0.11436,0.81831
563.426,61.6553,-2.45252,0.12336,0.81577
566.426,61.953,-2.45564,0.13693,0.81321
569.426,62.2506,-2.45815,0.15228,0.81063
572.426,62.5485,-2.46414,0.16305,0.80804
575.426,62.84616,-2.46582,0.17342,0.80544
578.426,63.14416,-2.4727,0.17453,0.80282
581.426,63.44246,-2.48491,0.16255,0.80018
584.426,63.74058,-2.48697,0.13902,0.79753
587.426,64.0386,-2.49027,0.11882,0.79487
590.426,64.33671,-2.49372,0.1024,0.79219
593.426,64.63502,-2.50076,0.09077242,0.78949
596.426,64.93338,-2.50598,0.07687054,0.78678
599.426,65.2316,-2.51123,0.06386323,0.78406
602.426,65.53069,-2.5115,0.05573125,0.78132
605.426,65.82902,-2.51513,0.04176575,0.77857
608.426,66.1273,-2.51776,0.03243245,0.7758
611.426,66.42589,-2.52436,0.02683342,0.77302
614.426,66.72492,-2.52722,0.01960383,0.77022
617.426,67.02333,-2.53003,0.01052033,0.76742
620.426,67.3225,-2.53195,0.0009049652,0.76459
623.426,67.62141,-2.53589,-0.00811407,0.76176
626.426,67.91996,-2.53457,-0.01950808,0.75891
629.426,68.21936,-2.5438,-0.02810366,0.75605
632.426,68.51847,-2.54279,-0.04059291,0.75317
635.426,68.81659,-2.54542,-0.05302279,0.75029
638.426,69.1151,-2.54675,-0.06369101,0.74738
641.426,69.41345,-2.5451,-0.07269712,0.74447
644.426,69.712,-2.54624,-0.08002921,0.74155
647.426,70.01093,-2.54906,-0.08376778,0.73861
650.426,70.3105,-2.5539,-0.09303228,0.73566
653.426,70.61041,-2.55257,-0.09416601,0.73269
656.426,70.91073,-2.55123,-0.09780431,0.72972
659.426,71.21081,-2.55828,-0.09688069,0.72673
662.426,71.51111,-2.5589,-0.09656094,0.72373
665.426,71.81147,-2.55575,-0.0959823,0.72072
668.426,72.11147,-2.55739,-0.09429932,0.7177
671.426,72.41196,-2.55695,-0.09508202,0.71467
674.426,72.71231,-2.55684,-0.09570842,0.71162
677.426,73.01241,-2.56684,-0.09377667,0.70857
680.426,73.31226,-2.56,-0.09409509,0.7055
683.426,73.61291,-2.56964,-0.09181267,0.70243
686.426,73.91362,-2.56304,-0.09092367,0.69934
689.426,74.21464,-2.56255,-0.08745344,0.69624
692.426,74.5146,-2.56684,-0.08303971,0.69314
695.426,74.81459,-2.56823,-0.08431829,0.69002
698.426,75.11426,-2.56684,-0.08467439,0.68689
701.426,75.4143,-2.56852,-0.07836403,0.68376
704.426,75.7146,-2.56703,-0.07154704,0.68061
707.426,76.01531,-2.57357,-0.06441856,0.67746
710.426,76.31663,-2.57672,-0.05905461,0.67429
713.426,76.61786,-2.57057,-0.05800167,0.67112
716.426,76.91894,-2.57979,-0.05432896,0.66794
719.426,77.2202,-2.57854,-0.05269075,0.66474
722.426,77.5214,-2.57772,-0.04791177,0.66154
725.426,77.82231,-2.58177,-0.04740806,0.65834
728.426,78.12402,-2.58277,-0.04297412,0.65512
731.426,78.4249,-2.58492,-0.03261818,0.6519
734.426,78.72515,-2.58648,-0.02924268,0.64867
737.426,79.02617,-2.59055,-0.03098276,0.64543
740.426,79.32732,-2.58452,-0.0272346,0.64218
743.426,79.62923,-2.59802,-0.02352286,0.63893
746.426,79.9307,-2.58756,-0.01456115,0.63567
747.026,79.99149,-2.59066,-0.01307795,0.63501