File: 01_Data/Rubber_Foam_Pipe_Insulation/STA/N2/10K_min/Rubber_Foam_Pipe_Insulation_STA_N2_10KData_220921_R1.csv
##Temp./Â°C,Time/min,Mass loss(subtr.2)/mg,DSC(subtr.2)/(mW/mg),Sensit./(uV/mW)
50.19,10.00917,0.00494,0.0114592,1.02684
53.09,11.42639,0.00680438,0.33052,1.02659
55.99,11.9252,0.0059178,0.49565,1.02633
58.89,12.34539,0.00749377,0.60473,1.02607
61.79,12.7311,0.007574137,0.67972,1.0258
64.69,13.09426,0.008001683,0.72387,1.02553
67.59,13.4445,0.00780818,0.7492,1.02525
70.49,13.7827,0.00673973,0.76926,1.02497
73.39,14.11234,0.006492205,0.78702,1.02468
76.29,14.4353,0.005097242,0.80932,1.02439
79.19,14.7511,0.005059999,0.83451,1.02408
82.09,15.0633,0.004914208,0.86305,1.02378
84.99,15.36616,0.004627437,0.88733,1.02346
87.89,15.66944,0.00132126,0.90592,1.02314
90.79,15.9683,0.0013139,0.92671,1.02282
93.69,16.2636,-0.001310571,0.94611,1.02249
96.59,16.55588,-0.002206583,0.96693,1.02215
99.49,16.84541,-0.003951121,0.98604,1.0218
102.39,17.13409,-0.006586,1.01016,1.02145
105.29,17.4207,-0.0079008,1.02779,1.02109
108.19,17.70574,-0.008610365,1.04205,1.02072
111.09,17.98979,-0.01189899,1.05333,1.02035
113.99,18.27446,-0.01348761,1.07308,1.01997
116.89,18.5577,-0.01448985,1.09325,1.01958
119.79,18.84011,-0.01778019,1.10641,1.01919
122.69,19.12248,-0.01906514,1.09489,1.01878
125.59,19.404,-0.0221209,1.08991,1.01837
128.49,19.68471,-0.0247033,1.09407,1.01796
131.39,19.9639,-0.02660781,1.09874,1.01753
134.29,20.2435,-0.02864982,1.10827,1.0171
137.19,20.52225,-0.03193998,1.1172,1.01665
140.09,20.8005,-0.03391571,1.1248,1.0162
142.99,21.07846,-0.0381975,1.13152,1.01575
145.89,21.3554,-0.0421644,1.13784,1.01528
148.79,21.63254,-0.04410675,1.14529,1.01481
151.69,21.90833,-0.04837974,1.15065,1.01432
154.59,22.18446,-0.05105001,1.15379,1.01383
157.49,22.45947,-0.05499,1.16159,1.01333
160.39,22.73489,-0.0589642,1.17025,1.01282
163.29,23.01022,-0.0655368,1.18391,1.0123
166.19,23.28584,-0.07047843,1.20079,1.01178
169.09,23.5615,-0.07734889,1.21907,1.01124
171.99,23.83766,-0.08529497,1.24345,1.01069
174.89,24.11355,-0.09183937,1.27301,1.01014
177.79,24.38948,-0.10146,1.30245,1.00957
180.69,24.66517,-0.1128,1.3364,1.009
183.59,24.94047,-0.1235,1.37109,1.00841
186.49,25.2155,-0.13548,1.40702,1.00782
189.39,25.49008,-0.1495,1.44338,1.00722
192.29,25.7656,-0.16395,1.47828,1.0066
195.19,26.04066,-0.18158,1.51157,1.00598
198.09,26.3153,-0.19956,1.54216,1.00534
200.99,26.59099,-0.21767,1.57038,1.0047
203.89,26.8658,-0.23914,1.58997,1.00404
206.79,27.14142,-0.25895,1.61001,1.00338
209.69,27.4162,-0.28127,1.62043,1.0027
212.59,27.692,-0.30462,1.6307,1.00201
215.49,27.967,-0.32784,1.64176,1.00132
218.39,28.24237,-0.35361,1.65856,1.00061
221.29,28.5168,-0.37872,1.68848,0.99989
224.19,28.7916,-0.40748,1.74435,0.99916
227.09,29.0677,-0.43857,1.83071,0.99841
229.99,29.343,-0.47314,1.9523,0.99766
232.89,29.6196,-0.51365,2.10881,0.99689
235.79,29.8961,-0.56158,2.29617,0.99611
238.69,30.17437,-0.6173,2.52522,0.99533
241.59,30.45247,-0.68313,2.68538,0.99452
244.49,30.7287,-0.75453,2.28643,0.99371
247.39,31.00285,-0.82732,1.82072,0.99289
250.29,31.2761,-0.91378,1.67438,0.99205
253.19,31.55058,-1.01901,1.75204,0.9912
256.09,31.82592,-1.14346,1.80011,0.99034
258.99,32.101,-1.28726,1.63039,0.98946
261.89,32.37441,-1.4772,0.99522,0.98858
264.79,32.64035,-1.79404,-1.57334,0.98768
267.69,32.9,-2.21964,-2.32585,0.98677
270.59,33.17502,-2.47517,-0.0563782,0.98584
273.49,33.4595,-2.60625,1.32982,0.9849
276.39,33.7438,-2.70444,1.95441,0.98395
279.29,34.02772,-2.79016,2.27432,0.98299
282.19,34.30892,-2.87022,2.44121,0.98201
285.09,34.5892,-2.94428,2.47722,0.98102
287.99,34.86842,-3.01402,2.39178,0.98002
290.89,35.1463,-3.0765,2.2125,0.979
293.79,35.42315,-3.1343,2.01436,0.97797
296.69,35.69948,-3.18661,1.8397,0.97692
299.59,35.97591,-3.2362,1.70124,0.97587
302.49,36.25201,-3.2829,1.599,0.97479
305.39,36.52755,-3.32889,1.52413,0.97371
308.29,36.80381,-3.37171,1.47412,0.97261
311.19,37.0801,-3.4161,1.44126,0.9715
314.09,37.35725,-3.46078,1.41632,0.97037
316.99,37.6342,-3.50369,1.40346,0.96923
319.89,37.912,-3.54803,1.39428,0.96807
322.79,38.18928,-3.58904,1.38753,0.9669
325.69,38.46776,-3.63405,1.39021,0.96571
328.59,38.7466,-3.67847,1.39685,0.96451
331.49,39.02507,-3.72243,1.40942,0.9633
334.39,39.30405,-3.76925,1.42363,0.96207
337.29,39.58312,-3.81493,1.43348,0.96083
340.19,39.8609,-3.86187,1.43976,0.95957
343.09,40.14095,-3.90913,1.44195,0.9583
345.99,40.4195,-3.95624,1.44231,0.95701
348.89,40.69897,-4.00397,1.42904,0.9557
351.79,40.97653,-4.05074,1.39992,0.95439
354.69,41.25597,-4.09706,1.35911,0.95305
357.59,41.53646,-4.14354,1.31398,0.95171
360.49,41.81682,-4.18706,1.26903,0.95034
363.39,42.0968,-4.23403,1.24353,0.94896
366.29,42.37713,-4.27933,1.26541,0.94757
369.19,42.65794,-4.32996,1.37525,0.94616
372.09,42.93926,-4.38816,1.5284,0.94474
374.99,43.22166,-4.4512,1.61804,0.9433
377.89,43.50328,-4.51546,1.62145,0.94184
380.79,43.78532,-4.57682,1.57459,0.94037
383.69,44.06623,-4.63738,1.5079,0.93888
386.59,44.3474,-4.69498,1.42476,0.93738
389.49,44.62791,-4.74948,1.34056,0.93586
392.39,44.90872,-4.80259,1.25952,0.93433
395.29,45.18929,-4.85331,1.18554,0.93278
398.19,45.46976,-4.90345,1.13101,0.93121
401.09,45.75078,-4.95466,1.09125,0.92963
403.99,46.03257,-5.00509,1.067,0.92804
406.89,46.31475,-5.05804,1.05296,0.92642
409.79,46.5968,-5.113,1.04326,0.92479
412.69,46.87852,-5.17055,1.03859,0.92315
415.59,47.15981,-5.23281,1.03386,0.92149
418.49,47.44238,-5.29612,1.03652,0.91981
421.39,47.72426,-5.36358,1.04074,0.91812
424.29,48.0066,-5.43537,1.05305,0.91641
427.19,48.28926,-5.51553,1.07625,0.91469
430.09,48.5721,-5.59938,1.10927,0.91295
432.99,48.85491,-5.68959,1.14777,0.91119
435.89,49.13902,-5.78705,1.19388,0.90942
438.79,49.42223,-5.8894,1.24317,0.90763
441.69,49.7057,-5.99708,1.28883,0.90582
444.59,49.98959,-6.10825,1.33253,0.904
447.49,50.27397,-6.22424,1.3691,0.90217
450.39,50.558,-6.34302,1.40154,0.90031
453.29,50.84202,-6.46384,1.43099,0.89844
456.19,51.12433,-6.58288,1.44118,0.89656
459.09,51.40982,-6.70147,1.41138,0.89466
461.99,51.69378,-6.81562,1.37009,0.89274
464.89,51.97795,-6.92398,1.32947,0.89081
467.79,52.2613,-7.02614,1.29117,0.88886
470.69,52.5462,-7.12092,1.25329,0.88689
473.59,52.83109,-7.20782,1.22232,0.88491
476.49,53.1157,-7.28642,1.19975,0.88291
479.39,53.4007,-7.35882,1.20191,0.8809
482.29,53.6851,-7.42086,1.23046,0.87887
485.19,53.97048,-7.4791,1.30087,0.87683
488.09,54.25609,-7.53554,1.4294,0.87476
490.99,54.54184,-7.59358,1.59896,0.87269
493.89,54.8277,-7.65309,1.81389,0.87059
496.79,55.1148,-7.71493,1.95179,0.86849
499.69,55.4009,-7.77682,1.96243,0.86636
502.59,55.6875,-7.83507,1.89569,0.86422
505.49,55.97283,-7.88924,1.78884,0.86206
508.39,56.2587,-7.93728,1.66106,0.85989
511.29,56.54394,-7.98045,1.52467,0.85771
514.19,56.82931,-8.0189,1.39533,0.8555
517.09,57.1149,-8.05294,1.27186,0.85328
519.99,57.4,-8.08241,1.16505,0.85105
522.89,57.6864,-8.10836,1.07654,0.8488
525.79,57.97283,-8.13353,0.99614,0.84653
528.69,58.25915,-8.15326,0.92504,0.84425
531.59,58.54589,-8.16991,0.8675,0.84196
534.49,58.8321,-8.18733,0.82435,0.83965
537.39,59.11846,-8.20178,0.79604,0.83732
540.29,59.40478,-8.21667,0.77087,0.83498
543.19,59.69165,-8.23164,0.75437,0.83262
546.09,59.97891,-8.2426,0.74202,0.83025
548.99,60.26579,-8.25442,0.73386,0.82787
551.89,60.55288,-8.26564,0.72807,0.82547
554.79,60.83967,-8.27692,0.72418,0.82305
557.69,61.12656,-8.28719,0.72611,0.82062
560.59,61.4136,-8.29925,0.7282,0.81817
563.49,61.7003,-8.31058,0.73095,0.81571
566.39,61.9881,-8.32253,0.74075,0.81324
569.29,62.27567,-8.33161,0.75505,0.81075
572.19,62.5631,-8.34172,0.77402,0.80825
575.09,62.8513,-8.35301,0.79865,0.80573
577.99,63.13893,-8.36543,0.83431,0.8032
580.89,63.42705,-8.37785,0.87476,0.80065
583.79,63.71614,-8.39116,0.93112,0.79809
586.69,64.00497,-8.40591,1.00468,0.79552
589.59,64.29351,-8.41933,1.04298,0.79293
592.49,64.58176,-8.43405,0.94233,0.79033
595.39,64.86968,-8.44764,0.85268,0.78772
598.29,65.15689,-8.45955,0.78485,0.78509
601.19,65.44495,-8.47116,0.72925,0.78245
604.09,65.7325,-8.48321,0.67756,0.77979
606.99,66.02065,-8.49492,0.63099,0.77713
609.89,66.30935,-8.50194,0.58517,0.77444
612.79,66.59759,-8.5122,0.54568,0.77175
615.69,66.88633,-8.52013,0.50991,0.76904
618.59,67.1746,-8.52576,0.46966,0.76632
621.49,67.46234,-8.53286,0.43529,0.76359
624.39,67.75149,-8.53948,0.4021,0.76084
627.29,68.0395,-8.54486,0.37105,0.75809
630.19,68.32771,-8.5511,0.34115,0.75532
633.09,68.61605,-8.55539,0.31502,0.75254
635.99,68.90504,-8.56196,0.28915,0.74974
638.89,69.19349,-8.56598,0.26778,0.74693
641.79,69.48225,-8.56881,0.25687,0.74412
644.69,69.77146,-8.57218,0.24341,0.74129
647.59,70.06126,-8.57481,0.24012,0.73845
650.49,70.3506,-8.58009,0.2386,0.73559
653.39,70.63988,-8.58141,0.23051,0.73273
656.29,70.92968,-8.58536,0.22362,0.72985
659.19,71.2196,-8.58624,0.21976,0.72697
662.09,71.5097,-8.5892,0.21438,0.72407
664.99,71.79935,-8.59217,0.21235,0.72116
667.89,72.08821,-8.59313,0.20868,0.71824
670.79,72.37729,-8.59711,0.20771,0.71531
673.69,72.66681,-8.59822,0.20671,0.71237
676.59,72.9558,-8.59881,0.20849,0.70942
679.49,73.2443,-8.60193,0.20789,0.70646
682.39,73.53583,-8.60533,0.20822,0.70349
685.29,73.82685,-8.60798,0.20795,0.70051
688.19,74.11774,-8.61196,0.21199,0.69752
691.09,74.40879,-8.61391,0.21423,0.69452
693.99,74.69968,-8.61486,0.22263,0.69151
696.89,74.9903,-8.61883,0.2278,0.6885
699.79,75.28144,-8.62284,0.23166,0.68547
702.69,75.5723,-8.62246,0.24328,0.68243
705.59,75.86345,-8.62515,0.25446,0.67939
708.49,76.15395,-8.62954,0.26871,0.67633
711.39,76.44447,-8.63048,0.2853,0.67327
714.29,76.73469,-8.63411,0.29666,0.6702
717.19,77.0252,-8.63708,0.32116,0.66712
720.09,77.31559,-8.64069,0.35172,0.66404
722.99,77.60659,-8.64363,0.3866,0.66094
725.89,77.89753,-8.64617,0.41251,0.65784
728.79,78.18881,-8.64893,0.40875,0.65473
731.69,78.47977,-8.65057,0.38201,0.65161
734.59,78.77127,-8.65469,0.34251,0.64849
737.49,79.0624,-8.65683,0.29347,0.64536
740.39,79.35365,-8.6608,0.27821,0.64222
743.29,79.6455,-8.66362,0.27381,0.63907
746.19,79.93679,-8.66737,0.26984,0.63592
746.79,79.9967,-8.66869,0.27253,0.63527