File: 01_Data/Rubber_Foam_Pipe_Insulation/STA/N2/10K_min/Rubber_Foam_Pipe_Insulation_STA_N2_10KData_220922_R3.csv
##Temp./Â°C,Time/min,Mass loss(subtr.2)/mg,DSC(subtr.2)/(mW/mg),Sensit./(uV/mW)
50.37,10.01,0.02097,0.00387177,1.02682
53.27,11.42479,0.02570582,0.10712,1.02657
56.17,11.9211,0.02610753,0.15621,1.02632
59.07,12.33934,0.02425589,0.18716,1.02605
61.97,12.72152,0.02535117,0.20773,1.02579
64.87,13.08503,0.02711111,0.21978,1.02551
67.77,13.4333,0.02801457,0.2251,1.02524
70.67,13.77101,0.02929258,0.23176,1.02495
73.57,14.10019,0.02195451,0.23835,1.02466
76.47,14.4217,0.02089648,0.24884,1.02437
79.37,14.7379,0.02766033,0.25274,1.02407
82.27,15.04855,0.02416454,0.25907,1.02376
85.17,15.3549,0.02407504,0.26207,1.02344
88.07,15.6567,0.02271774,0.26794,1.02312
90.97,15.9546,0.02550962,0.27738,1.0228
93.87,16.2499,0.0272283,0.28123,1.02246
96.77,16.54166,0.0255355,0.28597,1.02213
99.67,16.83066,0.02198263,0.29463,1.02178
102.57,17.11873,0.02718841,0.3014,1.02143
105.47,17.40395,0.02196001,0.30802,1.02107
108.37,17.69013,0.02460002,0.31012,1.0207
111.27,17.9746,0.02228393,0.31461,1.02033
114.17,18.25849,0.01954798,0.32371,1.01994
117.07,18.54136,0.01965063,0.32855,1.01956
119.97,18.82398,0.02548274,0.32809,1.01916
122.87,19.10546,0.02140904,0.32318,1.01876
125.77,19.38661,0.02022701,0.32425,1.01835
128.67,19.66752,0.01858247,0.32488,1.01793
131.57,19.94695,0.01876743,0.32699,1.0175
134.47,20.226,0.01877795,0.33007,1.01707
137.37,20.50477,0.01614001,0.32969,1.01663
140.27,20.78219,0.01612235,0.3339,1.01618
143.17,21.05994,0.01373579,0.33549,1.01572
146.07,21.33713,0.01406118,0.33852,1.01525
148.97,21.61375,0.01483929,0.34077,1.01478
151.87,21.8901,0.009549907,0.34212,1.01429
154.77,22.16617,0.01278425,0.34577,1.0138
157.67,22.4422,0.008420023,0.34726,1.0133
160.57,22.71746,0.00561087,0.35523,1.01279
163.47,22.99304,0.0016663,0.36125,1.01227
166.37,23.2687,0.00176,0.36827,1.01174
169.27,23.54459,-0.0008577246,0.37438,1.01121
172.17,23.82031,-0.004830918,0.38649,1.01066
175.07,24.09596,-0.0073653,0.3937,1.0101
177.97,24.37099,-0.01000493,0.40563,1.00954
180.87,24.6469,-0.01151772,0.41914,1.00896
183.77,24.92066,-0.01775127,0.42999,1.00838
186.67,25.1964,-0.02166784,0.44174,1.00778
189.57,25.47114,-0.02557146,0.45383,1.00718
192.47,25.74605,-0.02953009,0.46392,1.00656
195.37,26.02109,-0.03546349,0.46864,1.00594
198.27,26.29634,-0.04042549,0.47571,1.0053
201.17,26.57187,-0.04874935,0.48103,1.00466
204.07,26.8475,-0.05566318,0.483,1.004
206.97,27.12289,-0.05704182,0.48445,1.00334
209.87,27.39807,-0.06883,0.48718,1.00266
212.77,27.6731,-0.07288986,0.48828,1.00197
215.67,27.9478,-0.0799124,0.49479,1.00127
218.57,28.22216,-0.08921469,0.50592,1.00056
221.47,28.49672,-0.09485015,0.52541,0.99984
224.37,28.77202,-0.10566,0.55845,0.99911
227.27,29.0465,-0.11524,0.6057,0.99837
230.17,29.32212,-0.12833,0.67,0.99761
233.07,29.5981,-0.1458,0.75554,0.99684
235.97,29.87472,-0.16188,0.8613,0.99607
238.87,30.1516,-0.18744,0.98307,0.99528
241.77,30.42827,-0.21198,1.02419,0.99447
244.67,30.7036,-0.2335,0.77049,0.99366
247.57,30.97802,-0.2633,0.59348,0.99284
250.47,31.25207,-0.29431,0.61013,0.992
253.37,31.5273,-0.33384,0.67987,0.99115
256.27,31.80367,-0.37486,0.70697,0.99028
259.17,32.0795,-0.42859,0.67441,0.98941
262.07,32.35495,-0.49583,0.46173,0.98852
264.97,32.62858,-0.5984,0.02529848,0.98762
267.87,32.9022,-0.71077,0.1302,0.98671
270.77,33.17903,-0.77965,0.57302,0.98578
273.67,33.45753,-0.82443,0.76966,0.98484
276.57,33.73527,-0.8553,0.77437,0.98389
279.47,34.01197,-0.88687,0.70191,0.98293
282.37,34.2882,-0.90784,0.61331,0.98195
285.27,34.56527,-0.92854,0.53842,0.98096
288.17,34.84167,-0.94469,0.48304,0.97995
291.07,35.11801,-0.96037,0.4437,0.97894
293.97,35.39495,-0.9734,0.41916,0.9779
296.87,35.67187,-0.98758,0.40344,0.97686
299.77,35.94877,-0.99833,0.39074,0.9758
302.67,36.22583,-1.01086,0.37891,0.97473
305.57,36.50334,-1.03062,0.37527,0.97364
308.47,36.78082,-1.03448,0.36864,0.97254
311.37,37.05839,-1.04571,0.36265,0.97143
314.27,37.33645,-1.05912,0.35902,0.9703
317.17,37.61437,-1.07042,0.35706,0.96915
320.07,37.89247,-1.07716,0.35303,0.968
322.97,38.17111,-1.09047,0.35206,0.96683
325.87,38.44932,-1.10132,0.34861,0.96564
328.77,38.7282,-1.1133,0.34319,0.96444
331.67,39.00716,-1.12373,0.34052,0.96322
334.57,39.28627,-1.13644,0.33818,0.96199
337.47,39.56543,-1.14588,0.33358,0.96075
340.37,39.84506,-1.15594,0.33077,0.95949
343.27,40.1242,-1.16662,0.32933,0.95822
346.17,40.4034,-1.18019,0.32804,0.95693
349.07,40.68249,-1.18751,0.32407,0.95562
351.97,40.9623,-1.20211,0.32276,0.9543
354.87,41.24221,-1.21131,0.31787,0.95297
357.77,41.52218,-1.22218,0.31582,0.95162
360.67,41.8022,-1.23494,0.31274,0.95026
363.57,42.0826,-1.24556,0.31088,0.94888
366.47,42.36278,-1.25734,0.31784,0.94748
369.37,42.6432,-1.27369,0.35848,0.94607
372.27,42.92447,-1.28708,0.4769,0.94465
375.17,43.2057,-1.30619,0.62466,0.94321
378.07,43.48734,-1.3366,0.66059,0.94175
380.97,43.7682,-1.35878,0.60801,0.94028
383.87,44.04896,-1.38197,0.53581,0.93879
386.77,44.32985,-1.39917,0.46805,0.93729
389.67,44.61058,-1.41577,0.40837,0.93577
392.57,44.89177,-1.4341,0.36507,0.93423
395.47,45.173,-1.44761,0.32847,0.93268
398.37,45.45409,-1.45756,0.30164,0.93112
401.27,45.73576,-1.47206,0.28322,0.92953
404.17,46.01778,-1.48658,0.27515,0.92794
407.07,46.29953,-1.49925,0.26954,0.92632
409.97,46.58204,-1.51304,0.27103,0.92469
412.87,46.86399,-1.52831,0.27167,0.92305
415.77,47.14679,-1.54726,0.27593,0.92139
418.67,47.42942,-1.56693,0.2824,0.91971
421.57,47.71179,-1.58199,0.29029,0.91801
424.47,47.9955,-1.6068,0.30011,0.9163
427.37,48.27803,-1.63374,0.31735,0.91458
430.27,48.56125,-1.65201,0.32815,0.91284
433.17,48.84499,-1.67764,0.34057,0.91108
436.07,49.12839,-1.71021,0.35252,0.90931
438.97,49.41253,-1.74525,0.36509,0.90752
441.87,49.69656,-1.77311,0.37371,0.90571
444.77,49.98065,-1.80316,0.38211,0.90389
447.67,50.265,-1.84057,0.38913,0.90205
450.57,50.54938,-1.87389,0.39342,0.9002
453.47,50.83327,-1.91419,0.39813,0.89833
456.37,51.1177,-1.94579,0.39983,0.89644
459.27,51.40207,-1.98244,0.39457,0.89454
462.17,51.6863,-2.0095,0.37511,0.89262
465.07,51.9703,-2.04243,0.36428,0.89069
467.97,52.25499,-2.06443,0.35144,0.88874
470.87,52.5393,-2.09095,0.34608,0.88677
473.77,52.82362,-2.12287,0.34571,0.88479
476.67,53.1074,-2.13902,0.35765,0.88279
479.57,53.3919,-2.15654,0.38057,0.88077
482.47,53.67649,-2.17959,0.41686,0.87874
485.37,53.9621,-2.18909,0.44665,0.8767
488.27,54.24731,-2.20993,0.46826,0.87464
491.17,54.5333,-2.21913,0.47476,0.87256
494.07,54.8184,-2.23963,0.47365,0.87046
496.97,55.10408,-2.25211,0.45961,0.86835
499.87,55.38879,-2.26514,0.44273,0.86623
502.77,55.67507,-2.27539,0.42229,0.86409
505.67,55.96037,-2.28691,0.39684,0.86193
508.57,56.24646,-2.29795,0.37484,0.85976
511.47,56.53145,-2.30703,0.35153,0.85757
514.37,56.818,-2.31622,0.32977,0.85536
517.27,57.1044,-2.32246,0.30562,0.85315
520.17,57.39043,-2.32809,0.28764,0.85091
523.07,57.67709,-2.34051,0.26399,0.84866
525.97,57.96304,-2.33924,0.24423,0.84639
528.87,58.2496,-2.34716,0.22804,0.84411
531.77,58.53612,-2.3513,0.21731,0.84182
534.67,58.8231,-2.35596,0.20944,0.8395
537.57,59.11005,-2.35945,0.20397,0.83718
540.47,59.39656,-2.3613,0.20482,0.83483
543.37,59.6839,-2.36478,0.20307,0.83248
546.27,59.97204,-2.36537,0.20448,0.83011
549.17,60.2596,-2.37722,0.20839,0.82772
552.07,60.54715,-2.37827,0.20793,0.82532
554.97,60.83418,-2.3835,0.21613,0.8229
557.87,61.12185,-2.38357,0.22091,0.82047
560.77,61.409,-2.39173,0.22633,0.81802
563.67,61.69659,-2.3937,0.2383,0.81556
566.57,61.98415,-2.39941,0.25192,0.81309
569.47,62.27222,-2.40238,0.26634,0.8106
572.37,62.55964,-2.40895,0.27853,0.80809
575.27,62.8471,-2.41182,0.28986,0.80557
578.17,63.13468,-2.41752,0.28583,0.80304
581.07,63.422,-2.42278,0.26643,0.8005
583.97,63.7107,-2.431,0.2455,0.79793
586.87,63.99892,-2.43461,0.23236,0.79536
589.77,64.28665,-2.44002,0.2182,0.79277
592.67,64.5753,-2.44432,0.20674,0.79017
595.57,64.8635,-2.44601,0.1986,0.78756
598.47,65.15182,-2.45149,0.19422,0.78493
601.37,65.44111,-2.45342,0.1899,0.78228
604.27,65.7303,-2.46265,0.18844,0.77963
607.17,66.0192,-2.46397,0.18303,0.77696
610.07,66.3083,-2.46924,0.17957,0.77428
612.97,66.59699,-2.47053,0.17515,0.77158
615.87,66.88603,-2.47217,0.17082,0.76887
618.77,67.17479,-2.47676,0.16894,0.76615
621.67,67.46382,-2.47878,0.16099,0.76342
624.57,67.7532,-2.48568,0.155,0.76067
627.47,68.042,-2.48571,0.14767,0.75792
630.37,68.33118,-2.48669,0.13895,0.75515
633.27,68.6197,-2.48924,0.13088,0.75236
636.17,68.9078,-2.49329,0.12641,0.74957
639.07,69.1964,-2.49765,0.11402,0.74676
641.97,69.4846,-2.49429,0.1009,0.74394
644.87,69.77376,-2.50415,0.09443589,0.74111
647.77,70.0632,-2.5029,0.08364264,0.73827
650.67,70.35258,-2.49844,0.07383245,0.73542
653.57,70.64201,-2.5024,0.0707403,0.73255
656.47,70.93159,-2.50174,0.0686586,0.72967
659.37,71.22094,-2.50439,0.06612031,0.72679
662.27,71.51083,-2.51216,0.06666035,0.72389
665.17,71.79956,-2.50349,0.06407461,0.72098
668.07,72.09031,-2.50865,0.06248849,0.71806
670.97,72.3801,-2.5082,0.06456966,0.71513
673.87,72.6704,-2.5069,0.0629567,0.71219
676.77,72.96064,-2.50511,0.05869844,0.70924
679.67,73.25103,-2.5081,0.05904674,0.70628
682.57,73.5416,-2.51503,0.06632447,0.70331
685.47,73.83225,-2.51051,0.06818968,0.70033
688.37,74.12398,-2.51229,0.06681039,0.69734
691.27,74.41412,-2.52139,0.07076232,0.69434
694.17,74.7046,-2.51572,0.07344574,0.69133
697.07,74.9948,-2.51552,0.07601092,0.68831
699.97,75.286,-2.52248,0.08763039,0.68528
702.87,75.5763,-2.51937,0.08916577,0.68224
705.77,75.8669,-2.52149,0.09626815,0.6792
708.67,76.1574,-2.52195,0.09918127,0.67614
711.57,76.44788,-2.52232,0.10585,0.67308
714.47,76.73946,-2.52662,0.11187,0.67001
717.37,77.03073,-2.52852,0.1203,0.66693
720.27,77.32248,-2.53141,0.12514,0.66385
723.17,77.61418,-2.53319,0.13358,0.66075
726.07,77.90521,-2.5327,0.14029,0.65765
728.97,78.19589,-2.53772,0.15104,0.65454
731.87,78.48602,-2.53622,0.16093,0.65142
734.77,78.77679,-2.53621,0.16799,0.6483
737.67,79.06761,-2.53906,0.17487,0.64516
740.57,79.35916,-2.53926,0.19557,0.64202
743.47,79.6508,-2.54957,0.21135,0.63888
746.37,79.94282,-2.54856,0.28307,0.63573
746.87,79.9932,-2.54993,0.29622,0.63518