File: 01_Data/Rubber_Foam_Pipe_Insulation/HFM/Rubber_Foam_Pipe_Insulation_Density_Wet_R1.csv
,Rubber_Foam_Pipe_Insulation_WET_1
Sample Mass [g],27.5
Sample Volume [cm3],529.2
Sample Density [kg/m3],52