File: 01_Data/Rubber_Foam_Pipe_Insulation/HFM/Rubber_Foam_Pipe_Insulation_Density_Dry_R1.csv
,Rubber_Foam_Pipe_Insulation_DRY_1
Sample Mass [g],27.5
Sample Volume [cm3],537.3
Sample Density [kg/m3],51