File: 01_Data/Rubber_Foam_Pipe_Insulation/HFM/Rubber_Foam_Pipe_Insulation_Density_Wet_R2.csv
,Rubber_Foam_Pipe_Insulation_WET_2
Sample Mass [g],27.8
Sample Volume [cm3],537.3
Sample Density [kg/m3],52