File: 01_Data/Rubber_Foam_Pipe_Insulation/HFM/Rubber_Foam_Pipe_Insulation_Density_Wet_R3.csv
,Rubber_Foam_Pipe_Insulation_WET_3
Sample Mass [g],28.4
Sample Volume [cm3],559.5
Sample Density [kg/m3],51