File: 01_Data/Engineered_Flooring/STA/N2/30K_min/EF_STA_N2_30KData_211512_R3.csv
##Temp./Â°C,Time/min,Mass loss(subtr.2)/mg,DSC(subtr.2)/(mW/mg),Sensit./(uV/mW)
48.459,10.01,-0.00657,0.00540619,1.06964
51.459,10.8636,-0.00584669,0.15566,1.06937
54.459,11.08945,-0.006725676,0.26484,1.06907
57.459,11.2647,-0.00774638,0.3526,1.06875
60.459,11.4145,-0.004908975,0.40889,1.0684
63.459,11.54991,-0.007887339,0.46611,1.06803
66.459,11.6769,-0.007397339,0.51465,1.06763
69.459,11.79758,-0.005049378,0.56132,1.06721
72.459,11.91398,-0.007454741,0.60126,1.06676
75.459,12.02731,-0.009022541,0.64359,1.06629
78.459,12.13827,-0.009010605,0.67848,1.0658
81.459,12.2471,-0.00847508,0.71137,1.06528
84.459,12.3543,-0.00939333,0.74136,1.06474
87.459,12.46,-0.01007988,0.7725,1.06417
90.459,12.56437,-0.0128472,0.80175,1.06358
93.459,12.66807,-0.01233894,0.82501,1.06296
96.459,12.7708,-0.01415166,0.85124,1.06232
99.459,12.87319,-0.01305565,0.86855,1.06166
102.459,12.97494,-0.01590291,0.88144,1.06097
105.459,13.07633,-0.0164399,0.89454,1.06026
108.459,13.17764,-0.01661041,0.90178,1.05953
111.459,13.27863,-0.01910714,0.90811,1.05877
114.459,13.37936,-0.01838745,0.91606,1.05799
117.459,13.47969,-0.02171272,0.91912,1.05719
120.459,13.57965,-0.02170493,0.92197,1.05636
123.459,13.67945,-0.02170986,0.92362,1.05552
126.459,13.77866,-0.02303013,0.92611,1.05465
129.459,13.8773,-0.02233107,0.92597,1.05375
132.459,13.97577,-0.02368988,0.93135,1.05284
135.459,14.07368,-0.02368964,0.93694,1.0519
138.459,14.1711,-0.02543269,0.94554,1.05094
141.459,14.2681,-0.02496483,0.95616,1.04996
144.459,14.36464,-0.02599291,0.96739,1.04896
147.459,14.46088,-0.02698114,0.97938,1.04793
150.459,14.5569,-0.02697751,0.9945,1.04688
153.459,14.6525,-0.02764231,1.01338,1.04582
156.459,14.74792,-0.02897075,1.03152,1.04473
159.459,14.84286,-0.02889486,1.04878,1.04362
162.459,14.93779,-0.03157919,1.07092,1.04249
165.459,15.03249,-0.03157975,1.09461,1.04133
168.459,15.1269,-0.0329013,1.11544,1.04016
171.459,15.22136,-0.03553809,1.142,1.03897
174.459,15.31541,-0.03684994,1.16986,1.03775
177.459,15.40904,-0.03685091,1.19974,1.03652
180.459,15.5025,-0.03969771,1.23513,1.03527
183.459,15.59569,-0.04372295,1.27492,1.03399
186.459,15.6883,-0.04627951,1.31695,1.0327
189.459,15.78098,-0.04734971,1.36358,1.03139
192.459,15.8734,-0.05142375,1.41521,1.03005
195.459,15.9656,-0.05635151,1.47504,1.0287
198.459,16.05803,-0.06165311,1.53533,1.02733
201.459,16.1499,-0.06623464,1.60125,1.02594
204.459,16.2421,-0.07331327,1.67063,1.02453
207.459,16.33385,-0.08068168,1.74158,1.0231
210.459,16.4256,-0.0870428,1.81171,1.02166
213.459,16.51742,-0.09543657,1.88227,1.02019
216.459,16.60905,-0.10492,1.95053,1.01871
219.459,16.7007,-0.11403,2.00982,1.01721
222.459,16.7923,-0.12429,2.06209,1.01569
225.459,16.88374,-0.13342,2.10415,1.01416
228.459,16.97512,-0.14499,2.13373,1.0126
231.459,17.0664,-0.15571,2.15304,1.01103
234.459,17.15772,-0.16815,2.15675,1.00944
237.459,17.249,-0.17899,2.14884,1.00784
240.459,17.34015,-0.19164,2.12949,1.00622
243.459,17.43125,-0.20232,2.1043,1.00458
246.459,17.52221,-0.21416,2.07563,1.00292
249.459,17.61316,-0.22801,2.03764,1.00125
252.459,17.70401,-0.24044,1.9971,0.99956
255.459,17.79484,-0.25557,1.95755,0.99786
258.459,17.8857,-0.26886,1.91441,0.99614
261.459,17.97636,-0.28228,1.87161,0.9944
264.459,18.06711,-0.29791,1.83046,0.99265
267.459,18.15774,-0.31262,1.79019,0.99088
270.459,18.2484,-0.3294,1.7506,0.9891
273.459,18.3389,-0.34863,1.70864,0.9873
276.459,18.42954,-0.36779,1.66962,0.98549
279.459,18.52025,-0.38933,1.62824,0.98366
282.459,18.61092,-0.41029,1.5856,0.98182
285.459,18.7016,-0.43319,1.54092,0.97997
288.459,18.7922,-0.46181,1.49371,0.9781
291.459,18.88291,-0.4903,1.4457,0.97621
294.459,18.97361,-0.52064,1.39378,0.97431
297.459,19.06427,-0.55384,1.33889,0.9724
300.459,19.15496,-0.59053,1.28336,0.97048
303.459,19.24571,-0.6293,1.22327,0.96854
306.459,19.33628,-0.66882,1.16446,0.96659
309.459,19.4271,-0.7118,1.11162,0.96462
312.459,19.5181,-0.75533,1.05786,0.96264
315.459,19.60914,-0.79753,1.01193,0.96065
318.459,19.69997,-0.84171,0.97002,0.95865
321.459,19.791,-0.88771,0.93358,0.95664
324.459,19.88212,-0.93659,0.89912,0.95461
327.459,19.9732,-0.98274,0.87352,0.95257
330.459,20.06456,-1.03073,0.85218,0.95052
333.459,20.15599,-1.08266,0.8331,0.94845
336.459,20.24738,-1.13291,0.82525,0.94638
339.459,20.33878,-1.18508,0.81908,0.94429
342.459,20.43055,-1.23962,0.82189,0.9422
345.459,20.52235,-1.29676,0.82988,0.94009
348.459,20.61413,-1.35332,0.84291,0.93797
351.459,20.7062,-1.41393,0.85836,0.93584
354.459,20.79818,-1.47811,0.87828,0.9337
357.459,20.89029,-1.54247,0.90555,0.93155
360.459,20.98252,-1.61105,0.93391,0.92939
363.459,21.07483,-1.68619,0.96655,0.92722
366.459,21.1674,-1.76332,0.99909,0.92504
369.459,21.25989,-1.84317,1.02985,0.92285
372.459,21.35249,-1.92992,1.06407,0.92065
375.459,21.44529,-2.02104,1.08677,0.91844
378.459,21.53819,-2.1131,1.10065,0.91622
381.459,21.63062,-2.20849,1.09854,0.91399
384.459,21.7238,-2.3022,1.06319,0.91176
387.459,21.81692,-2.38991,1.00214,0.90951
390.459,21.91,-2.47262,0.90203,0.90726
393.459,22.00299,-2.54258,0.77148,0.905
396.459,22.09619,-2.59613,0.63048,0.90273
399.459,22.18929,-2.63306,0.50631,0.90045
402.459,22.28256,-2.65979,0.40919,0.89816
405.459,22.37557,-2.67502,0.34501,0.89587
408.459,22.4689,-2.68897,0.30105,0.89357
411.459,22.56251,-2.70004,0.27101,0.89126
414.459,22.65609,-2.71298,0.2474,0.88894
417.459,22.74975,-2.72303,0.23047,0.88662
420.459,22.8435,-2.73376,0.21421,0.88429
423.459,22.93742,-2.74299,0.20213,0.88195
426.459,23.03141,-2.75438,0.19242,0.87961
429.459,23.12554,-2.76245,0.18808,0.87726
432.459,23.21963,-2.77282,0.18251,0.8749
435.459,23.3138,-2.78158,0.18201,0.87254
438.459,23.40812,-2.79241,0.18372,0.87017
441.459,23.50246,-2.80111,0.18882,0.8678
444.459,23.59694,-2.81121,0.19691,0.86541
447.459,23.69175,-2.81861,0.20504,0.86303
450.459,23.78649,-2.82652,0.21738,0.86064
453.459,23.88128,-2.83528,0.22833,0.85824
456.459,23.9762,-2.84416,0.24299,0.85584
459.459,24.07134,-2.85188,0.25541,0.85343
462.459,24.16646,-2.85927,0.2648,0.85102
465.459,24.26154,-2.86734,0.27667,0.8486
468.459,24.35673,-2.87391,0.29101,0.84618
471.459,24.45253,-2.88146,0.29783,0.84375
474.459,24.54745,-2.887,0.30395,0.84132
477.459,24.64315,-2.89483,0.31567,0.83889
480.459,24.7391,-2.9011,0.32408,0.83645
483.459,24.83492,-2.90734,0.32794,0.83401
486.459,24.93054,-2.91177,0.3345,0.83156
489.459,25.02657,-2.9175,0.3408,0.82911
492.459,25.1225,-2.92242,0.34872,0.82665
495.459,25.2185,-2.92913,0.35291,0.8242
498.459,25.3146,-2.93458,0.35348,0.82174
501.459,25.41076,-2.93786,0.35949,0.81927
504.459,25.507,-2.94478,0.36045,0.81681
507.459,25.6032,-2.94891,0.36933,0.81434
510.459,25.69952,-2.95374,0.36916,0.81186
513.459,25.79593,-2.95713,0.36976,0.80939
516.459,25.89248,-2.96238,0.37336,0.80691
519.459,25.98892,-2.96591,0.37827,0.80443
522.459,26.08547,-2.97017,0.37973,0.80195
525.459,26.18214,-2.97478,0.379,0.79946
528.459,26.2788,-2.97852,0.3802,0.79698
531.459,26.3755,-2.98168,0.38086,0.79449
534.459,26.4722,-2.98563,0.38326,0.792
537.459,26.56904,-2.98778,0.38807,0.78951
540.459,26.6659,-2.99039,0.3902,0.78701
543.459,26.76282,-2.99382,0.39428,0.78452
546.459,26.85987,-2.99869,0.39283,0.78202
549.459,26.957,-3.00269,0.40008,0.77952
552.459,27.05408,-3.00669,0.40215,0.77702
555.459,27.1513,-3.01067,0.40139,0.77453
558.459,27.2485,-3.01329,0.40645,0.77202
561.459,27.3459,-3.0147,0.40868,0.76952
564.459,27.44308,-3.01884,0.41012,0.76702
567.459,27.54056,-3.02141,0.41148,0.76452
570.459,27.63825,-3.02588,0.41528,0.76201
573.459,27.7359,-3.0285,0.41573,0.75951
576.459,27.8336,-3.03122,0.41581,0.75701
579.459,27.9315,-3.03398,0.41479,0.7545
582.459,28.0294,-3.03523,0.41477,0.752
585.459,28.12746,-3.03944,0.41542,0.74949
588.459,28.2257,-3.04218,0.41829,0.74699
591.459,28.32392,-3.04476,0.41447,0.74448
594.459,28.4221,-3.04693,0.411,0.74198
597.459,28.52035,-3.04873,0.40753,0.73948
600.459,28.6188,-3.05131,0.39846,0.73697
603.459,28.7171,-3.05336,0.39413,0.73447
606.459,28.8156,-3.05599,0.38764,0.73197
609.459,28.9143,-3.05827,0.38027,0.72947
612.459,29.01275,-3.06089,0.37896,0.72697
615.459,29.1115,-3.06287,0.37168,0.72447
618.459,29.21022,-3.06561,0.36253,0.72197
621.459,29.30898,-3.06768,0.3564,0.71947
624.459,29.40772,-3.06893,0.35373,0.71698
627.459,29.5064,-3.07279,0.35204,0.71448
630.459,29.60533,-3.07427,0.3436,0.71199
633.459,29.7042,-3.0769,0.33773,0.7095
636.459,29.80299,-3.07819,0.33327,0.70701
639.459,29.9019,-3.0821,0.33129,0.70452
642.459,30.00093,-3.08371,0.32962,0.70203
645.459,30.09993,-3.08534,0.32878,0.69954
648.459,30.199,-3.08724,0.32281,0.69706
651.459,30.2981,-3.08897,0.32035,0.69458
654.459,30.39725,-3.09204,0.31464,0.6921
657.459,30.4964,-3.09347,0.30901,0.68962
660.459,30.59565,-3.09577,0.30225,0.68714
663.459,30.69482,-3.09731,0.2916,0.68467
666.459,30.79402,-3.09904,0.28741,0.6822
669.459,30.89317,-3.10026,0.28528,0.67973
672.459,30.9926,-3.10158,0.27812,0.67726
675.459,31.09198,-3.10344,0.27552,0.6748
678.459,31.19155,-3.10564,0.27137,0.67233
681.459,31.2909,-3.10696,0.26668,0.66987
684.459,31.3905,-3.1083,0.25924,0.66742
687.459,31.4902,-3.11091,0.24994,0.66496
690.459,31.5897,-3.11189,0.24781,0.66251
693.459,31.68948,-3.11322,0.23916,0.66006
696.459,31.7891,-3.11453,0.23044,0.65761
699.459,31.889,-3.11585,0.22635,0.65517
702.459,31.9887,-3.11772,0.21692,0.65273
705.459,32.0884,-3.11848,0.21031,0.65029
708.459,32.18841,-3.12084,0.19803,0.64786
711.459,32.28855,-3.1211,0.18802,0.64542
714.459,32.38863,-3.12342,0.18256,0.643
717.459,32.48887,-3.12473,0.17428,0.64057
720.459,32.58905,-3.12473,0.16724,0.63815
723.459,32.68906,-3.12605,0.15885,0.63573
726.459,32.78934,-3.12736,0.16148,0.63331
729.459,32.88942,-3.12866,0.15603,0.6309
732.459,32.98999,-3.12867,0.15166,0.62849
735.459,33.09025,-3.13132,0.1487,0.62609
738.459,33.19073,-3.13131,0.14452,0.62369
741.459,33.29125,-3.13129,0.13635,0.62129
742.659,33.33229,-3.13263,0.13959,0.62033