File: 01_Data/Engineered_Flooring/STA/N2/30K_min/Engineered_Flooring_STA_N2_30KData_211512_R1.csv
##Temp./Â°C,Time/min,Mass loss(subtr.2)/mg,DSC(subtr.2)/(mW/mg),Sensit./(uV/mW)
48.482,10.01,0.00164,0.01042058,1.06964
51.482,10.86559,0.0008552751,0.177,1.06936
54.482,11.0931,0.001656653,0.28673,1.06907
57.482,11.2682,0.0027759,0.36984,1.06875
60.482,11.41763,0.00123305,0.43166,1.0684
63.482,11.55372,0.001828395,0.48261,1.06803
66.482,11.6805,0.001761205,0.5318,1.06763
69.482,11.80156,0.001738235,0.57602,1.06721
72.482,11.91799,0.002281585,0.61554,1.06676
75.482,12.03181,-0.000558609,0.65166,1.06629
78.482,12.14235,0.0006514021,0.68728,1.0658
81.482,12.25103,6.28434e-05,0.71639,1.06528
84.482,12.3584,-0.00067851,0.74699,1.06473
87.482,12.46422,-0.00196801,0.77798,1.06416
90.482,12.56868,-0.001985171,0.80424,1.06357
93.482,12.6723,-0.0032678,0.82958,1.06296
96.482,12.77524,-0.003123153,0.84961,1.06232
99.482,12.87758,-0.004497765,0.86638,1.06165
102.482,12.9796,-0.005818121,0.88098,1.06097
105.482,13.08117,-0.007374916,0.88955,1.06026
108.482,13.18251,-0.00867617,0.89907,1.05952
111.482,13.28362,-0.008680116,0.90002,1.05877
114.482,13.3842,-0.01135177,0.9079,1.05799
117.482,13.4847,-0.01114843,0.91297,1.05718
120.482,13.58479,-0.01229048,0.91544,1.05636
123.482,13.68425,-0.01230161,0.91618,1.05551
126.482,13.7836,-0.01360515,0.91631,1.05464
129.482,13.8823,-0.01492005,0.91895,1.05375
132.482,13.9807,-0.01624018,0.924,1.05283
135.482,14.0783,-0.01622819,0.92664,1.05189
138.482,14.17578,-0.01526389,0.93591,1.05093
141.482,14.2727,-0.01656003,0.94678,1.04995
144.482,14.36905,-0.01754663,0.95636,1.04895
147.482,14.46502,-0.01848233,0.96947,1.04792
150.482,14.56069,-0.01754568,0.98546,1.04688
153.482,14.656,-0.01918916,1.00171,1.04581
156.482,14.7515,-0.02019737,1.01749,1.04472
159.482,14.84619,-0.02150999,1.03505,1.04361
162.482,14.94098,-0.02151514,1.05876,1.04248
165.482,15.03549,-0.02311356,1.07534,1.04132
168.482,15.1298,-0.02413254,1.09964,1.04015
171.482,15.2239,-0.02582305,1.12358,1.03896
174.482,15.31781,-0.02644004,1.15387,1.03774
177.482,15.4116,-0.02678426,1.18206,1.03651
180.482,15.50477,-0.03031717,1.21377,1.03526
183.482,15.5979,-0.03281935,1.25219,1.03398
186.482,15.6905,-0.03466653,1.28949,1.03269
189.482,15.78314,-0.03732864,1.33801,1.03138
192.482,15.87519,-0.04140218,1.3876,1.03004
195.482,15.96776,-0.04548511,1.44479,1.02869
198.482,16.0601,-0.04970363,1.5054,1.02732
201.482,16.15223,-0.05578714,1.56819,1.02593
204.482,16.24419,-0.06175805,1.63577,1.02452
207.482,16.3362,-0.06817028,1.70617,1.02309
210.482,16.42807,-0.07597054,1.77222,1.02165
213.482,16.51987,-0.08346992,1.84257,1.02018
216.482,16.6117,-0.09157158,1.90485,1.0187
219.482,16.7037,-0.1001,1.96308,1.0172
222.482,16.79518,-0.11044,2.01253,1.01568
225.482,16.88672,-0.11966,2.0477,1.01415
228.482,16.9783,-0.12951,2.07735,1.01259
231.482,17.06975,-0.14114,2.08993,1.01102
234.482,17.16102,-0.15222,2.09035,1.00943
237.482,17.25265,-0.16302,2.08089,1.00783
240.482,17.34362,-0.17335,2.05914,1.0062
243.482,17.43492,-0.18463,2.03207,1.00456
246.482,17.52585,-0.19823,2.00021,1.00291
249.482,17.61692,-0.20978,1.96471,1.00124
252.482,17.70779,-0.22214,1.92443,0.99955
255.482,17.79859,-0.23534,1.88411,0.99784
258.482,17.88959,-0.24838,1.84602,0.99612
261.482,17.98021,-0.26129,1.8005,0.99439
264.482,18.07074,-0.27751,1.76156,0.99264
267.482,18.16156,-0.29151,1.72096,0.99087
270.482,18.2522,-0.30864,1.68316,0.98909
273.482,18.3427,-0.32501,1.647,0.98729
276.482,18.4332,-0.34317,1.60617,0.98548
279.482,18.52401,-0.36356,1.56569,0.98365
282.482,18.61469,-0.38398,1.52026,0.98181
285.482,18.70534,-0.40818,1.47714,0.97995
288.482,18.79607,-0.4322,1.43106,0.97808
291.482,18.88664,-0.46032,1.3799,0.9762
294.482,18.97757,-0.49245,1.32758,0.9743
297.482,19.0682,-0.52079,1.27272,0.97239
300.482,19.15883,-0.55533,1.21558,0.97046
303.482,19.24953,-0.59286,1.15662,0.96852
306.482,19.3403,-0.63238,1.09987,0.96657
309.482,19.43112,-0.66962,1.04069,0.96461
312.482,19.52189,-0.70899,0.98658,0.96263
315.482,19.6128,-0.7522,0.93781,0.96064
318.482,19.70375,-0.79474,0.89753,0.95864
321.482,19.7947,-0.83828,0.85799,0.95662
324.482,19.88578,-0.88155,0.82623,0.95459
327.482,19.97689,-0.92758,0.79935,0.95255
330.482,20.06794,-0.97403,0.77725,0.9505
333.482,20.15925,-1.02038,0.76613,0.94844
336.482,20.25058,-1.07045,0.75787,0.94636
339.482,20.34218,-1.11998,0.75375,0.94428
342.482,20.43366,-1.17016,0.76077,0.94218
345.482,20.52542,-1.22208,0.76911,0.94007
348.482,20.61713,-1.27747,0.7847,0.93795
351.482,20.70911,-1.33509,0.80679,0.93582
354.482,20.8012,-1.39303,0.82621,0.93368
357.482,20.89333,-1.45578,0.84938,0.93153
360.482,20.98558,-1.52347,0.87638,0.92937
363.482,21.07797,-1.59184,0.90747,0.9272
366.482,21.1704,-1.6654,0.94477,0.92502
369.482,21.26291,-1.74652,0.97471,0.92283
372.482,21.35551,-1.82738,1.00293,0.92063
375.482,21.44817,-1.91372,1.0267,0.91842
378.482,21.54085,-2.00421,1.03634,0.9162
381.482,21.6338,-2.09259,1.02997,0.91398
384.482,21.7268,-2.18118,0.99988,0.91174
387.482,21.8199,-2.26449,0.93553,0.9095
390.482,21.91296,-2.33898,0.83863,0.90724
393.482,22.00618,-2.40008,0.71753,0.90498
396.482,22.0993,-2.44898,0.59523,0.90271
399.482,22.19245,-2.48248,0.48851,0.90043
402.482,22.28559,-2.50514,0.41061,0.89815
405.482,22.37905,-2.52106,0.35708,0.89585
408.482,22.47243,-2.53358,0.31899,0.89355
411.482,22.56599,-2.54419,0.28883,0.89124
414.482,22.6596,-2.55378,0.26799,0.88893
417.482,22.7534,-2.56575,0.24741,0.8866
420.482,22.84731,-2.57522,0.23203,0.88427
423.482,22.94122,-2.58329,0.21797,0.88193
426.482,23.03516,-2.59321,0.21118,0.87959
429.482,23.1292,-2.60223,0.20503,0.87724
432.482,23.22344,-2.61173,0.19907,0.87488
435.482,23.3178,-2.61997,0.19988,0.87252
438.482,23.41199,-2.62867,0.1989,0.87015
441.482,23.50654,-2.63779,0.20286,0.86778
444.482,23.601,-2.6458,0.20849,0.8654
447.482,23.69565,-2.65394,0.21557,0.86301
450.482,23.7902,-2.66254,0.22688,0.86062
453.482,23.88472,-2.66987,0.23577,0.85822
456.482,23.97991,-2.67765,0.24858,0.85582
459.482,24.07476,-2.68423,0.25826,0.85341
462.482,24.17012,-2.69193,0.26875,0.851
465.482,24.26531,-2.69907,0.28143,0.84858
468.482,24.3607,-2.70651,0.29216,0.84616
471.482,24.45599,-2.7137,0.30382,0.84373
474.482,24.5514,-2.71741,0.31223,0.8413
477.482,24.64697,-2.72403,0.31892,0.83887
480.482,24.7424,-2.72897,0.33009,0.83643
483.482,24.8383,-2.73477,0.33654,0.83399
486.482,24.9342,-2.74183,0.34181,0.83154
489.482,25.02996,-2.74611,0.34954,0.82909
492.482,25.12582,-2.74959,0.35379,0.82664
495.482,25.22185,-2.75431,0.35788,0.82418
498.482,25.31762,-2.76016,0.36045,0.82172
501.482,25.41379,-2.76502,0.36449,0.81925
504.482,25.51013,-2.76936,0.36707,0.81679
507.482,25.60606,-2.77221,0.37025,0.81432
510.482,25.70253,-2.77752,0.37092,0.81184
513.482,25.7988,-2.78082,0.37201,0.80937
516.482,25.89542,-2.78552,0.37683,0.80689
519.482,25.99193,-2.7896,0.37836,0.80441
522.482,26.08846,-2.79403,0.37736,0.80193
525.482,26.185,-2.79831,0.37477,0.79944
528.482,26.2816,-2.80135,0.37269,0.79696
531.482,26.3786,-2.80555,0.37493,0.79447
534.482,26.4751,-2.8082,0.37061,0.79198
537.482,26.57217,-2.81199,0.37352,0.78949
540.482,26.66913,-2.81525,0.3735,0.78699
543.482,26.76605,-2.81801,0.37433,0.7845
546.482,26.8632,-2.82129,0.37759,0.782
549.482,26.9604,-2.82434,0.38111,0.7795
552.482,27.05785,-2.82764,0.38275,0.77701
555.482,27.1551,-2.83048,0.38975,0.77451
558.482,27.2523,-2.83244,0.38919,0.77201
561.482,27.3499,-2.83517,0.39057,0.7695
564.482,27.44762,-2.83922,0.39202,0.767
567.482,27.5454,-2.84229,0.39625,0.7645
570.482,27.64315,-2.84376,0.39537,0.76199
573.482,27.7411,-2.84767,0.4024,0.75949
576.482,27.83902,-2.85044,0.40058,0.75699
579.482,27.93737,-2.85308,0.40242,0.75448
582.482,28.0354,-2.85438,0.40619,0.75198
585.482,28.13368,-2.85694,0.40864,0.74947
588.482,28.2318,-2.85975,0.40728,0.74697
591.482,28.3301,-2.86315,0.40862,0.74447
594.482,28.42835,-2.86514,0.40433,0.74196
597.482,28.527,-2.86684,0.40048,0.73946
600.482,28.62552,-2.86907,0.39915,0.73695
603.482,28.72403,-2.87071,0.39362,0.73445
606.482,28.82269,-2.87237,0.39172,0.73195
609.482,28.921,-2.87509,0.39152,0.72945
612.482,29.01962,-2.87772,0.37951,0.72695
615.482,29.1182,-2.87987,0.37758,0.72445
618.482,29.21668,-2.88303,0.37349,0.72195
621.482,29.31536,-2.88422,0.36906,0.71945
624.482,29.4139,-2.88666,0.36092,0.71696
627.482,29.51248,-2.88892,0.35729,0.71446
630.482,29.61112,-2.89155,0.35704,0.71197
633.482,29.7098,-2.89289,0.35808,0.70948
636.482,29.80828,-2.89524,0.35314,0.70699
639.482,29.90747,-2.89797,0.35267,0.7045
642.482,30.0062,-2.90054,0.35029,0.70201
645.482,30.10509,-2.90044,0.35008,0.69952
648.482,30.20406,-2.90274,0.34315,0.69704
651.482,30.30305,-2.90571,0.33909,0.69456
654.482,30.40215,-2.90558,0.33588,0.69208
657.482,30.50129,-2.9082,0.33543,0.6896
660.482,30.60036,-2.90954,0.33261,0.68712
663.482,30.69967,-2.91016,0.33175,0.68465
666.482,30.7989,-2.91239,0.32712,0.68218
669.482,30.8982,-2.91504,0.32261,0.67971
672.482,30.9974,-2.91632,0.31903,0.67724
675.482,31.09692,-2.91637,0.31967,0.67478
678.482,31.1966,-2.91868,0.31617,0.67231
681.482,31.29617,-2.92032,0.31234,0.66985
684.482,31.3957,-2.92158,0.30904,0.6674
687.482,31.4953,-2.92291,0.30398,0.66494
690.482,31.59494,-2.92292,0.3034,0.66249
693.482,31.6947,-2.92426,0.30366,0.66004
696.482,31.7943,-2.92552,0.29427,0.65759
699.482,31.8941,-2.92686,0.29112,0.65515
702.482,31.9938,-2.92821,0.28883,0.65271
705.482,32.09359,-2.92952,0.28086,0.65027
708.482,32.1935,-2.9295,0.27896,0.64784
711.482,32.29351,-2.93098,0.27362,0.64541
714.482,32.39342,-2.93275,0.26673,0.64298
717.482,32.49337,-2.93379,0.26458,0.64055
720.482,32.59356,-2.93509,0.25653,0.63813
723.482,32.69379,-2.93643,0.25316,0.63571
726.482,32.7938,-2.93775,0.25129,0.6333
729.482,32.8941,-2.93767,0.24078,0.63088
732.482,32.99438,-2.94035,0.24066,0.62847
735.482,33.0947,-2.93898,0.23562,0.62607
738.482,33.19515,-2.94173,0.23661,0.62367
741.482,33.29607,-2.944,0.23133,0.62127
742.582,33.3328,-2.94431,0.2282,0.62039