File: 01_Data/OSB/MCC/OSB_MCC_30K_min_210308_R1.txt
Sample ID:	C:\MCC\MCC Cal\Test\OSB_30_1.txt
Sample Weight (mg):	4.63
Heating Rate (C/s):	0.5
Combustor Temp (C):	900
N2 Flow Rate (cc/min):	80
O2 Flow Rate (cc/min):	20
Calibration File:	C:\MCC\MCC Cal\Coeff1 JN10440_30_210304.txt.txt
T Correction Coefficients:	0	1.024463	0
Time Shift (s):	14
*
Time (s)	Temperature (C)	N2 flow rate (cc/min)	O2 flow rate (cc/min)	Flow Rate (cc/min)	Oxygen (%)	HRR (W/g)	Heating rate (C/s)
0.000	106.120	79.995	19.992	99.720	20.512	-0.098	0.016
7.499	106.129	79.995	19.990	99.715	20.515	-0.285	0.006
14.999	106.134	79.994	19.992	99.795	20.509	0.118	0.013
22.500	106.416	79.996	19.991	99.868	20.485	1.703	0.022
29.999	107.043	79.995	19.991	99.891	20.474	2.422	0.067
37.499	108.048	79.993	19.992	99.939	20.468	2.831	0.118
45.000	109.513	79.995	19.992	99.955	20.462	3.262	0.231
52.500	111.337	79.994	19.992	99.965	20.457	3.595	0.260
59.999	113.538	79.996	19.994	100.003	20.449	4.110	0.347
67.499	115.967	79.996	19.993	99.988	20.454	3.826	0.363
74.999	118.702	79.997	19.991	99.990	20.448	4.182	0.383
82.499	121.641	79.996	19.992	99.992	20.450	4.033	0.393
89.999	124.767	79.994	19.991	99.986	20.452	3.926	0.418
97.499	128.045	79.993	19.991	99.998	20.454	3.783	0.442
104.999	131.347	79.996	19.992	99.986	20.454	3.821	0.433
112.499	134.841	79.993	19.992	99.995	20.450	4.087	0.461
120.000	138.369	79.995	19.992	99.998	20.456	3.677	0.459
127.499	142.019	79.996	19.992	99.996	20.453	3.852	0.475
134.999	145.765	79.995	19.992	100.001	20.455	3.745	0.526
142.499	149.542	79.995	19.992	99.994	20.455	3.725	0.523
149.999	153.267	79.997	19.993	99.990	20.455	3.749	0.516
157.499	156.959	79.996	19.991	99.990	20.458	3.501	0.499
164.999	160.756	79.996	19.992	99.986	20.457	3.584	0.511
172.499	164.540	79.994	19.992	99.976	20.455	3.702	0.546
179.999	168.279	79.993	19.991	99.960	20.456	3.654	0.485
187.499	172.086	79.995	19.991	99.969	20.456	3.650	0.509
194.999	175.849	79.993	19.991	99.972	20.450	4.089	0.531
202.499	179.563	79.995	19.991	99.957	20.451	4.021	0.475
209.999	183.293	79.996	19.991	99.953	20.446	4.314	0.499
217.500	187.075	79.995	19.992	99.976	20.440	4.755	0.508
224.999	190.737	79.996	19.991	99.960	20.439	4.805	0.469
232.499	194.458	79.996	19.993	99.954	20.434	5.153	0.490
239.999	198.162	79.995	19.992	99.954	20.428	5.577	0.489
247.499	201.878	79.995	19.992	99.954	20.421	6.027	0.511
254.999	205.579	79.994	19.991	99.956	20.430	5.387	0.492
262.500	209.300	79.996	19.992	99.963	20.413	6.526	0.497
270.000	213.008	79.993	19.991	99.954	20.402	7.287	0.494
277.500	216.788	79.996	19.991	99.962	20.402	7.281	0.558
285.000	220.521	79.997	19.991	99.963	20.397	7.638	0.535
292.500	224.194	79.995	19.991	99.969	20.384	8.486	0.483
300.000	228.028	79.996	19.992	99.962	20.388	8.219	0.541
307.500	231.695	79.997	19.992	99.959	20.385	8.451	0.550
315.000	235.483	79.998	19.992	99.960	20.377	8.949	0.483
322.500	239.221	79.995	19.993	99.962	20.368	9.558	0.484
330.000	242.870	79.992	19.993	99.975	20.363	9.918	0.472
337.500	246.560	79.995	19.992	99.977	20.355	10.451	0.482
345.000	250.322	79.993	19.992	99.990	20.351	10.706	0.516
352.500	254.045	79.995	19.991	99.991	20.340	11.494	0.492
360.000	257.832	79.995	19.993	99.994	20.323	12.648	0.519
367.500	261.515	79.997	19.992	99.997	20.307	13.693	0.471
375.000	265.244	79.996	19.991	100.002	20.294	14.568	0.527
382.500	269.022	79.995	19.992	100.015	20.279	15.617	0.527
390.000	272.809	79.995	19.992	100.021	20.262	16.717	0.489
397.500	276.603	79.998	19.992	100.019	20.235	18.571	0.508
405.000	280.342	79.995	19.991	100.030	20.215	19.906	0.488
412.500	284.093	79.994	19.993	100.030	20.191	21.505	0.491
420.000	287.841	79.997	19.992	100.061	20.162	23.464	0.503
427.500	291.604	79.993	19.991	100.065	20.136	25.212	0.497
435.000	295.448	79.992	19.993	100.062	20.106	27.261	0.549
442.500	299.212	79.997	19.992	100.070	20.075	29.352	0.509
450.000	302.984	79.997	19.991	100.079	20.049	31.136	0.493
457.500	306.757	79.998	19.992	100.093	20.016	33.355	0.478
465.000	310.559	79.994	19.991	100.106	19.985	35.459	0.519
472.500	314.427	79.999	19.991	100.108	19.946	38.093	0.506
480.000	318.200	79.994	19.992	100.110	19.908	40.612	0.504
487.500	321.996	79.993	19.990	100.135	19.874	42.941	0.490
495.000	325.753	79.993	19.992	100.144	19.835	45.551	0.452
502.500	329.542	79.993	19.992	100.146	19.795	48.286	0.518
510.000	333.365	79.993	19.991	100.154	19.765	50.307	0.518
517.500	337.111	79.994	19.991	100.181	19.725	53.045	0.483
525.000	340.982	79.996	19.992	100.183	19.686	55.633	0.519
532.500	344.722	79.996	19.991	100.188	19.643	58.586	0.489
540.000	348.573	79.997	19.990	100.190	19.610	60.810	0.503
547.500	352.300	79.996	19.991	100.197	19.578	62.975	0.502
555.000	356.116	79.996	19.991	100.201	19.553	64.608	0.498
562.500	359.898	79.996	19.992	100.191	19.535	65.833	0.523
570.000	363.671	79.993	19.992	100.179	19.544	65.228	0.452
577.500	367.465	79.995	19.991	100.158	19.580	62.763	0.505
585.000	371.292	79.994	19.993	100.106	19.646	58.265	0.521
592.500	375.110	79.994	19.993	100.054	19.748	51.356	0.512
600.000	378.944	79.994	19.991	100.008	19.879	42.537	0.518
607.500	382.710	79.997	19.991	99.966	20.011	33.638	0.535
615.000	386.566	79.996	19.991	99.951	20.129	25.670	0.531
622.500	390.354	79.995	19.991	99.940	20.220	19.518	0.486
630.000	394.233	79.998	19.992	99.926	20.281	15.422	0.485
637.500	398.089	79.995	19.991	99.921	20.314	13.194	0.539
645.000	401.820	79.994	19.992	99.936	20.332	12.040	0.470
652.500	405.648	79.995	19.992	99.971	20.338	11.591	0.506
660.000	409.459	79.994	19.991	99.914	20.346	11.036	0.521
667.500	413.258	79.992	19.992	99.918	20.347	11.019	0.520
675.000	416.997	79.993	19.992	99.917	20.350	10.813	0.527
682.500	420.794	79.995	19.991	99.931	20.353	10.624	0.539
690.000	424.609	79.996	19.990	99.915	20.357	10.319	0.540
697.500	428.437	79.994	19.992	99.915	20.363	9.893	0.527
705.000	432.265	79.997	19.992	99.914	20.366	9.751	0.536
712.500	436.138	79.997	19.991	99.918	20.372	9.325	0.525
720.000	439.954	79.994	19.991	99.924	20.377	8.959	0.514
727.500	443.770	79.994	19.992	99.922	20.382	8.607	0.502
735.000	447.546	79.993	19.991	99.914	20.395	7.732	0.539
742.500	451.388	79.993	19.992	99.914	20.399	7.490	0.536
750.000	455.189	79.994	19.992	99.916	20.410	6.742	0.528
757.500	459.014	79.994	19.993	99.911	20.410	6.736	0.521
765.000	462.789	79.997	19.992	99.910	20.415	6.415	0.507
772.500	466.567	79.997	19.990	99.910	20.417	6.290	0.512
780.000	470.348	79.994	19.991	99.910	20.424	5.794	0.529
787.500	474.131	79.997	19.992	99.912	20.431	5.357	0.486
795.000	477.964	79.997	19.991	99.914	20.429	5.462	0.519
802.500	481.754	79.994	19.991	99.918	20.436	5.005	0.504
810.000	485.552	79.994	19.991	99.918	20.447	4.240	0.512
817.500	489.399	79.996	19.993	99.912	20.439	4.791	0.500
825.000	493.265	79.994	19.991	99.913	20.441	4.660	0.464
832.500	496.983	79.993	19.991	99.911	20.436	4.979	0.263
840.000	500.936	79.992	19.991	99.914	20.442	4.625	0.433
847.500	504.846	79.996	19.992	99.910	20.441	4.638	0.501
855.001	508.797	79.995	19.991	99.911	20.447	4.281	0.536
862.500	512.723	79.997	19.991	99.913	20.441	4.677	0.571
870.000	516.726	79.997	19.992	99.915	20.449	4.105	0.515
877.500	520.745	79.996	19.991	99.910	20.446	4.308	0.532
885.000	524.718	79.995	19.991	99.913	20.448	4.200	0.533
892.500	528.732	79.995	19.991	99.912	20.450	4.054	0.542
900.000	532.729	79.995	19.992	99.908	20.453	3.871	0.539
907.500	536.716	79.995	19.992	99.906	20.451	4.008	0.534
915.000	540.678	79.993	19.992	99.905	20.452	3.921	0.541
922.500	544.482	79.997	19.992	99.908	20.454	3.794	0.518
930.000	548.271	79.996	19.992	99.907	20.451	4.024	0.502
937.500	552.126	79.996	19.991	99.914	20.459	3.466	0.494
945.000	555.918	79.998	19.991	99.908	20.452	3.949	0.501
952.500	559.735	79.998	19.991	99.910	20.458	3.550	0.478
960.000	563.618	79.996	19.992	99.904	20.459	3.456	0.515
967.500	567.482	79.995	19.991	99.912	20.459	3.458	0.537
975.000	571.279	79.996	19.991	99.908	20.458	3.526	0.512
982.500	575.187	79.995	19.992	99.898	20.458	3.493	0.484
990.000	579.003	79.993	19.993	99.903	20.457	3.578	0.527
997.500	582.804	79.995	19.991	99.901	20.455	3.698	0.479
1005.000	586.638	79.997	19.992	99.897	20.464	3.123	0.501
1012.500	590.464	79.996	19.993	99.898	20.456	3.666	0.482
1020.000	594.311	79.996	19.992	99.895	20.459	3.468	0.535
1027.499	598.156	79.998	19.991	99.911	20.466	2.999	0.513
1034.999	602.029	79.997	19.991	99.909	20.459	3.488	0.522
1042.499	605.799	79.994	19.991	99.898	20.463	3.207	0.515
1050.000	609.622	79.994	19.992	99.904	20.452	3.917	0.488
1057.499	613.487	79.996	19.992	99.912	20.457	3.558	0.523
1064.999	617.315	79.995	19.991	99.899	20.461	3.307	0.502
1072.499	621.128	79.992	19.992	99.896	20.458	3.497	0.526
1080.000	624.984	79.998	19.992	99.895	20.461	3.298	0.549
1087.499	628.784	79.996	19.992	99.905	20.462	3.257	0.516
1094.999	632.672	79.996	19.991	99.908	20.459	3.438	0.496
1102.499	636.509	79.996	19.993	99.895	20.458	3.517	0.498
1110.000	640.356	79.998	19.992	99.901	20.461	3.336	0.488
1117.500	644.123	79.995	19.991	99.901	20.458	3.522	0.498
1125.000	647.943	79.994	19.991	99.906	20.460	3.362	0.510
1132.501	651.761	79.995	19.992	99.888	20.459	3.446	0.504
1140.001	655.622	79.995	19.991	99.890	20.459	3.467	0.501
1147.500	659.460	79.995	19.991	99.900	20.456	3.655	0.481
1155.000	663.298	79.994	19.992	99.887	20.465	3.024	0.515
1162.500	667.086	79.996	19.992	99.895	20.463	3.170	0.532
1170.000	670.914	79.997	19.992	99.896	20.460	3.382	0.502
1177.500	674.763	79.996	19.992	99.904	20.462	3.246	0.547
1185.000	678.502	79.996	19.992	99.910	20.461	3.345	0.469
1192.500	682.263	79.996	19.992	99.890	20.462	3.278	0.516
1200.000	686.021	79.996	19.992	99.889	20.457	3.615	0.494
1207.500	689.849	79.996	19.991	99.890	20.456	3.676	0.506
1215.000	693.561	79.994	19.992	99.893	20.459	3.469	0.492
1222.500	697.419	79.994	19.992	99.908	20.457	3.611	0.492
1230.000	701.262	79.993	19.990	99.891	20.458	3.532	0.548
1237.500	705.124	79.996	19.992	99.903	20.458	3.498	0.504
1245.000	708.971	79.996	19.992	99.882	20.458	3.535	0.523
1252.501	712.826	79.995	19.992	99.887	20.462	3.259	0.517
1260.000	716.704	79.998	19.992	99.897	20.458	3.544	0.528
1267.500	720.499	79.998	19.992	99.903	20.459	3.469	0.492
1275.000	724.247	79.996	19.993	99.882	20.458	3.494	0.526
1282.500	727.941	79.992	19.991	99.890	20.454	3.767	0.504
1290.000	731.660	79.993	19.991	99.892	20.459	3.476	0.520
1297.500	735.376	79.992	19.991	99.894	20.459	3.485	0.508
1305.000	739.171	79.994	19.992	99.884	20.455	3.734	0.517
1312.500	742.946	79.993	19.991	99.883	20.453	3.889	0.506
1314.001	743.684	79.994	19.991	99.880	20.451	4.023	0.505