File: 01_Data/OSB/MCC/OSB_MCC_30K_min_210308_R2.txt
Sample ID:	C:\MCC\MCC Cal\Test\OSB_30_2.txt
Sample Weight (mg):	4.63
Heating Rate (C/s):	0.5
Combustor Temp (C):	900
N2 Flow Rate (cc/min):	80
O2 Flow Rate (cc/min):	20
Calibration File:	C:\MCC\MCC Cal\Coeff1 JN10440_30_210304.txt.txt
T Correction Coefficients:	0	1.024463	0
Time Shift (s):	14
*
Time (s)	Temperature (C)	N2 flow rate (cc/min)	O2 flow rate (cc/min)	Flow Rate (cc/min)	Oxygen (%)	HRR (W/g)	Heating rate (C/s)
0.000	110.777	79.998	19.992	99.361	20.628	-0.163	-0.024
7.500	110.734	79.995	19.991	99.338	20.629	-0.268	-0.010
15.001	110.661	79.998	19.991	99.370	20.626	-0.024	-0.015
22.500	110.676	79.995	19.991	99.439	20.620	0.323	-0.011
30.000	111.058	79.996	19.992	99.490	20.612	0.871	0.066
37.501	111.789	79.995	19.992	99.558	20.598	1.845	0.140
45.000	112.962	79.994	19.991	99.573	20.587	2.588	0.157
52.500	114.509	79.994	19.991	99.599	20.582	2.931	0.201
60.000	116.533	79.996	19.991	99.606	20.583	2.834	0.320
67.501	118.749	79.995	19.992	99.611	20.583	2.840	0.302
75.000	121.295	79.999	19.991	99.621	20.583	2.847	0.339
82.500	123.967	79.996	19.991	99.618	20.580	3.042	0.351
90.000	126.862	79.997	19.991	99.619	20.574	3.469	0.393
97.500	129.835	80.001	19.991	99.621	20.580	3.004	0.400
105.000	132.907	79.996	19.992	99.637	20.582	2.910	0.419
112.500	136.154	79.994	19.991	99.637	20.578	3.179	0.460
120.000	139.498	79.995	19.993	99.638	20.579	3.118	0.467
127.500	142.930	79.996	19.992	99.641	20.578	3.162	0.468
135.000	146.460	79.997	19.991	99.639	20.578	3.162	0.475
142.500	150.019	79.995	19.991	99.641	20.574	3.472	0.462
150.000	153.647	79.995	19.991	99.613	20.574	3.422	0.496
157.500	157.315	79.994	19.991	99.655	20.573	3.540	0.519
165.000	161.072	79.994	19.991	99.643	20.572	3.602	0.530
172.500	164.831	79.995	19.991	99.661	20.564	4.078	0.482
180.000	168.628	79.996	19.991	99.641	20.563	4.155	0.480
187.500	172.466	79.995	19.991	99.654	20.562	4.252	0.508
195.000	176.315	79.995	19.991	99.642	20.565	4.072	0.513
202.500	180.114	79.995	19.992	99.638	20.560	4.374	0.505
210.000	183.899	79.995	19.993	99.641	20.557	4.565	0.493
217.500	187.718	79.993	19.993	99.643	20.555	4.737	0.513
225.000	191.394	79.995	19.991	99.651	20.550	5.082	0.491
232.500	195.145	79.999	19.991	99.671	20.549	5.143	0.501
240.000	198.803	79.999	19.991	99.658	20.537	5.902	0.460
247.500	202.514	79.999	19.992	99.651	20.533	6.193	0.478
255.000	206.178	79.999	19.991	99.655	20.528	6.534	0.500
262.500	209.826	80.000	19.991	99.664	20.520	7.046	0.490
270.000	213.491	79.994	19.991	99.670	20.520	7.063	0.470
277.500	217.124	79.993	19.992	99.677	20.511	7.701	0.445
285.000	220.824	79.995	19.991	99.678	20.510	7.771	0.473
292.500	224.482	79.992	19.991	99.682	20.497	8.617	0.507
300.000	228.250	79.992	19.993	99.686	20.495	8.756	0.509
307.500	231.894	79.995	19.991	99.684	20.492	8.959	0.485
315.000	235.712	79.998	19.991	99.700	20.485	9.441	0.520
322.500	239.437	79.998	19.991	99.702	20.478	9.924	0.480
330.000	243.140	79.995	19.992	99.704	20.475	10.082	0.476
337.500	246.942	79.998	19.991	99.716	20.468	10.564	0.515
345.000	250.829	79.996	19.990	99.719	20.460	11.132	0.516
352.500	254.528	79.996	19.991	99.748	20.447	12.004	0.499
360.000	258.363	79.994	19.992	99.689	20.431	13.028	0.535
367.500	262.092	79.994	19.991	99.783	20.415	14.116	0.499
375.000	265.837	79.996	19.991	99.755	20.401	15.065	0.514
382.500	269.631	79.994	19.993	99.792	20.379	16.581	0.537
390.000	273.393	79.996	19.992	99.769	20.359	17.903	0.499
397.500	277.153	79.996	19.992	99.793	20.337	19.392	0.508
405.000	280.859	79.994	19.991	99.802	20.319	20.580	0.496
412.500	284.667	79.997	19.991	99.819	20.294	22.278	0.530
420.000	288.416	79.998	19.991	99.828	20.269	23.934	0.481
427.500	292.210	79.997	19.990	99.834	20.241	25.851	0.501
435.000	295.990	79.994	19.991	99.785	20.212	27.816	0.513
442.500	299.745	79.995	19.992	99.858	20.182	29.832	0.480
450.000	303.533	79.996	19.992	99.867	20.147	32.214	0.526
457.500	307.269	79.994	19.991	99.875	20.110	34.675	0.473
465.000	311.099	79.994	19.992	99.890	20.078	36.845	0.536
472.500	314.925	79.997	19.992	99.904	20.040	39.375	0.529
480.000	318.734	79.996	19.992	99.914	20.004	41.860	0.540
487.500	322.486	79.994	19.991	99.935	19.967	44.304	0.493
495.000	326.300	79.998	19.991	99.947	19.930	46.824	0.524
502.500	330.126	79.995	19.991	99.947	19.892	49.405	0.482
510.000	333.971	79.997	19.991	99.972	19.857	51.729	0.527
517.500	337.783	79.996	19.991	99.972	19.815	54.583	0.543
525.000	341.612	79.998	19.992	99.999	19.773	57.434	0.515
532.500	345.363	79.994	19.991	100.011	19.733	60.131	0.527
540.000	349.116	79.994	19.992	100.029	19.701	62.289	0.476
547.500	352.956	79.995	19.992	100.035	19.664	64.790	0.495
555.000	356.745	79.996	19.992	100.030	19.634	66.843	0.486
562.500	360.514	79.996	19.993	100.034	19.621	67.694	0.504
570.000	364.320	79.996	19.991	100.028	19.628	67.183	0.499
577.500	368.163	79.997	19.991	99.988	19.655	65.355	0.551
585.000	371.904	79.997	19.992	99.951	19.725	60.565	0.514
592.500	375.705	79.994	19.991	99.910	19.835	53.180	0.509
600.000	379.469	79.996	19.991	99.861	19.969	44.144	0.525
607.500	383.251	79.993	19.991	99.816	20.101	35.286	0.478
615.000	387.102	79.995	19.992	99.804	20.221	27.169	0.470
622.500	390.915	79.994	19.992	99.791	20.317	20.759	0.518
630.000	394.816	79.995	19.991	99.792	20.377	16.721	0.515
637.500	398.717	79.990	19.992	99.797	20.421	13.758	0.529
645.000	402.531	79.994	19.992	99.790	20.434	12.849	0.516
652.500	406.367	79.995	19.991	99.795	20.448	11.902	0.506
660.000	410.188	79.997	19.991	99.795	20.458	11.264	0.510
667.500	413.991	79.995	19.991	99.799	20.462	10.958	0.500
675.000	417.782	79.994	19.991	99.799	20.463	10.917	0.494
682.500	421.559	79.996	19.991	99.797	20.466	10.695	0.494
690.000	425.340	79.996	19.992	99.795	20.471	10.348	0.546
697.500	429.085	79.994	19.991	99.795	20.477	9.947	0.462
705.000	432.874	79.994	19.992	99.812	20.485	9.412	0.471
712.500	436.694	79.995	19.992	99.806	20.489	9.181	0.544
720.000	440.476	79.996	19.992	99.804	20.491	9.035	0.489
727.500	444.245	79.995	19.992	99.809	20.496	8.682	0.494
735.000	447.986	79.995	19.992	99.819	20.502	8.292	0.494
742.500	451.715	79.997	19.991	99.802	20.504	8.146	0.461
750.000	455.545	79.994	19.990	99.801	20.515	7.397	0.507
757.500	459.333	79.995	19.991	99.820	20.520	7.051	0.492
765.000	463.186	79.995	19.991	99.830	20.530	6.421	0.494
772.500	467.031	79.998	19.991	99.818	20.534	6.156	0.493
780.000	470.900	79.995	19.990	99.833	20.540	5.707	0.510
787.500	474.824	79.995	19.992	99.825	20.539	5.793	0.497
795.000	478.682	79.997	19.991	99.829	20.547	5.276	0.537
802.500	482.535	79.994	19.992	99.837	20.549	5.159	0.528
810.000	486.378	79.997	19.992	99.826	20.556	4.625	0.517
817.500	490.185	79.995	19.992	99.829	20.555	4.716	0.505
825.000	494.112	79.996	19.992	99.832	20.553	4.826	0.538
832.500	497.902	79.995	19.992	99.833	20.555	4.707	0.523
840.000	501.714	79.995	19.991	99.835	20.558	4.537	0.509
847.500	505.529	79.995	19.992	99.837	20.558	4.521	0.486
855.001	509.328	79.994	19.991	99.835	20.575	3.388	0.568
862.500	513.421	79.994	19.991	99.840	20.576	3.310	0.738
870.000	516.565	79.996	19.991	99.841	20.570	3.701	0.322
877.500	520.745	79.995	19.992	99.834	20.568	3.878	0.358
885.000	524.755	79.995	19.991	99.842	20.569	3.750	0.533
892.500	528.573	79.998	19.992	99.835	20.571	3.666	0.506
900.000	532.572	79.996	19.992	99.833	20.568	3.872	0.511
907.500	536.516	79.994	19.993	99.834	20.574	3.430	0.488
915.000	540.316	79.995	19.992	99.843	20.576	3.312	0.490
922.500	544.238	79.995	19.991	99.838	20.575	3.386	0.544
930.000	548.116	79.995	19.991	99.841	20.572	3.548	0.536
937.500	551.875	79.994	19.991	99.835	20.575	3.411	0.524
945.000	555.718	79.996	19.991	99.837	20.578	3.192	0.500
952.500	559.589	79.998	19.990	99.835	20.582	2.923	0.540
960.000	563.420	79.996	19.992	99.837	20.582	2.927	0.512
967.500	567.167	79.997	19.992	99.837	20.584	2.750	0.509
975.000	570.986	79.996	19.991	99.843	20.581	2.973	0.522
982.501	574.869	79.995	19.992	99.850	20.582	2.935	0.543
990.000	578.667	79.994	19.992	99.851	20.581	2.984	0.525
997.500	582.448	79.995	19.993	99.844	20.585	2.693	0.497
1005.000	586.226	79.996	19.991	99.843	20.579	3.134	0.479
1012.500	590.030	79.995	19.992	99.839	20.579	3.100	0.488
1020.000	593.878	79.994	19.993	99.835	20.585	2.732	0.550
1027.501	597.701	79.994	19.992	99.836	20.585	2.686	0.504
1035.000	601.564	79.997	19.991	99.839	20.589	2.469	0.490
1042.501	605.445	79.995	19.991	99.847	20.586	2.657	0.535
1050.000	609.247	79.995	19.991	99.846	20.584	2.745	0.496
1057.501	613.057	79.996	19.991	99.841	20.590	2.367	0.508
1065.000	616.872	79.996	19.991	99.839	20.593	2.146	0.505
1072.500	620.717	79.994	19.992	99.840	20.587	2.577	0.507
1080.000	624.525	79.994	19.992	99.833	20.586	2.645	0.477
1087.500	628.293	79.995	19.991	99.834	20.586	2.625	0.492
1095.000	632.099	79.993	19.991	99.839	20.586	2.666	0.495
1102.500	636.005	79.995	19.991	99.841	20.583	2.809	0.533
1110.000	639.836	79.994	19.991	99.837	20.589	2.467	0.508
1117.500	643.624	79.994	19.990	99.843	20.589	2.437	0.513
1125.000	647.498	79.997	19.991	99.837	20.589	2.413	0.492
1132.501	651.339	79.998	19.991	99.841	20.586	2.629	0.482
1140.001	655.216	79.996	19.991	99.837	20.589	2.450	0.542
1147.501	659.015	79.994	19.991	99.840	20.593	2.190	0.524
1155.000	662.831	79.993	19.991	99.837	20.581	2.966	0.490
1162.500	666.579	79.994	19.992	99.836	20.597	1.923	0.455
1170.001	670.253	79.994	19.992	99.835	20.596	1.953	0.302
1177.501	674.125	79.994	19.991	99.837	20.596	1.978	0.455
1185.000	677.822	79.993	19.990	99.839	20.595	2.035	0.461
1192.500	681.636	79.999	19.992	99.836	20.590	2.378	0.516
1200.000	685.366	79.995	19.992	99.835	20.595	2.013	0.471
1207.500	689.091	79.997	19.991	99.833	20.595	2.010	0.514
1215.000	692.977	79.998	19.990	99.834	20.593	2.170	0.506
1222.500	696.791	79.995	19.992	99.835	20.590	2.336	0.533
1230.000	700.595	79.995	19.991	99.836	20.590	2.387	0.512
1237.500	704.501	79.995	19.990	99.836	20.593	2.174	0.537
1245.001	708.344	79.997	19.992	99.837	20.592	2.264	0.516
1252.500	712.170	79.991	19.993	99.832	20.591	2.277	0.444
1260.000	716.057	79.994	19.992	99.833	20.593	2.163	0.513
1267.500	719.897	79.996	19.991	99.832	20.596	1.980	0.502
1275.001	723.758	79.997	19.991	99.832	20.596	1.945	0.498
1282.501	727.646	79.994	19.991	99.834	20.594	2.076	0.486
1290.000	731.400	79.997	19.991	99.834	20.596	1.951	0.516
1297.500	735.154	79.998	19.990	99.832	20.598	1.822	0.504
1305.001	738.902	79.995	19.992	99.836	20.597	1.918	0.477
1312.501	742.691	79.995	19.992	99.835	20.593	2.159	0.504
1314.500	743.737	79.994	19.992	99.835	20.595	2.019	0.544