File: 01_Data/Eucalyptus_Flooring/STA/N2/10K_min/Eucalyptus_Flooring_STA_N2_10KData_211012_R2.csv
##Temp./Â°C,Time/min,Mass loss(subtr.2)/mg,DSC(subtr.2)/(mW/mg),Sensit./(uV/mW)
49.315,10.01,-0.02106,0.00710063,1.07447
52.415,11.30706,-0.02433296,0.10661,1.07425
55.515,11.75569,-0.02548663,0.15941,1.074
58.615,12.13728,-0.0249008,0.19152,1.07373
61.715,12.4925,-0.0262228,0.21167,1.07344
64.815,12.83608,-0.02753199,0.2273,1.07313
67.915,13.17254,-0.02754056,0.24043,1.0728
71.015,13.5053,-0.02875916,0.25176,1.07244
74.115,13.8345,-0.03147406,0.26102,1.07206
77.215,14.1603,-0.03148967,0.26865,1.07166
80.315,14.48279,-0.03410529,0.27604,1.07123
83.415,14.8012,-0.03543,0.27943,1.07078
86.515,15.1174,-0.035382,0.28401,1.07032
89.615,15.43082,-0.03674893,0.28349,1.06983
92.715,15.7415,-0.03911234,0.28185,1.06931
95.815,16.05057,-0.03807,0.27598,1.06878
98.915,16.35765,-0.0409665,0.27585,1.06822
102.015,16.66378,-0.03969467,0.27431,1.06764
105.115,16.9692,-0.04234,0.26977,1.06704
108.215,17.27349,-0.04102352,0.26876,1.06642
111.315,17.57829,-0.04300228,0.2711,1.06577
114.415,17.88241,-0.04299997,0.26892,1.06511
117.515,18.18645,-0.04300014,0.27218,1.06442
120.615,18.48966,-0.04563139,0.27448,1.06371
123.715,18.79198,-0.0456296,0.2791,1.06298
126.815,19.09414,-0.04660595,0.28385,1.06223
129.915,19.39528,-0.04808778,0.28722,1.06145
133.015,19.69712,-0.04695682,0.2914,1.06066
136.115,19.9979,-0.04859,0.29514,1.05984
139.215,20.2981,-0.04991,0.30106,1.059
142.315,20.5972,-0.05088813,0.30484,1.05814
145.415,20.89745,-0.05188,0.30763,1.05726
148.515,21.19679,-0.0528672,0.31044,1.05636
151.615,21.4956,-0.05320948,0.31718,1.05544
154.715,21.794,-0.0555,0.32237,1.0545
157.815,22.09185,-0.05681879,0.32405,1.05353
160.915,22.39001,-0.05813,0.32866,1.05255
164.015,22.68852,-0.06011,0.33342,1.05154
167.115,22.98621,-0.06242241,0.33565,1.05052
170.215,23.2838,-0.06297615,0.33955,1.04947
173.315,23.58183,-0.06616404,0.34263,1.04841
176.415,23.87946,-0.06800972,0.34403,1.04732
179.515,24.17703,-0.07104877,0.34681,1.04621
182.615,24.47478,-0.07599244,0.34866,1.04509
185.715,24.77196,-0.07853728,0.34754,1.04394
188.815,25.0689,-0.08248004,0.3518,1.04277
191.915,25.36607,-0.08642629,0.35394,1.04158
195.015,25.66306,-0.08996602,0.35633,1.04038
198.115,25.95991,-0.09564998,0.3585,1.03915
201.215,26.25631,-0.0999686,0.36071,1.03791
204.315,26.55295,-0.1065,0.36151,1.03664
207.415,26.84931,-0.11173,0.36076,1.03535
210.515,27.1457,-0.11978,0.35733,1.03405
213.615,27.442,-0.12571,0.35627,1.03273
216.715,27.73847,-0.13354,0.35099,1.03138
219.815,28.0353,-0.14079,0.34855,1.03002
222.915,28.3319,-0.15005,0.34823,1.02864
226.015,28.6286,-0.15914,0.3432,1.02724
229.115,28.9247,-0.16856,0.34405,1.02582
232.215,29.22086,-0.17963,0.33423,1.02438
235.315,29.518,-0.19045,0.33137,1.02293
238.415,29.81509,-0.20407,0.3274,1.02145
241.515,30.11145,-0.217,0.32038,1.01996
244.615,30.4085,-0.23116,0.31287,1.01845
247.715,30.7051,-0.24625,0.31186,1.01692
250.815,31.00088,-0.26507,0.30533,1.01537
253.915,31.29768,-0.2815,0.2968,1.01381
257.015,31.5946,-0.30283,0.29478,1.01222
260.115,31.89163,-0.32172,0.28866,1.01062
263.215,32.18894,-0.34478,0.2818,1.009
266.315,32.48516,-0.37155,0.27935,1.00737
269.415,32.78318,-0.39749,0.27256,1.00571
272.515,33.08061,-0.42751,0.2684,1.00404
275.615,33.37765,-0.46196,0.25887,1.00235
278.715,33.67412,-0.49725,0.25468,1.00065
281.815,33.97144,-0.53513,0.24452,0.99893
284.915,34.26865,-0.57975,0.24294,0.99719
288.015,34.5662,-0.62627,0.23714,0.99543
291.115,34.86372,-0.67741,0.23739,0.99366
294.215,35.16183,-0.73284,0.23824,0.99187
297.315,35.4606,-0.79424,0.24476,0.99007
300.415,35.759,-0.85958,0.2578,0.98824
303.515,36.05699,-0.93172,0.26826,0.98641
306.615,36.35467,-1.00492,0.28046,0.98455
309.715,36.6535,-1.08625,0.29619,0.98268
312.815,36.95114,-1.17266,0.30191,0.9808
315.915,37.24994,-1.26401,0.30794,0.9789
319.015,37.54888,-1.36005,0.30544,0.97698
322.115,37.84787,-1.46477,0.30219,0.97505
325.215,38.14717,-1.5696,0.28957,0.9731
328.315,38.44631,-1.67828,0.2714,0.97114
331.415,38.74588,-1.78372,0.24699,0.96916
334.515,39.04625,-1.88344,0.21776,0.96717
337.615,39.34646,-1.9709,0.18764,0.96516
340.715,39.64645,-2.04997,0.16078,0.96313
343.815,39.94656,-2.11282,0.13921,0.9611
346.915,40.24678,-2.16302,0.12363,0.95905
350.015,40.54777,-2.20493,0.1095,0.95698
353.115,40.84847,-2.2394,0.09636898,0.9549
356.215,41.14987,-2.26644,0.08573101,0.95281
359.315,41.451,-2.28786,0.07391676,0.9507
362.415,41.75206,-2.30856,0.06215026,0.94858
365.515,42.05273,-2.32826,0.05093165,0.94644
368.615,42.35457,-2.34485,0.04227527,0.94429
371.715,42.65553,-2.35994,0.03577321,0.94213
374.815,42.95743,-2.37421,0.02394236,0.93995
377.915,43.25949,-2.38805,0.0155178,0.93776
381.015,43.56134,-2.40161,0.008589413,0.93556
384.115,43.86342,-2.41629,0.002843838,0.93334
387.215,44.1655,-2.42705,-0.001371065,0.93112
390.315,44.46761,-2.44038,-0.01118283,0.92888
393.415,44.76954,-2.45198,-0.00763226,0.92662
396.515,45.07233,-2.46361,-0.008051616,0.92436
399.615,45.37484,-2.47514,-0.01008267,0.92208
402.715,45.67745,-2.48682,-0.009470393,0.91979
405.815,45.98073,-2.49723,-0.00453278,0.91749
408.915,46.28415,-2.5092,9.986324e-05,0.91517
412.015,46.5872,-2.51968,0.00539015,0.91285
415.115,46.89018,-2.52993,0.009576803,0.91051
418.215,47.1938,-2.54054,0.0146911,0.90816
421.315,47.49718,-2.55011,0.02335173,0.9058
424.415,47.80103,-2.55978,0.02737935,0.90343
427.515,48.10452,-2.57221,0.03366686,0.90105
430.615,48.40902,-2.57922,0.04156795,0.89865
433.715,48.7134,-2.58934,0.04572012,0.89625
436.815,49.01829,-2.59977,0.04580972,0.89383
439.915,49.3236,-2.6072,0.0530588,0.89141
443.015,49.62877,-2.61559,0.05463554,0.88897
446.115,49.9341,-2.62321,0.05777583,0.88653
449.215,50.239,-2.6326,0.05661692,0.88407
452.315,50.54446,-2.63905,0.05823682,0.8816
455.415,50.84989,-2.64737,0.06136495,0.87913
458.515,51.15645,-2.65336,0.06201875,0.87664
461.615,51.4626,-2.66057,0.06167502,0.87415
464.715,51.76896,-2.6671,0.06092584,0.87164
467.815,52.0754,-2.67438,0.06236772,0.86913
470.915,52.38087,-2.68249,0.06111165,0.8666
474.015,52.687,-2.68646,0.06103126,0.86407
477.115,52.9925,-2.69303,0.06130037,0.86153
480.215,53.2983,-2.6985,0.06086218,0.85898
483.315,53.60374,-2.70483,0.05987375,0.85642
486.415,53.90988,-2.70913,0.05841482,0.85385
489.515,54.2175,-2.71547,0.05732991,0.85128
492.615,54.52386,-2.72129,0.05765596,0.84869
495.715,54.8316,-2.7279,0.06382543,0.8461
498.815,55.13949,-2.73316,0.06836797,0.8435
501.915,55.44696,-2.73854,0.06820732,0.84089
505.015,55.7547,-2.7438,0.07356278,0.83828
508.115,56.0629,-2.74775,0.07653861,0.83565
511.215,56.37095,-2.75342,0.08250323,0.83302
514.315,56.67974,-2.75676,0.08848706,0.83038
517.415,56.9888,-2.76234,0.0929891,0.82774
520.515,57.2982,-2.76756,0.09327768,0.82508
523.615,57.60754,-2.77287,0.09423183,0.82242
526.715,57.9163,-2.7765,0.09544356,0.81976
529.815,58.22551,-2.78076,0.09944246,0.81708
532.915,58.5339,-2.7847,0.10004,0.81441
536.015,58.8424,-2.78932,0.10276,0.81172
539.115,59.1511,-2.79327,0.10456,0.80903
542.215,59.46023,-2.8002,0.10553,0.80633
545.315,59.7693,-2.80351,0.10658,0.80362
548.415,60.0783,-2.80521,0.1101,0.80091
551.515,60.38799,-2.81049,0.10763,0.7982
554.615,60.69765,-2.81585,0.10395,0.79548
557.715,61.00682,-2.81785,0.09942677,0.79275
560.815,61.31596,-2.8231,0.09297643,0.79002
563.915,61.6259,-2.82569,0.07959799,0.78728
567.015,61.9352,-2.82877,0.06952537,0.78454
570.115,62.2454,-2.83265,0.06477381,0.78179
573.215,62.55471,-2.83724,0.05900568,0.77904
576.315,62.86452,-2.83979,0.05836788,0.77628
579.415,63.1747,-2.84252,0.05869614,0.77352
582.515,63.4854,-2.84518,0.05576248,0.77075
585.615,63.796,-2.8491,0.0531452,0.76798
588.715,64.10679,-2.85041,0.05898793,0.76521
591.815,64.41704,-2.85319,0.0653003,0.76243
594.915,64.72756,-2.85757,0.06641764,0.75964
598.015,65.03765,-2.86105,0.06882538,0.75686
601.115,65.34823,-2.8637,0.06992481,0.75407
604.215,65.6589,-2.86598,0.07206906,0.75127
607.315,65.97055,-2.86763,0.07420591,0.74848
610.415,66.28153,-2.86926,0.07958608,0.74568
613.515,66.5932,-2.87169,0.07843542,0.74287
616.615,66.90424,-2.87531,0.07941106,0.74006
619.715,67.2147,-2.87532,0.08111384,0.73725
622.815,67.52552,-2.87889,0.08442496,0.73444
625.915,67.83789,-2.87992,0.08455291,0.73163
629.015,68.14981,-2.88221,0.08688094,0.72881
632.115,68.46165,-2.88431,0.08817472,0.72599
635.215,68.77336,-2.88496,0.08767066,0.72317
638.315,69.0857,-2.8876,0.09000188,0.72034
641.415,69.39779,-2.88859,0.08776025,0.71751
644.515,69.70961,-2.89122,0.08633151,0.71468
647.615,70.02194,-2.89056,0.08793564,0.71185
650.715,70.3351,-2.89451,0.08561934,0.70902
653.815,70.64785,-2.89573,0.08210682,0.70619
656.915,70.96051,-2.89812,0.083044,0.70335
660.015,71.27396,-2.89978,0.08033843,0.70051
663.115,71.58686,-2.89978,0.07741497,0.69767
666.215,71.90016,-2.90241,0.07417871,0.69484
669.315,72.21298,-2.9024,0.07631215,0.69199
672.415,72.5257,-2.90466,0.07137206,0.68915
675.515,72.83917,-2.90536,0.06531313,0.68631
678.615,73.15266,-2.90727,0.06039171,0.68347
681.715,73.4662,-2.90931,0.05854903,0.68062
684.815,73.77975,-2.91162,0.0684179,0.67778
687.915,74.09311,-2.91162,0.06610567,0.67493
691.015,74.40678,-2.91402,0.06450517,0.67209
694.115,74.72004,-2.91568,0.05950576,0.66924
697.215,75.03384,-2.91699,0.05986418,0.6664
700.315,75.34703,-2.91667,0.05527583,0.66355
703.415,75.6606,-2.91798,0.05624401,0.66071
706.515,75.9737,-2.92011,0.05329134,0.65787
709.615,76.28774,-2.92061,0.05040768,0.65502
712.715,76.6015,-2.9216,0.0472993,0.65218
715.815,76.9155,-2.92193,0.04405543,0.64933
718.915,77.22941,-2.92359,0.04189036,0.64649
722.015,77.54414,-2.92489,0.03976318,0.64365
725.115,77.8575,-2.9263,0.03334495,0.64081
728.215,78.17187,-2.92621,0.03508197,0.63797
731.315,78.48584,-2.9262,0.0346639,0.63513
734.415,78.80075,-2.92687,0.02912122,0.6323
737.515,79.11522,-2.9288,0.03104487,0.62946
740.615,79.42942,-2.92818,0.03633826,0.62663
743.715,79.74315,-2.92951,0.03714759,0.62379
746.215,79.99706,-2.93181,0.03629796,0.62151