File: 01_Data/Eucalyptus_Flooring/STA/N2/10K_min/Eucalyptus_Flooring_STA_N2_10KData_211012_R1.csv
##Temp./Â°C,Time/min,Mass loss(subtr.2)/mg,DSC(subtr.2)/(mW/mg),Sensit./(uV/mW)
49.312,10.01,-0.00921,0.006291693,1.07447
52.312,11.29294,-0.008732434,0.1089,1.07425
55.312,11.7303,-0.01022748,0.16133,1.07402
58.312,12.10063,-0.01025151,0.19296,1.07376
61.312,12.44634,-0.01032354,0.21139,1.07348
64.312,12.78003,-0.008999821,0.22317,1.07318
67.312,13.1073,-0.00914263,0.23637,1.07286
70.312,13.42968,-0.01065687,0.24887,1.07252
73.312,13.7481,-0.01162066,0.25728,1.07216
76.312,14.06316,-0.01188824,0.26616,1.07178
79.312,14.3757,-0.01425001,0.27267,1.07137
82.312,14.68474,-0.0155782,0.2776,1.07095
85.312,14.9909,-0.01557718,0.27836,1.0705
88.312,15.29545,-0.01692486,0.28165,1.07003
91.312,15.5976,-0.01821,0.27974,1.06955
94.312,15.8977,-0.01942157,0.27825,1.06904
97.312,16.19661,-0.01953,0.27154,1.06851
100.312,16.4936,-0.0208405,0.2722,1.06796
103.312,16.78989,-0.02084,0.27035,1.06739
106.312,17.0857,-0.02083974,0.2678,1.0668
109.312,17.38035,-0.02215161,0.26706,1.06619
112.312,17.675,-0.02248231,0.26865,1.06556
115.312,17.96921,-0.02249999,0.27157,1.06491
118.312,18.26289,-0.02248,0.27431,1.06424
121.312,18.55625,-0.02388271,0.27604,1.06355
124.312,18.8487,-0.02449417,0.28046,1.06283
127.312,19.14113,-0.02280722,0.28375,1.0621
130.312,19.43285,-0.02511,0.29008,1.06135
133.312,19.72416,-0.02479,0.29381,1.06058
136.312,20.01461,-0.02511385,0.2968,1.05979
139.312,20.30508,-0.02774908,0.29944,1.05898
142.312,20.59515,-0.02802428,0.30461,1.05814
145.312,20.88431,-0.02907587,0.30992,1.05729
148.312,21.17437,-0.02940006,0.31143,1.05642
151.312,21.4637,-0.03071,0.31771,1.05553
154.312,21.752,-0.03070428,0.3207,1.05462
157.312,22.04091,-0.03169623,0.32106,1.05369
160.312,22.32921,-0.03301,0.32729,1.05274
163.312,22.6176,-0.03459351,0.33273,1.05177
166.312,22.9038,-0.03616429,0.33617,1.05079
169.312,23.19249,-0.03799758,0.33623,1.04978
172.312,23.48075,-0.03929516,0.33973,1.04875
175.312,23.76874,-0.04389219,0.3414,1.04771
178.312,24.05647,-0.0436759,0.34365,1.04665
181.312,24.34469,-0.04760987,0.34425,1.04556
184.312,24.6318,-0.05153931,0.34585,1.04446
187.312,24.9193,-0.05419908,0.35077,1.04334
190.312,25.2061,-0.05682016,0.35042,1.0422
193.312,25.4939,-0.06075455,0.35172,1.04104
196.312,25.78097,-0.06482032,0.35274,1.03987
199.312,26.06852,-0.06843779,0.3532,1.03867
202.312,26.35615,-0.07411173,0.3531,1.03746
205.312,26.64293,-0.07900006,0.35233,1.03623
208.312,26.9308,-0.08466896,0.35213,1.03498
211.312,27.21821,-0.09124847,0.35042,1.03371
214.312,27.5056,-0.09652382,0.34824,1.03243
217.312,27.7927,-0.10295,0.3464,1.03112
220.312,28.07965,-0.11102,0.34164,1.0298
223.312,28.36615,-0.11912,0.34261,1.02846
226.312,28.6527,-0.1272,0.3397,1.0271
229.312,28.93931,-0.13686,0.33531,1.02573
232.312,29.22617,-0.1479,0.3303,1.02434
235.312,29.51323,-0.15827,0.32584,1.02293
238.312,29.7999,-0.16935,0.32032,1.0215
241.312,30.0867,-0.18168,0.31679,1.02006
244.312,30.37367,-0.19528,0.31102,1.0186
247.312,30.66106,-0.20544,0.3035,1.01712
250.312,30.94834,-0.22385,0.29789,1.01562
253.312,31.2352,-0.23837,0.29231,1.01411
256.312,31.52293,-0.25648,0.28573,1.01258
259.312,31.8095,-0.27332,0.28168,1.01104
262.312,32.09724,-0.29787,0.28074,1.00948
265.312,32.38435,-0.31923,0.27817,1.0079
268.312,32.6719,-0.34386,0.27362,1.0063
271.312,32.95909,-0.36789,0.26909,1.00469
274.312,33.2468,-0.39726,0.26523,1.00307
277.312,33.53431,-0.42783,0.25504,1.00142
280.312,33.82262,-0.46278,0.2491,0.99976
283.312,34.1099,-0.50081,0.24462,0.99809
286.312,34.3982,-0.54405,0.24114,0.9964
289.312,34.68615,-0.5864,0.23581,0.99469
292.312,34.97465,-0.63484,0.23789,0.99297
295.312,35.2624,-0.68709,0.24418,0.99123
298.312,35.5509,-0.74261,0.25493,0.98948
301.312,35.83954,-0.80289,0.26518,0.98771
304.312,36.12806,-0.86705,0.27853,0.98593
307.312,36.4166,-0.93715,0.28858,0.98413
310.312,36.70485,-1.01222,0.2996,0.98232
313.312,36.99273,-1.09138,0.30749,0.98049
316.312,37.28308,-1.17588,0.31583,0.97865
319.312,37.57295,-1.26522,0.30724,0.97679
322.312,37.86246,-1.36081,0.30379,0.97492
325.312,38.15193,-1.45727,0.29317,0.97304
328.312,38.4418,-1.55691,0.27443,0.97114
331.312,38.7316,-1.65137,0.25357,0.96922
334.312,39.02134,-1.7448,0.22297,0.9673
337.312,39.31069,-1.8261,0.19596,0.96535
340.312,39.60048,-1.89734,0.17011,0.9634
343.312,39.891,-1.95672,0.14644,0.96143
346.312,40.18158,-2.00755,0.1287,0.95945
349.312,40.4718,-2.04601,0.11236,0.95745
352.312,40.76282,-2.07804,0.09931494,0.95544
355.312,41.05434,-2.10356,0.08772761,0.95342
358.312,41.3453,-2.12627,0.07904328,0.95138
361.312,41.63705,-2.14548,0.06895537,0.94933
364.312,41.9285,-2.16459,0.05899399,0.94727
367.312,42.2196,-2.18056,0.04920125,0.9452
370.312,42.5116,-2.1958,0.03894589,0.94311
373.312,42.80315,-2.21029,0.03178732,0.94101
376.312,43.0949,-2.22447,0.02548196,0.9389
379.312,43.38667,-2.23787,0.01497534,0.93677
382.312,43.67859,-2.25011,0.008832929,0.93463
385.312,43.9709,-2.26215,0.000102237,0.93249
388.312,44.2633,-2.2759,-0.001342135,0.93033
391.312,44.55587,-2.28712,-0.005727285,0.92815
394.312,44.84868,-2.30155,-0.007079499,0.92597
397.312,45.14145,-2.31212,-0.008483799,0.92377
400.312,45.43434,-2.32266,-0.00534364,0.92157
403.312,45.72717,-2.33379,-0.0024828,0.91935
406.312,46.02039,-2.34612,-0.0005799813,0.91712
409.312,46.3141,-2.35625,0.005531514,0.91488
412.312,46.6079,-2.36758,0.01174325,0.91262
415.312,46.90146,-2.37798,0.01588635,0.91036
418.312,47.19534,-2.39042,0.02272253,0.90809
421.312,47.48904,-2.4019,0.03285584,0.9058
424.312,47.783,-2.41121,0.03773154,0.90351
427.312,48.07743,-2.42294,0.04189233,0.9012
430.312,48.37219,-2.43108,0.04659928,0.89889
433.312,48.66735,-2.44147,0.05254239,0.89656
436.312,48.9619,-2.44977,0.05541489,0.89423
439.312,49.2569,-2.46147,0.06252845,0.89188
442.312,49.5522,-2.46846,0.06438977,0.88953
445.312,49.84827,-2.47773,0.06685375,0.88716
448.312,50.14345,-2.4858,0.06650839,0.88479
451.312,50.43955,-2.49261,0.06922251,0.8824
454.312,50.73529,-2.50056,0.06882612,0.88001
457.312,51.03117,-2.50741,0.06989395,0.87761
460.312,51.32714,-2.51531,0.0713245,0.8752
463.312,51.62279,-2.52159,0.07375337,0.87278
466.312,51.9185,-2.53026,0.07571198,0.87035
469.312,52.2145,-2.53828,0.07973149,0.86791
472.312,52.5111,-2.54285,0.07340101,0.86546
475.312,52.8078,-2.54859,0.07456518,0.86301
478.312,53.10467,-2.55362,0.07328816,0.86055
481.312,53.40164,-2.56011,0.07174707,0.85807
484.312,53.6994,-2.56753,0.07431777,0.85559
487.312,53.997,-2.57285,0.07577172,0.85311
490.312,54.2947,-2.57855,0.07676763,0.85061
493.312,54.59262,-2.5851,0.07742309,0.84811
496.312,54.8902,-2.58892,0.07688368,0.8456
499.312,55.18745,-2.59596,0.07917132,0.84308
502.312,55.48551,-2.60085,0.08061529,0.84056
505.312,55.783,-2.60458,0.08440495,0.83802
508.312,56.0807,-2.608,0.08494928,0.83548
511.312,56.37859,-2.61317,0.09142648,0.83294
514.312,56.67695,-2.61741,0.09444339,0.83038
517.312,56.9748,-2.62217,0.09774268,0.82782
520.312,57.2733,-2.62864,0.10413,0.82526
523.312,57.57219,-2.63258,0.10998,0.82268
526.312,57.87115,-2.63718,0.11271,0.8201
529.312,58.1699,-2.64322,0.11339,0.81752
532.312,58.4682,-2.64636,0.11606,0.81493
535.312,58.76583,-2.65111,0.12176,0.81233
538.312,59.0641,-2.65406,0.12296,0.80973
541.312,59.3622,-2.65802,0.1203,0.80712
544.312,59.66069,-2.66299,0.12833,0.8045
547.312,59.9589,-2.66462,0.12799,0.80188
550.312,60.25886,-2.66954,0.12898,0.79925
553.312,60.55809,-2.674,0.13341,0.79662
556.312,60.85723,-2.67656,0.13366,0.79398
559.312,61.1565,-2.68139,0.13618,0.79134
562.312,61.4562,-2.68448,0.1324,0.7887
565.312,61.75583,-2.68606,0.13019,0.78604
568.312,62.05625,-2.69128,0.12569,0.78339
571.312,62.35584,-2.69324,0.12146,0.78073
574.312,62.6554,-2.69621,0.11528,0.77806
577.312,62.95463,-2.70015,0.10703,0.77539
580.312,63.2547,-2.70408,0.10234,0.77272
583.312,63.55477,-2.70537,0.09725146,0.77004
586.312,63.85474,-2.7097,0.10121,0.76736
589.312,64.1555,-2.711,0.09629151,0.76467
592.312,64.45675,-2.71227,0.10086,0.76198
595.312,64.75786,-2.71759,0.10296,0.75929
598.312,65.06015,-2.72086,0.10668,0.75659
601.312,65.36146,-2.72186,0.11249,0.75389
604.312,65.66206,-2.72581,0.11725,0.75119
607.312,65.96333,-2.72712,0.11841,0.74848
610.312,66.26402,-2.73107,0.12292,0.74577
613.312,66.56518,-2.73404,0.12347,0.74306
616.312,66.8663,-2.73622,0.12787,0.74034
619.312,67.16809,-2.73928,0.12466,0.73762
622.312,67.47005,-2.73996,0.12904,0.7349
625.312,67.77237,-2.74358,0.13162,0.73217
628.312,68.07471,-2.74358,0.13255,0.72945
631.312,68.3765,-2.7449,0.13257,0.72672
634.312,68.67818,-2.74621,0.13382,0.72399
637.312,68.97949,-2.74884,0.13531,0.72125
640.312,69.28105,-2.75082,0.13904,0.71852
643.312,69.58319,-2.75178,0.1381,0.71578
646.312,69.88463,-2.75387,0.13436,0.71304
649.312,70.18688,-2.75632,0.13629,0.7103
652.312,70.48859,-2.75904,0.1316,0.70756
655.312,70.7913,-2.7614,0.13335,0.70482
658.312,71.09416,-2.76431,0.13259,0.70207
661.312,71.3972,-2.76463,0.12525,0.69933
664.312,71.69989,-2.76661,0.12256,0.69658
667.312,72.00261,-2.76727,0.11574,0.69383
670.312,72.30558,-2.76823,0.11399,0.69108
673.312,72.6084,-2.76957,0.11025,0.68833
676.312,72.91118,-2.77234,0.10551,0.68558
679.312,73.2135,-2.77297,0.10569,0.68283
682.312,73.51655,-2.7756,0.0989047,0.68008
685.312,73.8203,-2.77528,0.09572125,0.67732
688.312,74.12471,-2.7765,0.09102677,0.67457
691.312,74.4281,-2.77923,0.08370548,0.67182
694.312,74.73156,-2.77987,0.07840142,0.66906
697.312,75.03551,-2.7812,0.07435827,0.66631
700.312,75.33958,-2.78351,0.06840102,0.66356
703.312,75.64395,-2.7835,0.0636692,0.6608
706.312,75.94782,-2.78498,0.06323612,0.65805
709.312,76.25071,-2.78484,0.05381745,0.6553
712.312,76.5541,-2.78713,0.05030201,0.65255
715.312,76.85769,-2.78811,0.04351648,0.6498
718.312,77.16206,-2.78948,0.03446607,0.64705
721.312,77.46526,-2.79079,0.03492793,0.6443
724.312,77.76943,-2.79074,0.03020577,0.64155
727.312,78.07333,-2.79375,0.0254349,0.6388
730.312,78.37783,-2.79403,0.02583126,0.63605
733.312,78.68188,-2.79732,0.0218049,0.63331
736.312,78.98602,-2.79502,0.02365695,0.63056
739.312,79.2906,-2.79732,0.01381637,0.62782
742.312,79.59504,-2.79797,0.006646409,0.62507
745.312,79.8992,-2.79799,0.004545482,0.62233
746.212,79.9905,-2.7993,2.53028e-05,0.62151