File: 01_Data/Pine_Siding/STA/N2/30K_min/Pine_Siding_STA_N2_30KData_211506_R1.csv
##Temp./Â°C,Time/min,Mass loss(subtr.2)/mg,DSC(subtr.2)/mW,Sensit./(uV/mW)
49.3,10.00917,-0.02906,-0.12956,0.6183
52.1,11.52791,-0.03194564,0.25615,0.61978
54.9,11.869,-0.03102612,0.53542,0.62123
57.7,12.11588,-0.03279963,0.76084,0.62266
60.5,12.32138,-0.03432754,0.94946,0.62406
63.3,12.50341,-0.03515435,1.12712,0.62543
66.1,12.66998,-0.03433082,1.28295,0.62677
68.9,12.82853,-0.03846099,1.42193,0.62809
71.7,12.97846,-0.04020877,1.53655,0.62937
74.5,13.1227,-0.03882474,1.66608,0.63063
77.3,13.2622,-0.04019221,1.77944,0.63187
80.1,13.39926,-0.0416736,1.88977,0.63307
82.9,13.5319,-0.04452565,1.99041,0.63425
85.7,13.66068,-0.04408993,2.06004,0.6354
88.5,13.7868,-0.0476638,2.12813,0.63652
91.3,13.90959,-0.04836212,2.20663,0.63762
94.1,14.0294,-0.05068202,2.25194,0.63869
96.9,14.1464,-0.05254174,2.29217,0.63973
99.7,14.2614,-0.05400313,2.32993,0.64074
102.5,14.37333,-0.05371374,2.35282,0.64172
105.3,14.4838,-0.05693051,2.35894,0.64268
108.1,14.59235,-0.05815724,2.35183,0.64361
110.9,14.6987,-0.05714247,2.33566,0.64451
113.7,14.8034,-0.06001578,2.32343,0.64539
116.5,14.90644,-0.06010639,2.2971,0.64624
119.3,15.00753,-0.06124306,2.30027,0.64706
122.1,15.10728,-0.06005599,2.30553,0.64785
124.9,15.2058,-0.06274037,2.29708,0.64861
127.7,15.30292,-0.06174723,2.31461,0.64935
130.5,15.3985,-0.06152884,2.32114,0.65006
133.3,15.4928,-0.06270449,2.34754,0.65075
136.1,15.5862,-0.06274094,2.38959,0.6514
138.9,15.6784,-0.06553123,2.43234,0.65203
141.7,15.7698,-0.06879886,2.47501,0.65263
144.5,15.85994,-0.07188001,2.48609,0.65321
147.3,15.9496,-0.07298507,2.52798,0.65376
150.1,16.0386,-0.06548487,2.55916,0.65428
152.9,16.1267,-0.06383995,2.5919,0.65477
155.7,16.2142,-0.06486331,2.61786,0.65524
158.5,16.30096,-0.06394742,2.64526,0.65568
161.3,16.38765,-0.06483635,2.67296,0.6561
164.1,16.47364,-0.06405163,2.70972,0.65649
166.9,16.5591,-0.06406289,2.78171,0.65685
169.7,16.64398,-0.06604838,2.84598,0.65719
172.5,16.7285,-0.06798328,2.90245,0.6575
175.3,16.81268,-0.0693211,2.95622,0.65778
178.1,16.8962,-0.06400729,3.00461,0.65804
180.9,16.97922,-0.07974589,3.05284,0.65827
183.7,17.0617,-0.07151299,3.0846,0.65848
186.5,17.1439,-0.07288021,3.14228,0.65866
189.3,17.22553,-0.07308302,3.19334,0.65882
192.1,17.30684,-0.07273738,3.24022,0.65895
194.9,17.38766,-0.07382001,3.27301,0.65905
197.7,17.4682,-0.07381682,3.33844,0.65913
200.5,17.54852,-0.0751347,3.41491,0.65919
203.3,17.62855,-0.07579189,3.46238,0.65922
206.1,17.7083,-0.07842549,3.51718,0.65922
208.9,17.78754,-0.07894515,3.54576,0.65921
211.7,17.8666,-0.08240199,3.60473,0.65916
214.5,17.94576,-0.0810327,3.63105,0.6591
217.3,18.02445,-0.08519923,3.68862,0.659
220.1,18.10301,-0.08643053,3.72566,0.65889
222.9,18.1814,-0.08660377,3.7931,0.65875
225.7,18.25943,-0.08949175,3.84406,0.65859
228.5,18.3373,-0.09130732,3.90397,0.6584
231.3,18.41529,-0.09505882,3.95689,0.65819
234.1,18.49288,-0.09795259,3.99594,0.65796
236.9,18.57028,-0.09931465,4.05449,0.65771
239.7,18.64798,-0.10399,4.09467,0.65743
242.5,18.7252,-0.10688,4.15946,0.65713
245.3,18.80242,-0.11159,4.21081,0.65681
248.1,18.87935,-0.11429,4.27363,0.65646
250.9,18.95641,-0.12071,4.33154,0.65609
253.7,19.0332,-0.12773,4.38254,0.6557
256.5,19.1098,-0.13328,4.4134,0.65529
259.3,19.18646,-0.13886,4.47298,0.65486
262.1,19.26302,-0.14681,4.51144,0.65441
264.9,19.33954,-0.15545,4.54435,0.65394
267.7,19.41593,-0.16073,4.58162,0.65344
270.5,19.49223,-0.16907,4.61954,0.65293
273.3,19.5687,-0.18028,4.64412,0.65239
276.1,19.64506,-0.18851,4.66608,0.65183
278.9,19.7214,-0.20006,4.68957,0.65126
281.7,19.79789,-0.20993,4.70081,0.65066
284.5,19.87436,-0.22361,4.72838,0.65005
287.3,19.95062,-0.23632,4.76271,0.64941
290.1,20.02688,-0.25037,4.80772,0.64876
292.9,20.10316,-0.26467,4.82274,0.64808
295.7,20.1797,-0.28299,4.85532,0.64739
298.5,20.25602,-0.29625,4.90305,0.64668
301.3,20.33237,-0.31896,4.94231,0.64595
304.1,20.4087,-0.3412,5.00036,0.6452
306.9,20.48516,-0.36298,5.02221,0.64444
309.7,20.56152,-0.38625,5.1009,0.64366
312.5,20.6379,-0.41223,5.17971,0.64286
315.3,20.71455,-0.43812,5.26403,0.64204
318.1,20.791,-0.47346,5.38802,0.6412
320.9,20.86751,-0.50607,5.5074,0.64035
323.7,20.94405,-0.54262,5.6491,0.63949
326.5,21.02069,-0.58265,5.79023,0.6386
329.3,21.0974,-0.62761,5.97531,0.6377
332.1,21.17418,-0.67444,6.16307,0.63679
334.9,21.25092,-0.72588,6.33638,0.63586
337.7,21.32799,-0.77965,6.5558,0.63491
340.5,21.40478,-0.8341,6.75463,0.63395
343.3,21.4819,-0.89382,6.95476,0.63297
346.1,21.55904,-0.95633,7.13681,0.63198
348.9,21.63627,-1.02239,7.33824,0.63097
351.7,21.71365,-1.09078,7.50361,0.62995
354.5,21.79101,-1.16146,7.68162,0.62892
357.3,21.8683,-1.23585,7.86629,0.62787
360.1,21.94601,-1.31028,8.05244,0.62681
362.9,22.02414,-1.38754,8.26243,0.62574
365.7,22.1022,-1.46799,8.5167,0.62465
368.5,22.1803,-1.55091,8.83923,0.62355
371.3,22.25843,-1.63616,9.21847,0.62244
374.1,22.33669,-1.72777,9.65932,0.62132
376.9,22.4152,-1.82479,10.19635,0.62018
379.7,22.49375,-1.92401,10.7705,0.61903
382.5,22.57225,-2.03023,11.32727,0.61787
385.3,22.65118,-2.14404,11.88884,0.6167
388.1,22.7302,-2.26224,12.31058,0.61552
390.9,22.80946,-2.38591,12.52378,0.61433
393.7,22.88873,-2.50593,12.3824,0.61313
396.5,22.9682,-2.62643,11.79705,0.61191
399.3,23.0478,-2.73786,10.70803,0.61069
402.1,23.1276,-2.83735,9.13325,0.60946
404.9,23.2076,-2.91527,7.25421,0.60822
407.7,23.2877,-2.97611,5.31692,0.60697
410.5,23.3677,-3.01825,3.61016,0.6057
413.3,23.4479,-3.04787,2.29796,0.60444
416.1,23.528,-3.06718,1.4551,0.60316
418.9,23.60817,-3.0842,0.97794,0.60187
421.7,23.6885,-3.09603,0.67244,0.60058
424.5,23.76874,-3.10801,0.49341,0.59928
427.3,23.84919,-3.11893,0.35466,0.59797
430.1,23.92993,-3.13131,0.24191,0.59665
432.9,24.01096,-3.13709,0.10771,0.59533
435.7,24.09194,-3.15944,0.0265171,0.59399
438.5,24.1732,-3.15917,-0.08969854,0.59266
441.3,24.25459,-3.16796,-0.18032,0.59131
444.1,24.33624,-3.17675,-0.27588,0.58996
446.9,24.4178,-3.18562,-0.35728,0.58861
449.7,24.49974,-3.19551,-0.41249,0.58725
452.5,24.58205,-3.20043,-0.47542,0.58588
455.3,24.66421,-3.21018,-0.50546,0.58451
458.1,24.7466,-3.21892,-0.51229,0.58313
460.9,24.82927,-3.22609,-0.51141,0.58175
463.7,24.912,-3.23376,-0.49561,0.58036
466.5,24.99494,-3.23972,-0.45232,0.57897
469.3,25.0779,-3.24602,-0.40874,0.57758
472.1,25.16124,-3.25567,-0.33551,0.57618
474.9,25.24473,-3.26137,-0.2562,0.57477
477.7,25.3282,-3.26642,-0.19102,0.57337
480.5,25.412,-3.27422,-0.10231,0.57196
483.3,25.49595,-3.27946,-0.0225428,0.57055
486.1,25.58014,-3.28444,0.04805861,0.56913
488.9,25.6644,-3.28986,0.09500148,0.56772
491.7,25.7488,-3.29532,0.15483,0.5663
494.5,25.8333,-3.29781,0.1955,0.56487
497.3,25.91806,-3.30391,0.24621,0.56345
500.1,26.003,-3.30748,0.27067,0.56203
502.9,26.08792,-3.31164,0.3053,0.5606
505.7,26.17288,-3.31635,0.33111,0.55917
508.5,26.2581,-3.32104,0.3462,0.55774
511.3,26.34351,-3.32485,0.34213,0.55631
514.1,26.42908,-3.32787,0.36163,0.55488
516.9,26.5148,-3.33116,0.3579,0.55345
519.7,26.6006,-3.33444,0.35889,0.55202
522.5,26.6866,-3.33047,0.36307,0.55059
525.3,26.77256,-3.347,0.34804,0.54915
528.1,26.8587,-3.34553,0.33287,0.54772
530.9,26.94505,-3.34686,0.3091,0.54629
533.7,27.03152,-3.34964,0.30547,0.54486
536.5,27.11795,-3.35399,0.27622,0.54343
539.3,27.2049,-3.35709,0.27481,0.542
542.1,27.2917,-3.35978,0.24268,0.54058
544.9,27.37858,-3.36171,0.21246,0.53915
547.7,27.46551,-3.36615,0.2079,0.53773
550.5,27.5527,-3.36746,0.16798,0.5363
553.3,27.6399,-3.36878,0.13341,0.53488
556.1,27.72728,-3.37321,0.10803,0.53347
558.9,27.815,-3.3745,0.0596133,0.53205
561.7,27.9028,-3.3772,0.03838891,0.53064
564.5,27.99046,-3.37986,0.006867746,0.52922
567.3,28.0782,-3.38133,-0.04335843,0.52782
570.1,28.16644,-3.38258,-0.08381673,0.52641
572.9,28.2545,-3.38833,-0.10939,0.52501
575.7,28.3428,-3.38962,-0.15015,0.52361
578.5,28.4311,-3.39096,-0.18059,0.52221
581.3,28.5195,-3.3927,-0.21538,0.52082
584.1,28.60803,-3.39533,-0.25,0.51943
586.9,28.6967,-3.39797,-0.30585,0.51804
589.7,28.78538,-3.39924,-0.35413,0.51666
592.5,28.8743,-3.40187,-0.39485,0.51528
595.3,28.96355,-3.40365,-0.46049,0.51391
598.1,29.0526,-3.40721,-0.51437,0.51254
600.9,29.1418,-3.40441,-0.59749,0.51117
603.7,29.23113,-3.4166,-0.67868,0.50981
606.5,29.32064,-3.41376,-0.73604,0.50846
609.3,29.4102,-3.41508,-0.80747,0.50711
612.1,29.49977,-3.41639,-0.87326,0.50576
614.9,29.58975,-3.41771,-0.97157,0.50442
617.7,29.6796,-3.42046,-1.03641,0.50308
620.5,29.76959,-3.42177,-1.09382,0.50175
623.3,29.8597,-3.4239,-1.15496,0.50043
626.1,29.9498,-3.42681,-1.19028,0.49911
628.9,30.04005,-3.42812,-1.23013,0.49779
631.7,30.13025,-3.42944,-1.28178,0.49648
634.5,30.2206,-3.43077,-1.32597,0.49518
637.3,30.3113,-3.43141,-1.38524,0.49388
640.1,30.40175,-3.43417,-1.45873,0.49259
642.9,30.4925,-3.43549,-1.49819,0.4913
645.7,30.58353,-3.43804,-1.5164,0.49002
648.5,30.6744,-3.43822,-1.56527,0.48875
651.3,30.76541,-3.43951,-1.64804,0.48748
654.1,30.8566,-3.44226,-1.6775,0.48622
656.9,30.9477,-3.44239,-1.71929,0.48497
659.7,31.0391,-3.44502,-1.77755,0.48372
662.5,31.13043,-3.44502,-1.78721,0.48248
665.3,31.22192,-3.44633,-1.81151,0.48124
668.1,31.3134,-3.44775,-1.85096,0.48001
670.9,31.4046,-3.44765,-1.8833,0.47879
673.7,31.4963,-3.45012,-1.93676,0.47758
676.5,31.5881,-3.45171,-1.95307,0.47637
679.3,31.6804,-3.45454,-1.96586,0.47517
682.1,31.7724,-3.45687,-2.01387,0.47397
684.9,31.8643,-3.457,-2.02901,0.47279
687.7,31.9564,-3.45456,-2.01478,0.47161
690.5,32.04845,-3.4561,-2.05961,0.47043
693.3,32.1404,-3.45741,-2.11911,0.46927
696.1,32.23264,-3.45738,-2.1048,0.46811
698.9,32.32484,-3.45924,-2.11972,0.46696
701.7,32.4172,-3.45915,-2.13447,0.46581
704.5,32.50963,-3.46051,-2.14607,0.46467
707.3,32.60195,-3.46158,-2.17455,0.46354
710.1,32.69461,-3.46289,-2.22039,0.46242
712.9,32.78734,-3.46423,-2.31109,0.4613
715.7,32.87997,-3.46421,-2.35148,0.4602
718.5,32.9727,-3.46685,-2.35214,0.4591
721.3,33.0655,-3.46821,-2.36329,0.458
724.1,33.15845,-3.4668,-2.38218,0.45692
726.9,33.25155,-3.46919,-2.45458,0.45584
729.3,33.3319,-3.46947,-2.4538,0.45492