File: 01_Data/Pine_Siding/STA/N2/30K_min/Pine_Siding_STA_N2_30KData_211506_R2.csv
##Temp./Â°C,Time/min,Mass loss(subtr.2)/mg,DSC(subtr.2)/mW,Sensit./(uV/mW)
49.341,10.01,-0.02215,0.02714495,0.61833
52.241,11.54831,-0.02258655,0.38747,0.61986
55.141,11.89276,-0.01632141,0.64563,0.62136
58.041,12.1432,-0.02294529,0.84752,0.62283
60.941,12.35079,-0.01915717,1.06447,0.62427
63.841,12.53758,-0.02561852,1.2022,0.62569
66.741,12.70805,-0.0246608,1.34925,0.62707
69.641,12.86941,-0.02606459,1.48644,0.62843
72.541,13.02245,-0.02776488,1.59218,0.62975
75.441,13.1708,-0.02971688,1.70186,0.63105
78.341,13.31393,-0.0290171,1.82162,0.63232
81.241,13.4536,-0.02322774,1.94666,0.63356
84.141,13.5894,-0.03459498,2.01037,0.63476
87.041,13.72148,-0.03365596,2.10469,0.63594
89.941,13.8498,-0.03301069,2.16396,0.63709
92.841,13.97545,-0.03376938,2.22689,0.63821
95.741,14.09785,-0.03992599,2.27746,0.6393
98.641,14.2179,-0.03974379,2.33878,0.64036
101.541,14.33489,-0.03833228,2.35682,0.64139
104.441,14.44979,-0.04266586,2.38704,0.64239
107.341,14.5626,-0.04386007,2.39855,0.64336
110.241,14.67325,-0.04386729,2.41303,0.6443
113.141,14.78196,-0.04679311,2.4243,0.64522
116.041,14.8888,-0.04606,2.41831,0.6461
118.941,14.99424,-0.04608374,2.40539,0.64695
121.841,15.0977,-0.04463617,2.40652,0.64778
124.741,15.1996,-0.04724794,2.42869,0.64857
127.641,15.3002,-0.04727013,2.4324,0.64934
130.541,15.3992,-0.04726982,2.46639,0.65007
133.441,15.4969,-0.04733162,2.51464,0.65078
136.341,15.59353,-0.05284167,2.52379,0.65146
139.241,15.6889,-0.04727923,2.55004,0.65211
142.141,15.78299,-0.04660161,2.57916,0.65273
145.041,15.8767,-0.04868974,2.62586,0.65332
147.941,15.96945,-0.04726936,2.66679,0.65388
150.841,16.06111,-0.04858034,2.70522,0.65441
153.741,16.15215,-0.04726543,2.75249,0.65492
156.641,16.2424,-0.04990778,2.80987,0.65539
159.541,16.33182,-0.0486134,2.82917,0.65584
162.441,16.42122,-0.04859216,2.87931,0.65626
165.341,16.5098,-0.04859,2.88459,0.65665
168.241,16.59818,-0.04976777,2.92316,0.65702
171.141,16.68605,-0.05131637,2.97821,0.65735
174.041,16.77355,-0.05248116,3.10075,0.65766
176.941,16.86035,-0.05120999,3.13021,0.65794
179.841,16.94673,-0.05408889,3.19864,0.65819
182.741,17.0324,-0.05473009,3.23739,0.65841
185.641,17.1176,-0.05336175,3.30969,0.65861
188.541,17.2022,-0.05406989,3.37638,0.65878
191.441,17.28657,-0.05538026,3.4182,0.65892
194.341,17.37021,-0.05639694,3.47891,0.65903
197.241,17.45378,-0.05799597,3.53245,0.65912
200.141,17.5369,-0.05801,3.5914,0.65918
203.041,17.61955,-0.05801,3.657,0.65922
205.941,17.70211,-0.05912144,3.71489,0.65922
208.841,17.78425,-0.06340105,3.77142,0.65921
211.741,17.86626,-0.06396881,3.84708,0.65916
214.641,17.9479,-0.06424639,3.90708,0.65909
217.541,18.0291,-0.06515309,3.956,0.65899
220.441,18.11082,-0.06617591,3.99865,0.65887
223.341,18.19181,-0.06788833,4.05358,0.65873
226.241,18.27265,-0.07096846,4.09039,0.65855
229.141,18.3533,-0.07231264,4.14268,0.65836
232.041,18.43371,-0.0770011,4.21071,0.65813
234.941,18.5142,-0.07798367,4.24554,0.65789
237.841,18.59442,-0.0809891,4.27102,0.65762
240.741,18.6746,-0.08528031,4.34858,0.65732
243.641,18.75461,-0.09095747,4.39024,0.657
246.541,18.8343,-0.09362496,4.44755,0.65666
249.441,18.91405,-0.09804363,4.51056,0.65629
252.341,18.99359,-0.10376,4.55354,0.6559
255.241,19.07309,-0.10773,4.61225,0.65548
258.141,19.15261,-0.11443,4.64911,0.65504
261.041,19.2319,-0.11986,4.67695,0.65458
263.941,19.31107,-0.12707,4.72155,0.6541
266.841,19.39012,-0.13448,4.7544,0.6536
269.741,19.46923,-0.14251,4.78859,0.65307
272.641,19.54824,-0.16276,4.8233,0.65252
275.541,19.62732,-0.15829,4.87063,0.65195
278.441,19.7062,-0.17062,4.90475,0.65135
281.341,19.7853,-0.18205,4.92833,0.65074
284.241,19.8643,-0.19293,4.94131,0.6501
287.141,19.94331,-0.20565,4.98804,0.64945
290.041,20.02244,-0.21678,5.0103,0.64877
292.941,20.10149,-0.23038,5.04136,0.64807
295.841,20.18051,-0.24646,5.06863,0.64735
298.741,20.2596,-0.26502,5.11605,0.64662
301.641,20.33886,-0.28345,5.1369,0.64586
304.541,20.41793,-0.30469,5.18722,0.64508
307.441,20.49704,-0.32698,5.23612,0.64429
310.341,20.57616,-0.35038,5.3008,0.64347
313.241,20.65535,-0.37381,5.3756,0.64264
316.141,20.73435,-0.40166,5.47572,0.64179
319.041,20.81361,-0.43585,5.58092,0.64092
321.941,20.89292,-0.46662,5.71371,0.64003
324.841,20.97233,-0.49983,5.88379,0.63913
327.741,21.05181,-0.53771,6.04231,0.63821
330.641,21.13127,-0.58317,6.20681,0.63727
333.541,21.21097,-0.62889,6.39223,0.63631
336.441,21.2905,-0.67856,6.588,0.63534
339.341,21.37024,-0.73496,6.79609,0.63435
342.241,21.44996,-0.79466,6.97589,0.63334
345.141,21.52967,-0.84416,7.18064,0.63232
348.041,21.60966,-0.91323,7.35838,0.63128
350.941,21.68975,-0.97654,7.53426,0.63023
353.841,21.7699,-1.04513,7.6963,0.62917
356.741,21.8503,-1.11297,7.87805,0.62808
359.641,21.9308,-1.18473,8.05763,0.62699
362.541,22.01124,-1.25974,8.25855,0.62588
365.441,22.09187,-1.33227,8.50053,0.62475
368.341,22.17277,-1.41506,8.79497,0.62362
371.241,22.25379,-1.49785,9.17053,0.62246
374.141,22.33486,-1.5806,9.60981,0.6213
377.041,22.41617,-1.67299,10.14128,0.62012
379.941,22.49758,-1.77009,10.74371,0.61893
382.841,22.57894,-1.87357,11.3347,0.61773
385.741,22.66045,-1.98307,11.8979,0.61652
388.641,22.74234,-2.09968,12.3383,0.61529
391.541,22.82451,-2.21972,12.54314,0.61406
394.441,22.90669,-2.33669,12.32659,0.61281
397.341,22.98903,-2.44976,11.6367,0.61155
400.241,23.07167,-2.55489,10.39435,0.61028
403.141,23.15449,-2.64884,8.70729,0.609
406.041,23.23721,-2.71867,6.8033,0.60771
408.941,23.3202,-2.76868,4.93166,0.60641
411.841,23.403,-2.80474,3.41527,0.6051
414.741,23.48599,-2.82831,2.32307,0.60378
417.641,23.56888,-2.84508,1.68535,0.60245
420.541,23.65196,-2.85415,1.31409,0.60111
423.441,23.73508,-2.87001,1.10332,0.59977
426.341,23.81835,-2.88255,0.98866,0.59842
429.241,23.90194,-2.89184,0.84307,0.59705
432.141,23.98561,-2.90085,0.73024,0.59568
435.041,24.06962,-2.90841,0.63333,0.59431
437.941,24.1535,-2.91994,0.54676,0.59292
440.841,24.2376,-2.92838,0.45557,0.59153
443.741,24.3224,-2.93843,0.35784,0.59014
446.641,24.40695,-2.94497,0.28467,0.58873
449.541,24.49164,-2.9496,0.2283,0.58732
452.441,24.57657,-2.96338,0.18273,0.58591
455.341,24.66165,-2.96875,0.137,0.58449
458.241,24.74715,-2.97495,0.11047,0.58306
461.141,24.8327,-2.98332,0.12804,0.58163
464.041,24.91807,-2.99084,0.14671,0.58019
466.941,25.00406,-2.99727,0.1799,0.57875
469.841,25.09016,-3.00321,0.23393,0.57731
472.741,25.17635,-3.00819,0.31077,0.57586
475.641,25.26287,-3.01698,0.38429,0.5744
478.541,25.34947,-3.02559,0.47207,0.57295
481.441,25.43621,-3.03063,0.55183,0.57148
484.341,25.52337,-3.03194,0.61806,0.57002
487.241,25.61056,-3.03519,0.67509,0.56856
490.141,25.69793,-3.04486,0.72943,0.56709
493.041,25.78528,-3.04653,0.77946,0.56562
495.941,25.87304,-3.05131,0.84057,0.56414
498.841,25.9608,-3.0545,0.87202,0.56267
501.741,26.04862,-3.06261,0.89593,0.56119
504.641,26.13684,-3.06427,0.93736,0.55971
507.541,26.2251,-3.06864,0.94964,0.55823
510.441,26.3133,-3.07222,0.95692,0.55675
513.341,26.4019,-3.0749,0.96717,0.55527
516.241,26.49046,-3.07909,0.95774,0.55379
519.141,26.57922,-3.08101,0.9641,0.5523
522.041,26.6682,-3.08896,0.95442,0.55082
524.941,26.75749,-3.08963,0.95204,0.54934
527.841,26.8464,-3.0893,0.95792,0.54786
530.741,26.9357,-3.09073,0.9393,0.54637
533.641,27.02539,-3.09601,0.91403,0.54489
536.541,27.1149,-3.09873,0.88794,0.54341
539.441,27.20474,-3.10181,0.87114,0.54193
542.341,27.2948,-3.10009,0.85319,0.54045
545.241,27.38485,-3.10567,0.8211,0.53898
548.141,27.47508,-3.11009,0.80411,0.5375
551.041,27.56537,-3.11135,0.75769,0.53603
553.941,27.65568,-3.11423,0.71096,0.53456
556.841,27.7465,-3.11606,0.68032,0.53309
559.741,27.83714,-3.12095,0.64115,0.53162
562.641,27.92795,-3.12056,0.62682,0.53016
565.541,28.0189,-3.12473,0.59532,0.5287
568.441,28.1099,-3.12758,0.56006,0.52724
571.341,28.201,-3.1289,0.54162,0.52579
574.241,28.29242,-3.13166,0.51838,0.52434
577.141,28.3837,-3.13293,0.48933,0.52289
580.041,28.4752,-3.13446,0.45392,0.52144
582.941,28.56682,-3.13819,0.42372,0.52
585.841,28.6587,-3.13833,0.37424,0.51857
588.741,28.75058,-3.14107,0.33022,0.51713
591.641,28.84248,-3.14369,0.25533,0.5157
594.541,28.93468,-3.14515,0.21778,0.51428
597.441,29.02655,-3.14244,0.15547,0.51286
600.341,29.1193,-3.1534,0.06079104,0.51145
603.241,29.2119,-3.15141,-0.004782452,0.51004
606.141,29.30429,-3.15249,-0.04032097,0.50863
609.041,29.3967,-3.15705,-0.07763067,0.50723
611.941,29.4895,-3.15962,-0.11728,0.50584
614.841,29.5823,-3.16214,-0.15304,0.50445
617.741,29.6755,-3.15901,-0.19038,0.50306
620.641,29.76918,-3.16053,-0.22629,0.50168
623.541,29.8624,-3.16228,-0.28108,0.50031
626.441,29.9558,-3.16606,-0.30542,0.49895
629.341,30.0493,-3.1685,-0.32002,0.49758
632.241,30.14286,-3.16872,-0.35513,0.49623
635.141,30.2367,-3.17112,-0.3826,0.49488
638.041,30.33057,-3.17244,-0.40801,0.49354
640.941,30.42452,-3.17399,-0.44511,0.4922
643.841,30.51865,-3.17484,-0.46532,0.49087
646.741,30.61267,-3.17589,-0.47779,0.48955
649.641,30.70679,-3.17788,-0.51745,0.48823
652.541,30.80136,-3.18063,-0.52797,0.48692
655.441,30.89602,-3.18056,-0.54586,0.48562
658.341,30.9906,-3.18185,-0.52129,0.48432
661.241,31.08519,-3.18343,-0.53067,0.48303
664.141,31.17998,-3.18473,-0.56696,0.48175
667.041,31.27475,-3.18611,-0.54868,0.48048
669.941,31.36938,-3.18733,-0.54943,0.47921
672.841,31.4646,-3.18859,-0.55237,0.47795
675.741,31.55991,-3.19142,-0.55839,0.4767
678.641,31.655,-3.19142,-0.55723,0.47545
681.541,31.75031,-3.19353,-0.58596,0.47421
684.441,31.8457,-3.19309,-0.5889,0.47298
687.341,31.9411,-3.19322,-0.55493,0.47176
690.241,32.03678,-3.19319,-0.53288,0.47054
693.141,32.13242,-3.19449,-0.5616,0.46933
696.041,32.228,-3.19498,-0.58499,0.46813
698.941,32.3236,-3.19681,-0.58277,0.46694
701.841,32.41937,-3.19783,-0.60908,0.46575
704.741,32.5151,-3.20071,-0.59141,0.46458
707.641,32.61105,-3.2026,-0.59471,0.46341
710.541,32.70684,-3.20116,-0.61708,0.46224
713.441,32.8028,-3.19992,-0.5892,0.46109
716.341,32.89908,-3.2026,-0.55146,0.45994
719.241,32.99536,-3.20256,-0.49007,0.45881
722.141,33.09173,-3.20327,-0.40466,0.45767
725.041,33.18835,-3.20458,-0.30702,0.45655
727.941,33.28471,-3.2059,-0.26068,0.45544
729.341,33.3324,-3.2059,-0.22618,0.4549