File: 01_Data/Fiberglas_Insulation3B/MCC/Fiberglas_Insulation3B_MCC_30K_min_220221_R1.txt
Sample ID:	C:\MCC\MCC Cal\Test\Fiberglas_Insulation3B_MCC_30K_min_220221_R1.txt
Sample Weight (mg):	4.68
Heating Rate (C/s):	0.5
Combustor Temp (C):	900
N2 Flow Rate (cc/min):	80
O2 Flow Rate (cc/min):	20
Calibration File:	C:\MCC\MCC Cal\Coeff1 JN10440_30_210304.txt.txt
T Correction Coefficients:	0	1.024463	0
Time Shift (s):	14
*
Time (s)	Temperature (C)	N2 flow rate (cc/min)	O2 flow rate (cc/min)	Flow Rate (cc/min)	Oxygen (%)	HRR (W/g)	Heating rate (C/s)
0.000	113.009	80.006	19.993	103.669	19.998	-0.165	-0.018
8.000	113.010	80.011	19.994	103.668	19.997	-0.092	-0.040
16.000	113.015	80.009	19.995	103.680	19.999	-0.235	-0.006
24.000	113.048	80.006	19.993	103.615	19.993	0.158	-0.020
32.000	113.211	80.008	19.994	103.725	19.986	0.689	-0.001
39.999	113.519	80.009	19.993	103.793	19.971	1.721	0.010
47.999	114.276	80.007	19.993	103.825	19.965	2.104	0.130
55.999	115.316	80.008	19.994	103.844	19.965	2.150	0.170
64.001	116.692	80.009	19.994	103.847	19.957	2.646	0.192
71.999	118.386	80.009	19.993	103.866	19.954	2.882	0.208
79.999	120.396	80.008	19.994	103.902	19.949	3.219	0.273
88.000	122.764	80.010	19.993	103.908	19.947	3.395	0.314
95.999	125.405	80.009	19.994	103.913	19.945	3.494	0.351
103.999	128.274	80.008	19.995	103.942	19.943	3.611	0.395
112.000	131.382	80.007	19.995	103.940	19.945	3.480	0.394
119.999	134.782	80.009	19.994	103.932	19.939	3.891	0.433
128.000	138.309	80.008	19.994	103.942	19.940	3.882	0.479
136.000	141.996	80.007	19.993	103.942	19.938	4.004	0.473
144.000	145.863	80.009	19.995	103.940	19.938	3.986	0.508
152.000	149.810	80.009	19.993	103.938	19.946	3.448	0.497
160.000	153.933	80.010	19.992	103.936	19.944	3.544	0.563
168.000	157.989	80.009	19.994	103.916	19.945	3.479	0.533
176.000	162.093	80.010	19.994	103.906	19.945	3.519	0.525
184.000	166.197	80.008	19.995	103.904	19.949	3.260	0.486
192.000	170.275	80.007	19.993	103.901	19.948	3.302	0.506
200.000	174.353	80.008	19.994	103.902	19.949	3.203	0.505
208.000	178.316	80.008	19.995	103.891	19.950	3.165	0.513
216.000	182.394	80.008	19.994	103.878	19.952	3.045	0.498
224.000	186.424	80.008	19.994	103.878	19.953	2.935	0.529
232.000	190.436	80.009	19.994	103.878	19.957	2.664	0.513
240.000	194.389	80.008	19.993	103.878	19.958	2.607	0.509
248.000	198.349	80.010	19.993	103.871	19.956	2.709	0.502
256.000	202.281	80.012	19.993	103.867	19.955	2.800	0.508
264.000	206.227	80.011	19.992	103.864	19.953	2.945	0.503
272.000	210.190	80.008	19.994	103.867	19.954	2.862	0.479
280.000	214.170	80.007	19.992	103.864	19.955	2.834	0.511
288.000	218.080	80.008	19.993	103.866	19.956	2.769	0.478
296.000	222.091	80.008	19.994	103.863	19.956	2.709	0.516
304.000	226.067	80.007	19.994	103.862	19.956	2.717	0.493
312.000	230.099	80.008	19.994	103.858	19.955	2.790	0.487
320.000	234.061	80.010	19.993	103.853	19.955	2.833	0.467
328.000	238.011	80.009	19.992	103.861	19.955	2.833	0.496
336.000	242.011	80.008	19.994	103.864	19.960	2.470	0.515
344.000	245.982	80.010	19.992	103.861	19.956	2.733	0.520
352.000	249.995	80.007	19.993	103.844	19.954	2.903	0.495
360.000	253.987	80.007	19.992	103.856	19.953	2.929	0.462
368.000	258.027	80.008	19.994	103.850	19.947	3.330	0.533
376.000	262.039	80.008	19.993	103.847	19.954	2.901	0.511
384.000	265.986	80.008	19.994	103.835	19.954	2.852	0.498
392.000	269.991	80.007	19.993	103.853	19.951	3.068	0.509
400.000	274.044	80.008	19.994	103.830	19.952	2.995	0.495
408.000	278.105	80.009	19.994	103.825	19.951	3.115	0.506
416.000	282.089	80.010	19.992	103.836	19.950	3.141	0.487
424.000	286.091	80.009	19.994	103.827	19.951	3.091	0.492
432.000	290.078	80.009	19.993	103.834	19.950	3.157	0.485
440.000	294.051	80.008	19.993	103.830	19.950	3.181	0.527
448.000	298.091	80.010	19.993	103.832	19.953	2.957	0.521
456.000	302.083	80.010	19.993	103.827	19.950	3.170	0.509
464.000	306.117	80.008	19.993	103.826	19.950	3.122	0.496
472.000	310.126	80.008	19.995	103.826	19.952	3.041	0.488
480.000	314.230	80.009	19.994	103.825	19.952	3.051	0.520
488.000	318.229	80.008	19.993	103.821	19.947	3.360	0.466
496.000	322.245	80.007	19.994	103.824	19.947	3.375	0.513
504.000	326.250	80.008	19.994	103.820	19.949	3.205	0.512
512.000	330.249	80.010	19.992	103.827	19.946	3.403	0.480
520.000	334.318	80.008	19.993	103.824	19.945	3.499	0.509
528.000	338.335	80.008	19.995	103.813	19.947	3.359	0.515
536.000	342.394	80.009	19.994	103.825	19.946	3.465	0.523
544.000	346.458	80.008	19.994	103.808	19.947	3.345	0.537
552.000	350.491	80.009	19.993	103.819	19.943	3.664	0.495
560.000	354.569	80.008	19.994	103.805	19.944	3.561	0.478
568.000	358.625	80.009	19.993	103.812	19.941	3.759	0.530
576.000	362.670	80.008	19.993	103.803	19.945	3.517	0.495
584.000	366.660	80.009	19.994	103.801	19.942	3.713	0.485
592.000	370.694	80.010	19.995	103.812	19.943	3.623	0.518
600.000	374.700	80.008	19.995	103.803	19.941	3.768	0.514
608.000	378.700	80.010	19.994	103.806	19.939	3.901	0.480
616.000	382.763	80.008	19.993	103.807	19.937	4.082	0.505
624.000	386.725	80.009	19.993	103.794	19.937	4.076	0.441
632.000	390.762	80.010	19.993	103.798	19.940	3.872	0.450
640.000	394.894	80.007	19.993	103.808	19.942	3.686	0.559
648.000	399.025	80.010	19.993	103.804	19.935	4.174	0.490
656.000	403.352	80.009	19.993	103.789	19.932	4.404	0.483
664.000	407.030	80.009	19.994	103.799	19.935	4.171	0.501
672.000	411.101	80.012	19.994	103.786	19.937	4.048	0.506
680.000	415.113	80.009	19.994	103.788	19.932	4.387	0.503
688.000	419.162	80.007	19.995	103.799	19.934	4.285	0.510
696.000	423.204	80.009	19.993	103.792	19.935	4.193	0.490
704.000	427.277	80.009	19.992	103.794	19.930	4.553	0.518
712.000	431.395	80.007	19.992	103.804	19.932	4.405	0.508
720.000	435.551	80.007	19.994	103.789	19.932	4.386	0.526
728.000	439.677	80.012	19.993	103.795	19.930	4.556	0.527
736.000	443.780	80.012	19.993	103.785	19.930	4.531	0.501
744.000	447.872	80.010	19.993	103.785	19.930	4.520	0.489
752.000	451.962	80.010	19.993	103.788	19.932	4.367	0.510
760.000	455.972	80.011	19.993	103.787	19.934	4.268	0.489
768.000	460.069	80.007	19.993	103.787	19.933	4.305	0.509
776.000	464.173	80.009	19.993	103.788	19.932	4.371	0.493
784.000	468.252	80.008	19.994	103.784	19.937	4.051	0.519
792.000	472.434	80.008	19.994	103.782	19.939	3.893	0.518
800.000	476.694	80.008	19.993	103.785	19.939	3.897	0.536
808.000	480.899	80.009	19.993	103.784	19.941	3.750	0.536
816.000	485.078	80.011	19.992	103.783	19.945	3.499	0.519
824.000	489.228	80.009	19.993	103.783	19.945	3.473	0.526
832.000	493.422	80.009	19.992	103.788	19.946	3.409	0.544
840.000	497.571	80.011	19.994	103.782	19.951	3.102	0.512
848.000	501.708	80.008	19.992	103.782	19.946	3.432	0.518
856.000	505.784	80.008	19.993	103.782	19.949	3.200	0.494
864.000	509.776	80.010	19.992	103.786	19.951	3.074	0.513
872.000	513.750	80.009	19.993	103.774	19.950	3.168	0.497
880.000	517.817	80.008	19.994	103.767	19.950	3.123	0.500
888.000	521.795	80.007	19.994	103.786	19.948	3.268	0.510
896.000	525.918	80.010	19.993	103.780	19.950	3.150	0.516
904.000	530.007	80.009	19.992	103.778	19.945	3.528	0.504
912.000	534.144	80.010	19.994	103.785	19.948	3.300	0.469
920.000	538.322	80.011	19.993	103.773	19.950	3.148	0.482
928.000	542.501	80.011	19.993	103.781	19.948	3.279	0.534
936.000	546.595	80.007	19.992	103.768	19.949	3.247	0.468
944.000	550.731	80.008	19.992	103.768	19.950	3.162	0.509
952.000	554.931	80.009	19.994	103.767	19.950	3.181	0.517
960.000	559.076	80.009	19.996	103.769	19.949	3.218	0.521
968.000	563.146	80.006	19.993	103.781	19.950	3.157	0.502
976.000	567.221	80.009	19.994	103.776	19.950	3.166	0.502
984.000	571.224	80.009	19.993	103.767	19.948	3.311	0.494
992.000	575.335	80.011	19.993	103.775	19.950	3.128	0.523
1000.000	579.383	80.011	19.994	103.773	19.951	3.054	0.514
1008.000	583.448	80.012	19.993	103.760	19.948	3.303	0.526
1016.000	587.501	80.009	19.993	103.769	19.950	3.121	0.507
1024.000	591.552	80.009	19.993	103.763	19.949	3.228	0.494
1031.999	595.709	80.010	19.993	103.786	19.946	3.405	0.517
1039.999	599.836	80.010	19.991	103.785	19.950	3.164	0.549
1048.000	603.974	80.008	19.994	103.777	19.947	3.337	0.545
1056.000	608.175	80.010	19.994	103.767	19.948	3.301	0.534
1063.999	612.388	80.011	19.992	103.763	19.945	3.514	0.552
1072.000	616.466	80.008	19.996	103.752	19.945	3.467	0.503
1079.999	620.624	80.011	19.996	103.759	19.948	3.271	0.520
1087.999	624.736	80.011	19.995	103.765	19.948	3.303	0.527
1096.000	628.858	80.010	19.994	103.755	19.948	3.260	0.505
1104.000	632.880	80.008	19.993	103.762	19.945	3.519	0.507
1112.000	636.930	80.009	19.993	103.749	19.950	3.179	0.500
1119.999	640.981	80.009	19.993	103.756	19.949	3.226	0.509
1127.999	644.983	80.009	19.992	103.771	19.951	3.077	0.509
1135.999	649.065	80.008	19.993	103.760	19.948	3.306	0.503
1143.999	653.164	80.010	19.993	103.753	19.952	3.049	0.507
1152.000	657.278	80.010	19.994	103.745	19.952	3.006	0.517
1159.999	661.329	80.009	19.993	103.752	19.951	3.111	0.502
1167.999	665.384	80.010	19.993	103.761	19.946	3.444	0.500
1175.999	669.468	80.010	19.993	103.757	19.949	3.239	0.527
1183.999	673.527	80.008	19.995	103.751	19.950	3.137	0.531
1191.999	677.729	80.008	19.994	103.772	19.951	3.079	0.541
1199.999	681.797	80.011	19.994	103.756	19.951	3.073	0.517
1207.999	685.880	80.011	19.993	103.748	19.947	3.361	0.543
1215.999	689.906	80.009	19.994	103.751	19.953	2.980	0.491
1223.999	693.897	80.010	19.993	103.751	19.951	3.096	0.503
1231.999	697.972	80.011	19.991	103.758	19.948	3.293	0.494
1239.999	701.996	80.009	19.994	103.754	19.949	3.207	0.498
1247.999	705.978	80.011	19.994	103.750	19.949	3.226	0.500
1255.999	710.001	80.011	19.993	103.747	19.944	3.557	0.524
1263.999	714.015	80.010	19.993	103.751	19.947	3.395	0.484
1271.999	718.107	80.010	19.994	103.753	19.946	3.427	0.507
1279.999	722.173	80.009	19.995	103.766	19.944	3.593	0.513
1287.999	726.200	80.009	19.992	103.762	19.947	3.372	0.509
1295.999	730.211	80.009	19.992	103.761	19.944	3.570	0.498
1304.000	734.141	80.008	19.994	103.753	19.943	3.621	0.493
1311.999	738.130	80.010	19.993	103.749	19.950	3.139	0.487
1319.999	742.274	80.010	19.994	103.748	19.942	3.706	0.513
1325.499	745.098	80.011	19.993	103.750	19.945	3.502	0.489