File: 01_Data/Bean_Bag_Chair_Inner_Lining/MCC/Bean_Bag_Chair_Inner_Lining_MCC_30K_min_220314_R2.txt
Sample ID:	C:\MCC\MCC Cal\Test\Bean_Bag_Chair_Inner_Lining_MCC_30K_min_220314_R2.txt
Sample Weight (mg):	4.08
Heating Rate (C/s):	0.5
Combustor Temp (C):	900
N2 Flow Rate (cc/min):	80
O2 Flow Rate (cc/min):	20
Calibration File:	C:\MCC\MCC Cal\Coeff1 JN10440_30_210304.txt.txt
T Correction Coefficients:	0	1.024463	0
Time Shift (s):	14
*
Time (s)	Temperature (C)	N2 flow rate (cc/min)	O2 flow rate (cc/min)	Flow Rate (cc/min)	Oxygen (%)	HRR (W/g)	Heating rate (C/s)
0.000	108.472	80.004	19.993	103.640	19.953	-0.154	-0.034
8.000	108.525	80.006	19.993	103.638	19.954	-0.188	0.022
16.000	108.600	80.004	19.993	103.668	19.952	-0.081	0.001
24.000	108.629	80.006	19.993	103.653	19.952	-0.094	-0.020
32.001	108.765	80.007	19.994	103.731	19.950	0.129	0.002
40.000	108.971	80.005	19.996	103.728	19.943	0.641	0.030
48.000	109.493	80.006	19.994	103.788	19.926	2.033	0.082
56.000	110.389	80.007	19.995	103.860	19.920	2.505	0.136
64.000	111.788	80.005	19.995	103.878	19.909	3.324	0.179
72.000	113.602	80.005	19.994	103.872	19.907	3.536	0.264
80.000	115.832	80.005	19.994	103.899	19.902	3.916	0.299
88.000	118.433	80.006	19.993	103.910	19.900	4.071	0.338
96.000	121.288	80.004	19.993	103.909	19.902	3.935	0.382
104.000	124.487	80.006	19.994	103.911	19.901	4.019	0.398
112.000	127.908	80.006	19.993	103.906	19.899	4.186	0.439
120.000	131.552	80.007	19.992	103.906	19.901	3.976	0.493
128.000	135.211	80.006	19.994	103.905	19.898	4.221	0.470
136.000	139.070	80.006	19.994	103.904	19.902	3.937	0.478
144.000	143.024	80.005	19.994	103.897	19.901	3.971	0.517
152.000	147.038	80.005	19.993	103.896	19.904	3.780	0.477
160.000	151.154	80.004	19.994	103.870	19.901	3.975	0.544
168.000	155.220	80.004	19.994	103.870	19.908	3.466	0.503
176.000	159.165	80.003	19.994	103.866	19.903	3.871	0.481
184.000	163.282	80.005	19.994	103.855	19.909	3.356	0.580
192.000	167.350	80.008	19.993	103.848	19.913	3.073	0.517
200.000	171.365	80.005	19.993	103.850	19.914	2.942	0.508
208.000	175.343	80.005	19.994	103.835	19.916	2.768	0.498
216.000	179.258	80.007	19.994	103.839	19.916	2.815	0.482
224.000	183.123	80.005	19.993	103.824	19.914	2.948	0.477
232.000	187.071	80.004	19.993	103.824	19.910	3.251	0.463
240.000	191.026	80.006	19.994	103.815	19.907	3.512	0.518
248.000	194.867	80.004	19.993	103.825	19.912	3.100	0.471
256.000	198.778	80.004	19.995	103.829	19.912	3.100	0.504
264.000	202.701	80.004	19.995	103.830	19.910	3.286	0.538
272.000	206.667	80.005	19.993	103.818	19.911	3.171	0.463
280.000	210.616	80.005	19.993	103.820	19.913	3.031	0.531
288.000	214.548	80.006	19.992	103.810	19.911	3.194	0.525
296.000	218.398	80.007	19.993	103.794	19.914	2.924	0.380
304.000	222.400	80.006	19.994	103.794	19.922	2.356	0.601
312.000	226.443	80.006	19.993	103.792	19.919	2.566	0.627
320.000	230.237	80.004	19.993	103.794	19.915	2.883	0.550
328.000	234.147	80.007	19.995	103.794	19.918	2.639	0.369
336.000	238.360	80.004	19.994	103.788	19.921	2.371	0.334
344.000	242.149	80.004	19.993	103.794	19.919	2.555	0.399
352.000	246.485	80.006	19.994	103.790	19.923	2.248	0.652
360.000	250.167	80.006	19.995	103.796	19.925	2.053	0.575
368.000	254.445	80.005	19.994	103.790	19.921	2.413	0.570
376.000	258.621	80.007	19.993	103.790	19.924	2.184	0.629
384.000	262.700	80.007	19.995	103.786	19.925	2.109	0.499
392.000	266.814	80.006	19.994	103.779	19.929	1.762	0.477
400.000	271.027	80.006	19.993	103.773	19.924	2.173	0.562
408.000	275.206	80.004	19.993	103.765	19.921	2.413	0.564
416.000	278.973	80.005	19.994	103.756	19.926	1.973	0.537
424.000	283.237	80.004	19.993	103.753	19.926	2.027	0.406
432.000	286.757	80.008	19.994	103.752	19.930	1.674	0.442
440.000	290.914	80.005	19.993	103.750	19.928	1.823	0.476
448.000	294.970	80.006	19.994	103.750	19.932	1.560	0.569
456.000	298.915	80.007	19.993	103.753	19.931	1.633	0.419
464.000	302.832	80.006	19.992	103.753	19.927	1.909	0.473
472.000	306.741	80.005	19.993	103.756	19.923	2.282	0.463
480.000	310.777	80.006	19.993	103.751	19.922	2.333	0.449
488.001	314.685	80.005	19.993	103.750	19.925	2.113	0.455
496.000	318.557	80.006	19.995	103.752	19.924	2.175	0.408
504.000	322.620	80.004	19.994	103.756	19.923	2.256	0.458
512.000	326.609	80.007	19.994	103.754	19.927	1.958	0.487
520.000	330.593	80.006	19.993	103.750	19.927	1.907	0.465
528.000	334.752	80.005	19.993	103.755	19.927	1.941	0.528
536.000	338.861	80.006	19.994	103.754	19.924	2.162	0.553
544.000	342.915	80.006	19.994	103.747	19.922	2.331	0.510
552.000	346.964	80.005	19.992	103.747	19.923	2.228	0.518
560.000	351.006	80.004	19.993	103.750	19.922	2.293	0.494
568.000	355.035	80.005	19.994	103.746	19.920	2.492	0.490
576.000	359.177	80.005	19.993	103.736	19.916	2.809	0.517
584.000	363.160	80.005	19.993	103.744	19.908	3.396	0.505
592.000	367.183	80.007	19.992	103.736	19.903	3.799	0.521
600.000	371.186	80.006	19.993	103.744	19.896	4.401	0.521
608.000	375.238	80.006	19.993	103.749	19.879	5.714	0.494
616.000	379.254	80.007	19.993	103.748	19.861	7.201	0.480
624.000	383.393	80.007	19.993	103.749	19.828	9.800	0.547
632.000	387.524	80.005	19.994	103.783	19.801	11.918	0.498
640.000	391.799	80.004	19.994	103.778	19.778	13.781	0.546
648.000	396.060	80.006	19.992	103.792	19.739	16.828	0.543
656.000	400.287	80.005	19.993	103.810	19.698	20.085	0.535
664.000	404.612	80.005	19.994	103.813	19.642	24.605	0.538
672.000	408.792	80.007	19.992	103.865	19.568	30.462	0.507
680.000	413.020	80.007	19.992	103.860	19.473	37.978	0.524
688.000	417.038	80.007	19.993	103.934	19.366	46.570	0.513
696.000	421.125	80.008	19.993	103.982	19.201	59.737	0.518
704.000	425.151	80.008	19.993	103.997	18.997	76.075	0.470
712.001	429.056	80.005	19.993	104.113	18.793	92.229	0.477
720.000	432.923	80.004	19.995	104.267	18.390	124.606	0.490
728.000	436.812	80.004	19.994	104.456	18.002	155.572	0.472
736.000	440.705	80.006	19.993	104.411	17.761	175.039	0.492
744.000	444.668	80.004	19.993	104.637	17.645	184.412	0.501
752.000	448.538	80.008	19.993	104.528	17.638	184.866	0.494
760.000	452.542	80.008	19.994	104.529	17.708	179.199	0.515
768.000	456.642	80.006	19.992	104.477	17.890	164.399	0.518
776.000	460.816	80.007	19.993	104.381	18.197	139.797	0.565
784.000	464.883	80.007	19.992	104.244	18.585	108.757	0.523
792.000	468.987	80.006	19.995	104.116	19.006	75.141	0.544
800.000	473.117	80.005	19.993	104.016	19.334	49.058	0.493
808.000	477.359	80.006	19.994	103.913	19.542	32.520	0.537
816.000	481.665	80.005	19.994	103.861	19.670	22.356	0.525
824.000	485.886	80.004	19.995	103.815	19.748	16.102	0.536
832.000	490.149	80.007	19.993	103.800	19.805	11.603	0.525
840.000	494.335	80.007	19.994	103.783	19.834	9.334	0.521
848.000	498.564	80.006	19.993	103.767	19.862	7.119	0.531
856.000	502.734	80.008	19.993	103.745	19.877	5.898	0.531
864.000	506.849	80.008	19.992	103.741	19.883	5.431	0.539
872.000	510.872	80.007	19.993	103.731	19.893	4.655	0.543
880.000	514.912	80.006	19.993	103.712	19.890	4.886	0.489
888.000	518.973	80.007	19.995	103.710	19.892	4.699	0.529
896.000	522.986	80.005	19.994	103.712	19.894	4.577	0.523
904.000	527.005	80.004	19.995	103.715	19.895	4.470	0.499
912.000	531.099	80.006	19.994	103.713	19.896	4.391	0.528
920.000	535.235	80.007	19.994	103.714	19.902	3.872	0.539
928.000	539.190	80.007	19.994	103.715	19.898	4.209	0.341
936.000	543.321	80.006	19.992	103.712	19.892	4.691	0.318
944.000	547.777	80.009	19.993	103.718	19.894	4.543	0.526
952.000	551.567	80.006	19.992	103.706	19.893	4.601	0.475
960.000	555.623	80.005	19.993	103.715	19.897	4.279	0.505
968.000	559.441	80.006	19.994	103.713	19.895	4.436	0.461
976.000	563.347	80.005	19.994	103.714	19.901	4.027	0.457
984.000	567.136	80.006	19.994	103.717	19.896	4.376	0.461
992.000	570.989	80.006	19.993	103.712	19.895	4.425	0.461
1000.000	574.934	80.007	19.995	103.712	19.890	4.872	0.496
1008.000	578.907	80.007	19.995	103.717	19.888	4.980	0.500
1016.000	582.995	80.007	19.992	103.719	19.891	4.766	0.510
1024.000	587.213	80.007	19.993	103.721	19.885	5.246	0.532
1032.000	591.356	80.004	19.994	103.719	19.882	5.475	0.510
1040.000	595.611	80.005	19.993	103.716	19.886	5.216	0.522
1048.000	599.771	80.006	19.993	103.729	19.882	5.483	0.491
1056.000	604.015	80.005	19.992	103.714	19.884	5.299	0.536
1064.000	608.057	80.004	19.994	103.718	19.877	5.885	0.480
1072.000	612.307	80.006	19.993	103.709	19.885	5.247	0.532
1080.000	616.353	80.008	19.993	103.716	19.877	5.877	0.480
1088.000	620.492	80.008	19.994	103.724	19.878	5.777	0.531
1096.000	624.473	80.006	19.994	103.713	19.878	5.799	0.494
1104.000	628.526	80.008	19.994	103.722	19.876	5.931	0.494
1112.000	632.620	80.006	19.993	103.724	19.879	5.727	0.498
1120.000	636.792	80.007	19.994	103.717	19.880	5.618	0.529
1128.000	640.882	80.006	19.994	103.712	19.881	5.539	0.503
1136.000	644.863	80.006	19.994	103.713	19.876	5.972	0.488
1144.000	648.890	80.006	19.993	103.715	19.883	5.423	0.462
1152.000	653.078	80.006	19.995	103.719	19.879	5.693	0.534
1160.000	657.158	80.006	19.993	103.714	19.880	5.629	0.490
1168.000	661.293	80.008	19.993	103.723	19.878	5.773	0.515
1176.000	665.533	80.006	19.993	103.716	19.884	5.318	0.567
1184.000	669.859	80.008	19.994	103.719	19.882	5.472	0.565
1192.000	674.222	80.007	19.994	103.716	19.880	5.665	0.556
1200.000	678.532	80.008	19.994	103.727	19.877	5.865	0.530
1208.000	682.751	80.007	19.994	103.735	19.880	5.681	0.508
1216.000	686.969	80.006	19.993	103.719	19.881	5.543	0.499
1224.000	691.120	80.006	19.994	103.721	19.884	5.349	0.507
1232.000	695.421	80.007	19.993	103.725	19.883	5.389	0.554
1240.000	699.328	80.008	19.993	103.717	19.882	5.519	0.469
1248.000	703.358	80.008	19.993	103.718	19.887	5.108	0.516
1256.000	707.339	80.008	19.994	103.715	19.879	5.719	0.504
1264.000	711.253	80.009	19.993	103.705	19.882	5.483	0.500
1272.000	715.236	80.009	19.993	103.713	19.883	5.422	0.519
1280.000	719.302	80.006	19.995	103.710	19.878	5.826	0.530
1288.000	723.408	80.005	19.994	103.716	19.880	5.669	0.490
1296.000	727.504	80.007	19.994	103.713	19.875	6.040	0.533
1304.000	731.679	80.008	19.993	103.714	19.877	5.886	0.505
1312.000	735.813	80.006	19.994	103.710	19.876	6.003	0.510
1320.000	739.967	80.006	19.994	103.711	19.872	6.325	0.495
1326.500	743.347	80.008	19.992	103.717	19.876	5.948	0.509