File: 01_Data/Bean_Bag_Chair_Inner_Lining/MCC/Bean_Bag_Chair_Inner_Lining_MCC_30K_min_220314_R1.txt
Sample ID:	C:\MCC\MCC Cal\Test\Bean_Bag_Chair_Inner_Lining_MCC_30K_min_220314_R1.txt
Sample Weight (mg):	4.48
Heating Rate (C/s):	0.5
Combustor Temp (C):	900
N2 Flow Rate (cc/min):	80
O2 Flow Rate (cc/min):	20
Calibration File:	C:\MCC\MCC Cal\Coeff1 JN10440_30_210304.txt.txt
T Correction Coefficients:	0	1.024463	0
Time Shift (s):	14
*
Time (s)	Temperature (C)	N2 flow rate (cc/min)	O2 flow rate (cc/min)	Flow Rate (cc/min)	Oxygen (%)	HRR (W/g)	Heating rate (C/s)
-0.001	109.553	80.007	19.994	103.629	19.941	0.066	-0.016
7.999	109.567	80.005	19.995	103.638	19.941	0.057	0.009
15.999	109.586	80.006	19.995	103.702	19.933	0.632	0.010
24.000	109.883	80.004	19.993	103.719	19.929	0.892	0.028
31.999	110.404	80.007	19.994	103.775	19.913	2.062	0.076
39.999	111.303	80.004	19.994	103.833	19.908	2.443	0.116
47.999	112.556	80.006	19.993	103.844	19.902	2.838	0.172
55.999	114.248	80.008	19.996	103.848	19.898	3.142	0.215
63.999	116.170	80.006	19.993	103.872	19.895	3.388	0.236
71.999	118.432	80.007	19.994	103.880	19.893	3.482	0.302
79.999	121.040	80.009	19.993	103.885	19.882	4.338	0.361
87.999	123.887	80.005	19.993	103.905	19.886	4.010	0.365
95.999	126.992	80.003	19.996	103.899	19.883	4.270	0.386
103.999	130.272	80.006	19.995	103.907	19.884	4.163	0.410
111.999	133.717	80.007	19.995	103.903	19.887	3.965	0.449
119.999	137.265	80.009	19.993	103.909	19.886	4.037	0.456
127.999	140.967	80.007	19.994	103.907	19.883	4.209	0.501
136.000	144.768	80.009	19.993	103.911	19.891	3.676	0.492
144.000	148.645	80.006	19.994	103.901	19.888	3.840	0.500
152.000	152.616	80.009	19.994	103.897	19.890	3.762	0.488
160.000	156.559	80.010	19.993	103.876	19.882	4.334	0.501
168.000	160.539	80.006	19.994	103.876	19.882	4.331	0.499
176.000	164.536	80.007	19.996	103.870	19.887	3.974	0.475
184.000	168.619	80.005	19.993	103.866	19.883	4.249	0.492
192.000	172.646	80.006	19.995	103.869	19.883	4.251	0.493
200.000	176.623	80.006	19.995	103.869	19.884	4.168	0.486
208.000	180.624	80.007	19.994	103.868	19.888	3.882	0.502
216.000	184.678	80.008	19.993	103.864	19.884	4.193	0.512
224.000	188.685	80.007	19.994	103.870	19.880	4.422	0.509
232.000	192.626	80.008	19.993	103.834	19.890	3.721	0.540
240.000	196.558	80.007	19.996	103.860	19.881	4.375	0.518
248.000	200.404	80.009	19.993	103.840	19.882	4.283	0.438
256.000	204.388	80.007	19.994	103.846	19.882	4.278	0.482
264.000	208.356	80.007	19.993	103.864	19.877	4.656	0.490
272.000	212.298	80.007	19.994	103.841	19.880	4.468	0.480
280.000	216.276	80.010	19.993	103.837	19.879	4.533	0.517
288.000	220.255	80.004	19.994	103.838	19.886	4.044	0.515
296.000	224.269	80.007	19.995	103.834	19.885	4.074	0.547
304.000	228.239	80.006	19.993	103.821	19.882	4.284	0.522
312.000	232.245	80.010	19.993	103.831	19.883	4.240	0.494
320.000	236.190	80.006	19.994	103.832	19.882	4.294	0.483
328.000	240.081	80.010	19.994	103.829	19.880	4.449	0.464
336.000	244.088	80.007	19.992	103.833	19.880	4.437	0.517
344.000	248.006	80.004	19.993	103.834	19.882	4.310	0.462
352.000	252.038	80.006	19.994	103.836	19.879	4.544	0.534
360.000	256.071	80.007	19.995	103.833	19.881	4.409	0.529
368.000	260.043	80.004	19.995	103.830	19.881	4.362	0.510
376.000	264.079	80.007	19.994	103.829	19.879	4.551	0.496
384.000	268.097	80.008	19.994	103.826	19.881	4.392	0.473
392.000	272.187	80.008	19.994	103.807	19.879	4.542	0.523
400.000	276.239	80.011	19.993	103.831	19.880	4.468	0.559
408.000	280.221	80.009	19.993	103.830	19.876	4.729	0.486
416.000	284.253	80.006	19.992	103.828	19.874	4.863	0.520
424.000	288.317	79.995	19.994	103.827	19.876	4.741	0.503
432.000	292.487	80.007	19.994	103.830	19.872	5.057	0.528
440.000	296.551	79.994	19.995	103.809	19.875	4.815	0.520
448.000	300.568	80.007	19.993	103.817	19.874	4.874	0.483
456.000	304.672	79.998	19.994	103.806	19.875	4.776	0.521
464.000	308.640	80.007	19.994	103.811	19.867	5.386	0.515
472.000	312.706	80.005	19.994	103.820	19.873	4.922	0.541
480.000	316.662	79.996	19.996	103.794	19.869	5.262	0.490
488.000	320.675	80.009	19.995	103.800	19.867	5.419	0.467
496.000	324.697	80.021	19.993	103.792	19.870	5.195	0.524
504.000	328.639	80.012	19.994	103.797	19.868	5.284	0.511
512.000	332.605	80.018	19.993	103.790	19.866	5.472	0.489
520.000	336.517	80.006	19.995	103.794	19.866	5.492	0.461
528.000	340.446	80.005	19.994	103.811	19.861	5.821	0.473
536.000	344.464	80.002	19.994	103.815	19.864	5.591	0.519
544.000	348.590	80.004	19.993	103.824	19.859	5.986	0.559
552.000	352.729	80.016	19.993	103.819	19.856	6.167	0.551
560.000	356.885	80.012	19.993	103.792	19.857	6.095	0.496
568.000	361.051	80.012	19.993	103.795	19.850	6.606	0.515
576.000	365.192	80.010	19.994	103.832	19.848	6.760	0.504
584.000	369.323	80.000	19.995	103.823	19.833	7.820	0.491
592.000	373.454	80.015	19.996	103.805	19.815	9.143	0.503
600.000	377.580	80.001	19.994	103.820	19.806	9.814	0.486
608.000	381.697	80.000	19.993	103.825	19.785	11.316	0.507
616.000	385.856	80.013	19.992	103.839	19.755	13.511	0.540
624.000	389.917	80.007	19.993	103.840	19.720	16.016	0.494
632.000	393.997	80.007	19.994	103.862	19.677	19.153	0.513
640.000	398.067	80.009	19.994	103.874	19.614	23.730	0.499
648.000	402.105	80.008	19.994	103.909	19.544	28.808	0.513
656.000	406.196	80.011	19.994	103.908	19.459	34.974	0.528
664.000	410.251	80.008	19.992	103.981	19.376	40.975	0.504
672.000	414.259	80.006	19.994	103.997	19.260	49.390	0.474
680.000	418.270	79.999	19.994	104.064	19.100	61.020	0.452
688.000	422.285	80.009	19.994	104.145	18.897	75.803	0.475
696.000	426.315	80.009	19.994	104.215	18.664	92.818	0.486
704.000	430.345	80.007	19.994	104.324	18.395	112.496	0.501
712.000	434.385	80.007	19.994	104.433	18.020	140.015	0.498
720.000	438.377	80.009	19.993	104.527	17.668	165.697	0.491
728.000	442.438	80.006	19.994	104.617	17.407	184.875	0.499
736.000	446.437	80.007	19.994	104.705	17.321	191.160	0.407
744.000	450.487	80.010	19.992	104.732	17.285	193.664	0.555
752.000	454.612	80.010	19.995	104.692	17.379	186.642	0.505
760.000	458.706	80.009	19.994	104.604	17.658	166.052	0.534
768.000	462.745	80.006	19.995	104.463	18.080	135.168	0.510
776.000	466.879	80.008	19.994	104.310	18.574	99.166	0.513
784.000	470.981	80.006	19.996	104.196	19.024	66.494	0.493
792.000	475.193	80.008	19.995	104.062	19.312	45.607	0.524
800.000	479.346	80.005	19.995	103.985	19.482	33.239	0.501
808.000	483.437	80.009	19.997	103.926	19.588	25.583	0.514
816.000	487.536	80.011	19.992	103.895	19.653	20.872	0.508
824.000	491.665	80.009	19.992	103.869	19.702	17.291	0.525
832.000	495.752	80.012	19.996	103.846	19.737	14.803	0.501
840.000	499.825	80.009	19.991	103.833	19.757	13.359	0.551
848.000	503.882	80.006	19.991	103.816	19.769	12.461	0.498
856.000	507.957	80.004	20.001	103.797	19.776	11.990	0.515
864.000	512.075	80.006	19.988	103.797	19.777	11.894	0.508
872.000	516.185	80.009	19.994	103.798	19.779	11.723	0.506
880.000	520.286	80.009	19.995	103.795	19.782	11.556	0.518
888.000	524.368	80.008	19.995	103.795	19.779	11.718	0.487
896.000	528.472	80.015	19.994	103.791	19.777	11.916	0.501
904.000	532.606	80.008	19.993	103.789	19.774	12.132	0.536
912.000	536.620	80.009	19.994	103.791	19.774	12.102	0.501
920.000	540.754	80.010	19.994	103.788	19.772	12.236	0.523
928.000	544.739	80.009	19.994	103.788	19.774	12.128	0.480
936.000	548.741	80.008	19.994	103.792	19.768	12.580	0.469
944.000	552.811	80.007	19.993	103.786	19.766	12.666	0.500
952.000	556.869	80.009	19.994	103.794	19.765	12.727	0.502
960.000	560.917	80.007	19.995	103.795	19.763	12.911	0.506
968.000	564.978	80.009	19.994	103.789	19.765	12.731	0.498
976.000	569.103	80.010	19.994	103.791	19.760	13.091	0.514
984.000	573.279	80.010	19.994	103.790	19.763	12.895	0.519
992.000	577.440	80.008	19.995	103.789	19.758	13.253	0.524
1000.000	581.461	80.009	19.994	103.789	19.756	13.399	0.494
1008.000	585.569	80.011	19.992	103.782	19.754	13.522	0.525
1016.000	589.679	80.009	19.993	103.793	19.752	13.728	0.523
1024.000	593.814	80.008	19.995	103.794	19.749	13.887	0.517
1031.999	597.844	80.008	19.993	103.793	19.745	14.230	0.511
1039.999	601.910	80.010	19.993	103.789	19.743	14.340	0.506
1047.999	605.990	80.007	19.994	103.788	19.740	14.564	0.497
1055.999	610.057	80.009	19.995	103.790	19.743	14.383	0.503
1063.999	614.202	80.010	19.994	103.788	19.740	14.603	0.541
1071.999	618.282	80.009	19.994	103.790	19.736	14.887	0.504
1079.999	622.365	80.009	19.995	103.791	19.737	14.754	0.482
1087.999	626.430	80.011	19.994	103.791	19.735	14.960	0.475
1095.999	630.559	80.008	19.994	103.791	19.733	15.103	0.527
1104.000	634.635	80.010	19.992	103.788	19.733	15.068	0.547
1111.999	638.732	80.009	19.993	103.787	19.733	15.081	0.532
1119.999	642.903	80.009	19.994	103.789	19.729	15.377	0.506
1128.000	647.080	80.009	19.994	103.785	19.729	15.356	0.514
1135.999	651.237	80.006	19.994	103.768	19.729	15.369	0.538
1143.999	655.340	80.010	19.991	103.783	19.727	15.499	0.507
1151.999	659.445	80.010	19.993	103.779	19.732	15.133	0.543
1159.999	663.481	80.009	19.993	103.787	19.730	15.266	0.488
1167.999	667.593	80.010	19.995	103.779	19.729	15.373	0.491
1175.999	671.722	80.012	19.993	103.774	19.731	15.240	0.498
1183.999	675.857	80.011	19.995	103.781	19.729	15.328	0.520
1191.999	679.875	80.009	19.994	103.769	19.728	15.403	0.507
1199.999	683.862	80.008	19.994	103.771	19.726	15.588	0.511
1207.999	687.810	80.009	19.994	103.788	19.723	15.808	0.497
1215.999	691.774	80.010	19.994	103.792	19.720	16.026	0.504
1223.999	695.858	80.007	19.994	103.777	19.717	16.250	0.536
1231.999	699.880	80.010	19.994	103.760	19.717	16.260	0.492
1239.999	704.010	80.011	19.993	103.787	19.717	16.219	0.544
1247.999	708.045	80.011	19.994	103.773	19.715	16.368	0.511
1255.999	712.165	80.011	19.995	103.769	19.715	16.383	0.518
1263.999	716.210	80.012	19.993	103.776	19.716	16.308	0.523
1271.999	720.331	80.010	19.994	103.775	19.710	16.736	0.518
1279.999	724.490	80.009	19.994	103.783	19.711	16.673	0.494
1287.999	728.689	80.009	19.994	103.774	19.697	17.651	0.559
1295.999	732.794	80.010	19.995	103.779	19.704	17.146	0.542
1303.999	736.831	80.008	19.994	103.775	19.703	17.260	0.489
1311.999	741.015	80.008	19.993	103.774	19.699	17.528	0.519
1316.999	743.545	80.010	19.994	103.778	19.699	17.496	0.495