File: 01_Data/HDPE/Cone/HDPE_Cone_HF50Scan_220218_R2.csv
Names,Time,Stack TC,Smoke TC,Exh Press,Smoke Comp,Smoke Meas,CO Meter,CO2 Meter,O2 Meter,Sample Mass,Ext Coeff,Start Test,Flame Verif
Chan Gain,,500,500,1,1,1,1,1,1,1,1,1.0,1.0
Offset,,0,0,0.132436,0,0,0,0,0,0,0,0.0,0.0
Gain,,1,1,25.011,15.4219,15.1528,1,1,1,1.00089,1.02113,1.0,1.0
Units,sec,C,C,Pa,%,%,%,%,%,g,/m,,
Baseline,,36.322,38.1461,156.092,114.96,111.902,-0.00832659,0.0544123,20.9811,-479.199,0.241659,,
16,3.75,32.6283,34.0772,159.557,115.834,113.06,-0.0085606,0.0565594,20.9858,426.117,0.217076,0.0,0.0
32,7.75,32.7021,34.3859,154.643,115.938,112.595,-0.00877286,0.0556126,20.9841,426.147,0.262119,0.0,0.0
48,11.75,32.7652,34.396,156.129,115.918,112.804,-0.00903582,0.0570542,20.9812,426.167,0.24387,0.0,0.0
64,15.75,33.5327,35.1374,156.859,115.776,112.044,-0.00889381,0.0609225,20.9763,426.177,0.293488,0.0,0.0
80,19.75,33.5942,34.9117,161.813,115.606,112.659,-0.00862551,0.0624474,20.9739,426.077,0.2313,0.0,0.0
96,23.75,33.8071,35.1273,154.66,116.075,112.212,-0.00846724,0.0614564,20.978,426.097,0.303133,0.0,0.0
112,27.75,33.885,35.0315,156.872,116.429,113.085,-0.00852318,0.0588372,20.9816,426.067,0.260981,0.0,0.0
128,31.75,34.3026,35.7776,158.623,116.434,112.234,-0.00867409,0.0560545,20.9857,426.117,0.329103,0.0,0.0
144,35.75,34.3868,36.5506,156.344,115.981,112.365,-0.00810638,0.054022,20.9858,426.077,0.283694,0.0,0.0
160,39.75,34.1077,35.4842,158.444,115.962,111.23,-0.00778717,0.0543682,20.9845,426.077,0.373199,0.0,0.0
176,43.75,34.3699,36.0555,156.936,116.302,111.249,-0.00750851,0.0564372,20.9803,426.117,0.397842,0.0,0.0
192,47.75,34.7189,36.6761,156.548,116.601,110.582,-0.00658987,0.0579723,20.9757,426.127,0.474791,0.0,0.0
208,51.75,34.8046,37.0991,153.316,116.635,107.573,-0.00543848,0.0584559,20.973,426.057,0.72443,0.0,0.0
224,55.75,35.1532,37.0708,153.054,116.354,110.997,-0.00546571,0.0674882,20.9449,426.007,0.42218,0.0,1.0
240,59.75,35.7179,37.8793,146.718,115.796,109.068,-0.00662712,0.0958903,20.8912,425.917,0.536163,0.0,1.0
256,63.75,36.8346,39.1657,147.846,115.121,108.211,-0.00718597,0.136052,20.8164,425.887,0.554416,0.0,0.0
272,67.75,38.381,40.9098,141.466,114.513,104.428,-0.00675752,0.191862,20.7056,425.697,0.825733,0.0,0.0
288,71.75,40.5268,43.1907,137.518,114.212,99.458,-0.00561873,0.263666,20.5442,425.657,1.23893,0.0,0.0
304,75.75,43.2798,47.0638,130.845,114.31,94.7542,-0.00449501,0.36021,20.3638,425.357,1.68062,0.0,0.0
320,79.75,47.1287,51.6171,129.755,114.713,92.2724,-0.00301068,0.462085,20.1698,425.016,1.94991,0.0,0.0
336,83.75,52.0085,56.9947,125.986,115.283,90.9642,-0.00134089,0.554736,20.0228,424.746,2.12216,0.0,0.0
352,87.75,55.8841,62.9017,118.519,115.734,91.3572,-0.000184004,0.650006,19.8639,424.276,2.11854,0.0,0.0
368,91.75,60.9602,69.2132,119.359,115.861,92.5457,0.000991674,0.741749,19.6996,423.865,2.01256,0.0,0.0
384,95.75,66.1005,75.4492,120.565,115.83,92.2506,0.0020973,0.838858,19.5587,423.415,2.03884,0.0,0.0
400,99.75,71.1929,82.0815,111.832,115.613,86.8338,0.00291334,0.918243,19.4378,422.925,2.56401,0.0,0.0
416,103.75,76.8219,88.5786,109.446,115.868,86.0994,0.00487962,1.02784,19.2173,422.384,2.65982,0.0,0.0
432,107.75,82.7912,97.1611,108.838,116.42,87.1251,0.00676201,1.21477,18.9308,421.733,2.59632,0.0,0.0
448,111.75,91.2794,107.17,91.723,116.339,83.8585,0.00986983,1.45693,18.4307,421.033,2.93238,0.0,0.0
464,115.75,100.687,119.264,84.7169,115.772,82.6608,0.0134687,1.75589,17.9349,420.202,3.01746,0.0,0.0
480,119.75,111.203,132.66,82.466,116.093,81.8645,0.0173884,2.04626,17.4717,419.351,3.12897,0.0,0.0
496,123.75,121.162,146.756,100.579,116.482,80.1484,0.0209477,2.30333,17.1209,418.431,3.34871,0.0,0.0
512,127.75,131.943,161.126,85.9267,116.66,82.031,0.0245804,2.59652,16.6621,417.34,3.15446,0.0,0.0
528,131.75,142.713,176.467,85.1993,116.471,80.7366,0.0285612,2.85528,16.2564,416.299,3.28238,0.0,0.0
544,135.75,153.694,191.702,80.0297,115.966,78.8074,0.031776,3.25197,15.6711,415.108,3.46006,0.0,0.0
560,139.75,165.461,208.665,69.6049,115.282,77.8862,0.0351036,3.62817,15.0932,413.947,3.5124,0.0,0.0
576,143.75,176.859,226.26,64.7558,114.646,78.1817,0.0392429,4.05207,14.4827,412.385,3.42898,0.0,0.0
592,147.75,189.437,245.17,71.5726,114.272,77.1168,0.0433493,4.57116,13.6317,411.074,3.52251,0.0,0.0
608,151.75,201.92,264.362,58.3885,114.274,77.2014,0.0480038,5.12381,12.9096,409.523,3.51287,0.0,0.0
624,155.75,214.572,284.037,63.2437,114.578,80.5572,0.0532137,5.69343,12.0623,407.841,3.1555,0.0,0.0
640,159.75,227.96,305.331,65.2473,115.05,83.2139,0.0571277,6.37154,11.1098,406.29,2.90174,0.0,0.0
656,163.75,240.793,327.626,69.5942,115.47,78.0032,0.0598177,7.01794,10.2055,404.398,3.51353,0.0,0.0
672,167.75,253.561,348.56,67.4043,115.759,84.763,0.0631451,7.63257,9.31225,402.396,2.79153,0.0,0.0
688,171.75,266.837,371.106,51.6007,115.82,82.7658,0.0676637,8.33991,8.40357,400.665,3.00985,0.0,0.0
704,175.75,277.73,390.871,44.6229,115.779,84.5068,0.0706219,8.62734,8.20634,398.603,2.82021,0.0,0.0
720,179.75,285.877,402.663,63.5078,115.768,80.6423,0.0673971,8.08367,9.24267,397.202,3.23861,0.0,0.0
736,183.75,286.398,403.015,71.9382,115.644,74.5156,0.0519018,6.41004,12.6828,396.031,3.93679,0.0,0.0
752,187.75,278.771,385.921,109.857,115.523,85.1047,0.0282728,4.37892,16.1049,395.6,2.73723,0.0,0.0
768,191.75,261.522,357.737,123.973,115.697,98.4176,0.00982637,2.50867,18.6866,395.34,1.44887,0.0,0.0
784,195.75,242.837,329.613,127.77,116.184,101.918,0.00203617,1.44278,19.8027,395.18,1.17348,0.0,0.0
800,199.75,227.317,304.242,129.606,116.408,105.335,-0.00149381,0.961184,20.2203,395,0.895321,0.0,0.0
816,203.75,212.252,281.42,130.311,116.456,104.151,-0.00328667,0.709347,20.4511,395.02,1.00025,0.0,0.0
832,207.75,199.976,261.349,129.312,116.269,104.082,-0.00375188,0.561803,20.5535,394.88,0.991836,0.0,0.0
848,211.75,188.905,243.223,132.567,115.872,105.34,-0.00435828,0.466604,20.6192,394.82,0.85362,0.0,0.0
864,215.75,178.329,227.595,129.382,115.914,104.017,-0.00492331,0.401536,20.6599,394.72,0.969993,0.0,0.0
880,219.75,169.086,213.726,133.444,116.143,105.257,-0.00528391,0.354996,20.6931,394.66,0.881521,0.0,0.0
896,223.75,160.818,200.535,136.047,116.375,106.003,-0.00547646,0.320389,20.7128,394.609,0.836183,0.0,0.0
912,227.75,153.089,189.144,135.35,116.564,104.744,-0.0056769,0.29482,20.724,394.519,0.957733,0.0,0.0
928,231.75,147.374,179.078,136.091,116.688,106.019,-0.00594963,0.273456,20.745,394.449,0.858871,0.0,0.0
944,235.75,140.636,169.944,136.949,116.72,105.847,-0.00621483,0.248161,20.7756,394.389,0.875911,0.0,0.0
960,239.75,135.031,161.523,139.314,116.658,105.679,-0.00656135,0.225761,20.8027,394.329,0.885397,0.0,0.0
976,243.75,130.415,153.577,137.203,116.513,106.246,-0.00689332,0.209472,20.8199,394.269,0.826299,0.0,0.0
992,247.75,125.825,146.697,137.845,116.277,107.043,-0.00722165,0.193374,20.829,394.269,0.741193,0.0,0.0
1008,251.75,120.926,139.838,142.371,115.991,107.186,-0.00737649,0.175274,20.8547,394.219,0.707171,0.0,0.0
1024,255.75,117.011,133.554,141.06,115.666,107.038,-0.00731658,0.159029,20.8761,394.169,0.694399,0.0,0.0
1040,259.75,113.139,127.895,140.341,115.323,106.696,-0.00741335,0.144716,20.8955,394.189,0.696395,0.0,0.0
1056,263.75,109.477,122.557,139.375,115.004,106.669,-0.00765203,0.132395,20.9104,394.119,0.673905,0.0,0.0
1072,267.75,106.184,118.218,140.516,114.736,106.031,-0.00760263,0.121785,20.9194,394.099,0.706731,0.0,0.0
1088,271.75,102.914,113.379,141.157,114.527,105.674,-0.00764548,0.114087,20.9239,394.109,0.72065,0.0,0.0
1104,275.75,98.9593,109.409,141.387,114.396,106.097,-0.00762121,0.107086,20.9309,394.119,0.67462,0.0,0.0
1120,279.75,97.3663,105.619,142.035,114.364,105.742,-0.00769195,0.099599,20.9419,394.089,0.70207,0.0,0.0
1136,283.75,94.5044,102.078,140.973,114.39,105.551,-0.00790437,0.0927635,20.9489,394.049,0.720368,0.0,0.0
1152,287.75,91.9401,98.7936,142.845,114.507,105.98,-0.00786175,0.0882965,20.9526,394.039,0.693157,0.0,0.0
1168,291.75,90.2301,95.4477,141.622,114.669,105.482,-0.00793403,0.0851308,20.9532,394.029,0.748044,0.0,0.0
1184,295.75,87.6059,93.3661,142.816,114.858,106.477,-0.00793459,0.0821406,20.9562,394.059,0.678625,0.0,0.0
1200,299.75,86.1423,90.366,146.138,115.069,106.702,-0.00810007,0.0788362,20.9591,394.079,0.676128,0.0,0.0
1216,303.75,84.6295,88.3512,141.828,115.282,106.965,-0.00808771,0.0760943,20.9616,394.109,0.670687,0.0,0.0
1232,307.75,82.8165,86.2176,140.252,115.463,107.696,-0.00808689,0.0746455,20.962,394.119,0.623778,0.0,0.0
1248,311.75,81.2528,83.3517,143.319,115.626,106.964,-0.00811984,0.0733694,20.9621,393.969,0.697456,0.0,0.0
1264,315.75,79.9413,82.5269,146.53,115.752,106.917,-0.00802762,0.072479,20.9613,393.959,0.711133,0.0,0.0
1280,319.75,78.9303,79.7503,145.071,115.86,107.471,-0.0078936,0.0701761,20.9642,393.979,0.673291,0.0,0.0
1296,323.75,77.1776,78.8863,144.863,115.933,107.335,-0.00794791,0.0654962,20.9728,393.989,0.690268,0.0,0.0
1312,327.75,75.8593,76.8654,144.065,115.975,107.434,-0.00831549,0.0620221,20.9776,393.989,0.685212,0.0,0.0
1328,331.75,74.6719,75.5518,144.601,115.976,107.259,-0.00854809,0.0600845,20.9794,394.089,0.699869,0.0,0.0
1344,335.75,73.8002,74.6741,144.378,115.953,108.801,-0.00867092,0.0586964,20.9821,394.069,0.570253,0.0,0.0
1360,339.75,72.8923,72.9891,141.521,115.916,108.46,-0.00857177,0.0574284,20.9847,394.049,0.595521,0.0,0.0
1376,343.75,71.4794,71.7038,143.354,115.875,108.478,-0.00846402,0.0561531,20.9863,394.009,0.590867,0.0,0.0
1392,347.75,71.1587,70.4548,147.3,115.834,107.715,-0.00843041,0.0555069,20.9865,394.009,0.650927,0.0,0.0
1408,351.75,70.2231,69.4091,144.41,115.782,108.147,-0.00856443,0.0551121,20.9866,394.009,0.611004,0.0,0.0
1424,355.75,69.1892,68.7859,146.481,115.719,108.149,-0.00871906,0.0550138,20.9866,393.989,0.606005,0.0,0.0
1440,359.75,68.5508,68.1298,146.62,115.663,107.844,-0.00862492,0.0549624,20.9851,393.979,0.626984,0.0,0.0
1456,363.75,67.6458,67.0853,145.5,115.642,108.45,-0.0085752,0.0550104,20.9834,394.039,0.575093,0.0,0.0
1472,367.75,66.7421,65.8501,146.029,115.599,107.619,-0.00867744,0.0548991,20.9831,394.029,0.640712,0.0,0.0
1488,371.75,65.637,64.5907,151.033,115.63,108.541,-0.00895345,0.0544464,20.984,394.059,0.566662,0.0,0.0
1504,375.75,64.8996,63.5624,148.638,115.874,107.615,-0.00892552,0.0539398,20.9851,394.069,0.662367,0.0,0.0
1520,379.75,64.7942,63.4758,147.18,116.081,108.76,,0.0534907,,394.029,0.583488,0.0,0.0
1536,383.75,64.5415,63.2907,147.544,116.23,108.27,,,,393.999,0.635455,0.0,0.0
1552,387.75,63.802,62.0765,149.83,116.322,108.99,,,,394.019,0.583153,0.0,0.0
1563,390.5,63.4945,62.4357,143.813,116.414,109.05,,,,394.019,0.585317,0.0,0.0