File: 01_Data/HDPE/Cone/HDPE_Cone_HF50Scan_220131_R4.csv
Names,Time,Stack TC,Smoke TC,Exh Press,Smoke Comp,Smoke Meas,CO Meter,CO2 Meter,O2 Meter,Sample Mass,Ext Coeff,Start Test,Flame Verif
Chan Gain,,500,500,1,1,1,1,1,1,1,1,1.0,1.0
Offset,,0,0,0.14021,0,0,0,0,0,0,0,0.0,0.0
Gain,,1,1,25.011,13.3046,13.3037,1,1,1,1.00087,1.10262,1.0,1.0
Units,sec,C,C,Pa,%,%,%,%,%,g,/m,,
Baseline,,27.5863,30.5278,161.49,98.3104,103.687,0.00608027,0.0795164,20.9542,-0.185704,-0.514926,,
13,3,24.7723,27.4225,160.148,97.388,102.191,0.00553896,0.0835151,20.9513,930.582,-0.465581,0.0,0.0
26,6.25,25.1912,27.1642,161.147,97.5025,101.999,0.00541372,0.0837831,20.9508,930.632,-0.436022,0.0,0.0
39,9.5,25.5225,27.6455,165.849,97.6203,102.558,0.00546621,0.0833179,20.9518,930.602,-0.477218,0.0,0.0
52,12.75,25.6857,28.1278,161.052,97.7283,102.833,0.00543943,0.0825587,20.9527,930.592,-0.492486,0.0,0.0
65,16,25.5865,28.1594,164.508,97.8266,102.898,0.00553273,0.0819748,20.9536,930.582,-0.488836,0.0,0.0
78,19.25,25.353,28.4351,162.909,97.9362,102.673,0.00568845,0.0818988,20.9525,930.522,-0.456877,0.0,0.0
91,22.5,25.4706,28.19,164.266,98.0117,103.297,0.00569846,0.0821731,20.9511,930.522,-0.507951,0.0,0.0
104,25.75,25.8193,28.3723,163.105,98.0868,102.977,0.00548172,0.0825258,20.9499,930.512,-0.470615,0.0,0.0
117,29,26.0087,28.4771,165.108,98.1688,103.78,0.00564777,0.0837689,20.9484,930.522,-0.537665,0.0,0.0
130,32.25,26.149,28.9857,162.938,98.2443,103.221,0.00585517,0.0852534,20.9458,930.482,-0.477908,0.0,0.0
143,35.5,26.5071,28.8525,165.509,98.3097,103.664,0.00579907,0.0857609,20.9448,930.482,-0.512928,0.0,0.0
156,38.75,25.928,28.8913,158.576,98.3621,102.699,0.00583948,0.0853963,20.9449,930.492,-0.417351,0.0,0.0
169,42,26.1122,28.7921,162.099,98.4275,102.53,0.00617205,0.0845641,20.9452,930.462,-0.395007,0.0,0.0
182,45.25,26.1943,29.467,163.311,98.4701,101.885,0.00679617,0.0841735,20.9448,930.462,-0.329768,0.0,0.0
195,48.5,26.1116,29.5346,158.727,98.4802,100.482,0.00785912,0.0836972,20.9418,930.442,-0.194646,0.0,0.0
208,51.75,26.1305,29.4508,154.67,98.5148,100.383,0.00864846,0.0859111,20.9326,930.402,-0.181678,0.0,0.0
221,55,27.1321,30.8163,155.951,98.5314,103.783,0.00826897,0.106178,20.8847,930.322,-0.502273,0.0,1.0
234,58.25,28.1575,32.7898,151.23,98.5306,104.17,0.00761961,0.136849,20.8349,930.272,-0.538344,0.0,0.0
247,61.5,29.896,34.7741,149.74,98.5115,103.667,0.0071928,0.16974,20.7837,930.192,-0.493361,0.0,0.0
260,64.75,31.4519,37.5338,155.004,98.4859,101.595,0.00690544,0.199493,20.7397,930.071,-0.300656,0.0,0.0
273,68,33.2819,40.3217,148.37,98.436,96.6338,0.00727366,0.240231,20.6536,929.971,0.178725,0.0,0.0
286,71.25,35.8208,44.0489,147.322,98.393,92.586,0.00835692,0.28496,20.5745,929.811,0.588368,0.0,0.0
299,74.5,38.1076,47.7025,143.043,98.343,89.7111,0.00958747,0.325505,20.4983,929.601,0.888544,0.0,0.0
312,77.75,40.7707,51.2448,139.454,98.2748,84.7759,0.0108365,0.372647,20.4172,929.361,1.42912,0.0,0.0
325,81,43.41,56.3766,140.636,98.1936,82.6907,0.0124386,0.431759,20.2788,929.091,1.662,0.0,0.0
338,84.25,47.0813,61.6088,124.757,98.1465,81.6322,0.0139099,0.510364,20.1547,928.79,1.78196,0.0,0.0
351,87.5,52.3257,68.9341,131.566,98.0673,75.4319,0.015756,0.592024,20.0223,928.43,2.53819,0.0,0.0
364,90.75,56.5456,76.4814,124.632,97.9991,72.4413,0.0177442,0.708007,19.797,927.96,2.92273,0.0,0.0
377,94,62.8597,86.1868,115.136,97.9402,71.4746,0.0201342,0.835863,19.5393,927.459,3.04686,0.0,0.0
390,97.25,69.6358,97.873,112.616,97.9061,71.3346,0.0228828,0.990849,19.2809,926.929,3.06246,0.0,0.0
403,100.5,77.0066,109.385,115.479,97.8667,66.2706,0.0261815,1.14359,19.0221,926.478,3.77077,0.0,0.0
416,103.75,84.1108,121.223,102.692,97.8509,66.3839,0.0288684,1.31141,18.728,925.738,3.75269,0.0,0.0
429,107,91.8399,133.709,103.12,97.995,67.8227,0.0320931,1.48023,18.4917,924.997,3.55953,0.0,0.0
442,110.25,99.9605,146.808,101.23,98.1213,64.3303,0.0354818,1.63863,18.2164,924.216,4.0833,0.0,0.0
455,113.5,107.462,158.732,102.817,98.2383,62.1059,0.0397902,1.8346,17.9132,923.426,4.43519,0.0,0.0
468,116.75,116.912,173.408,108.274,98.3414,63.1526,0.0444843,2.06354,17.5154,922.415,4.2837,0.0,0.0
481,120,124.966,187.58,92.53,98.4352,62.6369,0.0503043,2.27113,17.2125,921.504,4.37221,0.0,0.0
494,123.25,132.863,201.781,87.2405,98.492,63.792,0.056361,2.49461,16.8022,920.653,4.20106,0.0,0.0
507,126.5,142.237,216.708,93.1063,98.5485,60.9147,0.0621426,2.74082,16.4201,919.562,4.653,0.0,0.0
520,129.75,151.305,231.797,78.6186,98.596,65.7854,0.0676172,3.03987,16.0108,918.411,3.91364,0.0,0.0
533,133,161.681,249.385,88.2908,98.6146,64.9089,0.0730524,3.35331,15.518,917.19,4.04522,0.0,0.0
546,136.25,171.338,267.158,99.1705,98.6329,63.2285,0.0794345,3.71003,14.949,915.989,4.3007,0.0,0.0
559,139.5,181.346,285.332,72.7604,98.652,65.1086,0.084899,4.10671,14.3781,914.658,4.01916,0.0,0.0
572,142.75,191.454,304.49,78.9521,98.6589,69.8019,0.0889033,4.53551,13.638,913.367,3.34661,0.0,0.0
585,146,205.713,331.168,65.1506,98.6621,66.9596,0.0870443,5.09511,12.7823,911.725,3.74903,0.0,0.0
598,149.25,217.141,350.908,58.3299,98.6548,76.1939,0.082483,5.59826,12.18,910.124,2.49874,0.0,0.0
611,152.5,228.536,373.94,63.7141,98.6617,69.1483,0.0822495,5.94186,11.6339,908.703,3.43789,0.0,0.0
624,155.75,238.474,389.212,79.6459,98.6459,69.3659,0.0858162,6.14403,11.4554,907.101,3.40595,0.0,0.0
637,159,242.627,392.326,74.9533,98.6459,72.0041,0.0889821,6.03432,11.7367,905.66,3.04492,0.0,0.0
650,162.25,245.848,391.065,80.4901,98.6504,62.0328,0.0891328,5.70053,12.2922,904.369,4.48707,0.0,0.0
663,165.5,243.818,380.86,93.8283,98.6467,61.6833,0.0840575,5.19457,13.1915,903.298,4.54137,0.0,0.0
676,168.75,243.127,374.041,95.5396,98.6463,61.2874,0.0768554,4.71531,13.9472,902.167,4.6036,0.0,0.0
689,172,238.843,359.308,106.927,98.6508,64.3917,0.0685775,4.1336,14.7861,901.226,4.12614,0.0,0.0
702,175.25,230.726,339.032,99.9117,98.6483,64.1696,0.0591922,3.49263,15.8656,900.346,4.15932,0.0,0.0
715,178.5,221.024,315.654,91.7461,98.6548,67.5028,0.0483574,2.80854,16.8958,899.665,3.67016,0.0,0.0
728,181.75,207.394,288.267,118.184,98.6548,69.5555,0.0363588,2.13988,18.0057,899.425,3.38042,0.0,0.0
741,185,190.303,255.719,131.018,98.6504,89.7704,0.0245228,1.46718,19.2177,899.375,0.912338,0.0,0.0
754,188.25,171.525,222.75,138.988,98.6073,97.8635,0.0164212,0.908684,20.086,899.375,0.0732353,0.0,0.0
767,191.5,155.332,195.452,139.852,98.5566,98.0726,0.0114813,0.558845,20.5147,899.395,0.0476124,0.0,0.0
780,194.75,142.797,173.917,139.336,98.4945,97.8806,0.0091233,0.369519,20.7225,899.405,0.0604725,0.0,0.0
793,198,133.818,157.234,140.264,98.3954,97.5399,0.00785272,0.265524,20.8147,899.355,0.0844579,0.0,0.0
806,201.25,125.02,143.702,142.932,98.2711,97.8416,0.0072304,0.207311,20.8619,899.355,0.0423699,0.0,0.0
819,204.5,118.169,132.315,142.425,98.1148,97.6431,0.00683156,0.173454,20.8877,899.345,0.0466188,0.0,0.0
832,207.75,112.315,122.748,144.009,97.9601,97.4202,0.00640309,0.15003,20.9067,899.395,0.0534609,0.0,0.0
845,211,107.634,114.253,141.197,97.8586,97.1039,0.00624955,0.134214,20.9178,899.445,0.0748841,0.0,0.0
858,214.25,103.405,107.885,145.348,97.8944,97.3455,0.00619625,0.123285,20.9263,899.415,0.0543839,0.0,0.0
871,217.5,99.5502,102.523,146.105,97.948,98.0556,0.00594652,0.114503,20.9344,899.445,-0.0106198,0.0,0.0
884,220.75,95.9591,97.1081,146.756,98.0243,97.49,0.00589766,0.108032,20.9393,899.375,0.0528612,0.0,0.0
897,224,93.1234,93.2486,143.276,98.0803,97.8205,0.00577858,0.103475,20.9424,899.345,0.025656,0.0,0.0
910,227.25,90.932,89.477,139.696,98.155,98.0734,0.00585661,0.100181,20.9425,899.415,0.00804463,0.0,0.0
923,230.5,89.0597,87.2383,145.122,98.2411,98.2959,0.0060593,0.0973654,20.9435,899.435,-0.00539411,0.0,0.0
936,233.75,86.0298,82.7382,142.165,98.3191,97.6284,0.00603402,0.0951886,20.9465,899.395,0.0681785,0.0,0.0
949,237,84.7319,82.1494,145.988,98.3783,99.3722,0.00574992,0.0935736,20.9479,899.425,-0.0972218,0.0,0.0
962,240.25,83.5714,79.6969,146.229,98.4587,98.3207,0.00572223,0.0922617,20.9499,899.415,0.0135717,0.0,0.0
975,243.5,82.1285,77.8855,147.158,98.5022,99.6523,0.00576145,0.0912882,20.9519,899.395,-0.112282,0.0,0.0
988,246.75,80.4468,76.4012,150.647,98.5274,99.2342,0.00576307,0.0906368,20.9521,899.385,-0.0691374,0.0,0.0
1001,250,79.1451,74.9212,147.687,98.5217,99.6755,0.00580644,0.0899061,20.9471,899.365,-0.112614,0.0,0.0
1014,253.25,78.0122,72.9411,144.507,98.5018,100.18,0.00573389,0.0890268,20.9466,899.355,-0.163374,0.0,0.0
1027,256.5,76.3861,71.8857,143.794,98.4465,99.5163,0.00584408,0.0881789,20.9488,899.385,-0.104536,0.0,0.0
1040,259.75,75.8163,70.6927,146.766,98.3503,99.9446,0.00585767,0.0870611,20.9521,899.385,-0.155534,0.0,0.0
1053,263,74.8574,69.9317,151.44,98.2545,99.7607,0.00576865,0.0857249,20.9557,899.385,-0.147148,0.0,0.0
1066,266.25,73.0671,68.606,145.392,98.0953,99.2484,0.00577278,0.0843536,20.9588,899.395,-0.113024,0.0,0.0
1079,269.5,72.5257,67.7094,149.203,97.9207,100.229,0.00561142,0.0830815,20.9604,899.405,-0.225338,0.0,0.0
1092,272.75,71.0392,66.1036,150.381,97.7527,99.6182,0.00565153,0.082356,20.9583,899.385,-0.182849,0.0,0.0
1105,276,70.4385,65.8779,147.71,97.5306,99.2094,0.0056664,0.0819499,20.9582,899.395,-0.165073,0.0,0.0
1118,279.25,69.9371,64.952,148.551,97.3044,100.219,0.00566884,0.0813961,20.96,899.405,-0.285468,0.0,0.0
1131,282.5,69.1677,64.5402,144.615,97.0884,100.147,0.00576012,0.0811718,20.9605,899.395,-0.300024,0.0,0.0
1144,285.75,68.0768,63.3985,145.704,96.9175,100.507,0.00572775,0.081237,20.9606,899.365,-0.351708,0.0,0.0
1157,289,67.1458,62.5415,151.153,96.7153,100.128,0.00594135,0.0815828,20.9596,899.385,-0.335387,0.0,0.0
1170,292.25,66.5827,61.8926,148.228,96.5496,100.358,0.00598459,0.0817042,20.9581,899.395,-0.37414,0.0,0.0
1183,295.5,65.6188,61.9248,150.073,96.4473,99.7782,0.00570781,0.0812081,20.9584,899.405,-0.328397,0.0,0.0
1196,298.75,64.1849,59.8597,149.52,96.3742,99.6142,,0.0808078,,899.415,-0.319817,0.0,0.0
1209,302,64.6886,59.9065,151.837,96.3693,100.757,,,,899.385,-0.430642,0.0,0.0
1222,305.25,63.5028,59.5523,155.27,96.3762,100.117,,,,899.415,-0.368292,0.0,0.0
1233,308,62.7204,59.3952,148.538,96.4241,100.025,,,,899.385,-0.354617,0.0,0.0