File: 01_Data/HDPE/Cone/HDPE_Cone_HF50Scalar_220131_R4.csv
LABORATORY,FSRI
TEST IDENT,HDPE_HF50_4
OPERATOR,Dow
MATERIAL,HDPE
ORIENTATION,Horizontal
HEAT FLUX,50
SURF AREA,0.01
C FACTOR,0.0415673
SPEC HOLDER DIFF,333.05
SPECIMEN MASS,30.9
SCAN TIME,0.25
O2 DELAY TIME,11
CO DELAY TIME,11
CO2 DELAY TIME,8
FLOW FACTOR,1
SCAN COUNT,1233
TIME TO IGN,52.5
END OF TEST SCAN,753
END OF TEST TIME,188.25
TEST STATUS,1
PRE TEST CMT,Dimensions: 100.19 x 100.11 x 3.06