File: 01_Data/HDPE/Cone/HDPE_Cone_HF25Scalar_220131_R3.csv
LABORATORY,FSRI
TEST IDENT,HDPE_HF25_3
OPERATOR,Dow
MATERIAL,HDPE
ORIENTATION,Horizontal
HEAT FLUX,25
SURF AREA,0.01
C FACTOR,0.0415673
SPEC HOLDER DIFF,-536
SPECIMEN MASS,30.8
SCAN TIME,0.25
O2 DELAY TIME,11
CO DELAY TIME,11
CO2 DELAY TIME,8
FLOW FACTOR,1
SCAN COUNT,2139
TIME TO IGN,186.5
END OF TEST SCAN,1659
END OF TEST TIME,414.75
TEST STATUS,1
PRE TEST CMT,Dimensions: 99.92 x 99.97 x 3.07 mm