File: 01_Data/HDPE/Cone/HDPE_Cone_HF25Scalar_220131_R2.csv
LABORATORY,FSRI
TEST IDENT,HDPE_HF25_2
OPERATOR,Dow
MATERIAL,HDPE
ORIENTATION,Horizontal
HEAT FLUX,25
SURF AREA,0.01
C FACTOR,0.0415673
SPEC HOLDER DIFF,-55.23
SPECIMEN MASS,30.8
SCAN TIME,0.25
O2 DELAY TIME,11
CO DELAY TIME,11
CO2 DELAY TIME,8
FLOW FACTOR,1
SCAN COUNT,1781
TIME TO IGN,191.75
END OF TEST SCAN,1301
END OF TEST TIME,325.25
TEST STATUS,1
PRE TEST CMT,Dimensions: 99.95 x 100.8 x 3.01
POST TEST CMT,"Significant dripping of sample, see test picture"