File: 01_Data/HDPE/Cone/HDPE_Cone_HF75Scalar_220201_R3.csv
LABORATORY,FSRI
TEST IDENT,HDPE_HF75_3
OPERATOR,Dow
MATERIAL,HDPE
ORIENTATION,Horizontal
HEAT FLUX,75
SURF AREA,0.01
C FACTOR,0.0415673
SPEC HOLDER DIFF,333.65
SPECIMEN MASS,30.9
SCAN TIME,0.25
O2 DELAY TIME,11
CO DELAY TIME,11
CO2 DELAY TIME,8
FLOW FACTOR,1
SCAN COUNT,1000
TIME TO IGN,28.5
END OF TEST SCAN,520
END OF TEST TIME,130
TEST STATUS,1
PRE TEST CMT,Dimensions: 100.11 x 100.05 x 3.03 mm