File: 01_Data/HDPE/Cone/HDPE_Cone_HF25Scan_220218_R4.csv
Names,Time,Stack TC,Smoke TC,Exh Press,Smoke Comp,Smoke Meas,CO Meter,CO2 Meter,O2 Meter,Sample Mass,Ext Coeff,Start Test,Flame Verif
Chan Gain,,500,500,1,1,1,1,1,1,1,1,1.0,1.0
Offset,,0,0,0.132436,0,0,0,0,0,0,0,0.0,0.0
Gain,,1,1,25.011,15.4219,15.1528,1,1,1,1.00089,1.02113,1.0,1.0
Units,sec,C,C,Pa,%,%,%,%,%,g,/m,,
Baseline,,25.2919,24.0949,164.58,115.676,112.515,-0.00880648,0.0568296,20.9836,-478.314,0.248077,,
21,5,21.262,20.5088,166.011,115.817,113.125,-0.00864463,0.0631542,20.9783,426.438,0.210675,0.0,0.0
42,10.25,21.4091,20.2243,167.888,115.813,113.545,-0.00896171,0.0610207,20.9816,426.378,0.177161,0.0,0.0
63,15.5,21.6582,20.9523,161.811,115.779,113.027,-0.00899291,0.0613601,20.9805,426.398,0.215491,0.0,0.0
84,20.75,21.3249,21.0113,165.753,115.73,113.094,-0.00873241,0.0662059,20.9651,426.358,0.206391,0.0,0.0
105,26,21.9465,21.5694,164.652,115.689,113.127,-0.00877295,0.0726865,20.9551,426.388,0.200586,0.0,0.0
126,31.25,21.6917,21.0737,166.571,115.628,113.349,-0.00898562,0.0722851,20.961,426.368,0.178325,0.0,0.0
147,36.5,21.6208,20.9315,168.166,115.582,112.936,-0.00879835,0.070658,20.964,426.368,0.207444,0.0,0.0
168,41.75,21.3764,20.5841,168.473,115.566,112.981,-0.00855613,0.0687911,20.9675,426.358,0.202611,0.0,0.0
189,47,21.6476,20.9765,163.292,115.537,113.286,-0.00884015,0.0663695,20.9727,429.09,0.176294,0.0,0.0
210,52.25,21.5975,20.9476,164.485,115.523,112.522,-0.00907218,0.0656491,20.972,434.315,0.23577,0.0,0.0
231,57.5,21.63,21.3785,165.298,115.515,113.36,-0.00876101,0.0662112,20.9698,448.968,0.168622,0.0,0.0
252,62.75,21.4376,21.1952,166.976,115.513,113.069,-0.00863336,0.0671273,20.9692,459.457,0.191562,0.0,0.0
273,68,21.166,20.9553,167.229,115.481,113.099,-0.00855117,0.0681581,20.9678,457.255,0.186735,0.0,0.0
294,73.25,21.6206,20.8224,163.803,115.498,112.786,-0.008541,0.0682899,20.9695,445.785,0.212841,0.0,0.0
315,78.5,21.9141,21.4325,165.866,115.517,113.076,-0.00854057,0.0638417,20.9784,433.664,0.19134,0.0,0.0
336,83.75,21.4863,21.3681,163.897,115.59,113.354,-0.00865786,0.0612711,20.9798,425.217,0.175006,0.0,0.0
357,89,22.2924,21.2309,162.011,115.633,113.831,-0.00849734,0.0625332,20.9745,412.185,0.14073,0.0,0.0
378,94.25,22.1339,21.6296,160.433,115.653,112.964,-0.0081906,0.0660285,20.9683,418.561,0.210713,0.0,0.0
399,99.5,21.6865,21.3957,165.832,115.597,113.457,-0.00858035,0.0696773,20.9645,420.663,0.167372,0.0,0.0
420,104.75,21.9593,21.6171,166.355,115.511,112.964,-0.00870539,0.0703728,20.9629,420.162,0.199735,0.0,0.0
441,110,22.2874,21.6484,162.676,115.503,113.017,-0.00836757,0.0720439,20.9611,424.246,0.194899,0.0,0.0
462,115.25,21.9283,21.7027,165.597,115.506,113.152,-0.00813071,0.0748532,20.9567,426.298,0.184422,0.0,0.0
483,120.5,22.0064,21.2888,167.591,115.532,112.348,-0.00775326,0.0785408,20.9493,426.258,0.250314,0.0,0.0
504,125.75,22.1176,21.9465,163.876,115.554,112.254,-0.00767926,0.0821075,20.9443,426.258,0.259518,0.0,0.0
525,131,22.4539,22.3918,167.855,115.57,112.973,-0.00778022,0.085702,20.9351,426.207,0.203525,0.0,0.0
546,136.25,22.8564,22.4115,163.396,115.602,111.936,-0.00797046,0.0947859,20.9174,426.167,0.288624,0.0,0.0
567,141.5,22.7968,23.3413,163.648,115.646,112.111,-0.00782883,0.107698,20.8905,426.097,0.278073,0.0,1.0
588,146.75,24.3175,24.3311,160.705,115.679,111.553,-0.00765152,0.123651,20.8606,426.057,0.325366,0.0,0.0
609,152,24.9484,25.439,157.882,115.713,111.16,-0.00793055,0.140805,20.8286,425.887,0.359571,0.0,1.0
630,157.25,25.5908,26.7427,153.909,115.766,109.643,-0.00764738,0.161179,20.7958,425.877,0.486823,0.0,0.0
651,162.5,27.0056,27.8759,154.554,115.801,109.478,-0.00777544,0.189796,20.7407,425.737,0.502902,0.0,0.0
672,167.75,28.7197,29.5136,152.723,115.833,107.892,-0.00729561,0.218903,20.6925,425.567,0.636136,0.0,0.0
693,173,30.0187,31.9082,148.96,115.844,106.928,-0.00701834,0.245168,20.6426,425.407,0.717378,0.0,0.0
714,178.25,31.7962,34.1809,147.466,115.809,104.316,-0.00661648,0.275532,20.5942,425.167,0.936188,0.0,0.0
735,183.5,34.3004,36.6078,148.37,115.805,101.408,-0.00564392,0.314258,20.5154,424.956,1.18909,0.0,0.0
756,188.75,36.323,39.3327,141.914,115.763,100.554,-0.00479333,0.354578,20.4415,424.706,1.26164,0.0,0.0
777,194,38.7312,42.8445,143.477,115.688,96.271,-0.00377076,0.401164,20.3466,424.366,1.64571,0.0,0.0
798,199.25,42.2787,46.4308,135.628,115.583,98.0018,-0.00249711,0.468524,20.2115,424.016,1.47796,0.0,0.0
819,204.5,46.627,51.1455,128.176,115.425,98.7612,-0.00193663,0.548596,20.0869,423.575,1.39657,0.0,0.0
840,209.75,50.8882,56.9456,127.063,115.226,96.7588,-0.00178492,0.626733,19.9576,423.145,1.56457,0.0,0.0
861,215,55.2726,62.9579,125.099,114.986,96.3847,-0.00145122,0.684451,19.8614,422.664,1.58059,0.0,0.0
882,220.25,60.4917,68.6643,123.455,114.76,93.5949,-0.000633366,0.751438,19.7482,422.144,1.82607,0.0,0.0
903,225.5,66.0783,74.8139,124.136,114.556,90.4874,0.000469312,0.82305,19.64,421.573,2.11256,0.0,0.0
924,230.75,71.2263,80.8238,122.421,114.404,92.3431,0.00112381,0.885864,19.5441,421.053,1.91883,0.0,0.0
945,236,76.2224,87.3755,114.176,114.289,89.0349,0.00178594,0.939095,19.4546,420.382,2.23661,0.0,0.0
966,241.25,80.6693,93.3389,112.87,114.203,89.2365,0.0023869,1.00538,19.3518,419.812,2.20968,0.0,0.0
987,246.5,85.2705,99.7891,110.706,114.163,90.4106,0.00386115,1.07895,19.2259,419.091,2.08945,0.0,0.0
1008,251.75,91.0099,106.387,104.98,114.196,86.5961,0.00467814,1.14398,19.134,418.381,2.47812,0.0,0.0
1029,257,96.1194,111.941,107.514,114.27,85.5214,0.00544643,1.21463,19.0109,417.69,2.59578,0.0,0.0
1050,262.25,101.636,118.75,108.855,114.383,84.8555,0.00621356,1.28028,18.8913,416.929,2.67464,0.0,0.0
1071,267.5,106.969,126.214,100.951,114.554,88.2076,0.00745127,1.35682,18.792,416.119,2.34097,0.0,0.0
1092,272.75,112.601,133.041,114.666,114.741,87.2037,0.00861997,1.42833,18.6933,415.288,2.4581,0.0,0.0
1113,278,117.646,140.083,104.946,114.925,88.2872,0.00940823,1.49166,18.5892,414.467,2.36193,0.0,0.0
1134,283.25,123.66,146.628,103.575,115.103,86.3255,0.0104674,1.56611,18.4718,413.556,2.57701,0.0,0.0
1155,288.5,128.466,152.952,97.1225,115.297,85.6412,0.011378,1.63391,18.3659,412.796,2.66338,0.0,0.0
1176,293.75,133.974,160.593,104.1,115.456,84.6821,0.0123432,1.72822,18.2199,411.815,2.77661,0.0,0.0
1197,299,139.935,167.231,97.7842,115.559,84.7371,0.0139163,1.80368,18.1124,410.864,2.77878,0.0,0.0
1218,304.25,144.843,174.709,88.328,115.705,84.5119,0.0157732,1.90062,17.9434,409.863,2.81395,0.0,0.0
1239,309.5,151.027,182.404,95.2326,115.83,84.8809,0.0181932,2.01812,17.7421,408.822,2.78458,0.0,0.0
1260,314.75,156.773,190.65,86.0244,115.94,83.4696,0.0189645,2.11359,17.6265,407.811,2.94327,0.0,0.0
1281,320,163.136,197.62,91.5864,116.066,85.1496,0.0192132,2.16333,17.5894,406.82,2.77449,0.0,0.0
1302,325.25,167.07,204.236,90.4125,116.186,85.6416,0.0189237,2.19605,17.553,405.709,2.73217,0.0,0.0
1323,330.5,171.586,209.786,92.6481,116.271,83.7568,0.0186882,2.23989,17.5008,404.698,2.93804,0.0,0.0
1344,335.75,175.212,214.414,94.3937,116.336,83.2111,0.0187152,2.25706,17.4818,403.617,3.00159,0.0,0.0
1365,341,178.883,218.939,88.2639,116.391,84.2793,0.0194473,2.2962,17.4218,402.597,2.89157,0.0,0.0
1386,346.25,182.379,222.446,94.1518,116.431,82.5221,0.0201481,2.29222,17.4571,401.536,3.08338,0.0,0.0
1407,351.5,184.764,226.022,89.2531,116.469,84.0795,0.0201225,2.28103,17.4782,400.445,2.91884,0.0,0.0
1428,356.75,186.834,229.207,103.259,116.499,84.7343,0.019402,2.23937,17.5859,399.434,2.85166,0.0,0.0
1449,362,187.693,229.089,104.699,116.521,84.147,0.0165827,2.09993,17.8661,398.543,2.91566,0.0,0.0
1470,367.25,186.654,227.024,96.4172,116.546,85.3655,0.0140179,1.92822,18.1869,397.672,2.78877,0.0,0.0
1491,372.5,184.075,222.499,99.0932,116.58,86.5114,0.0114025,1.738,18.5168,396.882,2.67197,0.0,0.0
1512,377.75,179.818,215.466,108.659,116.587,88.074,0.00785375,1.49846,18.923,396.261,2.51217,0.0,0.0
1533,383,172.902,206.024,117.203,116.611,88.4638,0.00518504,1.2388,19.379,395.72,2.47446,0.0,0.0
1554,388.25,163.555,193.809,134.897,116.627,88.1877,0.00239499,0.939643,19.8994,395.35,2.50369,0.0,0.0
1575,393.5,151.723,177.473,154.208,116.636,107.775,-0.00254077,0.596687,20.5571,395.33,0.707728,0.0,0.0
1596,398.75,138.371,160.096,152.939,116.632,108.524,-0.00557292,0.349703,20.8719,395.36,0.645321,0.0,0.0
1617,404,127.383,146.062,158.274,116.631,107.856,-0.00700124,0.23995,20.9479,395.34,0.700646,0.0,0.0
1638,409.25,117.89,133.354,153.329,116.627,109.006,-0.00764101,0.184089,20.9649,395.37,0.605278,0.0,0.0
1659,414.5,108.03,121.899,156.408,116.631,108.297,-0.00778452,0.151017,20.971,395.33,0.664083,0.0,0.0
1680,419.75,101.141,112.596,157.745,116.613,108.388,-0.00794147,0.127862,20.9769,395.38,0.65518,0.0,0.0
1701,425,94.163,102.862,157.977,116.633,109.491,-0.00822373,0.110492,20.9811,395.41,0.565976,0.0,0.0
1722,430.25,87.9641,95.6811,157.784,116.596,108.978,-0.00850596,0.0977122,20.9863,395.35,0.605284,0.0,0.0
1743,435.5,83.1312,89.4626,155.471,116.605,109.736,-0.00838627,0.0882112,20.9881,395.36,0.543779,0.0,0.0
1764,440.75,78.3945,83.538,158.409,116.602,110.391,-0.00859302,0.0809989,20.9878,395.4,0.490308,0.0,0.0
1785,446,74.1232,78.0315,161.553,116.58,110.825,-0.00868018,0.0755715,20.988,395.38,0.453447,0.0,0.0
1806,451.25,70.6306,72.8888,155.853,116.577,110.274,-0.00862965,0.0715548,20.9886,395.39,0.497855,0.0,0.0
1827,456.5,66.6365,69.0716,159.672,116.579,110.025,-0.00868717,0.0684973,20.9868,395.4,0.518306,0.0,0.0
1848,461.75,63.3851,65.0612,159.194,116.553,109.242,-0.00874489,0.0655977,20.9869,395.38,0.580279,0.0,0.0
1869,467,61.3823,61.7187,159.87,116.535,110.029,-0.00878857,0.06352,20.9881,395.38,0.514603,0.0,0.0
1890,472.25,58.664,59.0051,154.138,116.523,110.219,-0.00880662,0.0618818,20.9867,395.4,0.498203,0.0,0.0
1911,477.5,56.2025,56.0995,158.282,116.498,111.114,-0.00860894,0.0607919,20.9861,395.37,0.423897,0.0,0.0
1932,482.75,55.2873,53.3556,157.48,116.472,110.898,-0.0084977,0.0598211,20.9861,395.39,0.439222,0.0,0.0
1953,488,53.1831,51.444,158.043,116.424,111.479,-0.00854499,0.0590414,20.9861,395.38,0.388776,0.0,0.0
1974,493.25,51.7836,49.823,158.764,116.36,111.257,-0.00897999,0.0586457,20.9844,395.36,0.40174,0.0,0.0
1995,498.5,49.5283,47.0852,159.987,116.325,111.63,-0.00878182,0.0585437,20.9819,395.39,0.369065,0.0,0.0
2016,503.75,48.4725,46.4588,157.307,116.266,110.869,,0.0583507,,395.37,0.425708,0.0,0.0
2037,509,47.4695,44.6941,157.043,116.202,109.875,,,,395.38,0.501498,0.0,0.0
2051,512.5,46.1893,43.8741,154.773,116.183,111.412,,,,395.38,0.375608,0.0,0.0