File: 01_Data/HDPE/Cone/HDPE_Cone_HF50Scalar_220131_R3.csv
LABORATORY,FSRI
TEST IDENT,HDPE_HF50_3
OPERATOR,Dow
MATERIAL,HDPE
ORIENTATION,Horizontal
HEAT FLUX,50
SURF AREA,0.01
C FACTOR,0.0415673
SPEC HOLDER DIFF,333.15
SPECIMEN MASS,30.9
SCAN TIME,0.25
O2 DELAY TIME,11
CO DELAY TIME,11
CO2 DELAY TIME,8
FLOW FACTOR,1
SCAN COUNT,1280
TIME TO IGN,52.75
END OF TEST SCAN,800
END OF TEST TIME,200
TEST STATUS,1
PRE TEST CMT,Dimensions: 100.22 x 99.87 x 3.06 mm
POST TEST CMT,Manually adjusted foil pan prior to ignition which caused spikes in mass time history data.