File: 01_Data/HDPE/Cone/HDPE_Cone_HF50Scan_220218_R4.csv
Names,Time,Stack TC,Smoke TC,Exh Press,Smoke Comp,Smoke Meas,CO Meter,CO2 Meter,O2 Meter,Sample Mass,Ext Coeff,Start Test,Flame Verif
Chan Gain,,500,500,1,1,1,1,1,1,1,1,1.0,1.0
Offset,,0,0,0.132436,0,0,0,0,0,0,0,0.0,0.0
Gain,,1,1,25.011,15.4219,15.1528,1,1,1,1.00089,1.02113,1.0,1.0
Units,sec,C,C,Pa,%,%,%,%,%,g,/m,,
Baseline,,44.819,45.1263,151.471,116.367,112.32,-0.00848979,0.055027,20.98,-479.407,0.317176,,
14,3.25,41.9774,42.6034,152.223,116.271,112.277,-0.00833757,0.0610144,20.9716,425.016,0.313136,0.0,0.0
28,6.75,41.7704,41.9355,151.249,116.187,112.824,-0.00822766,0.0607838,20.9717,424.976,0.263106,0.0,0.0
42,10.25,41.9753,42.7455,153.161,116.151,111.396,-0.00844945,0.0604323,20.9705,424.996,0.374404,0.0,0.0
56,13.75,41.2786,42.5651,156.157,116.104,112.234,-0.0086068,0.0597986,20.9706,424.996,0.30365,0.0,0.0
70,17.25,41.8801,42.234,152.79,116.065,113.084,-0.00860182,0.0594356,20.9703,424.976,0.233058,0.0,0.0
84,20.75,42.0257,42.17,150.635,115.988,112.683,-0.00867383,0.0590584,20.9706,424.986,0.258913,0.0,0.0
98,24.25,41.9044,42.1007,150.884,115.953,112.108,-0.00867223,0.0587522,20.9721,424.956,0.302067,0.0,0.0
112,27.75,41.8107,42.4235,150.975,115.9,112.521,-0.0084314,0.05863,20.9724,424.986,0.264989,0.0,0.0
126,31.25,41.9318,42.1103,153.586,115.787,112.382,-0.00830926,0.0587103,20.9728,424.946,0.267379,0.0,0.0
140,34.75,42.0329,42.7169,153.67,115.695,112.519,-0.00826938,0.0593391,20.9716,424.966,0.249373,0.0,0.0
154,38.25,41.8962,42.5149,150.618,115.595,112.496,-0.00852738,0.0599166,20.9708,424.986,0.243413,0.0,0.0
168,41.75,42.004,42.7891,150.18,115.619,112.149,-0.0085632,0.0596911,20.9697,424.956,0.272967,0.0,0.0
182,45.25,41.8344,42.3474,153.499,115.614,111.339,-0.00807031,0.0594355,20.9677,424.996,0.337473,0.0,0.0
196,48.75,42.1648,42.8249,150.363,115.672,110.002,-0.00703057,0.0591875,20.9647,424.916,0.450157,0.0,0.0
210,52.25,42.2354,43.0679,152.278,115.654,108.77,-0.00552299,0.0590247,20.9616,424.936,0.549687,0.0,0.0
224,55.75,42.0655,42.7495,153.627,115.681,108.211,-0.00369736,0.0593528,20.9568,424.916,0.597961,0.0,0.0
238,59.25,42.2474,42.7247,147.85,115.707,110.688,-0.00351681,0.0677634,20.9284,424.776,0.39726,0.0,1.0
252,62.75,42.4377,43.9624,143.401,115.742,111.087,-0.00543576,0.105932,20.8506,424.716,0.367719,0.0,1.0
266,66.25,43.5736,44.3411,139.445,115.762,109.032,-0.00660764,0.151225,20.7773,424.656,0.536502,0.0,0.0
280,69.75,44.628,46.5969,138.674,115.79,105.138,-0.0066445,0.202442,20.6809,424.516,0.864373,0.0,0.0
294,73.25,46.8047,48.3843,137.867,115.824,101.305,-0.00612213,0.255381,20.5776,424.406,1.19973,0.0,0.0
308,76.75,48.6768,51.2185,134.845,115.851,97.0696,-0.00515222,0.319538,20.4731,424.206,1.58434,0.0,0.0
322,80.25,50.5822,53.8832,131.933,115.887,94.1221,-0.00380777,0.388417,20.3378,423.915,1.86335,0.0,0.0
336,83.75,53.9969,57.7651,126.818,115.886,88.1725,-0.00237055,0.463324,20.2008,423.625,2.44812,0.0,0.0
350,87.25,57.2675,62.1499,123.468,115.914,88.5447,-0.000810342,0.531901,20.0822,423.295,2.41257,0.0,0.0
364,90.75,60.4939,65.8096,126.619,115.928,90.2377,0.000811431,0.618883,19.929,422.955,2.24398,0.0,0.0
378,94.25,64.4003,70.6554,114.492,115.966,86.0768,0.00220717,0.708906,19.752,422.664,2.66974,0.0,0.0
392,97.75,68.6742,76.3528,110.425,115.993,84.148,0.00319929,0.816205,19.5703,422.174,2.87488,0.0,0.0
406,101.25,73.6937,82.6365,112.284,116.013,84.3616,0.00443366,0.924509,19.4078,421.653,2.85369,0.0,0.0
420,104.75,78.3088,89.1626,106.404,116.04,76.3764,0.0066989,1.04996,19.1624,421.213,3.7465,0.0,0.0
434,108.25,83.8601,96.0225,108.528,116.028,78.4643,0.00915624,1.20824,18.8604,420.673,3.50394,0.0,0.0
448,111.75,90.9515,104.84,96.0943,116.047,76.5725,0.0121693,1.43476,18.486,420.032,3.72404,0.0,0.0
462,115.25,98.1163,114.83,96.8622,116.003,78.5632,0.0154959,1.65489,18.1037,419.211,3.49073,0.0,0.0
476,118.75,107.249,126.546,93.3183,115.995,75.9214,0.0183421,1.8679,17.8283,418.461,3.7965,0.0,0.0
490,122.25,114.469,136.214,92.6832,115.95,74.6035,0.0218329,2.04315,17.5511,417.8,3.94986,0.0,0.0
504,125.75,123.591,148.558,85.6443,115.903,72.8916,0.0254222,2.33714,17.0725,416.959,4.15423,0.0,0.0
518,129.25,131.824,160.411,80.5472,115.857,73.8627,0.0296628,2.65679,16.5582,415.918,4.03208,0.0,0.0
532,132.75,142.127,174.819,99.7909,115.798,72.6576,0.0343667,3.02323,15.9744,414.968,4.17488,0.0,0.0
546,136.25,152.228,189.75,66.3106,115.76,72.0342,0.0401761,3.36529,15.4769,413.827,4.24911,0.0,0.0
560,139.75,162.995,205.577,74.1837,115.691,75.4307,0.0445096,3.75171,14.9069,412.796,3.83106,0.0,0.0
574,143.25,174.262,222.095,68.3966,115.636,73.3082,0.0467534,4.2072,14.1652,411.574,4.08246,0.0,0.0
588,146.75,185.168,238.866,68.995,115.552,76.2613,0.0494651,4.60496,13.6901,410.053,3.72222,0.0,0.0
602,150.25,195.192,254.682,65.7137,115.496,72.6955,0.0529421,5.09966,12.9633,408.762,4.14684,0.0,0.0
616,153.75,207.593,273.681,70.0361,115.428,72.9424,0.0550067,5.55685,12.2798,407.431,4.11117,0.0,0.0
630,157.25,218.713,291.156,42.7483,115.389,84.5198,0.0548197,6.17556,11.3006,405.799,2.78857,0.0,0.0
644,160.75,231.463,312.22,60.3036,115.338,78.4088,0.0548287,6.83423,10.4905,404.218,3.45686,0.0,0.0
658,164.25,242.558,330.11,65.1618,115.286,75.9584,0.0547729,7.06852,10.2735,402.847,3.73727,0.0,0.0
672,167.75,252.579,346.023,47.9988,115.253,83.3877,0.053637,7.26749,10.0616,401.245,2.89878,0.0,0.0
686,171.25,262.177,361.53,63.5765,115.205,82.3662,0.0552945,7.37121,10.0541,399.764,3.00553,0.0,0.0
700,174.75,269.792,373.076,69.0538,115.19,76.1494,0.0595589,7.24254,10.281,398.323,3.70728,0.0,0.0
714,178.25,275.369,380.879,55.6438,115.139,74.9517,0.0623341,7.03892,10.657,396.831,3.84529,0.0,0.0
728,181.75,279.696,386.86,55.9064,115.121,76.8726,0.0627617,6.61648,11.3727,395.51,3.61722,0.0,0.0
742,185.25,281.575,387.809,63.9009,115.089,68.5942,0.059779,5.98826,12.4555,394.339,4.63533,0.0,0.0
756,188.75,280.787,383.189,84.0926,115.096,66.5813,0.0481602,4.9544,14.1704,393.509,4.90267,0.0,0.0
770,192.25,273.965,370.578,97.2957,115.085,75.6916,0.0324356,3.78702,15.9628,393.018,3.75309,0.0,0.0
784,195.75,263.419,352.186,124.359,115.095,88.8171,0.0163338,2.52231,18.0933,392.818,2.32152,0.0,0.0
798,199.25,248.049,328.603,132.773,115.099,107.302,0.00437193,1.47888,19.7235,392.868,0.628304,0.0,0.0
812,202.75,231.037,303.866,136.436,115.139,107.096,-0.00163911,0.858235,20.4541,392.878,0.648609,0.0,0.0
826,206.25,217.313,283.325,136.336,115.141,107.241,-0.0046562,0.554664,20.7437,392.898,0.636622,0.0,0.0
840,209.75,204.17,263.938,141.053,115.158,107.235,-0.00619186,0.397561,20.8507,392.908,0.638478,0.0,0.0
854,213.25,193.065,246.477,144.362,115.198,107.16,-0.0066833,0.307097,20.8976,392.898,0.647924,0.0,0.0
868,216.75,183.314,232.341,135.357,115.228,107.488,-0.00689294,0.249381,20.9163,392.878,0.62283,0.0,0.0
882,220.25,173.568,217.645,135.236,115.261,107.201,-0.00722866,0.20921,20.9318,392.888,0.649348,0.0,0.0
896,223.75,165.87,206.23,139.482,115.274,106.926,-0.00767132,0.180688,20.9428,392.878,0.673358,0.0,0.0
910,227.25,158.293,194.605,142.75,115.311,107.08,-0.0077847,0.158473,20.9521,392.918,0.663393,0.0,0.0
924,230.75,150.965,184.199,141.642,115.314,107.096,-0.00770861,0.141116,20.9594,392.878,0.662258,0.0,0.0
938,234.25,145.08,174.436,139.203,115.346,107.024,-0.00806729,0.126866,20.9673,392.898,0.670739,0.0,0.0
952,237.75,139.211,165.764,140.905,115.359,106.908,-0.00818744,0.114558,20.9696,392.918,0.681522,0.0,0.0
966,241.25,134.117,158.094,135.207,115.392,107.156,-0.00815763,0.105443,20.9699,392.918,0.663261,0.0,0.0
980,244.75,129.68,150.921,139.599,115.406,106.887,-0.00825558,0.096871,20.9733,392.928,0.686807,0.0,0.0
994,248.25,124.536,143.985,140.596,115.443,107.17,-0.00824594,0.0895505,20.9764,392.928,0.666046,0.0,0.0
1008,251.75,121.131,138.465,141.391,115.455,106.871,-0.00819214,0.084124,20.9791,392.918,0.692074,0.0,0.0
1022,255.25,117.111,133.449,144.845,115.48,106.664,-0.00846563,0.079405,20.9813,392.898,0.711352,0.0,0.0
1036,258.75,113.568,128.051,141.487,115.529,107.336,-0.00872179,0.0759356,20.9833,392.888,0.658824,0.0,0.0
1050,262.25,110.265,122.911,141.881,115.516,106.769,-0.00864512,0.0728489,20.9795,392.898,0.705314,0.0,0.0
1064,265.75,107.298,118.692,141.157,115.55,106.615,-0.00859994,0.0703573,20.979,392.878,0.720793,0.0,0.0
1078,269.25,104.591,114.595,142.035,115.578,106.971,-0.00868479,0.0684482,20.9802,392.908,0.693156,0.0,0.0
1092,272.75,101.581,110.744,146.141,115.608,107.272,-0.00861448,0.0664959,20.9806,392.908,0.670354,0.0,0.0
1106,276.25,99.2552,107.692,142.818,115.61,107.01,-0.00852273,0.0647518,20.9821,392.888,0.692419,0.0,0.0
1120,279.75,97.2696,104.472,145.704,115.649,107.329,-0.00852675,0.0635203,20.9828,392.928,0.668778,0.0,0.0
1134,283.25,94.3474,100.402,145.132,115.679,107.14,-0.00843452,0.062412,20.9824,392.898,0.686871,0.0,0.0
1148,286.75,92.7562,98.6924,143.867,115.701,107.643,-0.00846354,0.0613639,20.9806,392.928,0.64662,0.0,0.0
1162,290.25,90.6435,96.1528,143.674,115.734,107.127,-0.00852942,0.060373,20.9802,392.888,0.692142,0.0,0.0
1176,293.75,88.928,93.3466,141.057,115.744,107.551,-0.00882277,0.0597088,20.9801,392.918,0.657595,0.0,0.0
1190,297.25,87.8499,91.4852,144.68,115.781,107.502,-0.00868761,0.0594708,20.9804,392.898,0.66452,0.0,0.0
1204,300.75,86.4219,89.5437,144.655,115.787,107.381,-0.00871063,0.0589458,20.9808,392.928,0.675092,0.0,0.0
1218,304.25,85.1854,87.9621,143.408,115.831,107.54,-0.0090468,0.0587264,20.982,392.858,0.665217,0.0,0.0
1232,307.75,83.4456,85.1195,141.232,115.836,107.271,-0.00894975,0.0588601,20.9811,392.948,0.688064,0.0,0.0
1246,311.25,82.1418,83.7109,142.34,115.865,107.791,,0.0606507,,392.898,0.647022,0.0,0.0
1260,314.75,80.9104,82.1958,139.071,115.87,108.174,,,,392.918,0.615623,0.0,0.0
1274,318.25,79.5586,80.7088,144.941,115.901,107.332,,,,392.908,0.687951,0.0,0.0
1287,321.5,78.7979,79.3157,144.885,115.914,107.364,,,,392.898,0.686382,0.0,0.0