File: 01_Data/HDPE/Cone/HDPE_Cone_HF25Scan_220131_R2.csv
Names,Time,Stack TC,Smoke TC,Exh Press,Smoke Comp,Smoke Meas,CO Meter,CO2 Meter,O2 Meter,Sample Mass,Ext Coeff,Start Test,Flame Verif
Chan Gain,,500,500,1,1,1,1,1,1,1,1,1.0,1.0
Offset,,0,0,0.14021,0,0,0,0,0,0,0,0.0,0.0
Gain,,1,1,25.011,13.3046,13.3037,1,1,1,1.00087,1.10262,1.0,1.0
Units,sec,C,C,Pa,%,%,%,%,%,g,/m,,
Baseline,,18.3792,19.7002,168.558,97.2076,100.306,0.00388801,0.0775879,20.9526,-0.0223946,-0.303469,,
19,4.5,17.8225,18.7221,164.395,97.9402,100.968,0.0037826,0.0794171,20.9479,542.593,-0.294455,0.0,0.0
38,9.25,17.1988,18.9663,168.319,97.9711,101.117,0.00398346,0.0804002,20.9486,543.975,-0.305711,0.0,0.0
57,14,17.8349,18.9925,166.833,98.0003,101.1,0.00381655,0.0803314,20.9515,542.543,-0.301155,0.0,0.0
76,18.75,17.637,19.1744,172.614,98.0198,101.135,0.00382715,0.0789252,20.9557,542.533,-0.302571,0.0,0.0
95,23.5,17.5414,18.6157,170.373,98.0174,100.783,0.00388183,0.0774072,20.9589,542.533,-0.269089,0.0,0.0
114,28.25,17.902,18.9094,170.541,98.0117,100.812,0.00387004,0.0763447,20.9587,542.503,-0.272494,0.0,0.0
133,33,17.2401,19.0957,169.34,98.0166,100.762,0.00367231,0.0760076,20.9577,542.493,-0.267182,0.0,0.0
152,37.75,17.7677,19.4267,169.739,98.0113,100.982,0.00372588,0.0756678,20.9591,542.503,-0.288841,0.0,0.0
171,42.5,17.8273,19.8049,172.206,97.9979,101.285,0.00382556,0.0757583,20.9589,542.503,-0.319129,0.0,0.0
190,47.25,17.9321,19.4025,173.549,97.9837,101.218,0.00380928,0.0761126,20.9554,542.483,-0.314133,0.0,0.0
209,52,18.0321,19.1865,171.634,97.9747,100.894,0.00375654,0.0764539,20.9554,542.483,-0.283967,0.0,0.0
228,56.75,17.1878,19.0093,172.454,97.9419,100.777,0.00380276,0.0766547,20.956,542.493,-0.275959,0.0,0.0
247,61.5,18.2249,19.3505,167.69,97.937,100.767,0.0036858,0.0766535,20.9537,542.483,-0.275545,0.0,0.0
266,66.25,18.144,19.6127,169.945,97.9061,101.055,0.00390338,0.0772319,20.9518,542.453,-0.306182,0.0,0.0
285,71,18.4101,19.2957,168.006,97.898,100.575,0.00392099,0.077612,20.9516,542.443,-0.260945,0.0,0.0
304,75.75,18.0672,18.994,168.816,97.8903,100.822,0.00366926,0.0778252,20.9515,542.443,-0.285455,0.0,0.0
323,80.5,17.3501,19.2918,165.143,97.8521,100.724,0.00369276,0.0782405,20.9503,542.453,-0.279797,0.0,0.0
342,85.25,17.7124,19.0587,171.976,97.84,100.872,0.00380543,0.07832,20.9502,542.473,-0.295221,0.0,0.0
361,90,17.4646,19.0903,169.424,97.8221,100.827,0.00372974,0.078507,20.9502,542.463,-0.292665,0.0,0.0
380,94.75,18.2218,19.5007,165.367,97.805,101.126,0.00372949,0.0786414,20.9491,542.423,-0.322934,0.0,0.0
399,99.5,17.1873,19.1763,165.719,97.7855,100.483,0.00381534,0.0785439,20.9493,542.443,-0.263196,0.0,0.0
418,104.25,17.9077,19.4102,171.907,97.7823,100.829,0.00387627,0.078279,20.9532,542.463,-0.296756,0.0,0.0
437,109,17.8168,19.5666,167.659,97.7697,100.766,0.00375177,0.0778709,20.9545,542.433,-0.292002,0.0,0.0
456,113.75,18.2915,20.0833,172.329,97.7608,100.574,0.00395527,0.0776991,20.9532,542.433,-0.274435,0.0,0.0
475,118.5,18.0968,19.8116,166.059,97.7425,100.021,0.00406712,0.0778724,20.9525,542.433,-0.222917,0.0,0.0
494,123.25,18.775,19.6344,166.059,97.7344,99.6511,0.00398217,0.0779221,20.9524,542.433,-0.18785,0.0,0.0
513,128,17.952,19.8489,164.373,97.706,99.8963,0.0040148,0.0776434,20.9504,542.413,-0.214435,0.0,0.0
532,132.75,18.2301,19.2752,171.538,97.6763,99.1733,0.00450653,0.0775799,20.9504,542.403,-0.147106,0.0,0.0
551,137.5,17.7434,19.413,169.393,97.6682,99.2057,0.00448661,0.0774262,20.9492,542.373,-0.151077,0.0,0.0
570,142.25,18.3937,19.8652,164.51,97.639,99.1745,0.00480537,0.0773337,20.9491,542.523,-0.150924,0.0,0.0
589,147,18.4634,19.8132,169.87,97.6183,98.7636,0.00491068,0.0775392,20.9475,542.533,-0.112822,0.0,0.0
608,151.75,18.679,19.9103,167.594,97.5866,98.4051,0.00524494,0.0778487,20.947,542.543,-0.0807885,0.0,0.0
627,156.5,17.8081,20.0996,168.726,97.5915,97.6191,0.00559826,0.0783028,20.9453,542.543,-0.00273993,0.0,0.0
646,161.25,17.784,20.3152,168.261,97.5931,96.812,0.0059827,0.0788121,20.9435,542.513,0.0777234,0.0,0.0
665,166,18.6678,20.0829,161.201,97.5752,96.3589,0.00643331,0.0793041,20.9411,542.453,0.121325,0.0,0.0
684,170.75,18.6484,20.42,167.719,97.5797,95.6265,0.0072114,0.0795831,20.9372,542.413,0.195565,0.0,0.0
703,175.5,18.9896,20.0446,173.718,97.5545,94.1811,0.00788116,0.0798469,20.9351,542.363,0.340374,0.0,0.0
722,180.25,18.4625,20.3737,167.275,97.5371,93.4244,0.00874781,0.0797981,20.9351,542.243,0.416676,0.0,0.0
741,185,18.4678,20.9644,167.516,97.5196,100.207,0.00816955,0.0858056,20.9084,541.993,-0.262886,0.0,0.0
760,189.75,20.6149,24.4653,160.044,97.5103,100.887,0.00573234,0.126901,20.8261,542.133,-0.329308,0.0,0.0
779,194.5,23.9656,29.2061,153.384,97.4989,100.275,0.00465914,0.168531,20.7659,541.823,-0.27156,0.0,1.0
798,199.25,25.8231,32.4401,155.76,97.4916,100.25,0.00478112,0.210948,20.7004,541.723,-0.269819,0.0,0.0
817,204,28.4245,36.6427,151.148,97.4709,97.6885,0.00553331,0.259575,20.6083,541.442,-0.0215749,0.0,0.0
836,208.75,32.5412,42.6755,149.674,97.4571,93.4057,0.00692001,0.312525,20.5067,541.212,0.410674,0.0,0.0
855,213.5,36.8402,49.4044,144.257,97.4664,92.2303,0.00849458,0.376739,20.3894,540.832,0.53408,0.0,0.0
874,218.25,41.3179,57.0018,139.563,97.4453,90.245,0.010056,0.449432,20.2591,540.461,0.742458,0.0,0.0
893,223,46.6306,64.8329,141.783,97.4416,86.3921,0.0121143,0.530285,20.0846,539.951,1.16411,0.0,0.0
912,227.75,51.6715,73.0235,133.927,97.4469,84.4348,0.0134016,0.624974,19.9433,539.491,1.38628,0.0,0.0
931,232.5,57.0688,81.5433,128.046,97.4425,84.514,0.0143941,0.707882,19.8068,538.95,1.37677,0.0,0.0
950,237.25,62.3321,89.4459,127.694,97.4506,81.8166,0.0152482,0.783602,19.696,538.31,1.69132,0.0,0.0
969,242,66.8137,96.2555,128.547,97.453,79.3213,0.0154952,0.852839,19.5781,537.749,1.99113,0.0,0.0
988,246.75,71.934,104.828,118.506,97.4563,81.1584,0.0161946,0.941777,19.4204,536.999,1.77,0.0,0.0
1007,251.5,77.9706,113.073,127.741,97.4717,82.2404,0.0167796,1.02873,19.2894,536.298,1.64344,0.0,0.0
1026,256.25,82.6307,120.446,125.443,97.479,80.5251,0.0167053,1.08476,19.2246,535.547,1.84803,0.0,0.0
1045,261,86.9187,126.446,116.708,97.4855,81.4491,0.0170681,1.1247,19.1784,534.857,1.73832,0.0,0.0
1064,265.75,91.8233,133.173,113.947,97.5277,79.301,0.0181453,1.1824,19.0476,534.096,2.00102,0.0,0.0
1083,270.5,97.8798,142.231,106.505,97.5237,81.1617,0.0199185,1.27653,18.8823,533.205,1.7763,0.0,0.0
1102,275.25,104.634,153.525,108.287,97.548,78.6746,0.0229017,1.41309,18.6246,532.324,2.07974,0.0,0.0
1121,280,114.28,169.307,99.0186,97.5663,77.9105,0.0265529,1.59528,18.2838,531.334,2.17595,0.0,0.0
1140,284.75,124.738,186.662,100.915,97.587,75.2528,0.0310336,1.81885,17.937,530.203,2.51369,0.0,0.0
1159,289.5,136.804,208.098,89.6227,97.6187,71.6622,0.0374286,2.10435,17.4225,528.941,2.9897,0.0,0.0
1178,294.25,147.995,228.079,96.9807,97.6544,73.4474,0.0431009,2.37131,17.0174,527.55,2.75525,0.0,0.0
1197,299,158.973,246.731,98.74,97.6995,71.812,0.0476165,2.60069,16.7114,526.289,2.9775,0.0,0.0
1216,303.75,166.278,256.18,99.2278,97.7319,72.2878,0.0473836,2.67281,16.7406,524.968,2.91684,0.0,0.0
1235,308.5,166.489,251.377,95.2259,97.7673,74.7839,0.0399525,2.50458,17.1595,523.847,2.592,0.0,0.0
1254,313.25,158.975,231.201,113.56,97.8091,76.7469,0.0292698,2.10601,18.07,523.096,2.34553,0.0,0.0
1273,318,138.9,190.377,133.048,97.8777,85.1441,0.0188295,1.44773,19.2798,522.746,1.34804,0.0,0.0
1292,322.75,116.917,150.896,148.357,97.9175,98.5497,0.0115551,0.888109,20.1441,522.576,-0.0622419,0.0,0.0
1311,327.5,100.091,122.105,142.615,97.9577,98.6804,0.00806161,0.565409,20.4939,522.496,-0.0710943,0.0,0.0
1330,332.25,88.7026,102.702,144.281,97.9934,99.3763,0.00710259,0.418444,20.6037,522.356,-0.135533,0.0,0.0
1349,337,81.3084,90.1074,147.183,98.0052,99.9731,0.00636487,0.344487,20.6518,522.226,-0.192284,0.0,0.0
1368,341.75,75.3556,80.8308,151.974,98.0296,101.219,0.00606415,0.303144,20.683,522.156,-0.309644,0.0,0.0
1387,346.5,71.5433,74.2444,145.984,98.0409,101.024,0.00556123,0.277335,20.7004,522.055,-0.289882,0.0,0.0
1406,351.25,68.9458,69.6088,146.297,98.0247,100.132,0.00546883,0.25894,20.7146,521.935,-0.205707,0.0,0.0
1425,356,66.461,65.6803,145.819,97.995,102.198,0.00563716,0.245636,20.7204,521.835,-0.406213,0.0,0.0
1444,360.75,64.2807,63.3997,145.965,97.9609,101.785,0.00535859,0.23507,20.7312,521.775,-0.370385,0.0,0.0
1463,365.5,61.916,60.263,148.502,97.9126,101.029,0.00516837,0.227281,20.7374,521.625,-0.303054,0.0,0.0
1482,370.25,61.6735,59.7392,148.027,97.8404,101.752,0.00553994,0.221554,20.7433,521.555,-0.379173,0.0,0.0
1501,375,60.3797,58.2841,157.073,97.7429,102.556,0.00560386,0.216254,20.7499,521.485,-0.464923,0.0,0.0
1520,379.75,58.9739,57.6748,151.485,97.6231,101.897,0.00522437,0.212768,20.7506,521.405,-0.414478,0.0,0.0
1539,384.5,58.1821,56.1185,155.8,97.4688,102.027,0.0053491,0.209798,20.7521,521.355,-0.4421,0.0,0.0
1558,389.25,55.9224,54.6629,150.814,97.2865,101.307,0.00546004,0.206122,20.7557,521.295,-0.391648,0.0,0.0
1577,394,55.4308,53.7714,152.366,97.1302,101.946,0.0053039,0.203843,20.7587,521.165,-0.46806,0.0,0.0
1596,398.75,54.6332,53.2207,151.553,96.9658,101.764,0.00530562,0.20057,20.763,521.065,-0.467099,0.0,0.0
1615,403.5,52.8948,51.6011,150.643,96.7806,101.474,0.00565147,0.197324,20.7683,520.965,-0.458071,0.0,0.0
1634,408.25,53.4808,51.8063,153.066,96.6077,101.586,0.00538207,0.194231,20.7734,520.884,-0.486009,0.0,0.0
1653,413,52.3654,50.0935,154.419,96.4266,101.374,0.00506392,0.190377,20.7809,520.884,-0.483918,0.0,0.0
1672,417.75,51.2705,49.9071,150.112,96.2857,101.354,0.00496921,0.186573,20.7858,520.764,-0.496201,0.0,0.0
1691,422.5,51.1075,49.3566,153.44,96.1866,101.206,0.00500342,0.18286,20.7926,520.684,-0.492006,0.0,0.0
1710,427.25,49.7697,48.5454,154.191,96.1184,101.423,0.00532841,0.178145,20.8028,520.614,-0.519603,0.0,0.0
1729,432,48.1966,46.9756,157.163,96.0977,100.692,0.00508428,0.174811,20.8064,520.534,-0.451666,0.0,0.0
1748,436.75,48.2473,46.7006,156.8,96.12,100.697,,0.172079,,520.464,-0.449926,0.0,0.0
1767,441.5,47.7686,46.6583,153.201,96.1785,101.194,,,,520.404,-0.491659,0.0,0.0
1781,445,47.2464,45.9236,156.026,96.2483,101.04,,,,520.354,-0.46992,0.0,0.0