File: 01_Data/HDPE/Cone/HDPE_Cone_HF75Scalar_220201_R1.csv
LABORATORY,FSRI
TEST IDENT,HDPE_HF75_1
OPERATOR,Dow
MATERIAL,HDPE
ORIENTATION,Horizontal
HEAT FLUX,75
SURF AREA,0.01
C FACTOR,0.0415673
SPEC HOLDER DIFF,333.84
SPECIMEN MASS,31
SCAN TIME,0.25
O2 DELAY TIME,11
CO DELAY TIME,11
CO2 DELAY TIME,8
FLOW FACTOR,1
SCAN COUNT,1001
TIME TO IGN,29.25
END OF TEST SCAN,521
END OF TEST TIME,130.25
TEST STATUS,1
PRE TEST CMT,Dimensions: 100.15 x 100.21 x 3.06 mm