File: 01_Data/HDPE/Cone/HDPE_Cone_HF50Scalar_220131_R2.csv
LABORATORY,FSRI
TEST IDENT,HDPE_HF50_2
OPERATOR,Dow
MATERIAL,HDPE
ORIENTATION,Horizontal
HEAT FLUX,50
SURF AREA,0.01
C FACTOR,0.0415673
SPEC HOLDER DIFF,-55.2
SPECIMEN MASS,30.8
SCAN TIME,0.25
O2 DELAY TIME,11
CO DELAY TIME,11
CO2 DELAY TIME,8
FLOW FACTOR,1
SCAN COUNT,1128
TIME TO IGN,52.25
END OF TEST SCAN,648
END OF TEST TIME,162
TEST STATUS,1
PRE TEST CMT,Dimensions: 100.07 x 100.05 x 3.01 mm
POST TEST CMT,significant dripping during test. see test pictures