File: 01_Data/HDPE/Cone/HDPE_Cone_HF25Scan_220131_R1.csv
Names,Time,Stack TC,Smoke TC,Exh Press,Smoke Comp,Smoke Meas,CO Meter,CO2 Meter,O2 Meter,Sample Mass,Ext Coeff,Start Test,Flame Verif
Chan Gain,,500,500,1,1,1,1,1,1,1,1,1.0,1.0
Offset,,0,0,0.14021,0,0,0,0,0,0,0,0.0,0.0
Gain,,1,1,25.011,13.3046,13.3037,1,1,1,1.00087,1.10262,1.0,1.0
Units,sec,C,C,Pa,%,%,%,%,%,g,/m,,
Baseline,,16.6937,18.4831,169.159,97.6194,100.27,0.00358852,0.0772779,20.9512,-0.00654738,-0.2591,,
21,5,16.0072,17.9772,166.771,97.9662,100.461,0.00333136,0.0779723,20.9516,537.499,-0.243191,0.0,0.0
42,10.25,16.0802,18.1064,163.64,97.8785,100.839,0.00342895,0.0781634,20.9556,537.529,-0.288176,0.0,0.0
63,15.5,16.0261,18.3286,168.794,97.7859,100.72,0.00369836,0.076646,20.9611,537.499,-0.285912,0.0,0.0
84,20.75,16.1553,18.1904,171,97.7047,99.9877,0.00356894,0.0742957,20.965,537.499,-0.223396,0.0,0.0
105,26,16.1784,18.2954,170.142,97.6203,99.8963,0.00344843,0.0730606,20.9637,537.499,-0.22292,0.0,0.0
126,31.25,16.3659,18.5406,171.132,97.5399,100.292,0.00328252,0.0725869,20.9652,537.479,-0.269138,0.0,0.0
147,36.5,16.0941,18.1777,167.049,97.4757,99.4936,0.00332908,0.0722457,20.9674,537.499,-0.198178,0.0,0.0
168,41.75,16.3695,18.0335,170.138,97.3913,99.5334,0.0034002,0.0722887,20.9682,537.509,-0.210429,0.0,0.0
189,47,16.1377,18.3021,169.019,97.4481,99.8196,0.00332215,0.0723361,20.9656,537.459,-0.232559,0.0,0.0
210,52.25,16.588,18.6575,173.883,97.6585,100.569,0.00347972,0.0732264,20.9632,537.469,-0.284095,0.0,0.0
231,57.5,16.0708,18.2984,164.956,97.8359,100.1,0.00341791,0.0735939,20.9635,539.761,-0.221255,0.0,0.0
252,62.75,16.6032,18.4431,169.617,97.9735,100.679,0.00339739,0.0735166,20.9644,549.69,-0.263437,0.0,0.0
273,68,16.6042,18.4852,168.909,98.088,100.483,0.00360707,0.0736707,20.9626,550.921,-0.233284,0.0,0.0
294,73.25,16.6558,18.2266,169.04,98.1599,100.872,0.00325637,0.0738682,20.9615,541.833,-0.263644,0.0,0.0
315,78.5,16.5567,18.304,169.206,98.1981,100.177,0.00363966,0.0740014,20.9618,530.993,-0.193006,0.0,0.0
336,83.75,16.6616,18.6184,171.437,98.2058,100.918,0.00362079,0.0739956,20.9608,535.807,-0.263482,0.0,0.0
357,89,15.9777,18.5308,169.357,98.1806,100.852,0.00337708,0.0741211,20.9606,537.359,-0.259618,0.0,0.0
378,94.25,16.0791,18.5638,165.407,98.099,100.475,0.00353762,0.0737666,20.9621,537.389,-0.23146,0.0,0.0
399,99.5,16.4852,18.2733,165.429,98.0186,99.9877,0.0036071,0.0734213,20.9625,537.409,-0.192376,0.0,0.0
420,104.75,16.6279,18.9114,167.204,97.8781,99.9743,0.00349544,0.072851,20.9632,537.429,-0.204953,0.0,0.0
441,110,16.557,18.757,166.559,97.6909,99.7806,0.00354602,0.0728394,20.9627,537.409,-0.204713,0.0,0.0
462,115.25,16.6919,19.174,170.13,97.6239,100.075,0.00362201,0.0745546,20.9587,537.399,-0.239837,0.0,0.0
483,120.5,16.5602,18.6702,170.51,97.6471,100.212,0.00353871,0.0746751,20.9599,537.399,-0.250799,0.0,0.0
504,125.75,16.7263,18.4597,172.737,97.6418,99.5979,0.00340076,0.0740455,20.9604,537.409,-0.191852,0.0,0.0
525,131,16.89,18.8506,172.369,97.6881,99.319,0.00360212,0.0731317,20.9609,537.439,-0.160144,0.0,0.0
546,136.25,17.0328,19.229,165.098,97.7543,99.3759,0.00405142,0.0722295,20.9621,537.439,-0.159127,0.0,0.0
567,141.5,17.1175,18.7698,170.483,97.7985,99.263,0.00428936,0.0721424,20.9623,537.409,-0.143758,0.0,0.0
588,146.75,16.8047,18.8508,166.882,97.8574,98.6865,0.00395909,0.0724399,20.9616,537.389,-0.0815984,0.0,0.0
609,152,16.8581,19.2733,168.188,97.9147,99.3941,0.00393307,0.0725456,20.9624,537.399,-0.14505,0.0,0.0
630,157.25,16.8399,18.8663,170.822,97.9402,98.95,0.00423332,0.0721918,20.9625,537.369,-0.0992054,0.0,0.0
651,162.5,16.9658,19.1848,165.079,97.9873,98.2923,0.00452989,0.0717305,20.9617,537.369,-0.0300507,0.0,0.0
672,167.75,16.8261,18.639,165.675,98.0263,98.6966,0.00473088,0.0726041,20.958,537.359,-0.0659137,0.0,0.0
693,173,17.2957,19.1891,168.443,98.0515,97.8964,0.00509772,0.0736757,20.9571,537.299,0.0153102,0.0,0.0
714,178.25,16.8176,19.0776,169.908,98.0633,97.9991,0.0052915,0.0734141,20.9574,537.279,0.00632793,0.0,0.0
735,183.5,17.1114,19.33,167.613,98.0783,96.8266,0.00630234,0.0730572,20.9547,537.239,0.124231,0.0,0.0
756,188.75,18.3146,21.5302,167.93,98.1071,101.45,0.00535275,0.0871927,20.911,537.159,-0.324044,0.0,0.0
777,194,20.3872,24.8129,167.706,98.1299,101.067,0.00438893,0.123345,20.8433,537.109,-0.285233,0.0,1.0
798,199.25,22.9144,28.8726,160.84,98.1571,100.809,0.00384498,0.15746,20.7936,536.928,-0.257849,0.0,0.0
819,204.5,25.1417,32.4121,151.664,98.1875,100.438,0.00390352,0.192694,20.7316,536.778,-0.219218,0.0,0.0
840,209.75,28.0235,37.3318,151.561,98.1863,99.9917,0.00453468,0.230824,20.6688,536.588,-0.176236,0.0,0.0
861,215,31.293,42.4447,154.183,98.2038,95.7726,0.00538674,0.280064,20.5732,536.328,0.242454,0.0,0.0
882,220.25,34.3284,47.5502,154.944,98.209,93.3939,0.00657286,0.327482,20.4989,536.038,0.486235,0.0,0.0
903,225.5,38.5377,53.696,146.449,98.1964,92.8064,0.00815079,0.388383,20.3708,535.677,0.546028,0.0,0.0
924,230.75,43.8117,62.105,136.702,98.181,88.4436,0.00964409,0.466953,20.2294,535.237,1.01023,0.0,0.0
945,236,49.0051,70.256,134.717,98.1579,90.3327,0.0108013,0.548582,20.0968,534.737,0.803533,0.0,0.0
966,241.25,54.4327,79.3416,129.173,98.1538,88.278,0.0112875,0.631189,19.9623,534.236,1.02568,0.0,0.0
987,246.5,60.0584,87.5056,133.185,98.1473,87.6694,0.0119469,0.704974,19.8559,533.636,1.09195,0.0,0.0
1008,251.75,65.5582,96.0882,138.681,98.1428,85.7113,0.0121274,0.781286,19.7402,533.015,1.30999,0.0,0.0
1029,257,71.0121,105.027,128.349,98.1238,85.6057,0.0131467,0.861681,19.601,532.294,1.32003,0.0,0.0
1050,262.25,77.0189,114.07,128.633,98.1132,84.0889,0.0142283,0.942951,19.4736,531.554,1.4919,0.0,0.0
1071,267.5,83.2857,122.982,131.459,98.11,83.1186,0.0151056,1.01749,19.3668,530.773,1.60383,0.0,0.0
1092,272.75,88.9548,131.249,119.622,98.1006,83.9594,0.0164891,1.10686,19.2167,529.992,1.50556,0.0,0.0
1113,278,94.4049,139.785,119.205,98.1091,82.3399,0.0178577,1.18873,19.0966,529.162,1.69479,0.0,0.0
1134,283.25,100.614,147.869,108.941,98.1185,81.4114,0.0201084,1.26898,18.9481,528.251,1.8054,0.0,0.0
1155,288.5,107.048,159.488,103.024,98.1189,79.165,0.0225458,1.38237,18.7624,527.27,2.07607,0.0,0.0
1176,293.75,114.32,169.902,108.966,98.1376,77.9117,0.0246935,1.51871,18.5315,526.189,2.23227,0.0,0.0
1197,299,123.14,185.557,96.9249,98.1575,77.9263,0.0288498,1.69831,18.215,525.068,2.23241,0.0,0.0
1218,304.25,131.898,199.428,112.422,98.1603,76.5459,0.0323992,1.86804,17.9075,523.787,2.40556,0.0,0.0
1239,309.5,141.985,216.223,99.6911,98.1786,73.3836,0.0371751,2.09527,17.5361,522.376,2.81542,0.0,0.0
1260,314.75,152.395,234.387,93.4444,98.1883,71.9919,0.0430826,2.32636,17.2226,520.995,3.00158,0.0,0.0
1281,320,162.984,251.292,95.9915,98.2013,72.0625,0.0481688,2.5707,16.8308,519.503,2.99338,0.0,0.0
1302,325.25,175.361,271.818,85.0369,98.1977,71.9314,0.0510967,2.82682,16.4134,517.972,3.01063,0.0,0.0
1323,330.5,184.22,284.649,83.057,98.1891,71.1494,0.0511279,2.99824,16.2879,516.391,3.11551,0.0,0.0
1344,335.75,186.665,283.783,102.214,98.1522,71.1105,0.0482604,2.95917,16.464,514.899,3.11717,0.0,0.0
1365,341,184.352,273.997,98.4584,98.1059,73.8611,0.042324,2.71912,16.9741,513.538,2.74554,0.0,0.0
1386,346.25,175.688,251.769,113.644,98.0641,75.8622,0.03233,2.32569,17.7453,512.537,2.48285,0.0,0.0
1407,351.5,161.286,220.489,120.906,97.9723,76.915,0.0232851,1.84912,18.6117,511.746,2.3405,0.0,0.0
1428,356.75,141.524,182.15,136.011,97.8716,85.6077,0.0165876,1.31221,19.467,511.356,1.29491,0.0,0.0
1449,362,119.632,142.271,142.771,97.7596,97.7766,0.0105994,0.820799,20.234,511.196,-0.0016893,0.0,0.0
1470,367.25,102.597,114.596,142.478,97.6621,96.5006,0.00738496,0.528672,20.5573,511.106,0.115722,0.0,0.0
1491,372.5,92.1745,96.7129,144.156,97.5626,97.8712,0.00668218,0.392786,20.6446,510.976,-0.0305452,0.0,0.0
1512,377.75,85.5572,86.2829,146.581,97.7579,98.7616,0.00603615,0.327452,20.6803,510.876,-0.0987936,0.0,0.0
1533,383,80.3704,78.3312,146.919,97.9618,98.7121,0.00541374,0.288072,20.7033,510.756,-0.073797,0.0,0.0
1554,388.25,76.8902,73.7945,146.808,98.084,99.4554,0.00532193,0.261437,20.725,510.656,-0.134304,0.0,0.0
1575,393.5,73.629,68.9875,144.238,98.1546,100.321,0.00536138,0.241326,20.7445,510.565,-0.211114,0.0,0.0
1596,398.75,70.3154,65.8323,154.065,98.1307,100.039,0.00518927,0.225555,20.7598,510.485,-0.186311,0.0,0.0
1617,404,68.2291,62.8457,147.762,98.0133,100.72,0.00512484,0.212431,20.7722,510.405,-0.263487,0.0,0.0
1638,409.25,65.4656,59.7716,150.139,97.8022,100.977,0.00512911,0.201073,20.7843,510.305,-0.308953,0.0,0.0
1659,414.5,64.1732,58.048,155.47,97.4814,101.077,0.00478904,0.190307,20.7967,510.235,-0.350328,0.0,0.0
1680,419.75,62.2102,55.7435,153.583,97.3572,101.752,0.00490415,0.181162,20.8074,510.185,-0.427018,0.0,0.0
1701,425,60.833,54.4891,151.486,97.4908,102.3,0.00477838,0.17294,20.8188,510.095,-0.465715,0.0,0.0
1722,430.25,58.8196,52.8094,154.384,97.6609,101.911,0.0048585,0.166401,20.8234,510.045,-0.412008,0.0,0.0
1743,435.5,57.3619,51.2822,156.989,97.8237,102.908,0.00468959,0.161311,20.8292,509.975,-0.490034,0.0,0.0
1764,440.75,56.2044,50.3612,151.878,97.9589,102.961,0.0044844,0.157128,20.8337,509.935,-0.48171,0.0,0.0
1785,446,55.1486,49.3049,156.852,98.0612,102.835,0.00447541,0.152935,20.8393,509.885,-0.459744,0.0,0.0
1806,451.25,53.7126,47.8005,155.561,98.101,103.038,0.00429254,0.149427,20.8453,509.815,-0.474894,0.0,0.0
1827,456.5,52.1566,47.3864,160.403,98.0584,103.299,0.00416126,0.145543,20.8503,509.755,-0.503535,0.0,0.0
1848,461.75,51.1519,46.2188,152.43,97.9691,103.171,0.00380737,0.141743,20.8552,509.695,-0.500406,0.0,0.0
1869,467,50.3016,45.3368,156.082,97.8034,103.256,0.00415383,0.138774,20.8582,509.675,-0.524726,0.0,0.0
1890,472.25,48.9925,44.2442,160.926,97.585,102.658,0.00429732,0.135728,20.8631,509.605,-0.490209,0.0,0.0
1911,477.5,47.9878,43.3822,157.191,97.3036,102.48,0.00434785,0.132942,20.8701,509.575,-0.501331,0.0,0.0
1932,482.75,46.7536,42.7453,154.941,96.9869,102.366,,,,509.505,-0.522089,0.0,0.0
1953,488,46.4086,42.256,156.956,96.6868,101.653,,,,509.464,-0.484461,0.0,0.0
1960,489.75,46.2091,41.9567,155.932,96.604,102.12,,,,509.454,-0.537035,0.0,0.0