File: 01_Data/HDPE/Cone/HDPE_Cone_HF25Scan_220218_R3.csv
Names,Time,Stack TC,Smoke TC,Exh Press,Smoke Comp,Smoke Meas,CO Meter,CO2 Meter,O2 Meter,Sample Mass,Ext Coeff,Start Test,Flame Verif
Chan Gain,,500,500,1,1,1,1,1,1,1,1,1.0,1.0
Offset,,0,0,0.132436,0,0,0,0,0,0,0,0.0,0.0
Gain,,1,1,25.011,15.4219,15.1528,1,1,1,1.00089,1.02113,1.0,1.0
Units,sec,C,C,Pa,%,%,%,%,%,g,/m,,
Baseline,,15.8217,16.5783,168.383,114.354,114.395,-0.00839091,0.0585694,20.973,-478.218,-0.00316242,,
25,6,14.8732,15.4914,169.717,116.399,116.301,-0.00845064,0.0680919,20.967,426.818,0.00750766,0.0,0.0
50,12.25,14.5185,15.8492,167.651,116.324,116.321,-0.00831164,0.0675429,20.9682,426.788,0.00021569,0.0,0.0
75,18.5,15.5089,15.7981,170.546,116.258,116.392,-0.00829479,0.0672361,20.9671,426.768,-0.0103416,0.0,0.0
100,24.75,15.7663,16.3521,165.817,116.176,116.037,-0.00857778,0.0688998,20.9618,426.788,0.0107206,0.0,0.0
125,31,15.4947,16.2662,164.759,116.044,116.049,-0.00813937,0.0708464,20.9574,426.788,-0.000446346,0.0,0.0
150,37.25,15.0504,15.9466,165.266,115.962,115.937,-0.00838378,0.0783452,20.9466,426.778,0.00190793,0.0,0.0
175,43.5,15.4818,16.1437,166.571,115.866,115.758,-0.00840654,0.0795919,20.9485,426.778,0.00839847,0.0,0.0
200,49.75,15.7843,16.8491,168.604,115.765,115.971,-0.00834779,0.0789045,20.9528,426.778,-0.0159803,0.0,0.0
225,56,15.2966,16.8682,168.04,115.719,115.806,-0.00814479,0.0753522,20.9589,426.778,-0.00671783,0.0,0.0
250,62.25,15.5687,16.0084,167.746,115.94,115.893,-0.00826779,0.0731369,20.9615,426.748,0.00366603,0.0,0.0
275,68.5,16.1111,16.9096,167.365,116.094,116.067,-0.00866608,0.0694081,20.9679,426.748,0.00208301,0.0,0.0
300,74.75,15.7335,17.0721,167.57,116.25,116.016,-0.0084372,0.0685872,20.9679,426.728,0.0180935,0.0,0.0
325,81,16.4699,16.7498,167.256,116.36,116.127,-0.00852041,0.067135,20.9712,426.738,0.0179742,0.0,0.0
350,87.25,16.127,16.9543,168.824,116.409,116.354,-0.00843722,0.0661896,20.9684,426.738,0.00424558,0.0,0.0
375,93.5,16.4294,16.8917,167.862,116.479,116.492,-0.00872273,0.0690699,20.9616,426.748,-0.000963195,0.0,0.0
400,99.75,16.3856,16.8145,168.91,116.507,116.476,-0.00871157,0.0740687,20.9558,427.028,0.00241714,0.0,0.0
425,106,16.4032,17.4417,163.428,116.519,116.337,-0.00848649,0.0757847,20.9556,427.529,0.0139963,0.0,0.0
450,112.25,16.725,17.0397,166.903,116.526,116.396,-0.00864083,0.0748153,20.9599,426.708,0.00994624,0.0,0.0
475,118.5,16.4052,17.4847,164.9,116.499,115.614,-0.00843641,0.071918,20.9617,426.718,0.0683365,0.0,0.0
500,124.75,15.9217,16.7444,168.593,116.445,115.344,-0.00831387,0.0724006,20.9583,426.718,0.0851208,0.0,0.0
525,131,16.4174,17.3525,164.845,116.377,115.244,-0.00798584,0.0699727,20.9609,426.708,0.0876303,0.0,0.0
550,137.25,16.1469,17.0545,168.902,116.246,114.135,-0.00790174,0.0706857,20.9589,426.698,0.16416,0.0,0.0
575,143.5,16.7015,18.1151,167.4,116.054,113.757,-0.00763044,0.0698881,20.9603,426.678,0.179051,0.0,0.0
600,149.75,16.9444,17.744,170.05,115.83,113.559,-0.00733535,0.0718016,20.959,426.658,0.177305,0.0,0.0
625,156,17.0344,17.7063,167.595,115.734,113.047,-0.00719404,0.0699854,20.9632,426.648,0.210419,0.0,0.0
650,162.25,17.1577,17.6076,166.484,115.767,112.827,-0.00717379,0.066465,20.9662,426.688,0.230427,0.0,0.0
675,168.5,16.8915,18.0997,170.616,115.846,111.936,-0.00649586,0.0649031,20.9651,426.698,0.307566,0.0,0.0
700,174.75,16.5716,18.0273,166.574,115.911,111.465,-0.00601124,0.0648608,20.9601,426.618,0.350337,0.0,0.0
725,181,16.8614,17.7094,168.484,116.006,112.364,-0.00560067,0.0725955,20.9395,426.558,0.285694,0.0,0.0
750,187.25,17.8149,17.9804,160.832,116.064,112.922,-0.00542963,0.0850037,20.909,426.428,0.24585,0.0,0.0
775,193.5,19.0052,19.794,157.598,116.108,113.626,-0.0070445,0.132405,20.7938,426.247,0.193574,0.0,0.0
800,199.75,20.9754,23.0941,157.6,116.137,112.138,-0.00728158,0.185878,20.7001,426.137,0.313907,0.0,0.0
825,206,22.4915,25.3015,154.504,116.13,110.319,-0.00729105,0.225062,20.6459,425.907,0.459829,0.0,0.0
850,212.25,25.933,28.2978,148.805,116.084,106.906,-0.00675968,0.261733,20.5849,425.697,0.737741,0.0,0.0
875,218.5,29.0495,31.6968,144.186,115.962,102.757,-0.00582447,0.307761,20.4885,425.387,1.08295,0.0,0.0
900,224.75,32.3715,36.2702,139.826,115.863,100.17,-0.00412524,0.376062,20.3393,425.026,1.30362,0.0,0.0
925,231,37.1643,41.5281,135.862,115.752,95.7794,-0.00237914,0.46622,20.1536,424.546,1.69655,0.0,0.0
950,237.25,43.0792,48.1505,129.039,115.635,94.0684,-0.000867361,0.577267,19.96,424.026,1.8489,0.0,0.0
975,243.5,48.9196,56.5166,124.404,115.462,93.8992,-0.000542956,0.678426,19.8028,423.415,1.85167,0.0,0.0
1000,249.75,55.1466,64.1934,123.506,115.247,93.4002,0.000746092,0.771984,19.6339,422.714,1.8827,0.0,0.0
1025,256,63.0942,72.6806,122.059,115.048,91.7928,0.00200551,0.875288,19.4823,421.984,2.0227,0.0,0.0
1050,262.25,69.8111,82.033,115.501,114.827,91.3836,0.00260052,0.961901,19.3566,421.193,2.04549,0.0,0.0
1075,268.5,76.991,90.0354,115.206,114.623,88.3639,0.00398468,1.04289,19.2365,420.402,2.33056,0.0,0.0
1100,274.75,83.4324,99.4675,110.856,114.402,91.2116,0.00420578,1.12918,19.1018,419.502,2.02912,0.0,0.0
1125,281,90.4367,107.078,111.686,114.212,88.1212,0.0051839,1.22457,18.9555,418.671,2.32297,0.0,0.0
1150,287.25,97.1696,116.966,111.457,114.054,84.5378,0.00715669,1.34737,18.7393,417.72,2.68248,0.0,0.0
1175,293.5,105.116,125.709,100.766,113.941,84.7649,0.00906184,1.47873,18.509,416.619,2.64954,0.0,0.0
1200,299.75,113.297,136.417,99.0352,113.867,84.8985,0.00990678,1.59319,18.3611,415.538,2.62966,0.0,0.0
1225,306,121.618,146.479,99.8763,113.843,83.3868,0.01103,1.72005,18.1604,414.337,2.78866,0.0,0.0
1250,312.25,128.889,156.812,89.5523,113.833,82.7334,0.0142174,1.8846,17.8817,413.206,2.85831,0.0,0.0
1275,318.5,138.575,168.609,94.5731,113.887,80.3205,0.0177706,2.06501,17.558,411.895,3.12769,0.0,0.0
1300,324.75,148.432,181.213,87.7418,113.93,82.2252,0.0207085,2.27588,17.2496,410.524,2.92116,0.0,0.0
1325,331,157.614,194.695,92.7687,114.017,80.7154,0.0225091,2.46575,16.9628,409.092,3.09397,0.0,0.0
1350,337.25,167.524,207.813,85.439,114.116,78.3991,0.0262158,2.68502,16.6477,407.671,3.36258,0.0,0.0
1375,343.5,176.984,220.469,75.2638,114.206,78.289,0.028909,2.9174,16.266,406.03,3.38225,0.0,0.0
1400,349.75,187.039,235.549,78.8298,114.27,76.2987,0.0317011,3.15613,15.9635,404.388,3.61793,0.0,0.0
1425,356,196.831,248.159,97.1438,114.34,76.9429,0.0315187,3.25018,15.9359,402.797,3.54804,0.0,0.0
1450,362.25,203.121,256.573,75.2783,114.414,75.2902,0.0305766,3.25049,16.0485,401.195,3.74836,0.0,0.0
1475,368.5,207.499,261.026,82.2416,114.476,79.3313,0.0285574,3.09602,16.4067,399.754,3.28487,0.0,0.0
1500,374.75,208.251,260.894,97.8132,114.492,78.3103,0.0224993,2.74393,17.1109,398.433,3.40219,0.0,0.0
1525,381,204.689,254.584,97.746,114.507,81.6902,0.0164087,2.32075,17.8463,397.252,3.02485,0.0,0.0
1550,387.25,197.418,243.744,104.417,114.437,85.6874,0.0105196,1.8689,18.6166,396.381,2.59149,0.0,0.0
1575,393.5,186.617,227.857,125.676,114.297,85.7054,0.00577512,1.40223,19.3804,395.821,2.57862,0.0,0.0
1600,399.75,171.954,207.613,140.738,114.145,92.8375,0.000394903,0.946916,20.1349,395.51,1.85071,0.0,0.0
1625,406,155.106,185.28,149.804,113.977,105.813,-0.00424297,0.598386,20.645,395.39,0.665729,0.0,0.0
1650,412.25,139.873,165.159,153.187,113.846,106.536,-0.00620855,0.395134,20.8379,395.37,0.594426,0.0,0.0
1675,418.5,126.741,147.513,155.989,113.829,106.807,-0.00670531,0.296662,20.8787,395.36,0.570375,0.0,0.0
1700,424.75,115.745,132.866,149.391,113.957,106.413,-0.00725601,0.244031,20.8813,395.35,0.613469,0.0,0.0
1725,431,106.327,120.699,156.817,114.337,107.266,-0.0072878,0.208055,20.8916,395.29,0.571858,0.0,0.0
1750,437.25,97.505,109.278,154.775,114.965,107.558,-0.0075496,0.180335,20.907,395.25,0.596461,0.0,0.0
1775,443.5,90.4532,100.575,157.314,115.539,108.546,-0.00773242,0.159544,20.9157,395.24,0.559242,0.0,0.0
1800,449.75,84.4837,92.804,155.057,115.946,109.032,-0.00779547,0.138417,20.9361,395.22,0.550767,0.0,0.0
1825,456,78.8023,84.8944,154.994,116.067,109.619,-0.00775682,0.123445,20.9435,395.21,0.511915,0.0,0.0
1850,462.25,74.3186,79.4253,159.56,115.822,109.019,-0.00793306,0.112301,20.9508,395.17,0.542227,0.0,0.0
1875,468.5,69.9264,73.4957,157.791,115.796,109.719,-0.00807327,0.105212,20.9494,395.12,0.48285,0.0,0.0
1900,474.75,65.9135,68.814,155.83,116.41,110.393,-0.00812198,0.0988082,20.9536,395.1,0.475397,0.0,0.0
1925,481,62.7255,64.5755,158.767,116.005,109.34,-0.00822586,0.0902692,20.9671,395.13,0.529971,0.0,0.0
1950,487.25,59.5798,60.7629,159.087,115.81,109.745,-0.00828735,0.0843714,20.9683,395.11,0.48179,0.0,0.0
1975,493.5,56.6257,56.8052,158.566,116.326,110.512,-0.00829351,0.0836896,20.9672,395.12,0.459237,0.0,0.0
2000,499.75,54.1864,53.9787,158.887,116.37,111.069,-0.00846886,0.078729,20.9732,395.1,0.417592,0.0,0.0
2025,506,52.284,51.2984,158.718,115.734,110.519,-0.00839819,0.0738956,20.9777,395.12,0.412932,0.0,0.0
2050,512.25,49.2984,47.9079,157.588,114.648,110.246,-0.00882593,0.0676894,20.9835,395.11,0.350679,0.0,0.0
2075,518.5,48.3819,46.4407,161.077,113.93,108.896,-0.00833475,0.0658968,20.9813,395.1,0.404813,0.0,0.0
2100,524.75,46.5977,44.6348,158.715,114.066,109.432,-0.00859384,0.0675419,20.9738,395.09,0.371449,0.0,0.0
2125,531,44.8558,43.3104,159.657,114.911,110.834,-0.00875953,0.0715564,20.9686,395.11,0.323584,0.0,0.0
2150,537.25,43.7762,41.4808,159.277,115.742,111.307,-0.00884353,0.0700773,20.9737,395.12,0.349988,0.0,0.0
2175,543.5,42.9196,39.9755,163.792,116.007,111.816,-0.00872633,0.0653794,20.9835,395.11,0.329592,0.0,0.0
2200,549.75,41.958,39.1576,159.334,115.687,111.171,-0.00851582,0.0606278,20.9881,395.11,0.356672,0.0,0.0
2225,556,41.0546,37.7943,158.456,116.299,112.171,-0.00866842,0.0579039,20.9887,395.1,0.323727,0.0,0.0
2250,562.25,39.9239,36.9723,160.812,116.076,111.141,-0.0084306,0.0571332,20.9889,395.12,0.389107,0.0,0.0
2275,568.5,38.8393,36.3448,159.776,115.943,111.406,-0.00826912,0.0554078,20.9926,395.13,0.357493,0.0,0.0
2300,574.75,38.105,35.4372,156.82,116.446,112.304,-0.00867245,0.0548211,20.991,395.13,0.324399,0.0,0.0
2325,581,37.711,34.1392,159.424,115.904,112.009,-0.0087251,0.0544137,20.9922,395.1,0.306197,0.0,0.0
2350,587.25,37.1743,33.7174,159.732,114.595,111.042,-0.0088198,0.0529019,20.9951,395.14,0.282094,0.0,0.0
2375,593.5,36.6872,33.0116,162.243,113.895,109.705,,,,395.12,0.335756,0.0,0.0
2400,599.75,35.8455,32.5372,165.785,114.666,111.661,,,,395.11,0.23784,0.0,0.0
2406,601.25,35.6412,32.7951,157.103,114.92,111.617,,,,395.12,0.261196,0.0,0.0