File: 01_Data/HDPE/Cone/HDPE_Cone_HF50Scan_220131_R2.csv
Names,Time,Stack TC,Smoke TC,Exh Press,Smoke Comp,Smoke Meas,CO Meter,CO2 Meter,O2 Meter,Sample Mass,Ext Coeff,Start Test,Flame Verif
Chan Gain,,500,500,1,1,1,1,1,1,1,1,1.0,1.0
Offset,,0,0,0.14021,0,0,0,0,0,0,0,0.0,0.0
Gain,,1,1,25.011,13.3046,13.3037,1,1,1,1.00087,1.10262,1.0,1.0
Units,sec,C,C,Pa,%,%,%,%,%,g,/m,,
Baseline,,27.063,30.3118,161.468,97.9993,102.635,0.00560858,0.0683149,20.9814,-0.16602,-0.446918,,
12,2.75,24.6993,26.7584,162.476,98.4664,103.048,0.00555849,0.0824721,20.9688,542.543,-0.439924,0.0,0.0
24,5.75,24.7606,27.3205,160.575,98.5554,103.269,0.00547327,0.078968,20.974,542.463,-0.451825,0.0,0.0
36,8.75,24.6004,27.3207,164.211,98.4957,103.517,0.00555213,0.076231,20.9765,542.443,-0.48089,0.0,0.0
48,11.75,25.5777,27.9564,163.46,98.2711,103.389,0.00569705,0.0737173,20.9787,542.423,-0.491007,0.0,0.0
60,14.75,25.4134,28.7137,162.899,97.9167,102.903,0.00559237,0.0715351,20.9817,542.443,-0.480387,0.0,0.0
72,17.75,26.1822,29.196,161.408,97.7977,102.742,0.00552577,0.0696094,20.9836,542.413,-0.477059,0.0,0.0
84,20.75,25.9977,28.3675,158.288,97.9504,103.22,0.00543198,0.0683098,20.985,542.383,-0.506854,0.0,0.0
96,23.75,26.0517,28.5618,162.657,98.1445,103.214,0.00541221,0.0673438,20.9859,542.403,-0.487099,0.0,0.0
108,26.75,26.3445,28.586,161.369,98.3154,103.346,0.00534398,0.0668586,20.9868,542.393,-0.482625,0.0,0.0
120,29.75,26.2805,28.5329,158.889,98.4173,103.496,0.00527099,0.0664417,20.9871,542.413,-0.486692,0.0,0.0
132,32.75,25.8699,28.6963,163.313,98.4133,103.308,0.00531726,0.0661615,20.9867,542.433,-0.469507,0.0,0.0
144,35.75,25.672,28.853,162.515,98.3251,103.538,0.00540166,0.0663488,20.9854,543.704,-0.499623,0.0,0.0
156,38.75,26.4832,29.0073,159.105,98.0929,103.423,0.00535634,0.0665577,20.9837,543.884,-0.511756,0.0,0.0
168,41.75,25.8985,28.7199,162.416,97.7811,102.165,0.00548285,0.0670744,20.9819,541.422,-0.424166,0.0,0.0
180,44.75,25.9706,29.052,156.266,97.4299,101.749,0.00585028,0.068162,20.9793,542.323,-0.419529,0.0,0.0
192,47.75,25.9659,29.1772,157.025,97.0368,101.815,0.0064969,0.0732633,20.964,542.363,-0.464952,0.0,0.0
204,50.75,26.459,30.1571,156.827,96.6722,101.646,0.00694454,0.0843646,20.9408,542.323,-0.485267,0.0,0.0
216,53.75,27.5932,31.0665,154.484,96.3783,101.761,0.00696409,0.100826,20.9111,542.283,-0.525688,0.0,1.0
228,56.75,28.5391,32.9191,156.624,96.2593,100.888,0.00643964,0.121952,20.8733,542.203,-0.454233,0.0,1.0
240,59.75,29.5072,34.2748,154.229,96.3271,101.074,0.00602425,0.147071,20.822,542.123,-0.465233,0.0,0.0
252,62.75,31.3308,36.8452,152.459,96.5082,98.8493,0.00611955,0.181466,20.7573,542.003,-0.231824,0.0,0.0
264,65.75,32.9421,38.8979,151.817,96.8147,95.2245,0.00712431,0.216285,20.7032,541.903,0.160185,0.0,0.0
276,68.75,35.0461,42.8168,146.55,97.1826,91.0391,0.0087035,0.256825,20.6067,541.783,0.631608,0.0,0.0
288,71.75,37.9029,47.4459,140.664,97.5529,89.2645,0.0100586,0.312669,20.5102,541.5625,0.85879,0.0,0.0
300,74.75,40.9787,52.3165,145.727,97.8887,87.3629,0.0112865,0.370815,20.4008,541.392,1.1003,0.0,0.0
312,77.75,44.2332,57.9911,134.505,98.127,85.3629,0.0122882,0.443472,20.2717,541.092,1.34782,0.0,0.0
324,80.75,48.0517,64.1561,135.434,98.2691,86.0686,0.0132647,0.513179,20.1348,540.772,1.28219,0.0,0.0
336,83.75,52.8855,71.3412,130.131,98.3446,83.7974,0.014443,0.602303,19.9621,540.472,1.54827,0.0,0.0
348,86.75,58.2894,80.3458,129.592,98.2748,80.5466,0.0162544,0.716928,19.7815,540.031,1.92409,0.0,0.0
360,89.75,64.304,90.4346,128.28,98.1595,80.2856,0.0187819,0.861668,19.4824,539.501,1.94413,0.0,0.0
372,92.75,71.3147,101.741,116.167,98.0125,75.1846,0.0216217,1.04485,19.1551,538.98,2.56454,0.0,0.0
384,95.75,79.284,115.283,119.021,97.9033,76.6434,0.0244758,1.25738,18.7678,538.21,2.3679,0.0,0.0
396,98.75,87.5862,129.76,98.9484,98.2228,74.7892,0.0275412,1.46821,18.475,537.579,2.63628,0.0,0.0
408,101.75,96.1186,143.452,96.5761,98.4924,75.6349,0.0308395,1.65173,18.1593,536.808,2.55404,0.0,0.0
420,104.75,104.065,156.36,133.945,98.5529,76.4363,0.0340848,1.82704,17.8907,536.068,2.45803,0.0,0.0
432,107.75,111.707,169.417,99.501,98.4518,73.4855,0.0378569,1.98645,17.6633,535.037,2.82889,0.0,0.0
444,110.75,118.41,181.567,86.4337,98.194,73.9427,0.0424983,2.18122,17.3683,533.796,2.74354,0.0,0.0
456,113.75,126.658,195.109,90.6791,97.777,71.7008,0.0472577,2.3653,17.1016,532.545,3.00017,0.0,0.0
468,116.75,134.8,208.626,94.4443,97.9183,70.8726,0.0515825,2.56664,16.7754,531.223,3.12651,0.0,0.0
480,119.75,141.222,218.717,94.6435,98.0897,74.4132,0.0544416,2.70897,16.587,529.722,2.6719,0.0,0.0
492,122.75,146.51,226.96,102.036,98.2874,71.4462,0.0584524,2.82782,16.4024,528.181,3.08493,0.0,0.0
504,125.75,154.109,238.818,109.103,98.421,70.0602,0.0672183,3.04265,16.0006,527.05,3.28754,0.0,0.0
516,128.75,163.569,254.757,81.0427,98.4563,69.0456,0.0748384,3.34086,15.5134,525.569,3.43211,0.0,0.0
528,131.75,172.804,272.944,83.6302,98.3653,69.726,0.0781635,3.66453,14.985,524.277,3.32832,0.0,0.0
540,134.75,182.592,290.039,69.6424,98.1469,71.6821,0.0796374,3.88794,14.7365,522.856,3.03921,0.0,0.0
552,137.75,189.578,301.758,63.5973,97.8257,71.1965,0.0789121,4.06465,14.491,521.595,3.07325,0.0,0.0
564,140.75,198.473,317.653,67.4351,97.4181,71.3435,0.0769308,4.22231,14.3051,520.394,3.01292,0.0,0.0
576,143.75,205.397,329.124,74.9106,96.978,65.7546,0.0779139,4.30871,14.2224,519.183,3.75814,0.0,0.0
588,146.75,211.244,335.265,68.7135,96.606,73.9796,0.0774462,4.33799,14.1819,518.052,2.58101,0.0,0.0
600,149.75,217.634,344.228,96.1769,96.3454,72.5294,0.073683,4.41713,14.1295,516.981,2.74637,0.0,0.0
612,152.75,222.194,349.144,83.4051,96.2455,65.5366,0.0681787,4.26755,14.5527,515.98,3.71693,0.0,0.0
624,155.75,217.334,333.864,102.065,96.3706,68.0627,0.0548087,3.65049,15.6566,515.38,3.36369,0.0,0.0
636,158.75,201.441,297.324,128.977,96.6678,80.4735,0.0388572,2.68415,17.4874,515.199,1.7734,0.0,0.0
648,161.75,178.928,253.739,139.367,97.0624,95.1535,0.0250773,1.69229,19.0678,515.22,0.192115,0.0,0.0
660,164.75,159.043,217.136,144.495,97.4526,96.4807,0.0166636,1.02631,20.0557,515.179,0.096946,0.0,0.0
672,167.75,143.249,188.939,142.802,97.7713,97.4734,0.0121985,0.635562,20.5079,515.33,0.0295226,0.0,0.0
684,170.75,131.098,166.365,140.551,98.0409,97.7312,0.00979851,0.426513,20.7039,515.28,0.0306088,0.0,0.0
696,173.75,119.963,148.232,144.171,98.1595,97.9443,0.00858251,0.309888,20.805,515.28,0.0212254,0.0,0.0
708,176.75,112.008,134.096,144.197,98.2541,98.2663,0.00785242,0.241549,20.8496,515.179,-0.00119805,0.0,0.0
720,179.75,105.835,122.656,145.187,98.2407,98.1282,0.00734766,0.200883,20.8793,515.22,0.0110786,0.0,0.0
732,182.75,99.7443,113.152,146.874,98.168,98.749,0.0068704,0.17205,20.9034,515.25,-0.0570729,0.0,0.0
744,185.75,95.3336,105.071,146.361,98.0466,97.6569,0.00645482,0.149948,20.9231,515.169,0.0385246,0.0,0.0
756,188.75,91.1104,98.1685,143.966,97.9293,97.909,0.0062805,0.133926,20.9357,515.179,0.00200371,0.0,0.0
768,191.75,87.8487,92.5271,145.539,97.8404,98.6434,0.0063952,0.122295,20.9443,515.149,-0.0790656,0.0,0.0
780,194.75,84.8007,87.3529,147.397,98.1485,99.6442,0.00654594,0.113085,20.9522,515.159,-0.146282,0.0,0.0
792,197.75,82.0581,83.7155,145.378,98.3897,99.4558,0.0065428,0.106097,20.9591,515.24,-0.104241,0.0,0.0
804,200.75,79.9564,80.3981,143.254,98.5127,99.9093,0.00632974,0.100823,20.9637,515.109,-0.136157,0.0,0.0
816,203.75,77.8642,77.2907,151.669,98.5326,100.734,0.00614382,0.0966027,20.9647,515.159,-0.213742,0.0,0.0
828,206.75,76.1873,74.9701,148.38,98.4673,100.506,0.00585942,0.0933032,20.9611,515.159,-0.198228,0.0,0.0
840,209.75,74.2977,72.7551,147.535,98.3296,100.082,0.00594747,0.0903194,20.9618,515.099,-0.170842,0.0,0.0
852,212.75,73.4786,70.3141,148.784,98.1217,100.021,0.0060963,0.0880181,20.9632,515.129,-0.185385,0.0,0.0
864,215.75,71.2714,68.3574,149.265,97.84,100.401,0.00607903,0.0864069,20.964,515.139,-0.249919,0.0,0.0
876,218.75,70.9809,67.543,149.122,97.8087,99.0669,0.00611083,0.0847636,20.9654,515.099,-0.123627,0.0,0.0
888,221.75,69.5387,66.3262,150.208,97.8911,101.283,0.00610042,0.0833197,20.9658,515.149,-0.329442,0.0,0.0
900,224.75,68.4984,65.4101,148.984,97.976,101.097,0.00608349,0.0822422,20.9679,515.139,-0.303327,0.0,0.0
912,227.75,67.6021,64.1581,148.522,98.0653,101.291,0.00594334,0.081503,20.9669,515.109,-0.312984,0.0,0.0
924,230.75,67.1432,62.3525,149.741,98.155,101.044,0.00582226,0.0807864,20.9662,515.089,-0.280537,0.0,0.0
936,233.75,65.3595,61.6274,151.918,98.235,101.286,0.00575997,0.0800104,20.966,515.099,-0.295872,0.0,0.0
948,236.75,65.1592,61.1287,153.74,98.3109,101.831,0.00584665,0.0794579,20.9659,515.109,-0.340288,0.0,0.0
960,239.75,64.5276,60.514,153.57,98.3694,99.3689,0.00604686,0.0787974,20.9664,515.109,-0.0977832,0.0,0.0
972,242.75,63.3162,59.4924,151.991,98.4149,101.264,0.00613084,0.0785231,20.9677,515.149,-0.276045,0.0,0.0
984,245.75,62.6632,59.228,150.801,98.4429,101.742,0.00586456,0.0781447,20.9681,515.109,-0.318826,0.0,0.0
996,248.75,62.2152,58.3352,148.816,98.4555,102.086,0.00581765,0.0778757,20.9682,515.129,-0.350225,0.0,0.0
1008,251.75,61.2136,57.9603,152.355,98.4559,102.097,0.00588168,0.0776025,20.9677,515.079,-0.351263,0.0,0.0
1020,254.75,60.2199,57.1951,149.138,98.4457,102.83,0.00588854,0.0773347,20.9676,515.089,-0.421435,0.0,0.0
1032,257.75,59.6919,56.3972,151.948,98.4153,102.579,0.0057981,0.0770827,20.9676,515.059,-0.400799,0.0,0.0
1044,260.75,58.968,55.8504,146.7,98.3893,102.641,0.00573601,0.0768122,20.9676,515.119,-0.409208,0.0,0.0
1056,263.75,58.723,55.0395,149.225,98.3446,102.694,0.0058316,0.0766675,20.9676,515.099,-0.418534,0.0,0.0
1068,266.75,58.1195,54.5144,150.623,98.3024,103.041,0.00568488,0.0764477,20.9676,514.999,-0.455364,0.0,0.0
1080,269.75,57.6269,54.2776,153.094,98.2358,102.109,0.00565048,0.0765021,20.9665,515.059,-0.37402,0.0,0.0
1092,272.75,56.8465,53.5505,153.562,98.1753,102.13,,0.0764822,,515.029,-0.381979,0.0,0.0
1104,275.75,56.2395,53.2861,151.009,98.1274,102.693,,,,515.069,-0.439844,0.0,0.0
1116,278.75,55.2658,51.7032,158.243,98.0551,102.859,,,,515.069,-0.462598,0.0,0.0
1128,281.75,55.2966,52.5111,151.885,98.0089,102.63,,,,514.979,-0.445608,0.0,0.0