File: 01_Data/HDPE/Cone/HDPE_Cone_HF75Scalar_220201_R2.csv
LABORATORY,FSRI
TEST IDENT,HDPE_HF75_2
OPERATOR,Dow
MATERIAL,HDPE
ORIENTATION,Horizontal
HEAT FLUX,75
SURF AREA,0.01
C FACTOR,0.0415673
SPEC HOLDER DIFF,332.71
SPECIMEN MASS,31
SCAN TIME,0.25
O2 DELAY TIME,11
CO DELAY TIME,11
CO2 DELAY TIME,8
FLOW FACTOR,1
SCAN COUNT,1008
TIME TO IGN,29.75
END OF TEST SCAN,528
END OF TEST TIME,132
TEST STATUS,1
PRE TEST CMT,Dimensions: 100.15 x 100.21 x 3.06 mm