File: 01_Data/HDPE/Cone/HDPE_Cone_HF75Scan_220201_R1.csv
Names,Time,Stack TC,Smoke TC,Exh Press,Smoke Comp,Smoke Meas,CO Meter,CO2 Meter,O2 Meter,Sample Mass,Ext Coeff,Start Test,Flame Verif
Chan Gain,,500,500,1,1,1,1,1,1,1,1,1.0,1.0
Offset,,0,0,0.14021,0,0,0,0,0,0,0,0.0,0.0
Gain,,1,1,25.011,13.3046,13.3037,1,1,1,1.00087,1.10262,1.0,1.0
Units,sec,C,C,Pa,%,%,%,%,%,g,/m,,
Baseline,,33.0588,37.0958,136.017,99.1871,104.839,0.00683182,0.0971659,20.9247,-0.869425,-0.535963,,
11,2.5,30.0919,32.9406,134.243,99.4876,105.092,0.00655268,0.109946,20.9108,930.812,-0.530049,0.0,0.0
22,5.25,30.7962,34.1568,140.416,99.4766,105.059,0.00636969,0.107479,20.9142,930.822,-0.528126,0.0,0.0
33,8,30.7691,34.3167,134.97,99.4372,104.83,0.00644149,0.105409,20.9176,930.832,-0.510815,0.0,0.0
44,10.75,30.9757,34.0508,139.173,99.4044,105.203,0.00640114,0.103461,20.9214,930.792,-0.548341,0.0,0.0
55,13.5,31.3302,35.2107,137.641,99.3788,105.026,0.00637023,0.101296,20.924,930.812,-0.534617,0.0,0.0
66,16.25,31.7471,35.4299,134.848,99.3564,104.864,0.00647756,0.0997289,20.925,930.792,-0.521785,0.0,0.0
77,19,30.8992,35.1067,135.366,99.3122,104.983,0.00649764,0.100659,20.9239,930.772,-0.537098,0.0,0.0
88,21.75,32.3478,35.7247,132.474,99.285,105.074,0.00670249,0.102565,20.9219,930.752,-0.54816,0.0,0.0
99,24.5,32.0673,35.9336,137.743,99.2578,103.42,0.00753463,0.102995,20.9188,930.742,-0.397308,0.0,0.0
110,27.25,32.1129,36.2047,138.947,99.2212,103.803,0.00848943,0.106566,20.9064,930.702,-0.436646,0.0,0.0
121,30,32.727,36.8052,133.878,99.1871,104.695,0.00882946,0.123449,20.8813,930.642,-0.522691,0.0,1.0
132,32.75,33.5293,38.4938,127.468,99.1616,104.11,0.00852356,0.155221,20.826,930.502,-0.470985,0.0,1.0
143,35.5,35.0009,40.6181,126.069,99.1315,100.472,0.00849976,0.198097,20.7554,930.502,-0.129955,0.0,0.0
154,38.25,37.0219,43.1665,123.297,99.112,94.4909,0.00912425,0.247242,20.6475,930.372,0.461814,0.0,0.0
165,41,38.7039,46.3131,117.978,99.0958,85.7113,0.0103733,0.313548,20.5294,930.272,1.40345,0.0,0.0
176,43.75,42.2944,51.3064,117.261,99.0877,83.4405,0.0122825,0.39078,20.398,929.961,1.66235,0.0,0.0
187,46.5,45.5862,56.5902,120.326,99.0759,77.664,0.0144573,0.481281,20.2071,929.771,2.3551,0.0,0.0
198,49.25,49.2111,62.5879,109.046,99.0913,75.7376,0.0163886,0.580959,20.0483,929.401,2.59954,0.0,0.0
209,52,53.6561,69.1121,111.683,99.0552,73.8375,0.0177294,0.682057,19.8725,929.161,2.84176,0.0,0.0
220,54.75,57.6371,75.9618,106.335,99.0576,73.1063,0.0188991,0.785804,19.7281,928.8,2.93826,0.0,0.0
231,57.5,64.1081,86.1196,103.879,99.0552,72.5087,0.0208449,0.913953,19.5105,928.36,3.01741,0.0,0.0
242,60.25,70.2299,95.5756,92.4148,99.0596,66.9689,0.023999,1.07157,19.1948,927.89,3.78657,0.0,0.0
253,63,77.1238,106.617,99.2514,99.0479,63.6848,0.028969,1.28342,18.8763,927.329,4.27176,0.0,0.0
264,65.75,85.9427,121.906,88.3656,99.0349,64.3848,0.0366281,1.55514,18.4035,926.799,4.16476,0.0,0.0
275,68.5,95.926,138.554,105.09,99.0288,62.0292,0.0451982,1.91323,17.7795,925.908,4.52467,0.0,0.0
286,71.25,107.093,157.922,79.4917,99.0259,60.6362,0.0533863,2.32837,17.0913,925.097,4.74407,0.0,0.0
297,74,120.376,182.641,69.8287,99.017,60.2095,0.0601927,2.81658,16.295,924.136,4.8115,0.0,0.0
308,76.75,133.284,207.138,87.932,99.0048,58.4308,0.0663561,3.29238,15.7349,923.316,5.10034,0.0,0.0
319,79.5,146.402,231.018,68.9288,98.9898,62.7624,0.0732787,3.73343,14.9985,922.154,4.4072,0.0,0.0
330,82.25,158.737,255.891,56.795,98.9849,60.9521,0.07988,4.302,14.0735,920.923,4.68981,0.0,0.0
341,85,171.392,279.057,52.413,98.9719,65.3697,0.0843842,4.8475,13.3245,919.842,4.01177,0.0,0.0
352,87.75,182.818,301.974,62.0196,98.9703,68.2632,0.0850142,5.42239,12.3352,918.531,3.59269,0.0,0.0
363,90.5,196.437,329.361,43.243,98.9772,74.7904,0.0826711,6.16526,11.3109,917.32,2.71013,0.0,0.0
374,93.25,209.905,356.409,58.13,98.9679,72.2558,0.0786075,6.94721,10.1733,915.679,3.04268,0.0,0.0
385,96,224.022,383.514,27.9989,98.9691,78.2357,0.0748732,7.65728,9.26186,914.128,2.27374,0.0,0.0
396,98.75,236.784,409.707,54.496,98.9711,79.1069,0.0712563,8.41414,8.30761,912.646,2.16682,0.0,0.0
407,101.5,249.586,438.439,48.1723,98.9711,75.6507,0.0798732,9.16226,7.05243,910.745,2.59891,0.0,0.0
418,104.25,263.113,448.88,54.8845,98.9679,80.1881,0.0941633,9.91126,5.92996,909.033,2.03521,0.0,0.0
429,107,275.948,440.05,53.1107,98.9801,79.1374,0.113839,10.6574,4.7985,907.221,2.16397,0.0,0.0
440,109.75,286.822,436.458,55.7837,98.9829,83.9793,0.118599,11.1044,4.16439,905.53,1.58987,0.0,0.0
451,112.5,294.1,436.54,50.1232,98.9914,76.2053,0.105477,10.9243,4.57639,904.069,2.53025,0.0,0.0
462,115.25,296.688,435.409,65.3177,98.9967,60.7807,0.0950436,10.1471,6.0905,902.567,4.71819,0.0,0.0
473,118,295.517,438.63,61.5922,99.0012,61.2172,0.0905177,8.89082,7.94989,901.426,4.64942,0.0,0.0
484,120.75,290.591,442.395,74.2931,99.0065,57.7061,0.0836942,7.35716,10.7104,900.586,5.22121,0.0,0.0
495,123.5,280.81,444.988,79.5757,99.0536,58.6497,0.0728043,5.65922,13.1868,899.875,5.06895,0.0,0.0
506,126.25,265.904,407.518,95.9266,99.0881,65.9231,0.054665,4.08377,15.1674,899.575,3.94158,0.0,0.0
517,129,245.504,363.019,105.983,99.112,90.9969,0.0366338,2.68666,17.6026,899.565,0.82624,0.0,0.0
528,131.75,223.682,319.904,110.775,99.149,98.4356,0.0240144,1.57004,19.2218,899.535,0.0698453,0.0,0.0
539,134.5,205.773,285.786,110.211,99.2018,99.0153,0.016918,0.920125,20.0056,899.595,0.0181934,0.0,0.0
550,137.25,189.625,256.51,116.53,99.2623,99.332,0.0127035,0.5975,20.4212,899.535,-0.00679474,0.0,0.0
561,140,177.888,234.206,116.035,99.3313,99.3194,0.0103051,0.405343,20.6166,899.605,0.00115409,0.0,0.0
572,142.75,166.855,213.749,113.582,99.3694,99.3543,0.00900607,0.294593,20.7229,899.565,0.00146997,0.0,0.0
583,145.5,157.713,197.15,115.634,99.4494,99.5618,0.00813894,0.237665,20.7868,899.525,-0.0109228,0.0,0.0
594,148.25,150.626,184.144,113.967,99.5042,99.3941,0.00752348,0.199349,20.8247,899.505,0.0107101,0.0,0.0
605,151,143.345,172.195,113.644,99.5603,99.4493,0.00704534,0.172832,20.8547,899.595,0.0107827,0.0,0.0
616,153.75,138.664,162.222,112.63,99.6013,99.4944,0.00680369,0.154763,20.8734,899.595,0.0103842,0.0,0.0
627,156.5,133.508,152.941,118.496,99.626,99.6304,0.00677332,0.141828,20.8884,899.575,-0.000423739,0.0,0.0
638,159.25,129.039,146.114,117.537,99.6541,99.5902,0.00688219,0.132117,20.8973,899.555,0.00619887,0.0,0.0
649,162,125.02,139.079,114.844,99.663,99.5131,0.00702392,0.124982,20.9037,899.555,0.0145607,0.0,0.0
660,164.75,121.682,134.1,117.705,99.635,99.3982,0.00693423,0.118929,20.9079,899.595,0.0230154,0.0,0.0
671,167.5,118.513,128.918,116.043,99.5729,99.3113,0.00684791,0.114735,20.9114,899.575,0.0254399,0.0,0.0
682,170.25,115.929,124.827,116.904,99.5144,99.144,0.00666421,0.111362,20.9143,899.565,0.0360632,0.0,0.0
693,173,113.306,121.278,117.007,99.4117,99.1448,0.00644429,0.108704,20.9179,899.565,0.0259953,0.0,0.0
704,175.75,111.463,117.636,118.82,99.3029,98.8675,0.00625753,0.106677,20.9204,899.535,0.0424928,0.0,0.0
715,178.5,109.561,114.597,115.893,99.1697,98.779,0.00637906,0.104881,20.9222,899.555,0.0381744,0.0,0.0
726,181.25,107.171,111.651,119.683,99.0109,98.2785,0.00660973,0.103615,20.9245,899.595,0.0718197,0.0,0.0
737,184,105.955,109.243,119.119,98.866,98.2476,0.00659189,0.102519,20.926,899.545,0.0606867,0.0,0.0
748,186.75,104.474,107.188,118.191,98.7084,98.0324,0.00656859,0.101601,20.9277,899.545,0.066469,0.0,0.0
759,189.5,102.56,104.781,119.132,98.5314,97.9171,0.00652029,0.100855,20.9282,899.535,0.0604896,0.0,0.0
770,192.25,101.005,103.286,116.881,98.3727,97.5822,0.00651175,0.100185,20.9299,899.515,0.0780345,0.0,0.0
781,195,98.9954,100.775,119.29,98.2119,97.5939,0.00663615,0.0997084,20.9271,899.535,0.0610465,0.0,0.0
792,197.75,98.2933,99.525,120.705,98.073,97.5574,0.00664707,0.0992874,20.9276,899.535,0.0509839,0.0,0.0
803,200.5,97.626,98.3478,116.269,97.9374,97.0052,0.00644537,0.0990788,20.9283,899.515,0.0924977,0.0,0.0
814,203.25,96.0299,96.1907,119.023,97.8205,97.3,0.00628494,0.098866,20.9303,899.515,0.0515986,0.0,0.0
825,206,95.359,95.8559,123.485,97.6995,97.1599,0.0061029,0.0986034,20.9309,899.485,0.0535607,0.0,0.0
836,208.75,93.883,94.3633,121.977,97.6036,97.1352,0.00612757,0.0984465,20.9311,899.515,0.0465361,0.0,0.0
847,211.5,93.0121,92.9812,120.375,97.5314,97.0771,0.00627501,0.0982133,20.9322,899.505,0.0451545,0.0,0.0
858,214.25,92.4085,92.1243,119.384,97.4896,97.1827,0.00637337,0.0980751,20.9325,899.515,0.030495,0.0,0.0
869,217,91.7293,91.3024,120.238,97.4469,97.3215,0.00647441,0.0979053,20.9303,899.515,0.0124548,0.0,0.0
880,219.75,90.7064,90.209,120.724,97.4295,96.9809,0.00652892,0.0979503,20.93,899.485,0.0446334,0.0,0.0
891,222.5,89.1623,88.8108,118.43,97.4392,96.6955,0.00637414,0.0978208,20.9303,899.465,0.0741084,0.0,0.0
902,225.25,88.8879,88.2467,123.559,97.4879,97.4754,0.00628136,0.0978375,20.9315,899.505,0.00124401,0.0,0.0
913,228,87.7288,86.9292,120.238,97.5322,96.991,0.00634971,0.0976865,20.9323,899.535,0.0538141,0.0,0.0
924,230.75,85.9995,85.8481,121.187,97.5976,98.4831,0.00617334,0.0971618,20.9337,899.505,-0.0873605,0.0,0.0
935,233.5,86.1045,85.3787,118.48,97.7031,97.2752,0.00596804,0.0970466,20.9354,899.485,0.0424514,0.0,0.0
946,236.25,85.1768,84.2235,120.387,97.8383,98.8935,0.00593199,0.0968899,20.9362,899.495,-0.103757,0.0,0.0
957,239,84.6881,83.8187,125.403,97.9865,97.6354,0.00606813,0.0968996,20.9344,899.505,0.0347261,0.0,0.0
968,241.75,84.1863,83.2158,121.862,98.1619,98.0791,,0.0965787,,899.485,0.00816444,0.0,0.0
979,244.5,83.4263,82.7642,121.513,98.3398,98.95,,,,899.485,-0.0598302,0.0,0.0
990,247.25,82.4177,81.7073,122.87,98.4876,98.5403,,,,899.475,-0.00517953,0.0,0.0
1001,250,81.8529,80.9504,120.728,98.6532,99.0377,,,,899.475,-0.0376184,0.0,0.0