File: 01_Data/HDPE/Cone/HDPE_Cone_HF25Scan_220131_R3.csv
Names,Time,Stack TC,Smoke TC,Exh Press,Smoke Comp,Smoke Meas,CO Meter,CO2 Meter,O2 Meter,Sample Mass,Ext Coeff,Start Test,Flame Verif
Chan Gain,,500,500,1,1,1,1,1,1,1,1,1.0,1.0
Offset,,0,0,0.14021,0,0,0,0,0,0,0,0.0,0.0
Gain,,1,1,25.011,13.3046,13.3037,1,1,1,1.00087,1.10262,1.0,1.0
Units,sec,C,C,Pa,%,%,%,%,%,g,/m,,
Baseline,,12.5978,14.0976,170.58,97.7604,100.51,0.00511022,0.0850368,20.9416,1.01776,-0.268255,,
22,5.25,12.2838,13.0524,171.211,96.0384,98.8883,0.00504116,0.088928,20.9389,543.995,-0.282833,0.0,0.0
44,10.75,12.112,13.8438,170.362,96.118,98.8367,0.00493189,0.0893956,20.9381,543.965,-0.269777,0.0,0.0
66,16.25,12.328,13.9425,171.55,96.2053,98.4283,0.00472619,0.0896671,20.938,543.915,-0.220945,0.0,0.0
88,21.75,12.6882,13.8132,170.715,96.323,98.7453,0.00494347,0.0876727,20.9398,543.905,-0.240222,0.0,0.0
110,27.25,12.2328,13.6778,168.162,96.4469,98.6893,0.00485205,0.0861485,20.9419,543.955,-0.222306,0.0,0.0
132,32.75,12.6323,13.6963,169.029,96.5878,98.9,0.00444306,0.0848957,20.9441,543.945,-0.228816,0.0,0.0
154,38.25,12.7569,14.6451,172.116,96.7518,99.3288,0.00462358,0.0843777,20.9457,543.875,-0.254242,0.0,0.0
176,43.75,12.8695,14.8367,166.926,96.9227,98.8452,0.00460909,0.0857179,20.9442,543.884,-0.189969,0.0,0.0
198,49.25,13.0685,14.629,168.597,97.0998,99.6848,0.00448578,0.0856489,20.9466,543.905,-0.254128,0.0,0.0
220,54.75,12.7382,14.3444,168.049,97.2679,100.414,0.00469676,0.084731,20.9486,543.884,-0.30793,0.0,0.0
242,60.25,12.7517,14.6929,168.789,97.4291,100.328,0.0049906,0.0845315,20.9471,543.875,-0.28362,0.0,0.0
264,65.75,13.1038,14.9641,169.051,97.5582,100.238,0.0049283,0.0848951,20.9462,543.875,-0.262119,0.0,0.0
286,71.25,13.1002,15.0974,172.857,97.6767,100.302,0.00494406,0.0867587,20.9426,543.884,-0.256519,0.0,0.0
308,76.75,13.384,14.9349,172.28,97.7774,100.613,0.00473279,0.0868373,20.9434,543.844,-0.276457,0.0,0.0
330,82.25,13.3003,15.1084,166.406,97.8282,100.48,0.00468369,0.0861152,20.9441,543.865,-0.258667,0.0,0.0
352,87.75,13.6785,15.357,171.434,97.8655,100.317,0.00479936,0.0858154,20.9445,543.875,-0.239329,0.0,0.0
374,93.25,14.1492,15.4633,171.207,97.8582,100.128,0.00450242,0.0868712,20.9429,543.844,-0.221794,0.0,0.0
396,98.75,13.2849,15.3285,173.159,97.8237,100.614,0.00461721,0.0874145,20.9434,543.834,-0.271997,0.0,0.0
418,104.25,13.7865,15.1345,164.068,97.7652,100.647,0.00489153,0.0862054,20.9454,544.055,-0.28094,0.0,0.0
440,109.75,13.9754,15.7113,171.669,97.6771,100.501,0.00479757,0.0850317,20.9446,543.314,-0.275644,0.0,0.0
462,115.25,13.6127,15.67,167.755,97.5797,99.5687,0.00506077,0.0849022,20.9426,543.834,-0.195169,0.0,0.0
484,120.75,13.5892,15.5615,170.876,97.4636,99.0779,0.00496603,0.0849546,20.9412,543.865,-0.158886,0.0,0.0
506,126.25,13.6653,15.3634,171.339,97.3535,98.9731,0.00512617,0.0857503,20.9386,543.844,-0.159582,0.0,0.0
528,131.75,13.8069,15.922,169.52,97.2382,99.3401,0.00510685,0.0869639,20.9404,543.824,-0.206845,0.0,0.0
550,137.25,13.9066,15.6913,167.942,97.1359,98.5663,0.00549528,0.08659,20.9407,543.814,-0.14139,0.0,0.0
572,142.75,13.6434,15.9259,170.879,97.1452,98.1603,0.00560858,0.0867482,20.9404,543.774,-0.100539,0.0,0.0
594,148.25,14.1089,15.7638,173.42,97.4226,98.5391,0.0061328,0.0865363,20.9387,543.804,-0.110219,0.0,0.0
616,153.75,14.0452,16.0061,169.657,97.6455,97.2066,0.00666215,0.0859559,20.9389,543.794,0.0435672,0.0,0.0
638,159.25,14.5732,16.3127,168.239,97.7957,98.3495,0.00682678,0.086288,20.938,543.764,-0.0546173,0.0,0.0
660,164.75,14.3119,15.9965,168.144,97.9163,97.1823,0.00719838,0.0862611,20.9367,543.724,0.0727799,0.0,0.0
682,170.25,14.1661,16.0292,169.551,97.9508,96.3634,0.00761315,0.0859076,20.9361,543.684,0.158034,0.0,0.0
704,175.75,14.9438,16.5796,167.899,97.935,96.363,0.008354,0.0863354,20.9315,543.654,0.156511,0.0,0.0
726,181.25,15.0539,17.6027,171.583,97.831,97.7961,0.00874789,0.0964235,20.9078,543.614,0.00345033,0.0,0.0
748,186.75,17.2422,20.5419,166.607,97.6304,101.205,0.00768325,0.120699,20.8601,543.484,-0.347784,0.0,1.0
770,192.25,18.8871,23.0934,160.008,97.3811,102.112,0.00637824,0.158743,20.7993,543.344,-0.458847,0.0,0.0
792,197.75,20.9006,26.6153,157.063,97.481,101.73,0.0058397,0.191605,20.7515,543.184,-0.412676,0.0,0.0
814,203.25,22.7857,29.1389,159.976,97.6,99.6121,0.00564366,0.223634,20.6964,543.044,-0.197376,0.0,0.0
836,208.75,25.6392,33.4736,162.915,97.7214,96.5651,0.00606935,0.262339,20.6216,542.804,0.115123,0.0,0.0
858,214.25,28.3,37.5783,155.349,97.8286,92.6018,0.0069131,0.306637,20.5463,542.533,0.531075,0.0,0.0
880,219.75,30.9419,42.3317,146.441,97.9151,88.1911,0.00825117,0.360173,20.4503,542.213,1.01165,0.0,0.0
902,225.25,35.0109,47.5586,141.853,97.9508,89.0368,0.00997279,0.418326,20.3376,541.833,0.922871,0.0,0.0
924,230.75,39.0007,53.6064,142.594,97.976,86.7007,0.0114031,0.474011,20.2473,541.422,1.18252,0.0,0.0
946,236.25,42.4537,58.7809,146.798,97.9524,89.2609,0.0124168,0.527209,20.1563,540.972,0.898717,0.0,0.0
968,241.75,46.6071,65.6159,139.438,97.8854,80.4187,0.0131721,0.571302,20.0938,540.472,1.90106,0.0,0.0
990,247.25,51.088,70.8883,127.483,97.7819,84.4129,0.0136823,0.627138,19.9948,539.921,1.42199,0.0,0.0
1012,252.75,54.9057,76.1878,145.394,97.6333,84.0276,0.0143324,0.678308,19.9148,539.341,1.45152,0.0,0.0
1034,258.25,58.858,82.7268,136.926,97.4725,82.3577,0.0147326,0.719881,19.8467,538.77,1.62973,0.0,0.0
1056,263.75,62.4796,87.4644,131.681,97.2951,83.6423,0.0150797,0.756807,19.7904,538.23,1.46241,0.0,0.0
1078,269.25,66.1466,92.9177,118.289,97.1115,80.4086,0.0152975,0.803444,19.7156,537.569,1.82551,0.0,0.0
1100,274.75,70.5816,97.9852,123.835,96.9329,81.3533,0.0160419,0.858678,19.6115,536.898,1.69472,0.0,0.0
1122,280.25,75.016,104.289,119.657,96.7766,78.8926,0.0167544,0.910578,19.5277,536.208,1.97618,0.0,0.0
1144,285.75,79.6417,111.68,131.759,96.6081,79.0676,0.0185406,0.979963,19.4055,535.427,1.9379,0.0,0.0
1166,291.25,84.2995,117.539,113.361,96.4542,77.3916,0.0192937,1.04875,19.2945,534.616,2.1297,0.0,0.0
1188,296.75,89.513,126.572,120.572,96.3397,77.2207,0.0207229,1.13345,19.1289,533.776,2.13959,0.0,0.0
1210,302.25,96.2443,136.427,117.875,96.2341,76.2455,0.0218919,1.24152,18.9575,532.875,2.25192,0.0,0.0
1232,307.75,103.05,146.011,107.404,96.1485,73.8067,0.0245601,1.34712,18.778,531.824,2.55773,0.0,0.0
1254,313.25,109.777,156.894,114.106,96.0831,73.5156,0.0273251,1.4672,18.5946,530.803,2.58938,0.0,0.0
1276,318.75,116.891,167.202,106.89,96.0344,72.173,0.0294349,1.59054,18.3872,529.682,2.76275,0.0,0.0
1298,324.25,125.154,180.4,112.361,96.0096,73.2594,0.0313177,1.73768,18.1419,528.491,2.61574,0.0,0.0
1320,329.75,133.445,192.692,96.6883,95.9791,71.1892,0.034081,1.87204,17.9347,527.27,2.88992,0.0,0.0
1342,335.25,140.035,204.632,98.5843,95.9856,70.1872,0.0362377,2.00136,17.7384,525.999,3.02768,0.0,0.0
1364,340.75,148.006,217.693,101.07,95.9828,66.5666,0.0404525,2.1963,17.401,524.558,3.53967,0.0,0.0
1386,346.25,158.358,233.092,88.3083,95.9982,70.0805,0.0449841,2.38742,17.1201,523.257,3.04367,0.0,0.0
1408,351.75,164.757,243.184,96.009,95.9978,67.6258,0.0464828,2.51188,16.9522,521.635,3.38848,0.0,0.0
1430,357.25,171.374,251.855,103.813,96.0047,67.7135,0.0475705,2.59192,16.8575,520.304,3.37665,0.0,0.0
1452,362.75,177.57,261.286,77.5431,96.0218,68.5746,0.050461,2.71652,16.6516,518.713,3.25614,0.0,0.0
1474,368.25,181.232,265.544,85.4003,96.0413,67.2628,0.0485578,2.71725,16.7384,517.231,3.44491,0.0,0.0
1496,373.75,181.729,261.658,115.488,96.0774,67.9311,0.0443654,2.53447,17.1216,515.96,3.35293,0.0,0.0
1518,379.25,175.787,246.313,100.538,96.1468,72.4758,0.0378512,2.19697,17.7222,514.849,2.73356,0.0,0.0
1540,384.75,164.993,222.945,114.537,96.2232,73.6536,0.0280031,1.75462,18.4883,513.988,2.58532,0.0,0.0
1562,390.25,149.942,194.054,135.442,96.3194,75.3779,0.0218446,1.3028,19.2326,513.398,2.37117,0.0,0.0
1584,395.75,134.833,167.142,130.539,96.4611,76.4785,0.0186211,0.965129,19.7412,512.9375,2.24518,0.0,0.0
1606,401.25,118.698,140.415,142.156,96.6203,91.0826,0.0124247,0.657422,20.2631,512.767,0.570864,0.0,0.0
1628,406.75,104.34,115.607,154.147,96.8306,95.6094,0.00839284,0.402492,20.6063,512.717,0.122752,0.0,0.0
1650,412.25,91.7664,96.2158,149.81,97.0165,100.337,0.00672858,0.259549,20.7989,512.697,-0.32552,0.0,0.0
1672,417.75,81.7699,81.5072,154.97,97.1952,100.745,0.0057208,0.179361,20.8883,512.717,-0.346939,0.0,0.0
1694,423.25,75.47,71.3642,154.568,97.3783,100.622,0.00526612,0.138719,20.9208,512.737,-0.316916,0.0,0.0
1716,428.75,70.5189,64.1447,153.786,97.5342,102.33,0.00502566,0.11838,20.9345,512.717,-0.464284,0.0,0.0
1738,434.25,66.5954,58.486,152.171,97.6731,102.191,0.00475032,0.107129,20.9405,512.727,-0.437315,0.0,0.0
1760,439.75,63.2017,54.7511,153.968,97.779,102.345,0.00470544,0.0997215,20.9461,512.737,-0.441417,0.0,0.0
1782,445.25,60.9876,52.1023,153.887,97.8753,102.363,0.00497676,0.0949784,20.9486,512.737,-0.433591,0.0,0.0
1804,450.75,58.1275,48.5541,160.245,97.9293,102.893,0.0049114,0.0920036,20.949,512.717,-0.47819,0.0,0.0
1826,456.25,57.0413,47.185,153.003,97.9634,102.758,0.00496593,0.0898952,20.9489,512.737,-0.462142,0.0,0.0
1848,461.75,54.8375,45.5881,160.968,97.9743,102.972,0.00498288,0.0884562,20.949,512.747,-0.481217,0.0,0.0
1870,467.25,53.6637,44.0389,155.992,97.9743,103.074,0.00484927,0.0869159,20.951,512.767,-0.490784,0.0,0.0
1892,472.75,51.6707,43.0778,156.391,97.922,103.142,0.00490371,0.0857637,20.9513,512.767,-0.502315,0.0,0.0
1914,478.25,50.676,42.0817,157.043,97.8659,103.324,0.00476989,0.0853543,20.9486,512.767,-0.524931,0.0,0.0
1936,483.75,48.7587,40.7814,161.094,97.7644,102.95,0.0048818,0.0853292,20.9488,512.767,-0.499902,0.0,0.0
1958,489.25,47.1059,39.4709,158.36,97.6646,103.239,0.00458062,0.0845562,20.9498,512.767,-0.536908,0.0,0.0
1980,494.75,46.6497,39.434,156.744,97.5419,102.886,0.00461735,0.0836659,20.9516,512.767,-0.515873,0.0,0.0
2002,500.25,44.7735,37.4494,160.784,97.4538,102.786,0.00475726,0.0825869,20.952,512.747,-0.515258,0.0,0.0
2024,505.75,44.311,37.1888,159.69,97.4575,102.754,0.00470438,0.0815612,20.9534,512.757,-0.511839,0.0,0.0
2046,511.25,43.2562,36.1996,159.303,97.6861,102.865,0.00468212,0.0813593,20.9536,512.747,-0.499644,0.0,0.0
2068,516.75,42.2701,36.2109,163.529,97.8607,103.03,0.00474094,0.0811454,20.9536,512.747,-0.497897,0.0,0.0
2090,522.25,41.2932,36.0293,156.618,97.9378,103.457,0.00475414,0.0812749,20.9528,512.757,-0.530212,0.0,0.0
2112,527.75,40.7474,34.5623,158.699,97.9743,103.498,,,,512.737,-0.530476,0.0,0.0
2134,533.25,39.8924,34.4338,161.259,97.9057,102.96,,,,512.767,-0.486849,0.0,0.0
2139,534.5,39.85,33.9956,165.24,97.8834,102.342,,,,512.757,-0.43087,0.0,0.0