File: 01_Data/HDPE/Cone/HDPE_Cone_HF75Scan_220201_R2.csv
Names,Time,Stack TC,Smoke TC,Exh Press,Smoke Comp,Smoke Meas,CO Meter,CO2 Meter,O2 Meter,Sample Mass,Ext Coeff,Start Test,Flame Verif
Chan Gain,,500,500,1,1,1,1,1,1,1,1,1.0,1.0
Offset,,0,0,0.14021,0,0,0,0,0,0,0,0.0,0.0
Gain,,1,1,25.011,13.3046,13.3037,1,1,1,1.00087,1.10262,1.0,1.0
Units,sec,C,C,Pa,%,%,%,%,%,g,/m,,
Baseline,,49.8268,50.5053,131.281,97.5691,102.747,0.0062785,0.0949195,20.9341,-1.04404,-0.500149,,
11,2.5,35.4896,36.8283,135.315,98.5066,104.351,0.00656292,0.0987283,20.9334,929.401,-0.557456,0.0,0.0
22,5.25,36.5109,37.3352,134.425,98.4632,104.509,0.00646158,0.0994011,20.9321,929.341,-0.576351,0.0,0.0
33,8,36.0792,37.9539,130.914,98.4348,104.462,0.0062945,0.0990328,20.9334,929.341,-0.574783,0.0,0.0
44,10.75,36.5424,38.6808,133.47,98.3767,104.186,0.00630983,0.0980252,20.9346,929.291,-0.554969,0.0,0.0
55,13.5,37.4161,39.4336,132.985,98.3085,104.073,0.00642337,0.0964071,20.9363,929.321,-0.551157,0.0,0.0
66,16.25,37.4895,39.705,135.979,98.2626,103.685,0.00635525,0.0951763,20.9371,929.331,-0.519533,0.0,0.0
77,19,37.368,39.6714,136.703,98.2366,103.831,0.00621077,0.0940819,20.9384,929.271,-0.535716,0.0,0.0
88,21.75,37.7562,39.749,131.285,98.1579,103.678,0.00637802,0.0932657,20.9385,929.311,-0.529206,0.0,0.0
99,24.5,37.7083,40.699,128.404,98.1059,102.675,0.00737446,0.0930133,20.9363,929.261,-0.440321,0.0,0.0
110,27.25,37.8317,40.7607,133.228,98.0568,102.008,0.00838362,0.0977137,20.9197,929.301,-0.382085,0.0,0.0
121,30,38.9066,41.4615,129.569,98.0076,103.079,0.00856623,0.116098,20.8872,929.251,-0.487916,0.0,1.0
132,32.75,39.5232,43.3054,127.905,97.9402,102.829,0.00812414,0.151051,20.8321,929.181,-0.471151,0.0,1.0
143,35.5,40.5673,45.2587,123.638,97.9118,99.5748,0.00806532,0.19934,20.7497,929.071,-0.162895,0.0,0.0
154,38.25,42.8402,48.2606,120.376,97.8513,92.232,0.00892068,0.261372,20.6483,928.97,0.572032,0.0,0.0
165,41,45.1727,51.919,121.578,97.8067,87.7043,0.01054,0.348984,20.488,928.77,1.05447,0.0,0.0
176,43.75,47.9638,57.1496,115.588,97.7632,82.6679,0.0126546,0.453971,20.3305,928.51,1.62217,0.0,0.0
187,46.5,53.169,64.9836,107.912,97.7141,80.9449,0.0147274,0.575795,20.0945,928.19,1.82104,0.0,0.0
198,49.25,58.6414,73.0925,112.226,97.6885,74.3357,0.0167034,0.725584,19.8278,927.88,2.64235,0.0,0.0
209,52,64.4102,82.7785,96.541,97.6463,73.3272,0.0189546,0.875028,19.5812,927.489,2.77028,0.0,0.0
220,54.75,70.2698,92.9152,98.8866,97.613,69.4763,0.0217543,1.0305,19.3032,927.119,3.28875,0.0,0.0
231,57.5,76.6262,103.58,90.4577,97.585,69.1779,0.025064,1.2126,19.0205,926.638,3.32761,0.0,0.0
242,60.25,84.582,116.762,87.1672,97.5492,66.5763,0.0281645,1.40204,18.7029,926.058,3.69483,0.0,0.0
253,63,91.8919,128.526,92.082,97.533,66.4846,0.0326135,1.59553,18.3949,925.578,3.70655,0.0,0.0
264,65.75,99.8231,142.212,78.2224,97.5021,64.4477,0.0390693,1.8489,18.0074,924.767,4.00445,0.0,0.0
275,68.5,109.335,157.538,83.6791,97.4822,61.4993,0.0492224,2.18733,17.4652,924.006,4.4554,0.0,0.0
286,71.25,120.533,177.927,77.5095,97.455,60.0077,0.0582887,2.73015,16.6916,923.115,4.69018,0.0,0.0
297,74,133.036,200.461,65.3475,97.4477,62.872,0.0648443,3.23376,15.8656,922.125,4.23846,0.0,0.0
308,76.75,144.136,222.687,76.7974,97.4364,61.1745,0.0697441,3.66711,15.105,921.144,4.50206,0.0,0.0
319,79.5,156.195,244.439,74.406,97.4327,64.9223,0.0742782,4.16247,14.3863,919.983,3.92659,0.0,0.0
330,82.25,168.051,266.331,73.223,97.4213,58.3407,0.0779015,4.63323,13.6906,918.922,4.95933,0.0,0.0
341,85,181.273,291.368,70.3393,97.4157,66.0778,0.0792687,5.18877,12.9032,917.791,3.75428,0.0,0.0
352,87.75,193.748,313.696,56.3286,97.4234,67.9847,0.0796292,5.72773,12.0651,916.38,3.47986,0.0,0.0
363,90.5,205.526,335.792,59.8252,97.4205,71.447,0.0777632,6.40997,11.1126,915.068,2.99913,0.0,0.0
374,93.25,220.047,366.29,63.3111,97.4278,75.3154,0.0716317,7.29389,9.85964,913.467,2.48987,0.0,0.0
385,96,233.708,394.63,43.0354,97.4242,77.4574,0.070106,8.1727,8.47379,912.066,2.21826,0.0,0.0
396,98.75,247.655,421.683,39.7045,97.4319,77.1582,0.0752562,8.97729,7.33811,910.274,2.25647,0.0,0.0
407,101.5,258.597,442.064,55.5264,97.4554,75.1676,0.0798029,9.49187,6.75873,908.793,2.51161,0.0,0.0
418,104.25,266.877,449.116,50.6087,97.4583,68.5576,0.0806229,9.40597,6.85451,907.262,3.40217,0.0,0.0
429,107,270.71,449.448,33.7319,97.49,68.0009,0.0813664,8.9559,7.58239,905.84,3.48416,0.0,0.0
440,109.75,273.034,450.598,55.9752,97.518,65.5041,0.0809338,8.48725,8.31323,904.409,3.84877,0.0,0.0
451,112.5,276.152,451.166,41.1929,97.5716,65.1984,0.0798438,8.14601,8.71014,903.008,3.89933,0.0,0.0
462,115.25,277.866,450.141,55.9127,97.6191,63.712,0.0787699,7.8945,9.06776,901.817,4.12708,0.0,0.0
473,118,280.135,449.37,58.2406,97.6901,69.2064,0.0782254,7.69349,9.40816,900.706,3.33405,0.0,0.0
484,120.75,281.282,447.088,48.0624,97.747,62.831,0.0798489,7.27967,10.0385,899.325,4.27443,0.0,0.0
495,123.5,277.63,432.904,63.3439,97.8473,57.113,0.0762921,6.24692,12.0971,898.584,5.20723,0.0,0.0
506,126.25,267.572,405.767,88.9388,97.963,67.1877,0.0614495,4.55603,14.736,898.194,3.64734,0.0,0.0
517,129,248.318,364.759,106.019,98.11,93.7682,0.0409561,2.93453,17.3773,898.204,0.437784,0.0,0.0
528,131.75,227.046,324.88,109.999,98.2326,97.3788,0.0263736,1.63775,19.0873,898.254,0.084435,0.0,0.0
539,134.5,208.391,290.724,112.264,98.358,98.1424,0.0177845,0.929978,19.8954,898.184,0.0212243,0.0,0.0
550,137.25,193.372,263.114,113.952,98.4973,98.4806,0.0129034,0.568265,20.3631,898.214,0.00163713,0.0,0.0
561,140,181.41,240.229,112.958,98.6585,98.574,0.0103529,0.37226,20.6125,898.234,0.0082854,0.0,0.0
572,142.75,170.146,220.605,112.938,98.7953,98.967,0.00887455,0.269526,20.7414,898.214,-0.0167943,0.0,0.0
583,145.5,161.607,204.05,110.975,98.9106,99.1944,0.00800506,0.212401,20.8098,898.214,-0.027706,0.0,0.0
594,148.25,153.292,189.988,115.598,99.017,98.887,0.0074307,0.176289,20.8488,898.194,0.0127047,0.0,0.0
605,151,146.992,178.473,115.164,99.097,99.2674,0.00706529,0.15399,20.8754,898.234,-0.0166222,0.0,0.0
616,153.75,141.803,168.116,115.672,99.1624,99.0839,0.0069646,0.138443,20.8905,898.244,0.00765292,0.0,0.0
627,156.5,136.489,159.325,114.967,99.1993,99.2374,0.00687552,0.127854,20.9017,898.214,-0.00371339,0.0,0.0
638,159.25,132.368,151.737,114.817,99.2334,99.0048,0.00674076,0.119663,20.9094,898.164,0.0223114,0.0,0.0
649,162,128.326,145.411,118.078,99.2618,99.0856,0.00664821,0.113374,20.9164,898.164,0.0171922,0.0,0.0
660,164.75,125.007,139.555,114.925,99.2643,98.7713,0.00664744,0.109048,20.9214,898.204,0.0481528,0.0,0.0
671,167.5,122.001,134.426,117.946,99.2123,98.9171,0.00680376,0.105491,20.9255,898.174,0.0288248,0.0,0.0
682,170.25,118.992,129.487,115.665,99.1433,98.5902,0.00693999,0.102986,20.9289,898.174,0.0541042,0.0,0.0
693,173,116.637,125.22,115.682,99.0718,98.6877,0.00697303,0.100847,20.931,898.204,0.0375748,0.0,0.0
704,175.75,114.175,121.619,118.02,98.9951,98.6239,0.00678919,0.0994058,20.9336,898.214,0.0363297,0.0,0.0
715,178.5,111.391,117.963,116.052,98.9342,98.3735,0.00663612,0.0980149,20.9358,898.294,0.0549744,0.0,0.0
726,181.25,110.402,115.71,118.913,98.8997,98.0572,0.00656771,0.0970307,20.9364,898.254,0.0827467,0.0,0.0
737,184,108.174,112.576,117.76,99.1774,98.248,0.00649589,0.096286,20.934,898.204,0.0910643,0.0,0.0
748,186.75,107.375,110.751,115.947,99.393,98.3316,0.00651288,0.0955058,20.9354,898.204,0.103838,0.0,0.0
759,189.5,105.415,108.713,119.805,99.5388,98.8586,0.00649146,0.0948782,20.9372,898.164,0.0663155,0.0,0.0
770,192.25,103.298,105.96,119.874,99.6053,99.1254,0.00631928,0.094588,20.9401,898.224,0.046722,0.0,0.0
781,195,102.706,105.125,115.896,99.6049,99.3422,0.00617101,0.0945385,20.9421,898.244,0.0255502,0.0,0.0
792,197.75,101.38,102.779,117.427,99.5351,99.0291,0.00621149,0.0946449,20.9442,898.234,0.049292,0.0,0.0
803,200.5,100.304,101.354,117.501,99.4145,99.0454,0.00631769,0.0945178,20.9456,898.244,0.0359805,0.0,0.0
814,203.25,99.2863,99.7871,122.737,99.2484,98.4599,0.00652867,0.0944448,20.9484,898.234,0.0771504,0.0,0.0
825,206,98.0002,98.043,117.81,99.0056,98.41,0.00642997,0.0943032,20.9421,898.144,0.0583674,0.0,0.0
836,208.75,96.8474,97.0289,119.4,98.9013,97.9277,0.00599751,0.0941076,20.9397,898.204,0.0956892,0.0,0.0
847,211.5,95.8483,95.4252,118.931,98.9719,98.5716,0.00577964,0.093878,20.9392,898.214,0.0392056,0.0,0.0
858,214.25,94.6551,94.4355,122.313,99.0666,98.3921,0.00564112,0.0938219,20.9404,898.194,0.0660705,0.0,0.0
869,217,93.6182,92.8612,121.841,99.175,98.9991,0.00583678,0.0936174,20.9407,898.184,0.0171668,0.0,0.0
880,219.75,92.9835,92.1692,118.054,99.2708,98.2764,0.00613877,0.0935284,20.9409,898.244,0.0973695,0.0,0.0
891,222.5,91.7851,90.9874,121.286,99.367,98.6313,0.0062124,0.0934007,20.9409,898.204,0.0718827,0.0,0.0
902,225.25,91.0585,90.8098,120.702,99.4523,98.7254,0.00617597,0.0936176,20.9421,898.244,0.0709453,0.0,0.0
913,228,90.2312,89.3045,119.725,99.5278,98.7624,0.00607699,0.0938447,20.9416,898.204,0.074669,0.0,0.0
924,230.75,89.5275,88.6996,123.256,99.5725,99.8801,0.00607181,0.0938183,20.9409,898.164,-0.0298367,0.0,0.0
935,233.5,88.8635,87.2568,123.129,99.5794,99.3742,0.00608795,0.0934958,20.9407,898.114,0.0199437,0.0,0.0
946,236.25,87.5202,86.6251,121.325,99.5834,98.9593,0.00613201,0.0932517,20.9413,898.194,0.0608082,0.0,0.0
957,239,87.2697,85.9678,124.227,99.5603,99.3292,0.00621282,0.0927698,20.9415,898.174,0.0224782,0.0,0.0
968,241.75,86.0949,85.5689,120.025,99.5111,99.3897,,0.0923301,,898.083,0.0118157,0.0,0.0
979,244.5,85.4992,84.5812,121.268,99.445,100.473,,,,898.054,-0.0994605,0.0,0.0
990,247.25,84.4127,82.846,125.018,99.3309,100.022,,,,898.164,-0.0670827,0.0,0.0
1001,250,83.774,82.3234,123.974,99.242,100.224,,,,898.144,-0.0952374,0.0,0.0
1008,251.75,83.9769,82.5645,121.947,99.1583,98.8472,,,,898.174,0.0303892,0.0,0.0