File: 01_Data/HDPE/Cone/HDPE_Cone_HF75Scan_220201_R3.csv
Names,Time,Stack TC,Smoke TC,Exh Press,Smoke Comp,Smoke Meas,CO Meter,CO2 Meter,O2 Meter,Sample Mass,Ext Coeff,Start Test,Flame Verif
Chan Gain,,500,500,1,1,1,1,1,1,1,1,1.0,1.0
Offset,,0,0,0.14021,0,0,0,0,0,0,0,0.0,0.0
Gain,,1,1,25.011,13.3046,13.3037,1,1,1,1.00087,1.10262,1.0,1.0
Units,sec,C,C,Pa,%,%,%,%,%,g,/m,,
Baseline,,50.2286,50.8859,130.777,99.3893,104.635,0.00652155,0.0811664,20.961,-1.30143,-0.497475,,
11,2.5,42.5055,42.1146,133.525,99.2367,104.841,0.00643187,0.0894346,20.9513,929.071,-0.531318,0.0,0.0
22,5.25,42.1774,42.5935,130.669,99.0869,104.284,0.00656108,0.0905825,20.9492,929.131,-0.494405,0.0,0.0
33,8,43.1068,43.0444,130.487,98.9066,104.217,0.00650584,0.0911462,20.9481,929.121,-0.505841,0.0,0.0
44,10.75,42.6248,43.55,129.956,98.8412,104.229,0.0064897,0.0919219,20.9478,929.081,-0.513329,0.0,0.0
55,13.5,43.4247,43.7247,131.51,98.8863,104.303,0.00651161,0.0927588,20.9477,929.081,-0.515811,0.0,0.0
66,16.25,43.266,44.759,131.952,98.9139,104.343,0.00635483,0.0926817,20.9476,929.091,-0.516838,0.0,0.0
77,19,43.5843,44.3948,128.011,98.9577,104.342,0.00612471,0.0915331,20.9489,929.081,-0.512401,0.0,0.0
88,21.75,43.3299,44.8631,130.508,98.9821,104.417,0.00633443,0.0902473,20.9488,929.081,-0.516979,0.0,0.0
99,24.5,44.314,44.3184,129.021,99.0146,103.36,0.0072137,0.0892858,20.9474,929.051,-0.415453,0.0,0.0
110,27.25,43.4859,45.5973,128.019,99.0617,102.99,0.00833664,0.0926766,20.941,929.061,-0.376105,0.0,0.0
121,30,44.7212,46.2292,128.068,99.1007,104.348,0.00863636,0.111257,20.9097,928.98,-0.499006,0.0,1.0
132,32.75,45.2891,47.417,132.16,99.1222,103.742,0.00814763,0.147838,20.848,928.88,-0.440557,0.0,1.0
143,35.5,46.4366,49.5967,126.72,99.1603,101.008,0.0079877,0.19706,20.7679,928.76,-0.178519,0.0,0.0
154,38.25,48.848,52.1816,119.96,99.177,92.273,0.00901473,0.261505,20.6399,928.73,0.697889,0.0,0.0
165,41,51.0187,55.9006,121.884,99.1936,84.3215,0.0106023,0.34888,20.4858,928.58,1.5711,0.0,0.0
176,43.75,54.0173,61.8363,115.36,99.2306,82.6846,0.0125959,0.448513,20.3088,928.35,1.76432,0.0,0.0
187,46.5,58.0835,67.9252,104.551,99.2107,79.7776,0.0145148,0.575822,20.0913,928.07,2.10854,0.0,0.0
198,49.25,63.1909,74.8619,102.062,99.2156,77.213,0.0162705,0.705311,19.8784,927.719,2.42506,0.0,0.0
209,52,68.8757,84.714,104.464,99.2115,77.2666,0.0178905,0.851931,19.6672,927.299,2.41795,0.0,0.0
220,54.75,74.1993,92.756,108.776,99.1916,72.7815,0.020299,0.969976,19.4912,926.919,2.9944,0.0,0.0
231,57.5,79.4596,101.248,98.5614,99.1814,67.3713,0.0239852,1.1291,19.1688,926.548,3.74052,0.0,0.0
242,60.25,86.3667,112.361,88.8449,99.1409,67.3542,0.0281581,1.33002,18.8123,925.998,3.73901,0.0,0.0
253,63,93.1767,123.331,85.4483,99.1185,62.5086,0.0329457,1.53197,18.5446,925.407,4.45895,0.0,0.0
264,65.75,100.817,136.26,83.0654,99.0942,62.0202,0.0393176,1.77215,18.0511,924.717,4.53244,0.0,0.0
275,68.5,110.037,151.798,73.6542,99.0702,63.6588,0.0467212,2.12626,17.5243,923.886,4.27788,0.0,0.0
286,71.25,119.346,168.526,64.9933,99.0674,61.5314,0.0544953,2.49661,16.8985,923.105,4.60636,0.0,0.0
297,74,129.7,187.282,59.1718,99.0304,60.1344,0.0621219,2.9337,16.3059,922.205,4.82488,0.0,0.0
308,76.75,139.822,204.896,66.874,99.0097,63.1197,0.0706155,3.31366,15.8012,921.104,4.35424,0.0,0.0
319,79.5,150.961,225.859,67.7785,98.9748,59.1795,0.0776667,3.8322,14.9399,920.213,4.97427,0.0,0.0
330,82.25,162.391,245.316,58.8154,98.9476,64.6223,0.0813366,4.3257,14.2082,919.132,4.12062,0.0,0.0
341,85,173.483,266.446,57.6033,98.9163,67.1711,0.0817228,4.78363,13.5484,917.921,3.74341,0.0,0.0
352,87.75,184.908,286.504,48.4776,98.8875,67.6282,0.0818875,5.2321,12.8386,916.68,3.67498,0.0,0.0
363,90.5,196.189,308.83,55.7371,98.8643,76.1249,0.0806442,5.80953,12.0136,915.479,2.52803,0.0,0.0
374,93.25,209.165,331.573,51.649,98.8542,74.9695,0.0766476,6.35328,11.1858,914.128,2.67497,0.0,0.0
385,96,221.982,356.303,44.1674,98.8213,74.2175,0.0739785,6.82826,10.5782,912.786,2.76925,0.0,0.0
396,98.75,230.607,371.524,60.6129,98.803,79.7001,0.0731208,7.18642,10.1499,911.445,2.07812,0.0,0.0
407,101.5,240.654,388.433,57.6896,98.7681,71.5433,0.0724283,7.59875,9.47121,910.014,3.11899,0.0,0.0
418,104.25,249.765,402.87,67.9014,98.7563,80.0655,0.0706528,7.908,9.04693,908.403,2.02931,0.0,0.0
429,107,258.458,418.447,38.7077,98.7653,83.7,0.0699417,8.29327,8.46786,906.931,1.60081,0.0,0.0
440,109.75,265.638,429.032,59.0459,98.7876,79.9839,0.0701431,8.58129,8.03944,905.31,2.04224,0.0,0.0
451,112.5,272.641,439.948,37.8612,98.8201,87.1513,0.0685013,8.89246,7.56366,903.899,1.21535,0.0,0.0
462,115.25,281.518,451.789,46.8625,98.8181,75.3848,0.0662147,9.14442,7.25829,902.307,2.618,0.0,0.0
473,118,287.954,448.435,72.1674,98.8639,74.7941,0.0690054,9.13974,7.24376,900.996,2.69858,0.0,0.0
484,120.75,290.34,448.088,68.4418,98.911,64.5309,0.0771578,8.65639,7.92075,899.545,4.13073,0.0,0.0
495,123.5,287.632,451.331,66.2428,98.9634,58.1373,0.0839021,7.65383,9.54869,898.684,5.14501,0.0,0.0
506,126.25,280.08,430.88,76.5493,99.0142,60.5789,0.0739996,5.83881,12.4484,898.174,4.75206,0.0,0.0
517,129,263.896,392.742,107.94,99.0629,87.6101,0.0537579,3.83598,15.7467,898.054,1.1883,0.0,0.0
528,131.75,241.03,349.397,110.962,99.1067,98.0166,0.0336119,2.19965,18.1658,897.953,0.106982,0.0,0.0
539,134.5,221.238,313.624,111.928,99.1478,98.7807,0.0215672,1.20539,19.5228,898.064,0.0358772,0.0,0.0
550,137.25,205.571,283.354,113.867,99.1603,99.2711,0.0150638,0.693642,20.1657,898.013,-0.0107976,0.0,0.0
561,140,191.493,258.595,110.243,99.2156,99.1566,0.0113626,0.444993,20.5097,898.013,0.00574833,0.0,0.0
572,142.75,180.002,237.424,115.124,99.2273,99.5196,0.00957912,0.30769,20.6818,898.023,-0.0284443,0.0,0.0
583,145.5,170.525,218.675,111.004,99.2415,99.2179,0.00864587,0.235755,20.7717,898.023,0.00230343,0.0,0.0
594,148.25,161.734,204.122,115.029,99.2391,99.0421,0.00805726,0.190634,20.8308,898.034,0.0192176,0.0,0.0
605,151,154.314,190.975,115.199,99.2216,99.0827,0.00759047,0.162757,20.8675,898.013,0.0135521,0.0,0.0
616,153.75,148.578,179.907,114.894,99.2001,99.0149,0.00715728,0.144077,20.8886,898.064,0.0180749,0.0,0.0
627,156.5,142.738,170.581,111.249,99.1721,99.2005,0.00694319,0.130208,20.9043,897.983,-0.00276472,0.0,0.0
638,159.25,137.988,161.785,118.35,99.1173,99.2293,0.00686421,0.121337,20.9133,898.023,-0.0109217,0.0,0.0
649,162,133.273,153.42,117.484,99.0682,98.7924,0.00673517,0.114059,20.9215,898.023,0.0269577,0.0,0.0
660,164.75,130.173,148.154,115.644,99.0101,98.7364,0.0067956,0.108822,20.9283,898.044,0.0267737,0.0,0.0
671,167.5,126.356,142.069,115.121,98.9541,98.5996,0.00686132,0.10479,20.9306,898.034,0.0347111,0.0,0.0
682,170.25,123.814,137.025,117.907,98.9066,98.3929,0.00678578,0.102013,20.9314,898.003,0.0503599,0.0,0.0
693,173,121.262,132.951,116.302,98.8761,98.5622,0.00686006,0.0996446,20.9329,898.013,0.0307524,0.0,0.0
704,175.75,119.12,128.489,117.143,99.0235,98.548,0.00681189,0.0981638,20.9352,898.023,0.0465545,0.0,0.0
715,178.5,116.501,124.203,116.211,99.2005,98.775,0.00667796,0.0968996,20.9374,898.023,0.0415812,0.0,0.0
726,181.25,114.037,121.563,115.676,99.3739,98.6909,0.00664754,0.0958783,20.9395,898.044,0.0667026,0.0,0.0
737,184,112.188,118.724,115.291,99.4835,98.8915,0.00661277,0.0951259,20.9416,898.003,0.0577313,0.0,0.0
748,186.75,110.731,115.274,116.168,99.5518,99.0726,0.00660878,0.0943592,20.9433,897.993,0.0466681,0.0,0.0
759,189.5,108.844,113.693,117.48,99.5899,98.9159,0.00652846,0.0936877,20.945,897.983,0.0656857,0.0,0.0
770,192.25,107.539,110.796,117.572,99.5712,98.9719,0.00641722,0.0932751,20.941,898.023,0.0583949,0.0,0.0
781,195,105.93,109.211,117.545,99.5306,98.8265,0.00631462,0.0929191,20.94,898.003,0.068665,0.0,0.0
792,197.75,104.796,106.661,121.488,99.4393,99.2017,0.00628657,0.0924841,20.942,898.003,0.0231373,0.0,0.0
803,200.5,103.08,105.454,117.746,99.2858,98.6828,0.00637875,0.0921102,20.9447,897.983,0.0589197,0.0,0.0
814,203.25,102,103.407,118.745,99.069,98.332,0.00636618,0.0915875,20.9468,898.023,0.0722168,0.0,0.0
825,206,101.108,101.871,117.225,98.855,98.2111,0.00630888,0.0911408,20.9484,897.993,0.0632117,0.0,0.0
836,208.75,99.9512,101.02,117.207,98.9277,98.2586,0.00629406,0.0907226,20.9497,898.073,0.0656433,0.0,0.0
847,211.5,98.9512,99.1122,118.81,99.0056,98.7445,0.00635079,0.0905358,20.9494,898.013,0.0255422,0.0,0.0
858,214.25,98.4229,97.7469,118.8,99.0921,98.289,0.0063328,0.0901728,20.9494,898.003,0.0787104,0.0,0.0
869,217,96.9808,96.8333,120.09,99.205,98.5387,0.00610328,0.090061,20.9488,898.023,0.0651818,0.0,0.0
880,219.75,96.0312,95.9648,118.653,99.3195,98.0779,0.00607589,0.0898762,20.9501,897.983,0.121675,0.0,0.0
891,222.5,95.0868,94.6933,120.847,99.4259,98.8123,0.0062833,0.0897503,20.9506,897.993,0.0598709,0.0,0.0
902,225.25,94.2208,93.3487,118.973,99.5055,99.0941,0.00645393,0.0894905,20.9508,897.993,0.0400691,0.0,0.0
913,228,93.4285,92.5419,118.41,99.5501,98.9,0.00634052,0.0893263,20.9508,898.003,0.0633698,0.0,0.0
924,230.75,93.0193,91.5206,120.554,99.5639,98.8862,0.006276,0.0889973,20.9523,897.993,0.0660601,0.0,0.0
935,233.5,91.7967,91.0475,126.342,99.5643,99.1258,0.00637029,0.0889504,20.9523,897.983,0.0426994,0.0,0.0
946,236.25,91.0497,90.2391,121.367,99.5383,99.0527,0.00650791,0.0888236,20.9523,898.003,0.0473072,0.0,0.0
957,239,90.5276,89.0198,120.193,99.4665,99.6621,,0.0887405,,898.003,-0.0190012,0.0,0.0
968,241.75,89.6511,88.3232,118.352,99.3394,99.3348,,0.0889596,,897.933,0.000442744,0.0,0.0
979,244.5,88.3801,87.7583,120.296,99.2131,99.5776,,,,898.023,-0.0354703,0.0,0.0
990,247.25,87.4837,86.5975,119.919,99.0649,99.06,,,,898.013,0.000481944,0.0,0.0
1000,249.75,86.5413,85.3408,118.229,98.9175,98.3223,,,,898.013,0.0583777,0.0,0.0