File: 01_Data/HDPE/Cone/HDPE_Cone_HF50Scan_220131_R1.csv
Names,Time,Stack TC,Smoke TC,Exh Press,Smoke Comp,Smoke Meas,CO Meter,CO2 Meter,O2 Meter,Sample Mass,Ext Coeff,Start Test,Flame Verif
Chan Gain,,500,500,1,1,1,1,1,1,1,1,1.0,1.0
Offset,,0,0,0.14021,0,0,0,0,0,0,0,0.0,0.0
Gain,,1,1,25.011,13.3046,13.3037,1,1,1,1.00087,1.10262,1.0,1.0
Units,sec,C,C,Pa,%,%,%,%,%,g,/m,,
Baseline,,24.5378,26.922,164.166,97.863,102.995,0.00550144,0.0859644,20.9436,0.837229,-0.49435,,
12,2.75,23.0973,25.2499,158.456,97.2861,102.107,0.00551521,0.0935647,20.936,543.534,-0.46775,0.0,0.0
24,5.75,23.303,25.8806,162.883,97.2143,102.288,0.00550031,0.0923527,20.9378,543.584,-0.492073,0.0,0.0
36,8.75,23.6273,26.041,160.336,97.1501,102.113,0.00545302,0.0910873,20.9399,543.564,-0.481897,0.0,0.0
48,11.75,23.4964,26.2254,164.021,97.0868,102.49,0.0053403,0.0901642,20.9431,543.554,-0.523827,0.0,0.0
60,14.75,23.6489,26.2374,163.601,96.9901,102.149,0.00531048,0.0891859,20.945,543.514,-0.50122,0.0,0.0
72,17.75,24.0196,26.3348,165.639,96.9625,101.384,0.00549672,0.0878528,20.9465,543.544,-0.431315,0.0,0.0
84,20.75,24.032,26.2441,161.447,96.8915,102.147,0.00553801,0.0861563,20.9499,543.554,-0.510872,0.0,0.0
96,23.75,24.3009,26.6742,161.814,96.8164,101.575,0.00561961,0.0845565,20.9519,543.534,-0.464093,0.0,0.0
108,26.75,23.9641,26.5124,164.01,96.7433,101.73,0.00565844,0.0836588,20.9531,543.504,-0.486154,0.0,0.0
120,29.75,24.1831,26.5124,163.982,96.6726,101.8,0.00544178,0.083172,20.9528,543.484,-0.499895,0.0,0.0
132,32.75,23.7032,26.455,163.389,96.6211,101.721,0.00543705,0.0831504,20.9523,543.474,-0.497493,0.0,0.0
144,35.75,23.603,26.373,170.724,96.5622,101.323,0.00548442,0.083641,20.9518,543.504,-0.46552,0.0,0.0
156,38.75,23.8275,27.0879,161.821,96.5049,101.433,0.00554732,0.0841045,20.9501,543.494,-0.481753,0.0,0.0
168,41.75,24.3322,26.5423,162.153,96.4733,99.7262,0.00607472,0.0844401,20.9471,543.464,-0.320753,0.0,0.0
180,44.75,24.1819,27.4879,168.984,96.4079,98.8375,0.00678725,0.0849022,20.9446,543.464,-0.240728,0.0,0.0
192,47.75,24.2867,27.018,164.411,96.3511,98.4421,0.00761141,0.0850395,20.9415,543.434,-0.207658,0.0,0.0
204,50.75,24.9643,27.2377,160.445,96.2987,97.3211,0.00890062,0.0852741,20.9381,543.414,-0.10215,0.0,0.0
216,53.75,24.3215,27.3554,162.447,96.2532,96.1928,0.00965519,0.0868342,20.9326,543.334,0.00606751,0.0,0.0
228,56.75,25.1224,28.8524,155.714,96.2134,101.439,0.00860496,0.105093,20.8862,543.304,-0.511557,0.0,1.0
240,59.75,25.8132,29.731,154.592,96.1724,101.33,0.0074975,0.135412,20.8305,543.244,-0.505263,0.0,1.0
252,62.75,27.976,32.5774,155.01,96.1294,101.076,0.00688415,0.168429,20.772,543.154,-0.485302,0.0,0.0
264,65.75,30.162,35.5744,152.183,96.0904,98.9496,0.00680544,0.202815,20.716,543.064,-0.283594,0.0,0.0
276,68.75,32.5378,38.4931,149.665,96.0697,94.1137,0.00744366,0.241137,20.6263,542.904,0.198952,0.0,0.0
288,71.75,34.4527,41.9058,141.764,96.0441,85.9167,0.00855654,0.297487,20.5131,542.734,1.07776,0.0,0.0
300,74.75,37.542,47.493,140.477,96.0506,86.8517,0.0100607,0.361826,20.4017,542.433,0.97372,0.0,0.0
312,77.75,41.4092,53.5266,136.009,96.0628,84.4661,0.0116115,0.432615,20.2842,542.233,1.24433,0.0,0.0
324,80.75,45.8911,60.2954,142.779,96.0835,82.5461,0.0135964,0.501896,20.1606,541.983,1.46881,0.0,0.0
336,83.75,50.678,67.6645,133.658,96.1111,79.8118,0.0151227,0.593856,19.9577,541.653,1.79741,0.0,0.0
348,86.75,55.9793,76.6277,129.169,96.1379,76.2374,0.0172191,0.70208,19.7562,541.212,2.24327,0.0,0.0
360,89.75,61.3818,85.3081,114.157,96.1968,73.7965,0.0193569,0.828546,19.5151,540.752,2.56392,0.0,0.0
372,92.75,67.9359,96.1195,126.735,96.2183,73.0617,0.0217141,0.977383,19.223,540.171,2.66288,0.0,0.0
384,95.75,76.0387,108.931,106.235,96.2816,70.1933,0.0248918,1.14823,18.9351,539.641,3.05662,0.0,0.0
396,98.75,83.5863,122.273,121.599,96.3141,67.3428,0.028246,1.32598,18.6476,538.99,3.46086,0.0,0.0
408,101.75,91.6967,135.392,100.487,96.3494,67.0517,0.0319506,1.50564,18.3967,538.32,3.5063,0.0,0.0
420,104.75,100.486,148.801,118.756,96.3933,67.3713,0.0360818,1.68385,18.0874,537.619,3.46472,0.0,0.0
432,107.75,107.933,162.241,110.824,96.4172,65.0404,0.0396397,1.85851,17.8338,536.858,3.80768,0.0,0.0
444,110.75,115.149,173.714,97.7279,96.4542,65.2629,0.043161,2.00556,17.6012,536.048,3.77835,0.0,0.0
456,113.75,122.9,186.081,93.5696,96.4672,64.7895,0.0461509,2.16172,17.37,535.177,3.85007,0.0,0.0
468,116.75,128.805,195.468,102.983,96.5013,66.6802,0.0481564,2.27437,17.2168,533.015,3.57527,0.0,0.0
480,119.75,135.468,206.511,73.9504,96.5232,67.9985,0.0494594,2.40768,16.992,533.445,3.38812,0.0,0.0
492,122.75,143.493,219.391,77.2042,96.5573,67.6096,0.0512499,2.58442,16.7179,532.555,3.44702,0.0,0.0
504,125.75,151.517,233.343,89.0113,96.5634,68.2218,0.0556064,2.78744,16.398,531.694,3.36043,0.0,0.0
516,128.75,161.281,249.672,87.3001,96.5679,67.8203,0.0606363,3.07078,15.9161,530.673,3.41798,0.0,0.0
528,131.75,172.113,269.859,97.1814,96.5829,66.6608,0.0653287,3.48262,15.1411,529.502,3.58627,0.0,0.0
540,134.75,183.493,292.419,61.3144,96.5821,66.6526,0.0690096,3.9903,14.3298,528.311,3.58737,0.0,0.0
552,137.75,197.77,322.57,101.02,96.5707,63.9077,0.070432,4.59838,13.3844,526.9,3.99299,0.0,0.0
564,140.75,212.475,354.518,58.2353,96.5748,69.4638,0.0703461,5.29803,12.2838,525.408,3.18708,0.0,0.0
576,143.75,226.278,384.029,62.7325,96.5419,75.8456,0.0682708,6.00622,11.2429,523.847,2.33366,0.0,0.0
588,146.75,242.27,417.197,76.4249,96.5123,77.9206,0.0653407,6.71845,10.2877,522.436,2.06963,0.0,0.0
600,149.75,254.46,437.366,97.289,96.4964,73.0446,0.0654182,7.1674,9.80483,520.794,2.69306,0.0,0.0
612,152.75,263.104,448.844,79.2483,96.4432,71.2091,0.0685645,7.28587,10.0111,519.253,2.93387,0.0,0.0
624,155.75,265.108,442.449,99.4071,96.3868,59.171,0.0702661,6.66299,11.4584,518.112,4.71939,0.0,0.0
636,158.75,254.871,407.663,97.834,96.336,63.4449,0.0603147,5.31694,13.8051,517.532,4.03976,0.0,0.0
648,161.75,231.389,352.394,124.41,96.2861,82.6549,0.0423256,3.68847,16.5627,517.271,1.47644,0.0,0.0
660,164.75,205.871,298.196,135.218,96.2496,91.2637,0.0268767,2.35687,18.5948,517.191,0.514475,0.0,0.0
672,167.75,181.556,251.643,136.179,96.1927,91.6839,0.0184108,1.4477,19.6293,517.121,0.46433,0.0,0.0
684,170.75,164.457,217.673,135.722,96.1525,90.5889,0.0139103,0.967919,20.0885,517.031,0.576496,0.0,0.0
696,173.75,150.795,191.748,132.181,96.1099,91.1999,0.0112957,0.696812,20.3539,516.991,0.507188,0.0,0.0
708,176.75,139.113,171.341,137.417,96.0835,92.2445,0.00995564,0.545702,20.4755,516.891,0.394374,0.0,0.0
720,179.75,130.479,155.249,135.067,96.0656,91.4029,0.00919698,0.460323,20.5466,516.841,0.481228,0.0,0.0
732,182.75,123.24,141.826,136.599,96.0774,91.664,0.00886333,0.400895,20.5908,516.751,0.454828,0.0,0.0
744,185.75,117.021,131.814,138.084,96.0737,92.2628,0.00841532,0.360389,20.6203,516.701,0.391478,0.0,0.0
756,188.75,111.781,123.515,135.875,96.118,91.9214,0.00807063,0.330392,20.6426,516.641,0.431792,0.0,0.0
768,191.75,108.006,116.839,139.535,96.1704,93.141,0.00805481,0.309396,20.6561,516.551,0.309576,0.0,0.0
780,194.75,104.246,111.154,138.496,96.2163,93.5454,0.00789877,0.292841,20.6734,516.491,0.272288,0.0,0.0
792,197.75,99.9317,105.057,136.447,96.2967,93.4552,0.00773185,0.277139,20.6901,516.441,0.289691,0.0,0.0
804,200.75,97.7935,101.154,137.323,96.3706,94.093,0.0077915,0.263762,20.7043,516.37,0.231323,0.0,0.0
816,203.75,96.3774,98.7552,137.258,96.4396,93.875,0.00772073,0.252915,20.717,516.3,0.260686,0.0,0.0
828,206.75,93.6348,95.5394,138.381,96.5236,94.9192,0.00754409,0.242887,20.7311,516.27,0.162117,0.0,0.0
840,209.75,92.0978,92.354,142.605,96.6146,94.7532,0.00742977,0.234005,20.7417,516.23,0.188162,0.0,0.0
852,212.75,90.0043,90.1206,139.634,96.6674,95.3991,0.00715811,0.227449,20.7494,516.14,0.127732,0.0,0.0
864,215.75,88.6662,88.0663,145.482,96.7449,95.3086,0.00698095,0.221271,20.7556,516.09,0.144672,0.0,0.0
876,218.75,86.8169,85.8999,139.296,96.8131,95.7584,0.00694044,0.215937,20.7584,516.04,0.105946,0.0,0.0
888,221.75,85.7066,84.1906,143.095,96.8927,96.9159,0.00700928,0.210551,20.7663,516.03,-0.00231782,0.0,0.0
900,224.75,84.5294,82.7409,143.306,96.9792,95.907,0.00699251,0.204957,20.773,515.97,0.107525,0.0,0.0
912,227.75,83.1703,81.6099,143.571,97.06,96.2274,0.0069522,0.200454,20.7814,515.92,0.0833297,0.0,0.0
924,230.75,81.4473,79.5367,144.008,97.142,98.5115,0.00688883,0.195242,20.7891,515.89,-0.135403,0.0,0.0
936,233.75,80.7236,78.5756,141.48,97.2155,98.3154,0.00666927,0.190863,20.7956,515.84,-0.108817,0.0,0.0
948,236.75,78.9463,76.7268,143.486,97.2914,98.4437,0.00649755,0.18655,20.8035,515.81,-0.113879,0.0,0.0
960,239.75,78.3858,76.2356,146.91,97.3625,98.8322,0.00671599,0.182509,20.8056,515.76,-0.144916,0.0,0.0
972,242.75,77.5822,74.605,142.914,97.4193,97.9784,0.00680486,0.178907,20.8083,515.71,-0.0553513,0.0,0.0
984,245.75,76.2175,73.8727,142.882,97.5021,99.0446,0.00679616,0.175171,20.8126,515.7,-0.15181,0.0,0.0
996,248.75,75.3991,72.1598,145.549,97.5785,99.0462,0.00690047,0.172274,20.8159,515.65,-0.144399,0.0,0.0
1008,251.75,74.0672,71.5348,148.158,97.6313,99.5281,0.00701951,0.169468,20.8199,515.61,-0.186114,0.0,0.0
1020,254.75,73.3088,71.2265,147.437,97.7023,99.0965,0.0068591,0.167442,20.8228,515.57,-0.137046,0.0,0.0
1032,257.75,72.6318,69.7767,149.06,97.7717,100.114,0.00663092,0.164864,20.8282,515.54,-0.228973,0.0,0.0
1044,260.75,71.7662,68.8787,147.397,97.831,100.785,0.00666197,0.162266,20.8307,515.51,-0.287691,0.0,0.0
1056,263.75,70.5321,68.385,143.449,97.8801,99.9398,0.00662677,0.159884,20.8346,515.49,-0.201412,0.0,0.0
1068,266.75,69.7295,67.7099,147.267,97.9362,99.3292,0.00660736,0.157435,20.8359,515.44,-0.136601,0.0,0.0
1080,269.75,69.0416,66.4849,148.18,97.9382,100.741,0.00661938,0.155255,20.8408,515.41,-0.27293,0.0,0.0
1092,272.75,68.759,65.8735,148.53,97.9845,100.503,0.00658892,0.153083,20.8455,515.38,-0.245451,0.0,0.0
1104,275.75,67.8201,65.2173,146.645,97.9987,101.308,0.00654125,0.15114,20.8498,515.38,-0.32122,0.0,0.0
1116,278.75,67.1187,64.3014,150.769,98.0283,101.153,,0.149046,,515.34,-0.303516,0.0,0.0
1128,281.75,65.9162,63.5268,149.773,98.0422,101.373,,,,515.31,-0.323132,0.0,0.0
1140,284.75,65.6997,62.5599,148.809,98.0608,100.906,,,,515.27,-0.276641,0.0,0.0
1148,286.75,64.7135,62.629,142.201,98.0661,101.178,,,,515.22,-0.302119,0.0,0.0