File: 01_Data/HDPE/Cone/HDPE_Cone_HF25Scan_220224_R6.csv
Names,Time,Stack TC,Smoke TC,Exh Press,Smoke Comp,Smoke Meas,CO Meter,CO2 Meter,O2 Meter,Sample Mass,Ext Coeff,Start Test,Flame Verif
Chan Gain,,500,500,1,1,1,1,1,1,1,1,1.0,1.0
Offset,,0,0,0.132436,0,0,0,0,0,0,0,0.0,0.0
Gain,,1,1,25.011,15.4219,15.1528,1,1,1,1.00089,1.02113,1.0,1.0
Units,sec,C,C,Pa,%,%,%,%,%,g,/m,,
Baseline,,26.1351,26.2008,162.177,116.308,113.74,-0.00848967,0.05582,20.9753,-479.578,0.200017,,
28,6.75,23.3617,23.1984,161.429,115.4,113.358,-0.00871537,0.0640643,20.9678,425.537,0.159895,0.0,0.0
56,13.75,23.3176,23.3055,164.705,115.474,112.775,-0.00863027,0.0634607,20.9702,425.537,0.211823,0.0,0.0
84,20.75,23.0562,23.4856,163.213,115.526,113.365,-0.00863479,0.0586324,20.976,425.537,0.169169,0.0,0.0
112,27.75,23.261,23.9094,166.632,115.492,113.571,-0.00852448,0.0578129,20.9764,425.527,0.15026,0.0,0.0
140,34.75,23.4918,23.9618,163.43,115.467,113.095,-0.00860268,0.0569408,20.9785,425.517,0.185932,0.0,0.0
168,41.75,23.3776,23.8023,158.798,115.462,113.728,-0.00893631,0.055879,20.9797,425.517,0.135568,0.0,0.0
196,48.75,23.2598,23.9007,165.301,115.432,113.627,-0.00849824,0.0571431,20.9773,425.517,0.141174,0.0,0.0
224,55.75,23.3443,23.9579,163.324,115.394,112.737,-0.00836636,0.0589038,20.9748,425.497,0.208628,0.0,0.0
252,62.75,23.642,24.1814,162.934,115.369,113.245,-0.00860303,0.060625,20.9724,425.487,0.166403,0.0,0.0
280,69.75,23.6151,24.665,165.787,115.31,113.758,-0.00893866,0.0607991,20.9713,425.487,0.121437,0.0,0.0
308,76.75,23.9843,24.1656,163.812,115.273,113.547,-0.00873336,0.0610943,20.9713,425.487,0.135131,0.0,0.0
336,83.75,23.9776,24.4429,159.383,115.199,113.204,-0.00853524,0.0603591,20.9719,425.487,0.156495,0.0,0.0
364,90.75,23.0706,24.7931,163.275,115.147,112.999,-0.00863507,0.0647694,20.9669,425.487,0.16862,0.0,0.0
392,97.75,24.0313,24.7819,162.108,115.102,112.61,-0.0088372,0.0653027,20.9672,425.497,0.196058,0.0,0.0
420,104.75,24.5408,24.7461,162.873,115.072,112.728,-0.00906178,0.0616178,20.9692,425.477,0.18434,0.0,0.0
448,111.75,24.2232,24.9268,159.786,115.061,113.239,-0.00862455,0.0602648,20.9694,425.507,0.142987,0.0,0.0
476,118.75,23.9141,24.926,160.361,115.052,112.384,-0.00876578,0.0604636,20.9678,425.497,0.210106,0.0,0.0
504,125.75,24.1169,24.4491,160.722,115.048,112.907,-0.00871774,0.0602161,20.9701,425.467,0.168262,0.0,0.0
532,132.75,24.0514,24.5061,163.301,115.055,112.626,-0.0085197,0.0594553,20.9695,425.467,0.191181,0.0,0.0
560,139.75,24.588,24.4506,161.312,115.057,112.242,-0.0083958,0.0590228,20.9694,425.477,0.221832,0.0,0.0
588,146.75,24.0616,25.2755,159.046,115.056,112.179,-0.00812984,0.0588311,20.971,425.457,0.226778,0.0,0.0
616,153.75,24.1996,25.092,162.257,115.046,112.388,-0.00811415,0.0585014,20.9736,425.467,0.209372,0.0,0.0
644,160.75,24.8605,25.2937,160.767,115.061,111.804,-0.00807965,0.0576338,20.9738,425.447,0.257177,0.0,0.0
672,167.75,23.9412,24.8731,162.049,115.079,111.333,-0.0081162,0.0574315,20.9738,425.437,0.296401,0.0,0.0
700,174.75,24.3958,24.9665,164.169,115.117,111.683,-0.00799906,0.0578741,20.9725,425.437,0.271248,0.0,0.0
728,181.75,24.6845,25.323,159.463,115.185,111.255,-0.00761688,0.0576803,20.9719,425.417,0.311002,0.0,0.0
756,188.75,24.2615,25.3877,159.139,115.248,110.496,-0.00758503,0.0573591,20.9715,425.387,0.377211,0.0,0.0
784,195.75,24.2575,24.7617,162.435,115.343,110.945,-0.00816623,0.0767038,20.9362,425.387,0.348234,0.0,1.0
812,202.75,25.0165,26.4053,154.428,115.436,111.375,-0.00781014,0.103654,20.8936,425.277,0.320776,0.0,0.0
840,209.75,25.9286,27.6638,156.06,115.528,112.947,-0.00801122,0.125949,20.8573,425.197,0.202369,0.0,0.0
868,216.75,27.6832,29.0444,153.741,115.603,111.278,-0.00785509,0.159275,20.8027,425.056,0.341508,0.0,0.0
896,223.75,28.9099,31.0936,150.85,115.667,110.48,-0.00763386,0.201411,20.7311,424.886,0.410943,0.0,0.0
924,230.75,31.6526,33.868,153.03,115.697,108.223,-0.00754034,0.23023,20.6856,424.666,0.598166,0.0,0.0
952,237.75,33.8143,36.1986,147.222,115.675,105.342,-0.00700326,0.262684,20.633,424.406,0.838129,0.0,0.0
980,244.75,36.3192,39.2581,145.677,115.716,103.652,-0.00647678,0.295017,20.5792,424.146,0.986179,0.0,0.0
1008,251.75,37.6726,41.4552,143.537,115.761,100.085,-0.00588627,0.340254,20.4922,423.845,1.30341,0.0,0.0
1036,258.75,41.2358,44.6787,140.772,115.83,98.344,-0.00425537,0.393381,20.3995,423.455,1.46587,0.0,0.0
1064,265.75,44.606,49.0444,144.091,115.895,97.2721,-0.00304727,0.436773,20.3346,423.035,1.56909,0.0,0.0
1092,272.75,47.7798,53.4092,133.305,115.912,92.6123,-0.00223145,0.504128,20.2052,422.554,2.01012,0.0,0.0
1120,279.75,52.031,57.5895,134.911,115.902,92.0018,-0.000466189,0.57741,20.0795,421.994,2.06856,0.0,0.0
1148,286.75,56.8391,63.4623,134.89,115.866,94.043,-2.84487e-05,0.643857,19.9803,421.413,1.86924,0.0,0.0
1176,293.75,60.118,69.0318,133.848,115.809,91.304,-0.000182563,0.692329,19.9107,420.823,2.12955,0.0,0.0
1204,300.75,64.99,74.175,123.102,115.773,89.9242,0.000557216,0.726667,19.8468,420.152,2.26315,0.0,0.0
1232,307.75,69.273,78.9989,122.17,115.705,90.6839,0.00136093,0.787973,19.7569,419.482,2.18254,0.0,0.0
1260,314.75,73.3324,84.8481,122.603,115.598,91.5033,0.00145392,0.84488,19.6671,418.711,2.09373,0.0,0.0
1288,321.75,77.9531,90.1481,118.64,115.502,86.2483,0.00196319,0.886816,19.6019,418.03,2.61606,0.0,0.0
1316,328.75,82.9331,95.7337,124.301,115.424,89.7022,0.00265054,0.944745,19.502,417.189,2.2583,0.0,0.0
1344,335.75,86.8299,101.725,121.092,115.314,87.5103,0.00283403,1.00015,19.4195,416.339,2.47134,0.0,0.0
1372,342.75,92.0057,106.826,115.34,115.238,89.8691,0.00362287,1.05507,19.3305,415.488,2.22717,0.0,0.0
1400,349.75,96.9508,112.24,111.89,115.185,85.9246,0.0043827,1.11607,19.2299,414.607,2.62507,0.0,0.0
1428,356.75,100.466,117.938,114.716,115.176,88.4902,0.00498032,1.17735,19.1389,413.686,2.36088,0.0,0.0
1456,363.75,105.664,123.672,108.262,115.138,86.7112,0.00510028,1.23814,19.0415,412.665,2.53979,0.0,0.0
1484,370.75,111.21,130.346,105.093,115.113,84.3228,0.00634864,1.30234,18.9323,411.695,2.78807,0.0,0.0
1512,377.75,115.881,136.856,107.824,115.099,86.1216,0.00696634,1.37235,18.8335,410.624,2.59786,0.0,0.0
1540,384.75,121.144,142.199,108.965,115.071,87.3739,0.00744171,1.44115,18.7214,409.633,2.46643,0.0,0.0
1568,391.75,125.274,148.133,102.554,115.05,85.7549,0.0083753,1.50342,18.631,408.482,2.63231,0.0,0.0
1596,398.75,131.043,154.417,112.521,115.036,83.9972,0.010054,1.5846,18.499,407.401,2.81667,0.0,0.0
1624,405.75,136.227,160.923,105.878,115.026,83.3998,0.0105881,1.65865,18.3888,406.15,2.87988,0.0,0.0
1652,412.75,141.022,167.254,101.606,115.039,82.6918,0.0111831,1.72084,18.2944,404.999,2.95723,0.0,0.0
1680,419.75,145.387,173.283,97.0476,115.049,83.7401,0.0122146,1.7874,18.1908,403.738,2.8452,0.0,0.0
1708,426.75,149.286,177.79,99.1085,115.088,82.646,0.0122432,1.82005,18.1547,402.486,2.96604,0.0,0.0
1736,433.75,153.671,183.162,102.833,115.132,82.3894,0.0121331,1.82162,18.1647,401.265,2.9973,0.0,0.0
1764,440.75,156.486,185.773,98.5963,115.201,83.8987,0.0115894,1.77604,18.2502,400.084,2.84004,0.0,0.0
1792,447.75,157.672,187.376,109.636,115.255,82.9503,0.0102183,1.66559,18.434,398.963,2.94612,0.0,0.0
1820,454.75,156.995,186.394,103.281,115.308,83.3059,0.00881083,1.52052,18.6888,397.912,2.91189,0.0,0.0
1848,461.75,155.216,183.05,116.616,115.324,86.3057,0.00707314,1.35302,18.9665,396.992,2.59627,0.0,0.0
1876,468.75,151.629,177.958,113.476,115.353,85.5098,0.00510767,1.16976,19.2345,396.101,2.68151,0.0,0.0
1904,475.75,147.162,170.638,117.155,115.391,87.0062,0.00406637,1.02745,19.4605,395.4,2.52908,0.0,0.0
1932,482.75,141.71,163.896,115.933,115.441,85.3568,0.00378214,0.88545,19.6959,394.75,2.70439,0.0,0.0
1960,489.75,134.921,154.762,119.934,115.506,86.0527,0.00239124,0.757305,19.8904,394.189,2.63666,0.0,0.0
1988,496.75,128.647,146.675,136.939,115.566,90.4532,0.000260894,0.604275,20.1199,393.689,2.19465,0.0,0.0
2016,503.75,120.11,135.082,142.334,115.635,103.868,-0.00447865,0.375923,20.5596,393.539,0.961269,0.0,0.0
2044,510.75,109.891,123.308,147.872,115.731,106.844,-0.00675771,0.22357,20.7905,393.499,0.715618,0.0,0.0
2072,517.75,100.895,111.866,150.401,115.826,107.23,-0.00765968,0.155406,20.8673,393.468,0.690738,0.0,0.0
2100,524.75,93.4874,102.186,151.866,115.896,107.918,-0.00780426,0.122882,20.902,393.448,0.638826,0.0,0.0
2128,531.75,87.0273,93.5711,152.23,115.962,108.782,-0.00783052,0.108457,20.9151,393.408,0.572467,0.0,0.0
2156,538.75,81.1351,86.3929,152.503,116.039,108.826,-0.00806135,0.100569,20.9234,393.398,0.574812,0.0,0.0
2184,545.75,76.1089,79.4576,152.874,116.094,108.964,-0.00793885,0.0945803,20.9317,393.388,0.567725,0.0,0.0
2212,552.75,71.6736,74.2031,154.085,116.146,108.263,-0.00796805,0.0861067,20.9427,393.368,0.629569,0.0,0.0
2240,559.75,67.1861,70.0183,157.517,116.207,109.457,-0.00817959,0.0801916,20.9502,393.358,0.536041,0.0,0.0
2268,566.75,64.742,65.464,156.182,116.28,111.378,-0.00826714,0.0725791,20.9585,393.378,0.385867,0.0,0.0
2296,573.75,61.317,61.9104,156.746,116.33,110.62,-0.00830439,0.0663107,20.9664,393.398,0.450834,0.0,0.0
2324,580.75,58.478,58.5559,156.172,116.396,110.514,-0.00861383,0.062859,20.9709,393.378,0.464485,0.0,0.0
2352,587.75,56.5155,55.8958,154.613,116.441,110.616,-0.00895777,0.0617085,20.971,393.358,0.459719,0.0,0.0
2380,594.75,53.969,53.2498,155.943,116.486,110.64,-0.00896005,0.0611216,20.9719,393.368,0.461248,0.0,0.0
2408,601.75,52.1349,51.018,156.785,116.523,110.698,-0.00901939,0.0605054,20.9725,393.368,0.459353,0.0,0.0
2436,608.75,51.3014,49.4617,158.643,116.533,110.8,-0.00921672,0.0598413,20.9734,393.388,0.451848,0.0,0.0
2464,615.75,49.4027,47.5622,155.997,116.546,111.885,-0.00883875,0.0589579,20.972,393.368,0.36555,0.0,0.0
2492,622.75,48.1263,45.8489,154.909,116.558,110.768,-0.00874927,0.0582311,20.9738,393.378,0.456419,0.0,0.0
2520,629.75,46.4934,44.8227,157.333,116.537,111.497,-0.00915508,0.0575207,20.9739,393.368,0.395977,0.0,0.0
2548,636.75,45.8337,43.689,158.411,116.568,110.925,-0.0087521,0.0574104,20.9742,393.388,0.444474,0.0,0.0
2576,643.75,44.8467,42.3262,157.893,116.545,111.938,-0.00890568,0.057645,20.9728,393.378,0.361258,0.0,0.0
2604,650.75,43.6645,41.6039,157.71,116.513,112.554,-0.00890993,0.0575549,20.9735,393.378,0.309681,0.0,0.0
2632,657.75,43.4651,40.5911,157.054,116.481,111.664,,,,393.378,0.378344,0.0,0.0
2658,664.25,42.4311,39.455,152.981,116.425,110.935,,,,393.368,0.432651,0.0,0.0