File: 01_Data/HDPE/Cone/HDPE_Cone_HF50Scan_220131_R3.csv
Names,Time,Stack TC,Smoke TC,Exh Press,Smoke Comp,Smoke Meas,CO Meter,CO2 Meter,O2 Meter,Sample Mass,Ext Coeff,Start Test,Flame Verif
Chan Gain,,500,500,1,1,1,1,1,1,1,1,1.0,1.0
Offset,,0,0,0.14021,0,0,0,0,0,0,0,0.0,0.0
Gain,,1,1,25.011,13.3046,13.3037,1,1,1,1.00087,1.10262,1.0,1.0
Units,sec,C,C,Pa,%,%,%,%,%,g,/m,,
Baseline,,38.4536,38.1444,157.465,98.4969,104.127,0.00563438,0.0793074,20.9601,-0.235705,-0.537611,,
13,3,32.7075,32.697,159.318,95.3567,102.202,0.00588711,0.0828152,20.9558,900.486,-0.670532,0.0,0.0
26,6.25,32.3966,32.9961,157.819,95.0424,102.137,0.00573425,0.0823555,20.9553,1090.93,-0.696349,0.0,0.0
39,9.5,32.6065,32.8014,159.06,94.9393,101.851,0.00591861,0.0819699,20.9541,977.573,-0.67967,0.0,0.0
52,12.75,32.5127,33.0012,160.149,94.6056,102.424,0.00590716,0.0815421,20.9549,930.632,-0.767979,0.0,0.0
65,16,32.4975,33.2318,155.283,98.3126,103.56,0.00579611,0.0810592,20.9557,937.328,-0.502985,0.0,0.0
78,19.25,33.0413,33.4069,163.275,98.3223,103.931,0.00573946,0.0810624,20.9559,930.592,-0.536546,0.0,0.0
91,22.5,32.7463,33.9508,155.729,98.317,103.611,0.00556841,0.0809659,20.9559,985.169,-0.507245,0.0,0.0
104,25.75,33.1517,33.745,162.647,98.2971,103.262,0.00559318,0.0811025,20.9559,930.542,-0.476631,0.0,0.0
117,29,32.6631,33.5097,157.807,98.3243,104.027,0.00562119,0.081298,20.9566,930.642,-0.545297,0.0,0.0
130,32.25,32.9143,34.117,155.47,98.3081,103.745,0.00541687,0.0818765,20.9545,930.662,-0.520624,0.0,0.0
143,35.5,33.1058,33.7904,163.266,98.3081,103.487,0.00565181,0.0822954,20.9538,930.592,-0.496596,0.0,0.0
156,38.75,32.842,33.7273,154.809,98.3203,102.709,0.00601834,0.0829989,20.9537,930.572,-0.422383,0.0,0.0
169,42,32.4842,33.852,159.132,98.33,103.461,0.0061864,0.0825964,20.9536,930.602,-0.491935,0.0,0.0
182,45.25,32.7204,34.1148,157.328,98.3304,102.14,0.0067948,0.0817785,20.953,930.612,-0.367633,0.0,0.0
195,48.5,32.5885,34.1508,158.811,98.3381,101.508,0.00794344,0.0808999,20.9506,930.562,-0.306829,0.0,0.0
208,51.75,33.1353,34.6747,160.244,98.3686,99.7538,0.00908872,0.081808,20.9466,930.542,-0.135254,0.0,0.0
221,55,33.3611,34.8179,153.342,98.3544,103.376,0.00868571,0.0984258,20.9129,930.492,-0.48164,0.0,1.0
234,58.25,33.6286,35.9363,156.068,98.3714,103.656,0.00782168,0.125874,20.8696,930.382,-0.506139,0.0,1.0
247,61.5,35.5263,37.6793,149.466,98.3759,103.163,0.0071264,0.156366,20.8181,930.302,-0.459562,0.0,0.0
260,64.75,36.7152,39.6568,149.612,98.3824,99.913,0.00706162,0.194884,20.7519,930.232,-0.149315,0.0,0.0
273,68,38.0343,42.9876,145.913,98.3735,96.0609,0.00769861,0.238352,20.6645,930.091,0.230087,0.0,0.0
286,71.25,40.1559,46.2184,142.075,98.3739,90.6169,0.00899619,0.289125,20.5734,929.911,0.794412,0.0,0.0
299,74.5,43.0728,50.3971,142.562,98.3885,86.8862,0.0104701,0.348058,20.4629,929.701,1.20248,0.0,0.0
312,77.75,46.4752,55.2364,146.572,98.3836,84.9858,0.0118269,0.412704,20.359,929.431,1.41591,0.0,0.0
325,81,49.6174,60.3893,134.411,98.3832,83.0431,0.0135638,0.478765,20.2404,929.191,1.63953,0.0,0.0
338,84.25,53.4055,66.1359,131.701,98.3877,80.0042,0.0149452,0.552244,20.0988,928.82,2.00054,0.0,0.0
351,87.5,57.39,71.6743,127.165,98.3751,77.9633,0.0156837,0.627136,19.9675,928.47,2.24925,0.0,0.0
364,90.75,61.5129,79.0888,130.367,98.3706,78.9161,0.0169255,0.711935,19.8286,928.1,2.13131,0.0,0.0
377,94,66.0851,85.796,131.101,98.3816,75.7542,0.0184869,0.793814,19.6787,927.639,2.52789,0.0,0.0
390,97.25,70.993,93.3824,117.049,98.397,75.6974,0.0192887,0.892169,19.4937,927.159,2.53667,0.0,0.0
403,100.5,76.345,101.976,118.907,98.3694,73.354,0.0206876,1.00663,19.3483,926.739,2.83811,0.0,0.0
416,103.75,81.8161,110.703,115.086,98.3658,73.3227,0.0225137,1.12077,19.1311,926.178,2.84188,0.0,0.0
429,107,87.2099,119.326,102.919,98.3731,69.5843,0.0242914,1.23118,18.9412,925.557,3.34875,0.0,0.0
442,110.25,92.401,127.607,117.43,98.3491,69.538,0.0262442,1.33634,18.7646,925.077,3.35283,0.0,0.0
455,113.5,99.1576,137.839,112.313,98.3442,70.48,0.0286059,1.46723,18.5672,924.286,3.22222,0.0,0.0
468,116.75,105.876,148.702,99.2003,98.3385,69.1333,0.0318979,1.61214,18.3185,923.656,3.40826,0.0,0.0
481,120,112.711,159.186,104.932,98.3264,67.5247,0.0353056,1.75282,18.0922,922.775,3.63476,0.0,0.0
494,123.25,119.774,171.061,98.0141,98.3069,68.7114,0.0388612,1.92545,17.8646,922.004,3.46434,0.0,0.0
507,126.5,126.88,182.81,90.5402,98.3036,65.5167,0.0422655,2.0795,17.5731,921.254,3.92452,0.0,0.0
520,129.75,134.794,195.827,94.6008,98.2829,65.0733,0.0464002,2.30744,17.1964,920.303,3.98815,0.0,0.0
533,133,142.92,210.17,86.246,98.2569,67.9701,0.0508154,2.55913,16.7777,919.332,3.56435,0.0,0.0
546,136.25,151.822,224.673,79.9268,98.2281,65.1066,0.0572864,2.82742,16.352,918.251,3.97781,0.0,0.0
559,139.5,161.005,241.12,85.2736,98.1964,70.3992,0.0642192,3.11131,15.9214,917.18,3.21877,0.0,0.0
572,142.75,168.852,254.97,108.754,98.1416,63.7571,0.0697321,3.36279,15.5173,915.889,4.17188,0.0,0.0
585,146,177.763,271.326,83.4516,98.1002,65.902,0.0731447,3.72147,15.0161,914.728,3.84777,0.0,0.0
598,149.25,187.511,287.615,78.7018,98.049,59.5152,0.0747952,4.04381,14.5212,913.547,4.82866,0.0,0.0
611,152.5,196.882,304.35,55.0066,98.0024,74.3974,0.074466,4.44046,13.8235,912.116,2.66535,0.0,0.0
624,155.75,209.174,326.462,62.8722,97.9289,68.3331,0.0733936,4.94716,13.1985,910.905,3.48049,0.0,0.0
637,159,220.551,348.447,59.3108,97.8692,67.0217,0.0717898,5.36119,12.5002,909.123,3.66201,0.0,0.0
650,162.25,231.581,366.918,81.6388,97.7904,67.3859,0.0708113,5.8075,11.8479,907.702,3.60181,0.0,0.0
663,165.5,241.41,384.874,72.894,97.7056,72.2854,0.0706143,6.17756,11.3657,906.141,2.91455,0.0,0.0
676,168.75,249.302,396.783,71.5148,97.6219,68.6749,0.0738326,6.31564,11.2096,904.759,3.40186,0.0,0.0
689,172,253.899,399.579,57.3568,97.5054,65.1777,0.0765086,6.15933,11.5619,903.368,3.89584,0.0,0.0
702,175.25,254.397,394.069,82.3029,97.4051,61.4575,0.0763846,5.60365,12.5154,902.207,4.45432,0.0,0.0
715,178.5,249.458,378.109,67.7457,97.2882,62.9962,0.0702984,4.75667,13.9958,901.136,4.20352,0.0,0.0
728,181.75,241.521,356.332,99.9628,97.1639,62.2244,0.0585108,3.73544,15.6535,900.516,4.31039,0.0,0.0
741,185,227.112,324.933,114.677,97.0397,70.5417,0.0436595,2.78995,17.071,899.955,3.08459,0.0,0.0
754,188.25,211.769,293.818,113.648,96.887,76.3478,0.032021,1.99092,18.3376,899.635,2.30434,0.0,0.0
767,191.5,195.486,263.07,127.208,96.7697,80.7663,0.0231455,1.37741,19.2049,899.535,1.74847,0.0,0.0
780,194.75,179.966,233.595,129.933,96.6491,91.2316,0.0164064,0.897869,19.9154,899.485,0.557941,0.0,0.0
793,198,165.222,207.726,136.192,96.5476,95.3939,0.0121027,0.57982,20.4073,899.485,0.116276,0.0,0.0
806,201.25,151.47,185.319,135.837,96.4497,95.8348,0.00944958,0.377622,20.6764,899.455,0.0618668,0.0,0.0
819,204.5,140.664,167.281,138.705,96.3909,95.7523,0.0080649,0.261625,20.8028,899.465,0.0642827,0.0,0.0
832,207.75,131.681,153.095,134.605,96.3458,95.9038,0.00719072,0.196136,20.8626,899.495,0.0444739,0.0,0.0
845,211,125.189,140.665,139.546,96.3385,95.6756,0.00641725,0.162753,20.8941,899.465,0.0667793,0.0,0.0
858,214.25,118.873,130.641,137.134,96.399,95.5185,0.006244,0.140552,20.9151,899.475,0.0887477,0.0,0.0
871,217.5,113.83,122.808,143.167,96.5374,95.7735,0.00612861,0.125756,20.9264,899.465,0.0768472,0.0,0.0
884,220.75,109.205,115.31,139,96.6844,95.9708,0.00586619,0.115157,20.9356,899.495,0.0716561,0.0,0.0
897,224,104.687,109.496,139.084,96.8761,96.5266,0.00559689,0.107602,20.9429,899.455,0.0349547,0.0,0.0
910,227.25,101.813,104.509,139.808,97.1055,96.3349,0.00565444,0.102232,20.9483,899.455,0.077052,0.0,0.0
923,230.5,99.1333,100.184,142.031,97.3568,96.8083,0.005715,0.0980564,20.9524,899.435,0.0546396,0.0,0.0
936,233.75,96.6714,96.0092,145.569,97.5907,97.2691,0.00570794,0.0950241,20.9552,899.475,0.0319166,0.0,0.0
949,237,93.4436,92.2786,143.034,97.831,97.5842,0.00590343,0.0925914,20.9576,899.525,0.0244324,0.0,0.0
962,240.25,92.2356,89.9444,143.852,98.0702,97.4677,0.00592524,0.0911867,20.9528,899.495,0.0596039,0.0,0.0
975,243.5,89.4398,86.9626,144.043,98.2135,98.1908,0.00590267,0.0900085,20.9493,899.465,0.00224003,0.0,0.0
988,246.75,88.6104,84.4962,148.901,98.3138,98.0085,0.00598176,0.0890166,20.9501,899.465,0.0300846,0.0,0.0
1001,250,86.3903,82.1741,146.316,98.3605,98.2996,0.00572624,0.0882199,20.9498,899.435,0.00599146,0.0,0.0
1014,253.25,84.8039,80.4279,149.311,98.3142,97.911,0.00555101,0.0874833,20.9507,899.445,0.0397453,0.0,0.0
1027,256.5,83.6752,78.8369,148.6,98.1705,98.6122,0.00546382,0.0867646,20.9516,899.475,-0.0434221,0.0,0.0
1040,259.75,81.5846,77.1332,144.129,98.0283,99.1099,0.00565808,0.0860988,20.9518,899.485,-0.106131,0.0,0.0
1053,263,81.2888,75.854,147.49,98.1047,98.982,0.00570385,0.0857746,20.9525,899.535,-0.0861145,0.0,0.0
1066,266.25,79.6769,74.8618,145.347,98.4928,99.0994,0.00582807,0.0861352,20.9524,899.515,-0.0593801,0.0,0.0
1079,269.5,78.7676,73.8884,141.447,98.6358,98.9516,0.00591527,0.0861422,20.9528,899.505,-0.0309199,0.0,0.0
1092,272.75,78.0602,72.5316,148.173,98.5196,98.8627,0.00599538,0.0858112,20.9532,899.465,-0.0336195,0.0,0.0
1105,276,76.8752,71.8996,145.612,98.1132,99.0835,0.00573,0.0851197,20.9543,899.465,-0.0951862,0.0,0.0
1118,279.25,75.8306,70.7041,147.597,97.9609,99.3024,0.00554417,0.0843557,20.9563,899.465,-0.131546,0.0,0.0
1131,282.5,74.9662,70.152,146.911,98.2196,100.18,0.00536293,0.0838691,20.9575,899.465,-0.191123,0.0,0.0
1144,285.75,73.8923,69.4607,148.84,98.4664,100.712,0.00541386,0.0832984,20.9575,899.475,-0.218057,0.0,0.0
1157,289,73.6288,68.166,146.039,98.5537,100.024,0.00565734,0.0828824,20.9574,899.495,-0.143208,0.0,0.0
1170,292.25,71.797,67.2724,150.448,98.4518,100.365,0.00566419,0.0824922,20.9574,899.455,-0.186176,0.0,0.0
1183,295.5,72.1381,66.0921,146.661,98.0913,100.164,0.0056465,0.0824981,20.9557,899.455,-0.202237,0.0,0.0
1196,298.75,70.4893,65.6161,148.202,97.5411,99.5979,0.00583048,0.0825842,20.9539,899.335,-0.201832,0.0,0.0
1209,302,69.6382,65.1871,145.838,96.9435,100.165,0.00605855,0.0826896,20.9547,899.415,-0.316201,0.0,0.0
1222,305.25,68.3915,64.7571,149.405,96.4794,99.5833,0.00605452,0.0828582,20.955,899.565,-0.306272,0.0,0.0
1235,308.5,68.114,64.0759,147.137,96.3507,99.8131,0.00584306,0.0828149,20.9547,899.465,-0.341477,0.0,0.0
1248,311.75,67.7114,63.2133,148.277,96.6479,99.0425,,0.0828385,,899.475,-0.236728,0.0,0.0
1261,315,66.8854,62.78,147.313,97.2342,100.081,,,,899.495,-0.279161,0.0,0.0
1274,318.25,66.3357,62.1314,146.597,97.8022,101.068,,,,899.475,-0.31766,0.0,0.0
1280,319.75,65.1906,61.1195,146.761,98.008,101.364,,,,899.505,-0.325607,0.0,0.0