File: 01_Data/PEX_Pipe/STA/N2/10K_min/PEX_Pipe_STA_N2_10KData_220712_R2.csv
##Temp./Â°C,Time/min,Mass loss(subtr.2)/mg,DSC(subtr.2)/(mW/mg),Sensit./(uV/mW)
49.747,10.01,0.01152,-0.003160724,1.07017
51.947,11.14902,0.01372261,0.12992,1.06956
54.147,11.5113,0.01343553,0.20606,1.06895
56.347,11.80711,0.01458248,0.26104,1.06833
58.547,12.07483,0.01320916,0.2943,1.06771
60.747,12.3279,0.01436876,0.31752,1.06708
62.947,12.57723,0.01449828,0.32884,1.06645
65.147,12.81913,0.0127303,0.33498,1.06582
67.347,13.05788,0.01402821,0.33751,1.06518
69.547,13.2934,0.01273705,0.33898,1.06453
71.747,13.52849,0.0124261,0.34344,1.06388
73.947,13.7612,0.01143502,0.34967,1.06322
76.147,13.99214,0.01273803,0.35493,1.06256
78.347,14.219,0.0113973,0.36174,1.06189
80.547,14.44576,0.01281047,0.36935,1.06122
82.747,14.67185,0.01276481,0.37544,1.06055
84.947,14.89797,0.01141036,0.38286,1.05986
87.147,15.1209,0.01042363,0.3932,1.05918
89.347,15.3412,0.01271599,0.40086,1.05848
91.547,15.5618,0.01141153,0.41177,1.05779
93.747,15.78085,0.0114125,0.41942,1.05708
95.947,15.999,0.0101043,0.42827,1.05638
98.147,16.21562,0.01082721,0.43714,1.05566
100.347,16.43202,0.0127265,0.44958,1.05495
102.547,16.64791,0.01273,0.46209,1.05422
104.747,16.86329,0.01273701,0.48035,1.0535
106.947,17.07876,0.01213227,0.50109,1.05276
109.147,17.29346,0.01074917,0.52586,1.05202
111.347,17.5076,0.01268669,0.55572,1.05128
113.547,17.72148,0.01174475,0.59995,1.05053
115.747,17.93807,0.0120563,0.6561,1.04978
117.947,18.15311,0.01206984,0.74255,1.04902
120.147,18.3665,0.01207,0.8788,1.04825
122.347,18.58248,0.01295476,1.09838,1.04748
124.547,18.80036,0.01276017,1.46089,1.04671
126.747,19.01909,0.01436968,1.94079,1.04593
128.947,19.2392,0.01338592,2.35193,1.04514
131.147,19.45822,0.01331684,2.39739,1.04435
133.347,19.67442,0.01421775,1.68051,1.04355
135.547,19.8838,0.01371996,0.89899,1.04275
137.747,20.0903,0.01338327,0.59973,1.04195
139.947,20.29713,0.01277414,0.49531,1.04113
142.147,20.50507,0.01306002,0.45936,1.04032
144.347,20.71323,0.0111085,0.44573,1.03949
146.547,20.92207,0.0120672,0.44087,1.03866
148.747,21.13025,0.01173838,0.43784,1.03783
150.947,21.33952,0.01076,0.43973,1.03699
153.147,21.5496,0.01076,0.44069,1.03615
155.347,21.75984,0.01009,0.44105,1.0353
157.547,21.96927,0.01009,0.44176,1.03444
159.747,22.17974,0.01174,0.44324,1.03358
161.947,22.3895,0.01075004,0.44359,1.03272
164.147,22.59981,0.01207,0.4449,1.03184
166.347,22.80985,0.01207,0.44767,1.03097
168.547,23.01957,0.01207,0.45038,1.03008
170.747,23.22935,0.01338705,0.45115,1.0292
172.947,23.4392,0.01307523,0.4528,1.0283
175.147,23.64911,0.01306,0.45445,1.0274
177.347,23.8585,0.01075797,0.45645,1.0265
179.547,24.06811,0.01239717,0.4558,1.02559
181.747,24.27819,0.01207005,0.45551,1.02467
183.947,24.48865,0.01336746,0.45671,1.02375
186.147,24.69836,0.01142064,0.45708,1.02283
188.347,24.9081,0.01067257,0.45621,1.02189
190.547,25.11801,0.01107999,0.46035,1.02096
192.747,25.32641,0.01012774,0.46073,1.02001
194.947,25.5369,0.01108708,0.46367,1.01906
197.147,25.74663,0.01108,0.46503,1.01811
199.347,25.95533,0.01008606,0.46613,1.01715
201.547,26.1641,0.00874593,0.46731,1.01618
203.747,26.3741,0.0101,0.46936,1.01521
205.947,26.58312,0.01010059,0.47101,1.01424
208.147,26.79252,0.009956595,0.47252,1.01325
210.347,27.0015,0.01076073,0.47154,1.01227
212.547,27.2095,0.01074981,0.47586,1.01127
214.747,27.4201,0.008125206,0.47748,1.01027
216.947,27.62919,0.00811002,0.47754,1.00927
219.147,27.83922,0.009450749,0.47912,1.00826
221.347,28.04859,0.009434443,0.47889,1.00724
223.547,28.25791,0.00943,0.48183,1.00622
225.747,28.46756,0.009430065,0.48409,1.00519
227.947,28.67744,0.008468638,0.48687,1.00416
230.147,28.8869,0.009839625,0.48665,1.00312
232.347,29.09662,0.00911,0.48984,1.00207
234.547,29.3058,0.00934618,0.4874,1.00102
236.747,29.5151,0.009110001,0.4891,0.99996
238.947,29.7247,0.009439993,0.49124,0.9989
241.147,29.93435,0.008771436,0.49051,0.99783
243.347,30.14462,0.009099887,0.49225,0.99676
245.547,30.3537,0.0091,0.49328,0.99568
247.747,30.56278,0.00882323,0.49494,0.9946
249.947,30.7726,0.008421125,0.49636,0.9935
252.147,30.98221,0.00778997,0.49641,0.99241
254.347,31.19125,0.00779,0.49529,0.99131
256.547,31.40118,0.007791504,0.49714,0.9902
258.747,31.6111,0.00646673,0.49834,0.98908
260.947,31.82062,0.00680621,0.49779,0.98796
263.147,32.02835,0.00547986,0.49972,0.98684
265.347,32.24001,0.00647,0.50062,0.9857
267.547,32.4503,0.005150068,0.50274,0.98457
269.747,32.6595,0.00581,0.50374,0.98342
271.947,32.8701,0.004826839,0.50466,0.98227
274.147,33.08016,0.005150046,0.50757,0.98112
276.347,33.29076,0.00515,0.50655,0.97996
278.547,33.50121,0.005150002,0.50772,0.97879
280.747,33.71086,0.006471072,0.51015,0.97762
282.947,33.92132,0.00613833,0.51001,0.97644
285.147,34.1312,0.00614,0.51178,0.97526
287.347,34.34174,0.00713,0.511,0.97407
289.547,34.55265,0.00647,0.51234,0.97287
291.747,34.76325,0.005499043,0.51216,0.97167
293.947,34.97392,0.005490037,0.51168,0.97046
296.147,35.1849,0.00581,0.51259,0.96925
298.347,35.3956,0.004499989,0.51298,0.96803
300.547,35.6055,0.004506027,0.51616,0.9668
302.747,35.81835,0.0045,0.51697,0.96557
304.947,36.02912,0.0045,0.51794,0.96433
307.147,36.23973,0.003179812,0.51766,0.96309
309.347,36.45089,0.003505875,0.51912,0.96184
311.547,36.66213,0.001860039,0.52138,0.96058
313.747,36.87331,0.0005152437,0.52158,0.95932
315.947,37.08408,0.000539993,0.52435,0.95806
318.147,37.29586,-0.00078,0.52205,0.95678
320.347,37.50747,0.0002122296,0.52356,0.95551
322.547,37.7196,-0.002089999,0.52323,0.95422
324.747,37.93118,-0.00143843,0.52458,0.95293
326.947,38.14248,-0.001456888,0.52631,0.95163
329.147,38.35487,-0.00308,0.52688,0.95033
331.347,38.56664,-0.003079733,0.52718,0.94902
333.547,38.7786,-0.004390014,0.52678,0.94771
335.747,38.99069,-0.004754336,0.52834,0.94639
337.947,39.2031,-0.002049891,0.52685,0.94506
340.147,39.41465,-0.00472,0.53149,0.94373
342.347,39.62681,-0.004752898,0.53105,0.94239
344.547,39.83935,-0.00472,0.5334,0.94105
346.747,40.05202,-0.00537895,0.53175,0.9397
348.947,40.26453,-0.00532847,0.53319,0.93834
351.147,40.47745,-0.005381735,0.53222,0.93698
353.347,40.68996,-0.007040566,0.53546,0.93561
355.547,40.90268,-0.00631541,0.53636,0.93424
357.747,41.11567,-0.00668016,0.53823,0.93286
359.947,41.32804,-0.0076904,0.53925,0.93148
362.147,41.541,-0.00768664,0.54348,0.93009
364.347,41.75435,-0.01008545,0.54444,0.92869
366.547,41.96767,-0.009567272,0.5461,0.92729
368.747,42.18118,-0.01032,0.54809,0.92588
370.947,42.3947,-0.01032675,0.55022,0.92446
373.147,42.60844,-0.01064981,0.55501,0.92304
375.347,42.82221,-0.0106469,0.55453,0.92162
377.547,43.03559,-0.01197001,0.56019,0.92018
379.747,43.24944,-0.01329,0.56074,0.91875
381.947,43.46318,-0.01460364,0.56315,0.9173
384.147,43.67674,-0.01592001,0.56652,0.91585
386.347,43.89083,-0.0175159,0.56971,0.9144
388.547,44.10517,-0.01822988,0.5734,0.91294
390.747,44.31953,-0.01954772,0.57658,0.91147
392.947,44.53434,-0.02217424,0.57855,0.90999
395.147,44.74876,-0.02481333,0.58143,0.90852
397.347,44.96301,-0.02516597,0.5843,0.90703
399.547,45.17668,-0.02772862,0.58665,0.90554
401.747,45.39223,-0.03041012,0.58838,0.90404
403.947,45.607,-0.03304884,0.59078,0.90254
406.147,45.8219,-0.03688118,0.59008,0.90103
408.347,46.03626,-0.03700144,0.58956,0.89952
410.547,46.25121,-0.04226947,0.59428,0.898
412.747,46.46544,-0.04532466,0.60382,0.89648
414.947,46.68047,-0.04820216,0.60765,0.89495
417.147,46.89542,-0.05418427,0.61782,0.89341
419.347,47.11084,-0.05819363,0.62449,0.89187
421.547,47.3261,-0.06336195,0.63014,0.89032
423.747,47.5417,-0.06880327,0.63576,0.88877
425.947,47.75703,-0.0743387,0.64561,0.88721
428.147,47.9719,-0.08095145,0.65687,0.88564
430.347,48.18727,-0.09075381,0.66733,0.88407
432.547,48.40262,-0.09894059,0.6772,0.88249
434.747,48.6181,-0.10927,0.69339,0.88091
436.947,48.8339,-0.12234,0.70287,0.87933
439.147,49.04943,-0.13538,0.71987,0.87773
441.347,49.2657,-0.15103,0.73786,0.87613
443.547,49.48111,-0.16723,0.76123,0.87453
445.747,49.6972,-0.18603,0.78507,0.87292
447.947,49.914,-0.21023,0.81152,0.8713
450.147,50.13057,-0.23522,0.84728,0.86968
452.347,50.34729,-0.26523,0.88489,0.86806
454.547,50.5636,-0.30171,0.93544,0.86642
456.747,50.78048,-0.34336,0.98754,0.86479
458.947,50.99706,-0.39524,1.05168,0.86314
461.147,51.21502,-0.45571,1.14476,0.8615
463.347,51.43202,-0.53141,1.20073,0.85984
465.547,51.64972,-0.61192,1.28455,0.85818
467.747,51.8668,-0.71401,1.39759,0.85652
469.947,52.08435,-0.83688,1.52093,0.85485
472.147,52.30247,-0.98411,1.64637,0.85317
474.347,52.52078,-1.15461,1.80563,0.85149
476.547,52.7391,-1.35356,1.94549,0.8498
478.747,52.9578,-1.58244,2.06501,0.84811
480.947,53.1764,-1.83623,2.18424,0.84642
483.147,53.39441,-2.12087,2.25807,0.84471
485.347,53.61076,-2.41773,2.26609,0.84301
487.547,53.8295,-2.73283,2.19645,0.84129
489.747,54.0472,-3.03209,2.0345,0.83958
491.947,54.2632,-3.31432,1.75504,0.83785
494.147,54.47691,-3.55012,1.39882,0.83613
496.347,54.69132,-3.73348,1.00001,0.83439
498.547,54.90515,-3.86202,0.62022,0.83265
500.747,55.1186,-3.93819,0.3307,0.83091
502.947,55.33355,-3.97639,0.14837,0.82916
505.147,55.54865,-3.99249,0.06019963,0.82741
507.347,55.7646,-4.00041,0.02513701,0.82565
509.547,55.9808,-4.00319,0.01440757,0.82388
511.747,56.1975,-4.0048,0.01053932,0.82212
513.947,56.4138,-4.00604,0.0456137,0.82034
516.147,56.6312,-4.00743,0.05266179,0.81856
518.347,56.8495,-4.00875,0.03104459,0.81678
520.547,57.0679,-4.01007,0.0144459,0.81499
522.747,57.28626,-4.01138,0.004786124,0.8132
524.947,57.505,-4.01269,-0.00357737,0.8114
527.147,57.7239,-4.01273,-0.00763341,0.80959
529.347,57.9418,-4.01368,-0.009994404,0.80779
531.547,58.161,-4.01335,-0.01400206,0.80597
533.747,58.3794,-4.01369,-0.01661184,0.80416
535.947,58.59884,-4.015,-0.02567877,0.80233
538.147,58.81769,-4.01369,-0.03003992,0.80051
540.347,59.0366,-4.01369,-0.03085184,0.79867
542.547,59.2552,-4.015,-0.03223091,0.79684
544.747,59.4739,-4.01434,-0.03249297,0.795
546.947,59.6928,-4.01399,-0.03591046,0.79315
549.147,59.911,-4.01533,-0.0372687,0.7913
550.047,59.9991,-4.01533,-0.03866047,0.79054