File: 01_Data/PEX_Pipe/STA/N2/10K_min/PEX_Pipe_STA_N2_10KData_220711_R1.csv
##Temp./Â°C,Time/min,Mass loss(subtr.2)/mg,DSC(subtr.2)/(mW/mg),Sensit./(uV/mW)
49.585,10.01,-0.03591,0.0142578,1.07021
52.685,11.3133,-0.04064466,0.17661,1.06936
55.785,11.75769,-0.04093705,0.25852,1.06849
58.885,12.13555,-0.04190276,0.31046,1.06762
61.985,12.48933,-0.04205067,0.33459,1.06673
65.085,12.83128,-0.04336909,0.34321,1.06584
68.185,13.16676,-0.04331935,0.35074,1.06493
71.285,13.4985,-0.04469197,0.35697,1.06402
74.385,13.82515,-0.04468279,0.36426,1.06309
77.485,14.1481,-0.04610916,0.37238,1.06216
80.585,14.46915,-0.04748194,0.38119,1.06121
83.685,14.78636,-0.04779841,0.38947,1.06026
86.785,15.1003,-0.05006999,0.4009,1.05929
89.885,15.4123,-0.04989321,0.41045,1.05831
92.985,15.72219,-0.04886011,0.42331,1.05733
96.085,16.03021,-0.05016673,0.43673,1.05633
99.185,16.33682,-0.0514739,0.45318,1.05533
102.285,16.6423,-0.05115819,0.47143,1.05431
105.385,16.94709,-0.0528102,0.49354,1.05328
108.485,17.251,-0.05412958,0.52832,1.05225
111.585,17.5546,-0.05280945,0.57161,1.0512
114.685,17.85687,-0.05412828,0.64369,1.05014
117.785,18.1599,-0.05413,0.76142,1.04907
120.885,18.4635,-0.0541307,0.98469,1.048
123.985,18.7691,-0.05446461,1.41502,1.04691
127.085,19.07806,-0.05405382,2.00738,1.04581
130.185,19.38867,-0.05543406,2.36846,1.0447
133.285,19.69427,-0.0555293,1.55796,1.04358
136.385,19.98773,-0.05577,0.70796,1.04245
139.485,20.2794,-0.05545801,0.49822,1.0413
142.585,20.57261,-0.05807819,0.45068,1.04015
145.685,20.86736,-0.05907232,0.44136,1.03899
148.785,21.16248,-0.05837909,0.43789,1.03782
151.885,21.45835,-0.0594,0.43827,1.03663
154.985,21.7542,-0.05940011,0.44142,1.03544
158.085,22.05,-0.05940018,0.44369,1.03423
161.185,22.34522,-0.06204,0.44513,1.03302
164.285,22.64189,-0.06101739,0.44952,1.03179
167.385,22.93822,-0.06109835,0.44949,1.03055
170.485,23.2343,-0.06203953,0.45134,1.0293
173.585,23.53043,-0.06137947,0.45417,1.02804
176.685,23.82702,-0.06268155,0.45579,1.02677
179.785,24.12302,-0.06401367,0.45887,1.02549
182.885,24.41876,-0.0636921,0.46135,1.0242
185.985,24.71477,-0.06335999,0.46368,1.02289
189.085,25.0098,-0.06499999,0.4656,1.02158
192.185,25.3051,-0.06434,0.46956,1.02025
195.285,25.60033,-0.06566005,0.47192,1.01892
198.385,25.89537,-0.06630835,0.47219,1.01757
201.485,26.19068,-0.06471327,0.47536,1.01621
204.585,26.4863,-0.06631948,0.47684,1.01484
207.685,26.7817,-0.06632,0.47857,1.01346
210.785,27.0769,-0.06632,0.48085,1.01207
213.885,27.37217,-0.06829024,0.48427,1.01066
216.985,27.66747,-0.0676252,0.48282,1.00925
220.085,27.9622,-0.06730096,0.48842,1.00782
223.185,28.25708,-0.06762999,0.48851,1.00639
226.285,28.55221,-0.06895,0.49256,1.00494
229.385,28.8469,-0.07027,0.49629,1.00348
232.485,29.13993,-0.06896001,0.49901,1.00201
235.585,29.43426,-0.07092653,0.50045,1.00052
238.685,29.72816,-0.07003867,0.49993,0.99903
241.785,30.023,-0.07126,0.50105,0.99752
244.885,30.31775,-0.07206205,0.50428,0.99601
247.985,30.61245,-0.07324,0.50382,0.99448
251.085,30.90751,-0.0719183,0.50687,0.99294
254.185,31.20273,-0.07257012,0.50648,0.99139
257.285,31.49793,-0.07254078,0.50844,0.98982
260.385,31.7938,-0.07257101,0.50973,0.98825
263.485,32.08876,-0.07488157,0.51104,0.98666
266.585,32.38423,-0.07347981,0.51276,0.98507
269.685,32.6802,-0.07389072,0.512,0.98346
272.785,32.97667,-0.07323061,0.51307,0.98184
275.885,33.27274,-0.07519851,0.51673,0.9802
278.985,33.5694,-0.0765202,0.51844,0.97856
282.085,33.86557,-0.07392035,0.51829,0.9769
285.185,34.1624,-0.07475523,0.52139,0.97524
288.285,34.45862,-0.07458819,0.5229,0.97356
291.385,34.7549,-0.07599042,0.52444,0.97187
294.485,35.05186,-0.07817,0.526,0.97016
297.585,35.3487,-0.0756303,0.52817,0.96845
300.685,35.64562,-0.07817,0.52796,0.96672
303.785,35.9428,-0.07851755,0.5327,0.96499
306.885,36.23938,-0.07982553,0.5347,0.96324
309.985,36.53674,-0.07851066,0.53414,0.96148
313.085,36.83416,-0.08014945,0.53558,0.9597
316.185,37.1314,-0.08015363,0.53713,0.95792
319.285,37.42953,-0.08113393,0.53929,0.95612
322.385,37.72667,-0.08311,0.54143,0.95432
325.485,38.0246,-0.08418774,0.54504,0.9525
328.585,38.3221,-0.0841,0.54637,0.95066
331.685,38.6207,-0.08541999,0.5477,0.94882
334.785,38.91901,-0.085071,0.54591,0.94697
337.885,39.21728,-0.0874,0.54786,0.9451
340.985,39.51575,-0.08697339,0.5501,0.94322
344.085,39.81497,-0.08838,0.55014,0.94133
347.185,40.11388,-0.09131401,0.55232,0.93943
350.285,40.41377,-0.09002759,0.55515,0.93752
353.385,40.71308,-0.092,0.55687,0.93559
356.485,41.01279,-0.092,0.56135,0.93365
359.585,41.3123,-0.09397995,0.56692,0.93171
362.685,41.612,-0.09496138,0.5706,0.92974
365.785,41.912,-0.09529851,0.57456,0.92777
368.885,42.21199,-0.09562997,0.57691,0.92579
371.985,42.51279,-0.09763375,0.58248,0.92379
375.085,42.81278,-0.09925003,0.58451,0.92179
378.185,43.1128,-0.10097,0.58908,0.91977
381.285,43.4143,-0.10231,0.59405,0.91774
384.385,43.71474,-0.10595,0.59763,0.9157
387.485,44.01562,-0.10792,0.60263,0.91364
390.585,44.31626,-0.11059,0.60663,0.91158
393.685,44.61769,-0.11319,0.61138,0.9095
396.785,44.91936,-0.11385,0.6124,0.90741
399.885,45.22123,-0.11913,0.61372,0.90531
402.985,45.52328,-0.12439,0.61789,0.9032
406.085,45.82543,-0.12801,0.62172,0.90108
409.185,46.1273,-0.13449,0.61602,0.89894
412.285,46.4287,-0.14043,0.62251,0.8968
415.385,46.73048,-0.14803,0.6365,0.89464
418.485,47.0324,-0.15361,0.6498,0.89247
421.585,47.33399,-0.1614,0.66499,0.89029
424.685,47.63548,-0.17184,0.68486,0.8881
427.785,47.9381,-0.18198,0.69707,0.8859
430.885,48.24058,-0.19466,0.71191,0.88369
433.985,48.54377,-0.20919,0.72499,0.88146
437.085,48.84687,-0.22663,0.73753,0.87923
440.185,49.15047,-0.2477,0.75583,0.87698
443.285,49.45426,-0.27497,0.78086,0.87472
446.385,49.75824,-0.30582,0.81651,0.87245
449.485,50.06175,-0.34204,0.85918,0.87017
452.585,50.3666,-0.38926,0.91842,0.86788
455.685,50.67153,-0.44727,0.98349,0.86558
458.785,50.97728,-0.52122,1.07026,0.86327
461.885,51.28167,-0.6176,1.17817,0.86094
464.985,51.58787,-0.74008,1.30757,0.85861
468.085,51.89362,-0.89452,1.45333,0.85626
471.185,52.20035,-1.0918,1.63223,0.85391
474.285,52.5075,-1.33791,1.82097,0.85154
477.385,52.8153,-1.62726,2.00402,0.84916
480.485,53.123,-1.9759,2.15582,0.84677
483.585,53.42846,-2.21779,2.1994,0.84437
486.685,53.73047,-2.56524,2.18028,0.84197
489.785,54.0329,-2.99755,1.94775,0.83955
492.885,54.33466,-3.3624,1.54485,0.83712
495.985,54.63644,-3.66896,1.02113,0.83468
499.085,54.93642,-3.86681,0.54164,0.83223
502.185,55.23591,-4.02265,0.24255,0.82977
505.285,55.5358,-4.04562,0.12376,0.8273
508.385,55.837,-4.06317,0.08922682,0.82482
511.485,56.139,-4.08458,0.07854858,0.82233
514.585,56.47169,-5.63918,0.76925,0.81983
517.685,56.8181,-4.6902,0.46873,0.81732
520.785,57.119,-4.30017,0.18667,0.8148
523.885,57.4168,-4.17635,0.10793,0.81227
526.985,57.7152,-4.14293,0.08831409,0.80973
530.085,58.01633,-4.13576,0.08591086,0.80718
533.185,58.31884,-4.13346,0.08517621,0.80462
536.285,58.62308,-4.13347,0.08035389,0.80205
539.385,58.929,-4.13346,0.08024326,0.79948
542.485,59.2375,-4.1326,0.07980329,0.79689
545.585,59.54829,-4.13485,0.08052334,0.79429
548.685,59.8605,-4.13247,0.08223206,0.79169
551.785,60.1724,-4.13247,0.08089555,0.78908
554.885,60.4833,-4.13115,0.07571836,0.78645
557.985,60.7939,-4.12983,0.07943507,0.78382
561.085,61.1036,-4.12983,0.08104425,0.78118
564.185,61.41236,-4.12885,0.07604056,0.77853
567.285,61.7205,-4.12886,0.07936861,0.77587
570.385,62.0284,-4.12885,0.07679148,0.77321
573.485,62.33661,-4.12985,0.07408995,0.77053
576.585,62.6445,-4.12984,0.07854387,0.76785
579.685,62.953,-4.12984,0.07617679,0.76516
582.785,63.26225,-4.12752,0.07475815,0.76246
585.885,63.5722,-4.12885,0.07225513,0.75975
588.985,63.88185,-4.12885,0.07493775,0.75703
592.085,64.19199,-4.12857,0.07504342,0.75431
595.185,64.50163,-4.12753,0.07191802,0.75158
598.285,64.81249,-4.12885,0.07153368,0.74884
601.385,65.12241,-4.12721,0.06715728,0.74609
604.485,65.4327,-4.12983,0.06912626,0.74334
607.585,65.74295,-4.12918,0.06750932,0.74058
610.685,66.05335,-4.1295,0.06408764,0.73781
613.785,66.36373,-4.13059,0.06138096,0.73503
616.885,66.67361,-4.12984,0.05971837,0.73225
619.985,66.9842,-4.12918,0.05541513,0.72946
623.085,67.2951,-4.13117,0.05334188,0.72666
626.185,67.60632,-4.12984,0.05644321,0.72385
629.285,67.91726,-4.13069,0.05339604,0.72104
632.385,68.22856,-4.1305,0.05333528,0.71822
635.485,68.53957,-4.13148,0.04997599,0.7154
638.585,68.85119,-4.13148,0.04862129,0.71257
641.685,69.16258,-4.13181,0.04578109,0.70973
644.785,69.47439,-4.13049,0.04640956,0.70689
647.885,69.786,-4.13181,0.04540141,0.70404
650.985,70.09711,-4.1305,0.04811862,0.70118
654.085,70.4078,-4.13304,0.05706165,0.69832
657.185,70.71891,-4.1305,0.07148655,0.69545
660.285,71.02884,-4.13083,0.08421173,0.69258
663.385,71.34044,-4.13083,0.09445341,0.6897
666.485,71.65187,-4.13082,0.09820872,0.68682
669.585,71.96293,-4.13081,0.09550306,0.68393
672.685,72.27458,-4.13148,0.09195145,0.68103
675.785,72.58652,-4.13078,0.08949228,0.67813
678.885,72.89834,-4.13082,0.08424203,0.67523
681.985,73.21053,-4.13083,0.07915394,0.67232
685.085,73.52309,-4.13115,0.07995678,0.6694
688.185,73.8351,-4.13116,0.0747456,0.66648
691.285,74.14792,-4.13244,0.07258625,0.66356
694.385,74.46006,-4.13149,0.06675415,0.66063
697.485,74.77185,-4.13182,0.06500011,0.6577
700.585,75.0843,-4.13214,0.0646032,0.65476
703.685,75.3968,-4.1331,0.05810266,0.65182
706.785,75.70945,-4.13313,0.05267172,0.64888
709.885,76.0213,-4.13346,0.04589377,0.64593
712.985,76.33327,-4.13346,0.04314411,0.64298
716.085,76.64523,-4.13412,0.04410957,0.64002
719.185,76.95777,-4.13411,0.03868272,0.63706
722.285,77.27033,-4.1341,0.03379644,0.6341
725.385,77.58333,-4.13149,0.03132935,0.63114
728.485,77.89685,-4.13412,0.02490084,0.62817
731.585,78.21005,-4.13313,0.02530201,0.6252
734.685,78.52226,-4.13412,0.01849708,0.62222
737.785,78.83514,-4.13412,0.01807158,0.61925
740.885,79.1482,-4.13478,0.01227666,0.61627
743.985,79.46136,-4.13346,0.01440519,0.61328
747.085,79.77501,-4.13386,0.01971651,0.6103
749.285,79.9977,-4.13379,0.0169109,0.60818