File: 01_Data/Pipe_Heat_Cable/STA/N2/10K_min/Pipe_Heat_Cable_STA_N2_10KData_220728_R2.csv
##Temp./Â°C,Time/min,Mass loss(subtr.2)/mg,DSC(subtr.2)/(mW/mg),Sensit./(uV/mW)
49.56,10.00917,0.00977,-0.009375379,1.07022
51.76,11.15058,0.01257948,0.06662193,1.06961
53.96,11.5139,0.01316982,0.11074,1.069
56.16,11.80931,0.01339657,0.13451,1.06838
58.36,12.0779,0.01270716,0.15537,1.06776
60.56,12.33232,0.01424894,0.16688,1.06714
62.76,12.57887,0.01294341,0.1752,1.06651
64.96,12.82048,0.01327331,0.1829,1.06587
67.16,13.05894,0.01297879,0.18784,1.06523
69.36,13.295,0.01460611,0.19341,1.06458
71.56,13.5285,0.01329456,0.19354,1.06393
73.76,13.76009,0.01320259,0.19422,1.06328
75.96,13.9899,0.01317636,0.19436,1.06262
78.16,14.2187,0.0118362,0.19774,1.06195
80.36,14.44525,0.01435033,0.19873,1.06128
82.56,14.6712,0.01317454,0.19931,1.0606
84.76,14.8952,0.0131701,0.20191,1.05992
86.96,15.1164,0.01427395,0.20355,1.05923
89.16,15.33745,0.0131755,0.20673,1.05854
91.36,15.55662,0.01317168,0.20846,1.05785
93.56,15.7767,0.01444273,0.21058,1.05714
95.76,15.99479,0.01398681,0.21514,1.05644
97.96,16.21144,0.01317012,0.21725,1.05573
100.16,16.42778,0.01362391,0.21761,1.05501
102.36,16.644,0.01308227,0.22305,1.05429
104.56,16.85957,0.01609567,0.22601,1.05356
106.76,17.07481,0.01431508,0.22698,1.05283
108.96,17.2896,0.01416,0.22796,1.05209
111.16,17.50421,0.0146215,0.23186,1.05134
113.36,17.7192,0.01415927,0.2357,1.0506
115.56,17.93365,0.01317,0.23781,1.04984
117.76,18.14836,0.01448944,0.23996,1.04908
119.96,18.362,0.01355378,0.2387,1.04832
122.16,18.57548,0.01513081,0.23837,1.04755
124.36,18.7899,0.01377512,0.23944,1.04677
126.56,19.00333,0.01293313,0.24118,1.04599
128.76,19.21641,0.01421364,0.24105,1.04521
130.96,19.42959,0.01217954,0.24308,1.04442
133.16,19.64215,0.01305944,0.24454,1.04362
135.36,19.85407,0.01250996,0.24752,1.04282
137.56,20.06653,0.01387774,0.2482,1.04201
139.76,20.2791,0.0128395,0.25092,1.0412
141.96,20.49142,0.01284086,0.25145,1.04039
144.16,20.703,0.01250915,0.25123,1.03956
146.36,20.91449,0.01251002,0.25284,1.03874
148.56,21.12565,0.0125204,0.25404,1.0379
150.76,21.33659,0.01219121,0.25595,1.03706
152.96,21.54761,0.01152993,0.25711,1.03622
155.16,21.75845,0.0118769,0.25829,1.03537
157.36,21.96922,0.01185977,0.25913,1.03452
159.56,22.1794,0.01152763,0.26264,1.03365
161.76,22.3904,0.01021027,0.26221,1.03279
163.96,22.60161,0.009870325,0.2627,1.03192
166.16,22.812,0.01019935,0.2657,1.03104
168.36,23.02236,0.009852755,0.26624,1.03016
170.56,23.23225,0.007849673,0.26903,1.02927
172.76,23.4427,0.007925656,0.27317,1.02838
174.96,23.65322,0.008230796,0.27588,1.02748
177.16,23.8632,0.007571046,0.28233,1.02658
179.36,24.0735,0.006909928,0.28569,1.02567
181.56,24.28371,0.00565369,0.28779,1.02475
183.76,24.49302,0.004610062,0.29011,1.02383
185.96,24.70276,0.00362,0.28738,1.0229
188.16,24.9123,0.00362,0.2861,1.02197
190.36,25.12135,0.002299983,0.28283,1.02104
192.56,25.33105,0.002297523,0.27859,1.02009
194.76,25.54106,0.00164568,0.27609,1.01914
196.96,25.7499,0.001640926,0.27253,1.01819
199.16,25.95908,-0.0003317236,0.27023,1.01723
201.36,26.16873,-0.00132,0.26901,1.01627
203.56,26.37772,-0.003840265,0.26778,1.0153
205.76,26.5872,-0.002133749,0.2652,1.01432
207.96,26.7971,-0.003949683,0.26396,1.01334
210.16,27.00637,-0.00527,0.26557,1.01235
212.36,27.2165,-0.0062389,0.26518,1.01136
214.56,27.42608,-0.008240001,0.26618,1.01036
216.76,27.6352,-0.009546293,0.2663,1.00935
218.96,27.8442,-0.01218984,0.2656,1.00834
221.16,28.0538,-0.01353342,0.26683,1.00733
223.36,28.26319,-0.01745052,0.26734,1.0063
225.56,28.47253,-0.02009697,0.27023,1.00528
227.76,28.68232,-0.02142602,0.27007,1.00424
229.96,28.89122,-0.02517819,0.27175,1.00321
232.16,29.10145,-0.02795652,0.27247,1.00216
234.36,29.31118,-0.03196307,0.27333,1.00111
236.56,29.5208,-0.03866269,0.27661,1.00005
238.76,29.7303,-0.04259949,0.27626,0.99899
240.96,29.93992,-0.04705679,0.27974,0.99793
243.16,30.1492,-0.05632273,0.28829,0.99685
245.36,30.35885,-0.0606003,0.28443,0.99577
247.56,30.5681,-0.06900203,0.28409,0.99469
249.76,30.7771,-0.07908201,0.28499,0.9936
251.96,30.9867,-0.08832803,0.29058,0.9925
254.16,31.19574,-0.09898767,0.29214,0.9914
256.36,31.40526,-0.11003,0.29264,0.99029
258.56,31.61437,-0.12149,0.2954,0.98918
260.76,31.82328,-0.13567,0.30008,0.98806
262.96,32.0329,-0.15011,0.30481,0.98693
265.16,32.24261,-0.16881,0.31174,0.9858
267.36,32.4526,-0.19079,0.3184,0.98466
269.56,32.66263,-0.21062,0.32791,0.98352
271.76,32.87238,-0.2374,0.33843,0.98237
273.96,33.08227,-0.26535,0.34952,0.98122
276.16,33.29197,-0.29961,0.36794,0.98006
278.36,33.5018,-0.33753,0.39497,0.97889
280.56,33.7123,-0.38686,0.43724,0.97772
282.76,33.92248,-0.44255,0.51083,0.97654
284.96,34.13296,-0.51415,0.64362,0.97536
287.16,34.34476,-0.61172,0.91364,0.97417
289.36,34.55826,-0.75088,1.29763,0.97297
291.56,34.77219,-0.93929,1.57014,0.97177
293.76,34.9863,-1.14936,1.62154,0.97056
295.96,35.19903,-1.35602,1.51978,0.96935
298.16,35.4105,-1.54501,1.28289,0.96813
300.36,35.62123,-1.70881,1.04064,0.96691
302.56,35.83079,-1.84231,0.86436,0.96567
304.76,36.0398,-1.9516,0.72804,0.96444
306.96,36.25,-2.03993,0.6006,0.96319
309.16,36.45904,-2.11142,0.5157,0.96195
311.36,36.6677,-2.16848,0.43536,0.96069
313.56,36.87729,-2.21408,0.36383,0.95943
315.76,37.08683,-2.25117,0.29702,0.95816
317.96,37.2968,-2.28282,0.22963,0.95689
320.16,37.50683,-2.30765,0.15452,0.95561
322.36,37.7164,-2.32988,0.07760334,0.95433
324.56,37.92708,-2.34814,0.01414091,0.95304
326.76,38.13725,-2.36416,-0.03762562,0.95174
328.96,38.3475,-2.37667,-0.08013041,0.95044
331.16,38.5584,-2.38866,-0.11613,0.94913
333.36,38.76896,-2.3982,-0.1474,0.94782
335.56,38.97987,-2.40545,-0.16982,0.9465
337.76,39.19147,-2.41223,-0.18384,0.94518
339.96,39.40302,-2.41773,-0.19579,0.94384
342.16,39.61421,-2.42265,-0.21208,0.94251
344.36,39.8273,-2.42709,-0.21997,0.94116
346.56,40.03905,-2.43104,-0.22179,0.93981
348.76,40.2519,-2.435,-0.22275,0.93846
350.96,40.46413,-2.43764,-0.22334,0.9371
353.16,40.67767,-2.43995,-0.22167,0.93573
355.36,40.89063,-2.44203,-0.22376,0.93436
357.56,41.1036,-2.44533,-0.2214,0.93298
359.76,41.3166,-2.44809,-0.21968,0.93159
361.96,41.52965,-2.45015,-0.21576,0.9302
364.16,41.74225,-2.45015,-0.2147,0.92881
366.36,41.95563,-2.45274,-0.21358,0.92741
368.56,42.16875,-2.45322,-0.21242,0.926
370.76,42.3825,-2.45585,-0.21292,0.92458
372.96,42.5959,-2.45717,-0.21714,0.92316
375.16,42.80883,-2.45981,-0.21426,0.92174
377.36,43.02238,-2.46213,-0.21698,0.92031
379.56,43.23563,-2.46376,-0.22025,0.91887
381.76,43.4491,-2.46376,-0.21956,0.91742
383.96,43.66297,-2.46639,-0.21708,0.91598
386.16,43.8769,-2.46769,-0.21223,0.91452
388.36,44.09028,-2.47287,-0.21162,0.91306
390.56,44.30458,-2.47123,-0.21122,0.91159
392.76,44.51877,-2.47386,-0.20635,0.91012
394.96,44.73308,-2.47551,-0.20232,0.90864
397.16,44.94709,-2.47938,-0.20065,0.90716
399.36,45.1622,-2.48214,-0.19351,0.90567
401.56,45.37679,-2.48577,-0.18584,0.90417
403.76,45.59125,-2.48704,-0.17191,0.90267
405.96,45.80588,-2.49,-0.15779,0.90116
408.16,46.02053,-2.49264,-0.14276,0.89965
410.36,46.235,-2.49785,-0.12811,0.89813
412.56,46.4499,-2.50054,-0.1188,0.89661
414.76,46.66485,-2.50579,-0.11492,0.89508
416.96,46.87978,-2.50976,-0.11734,0.89354
419.16,47.09491,-2.51366,-0.11793,0.892
421.36,47.30953,-2.52029,-0.12179,0.89045
423.56,47.52503,-2.52344,-0.12503,0.8889
425.76,47.74074,-2.5316,-0.125,0.88734
427.96,47.95593,-2.53889,-0.12223,0.88577
430.16,48.171,-2.54578,-0.12249,0.8842
432.36,48.38681,-2.55456,-0.1211,0.88263
434.56,48.6023,-2.56246,-0.12187,0.88105
436.76,48.81787,-2.57209,-0.11875,0.87946
438.96,49.03362,-2.58304,-0.11527,0.87787
441.16,49.24872,-2.59572,-0.11171,0.87627
443.36,49.4643,-2.60868,-0.11057,0.87467
445.56,49.67941,-2.62131,-0.10236,0.87306
447.76,49.89563,-2.63736,-0.09552034,0.87144
449.96,50.1106,-2.65338,-0.08878237,0.86982
452.16,50.32696,-2.67032,-0.07714688,0.86819
454.36,50.54312,-2.68807,-0.06769913,0.86656
456.56,50.75927,-2.70727,-0.06325191,0.86493
458.76,50.97525,-2.72405,-0.05467988,0.86328
460.96,51.19079,-2.74171,-0.04768077,0.86164
463.16,51.40695,-2.76,-0.04180033,0.85998
465.36,51.623,-2.77853,-0.03780717,0.85832
467.56,51.83863,-2.79691,-0.036251,0.85666
469.76,52.05549,-2.8137,-0.0338225,0.85499
471.96,52.27263,-2.83134,-0.03394652,0.85331
474.16,52.48985,-2.84599,-0.03261621,0.85163
476.36,52.7068,-2.8629,-0.03306196,0.84995
478.56,52.92349,-2.87818,-0.03425768,0.84826
480.76,53.1404,-2.89196,-0.03422527,0.84656
482.96,53.3577,-2.906,-0.03858704,0.84486
485.16,53.57444,-2.9172,-0.04082209,0.84315
487.36,53.7909,-2.92892,-0.0431729,0.84144
489.56,54.00824,-2.93804,-0.04582849,0.83972
491.76,54.2256,-2.94856,-0.05258668,0.838
493.96,54.44314,-2.95702,-0.05616505,0.83627
496.16,54.66089,-2.96365,-0.06084084,0.83454
498.36,54.87851,-2.97019,-0.06393479,0.8328
500.56,55.096,-2.97705,-0.06973059,0.83106
502.76,55.3137,-2.9823,-0.07297694,0.82931
504.96,55.53167,-2.98501,-0.07733999,0.82756
507.16,55.74952,-2.99028,-0.08164051,0.8258
509.36,55.9675,-2.99357,-0.08201836,0.82403
511.56,56.1854,-2.99759,-0.08610654,0.82227
513.76,56.40299,-3.00031,-0.08920678,0.82049
515.96,56.62061,-3.00422,-0.09310626,0.81871
518.16,56.8387,-3.00685,-0.09485789,0.81693
520.36,57.05666,-3.00851,-0.0975964,0.81514
522.56,57.27485,-3.01279,-0.10028,0.81335
524.76,57.493,-3.01411,-0.10099,0.81155
526.96,57.71062,-3.01677,-0.09844704,0.80975
529.16,57.9292,-3.01806,-0.09489818,0.80794
531.36,58.14775,-3.02069,-0.09400255,0.80613
533.56,58.36615,-3.02333,-0.09181016,0.80431
535.76,58.58515,-3.02596,-0.09235378,0.80249
537.96,58.804,-3.02794,-0.09055434,0.80066
540.16,59.02293,-3.02826,-0.09054649,0.79883
542.36,59.24253,-3.03123,-0.08884266,0.79699
544.56,59.46128,-3.03255,-0.09103496,0.79515
546.76,59.6797,-3.03386,-0.09047436,0.79331
548.96,59.8979,-3.03542,-0.0955359,0.79146
549.96,59.99765,-3.03651,-0.09562925,0.79061