File: 01_Data/Pipe_Heat_Cable/STA/N2/10K_min/Pipe_Heat_Cable_STA_N2_10KData_220727_R1.csv
##Temp./Â°C,Time/min,Mass loss(subtr.2)/mg,DSC(subtr.2)/(mW/mg),Sensit./(uV/mW)
49.435,10.00917,-0.02601,0.008376104,1.07025
52.035,11.22637,-0.02953012,0.10708,1.06954
54.635,11.62396,-0.02973635,0.15407,1.06881
57.235,11.95626,-0.03056279,0.18195,1.06808
59.835,12.26182,-0.03133331,0.20108,1.06735
62.435,12.55439,-0.0329799,0.21188,1.0666
65.035,12.84024,-0.03161905,0.21959,1.06585
67.635,13.12241,-0.03294627,0.22706,1.06509
70.235,13.40065,-0.03304,0.23096,1.06433
72.835,13.67513,-0.03448305,0.23605,1.06355
75.435,13.947,-0.03524425,0.23839,1.06277
78.035,14.21614,-0.0358994,0.23935,1.06199
80.635,14.4839,-0.03564511,0.24306,1.0612
83.235,14.74949,-0.03635693,0.24536,1.06039
85.835,15.01336,-0.0360412,0.24562,1.05959
88.435,15.27486,-0.03840817,0.24784,1.05877
91.035,15.53566,-0.03841957,0.25116,1.05795
93.635,15.7949,-0.03841996,0.25326,1.05712
96.235,16.05151,-0.0377855,0.26022,1.05628
98.835,16.30922,-0.03830114,0.26312,1.05544
101.435,16.56454,-0.04043462,0.26724,1.05459
104.035,16.81958,-0.04191941,0.27007,1.05373
106.635,17.0741,-0.0419283,0.2732,1.05287
109.235,17.32865,-0.04324448,0.27464,1.05199
111.835,17.582,-0.04127091,0.27955,1.05111
114.435,17.8352,-0.04367619,0.28462,1.05023
117.035,18.08843,-0.0438536,0.28714,1.04933
119.635,18.34156,-0.04455145,0.28651,1.04843
122.235,18.5949,-0.0459717,0.28475,1.04752
124.835,18.84768,-0.04631962,0.28654,1.04661
127.435,19.1,-0.04654082,0.28764,1.04568
130.035,19.35275,-0.04719672,0.29123,1.04475
132.635,19.60468,-0.04664189,0.29748,1.04381
135.235,19.85513,-0.04839764,0.29973,1.04287
137.835,20.1074,-0.0486673,0.30036,1.04191
140.435,20.358,-0.04996981,0.29877,1.04095
143.035,20.6084,-0.04994,0.30098,1.03998
145.635,20.85819,-0.0506,0.30327,1.03901
148.235,21.109,-0.05136771,0.30207,1.03803
150.835,21.35904,-0.05137059,0.30383,1.03703
153.435,21.60849,-0.05135953,0.30554,1.03604
156.035,21.85837,-0.05247496,0.30515,1.03503
158.635,22.10681,-0.05247,0.30822,1.03402
161.235,22.35559,-0.05366612,0.31111,1.033
163.835,22.60476,-0.05335552,0.31259,1.03197
166.435,22.85267,-0.0534552,0.31489,1.03093
169.035,23.1009,-0.0551096,0.3174,1.02989
171.635,23.3494,-0.05643,0.32054,1.02884
174.235,23.59814,-0.05774138,0.32116,1.02778
176.835,23.846,-0.05890943,0.32641,1.02671
179.435,24.0955,-0.06190347,0.33607,1.02564
182.035,24.3432,-0.06049,0.33964,1.02455
184.635,24.59125,-0.0618,0.33964,1.02346
187.235,24.8396,-0.06378002,0.33546,1.02237
189.835,25.0874,-0.06370688,0.33265,1.02126
192.435,25.33448,-0.0677283,0.32846,1.02015
195.035,25.58258,-0.06805969,0.32463,1.01903
197.635,25.83044,-0.07069003,0.32099,1.0179
200.235,26.07805,-0.07200426,0.31945,1.01676
202.835,26.32534,-0.07299394,0.31804,1.01562
205.435,26.57262,-0.07369258,0.31699,1.01446
208.035,26.8205,-0.07761032,0.32116,1.0133
210.635,27.06747,-0.07756978,0.32215,1.01214
213.235,27.31452,-0.080245,0.32242,1.01096
215.835,27.562,-0.08431005,0.32336,1.00978
218.435,27.8097,-0.08694608,0.32468,1.00858
221.035,28.05766,-0.09292161,0.32611,1.00738
223.635,28.30545,-0.09128226,0.32484,1.00618
226.235,28.5534,-0.0967168,0.32609,1.00496
228.835,28.80125,-0.10119,0.32721,1.00374
231.435,29.04915,-0.10539,0.32858,1.00251
234.035,29.2971,-0.11022,0.3312,1.00127
236.635,29.54492,-0.11714,0.33384,1.00002
239.235,29.79195,-0.12304,0.33545,0.99876
241.835,30.03943,-0.13087,0.34093,0.9975
244.435,30.2867,-0.13787,0.34829,0.99623
247.035,30.53387,-0.1458,0.34508,0.99495
249.635,30.78136,-0.15912,0.34798,0.99366
252.235,31.0285,-0.16708,0.35077,0.99236
254.835,31.27628,-0.18276,0.35074,0.99106
257.435,31.5237,-0.19511,0.35728,0.98975
260.035,31.77105,-0.21408,0.3617,0.98843
262.635,32.01862,-0.23388,0.36714,0.9871
265.235,32.26648,-0.25141,0.37441,0.98576
267.835,32.5143,-0.27587,0.38387,0.98442
270.435,32.762,-0.30238,0.3926,0.98307
273.035,33.01032,-0.33107,0.40207,0.9817
275.635,33.25847,-0.36476,0.4095,0.98034
278.235,33.50742,-0.40369,0.41861,0.97896
280.835,33.75634,-0.44039,0.42888,0.97757
283.435,34.00505,-0.48898,0.43877,0.97618
286.035,34.25444,-0.54242,0.46112,0.97478
288.635,34.50355,-0.60768,0.54269,0.97337
291.235,34.7539,-0.70603,0.93329,0.97195
293.835,35.006,-0.88708,1.54068,0.97052
296.435,35.2601,-1.16832,1.8628,0.96909
299.035,35.51312,-1.46485,1.77179,0.96764
301.635,35.76342,-1.71731,1.54629,0.96619
304.235,36.01178,-1.92274,1.22749,0.96473
306.835,36.25912,-2.07618,0.95147,0.96327
309.435,36.50605,-2.18884,0.75896,0.96179
312.035,36.75291,-2.27552,0.62388,0.96031
314.635,37.00027,-2.33585,0.51459,0.95881
317.235,37.2479,-2.38699,0.4315,0.95731
319.835,37.49582,-2.42357,0.36699,0.9558
322.435,37.74375,-2.45319,0.31447,0.95429
325.035,37.99239,-2.47613,0.27152,0.95276
327.635,38.2412,-2.49469,0.23648,0.95123
330.235,38.4906,-2.51207,0.20389,0.94968
332.835,38.74038,-2.52366,0.18123,0.94813
335.435,38.9903,-2.5362,0.15884,0.94658
338.035,39.24033,-2.54465,0.14488,0.94501
340.635,39.49025,-2.55267,0.1292,0.94343
343.235,39.74053,-2.55457,0.12005,0.94185
345.835,39.99103,-2.56336,0.10993,0.94026
348.435,40.2414,-2.56574,0.10579,0.93866
351.035,40.49238,-2.56982,0.09657224,0.93705
353.635,40.7429,-2.57244,0.0931626,0.93543
356.235,40.99454,-2.57563,0.09109727,0.93381
358.835,41.24603,-2.57879,0.08766783,0.93218
361.435,41.49767,-2.58166,0.08311577,0.93054
364.035,41.74954,-2.58428,0.07880709,0.92889
366.635,42.00193,-2.58613,0.07765608,0.92723
369.235,42.25363,-2.58694,0.07534215,0.92556
371.835,42.50658,-2.58951,0.07137393,0.92389
374.435,42.75857,-2.59151,0.06665688,0.92221
377.035,43.01042,-2.59417,0.06067324,0.92052
379.635,43.2635,-2.59615,0.05111299,0.91882
382.235,43.5149,-2.59879,0.04461884,0.91711
384.835,43.76758,-2.6024,0.03151746,0.9154
387.435,44.02047,-2.60406,0.01966609,0.91367
390.035,44.27305,-2.60732,0.01090821,0.91194
392.635,44.52595,-2.6114,0.00171126,0.9102
395.235,44.77887,-2.61404,-0.002094858,0.90846
397.835,45.03232,-2.61799,-0.004945731,0.9067
400.435,45.28546,-2.62201,-0.009307504,0.90494
403.035,45.53902,-2.62457,-0.00760374,0.90317
405.635,45.79237,-2.62831,-0.00876833,0.90139
408.235,46.04619,-2.63369,-0.00980718,0.8996
410.835,46.30008,-2.64013,-0.01130618,0.8978
413.435,46.5539,-2.64309,-0.01204707,0.896
416.035,46.80775,-2.64868,-0.01258621,0.89419
418.635,47.06175,-2.65601,-0.01759552,0.89237
421.235,47.316,-2.65993,-0.01941332,0.89054
423.835,47.57012,-2.66848,-0.0192685,0.8887
426.435,47.82455,-2.67747,-0.01877533,0.88686
429.035,48.07806,-2.68573,-0.01452353,0.88501
431.635,48.33269,-2.6959,-0.01164751,0.88315
434.235,48.58729,-2.70755,-0.005915134,0.88128
436.835,48.84206,-2.71831,0.00426661,0.87941
439.435,49.09717,-2.73244,0.01081978,0.87752
442.035,49.35127,-2.74783,0.0209546,0.87563
444.635,49.60595,-2.76381,0.02857598,0.87373
447.235,49.8603,-2.7802,0.04030297,0.87183
449.835,50.11538,-2.80271,0.05094259,0.86991
452.435,50.37088,-2.82272,0.06393535,0.86799
455.035,50.6267,-2.84434,0.07868904,0.86606
457.635,50.88215,-2.86568,0.08809232,0.86412
460.235,51.1372,-2.88947,0.10004,0.86218
462.835,51.39268,-2.91003,0.11081,0.86023
465.435,51.64829,-2.93387,0.11858,0.85827
468.035,51.90352,-2.95716,0.12422,0.8563
470.635,52.15933,-2.97677,0.13062,0.85432
473.235,52.41522,-2.99794,0.13585,0.85234
475.835,52.671,-3.01771,0.1394,0.85035
478.435,52.92661,-3.03611,0.14211,0.84835
481.035,53.1833,-3.05319,0.14238,0.84635
483.635,53.43959,-3.06967,0.14135,0.84434
486.235,53.69596,-3.08242,0.13653,0.84232
488.835,53.95256,-3.09469,0.13341,0.84029
491.435,54.20952,-3.10676,0.13014,0.83825
494.035,54.46612,-3.11727,0.1278,0.83621
496.635,54.7233,-3.12487,0.13157,0.83416
499.235,54.9803,-3.1328,0.13683,0.83211
501.835,55.2372,-3.13866,0.14103,0.83005
504.435,55.49428,-3.1443,0.14622,0.82798
507.035,55.75196,-3.1499,0.15197,0.8259
509.635,56.0091,-3.15407,0.15767,0.82381
512.235,56.26651,-3.15808,0.1615,0.82172
514.835,56.5243,-3.16208,0.16444,0.81962
517.435,56.782,-3.16544,0.16592,0.81752
520.035,57.03836,-3.16877,0.16545,0.81541
522.635,57.2956,-3.17052,0.16933,0.81329
525.235,57.5536,-3.17275,0.17125,0.81116
527.835,57.8115,-3.17681,0.17372,0.80903
530.435,58.0696,-3.1781,0.17753,0.80689
533.035,58.3283,-3.18008,0.18142,0.80474
535.635,58.58653,-3.18272,0.18809,0.80259
538.235,58.84506,-3.18499,0.19266,0.80043
540.835,59.10416,-3.18626,0.19686,0.79827
543.435,59.3625,-3.18869,0.19893,0.79609
546.035,59.62155,-3.1915,0.20233,0.79392
548.635,59.8804,-3.19299,0.20558,0.79173
551.235,60.1391,-3.19414,0.20921,0.78954
553.835,60.3981,-3.19442,0.21342,0.78734
556.435,60.65726,-3.19897,0.21614,0.78514
559.035,60.9164,-3.20095,0.21843,0.78293
561.635,61.1748,-3.20312,0.22156,0.78071
564.235,61.43365,-3.20631,0.22303,0.77849
566.835,61.6924,-3.20784,0.23001,0.77626
569.435,61.9512,-3.21037,0.23499,0.77403
572.035,62.2099,-3.21247,0.24026,0.77178
574.635,62.4695,-3.21346,0.24487,0.76954
577.235,62.72854,-3.21676,0.25188,0.76729
579.835,62.988,-3.21776,0.25513,0.76503
582.435,63.24819,-3.22172,0.26209,0.76276
585.035,63.5079,-3.223,0.26595,0.76049
587.635,63.7681,-3.22444,0.26746,0.75822
590.235,64.02779,-3.22585,0.27319,0.75594
592.835,64.28842,-3.22744,0.28145,0.75365
595.435,64.5485,-3.22782,0.28598,0.75136
598.035,64.80836,-3.23016,0.28862,0.74906
600.635,65.0689,-3.23158,0.29217,0.74676
603.235,65.3297,-3.23411,0.29512,0.74445
605.835,65.59018,-3.23508,0.29714,0.74214
608.435,65.8506,-3.23739,0.30004,0.73982
611.035,66.11102,-3.24,0.29897,0.73749
613.635,66.37116,-3.23873,0.29936,0.73516
616.235,66.63145,-3.24146,0.29474,0.73283
618.835,66.89185,-3.24322,0.2847,0.73049
621.435,67.15159,-3.2442,0.27747,0.72815
624.035,67.41152,-3.24419,0.26811,0.7258
626.635,67.67138,-3.24694,0.24997,0.72345
629.235,67.9311,-3.24694,0.24029,0.72109
631.835,68.19264,-3.24588,0.23142,0.71872
634.435,68.45344,-3.24836,0.22011,0.71636
637.035,68.71415,-3.24947,0.21915,0.71398
639.635,68.97504,-3.2508,0.20945,0.71161
642.235,69.23626,-3.25145,0.20665,0.70923
644.835,69.4974,-3.2499,0.20457,0.70684
647.435,69.7585,-3.24925,0.19935,0.70445
649.735,69.98956,-3.2529,0.20315,0.70233