File: 01_Data/Cotton_Felt/STA/N2/10K_min/Cotton_Felt_STA_N2_10KData_210715_R1.csv
##Temp./Â°C,Time/min,Mass loss(subtr.2)/mg,DSC(subtr.2)/(mW/mg),Sensit./(uV/mW)
49.288,10.01,-0.02699,0.0005261914,0.6183
52.188,12.3384,-0.03358595,0.09012906,0.61983
55.088,13.01167,-0.03756193,0.13452,0.62133
57.988,13.5526,-0.03650578,0.16482,0.6228
60.888,14.03193,-0.04099637,0.19125,0.62425
63.788,14.47315,-0.04233558,0.21404,0.62566
66.688,14.88548,-0.04606938,0.23758,0.62705
69.588,15.2796,-0.04871165,0.25961,0.6284
72.488,15.6549,-0.05165751,0.28315,0.62973
75.388,16.0157,-0.05670858,0.30604,0.63103
78.288,16.36488,-0.05490066,0.32407,0.6323
81.188,16.70284,-0.06395372,0.33963,0.63353
84.088,17.03213,-0.06671157,0.35419,0.63474
86.988,17.35412,-0.07073873,0.36584,0.63592
89.888,17.66825,-0.07630087,0.37327,0.63707
92.788,17.97608,-0.08110159,0.37822,0.63819
95.688,18.27834,-0.08436001,0.38049,0.63928
98.588,18.57696,-0.08829994,0.38235,0.64034
101.488,18.87141,-0.0922534,0.38201,0.64137
104.388,19.16292,-0.09387507,0.37489,0.64237
107.288,19.45214,-0.09785178,0.36577,0.64334
110.188,19.73927,-0.10048,0.36184,0.64429
113.088,20.0238,-0.1031,0.35445,0.6452
115.988,20.3067,-0.10465,0.3493,0.64608
118.888,20.5877,-0.10596,0.3483,0.64694
121.788,20.86744,-0.10973,0.34156,0.64776
124.688,21.14509,-0.10717,0.34006,0.64856
127.588,21.42014,-0.10849,0.33795,0.64932
130.488,21.69387,-0.10913,0.3363,0.65006
133.388,21.9661,-0.11265,0.33504,0.65077
136.288,22.23719,-0.11099,0.33776,0.65145
139.188,22.50597,-0.11123,0.34207,0.6521
142.088,22.77337,-0.11123,0.3437,0.65272
144.988,23.03998,-0.11123,0.34611,0.65331
147.888,23.30588,-0.11123,0.35182,0.65387
150.788,23.5701,-0.11123,0.35473,0.6544
153.688,23.8344,-0.11123,0.35886,0.65491
156.588,24.09767,-0.11255,0.36648,0.65539
159.488,24.36101,-0.11255,0.36979,0.65583
162.388,24.6237,-0.11255,0.37536,0.65625
165.288,24.8863,-0.11383,0.38338,0.65665
168.188,25.14885,-0.11521,0.39196,0.65701
171.088,25.4107,-0.11387,0.39869,0.65734
173.988,25.6727,-0.12126,0.40267,0.65765
176.888,25.93455,-0.11331,0.40558,0.65793
179.788,26.19576,-0.11475,0.41063,0.65818
182.688,26.45608,-0.11418,0.41131,0.65841
185.588,26.7163,-0.11677,0.41565,0.6586
188.488,26.9758,-0.11814,0.42145,0.65877
191.388,27.2354,-0.11924,0.41975,0.65892
194.288,27.4939,-0.1166,0.42398,0.65903
197.188,27.75205,-0.11792,0.42594,0.65912
200.088,28.01012,-0.11891,0.42718,0.65918
202.988,28.2684,-0.11796,0.42683,0.65922
205.888,28.52627,-0.12411,0.42766,0.65922
208.788,28.78418,-0.11731,0.42931,0.65921
211.688,29.04187,-0.12669,0.43321,0.65916
214.588,29.3001,-0.12933,0.43687,0.65909
217.488,29.55773,-0.13188,0.44362,0.659
220.388,29.81578,-0.13525,0.44656,0.65888
223.288,30.0738,-0.14139,0.44436,0.65873
226.188,30.33225,-0.14458,0.4424,0.65856
229.088,30.59083,-0.14992,0.43807,0.65836
231.988,30.8487,-0.15761,0.44447,0.65814
234.888,31.10768,-0.16432,0.44388,0.65789
237.788,31.3657,-0.17436,0.4448,0.65762
240.688,31.6241,-0.1847,0.44472,0.65732
243.588,31.883,-0.196,0.4391,0.65701
246.488,32.1418,-0.20957,0.43797,0.65666
249.388,32.4001,-0.22486,0.43873,0.65629
252.288,32.65974,-0.24239,0.4365,0.6559
255.188,32.91853,-0.25989,0.43191,0.65549
258.088,33.1775,-0.27816,0.43381,0.65505
260.988,33.43712,-0.29984,0.43504,0.65459
263.888,33.69615,-0.3221,0.43409,0.65411
266.788,33.95636,-0.34889,0.43424,0.6536
269.688,34.2145,-0.377,0.43523,0.65308
272.588,34.47534,-0.4072,0.44535,0.65253
275.488,34.7355,-0.43931,0.44837,0.65196
278.388,34.99548,-0.47528,0.45323,0.65136
281.288,35.2558,-0.51708,0.45719,0.65075
284.188,35.51696,-0.56188,0.46444,0.65011
287.088,35.77755,-0.61262,0.46845,0.64946
289.988,36.03867,-0.6684,0.47492,0.64878
292.888,36.30073,-0.73113,0.48545,0.64809
295.788,36.56238,-0.79597,0.49241,0.64737
298.688,36.82417,-0.86906,0.49797,0.64663
301.588,37.0861,-0.94657,0.50758,0.64587
304.488,37.34755,-1.02977,0.51136,0.6451
307.388,37.60992,-1.11954,0.5196,0.6443
310.288,37.87178,-1.21637,0.53001,0.64349
313.188,38.13413,-1.31856,0.5378,0.64266
316.088,38.3969,-1.42773,0.54722,0.64181
318.988,38.66024,-1.54716,0.55589,0.64094
321.888,38.92367,-1.67191,0.57165,0.64005
324.788,39.18712,-1.80489,0.58277,0.63914
327.688,39.45147,-1.94577,0.59227,0.63822
330.588,39.71549,-2.09851,0.60173,0.63728
333.488,39.97888,-2.25215,0.60945,0.63633
336.388,40.24355,-2.41295,0.61032,0.63535
339.288,40.508,-2.57874,0.59982,0.63437
342.188,40.77323,-2.74198,0.57475,0.63336
345.088,41.03935,-2.89729,0.52853,0.63234
347.988,41.30555,-3.03423,0.4673,0.6313
350.888,41.5719,-3.14149,0.39395,0.63025
353.788,41.83918,-3.2135,0.3373,0.62919
356.688,42.1064,-3.26083,0.30991,0.6281
359.588,42.37408,-3.29027,0.29262,0.62701
362.488,42.64103,-3.31187,0.28705,0.6259
365.388,42.90938,-3.32927,0.28145,0.62477
368.288,43.17742,-3.34338,0.28343,0.62364
371.188,43.44559,-3.35592,0.28327,0.62249
374.088,43.71463,-3.37025,0.28172,0.62132
376.988,43.98376,-3.3809,0.28309,0.62015
379.888,44.25313,-3.39138,0.28473,0.61896
382.788,44.52264,-3.39972,0.28213,0.61775
385.688,44.79293,-3.40848,0.2863,0.61654
388.588,45.06342,-3.41873,0.28565,0.61531
391.488,45.33367,-3.42732,0.28514,0.61408
394.388,45.6042,-3.43598,0.28808,0.61283
397.288,45.87488,-3.44374,0.28514,0.61157
400.188,46.1462,-3.45131,0.28909,0.6103
403.088,46.41753,-3.45962,0.28736,0.60902
405.988,46.68866,-3.46773,0.28669,0.60773
408.888,46.96113,-3.47574,0.29004,0.60643
411.788,47.23387,-3.48275,0.28886,0.60512
414.688,47.50629,-3.49068,0.28967,0.6038
417.588,47.77989,-3.49713,0.29295,0.60248
420.488,48.05318,-3.51811,0.29378,0.60114
423.388,48.32754,-3.51369,0.2962,0.59979
426.288,48.60197,-3.52051,0.29794,0.59844
429.188,48.8767,-3.52887,0.29968,0.59708
432.088,49.15128,-3.5355,0.30239,0.59571
434.988,49.4268,-3.54155,0.30153,0.59433
437.888,49.70299,-3.54824,0.30574,0.59295
440.788,49.9794,-3.55779,0.30504,0.59156
443.688,50.25591,-3.56163,0.30525,0.59016
446.588,50.53219,-3.56939,0.30631,0.58876
449.488,50.80854,-3.57665,0.30711,0.58735
452.388,51.085,-3.58326,0.30796,0.58593
455.288,51.36172,-3.5897,0.3111,0.58451
458.188,51.63896,-3.59455,0.31614,0.58309
461.088,51.91681,-3.59981,0.31768,0.58165
463.988,52.19473,-3.6061,0.3193,0.58022
466.888,52.47331,-3.61273,0.32108,0.57878
469.788,52.7525,-3.61748,0.32244,0.57733
472.688,53.0309,-3.62173,0.3223,0.57588
475.588,53.30928,-3.62701,0.32651,0.57443
478.488,53.58859,-3.63226,0.33071,0.57297
481.388,53.86861,-3.63908,0.33256,0.57151
484.288,54.1484,-3.64407,0.33137,0.57005
487.188,54.4285,-3.6452,0.33636,0.56858
490.088,54.70909,-3.64967,0.33936,0.56711
492.988,54.9902,-3.65321,0.33993,0.56564
495.888,55.2703,-3.65858,0.34488,0.56417
498.788,55.5511,-3.66122,0.34818,0.56269
501.688,55.83276,-3.66385,0.35479,0.56122
504.588,56.115,-3.66892,0.35661,0.55974
507.488,56.39691,-3.6731,0.35849,0.55826
510.388,56.67965,-3.67437,0.36319,0.55678
513.288,56.96205,-3.68312,0.36636,0.5553
516.188,57.24505,-3.68086,0.37092,0.55381
519.088,57.5277,-3.68341,0.37622,0.55233
521.988,57.8123,-3.68489,0.37215,0.55085
524.888,58.09613,-3.68787,0.37713,0.54937
527.788,58.3801,-3.69182,0.37855,0.54788
530.688,58.66443,-3.69336,0.37884,0.5464
533.588,58.94921,-3.6938,0.37862,0.54492
536.488,59.23451,-3.69775,0.38031,0.54344
539.388,59.5199,-3.69906,0.38391,0.54196
542.288,59.80485,-3.70071,0.38533,0.54048
545.188,60.08942,-3.70466,0.3909,0.53901
548.088,60.37536,-3.70466,0.39043,0.53753
550.988,60.66047,-3.70729,0.39199,0.53606
553.888,60.94639,-3.7086,0.39158,0.53459
556.788,61.2327,-3.70256,0.38862,0.53312
559.688,61.5199,-3.712,0.39199,0.53165
562.588,61.807,-3.71463,0.40075,0.53019
565.488,62.0947,-3.71723,0.40013,0.52873
568.388,62.38182,-3.71727,0.40052,0.52727
571.288,62.66881,-3.71859,0.40074,0.52581
574.188,62.95605,-3.71859,0.40527,0.52436
577.088,63.2441,-3.71992,0.40726,0.52291
579.988,63.53285,-3.72331,0.41111,0.52147
582.888,63.82199,-3.72472,0.41872,0.52003
585.788,64.11076,-3.72513,0.41751,0.51859
588.688,64.39842,-3.72737,0.41802,0.51716
591.588,64.68755,-3.72868,0.4213,0.51573
594.488,64.97657,-3.7323,0.42609,0.51431
597.388,65.26656,-3.73098,0.43978,0.51289
600.288,65.55625,-3.73368,0.44287,0.51147
603.188,65.84606,-3.73295,0.44781,0.51006
606.088,66.13609,-3.73427,0.45255,0.50866
608.988,66.42562,-3.73493,0.45933,0.50726
611.888,66.7161,-3.73632,0.46252,0.50586
614.788,67.00694,-3.7346,0.47429,0.50447
617.688,67.2978,-3.73785,0.47254,0.50309
620.588,67.58957,-3.7379,0.4758,0.50171
623.488,67.88114,-3.74085,0.47578,0.50034
626.388,68.17267,-3.73989,0.47597,0.49897
629.288,68.46396,-3.74316,0.47779,0.49761
632.188,68.75559,-3.74427,0.48526,0.49625
635.088,69.04729,-3.74381,0.4881,0.49491
637.988,69.34061,-3.74315,0.49601,0.49356
640.888,69.63346,-3.74443,0.49685,0.49223
643.788,69.9264,-3.7458,0.49776,0.4909
646.688,70.21944,-3.74711,0.49979,0.48957
649.588,70.51258,-3.74579,0.50862,0.48826
652.488,70.8058,-3.7471,0.51431,0.48695
655.388,71.09971,-3.74843,0.51585,0.48564
658.288,71.39399,-3.74079,0.51443,0.48435
661.188,71.68818,-3.74886,0.51945,0.48306
664.088,71.98201,-3.75019,0.5281,0.48178
666.988,72.27606,-3.75117,0.53357,0.4805
669.888,72.5706,-3.75286,0.53978,0.47923
672.788,72.8652,-3.75215,0.54204,0.47797
675.688,73.16006,-3.75347,0.54837,0.47672
678.588,73.455,-3.75347,0.54859,0.47547
681.488,73.74991,-3.75478,0.55091,0.47423
684.388,74.04567,-3.75537,0.5593,0.473
687.288,74.34181,-3.75479,0.56029,0.47178
690.188,74.63769,-3.75643,0.56276,0.47056
693.088,74.93401,-3.75503,0.58232,0.46935
695.988,75.23026,-3.7576,0.58618,0.46815
698.888,75.52687,-3.75591,0.58733,0.46696
701.788,75.82311,-3.75872,0.60019,0.46577
704.688,76.11969,-3.75873,0.60576,0.4646
707.588,76.41594,-3.75873,0.61327,0.46343
710.488,76.7129,-3.75629,0.62116,0.46227
713.388,77.00952,-3.75971,0.63517,0.46111
716.288,77.3061,-3.76103,0.63566,0.45996
719.188,77.60237,-3.76175,0.64608,0.45883
722.088,77.89957,-3.76279,0.65608,0.4577
724.988,78.19633,-3.7618,0.65887,0.45657
727.888,78.49373,-3.76411,0.66595,0.45546
730.788,78.79249,-3.77228,0.68117,0.45435
733.688,79.0918,-3.76306,0.7035,0.45325
736.588,79.3903,-3.75736,0.72274,0.45216
739.488,79.68902,-3.76468,0.72578,0.45108
742.388,79.98716,-3.76827,0.72713,0.45
742.488,79.99732,-3.76885,0.72885,0.44997