File: 01_Data/Cotton_Felt/STA/N2/10K_min/Cotton_Felt_STA_N2_10KData_210715_R2.csv
##Temp./Â°C,Time/min,Mass loss(subtr.2)/mg,DSC(subtr.2)/(mW/mg),Sensit./(uV/mW)
49.335,10.01,-0.05539,0.04861598,0.61832
52.235,12.34406,-0.0604498,0.1256,0.61985
55.135,13.01989,-0.06352756,0.16197,0.62136
58.035,13.56104,-0.06956066,0.18859,0.62283
60.935,14.0398,-0.07009472,0.21576,0.62427
63.835,14.47926,-0.07146205,0.23874,0.62569
66.735,14.8914,-0.07611851,0.26084,0.62707
69.635,15.28249,-0.07796154,0.28002,0.62843
72.535,15.657,-0.08233297,0.29943,0.62975
75.435,16.01824,-0.0839038,0.31685,0.63105
78.335,16.3664,-0.08764608,0.33429,0.63232
81.235,16.7046,-0.0981597,0.35233,0.63355
84.135,17.03346,-0.09623501,0.36386,0.63476
87.035,17.3544,-0.09984544,0.37468,0.63594
89.935,17.66841,-0.10413,0.38525,0.63709
92.835,17.97491,-0.10674,0.38558,0.63821
95.735,18.2775,-0.11068,0.38598,0.6393
98.635,18.57561,-0.11203,0.38556,0.64036
101.535,18.86962,-0.11726,0.38153,0.64139
104.435,19.1614,-0.11924,0.37259,0.64239
107.335,19.45051,-0.12121,0.3637,0.64336
110.235,19.73705,-0.12373,0.3531,0.6443
113.135,20.02238,-0.12633,0.34797,0.64521
116.035,20.3053,-0.12651,0.33854,0.6461
118.935,20.58695,-0.12779,0.33575,0.64695
121.835,20.8662,-0.13042,0.33012,0.64777
124.735,21.1437,-0.13044,0.32952,0.64857
127.635,21.42016,-0.13305,0.32728,0.64934
130.535,21.69383,-0.13076,0.33037,0.65007
133.435,21.96559,-0.13207,0.33323,0.65078
136.335,22.236,-0.13306,0.33542,0.65146
139.235,22.50505,-0.13442,0.33488,0.65211
142.135,22.77328,-0.13451,0.33745,0.65273
145.035,23.04005,-0.1358,0.34248,0.65332
147.935,23.3053,-0.13449,0.3432,0.65388
150.835,23.56987,-0.13448,0.34625,0.65441
153.735,23.8339,-0.13448,0.34977,0.65492
156.635,24.09711,-0.13557,0.35161,0.65539
159.535,24.36049,-0.13426,0.35574,0.65584
162.435,24.62312,-0.13426,0.35678,0.65626
165.335,24.88585,-0.13426,0.36233,0.65665
168.235,25.1481,-0.13558,0.3665,0.65701
171.135,25.41049,-0.13521,0.36823,0.65735
174.035,25.67182,-0.13575,0.37384,0.65766
176.935,25.93346,-0.13558,0.37514,0.65794
179.835,26.1939,-0.13787,0.38238,0.65819
182.735,26.45406,-0.13789,0.38352,0.65841
185.635,26.7143,-0.13786,0.38376,0.65861
188.535,26.9737,-0.1392,0.38448,0.65878
191.435,27.23167,-0.1392,0.38819,0.65892
194.335,27.49002,-0.14051,0.38974,0.65903
197.235,27.7481,-0.14381,0.39157,0.65912
200.135,28.006,-0.14229,0.3882,0.65918
203.035,28.26356,-0.1438,0.38694,0.65922
205.935,28.5216,-0.14446,0.38807,0.65922
208.835,28.7792,-0.14114,0.39027,0.65921
211.735,29.0373,-0.14797,0.39178,0.65916
214.635,29.29513,-0.15214,0.39718,0.65909
217.535,29.5532,-0.15435,0.40392,0.659
220.435,29.81158,-0.15566,0.40896,0.65887
223.335,30.06999,-0.16092,0.40725,0.65873
226.235,30.3289,-0.1638,0.4093,0.65855
229.135,30.5876,-0.16876,0.40442,0.65836
232.035,30.8457,-0.176,0.40278,0.65813
234.935,31.10452,-0.1805,0.40156,0.65789
237.835,31.36314,-0.18867,0.39919,0.65762
240.735,31.62173,-0.19703,0.39407,0.65732
243.635,31.88056,-0.20779,0.39729,0.657
246.535,32.13925,-0.21874,0.39051,0.65666
249.435,32.3985,-0.23101,0.38195,0.65629
252.335,32.6578,-0.24539,0.37935,0.6559
255.235,32.91662,-0.25989,0.37831,0.65548
258.135,33.17558,-0.27547,0.3808,0.65505
261.035,33.43585,-0.29596,0.38348,0.65458
263.935,33.69549,-0.3153,0.38403,0.6541
266.835,33.9546,-0.33928,0.38618,0.6536
269.735,34.21436,-0.36015,0.38794,0.65307
272.635,34.47374,-0.3829,0.39162,0.65252
275.535,34.73421,-0.41322,0.39608,0.65195
278.435,34.9951,-0.44504,0.40452,0.65135
281.335,35.25553,-0.48103,0.4104,0.65074
284.235,35.51693,-0.52086,0.41302,0.6501
287.135,35.7778,-0.56256,0.41452,0.64945
290.035,36.0389,-0.6087,0.42041,0.64877
292.935,36.30061,-0.66948,0.42683,0.64807
295.835,36.56207,-0.72036,0.43076,0.64736
298.735,36.82431,-0.78323,0.43925,0.64662
301.635,37.08616,-0.84919,0.43905,0.64586
304.535,37.34843,-0.92107,0.44765,0.64509
307.435,37.61108,-0.99974,0.45421,0.64429
310.335,37.87383,-1.08193,0.45857,0.64348
313.235,38.13735,-1.16913,0.46242,0.64264
316.135,38.4009,-1.26293,0.46963,0.64179
319.035,38.6642,-1.36538,0.47644,0.64092
321.935,38.9276,-1.47269,0.48386,0.64003
324.835,39.1914,-1.58678,0.49532,0.63913
327.735,39.45532,-1.70862,0.50506,0.63821
330.635,39.7196,-1.83573,0.51203,0.63727
333.535,39.9845,-1.97102,0.51286,0.63631
336.435,40.2491,-2.11211,0.51246,0.63534
339.335,40.5145,-2.25246,0.49546,0.63435
342.235,40.77982,-2.39185,0.46565,0.63334
345.135,41.0452,-2.52281,0.41169,0.63232
348.035,41.31123,-2.64053,0.33954,0.63129
350.935,41.5775,-2.73432,0.25544,0.63023
353.835,41.8442,-2.79993,0.19077,0.62917
356.735,42.11061,-2.83851,0.1504,0.62809
359.635,42.3778,-2.86652,0.13549,0.62699
362.535,42.6449,-2.88367,0.1261,0.62588
365.435,42.9127,-2.89983,0.12157,0.62476
368.335,43.18104,-2.91168,0.11708,0.62362
371.235,43.44923,-2.92085,0.11163,0.62247
374.135,43.71816,-2.93153,0.10702,0.6213
377.035,43.98709,-2.94149,0.10199,0.62013
379.935,44.25675,-2.94993,0.10216,0.61894
382.835,44.5263,-2.95716,0.0967389,0.61773
385.735,44.79627,-2.96547,0.0979648,0.61652
388.635,45.06657,-2.9708,0.09517867,0.61529
391.535,45.33688,-2.98018,0.09528888,0.61406
394.435,45.60764,-2.98736,0.09485754,0.61281
397.335,45.87872,-2.99289,0.09271309,0.61155
400.235,46.1503,-3.00072,0.09221173,0.61028
403.135,46.42244,-3.00779,0.09069538,0.609
406.035,46.69512,-3.01234,0.09344623,0.60771
408.935,46.96848,-3.02033,0.09158465,0.60641
411.835,47.24163,-3.02698,0.08731304,0.6051
414.735,47.51512,-3.03191,0.08807291,0.60378
417.635,47.78825,-3.03699,0.08609356,0.60245
420.535,48.06115,-3.04541,0.08339778,0.60112
423.435,48.335,-3.0495,0.08148253,0.59977
426.335,48.60935,-3.05641,0.08003098,0.59842
429.235,48.8838,-3.06222,0.07977801,0.59706
432.135,49.1592,-3.06747,0.08041032,0.59569
435.035,49.43492,-3.07489,0.08065586,0.59431
437.935,49.71012,-3.07966,0.08181069,0.59293
440.835,49.98642,-3.08581,0.08174157,0.59154
443.735,50.26275,-3.09236,0.08064293,0.59014
446.635,50.53968,-3.09447,0.0808215,0.58874
449.535,50.81682,-3.10094,0.08457032,0.58733
452.435,51.09382,-3.10764,0.079317,0.58591
455.335,51.3709,-3.11037,0.07621359,0.58449
458.235,51.6477,-3.1164,0.07758377,0.58306
461.135,51.92585,-3.12278,0.07923813,0.58163
464.035,52.20415,-3.12683,0.07742995,0.58019
466.935,52.4828,-3.13077,0.07921044,0.57875
469.835,52.76146,-3.13507,0.07964708,0.57731
472.735,53.04022,-3.1377,0.08228491,0.57586
475.635,53.3194,-3.14388,0.07952828,0.57441
478.535,53.59854,-3.14701,0.08293005,0.57295
481.435,53.87825,-3.1496,0.0888468,0.57149
484.335,54.15846,-3.15418,0.08695147,0.57002
487.235,54.43852,-3.15757,0.09154601,0.56856
490.135,54.7193,-3.15914,0.10604,0.56709
493.035,55.00037,-3.16317,0.11132,0.56562
495.935,55.28128,-3.16676,0.11469,0.56414
498.835,55.5625,-3.17072,0.11978,0.56267
501.735,55.84418,-3.17198,0.12047,0.56119
504.635,56.1263,-3.17473,0.12161,0.55971
507.535,56.40831,-3.17881,0.1212,0.55823
510.435,56.6907,-3.18023,0.12002,0.55675
513.335,56.9735,-3.18309,0.1204,0.55527
516.235,57.2569,-3.1839,0.11448,0.55379
519.135,57.5404,-3.18716,0.11546,0.55231
522.035,57.824,-3.1887,0.11719,0.55082
524.935,58.1073,-3.19143,0.11902,0.54934
527.835,58.39161,-3.19275,0.11508,0.54786
530.735,58.6758,-3.19512,0.11813,0.54638
533.635,58.96055,-3.19768,0.11699,0.5449
536.535,59.24513,-3.199,0.11878,0.54341
539.435,59.53035,-3.19933,0.11899,0.54194
542.335,59.8163,-3.19901,0.12506,0.54046
545.235,60.10201,-3.20163,0.12514,0.53898
548.135,60.38845,-3.20295,0.1216,0.53751
551.035,60.6742,-3.20427,0.11995,0.53603
553.935,60.9602,-3.20657,0.12494,0.53456
556.835,61.24646,-3.20653,0.1258,0.53309
559.735,61.53278,-3.20953,0.12282,0.53163
562.635,61.8199,-3.21052,0.12561,0.53016
565.535,62.10686,-3.20953,0.12668,0.5287
568.435,62.39436,-3.21205,0.13116,0.52724
571.335,62.6822,-3.21338,0.13548,0.52579
574.235,62.97074,-3.21534,0.1343,0.52434
577.135,63.259,-3.22214,0.135,0.52289
580.035,63.5474,-3.21721,0.13691,0.52145
582.935,63.8359,-3.21721,0.13763,0.52001
585.835,64.12436,-3.21881,0.13186,0.51857
588.735,64.4127,-3.2199,0.13677,0.51714
591.635,64.70204,-3.2226,0.14052,0.51571
594.535,64.9919,-3.2239,0.14174,0.51428
597.435,65.28194,-3.22323,0.14947,0.51286
600.335,65.57229,-3.22357,0.15688,0.51145
603.235,65.86307,-3.2239,0.16613,0.51004
606.135,66.15442,-3.22653,0.16496,0.50863
609.035,66.4456,-3.22706,0.1632,0.50723
611.935,66.73697,-3.22652,0.16299,0.50584
614.835,67.02741,-3.22918,0.16169,0.50445
617.735,67.3185,-3.22918,0.18381,0.50307
620.635,67.60891,-3.22819,0.18841,0.50169
623.535,67.89965,-3.23102,0.1913,0.50031
626.435,68.19102,-3.22758,0.19773,0.49895
629.335,68.483,-3.23335,0.19986,0.49759
632.235,68.77552,-3.23486,0.20316,0.49623
635.135,69.06724,-3.23325,0.2258,0.49488
638.035,69.3596,-3.23552,0.22897,0.49354
640.935,69.65262,-3.23563,0.23055,0.4922
643.835,69.94546,-3.23564,0.24166,0.49088
646.735,70.23819,-3.23696,0.2484,0.48955
649.635,70.5308,-3.23868,0.26741,0.48824
652.535,70.824,-3.23926,0.27162,0.48693
655.435,71.11759,-3.23937,0.28968,0.48562
658.335,71.41075,-3.23937,0.29228,0.48433
661.235,71.70481,-3.23939,0.30452,0.48304
664.135,71.9995,-3.24068,0.30811,0.48176
667.035,72.29378,-3.24068,0.31921,0.48048
669.935,72.58836,-3.24076,0.32701,0.47921
672.835,72.88289,-3.24138,0.33712,0.47795
675.735,73.17806,-3.24245,0.34609,0.4767
678.635,73.47315,-3.24299,0.35036,0.47545
681.535,73.76828,-3.24422,0.35704,0.47421
684.435,74.0643,-3.24496,0.37398,0.47298
687.335,74.35932,-3.24431,0.38431,0.47176
690.235,74.65523,-3.24529,0.39214,0.47054
693.135,74.95098,-3.24662,0.40764,0.46933
696.035,75.2474,-3.24561,0.41788,0.46813
698.935,75.5442,-3.24586,0.42458,0.46694
701.835,75.84102,-3.24693,0.43267,0.46576
704.735,76.13893,-3.24821,0.43372,0.46458
707.635,76.43604,-3.24824,0.44155,0.46341
710.535,76.7335,-3.24895,0.43343,0.46225
713.435,77.03027,-3.24891,0.41761,0.46109
716.335,77.32687,-3.24891,0.41745,0.45995
719.235,77.62348,-3.24924,0.41465,0.45881
722.135,77.92068,-3.25154,0.41911,0.45768
725.035,78.21808,-3.2502,0.42257,0.45655
727.935,78.51572,-3.25143,0.42644,0.45544
730.835,78.81434,-3.25077,0.42287,0.45433
733.735,79.11269,-3.25132,0.42342,0.45323
736.635,79.4114,-3.25198,0.42218,0.45214
739.535,79.7089,-3.25386,0.43041,0.45106
742.335,79.99846,-3.25461,0.44501,0.45002