File: 01_Data/PlasticC/MCC/PlasticC_MCC_30K_min_211021_R1.txt
Sample ID:	C:\MCC\MCC Cal\Test\PlasticC_MCC_30K_min_211021_R1.txt
Sample Weight (mg):	4.54
Heating Rate (C/s):	0.5
Combustor Temp (C):	900
N2 Flow Rate (cc/min):	80
O2 Flow Rate (cc/min):	20
Calibration File:	C:\MCC\MCC Cal\Coeff1 JN10440_30_210304.txt.txt
T Correction Coefficients:	0	1.024463	0
Time Shift (s):	14
*
Time (s)	Temperature (C)	N2 flow rate (cc/min)	O2 flow rate (cc/min)	Flow Rate (cc/min)	Oxygen (%)	HRR (W/g)	Heating rate (C/s)
0.000	108.079	80.003	19.997	103.009	20.254	0.122	0.007
7.999	108.044	80.003	19.998	103.013	20.257	-0.147	-0.032
15.999	108.035	80.002	19.995	103.013	20.257	-0.127	-0.002
23.999	108.000	80.003	19.995	103.012	20.252	0.196	-0.025
32.000	108.017	80.001	19.996	103.013	20.253	0.167	-0.007
39.999	107.980	79.999	19.995	103.014	20.257	-0.122	-0.015
48.000	107.992	80.001	19.994	103.008	20.258	-0.212	0.008
55.999	107.959	80.002	19.995	103.002	20.257	-0.134	-0.035
64.000	108.075	80.002	19.997	103.398	20.204	3.670	0.047
72.000	109.381	80.003	19.996	103.388	20.185	4.962	0.224
80.000	111.650	80.004	19.997	103.385	20.186	4.948	0.331
88.000	114.712	80.002	19.996	103.383	20.181	5.290	0.405
95.999	118.303	80.002	19.996	103.426	20.185	4.988	0.459
104.000	122.328	80.003	19.996	103.357	20.184	5.049	0.517
112.001	126.623	80.002	19.994	103.345	20.191	4.560	0.548
120.001	131.142	80.001	19.996	103.317	20.191	4.532	0.601
128.000	135.774	80.001	19.996	103.310	20.198	4.046	0.564
135.999	140.446	80.003	19.996	103.293	20.199	4.010	0.565
143.999	145.131	80.002	19.995	103.273	20.202	3.778	0.575
151.999	149.719	80.001	19.996	103.269	20.209	3.274	0.557
160.000	154.160	80.002	19.995	103.256	20.214	2.929	0.521
168.000	158.503	80.003	19.996	103.264	20.214	2.960	0.522
175.999	162.768	80.001	19.995	103.242	20.212	3.087	0.492
184.000	167.077	80.002	19.997	103.229	20.213	2.991	0.508
191.999	171.212	80.002	19.996	103.228	20.216	2.796	0.511
200.000	175.397	80.001	19.996	103.229	20.218	2.671	0.531
208.000	179.452	80.002	19.997	103.225	20.217	2.684	0.521
216.000	183.487	80.001	19.995	103.210	20.215	2.861	0.492
223.999	187.527	80.000	19.996	103.201	20.217	2.723	0.493
232.000	191.462	80.000	19.996	103.214	20.216	2.803	0.452
240.000	195.384	80.002	19.994	103.196	20.214	2.917	0.489
248.001	199.238	80.002	19.995	103.199	20.212	3.041	0.474
255.999	203.126	80.002	19.996	103.193	20.216	2.784	0.484
264.000	207.031	80.003	19.996	103.199	20.218	2.662	0.522
272.000	210.888	80.003	19.996	103.189	20.215	2.837	0.492
280.000	214.820	80.001	19.997	103.187	20.211	3.104	0.500
288.000	218.641	80.001	19.995	103.196	20.213	3.021	0.489
296.000	222.600	80.000	19.996	103.197	20.210	3.241	0.504
304.000	226.540	80.001	19.995	103.194	20.211	3.151	0.490
312.001	230.516	79.999	19.996	103.192	20.213	2.988	0.507
320.000	234.488	80.001	19.995	103.190	20.209	3.276	0.499
328.000	238.491	80.003	19.995	103.189	20.202	3.771	0.519
336.000	242.446	80.002	19.996	103.186	20.203	3.716	0.508
344.000	246.404	80.003	19.996	103.171	20.201	3.828	0.503
352.001	250.448	80.003	19.996	103.177	20.197	4.147	0.517
360.000	254.438	80.001	19.996	103.179	20.195	4.299	0.500
368.000	258.491	80.000	19.995	103.172	20.192	4.454	0.543
375.999	262.475	80.001	19.996	103.178	20.193	4.410	0.498
383.999	266.473	80.001	19.995	103.179	20.193	4.400	0.467
391.999	270.546	80.000	19.995	103.166	20.191	4.577	0.498
400.000	274.615	80.000	19.995	103.157	20.188	4.761	0.521
408.000	278.594	80.003	19.995	103.153	20.187	4.861	0.496
416.000	282.558	80.002	19.995	103.155	20.184	5.081	0.479
424.000	286.527	80.003	19.994	103.160	20.181	5.240	0.484
431.999	290.484	80.004	19.994	103.154	20.182	5.208	0.511
439.999	294.469	80.003	19.996	103.149	20.185	4.980	0.505
448.000	298.436	80.001	19.995	103.157	20.179	5.389	0.488
456.001	302.412	80.001	19.996	103.154	20.181	5.290	0.506
463.999	306.452	80.001	19.996	103.147	20.180	5.333	0.451
472.000	310.460	80.000	19.996	103.145	20.185	4.953	0.528
480.000	314.548	80.000	19.995	103.149	20.179	5.412	0.515
488.001	318.604	80.002	19.994	103.153	20.187	4.855	0.553
495.999	322.491	80.000	19.994	103.149	20.184	5.054	0.445
504.000	326.526	80.002	19.995	103.140	20.187	4.864	0.521
512.000	330.428	80.002	19.995	103.149	20.186	4.939	0.478
520.000	334.392	80.004	19.995	103.134	20.185	4.969	0.508
528.000	338.312	80.002	19.995	103.138	20.181	5.258	0.486
536.000	342.293	80.000	19.995	103.146	20.191	4.523	0.512
543.999	346.197	80.002	19.997	103.142	20.186	4.902	0.494
552.001	350.200	80.001	19.996	103.150	20.181	5.245	0.479
560.000	354.346	79.999	19.996	103.153	20.176	5.600	0.560
568.000	358.392	80.002	19.996	103.146	20.170	6.069	0.519
575.999	362.428	80.003	19.995	103.142	20.158	6.879	0.491
584.000	366.588	80.002	19.994	103.146	20.149	7.555	0.530
592.001	370.739	80.004	19.996	103.149	20.134	8.621	0.539
600.000	374.944	80.004	19.996	103.145	20.109	10.355	0.519
608.000	379.081	80.002	19.995	103.144	20.100	11.037	0.532
615.999	383.173	80.001	19.997	103.149	20.078	12.533	0.510
624.001	387.206	80.000	19.996	103.141	20.029	16.007	0.514
632.001	391.263	80.001	19.995	103.166	19.988	18.930	0.506
640.001	395.332	80.001	19.996	103.095	19.892	25.740	0.482
648.000	399.405	80.001	19.997	103.162	19.807	31.785	0.525
656.001	403.397	80.003	19.996	103.214	19.665	41.822	0.496
663.999	407.396	80.002	19.995	103.189	19.376	62.338	0.491
672.001	411.457	80.002	19.994	103.178	19.024	87.310	0.515
680.000	415.355	80.003	19.995	103.201	18.547	121.193	0.505
688.000	419.347	80.001	19.996	103.194	17.971	162.088	0.489
695.999	423.303	80.000	19.995	103.277	17.215	215.798	0.500
704.000	427.235	80.001	19.997	103.293	16.343	277.683	0.490
712.001	431.166	80.001	19.996	103.279	15.417	343.296	0.475
720.000	435.165	80.002	19.996	103.225	14.646	398.196	0.520
728.001	439.144	80.000	19.995	103.263	14.146	433.790	0.472
736.000	443.190	80.001	19.995	103.298	14.052	440.733	0.522
744.000	447.262	80.000	19.996	103.393	14.388	417.022	0.466
752.000	451.452	80.001	19.996	103.422	15.101	366.238	0.530
759.999	455.694	80.004	19.995	103.431	16.039	299.356	0.524
768.000	459.954	80.003	19.995	103.349	16.963	233.658	0.539
776.001	464.218	80.002	19.997	103.305	17.752	177.596	0.473
784.001	468.466	80.003	19.996	103.241	18.364	134.153	0.551
792.000	472.705	80.003	19.995	103.201	18.819	101.850	0.555
800.000	476.912	80.002	19.995	103.186	19.158	77.772	0.499
808.000	481.048	79.999	19.996	103.161	19.427	58.734	0.499
816.000	485.067	80.001	19.996	103.149	19.651	42.846	0.488
824.001	489.055	80.002	19.996	103.122	19.837	29.659	0.502
832.001	493.074	80.001	19.997	103.112	19.992	18.645	0.493
840.001	497.102	80.002	19.995	103.110	20.116	9.876	0.512
848.001	501.061	80.005	19.997	103.108	20.190	4.585	0.508
856.000	505.073	80.001	19.995	103.100	20.230	1.773	0.489
863.999	509.057	80.001	19.996	103.074	20.240	1.094	0.502
871.999	513.016	80.001	19.996	103.084	20.245	0.720	0.499
879.999	517.105	80.003	19.995	103.109	20.247	0.616	0.527
888.000	521.104	80.000	19.995	103.105	20.245	0.702	0.502
896.001	525.157	80.003	19.995	103.113	20.248	0.504	0.487
903.999	529.286	80.004	19.996	103.110	20.248	0.506	0.507
911.999	533.419	80.002	19.995	103.111	20.249	0.408	0.529
920.001	537.628	80.004	19.995	103.108	20.256	-0.026	0.546
928.001	541.764	80.003	19.996	103.108	20.250	0.383	0.542
936.000	545.982	80.001	19.997	103.112	20.251	0.304	0.496
943.999	550.276	80.001	19.995	103.115	20.253	0.179	0.549
952.001	554.620	80.002	19.996	103.121	20.246	0.639	0.557
960.000	558.926	80.003	19.995	103.115	20.244	0.824	0.540
968.001	563.134	80.002	19.998	103.105	20.251	0.269	0.539
976.000	567.260	80.001	19.995	103.108	20.250	0.347	0.509
984.000	571.392	80.004	19.996	103.107	20.252	0.224	0.503
992.001	575.505	80.001	19.997	103.089	20.251	0.312	0.479
1000.000	579.492	80.003	19.996	103.110	20.250	0.355	0.495
1008.000	583.558	80.003	19.996	103.112	20.252	0.261	0.518
1016.001	587.794	80.002	19.995	103.113	20.249	0.416	0.576
1023.999	592.077	79.998	19.996	103.113	20.252	0.194	0.536
1031.999	596.510	80.000	19.996	103.106	20.248	0.530	0.557
1040.000	600.925	80.001	19.996	103.108	20.253	0.151	0.534
1048.000	605.287	80.001	19.995	103.108	20.251	0.288	0.581
1055.999	609.688	80.003	19.995	103.105	20.252	0.204	0.536
1064.001	613.969	80.004	19.995	103.108	20.255	0.031	0.543
1071.999	618.261	80.000	19.997	103.112	20.256	-0.027	0.506
1079.999	622.597	80.004	19.996	103.112	20.255	-0.008	0.534
1088.000	626.808	80.001	19.995	103.109	20.257	-0.159	0.537
1096.000	630.942	80.004	19.996	103.108	20.260	-0.345	0.526
1103.999	635.142	80.004	19.996	103.107	20.254	0.071	0.554
1112.001	639.194	80.001	19.996	103.107	20.254	0.082	0.522
1120.000	643.274	80.003	19.997	103.101	20.255	0.014	0.521
1128.000	647.300	80.002	19.995	103.108	20.259	-0.284	0.499
1136.000	651.397	79.999	19.994	103.108	20.255	0.010	0.517
1143.999	655.439	80.002	19.997	103.115	20.254	0.086	0.498
1152.001	659.509	80.002	19.996	103.105	20.256	-0.078	0.508
1159.999	663.540	80.005	19.996	103.101	20.255	0.041	0.498
1168.000	667.539	80.005	19.996	103.093	20.259	-0.261	0.490
1175.999	671.551	80.005	19.995	103.107	20.254	0.059	0.499
1183.999	675.626	80.001	19.996	103.108	20.256	-0.063	0.502
1191.999	679.695	80.002	19.997	103.109	20.251	0.281	0.496
1200.000	683.758	80.003	19.996	103.114	20.254	0.073	0.507
1208.000	687.784	80.001	19.997	103.112	20.254	0.094	0.532
1216.000	691.919	80.001	19.997	103.113	20.252	0.237	0.518
1223.999	695.996	80.002	19.995	103.110	20.252	0.231	0.517
1232.000	700.068	80.003	19.995	103.108	20.245	0.706	0.550
1240.001	704.138	80.004	19.996	103.111	20.251	0.306	0.518
1248.000	708.170	80.005	19.996	103.108	20.249	0.406	0.526
1256.000	712.260	80.006	19.995	103.101	20.249	0.451	0.527
1263.999	716.373	80.002	19.996	103.113	20.247	0.559	0.540
1272.000	720.427	80.001	19.995	103.097	20.250	0.369	0.506
1280.000	724.517	80.001	19.996	103.112	20.240	1.110	0.509
1287.999	728.492	80.003	19.996	103.108	20.242	0.940	0.514
1296.001	732.457	80.002	19.995	103.108	20.242	0.906	0.485
1304.000	736.489	80.001	19.997	103.106	20.240	1.081	0.542
1311.999	740.511	80.003	19.997	103.109	20.246	0.651	0.503
1317.999	743.550	80.003	19.996	103.100	20.244	0.804	0.492