File: 01_Data/PlasticC/MCC/PlasticC_MCC_30K_min_211021_R2.txt
Sample ID:	C:\MCC\MCC Cal\Test\PlasticC_MCC_30K_min_211021_R2.txt
Sample Weight (mg):	4.94
Heating Rate (C/s):	0.5
Combustor Temp (C):	900
N2 Flow Rate (cc/min):	80
O2 Flow Rate (cc/min):	20
Calibration File:	C:\MCC\MCC Cal\Coeff1 JN10440_30_210304.txt.txt
T Correction Coefficients:	0	1.024463	0
Time Shift (s):	14
*
Time (s)	Temperature (C)	N2 flow rate (cc/min)	O2 flow rate (cc/min)	Flow Rate (cc/min)	Oxygen (%)	HRR (W/g)	Heating rate (C/s)
-0.001	108.500	80.001	19.997	102.990	20.275	-0.031	-0.015
7.999	108.464	80.001	19.994	103.018	20.270	0.265	0.000
16.000	108.677	80.002	19.995	103.098	20.257	1.091	0.072
24.000	109.140	80.001	19.994	103.119	20.255	1.261	0.092
32.000	109.896	80.001	19.994	103.152	20.244	1.949	0.140
39.999	110.988	80.004	19.995	103.183	20.237	2.390	0.137
47.999	112.443	80.001	19.996	103.219	20.231	2.809	0.220
55.999	114.305	80.000	19.996	103.230	20.225	3.210	0.260
63.999	116.515	80.002	19.996	103.260	20.222	3.387	0.280
71.999	119.146	80.000	19.996	103.261	20.219	3.613	0.334
79.999	122.087	79.999	19.997	103.267	20.220	3.537	0.397
87.999	125.257	80.001	19.997	103.265	20.223	3.358	0.387
95.999	128.680	80.003	19.995	103.268	20.225	3.199	0.423
103.999	132.235	80.002	19.996	103.267	20.220	3.542	0.453
111.999	135.940	80.002	19.996	103.265	20.219	3.560	0.452
119.999	139.782	80.004	19.993	103.259	20.220	3.557	0.492
128.000	143.736	80.004	19.995	103.258	20.222	3.412	0.501
136.000	147.757	80.001	19.995	103.252	20.227	3.070	0.535
144.000	151.811	80.001	19.996	103.242	20.222	3.364	0.497
152.000	155.805	79.999	19.995	103.230	20.222	3.370	0.493
160.000	159.835	80.000	19.996	103.233	20.223	3.352	0.496
168.000	163.869	79.999	19.995	103.226	20.224	3.234	0.494
176.000	167.935	80.002	19.997	103.223	20.226	3.110	0.493
184.000	171.938	80.001	19.994	103.221	20.224	3.232	0.508
192.000	175.932	80.002	19.996	103.222	20.226	3.137	0.481
200.000	179.871	80.002	19.995	103.225	20.224	3.252	0.498
208.000	183.819	80.002	19.994	103.214	20.227	3.089	0.461
216.000	187.766	80.000	19.994	103.218	20.221	3.438	0.432
224.000	191.701	80.000	19.994	103.206	20.222	3.397	0.467
232.000	195.564	80.000	19.995	103.207	20.220	3.520	0.489
240.000	199.450	80.001	19.995	103.198	20.223	3.311	0.459
248.000	203.323	80.000	19.996	103.203	20.221	3.490	0.471
256.000	207.222	80.002	19.996	103.193	20.219	3.566	0.468
264.000	211.061	80.001	19.996	103.196	20.218	3.661	0.471
272.000	214.936	80.001	19.996	103.192	20.218	3.654	0.470
280.000	218.841	80.002	19.995	103.205	20.213	3.984	0.463
288.000	222.781	80.002	19.994	103.222	20.213	4.007	0.514
296.000	226.685	80.002	19.995	103.205	20.209	4.233	0.458
304.000	230.771	80.001	19.994	103.189	20.205	4.510	0.522
312.000	234.717	80.002	19.994	103.191	20.202	4.683	0.517
320.000	238.667	80.001	19.996	103.188	20.201	4.790	0.506
328.000	242.670	80.001	19.996	103.188	20.198	4.987	0.496
336.000	246.604	80.001	19.995	103.190	20.194	5.241	0.479
344.000	250.608	80.003	19.995	103.189	20.191	5.387	0.504
352.000	254.560	80.001	19.996	103.191	20.189	5.570	0.501
360.000	258.453	80.002	19.996	103.183	20.189	5.532	0.510
368.000	262.243	80.003	19.996	103.180	20.183	5.924	0.464
376.000	266.113	80.002	19.996	103.183	20.179	6.206	0.458
384.000	269.995	80.002	19.995	103.185	20.175	6.444	0.503
392.000	273.979	80.002	19.995	103.183	20.178	6.275	0.476
400.000	277.880	80.000	19.994	103.188	20.174	6.500	0.484
408.000	281.836	80.000	19.995	103.177	20.172	6.650	0.497
416.000	285.831	80.002	19.996	103.179	20.172	6.661	0.515
424.000	289.846	80.003	19.995	103.173	20.166	7.029	0.514
432.000	293.822	80.002	19.995	103.161	20.167	6.980	0.520
440.000	297.886	80.002	19.995	103.151	20.169	6.863	0.508
448.000	301.855	80.003	19.997	103.149	20.166	7.030	0.504
456.000	305.866	80.002	19.996	103.156	20.169	6.874	0.486
464.000	309.895	80.000	19.994	103.163	20.169	6.828	0.498
472.000	313.975	80.001	19.995	103.157	20.167	6.981	0.502
480.000	317.938	80.001	19.994	103.151	20.167	6.958	0.524
488.000	321.897	80.000	19.995	103.154	20.169	6.870	0.503
496.000	325.846	80.001	19.995	103.160	20.165	7.095	0.462
504.000	329.902	80.003	19.995	103.151	20.167	6.988	0.483
512.000	334.090	80.003	19.995	103.150	20.168	6.907	0.547
520.000	338.210	80.003	19.995	103.147	20.169	6.869	0.551
528.000	342.312	80.003	19.995	103.149	20.166	7.044	0.533
536.000	346.357	80.001	19.995	103.152	20.162	7.316	0.528
544.000	350.379	80.000	19.995	103.140	20.159	7.486	0.503
552.000	354.388	80.001	19.996	103.146	20.159	7.511	0.530
560.000	358.208	80.001	19.995	103.147	20.156	7.690	0.486
568.000	362.127	80.001	19.996	103.138	20.143	8.541	0.472
576.000	365.888	80.002	19.996	103.135	20.134	9.133	0.386
584.000	369.952	80.003	19.995	103.147	20.110	10.691	0.481
592.000	373.814	80.002	19.994	103.149	20.086	12.245	0.500
600.000	377.757	80.002	19.996	103.132	20.056	14.186	0.476
608.000	381.733	80.003	19.994	103.154	20.038	15.348	0.519
616.000	385.736	80.001	19.995	103.142	19.976	19.408	0.518
624.000	389.817	80.001	19.996	103.161	19.917	23.296	0.526
632.000	393.907	80.000	19.996	103.174	19.856	27.253	0.519
640.000	397.939	80.001	19.996	103.130	19.750	34.156	0.491
648.000	401.984	80.001	19.994	103.174	19.568	46.028	0.524
656.000	406.072	80.000	19.994	103.159	19.300	63.506	0.504
664.000	410.217	80.002	19.995	103.183	18.929	87.686	0.526
672.000	414.289	80.002	19.994	103.226	18.447	119.127	0.495
680.000	418.335	80.003	19.994	103.226	17.816	160.307	0.507
688.000	422.445	80.005	19.993	103.246	17.067	209.080	0.523
696.000	426.414	80.002	19.995	103.312	16.102	272.283	0.493
704.000	430.395	80.000	19.996	103.336	15.189	331.596	0.503
712.000	434.361	80.003	19.996	103.186	14.332	387.732	0.524
720.000	438.216	80.001	19.995	103.261	13.776	424.020	0.451
728.000	442.079	79.999	19.996	103.280	13.602	435.944	0.489
736.000	446.011	80.001	19.996	103.453	13.945	413.631	0.472
744.000	450.068	80.003	19.994	103.466	14.623	369.209	0.521
752.000	454.317	80.003	19.996	103.451	15.549	308.380	0.535
760.000	458.624	80.003	19.996	103.390	16.492	246.697	0.552
768.000	462.850	80.004	19.996	103.302	17.353	190.473	0.532
776.000	466.904	80.002	19.995	103.263	18.033	146.095	0.512
784.000	470.926	80.001	19.995	103.225	18.540	112.988	0.495
792.000	474.965	80.002	19.996	103.180	18.933	87.368	0.520
800.000	478.865	80.001	19.995	103.176	19.236	67.621	0.492
808.000	482.719	80.001	19.994	103.161	19.498	50.580	0.465
816.000	486.508	80.001	19.996	103.182	19.709	36.799	0.455
824.000	490.328	80.003	19.996	103.146	19.881	25.620	0.482
832.000	494.175	80.003	19.995	103.128	20.026	16.190	0.500
840.000	498.042	80.002	19.995	103.131	20.131	9.315	0.460
848.000	501.962	80.003	19.995	103.124	20.185	5.796	0.513
856.000	505.934	80.003	19.996	103.111	20.213	3.952	0.521
864.000	509.846	80.000	19.995	103.113	20.221	3.452	0.466
872.000	513.837	80.001	19.995	103.114	20.217	3.737	0.508
880.000	517.912	80.002	19.996	103.097	20.218	3.629	0.519
888.000	521.939	80.002	19.997	103.110	20.221	3.481	0.496
896.000	526.077	80.001	19.995	103.112	20.221	3.467	0.499
904.000	530.215	80.002	19.995	103.111	20.224	3.270	0.526
912.000	534.441	80.002	19.996	103.116	20.223	3.328	0.562
920.000	538.621	80.002	19.996	103.111	20.226	3.160	0.533
928.000	542.817	80.004	19.994	103.115	20.223	3.341	0.520
936.000	546.970	80.004	19.995	103.114	20.224	3.290	0.540
944.000	551.186	80.001	19.996	103.123	20.223	3.299	0.539
952.000	555.321	80.002	19.996	103.120	20.224	3.270	0.512
960.000	559.428	80.002	19.993	103.121	20.222	3.424	0.501
968.000	563.611	80.001	19.995	103.128	20.221	3.436	0.551
976.000	567.709	80.000	19.996	103.118	20.222	3.363	0.494
984.000	571.844	80.002	19.996	103.116	20.222	3.386	0.504
992.000	575.939	80.004	19.995	103.124	20.223	3.335	0.513
1000.000	580.038	80.002	19.996	103.113	20.221	3.468	0.498
1008.000	584.173	80.004	19.996	103.119	20.223	3.305	0.523
1016.000	588.351	80.004	19.995	103.127	20.224	3.281	0.506
1024.000	592.554	80.002	19.994	103.110	20.223	3.310	0.521
1031.999	596.651	80.003	19.995	103.110	20.225	3.200	0.507
1039.999	600.555	80.001	19.994	103.122	20.224	3.281	0.500
1047.999	604.461	80.001	19.996	103.115	20.224	3.245	0.534
1055.999	608.358	80.000	19.993	103.112	20.230	2.849	0.498
1063.999	612.313	80.002	19.996	103.119	20.222	3.404	0.463
1071.999	616.360	80.003	19.995	103.119	20.226	3.157	0.466
1079.999	620.393	80.002	19.996	103.125	20.225	3.175	0.530
1087.999	624.541	80.004	19.994	103.118	20.218	3.644	0.533
1095.999	628.687	80.004	19.996	103.121	20.225	3.204	0.501
1104.000	632.756	80.000	19.995	103.125	20.224	3.236	0.508
1111.999	636.858	80.001	19.993	103.118	20.220	3.516	0.510
1119.999	640.906	80.002	19.994	103.118	20.217	3.704	0.535
1128.000	644.996	80.002	19.995	103.134	20.218	3.644	0.507
1135.999	649.150	80.001	19.996	103.116	20.214	3.909	0.525
1143.999	653.271	80.003	19.995	103.128	20.217	3.701	0.511
1152.000	657.374	80.003	19.996	103.124	20.218	3.666	0.508
1159.999	661.361	80.001	19.995	103.124	20.216	3.807	0.475
1168.000	665.345	80.003	19.996	103.131	20.213	3.977	0.480
1175.999	669.216	80.003	19.994	103.125	20.213	3.951	0.505
1183.999	673.186	79.999	19.996	103.126	20.211	4.120	0.516
1192.000	677.177	80.000	19.996	103.126	20.210	4.161	0.480
1199.999	681.157	80.002	19.995	103.106	20.211	4.084	0.522
1208.001	685.178	80.001	19.995	103.119	20.211	4.098	0.523
1215.999	689.212	80.001	19.996	103.130	20.210	4.148	0.512
1223.999	693.474	80.002	19.995	103.136	20.209	4.214	0.560
1231.999	697.958	80.004	19.994	103.137	20.205	4.476	0.562
1240.000	702.587	80.002	19.994	103.133	20.210	4.149	0.612
1247.999	707.202	80.002	19.995	103.141	20.212	4.043	0.587
1255.999	711.799	80.004	19.996	103.133	20.203	4.618	0.601
1264.000	716.312	80.005	19.997	103.136	20.200	4.800	0.575
1271.999	720.775	80.002	19.996	103.128	20.202	4.699	0.538
1279.999	725.182	80.002	19.996	103.129	20.206	4.464	0.553
1287.999	729.497	80.002	19.997	103.134	20.202	4.674	0.537
1296.000	733.805	80.003	19.997	103.121	20.205	4.513	0.554
1304.000	737.947	80.002	19.995	103.122	20.201	4.767	0.502
1311.999	742.116	80.003	19.995	103.133	20.202	4.692	0.507
1318.501	745.443	80.002	19.995	103.125	20.199	4.859	0.493