File: 01_Data/Laminate_Flooring/MCC/Laminate_Flooring_MCC_30K_min_211108_R2.txt
Sample ID:	C:\MCC\MCC Cal\Test\Laminate_Flooring_MCC_30K_min_211108_R2.txt
Sample Weight (mg):	4.93
Heating Rate (C/s):	0.5
Combustor Temp (C):	900
N2 Flow Rate (cc/min):	80
O2 Flow Rate (cc/min):	20
Calibration File:	C:\MCC\MCC Cal\Coeff1 JN10440_30_210304.txt.txt
T Correction Coefficients:	0	1.024463	0
Time Shift (s):	14
*
Time (s)	Temperature (C)	N2 flow rate (cc/min)	O2 flow rate (cc/min)	Flow Rate (cc/min)	Oxygen (%)	HRR (W/g)	Heating rate (C/s)
0.000	107.841	80.000	19.995	102.963	20.215	0.242	-0.015
8.000	107.806	80.000	19.995	102.974	20.215	0.259	-0.036
16.000	107.791	80.004	19.994	102.986	20.215	0.275	-0.002
24.000	107.888	80.002	19.994	103.032	20.207	0.764	0.010
32.000	108.205	80.002	19.994	103.112	20.196	1.512	0.056
40.001	108.958	80.001	19.994	103.141	20.188	2.053	0.113
48.000	110.040	80.005	19.993	103.169	20.176	2.804	0.115
56.000	111.613	80.010	19.994	103.220	20.175	2.904	0.234
64.000	113.567	79.995	19.997	103.230	20.170	3.205	0.276
72.000	115.906	79.996	19.994	103.212	20.167	3.394	0.328
80.000	118.488	80.004	19.995	103.232	20.170	3.239	0.342
88.000	121.343	79.997	19.997	103.253	20.165	3.507	0.391
96.001	124.539	79.999	19.994	103.238	20.166	3.498	0.384
104.000	127.854	80.002	19.996	103.236	20.170	3.213	0.432
112.000	131.384	80.012	19.992	103.231	20.169	3.247	0.440
120.001	134.998	80.003	19.994	103.227	20.168	3.346	0.461
128.000	138.688	80.001	19.992	103.232	20.169	3.249	0.435
136.000	142.482	80.001	19.994	103.221	20.168	3.333	0.486
144.000	146.307	80.001	19.995	103.226	20.167	3.421	0.474
152.000	150.200	79.998	19.996	103.226	20.171	3.170	0.484
160.000	154.145	79.994	19.995	103.230	20.174	2.943	0.482
168.000	158.067	79.990	19.997	103.202	20.176	2.816	0.489
176.000	162.059	79.997	19.995	103.223	20.175	2.871	0.480
184.000	166.055	80.006	19.992	103.193	20.171	3.112	0.521
192.000	169.977	80.002	19.992	103.196	20.173	3.027	0.501
200.000	173.869	79.999	19.995	103.189	20.174	2.967	0.512
208.000	177.808	80.004	19.994	103.187	20.172	3.094	0.501
216.000	181.751	79.995	19.994	103.186	20.173	2.998	0.508
224.000	185.712	80.008	19.993	103.185	20.174	2.924	0.488
232.000	189.593	80.004	19.996	103.177	20.174	2.955	0.507
240.000	193.488	80.003	19.994	103.172	20.174	2.940	0.492
248.000	197.346	80.001	19.994	103.180	20.173	3.012	0.504
256.000	201.199	80.000	19.995	103.177	20.170	3.221	0.460
264.000	205.120	80.001	19.994	103.182	20.162	3.706	0.477
272.000	209.078	80.005	19.992	103.173	20.162	3.742	0.497
280.000	212.982	80.002	19.995	103.163	20.159	3.926	0.482
288.000	216.965	80.000	19.995	103.173	20.156	4.099	0.505
296.000	220.929	80.003	19.994	103.171	20.151	4.449	0.492
304.000	224.921	80.000	19.994	103.166	20.146	4.748	0.501
312.000	228.948	79.999	19.995	103.157	20.142	5.031	0.505
320.000	232.966	79.998	19.996	103.159	20.134	5.549	0.492
328.000	236.974	80.000	19.997	103.153	20.125	6.129	0.517
336.000	240.907	80.002	19.996	103.151	20.120	6.449	0.472
344.000	244.885	80.000	19.996	103.149	20.115	6.791	0.524
352.000	248.828	80.002	19.995	103.148	20.106	7.404	0.494
360.000	252.821	80.003	19.996	103.146	20.101	7.685	0.507
368.000	256.814	80.000	19.994	103.152	20.100	7.762	0.495
376.000	260.757	79.999	19.994	103.152	20.108	7.247	0.480
384.000	264.781	79.999	19.994	103.161	20.114	6.845	0.513
392.000	268.818	80.001	19.995	103.223	20.147	4.695	0.466
400.000	272.955	80.002	19.995	103.190	20.138	5.306	0.523
408.000	277.044	80.001	19.996	103.201	20.132	5.669	0.489
416.000	281.219	80.001	19.996	103.229	20.140	5.178	0.518
424.000	285.275	80.002	19.995	103.266	20.126	6.066	0.549
432.000	289.306	80.002	19.995	103.299	20.096	8.063	0.483
440.000	293.276	80.001	19.996	103.267	20.075	9.423	0.478
448.000	297.253	80.000	19.995	103.241	20.098	7.897	0.533
456.000	301.165	80.000	19.994	103.218	20.127	6.024	0.511
464.001	305.181	80.001	19.994	103.170	20.145	4.866	0.494
472.000	309.189	79.999	19.996	103.135	20.160	3.876	0.496
480.000	313.199	80.000	19.995	103.108	20.170	3.195	0.499
488.000	317.161	80.006	19.994	103.109	20.179	2.637	0.484
496.000	321.140	80.000	19.994	103.112	20.184	2.310	0.482
504.000	325.134	80.002	19.995	103.112	20.182	2.398	0.470
512.000	329.157	80.005	19.994	103.115	20.184	2.272	0.469
520.000	333.148	79.999	19.995	103.112	20.182	2.396	0.516
528.001	337.206	79.999	19.995	103.128	20.188	2.003	0.500
536.000	341.205	80.002	19.995	103.116	20.187	2.089	0.531
544.000	345.299	79.992	19.994	103.121	20.186	2.175	0.510
552.000	349.449	80.000	19.995	103.129	20.189	1.950	0.541
560.000	353.611	80.002	19.995	103.123	20.190	1.899	0.524
568.000	357.756	79.999	19.995	103.131	20.188	2.048	0.510
576.000	361.894	80.004	19.993	103.118	20.187	2.064	0.528
584.000	365.989	80.002	19.994	103.112	20.187	2.121	0.542
592.000	370.010	80.002	19.995	103.098	20.185	2.242	0.493
600.000	374.096	80.002	19.995	103.108	20.183	2.372	0.477
608.000	377.979	79.996	19.996	103.101	20.184	2.283	0.468
616.000	381.824	80.001	19.997	103.101	20.178	2.655	0.453
624.000	385.749	79.999	19.997	103.101	20.178	2.676	0.506
632.000	389.708	79.998	19.994	103.105	20.176	2.813	0.486
640.000	393.703	79.997	19.992	103.111	20.171	3.149	0.506
648.000	397.766	80.001	19.995	103.100	20.166	3.461	0.512
656.000	401.750	79.994	19.995	103.089	20.165	3.539	0.495
664.000	405.694	79.992	19.998	103.103	20.161	3.819	0.482
672.000	409.619	79.997	19.994	103.094	20.152	4.371	0.479
680.000	413.519	79.998	19.995	103.098	20.143	4.939	0.472
688.000	417.360	80.000	19.995	103.112	20.134	5.536	0.490
696.000	421.427	80.010	19.994	103.111	20.121	6.420	0.536
704.000	425.478	79.997	19.995	103.108	20.105	7.440	0.509
712.000	429.636	79.998	19.997	103.093	20.082	8.911	0.533
720.000	433.764	79.992	19.996	103.093	20.066	9.965	0.520
728.001	437.943	79.989	19.996	103.065	20.037	11.870	0.536
736.000	441.976	80.004	19.994	103.076	20.007	13.829	0.482
744.000	445.972	80.003	19.993	103.071	19.969	16.284	0.526
752.000	449.938	79.994	19.994	103.080	19.934	18.619	0.497
760.000	453.862	79.992	19.995	103.072	19.896	21.068	0.492
768.000	457.820	80.002	19.992	103.077	19.867	22.953	0.520
776.000	461.749	80.000	19.995	103.087	19.849	24.173	0.517
784.000	465.783	80.001	19.996	103.077	19.841	24.664	0.533
792.000	469.945	79.999	19.995	103.079	19.842	24.568	0.538
800.000	474.094	80.001	19.996	103.068	19.859	23.499	0.527
808.000	478.166	80.000	19.995	103.074	19.881	22.023	0.502
816.000	482.244	80.001	19.996	103.073	19.912	20.021	0.505
824.000	486.219	80.001	19.995	103.076	19.949	17.592	0.471
832.000	490.221	80.002	19.993	103.074	19.980	15.593	0.465
840.000	494.301	79.997	19.996	103.069	20.018	13.099	0.487
848.000	498.335	80.000	19.994	103.076	20.051	10.989	0.521
856.000	502.305	80.000	19.996	103.071	20.080	9.092	0.503
864.000	506.325	79.999	19.995	103.069	20.100	7.756	0.512
872.000	510.366	79.998	19.996	103.073	20.127	5.994	0.520
880.000	514.451	80.000	19.995	103.073	20.143	4.952	0.541
888.000	518.547	80.000	19.996	103.071	20.157	4.035	0.517
896.000	522.639	80.000	19.996	103.070	20.167	3.380	0.535
904.000	526.750	80.000	19.994	103.069	20.174	2.938	0.525
912.000	530.960	80.003	19.994	103.069	20.181	2.455	0.546
920.000	535.153	79.999	19.995	103.070	20.178	2.691	0.544
928.000	539.343	80.002	19.994	103.072	20.184	2.299	0.493
936.000	543.492	80.001	19.994	103.078	20.185	2.233	0.515
944.000	547.629	79.998	19.994	103.075	20.193	1.689	0.539
952.000	551.772	79.996	19.994	103.085	20.191	1.846	0.527
960.000	555.872	79.996	19.995	103.103	20.192	1.783	0.486
968.000	559.979	80.002	19.994	103.107	20.193	1.680	0.515
976.000	564.069	80.000	19.996	103.108	20.195	1.585	0.509
984.000	568.124	80.001	19.996	103.106	20.199	1.333	0.522
992.000	572.229	80.004	19.995	103.104	20.199	1.292	0.542
1000.000	576.323	79.998	19.996	103.109	20.200	1.219	0.483
1008.000	580.418	80.011	19.992	103.116	20.208	0.694	0.489
1016.000	584.483	79.998	19.995	103.086	20.201	1.174	0.460
1024.000	588.737	79.999	19.994	103.077	20.207	0.794	0.093
1032.000	592.838	79.998	19.994	103.073	20.211	0.539	0.533
1040.000	596.833	80.004	19.996	103.069	20.211	0.496	0.491
1048.000	600.897	80.002	19.995	103.071	20.209	0.630	0.508
1056.000	604.790	80.002	19.995	103.075	20.210	0.591	0.478
1064.000	608.675	80.003	19.995	103.077	20.210	0.605	0.494
1072.000	612.543	80.002	19.995	103.088	20.206	0.880	0.477
1080.000	616.462	80.009	19.994	103.090	20.207	0.798	0.480
1088.000	620.343	79.999	19.998	103.103	20.210	0.612	0.502
1096.000	624.237	80.000	19.996	103.085	20.208	0.752	0.492
1104.000	628.101	80.000	19.995	103.103	20.206	0.843	0.471
1112.000	632.130	79.999	19.995	103.108	20.202	1.094	0.519
1120.000	636.245	80.002	19.995	103.113	20.201	1.205	0.520
1128.000	640.426	80.000	19.994	103.123	20.204	0.977	0.493
1136.000	644.732	80.000	19.995	103.129	20.200	1.245	0.593
1144.000	648.837	80.002	19.994	103.149	20.199	1.338	0.502
1152.000	652.983	80.000	19.995	103.150	20.200	1.240	0.518
1160.000	657.044	79.999	19.998	103.160	20.197	1.438	0.520
1168.000	661.186	79.999	19.995	103.186	20.189	1.934	0.529
1176.001	665.358	79.998	19.995	103.212	20.193	1.716	0.533
1184.000	669.587	79.997	19.995	103.225	20.187	2.121	0.526
1192.000	673.845	79.998	19.996	103.231	20.186	2.140	0.542
1200.000	678.067	80.001	19.994	103.249	20.185	2.256	0.549
1208.000	682.078	79.999	19.994	103.268	20.184	2.318	0.509
1216.000	685.983	79.995	19.996	103.284	20.182	2.439	0.495
1224.000	689.810	80.003	19.995	103.284	20.177	2.767	0.462
1232.000	693.658	79.999	19.994	103.311	20.171	3.113	0.501
1240.001	697.570	80.000	19.996	103.325	20.170	3.187	0.489
1248.000	701.672	79.999	19.996	103.342	20.170	3.210	0.551
1256.000	705.781	79.999	19.996	103.350	20.168	3.327	0.513
1264.000	709.943	79.998	19.995	103.372	20.160	3.854	0.556
1272.000	714.162	80.001	19.997	103.378	20.159	3.937	0.554
1280.000	718.340	80.002	19.995	103.373	20.156	4.148	0.538
1288.000	722.557	80.003	19.995	103.374	20.155	4.201	0.508
1296.000	726.665	80.003	19.995	103.343	20.158	3.975	0.517
1304.000	730.848	80.003	19.995	103.301	20.166	3.456	0.523
1312.000	735.080	80.000	19.996	103.240	20.177	2.729	0.518
1320.000	739.308	80.001	19.995	103.183	20.188	2.011	0.512
1328.000	743.542	79.998	19.996	103.113	20.199	1.336	0.542