File: 01_Data/Laminate_Flooring/MCC/Laminate_Flooring_MCC_30K_min_211105_R1.txt
Sample ID:	C:\MCC\MCC Cal\Test\Laminate_Flooring_MCC_30K_min_211105_R1.txt
Sample Weight (mg):	4.61
Heating Rate (C/s):	0.5
Combustor Temp (C):	900
N2 Flow Rate (cc/min):	80
O2 Flow Rate (cc/min):	20
Calibration File:	C:\MCC\MCC Cal\Coeff1 JN10440_30_210304.txt.txt
T Correction Coefficients:	0	1.024463	0
Time Shift (s):	14
*
Time (s)	Temperature (C)	N2 flow rate (cc/min)	O2 flow rate (cc/min)	Flow Rate (cc/min)	Oxygen (%)	HRR (W/g)	Heating rate (C/s)
0.000	107.448	80.002	19.994	102.999	20.004	-0.020	0.010
8.000	107.396	80.003	19.995	103.021	20.001	0.146	0.017
16.000	107.509	80.003	19.996	103.041	19.994	0.634	0.030
24.000	107.753	80.004	19.993	103.133	19.980	1.624	0.016
32.000	108.206	80.002	19.993	103.149	19.976	1.893	0.046
40.000	109.173	80.006	19.993	103.184	19.966	2.607	0.178
48.001	110.346	80.004	19.994	103.206	19.960	3.000	0.135
56.000	111.973	80.004	19.994	103.213	19.962	2.878	0.207
64.000	113.826	80.001	19.994	103.214	19.958	3.138	0.253
72.000	115.998	80.006	19.995	103.215	19.956	3.296	0.269
80.000	118.368	80.004	19.995	103.215	19.955	3.369	0.291
88.000	120.917	80.001	19.996	103.252	19.952	3.582	0.327
96.000	123.706	80.004	19.996	103.257	19.948	3.861	0.346
104.000	126.700	80.002	19.995	103.256	19.948	3.861	0.372
112.001	129.873	80.004	19.995	103.254	19.945	4.048	0.413
120.001	133.174	80.005	19.994	103.261	19.946	3.978	0.398
128.000	136.658	80.004	19.995	103.253	19.947	3.902	0.427
136.000	140.274	80.003	19.996	103.257	19.944	4.134	0.463
144.000	143.958	80.007	19.994	103.261	19.947	3.941	0.468
152.000	147.741	80.003	19.994	103.262	19.945	4.061	0.450
160.000	151.654	80.005	19.993	103.275	19.945	4.063	0.482
168.001	155.545	80.004	19.994	103.259	19.940	4.389	0.513
176.000	159.456	80.005	19.994	103.255	19.940	4.387	0.506
184.000	163.463	80.003	19.994	103.248	19.939	4.465	0.557
192.000	167.390	80.003	19.996	103.251	19.943	4.233	0.496
200.000	171.417	80.004	19.995	103.249	19.943	4.229	0.483
208.000	175.458	80.005	19.994	103.227	19.942	4.274	0.482
216.000	179.393	80.006	19.996	103.219	19.938	4.555	0.461
224.000	183.345	80.005	19.994	103.236	19.940	4.419	0.516
232.000	187.325	80.002	19.993	103.235	19.939	4.456	0.507
240.000	191.263	80.002	19.993	103.229	19.939	4.510	0.492
248.000	195.206	80.001	19.995	103.221	19.936	4.725	0.531
256.000	199.148	80.005	19.995	103.213	19.935	4.751	0.514
264.000	203.090	80.005	19.995	103.214	19.933	4.931	0.478
272.000	207.063	80.002	19.995	103.214	19.932	5.003	0.488
280.000	211.000	80.001	19.996	103.217	19.928	5.261	0.493
288.000	214.951	80.003	19.996	103.212	19.925	5.463	0.493
296.000	218.878	80.006	19.995	103.214	19.922	5.710	0.518
304.000	222.788	80.005	19.996	103.215	19.920	5.790	0.486
312.000	226.741	80.006	19.993	103.203	19.914	6.245	0.495
320.000	230.683	80.003	19.994	103.204	19.909	6.581	0.503
328.000	234.557	79.998	19.995	103.206	19.902	7.063	0.503
336.000	238.519	80.005	19.993	103.211	19.900	7.238	0.499
344.000	242.394	80.004	19.994	103.199	19.895	7.574	0.497
352.000	246.410	80.002	19.995	103.201	19.897	7.452	0.530
360.000	250.406	80.004	19.994	103.193	19.890	7.910	0.513
368.001	254.348	80.006	19.993	103.212	19.888	8.029	0.505
376.000	258.333	80.004	19.995	103.212	19.887	8.101	0.494
384.000	262.415	80.004	19.994	103.207	19.895	7.590	0.520
392.000	266.441	80.006	19.994	103.192	19.900	7.178	0.495
400.000	270.509	80.003	19.994	103.212	19.905	6.898	0.555
408.000	274.475	80.004	19.995	103.229	19.905	6.834	0.491
416.000	278.439	80.004	19.994	103.253	19.908	6.638	0.481
424.000	282.428	80.003	19.994	103.284	19.901	7.155	0.507
432.000	286.416	80.002	19.994	103.301	19.883	8.383	0.497
440.000	290.424	80.003	19.993	103.314	19.854	10.460	0.536
448.000	294.410	80.006	19.994	103.305	19.833	11.872	0.487
456.000	298.371	80.004	19.995	103.269	19.849	10.744	0.506
464.000	302.298	80.003	19.995	103.246	19.871	9.250	0.498
472.000	306.257	80.006	19.996	103.210	19.892	7.776	0.502
480.000	310.215	80.004	19.995	103.178	19.904	6.900	0.493
488.000	314.241	80.003	19.994	103.176	19.913	6.317	0.508
496.000	318.283	80.003	19.994	103.156	19.916	6.074	0.467
504.000	322.347	80.004	19.994	103.169	19.920	5.835	0.523
512.001	326.494	80.005	19.994	103.173	19.917	6.051	0.564
520.000	330.626	80.005	19.994	103.176	19.917	6.017	0.519
528.000	334.806	80.005	19.994	103.172	19.919	5.850	0.509
536.000	338.992	80.005	19.994	103.170	19.913	6.293	0.505
544.000	343.155	80.003	19.995	103.174	19.913	6.328	0.478
552.000	347.261	80.004	19.994	103.173	19.912	6.372	0.520
560.000	351.252	80.005	19.994	103.168	19.916	6.120	0.498
568.000	355.247	80.003	19.995	103.150	19.915	6.173	0.490
576.000	359.175	80.003	19.994	103.146	19.913	6.276	0.480
584.000	363.065	80.005	19.994	103.164	19.911	6.406	0.495
592.000	366.952	80.004	19.993	103.152	19.909	6.558	0.450
600.001	370.866	80.004	19.994	103.140	19.910	6.484	0.506
608.000	374.777	80.006	19.993	103.156	19.907	6.747	0.462
616.000	378.702	80.005	19.994	103.159	19.904	6.937	0.500
624.000	382.719	80.005	19.994	103.156	19.904	6.945	0.531
632.000	386.768	80.007	19.995	103.156	19.900	7.196	0.510
640.000	390.853	80.007	19.995	103.135	19.894	7.593	0.502
648.000	394.972	80.005	19.995	103.141	19.890	7.923	0.525
656.001	398.997	80.004	19.995	103.147	19.884	8.344	0.502
664.000	403.179	80.003	19.995	103.136	19.880	8.622	0.490
672.000	407.236	80.004	19.993	103.135	19.870	9.316	0.504
680.000	411.304	80.004	19.993	103.137	19.858	10.125	0.523
688.000	415.348	80.003	19.994	103.142	19.849	10.790	0.500
696.000	419.398	80.006	19.994	103.133	19.841	11.329	0.505
704.000	423.428	80.005	19.995	103.135	19.828	12.246	0.496
712.000	427.566	80.006	19.994	103.135	19.809	13.588	0.518
720.000	431.649	80.007	19.994	103.134	19.790	14.891	0.509
728.000	435.707	80.005	19.995	103.135	19.757	17.196	0.523
736.000	439.748	80.004	19.994	103.142	19.740	18.368	0.411
744.000	443.828	80.003	19.994	103.136	19.709	20.520	0.504
752.000	448.016	80.003	19.996	103.137	19.675	22.887	0.538
760.000	452.217	80.002	19.995	103.134	19.633	25.873	0.550
768.000	456.385	80.003	19.994	103.153	19.607	27.687	0.550
776.000	460.530	80.005	19.994	103.134	19.582	29.413	0.511
784.000	464.618	80.006	19.994	103.133	19.569	30.338	0.511
792.000	468.718	80.004	19.996	103.132	19.574	29.962	0.487
800.000	472.755	80.006	19.992	103.137	19.583	29.343	0.510
808.000	476.928	80.006	19.992	103.136	19.602	27.994	0.503
816.000	481.106	80.003	19.994	103.138	19.635	25.715	0.524
824.000	485.245	80.003	19.995	103.135	19.662	23.851	0.528
832.000	489.363	80.003	19.996	103.133	19.693	21.652	0.493
840.000	493.501	80.003	19.994	103.133	19.720	19.769	0.526
848.000	497.641	80.002	19.995	103.133	19.748	17.845	0.520
856.000	501.741	80.004	19.995	103.134	19.773	16.105	0.533
864.000	505.984	80.006	19.994	103.143	19.796	14.438	0.532
872.000	510.349	80.005	19.992	103.135	19.812	13.322	0.563
880.000	514.792	80.005	19.993	103.137	19.830	12.070	0.600
888.000	519.294	80.007	19.993	103.134	19.842	11.240	0.560
896.000	523.771	80.005	19.994	103.131	19.851	10.642	0.551
904.001	528.170	80.003	19.994	103.138	19.855	10.325	0.556
912.000	532.579	80.004	19.995	103.134	19.857	10.195	0.553
920.000	536.924	80.005	19.994	103.132	19.856	10.245	0.515
928.000	541.214	80.003	19.995	103.140	19.856	10.249	0.537
936.000	545.392	80.004	19.995	103.141	19.861	9.924	0.516
944.000	549.608	80.005	19.994	103.145	19.862	9.873	0.552
952.000	553.753	80.004	19.994	103.159	19.859	10.094	0.505
960.000	557.922	80.006	19.994	103.167	19.860	10.002	0.524
968.000	562.033	80.008	19.993	103.172	19.859	10.091	0.510
976.000	566.113	80.006	19.995	103.173	19.862	9.893	0.510
984.000	570.195	80.004	19.994	103.174	19.857	10.199	0.526
992.000	574.341	80.005	19.994	103.175	19.855	10.322	0.549
1000.000	578.438	80.005	19.994	103.175	19.859	10.101	0.483
1008.000	582.528	80.003	19.995	103.144	19.861	9.941	0.519
1016.000	586.592	80.003	19.993	103.139	19.862	9.888	0.505
1024.000	590.686	80.004	19.996	103.134	19.863	9.784	0.502
1032.000	594.700	80.005	19.996	103.134	19.862	9.861	0.502
1040.000	598.762	80.006	19.996	103.132	19.860	9.966	0.501
1048.000	602.800	80.006	19.996	103.133	19.859	10.089	0.516
1056.000	606.818	80.007	19.994	103.140	19.855	10.342	0.504
1064.000	610.828	80.004	19.994	103.142	19.857	10.192	0.490
1072.001	614.841	80.005	19.994	103.148	19.855	10.334	0.533
1080.000	618.807	80.005	19.995	103.170	19.850	10.721	0.465
1088.000	622.683	80.005	19.994	103.151	19.849	10.751	0.489
1096.000	626.437	80.004	19.995	103.165	19.847	10.881	0.472
1104.000	630.202	80.005	19.995	103.175	19.844	11.115	0.478
1112.001	634.020	80.006	19.994	103.171	19.840	11.424	0.501
1120.000	637.829	80.004	19.995	103.186	19.838	11.516	0.488
1128.000	641.669	80.004	19.995	103.196	19.833	11.904	0.514
1136.000	645.668	80.006	19.994	103.212	19.828	12.243	0.523
1144.001	649.800	80.004	19.994	103.219	19.827	12.329	0.576
1152.000	654.032	80.005	19.994	103.246	19.823	12.619	0.532
1160.001	658.300	80.003	19.994	103.255	19.820	12.826	0.519
1168.000	662.538	80.005	19.994	103.257	19.813	13.285	0.501
1176.000	666.644	80.004	19.995	103.279	19.808	13.640	0.489
1184.001	670.668	80.005	19.995	103.291	19.804	13.940	0.475
1192.000	674.571	80.006	19.994	103.302	19.801	14.143	0.484
1200.000	678.529	80.006	19.994	103.329	19.797	14.408	0.470
1208.000	682.486	80.005	19.994	103.339	19.794	14.606	0.530
1216.000	686.292	80.007	19.995	103.358	19.789	14.954	0.456
1224.000	690.351	80.007	19.995	103.364	19.786	15.185	0.504
1232.000	694.325	80.005	19.996	103.377	19.779	15.689	0.499
1240.001	698.280	80.006	19.995	103.371	19.778	15.771	0.498
1248.000	702.108	80.006	19.995	103.393	19.772	16.168	0.494
1256.000	705.989	80.006	19.993	103.407	19.770	16.350	0.509
1264.001	709.799	80.004	19.992	103.400	19.768	16.470	0.492
1272.000	713.538	80.006	19.994	103.409	19.768	16.447	0.484
1280.000	717.538	80.009	19.993	103.380	19.767	16.559	0.475
1288.000	721.499	80.006	19.995	103.369	19.769	16.372	0.545
1296.000	725.586	80.006	19.994	103.334	19.774	16.047	0.529
1304.000	729.711	80.007	19.994	103.285	19.776	15.871	0.524
1312.000	733.828	80.005	19.994	103.245	19.775	15.904	0.550
1320.000	737.815	80.005	19.994	103.184	19.787	15.126	0.474
1328.000	741.996	80.004	19.997	103.140	19.793	14.684	0.515
1330.501	743.275	80.005	19.995	103.141	19.795	14.564	0.531