File: 01_Data/R13_Fiberglass_Insulation/Cone/R13_Fiberglass_Insulation_Cone_HF75Scan_220429_R3.csv
Names,Time,Stack TC,Smoke TC,Exh Press,Smoke Comp,Smoke Meas,CO Meter,CO2 Meter,O2 Meter,Sample Mass,Ext Coeff,Start Test,Flame Verif
Chan Gain,,500,500,1,1,1,1,1,1,1,1,1.0,1.0
Offset,,0,0,0.13436,0,0,0,0,0,0,0,0.0,0.0
Gain,,1,1,25.011,14.4414,16.1819,1,1,1,1.0009,1.01483,1.0,1.0
Units,sec,C,C,Pa,%,%,%,%,%,g,/m,,
Baseline,,43.6855,45.3003,131.477,110.151,113.58,0.000572249,0.0579774,21.0078,-496.552,-0.272767,,
31,7.5,41.2689,42.2473,127.099,109.9,114.459,0.00289667,0.0756257,20.9886,4.72424,-0.361777,0.0,0.0
62,15.25,42.2277,44.117,127.344,109.887,114.552,0.00319719,0.0753678,20.9861,4.62415,-0.370066,0.0,0.0
93,23,42.9453,44.4186,132.622,109.891,113.794,0.00312846,0.0721167,20.9906,4.55409,-0.310676,0.0,0.0
124,30.75,43.6436,44.9724,131.39,109.921,114.273,0.00252301,0.0688615,20.9928,4.54408,-0.345644,0.0,0.0
155,38.5,44.2015,45.1316,126.33,109.963,114.545,0.00204276,0.0664088,20.9997,4.48402,-0.363389,0.0,0.0
186,46.25,44.1863,45.7952,126.999,109.993,113.675,0.00131042,0.0636322,21.0032,4.53407,-0.293118,0.0,0.0
217,54,44.1509,45.9333,126.582,110.061,113.799,0.000950149,0.0613735,21.0061,4.49403,-0.297296,0.0,0.0
248,61.75,44.3482,46.1956,130.897,110.073,114.94,0.000634921,0.0600863,21.0054,4.48402,-0.385161,0.0,0.0
279,69.5,44.9212,46.7399,129.517,110.091,114.249,0.000558778,0.0597247,21.0042,4.49403,-0.330033,0.0,0.0
310,77.25,44.8283,46.4647,127.701,110.112,114.8,0.000455233,0.0600433,21.0044,4.49403,-0.371085,0.0,0.0
341,85,44.7775,46.4493,126.844,110.127,113.073,0.000261973,0.0590779,21.0075,4.46401,-0.235014,0.0,0.0
372,92.75,45.5819,46.867,128.791,110.153,114.1,0.00056223,0.05891,21.008,4.454,-0.313453,0.0,0.0
403,100.5,45.3778,47.3977,127.5,110.175,114.732,0.000350776,0.0585972,21.008,4.49403,-0.360781,0.0,0.0
434,108.25,45.4346,47.8044,129.058,110.222,114.421,0.000347485,0.0583966,21.0089,4.48402,-0.332872,0.0,0.0
465,116,45.634,47.572,131.759,110.249,113.649,0.000597763,0.058487,21.0066,4.44399,-0.270375,0.0,0.0
496,123.75,45.818,47.7322,132.975,110.277,114.095,0.000405486,0.0582351,21.0073,4.43398,-0.302994,0.0,0.0
527,131.5,45.6062,47.4242,130.884,110.299,114.638,0.0006416,0.058318,21.0104,4.46401,-0.343495,0.0,0.0
558,139.25,45.9967,47.605,130.655,110.312,113.882,0.000231833,0.0583698,21.0093,4.43398,-0.283562,0.0,0.0
589,147,45.9227,47.6736,128.574,110.323,114.655,0.000357528,0.0583005,21.0075,4.41396,-0.342843,0.0,0.0
620,154.75,45.7623,47.8083,130.117,110.345,115.738,0.000217667,0.0586174,21.0064,4.43398,-0.424789,0.0,0.0
651,162.5,46.0145,48.262,129.118,110.344,115.169,0.000368764,0.0583618,21.0084,4.43398,-0.380961,0.0,0.0
682,170.25,46.3156,47.8718,129.091,110.343,114.845,0.000527104,0.0583651,21.0085,4.42397,-0.355993,0.0,0.0
713,178,45.7089,48.0634,128.976,110.334,114.721,0.000694344,0.0581541,21.0091,4.42397,-0.347128,0.0,0.0
744,185.75,46.1988,48.0976,127.708,110.323,114.625,0.000607888,0.0583003,21.0101,4.41396,-0.340539,0.0,0.0
775,193.5,46.6779,48.0409,130.752,110.314,114.845,0.000476592,0.0583531,21.0102,4.40395,-0.358303,0.0,0.0
806,201.25,46.6707,47.979,129.088,110.283,114.531,0.000665937,0.0580811,21.0088,4.38393,-0.336451,0.0,0.0
837,209,46.6296,48.3856,129.555,110.26,114.167,0.000510837,0.0580977,21.0091,4.42397,-0.310002,0.0,0.0
868,216.75,46.5711,48.5227,130.857,110.203,114.098,0.000570946,0.0578984,21.0109,4.39394,-0.309165,0.0,0.0
899,224.5,45.9897,48.3525,132.094,110.131,115.056,0.000660142,0.0576553,21.0103,4.39394,-0.389443,0.0,0.0
930,232.25,46.3337,48.4949,131.709,110.051,114.838,0.000465531,0.0573307,21.0114,4.40395,-0.379025,0.0,0.0
961,240,46.254,48.4196,131.067,109.974,113.619,0.000175799,0.057511,21.0115,4.39394,-0.290283,0.0,0.0
992,247.75,46.0977,48.2783,128.029,109.893,114.665,0.000275575,0.0574877,21.0101,4.37393,-0.378388,0.0,0.0
1023,255.5,46.2108,48.5589,132.032,109.835,113.485,0.000316707,0.0576837,21.0103,4.39394,-0.291033,0.0,0.0
1054,263.25,46.6961,48.354,131.203,109.721,114.029,0.000595014,0.0577198,21.0127,4.38393,-0.342766,0.0,0.0
1085,271,46.761,48.7718,129.456,109.631,113.77,0.000366961,0.0576343,21.0124,4.37393,-0.329875,0.0,0.0
1116,278.75,46.2337,48.1533,131.07,109.51,113.455,0.000621975,0.057689,21.0136,4.36392,-0.314999,0.0,0.0
1147,286.5,46.6618,48.6432,130.431,109.355,113.751,0.000634918,0.0578238,21.0131,4.37393,-0.350798,0.0,0.0
1178,294.25,45.9001,48.4041,129.14,109.194,113.334,0.000507118,0.0577133,21.0136,4.38393,-0.331263,0.0,0.0
1209,302,46.7432,48.7037,127.338,109.048,113.202,0.000758315,0.0576854,21.0144,4.38393,-0.332799,0.0,0.0
1240,309.75,46.9246,48.8553,128.588,109.179,113.254,0.000476585,0.0576882,21.0145,4.37393,-0.326196,0.0,0.0
1271,317.5,46.7768,49.355,127.975,109.127,112.562,-0.000127452,0.0576337,21.0114,4.38393,-0.275853,0.0,0.0
1302,325.25,46.571,48.2676,132.677,109.004,113.31,0.00019857,0.0575138,21.0123,4.37393,-0.344895,0.0,0.0
1333,333,46.5129,48.9374,126.634,108.865,113.372,0.000371502,0.0574912,21.0103,4.36392,-0.36109,0.0,0.0
1364,340.75,46.9056,48.8214,130.623,108.776,112.663,0.000570508,0.057437,21.0118,4.41396,-0.312555,0.0,0.0
1395,348.5,46.7566,49.0622,129.785,108.696,113.024,0.000429987,0.0574846,21.0113,4.38393,-0.3476,0.0,0.0
1426,356.25,46.5514,48.6038,129.925,108.632,113.738,0.00021133,0.0572923,21.0106,4.35391,-0.408862,0.0,0.0
1457,364,46.7676,48.8245,131.03,108.574,112.286,0.000275238,0.057302,21.0105,4.40395,-0.299228,0.0,0.0
1488,371.75,46.6898,49.3365,131.8,108.527,111.84,0.00030984,0.0572907,21.0111,4.37393,-0.267711,0.0,0.0
1519,379.5,46.5565,48.5336,128.972,108.491,113.063,0.000193865,0.0574831,21.0121,4.37393,-0.367396,0.0,0.0
1550,387.25,46.7008,48.9679,132.002,108.497,112.262,0.000535428,0.0574211,21.0101,4.39394,-0.303634,0.0,0.0
1581,395,46.8934,48.7867,131.18,108.521,112.656,0.00015872,0.0575228,21.01,4.35391,-0.332953,0.0,0.0
1612,402.75,47.0267,48.8414,132.679,108.565,113.367,0.000146785,0.0576467,21.0096,4.38393,-0.385314,0.0,0.0
1643,410.5,46.8407,48.983,130.58,108.614,113.724,0.000237001,0.0576413,21.0106,4.37393,-0.409299,0.0,0.0
1674,418.25,46.853,49.0443,131.288,108.655,112.977,1.75531e-05,0.0576846,21.0111,4.38393,-0.347297,0.0,0.0
1705,426,46.8175,49.034,128.888,108.695,112.509,0.000296544,0.0578604,21.0106,4.35391,-0.307011,0.0,0.0
1736,433.75,47.1862,49.2291,128.061,108.738,112.408,0.00014365,0.0578775,21.0096,4.36392,-0.295536,0.0,0.0
1767,441.5,47.037,49.0268,129.963,108.833,113.223,0.000551823,0.0577782,21.0104,4.35391,-0.352079,0.0,0.0
1798,449.25,46.9891,48.7521,130.136,108.921,113.242,0.000493685,0.0577283,21.0092,4.39394,-0.346347,0.0,0.0
1829,457,46.4052,48.9736,132.602,109.066,113.148,0.000624069,0.0577197,21.0079,4.39394,-0.32705,0.0,0.0
1860,464.75,47.0015,49.1288,131.78,109.156,112.781,0.000551478,0.0578771,21.0077,4.35391,-0.290837,0.0,0.0
1891,472.5,46.9808,49.0742,128.442,109.264,113.371,0.000629242,0.0580517,21.008,4.35391,-0.328422,0.0,0.0
1922,480.25,47.1116,49.1025,130.973,109.335,113.528,0.000225417,0.0577279,21.0104,4.38393,-0.335004,0.0,0.0
1953,488,47.0168,48.8035,126.774,109.402,114.59,0.00048791,0.057951,21.009,4.36392,-0.412454,0.0,0.0
1984,495.75,46.5634,48.724,130.444,109.459,113.583,0.00062759,0.0578906,21.0068,4.38393,-0.329185,0.0,0.0
2015,503.5,46.9346,48.9882,130.368,109.522,114.092,0.000216866,0.0579006,21.0066,4.39394,-0.363915,0.0,0.0
2046,511.25,47.3097,49.0829,128.194,109.596,113.59,0.00026159,0.0577182,21.0079,4.36392,-0.318624,0.0,0.0
2077,519,47.135,49.3292,130.382,109.658,113.183,0.000314241,0.0579284,21.0077,4.38393,-0.281633,0.0,0.0
2108,526.75,47.0068,49.3403,133.047,109.729,114.34,0.000484404,0.058109,21.0093,4.3439,-0.366488,0.0,0.0
2139,534.5,47.2115,49.0379,127.799,109.763,113.57,0.000534934,0.0583088,21.0086,4.36392,-0.303556,0.0,0.0
2170,542.25,47.092,49.0326,129.881,109.81,114.631,0.000444786,0.0580925,21.0091,4.36392,-0.382493,0.0,0.0
2201,550,47.1523,49.0293,131.586,109.838,113.242,0.000140208,0.05808,21.0086,4.3439,-0.271707,0.0,0.0
2232,557.75,46.6842,48.9485,128.202,109.858,114.929,8.8094e-05,0.0581547,21.0086,4.37393,-0.401694,0.0,0.0
2263,565.5,47.0661,49.3744,130.284,109.855,114.335,0.000396885,0.05813,21.0086,4.35391,-0.355847,0.0,0.0
2294,573.25,47.1761,49.192,131.007,109.857,114.291,0.000576254,0.0589701,21.0093,4.42397,-0.352282,0.0,0.0
2325,581,47.2917,49.4441,129.043,109.846,113.737,0.000370762,0.0605639,21.0087,4.36392,-0.309839,0.0,0.0
2356,588.75,47.0787,48.7099,130.268,109.829,113.632,0.000522999,0.0601226,21.0093,4.37393,-0.302998,0.0,0.0
2387,596.5,47.2085,49.155,131.88,109.825,114.443,0.000848796,0.0598114,21.008,4.36392,-0.366728,0.0,0.0
2418,604.25,45.674,47.9392,131.152,109.826,114.206,0.000313088,0.0592326,21.0076,4.38393,-0.348199,0.0,0.0
2449,612,45.4164,47.5781,128.866,109.818,113.992,0.000464716,0.0595688,21.0065,4.42397,-0.332085,0.0,0.0
2480,619.75,45.5711,47.3177,127.434,109.811,113.683,0.00011981,0.0588975,21.0075,4.40395,-0.308557,0.0,0.0
2511,627.5,44.9138,47.4396,129.88,109.813,114.454,9.50189e-05,0.0584461,21.0068,4.39394,-0.368502,0.0,0.0
2542,635.25,45.2808,47.3877,131.136,109.827,113.805,0.00041167,0.0584455,21.0065,4.38393,-0.316743,0.0,0.0
2573,643,45.08,47.5167,128.4,109.827,114.249,0.000651541,0.0586503,21.0063,4.40395,-0.351405,0.0,0.0
2604,650.75,45.4489,47.2625,133.122,109.829,113.867,0.000450817,0.0586327,21.0066,4.38393,-0.321392,0.0,0.0
2635,658.5,45.9918,47.464,131.82,109.845,113.165,0.000409545,0.0584476,21.0066,4.38393,-0.265114,0.0,0.0
2666,666.25,45.8188,47.6409,129.595,109.833,113.506,0.000192457,0.0585254,21.0082,4.40395,-0.292806,0.0,0.0
2697,674,45.1955,47.3604,125.205,109.828,113.885,0.000293749,0.058286,21.0092,4.37393,-0.32293,0.0,0.0
2728,681.75,45.084,47.1635,134.099,109.815,115.216,0.00034459,0.058217,21.0088,4.40395,-0.42739,0.0,0.0
2759,689.5,45.561,47.4175,129.626,109.786,114.381,0.000216702,0.0581034,21.0086,4.37393,-0.364996,0.0,0.0
2790,697.25,44.9316,47.2689,136.131,109.798,114.681,0.000495545,0.0582499,21.0065,4.39394,-0.387368,0.0,0.0
2821,705,45.3289,46.8565,129.176,109.751,114.294,0.000506183,0.0587397,21.0071,4.37393,-0.361089,0.0,0.0
2852,712.75,45.4349,47.3791,134.634,109.705,113.559,,0.0591175,,4.40395,-0.307425,0.0,0.0
2883,720.5,45.5027,47.1355,129.368,109.695,114.104,,,,4.41396,-0.350806,0.0,0.0
2887,721.5,45.2957,46.9095,130.558,109.703,113.35,,,,4.37393,-0.291139,0.0,0.0