File: 01_Data/R13_Fiberglass_Insulation/Cone/R13_Fiberglass_Insulation_Cone_HF25Scalar_220429_R3.csv
LABORATORY,FSRI
TEST IDENT,R13Insulation_HF25_3
OPERATOR,Dow
MATERIAL,R13 Fiberglass Insulation (pink)
ORIENTATION,Horizontal
HEAT FLUX,25
SURF AREA,0.01
C FACTOR,0.0411223
SPEC HOLDER DIFF,-566
SPECIMEN MASS,7.34
SCAN TIME,0.25
O2 DELAY TIME,11
CO DELAY TIME,11
CO2 DELAY TIME,8
FLOW FACTOR,1
SCAN COUNT,2885
TIME TO IGN,0
END OF TEST SCAN,2405
END OF TEST TIME,601.25
TEST STATUS,1
PRE TEST CMT,Dimensions: 99.2 x 99.6 x 31.4 mm
POST TEST CMT,No ignition. Test ended after 10 minutes. No mass loss after 10 minutes in replicate R1.