File: 01_Data/R13_Fiberglass_Insulation/Cone/R13_Fiberglass_Insulation_Cone_HF50Scan_220429_R1.csv
Names,Time,Stack TC,Smoke TC,Exh Press,Smoke Comp,Smoke Meas,CO Meter,CO2 Meter,O2 Meter,Sample Mass,Ext Coeff,Start Test,Flame Verif
Chan Gain,,500,500,1,1,1,1,1,1,1,1,1.0,1.0
Offset,,0,0,0.138979,0,0,0,0,0,0,0,0.0,0.0
Gain,,1,1,25.011,14.099,15.1965,1,1,1,1.00087,0.986176,1.0,1.0
Units,sec,C,C,Pa,%,%,%,%,%,g,/m,,
Baseline,,31.2573,32.3119,148.664,106.288,103.057,0.0006223,0.0437839,21.0317,-837.346,0.267098,,
83,20.5,29.914,30.3548,148.849,105.817,102.804,0.00139782,0.0518205,21.0253,-354.458,0.249925,0.0,0.0
166,41.25,30.4622,31.8626,147.457,106.109,102.967,0.00158592,0.0487814,21.0285,-354.498,0.260089,0.0,0.0
249,62,31.4189,32.5511,148.826,106.196,102.906,0.000790556,0.0472178,21.0276,-354.508,0.272239,0.0,0.0
332,82.75,31.7155,32.942,149.443,105.988,103.022,0.000672686,0.0437503,21.0369,-354.578,0.245522,0.0,0.0
415,103.5,31.6928,33.0978,150.546,105.665,102.391,0.000266989,0.0444799,21.0373,-354.548,0.272266,0.0,0.0
498,124.25,31.7301,33.0631,149.063,105.318,102.365,0.000515415,0.0460554,21.0277,-354.608,0.246061,0.0,0.0
581,145,32.0183,33.1635,148.116,105.327,102.716,0.000597025,0.0439935,21.0348,-354.578,0.217147,0.0,0.0
664,165.75,31.9899,33.6824,146.048,105.362,102.427,0.000795338,0.0429711,21.0362,-354.658,0.244376,0.0,0.0
747,186.5,32.1491,33.3136,144.154,105.396,102.27,0.000134688,0.0430066,21.0353,-354.638,0.260529,0.0,0.0
830,207.25,32.8973,33.6997,145.004,105.427,102.266,0.000542695,0.0441102,21.0358,-354.598,0.263276,0.0,0.0
913,228,32.0684,33.215,146.493,105.464,102.49,0.000616736,0.0441369,21.036,-354.608,0.247424,0.0,0.0
996,248.75,32.3647,33.4765,149.146,105.464,102.505,0.000391571,0.0444328,21.032,-354.678,0.246241,0.0,0.0
1079,269.5,32.1219,33.171,146.133,105.452,102.551,0.000297306,0.0439274,21.0323,-354.658,0.241309,0.0,0.0
1162,290.25,32.1105,33.3111,146.604,105.422,102.463,0.000253868,0.0436131,21.0354,-354.668,0.24623,0.0,0.0
1245,311,31.8513,33.2922,150.399,105.37,102.139,0.000223039,0.0423221,21.039,-354.668,0.269405,0.0,0.0
1328,331.75,32.3853,33.0277,148.791,105.316,102.472,0.000102411,0.0418182,21.038,-354.668,0.236833,0.0,0.0
1411,352.5,32.4036,33.367,145.363,105.3,102.22,0.000259658,0.0418677,21.039,-354.648,0.256778,0.0,0.0
1494,373.25,32.0815,33.4607,149.416,105.357,102.672,0.000353038,0.0417833,21.036,-354.648,0.223297,0.0,0.0
1577,394,32.2911,33.3192,150.962,105.328,102.32,0.000672286,0.0416631,21.0397,-354.668,0.250641,0.0,0.0
1660,414.75,32.1329,33.4146,145.491,105.325,102.074,0.000483518,0.041729,21.0404,-354.628,0.271235,0.0,0.0
1743,435.5,32.4782,33.6231,146.933,105.307,102.26,0.000128442,0.0418387,21.0414,-354.618,0.254001,0.0,0.0
1826,456.25,32.8883,33.3804,152.062,105.321,102.27,0.000219853,0.0419824,21.0399,-354.668,0.254272,0.0,0.0
1909,477,32.5043,33.763,145.1,105.478,102.57,0.000225622,0.042184,21.0404,-354.668,0.241854,0.0,0.0
1992,497.75,32.3522,33.9154,145.681,105.662,102.55,3.60558e-05,0.0420682,21.0378,-354.648,0.25859,0.0,0.0
2075,518.5,32.479,34.126,144.391,105.866,102.738,0.000229983,0.0422078,21.0383,-354.618,0.259443,0.0,0.0
2158,539.25,32.8813,33.7303,148.146,106.057,103.117,0.000316602,0.0420829,21.0388,-354.648,0.243156,0.0,0.0
2241,560,33.1377,33.6312,146.608,106.168,103.154,0.000490941,0.0422808,21.0373,-354.638,0.249207,0.0,0.0
2324,580.75,32.7262,33.7673,143.783,106.187,103.38,0.000437252,0.0424128,21.0393,-354.658,0.231751,0.0,0.0
2407,601.5,32.7532,34.2215,152.085,106.122,103.062,0.000111448,0.0429805,21.0356,-354.668,0.25312,0.0,0.0
2490,622.25,32.7102,34.0347,148.27,106.093,103.162,0.00028503,0.0430004,21.0394,-354.628,0.242369,0.0,0.0
2573,643,32.4646,34.2555,144.139,106.167,103.328,7.43142e-05,0.0429876,21.0406,-354.628,0.234491,0.0,0.0
2656,663.75,32.8636,34.1338,150.094,106.186,103.071,1.07418e-05,0.0426713,21.0403,-354.628,0.257573,0.0,0.0
2739,684.5,32.9939,34.345,150.857,106.147,103.475,0.000240428,0.0423323,21.0395,-354.648,0.220578,0.0,0.0
2822,705.25,32.4983,34.2832,148.117,106.13,103.132,0.000258097,0.0437666,21.0347,-354.608,0.247914,0.0,0.0
2905,726,32.7415,33.9099,145.715,106.09,103.079,0.000110128,0.0428144,21.0384,-354.638,0.249048,0.0,0.0
2988,746.75,32.9046,33.9725,148.765,106.119,103.065,0.000324597,0.0430181,21.0381,-354.628,0.252641,0.0,0.0
3071,767.5,32.8707,34.2788,147.149,106.168,103.208,0.000169419,0.0444248,21.0344,-354.658,0.244623,0.0,0.0
3154,788.25,32.7082,33.7913,146.61,106.191,103.054,0.000576535,0.0427251,21.0406,-354.648,0.259356,0.0,0.0
3237,809,33.1255,34.1647,144.788,106.182,103.234,0.00035298,0.0429309,21.039,-354.618,0.243568,0.0,0.0
3320,829.75,32.7035,34.007,142.13,106.181,103.291,0.000147482,0.0423036,21.0395,-354.618,0.238719,0.0,0.0
3403,850.5,32.3077,34.1588,148.436,106.16,102.931,0.000468034,0.0425674,21.0396,-354.618,0.267228,0.0,0.0
3486,871.25,32.6407,34.2126,146.499,106.041,102.978,0.000105437,0.0427143,21.0397,-354.578,0.253572,0.0,0.0
3569,892,32.0279,34.0579,148.086,105.822,102.8,5.92627e-05,0.0417527,21.0396,-354.608,0.250589,0.0,0.0
3652,912.75,32.9748,33.6438,145.708,105.431,102.559,0.000190405,0.0423929,21.0393,-354.648,0.238945,0.0,0.0
3735,933.5,32.6823,33.8163,147.528,105.339,102.588,0.000210402,0.0423379,21.0401,-354.638,0.228963,0.0,0.0
3818,954.25,32.6149,33.7655,148.403,105.431,102.235,2.34847e-05,0.0450561,21.0353,-354.658,0.266332,0.0,0.0
3901,975,32.2535,33.9549,146.418,105.523,102.34,0.000302126,0.0439332,21.0369,-354.608,0.26491,0.0,0.0
3984,995.75,32.0277,33.8628,144.251,105.621,102.652,0.00047494,0.0425661,21.0399,-354.658,0.246605,0.0,0.0
4067,1016.5,32.8764,34.0793,149.2,105.689,102.69,0.000302145,0.0432423,21.0383,-354.608,0.249042,0.0,0.0
4150,1037.25,32.3343,33.8946,149.141,105.606,102.49,0.000329369,0.0430838,21.0395,-354.648,0.259132,0.0,0.0
4233,1058,32.715,33.5912,148.497,105.416,102.412,0.000216893,0.043721,21.0383,-354.608,0.250122,0.0,0.0
4316,1078.75,32.379,33.7607,146.376,105.197,102.055,0.000243019,0.043984,21.0371,-354.668,0.262305,0.0,0.0
4399,1099.5,32.1446,33.6332,147.559,104.891,101.66,0.000235259,0.0458594,21.0331,-354.618,0.270633,0.0,0.0
4482,1120.25,32.3805,33.5045,146.783,104.647,101.793,0.000315726,0.0432806,21.0352,-354.618,0.239171,0.0,0.0
4565,1141,32.2724,33.9198,149.367,104.572,101.638,0.000202965,0.0430359,21.0391,-354.618,0.246157,0.0,0.0
4648,1161.75,32.5442,33.8719,148.273,104.449,101.312,0.000521828,0.0439021,21.0363,-354.638,0.263797,0.0,0.0
4731,1182.5,31.8785,33.444,149.82,104.388,101.314,0.000267057,0.0433809,21.0372,-354.668,0.258577,0.0,0.0
4814,1203.25,32.3187,33.5237,148.322,104.387,101.288,0.000309069,0.0430203,21.0374,-354.638,0.260688,0.0,0.0
4897,1224,32.3724,33.0733,147.312,104.429,101.613,0.000155934,0.0423818,21.0386,-354.598,0.23646,0.0,0.0
4980,1244.75,31.6225,33.4254,148.032,104.411,101.407,0.000511172,0.0425136,21.041,-354.618,0.252551,0.0,0.0
5063,1265.5,32.9004,33.3714,151.08,104.337,101.007,0.000303532,0.0427625,21.0407,-354.588,0.28055,0.0,0.0
5146,1286.25,32.5738,33.525,147.965,104.315,101.356,0.000187595,0.0429793,21.0389,-354.588,0.248954,0.0,0.0
5229,1307,32.4158,34.1123,149.474,104.31,101.218,0.000360744,0.0425704,21.0393,-354.598,0.260249,0.0,0.0
5312,1327.75,32.4849,33.4797,144.242,104.258,101.379,-1.84481e-05,0.0433031,21.0392,-354.618,0.242188,0.0,0.0
5395,1348.5,32.4331,33.7189,148.063,104.228,101.445,0.000668433,0.0421868,21.041,-354.608,0.234143,0.0,0.0
5478,1369.25,32.7289,34.353,149.971,104.213,101.115,0.00019588,0.0421388,21.0416,-354.598,0.261061,0.0,0.0
5561,1390,32.4085,33.6193,145.128,104.23,101.08,0.000524104,0.0421619,21.0401,-354.598,0.265469,0.0,0.0
5644,1410.75,32.5693,33.4575,149.119,104.261,101.326,0.000449756,0.0422557,21.041,-354.608,0.247062,0.0,0.0
5727,1431.5,32.1067,33.6253,148.304,104.24,101.069,8.63962e-05,0.0427356,21.0393,-354.608,0.2672,0.0,0.0
5810,1452.25,32.4188,33.4661,148.535,104.232,100.993,0.000308363,0.0440298,21.0378,-354.598,0.273069,0.0,0.0
5893,1473,32.6747,33.8267,148.44,104.22,101.133,0.000332961,0.0440973,21.0364,-354.618,0.260045,0.0,0.0
5976,1493.75,32.108,33.2487,149.018,104.298,101.318,0.000422298,0.0433832,21.0374,-354.628,0.250773,0.0,0.0
6059,1514.5,32.1514,33.2515,146.244,104.615,101.513,2.64036e-05,0.0423375,21.0401,-354.558,0.26034,0.0,0.0
6142,1535.25,32.4524,33.4952,147.878,104.959,101.921,0.000280894,0.0436866,21.0372,-354.608,0.254124,0.0,0.0
6225,1556,32.127,33.17,146.463,105.225,101.875,0.00018877,0.0430053,21.0372,-354.638,0.27987,0.0,0.0
6308,1576.75,32.3349,33.5787,153.179,105.374,102.346,0.000249272,0.0421322,21.0406,-354.658,0.252261,0.0,0.0
6391,1597.5,32.3379,33.4393,147.67,105.436,102.354,0.000200579,0.0419958,21.0407,-354.608,0.256566,0.0,0.0
6474,1618.25,32.3566,33.3949,145.003,105.566,102.47,0.000384036,0.0420115,21.0415,-354.628,0.257502,0.0,0.0
6557,1639,32.5693,33.4155,151.225,105.664,102.606,0.000367481,0.0418045,21.0414,-354.648,0.254074,0.0,0.0
6640,1659.75,32.2771,33.3995,150.897,105.674,102.629,0.000209265,0.0419563,21.0426,-354.608,0.252968,0.0,0.0
6723,1680.5,31.6563,33.7408,147.581,105.628,102.757,0.000467699,0.0417899,21.0402,-354.628,0.238373,0.0,0.0
6806,1701.25,32.162,33.6235,147.063,105.56,102.381,0.000224789,0.0421808,21.0393,-354.648,0.264455,0.0,0.0
6889,1722,31.8921,33.4888,149.776,105.517,102.273,0.000395822,0.0419042,21.041,-354.598,0.270098,0.0,0.0
6972,1742.75,32.1584,33.5539,149.908,105.52,102.421,0.000478982,0.0418161,21.0427,-354.658,0.257876,0.0,0.0
7055,1763.5,32.1473,33.4692,147.444,105.554,102.638,0.000513762,0.0430012,21.0387,-354.638,0.242279,0.0,0.0
7138,1784.25,32.5739,33.4771,151.041,105.564,102.317,0.000378827,0.043622,21.0392,-354.568,0.270255,0.0,0.0
7221,1805,32.379,33.4248,148.233,105.542,102.335,0.000398603,0.042358,21.0421,-354.608,0.266889,0.0,0.0
7304,1825.75,31.3922,32.9905,146.861,105.559,102.429,0.000339952,0.0419531,21.0399,-354.578,0.260349,0.0,0.0
7387,1846.5,31.8197,32.9721,148.075,105.572,102.22,0.00025255,0.04236,21.0417,-354.598,0.279128,0.0,0.0
7470,1867.25,31.5926,32.8833,147.114,105.553,102.598,0.000285719,0.0441127,21.0388,-354.628,0.245571,0.0,0.0
7553,1888,31.9051,33.0005,144.526,105.514,102.581,0.000128056,0.0433934,21.0395,-354.588,0.243883,0.0,0.0
7636,1908.75,32.2449,32.9201,146.058,105.396,102.27,0.000399296,0.0437533,21.0383,-354.648,0.260494,0.0,0.0
7719,1929.5,31.9,33.1723,146.498,105.301,102.141,0.000623119,0.0426765,21.0393,-354.568,0.263598,0.0,0.0
7775,1943.5,31.7527,32.8243,147.718,105.677,102.575,,,,-354.608,0.257786,0.0,0.0