File: 01_Data/R13_Fiberglass_Insulation/Cone/R13_Fiberglass_Insulation_Cone_HF25Scan_220429_R1.csv
Names,Time,Stack TC,Smoke TC,Exh Press,Smoke Comp,Smoke Meas,CO Meter,CO2 Meter,O2 Meter,Sample Mass,Ext Coeff,Start Test,Flame Verif
Chan Gain,,500,500,1,1,1,1,1,1,1,1,1.0,1.0
Offset,,0,0,0.134537,0,0,0,0,0,0,0,0.0,0.0
Gain,,1,1,25.011,14.8585,16.6522,1,1,1,1.00087,1.0138,1.0,1.0
Units,sec,C,C,Pa,%,%,%,%,%,g,/m,,
Baseline,,18.0014,18.5599,141.46,110.998,111.364,0.000380512,0.0549247,21.0062,-833.728,-0.0293333,,
84,20.75,17.4604,18.1158,139.92,111.086,111.669,0.000154973,0.055849,21.0064,-338.463,-0.0465878,0.0,0.0
168,41.75,19.1257,19.1697,139.252,111.485,111.848,0.000398916,0.0542553,21.0129,-338.533,-0.028935,0.0,0.0
252,62.75,18.7354,19.3355,137.427,111.702,112.038,0.000139803,0.0540517,21.0116,-338.583,-0.0267246,0.0,0.0
336,83.75,18.7526,19.6836,138.978,111.77,112.477,0.000589143,0.0537269,21.0131,-338.634,-0.0560546,0.0,0.0
420,104.75,18.9532,19.7233,139.653,111.82,112.379,0.000215426,0.0531871,21.0134,-338.654,-0.0443687,0.0,0.0
504,125.75,19.4638,19.7948,140.781,111.777,112.541,0.000254638,0.0527633,21.0131,-338.664,-0.0606143,0.0,0.0
588,146.75,19.8413,20.3346,138.665,111.7,112.539,8.40788e-05,0.0530841,21.0123,-338.664,-0.066513,0.0,0.0
672,167.75,19.5869,20.3474,138.336,111.564,112.177,0.000143025,0.0526524,21.0125,-338.694,-0.0487114,0.0,0.0
756,188.75,20.4277,20.3564,138.162,111.444,112.019,0.000284547,0.0528092,21.013,-338.684,-0.0457971,0.0,0.0
840,209.75,19.7186,20.6095,140.108,111.262,111.857,0.000182765,0.0525956,21.0136,-338.714,-0.047435,0.0,0.0
924,230.75,19.5661,20.4525,138.386,111.749,112.33,0.000304933,0.052704,21.0134,-338.724,-0.0461343,0.0,0.0
1008,251.75,19.966,20.5745,141.182,112.035,112.607,0.000443466,0.0526649,21.0126,-338.714,-0.0452936,0.0,0.0
1092,272.75,19.9207,20.5839,141.452,112.225,112.856,0.000252839,0.0525378,21.0125,-338.714,-0.0498691,0.0,0.0
1176,293.75,19.8605,20.4144,141.343,112.202,112.82,0.000159966,0.0527494,21.014,-338.724,-0.0487823,0.0,0.0
1260,314.75,19.9381,20.7834,141.745,111.906,112.447,0.000332183,0.0524981,21.0142,-338.724,-0.0428698,0.0,0.0
1344,335.75,20.054,21.254,139.032,111.735,112.438,1.45127e-05,0.0523058,21.0132,-338.734,-0.0557826,0.0,0.0
1428,356.75,20.4702,21.0603,137.318,111.922,112.464,0.000203904,0.0523775,21.0123,-338.754,-0.0429358,0.0,0.0
1512,377.75,19.8385,21.1796,139.816,112.172,112.476,-0.000100479,0.0526576,21.0139,-338.744,-0.02403,0.0,0.0
1596,398.75,19.9714,21.0047,140.274,112.427,113.221,0.000408223,0.0523883,21.0152,-338.754,-0.0625588,0.0,0.0
1680,419.75,20.5447,21.0165,139.197,112.599,113.514,0.00018563,0.0522354,21.0131,-338.764,-0.0719769,0.0,0.0
1764,440.75,20.4036,21.3865,140.724,112.643,113.09,0.00012919,0.0521023,21.0141,-338.754,-0.0352379,0.0,0.0
1848,461.75,20.4215,21.092,139.965,112.557,113.182,6.32149e-05,0.0519216,21.0123,-338.754,-0.0492369,0.0,0.0
1932,482.75,20.447,21.2433,140.867,112.35,112.865,7.60982e-05,0.0541373,21.0131,-338.764,-0.0406741,0.0,0.0
2016,503.75,21.0427,21.5371,138.61,111.983,112.499,-3.07861e-05,0.052455,21.0135,-338.784,-0.0409211,0.0,0.0
2100,524.75,20.2416,21.1731,136.469,111.366,112.069,4.09186e-05,0.0525235,21.0165,-338.774,-0.0559756,0.0,0.0
2184,545.75,20.78,21.4564,140.033,110.937,111.643,0.000201461,0.0523158,21.0129,-338.784,-0.0563981,0.0,0.0
2268,566.75,20.1325,20.879,141.166,110.799,111.413,0.000157431,0.0522139,21.016,-338.784,-0.0491757,0.0,0.0
2352,587.75,20.493,21.6047,139.084,110.68,111.651,0.000224478,0.0521548,21.0158,-338.794,-0.0776794,0.0,0.0
2436,608.75,20.5987,21.8058,137.624,110.551,111.031,0.000167631,0.0520997,21.0143,-338.804,-0.038514,0.0,0.0
2520,629.75,20.6959,21.1707,138.759,110.505,111.054,8.19464e-06,0.0520183,21.0143,-338.794,-0.0440704,0.0,0.0
2604,650.75,20.5418,21.464,140.271,110.522,111.163,0.000262967,0.0522571,21.0143,-338.794,-0.0514247,0.0,0.0
2688,671.75,20.7548,21.3842,141.289,110.568,111.376,9.79972e-05,0.0517819,21.0154,-338.794,-0.0647994,0.0,0.0
2772,692.75,20.9923,21.5458,141.332,110.688,111.327,0.000138136,0.0517213,21.0138,-338.804,-0.0511256,0.0,0.0
2856,713.75,21.0307,21.9191,137.886,110.855,111.446,0.000250448,0.0519651,21.018,-338.804,-0.0473002,0.0,0.0
2940,734.75,20.9364,21.6825,139.303,111.071,111.595,0.000223449,0.0517364,21.018,-338.804,-0.0418797,0.0,0.0
3024,755.75,21.0366,21.3399,139.252,111.33,112.034,9.73758e-05,0.0518459,21.0168,-338.794,-0.0560941,0.0,0.0
3108,776.75,20.5681,21.6176,139.777,111.496,112.026,9.0487e-05,0.0518858,21.0185,-338.814,-0.0421657,0.0,0.0
3192,797.75,21.1475,21.8965,142.234,111.666,112.076,0.000303284,0.0516534,21.0168,-338.814,-0.032561,0.0,0.0
3276,818.75,21.1819,21.3017,141.709,111.816,112.445,0.000408051,0.0518599,21.0163,-338.824,-0.049843,0.0,0.0
3360,839.75,20.8631,21.738,136.633,111.891,112.701,-0.000121629,0.051961,21.0132,-338.784,-0.0640915,0.0,0.0
3444,860.75,21.1075,21.7291,141.81,111.956,112.618,-0.00012496,0.0521336,21.0137,-338.814,-0.0524009,0.0,0.0
3528,881.75,20.7,21.3931,141.477,111.988,112.934,0.000107676,0.0530455,21.0137,-338.814,-0.0748101,0.0,0.0
3612,902.75,21.0307,21.713,140.746,112.003,112.554,0.000231481,0.0524093,21.0166,-338.814,-0.0436384,0.0,0.0
3696,923.75,21.0278,21.4281,142.985,111.981,112.586,0.000293945,0.0531057,21.016,-338.784,-0.047968,0.0,0.0
3780,944.75,21.2844,21.0796,141.179,111.964,112.64,2.55849e-05,0.0560022,21.0117,-338.834,-0.0534786,0.0,0.0
3864,965.75,21.1188,21.5434,144.078,111.94,112.467,-6.54098e-06,0.0536216,21.0124,-338.834,-0.0417716,0.0,0.0
3948,986.75,20.9799,21.7486,141.141,111.958,112.452,0.000422721,0.052898,21.0179,-338.794,-0.0391252,0.0,0.0
4032,1007.75,20.9951,21.6213,142.798,111.908,112.582,0.000240045,0.0522218,21.0156,-338.834,-0.0534098,0.0,0.0
4116,1028.75,21.0575,21.3653,140.703,111.881,112.403,-9.0994e-05,0.0518317,21.0179,-338.824,-0.0414313,0.0,0.0
4200,1049.75,21.1506,21.4735,138.392,111.819,112.164,0.000203224,0.0518514,21.0147,-338.834,-0.0273733,0.0,0.0
4284,1070.75,21.0694,22.0427,140.938,111.748,112.422,6.70579e-05,0.0515654,21.0186,-338.824,-0.053486,0.0,0.0
4368,1091.75,19.9878,21.9095,139.141,111.652,112.032,0.000104137,0.0517267,21.0144,-338.834,-0.0301763,0.0,0.0
4452,1112.75,20.9047,21.437,135.86,111.545,112.145,-0.000194558,0.0519705,21.0165,-338.844,-0.0477313,0.0,0.0
4536,1133.75,21.0889,21.7485,142.028,111.423,111.858,0.000259563,0.0518009,21.0174,-338.844,-0.0346993,0.0,0.0
4620,1154.75,21.1161,21.4619,141.143,111.392,112.022,-0.000166322,0.0518961,21.0177,-338.834,-0.0501612,0.0,0.0
4704,1175.75,21.2712,21.7139,136.78,111.766,112.375,-8.24564e-05,0.0518085,21.0142,-338.834,-0.0483799,0.0,0.0
4788,1196.75,21.0638,21.4945,140.836,111.996,112.605,6.25029e-05,0.0518621,21.0154,-338.834,-0.0481886,0.0,0.0
4872,1217.75,21.6546,22.2563,139.279,112.153,112.849,1.36088e-05,0.0517996,21.0139,-338.824,-0.0549473,0.0,0.0
4956,1238.75,20.3023,21.6339,137.799,112.318,113.074,-0.000309082,0.0518264,21.0154,-338.834,-0.0596281,0.0,0.0
5040,1259.75,21.448,22.8358,143.23,112.423,113.061,0.000208705,0.0517618,21.0162,-338.874,-0.050263,0.0,0.0
5124,1280.75,21.2658,22.0328,136.753,112.328,113.015,0.00027225,0.0517232,21.0161,-338.834,-0.0542374,0.0,0.0
5208,1301.75,21.0923,22.0686,138.915,112.21,112.692,-0.000126338,0.0516464,21.0148,-338.824,-0.0381105,0.0,0.0
5292,1322.75,20.9948,21.8969,138.775,112.085,113.018,-0.000115245,0.0515342,21.0154,-338.834,-0.07374,0.0,0.0
5376,1343.75,20.9031,21.8083,139.412,111.876,112.495,0.000218036,0.0515759,21.0152,-338.844,-0.0490621,0.0,0.0
5460,1364.75,21.5426,21.4926,141.931,111.991,112.546,8.61176e-05,0.051527,21.0149,-338.844,-0.0440038,0.0,0.0
5544,1385.75,21.0938,21.4865,138.247,112.106,112.732,-1.1682e-05,0.0515017,21.0133,-338.834,-0.0495477,0.0,0.0
5628,1406.75,21.1045,21.9717,143.619,112.225,112.829,2.2753e-05,0.0513547,21.0136,-338.834,-0.0477457,0.0,0.0
5712,1427.75,21.1297,22.2651,140.361,112.37,112.893,0.000200482,0.0515181,21.0158,-338.844,-0.0413003,0.0,0.0
5796,1448.75,21.2931,22.186,141.041,112.451,112.881,0.000198266,0.0514426,21.015,-338.844,-0.0339145,0.0,0.0
5880,1469.75,21.3031,21.9913,145.516,112.589,113.127,-3.2885e-05,0.0512996,21.0186,-338.854,-0.042416,0.0,0.0
5964,1490.75,21.2058,21.456,140.061,112.695,113.538,-0.000299715,0.0515892,21.0134,-338.844,-0.0662631,0.0,0.0
6048,1511.75,21.6095,21.9006,137.513,112.785,113.319,0.000266462,0.0513483,21.0178,-338.844,-0.0420086,0.0,0.0
6132,1532.75,21.004,21.8168,138.023,112.8,113.48,-0.000249943,0.0512722,21.0162,-338.854,-0.0534583,0.0,0.0
6216,1553.75,21.3403,22.1225,142.542,112.793,113.307,0.000321983,0.0513849,21.0162,-338.834,-0.0404445,0.0,0.0
6300,1574.75,21.3262,21.5309,135.687,112.704,113.217,6.66521e-05,0.0514603,21.0169,-338.844,-0.0403514,0.0,0.0
6384,1595.75,21.0988,21.9494,141.507,112.62,113.297,0.000114056,0.0514694,21.0161,-338.854,-0.0533133,0.0,0.0
6468,1616.75,21.047,21.7309,139.813,112.454,112.931,0.000285524,0.0513509,21.0152,-338.844,-0.0376617,0.0,0.0
6552,1637.75,20.9457,21.9752,137.073,112.283,112.773,2.88754e-05,0.0514739,21.015,-338.844,-0.0387402,0.0,0.0
6636,1658.75,21.0335,21.9948,139.456,111.998,112.841,-1.55201e-05,0.0513997,21.0167,-338.854,-0.0667272,0.0,0.0
6720,1679.75,21.2773,21.7731,138.194,111.632,112.297,8.73701e-05,0.0514585,21.0167,-338.844,-0.0527939,0.0,0.0
6804,1700.75,20.9306,22.2223,139.055,111.396,112.288,0.000130694,0.0513801,21.0167,-338.854,-0.070913,0.0,0.0
6888,1721.75,21.0754,21.8351,139.362,111.125,111.841,0.000323863,0.0514189,21.0166,-338.834,-0.0571754,0.0,0.0
6972,1742.75,21.5603,21.7604,138.914,110.875,111.783,-0.000146723,0.051777,21.0166,-338.854,-0.072585,0.0,0.0
7056,1763.75,21.5208,21.7027,141.19,110.775,111.497,0.000238514,0.0529367,21.0144,-338.854,-0.057759,0.0,0.0
7140,1784.75,21.153,22.0611,141.635,110.768,111.723,0.000105946,0.0523892,21.0158,-338.844,-0.0763604,0.0,0.0
7224,1805.75,21.3483,21.6879,140.252,110.741,111.462,0.000337199,0.0522329,21.0158,-338.854,-0.0577334,0.0,0.0
7308,1826.75,20.6554,22.0197,140.574,110.734,111.454,4.53762e-05,0.0531266,21.0148,-338.844,-0.0576304,0.0,0.0
7392,1847.75,20.8922,21.7229,138.792,110.714,111.066,0.000146592,0.0521428,21.0149,-338.844,-0.0281995,0.0,0.0
7476,1868.75,20.9095,21.1931,142.096,110.727,111.214,0.000158477,0.0517815,21.0177,-338.864,-0.0390533,0.0,0.0
7560,1889.75,20.6329,21.5714,133.358,110.71,111.53,0.000223408,0.0517628,21.0152,-338.844,-0.0656367,0.0,0.0
7644,1910.75,20.7069,21.2406,138.751,110.709,111.31,0.000100325,0.0516505,21.0142,-338.864,-0.0481502,0.0,0.0
7716,1928.75,20.8321,21.3203,139.617,110.727,111.431,,,,-338.874,-0.0563112,0.0,0.0