File: 01_Data/R13_Fiberglass_Insulation/Cone/R13_Fiberglass_Insulation_Cone_HF25Scan_220429_R3.csv
Names,Time,Stack TC,Smoke TC,Exh Press,Smoke Comp,Smoke Meas,CO Meter,CO2 Meter,O2 Meter,Sample Mass,Ext Coeff,Start Test,Flame Verif
Chan Gain,,500,500,1,1,1,1,1,1,1,1,1.0,1.0
Offset,,0,0,0.134537,0,0,0,0,0,0,0,0.0,0.0
Gain,,1,1,25.011,14.8585,16.6522,1,1,1,1.00087,1.0138,1.0,1.0
Units,sec,C,C,Pa,%,%,%,%,%,g,/m,,
Baseline,,21.1813,21.7817,140.204,111.915,112.968,0.000424568,0.0527724,21.0111,-834.069,-0.0832631,,
31,7.5,19.5626,19.965,135.125,112.333,113.277,0.000525243,0.0623195,21.0045,-329.285,-0.0744525,0.0,0.0
62,15.25,19.8694,20.1549,137.977,112.346,113.653,0.000198859,0.0538671,21.0138,-329.365,-0.10281,0.0,0.0
93,23,20.1282,20.0872,139.792,112.353,113.744,0.000366578,0.0523123,21.0172,-329.405,-0.109462,0.0,0.0
124,30.75,20.1188,20.2691,140.729,112.358,113.75,0.000149457,0.0519443,21.0192,-329.426,-0.109508,0.0,0.0
155,38.5,20.1753,20.4773,138.791,112.363,113.441,0.000240072,0.0516563,21.0195,-329.446,-0.084924,0.0,0.0
186,46.25,20.3689,21.0411,136.983,112.358,113.667,0.000609981,0.0514874,21.0171,-329.486,-0.10299,0.0,0.0
217,54,20.6225,21.2112,137.751,112.377,113.852,0.000285729,0.0512898,21.0165,-329.506,-0.115943,0.0,0.0
248,61.75,20.4296,20.8363,139.355,112.385,113.619,7.60896e-05,0.0512416,21.0159,-329.506,-0.0971338,0.0,0.0
279,69.5,20.9887,21.2784,139.884,112.388,113.529,0.000125176,0.0511625,21.0151,-329.526,-0.0898,0.0,0.0
310,77.25,20.9275,21.102,141.232,112.373,113.583,0.0001196,0.0512325,21.0151,-329.536,-0.095283,0.0,0.0
341,85,20.7537,21.4286,137.172,112.378,113.538,9.48163e-05,0.0511997,21.0168,-329.536,-0.0913819,0.0,0.0
372,92.75,20.5245,21.5605,136.939,112.369,113.709,0.000509871,0.051296,21.0151,-329.556,-0.105427,0.0,0.0
403,100.5,21.0508,21.9273,137.49,112.36,114.248,0.00016797,0.0514219,21.0144,-329.556,-0.148179,0.0,0.0
434,108.25,20.9299,21.8155,139.532,112.359,113.755,-0.00014312,0.0514373,21.0133,-329.566,-0.109798,0.0,0.0
465,116,21.402,22.0963,138.907,112.362,113.802,-0.000125308,0.0514659,21.0143,-329.566,-0.113276,0.0,0.0
496,123.75,21.0342,21.7621,144.967,112.346,113.443,-1.11914e-05,0.0510738,21.0144,-329.596,-0.0864081,0.0,0.0
527,131.5,21.1351,22.2116,138.312,112.31,113.336,0.00015767,0.0512398,21.0133,-329.586,-0.0808375,0.0,0.0
558,139.25,21.0547,21.9721,134.922,112.271,113.722,-9.5194e-05,0.051332,21.0147,-329.586,-0.11414,0.0,0.0
589,147,21.3344,21.9333,139.058,112.218,113.717,0.00035377,0.0513179,21.015,-329.596,-0.117982,0.0,0.0
620,154.75,21.1835,22.0705,137.682,112.168,113.404,0.000541453,0.0511123,21.015,-329.606,-0.0974569,0.0,0.0
651,162.5,21.0205,22.038,140.516,112.123,113.477,0.000146375,0.0507851,21.013,-329.596,-0.106718,0.0,0.0
682,170.25,21.4831,21.8637,137.444,112.07,113.949,0.00014078,0.0508611,21.0137,-329.596,-0.147923,0.0,0.0
713,178,21.0822,22.4527,142.944,112.017,113.506,0.00033928,0.0508148,21.0127,-329.606,-0.117371,0.0,0.0
744,185.75,21.2542,21.9819,140.991,111.964,112.968,0.000200694,0.0510875,21.0175,-329.616,-0.0793912,0.0,0.0
775,193.5,21.5484,22.1275,139.809,111.939,112.938,0.000175439,0.0510563,21.0166,-329.616,-0.0789756,0.0,0.0
806,201.25,21.4511,22.0348,138.157,111.899,113.339,-0.000116662,0.0510964,21.0148,-329.616,-0.113703,0.0,0.0
837,209,21.4507,21.6417,139.971,111.882,113.282,6.36221e-05,0.0508554,21.0142,-329.616,-0.110605,0.0,0.0
868,216.75,21.3477,22.3406,137.214,111.87,113.27,0.000143981,0.0508661,21.0159,-329.626,-0.110625,0.0,0.0
899,224.5,21.348,21.9954,140.151,111.897,113.273,0.00010088,0.05083,21.0157,-329.606,-0.108662,0.0,0.0
930,232.25,21.6603,22.1863,141.547,111.895,113.592,-5.27346e-05,0.0507414,21.0157,-329.616,-0.133862,0.0,0.0
961,240,21.5072,22.253,137.979,111.888,113.136,-4.62675e-05,0.0508183,21.0137,-329.626,-0.098644,0.0,0.0
992,247.75,21.566,22.2314,139.955,111.854,113,-0.000191978,0.0508992,21.0147,-329.626,-0.0906353,0.0,0.0
1023,255.5,21.7262,22.1143,141.202,111.821,113.33,7.84991e-05,0.0508548,21.0137,-329.636,-0.119185,0.0,0.0
1054,263.25,21.6913,22.39,138.813,111.782,112.838,0.0001906,0.0509106,21.0136,-329.636,-0.0836023,0.0,0.0
1085,271,21.5937,22.6834,139.038,111.752,113.093,-1.5992e-05,0.0508109,21.0129,-329.636,-0.106102,0.0,0.0
1116,278.75,21.4566,22.3085,137.298,111.717,113.215,0.000169842,0.0507554,21.0124,-329.616,-0.118467,0.0,0.0
1147,286.5,21.458,21.9735,140.725,111.818,113.105,5.2373e-05,0.0506204,21.0147,-329.636,-0.101755,0.0,0.0
1178,294.25,21.3736,22.1514,140.305,111.93,113.251,0.000205639,0.0507683,21.0144,-329.646,-0.104316,0.0,0.0
1209,302,21.8154,22.2746,139.452,112.086,113.685,-2.58618e-05,0.0507363,21.0141,-329.646,-0.125905,0.0,0.0
1240,309.75,21.5139,22.3158,139.545,112.214,113.687,-0.000290265,0.0508463,21.0142,-329.646,-0.115924,0.0,0.0
1271,317.5,21.7877,22.5243,140.853,112.339,113.378,0.000207775,0.0510004,21.0142,-329.646,-0.0818854,0.0,0.0
1302,325.25,21.3557,22.6048,139.069,112.467,113.637,-0.000127847,0.0507836,21.0135,-329.646,-0.0920347,0.0,0.0
1333,333,21.6187,22.7099,140.305,112.556,113.652,6.75757e-05,0.0507992,21.0144,-329.656,-0.0862026,0.0,0.0
1364,340.75,21.626,22.8944,141.765,112.618,113.977,-2.167e-06,0.0506058,21.0162,-329.646,-0.106673,0.0,0.0
1395,348.5,21.8184,22.6337,144.108,112.667,113.819,7.72974e-06,0.0505995,21.0136,-329.646,-0.0904661,0.0,0.0
1426,356.25,21.7771,22.3288,140.718,112.68,113.806,5.42062e-05,0.0506593,21.0164,-329.666,-0.0883957,0.0,0.0
1457,364,21.4653,22.2506,140.229,112.689,114.099,3.18504e-06,0.0511521,21.0148,-329.656,-0.110595,0.0,0.0
1488,371.75,21.544,22.6474,140.382,112.695,114.241,4.45984e-05,0.0514089,21.0157,-329.646,-0.121103,0.0,0.0
1519,379.5,21.6278,22.8811,136.468,112.678,113.971,0.000126721,0.0512183,21.0161,-329.656,-0.101507,0.0,0.0
1550,387.25,21.4799,22.5349,140.778,112.643,114.526,0.000291222,0.0509335,21.017,-329.666,-0.147423,0.0,0.0
1581,395,21.2671,22.7662,136.964,112.591,113.863,-0.000216816,0.0511153,21.017,-329.656,-0.099931,0.0,0.0
1612,402.75,22.0257,22.5955,140.552,112.522,113.808,0.000262005,0.0512572,21.0151,-329.656,-0.101049,0.0,0.0
1643,410.5,21.5841,22.0889,138.594,112.419,113.61,0.000330301,0.0508984,21.0147,-329.676,-0.0937316,0.0,0.0
1674,418.25,21.7161,22.7527,140.519,112.29,113.686,0.00036553,0.0509695,21.014,-329.666,-0.109846,0.0,0.0
1705,426,21.7302,22.4047,139.809,112.153,113.073,0.000225835,0.0510921,21.014,-329.666,-0.072662,0.0,0.0
1736,433.75,21.6095,22.5704,135.308,112.197,113.402,0.000168365,0.0509585,21.0142,-329.656,-0.0949257,0.0,0.0
1767,441.5,21.9234,22.2932,138.527,112.24,114.089,0.000511814,0.0508676,21.0149,-329.656,-0.145301,0.0,0.0
1798,449.25,21.9319,22.6275,137.888,112.295,113.5,0.000343431,0.0509112,21.015,-329.656,-0.0949294,0.0,0.0
1829,457,21.5666,22.4412,140.855,112.373,113.623,0.000518513,0.0508446,21.014,-329.666,-0.0983493,0.0,0.0
1860,464.75,21.6461,22.3555,138.945,112.48,113.604,0.000249199,0.0509126,21.014,-329.666,-0.088409,0.0,0.0
1891,472.5,22.2182,22.4122,137.586,112.553,114.16,0.000134638,0.0508434,21.0136,-329.686,-0.126053,0.0,0.0
1922,480.25,21.8617,22.6831,142.178,112.661,113.822,7.90969e-05,0.050664,21.0134,-329.686,-0.0911698,0.0,0.0
1953,488,22.1136,22.1864,134.885,112.77,113.933,2.19834e-06,0.0505187,21.0134,-329.676,-0.0912314,0.0,0.0
1984,495.75,22.1441,22.626,139.28,112.886,114.313,-2.47855e-05,0.0505146,21.0143,-329.676,-0.111742,0.0,0.0
2015,503.5,22.5279,22.6021,140.625,112.961,114.538,-0.000282656,0.0507046,21.015,-329.676,-0.123311,0.0,0.0
2046,511.25,21.6124,22.5885,139.829,113.024,114.235,-0.00040366,0.0507949,21.0162,-329.686,-0.0948389,0.0,0.0
2077,519,21.7421,22.5969,141.522,113.059,114.619,4.84232e-05,0.0505404,21.0165,-329.676,-0.121835,0.0,0.0
2108,526.75,22.0207,22.639,134.989,113.084,114.114,4.86362e-05,0.0505072,21.0135,-329.676,-0.0806743,0.0,0.0
2139,534.5,21.6797,22.4421,140.873,113.107,114.483,5.61165e-05,0.0506596,21.0141,-329.666,-0.107557,0.0,0.0
2170,542.25,21.8801,22.8272,138.663,113.123,114.431,8.4882e-05,0.0505727,21.0139,-329.666,-0.102207,0.0,0.0
2201,550,22.3161,22.61,140.805,113.147,114.845,-1.20652e-05,0.0505337,21.015,-329.666,-0.132451,0.0,0.0
2232,557.75,21.8852,22.5915,141.074,113.152,114.417,0.000177004,0.0506895,21.015,-329.666,-0.0988236,0.0,0.0
2263,565.5,21.4366,22.1855,140.296,113.166,114.417,0.000111688,0.050599,21.0137,-329.666,-0.0977587,0.0,0.0
2294,573.25,21.4795,22.4299,142.469,113.15,114.624,-0.000345917,0.0506528,21.0153,-329.696,-0.115099,0.0,0.0
2325,581,21.9027,22.7953,138.662,113.158,114.678,-9.34009e-06,0.0510964,21.0157,-329.686,-0.11864,0.0,0.0
2356,588.75,21.7407,22.547,137.602,113.171,114.8,7.84068e-05,0.0519745,21.0132,-329.696,-0.127056,0.0,0.0
2387,596.5,21.7037,22.5767,139.208,113.166,114.435,0.000102244,0.0522622,21.012,-329.676,-0.0992122,0.0,0.0
2418,604.25,20.9952,22.1199,139.026,113.158,114.167,7.28548e-05,0.0509447,21.0123,-329.686,-0.078981,0.0,0.0
2449,612,21.7076,21.844,136.795,113.164,114.577,-1.84529e-06,0.0507944,21.0123,-329.686,-0.110331,0.0,0.0
2480,619.75,21.2617,22.1484,138.797,113.181,114.613,-7.72241e-05,0.0506509,21.0143,-329.686,-0.111777,0.0,0.0
2511,627.5,21.2732,21.8856,140.451,113.159,114.604,0.00018307,0.0509647,21.0147,-329.686,-0.112813,0.0,0.0
2542,635.25,21.2147,21.8528,138.864,113.151,114.399,-0.000106673,0.0512741,21.0145,-329.686,-0.0975486,0.0,0.0
2573,643,21.6729,22.2593,139.494,113.145,114.652,0.00028496,0.0516874,21.0133,-329.686,-0.117699,0.0,0.0
2604,650.75,21.4144,22.1479,138.752,113.136,114.748,-0.000416445,0.0513115,21.013,-329.686,-0.125823,0.0,0.0
2635,658.5,21.4629,21.8131,137.236,113.09,114.695,-0.000104375,0.0511122,21.013,-329.686,-0.125362,0.0,0.0
2666,666.25,20.9826,22.2467,138.953,113.001,114.435,2.03452e-05,0.0508924,21.013,-329.686,-0.112117,0.0,0.0
2697,674,20.9835,21.8809,138.92,112.872,114.452,3.48283e-06,0.0505034,21.014,-329.686,-0.1236,0.0,0.0
2728,681.75,21.6905,21.836,138.431,112.721,114.272,-0.00019097,0.050463,21.0145,-329.706,-0.121512,0.0,0.0
2759,689.5,21.0881,22.084,139.625,112.547,113.885,-0.000306771,0.0505034,21.0164,-329.696,-0.105152,0.0,0.0
2790,697.25,20.8486,22.1022,138.032,112.423,113.555,-0.00023397,0.0505096,21.0168,-329.686,-0.0891082,0.0,0.0
2821,705,21.3223,22.374,136.94,112.31,113.595,2.21978e-05,0.0506199,21.0154,-329.696,-0.101147,0.0,0.0
2852,712.75,20.9026,21.7228,137.863,112.187,113.595,,0.0504939,,-329.706,-0.110923,0.0,0.0
2883,720.5,21.5856,21.8766,138.265,112.011,113.242,,,,-329.696,-0.0972265,0.0,0.0
2885,721,21.473,22.2216,142.125,111.994,113.533,,,,-329.696,-0.121353,0.0,0.0