File: 01_Data/R13_Fiberglass_Insulation/Cone/R13_Fiberglass_Insulation_Cone_HF50Scan_220429_R2.csv
Names,Time,Stack TC,Smoke TC,Exh Press,Smoke Comp,Smoke Meas,CO Meter,CO2 Meter,O2 Meter,Sample Mass,Ext Coeff,Start Test,Flame Verif
Chan Gain,,500,500,1,1,1,1,1,1,1,1,1.0,1.0
Offset,,0,0,0.135741,0,0,0,0,0,0,0,0.0,0.0
Gain,,1,1,25.011,14.8585,16.6522,1,1,1,1.00087,1.0138,1.0,1.0
Units,sec,C,C,Pa,%,%,%,%,%,g,/m,,
Baseline,,39.032,40.1766,135.793,114.055,120.618,0.000501723,0.0486239,21.0083,-4.64674,-0.497477,,
34,8.25,36.2745,38.5484,137.322,113.803,120.753,0.00139491,0.0553861,21.0026,492.667,-0.52718,0.0,0.0
68,16.75,37.3465,38.6125,137.48,113.732,121.068,0.00170531,0.05755,21.0012,492.567,-0.555884,0.0,0.0
102,25.25,37.4476,38.7403,135.678,113.696,121.351,0.00131663,0.0547017,21.0024,492.537,-0.579415,0.0,0.0
136,33.75,38.0393,39.2505,140.64,113.635,122.331,0.00122317,0.0525981,21.005,492.467,-0.655757,0.0,0.0
170,42.25,37.7313,39.437,134.369,113.579,120.376,0.00110923,0.0512338,21.0081,492.437,-0.516926,0.0,0.0
204,50.75,38.303,38.8122,134.772,113.514,121.054,0.00107788,0.0506912,21.0088,492.477,-0.571946,0.0,0.0
238,59.25,38.4403,38.885,136.621,113.42,119.944,0.00105338,0.0505383,21.0099,492.407,-0.49739,0.0,0.0
272,67.75,38.5846,39.4319,131.093,113.366,119.879,0.000798919,0.0508056,21.01,492.457,-0.496764,0.0,0.0
306,76.25,38.887,39.734,134.571,113.302,121.328,0.000651248,0.0498192,21.0093,492.407,-0.608652,0.0,0.0
340,84.75,37.9946,39.2253,128.56,113.226,119.542,0.000642528,0.0490292,21.0095,492.417,-0.482731,0.0,0.0
374,93.25,38.5761,39.3603,137.797,113.3,120.029,0.000715766,0.0488941,21.01,492.387,-0.513108,0.0,0.0
408,101.75,38.4791,39.9215,136.216,113.472,120.476,0.00061766,0.0488492,21.0127,492.367,-0.532665,0.0,0.0
442,110.25,38.2112,39.7224,134.927,113.572,120.876,0.000441722,0.0487093,21.0123,492.367,-0.554324,0.0,0.0
476,118.75,38.3159,39.8899,135.907,113.639,120.053,0.000442151,0.0484158,21.0121,492.377,-0.48826,0.0,0.0
510,127.25,38.2921,39.5208,131.16,113.657,119.839,0.000403924,0.0481299,21.0121,492.357,-0.47105,0.0,0.0
544,135.75,38.6222,39.7728,134.272,113.655,120.819,0.000394319,0.0479651,21.0121,492.347,-0.54364,0.0,0.0
578,144.25,38.4176,39.6042,136.257,113.63,121.073,0.000471457,0.0477775,21.0148,492.377,-0.564201,0.0,0.0
612,152.75,38.2626,39.373,136.223,113.557,120.606,0.000397844,0.0475025,21.0151,492.347,-0.535511,0.0,0.0
646,161.25,38.2307,39.461,137.415,113.474,120.278,0.00031179,0.0471942,21.0136,492.357,-0.517847,0.0,0.0
680,169.75,38.3565,40.1922,134.841,113.371,120.537,0.000444668,0.0473277,21.0147,492.337,-0.545058,0.0,0.0
714,178.25,38.6676,39.8017,135.258,113.287,119.825,0.000513643,0.0474096,21.0147,492.337,-0.498993,0.0,0.0
748,186.75,38.7288,40.0691,133.369,113.156,119.67,0.00036858,0.0472089,21.0142,492.337,-0.497739,0.0,0.0
782,195.25,38.5467,39.7916,132.045,112.938,120.038,0.000195366,0.0473779,21.0138,492.347,-0.542197,0.0,0.0
816,203.75,38.7214,40.1694,131.784,112.958,119.68,0.000295856,0.0472893,21.0131,492.377,-0.514007,0.0,0.0
850,212.25,39.1827,40.2835,134.209,113.08,119.832,0.000176863,0.0470484,21.0151,492.327,-0.515729,0.0,0.0
884,220.75,38.6854,40.3876,135.922,113.188,120.418,0.0005649,0.0471296,21.0166,492.347,-0.550625,0.0,0.0
918,229.25,38.3537,40.3479,136.181,113.306,120.302,0.00027975,0.0470965,21.0157,492.327,-0.532769,0.0,0.0
952,237.75,38.6397,40.3046,136.189,113.41,121.271,0.000294241,0.0471661,21.0143,492.327,-0.59601,0.0,0.0
986,246.25,38.8658,40.0118,133.587,113.527,121.054,0.000531891,0.0472026,21.012,492.337,-0.570916,0.0,0.0
1020,254.75,39.0732,40.0573,137.069,113.617,120.759,0.000384971,0.0472844,21.0123,492.317,-0.542134,0.0,0.0
1054,263.25,39.0852,40.6314,133.988,113.658,120.62,0.000427702,0.0470816,21.013,492.327,-0.52868,0.0,0.0
1088,271.75,38.7515,40.0456,135.873,113.697,119.801,0.000389824,0.0470913,21.0141,492.317,-0.465061,0.0,0.0
1122,280.25,38.9743,40.2532,135.049,113.706,120.219,0.000505516,0.0468464,21.0146,492.327,-0.495382,0.0,0.0
1156,288.75,38.6797,40.0634,132.608,113.731,119.847,0.000154329,0.0466821,21.0132,492.347,-0.465871,0.0,0.0
1190,297.25,38.9694,40.6866,132.558,113.748,120.439,0.00019437,0.0468669,21.0122,492.327,-0.508274,0.0,0.0
1224,305.75,39.346,40.5306,135.007,113.758,119.517,0.000205554,0.0469199,21.013,492.337,-0.4392,0.0,0.0
1258,314.25,38.4473,40.3897,138.031,113.775,120.282,0.000249635,0.0469125,21.0131,492.367,-0.49458,0.0,0.0
1292,322.75,39.3564,40.6696,134.04,113.783,121.24,5.18247e-05,0.0469001,21.0117,492.327,-0.564486,0.0,0.0
1326,331.25,38.7949,40.5738,135.701,113.779,120.685,0.000440656,0.0471163,21.0117,492.307,-0.524042,0.0,0.0
1360,339.75,39.123,40.4276,132.106,113.776,121.078,0.000235712,0.0472496,21.0122,492.327,-0.553119,0.0,0.0
1394,348.25,38.953,40.1231,134.146,113.741,120.659,0.000303473,0.0473539,21.0124,492.357,-0.525039,0.0,0.0
1428,356.75,38.8183,40.364,135.515,113.692,120.887,0.000244044,0.0473645,21.0143,492.347,-0.545668,0.0,0.0
1462,365.25,39.3015,40.3278,132.976,113.631,120.017,0.000113327,0.0473438,21.0136,492.317,-0.486188,0.0,0.0
1496,373.75,39.1448,40.6662,134.093,113.54,121.359,0.000173644,0.0474243,21.0139,492.307,-0.59222,0.0,0.0
1530,382.25,38.5781,40.5654,132.468,113.442,119.455,5.14681e-05,0.0473451,21.0131,492.307,-0.459254,0.0,0.0
1564,390.75,39.6568,40.2163,136.41,113.312,120.195,0.000155413,0.0471556,21.013,492.337,-0.524487,0.0,0.0
1598,399.25,39.1508,40.0845,134.585,113.176,119.749,0.000227488,0.0472878,21.0135,492.317,-0.502061,0.0,0.0
1632,407.75,39.0733,40.408,133.746,113.075,119.728,0.000352918,0.0472773,21.0129,492.327,-0.508462,0.0,0.0
1666,416.25,38.9621,40.1593,134.61,112.927,120.06,0.000162899,0.0470991,21.0129,492.347,-0.544708,0.0,0.0
1700,424.75,38.781,40.5585,136.628,112.806,120.151,0.000320188,0.0469949,21.0121,492.317,-0.560947,0.0,0.0
1734,433.25,38.4241,40.1079,134.494,112.724,120.376,0.000434251,0.0468222,21.0125,492.337,-0.584068,0.0,0.0
1768,441.75,39.4906,39.8423,133.162,112.641,119.247,0.000462003,0.0468245,21.0138,492.347,-0.506874,0.0,0.0
1802,450.25,38.8838,40.3262,137.119,112.597,118.202,0.000312472,0.0471918,21.0142,492.317,-0.432086,0.0,0.0
1836,458.75,39.2812,40.3375,133.885,112.558,120.134,0.000548762,0.047209,21.0156,492.347,-0.579318,0.0,0.0
1870,467.25,38.6264,40.3713,135.703,112.567,119.524,-0.000137417,0.0475293,21.0147,492.317,-0.533342,0.0,0.0
1904,475.75,39.045,40.3213,134.539,112.575,119.414,0.000167896,0.04762,21.015,492.307,-0.524489,0.0,0.0
1938,484.25,39.2295,40.5775,136.099,112.562,119.123,0.000445479,0.0473098,21.015,492.337,-0.503818,0.0,0.0
1972,492.75,38.8644,40.2562,137.76,112.555,117.829,4.79541e-05,0.0473215,21.014,492.317,-0.407199,0.0,0.0
2006,501.25,39.4222,40.408,136.336,112.541,119.415,-4.61501e-05,0.0471024,21.0138,492.337,-0.52729,0.0,0.0
2040,509.75,38.8269,40.3157,135.239,112.526,119.384,0.000146478,0.0469428,21.0159,492.337,-0.526125,0.0,0.0
2074,518.25,38.7891,40.4128,133.496,112.531,119.238,0.000559484,0.0465465,21.0154,492.377,-0.514859,0.0,0.0
2108,526.75,38.877,40.321,131.892,112.483,120.165,0.000625207,0.0469337,21.0154,492.317,-0.587562,0.0,0.0
2142,535.25,38.6874,40.61,136.413,112.481,119.55,0.000355149,0.0468643,21.0149,492.327,-0.54197,0.0,0.0
2176,543.75,38.9769,40.0933,132.982,112.47,119.688,0.00015943,0.0468443,21.0138,492.347,-0.553145,0.0,0.0
2210,552.25,39.251,40.1308,134.259,112.457,120.299,0.000357041,0.0470762,21.013,492.337,-0.599418,0.0,0.0
2244,560.75,38.6023,40.3321,130.78,112.454,119.009,0.00021585,0.0472124,21.0143,492.347,-0.503808,0.0,0.0
2278,569.25,39.3779,40.7569,134.523,112.424,118.491,0.000753732,0.0468141,21.0147,492.317,-0.467469,0.0,0.0
2312,577.75,38.919,40.2657,133.019,112.428,119.712,0.000416176,0.0470676,21.0161,492.327,-0.55829,0.0,0.0
2346,586.25,38.9023,40.1489,133.008,112.431,120.528,0.000315202,0.0470525,21.0145,492.307,-0.618425,0.0,0.0
2380,594.75,39.3706,39.7626,134.559,112.434,118.828,0.000474555,0.0470814,21.0152,492.317,-0.491895,0.0,0.0
2414,603.25,38.8053,40.3047,137.576,112.445,119.112,0.000262444,0.0468223,21.0153,492.327,-0.512305,0.0,0.0
2448,611.75,39.1334,40.1823,136.8,112.441,118.516,0.000440665,0.0470193,21.014,492.317,-0.4679,0.0,0.0
2482,620.25,38.8101,40.163,138.659,112.47,119.348,0.000494804,0.0469646,21.0136,492.327,-0.527885,0.0,0.0
2516,628.75,38.5697,40.0306,137.822,112.48,119.009,0.000134116,0.0471869,21.0144,492.327,-0.501764,0.0,0.0
2550,637.25,39.0054,40.2832,134.124,112.509,118.676,0.000538185,0.0471226,21.0136,492.307,-0.474636,0.0,0.0
2584,645.75,38.4314,40.4593,131.915,112.555,118.835,0.000366552,0.047049,21.0135,492.327,-0.48278,0.0,0.0
2618,654.25,38.7196,40.6213,135.226,112.611,119.15,5.66186e-05,0.046987,21.0147,492.337,-0.501996,0.0,0.0
2652,662.75,38.3231,40.0339,134.778,112.663,119.201,0.000205606,0.0472106,21.0152,492.297,-0.501671,0.0,0.0
2686,671.25,37.3504,38.0089,131.622,112.717,118.533,0.000133176,0.0474344,21.0144,492.367,-0.447419,0.0,0.0
2720,679.75,36.5026,38.444,134.786,112.782,119.372,0.000362735,0.047828,21.0138,492.337,-0.504957,0.0,0.0
2754,688.25,36.9119,38.7616,132.826,112.919,120.391,0.00063346,0.0478757,21.0142,492.347,-0.56975,0.0,0.0
2788,696.75,37.3427,38.649,133.14,113.059,120.059,0.00019347,0.047424,21.0134,492.347,-0.534249,0.0,0.0
2822,705.25,36.7422,38.5083,132.36,113.201,120.269,0.000157795,0.0474374,21.0143,492.347,-0.538661,0.0,0.0
2856,713.75,37.0291,39.1611,134.111,113.303,119.862,0.000421144,0.0473852,21.0136,492.337,-0.500499,0.0,0.0
2890,722.25,36.7613,38.191,133.785,113.338,120.791,0.000241639,0.0473919,21.0124,492.337,-0.566382,0.0,0.0
2924,730.75,37.0519,38.2284,134.556,113.387,120.066,0.000116469,0.0474805,21.0141,492.317,-0.508953,0.0,0.0
2958,739.25,36.781,38.1776,138.106,113.386,120.435,0.000200039,0.0474345,21.0125,492.347,-0.536309,0.0,0.0
2992,747.75,37.1624,37.9542,133.279,113.36,119.031,-4.09901e-06,0.0475193,21.0121,492.327,-0.434117,0.0,0.0
3026,756.25,36.9609,38.1928,133.77,113.319,119.963,0.000153172,0.0472844,21.0113,492.327,-0.506681,0.0,0.0
3060,764.75,36.8239,38.2518,138.64,113.27,120.468,0.000157884,0.0473259,21.0138,492.327,-0.547857,0.0,0.0
3094,773.25,36.4346,38.2954,136.112,113.23,118.84,0.000265766,0.0468553,21.0133,492.327,-0.430084,0.0,0.0
3128,781.75,36.6835,38.2418,134.778,113.203,120.191,,,,492.347,-0.532696,0.0,0.0
3151,787.5,36.8993,37.8424,136.057,113.195,119.076,,,,492.357,-0.450492,0.0,0.0