File: 01_Data/R13_Fiberglass_Insulation/Cone/R13_Fiberglass_Insulation_Cone_HF75Scalar_220429_R3.csv
LABORATORY,FSRI
TEST IDENT,R13Insulation_HF75_3
OPERATOR,Dow
MATERIAL,R13 Fiberglass Insulation (pink)
ORIENTATION,Horizontal
HEAT FLUX,75
SURF AREA,0.01
C FACTOR,0.0414268
SPEC HOLDER DIFF,-566
SPECIMEN MASS,5.49
SCAN TIME,0.25
O2 DELAY TIME,11
CO DELAY TIME,11
CO2 DELAY TIME,8
FLOW FACTOR,1
SCAN COUNT,2887
TIME TO IGN,0
END OF TEST SCAN,2407
END OF TEST TIME,601.75
TEST STATUS,1
PRE TEST CMT,Dimensions: 99.4 x 99.4 x 23.1 mm
POST TEST CMT,Sample gradually shrivelled throughout the test (see post test pictures). No ignition. Test ended after 10 minutes. No mass loss after 10 minutes in replicate R1.