File: 01_Data/R13_Fiberglass_Insulation/Cone/R13_Fiberglass_Insulation_Cone_HF50Scan_220429_R3.csv
Names,Time,Stack TC,Smoke TC,Exh Press,Smoke Comp,Smoke Meas,CO Meter,CO2 Meter,O2 Meter,Sample Mass,Ext Coeff,Start Test,Flame Verif
Chan Gain,,500,500,1,1,1,1,1,1,1,1,1.0,1.0
Offset,,0,0,0.13436,0,0,0,0,0,0,0,0.0,0.0
Gain,,1,1,25.011,14.4414,16.1819,1,1,1,1.0009,1.01483,1.0,1.0
Units,sec,C,C,Pa,%,%,%,%,%,g,/m,,
Baseline,,27.5431,28.4792,138.199,108.808,109.882,0.000978093,0.0585141,21.0085,-494.982,-0.0874248,,
31,7.5,27.0429,27.7182,140.16,108.774,111.036,0.00236359,0.0680415,20.9994,6.81612,-0.183191,0.0,0.0
62,15.25,27.5071,28.0209,137.313,108.801,110.348,0.00253379,0.0670336,20.9999,6.71603,-0.125629,0.0,0.0
93,23,28.5234,28.9329,138.352,108.821,110.012,0.00171147,0.0630926,21.0045,6.65597,-0.0968751,0.0,0.0
124,30.75,27.8185,29.1663,138.014,108.854,110.489,0.00164449,0.0619076,21.0075,6.63596,-0.132765,0.0,0.0
155,38.5,28.3338,29.3635,139.178,108.898,110.393,0.0012679,0.0613446,21.0083,6.59592,-0.12136,0.0,0.0
186,46.25,28.9757,29.6844,136.927,108.974,110.48,0.00112497,0.0614525,21.0064,6.59592,-0.122212,0.0,0.0
217,54,29.195,29.8073,134.673,109.031,111.176,0.00108936,0.0629354,21.0048,6.58591,-0.173386,0.0,0.0
248,61.75,29.2238,29.7639,138.733,109.108,110.476,0.000814059,0.0625166,21.0055,6.55588,-0.110884,0.0,0.0
279,69.5,29.3432,30.2592,135.099,109.193,110.789,0.00086129,0.0605193,21.0084,6.55588,-0.129211,0.0,0.0
310,77.25,29.5889,30.2416,137.906,109.276,110.459,0.000860186,0.0593387,21.0139,6.52586,-0.0958007,0.0,0.0
341,85,29.7522,30.7113,138.858,109.345,110.863,0.000928141,0.0584269,21.0131,6.51585,-0.122698,0.0,0.0
372,92.75,29.6953,30.5447,133.961,109.379,110.705,0.000731319,0.0583485,21.013,6.49583,-0.107238,0.0,0.0
403,100.5,29.9553,30.9849,135.566,109.424,111.111,0.00104836,0.0581774,21.0137,6.49583,-0.136237,0.0,0.0
434,108.25,30.1322,30.6854,133.854,109.448,111.031,0.00100505,0.058308,21.0145,6.49583,-0.127814,0.0,0.0
465,116,29.9121,31.5877,139.62,109.478,110.606,0.00112133,0.0580023,21.0137,6.47581,-0.091265,0.0,0.0
496,123.75,30.4784,31.1832,140.833,109.473,111.132,0.000819085,0.0579349,21.0136,6.47581,-0.133924,0.0,0.0
527,131.5,30.0428,31.2977,137.545,109.463,110.596,0.000714895,0.0577907,21.0142,6.4658,-0.0916445,0.0,0.0
558,139.25,30.2774,31.496,132.762,109.453,111,0.000793615,0.0578702,21.0137,6.47581,-0.124968,0.0,0.0
589,147,30.317,31.4797,135.232,109.423,110.689,0.000606199,0.0580251,21.014,6.45579,-0.102456,0.0,0.0
620,154.75,30.7191,31.5213,137,109.374,110.817,0.000467515,0.0576578,21.0136,6.4658,-0.116717,0.0,0.0
651,162.5,30.7798,31.8927,136.777,109.303,110.166,0.000818828,0.0580808,21.0129,6.44579,-0.0700154,0.0,0.0
682,170.25,30.6297,31.3223,132.948,109.246,110.87,0.00109277,0.0581451,21.0129,6.45579,-0.131366,0.0,0.0
713,178,30.6854,31.7924,137.723,109.135,110.384,0.000800641,0.0579616,21.0133,6.44579,-0.101322,0.0,0.0
744,185.75,30.707,31.7119,137.961,109.015,110.428,0.000817261,0.0578621,21.0137,6.43578,-0.114573,0.0,0.0
775,193.5,30.675,31.8811,136.73,108.896,109.894,0.00063763,0.0578043,21.0151,6.44579,-0.0811926,0.0,0.0
806,201.25,31.0567,32.1438,134.165,108.74,109.814,0.000772296,0.0576453,21.0148,6.44579,-0.0875127,0.0,0.0
837,209,30.5712,31.6183,137.959,108.578,109.852,0.000979053,0.0578311,21.0125,6.45579,-0.103846,0.0,0.0
868,216.75,30.829,32.6891,136.626,108.36,109.67,0.000748318,0.0591218,21.0106,6.43578,-0.10693,0.0,0.0
899,224.5,30.8613,31.6649,139.07,108.116,109.687,0.000663557,0.0587977,21.0128,6.43578,-0.12849,0.0,0.0
930,232.25,30.2848,32.4116,135.285,107.879,109.596,0.000793538,0.0577447,21.0146,6.42577,-0.14054,0.0,0.0
961,240,31.0689,32.1816,140.118,107.721,109.383,0.000802523,0.056925,21.0167,6.41576,-0.1363,0.0,0.0
992,247.75,30.477,32.2749,135.635,107.62,109.002,0.0009138,0.0571007,21.0154,6.40575,-0.113604,0.0,0.0
1023,255.5,30.7194,32.0186,133.708,107.526,108.945,0.000776682,0.0571396,21.0141,6.39574,-0.116734,0.0,0.0
1054,263.25,31.3763,32.3341,136.568,107.453,108.92,0.00078266,0.0577521,21.0145,6.39574,-0.120774,0.0,0.0
1085,271,31.1239,32.1945,138.677,107.398,108.707,0.000747171,0.0584092,21.0105,6.39574,-0.107773,0.0,0.0
1116,278.75,31.4507,32.4625,131.684,107.395,109.108,0.000617437,0.0579738,21.0125,6.38573,-0.140846,0.0,0.0
1147,286.5,31.1162,31.5233,134.435,107.402,108.807,0.000398194,0.057803,21.0165,6.39574,-0.11569,0.0,0.0
1178,294.25,30.775,32.4701,135.605,107.442,109.234,0.000863942,0.0577839,21.0155,6.38573,-0.147203,0.0,0.0
1209,302,31.1233,32.7521,133.241,107.489,109.271,0.000675069,0.0576643,21.0151,6.36571,-0.146391,0.0,0.0
1240,309.75,31.4801,32.1782,133.999,107.556,109.063,0.000709637,0.0578043,21.0137,6.37572,-0.123851,0.0,0.0
1271,317.5,30.8603,32.6935,135.978,107.649,109.188,0.000613175,0.0576421,21.0144,6.38573,-0.12639,0.0,0.0
1302,325.25,31.7193,32.6363,135.095,107.746,109.176,0.000672596,0.0578033,21.0137,6.37572,-0.117373,0.0,0.0
1333,333,31.4202,33.104,134.319,107.821,109.175,0.000671148,0.0572907,21.0144,6.39574,-0.111105,0.0,0.0
1364,340.75,31.8623,33.1182,135.285,107.882,109.145,0.000752422,0.0572476,21.0148,6.38573,-0.103588,0.0,0.0
1395,348.5,31.493,33.0282,134.774,107.945,109.533,0.000904579,0.057745,21.014,6.37572,-0.130067,0.0,0.0
1426,356.25,32.058,32.5082,136.503,108.025,109.39,0.000638304,0.0578135,21.0133,6.36571,-0.111768,0.0,0.0
1457,364,31.3781,33.0755,135.888,108.103,109.127,0.0004797,0.0574752,21.0133,6.38573,-0.083941,0.0,0.0
1488,371.75,31.7437,33.3131,139.659,108.164,109.203,0.000436849,0.057534,21.0144,6.3557,-0.0851719,0.0,0.0
1519,379.5,31.7324,33.1788,138.738,108.233,109.982,0.000576848,0.0576111,21.0136,6.36571,-0.142661,0.0,0.0
1550,387.25,31.9165,32.9878,139.068,108.32,110.117,0.000541872,0.0575311,21.0144,6.36571,-0.146465,0.0,0.0
1581,395,31.7837,33.0261,132.752,108.403,110.504,0.000623125,0.0577326,21.0144,6.3557,-0.170831,0.0,0.0
1612,402.75,31.6231,32.7518,134.782,108.462,110.064,0.000839211,0.0579409,21.0136,6.3457,-0.130464,0.0,0.0
1643,410.5,31.721,33.3205,133.466,108.549,110.392,0.000896932,0.0575999,21.0143,6.3457,-0.149823,0.0,0.0
1674,418.25,31.9066,33.4323,135.991,108.607,109.885,0.000898142,0.0575248,21.0169,6.3557,-0.104138,0.0,0.0
1705,426,31.9311,32.9799,138.961,108.671,110.181,0.000792734,0.0576815,21.0174,6.3457,-0.122874,0.0,0.0
1736,433.75,32.1864,32.7266,135.589,108.71,110.624,0.00033229,0.0573939,21.0198,6.33569,-0.155302,0.0,0.0
1767,441.5,31.8937,32.8061,136.236,108.743,109.963,0.000641998,0.0573002,21.0182,6.3457,-0.0993778,0.0,0.0
1798,449.25,32.1357,32.8874,136.815,108.785,110.257,0.00085576,0.0570674,21.0154,6.3457,-0.119594,0.0,0.0
1829,457,31.7186,33.318,136.978,108.816,110.197,0.00101832,0.0570373,21.0167,6.33569,-0.112204,0.0,0.0
1860,464.75,31.718,33.3308,135.444,108.829,110.35,0.000545267,0.0569757,21.0153,6.32568,-0.123556,0.0,0.0
1891,472.5,32.2569,32.8526,135.988,108.824,110.215,0.000446324,0.0572964,21.0146,6.3457,-0.113067,0.0,0.0
1922,480.25,32.2567,33.7055,129.721,108.785,110.596,0.000542636,0.0576126,21.0127,6.3457,-0.146904,0.0,0.0
1953,488,32.1111,33.2122,137.626,108.726,110.09,0.000567979,0.058172,21.0123,6.32568,-0.110941,0.0,0.0
1984,495.75,32.2221,33.4101,136.685,108.65,110.153,0.000698715,0.0581046,21.0137,6.33569,-0.122255,0.0,0.0
2015,503.5,32.2518,33.2733,133.161,108.545,109.842,0.000718233,0.0574107,21.0151,6.3457,-0.105792,0.0,0.0
2046,511.25,32.6108,33.1898,136.333,108.487,109.915,0.00081071,0.0571536,21.0172,6.33569,-0.116372,0.0,0.0
2077,519,32.4715,33.3565,133.847,108.441,109.676,0.000721942,0.0574413,21.0182,6.32568,-0.100828,0.0,0.0
2108,526.75,32.0636,33.0447,137.812,108.398,109.813,0.000663501,0.0575186,21.0168,6.32568,-0.11551,0.0,0.0
2139,534.5,31.977,33.4471,134.937,108.367,109.967,0.000538413,0.057306,21.0165,6.31567,-0.13049,0.0,0.0
2170,542.25,32.1091,33.2868,136.357,108.294,109.764,0.000493983,0.0571491,21.0168,6.31567,-0.11998,0.0,0.0
2201,550,32.7017,33.1051,134.417,108.246,109.956,0.000458121,0.0571581,21.0174,6.30566,-0.139455,0.0,0.0
2232,557.75,32.7225,33.2385,136.059,108.272,109.995,0.000641972,0.057291,21.0167,6.32568,-0.140551,0.0,0.0
2263,565.5,32.4567,33.3132,136.593,108.424,110.077,0.000392057,0.0574575,21.0172,6.31567,-0.134731,0.0,0.0
2294,573.25,32.2431,33.65,139.634,108.571,110.144,0.000520556,0.0576001,21.0172,6.33569,-0.128039,0.0,0.0
2325,581,32.0932,33.1629,135.785,108.679,110.471,0.000569439,0.0579319,21.0157,6.30566,-0.145573,0.0,0.0
2356,588.75,32.554,33.4988,136.863,108.789,110.879,0.000665173,0.0575995,21.0143,6.31567,-0.169366,0.0,0.0
2387,596.5,32.2215,33.417,139.451,108.908,110.674,0.00063104,0.0577221,21.0147,6.31567,-0.143126,0.0,0.0
2418,604.25,32.1787,32.8687,138.434,108.995,110.55,0.000599246,0.0573477,21.0154,6.31567,-0.126056,0.0,0.0
2449,612,31.6162,33.7593,135.077,109.09,110.419,0.000603933,0.0575725,21.0159,6.30566,-0.107817,0.0,0.0
2480,619.75,31.7174,33.3658,137.912,109.148,110.765,0.000418212,0.0571169,21.0159,6.31567,-0.130936,0.0,0.0
2511,627.5,31.8005,33.3828,137.752,109.186,110.836,0.000639913,0.0568689,21.0159,6.29565,-0.133482,0.0,0.0
2542,635.25,32.0733,33.2175,134.805,109.21,110.853,0.000878052,0.0573231,21.0139,6.31567,-0.132967,0.0,0.0
2573,643,32.2822,33.2644,135.963,109.235,110.633,0.0007186,0.0573226,21.0128,6.28564,-0.113251,0.0,0.0
2604,650.75,31.7421,33.5388,135.136,109.221,110.739,0.000750483,0.0578582,21.0118,6.30566,-0.122904,0.0,0.0
2635,658.5,31.6606,33.4859,137.511,109.197,111.341,0.0010767,0.0579574,21.0132,6.30566,-0.173064,0.0,0.0
2666,666.25,32.0175,33.3762,134.259,109.164,110.826,0.000761397,0.0578058,21.0159,6.30566,-0.134447,0.0,0.0
2697,674,32.2816,33.0674,136.118,109.126,110.242,0.000480021,0.0573661,21.0171,6.29565,-0.0906394,0.0,0.0
2728,681.75,32.009,33.4067,137.314,109.093,110.923,0.000525795,0.0568452,21.0165,6.29565,-0.148082,0.0,0.0
2759,689.5,32.0696,33.4807,131.575,109.103,110.898,0.000657203,0.0571426,21.0169,6.29565,-0.145309,0.0,0.0
2790,697.25,31.8788,33.2451,141.52,109.086,110.185,0.000376648,0.0571603,21.015,6.29565,-0.0891729,0.0,0.0
2821,705,31.6842,33.5499,136.479,109.076,110.325,0.000243006,0.0573583,21.0175,6.28564,-0.101364,0.0,0.0
2852,712.75,32.2363,32.9473,140.292,109.028,110.114,,0.0572065,,6.30566,-0.0882104,0.0,0.0
2883,720.5,32.0343,32.9403,136.698,108.98,110.074,,,,6.27563,-0.0888626,0.0,0.0
2886,721.25,32.4004,33.48,133.395,108.999,110.58,,,,6.28564,-0.128233,0.0,0.0