File: 01_Data/Polyester_Batting/MCC/Polyester_Batting_MCC_30K_min_210308_R2.txt
Sample ID:	C:\MCC\MCC Cal\Test\Polyester_Batting_30_2.txt
Sample Weight (mg):	3.76
Heating Rate (C/s):	0.5
Combustor Temp (C):	900
N2 Flow Rate (cc/min):	80
O2 Flow Rate (cc/min):	20
Calibration File:	C:\MCC\MCC Cal\Coeff1 JN10440_30_210304.txt.txt
T Correction Coefficients:	0	1.024463	0
Time Shift (s):	14
*
Time (s)	Temperature (C)	N2 flow rate (cc/min)	O2 flow rate (cc/min)	Flow Rate (cc/min)	Oxygen (%)	HRR (W/g)	Heating rate (C/s)
0.000	108.118	79.992	19.990	99.687	20.088	-0.054	-0.010
7.000	108.120	79.993	19.992	99.706	20.088	-0.070	0.004
14.000	108.104	79.993	19.992	99.724	20.083	0.347	-0.015
21.000	108.172	79.993	19.994	99.728	20.080	0.578	-0.005
28.000	108.368	79.994	19.991	99.781	20.072	1.219	0.027
35.001	108.757	79.992	19.992	99.822	20.062	2.061	0.078
42.000	109.366	79.991	19.992	99.901	20.057	2.522	0.088
49.000	110.343	79.991	19.992	99.915	20.045	3.448	0.148
56.000	111.690	79.992	19.991	99.933	20.038	4.090	0.226
63.000	113.303	79.991	19.992	99.934	20.029	4.781	0.272
70.000	115.327	79.989	19.992	99.994	20.030	4.695	0.295
77.000	117.601	79.991	19.992	99.969	20.029	4.830	0.357
84.000	120.242	79.992	19.991	99.999	20.028	4.855	0.389
91.000	123.052	79.992	19.991	100.004	20.029	4.794	0.404
98.000	126.146	79.992	19.992	100.005	20.032	4.571	0.449
105.000	129.318	79.994	19.992	99.988	20.024	5.240	0.483
112.001	132.638	79.994	19.990	99.995	20.031	4.653	0.483
119.000	136.030	79.991	19.990	99.991	20.025	5.112	0.510
126.000	139.599	79.990	19.991	99.996	20.024	5.229	0.517
133.000	143.172	79.990	19.993	99.972	20.031	4.640	0.491
140.000	146.788	79.992	19.992	99.972	20.031	4.667	0.519
147.000	150.420	79.991	19.992	99.956	20.035	4.274	0.510
154.000	153.996	79.990	19.991	99.956	20.032	4.533	0.495
161.000	157.650	79.991	19.992	99.951	20.037	4.122	0.541
168.000	161.164	79.993	19.992	99.948	20.039	3.945	0.508
175.000	164.742	79.993	19.990	99.952	20.038	4.036	0.508
182.000	168.249	79.992	19.990	99.892	20.038	4.085	0.517
189.000	171.771	79.993	19.992	99.927	20.039	3.992	0.516
196.000	175.281	79.993	19.992	99.936	20.042	3.753	0.512
203.000	178.780	79.992	19.992	99.948	20.037	4.108	0.540
210.000	182.171	79.993	19.991	99.923	20.039	3.964	0.494
217.000	185.658	79.990	19.991	99.928	20.044	3.590	0.520
224.000	189.113	79.992	19.991	99.943	20.039	4.001	0.491
231.000	192.557	79.992	19.992	99.922	20.036	4.255	0.569
238.000	195.906	79.990	19.992	99.934	20.036	4.245	0.467
245.000	199.270	79.991	19.992	99.925	20.039	3.955	0.411
252.000	202.718	79.993	19.993	99.928	20.039	4.007	0.498
259.000	206.181	79.991	19.991	99.925	20.042	3.730	0.507
266.000	209.622	79.992	19.990	99.926	20.037	4.169	0.509
273.000	213.105	79.993	19.991	99.917	20.038	4.019	0.480
280.000	216.511	79.993	19.990	99.928	20.039	3.943	0.487
287.000	220.000	79.991	19.992	99.924	20.041	3.794	0.476
294.000	223.475	79.992	19.991	99.914	20.040	3.866	0.511
301.000	226.915	79.992	19.991	99.919	20.044	3.561	0.471
308.000	230.521	79.991	19.993	99.919	20.044	3.598	0.475
315.000	234.033	79.989	19.992	99.900	20.044	3.540	0.509
322.000	237.574	79.990	19.992	99.916	20.045	3.485	0.524
329.000	241.091	79.992	19.993	99.917	20.044	3.585	0.505
336.000	244.565	79.992	19.992	99.917	20.046	3.373	0.467
343.000	247.963	79.992	19.992	99.913	20.044	3.553	0.492
350.000	251.506	79.993	19.993	99.913	20.046	3.373	0.482
357.000	255.001	79.995	19.991	99.913	20.044	3.553	0.478
364.000	258.579	79.992	19.990	99.914	20.047	3.337	0.545
371.000	262.017	79.992	19.992	99.920	20.041	3.814	0.474
378.000	265.581	79.991	19.992	99.919	20.041	3.807	0.523
385.000	269.054	79.992	19.991	99.919	20.049	3.169	0.459
392.000	272.711	79.991	19.991	99.918	20.045	3.510	0.540
399.000	276.303	79.991	19.992	99.913	20.046	3.380	0.505
406.001	279.804	79.991	19.993	99.914	20.046	3.353	0.480
413.000	283.329	79.994	19.989	99.914	20.048	3.241	0.521
420.001	286.868	79.993	19.992	99.919	20.048	3.216	0.508
427.000	290.397	79.991	19.992	99.912	20.043	3.655	0.488
434.000	293.900	79.993	19.992	99.911	20.040	3.859	0.490
441.000	297.377	79.994	19.990	99.914	20.042	3.757	0.470
448.000	300.886	79.992	19.990	99.915	20.043	3.661	0.504
455.000	304.343	79.991	19.992	99.915	20.039	3.940	0.463
462.000	307.844	79.991	19.991	99.910	20.044	3.600	0.504
469.000	311.386	79.992	19.990	99.910	20.041	3.784	0.519
476.000	314.920	79.990	19.991	99.914	20.041	3.782	0.496
483.000	318.438	79.992	19.991	99.913	20.041	3.836	0.509
490.000	321.943	79.993	19.993	99.912	20.034	4.350	0.465
497.000	325.528	80.000	19.992	99.916	20.036	4.211	0.544
504.000	329.032	79.992	19.991	99.911	20.035	4.302	0.479
511.000	332.606	79.992	19.992	99.913	20.037	4.136	0.553
518.000	336.169	79.992	19.992	99.917	20.037	4.168	0.520
525.000	339.775	79.993	19.992	99.913	20.036	4.208	0.524
532.000	343.310	79.991	19.991	99.906	20.034	4.361	0.499
539.000	346.894	79.992	19.991	99.910	20.034	4.346	0.484
546.000	350.430	79.993	19.991	99.911	20.037	4.131	0.513
553.000	354.056	79.993	19.991	99.897	20.037	4.163	0.544
560.000	357.628	79.995	19.992	99.907	20.029	4.842	0.536
567.000	361.184	79.991	19.990	99.911	20.028	4.903	0.496
574.000	364.723	79.991	19.991	99.907	20.020	5.564	0.533
581.000	368.259	79.992	19.991	99.915	20.015	5.978	0.499
588.000	371.797	79.994	19.993	99.927	20.010	6.411	0.471
595.001	375.341	79.992	19.994	99.918	19.996	7.528	0.506
602.000	378.855	79.994	19.992	99.920	19.983	8.607	0.494
609.000	382.390	79.994	19.993	99.932	19.965	10.124	0.482
616.000	385.984	79.992	19.992	99.927	19.936	12.554	0.524
623.000	389.533	79.992	19.991	99.952	19.908	14.851	0.480
630.000	393.102	79.991	19.991	99.964	19.866	18.314	0.530
637.000	396.690	79.993	19.993	99.960	19.836	20.846	0.510
644.000	400.215	79.991	19.992	99.999	19.766	26.598	0.511
651.000	403.870	79.992	19.991	100.007	19.677	34.010	0.519
658.000	407.443	79.993	19.992	100.046	19.615	39.168	0.534
665.000	410.962	79.994	19.991	100.042	19.528	46.481	0.521
672.000	414.472	79.993	19.991	100.113	19.443	53.516	0.494
679.000	418.072	79.993	19.993	100.169	19.284	66.781	0.502
686.000	421.634	79.995	19.992	100.115	19.165	76.790	0.501
693.000	425.108	79.992	19.992	100.296	18.956	94.361	0.544
700.000	428.586	79.991	19.992	100.410	18.592	124.241	0.507
707.000	432.136	79.990	19.991	100.467	18.153	161.618	0.506
714.000	435.733	79.990	19.992	100.630	18.062	169.019	0.492
721.000	439.404	79.992	19.991	100.504	17.962	177.382	0.470
728.000	443.008	79.990	19.992	100.612	17.947	178.649	0.526
735.000	446.568	79.992	19.991	100.594	17.953	178.098	0.537
742.000	450.103	79.994	19.990	100.595	18.035	171.113	0.465
749.000	453.671	79.995	19.990	100.521	18.211	156.247	0.512
756.000	457.211	79.991	19.992	100.463	18.448	136.363	0.495
763.000	460.767	79.994	19.991	100.342	18.752	111.015	0.529
770.001	464.297	79.995	19.991	100.250	19.100	82.001	0.506
777.000	467.780	79.993	19.991	100.153	19.402	56.839	0.506
784.000	471.342	79.991	19.991	100.067	19.603	40.149	0.538
791.000	474.964	79.991	19.992	100.008	19.741	28.698	0.519
798.000	478.461	79.993	19.992	99.984	19.830	21.277	0.492
805.000	482.009	79.992	19.991	99.979	19.899	15.617	0.509
812.000	485.591	79.991	19.991	99.965	19.937	12.411	0.541
819.000	489.150	80.007	19.992	99.940	19.970	9.706	0.530
826.000	492.722	79.993	19.990	99.939	19.989	8.102	0.533
833.000	496.296	79.994	19.992	99.928	20.002	7.017	0.498
840.000	499.889	79.993	19.991	99.925	20.016	5.920	0.502
847.000	503.510	79.992	19.990	99.934	20.015	5.948	0.508
854.000	507.136	79.997	19.993	99.889	20.021	5.496	0.509
861.000	510.714	79.993	19.991	99.908	20.022	5.395	0.536
868.000	514.347	79.992	19.993	99.923	20.023	5.311	0.509
875.000	517.945	79.991	19.992	99.909	20.027	4.937	0.500
882.001	521.593	79.992	19.992	99.967	20.033	4.481	0.524
889.000	525.186	79.992	19.992	99.898	20.031	4.645	0.506
896.000	528.850	79.993	19.992	99.920	20.036	4.198	0.515
903.000	532.444	79.993	19.991	99.915	20.030	4.706	0.501
910.000	536.081	79.993	19.991	99.899	20.029	4.769	0.548
917.000	539.587	79.993	19.991	99.895	20.030	4.680	0.511
924.000	543.287	79.994	19.991	99.895	20.030	4.736	0.498
931.000	546.978	79.996	19.991	99.884	20.030	4.684	0.426
938.000	550.334	79.996	19.992	99.876	20.031	4.641	0.437
945.000	553.858	79.992	19.992	99.888	20.028	4.896	0.538
952.000	557.474	79.992	19.992	99.895	20.028	4.845	0.482
959.000	561.106	79.992	19.991	99.887	20.030	4.744	0.510
966.000	564.667	79.992	19.993	99.892	20.029	4.798	0.500
973.000	568.343	79.992	19.993	99.878	20.021	5.433	0.512
980.000	571.962	79.991	19.991	99.899	20.027	4.970	0.541
987.000	575.548	79.993	19.991	99.888	20.027	4.979	0.497
994.000	579.199	79.994	19.991	99.891	20.028	4.878	0.512
1001.000	582.820	79.993	19.991	99.876	20.028	4.881	0.493
1008.000	586.485	79.994	19.991	99.886	20.027	5.002	0.531
1015.000	590.166	79.994	19.990	99.898	20.029	4.768	0.539
1022.000	593.822	79.995	19.991	99.880	20.028	4.904	0.523
1029.000	597.442	79.992	19.991	99.886	20.026	5.029	0.505
1036.000	601.060	79.992	19.992	99.881	20.029	4.822	0.516
1043.000	604.608	79.992	19.992	99.886	20.029	4.772	0.500
1050.001	608.233	79.992	19.993	99.881	20.026	5.031	0.549
1057.000	611.806	79.990	19.992	99.880	20.021	5.437	0.511
1064.000	615.361	79.991	19.991	99.882	20.030	4.720	0.496
1071.000	618.965	79.993	19.992	99.887	20.027	4.960	0.520
1078.000	622.613	79.994	19.992	99.913	20.028	4.865	0.520
1085.000	626.274	79.991	19.990	99.869	20.022	5.387	0.494
1092.000	629.828	79.995	19.991	99.876	20.021	5.446	0.534
1099.001	633.326	79.994	19.991	99.876	20.022	5.385	0.495
1106.000	636.950	79.993	19.992	99.877	20.025	5.122	0.501
1113.000	640.554	79.993	19.992	99.873	20.024	5.237	0.471
1120.001	644.122	79.992	19.992	99.887	20.021	5.460	0.528
1127.000	647.748	79.993	19.991	99.874	20.026	5.019	0.511
1134.000	651.296	79.994	19.992	99.877	20.028	4.885	0.518
1141.000	654.903	79.990	19.992	99.873	20.027	4.942	0.531
1148.000	658.488	79.992	19.992	99.899	20.032	4.574	0.507
1155.001	662.030	79.994	19.991	99.875	20.034	4.349	0.509
1162.000	665.598	79.993	19.991	99.888	20.031	4.651	0.493
1169.001	669.191	79.992	19.990	99.905	20.034	4.361	0.824
1176.000	672.600	79.993	19.989	99.871	20.033	4.445	0.527
1183.000	676.259	79.997	19.991	99.873	20.034	4.411	0.486
1190.000	679.838	79.994	19.991	99.874	20.037	4.166	0.489
1197.000	683.474	79.994	19.992	99.876	20.043	3.657	0.521
1204.000	687.158	79.993	19.993	99.878	20.038	4.096	0.569
1211.000	690.786	79.992	19.993	99.839	20.040	3.905	0.535
1216.000	693.353	79.993	19.993	99.875	20.039	3.956	0.543