File: 01_Data/Luan_Panel/Cone/Luan_Panel_Cone_HF25Scan_220915_R1.csv
Names,Time,Stack TC,Smoke TC,Exh Press,Smoke Comp,Smoke Meas,CO Meter,CO2 Meter,O2 Meter,Sample Mass,Ext Coeff,Start Test,Flame Verif
Chan Gain,,500,500,1,1,1,1,1,1,1,1,1.0,1.0
Offset,,0,0,0.146632,0,0,0,0,0,0,0,0.0,0.0
Gain,,1,1,25.011,13.0826,14.7555,1,1,1,1.00088,1.03743,1.0,1.0
Units,sec,C,C,Pa,%,%,%,%,%,g,/m,,
Baseline,,38.6655,39.4627,147.358,100.586,104.901,0.000557076,0.0436442,20.9805,-449.294,-0.382249,,
16,3.75,36.732,37.4936,149.975,99.7942,104.055,0.000650558,0.0476104,20.9796,89.5789,-0.38052,0.0,0.0
32,7.75,37.1373,38.0749,145.41,99.68,104.121,0.000394024,0.0459875,20.9815,89.4688,-0.396686,0.0,0.0
48,11.75,36.93,37.8783,149.739,99.5942,103.991,0.000294127,0.0445327,20.9833,89.4388,-0.393106,0.0,0.0
64,15.75,37.2406,37.8089,146.997,99.5223,103.451,0.000466699,0.0438325,20.9852,89.4888,-0.352303,0.0,0.0
80,19.75,37.5627,37.9335,148.879,99.4688,103.389,0.000536098,0.0436254,20.9859,89.3987,-0.351808,0.0,0.0
96,23.75,37.2861,38.2904,149.216,99.4373,103.567,0.00044981,0.0439076,20.986,89.3887,-0.370297,0.0,0.0
112,27.75,37.2663,37.8224,145.149,99.4097,103.341,0.000393769,0.0444383,20.9843,89.3387,-0.352934,0.0,0.0
128,31.75,37.4608,37.6417,149.75,99.3937,103.695,0.000198334,0.0453906,20.9838,89.3287,-0.38555,0.0,0.0
144,35.75,37.0429,38.2099,149.18,99.4025,103.07,0.000161712,0.0459637,20.9837,89.2486,-0.329728,0.0,0.0
160,39.75,37.5123,37.9545,147.834,99.4301,103.072,0.000432102,0.0464669,20.9821,89.1986,-0.327327,0.0,0.0
176,43.75,37.6238,38.5732,148.861,99.47,102.65,0.000367062,0.0468553,20.981,89.1485,-0.286343,0.0,0.0
192,47.75,37.997,38.0684,149.026,99.4832,102.996,0.000430643,0.0471797,20.9791,89.0584,-0.315786,0.0,0.0
208,51.75,37.7239,37.9746,147.402,99.5379,102.126,0.000828896,0.0476649,20.98,88.9283,-0.233588,0.0,0.0
224,55.75,38.1478,38.0931,154.423,99.5858,102.296,0.000984295,0.0481574,20.979,88.8583,-0.244325,0.0,0.0
240,59.75,37.9315,38.9444,149.426,99.6513,101.689,0.000943875,0.0486281,20.9784,88.7882,-0.184222,0.0,0.0
256,63.75,38.135,38.8412,145.778,99.7403,102.035,0.00113876,0.0493912,20.9806,88.6881,-0.206952,0.0,0.0
272,67.75,38.1434,38.6688,147.772,99.8433,101.147,0.00110028,0.0499486,20.9805,88.4879,-0.118053,0.0,0.0
288,71.75,38.5191,38.5905,145.085,99.9471,100.934,0.00135538,0.0506771,20.9791,88.3478,-0.0894542,0.0,0.0
304,75.75,38.2659,39.2589,145.939,100.051,101.303,0.00160394,0.0513731,20.9788,88.2177,-0.113234,0.0,0.0
320,79.75,37.8536,39.2082,146.814,100.142,100.776,0.00197657,0.057685,20.968,87.9975,-0.0574693,0.0,0.0
336,83.75,39.1096,39.4647,134.434,100.225,104.132,0.00237188,0.157114,20.8632,87.6071,-0.348049,0.0,1.0
352,87.75,40.9518,39.8388,130.122,100.293,104.139,0.00273905,0.282157,20.6997,87.1768,-0.342481,0.0,0.0
368,91.75,44.3125,42.2269,133.001,100.367,103.924,0.00305957,0.340534,20.6328,86.6863,-0.316877,0.0,0.0
384,95.75,46.9014,44.3698,136.194,100.441,103.58,0.00297369,0.343164,20.6334,86.256,-0.280083,0.0,0.0
400,99.75,48.6555,46.4819,137.341,100.496,104.703,0.00256871,0.31729,20.6681,85.8556,-0.373197,0.0,0.0
416,103.75,48.6593,47.6596,138.592,100.565,104.885,0.00247461,0.301528,20.6854,85.4252,-0.382776,0.0,0.0
432,107.75,50.5785,48.6014,138.422,100.605,104.617,0.0025073,0.289995,20.6969,85.0349,-0.355848,0.0,0.0
448,111.75,50.4637,49.2193,137.564,100.614,105.095,0.00256764,0.285612,20.7016,84.6145,-0.396525,0.0,0.0
464,115.75,51.5501,50.7871,135.981,100.615,105.018,0.00250231,0.274928,20.7121,84.2342,-0.389818,0.0,0.0
480,119.75,51.8828,51.5202,138.217,100.569,105.499,0.00245351,0.269065,20.7123,83.8739,-0.435551,0.0,0.0
496,123.75,52.6359,52.1328,135.833,100.51,105.251,0.00222145,0.271018,20.71,83.5135,-0.41936,0.0,0.0
512,127.75,52.9574,52.8437,131.47,100.433,105.389,0.00214332,0.269172,20.7129,83.1232,-0.438396,0.0,0.0
528,131.75,53.389,53.2259,134.098,100.346,105.026,0.00236372,0.26342,20.7202,82.7229,-0.414816,0.0,0.0
544,135.75,53.4523,53.9563,141.475,100.281,104.714,0.00224651,0.259663,20.7266,82.4026,-0.39368,0.0,0.0
560,139.75,53.9212,54.4654,138.539,100.217,105.503,0.00246742,0.258708,20.7272,82.0523,-0.467749,0.0,0.0
576,143.75,54.0331,55.0537,138.374,100.151,104.568,0.00241933,0.266275,20.7184,81.6919,-0.392736,0.0,0.0
592,147.75,54.4592,55.2943,138.103,100.089,104.934,0.00215639,0.280253,20.7022,81.2816,-0.430241,0.0,0.0
608,151.75,55.3064,56.2319,131.856,100.051,105.554,0.00205436,0.293161,20.6894,80.8612,-0.487229,0.0,0.0
624,155.75,55.7396,56.8364,135.713,100.019,104.455,0.0021913,0.308369,20.6694,80.4308,-0.394949,0.0,0.0
640,159.75,55.9804,57.2424,134.111,99.9998,104.333,0.00241793,0.319422,20.6542,79.9404,-0.386055,0.0,0.0
656,163.75,56.9536,58.4304,133.733,99.9818,104.87,0.00230653,0.327194,20.6428,79.53,-0.43435,0.0,0.0
672,167.75,57.144,58.5566,132.759,99.985,103.992,0.0022667,0.325307,20.6437,79.1397,-0.357618,0.0,0.0
688,171.75,57.9278,59.5284,138.774,99.9998,105.326,0.00232812,0.319471,20.6489,78.7494,-0.472251,0.0,0.0
704,175.75,58.259,60.1239,135.61,99.9974,104.843,0.00226544,0.309929,20.6621,78.349,-0.430627,0.0,0.0
720,179.75,58.2127,59.9229,134.831,100.022,104.414,0.00206905,0.304283,20.6706,77.9286,-0.391048,0.0,0.0
736,183.75,58.1564,60.1805,136.97,100.038,104.276,0.00208766,0.303408,20.6738,77.5783,-0.377539,0.0,0.0
752,187.75,58.2427,60.5433,132.144,100.062,103.987,0.00186991,0.306794,20.6722,77.2781,-0.350059,0.0,0.0
768,191.75,58.5897,60.7842,132.966,100.096,103.961,0.00199985,0.31852,20.6575,76.8677,-0.344799,0.0,0.0
784,195.75,59.1081,61.15,129.78,100.13,103.414,0.00215233,0.335409,20.6349,76.4673,-0.293623,0.0,0.0
800,199.75,59.1216,62.0814,130.65,100.165,102.383,0.00218958,0.352386,20.6165,76.047,-0.199231,0.0,0.0
816,203.75,60.3527,61.8803,132.792,100.19,102.616,0.00255668,0.363452,20.6045,75.5966,-0.217728,0.0,0.0
832,207.75,60.2997,62.825,133.595,100.233,103.009,0.00368889,0.355518,20.6123,75.2162,-0.248533,0.0,0.0
848,211.75,60.4693,63.0655,135.855,100.257,103.621,0.00463782,0.324822,20.6447,74.906,-0.300338,0.0,0.0
864,215.75,59.5055,62.5446,141.804,100.302,104.163,0.00571461,0.271468,20.7129,74.6958,-0.34373,0.0,0.0
880,219.75,58.3006,62.4922,136.79,100.343,103.707,0.00678312,0.21334,20.7865,74.5657,-0.3001,0.0,0.0
896,223.75,56.7261,60.5158,145.271,100.396,104.75,0.00815738,0.158936,20.8452,74.3955,-0.386307,0.0,0.0
912,227.75,55.404,60.0684,149.42,100.435,104.451,0.00933893,0.117339,20.891,74.2954,-0.356819,0.0,0.0
928,231.75,53.5262,57.89,144.873,100.473,104.905,0.0101944,0.0927277,20.9188,74.2954,-0.392848,0.0,0.0
944,235.75,51.6515,56.1688,143.875,100.517,104.911,0.0109826,0.078996,20.9333,74.2554,-0.389339,0.0,0.0
960,239.75,51.3309,55.8274,144.273,100.538,104.989,0.0112968,0.0722262,20.9412,74.2254,-0.394182,0.0,0.0
976,243.75,48.724,54.4528,142.217,100.578,104.567,0.0116635,0.0695207,20.9447,74.2254,-0.353883,0.0,0.0
992,247.75,48.3117,53.8291,143.962,100.598,104.984,0.0119867,0.0685788,20.943,74.1853,-0.388408,0.0,0.0
1008,251.75,45.1504,50.7155,146.483,100.623,104.636,0.0123451,0.068194,20.9426,74.2454,-0.355874,0.0,0.0
1024,255.75,44.3242,50.2143,147.611,100.627,104.656,0.0128066,0.0685298,20.9425,74.1753,-0.357196,0.0,0.0
1040,259.75,44.6906,49.0888,141.541,100.641,105.231,0.0132956,0.0689662,20.9408,74.1653,-0.405834,0.0,0.0
1056,263.75,43.767,48.1885,148.589,100.642,104.716,0.0134135,0.0691869,20.941,74.1453,-0.361106,0.0,0.0
1072,267.75,42.998,47.4602,143.339,100.645,104.88,0.0136605,0.0691369,20.9424,74.1053,-0.375126,0.0,0.0
1088,271.75,42.4753,47.0359,145.335,100.642,105.028,0.0140244,0.0693619,20.9426,74.0752,-0.388146,0.0,0.0
1104,275.75,42.022,46.0838,144.006,100.655,104.864,0.0141917,0.0699178,20.9411,74.0452,-0.372814,0.0,0.0
1120,279.75,41.6626,45.6911,143.992,100.624,104.938,0.0143707,0.0703193,20.9407,74.0152,-0.381964,0.0,0.0
1136,283.75,41.5109,45.0147,149.638,100.624,104.951,0.0145784,0.070437,20.9407,73.9852,-0.383136,0.0,0.0
1152,287.75,41.0871,44.5546,145.949,100.617,104.941,0.0146956,0.07142,20.9391,73.9551,-0.382962,0.0,0.0
1168,291.75,41.0886,44.4115,144.794,100.597,105.135,0.0148215,0.0717122,20.9397,73.9251,-0.401545,0.0,0.0
1184,295.75,40.6688,43.5497,148.766,100.581,104.846,0.0149078,0.0720477,20.9406,73.8951,-0.377895,0.0,0.0
1200,299.75,40.4091,43.5892,145.393,100.564,104.925,0.0150501,0.0727146,20.9392,73.835,-0.386325,0.0,0.0
1216,303.75,40.3136,42.7458,145.087,100.544,104.932,0.0148821,0.0728314,20.9405,73.795,-0.38872,0.0,0.0
1232,307.75,40.0176,43.0616,146.982,100.528,105.24,0.014579,0.0729195,20.9415,73.7449,-0.416872,0.0,0.0
1248,311.75,39.9099,42.0305,144.462,100.499,104.599,0.0147822,0.073163,20.9403,73.6749,-0.363898,0.0,0.0
1264,315.75,40.002,41.9713,146.676,100.501,104.811,0.0149911,0.0738132,20.9384,73.6749,-0.382109,0.0,0.0
1280,319.75,39.313,41.3833,145.456,100.471,104.841,0.0144982,0.0741178,20.9376,73.6449,-0.387479,0.0,0.0
1296,323.75,39.4975,41.6809,142.879,100.439,104.938,0.0146137,0.0745298,20.9374,73.6449,-0.398772,0.0,0.0
1312,327.75,38.9647,40.9043,148.258,100.401,104.798,0.0143385,0.0748202,20.9374,73.6348,-0.390132,0.0,0.0
1328,331.75,39.36,40.9543,145.199,100.375,104.844,0.0143817,0.0752046,20.9374,73.5848,-0.396434,0.0,0.0
1344,335.75,39.2893,41.2525,145.634,100.33,104.602,0.0140298,0.0750516,20.9374,73.5548,-0.379437,0.0,0.0
1360,339.75,39.1043,41.2099,146.27,100.299,104.309,0.0139006,0.0756511,20.937,73.5247,-0.356685,0.0,0.0
1376,343.75,38.6978,40.9386,144.007,100.244,104.061,0.013719,0.075878,20.9369,73.4847,-0.340092,0.0,0.0
1392,347.75,38.8849,40.737,147.148,100.208,104.184,0.013365,0.0758729,20.9364,73.4547,-0.354096,0.0,0.0
1408,351.75,39.1707,40.605,144.296,100.161,104.553,0.0131849,0.0760311,20.9361,73.4447,-0.390532,0.0,0.0
1424,355.75,38.443,40.0553,144.484,100.1,104.368,0.0132155,0.0763704,20.9361,73.3846,-0.379924,0.0,0.0
1440,359.75,38.7528,40.1439,141.746,100.035,104.544,,0.0766658,,73.3546,-0.401261,0.0,0.0
1456,363.75,38.5871,40.2446,147.104,99.9451,103.858,,,,73.3346,-0.349462,0.0,0.0
1472,367.75,38.1581,39.9644,147.992,99.8505,104.082,,,,73.2945,-0.377711,0.0,0.0
1473,368,38.4992,39.3411,147.011,99.8349,104.131,,,,73.2345,-0.383381,0.0,0.0