File: 01_Data/Luan_Panel/Cone/Luan_Panel_Cone_HF50Scan_220915_R1.csv
Names,Time,Stack TC,Smoke TC,Exh Press,Smoke Comp,Smoke Meas,CO Meter,CO2 Meter,O2 Meter,Sample Mass,Ext Coeff,Start Test,Flame Verif
Chan Gain,,500,500,1,1,1,1,1,1,1,1,1.0,1.0
Offset,,0,0,0.139139,0,0,0,0,0,0,0,0.0,0.0
Gain,,1,1,25.011,13.0826,14.7555,1,1,1,1.00088,1.03743,1.0,1.0
Units,sec,C,C,Pa,%,%,%,%,%,g,/m,,
Baseline,,52.4588,53.5895,140.467,99.0032,103.765,-0.000548548,0.0496792,20.9926,-447.109,-0.427441,,
10,2.25,50.2598,51.19,140.879,98.6268,103.127,-0.000517579,0.0541969,20.9835,65.0973,-0.406074,0.0,0.0
20,4.75,50.4623,51.8819,140.39,98.638,102.928,-0.000366862,0.0543993,20.9839,65.1173,-0.387462,0.0,0.0
30,7.25,50.6589,51.6009,136.27,98.614,102.283,-0.000345044,0.0544839,20.9856,65.0273,-0.332401,0.0,0.0
40,9.75,50.9012,51.6763,141.145,98.6284,100.771,-0.000308659,0.0548778,20.9852,64.9772,-0.195534,0.0,0.0
50,12.25,50.8641,52.1705,138.587,98.6204,96.9416,0.00011531,0.0579629,20.9572,64.8171,0.156248,0.0,1.0
60,14.75,52.5149,52.6514,121.864,98.6236,101.622,0.00069717,0.0946448,20.7996,64.4067,-0.272551,0.0,1.0
70,17.25,55.2486,53.1048,117.462,98.6136,99.7447,0.00142761,0.180528,20.5716,63.8863,-0.103787,0.0,1.0
80,19.75,59.8774,57.2548,113.984,98.6244,96.7925,0.00240699,0.284271,20.4018,63.3458,0.17062,0.0,0.0
90,22.25,64.3784,60.2725,116.197,98.6136,95.7902,0.00350938,0.378802,20.3005,62.7653,0.264358,0.0,0.0
100,24.75,67.7616,63.9171,117.046,98.6448,96.0468,0.00425264,0.448121,20.2773,62.3049,0.242879,0.0,0.0
110,27.25,69.6474,65.7118,122.882,98.6168,97.6008,0.00466662,0.477885,20.3452,61.8545,0.0942407,0.0,0.0
120,29.75,71.3484,67.7368,123.948,98.6244,98.3934,0.00471726,0.473784,20.4339,61.5342,0.021343,0.0,0.0
130,32.25,71.8257,69.1083,124.753,98.6208,100.933,0.00440791,0.452867,20.5191,61.1839,-0.210862,0.0,0.0
140,34.75,71.6864,69.8836,128.477,98.6252,100.92,0.00401617,0.425742,20.59,60.8736,-0.209279,0.0,0.0
150,37.25,71.7974,70.2103,131.817,98.6228,102.082,0.00356861,0.397055,20.637,60.5733,-0.313704,0.0,0.0
160,39.75,71.0201,69.8179,132.127,98.6112,101.785,0.00312302,0.371394,20.6691,60.2931,-0.288279,0.0,0.0
170,42.25,71.5244,70.714,124.957,98.636,101.848,0.00274737,0.352695,20.6815,60.0329,-0.29159,0.0,0.0
180,44.75,71.5433,71.0178,126.417,98.6144,101.858,0.00264597,0.341328,20.6792,59.7126,-0.294504,0.0,0.0
190,47.25,71.5631,71.4376,126.844,98.6364,101.614,0.00283182,0.337914,20.663,59.3623,-0.270647,0.0,0.0
200,49.75,72.3972,72.257,128.756,98.6256,101.762,0.0031696,0.340169,20.6428,59.062,-0.2849,0.0,0.0
210,52.25,72.627,72.8099,124.346,98.6316,101.458,0.00367876,0.346612,20.6195,58.7317,-0.257085,0.0,0.0
220,54.75,73.9187,73.6784,124.086,98.6444,101.607,0.00432842,0.356926,20.5964,58.3214,-0.269305,0.0,0.0
230,57.25,74.6473,74.3143,127.568,98.6571,101.58,0.00497056,0.36902,20.571,57.931,-0.265666,0.0,0.0
240,59.75,75.2536,75.3596,122.129,98.6412,101.488,0.00537093,0.383874,20.5394,57.5207,-0.258946,0.0,0.0
250,62.25,76.3538,76.2876,120.308,98.6539,101.209,0.0052361,0.403997,20.503,57.1403,-0.232659,0.0,0.0
260,64.75,77.7208,77.6252,117.239,98.6539,100.804,0.00460872,0.428837,20.4636,56.6499,-0.196186,0.0,0.0
270,67.25,79.2058,79.1191,122.102,98.6755,99.8168,0.00402934,0.455001,20.4294,56.2395,-0.104648,0.0,0.0
280,69.75,80.1821,79.8998,122.715,98.6663,98.8,0.0038118,0.480119,20.4014,55.7891,-0.0123202,0.0,0.0
290,72.25,81.065,81.5293,128.234,98.6823,96.4161,0.00423389,0.499937,20.3877,55.3487,0.211422,0.0,0.0
300,74.75,81.4368,81.9965,128.452,98.6839,96.6426,0.00450677,0.511098,20.3991,54.9284,0.190217,0.0,0.0
310,77.25,82.4605,82.5824,120.38,98.6971,97.6418,0.00426543,0.510482,20.4238,54.5681,0.0978239,0.0,0.0
320,79.75,81.97,83.0774,121.438,98.7218,97.7337,0.0038628,0.503565,20.447,54.1677,0.0915476,0.0,0.0
330,82.25,82.1227,83.8775,117.166,98.7274,97.4855,0.00346487,0.494222,20.4648,53.8674,0.115196,0.0,0.0
340,84.75,82.4252,83.9831,122.08,98.7597,98.465,0.00323048,0.486804,20.4711,53.4571,0.027204,0.0,0.0
350,87.25,82.6751,84.6146,123.082,98.7717,97.6418,0.00317185,0.483267,20.4702,53.1068,0.104704,0.0,0.0
360,89.75,82.6434,84.9441,118.839,98.8236,97.9989,0.00323248,0.482278,20.4687,52.7164,0.0762649,0.0,0.0
370,92.25,82.8665,85.1846,124.634,98.858,98.6149,0.00337021,0.482042,20.4674,52.3561,0.0224015,0.0,0.0
380,94.75,83.073,85.5891,126.445,98.9142,98.5834,0.00333364,0.480673,20.4677,51.9958,0.0304914,0.0,0.0
390,97.25,83.1821,85.8992,130.638,98.9634,97.7125,0.00310133,0.479844,20.4665,51.6855,0.115757,0.0,0.0
400,99.75,83.1679,86.268,125.121,99.0181,98.5658,0.00304364,0.479611,20.4683,51.3352,0.0416578,0.0,0.0
410,102.25,83.4102,86.246,125.246,99.0644,98.6388,0.00303819,0.476172,20.4835,51.0349,0.0391802,0.0,0.0
420,104.75,83.3227,86.5459,123.792,99.1151,99.584,0.00289336,0.468727,20.5026,50.7547,-0.0429491,0.0,0.0
430,107.25,83.1769,86.6556,125.952,99.1622,98.3668,0.00262014,0.457749,20.5254,50.4744,0.0732899,0.0,0.0
440,109.75,83.2468,86.3483,125.724,99.2177,99.7411,0.00249601,0.442757,20.5589,50.2342,-0.0478831,0.0,0.0
450,112.25,82.0874,86.1936,125.09,99.2875,99.8424,0.00272192,0.421733,20.5917,49.974,-0.0507168,0.0,0.0
460,114.75,81.6277,85.5465,129.653,99.3402,102.031,0.0035076,0.399513,20.6185,49.7938,-0.243204,0.0,0.0
470,117.25,80.0736,85.3622,134.613,99.4165,104.215,0.00487736,0.374012,20.669,49.7538,-0.428958,0.0,0.0
480,119.75,79.1697,84.1559,133.659,99.4696,104.723,0.00670887,0.336539,20.7285,49.6838,-0.468384,0.0,0.0
490,122.25,76.9888,83.1228,133.446,99.5183,104.53,0.00868125,0.301033,20.7698,49.6237,-0.447087,0.0,0.0
500,124.75,75.7147,82.1646,137.061,99.5435,104.454,0.0102505,0.270622,20.7968,49.5937,-0.438159,0.0,0.0
510,127.25,73.1676,79.3031,134.367,99.599,104.745,0.0112951,0.248389,20.8132,49.5136,-0.458475,0.0,0.0
520,129.75,71.2965,78.5766,134.345,99.6441,104.556,0.0123154,0.232014,20.8205,49.4836,-0.437906,0.0,0.0
530,132.25,70.3666,77.6836,136.019,99.6824,104.456,0.0134015,0.220555,20.8231,49.4135,-0.425702,0.0,0.0
540,134.75,69.6328,76.3951,134.115,99.7032,104.858,0.0143963,0.21229,20.8259,49.3735,-0.458733,0.0,0.0
550,137.25,68.5751,75.3854,139.642,99.7451,105.083,0.0149024,0.205238,20.8325,49.3234,-0.474466,0.0,0.0
560,139.75,67.6187,74.677,135.733,99.7543,104.837,0.0152239,0.198774,20.8365,49.2934,-0.452272,0.0,0.0
570,142.25,66.6509,73.9282,137.181,99.791,104.491,0.0157197,0.193534,20.8392,49.2334,-0.418814,0.0,0.0
580,144.75,65.6273,72.7699,137.006,99.815,104.592,0.0161472,0.189779,20.8398,49.2133,-0.42541,0.0,0.0
590,147.25,65.1877,72.2262,135.135,99.8182,104.107,0.0163805,0.187219,20.8383,49.1733,-0.382823,0.0,0.0
600,149.75,64.6227,71.385,137.877,99.8345,105.397,0.0164397,0.18497,20.8401,49.1333,-0.493412,0.0,0.0
610,152.25,63.5534,70.3306,139.846,99.8277,105.085,0.0164795,0.182081,20.8429,49.0732,-0.467046,0.0,0.0
620,154.75,63.3148,70.2984,136.869,99.8417,105.01,0.0165561,0.179725,20.8451,49.0332,-0.459297,0.0,0.0
630,157.25,62.8491,69.692,132.63,99.8289,104.952,0.0165712,0.17755,20.8461,48.9831,-0.455465,0.0,0.0
640,159.75,62.686,69.0351,133.723,99.8425,104.746,0.0165495,0.1754,20.8467,48.9431,-0.436327,0.0,0.0
650,162.25,61.6492,68.164,138.569,99.8094,104.993,0.0161948,0.173096,20.8497,48.9031,-0.460723,0.0,0.0
660,164.75,61.1257,67.6047,135.875,99.8114,104.648,0.0159391,0.171073,20.8512,48.873,-0.430633,0.0,0.0
670,167.25,61.3232,67.4716,135.359,99.7834,104.833,0.0158937,0.170058,20.8518,48.833,-0.449262,0.0,0.0
680,169.75,60.5783,67.1101,135.335,99.7906,104.666,0.0159668,0.169047,20.852,48.773,-0.434054,0.0,0.0
690,172.25,60.4307,66.3567,138.497,99.7646,104.868,0.0158835,0.167773,20.8547,48.7529,-0.453984,0.0,0.0
700,174.75,59.9913,65.949,133.581,99.7183,104.279,0.0156295,0.166021,20.8574,48.7129,-0.406992,0.0,0.0
710,177.25,59.5315,65.4452,136.72,99.6836,105.102,0.015522,0.16449,20.8574,48.6528,-0.481638,0.0,0.0
720,179.75,59.793,64.7905,137.331,99.6604,104.825,0.0153949,0.163386,20.8578,48.5828,-0.459741,0.0,0.0
730,182.25,59.6112,64.3993,137.1,99.6018,104.889,0.0152564,0.162293,20.8586,48.5628,-0.470651,0.0,0.0
740,184.75,59.2166,64.5083,138.582,99.5343,104.639,0.0152417,0.161457,20.8601,48.5127,-0.455109,0.0,0.0
750,187.25,59.0102,64.1842,136.077,99.4792,104.458,0.0153006,0.160547,20.8622,48.4927,-0.44443,0.0,0.0
760,189.75,58.5842,63.8044,143.398,99.4033,104.199,0.01541,0.159396,20.8637,48.4427,-0.428787,0.0,0.0
770,192.25,58.7228,63.1864,137.703,99.341,104.276,0.01539,0.15873,20.8642,48.4026,-0.441214,0.0,0.0
780,194.75,58.6916,63.1391,135.162,99.2564,104.718,0.0151745,0.158203,20.8648,48.3726,-0.487479,0.0,0.0
790,197.25,58.109,62.8922,134.426,99.2037,104.319,0.0151152,0.157339,20.8661,48.3326,-0.457575,0.0,0.0
800,199.75,57.8757,62.7697,136.534,99.1498,104.499,0.015125,0.156337,20.8666,48.2925,-0.478182,0.0,0.0
810,202.25,57.9635,62.231,135.18,99.1346,104.191,0.0151978,0.155815,20.8681,48.2525,-0.452751,0.0,0.0
820,204.75,58.2513,62.374,137.889,99.1574,104.339,0.015148,0.154981,20.8699,48.2125,-0.463553,0.0,0.0
830,207.25,57.9143,61.4206,137.313,99.2812,103.629,0.014897,0.153494,20.8708,48.1924,-0.390053,0.0,0.0
840,209.75,57.3966,61.595,140.12,99.3614,104.761,0.0144957,0.15242,20.8713,48.1424,-0.481535,0.0,0.0
850,212.25,57.3908,61.3604,139.9,99.4712,104.42,0.01432,0.151683,20.8718,48.1024,-0.441866,0.0,0.0
860,214.75,57.2818,61.4093,137.478,99.5886,104.643,0.0142277,0.150847,20.8719,48.0623,-0.450538,0.0,0.0
870,217.25,57.2667,60.8666,132.669,99.69,104.962,0.0139793,0.150024,20.872,48.0423,-0.468959,0.0,0.0
880,219.75,57.1554,60.1792,138.238,99.7774,104.848,0.0135688,0.1489,20.8741,47.9923,-0.451059,0.0,0.0
890,222.25,57.0182,60.154,137.531,99.8253,105.194,0.0130587,0.147342,20.8787,47.9622,-0.476697,0.0,0.0
900,224.75,56.1638,59.9302,135.233,99.8657,105.342,0.012798,0.146185,20.8793,47.9322,-0.485868,0.0,0.0
910,227.25,56.6398,60.0171,136.41,99.878,105.184,0.0126715,0.145656,20.8797,47.9022,-0.471037,0.0,0.0
920,229.75,56.5549,59.4508,138.316,99.8784,104.806,0.0125677,0.144522,20.8807,47.8321,-0.438215,0.0,0.0
930,232.25,56.6341,59.9446,137.481,99.8405,105.483,0.0126067,0.143419,20.8841,47.8121,-0.500289,0.0,0.0
940,234.75,56.1439,59.6984,132.713,99.8098,105.075,0.012767,0.142395,20.8842,47.7721,-0.467826,0.0,0.0
950,237.25,56.086,59.2748,137.95,99.7155,104.591,,0.142152,,47.732,-0.4344,0.0,0.0
960,239.75,56.8568,59.4057,136.238,99.6445,105.087,,,,47.732,-0.483962,0.0,0.0
970,242.25,56.254,59.5391,137.651,99.5215,104.297,,,,47.692,-0.426504,0.0,0.0
980,244.75,56.2229,59.2106,136.483,99.4688,104.766,,,,47.652,-0.472214,0.0,0.0
987,246.5,56.4457,58.7396,135.802,99.492,104.71,,,,47.662,-0.465165,0.0,0.0