File: 01_Data/Luan_Panel/Cone/Luan_Panel_Cone_HF75Scan_220916_R1.csv
Names,Time,Stack TC,Smoke TC,Exh Press,Smoke Comp,Smoke Meas,CO Meter,CO2 Meter,O2 Meter,Sample Mass,Ext Coeff,Start Test,Flame Verif
Chan Gain,,500,500,1,1,1,1,1,1,1,1,1.0,1.0
Offset,,0,0,0.146632,0,0,0,0,0,0,0,0.0,0.0
Gain,,1,1,25.011,13.0826,14.7555,1,1,1,1.00088,1.03743,1.0,1.0
Units,sec,C,C,Pa,%,%,%,%,%,g,/m,,
Baseline,,60.0262,61.9831,137.451,100.009,105.927,0.000336916,0.0436467,20.9861,-450.653,-0.523177,,
12,2.75,58.8313,60.9047,134.895,99.8804,105.685,0.000134492,0.0446334,20.9833,86.9966,-0.514039,0.0,0.0
24,5.75,59.0228,60.9929,142.526,99.874,101.902,0.000681692,0.0561237,20.958,86.8565,-0.182941,0.0,0.0
36,8.75,60.2877,61.7391,111.108,99.872,101.826,0.00172323,0.150075,20.7577,86.296,-0.176285,0.0,1.0
48,11.75,64.6988,63.6521,107.739,99.872,97.9705,0.00331275,0.338269,20.377,85.5453,0.174937,0.0,1.0
60,14.75,71.2251,68.7549,107.473,99.8645,94.9224,0.00480059,0.524714,20.1249,84.8247,0.461876,0.0,0.0
72,17.75,76.7491,73.4861,107.935,99.8752,94.1916,0.00589058,0.630325,20.0804,84.1241,0.533196,0.0,0.0
84,20.75,80.1232,77.8665,119.105,99.8756,95.2138,0.00624165,0.645906,20.1617,83.5236,0.435005,0.0,0.0
96,23.75,82.4652,80.5237,123.288,99.8772,97.8503,0.00603891,0.60939,20.2785,83.0131,0.186586,0.0,0.0
108,26.75,83.7038,82.6227,118.315,99.882,99.1544,0.00583584,0.550868,20.4074,82.5027,0.0665411,0.0,0.0
120,29.75,84.5162,83.7497,123.233,99.8725,100.512,0.00548973,0.495201,20.4832,82.0723,-0.0580507,0.0,0.0
132,32.75,84.7596,84.3616,123.141,99.8653,102.093,0.00506428,0.456394,20.5279,81.6019,-0.200776,0.0,0.0
144,35.75,85.8553,84.9158,119.002,99.8589,101.597,0.00454482,0.438969,20.5313,81.1415,-0.157019,0.0,0.0
156,38.75,85.8488,85.9104,117.699,99.8329,101.836,0.00408714,0.447527,20.4838,80.611,-0.180816,0.0,0.0
168,41.75,87.1514,87.8014,119.851,99.817,102.385,0.00367896,0.469154,20.4316,80.0905,-0.231192,0.0,0.0
180,44.75,88.2913,89.2903,117.55,99.8058,101.567,0.00354062,0.489648,20.3975,79.5601,-0.159156,0.0,0.0
192,47.75,90.1375,90.6714,113.727,99.769,101.575,0.0037081,0.510165,20.3667,78.9495,-0.163272,0.0,0.0
204,50.75,91.7099,92.8347,115.077,99.7455,101.26,0.00403575,0.537429,20.3337,78.4291,-0.137177,0.0,0.0
216,53.75,93.347,94.5025,114.143,99.7267,99.2404,0.00448819,0.569304,20.2906,77.8385,0.0444889,0.0,0.0
228,56.75,94.8077,96.2697,114.936,99.7032,96.4386,0.00527096,0.593254,20.2689,77.228,0.302958,0.0,0.0
240,59.75,96.1639,97.5908,119.159,99.6744,96.6498,0.00600846,0.596931,20.2916,76.6875,0.280427,0.0,0.0
252,62.75,96.4655,98.9264,122.352,99.6333,96.7502,0.00648771,0.577846,20.3406,76.2171,0.267222,0.0,0.0
264,65.75,96.2291,98.8777,121.119,99.5942,96.7502,0.0065298,0.550727,20.3901,75.7367,0.263647,0.0,0.0
276,68.75,96.4602,100.184,120.543,99.5518,97.2568,0.00619687,0.523954,20.4284,75.3063,0.212254,0.0,0.0
288,71.75,96.0802,99.8757,117.574,99.5007,98.2366,0.00558868,0.503466,20.4495,74.8759,0.116355,0.0,0.0
300,74.75,96.1635,99.9561,115.659,99.4464,98.6739,0.00512368,0.489479,20.4579,74.4556,0.0709726,0.0,0.0
312,77.75,95.9387,100.478,121.026,99.3937,98.3934,0.00500774,0.4788,20.4614,74.0752,0.0920577,0.0,0.0
324,80.75,96.0377,100.737,122.175,99.3502,98.8211,0.00487709,0.471571,20.4657,73.6649,0.0485924,0.0,0.0
336,83.75,95.8897,100.826,121.385,99.3255,99.9185,0.00456342,0.465021,20.4737,73.2745,-0.054174,0.0,0.0
348,86.75,95.7702,100.883,119.963,99.3702,99.1823,0.00395764,0.460997,20.48,72.9342,0.0172251,0.0,0.0
360,89.75,95.3152,100.853,125.44,99.494,99.3593,0.00355653,0.451308,20.4975,72.5539,0.0123295,0.0,0.0
372,92.75,94.963,100.871,124.39,99.5622,98.9688,0.00346693,0.432234,20.5304,72.2536,0.0544002,0.0,0.0
384,95.75,94.1,100.529,127.791,99.6317,101.436,0.00344903,0.398669,20.5914,72.0034,-0.163334,0.0,0.0
396,98.75,92.7984,99.6088,128.983,99.7024,103.542,0.00346636,0.351807,20.6631,71.8733,-0.343891,0.0,0.0
408,101.75,90.9673,98.6251,132.16,99.7686,104.96,0.00379642,0.291326,20.7531,71.7532,-0.461587,0.0,0.0
420,104.75,88.922,97.0098,131.748,99.8373,105.047,0.00460055,0.242561,20.8184,71.8032,-0.462936,0.0,0.0
432,107.75,87.135,95.4437,132.325,99.8796,105.783,0.00573492,0.206066,20.8531,71.7332,-0.522599,0.0,0.0
444,110.75,85.1163,93.8053,134.845,99.9244,105.054,0.00678798,0.18036,20.8725,71.7332,-0.455551,0.0,0.0
456,113.75,83.606,92.2486,137.477,99.9395,106.036,0.00780571,0.163749,20.8822,71.6631,-0.538889,0.0,0.0
468,116.75,83.1016,90.7536,131.896,99.9635,105.533,0.00887118,0.151396,20.8876,71.573,-0.493398,0.0,0.0
480,119.75,79.3411,89.3421,133.624,99.989,105.804,0.00975892,0.14368,20.8892,71.563,-0.514458,0.0,0.0
492,122.75,79.2005,87.7304,137.709,99.9878,105.174,0.0102099,0.1378,20.8902,71.553,-0.460221,0.0,0.0
504,125.75,77.8655,86.6779,136.165,100,106.118,0.0104928,0.132873,20.8923,71.503,-0.540357,0.0,0.0
516,128.75,77.2619,85.759,130.64,99.9954,105.553,0.0109409,0.128436,20.8943,71.4729,-0.492239,0.0,0.0
528,131.75,76.0173,84.4933,138.445,99.9922,105.727,0.0113563,0.124745,20.8965,71.4329,-0.507503,0.0,0.0
540,134.75,75.1151,83.4355,133.525,99.9691,105.645,0.0117664,0.122161,20.8975,71.4129,-0.502553,0.0,0.0
552,137.75,73.8942,82.4204,135.433,99.9802,105.492,0.0120471,0.119771,20.8979,71.3528,-0.488377,0.0,0.0
564,140.75,73.637,81.3397,138.836,99.9806,105.633,0.0123353,0.117818,20.899,71.3328,-0.500452,0.0,0.0
576,143.75,72.8368,80.923,133.719,99.9958,105.595,0.0124883,0.116302,20.9007,71.3328,-0.49585,0.0,0.0
588,146.75,72.282,79.897,136.19,99.9755,106.108,0.0125753,0.114568,20.9028,71.2227,-0.541798,0.0,0.0
600,149.75,71.4736,79.4582,133.954,99.9731,105.472,0.0125549,0.113415,20.9034,71.2427,-0.487282,0.0,0.0
612,152.75,71.1198,78.8001,133.45,99.9723,105.79,0.0123383,0.112041,20.9049,71.1927,-0.514706,0.0,0.0
624,155.75,70.2369,77.9941,133.237,99.9854,105.255,0.0123743,0.111186,20.9056,71.0826,-0.46741,0.0,0.0
636,158.75,70.2888,77.2864,131.965,99.9487,105.479,0.0125266,0.110361,20.9058,71.1126,-0.490122,0.0,0.0
648,161.75,69.7129,76.9912,134.344,99.9248,105.484,0.0124156,0.109797,20.9059,71.0726,-0.492691,0.0,0.0
660,164.75,69.7854,76.2769,133.276,99.8816,105.559,0.0122869,0.10925,20.9059,71.0225,-0.503066,0.0,0.0
672,167.75,68.8608,75.2129,140.637,99.8417,105.223,0.0122519,0.108671,20.9069,71.0025,-0.477736,0.0,0.0
684,170.75,67.8627,73.4305,132.915,99.777,104.471,0.0122823,0.108192,20.9059,70.9725,-0.418323,0.0,0.0
696,173.75,66.7351,72.7001,134.821,99.7108,104.79,0.012334,0.107838,20.9047,70.9325,-0.452138,0.0,0.0
708,176.75,66.8545,72.8655,135.098,99.6561,105.102,0.0122156,0.107737,20.9044,70.9425,-0.48423,0.0,0.0
720,179.75,66.4589,71.6995,133.737,99.6081,105.242,0.0120375,0.107292,20.9056,70.8924,-0.500724,0.0,0.0
732,182.75,65.9922,71.521,133.509,99.5554,105.347,0.0119557,0.106808,20.9063,70.8524,-0.514609,0.0,0.0
744,185.75,66.1218,70.8309,133.166,99.4664,104.446,0.0119312,0.106771,20.9065,70.8324,-0.44454,0.0,0.0
756,188.75,65.4697,70.6948,131.628,99.3618,105.081,0.0120109,0.106591,20.9068,70.7523,-0.509307,0.0,0.0
768,191.75,65.2595,70.1339,138.211,99.25,104.293,0.0122331,0.106201,20.9075,70.7123,-0.45105,0.0,0.0
780,194.75,65.2946,70.0626,134.029,99.3071,104.485,0.0126414,0.106229,20.9064,70.6622,-0.462578,0.0,0.0
792,197.75,65.4034,69.5654,136.147,99.3842,104.769,0.0127171,0.106229,20.9061,70.7123,-0.480156,0.0,0.0
804,200.75,65.2566,69.2387,133.614,99.4812,105.178,0.0126033,0.10605,20.906,70.6422,-0.506722,0.0,0.0
816,203.75,64.6897,69.4285,133.437,99.567,105.504,0.0126059,0.10575,20.9075,70.7823,-0.527076,0.0,0.0
828,206.75,64.6717,68.8963,132.504,99.6557,105.462,0.0124502,0.105384,20.9092,70.6522,-0.515328,0.0,0.0
840,209.75,64.4158,68.8821,131.546,99.7383,105.727,0.0121204,0.10475,20.9102,70.5822,-0.53068,0.0,0.0
852,212.75,64.4995,68.5665,134.169,99.8182,105.763,0.0121163,0.104603,20.9089,70.5521,-0.526498,0.0,0.0
864,215.75,64.384,68.305,137.829,99.9204,105.713,0.0120805,0.104882,20.909,70.5621,-0.512844,0.0,0.0
876,218.75,64.4907,67.7917,134.536,99.9707,106.021,0.0120789,0.104689,20.9106,70.4721,-0.534778,0.0,0.0
888,221.75,64.4337,67.6224,137.116,99.999,104.93,0.0121418,0.10476,20.9098,70.4821,-0.438061,0.0,0.0
900,224.75,64.2558,67.6151,131.531,100.024,105.6,0.0121894,0.105106,20.9094,70.392,-0.493621,0.0,0.0
912,227.75,64.2697,67.4825,133.466,100.022,105.91,0.0123086,0.104987,20.9099,70.3319,-0.520576,0.0,0.0
924,230.75,63.6603,67.3866,135.155,100.001,105.789,0.0125131,0.104481,20.911,70.372,-0.512015,0.0,0.0
936,233.75,64.5003,67.1429,134.646,99.9507,105.387,0.0126338,0.104625,20.9102,70.2819,-0.482011,0.0,0.0
948,236.75,64.0421,66.7255,138.203,99.872,105.608,0.0125789,0.104872,20.9095,70.2819,-0.508208,0.0,0.0
960,239.75,63.5131,67.1539,141.086,99.7862,105.03,0.0125771,0.104199,20.9094,70.2819,-0.466113,0.0,0.0
972,242.75,63.637,66.5997,134.616,99.688,105.017,0.0126197,0.103806,20.9094,70.2118,-0.473903,0.0,0.0
984,245.75,63.4384,66.5155,140.411,99.585,104.821,0.0125324,0.103994,20.9088,70.1818,-0.46636,0.0,0.0
996,248.75,63.3517,66.2573,132.134,99.4944,104.912,0.0125623,0.104048,20.9086,70.1418,-0.48254,0.0,0.0
1008,251.75,63.5196,66.4395,135.589,99.4217,104.602,0.0124595,0.103751,20.9086,70.0917,-0.462197,0.0,0.0
1020,254.75,63.4184,66.4067,135.338,99.3546,104.518,0.0122383,0.103222,20.9096,70.0717,-0.461088,0.0,0.0
1032,257.75,63.355,66.1581,130.103,99.274,105.108,0.0121529,0.102966,20.9088,69.9916,-0.519656,0.0,0.0
1044,260.75,63.7403,66.1327,133.271,99.2185,104.5625,0.0121065,0.10295,20.9102,69.9916,-0.477408,0.0,0.0
1056,263.75,63.7359,65.8868,131.11,99.1837,105.114,0.0124258,0.103058,20.9117,69.9816,-0.528477,0.0,0.0
1068,266.75,63.7419,66.5326,132.758,99.149,104.693,0.0124161,0.10289,20.9138,69.9816,-0.49514,0.0,0.0
1080,269.75,63.6769,66.0338,132.895,99.1251,104.586,0.0123417,0.102355,20.9151,69.9516,-0.488019,0.0,0.0
1092,272.75,63.7755,66.5497,136.311,99.0871,104.724,0.0123854,0.102331,20.9155,69.9316,-0.503523,0.0,0.0
1104,275.75,63.4029,66.1351,134.944,99.0696,104.36,0.0121662,0.102083,20.9147,69.9216,-0.473464,0.0,0.0
1116,278.75,63.1939,66.2034,136.719,99.054,104.785,,0.101782,,69.8715,-0.511887,0.0,0.0
1128,281.75,63.8373,66.2087,140.704,99.0368,104.795,,,,69.8615,-0.514324,0.0,0.0
1140,284.75,63.4976,65.1703,134.161,99.0149,104.879,,,,69.7915,-0.523573,0.0,0.0
1151,287.5,63.1348,65.9489,133.328,99.0141,105.012,,,,69.7314,-0.535244,0.0,0.0