File: 01_Data/Luan_Panel/Cone/Luan_Panel_Cone_HF25Scan_220915_R2.csv
Names,Time,Stack TC,Smoke TC,Exh Press,Smoke Comp,Smoke Meas,CO Meter,CO2 Meter,O2 Meter,Sample Mass,Ext Coeff,Start Test,Flame Verif
Chan Gain,,500,500,1,1,1,1,1,1,1,1,1.0,1.0
Offset,,0,0,0.146632,0,0,0,0,0,0,0,0.0,0.0
Gain,,1,1,25.011,13.0826,14.7555,1,1,1,1.00088,1.03743,1.0,1.0
Units,sec,C,C,Pa,%,%,%,%,%,g,/m,,
Baseline,,39.4043,39.9612,147.357,100.358,104.806,0.000375395,0.0456617,20.9847,-449.3,-0.394632,,
15,3.5,37.0017,38.1125,147.398,99.6241,104.245,0.000515261,0.0558825,20.9764,94.1329,-0.412607,0.0,0.0
30,7.25,36.8025,37.5565,149.151,99.6696,103.659,0.000342559,0.049934,20.9825,94.0929,-0.357164,0.0,0.0
45,11,37.1422,37.9856,148.331,99.7303,103.94,0.000400048,0.0468211,20.9864,94.0628,-0.37622,0.0,0.0
60,14.75,36.9963,37.39,150.291,99.7874,104.061,0.000364137,0.0451854,20.9877,94.0428,-0.381611,0.0,0.0
75,18.5,37.4026,37.8312,145.836,99.8589,103.688,0.000451555,0.0445452,20.9898,94.0028,-0.342392,0.0,0.0
90,22.25,37.3732,37.703,145.365,99.9096,104.129,0.000159636,0.0443246,20.9895,93.9828,-0.376461,0.0,0.0
105,26,37.3237,38.0241,150.953,99.9595,103.969,0.000140496,0.044799,20.9885,93.9427,-0.357895,0.0,0.0
120,29.75,37.5238,38.2196,145.148,99.9934,104.446,0.000504947,0.0458753,20.9876,93.9127,-0.396489,0.0,0.0
135,33.5,37.4631,38.364,146.449,100.032,103.955,0.000438417,0.0466943,20.9874,93.8126,-0.350096,0.0,0.0
150,37.25,37.2888,38.1853,147.33,100.063,103.452,0.000324222,0.0472684,20.9861,93.7626,-0.303165,0.0,0.0
165,41,37.5937,38.0495,145.009,100.11,103.519,0.00030387,0.0474673,20.9859,93.7426,-0.304742,0.0,0.0
180,44.75,37.6683,38.0238,144.022,100.117,103.456,0.000242846,0.0477078,20.9859,93.6925,-0.298581,0.0,0.0
195,48.5,38.0346,38.1106,150.777,100.136,103.219,0.000378358,0.0476578,20.9859,93.6024,-0.275904,0.0,0.0
210,52.25,37.9859,38.7103,148.956,100.141,102.594,0.000608074,0.0480133,20.9871,93.4723,-0.220196,0.0,0.0
225,56,37.9774,38.5212,144.511,100.157,102.981,0.000833938,0.0482895,20.988,93.3622,-0.253067,0.0,0.0
240,59.75,37.5652,39.3267,149.539,100.17,102.229,0.000876119,0.0488414,20.9879,93.3422,-0.185096,0.0,0.0
255,63.5,38.22,38.5707,141.092,100.188,102.262,0.000926276,0.0492879,20.9867,93.2321,-0.186471,0.0,0.0
270,67.25,37.9503,38.9797,144.333,100.191,101.862,0.00112369,0.0501743,20.9876,93.112,-0.150527,0.0,0.0
285,71,38.3891,39.0146,147.211,100.174,101.392,0.00150249,0.0513993,20.986,92.9819,-0.109985,0.0,0.0
300,74.75,38.4054,38.8214,142.153,100.172,104.634,0.00199882,0.0954382,20.9198,92.6416,-0.396533,0.0,1.0
315,78.5,39.2947,38.8475,134.633,100.186,103.887,0.00240271,0.226501,20.7681,92.3613,-0.330093,0.0,1.0
330,82.25,42.3371,40.3465,127.291,100.169,103.2,0.00269428,0.311022,20.6639,91.8709,-0.271262,0.0,0.0
345,86,44.4947,43.452,138.316,100.171,103.438,0.00272768,0.338165,20.6366,91.4105,-0.292023,0.0,0.0
360,89.75,47.1515,44.689,132.827,100.132,104.329,0.00276137,0.326466,20.6551,91.0302,-0.373607,0.0,0.0
375,93.5,48.0691,46.2142,137.721,100.06,103.539,0.00290833,0.309067,20.6791,90.5497,-0.311017,0.0,0.0
390,97.25,48.8837,47.9837,134.385,100.021,103.147,0.00345697,0.300143,20.6901,90.1894,-0.280081,0.0,0.0
405,101,50.2481,48.3579,134.062,99.9427,103.59,0.00386165,0.290957,20.7007,89.7991,-0.326213,0.0,0.0
420,104.75,50.6599,49.6608,141.042,99.8421,103.959,0.00381774,0.274156,20.7186,89.4288,-0.367681,0.0,0.0
435,108.5,51.0575,50.1713,141.685,99.7515,104.186,0.00344028,0.261494,20.7292,89.0584,-0.39579,0.0,0.0
450,112.25,51.365,50.8854,139.471,99.7523,104.881,0.00335084,0.252789,20.7339,88.6881,-0.456284,0.0,0.0
465,116,51.6665,51.4613,137.751,99.8086,104.669,0.00339195,0.249447,20.7369,88.3979,-0.43269,0.0,0.0
480,119.75,52.0832,51.8316,136.318,99.8545,104.912,0.00300425,0.24987,20.7365,88.0475,-0.449621,0.0,0.0
495,123.5,52.9325,52.6137,134.086,99.9048,104.996,0.00279717,0.252377,20.7354,87.7072,-0.4523,0.0,0.0
510,127.25,52.8548,53.3261,135.797,99.9603,105.382,0.00312754,0.250828,20.7382,87.3669,-0.480633,0.0,0.0
525,131,52.9683,53.7326,138.375,100.038,105.21,0.00306868,0.249302,20.7425,86.9766,-0.458681,0.0,0.0
540,134.75,53.6761,54.268,138.171,100.136,105.07,0.00260711,0.251881,20.7416,86.7064,-0.437744,0.0,0.0
555,138.5,53.5387,54.7673,135.513,100.233,105.753,0.00228724,0.257963,20.7336,86.3861,-0.48783,0.0,0.0
570,142.25,54.1987,55.0607,135.37,100.318,105.571,0.00211015,0.267048,20.7231,86.0558,-0.464517,0.0,0.0
585,146,54.6935,55.6537,134.243,100.408,105.294,0.00204869,0.278819,20.7099,85.6955,-0.432432,0.0,0.0
600,149.75,55.056,56.2859,135.678,100.475,105.895,0.00218637,0.287856,20.6994,85.2651,-0.478163,0.0,0.0
615,153.5,55.6342,56.689,133.979,100.546,104.857,0.00249659,0.295863,20.6912,84.9648,-0.381976,0.0,0.0
630,157.25,56.0652,57.0435,133.947,100.601,105.467,0.00270055,0.29521,20.6886,84.6045,-0.429867,0.0,0.0
645,161,55.9746,57.5343,137.618,100.613,105.706,0.00238042,0.293406,20.688,84.2442,-0.449429,0.0,0.0
660,164.75,56.3725,57.8259,136.884,100.613,104.916,0.00216796,0.290175,20.6913,83.9039,-0.381103,0.0,0.0
675,168.5,56.6388,58.5431,137.868,100.591,105.372,0.00205945,0.282865,20.696,83.5236,-0.422604,0.0,0.0
690,172.25,56.7299,58.445,140.19,100.548,105.482,0.00202755,0.277139,20.7037,83.2633,-0.436029,0.0,0.0
705,176,56.7112,59.0723,135.504,100.5,105.508,0.00199471,0.272969,20.7098,82.953,-0.442544,0.0,0.0
720,179.75,56.6395,58.6674,136.381,100.409,105.792,0.00196395,0.273078,20.7136,82.6228,-0.475229,0.0,0.0
735,183.5,56.998,59.3154,136.251,100.328,104.567,0.00190074,0.272424,20.7169,82.3025,-0.376603,0.0,0.0
750,187.25,57.0156,59.3404,141.888,100.247,104.137,0.00194152,0.274348,20.7154,81.8421,-0.346491,0.0,0.0
765,191,57.2865,59.2879,138.201,100.174,104.321,0.00189685,0.283988,20.7026,81.6819,-0.369167,0.0,0.0
780,194.75,57.3275,59.5877,135.452,100.077,104.422,0.00209961,0.303283,20.6808,81.3116,-0.38678,0.0,0.0
795,198.5,58.0042,60.1724,132.321,100.029,103.476,0.00240833,0.321019,20.6567,80.9613,-0.308314,0.0,0.0
810,202.25,58.6062,60.9473,132.834,99.9535,103.011,0.00249712,0.332952,20.6412,80.571,-0.274177,0.0,0.0
825,206,58.9269,61.4709,134.586,99.9152,104.245,0.00314612,0.332272,20.641,80.2106,-0.386099,0.0,0.0
840,209.75,58.8895,61.7737,137.213,99.884,103.328,0.00482613,0.301406,20.6742,79.9704,-0.308507,0.0,0.0
855,213.5,58.4738,61.3113,140.379,99.8948,103.753,0.00608733,0.252087,20.7374,79.7502,-0.344846,0.0,0.0
870,217.25,57.5768,60.6039,141.92,99.888,104.069,0.00702328,0.204976,20.7919,79.6201,-0.373188,0.0,0.0
885,221,56.006,59.6412,142.201,99.892,104.132,0.00833094,0.166194,20.8399,79.53,-0.378257,0.0,0.0
900,224.75,54.9011,58.7958,143.07,99.9228,104.245,0.00957069,0.132953,20.8758,79.3899,-0.385369,0.0,0.0
915,228.5,53.6302,57.5546,142.069,99.9543,104.932,0.0101754,0.109043,20.9013,79.3299,-0.442287,0.0,0.0
930,232.25,52.3748,56.323,144.391,99.9651,104.556,0.0108962,0.0926515,20.9194,79.3699,-0.408598,0.0,0.0
945,236,50.8676,55.6008,143.307,99.9914,104.874,0.0111774,0.0823183,20.9325,79.3299,-0.433829,0.0,0.0
960,239.75,49.4414,54.7622,143.261,100.034,104.702,0.0115844,0.0763106,20.9388,79.3098,-0.415078,0.0,0.0
975,243.5,47.4061,52.2079,142.89,100.069,105.051,0.011799,0.0730194,20.9434,79.1997,-0.442128,0.0,0.0
990,247.25,46.3056,51.1616,143.513,100.173,104.912,0.0123334,0.0715621,20.9453,79.2498,-0.420595,0.0,0.0
1005,251,45.7787,50.158,144.559,100.231,104.503,0.0127005,0.0709068,20.9458,79.2098,-0.379802,0.0,0.0
1020,254.75,44.652,49.0944,141.582,100.314,104.81,0.012857,0.0710255,20.9447,79.1697,-0.399005,0.0,0.0
1035,258.5,43.7882,48.6754,149.611,100.382,104.74,0.0133198,0.0712714,20.9444,79.1897,-0.386788,0.0,0.0
1050,262.25,43.1596,47.5363,147.167,100.43,104.406,0.0135405,0.0715932,20.9437,79.0896,-0.353369,0.0,0.0
1065,266,43.0478,46.98,147.189,100.513,105.227,0.0136725,0.0717348,20.9435,79.1397,-0.417083,0.0,0.0
1080,269.75,42.3154,46.6563,143.426,100.551,104.941,0.0139084,0.0719427,20.9427,79.0896,-0.388884,0.0,0.0
1095,273.5,42.4163,46.5014,145.791,100.562,105.219,0.0140888,0.0726673,20.9414,78.9395,-0.411937,0.0,0.0
1110,277.25,42.0944,45.7039,145.791,100.541,105.059,0.0144337,0.0731482,20.9409,78.9796,-0.400015,0.0,0.0
1125,281,41.2668,44.673,144.987,100.471,104.469,0.0146778,0.0742147,20.9408,78.9595,-0.355133,0.0,0.0
1140,284.75,41.4079,44.654,144.268,100.405,105.275,0.0146107,0.0741007,20.9408,78.9695,-0.431014,0.0,0.0
1155,288.5,40.6932,44.0935,148.372,100.253,104.621,0.0146566,0.0745434,20.939,78.8494,-0.388037,0.0,0.0
1170,292.25,40.7206,44.0199,145.992,100.098,104.451,0.014862,0.0749483,20.9382,78.8795,-0.38733,0.0,0.0
1185,296,40.9933,43.0933,149.181,99.9347,103.952,0.0150727,0.0760058,20.9393,78.8795,-0.35869,0.0,0.0
1200,299.75,40.3363,43.3186,144.169,99.8098,104.394,0.014819,0.0755769,20.9407,78.7694,-0.408667,0.0,0.0
1215,303.5,40.024,42.8308,147.679,99.7163,104.215,0.0145071,0.075747,20.9401,78.7794,-0.401592,0.0,0.0
1230,307.25,40.1855,43.0175,144.172,99.7794,104.003,0.0142957,0.0759807,20.9397,78.7494,-0.377297,0.0,0.0
1245,311,39.9508,42.3488,148.201,99.9295,104.351,0.014219,0.0765589,20.9396,78.7193,-0.394022,0.0,0.0
1260,314.75,39.5572,41.8384,146.256,100.056,104.875,0.0140372,0.0771781,20.939,78.6693,-0.428061,0.0,0.0
1275,318.5,39.4524,41.7141,144.292,100.096,104.686,0.0138155,0.0776936,20.9388,78.6092,-0.408081,0.0,0.0
1290,322.25,39.2862,41.8563,144.269,100.141,104.407,0.0135351,0.0777289,20.9388,78.6393,-0.379602,0.0,0.0
1305,326,39.5755,41.4035,148.351,100.137,104.859,0.0135568,0.0779557,20.9394,78.6092,-0.419325,0.0,0.0
1320,329.75,39.6786,41.2162,147.666,100.135,104.398,0.0134796,0.0781046,20.9396,78.5692,-0.379401,0.0,0.0
1335,333.5,38.9674,40.6693,145.182,100.141,105.226,0.0134449,0.0782468,20.9396,78.4991,-0.450718,0.0,0.0
1350,337.25,39.4146,40.5733,144.518,100.116,104.231,0.0128718,0.0783288,20.9411,78.409,-0.366565,0.0,0.0
1365,341,39.455,40.6469,144.802,100.113,104.841,0.0126936,0.0783457,20.9414,78.4291,-0.419936,0.0,0.0
1380,344.75,38.6809,40.2578,152.473,100.128,104.767,0.0121421,0.0782888,20.9393,78.379,-0.412145,0.0,0.0
1395,348.5,38.0069,40.1854,146.472,100.128,104.839,,0.0787714,,78.4591,-0.418364,0.0,0.0
1410,352.25,38.7003,39.9444,146.919,100.133,105.057,,,,78.339,-0.436903,0.0,0.0
1425,356,38.6299,39.7032,146.563,100.122,104.818,,,,78.2289,-0.417071,0.0,0.0
1438,359.25,38.6017,39.4888,145.789,100.13,104.616,,,,78.2889,-0.398811,0.0,0.0