File: 01_Data/Luan_Panel/Cone/Luan_Panel_Cone_HF50Scan_220916_R3.csv
Names,Time,Stack TC,Smoke TC,Exh Press,Smoke Comp,Smoke Meas,CO Meter,CO2 Meter,O2 Meter,Sample Mass,Ext Coeff,Start Test,Flame Verif
Chan Gain,,500,500,1,1,1,1,1,1,1,1,1.0,1.0
Offset,,0,0,0.146632,0,0,0,0,0,0,0,0.0,0.0
Gain,,1,1,25.011,13.0826,14.7555,1,1,1,1.00088,1.03743,1.0,1.0
Units,sec,C,C,Pa,%,%,%,%,%,g,/m,,
Baseline,,51.0701,52.2393,141.557,99.9786,105.379,0.000420905,0.0454518,20.9871,-449.72,-0.478654,,
11,2.5,49.2989,50.9722,144.229,99.3402,104.621,0.000136922,0.0487483,20.9808,95.1538,-0.471301,0.0,0.0
22,5.25,49.7133,50.4154,145.79,99.4624,104.404,0.000179936,0.0482381,20.983,95.0837,-0.441216,0.0,0.0
33,8,49.5015,51.1234,143.835,99.5986,104.25,0.000327203,0.0479037,20.9838,94.9937,-0.415413,0.0,0.0
44,10.75,49.882,50.919,138.522,99.712,102.973,0.000476014,0.048738,20.9849,94.9136,-0.292893,0.0,0.0
55,13.5,50.1626,51.2594,135.127,99.8285,105.057,0.000789216,0.0611286,20.9423,94.8235,-0.464556,0.0,1.0
66,16.25,51.917,51.7925,122.949,99.9104,103.015,0.00138931,0.116019,20.7713,94.3331,-0.278502,0.0,1.0
77,19,54.018,52.7113,120.933,99.9691,101.36,0.00217097,0.203004,20.5799,93.7826,-0.125781,0.0,1.0
88,21.75,57.4225,55.17,123.399,100.02,99.4164,0.00328022,0.286783,20.4465,93.3022,0.0550968,0.0,0.0
99,24.5,61.0193,58.3521,119.24,100.051,98.7865,0.004233,0.363226,20.3775,92.8718,0.115779,0.0,0.0
110,27.25,64.2635,61.535,119.189,100.056,97.9908,0.00485126,0.409,20.3685,92.3013,0.189811,0.0,0.0
121,30,66.3341,63.8369,122.136,100.047,98.7554,0.00504446,0.431397,20.3958,91.7908,0.118243,0.0,0.0
132,32.75,68.0924,65.8383,127.694,100.025,99.4547,0.00508489,0.435351,20.4401,91.4706,0.0520652,0.0,0.0
143,35.5,69.3266,67.2904,124.87,99.9926,101.086,0.00503543,0.42736,20.4904,91.1503,-0.0989829,0.0,0.0
154,38.25,69.1895,68.1251,130.502,99.9751,102.373,0.00475198,0.411038,20.5484,90.8,-0.215709,0.0,0.0
165,41,70.2202,69.2525,127.332,99.9347,102.16,0.00435783,0.392746,20.5926,90.4497,-0.200387,0.0,0.0
176,43.75,70.6435,69.7381,127.734,99.8912,102.542,0.00400685,0.377305,20.6162,90.0293,-0.238303,0.0,0.0
187,46.5,70.892,70.3368,130.116,99.8437,103.255,0.00371743,0.367012,20.6248,89.699,-0.305754,0.0,0.0
198,49.25,71.1505,71.0295,133.308,99.8241,103.5,0.00331488,0.36026,20.6245,89.3687,-0.329062,0.0,0.0
209,52,71.8064,71.0745,125.416,99.779,103.221,0.00304334,0.358594,20.6126,89.0284,-0.308674,0.0,0.0
220,54.75,72.2693,72.2368,123.893,99.7387,102.508,0.00309799,0.361425,20.6006,88.6481,-0.249249,0.0,0.0
231,57.5,72.4197,73.0184,126.364,99.694,103.558,0.00326676,0.364359,20.5925,88.1576,-0.346081,0.0,0.0
242,60.25,73.2263,73.9235,127.349,99.6636,103.434,0.00350833,0.365387,20.5893,87.8173,-0.337923,0.0,0.0
253,63,74.1176,74.4683,130.451,99.6393,103.621,0.00386856,0.366401,20.5851,87.4871,-0.356574,0.0,0.0
264,65.75,74.6544,75.7752,123.235,99.6221,103.788,0.00407634,0.370303,20.5764,87.0967,-0.372802,0.0,0.0
275,68.5,75.3571,76.3229,125.156,99.5678,103.765,0.00388461,0.376071,20.5672,86.6163,-0.375789,0.0,0.0
286,71.25,76.1084,77.199,124.799,99.5375,103.692,0.0035583,0.385027,20.5472,86.1959,-0.372124,0.0,0.0
297,74,76.6201,77.6119,126.468,99.5235,103.396,0.0033633,0.397856,20.5248,85.8556,-0.34736,0.0,0.0
308,76.75,77.2195,78.6052,127.914,99.5179,102.333,0.00332213,0.410184,20.511,85.4453,-0.253853,0.0,0.0
319,79.5,77.9488,79.1783,126.22,99.5143,101.4,0.00352493,0.420608,20.5009,85.0349,-0.170788,0.0,0.0
330,82.25,78.3146,80.3979,128.265,99.5007,101.026,0.00387095,0.428103,20.4963,84.5645,-0.138425,0.0,0.0
341,85,78.2457,81.2327,126.882,99.5123,100.969,0.00399979,0.431381,20.5006,84.1641,-0.132253,0.0,0.0
352,87.75,79.7943,81.6723,124.236,99.5151,101.337,0.00393778,0.431753,20.5061,83.8338,-0.165136,0.0,0.0
363,90.5,79.2589,81.7806,124.973,99.5263,100.763,0.00397164,0.431079,20.5084,83.4935,-0.112409,0.0,0.0
374,93.25,80.2643,81.7527,130.845,99.5535,100.407,0.00414601,0.431504,20.5091,83.1332,-0.07766,0.0,0.0
385,96,79.7492,82.9226,128.782,99.569,100.762,0.00432677,0.431887,20.5078,82.6628,-0.108382,0.0,0.0
396,98.75,79.8698,83.629,121.91,99.5866,100.095,0.00444209,0.43326,20.5022,82.2925,-0.0463865,0.0,0.0
407,101.5,80.3769,83.5042,120.194,99.6185,99.4849,0.0043989,0.436191,20.4962,82.0322,0.0122158,0.0,0.0
418,104.25,80.8588,84.0371,125.621,99.6409,100.89,0.00438215,0.440718,20.4878,81.6519,-0.113358,0.0,0.0
429,107,81.5387,84.2525,124.319,99.6764,100.052,0.00449252,0.44522,20.4826,81.2415,-0.0342504,0.0,0.0
440,109.75,82.1261,84.7044,126.843,99.7076,100.369,0.00439501,0.449719,20.4791,80.8012,-0.0601548,0.0,0.0
451,112.5,82.2091,85.0839,126.096,99.7471,100.513,0.00416095,0.453108,20.4789,80.3908,-0.069644,0.0,0.0
462,115.25,82.1482,85.8302,124.685,99.8022,100.241,0.00402281,0.452949,20.4872,80.1806,-0.0399206,0.0,0.0
473,118,82.2979,86.1822,126.407,99.8441,100.968,0.00391574,0.449254,20.4996,79.8403,-0.101882,0.0,0.0
484,120.75,81.8863,86.066,125.685,99.8748,99.6776,0.00360209,0.439795,20.5228,79.51,0.0179884,0.0,0.0
495,123.5,82.2827,85.5933,124.648,99.896,100.304,0.00337975,0.425147,20.5495,79.2198,-0.0370499,0.0,0.0
506,126.25,81.5121,86.0033,129.655,99.9287,102.002,0.0032686,0.403692,20.5915,79.0997,-0.186842,0.0,0.0
517,129,81.043,85.7622,133.599,99.9735,103.324,0.00334074,0.370129,20.6624,78.9095,-0.299966,0.0,0.0
528,131.75,79.1998,85.0254,135.748,99.9906,104.834,0.0040611,0.331184,20.7299,78.8394,-0.430424,0.0,0.0
539,134.5,77.7645,83.7236,138.531,100.002,105.555,0.00528236,0.286332,20.7986,78.6993,-0.491776,0.0,0.0
550,137.25,76.204,82.6408,137.258,100.02,105.457,0.00659483,0.249225,20.8406,78.6793,-0.48171,0.0,0.0
561,140,74.629,81.1668,141.434,100.029,105.543,0.00774203,0.219249,20.8657,78.6893,-0.488294,0.0,0.0
572,142.75,72.8279,80.0076,140.486,100.023,105.777,0.0086575,0.196107,20.8817,78.6593,-0.508967,0.0,0.0
583,145.5,71.4758,78.3542,132.512,100.026,105.095,0.0099152,0.178967,20.8886,78.6493,-0.449833,0.0,0.0
594,148.25,70.1154,78.002,141.973,100.006,104.98,0.0114219,0.165641,20.8919,78.4991,-0.441777,0.0,0.0
605,151,67.4272,74.5936,136.023,99.9974,105.259,0.012782,0.154974,20.8972,78.409,-0.46667,0.0,0.0
616,153.75,66.1334,73.8472,141.118,99.983,105.394,0.0136501,0.146412,20.9006,78.5292,-0.47965,0.0,0.0
627,156.5,65.493,72.6363,138.796,99.9479,105.993,0.0136578,0.138934,20.9038,78.4591,-0.534415,0.0,0.0
638,159.25,64.1647,71.612,140.578,99.9192,105.346,0.0131275,0.133387,20.9058,78.349,-0.481267,0.0,0.0
649,162,62.7375,70.5443,139.277,99.8732,104.971,0.0124853,0.128955,20.9064,78.2889,-0.453066,0.0,0.0
660,164.75,62.4382,69.4703,136.782,99.8533,104.292,0.0117362,0.125584,20.9074,78.299,-0.395824,0.0,0.0
671,167.5,61.6534,68.4973,136.585,99.8277,104.983,0.011167,0.122442,20.9085,78.309,-0.458189,0.0,0.0
682,170.25,61.2116,67.9898,139.657,99.8046,105.331,0.0107828,0.119963,20.909,78.2789,-0.490464,0.0,0.0
693,173,60.7063,66.8956,138.584,99.7718,104.839,0.0104831,0.118244,20.909,78.1388,-0.450865,0.0,0.0
704,175.75,59.5252,66.2006,138.336,99.7315,104.75,0.0100281,0.11682,20.9079,78.1288,-0.446763,0.0,0.0
715,178.5,59.4331,65.9774,138.53,99.7112,105.209,0.00953865,0.115514,20.9075,78.1788,-0.488436,0.0,0.0
726,181.25,59.2086,65.3441,136.838,99.7115,105.194,0.00927525,0.114702,20.9074,78.1588,-0.487076,0.0,0.0
737,184,58.6849,64.509,134.455,99.6936,105.36,0.00913346,0.113752,20.9074,78.1288,-0.50304,0.0,0.0
748,186.75,58.44,64.3941,139.708,99.6708,104.714,0.00892156,0.112641,20.9082,78.0087,-0.44921,0.0,0.0
759,189.5,57.8493,63.2369,142.417,99.662,104.929,0.00866277,0.111788,20.9092,77.9286,-0.4687,0.0,0.0
770,192.25,57.244,63.4854,139.771,99.6688,104.617,0.00849924,0.111167,20.9095,77.9987,-0.440936,0.0,0.0
781,195,56.8993,62.2078,138.473,99.6481,105.552,0.00828138,0.110905,20.911,77.9386,-0.523827,0.0,0.0
792,197.75,56.2647,61.8699,140.937,99.6545,104.751,0.0080778,0.110407,20.9117,77.8385,-0.453914,0.0,0.0
803,200.5,56.5059,60.8006,137.538,99.6545,105.135,0.0079122,0.109827,20.9119,77.8486,-0.487222,0.0,0.0
814,203.25,56.3012,61.2591,141.524,99.66,105.235,0.00763573,0.109727,20.9115,77.8786,-0.49536,0.0,0.0
825,206,55.8078,60.3011,138.163,99.6848,105.13,0.00757016,0.109527,20.9102,77.8886,-0.484023,0.0,0.0
836,208.75,55.1476,59.819,140.237,99.6924,104.853,0.0076786,0.109332,20.9101,77.8586,-0.459327,0.0,0.0
847,211.5,55.4978,59.9924,138.067,99.6928,105.137,0.00750081,0.108932,20.9114,77.7285,-0.483879,0.0,0.0
858,214.25,55.0815,59.7189,137.152,99.7072,105.091,0.00720051,0.108514,20.9118,77.7084,-0.478552,0.0,0.0
869,217,54.9057,59.4101,138.715,99.7112,104.872,0.00705189,0.108389,20.9122,77.7485,-0.459255,0.0,0.0
880,219.75,55.1205,59.2597,139.757,99.7267,105.353,0.006944,0.108239,20.9127,77.7385,-0.49947,0.0,0.0
891,222.5,54.8707,58.7847,141.127,99.7367,104.803,0.00694624,0.107932,20.9128,77.6984,-0.450865,0.0,0.0
902,225.25,54.7861,58.3626,137.783,99.7403,104.977,0.0069866,0.107917,20.9133,77.5983,-0.465696,0.0,0.0
913,228,54.5822,58.192,138.076,99.7547,104.424,0.00710403,0.107692,20.9141,77.5583,-0.416282,0.0,0.0
924,230.75,54.5703,57.638,137.767,99.779,105.034,0.00714322,0.107371,20.9145,77.6284,-0.46712,0.0,0.0
935,233.5,54.43,57.7663,137.883,99.7742,105.37,0.00707651,0.107241,20.914,77.5783,-0.496575,0.0,0.0
946,236.25,53.931,57.51,140.992,99.7503,104.866,0.00716988,0.10684,20.9134,77.5083,-0.455099,0.0,0.0
957,239,53.9306,57.5961,138.158,99.7455,104.76,0.00727073,0.106435,20.9146,77.4582,-0.446347,0.0,0.0
968,241.75,53.9542,57.4424,140.272,99.7439,104.85,0.00727827,0.106087,20.9146,77.4682,-0.454314,0.0,0.0
979,244.5,54.5386,57.1387,138.936,99.7283,105.342,0.00713166,0.10572,20.9146,77.4782,-0.498314,0.0,0.0
990,247.25,53.682,57.2902,136.359,99.7299,104.483,0.00686737,0.105308,20.9151,77.4482,-0.423719,0.0,0.0
1001,250,53.7641,56.3673,138.312,99.7072,105.355,0.006698,0.105309,20.9141,77.3281,-0.501373,0.0,0.0
1012,252.75,53.7387,56.6001,144.498,99.6716,104.825,0.00667327,0.105305,20.915,77.2981,-0.45876,0.0,0.0
1023,255.5,53.0921,56.5546,141.891,99.6728,104.837,0.0066635,0.10504,20.9152,77.3581,-0.459706,0.0,0.0
1034,258.25,53.524,56.1101,145.36,99.6648,105.046,0.00679449,0.10462,20.916,77.3381,-0.478553,0.0,0.0
1045,261,53.5888,56.4611,139.102,99.6341,105.067,,0.104389,,77.3181,-0.483155,0.0,0.0
1056,263.75,53.3489,56.0488,137.313,99.6049,104.218,,,,77.218,-0.412039,0.0,0.0
1067,266.5,53.6249,55.4769,139.158,99.5894,105.171,,,,77.198,-0.496246,0.0,0.0
1078,269.25,53.5366,56.1316,138.726,99.587,104.662,,,,77.2981,-0.452289,0.0,0.0
1079,269.5,53.1624,55.3629,140.787,99.5766,104.471,,,,77.208,-0.436621,0.0,0.0