File: 01_Data/Luan_Panel/Cone/Luan_Panel_Cone_HF50Scan_220916_R4.csv
Names,Time,Stack TC,Smoke TC,Exh Press,Smoke Comp,Smoke Meas,CO Meter,CO2 Meter,O2 Meter,Sample Mass,Ext Coeff,Start Test,Flame Verif
Chan Gain,,500,500,1,1,1,1,1,1,1,1,1.0,1.0
Offset,,0,0,0.146632,0,0,0,0,0,0,0,0.0,0.0
Gain,,1,1,25.011,13.0826,14.7555,1,1,1,1.00088,1.03743,1.0,1.0
Units,sec,C,C,Pa,%,%,%,%,%,g,/m,,
Baseline,,54.3749,55.8473,140.181,99.5192,105.229,0.000572997,0.0457717,20.981,-450.204,-0.507645,,
12,2.75,51.5139,52.5667,137.406,99.8928,104.89,0.00058949,0.0502052,20.9753,85.8256,-0.444215,0.0,0.0
24,5.75,51.0966,52.4004,142.294,99.9096,105.097,0.000550953,0.0506502,20.9741,85.7355,-0.460602,0.0,0.0
36,8.75,51.0231,53.145,139.441,99.9447,104.938,0.000628153,0.0506214,20.977,85.5854,-0.443667,0.0,0.0
48,11.75,51.5081,52.8295,143.23,99.9886,103.578,0.000675343,0.0517216,20.9771,85.5053,-0.320966,0.0,0.0
60,14.75,51.6237,53.4279,142.162,100.02,100.603,0.001074,0.0571997,20.9643,85.3852,-0.0528689,0.0,0.0
72,17.75,52.2796,52.9625,123.234,100.047,104.125,0.00176737,0.109077,20.8161,85.0349,-0.363529,0.0,1.0
84,20.75,54.9399,54.8531,117.161,100.088,102.075,0.00258737,0.198079,20.6443,84.5244,-0.178896,0.0,1.0
96,23.75,58.1287,56.5751,119.618,100.111,99.9712,0.00344543,0.30691,20.4851,84.024,0.0126979,0.0,0.0
108,26.75,61.7874,59.7979,124.301,100.143,99.5614,0.0041819,0.386828,20.4086,83.4335,0.0529788,0.0,0.0
120,29.75,65.5303,62.9052,128.545,100.156,100.398,0.00473573,0.432074,20.3956,82.903,-0.0219788,0.0,0.0
132,32.75,67.3104,65.8099,120.907,100.195,99.1827,0.00517033,0.447886,20.4226,82.4526,0.0923756,0.0,0.0
144,35.75,68.9344,67.2165,123.24,100.226,99.9501,0.00537087,0.442689,20.4709,82.0122,0.0250708,0.0,0.0
156,38.75,70.1413,69.4481,131.397,100.25,101.353,0.00514351,0.423307,20.5326,81.5818,-0.0995439,0.0,0.0
168,41.75,70.861,69.506,127.934,100.276,101.293,0.00473592,0.400227,20.5758,81.1415,-0.0918494,0.0,0.0
180,44.75,71.1734,71.0346,124.44,100.284,101.474,0.00455929,0.382185,20.6024,80.7811,-0.10741,0.0,0.0
192,47.75,72.1284,72.3041,130.492,100.298,102.7,0.00456651,0.368821,20.6189,80.3808,-0.215331,0.0,0.0
204,50.75,71.9455,72.8825,127.091,100.307,103.176,0.00453518,0.363048,20.6154,79.9604,-0.256576,0.0,0.0
216,53.75,72.8662,73.381,120.969,100.343,101.215,0.00455258,0.368089,20.5903,79.54,-0.0787586,0.0,0.0
228,56.75,74.0197,74.8966,122.65,100.324,101.556,0.00466307,0.379882,20.5633,79.0696,-0.111062,0.0,0.0
240,59.75,75.1016,75.2577,120.808,100.32,102.069,0.00479097,0.390069,20.5456,78.6192,-0.157305,0.0,0.0
252,62.75,75.5426,76.1921,126.316,100.32,102.582,0.00464808,0.395017,20.5402,78.1788,-0.202918,0.0,0.0
264,65.75,76.6081,77.3736,123.835,100.307,102.35,0.00438824,0.397375,20.5397,77.7084,-0.183477,0.0,0.0
276,68.75,77.7201,78.1454,123.742,100.288,103.282,0.00405801,0.400835,20.5385,77.3081,-0.267723,0.0,0.0
288,71.75,78.1211,79.1655,118.102,100.278,103.273,0.00380223,0.407759,20.5263,76.8577,-0.267872,0.0,0.0
300,74.75,78.5198,80.4094,126.041,100.258,104.313,0.00359526,0.417903,20.5124,76.4173,-0.36085,0.0,0.0
312,77.75,79.6519,80.994,123.446,100.235,103.908,0.00360203,0.429243,20.495,75.9769,-0.327564,0.0,0.0
324,80.75,80.3334,82.1526,120.765,100.217,103.243,0.00393554,0.442291,20.478,75.4865,-0.270757,0.0,0.0
336,83.75,81.492,82.9817,126.924,100.204,102.071,0.00417764,0.455383,20.4579,75.0461,-0.16805,0.0,0.0
348,86.75,81.7986,83.8858,123.032,100.166,100.82,0.00425804,0.469139,20.4439,74.5857,-0.0591594,0.0,0.0
360,89.75,82.6921,85.1707,129.094,100.142,100.399,0.00441431,0.47304,20.4453,74.2154,-0.0233665,0.0,0.0
372,92.75,83.1466,85.7482,122.487,100.101,99.8388,0.00456887,0.469879,20.4608,73.815,0.0238504,0.0,0.0
384,95.75,83.6194,86.338,127.382,100.07,98.6523,0.00463358,0.466499,20.4693,73.3746,0.12982,0.0,0.0
396,98.75,83.9579,86.8054,124.502,100.026,99.0022,0.00460385,0.46294,20.4738,72.9142,0.0936073,0.0,0.0
408,101.75,84.1473,86.9023,121.392,99.9918,99.8496,0.00440612,0.460502,20.4762,72.5539,0.0129503,0.0,0.0
420,104.75,84.4974,87.6498,124.512,99.9335,99.9586,0.00424528,0.459168,20.4786,72.1235,-0.00228279,0.0,0.0
432,107.75,84.6824,88.1575,126.189,99.8788,100.553,0.00424186,0.456171,20.4855,71.7532,-0.061219,0.0,0.0
444,110.75,84.3852,88.4531,130.239,99.8325,101.143,0.00411634,0.453116,20.4912,71.3428,-0.118711,0.0,0.0
456,113.75,84.2456,88.9239,125.346,99.7623,101.171,0.00391949,0.447747,20.503,70.9725,-0.127631,0.0,0.0
468,116.75,84.4871,88.6313,123.556,99.6996,101.031,0.00347549,0.43849,20.5199,70.6622,-0.120704,0.0,0.0
480,119.75,83.88,88.8916,129.074,99.6465,101.698,0.00327023,0.426161,20.5416,70.3219,-0.185425,0.0,0.0
492,122.75,83.4772,88.4951,127.114,99.587,101.763,0.00315168,0.409335,20.5719,70.0317,-0.196742,0.0,0.0
504,125.75,83.3009,88.7341,128,99.5179,102.048,0.00284295,0.386544,20.6124,69.8215,-0.22851,0.0,0.0
516,128.75,82.2011,87.9291,131.409,99.4456,103.145,0.00274215,0.351216,20.679,69.6213,-0.332379,0.0,0.0
528,131.75,81.4741,86.8833,134.108,99.3961,105.025,0.00361984,0.303846,20.7532,69.4912,-0.501248,0.0,0.0
540,134.75,79.1726,85.7128,132.596,99.355,105.15,0.00514921,0.256054,20.8097,69.4111,-0.515894,0.0,0.0
552,137.75,77.378,84.4612,140.634,99.2812,104.437,0.00659869,0.21767,20.849,69.3711,-0.46072,0.0,0.0
564,140.75,75.5494,83.1355,141.575,99.2205,105.011,0.00781042,0.190564,20.8696,69.291,-0.516137,0.0,0.0
576,143.75,74.0834,81.6124,138.676,99.1738,104.629,0.00872684,0.170042,20.8825,69.261,-0.487309,0.0,0.0
588,146.75,72.5157,80.1369,139.57,99.0955,104.784,0.00933373,0.155648,20.8896,69.221,-0.507956,0.0,0.0
600,149.75,71.4811,78.7987,137.255,99.0484,104.446,0.00981648,0.144557,20.8948,69.1809,-0.482866,0.0,0.0
612,152.75,69.7666,77.2397,137.359,98.9749,104.715,0.0105553,0.13669,20.8979,69.1509,-0.51301,0.0,0.0
624,155.75,69.2289,76.3405,139.521,98.9302,104.913,0.0112675,0.130473,20.9007,69.1209,-0.534325,0.0,0.0
636,158.75,68.2479,75.2827,138.465,98.8851,105.025,0.0117041,0.125887,20.9028,69.1009,-0.548196,0.0,0.0
648,161.75,65.6755,72.3375,141.702,98.8775,104.519,0.0116734,0.121904,20.906,69.0508,-0.504972,0.0,0.0
660,164.75,64.6937,72.18,139.263,98.9142,104.474,0.0112392,0.118382,20.9083,69.0308,-0.497631,0.0,0.0
672,167.75,63.7009,70.7067,136.92,98.9666,104.813,0.0109384,0.116122,20.9089,69.0308,-0.522347,0.0,0.0
684,170.75,63.3878,70.1855,141.872,99.0456,104.937,0.0106626,0.114415,20.9089,69.0308,-0.525826,0.0,0.0
696,173.75,62.5435,69.3851,137.761,99.175,104.604,0.0102035,0.11295,20.9085,68.9807,-0.485006,0.0,0.0
708,176.75,61.9591,68.1502,139.308,99.2991,104.965,0.00972814,0.111944,20.9084,68.9607,-0.504983,0.0,0.0
720,179.75,61.4934,67.8432,140,99.4369,104.971,0.00928618,0.110906,20.9083,68.9307,-0.492915,0.0,0.0
732,182.75,61.1864,67.273,140.598,99.5806,105.505,0.00905568,0.11035,20.9096,68.8807,-0.525875,0.0,0.0
744,185.75,60.2109,66.6765,137.4,99.7223,105.845,0.00874199,0.109398,20.9109,68.8606,-0.542288,0.0,0.0
756,188.75,60.0246,65.65,136.401,99.8293,105.682,0.00821914,0.108671,20.9098,68.8406,-0.518425,0.0,0.0
768,191.75,59.7239,65.1312,134.265,99.924,105.953,0.00778452,0.108549,20.9091,68.8006,-0.533155,0.0,0.0
780,194.75,59.5067,64.9891,134.344,100.013,105.968,0.00795069,0.10814,20.9085,68.7706,-0.526362,0.0,0.0
792,197.75,59.0241,64.7295,140.467,100.045,105.537,0.00809013,0.107635,20.9098,68.7205,-0.486376,0.0,0.0
804,200.75,58.3513,63.6133,137.983,100.08,105.756,0.00792969,0.107425,20.9104,68.7105,-0.50203,0.0,0.0
816,203.75,58.4112,63.6314,133.477,100.086,105.997,0.00776143,0.106903,20.9102,68.6505,-0.522155,0.0,0.0
828,206.75,57.9069,62.4527,137.147,100.066,105.969,0.0077801,0.1065,20.9116,68.5804,-0.521576,0.0,0.0
840,209.75,57.921,62.4087,139.738,100.042,105.718,0.00778976,0.106423,20.9121,68.5303,-0.502225,0.0,0.0
852,212.75,57.6278,62.3555,138.543,100.003,105.976,0.0074946,0.105704,20.9122,68.5103,-0.527891,0.0,0.0
864,215.75,57.6898,62.0195,136.981,99.9675,105.722,0.00709396,0.105103,20.9122,68.4703,-0.50933,0.0,0.0
876,218.75,57.1927,61.5152,137.438,99.922,105.922,0.00709207,0.104612,20.9123,68.4303,-0.530628,0.0,0.0
888,221.75,56.8129,61.0284,137.947,99.8613,105.856,0.00706119,0.104476,20.9123,68.4203,-0.530546,0.0,0.0
900,224.75,57.0435,60.7827,140.418,99.8269,105.811,0.00698085,0.104376,20.9117,68.3702,-0.529764,0.0,0.0
912,227.75,56.8941,60.6308,140.018,99.7734,105.454,0.00693698,0.104507,20.9116,68.3102,-0.503879,0.0,0.0
924,230.75,56.6217,59.818,139.416,99.7171,105.632,0.00695717,0.104099,20.9116,68.3001,-0.524429,0.0,0.0
936,233.75,56.5048,59.795,138.471,99.6337,105.876,0.00705373,0.104118,20.9116,68.2801,-0.55305,0.0,0.0
948,236.75,56.2649,59.8817,138.393,99.5511,105.566,0.00707785,0.104267,20.9116,68.2801,-0.533894,0.0,0.0
960,239.75,56.156,60.0765,136.314,99.4768,105.383,0.00713861,0.104119,20.9116,68.2601,-0.524912,0.0,0.0
972,242.75,55.9129,59.7019,136.334,99.3906,105,0.00704488,0.103979,20.9116,68.2601,-0.499614,0.0,0.0
984,245.75,55.6731,58.8094,139.485,99.3339,105.052,0.00686547,0.103847,20.9121,68.2601,-0.509293,0.0,0.0
996,248.75,56.1639,58.8956,139.901,99.3406,105.546,0.00682757,0.103646,20.9126,68.2201,-0.551402,0.0,0.0
1008,251.75,56.1,58.7901,141.12,99.4668,105.082,0.00675976,0.103342,20.9121,68.19,-0.499774,0.0,0.0
1020,254.75,56.3356,58.4743,138.792,99.5834,105.715,0.00672814,0.103346,20.9127,68.17,-0.543779,0.0,0.0
1032,257.75,55.5389,58.8572,140.138,99.6652,105.101,0.00670884,0.102901,20.9129,68.15,-0.483275,0.0,0.0
1044,260.75,55.5875,58.5409,137.862,99.7303,106.009,0.00663989,0.102817,20.9129,68.11,-0.55564,0.0,0.0
1056,263.75,55.5706,58.2397,138.196,99.8437,105.245,0.00660299,0.102819,20.9129,68.0599,-0.479462,0.0,0.0
1068,266.75,55.8836,58.2332,136.926,99.9335,105.829,0.00680695,0.102888,20.9123,68.0699,-0.521601,0.0,0.0
1080,269.75,55.086,58.0215,137.032,99.9978,105.477,,0.102557,,67.9999,-0.485419,0.0,0.0
1092,272.75,55.0558,57.6501,142.038,100.012,106.058,,,,68.0099,-0.534166,0.0,0.0
1104,275.75,55.0757,58.0901,141.337,100.019,105.609,,,,67.9599,-0.494833,0.0,0.0
1115,278.5,55.3759,57.4257,136.974,100.02,105.927,,,,67.9599,-0.522191,0.0,0.0