File: 01_Data/Luan_Panel/Cone/Luan_Panel_Cone_HF50Scan_220916_R2.csv
Names,Time,Stack TC,Smoke TC,Exh Press,Smoke Comp,Smoke Meas,CO Meter,CO2 Meter,O2 Meter,Sample Mass,Ext Coeff,Start Test,Flame Verif
Chan Gain,,500,500,1,1,1,1,1,1,1,1,1.0,1.0
Offset,,0,0,0.146632,0,0,0,0,0,0,0,0.0,0.0
Gain,,1,1,25.011,13.0826,14.7555,1,1,1,1.00088,1.03743,1.0,1.0
Units,sec,C,C,Pa,%,%,%,%,%,g,/m,,
Baseline,,47.1365,48.3524,143.147,100.054,105.124,0.000364682,0.0447236,20.9863,-449.541,-0.449758,,
12,2.75,46.1838,47.2135,142.264,100.563,106.067,0.000148766,0.0503925,20.978,90.0393,-0.484942,0.0,0.0
24,5.75,45.6995,47.554,138.831,100.562,105.68,0.000367334,0.0505277,20.9816,89.9592,-0.451803,0.0,0.0
36,8.75,46.4452,47.8316,144.315,100.573,104.192,0.000463043,0.0502006,20.9842,89.8691,-0.321689,0.0,0.0
48,11.75,46.6023,47.746,142.75,100.554,103.466,0.000623986,0.0504279,20.9823,89.759,-0.259876,0.0,0.0
60,14.75,46.7486,47.963,129.004,100.528,105.112,0.00105544,0.0598398,20.953,89.5889,-0.40581,0.0,1.0
72,17.75,48.6748,49.2239,127.201,100.505,103.881,0.0019018,0.101653,20.7719,89.1585,-0.300613,0.0,1.0
84,20.75,50.5285,49.8967,123.427,100.472,102.416,0.00253868,0.177008,20.5998,88.6781,-0.174378,0.0,0.0
96,23.75,54.6021,52.7758,118.782,100.431,101.33,0.00318254,0.248506,20.4987,88.1777,-0.0811181,0.0,0.0
108,26.75,57.7525,55.9179,125.126,100.41,100.879,0.00381282,0.308383,20.4501,87.6472,-0.0424641,0.0,0.0
120,29.75,61.0832,58.07,119.821,100.346,99.7303,0.00436044,0.349612,20.4431,87.1568,0.0560413,0.0,0.0
132,32.75,63.06,60.8278,120.531,100.32,100.394,0.00484385,0.375496,20.4626,86.6763,-0.0066373,0.0,0.0
144,35.75,64.6482,62.2168,122.726,100.268,101.223,0.00480425,0.386167,20.499,86.2259,-0.0862563,0.0,0.0
156,38.75,65.786,63.5837,127.595,100.22,101.893,0.00474466,0.386444,20.5382,85.8256,-0.150648,0.0,0.0
168,41.75,66.5345,64.9826,131.24,100.17,102.573,0.00479349,0.37914,20.5735,85.4352,-0.215707,0.0,0.0
180,44.75,67.0536,66.0916,130.994,100.112,102.143,0.004696,0.367521,20.6121,85.0149,-0.18285,0.0,0.0
192,47.75,67.2906,66.4576,135.134,100.049,102.862,0.00471648,0.357301,20.6321,84.6445,-0.252393,0.0,0.0
204,50.75,67.2953,67.1118,128.995,99.9687,103.287,0.00432102,0.350987,20.6387,84.2542,-0.297189,0.0,0.0
216,53.75,68.1631,67.9679,120.819,99.9092,102.263,0.00399061,0.349654,20.6223,83.8639,-0.211895,0.0,0.0
228,56.75,68.9937,68.8326,125.795,99.8361,101.783,0.00419933,0.356078,20.5913,83.3734,-0.175735,0.0,0.0
240,59.75,69.3527,69.9435,127.51,99.7619,102.118,0.00439481,0.366584,20.5598,82.913,-0.212412,0.0,0.0
252,62.75,70.6878,71.0361,126.771,99.676,101.25,0.00429451,0.376239,20.5466,82.4726,-0.142587,0.0,0.0
264,65.75,71.0768,71.7363,127.749,99.6081,102.497,0.00403106,0.381534,20.5478,82.0222,-0.26013,0.0,0.0
276,68.75,71.8545,73.0327,126.743,99.5379,103.191,0.00361824,0.383244,20.5565,81.6219,-0.328034,0.0,0.0
288,71.75,72.442,73.9072,126.24,99.4552,102.637,0.00338183,0.382907,20.562,81.1915,-0.286617,0.0,0.0
300,74.75,72.7527,73.7167,124.898,99.383,102.746,0.00325388,0.383479,20.5614,80.7811,-0.302809,0.0,0.0
312,77.75,73.0039,75.2049,128.265,99.3247,103.482,0.00300465,0.38622,20.5567,80.3808,-0.373126,0.0,0.0
324,80.75,74.0863,75.8314,127.822,99.2484,102.555,0.00296669,0.392015,20.5419,79.9504,-0.29829,0.0,0.0
336,83.75,74.5943,76.6553,127.136,99.1977,102.704,0.00321428,0.400738,20.5251,79.51,-0.316078,0.0,0.0
348,86.75,75.8781,77.5717,124.547,99.1223,102.03,0.00356303,0.411896,20.5034,79.1197,-0.263155,0.0,0.0
360,89.75,76.4034,78.5186,122.08,99.06,99.6988,0.00377037,0.425144,20.482,78.7093,-0.0584967,0.0,0.0
372,92.75,76.8407,78.5484,124.003,98.9925,99.5668,0.00390847,0.434739,20.4749,78.2389,-0.0526463,0.0,0.0
384,95.75,77.2216,79.8595,122.265,98.9446,98.9968,0.00390196,0.440846,20.4734,77.8185,-0.0047968,0.0,0.0
396,98.75,77.556,80.048,121.196,98.9023,98.9571,0.00393724,0.443494,20.4765,77.3681,-0.00504645,0.0,0.0
408,101.75,78.0883,80.9986,124.967,98.8631,100.081,0.00399222,0.444506,20.4796,76.9578,-0.111385,0.0,0.0
420,104.75,78.5546,81.4849,122.52,98.8512,99.1346,0.00400885,0.445123,20.4819,76.5975,-0.0260512,0.0,0.0
432,107.75,78.955,82.0229,126.253,98.8412,99.8541,0.00407814,0.445172,20.4852,76.1871,-0.0927875,0.0,0.0
444,110.75,79.5362,82.1307,125.807,98.8671,100.046,0.00425109,0.443791,20.4961,75.7667,-0.107824,0.0,0.0
456,113.75,79.2512,82.5274,124.344,98.9091,100.807,0.00405783,0.441427,20.506,75.3864,-0.172967,0.0,0.0
468,116.75,79.3336,82.6522,125.379,98.955,100.304,0.00346181,0.437726,20.5172,75.0361,-0.123182,0.0,0.0
480,119.75,79.2679,83.1284,126.227,99.0288,101.758,0.00316059,0.431873,20.5336,74.6958,-0.247365,0.0,0.0
492,122.75,78.9357,83.3618,124.313,99.0907,101.286,0.00318389,0.422517,20.5578,74.3755,-0.199419,0.0,0.0
504,125.75,78.556,83.2132,129.506,99.1989,101.077,0.00325032,0.409039,20.5836,74.0852,-0.170654,0.0,0.0
516,128.75,78.2957,83.1677,134.549,99.2959,102.329,0.00323002,0.390107,20.6216,73.815,-0.273814,0.0,0.0
528,131.75,77.5332,82.5151,131.725,99.3949,103.052,0.00319071,0.365424,20.6661,73.6348,-0.328793,0.0,0.0
540,134.75,76.1058,81.5795,141.511,99.4832,104.561,0.00328688,0.335646,20.7266,73.4947,-0.453005,0.0,0.0
552,137.75,74.6346,80.6611,138.064,99.5642,105.269,0.00416547,0.299802,20.7927,73.4247,-0.507074,0.0,0.0
564,140.75,72.8905,79.1421,138.25,99.6509,105.8,0.00588031,0.263914,20.8385,73.3746,-0.544938,0.0,0.0
576,143.75,70.9245,77.685,135.938,99.7467,105.227,0.0074127,0.232034,20.8678,73.2845,-0.486751,0.0,0.0
588,146.75,69.4783,76.4793,142.89,99.8197,104.769,0.00846833,0.20902,20.8822,73.2445,-0.440397,0.0,0.0
600,149.75,68.1927,75.0294,137.952,99.8705,105.322,0.0093826,0.189837,20.8925,73.2645,-0.48368,0.0,0.0
612,152.75,66.9991,74.0926,138.06,99.9136,105.124,0.00998504,0.174608,20.8995,73.1845,-0.462616,0.0,0.0
624,155.75,65.2813,72.6745,139.389,99.9559,104.912,0.0105122,0.163517,20.9013,73.1845,-0.440384,0.0,0.0
636,158.75,64.4125,71.916,141.11,99.985,105.075,0.0107328,0.153898,20.9023,73.1644,-0.451899,0.0,0.0
648,161.75,63.5085,70.953,140.136,100.011,105.491,0.0107354,0.146297,20.9039,73.1244,-0.485502,0.0,0.0
660,164.75,62.8552,69.7835,137.541,100.033,105.283,0.0107767,0.14003,20.9044,73.1244,-0.465539,0.0,0.0
672,167.75,62.1647,69.0343,139.138,100.027,104.848,0.0110415,0.134807,20.9059,73.1144,-0.428407,0.0,0.0
684,170.75,59.7925,66.4138,136.554,100.017,105.591,0.0116015,0.130143,20.9088,73.0543,-0.493539,0.0,0.0
696,173.75,58.232,66.0522,139.715,100.005,105.256,0.0116115,0.1263,20.9107,73.0643,-0.465744,0.0,0.0
708,176.75,58.0609,64.7381,136.455,100,105.502,0.0113558,0.123061,20.9119,73.0143,-0.487415,0.0,0.0
720,179.75,57.4787,63.9679,141.317,99.9942,105.257,0.0110803,0.120707,20.911,72.9943,-0.466767,0.0,0.0
732,182.75,57.3598,63.3652,140.83,99.9687,105.615,0.0105403,0.118345,20.9109,72.9542,-0.500029,0.0,0.0
744,185.75,56.3949,62.6748,142.998,99.9531,104.732,0.00993697,0.116738,20.9098,72.8842,-0.42504,0.0,0.0
756,188.75,56.113,61.58,141.313,99.9571,105.677,0.00961032,0.11538,20.9094,72.8942,-0.506359,0.0,0.0
768,191.75,55.5484,61.3179,139.638,99.9335,104.751,0.00924406,0.114028,20.9093,72.8742,-0.428425,0.0,0.0
780,194.75,55.5524,60.3699,141.094,99.922,104.338,0.0088441,0.113116,20.9099,72.7741,-0.393535,0.0,0.0
792,197.75,54.8476,60.2952,138.921,99.9399,105.217,0.00865807,0.112107,20.9105,72.8141,-0.468243,0.0,0.0
804,200.75,54.3891,59.2101,139.261,99.9251,105.392,0.0085198,0.111398,20.9112,72.7241,-0.484765,0.0,0.0
816,203.75,54.1998,59.548,140.501,99.9268,105.753,0.00822636,0.110744,20.9125,72.644,-0.515711,0.0,0.0
828,206.75,54.2762,58.662,140.05,99.9451,104.891,0.00799229,0.110273,20.9113,72.5739,-0.43953,0.0,0.0
840,209.75,53.428,57.9272,138.602,99.9435,104.847,0.00776051,0.109797,20.9109,72.4738,-0.435885,0.0,0.0
852,212.75,53.8285,57.7949,140.603,99.9539,104.812,0.00756352,0.109348,20.9116,72.5139,-0.431851,0.0,0.0
864,215.75,53.6385,57.7871,141.917,99.9423,105.712,0.00735738,0.108747,20.912,72.4138,-0.510728,0.0,0.0
876,218.75,53.2183,57.3238,137.948,99.9511,105.375,0.00727509,0.108381,20.9121,72.4638,-0.480925,0.0,0.0
888,221.75,52.9136,56.8369,141.114,99.9603,104.479,0.00722768,0.108183,20.9122,72.4138,-0.402331,0.0,0.0
900,224.75,53.1356,56.7485,142.065,99.9603,105.384,0.00727712,0.107917,20.9129,72.3737,-0.480867,0.0,0.0
912,227.75,51.5763,56.4304,139.274,99.9755,105.195,0.00720726,0.107259,20.9155,72.3437,-0.463139,0.0,0.0
924,230.75,51.9695,55.7618,139.35,99.9814,104.808,0.00717485,0.106877,20.9163,72.4238,-0.42903,0.0,0.0
936,233.75,52.3892,55.9627,141.091,99.981,105.045,0.00723452,0.106841,20.9166,72.3237,-0.449648,0.0,0.0
948,236.75,52.0595,55.7489,137.853,99.9894,105.616,0.00704802,0.106653,20.9166,72.2436,-0.498217,0.0,0.0
960,239.75,51.9004,55.6469,142.114,99.9994,105.34,0.00698312,0.106103,20.9162,72.3237,-0.473455,0.0,0.0
972,242.75,52.1119,55.4954,140.809,100.007,104.839,0.00703937,0.106244,20.9135,72.3137,-0.429477,0.0,0.0
984,245.75,51.8267,55.147,140.711,100.008,105.172,0.00710555,0.10657,20.9124,72.2737,-0.458173,0.0,0.0
996,248.75,51.6724,54.6873,141.35,99.999,105.581,0.00700376,0.106508,20.9131,72.2136,-0.494319,0.0,0.0
1008,251.75,51.3787,54.7107,140.85,99.9902,105.063,0.00682977,0.105815,20.913,72.2336,-0.450334,0.0,0.0
1020,254.75,51.7105,53.9055,140.202,99.9842,105.232,0.00662299,0.105849,20.913,72.1836,-0.465495,0.0,0.0
1032,257.75,51.6444,54.0202,137.877,99.9619,104.536,0.00653944,0.105882,20.9137,72.1535,-0.407164,0.0,0.0
1044,260.75,52.0421,53.9213,142.681,99.9287,105.107,0.0065797,0.105432,20.9149,72.1135,-0.459792,0.0,0.0
1056,263.75,50.927,53.8198,140.659,99.8888,105.369,0.00669755,0.105026,20.9152,72.0835,-0.486014,0.0,0.0
1068,266.75,51.4919,53.6887,140.534,99.8329,104.799,0.00661714,0.104982,20.9153,72.1035,-0.441777,0.0,0.0
1080,269.75,51.0055,53.8594,143.362,99.7726,104.829,0.00658969,0.104997,20.9153,72.0635,-0.449894,0.0,0.0
1092,272.75,50.777,53.8975,136.41,99.6844,104.843,0.00671892,0.10463,20.9158,72.0334,-0.459117,0.0,0.0
1104,275.75,51.1511,53.1573,138.12,99.5914,104.936,0.00665498,0.104431,20.9163,71.9534,-0.47574,0.0,0.0
1116,278.75,50.9996,53.6742,142.259,99.5083,104.695,,0.104255,,71.8833,-0.462376,0.0,0.0
1128,281.75,51.0378,53.0906,138.309,99.4321,104.514,,,,71.8233,-0.453604,0.0,0.0
1140,284.75,50.5367,53.175,142.209,99.3534,104.81,,,,71.7932,-0.486569,0.0,0.0
1152,287.75,50.4396,52.4397,138.896,99.2935,104.336,,,,71.7332,-0.450832,0.0,0.0
1156,288.75,50.8232,52.9513,142.735,99.2684,104.263,,,,71.7432,-0.446693,0.0,0.0