File: 01_Data/Luan_Panel/Cone/Luan_Panel_Cone_HF75Scan_220916_R3.csv
Names,Time,Stack TC,Smoke TC,Exh Press,Smoke Comp,Smoke Meas,CO Meter,CO2 Meter,O2 Meter,Sample Mass,Ext Coeff,Start Test,Flame Verif
Chan Gain,,500,500,1,1,1,1,1,1,1,1,1.0,1.0
Offset,,0,0,0.146632,0,0,0,0,0,0,0,0.0,0.0
Gain,,1,1,25.011,13.0826,14.7555,1,1,1,1.00088,1.03743,1.0,1.0
Units,sec,C,C,Pa,%,%,%,%,%,g,/m,,
Baseline,,64.4984,66.2833,136.191,99.7797,105.727,0.000193286,0.0432768,20.9879,-450.981,-0.526793,,
11,2.5,61.73,63.5671,132.912,99.7455,105.233,0.000108831,0.0454617,20.9809,83.7838,-0.487329,0.0,0.0
22,5.25,61.6646,63.4006,138.049,99.7519,103.284,0.000454338,0.047405,20.9755,83.6337,-0.316627,0.0,0.0
33,8,62.1523,62.9132,118.215,99.7423,102.635,0.00138424,0.103677,20.8313,83.1632,-0.260188,0.0,1.0
44,10.75,66.0504,65.5336,108.755,99.7235,99.0395,0.00293516,0.2771,20.5333,82.4726,0.0626331,0.0,1.0
55,13.5,70.612,68.1754,101.536,99.706,94.3307,0.00466802,0.507759,20.2104,81.782,0.504325,0.0,0.0
66,16.25,77.1229,73.5011,109.759,99.6928,93.8885,0.00606085,0.651888,20.0723,81.2015,0.545882,0.0,0.0
77,19,81.6163,77.7991,111.665,99.67,94.5685,0.00694458,0.696681,20.0897,80.571,0.478137,0.0,0.0
88,21.75,84.1877,81.2094,111.712,99.6469,98.7032,0.00711046,0.670763,20.1867,79.9404,0.0865952,0.0,0.0
99,24.5,86.262,83.5925,116.577,99.6293,98.822,0.00665001,0.622653,20.2819,79.3799,0.0740367,0.0,0.0
110,27.25,87.1532,85.6384,116.887,99.5914,98.9738,0.00597648,0.578962,20.3552,78.9395,0.0566084,0.0,0.0
121,30,88.2005,87.0324,111.399,99.6265,98.8387,0.00547752,0.549934,20.3903,78.5191,0.0722481,0.0,0.0
132,32.75,89.4017,88.5053,116.967,99.6628,98.822,0.00530298,0.531585,20.4121,77.9687,0.0770997,0.0,0.0
143,35.5,90.2059,89.8803,120.619,99.7,100.138,0.00528175,0.508173,20.4386,77.4983,-0.0398781,0.0,0.0
154,38.25,91.0363,90.5186,121.987,99.7471,101.697,0.00511404,0.483599,20.4707,77.0679,-0.176201,0.0,0.0
165,41,91.0736,91.672,117.154,99.8134,102.592,0.00477539,0.460364,20.4904,76.6875,-0.249873,0.0,0.0
176,43.75,91.5296,92.7527,121.143,99.8553,103.253,0.00409443,0.448953,20.4904,76.2872,-0.304461,0.0,0.0
187,46.5,92.5232,93.167,118.529,99.8848,103.555,0.00334811,0.449547,20.4759,75.7467,-0.3284,0.0,0.0
198,49.25,93.1376,93.9896,119.319,99.9084,103.135,0.00317037,0.465394,20.4433,75.3163,-0.289219,0.0,0.0
209,52,94.0357,94.8085,114.968,99.9399,101.484,0.00362103,0.496976,20.3926,74.8559,-0.139545,0.0,0.0
220,54.75,95.1243,96.752,117.922,99.9643,99.4745,0.00437704,0.536646,20.3344,74.3455,0.044694,0.0,0.0
231,57.5,96.5887,97.9599,117.287,99.987,97.8341,0.00533415,0.567135,20.3067,73.825,0.198092,0.0,0.0
242,60.25,97.4543,99.2552,116.183,99.9938,95.8527,0.00611167,0.574619,20.3124,73.2545,0.3849,0.0,0.0
253,63,97.5358,100.158,118.004,99.9727,95.719,0.00634183,0.561905,20.3458,72.7841,0.39568,0.0,0.0
264,65.75,97.8798,100.69,121.401,99.9723,97.4878,0.00596175,0.537842,20.3887,72.3837,0.229014,0.0,0.0
275,68.5,97.8186,100.485,116.916,99.9515,96.9578,0.00560082,0.518247,20.4168,72.0535,0.276735,0.0,0.0
286,71.25,97.1724,101.11,121.735,99.9156,97.7269,0.0053199,0.498648,20.443,71.6231,0.201559,0.0,0.0
297,74,97.4886,101.039,122.95,99.8732,98.0592,0.00507656,0.482928,20.4573,71.2227,0.166811,0.0,0.0
308,76.75,96.9858,101.326,118.441,99.8289,98.8265,0.0049023,0.474829,20.4602,70.8624,0.0918387,0.0,0.0
319,79.5,97.2235,101.718,119.414,99.7678,99.3475,0.00465104,0.46821,20.464,70.5621,0.0384187,0.0,0.0
330,82.25,97.4499,101.687,122.094,99.7323,100.81,0.00424543,0.46194,20.4714,70.1718,-0.0978199,0.0,0.0
341,85,96.8156,101.651,119.466,99.68,100.834,0.00407415,0.454418,20.4839,69.8415,-0.104748,0.0,0.0
352,87.75,96.7024,101.698,123.151,99.6117,99.3205,0.00396938,0.447344,20.4936,69.4512,0.0266437,0.0,0.0
363,90.5,96.7097,102.093,121.433,99.5019,96.3886,0.00378084,0.445596,20.4941,69.1509,0.289291,0.0,0.0
374,93.25,96.6725,101.97,124.731,99.387,97.7202,0.00354028,0.440062,20.5018,68.8907,0.153914,0.0,0.0
385,96,96.1847,101.757,124.928,99.3179,99.6258,0.00332762,0.406458,20.5711,68.7005,-0.0281718,0.0,0.0
396,98.75,94.7569,101.164,127.308,99.3834,101.967,0.00340064,0.34797,20.6593,68.5904,-0.23355,0.0,0.0
407,101.5,92.8652,100.303,129.565,99.4576,104.192,0.00380015,0.290859,20.7449,68.4603,-0.423189,0.0,0.0
418,104.25,91.8576,98.7205,130.47,99.561,104.903,0.00449852,0.237986,20.8044,68.3902,-0.475662,0.0,0.0
429,107,89.5577,97.4006,131.023,99.6664,105.154,0.00570921,0.201097,20.8409,68.4002,-0.487726,0.0,0.0
440,109.75,88.1039,95.9548,134.723,99.7902,105.468,0.00678464,0.174458,20.8654,68.3202,-0.503593,0.0,0.0
451,112.5,86.4414,93.93,127.475,99.8517,105.699,0.00773448,0.158088,20.8783,68.2601,-0.51786,0.0,0.0
462,115.25,85.1242,93.3227,131.81,99.9371,105.482,0.00865738,0.146929,20.8837,68.2101,-0.491409,0.0,0.0
473,118,83.7676,91.9371,133.456,100.013,105.604,0.00943435,0.139067,20.8889,68.16,-0.495065,0.0,0.0
484,120.75,82.5429,90.697,133.396,100.07,105.468,0.0101648,0.133313,20.8914,68.2001,-0.478142,0.0,0.0
495,123.5,81.6392,89.4092,132.231,100.102,105.885,0.0108247,0.128412,20.8953,68.15,-0.511074,0.0,0.0
506,126.25,80.2656,88.3189,130.371,100.116,105.632,0.0111576,0.124469,20.8973,68.1,-0.488061,0.0,0.0
517,129,79.3003,87.2927,132.276,100.114,105.768,0.0112577,0.121879,20.8975,68.0099,-0.499951,0.0,0.0
528,131.75,77.9535,86.2196,134.006,100.104,105.541,0.0114526,0.118887,20.9013,68.0699,-0.481311,0.0,0.0
539,134.5,77.5836,85.7758,135.281,100.11,105.757,0.0116681,0.115998,20.9033,68.0199,-0.499348,0.0,0.0
550,137.25,76.7025,84.5216,133.418,100.072,105.713,0.0120847,0.114043,20.9041,67.9298,-0.498962,0.0,0.0
561,140,75.9721,83.9524,131.461,100.053,106.186,0.0124052,0.113575,20.9028,67.8998,-0.541355,0.0,0.0
572,142.75,75.689,83.1238,132.417,100.024,105.392,0.0125813,0.113427,20.9008,67.8397,-0.475752,0.0,0.0
583,145.5,74.9915,82.2875,133.654,100.016,105.384,0.0128349,0.112352,20.9009,67.8598,-0.475816,0.0,0.0
594,148.25,72.6585,80.1059,133.041,99.9954,105.992,0.0131056,0.111664,20.9027,67.7797,-0.530013,0.0,0.0
605,151,71.982,79.5686,132.78,99.9595,105.58,0.0131292,0.110858,20.9037,67.6796,-0.4978,0.0,0.0
616,153.75,71.5352,78.4998,134.544,99.9455,105.649,0.0130518,0.110542,20.904,67.7196,-0.505047,0.0,0.0
627,156.5,71.1261,78.3318,133.294,99.9263,105.551,0.012635,0.109974,20.9065,67.6496,-0.498371,0.0,0.0
638,159.25,71.0198,77.3785,136.009,99.92,105.836,0.0124717,0.109104,20.908,67.6596,-0.523457,0.0,0.0
649,162,70.4252,77.0907,131.877,99.898,105.659,0.012302,0.108346,20.9085,67.6396,-0.510227,0.0,0.0
660,164.75,69.9254,76.6485,132.878,99.8828,105.337,0.011981,0.107815,20.9092,67.5895,-0.483837,0.0,0.0
671,167.5,69.8767,75.9404,132.37,99.8892,105.932,0.0119295,0.107383,20.9094,67.5695,-0.5345,0.0,0.0
682,170.25,69.6598,75.9732,136.864,99.8824,105.747,0.0119739,0.107098,20.9095,67.5695,-0.519206,0.0,0.0
693,173,69.7727,75.358,135.733,99.9072,105.66,0.0119892,0.106535,20.9093,67.5595,-0.509469,0.0,0.0
704,175.75,69.3688,74.8407,140.353,99.9004,105.808,0.0119062,0.106282,20.9084,67.4894,-0.522838,0.0,0.0
715,178.5,68.6846,74.4432,134.024,99.8788,105.615,0.011716,0.106098,20.908,67.4594,-0.50821,0.0,0.0
726,181.25,68.6347,73.8157,132.733,99.8984,105.525,0.0117746,0.105914,20.9093,67.4494,-0.498626,0.0,0.0
737,184,68.876,73.6051,133.077,99.8848,105.79,0.0119565,0.105793,20.9099,67.4594,-0.522745,0.0,0.0
748,186.75,68.383,73.4778,136.756,99.8852,105.737,0.011997,0.105101,20.9101,67.4094,-0.518137,0.0,0.0
759,189.5,68.5876,72.9387,133.789,99.8605,105.44,0.0120285,0.104923,20.9101,67.3193,-0.494739,0.0,0.0
770,192.25,67.7266,73.0772,137.413,99.8637,105.549,0.0121503,0.104669,20.9101,67.2893,-0.503888,0.0,0.0
781,195,68.2437,72.389,135.379,99.8417,105.763,0.0121143,0.10434,20.9101,67.2893,-0.524274,0.0,0.0
792,197.75,67.455,72.0111,131.19,99.8653,104.844,0.0121315,0.104261,20.9107,67.3093,-0.442739,0.0,0.0
803,200.5,67.1379,71.3925,131.98,99.8373,105.421,0.012099,0.104291,20.9109,67.2092,-0.495217,0.0,0.0
814,203.25,67.1405,71.3699,130.497,99.8233,106.11,0.0120178,0.103976,20.911,67.1692,-0.55581,0.0,0.0
825,206,67.3851,71.3836,132.873,99.8018,105.545,0.012072,0.103737,20.9108,67.1391,-0.509179,0.0,0.0
836,208.75,66.9894,71.42,132.481,99.8002,105.694,0.0120628,0.103846,20.9104,67.1291,-0.522167,0.0,0.0
847,211.5,66.6376,70.8419,132.906,99.8078,105.542,0.0120049,0.104102,20.9104,67.1291,-0.508362,0.0,0.0
858,214.25,66.4881,70.6765,132.807,99.7746,106.185,0.0120901,0.103799,20.9118,67.0591,-0.56666,0.0,0.0
869,217,67.0442,70.8074,134.818,99.777,105.337,0.0120892,0.103068,20.9123,67.019,-0.493481,0.0,0.0
880,219.75,66.4813,70.6195,132.286,99.7766,105.296,0.0120691,0.10288,20.913,66.999,-0.490016,0.0,0.0
891,222.5,66.5057,70.1195,130.413,99.7535,105.581,0.0120619,0.102761,20.9137,67.029,-0.516652,0.0,0.0
902,225.25,66.1364,70.1012,135.392,99.7395,105.672,0.0119378,0.102725,20.9139,67.039,-0.525802,0.0,0.0
913,228,66.625,70.1645,134.71,99.7303,105.404,0.0120044,0.102725,20.9143,66.9189,-0.503498,0.0,0.0
924,230.75,66.2911,69.6305,130.314,99.7132,105.763,0.0120794,0.103024,20.9147,66.9089,-0.535998,0.0,0.0
935,233.5,66.6348,69.9807,131.286,99.7199,105.549,0.012019,0.102989,20.9148,66.8689,-0.516995,0.0,0.0
946,236.25,66.5231,69.3935,133.746,99.7331,105.867,0.0120083,0.102749,20.9144,66.9089,-0.5432,0.0,0.0
957,239,66.1408,69.2707,134.904,99.7447,105.659,0.0121576,0.102594,20.9131,66.8489,-0.524243,0.0,0.0
968,241.75,66.3104,69.4637,137.033,99.7551,105.36,0.012231,0.102836,20.9127,66.7888,-0.497507,0.0,0.0
979,244.5,65.94,68.9299,136.141,99.7818,105.999,0.0124653,0.102696,20.9134,66.7588,-0.55009,0.0,0.0
990,247.25,66.3669,69.4017,132.896,99.8186,105.855,0.0126412,0.10232,20.9142,66.7388,-0.534324,0.0,0.0
1001,250,66.6368,69.0666,134.236,99.88,106.258,0.0124486,0.101995,20.9128,66.7688,-0.56334,0.0,0.0
1012,252.75,66.7644,69.457,131.147,99.9172,105.679,0.0122701,0.10197,20.9125,66.6887,-0.510226,0.0,0.0
1023,255.5,66.0503,69.3904,132.916,99.9495,105.483,0.0121716,0.10169,20.9134,66.6587,-0.490399,0.0,0.0
1034,258.25,66.2155,68.779,131.599,100.008,105.743,,0.101297,,66.6287,-0.507442,0.0,0.0
1045,261,66.4617,68.8784,133.315,100.057,106.062,,,,66.6687,-0.530411,0.0,0.0
1056,263.75,66.37,69.5186,135.836,100.102,106.377,,,,66.6187,-0.553311,0.0,0.0
1067,266.5,65.6002,69.2548,132.673,100.145,106.02,,,,66.5486,-0.518791,0.0,0.0