File: 01_Data/Luan_Panel/Cone/Luan_Panel_Cone_HF25Scan_220915_R3.csv
Names,Time,Stack TC,Smoke TC,Exh Press,Smoke Comp,Smoke Meas,CO Meter,CO2 Meter,O2 Meter,Sample Mass,Ext Coeff,Start Test,Flame Verif
Chan Gain,,500,500,1,1,1,1,1,1,1,1,1.0,1.0
Offset,,0,0,0.146632,0,0,0,0,0,0,0,0.0,0.0
Gain,,1,1,25.011,13.0826,14.7555,1,1,1,1.00088,1.03743,1.0,1.0
Units,sec,C,C,Pa,%,%,%,%,%,g,/m,,
Baseline,,39.541,40.0237,147.197,100.036,104.347,0.000497903,0.0452104,20.9867,-449.335,-0.383883,,
15,3.5,37.4988,38.5773,149.183,99.6269,103.584,0.000398185,0.0511617,20.9778,86.5963,-0.354422,0.0,0.0
30,7.25,37.6834,38.4687,147.092,99.4876,103.661,0.000323668,0.0487477,20.9801,86.5863,-0.37396,0.0,0.0
45,11,38.2075,38.4155,146.379,99.3339,103.614,0.000459827,0.0469966,20.9837,86.5262,-0.383879,0.0,0.0
60,14.75,38.0294,38.4865,147.635,99.2073,103.502,0.000314463,0.0451325,20.9859,86.4862,-0.385708,0.0,0.0
75,18.5,37.7008,38.4982,147.658,99.0979,103.497,0.000284666,0.0445211,20.9872,86.4261,-0.395233,0.0,0.0
90,22.25,37.8702,38.6113,148.741,99.0037,103.38,0.000277402,0.0439793,20.9876,86.3961,-0.393629,0.0,0.0
105,26,37.9699,38.4407,146.617,98.945,103.411,0.000110511,0.0439052,20.9879,86.3961,-0.40176,0.0,0.0
120,29.75,37.9825,38.9407,147.657,98.9007,103.29,0.00017166,0.044335,20.9884,86.336,-0.395171,0.0,0.0
135,33.5,37.5312,38.7159,148.591,98.8604,103.249,0.000223509,0.0447254,20.9892,86.306,-0.395271,0.0,0.0
150,37.25,37.9591,38.8626,143.108,98.8416,102.387,4.42486e-05,0.0448885,20.9894,86.1859,-0.320714,0.0,0.0
165,41,38.182,38.9608,148.133,98.856,102.672,2.75685e-05,0.0452902,20.9907,86.1158,-0.344651,0.0,0.0
180,44.75,38.1671,38.7137,145.517,98.8755,102.546,6.24727e-05,0.0457341,20.9908,86.0958,-0.331668,0.0,0.0
195,48.5,38.2553,38.7351,147.08,98.9059,102.632,0.000445901,0.0460032,20.9902,86.0158,-0.336585,0.0,0.0
210,52.25,38.2365,38.8499,145.724,98.9482,102.276,0.000783909,0.0465673,20.9884,85.9357,-0.301014,0.0,0.0
225,56,38.5595,38.0492,146.381,98.9969,101.361,0.000903276,0.0471564,20.9879,85.8156,-0.214793,0.0,0.0
240,59.75,38.6771,38.3886,147.237,99.0544,101.221,0.00075086,0.0479106,20.9878,85.7055,-0.196928,0.0,0.0
255,63.5,38.3581,38.4325,144.787,99.131,101.426,0.000755519,0.0485545,20.9871,85.6554,-0.208289,0.0,0.0
270,67.25,38.308,39.2477,146.825,99.1897,100.632,0.000986402,0.0494052,20.987,85.5453,-0.131393,0.0,0.0
285,71,38.6868,38.9266,146.493,99.2752,100.237,0.00119326,0.0502662,20.986,85.4453,-0.0877344,0.0,0.0
300,74.75,38.5301,38.7745,145.301,99.3355,100.291,0.00130326,0.0511126,20.9856,85.2751,-0.0871555,0.0,0.0
315,78.5,38.3637,39.54,147.276,99.4365,100.168,0.00157587,0.0531731,20.9851,85.135,-0.0666629,0.0,0.0
330,82.25,39.1046,39.232,138.881,99.5495,102.833,0.00222099,0.129764,20.8898,84.8848,-0.295311,0.0,1.0
345,86,40.4097,39.7389,131.573,99.6309,101.794,0.0026264,0.268927,20.7184,84.4043,-0.195507,0.0,0.0
360,89.75,43.3142,41.5567,127.888,99.7227,103.073,0.00310414,0.346429,20.6327,83.9139,-0.300739,0.0,0.0
375,93.5,46.3599,44.1263,129.732,99.783,102.187,0.00351634,0.355208,20.6243,83.4935,-0.216659,0.0,0.0
390,97.25,48.0482,45.8875,137.833,99.8561,102.434,0.00345976,0.344963,20.6344,82.913,-0.231988,0.0,0.0
405,101,49.6512,47.5254,136.194,99.9363,103.652,0.00341174,0.332817,20.6487,82.6027,-0.332252,0.0,0.0
420,104.75,50.3883,48.7719,133.967,99.9711,103.371,0.00326401,0.32734,20.6551,82.2124,-0.304347,0.0,0.0
435,108.5,51.9752,50.2232,135.318,100.002,104.591,0.00333031,0.318559,20.6655,81.732,-0.408276,0.0,0.0
450,112.25,52.4752,51.442,133.875,100.012,104.363,0.00325213,0.304776,20.6794,81.3516,-0.387596,0.0,0.0
465,116,52.9969,51.6527,135.459,100.008,103.964,0.00327145,0.293839,20.6907,80.8512,-0.352988,0.0,0.0
480,119.75,53.6014,52.909,135.929,100.03,104.28,0.00318067,0.28703,20.6972,80.571,-0.378619,0.0,0.0
495,123.5,54.4609,53.3892,136.647,100.027,104.234,0.00303887,0.288002,20.6953,80.1206,-0.3749,0.0,0.0
510,127.25,54.844,54.3555,134.361,100.042,104.439,0.00270493,0.291595,20.6907,79.7602,-0.391427,0.0,0.0
525,131,54.8393,55.2589,131.424,100.023,104.784,0.00259978,0.294047,20.6898,79.4099,-0.423141,0.0,0.0
540,134.75,55.4109,55.7482,135.404,100.025,104.594,0.00247397,0.292212,20.6933,78.9796,-0.406404,0.0,0.0
555,138.5,55.679,56.3682,132.612,100.017,105.233,0.00218697,0.288455,20.6965,78.6893,-0.462707,0.0,0.0
570,142.25,56.1684,56.9392,139.347,100.014,104.626,0.00211834,0.291086,20.6942,78.339,-0.410281,0.0,0.0
585,146,56.6276,57.4458,137.796,100.02,105.282,0.00208767,0.296308,20.6914,77.9086,-0.466546,0.0,0.0
600,149.75,57.22,57.8249,137.85,100.01,104.907,0.00201262,0.301428,20.6845,77.4983,-0.434973,0.0,0.0
615,153.5,57.494,58.4575,135.099,99.9986,104.712,0.00231524,0.308431,20.6759,77.0479,-0.419175,0.0,0.0
630,157.25,57.6854,58.8245,134.717,99.9954,104.108,0.00242186,0.312807,20.6715,76.7276,-0.366796,0.0,0.0
645,161,57.6289,59.4807,132.793,99.9962,103.588,0.00225923,0.313309,20.6688,76.3773,-0.321185,0.0,0.0
660,164.75,58.1725,59.7914,134.767,99.983,104.108,0.00237166,0.306306,20.6734,76.037,-0.367882,0.0,0.0
675,168.5,58.3215,59.9462,133.676,99.9639,104.327,0.0023916,0.298931,20.6791,75.6967,-0.388776,0.0,0.0
690,172.25,58.5585,60.3954,136.106,99.9419,104.623,0.00253688,0.290618,20.6886,75.2963,-0.416584,0.0,0.0
705,176,58.4317,60.5423,137.255,99.9351,103.768,0.00272195,0.283785,20.6971,75.0461,-0.342516,0.0,0.0
720,179.75,58.0649,60.9088,139.889,99.9012,104.61,0.00260233,0.283372,20.7002,74.7558,-0.419157,0.0,0.0
735,183.5,58.4385,60.8478,133.672,99.8637,104.342,0.00249333,0.287943,20.6968,74.3455,-0.3992,0.0,0.0
750,187.25,58.5507,61.2033,134.166,99.8154,103.645,0.00251088,0.293,20.6938,74.0052,-0.342603,0.0,0.0
765,191,58.2801,61.1575,135.953,99.7339,103.742,0.00263039,0.301645,20.6866,73.5348,-0.358529,0.0,0.0
780,194.75,58.5616,61.2158,139.299,99.678,103.409,0.00287769,0.311036,20.6767,73.2145,-0.334392,0.0,0.0
795,198.5,59.047,61.3066,133.221,99.587,102.626,0.00274417,0.322323,20.661,72.9142,-0.273571,0.0,0.0
810,202.25,59.557,61.6702,133.05,99.5167,102.517,0.00271384,0.336463,20.6431,72.5039,-0.270327,0.0,0.0
825,206,59.6132,62.3318,132.775,99.4065,103.548,0.00341092,0.344626,20.6314,72.1535,-0.371488,0.0,0.0
840,209.75,59.8906,62.4024,138.225,99.2983,103.071,0.00385907,0.336955,20.64,71.7932,-0.339353,0.0,0.0
855,213.5,59.2923,62.215,140.736,99.1857,103.175,0.00454923,0.299167,20.6734,71.563,-0.358857,0.0,0.0
870,217.25,58.2655,61.9479,144.619,99.0891,102.773,0.00562643,0.246354,20.738,71.3929,-0.332148,0.0,0.0
885,221,57.1698,60.9344,140.528,99.0077,103.797,0.00675473,0.182485,20.8126,71.3128,-0.429933,0.0,0.0
900,224.75,55.7935,59.9878,142.759,98.9154,103.162,0.00852398,0.131332,20.8776,71.2327,-0.382537,0.0,0.0
915,228.5,53.8075,58.6137,140.263,98.8452,103.472,0.0104257,0.0960769,20.9169,71.1927,-0.416293,0.0,0.0
930,232.25,50.3767,55.783,146.199,98.8148,103.151,0.0115494,0.0802173,20.9346,71.1927,-0.390806,0.0,0.0
945,236,49.3806,54.2037,146.587,98.8033,103.354,0.012026,0.0744811,20.941,71.1126,-0.409811,0.0,0.0
960,239.75,48.1517,53.5673,150.615,98.8005,102.954,0.012302,0.0721304,20.9447,71.1226,-0.374712,0.0,0.0
975,243.5,47.3072,52.4014,147.502,98.7957,102.915,0.0123268,0.071316,20.945,71.0826,-0.371769,0.0,0.0
990,247.25,46.2522,51.4425,145.506,98.8029,102.977,0.0123757,0.0717672,20.9444,71.0025,-0.376601,0.0,0.0
1005,251,45.6022,50.4499,142.219,98.8033,102.902,0.0128584,0.0719608,20.9446,71.0626,-0.369916,0.0,0.0
1020,254.75,44.345,49.4099,144.864,98.8084,103.335,0.0132222,0.0715827,20.9462,71.0326,-0.407628,0.0,0.0
1035,258.5,43.8052,48.7825,141.959,98.8068,103.372,0.0130198,0.0714304,20.9465,70.9925,-0.411065,0.0,0.0
1050,262.25,43.1023,47.9137,142.978,98.8073,103.593,0.0133713,0.07086,20.9468,70.8224,-0.430432,0.0,0.0
1065,266,42.8101,46.9454,145.975,98.7993,103.443,0.0142652,0.0720581,20.9455,70.8224,-0.418025,0.0,0.0
1080,269.75,42.2176,46.8948,144.386,98.8232,102.877,0.0149074,0.072871,20.9443,70.8224,-0.365887,0.0,0.0
1095,273.5,42.3018,45.8752,150.817,98.8216,103.205,0.015165,0.0737113,20.9427,70.8324,-0.394986,0.0,0.0
1110,277.25,41.436,45.766,146.048,98.8284,103.108,0.0151079,0.0742086,20.9424,70.7623,-0.385781,0.0,0.0
1125,281,40.9638,44.7736,146.599,98.8404,102.971,0.0150373,0.0744423,20.9423,70.7823,-0.372588,0.0,0.0
1140,284.75,40.2472,44.15,141.915,98.858,103.307,0.0150966,0.0748972,20.9425,70.6923,-0.40061,0.0,0.0
1155,288.5,40.512,43.8821,145.267,98.8935,102.879,0.0150679,0.0758919,20.9408,70.7023,-0.359578,0.0,0.0
1170,292.25,39.6247,43.2069,146.56,98.9186,103.247,0.0147814,0.0764544,20.9404,70.6722,-0.389708,0.0,0.0
1185,296,39.8423,42.922,143.294,98.9494,103.206,0.0145717,0.0767446,20.9404,70.6422,-0.383308,0.0,0.0
1200,299.75,39.9529,42.539,145.143,98.9661,103.315,0.0148104,0.0771512,20.9403,70.5922,-0.391331,0.0,0.0
1215,303.5,39.9992,42.6697,146.754,98.9765,103.584,0.014636,0.0765801,20.9403,70.5321,-0.414103,0.0,0.0
1230,307.25,39.9935,42.0965,146.067,99.0185,103.141,0.014341,0.0763898,20.941,70.5021,-0.371198,0.0,0.0
1245,311,39.4022,41.6679,147.498,99.0472,103.187,0.0141915,0.0761889,20.9415,70.5121,-0.372609,0.0,0.0
1260,314.75,39.1971,41.788,144.005,99.0879,103.793,0.0144023,0.0768961,20.9414,70.5221,-0.422165,0.0,0.0
1275,318.5,38.7823,41.569,151.461,99.1239,103.462,0.0142914,0.0773619,20.9413,70.4821,-0.389801,0.0,0.0
1290,322.25,38.9474,41.1054,146.668,99.1602,103.241,0.0143769,0.077783,20.9416,70.382,-0.367037,0.0,0.0
1305,326,38.7524,40.8412,146.238,99.1901,103.239,0.013941,0.0775886,20.9416,70.402,-0.364051,0.0,0.0
1320,329.75,39.0382,41.0056,149.864,99.2305,103.961,0.0137046,0.0781411,20.9404,70.352,-0.423799,0.0,0.0
1335,333.5,38.7227,40.464,144.22,99.2588,103.601,0.0135355,0.0794076,20.9385,70.3419,-0.389612,0.0,0.0
1350,337.25,38.7655,40.7863,145.502,99.3019,103.617,0.0133237,0.0797419,20.9377,70.2919,-0.387083,0.0,0.0
1365,341,38.7208,40.4106,149.724,99.3143,103.605,,0.0798161,,70.2218,-0.38488,0.0,0.0
1380,344.75,38.6893,40.0692,150.204,99.341,103.982,,,,70.2218,-0.415475,0.0,0.0
1395,348.5,38.9597,40.5812,146.512,99.3822,103.556,,,,70.2118,-0.37439,0.0,0.0
1400,349.75,38.538,40.4217,147.306,99.3658,103.581,,,,70.1418,-0.378067,0.0,0.0