File: 01_Data/Luan_Panel/Cone/Luan_Panel_Cone_HF75Scan_220916_R2.csv
Names,Time,Stack TC,Smoke TC,Exh Press,Smoke Comp,Smoke Meas,CO Meter,CO2 Meter,O2 Meter,Sample Mass,Ext Coeff,Start Test,Flame Verif
Chan Gain,,500,500,1,1,1,1,1,1,1,1,1.0,1.0
Offset,,0,0,0.146632,0,0,0,0,0,0,0,0.0,0.0
Gain,,1,1,25.011,13.0826,14.7555,1,1,1,1.00088,1.03743,1.0,1.0
Units,sec,C,C,Pa,%,%,%,%,%,g,/m,,
Baseline,,62.9641,64.8126,136.773,99.6629,105.548,6.80648e-05,0.0433877,20.9877,-450.864,-0.522129,,
12,2.75,61.0453,62.9886,137.861,100.417,106.045,0.000402409,0.0465518,20.9816,93.9427,-0.496209,0.0,0.0
24,5.75,60.5504,63.2683,137.275,100.425,103.11,0.000651184,0.0513605,20.9686,93.8226,-0.240173,0.0,0.0
36,8.75,61.6164,63.1423,119.17,100.424,103.201,0.00150613,0.128714,20.7755,93.3022,-0.248269,0.0,1.0
48,11.75,66.7211,65.9598,111.537,100.423,100.851,0.00292056,0.30583,20.4339,92.6015,-0.0387112,0.0,1.0
60,14.75,71.1623,69.4712,105.041,100.43,95.6375,0.00464116,0.500326,20.2201,91.8609,0.444985,0.0,0.0
72,17.75,76.6996,73.9745,111.262,100.439,93.9574,0.00612985,0.617531,20.1097,91.1303,0.607105,0.0,0.0
84,20.75,81.2603,78.1024,114.739,100.44,96.3206,0.00670785,0.66453,20.1192,90.5097,0.381085,0.0,0.0
96,23.75,83.8567,81.2429,111.84,100.439,97.1992,0.00658713,0.654908,20.194,89.9292,0.298385,0.0,0.0
108,26.75,86.2566,83.8209,118.625,100.417,98.8414,0.00604349,0.611419,20.3007,89.3887,0.143887,0.0,0.0
120,29.75,86.9951,85.7138,117.644,100.421,101.845,0.0053944,0.561439,20.3937,88.8583,-0.12813,0.0,0.0
132,32.75,87.8461,86.9407,122.21,100.401,101.581,0.00471581,0.518557,20.4563,88.3878,-0.106294,0.0,0.0
144,35.75,87.9281,87.9061,118.276,100.4,101.928,0.0043828,0.489636,20.481,87.8874,-0.137452,0.0,0.0
156,38.75,88.4612,88.8646,117.109,100.397,100.8,0.00434869,0.48267,20.4698,87.3669,-0.0364291,0.0,0.0
168,41.75,89.5356,89.9786,121.019,100.39,101.717,0.00463188,0.488102,20.4458,86.8064,-0.119522,0.0,0.0
180,44.75,90.5191,91.2803,115.897,100.388,102.058,0.00466848,0.491596,20.4314,86.256,-0.150186,0.0,0.0
192,47.75,91.5679,92.7528,118.501,100.409,101.464,0.00431038,0.498655,20.4157,85.6554,-0.0951874,0.0,0.0
204,50.75,92.8531,93.8869,120.17,100.372,102.367,0.00410314,0.51224,20.3943,85.125,-0.179132,0.0,0.0
216,53.75,93.7841,95.1933,116.152,100.348,100.861,0.00419872,0.53588,20.3538,84.6245,-0.0464448,0.0,0.0
228,56.75,95.2269,96.6054,115.817,100.32,99.316,0.0048768,0.565841,20.3115,84.064,0.0915691,0.0,0.0
240,59.75,96.5763,97.993,115.984,100.304,97.7931,0.00545894,0.587151,20.2913,83.4535,0.230746,0.0,0.0
252,62.75,97.4659,99.2888,114.317,100.278,97.8485,0.00599214,0.593957,20.2885,82.873,0.223203,0.0,0.0
264,65.75,98.1682,100.612,119.304,100.258,97.527,0.00632916,0.583485,20.3225,82.3926,0.251342,0.0,0.0
276,68.75,98.6015,101.235,118.555,100.224,96.9848,0.00644429,0.5648,20.3562,81.9121,0.298956,0.0,0.0
288,71.75,98.7315,101.767,122.279,100.166,96.6858,0.00649221,0.54643,20.3822,81.4617,0.321834,0.0,0.0
300,74.75,98.8044,102.566,115.349,100.114,97.4626,0.00655501,0.535794,20.392,81.0113,0.244262,0.0,0.0
312,77.75,99.1639,102.873,120.66,100.046,96.4332,0.00659149,0.52945,20.3942,80.571,0.334716,0.0,0.0
324,80.75,98.8017,103.489,122.457,100.009,97.9016,0.00622938,0.526266,20.3934,80.0505,0.193772,0.0,0.0
336,83.75,99.5022,103.973,117.26,99.9579,97.7557,0.005793,0.522277,20.3948,79.6401,0.202729,0.0,0.0
348,86.75,98.9882,104.432,118.109,99.8641,97.3059,0.00553917,0.515573,20.4081,79.2498,0.236159,0.0,0.0
360,89.75,99.2257,104.114,119.908,99.7954,98.5172,0.00565072,0.51029,20.4184,78.7594,0.117312,0.0,0.0
372,92.75,99.6178,104.78,120.069,99.7052,98.0403,0.00600582,0.506083,20.4253,78.299,0.153237,0.0,0.0
384,95.75,98.6689,104.451,120.509,99.6381,97.2334,0.00546471,0.497769,20.441,77.9386,0.222325,0.0,0.0
396,98.75,98.4339,104.341,121.723,99.5642,97.0343,0.00437249,0.474822,20.4822,77.6083,0.234223,0.0,0.0
408,101.75,97.614,104.003,128.22,99.6489,100.348,0.00361803,0.432479,20.5617,77.3982,-0.0636341,0.0,0.0
420,104.75,96.3499,102.92,128.181,99.7555,102.636,0.00332386,0.375854,20.6338,77.178,-0.259066,0.0,0.0
432,107.75,93.9533,101.613,134.559,99.8365,105.357,0.00352458,0.307608,20.728,77.1179,-0.489808,0.0,0.0
444,110.75,92.0218,99.9892,131.939,99.894,105.478,0.00410685,0.247066,20.8043,77.0378,-0.494948,0.0,0.0
456,113.75,90.7624,98.7062,129.821,99.9204,104.958,0.00504565,0.20557,20.8463,77.0679,-0.447642,0.0,0.0
468,116.75,87.8415,97.194,130.846,99.9507,105.519,0.00603528,0.178872,20.8683,76.9978,-0.493358,0.0,0.0
480,119.75,86.4908,95.5188,135.414,99.9611,105.428,0.00667322,0.162015,20.8791,76.9378,-0.484603,0.0,0.0
492,122.75,84.5354,93.7564,131.07,99.9655,105.366,0.00737126,0.14966,20.8867,76.8777,-0.478799,0.0,0.0
504,125.75,82.8994,91.9294,132.282,99.9531,105.534,0.0084363,0.140866,20.8894,76.8176,-0.494421,0.0,0.0
516,128.75,81.8294,90.9319,135.577,99.9379,105.812,0.009312,0.136059,20.8903,76.7976,-0.519768,0.0,0.0
528,131.75,80.429,89.4408,130.771,99.9056,106.068,0.00960894,0.131735,20.8905,76.7776,-0.544723,0.0,0.0
540,134.75,79.3759,88.3288,133.118,99.8613,105.736,0.0102353,0.127347,20.8935,76.6975,-0.520165,0.0,0.0
552,137.75,78.2976,87.2638,132.458,99.8058,105.534,0.0109827,0.122974,20.8968,76.6375,-0.507883,0.0,0.0
564,140.75,77.2419,85.8207,134.681,99.7475,105.014,0.0117603,0.119679,20.8985,76.6375,-0.46824,0.0,0.0
576,143.75,76.595,84.991,137.006,99.7004,105.052,0.0123694,0.118351,20.8975,76.6275,-0.475817,0.0,0.0
588,146.75,76.2831,84.0237,132.403,99.6572,105.386,0.0131984,0.117815,20.8958,76.5975,-0.508613,0.0,0.0
600,149.75,75.3383,83.3698,134.837,99.6293,104.931,0.0138954,0.117591,20.8949,76.5474,-0.471846,0.0,0.0
612,152.75,74.4331,82.5838,136.814,99.593,104.905,0.0141909,0.116317,20.8959,76.5374,-0.4729,0.0,0.0
624,155.75,72.7755,80.1157,135.523,99.575,105.459,0.0142479,0.114587,20.8991,76.4373,-0.522424,0.0,0.0
636,158.75,71.87,78.9648,132.772,99.5419,105.352,0.0141165,0.113196,20.9013,76.4173,-0.516238,0.0,0.0
648,161.75,71.3624,78.2517,133.364,99.5311,105.387,0.0138428,0.111908,20.9026,76.3572,-0.520296,0.0,0.0
660,164.75,70.4404,77.5182,133.085,99.5087,104.929,0.0133946,0.110723,20.9039,76.3572,-0.482709,0.0,0.0
672,167.75,70.0942,77.2618,131.479,99.4836,105.469,0.0133881,0.11023,20.9043,76.2972,-0.531715,0.0,0.0
684,170.75,69.6371,75.851,133.131,99.4812,105.034,0.0133664,0.109958,20.9049,76.3172,-0.494246,0.0,0.0
696,173.75,69.809,75.7941,133.92,99.4684,105.116,0.0132007,0.109364,20.9062,76.2672,-0.502591,0.0,0.0
708,176.75,68.7862,75.3285,131.505,99.4636,104.884,0.0130024,0.108542,20.9069,76.2572,-0.48293,0.0,0.0
720,179.75,69.0819,74.6642,133.318,99.4664,105.17,0.0126865,0.107912,20.9073,76.1571,-0.507451,0.0,0.0
732,182.75,68.6967,74.5043,136.316,99.4277,104.79,0.0124626,0.10682,20.9089,76.117,-0.478049,0.0,0.0
744,185.75,68.4066,74.1003,133.434,99.4265,104.671,0.0123959,0.106687,20.9095,76.107,-0.467751,0.0,0.0
756,188.75,68.0896,73.5897,132.816,99.4145,105.022,0.0122456,0.106576,20.9097,76.057,-0.499332,0.0,0.0
768,191.75,68.0831,72.7989,136.114,99.3989,105.012,0.0121054,0.10615,20.9097,76.027,-0.4999,0.0,0.0
780,194.75,67.8678,72.9206,133.647,99.3913,104.971,0.0120784,0.105693,20.9107,75.9969,-0.497043,0.0,0.0
792,197.75,67.3553,72.0305,132.712,99.391,105.293,0.0120812,0.105116,20.9115,75.9669,-0.524949,0.0,0.0
804,200.75,67.142,72.4361,133.704,99.3957,104.988,0.012151,0.105398,20.9096,75.9269,-0.498163,0.0,0.0
816,203.75,67.5603,71.9531,135.584,99.3985,105.496,0.0121984,0.105642,20.9081,75.8968,-0.54179,0.0,0.0
828,206.75,66.6319,71.302,133.329,99.3902,104.952,0.0124523,0.105754,20.9076,75.8568,-0.495552,0.0,0.0
840,209.75,66.8148,71.5257,131.531,99.3997,105.331,0.0126942,0.105758,20.9081,75.8368,-0.527413,0.0,0.0
852,212.75,67.0976,70.6398,130.716,99.4225,104.921,0.0126448,0.105447,20.9093,75.7767,-0.489857,0.0,0.0
864,215.75,66.851,70.8694,131.913,99.4421,104.488,0.0127593,0.104844,20.9096,75.7667,-0.450456,0.0,0.0
876,218.75,66.6918,70.3414,134.722,99.4808,105.293,0.0128732,0.1051,20.9086,75.7267,-0.516728,0.0,0.0
888,221.75,66.4495,70.2356,136.831,99.5075,104.975,0.0128868,0.105534,20.9095,75.6867,-0.486762,0.0,0.0
900,224.75,66.6009,69.9124,134.817,99.5598,105.206,0.0128919,0.105539,20.9099,75.6766,-0.502023,0.0,0.0
912,227.75,66.4426,70.2508,134.233,99.6038,105.759,0.0127985,0.105524,20.9086,75.6466,-0.545716,0.0,0.0
924,230.75,66.1466,69.8109,130.648,99.6425,105.559,0.0125925,0.104977,20.9081,75.6366,-0.52492,0.0,0.0
936,233.75,66.1844,69.9935,132.888,99.6804,105.518,0.0126498,0.104731,20.9075,75.6066,-0.517884,0.0,0.0
948,236.75,66.1049,70.0678,138.362,99.7243,104.56,0.0126741,0.104784,20.9073,75.5966,-0.430934,0.0,0.0
960,239.75,66.4469,69.3333,131.393,99.775,105.598,0.0124477,0.104637,20.9075,75.5866,-0.516199,0.0,0.0
972,242.75,65.9585,69.5125,132.992,99.8393,105.45,0.0123215,0.1045,20.909,75.5465,-0.497601,0.0,0.0
984,245.75,65.5501,69.7775,131.759,99.8884,105.475,0.0124128,0.104328,20.9094,75.5065,-0.495224,0.0,0.0
996,248.75,65.837,69.1621,134.912,99.9291,106.079,0.0124193,0.104026,20.9097,75.4765,-0.543466,0.0,0.0
1008,251.75,66.028,69.4297,135.977,99.9635,105.404,0.0122974,0.103824,20.9097,75.4464,-0.482247,0.0,0.0
1020,254.75,65.8288,68.7519,135.975,99.9878,105.843,0.0121361,0.10362,20.9112,75.3764,-0.517896,0.0,0.0
1032,257.75,65.6729,68.262,132.373,100.003,105.713,0.0123096,0.103457,20.9118,75.3464,-0.505245,0.0,0.0
1044,260.75,65.6921,68.5666,130.654,100.013,105.676,0.0125835,0.103839,20.9105,75.3263,-0.501268,0.0,0.0
1056,263.75,65.609,68.1523,131.611,100.006,105.988,,0.103976,,75.2563,-0.528681,0.0,0.0
1068,266.75,65.6534,68.2869,131.401,99.9886,105.417,,,,75.2262,-0.481124,0.0,0.0
1080,269.75,65.7778,68.1876,132.837,99.9583,105.859,,,,75.2262,-0.521941,0.0,0.0
1092,272.75,65.1904,68.1428,128.66,99.898,105.635,,,,75.1962,-0.508171,0.0,0.0
1096,273.75,65.0421,68.113,135.381,99.8693,105.886,,,,75.1862,-0.532412,0.0,0.0