File: 01_Data/Luan_Panel/Cone/Luan_Panel_Cone_HF75Scalar_220916_R2.csv
LABORATORY,FSRI
TEST IDENT,Luan_Panel_HF75_2
OPERATOR,Dow
MATERIAL,Luan panel
ORIENTATION,Horizontal
HEAT FLUX,75
SURF AREA,0.01
C FACTOR,0.0415715
SPEC HOLDER DIFF,-566
SPECIMEN MASS,20.41
SCAN TIME,0.25
O2 DELAY TIME,11
CO DELAY TIME,11
CO2 DELAY TIME,8
FLOW FACTOR,1
SCAN COUNT,1096
TIME TO IGN,7.25
END OF TEST SCAN,616
END OF TEST TIME,154
TEST STATUS,1
PRE TEST CMT,Dimensions: 101.57 x 101.74 x 5.02 mm; with tie wires