File: 01_Data/Nylon_Carpet_High_Pile/Cone/Nylon_Carpet_High_Pile_Cone_HF25Scan_220317_R3.csv
Names,Time,Stack TC,Smoke TC,Exh Press,Smoke Comp,Smoke Meas,CO Meter,CO2 Meter,O2 Meter,Sample Mass,Ext Coeff,Start Test,Flame Verif
Chan Gain,,500,500,1,1,1,1,1,1,1,1,1.0,1.0
Offset,,0,0,0.13495,0,0,0,0,0,0,0,0.0,0.0
Gain,,1,1,25.011,13.0212,13.19,1,1,1,1.0009,1.01015,1.0,1.0
Units,sec,C,C,Pa,%,%,%,%,%,g,/m,,
Baseline,,25.9368,26.4282,137.35,97.8617,92.6591,0.000555526,0.0448523,21.0189,-489.133,0.484128,,
34,8.25,24.9356,25.7302,137.25,99.1557,93.8612,0.000743622,0.0463576,21.0145,24.0917,0.48624,0.0,0.0
68,16.75,25.0422,25.6479,136.755,99.0099,94.1164,0.000464643,0.0454196,21.0189,24.0116,0.449138,0.0,0.0
102,25.25,25.5291,25.2738,139.282,98.8342,93.7219,0.000660679,0.0448656,21.0208,23.9715,0.470623,0.0,0.0
136,33.75,25.2183,25.7802,137.118,98.6204,93.3954,0.000459658,0.0444543,21.0208,23.9315,0.482353,0.0,0.0
170,42.25,24.7493,25.9848,142.864,98.4579,93.8652,0.000610802,0.0444156,21.0221,23.8815,0.423282,0.0,0.0
204,50.75,25.3027,25.6501,137.098,98.5247,93.3371,0.000755565,0.0441828,21.0221,23.8414,0.479283,0.0,0.0
238,59.25,25.2457,26.2573,137.186,98.775,93.5887,0.000700883,0.0440461,21.0211,23.7313,0.477919,0.0,0.0
272,67.75,25.5629,25.5343,136.08,98.9069,93.7984,0.00049109,0.0440643,21.0214,23.6913,0.469912,0.0,0.0
306,76.25,25.4122,26.1687,140.266,98.9125,94.0246,0.000284133,0.0439672,21.0213,23.6513,0.449066,0.0,0.0
340,84.75,25.3321,26.3075,137.784,98.7885,93.4011,0.000593689,0.0437419,21.0188,23.6312,0.496908,0.0,0.0
374,93.25,25.1642,25.8635,136.419,98.566,93.7231,0.000617835,0.0441476,21.0186,23.5912,0.446429,0.0,0.0
408,101.75,25.2034,26.0987,136.09,98.2163,93.0239,0.000786876,0.0445899,21.0191,23.5812,0.481287,0.0,0.0
442,110.25,25.469,25.9265,136.187,98.0732,92.588,0.000686023,0.044237,21.0192,23.6112,0.509994,0.0,0.0
476,118.75,25.5975,25.892,134.984,98.1543,92.8661,0.000469707,0.0438375,21.0185,23.6112,0.490736,0.0,0.0
510,127.25,25.3803,26.3041,138.075,98.2628,93.063,0.00084093,0.0439813,21.0183,23.6112,0.481763,0.0,0.0
544,135.75,26.0731,26.4836,139.559,98.3729,93.1258,0.000777162,0.0441725,21.0191,23.6012,0.485706,0.0,0.0
578,144.25,25.963,26.2061,134.856,98.4817,92.8553,0.00075295,0.0440776,21.0191,23.5712,0.521284,0.0,0.0
612,152.75,25.6728,25.9355,136.064,98.5572,93.203,0.000882717,0.0440788,21.0196,23.5312,0.494947,0.0,0.0
646,161.25,25.725,26.516,134.228,98.57,92.9168,0.000989658,0.0441958,21.0194,23.5211,0.523342,0.0,0.0
680,169.75,25.8561,26.5006,138.269,98.5342,92.7417,0.000836653,0.0441277,21.019,23.4911,0.53684,0.0,0.0
714,178.25,25.7277,26.576,137.705,98.4591,92.3259,0.000857936,0.0443076,21.0204,23.4811,0.569901,0.0,0.0
748,186.75,26.081,26.7058,136.986,98.3447,92.3847,0.000994115,0.0441723,21.0205,23.4611,0.553959,0.0,0.0
782,195.25,25.855,26.6744,140.062,98.2556,92.0917,0.000681255,0.0442774,21.0205,23.4511,0.574085,0.0,0.0
816,203.75,25.6477,26.2425,134.336,98.1623,93.0283,0.000808764,0.0442552,21.0214,23.401,0.475988,0.0,0.0
850,212.25,26.0219,27.0042,137.26,98.0212,92.2849,0.000753072,0.0444001,21.0199,23.401,0.534345,0.0,0.0
884,220.75,25.7313,26.8707,136.554,97.9111,92.1629,0.000538442,0.0443,21.0204,23.391,0.536107,0.0,0.0
918,229.25,25.6694,27.002,131.341,97.8145,91.6376,0.000516664,0.0442748,21.0205,23.391,0.578013,0.0,0.0
952,237.75,25.9059,26.9623,139.076,97.71,92.241,0.00102549,0.0446274,21.0205,23.351,0.510387,0.0,0.0
986,246.25,26.3076,26.8387,138.628,97.6095,91.9045,0.000688977,0.0444388,21.0216,23.311,0.533651,0.0,0.0
1020,254.75,26.2526,27.1684,137.242,97.4684,91.605,0.00061487,0.0444658,21.0218,23.321,0.549757,0.0,0.0
1054,263.25,25.9105,26.9849,136.764,97.4144,91.3426,0.000755969,0.0445251,21.0218,23.311,0.570265,0.0,0.0
1088,271.75,25.7394,26.9361,139.037,97.3075,91.6565,0.000917126,0.0447618,21.0204,23.3009,0.530131,0.0,0.0
1122,280.25,26.0264,26.9619,133.647,97.263,91.9568,0.000578868,0.0446005,21.0203,23.2409,0.497094,0.0,0.0
1156,288.75,25.9665,26.6516,138.106,97.3139,91.9109,0.000566743,0.0445901,21.0212,23.2709,0.50615,0.0,0.0
1190,297.25,25.8426,26.5354,137.797,97.414,91.9484,0.000595093,0.045773,21.0202,23.2609,0.511656,0.0,0.0
1224,305.75,25.6415,26.9922,134.945,97.588,92.053,0.000778508,0.0451284,21.0223,23.2109,0.517394,0.0,0.0
1258,314.25,26.5594,27.1597,135.513,97.8177,92.7071,0.000518976,0.0447522,21.0226,23.1808,0.475483,0.0,0.0
1292,322.75,25.7891,26.758,133.961,98.0403,92.6129,0.000389594,0.0443962,21.0231,23.2009,0.504627,0.0,0.0
1326,331.25,26.0467,26.8903,136.392,98.3264,92.3968,0.000474296,0.0440882,21.0231,23.1408,0.551153,0.0,0.0
1360,339.75,26.467,27.1111,136.955,98.5835,93.1406,0.000810419,0.0440915,21.0205,23.1208,0.50324,0.0,0.0
1394,348.25,25.9158,27.052,133.505,98.8394,93.3069,0.000718479,0.0440651,21.0193,23.1108,0.510409,0.0,0.0
1428,356.75,26.0714,27.1321,135.078,99.0428,93.7742,0.000858677,0.0442463,21.0219,23.1108,0.484361,0.0,0.0
1462,365.25,25.6435,26.6171,135.209,99.1601,92.9845,0.000763151,0.0441332,21.0223,23.0707,0.569785,0.0,0.0
1496,373.75,25.7445,26.8206,137.832,99.228,94.06,0.000599357,0.0442525,21.0231,23.0407,0.473949,0.0,0.0
1530,382.25,25.8388,27.3084,135.704,99.2042,93.5826,0.000610504,0.044399,21.0232,23.0007,0.516907,0.0,0.0
1564,390.75,26.0972,27.179,138.056,99.0941,93.6772,0.000694875,0.0442132,21.0237,23.0007,0.498117,0.0,0.0
1598,399.25,25.8664,26.9545,137.135,98.9546,94.1164,0.000683961,0.0441407,21.0229,22.9707,0.444194,0.0,0.0
1632,407.75,25.8469,26.5366,138.565,98.7524,93.4993,0.000702707,0.0439581,21.0217,22.9606,0.484351,0.0,0.0
1666,416.25,26.1304,26.8819,140.355,98.6013,93.0469,0.000583383,0.0440831,21.0207,22.9206,0.513773,0.0,0.0
1700,424.75,26.477,27.3911,137.327,98.4571,92.5807,0.000730449,0.0633148,20.9873,22.9406,0.545303,0.0,0.0
1734,433.25,27.4027,28.2738,130.457,98.5688,91.5249,0.00136577,0.120332,20.9115,22.7605,0.65698,0.0,0.0
1768,441.75,29.0736,29.9854,133.941,98.8263,90.8857,0.00259813,0.165802,20.8424,22.5503,0.742201,0.0,0.0
1802,450.25,30.5937,31.9051,128.816,98.9324,89.0224,0.00427136,0.203983,20.7857,22.21,0.93526,0.0,1.0
1836,458.75,32.2253,33.6615,129.01,98.9141,87.971,0.00468745,0.237957,20.7325,21.8296,1.0389,0.0,0.0
1870,467.25,34.294,36.0071,124.292,98.7722,86.641,0.00530554,0.278516,20.6668,21.4393,1.16116,0.0,0.0
1904,475.75,36.8139,38.3813,123.764,98.5167,85.6331,0.00568113,0.317131,20.6125,20.9388,1.2419,0.0,0.0
1938,484.25,39.5016,41.5073,124.779,98.1952,83.3927,0.00599588,0.359387,20.5403,20.4484,1.44786,0.0,0.0
1972,492.75,42.3908,44.929,124.423,98.1134,83.5931,0.00739261,0.411095,20.461,19.8078,1.41919,0.0,0.0
2006,501.25,44.9588,47.8289,120.324,98.1654,81.8063,0.00753755,0.435726,20.4229,19.1572,1.61535,0.0,0.0
2040,509.75,47.4482,51.2912,117.332,98.2564,79.1476,0.00818534,0.471509,20.3669,18.4866,1.91632,0.0,0.0
2074,518.25,50.4263,55.0425,117.25,98.3562,78.6094,0.00836376,0.485009,20.3452,17.766,1.98577,0.0,0.0
2108,526.75,53.0569,58.0433,118.266,98.4253,81.7097,0.00882148,0.488395,20.3378,17.0353,1.64925,0.0,0.0
2142,535.25,55.9798,59.8462,122.675,98.5088,81.8631,0.00841525,0.497302,20.3264,16.3147,1.64014,0.0,0.0
2176,543.75,57.0239,62.3082,118.107,98.5449,82.0692,0.00774453,0.473255,20.3606,15.6441,1.62111,0.0,0.0
2210,552.25,57.6603,63.3076,120.978,98.5608,82.1126,0.00753973,0.458336,20.3883,15.0135,1.61785,0.0,0.0
2244,560.75,58.4546,64.0165,118.296,98.5251,79.6137,0.00743489,0.428453,20.425,14.4029,1.88848,0.0,0.0
2278,569.25,59.9222,64.0837,118.341,98.4861,80.3186,0.00720453,0.439817,20.4159,13.8024,1.80688,0.0,0.0
2312,577.75,59.9546,65.1893,122.845,98.4337,82.041,0.00754219,0.435147,20.4179,13.2219,1.61415,0.0,0.0
2346,586.25,60.5622,65.2895,115.729,98.3522,79.8174,0.00685171,0.427145,20.4289,12.7014,1.85028,0.0,0.0
2380,594.75,60.078,66.7699,118.841,98.2827,78.3812,0.00675733,0.424669,20.4313,12.0909,2.00491,0.0,0.0
2414,603.25,61.3497,66.1037,118.318,98.1853,78.9741,0.00664908,0.417133,20.4428,11.5604,1.92935,0.0,0.0
2448,611.75,60.8268,66.5107,116.728,98.1213,81.7093,0.00644015,0.400038,20.4709,10.9298,1.62188,0.0,0.0
2482,620.25,59.7955,66.3706,123.631,98.0554,85.3671,0.005503,0.354439,20.5485,10.4994,1.22788,0.0,0.0
2516,628.75,59.4883,64.8721,122.633,97.9588,82.7353,0.00502635,0.328622,20.588,10.0791,1.49662,0.0,0.0
2550,637.25,58.4529,63.6888,125.837,97.8801,84.6175,0.00395493,0.303464,20.6243,9.6787,1.29017,0.0,0.0
2584,645.75,57.1748,62.1149,122.73,97.7979,86.2619,0.00351556,0.276847,20.6691,9.28835,1.11218,0.0,0.0
2618,654.25,56.0618,60.9322,128.026,97.7001,87.2038,0.00280932,0.256705,20.7041,8.99809,1.00709,0.0,0.0
2652,662.75,54.3617,59.0153,124.661,97.6592,88.1155,0.0025123,0.231249,20.7377,8.71784,0.911217,0.0,0.0
2686,671.25,52.6968,57.5795,129.342,97.5928,89.4841,0.00252891,0.201578,20.7858,8.49764,0.768625,0.0,0.0
2720,679.75,51.111,55.6931,126.122,97.5614,88.4154,0.00234041,0.168337,20.8364,8.35751,0.872238,0.0,0.0
2754,688.25,48.7447,52.419,132.853,97.5276,91.2902,0.0018611,0.123091,20.9068,8.24741,0.585638,0.0,0.0
2788,696.75,46.3302,50.1782,134.736,97.4788,91.9315,0.00133914,0.0874026,20.9606,8.24741,0.519175,0.0,0.0
2822,705.25,43.8599,46.3972,134.777,97.4724,91.6606,0.00122492,0.0653564,20.9918,8.20738,0.544746,0.0,0.0
2856,713.75,41.3589,44.2514,136.104,97.4203,92.3062,0.00121096,0.0606189,20.9961,8.21739,0.477815,0.0,0.0
2890,722.25,39.6334,42.0827,137.464,97.3921,92.8879,0.00100413,0.0586636,20.9995,8.18736,0.419589,0.0,0.0
2924,730.75,37.4142,40.1764,136.048,97.3683,92.1661,0.000975835,0.0567769,21.0049,8.14732,0.486536,0.0,0.0
2958,739.25,36.5654,38.4793,132.292,97.3468,92.3018,0.000841386,0.0539187,21.0102,8.09728,0.471551,0.0,0.0
2992,747.75,35.321,37.2766,136.093,97.3218,92.309,0.000957439,0.0509273,21.0138,8.12731,0.468577,0.0,0.0
3026,756.25,34.3211,36.2367,134.273,97.3278,92.5067,0.000644652,0.0482577,21.0143,8.1173,0.450168,0.0,0.0
3060,764.75,33.7744,35.4263,133.892,97.3019,92.5055,0.000435788,0.046559,21.0161,8.09728,0.447932,0.0,0.0
3094,773.25,33.0218,34.0912,135.671,97.3035,92.3424,0.00064208,0.045579,21.0175,8.05724,0.463706,0.0,0.0
3128,781.75,31.622,33.6278,134.151,97.2888,91.9713,0.000706079,0.0447633,21.0189,8.06725,0.498051,0.0,0.0
3162,790.25,31.6524,32.8835,133.339,97.2765,92.1899,0.000859876,0.0446329,21.0191,8.1173,0.475895,0.0,0.0
3196,798.75,31.172,32.6046,136.998,97.2721,92.4672,0.000405085,0.0442691,21.0201,8.10729,0.44888,0.0,0.0
3230,807.25,30.9133,32.0748,137.127,97.2626,92.5594,0.00074108,0.0446628,21.0198,8.08727,0.439183,0.0,0.0
3264,815.75,30.8409,31.8855,135.299,97.2443,92.1967,,,,8.14732,0.472305,0.0,0.0
3276,818.75,30.3813,30.605,138.074,97.2411,92.4471,,,,8.14732,0.447986,0.0,0.0