File: 01_Data/Nylon_Carpet_High_Pile/Cone/Nylon_Carpet_High_Pile_Cone_HF75Scalar_220318_R2.csv
LABORATORY,FSRI
TEST IDENT,NylonCarpetLP_HF75_2
OPERATOR,Dow
MATERIAL,Nylon Carpet - low pile
ORIENTATION,Horizontal
HEAT FLUX,75
SURF AREA,0.01
C FACTOR,0.0397524
SPEC HOLDER DIFF,-566
SPECIMEN MASS,25.63
SCAN TIME,0.25
O2 DELAY TIME,11
CO DELAY TIME,11
CO2 DELAY TIME,8
FLOW FACTOR,1
SCAN COUNT,1343
TIME TO IGN,18.25
END OF TEST SCAN,863
END OF TEST TIME,215.75
TEST STATUS,1
PRE TEST CMT,Dimensions: 99.15 x 96.66 x 13.83 mm; 60 mm spacing