File: 01_Data/Nylon_Carpet_High_Pile/Cone/Nylon_Carpet_High_Pile_Cone_HF25Scan_220317_R1.csv
Names,Time,Stack TC,Smoke TC,Exh Press,Smoke Comp,Smoke Meas,CO Meter,CO2 Meter,O2 Meter,Sample Mass,Ext Coeff,Start Test,Flame Verif
Chan Gain,,500,500,1,1,1,1,1,1,1,1,1.0,1.0
Offset,,0,0,0.13495,0,0,0,0,0,0,0,0.0,0.0
Gain,,1,1,25.011,13.0212,13.19,1,1,1,1.0009,1.01015,1.0,1.0
Units,sec,C,C,Pa,%,%,%,%,%,g,/m,,
Baseline,,22.9497,23.8761,139.015,97.579,92.8637,0.000797167,0.0445219,21.0246,-489.21,0.438916,,
44,10.75,22.2208,22.8476,138.844,97.2868,92.3062,0.000539641,0.0457319,21.0252,26.1235,0.465663,0.0,0.0
88,21.75,22.1362,23.6664,137.057,97.6707,92.1867,0.000424035,0.0446816,21.0248,26.0634,0.51204,0.0,0.0
132,32.75,22.4595,23.649,141.036,98.256,93.0549,0.000355108,0.0466213,21.023,26.0034,0.48192,0.0,0.0
176,43.75,22.3122,23.1658,137.044,98.4774,93.5681,0.000611871,0.0476204,21.0233,25.9133,0.453122,0.0,0.0
220,54.75,22.9812,23.6817,138.801,98.1281,92.7828,0.000695509,0.046879,21.0232,25.8633,0.496322,0.0,0.0
264,65.75,23.1691,23.9724,137.491,98.7361,93.1668,0.000724312,0.0466237,21.0234,25.7832,0.514456,0.0,0.0
308,76.75,23.3285,24.1437,138.046,98.5012,92.8001,0.000786045,0.0457409,21.0253,25.6731,0.528299,0.0,0.0
352,87.75,23.4802,24.197,136.756,99.0603,93.3854,0.000774622,0.0458499,21.0232,25.6431,0.522744,0.0,0.0
396,98.75,23.7617,24.5705,139.208,98.8259,92.9555,0.000417724,0.0468007,21.0225,25.6531,0.542633,0.0,0.0
440,109.75,23.2938,24.4731,137.88,97.4366,91.5603,0.000818242,0.049562,21.018,25.6631,0.55119,0.0,0.0
484,120.75,23.4839,24.6027,139.335,97.5761,91.1047,0.000524406,0.0472433,21.0222,25.633,0.608071,0.0,0.0
528,131.75,24.0506,24.6446,138.633,98.4766,92.5501,0.000949935,0.0472391,21.0203,25.6531,0.549984,0.0,0.0
572,142.75,23.6885,24.8012,137.409,98.1265,91.4436,0.000890201,0.0462958,21.0205,25.613,0.625007,0.0,0.0
616,153.75,23.6031,24.9984,133.931,98.8485,91.7588,0.000819834,0.0500374,21.0142,25.623,0.65948,0.0,0.0
660,164.75,23.6847,25.0512,142.02,98.537,91.2971,0.000596383,0.0476866,21.019,25.603,0.676207,0.0,0.0
704,175.75,24.2118,25.3028,140.631,99.1493,92.3754,0.000765964,0.0468292,21.0186,25.533,0.627053,0.0,0.0
748,186.75,24.3523,25.1532,138.522,97.9254,90.8442,0.000800533,0.0466013,21.0192,25.5129,0.665102,0.0,0.0
792,197.75,24.74,25.3775,136.222,97.3445,89.8572,0.00082875,0.0457013,21.0215,25.533,0.709174,0.0,0.0
836,208.75,24.0441,25.7604,139.737,98.417,91.1936,0.000854815,0.0445774,21.0241,25.533,0.675455,0.0,0.0
880,219.75,24.3848,25.4802,137.875,98.1007,90.5045,0.001036,0.0441196,21.0242,25.4929,0.714143,0.0,0.0
924,230.75,24.5379,25.9547,136.214,98.8334,91.3844,0.000810314,0.0441057,21.0236,25.4329,0.694351,0.0,0.0
968,241.75,24.6404,25.4531,134.916,98.6347,90.9823,0.000904716,0.0442291,21.0242,25.4529,0.715597,0.0,0.0
1012,252.75,24.1801,25.3405,144.378,99.1283,91.5736,0.00084556,0.0442171,21.0242,25.3928,0.702422,0.0,0.0
1056,263.75,24.5639,25.6016,136.344,98.4615,90.6965,0.000670142,0.0443147,21.0242,25.4229,0.727897,0.0,0.0
1100,274.75,23.8139,25.4169,137.035,97.5845,89.7337,0.000877883,0.0440391,21.0245,25.3828,0.743189,0.0,0.0
1144,285.75,24.2522,25.4277,138.058,97.5725,89.9772,0.000731974,0.0440387,21.0246,25.3328,0.718091,0.0,0.0
1188,296.75,24.1727,25.9974,136.943,97.3401,90.2143,0.000474233,0.04418,21.0223,25.3228,0.673637,0.0,0.0
1232,307.75,24.3124,25.66,139.79,97.2888,89.7248,0.000975044,0.0440294,21.0237,25.3328,0.717176,0.0,0.0
1276,318.75,24.2525,25.5473,140.478,97.2729,90.1636,0.000766765,0.0439522,21.0261,25.2827,0.672505,0.0,0.0
1320,329.75,24.3854,25.1938,136.193,97.2614,90.046,0.000854962,0.0439194,21.026,25.2927,0.683013,0.0,0.0
1364,340.75,24.3793,25.1741,137.144,97.269,90.2485,0.000897645,0.0440586,21.0246,25.2427,0.6638,0.0,0.0
1408,351.75,24.3241,25.3953,134.039,97.2844,90.9622,0.000785956,0.0439668,21.0258,25.2327,0.595415,0.0,0.0
1452,362.75,24.8,25.3136,137.954,97.3325,90.5105,0.000586738,0.0539632,21.0122,25.1926,0.643898,0.0,0.0
1496,373.75,25.2776,25.6657,138.804,97.4303,90.4494,0.00118193,0.0590457,21.0065,25.1426,0.658785,0.0,0.0
1540,384.75,25.5137,26.7858,133.204,97.592,90.8905,0.000943409,0.0623833,21.0014,25.1326,0.630368,0.0,0.0
1584,395.75,25.8594,26.7527,136.189,97.8432,91.3228,0.000853468,0.063686,20.9981,25.0725,0.611094,0.0,0.0
1628,406.75,25.9554,27.1787,137.447,98.1694,91.4694,0.000517074,0.0645766,20.9976,25.0225,0.626386,0.0,0.0
1672,417.75,26.0715,27.0053,137.048,98.5429,91.6384,0.000951585,0.0657193,20.9953,24.9424,0.643675,0.0,0.0
1716,428.75,25.8841,27.3864,141.276,98.8978,92.3658,0.0008958,0.069201,20.9914,24.8523,0.605472,0.0,0.0
1760,439.75,26.4057,27.9826,135.799,99.1231,92.2853,0.000822173,0.0661467,20.9946,24.8423,0.633363,0.0,0.0
1804,450.75,26.8837,27.9054,134.184,99.0945,91.8272,0.00119135,0.0681358,20.9908,24.7923,0.674898,0.0,0.0
1848,461.75,26.8495,28.1426,137.612,98.7909,91.737,0.0012605,0.0731505,20.986,24.6622,0.656413,0.0,0.0
1892,472.75,27.2963,28.7138,131.732,98.4023,91.2947,0.000967428,0.0730609,20.9855,24.6021,0.66432,0.0,0.0
1936,483.75,27.1784,28.7165,137.85,98.7635,91.8944,0.00105658,0.0722788,20.9877,24.5421,0.638765,0.0,0.0
1980,494.75,27.4951,28.8266,137.626,98.7237,92.1971,0.000911172,0.0721889,20.987,24.482,0.606059,0.0,0.0
2024,505.75,27.2178,28.3415,136.803,97.9497,91.6135,0.000875458,0.0726516,20.9846,24.422,0.59258,0.0,0.0
2068,516.75,27.6716,29.1864,134.737,98.2123,90.3173,0.00116521,0.088722,20.9563,24.3018,0.742569,0.0,0.0
2112,527.75,28.1135,29.2275,134.917,98.5096,90.6595,0.00154567,0.0954167,20.9533,24.1617,0.735842,0.0,0.0
2156,538.75,28.3709,29.9478,134.451,98.3566,90.6084,0.00156617,0.0967718,20.9506,24.0216,0.727067,0.0,0.0
2200,549.75,28.854,30.2604,139.367,97.741,89.821,0.00110709,0.0948933,20.9561,23.9315,0.748773,0.0,0.0
2244,560.75,28.9807,30.7146,135.635,97.263,89.5356,0.00130464,0.0965453,20.955,23.8314,0.733528,0.0,0.0
2288,571.75,29.5158,30.6959,136.015,97.5733,90.2755,0.00126601,0.0943499,20.9579,23.7213,0.688838,0.0,0.0
2332,582.75,29.2009,30.8773,136.18,98.5155,90.5613,0.00182973,0.0935288,20.9564,23.6012,0.745982,0.0,0.0
2376,593.75,29.6301,31.0084,131.898,99.1322,89.8762,0.00192722,0.106131,20.938,23.4411,0.868569,0.0,0.0
2420,604.75,29.2968,31.2507,133.344,98.9808,90.079,0.00158292,0.108261,20.934,23.331,0.835047,0.0,0.0
2464,615.75,29.7228,31.625,138.15,98.4364,88.7455,0.00173825,0.10629,20.9385,23.1508,0.918338,0.0,0.0
2508,626.75,29.8648,31.6527,131.305,98.8565,90.0581,0.00157523,0.116311,20.9229,23.0007,0.825965,0.0,1.0
2552,637.75,30.8379,32.8153,128.8,98.376,89.6028,0.00193021,0.146889,20.879,22.7404,0.827704,0.0,0.0
2596,648.75,31.5206,33.3679,129.471,98.1678,88.9572,0.00228527,0.167682,20.8494,22.4902,0.87301,0.0,0.0
2640,659.75,32.3943,33.9542,132.374,98.4976,87.5081,0.00231548,0.17989,20.8284,22.2,1.04826,0.0,0.0
2684,670.75,34.5057,36.3344,130.869,98.2799,87.0561,0.00360823,0.216211,20.7743,21.7996,1.07454,0.0,0.0
2728,681.75,35.4158,37.5803,130.102,97.6087,85.2966,0.00461253,0.246067,20.7301,21.3092,1.19474,0.0,0.0
2772,692.75,37.3967,39.6989,125.897,97.228,84.8848,0.00466658,0.264748,20.7017,20.8287,1.20299,0.0,0.0
2816,703.75,39.7488,41.9379,125.009,97.6321,85.1581,0.005325,0.29312,20.6586,20.3283,1.21126,0.0,0.0
2860,714.75,41.2291,44.3715,127.243,98.5588,84.9553,0.00574374,0.321945,20.6184,19.6877,1.31611,0.0,0.0
2904,725.75,43.2478,46.3112,127.311,99.137,86.4482,0.0054218,0.342594,20.5909,19.0772,1.21357,0.0,0.0
2948,736.75,45.2507,49.0742,127.764,99.0206,85.6299,0.00555045,0.333345,20.6017,18.4966,1.28744,0.0,0.0
2992,747.75,46.9412,50.7735,127.088,98.5151,86.1496,0.00607513,0.355785,20.5698,17.826,1.18848,0.0,0.0
3036,758.75,49.0045,53.0618,124.501,98.779,84.6332,0.00648633,0.37967,20.5321,17.1254,1.36953,0.0,0.0
3080,769.75,51.5896,55.7261,117.754,98.7941,81.8985,0.00644043,0.412121,20.4795,16.3747,1.66194,0.0,0.0
3124,780.75,53.8067,57.9649,121.007,98.0689,81.8808,0.0062956,0.44029,20.4397,15.554,1.59857,0.0,0.0
3168,791.75,55.2327,59.8306,119.26,98.1726,80.9497,0.00659729,0.428356,20.4558,14.8433,1.70927,0.0,0.0
3212,802.75,57.1729,62.7131,119.721,98.3351,82.2141,0.00720548,0.450805,20.4219,13.9626,1.5866,0.0,0.0
3256,813.75,57.9389,63.6699,126.783,98.45,83.003,0.00660607,0.430786,20.4511,13.1819,1.51231,0.0,0.0
3300,824.75,58.7815,64.323,119.446,98.4754,82.8227,0.00621253,0.419866,20.4695,12.4412,1.53387,0.0,0.0
3344,835.75,59.1871,64.5267,122.877,98.4317,81.0041,0.00566091,0.387602,20.5182,11.7205,1.72667,0.0,0.0
3388,846.75,59.0255,64.2596,129.29,98.3224,84.7093,0.00529988,0.363669,20.555,11.1,1.32051,0.0,0.0
3432,857.75,57.8112,63.1313,121.618,98.1809,83.4768,0.00463627,0.324965,20.6117,10.5595,1.43763,0.0,0.0
3476,868.75,56.1629,61.3542,128.336,98.0772,85.2882,0.00424359,0.278935,20.6825,10.0791,1.23805,0.0,0.0
3520,879.75,53.8686,58.645,125.769,98.7734,88.0688,0.00371432,0.241165,20.7429,9.6787,1.01644,0.0,0.0
3564,890.75,52.0685,56.4233,126.444,98.8445,89.4865,0.00262907,0.207321,20.7891,9.35841,0.881314,0.0,0.0
3608,901.75,49.8874,54.0028,134.92,98.597,89.7103,0.00224004,0.168155,20.8489,9.14822,0.83696,0.0,0.0
3652,912.75,46.9039,50.9562,131.968,99.145,91.7451,0.00169408,0.119426,20.9232,9.0081,0.687337,0.0,0.0
3696,923.75,43.8377,47.4327,134.407,98.8914,92.66,0.00146665,0.0742519,20.9794,8.96806,0.576719,0.0,0.0
3740,934.75,40.0422,43.3126,138.449,97.7235,91.7628,0.00133505,0.061371,20.9991,8.93804,0.55767,0.0,0.0
3784,945.75,38.2906,40.5232,136.99,97.3047,91.3732,0.00128424,0.0595384,21.002,8.95805,0.557316,0.0,0.0
3828,956.75,36.4834,38.6375,138.955,98.2004,92.1569,0.00111421,0.0584064,21.0046,8.90801,0.562831,0.0,0.0
3872,967.75,34.835,36.9356,137.272,98.4464,91.8208,0.00158255,0.0575612,21.0055,8.85796,0.617374,0.0,0.0
3916,978.75,33.5852,35.3535,136.948,98.2767,91.9339,0.00130311,0.0563408,21.0056,8.898,0.59118,0.0,0.0
3960,989.75,32.4581,34.0531,134.82,98.4841,92.0856,0.000857257,0.0548585,21.0061,8.88799,0.595248,0.0,0.0
4004,1000.75,31.5036,32.5772,134.323,99.1565,92.8782,0.000863515,0.0527207,21.0083,8.82794,0.579598,0.0,0.0
4048,1011.75,31.0699,32.0239,136.889,98.1738,91.4561,0.000808778,0.0504279,21.0128,8.85796,0.628068,0.0,0.0
4092,1022.75,30.5221,31.7196,138.674,97.3953,90.5387,0.000802115,0.0480813,21.0159,8.84795,0.646855,0.0,0.0
4136,1033.75,30.4783,31.0112,135.238,98.5131,91.5567,,0.0467446,,8.76788,0.648901,0.0,0.0
4176,1043.75,29.8902,30.509,137.201,98.0371,91.2709,,,,8.82794,0.633679,0.0,0.0