File: 01_Data/LDPE/MCC/LDPE_MCC_30K_min_210922_R2.txt
Sample ID:	C:\MCC\MCC Cal\Test\LDPE_MCC_30K_min_210922_R2.txt
Sample Weight (mg):	4.45
Heating Rate (C/s):	0.5
Combustor Temp (C):	900
N2 Flow Rate (cc/min):	80
O2 Flow Rate (cc/min):	20
Calibration File:	C:\MCC\MCC Cal\Coeff1 JN10440_30_210304.txt.txt
T Correction Coefficients:	0	1.024463	0
Time Shift (s):	14
*
Time (s)	Temperature (C)	N2 flow rate (cc/min)	O2 flow rate (cc/min)	Flow Rate (cc/min)	Oxygen (%)	HRR (W/g)	Heating rate (C/s)
0.000	108.703	80.005	19.996	100.367	20.048	0.233	0.013
8.000	108.650	80.008	19.996	100.378	20.050	0.088	-0.037
16.000	108.687	80.005	19.996	100.422	20.043	0.620	-0.003
24.000	109.034	80.008	19.997	100.505	20.028	1.655	0.055
32.000	109.743	80.007	19.997	100.524	20.026	1.801	0.099
40.000	110.823	80.004	19.996	100.538	20.021	2.188	0.168
48.000	112.276	80.003	19.997	100.547	20.019	2.326	0.195
56.000	114.071	80.005	19.997	100.574	20.014	2.645	0.234
64.001	116.092	80.004	19.997	100.579	20.009	3.037	0.272
72.000	118.500	80.005	19.997	100.586	20.010	2.919	0.336
80.000	121.088	80.002	19.996	100.608	20.008	3.097	0.345
88.000	124.043	80.006	19.995	100.607	20.006	3.188	0.364
96.001	127.179	80.005	19.997	100.606	20.004	3.370	0.391
104.000	130.493	80.008	19.995	100.589	20.008	3.087	0.423
112.000	133.873	80.004	19.995	100.581	20.008	3.104	0.428
120.000	137.414	80.003	19.995	100.589	20.007	3.163	0.447
128.000	141.066	80.003	19.996	100.580	20.009	3.023	0.437
136.000	144.811	80.004	19.996	100.582	20.007	3.165	0.490
144.000	148.640	80.005	19.996	100.572	20.008	3.069	0.485
152.000	152.487	80.004	19.996	100.567	20.011	2.894	0.487
160.000	156.317	80.003	19.997	100.571	20.010	2.925	0.486
168.000	160.260	80.005	19.995	100.575	20.014	2.688	0.523
176.000	164.148	80.006	19.995	100.543	20.011	2.831	0.495
184.000	168.067	80.004	19.995	100.576	20.015	2.608	0.477
192.000	172.090	80.007	19.995	100.535	20.012	2.804	0.503
200.000	176.054	80.007	19.994	100.558	20.013	2.751	0.518
208.000	180.022	80.005	19.997	100.530	20.012	2.807	0.493
216.000	184.080	80.003	19.997	100.522	20.015	2.606	0.503
224.000	188.071	80.004	19.995	100.539	20.018	2.340	0.482
232.000	192.119	80.003	19.996	100.516	20.017	2.459	0.469
240.000	196.171	80.003	19.997	100.525	20.016	2.526	0.505
248.000	200.206	80.003	19.997	100.531	20.022	2.081	0.523
256.000	204.120	80.005	19.996	100.490	20.020	2.216	0.484
264.000	208.103	80.005	19.995	100.504	20.023	2.045	0.472
272.000	212.097	80.006	19.995	100.497	20.021	2.127	0.533
280.000	215.972	80.005	19.995	100.512	20.024	1.940	0.506
288.000	219.914	80.005	19.996	100.494	20.026	1.827	0.490
296.000	223.814	80.005	19.995	100.493	20.027	1.706	0.479
304.000	227.813	80.006	19.995	100.482	20.026	1.823	0.489
312.000	231.778	80.003	19.995	100.480	20.023	1.992	0.483
320.000	235.727	80.004	19.995	100.507	20.026	1.810	0.479
328.000	239.642	80.005	19.996	100.495	20.030	1.555	0.476
336.000	243.669	80.005	19.995	100.452	20.027	1.702	0.512
344.000	247.615	80.005	19.996	100.478	20.028	1.683	0.498
352.000	251.692	80.006	19.996	100.485	20.029	1.587	0.556
360.000	255.733	80.007	19.995	100.467	20.029	1.624	0.523
368.000	259.750	80.004	19.995	100.480	20.031	1.465	0.522
376.000	263.761	80.004	19.995	100.460	20.032	1.385	0.531
384.000	267.766	80.005	19.996	100.461	20.031	1.482	0.515
392.000	271.760	80.005	19.995	100.454	20.032	1.381	0.493
400.000	275.740	80.005	19.995	100.455	20.037	1.044	0.476
408.000	279.714	80.005	19.997	100.458	20.035	1.155	0.481
416.000	283.645	80.006	19.996	100.452	20.038	0.956	0.471
424.000	287.634	80.006	19.997	100.457	20.035	1.143	0.489
432.000	291.642	80.006	19.997	100.461	20.040	0.839	0.491
440.000	295.678	80.007	19.996	100.442	20.032	1.356	0.486
448.000	299.749	80.006	19.997	100.458	20.036	1.134	0.515
456.000	303.672	80.004	19.998	100.443	20.032	1.400	0.503
464.000	307.679	80.004	19.996	100.452	20.036	1.103	0.491
472.000	311.689	80.005	19.996	100.447	20.037	1.025	0.496
480.000	315.831	80.006	19.996	100.423	20.035	1.197	0.506
488.000	319.861	80.005	19.995	100.436	20.036	1.113	0.478
496.000	323.891	80.005	19.995	100.433	20.035	1.204	0.495
504.000	327.911	80.004	19.997	100.420	20.037	1.044	0.507
512.000	331.973	80.004	19.996	100.428	20.034	1.225	0.506
520.000	336.041	80.007	19.995	100.420	20.037	1.044	0.515
528.000	340.053	80.005	19.995	100.415	20.036	1.099	0.485
536.000	344.052	80.003	19.996	100.411	20.034	1.206	0.508
544.000	348.100	80.004	19.996	100.425	20.037	1.038	0.500
552.000	352.167	80.006	19.995	100.416	20.035	1.172	0.539
560.000	356.162	80.005	19.995	100.418	20.033	1.346	0.451
568.000	360.248	80.005	19.996	100.410	20.026	1.808	0.499
576.000	364.267	80.005	19.995	100.421	20.023	2.015	0.502
584.000	368.297	80.007	19.993	100.411	20.016	2.521	0.511
592.000	372.358	80.006	19.995	100.410	20.015	2.565	0.520
600.000	376.401	80.007	19.997	100.414	20.008	3.053	0.510
608.000	380.432	80.008	19.996	100.412	20.001	3.551	0.507
616.000	384.496	80.005	19.995	100.386	19.994	4.025	0.506
624.000	388.574	80.004	19.994	100.399	19.982	4.869	0.501
632.000	392.638	80.005	19.997	100.383	19.968	5.916	0.507
640.000	396.743	80.004	19.995	100.414	19.948	7.322	0.522
648.000	400.806	80.003	19.993	100.379	19.913	9.765	0.479
656.000	404.832	80.006	19.994	100.378	19.880	12.101	0.490
664.000	408.840	80.006	19.997	100.385	19.852	14.032	0.512
672.000	412.792	80.005	19.995	100.369	19.816	16.548	0.475
680.000	416.767	80.007	19.997	100.374	19.768	19.966	0.492
688.000	420.729	80.007	19.995	100.355	19.702	24.590	0.527
696.000	424.734	80.006	19.996	100.342	19.618	30.483	0.507
704.000	428.727	80.005	19.996	100.354	19.512	37.971	0.495
712.000	432.754	80.004	19.995	100.342	19.377	47.455	0.537
720.000	436.836	80.005	19.997	100.338	19.174	61.724	0.539
728.000	440.833	80.004	19.996	100.317	18.933	78.617	0.487
736.000	444.906	80.004	19.994	100.300	18.617	100.824	0.540
744.000	448.899	80.007	19.995	100.255	18.246	126.851	0.525
752.000	452.894	80.005	19.996	100.226	17.774	159.886	0.493
760.000	456.887	80.006	19.997	100.165	17.192	200.550	0.493
768.000	460.863	80.007	19.996	100.070	16.495	249.286	0.482
776.000	464.854	80.006	19.994	99.998	15.677	306.254	0.492
784.000	468.790	80.005	19.996	99.874	14.773	368.970	0.454
792.000	472.835	80.007	19.997	99.767	13.876	431.047	0.486
800.000	476.896	80.005	19.996	99.708	13.009	490.798	0.511
808.000	480.964	80.004	19.997	99.450	12.394	532.909	0.507
816.000	485.044	80.004	19.996	99.339	12.217	545.235	0.513
824.000	489.221	80.005	19.996	99.238	12.849	501.969	0.514
832.000	493.363	80.006	19.995	99.253	14.296	401.982	0.532
840.000	497.633	80.006	19.996	99.561	16.344	259.572	0.549
848.000	501.888	80.008	19.995	99.697	18.237	127.446	0.560
856.000	506.032	80.007	19.995	100.102	19.395	46.167	0.518
864.000	510.104	80.006	19.996	100.249	19.876	12.374	0.530
872.000	514.169	80.005	19.995	100.268	20.001	3.546	0.512
880.000	518.299	80.006	19.996	100.318	20.028	1.635	0.506
888.000	522.378	80.005	19.996	100.340	20.040	0.795	0.499
896.000	526.418	80.005	19.996	100.353	20.044	0.510	0.466
904.000	530.450	80.004	19.996	100.347	20.040	0.816	0.488
912.000	534.459	80.005	19.997	100.363	20.042	0.650	0.480
920.000	538.509	80.007	19.996	100.368	20.047	0.292	0.490
928.000	542.518	80.006	19.996	100.356	20.046	0.394	0.514
936.000	546.529	80.008	19.996	100.358	20.047	0.332	0.526
944.000	550.549	80.004	19.996	100.350	20.045	0.470	0.519
952.000	554.593	80.005	19.996	100.367	20.047	0.332	0.521
960.000	558.661	80.005	19.995	100.378	20.053	-0.103	0.554
968.000	562.732	80.004	19.995	100.380	20.053	-0.120	0.543
976.000	566.818	80.004	19.996	100.375	20.052	-0.025	0.493
984.000	570.911	80.007	19.996	100.365	20.055	-0.231	0.465
992.000	574.997	80.007	19.996	100.375	20.057	-0.403	0.505
1000.000	579.024	80.007	19.997	100.374	20.053	-0.124	0.488
1008.000	582.979	80.006	19.996	100.360	20.055	-0.245	0.502
1016.000	586.950	80.009	19.995	100.376	20.054	-0.164	0.511
1024.000	590.987	80.006	19.996	100.415	20.052	-0.029	0.538
1032.000	595.052	80.005	19.995	100.384	20.052	-0.054	0.515
1040.000	599.195	80.006	19.995	100.384	20.051	0.065	0.513
1048.000	603.423	80.005	19.996	100.383	20.052	-0.004	0.515
1056.000	607.660	80.006	19.996	100.397	20.046	0.399	0.551
1064.000	611.757	80.005	19.996	100.417	20.046	0.378	0.506
1072.001	615.938	80.007	19.996	100.414	20.045	0.474	0.516
1080.001	620.077	80.006	19.995	100.424	20.041	0.769	0.527
1088.000	624.209	80.006	19.996	100.435	20.044	0.556	0.550
1096.001	628.348	80.008	19.996	100.439	20.044	0.505	0.536
1104.000	632.487	80.006	19.995	100.446	20.041	0.761	0.510
1112.000	636.628	80.006	19.996	100.448	20.036	1.088	0.509
1120.000	640.709	80.006	19.996	100.454	20.039	0.857	0.521
1128.000	644.739	80.007	19.995	100.458	20.036	1.081	0.508
1136.001	648.745	80.006	19.995	100.468	20.034	1.241	0.524
1144.001	652.775	80.004	19.995	100.463	20.037	1.046	0.496
1152.000	656.804	80.006	19.995	100.495	20.038	0.930	0.491
1160.001	660.799	80.006	19.996	100.499	20.027	1.737	0.490
1168.000	664.757	80.007	19.995	100.497	20.024	1.921	0.457
1176.000	668.625	80.008	19.996	100.519	20.028	1.661	0.468
1184.000	672.692	80.009	19.996	100.522	20.023	2.004	0.549
1192.000	676.782	80.005	19.998	100.532	20.027	1.738	0.501
1200.001	680.883	80.007	19.996	100.528	20.018	2.368	0.506
1208.000	685.006	80.006	19.996	100.553	20.021	2.142	0.526
1216.000	689.230	80.006	19.995	100.571	20.020	2.253	0.559
1224.001	693.421	80.005	19.995	100.564	20.016	2.518	0.516
1232.000	697.581	80.006	19.995	100.568	20.014	2.642	0.494
1240.000	701.627	80.008	19.996	100.569	20.017	2.458	0.575
1248.000	705.612	80.007	19.995	100.570	20.015	2.583	0.501
1256.000	709.578	80.007	19.996	100.570	20.014	2.682	0.487
1264.000	713.557	80.008	19.997	100.575	20.013	2.740	0.498
1272.001	717.604	80.005	19.995	100.585	20.013	2.754	0.530
1280.000	721.449	80.005	19.996	100.595	20.008	3.068	0.489
1288.000	725.453	80.006	19.997	100.611	20.010	2.946	0.523
1296.000	729.438	80.005	19.997	100.609	20.007	3.175	0.506
1304.000	733.375	80.005	19.994	100.612	20.006	3.187	0.460
1312.001	737.344	80.007	19.996	100.624	20.005	3.291	0.489
1320.000	741.296	80.007	19.996	100.619	20.007	3.114	0.474
1324.500	743.508	80.007	19.997	100.613	20.006	3.243	0.477