File: 01_Data/XPS_Foam_Board/Cone/XPS_Foam_Insulation_Cone_HF50Scan_220412_R3.csv
Names,Time,Stack TC,Smoke TC,Exh Press,Smoke Comp,Smoke Meas,CO Meter,CO2 Meter,O2 Meter,Sample Mass,Ext Coeff,Start Test,Flame Verif
Chan Gain,,500,500,1,1,1,1,1,1,1,1,1.0,1.0
Offset,,0,0,0.134314,0,0,0,0,0,0,0,0.0,0.0
Gain,,1,1,25.011,13.1473,13.6402,1,1,1,1.00092,1.00708,1.0,1.0
Units,sec,C,C,Pa,%,%,%,%,%,g,/m,,
Baseline,,32.7655,33.663,149.829,99.1268,93.6474,0.000790007,0.0481737,21.0209,-834.384,0.50235,,
8,1.75,31.3172,31.8472,151.288,99.082,92.9972,0.00104387,0.0575752,21.009,-331.964,0.559886,0.0,0.0
16,3.75,31.1182,32.0792,151.031,99.082,92.5493,0.00102123,0.0567815,21.0115,-332.014,0.602535,0.0,0.0
24,5.75,31.5513,32.6289,147.001,99.1061,90.3489,0.000932663,0.0567581,21.0128,-332.094,0.817249,0.0,0.0
32,7.75,31.5183,32.0797,151.985,99.0924,89.4594,0.000866772,0.0573778,21.0123,-332.154,0.903442,0.0,0.0
40,9.75,31.4682,32.0221,146.189,99.0828,89.4311,0.0008239,0.058047,21.0119,-332.194,0.905379,0.0,0.0
48,11.75,31.6395,32.5146,146.107,99.0683,89.1863,0.000877654,0.0590729,21.0091,-332.224,0.928303,0.0,0.0
56,13.75,32.4826,33.255,147.595,99.0848,88.0091,0.00194674,0.0654993,20.9956,-332.264,1.04715,0.0,0.0
64,15.75,32.0863,32.661,136.593,99.0784,76.2105,0.00522552,0.104672,20.8951,-332.474,2.31815,0.0,1.0
72,17.75,32.3557,33.1805,135.717,99.084,61.6725,0.00902756,0.205288,20.7421,-332.705,4.18848,0.0,1.0
80,19.75,34.0797,34.0767,139.872,99.0896,67.2325,0.0131264,0.297986,20.6171,-332.865,3.42643,0.0,1.0
88,21.75,34.8421,35.2056,137.034,99.082,63.8887,0.0165902,0.353521,20.5263,-333.085,3.87642,0.0,0.0
96,23.75,36.1598,36.883,128.193,99.0896,52.6395,0.0211777,0.428049,20.4041,-333.325,5.58803,0.0,0.0
104,25.75,38.2394,38.5526,124.037,99.0828,40.8526,0.0284424,0.542754,20.2792,-333.605,7.82682,0.0,0.0
112,27.75,40.7158,40.9034,123.026,99.0812,38.9095,0.0387553,0.680451,20.0736,-334.016,8.25718,0.0,0.0
120,29.75,44.0507,44.3061,107.367,99.0772,34.4475,0.0494627,0.89769,19.7121,-334.466,9.33282,0.0,0.0
128,31.75,48.1746,48.8006,109.471,99.0748,33.5825,0.060376,1.12139,19.372,-334.937,9.55726,0.0,0.0
136,33.75,53.4017,54.5181,98.2677,99.0768,28.86,0.0709448,1.33567,19.0637,-335.557,10.8962,0.0,0.0
144,35.75,58.4793,60.2251,102.865,99.0659,29.7192,0.0802799,1.52268,18.7713,-336.128,10.6361,0.0,0.0
152,37.75,64.7578,66.9712,98.8898,99.0627,29.4594,0.0850839,1.6482,18.625,-336.648,10.7134,0.0,0.0
160,39.75,69.0553,72.6924,102.886,99.0615,29.1335,0.0848096,1.67144,18.5894,-337.099,10.8116,0.0,0.0
168,41.75,74.1418,78.481,101.06,99.0667,33.451,0.0796724,1.6128,18.6911,-337.559,9.59121,0.0,0.0
176,43.75,77.6915,82.6235,111.781,99.0563,36.6171,0.0720153,1.48496,18.9236,-337.949,8.79139,0.0,0.0
184,45.75,79.705,84.994,123.058,99.0483,33.5126,0.0635065,1.30259,19.1478,-338.27,9.57331,0.0,0.0
192,47.75,80.9822,87.0822,123.142,99.0499,52.3885,0.0543181,1.12807,19.3782,-338.55,5.62671,0.0,0.0
200,49.75,81.7795,87.9171,125.622,99.0342,45.3249,0.0447253,0.949494,19.654,-338.82,6.90475,0.0,0.0
208,51.75,82.2999,88.0388,124.784,99.0306,53.184,0.0370875,0.799408,19.8722,-338.96,5.49186,0.0,0.0
216,53.75,81.11,87.7083,134.208,99.015,61.0564,0.0294146,0.674102,20.0685,-339.141,4.27102,0.0,0.0
224,55.75,80.9164,87.4453,135.067,99.0078,61.0239,0.0231619,0.561016,20.247,-339.271,4.27507,0.0,0.0
232,57.75,79.7754,86.2512,139.23,99.007,73.0806,0.017262,0.468649,20.4075,-339.311,2.68225,0.0,0.0
240,59.75,77.6676,85.0958,139.024,98.9897,78.2727,0.012898,0.383706,20.5403,-339.371,2.07438,0.0,0.0
248,61.75,77.1484,83.8121,139.605,98.9612,86.779,0.00968513,0.302331,20.6602,-339.361,1.16046,0.0,0.0
256,63.75,75.8073,82.2907,145.537,98.9528,90.2436,0.00717004,0.229817,20.7768,-339.371,0.81388,0.0,0.0
264,65.75,74.4262,80.6035,146.234,98.9391,92.5118,0.00540068,0.171418,20.8624,-339.381,0.593369,0.0,0.0
272,67.75,72.7172,78.9174,144.962,98.9391,93.2116,0.00391392,0.129,20.922,-339.381,0.526801,0.0,0.0
280,69.75,70.7505,76.9784,147.809,98.9207,93.3548,0.00282082,0.099735,20.9631,-339.381,0.511591,0.0,0.0
288,71.75,68.9858,74.8856,149.455,98.9026,93.6337,0.00211597,0.081151,20.9864,-339.361,0.483627,0.0,0.0
296,73.75,67.3067,73.7527,150.912,98.8986,93.4372,0.00166519,0.0705582,20.9975,-339.351,0.501824,0.0,0.0
304,75.75,65.7116,72.097,148.38,98.8733,93.2965,0.00137185,0.0643437,21.0037,-339.381,0.512879,0.0,0.0
312,77.75,64.3843,70.8812,146.557,98.8657,93.8376,0.0011882,0.0602634,21.0083,-339.381,0.461106,0.0,0.0
320,79.75,62.9968,69.4893,146.198,98.8425,93.4151,0.00103132,0.0574812,21.0115,-339.381,0.498892,0.0,0.0
328,81.75,61.4061,67.49,148.534,98.8296,93.3273,0.000898201,0.0552841,21.0134,-339.381,0.506054,0.0,0.0
336,83.75,60.7854,66.7941,150.459,98.812,93.2449,0.000793946,0.053599,21.0162,-339.401,0.512281,0.0,0.0
344,85.75,59.3587,65.8649,152.336,98.8108,93.9717,0.00072403,0.0522713,21.0184,-339.381,0.443584,0.0,0.0
352,87.75,58.4292,64.5747,148.097,98.7754,93.3831,0.000728378,0.051214,21.0199,-339.411,0.495932,0.0,0.0
360,89.75,57.6321,63.5914,147.27,98.7706,93.3976,0.000796952,0.0502633,21.021,-339.411,0.494124,0.0,0.0
368,91.75,56.6696,61.9066,150.028,98.7301,93.351,0.000881909,0.0495493,21.0223,-339.401,0.49491,0.0,0.0
376,93.75,55.511,61.3944,144.679,98.7221,93.3273,0.000823683,0.0488475,21.0229,-339.431,0.496437,0.0,0.0
384,95.75,54.8701,60.7552,148.724,98.6988,93.1071,0.000588673,0.0482775,21.0231,-339.401,0.515224,0.0,0.0
392,97.75,54.0443,59.7302,145.463,98.6792,93.4468,0.000425544,0.0478933,21.0233,-339.391,0.481294,0.0,0.0
400,99.75,53.1239,58.9755,147.823,98.6655,93.3627,0.000430013,0.0476794,21.0241,-339.401,0.488025,0.0,0.0
408,101.75,52.3428,57.97,146.507,98.6559,92.9855,0.000508617,0.0474557,21.025,-339.401,0.522921,0.0,0.0
416,103.75,51.9021,57.1672,144.683,98.637,93.0505,0.000592471,0.0473612,21.0254,-339.401,0.515064,0.0,0.0
424,105.75,51.4435,56.7246,146.915,98.6314,93.0784,0.000679417,0.0472619,21.0255,-339.401,0.511914,0.0,0.0
432,107.75,50.2107,55.7662,149.197,98.6146,93.3868,0.000671752,0.0471038,21.0256,-339.391,0.481177,0.0,0.0
440,109.75,49.7852,54.9926,144.058,98.6065,93.202,0.000517981,0.0468332,21.0256,-339.391,0.497959,0.0,0.0
448,111.75,49.0305,54.358,145.226,98.6061,93.2295,0.000484914,0.0467635,21.0256,-339.401,0.49532,0.0,0.0
456,113.75,48.6943,53.2974,147.544,98.6077,93.0068,0.000662119,0.0466957,21.0256,-339.421,0.516591,0.0,0.0
464,115.75,47.9948,53.0016,145.973,98.6362,93.0634,0.000829291,0.0466257,21.0256,-339.431,0.513767,0.0,0.0
472,117.75,47.4621,52.7952,147.363,98.6912,93.3277,0.000901459,0.0466008,21.0256,-339.401,0.493634,0.0,0.0
480,119.75,47.3037,51.9936,146.536,98.6972,93.3673,0.000939431,0.0466664,21.0264,-339.401,0.49043,0.0,0.0
488,121.75,46.6329,51.1099,149.686,98.7654,93.1637,0.000882398,0.0467817,21.0267,-339.391,0.515813,0.0,0.0
496,123.75,45.8851,50.9006,145.3,98.8051,93.3618,0.000753703,0.0467804,21.0269,-339.411,0.500596,0.0,0.0
504,125.75,46.2298,49.8864,146.562,98.8721,93.6886,0.000525441,0.0467179,21.0269,-339.421,0.47572,0.0,0.0
512,127.75,45.6139,49.5428,148.352,98.9287,93.5845,0.000299561,0.0466424,21.0269,-339.411,0.490592,0.0,0.0
520,129.75,44.9608,48.9666,150.856,98.9945,93.5529,0.000224186,0.0466079,21.027,-339.401,0.499452,0.0,0.0
528,131.75,44.6653,49.2251,147.477,99.0334,93.6162,0.000242894,0.0465208,21.027,-339.411,0.496952,0.0,0.0
536,133.75,44.106,48.0435,148.726,99.078,93.781,0.000258925,0.0463792,21.027,-339.431,0.485382,0.0,0.0
544,135.75,43.9994,48.165,143.613,99.1165,93.9717,0.000272829,0.0463741,21.027,-339.421,0.470874,0.0,0.0
552,137.75,43.2916,47.8232,148.344,99.1582,93.5891,0.000311515,0.0462987,21.027,-339.421,0.510629,0.0,0.0
560,139.75,43.2243,46.7968,151.506,99.1915,93.4834,0.000363172,0.0464394,21.027,-339.421,0.523582,0.0,0.0
568,141.75,42.7816,46.8291,146.684,99.2345,93.7715,0.000352941,0.0464416,21.027,-339.431,0.500225,0.0,0.0
576,143.75,42.668,46.3803,145.615,99.2553,93.8193,0.000280841,0.046401,21.027,-339.431,0.497574,0.0,0.0
584,145.75,42.5305,45.8529,147.126,99.287,93.7098,0.000323053,0.0464422,21.027,-339.431,0.510709,0.0,0.0
592,147.75,42.219,45.1106,144.666,99.3215,93.9538,0.000428596,0.0466547,21.027,-339.451,0.490812,0.0,0.0
600,149.75,42.0467,45.0099,150.127,99.3368,93.7973,0.000486982,0.0465803,21.027,-339.451,0.506897,0.0,0.0
608,151.75,41.5828,45.101,145.433,99.3717,94.025,0.000460119,0.0462566,21.027,-339.451,0.488583,0.0,0.0
616,153.75,41.4677,44.8883,147.581,99.3994,93.9325,0.000446137,0.046027,21.027,-339.451,0.49973,0.0,0.0
624,155.75,40.8826,44.3901,146.75,99.4002,93.8876,0.000403882,0.0459043,21.027,-339.441,0.50403,0.0,0.0
632,157.75,40.785,44.1518,147.186,99.4258,93.8784,0.000390429,0.0458022,21.027,-339.451,0.507173,0.0,0.0
640,159.75,40.9292,43.8481,145.811,99.4403,93.9051,0.000448737,0.0457072,21.027,-339.441,0.50595,0.0,0.0
648,161.75,41.1094,44.0012,146.099,99.4463,94.0516,0.000561935,0.0456213,21.027,-339.451,0.492712,0.0,0.0
656,163.75,40.4921,43.2026,151.657,99.4708,94.0487,0.000685304,0.0455164,21.027,-339.441,0.495159,0.0,0.0
664,165.75,40.0928,43.137,145.553,99.47,93.7665,0.000843668,0.0455697,21.027,-339.431,0.521637,0.0,0.0
672,167.75,39.6744,43.1711,148.223,99.4796,93.9967,0.000832335,0.0455328,21.027,-339.441,0.500832,0.0,0.0
680,169.75,39.871,42.862,147.523,99.4864,94.0649,0.000695701,0.0453888,21.027,-339.441,0.495024,0.0,0.0
688,171.75,39.9154,42.7238,146.68,99.4928,94.1444,0.000584772,0.0453762,21.027,-339.451,0.48813,0.0,0.0
696,173.75,40.1893,42.5113,145.204,99.4964,93.9026,0.000487646,0.0454009,21.027,-339.431,0.511174,0.0,0.0
704,175.75,39.1493,41.4654,143.431,99.5069,94.221,0.000444133,0.0453091,21.027,-339.431,0.482193,0.0,0.0
712,177.75,39.6343,41.7132,150.051,99.4944,94.0304,0.000450845,0.0453289,21.027,-339.441,0.49898,0.0,0.0
720,179.75,39.5815,41.7352,152.181,99.5057,93.8589,,0.0454728,,-339.441,0.516105,0.0,0.0
728,181.75,39.0059,41.8798,148.969,99.4848,94.1598,,,,-339.431,0.485971,0.0,0.0
736,183.75,38.8441,41.4346,146.727,99.4888,94.2056,,,,-339.411,0.482033,0.0,0.0
744,185.75,39.3292,40.8611,148.064,99.4744,94.0449,,,,-339.441,0.495832,0.0,0.0
752,187.75,39.254,41.3354,147.049,99.4712,94.139,,,,-339.431,0.486713,0.0,0.0
758,189.25,38.7951,41.039,147.256,99.4467,94.0004,,,,-339.431,0.497557,0.0,0.0