File: 01_Data/XPS_Foam_Board/Cone/XPS_Foam_Insulation_Cone_HF25Scan_220412_R2.csv
Names,Time,Stack TC,Smoke TC,Exh Press,Smoke Comp,Smoke Meas,CO Meter,CO2 Meter,O2 Meter,Sample Mass,Ext Coeff,Start Test,Flame Verif
Chan Gain,,500,500,1,1,1,1,1,1,1,1,1.0,1.0
Offset,,0,0,0.134314,0,0,0,0,0,0,0,0.0,0.0
Gain,,1,1,25.011,13.1473,13.6402,1,1,1,1.00092,1.00708,1.0,1.0
Units,sec,C,C,Pa,%,%,%,%,%,g,/m,,
Baseline,,19.485,19.8698,155.938,98.6509,93.7644,0.000564393,0.0484811,21.0252,-833.813,0.4488,,
16,3.75,18.7649,18.8955,151.582,98.5909,93.7685,0.000747057,0.0631064,21.0076,-331.133,0.443022,0.0,0.0
32,7.75,18.6475,19.1275,155.906,98.692,93.5816,0.000788575,0.0576834,21.0141,-331.183,0.469703,0.0,0.0
48,11.75,18.8057,19.1839,154.957,98.7903,93.4476,0.000650924,0.0538396,21.0187,-331.273,0.491159,0.0,0.0
64,15.75,18.9726,19.7865,157.929,98.8469,93.7161,0.000700545,0.0496415,21.0247,-331.313,0.470871,0.0,0.0
80,19.75,19.2677,19.1614,156.532,98.9223,93.3077,0.000667103,0.0465562,21.028,-331.333,0.516187,0.0,0.0
96,23.75,19.2576,19.7935,152.078,98.9708,93.7269,0.000559213,0.0452745,21.0311,-331.363,0.480924,0.0,0.0
112,27.75,19.0077,19.5331,158.176,99.0102,93.2607,0.000574234,0.0453975,21.0318,-331.353,0.528485,0.0,0.0
128,31.75,19.0343,19.5475,155.098,99.0503,92.8811,0.000576802,0.0452839,21.0319,-331.363,0.568098,0.0,0.0
144,35.75,19.1542,19.4594,157.335,99.096,92.9568,0.000701251,0.0449943,21.0315,-331.373,0.564973,0.0,0.0
160,39.75,19.2905,19.9736,156.864,99.1261,93.3111,0.000569882,0.0448612,21.0317,-331.404,0.534054,0.0,0.0
176,43.75,19.1026,19.8602,154.78,99.1638,93.4364,0.00028727,0.0448275,21.0317,-331.413,0.525561,0.0,0.0
192,47.75,19.4311,20.0003,154.525,99.1951,93.3032,0.000379318,0.044632,21.0317,-331.444,0.540952,0.0,0.0
208,51.75,19.6039,19.6085,153.646,99.2212,92.7391,0.000539123,0.044517,21.0317,-331.434,0.596839,0.0,0.0
224,55.75,19.2551,19.7303,154.95,99.2413,93.1554,0.000492877,0.0444962,21.0321,-331.454,0.559063,0.0,0.0
240,59.75,19.309,20.0694,153.718,99.2661,92.8611,0.000580173,0.0448306,21.031,-331.464,0.589229,0.0,0.0
256,63.75,19.8177,20.4519,158.007,99.2886,92.911,0.000381847,0.044937,21.0291,-331.464,0.586478,0.0,0.0
272,67.75,19.4953,20.0068,154.581,99.3079,93.0492,0.000277269,0.0454302,21.0286,-331.504,0.575061,0.0,0.0
288,71.75,19.6992,19.7736,155.539,99.3139,93.1953,0.000418277,0.0460264,21.0277,-331.524,0.561736,0.0,0.0
304,75.75,19.4907,19.8246,156.133,99.3303,92.9726,0.000169179,0.0455059,21.0284,-331.534,0.584334,0.0,0.0
320,79.75,20.0406,20.6187,153.976,99.3175,92.7708,0.000289376,0.0447262,21.0285,-331.564,0.602397,0.0,0.0
336,83.75,20.3165,20.1784,153.282,99.3147,92.7733,0.000482286,0.0440957,21.0302,-331.554,0.601908,0.0,0.0
352,87.75,19.5196,20.1556,152.595,99.3135,92.6596,0.000523574,0.0437157,21.0325,-331.594,0.612629,0.0,0.0
368,91.75,19.9146,20.2575,156.158,99.295,92.7533,0.00061018,0.0437945,21.0313,-331.614,0.602062,0.0,0.0
384,95.75,20.0048,20.7573,157.854,99.2806,92.6983,0.000447197,0.0437725,21.0316,-331.634,0.606012,0.0,0.0
400,99.75,19.5964,20.3793,153.663,99.2633,92.5726,0.000478401,0.0438193,21.033,-331.674,0.616465,0.0,0.0
416,103.75,20.1324,20.4389,161.255,99.2377,92.2438,0.000714444,0.0442993,21.0321,-331.664,0.645617,0.0,0.0
432,107.75,20.0832,20.4216,156.965,99.2164,92.0327,0.000678872,0.0447048,21.0313,-331.714,0.663959,0.0,0.0
448,111.75,20.0097,20.653,160.395,99.1847,92.1555,0.000650598,0.0457075,21.0294,-331.734,0.649356,0.0,0.0
464,115.75,20.0842,20.4301,157.745,99.1558,92.3395,0.000413874,0.0461605,21.0289,-331.764,0.629163,0.0,0.0
480,119.75,20.0776,20.6875,154.312,99.1249,91.7929,0.000284132,0.0457073,21.0296,-331.804,0.678855,0.0,0.0
496,123.75,20.001,20.758,153.808,99.1008,92.1239,0.000322699,0.0446643,21.0306,-331.824,0.644917,0.0,0.0
512,127.75,20.0361,20.5503,153.674,99.0659,91.1598,0.000293138,0.0441416,21.031,-331.864,0.734739,0.0,0.0
528,131.75,20.0282,20.8852,154.596,99.0667,91.584,0.000313574,0.0438241,21.0316,-331.904,0.693801,0.0,0.0
544,135.75,19.8652,20.8239,158.983,99.0142,91.0957,0.00025105,0.0437871,21.0322,-331.924,0.736338,0.0,0.0
560,139.75,20.2562,20.9631,150.386,98.9849,91.472,0.000265556,0.0435854,21.0325,-331.954,0.697307,0.0,0.0
576,143.75,20.6,21.099,152.765,98.9628,91.3521,0.000447425,0.0434429,21.0326,-331.994,0.706923,0.0,0.0
592,147.75,20.0884,20.9425,153.81,98.9255,90.7897,0.00031343,0.0441113,21.0312,-332.034,0.758143,0.0,0.0
608,151.75,20.3678,20.9457,152.931,98.8794,91.0965,0.000550342,0.0466931,21.028,-332.074,0.724221,0.0,0.0
624,155.75,20.5219,20.9829,156.509,98.8132,90.6428,0.00047899,0.0485846,21.0253,-332.114,0.762415,0.0,0.0
640,159.75,19.9718,20.7848,155.668,98.7622,90.3502,0.000978681,0.0504719,21.0189,-332.154,0.786424,0.0,0.0
656,163.75,20.5616,21.4153,142.087,98.7365,67.255,0.00588829,0.141524,20.8428,-332.424,3.39195,0.0,1.0
672,167.75,22.697,22.8907,138.843,98.7425,60.6701,0.0148527,0.322595,20.5745,-332.895,4.30275,0.0,1.0
688,171.75,25.1509,25.6701,133.139,98.7758,56.0771,0.0233039,0.47959,20.3341,-333.365,5.00118,0.0,0.0
704,175.75,29.7022,29.9352,123.229,98.7779,53.1636,0.0328062,0.641616,20.0986,-334.026,5.47268,0.0,0.0
720,179.75,35.2002,35.3991,121.534,98.8172,46.7994,0.0381914,0.777766,19.9029,-334.626,6.60258,0.0,0.0
736,183.75,40.4804,40.8407,125.702,98.8252,48.8316,0.0400015,0.8238,19.8345,-335.257,6.22778,0.0,0.0
752,187.75,44.538,45.8906,123.091,98.8557,52.1654,0.0386616,0.80797,19.8615,-335.828,5.64708,0.0,0.0
768,191.75,47.8207,49.0162,128.637,98.8806,51.8844,0.0350576,0.728523,19.9941,-336.328,5.69701,0.0,0.0
784,195.75,49.8886,51.967,133.407,98.9375,53.5116,0.031131,0.642953,20.1119,-336.818,5.42931,0.0,0.0
800,199.75,50.9046,53.169,134.302,98.952,60.3675,0.0270431,0.576001,20.2156,-337.159,4.36564,0.0,0.0
816,203.75,51.2598,53.7796,134.687,99.005,61.2133,0.0225841,0.511158,20.3277,-337.549,4.24745,0.0,0.0
832,207.75,51.0888,54.2526,139.832,99.0543,60.5327,0.019797,0.454616,20.4074,-337.839,4.35062,0.0,0.0
848,211.75,51.4693,54.2577,142.312,99.0892,62.0459,0.0180255,0.446146,20.4315,-338.17,4.13562,0.0,0.0
864,215.75,51.1603,54.0617,145.102,99.1353,70.3304,0.0142005,0.393272,20.5168,-338.42,3.03257,0.0,0.0
880,219.75,49.636,53.6804,144.658,99.1835,77.9222,0.0104574,0.325244,20.6192,-338.53,2.13131,0.0,0.0
896,223.75,48.8919,52.3256,145.447,99.2393,77.7719,0.0076046,0.267864,20.7074,-338.61,2.15333,0.0,0.0
912,227.75,47.5724,51.1525,148.065,99.281,88.7055,0.00544618,0.200466,20.815,-338.65,0.994995,0.0,0.0
928,231.75,46.079,49.7133,148.718,99.336,89.2458,0.00356725,0.14697,20.8881,-338.71,0.94624,0.0,0.0
944,235.75,43.9361,47.8359,151.11,99.3885,91.2256,0.00213184,0.115998,20.9331,-338.74,0.757088,0.0,0.0
960,239.75,42.3411,46.032,152.408,99.4098,92.7599,0.00154622,0.0961898,20.9623,-338.77,0.61163,0.0,0.0
976,243.75,40.752,44.6984,155.08,99.4427,92.4502,0.00148948,0.0814242,20.9786,-338.77,0.644098,0.0,0.0
992,247.75,39.2954,43.1886,155.093,99.4712,93.418,0.00138691,0.0711891,20.994,-338.81,0.55463,0.0,0.0
1008,251.75,37.9989,41.8881,151.081,99.4888,93.5583,0.00122796,0.0631563,21.005,-338.79,0.542942,0.0,0.0
1024,255.75,36.779,40.3807,153.565,99.5057,94.2577,0.00106777,0.0582195,21.0119,-338.79,0.478651,0.0,0.0
1040,259.75,35.6328,39.4284,147.439,99.5157,94.701,0.00069925,0.0564848,21.0149,-338.81,0.438091,0.0,0.0
1056,263.75,34.58,38.3261,153.867,99.5217,94.5732,0.000688646,0.0558,21.0148,-338.82,0.450553,0.0,0.0
1072,267.75,32.7186,36.6738,148.421,99.5213,94.6914,0.000902121,0.0562999,21.0156,-338.81,0.439482,0.0,0.0
1088,271.75,31.7267,35.1918,157.208,99.5229,94.5923,0.00073665,0.0529662,21.0197,-338.8,0.448872,0.0,0.0
1104,275.75,31.1611,34.311,151.321,99.5097,94.2909,0.00045927,0.0491305,21.0238,-338.81,0.475888,0.0,0.0
1120,279.75,30.4745,33.826,153.788,99.4812,94.241,0.000556286,0.0471444,21.0257,-338.82,0.47804,0.0,0.0
1136,283.75,29.9851,32.9487,151.371,99.4371,94.1328,0.000667751,0.0456523,21.027,-338.82,0.484271,0.0,0.0
1152,287.75,29.0664,32.2572,153.556,99.3977,94.0916,0.000491389,0.0449709,21.0285,-338.82,0.484645,0.0,0.0
1168,291.75,28.1038,31.194,149.563,99.3436,94.5465,0.000215775,0.0446962,21.0309,-338.84,0.437216,0.0,0.0
1184,295.75,27.471,30.4576,152.556,99.2898,94.4908,0.00045855,0.0444748,21.0317,-338.83,0.437647,0.0,0.0
1200,299.75,27.5397,30.0756,154.075,99.2268,94.2635,0.00060656,0.0443973,21.0304,-338.83,0.453315,0.0,0.0
1216,303.75,27.2998,29.5659,150.151,99.1606,94.415,0.000696363,0.0444206,21.0297,-338.82,0.43323,0.0,0.0
1232,307.75,26.8636,28.8947,154.358,99.0968,94.2289,0.000481616,0.0446025,21.0296,-338.83,0.444972,0.0,0.0
1248,311.75,25.7485,28.4132,155.291,99.0282,94.4558,0.000248458,0.0447534,21.0296,-338.79,0.417611,0.0,0.0
1264,315.75,25.9995,27.9659,151.905,98.9175,93.935,0.000285764,0.0445096,21.0305,-338.82,0.456565,0.0,0.0
1280,319.75,25.6439,27.5448,154.545,98.8075,93.7814,0.000444457,0.0445845,21.0308,-338.83,0.461199,0.0,0.0
1296,323.75,25.0941,27.3455,154.612,98.7221,93.5488,0.000629776,0.0446893,21.0309,-338.83,0.475501,0.0,0.0
1312,327.75,25.2624,27.0329,151.734,98.6222,94.2069,0.000576333,0.0451383,21.0309,-338.83,0.404627,0.0,0.0
1328,331.75,24.6156,26.4291,152.111,98.5419,93.724,0.000399288,0.0453882,21.0309,-338.82,0.442831,0.0,0.0
1344,335.75,24.6111,26.0705,153.311,98.4513,93.6203,0.000462066,0.0453316,21.0292,-338.82,0.444474,0.0,0.0
1360,339.75,24.0586,25.6966,153.781,98.3694,93.7119,0.000523476,0.0454439,21.028,-338.82,0.428489,0.0,0.0
1376,343.75,23.3809,24.69,154.642,98.2683,93.6761,0.000405037,0.0453254,21.029,-338.82,0.422781,0.0,0.0
1392,347.75,23.6181,25.087,151.753,98.1708,93.3535,0.000409772,0.0452322,21.0271,-338.82,0.444486,0.0,0.0
1408,351.75,23.5829,24.7561,153.607,98.0797,93.2603,0.000283131,0.0452338,21.0262,-338.84,0.445116,0.0,0.0
1424,355.75,23.5827,24.8531,153.23,97.9866,93.5217,0.000300142,0.0452837,21.0261,-338.82,0.411999,0.0,0.0
1440,359.75,23.386,24.267,154.056,97.894,93.0168,0.000328818,0.0453058,21.0268,-338.84,0.451464,0.0,0.0
1456,363.75,23.5785,24.1301,160.101,97.7977,93.033,0.000390978,0.0452563,21.028,-338.84,0.441229,0.0,0.0
1472,367.75,23.0468,24.86,157.547,97.7279,92.8665,0.000520537,0.044941,21.028,-338.83,0.450745,0.0,0.0
1488,371.75,23.128,23.8641,154.297,97.6713,93.0921,0.000430515,0.0447915,21.0275,-338.83,0.424194,0.0,0.0
1504,375.75,22.6729,23.571,149.39,97.6223,93.1737,,0.0445672,,-338.84,0.412026,0.0,0.0
1520,379.75,23.6329,24.1286,150.846,97.587,92.7187,,,,-338.83,0.452073,0.0,0.0
1536,383.75,22.4008,23.8931,151.379,97.5465,92.9006,,,,-338.84,0.43109,0.0,0.0