File: 01_Data/XPS_Foam_Board/Cone/XPS_Foam_Insulation_Cone_HF50Scan_220412_R2.csv
Names,Time,Stack TC,Smoke TC,Exh Press,Smoke Comp,Smoke Meas,CO Meter,CO2 Meter,O2 Meter,Sample Mass,Ext Coeff,Start Test,Flame Verif
Chan Gain,,500,500,1,1,1,1,1,1,1,1,1.0,1.0
Offset,,0,0,0.134314,0,0,0,0,0,0,0,0.0,0.0
Gain,,1,1,25.011,13.1473,13.6402,1,1,1,1.00092,1.00708,1.0,1.0
Units,sec,C,C,Pa,%,%,%,%,%,g,/m,,
Baseline,,31.4455,32.361,150.663,98.685,93.2814,0.000562546,0.0458722,21.0244,-834.271,0.49748,,
8,1.75,29.9952,31.0986,151.671,99.4278,93.4422,0.000686621,0.0548597,21.0144,-330.933,0.548499,0.0,0.0
16,3.75,29.7031,30.9025,152.977,99.4074,93.3935,0.000539799,0.0522926,21.017,-330.983,0.551285,0.0,0.0
24,5.75,30.1442,30.9046,150.622,99.3957,91.0258,0.000506084,0.0506302,21.0199,-331.103,0.7771,0.0,0.0
32,7.75,30.512,31.4839,150.954,99.3725,89.543,0.000555568,0.0492453,21.0222,-331.153,0.920115,0.0,0.0
40,9.75,30.5268,31.1428,150.881,99.3508,89.2741,0.000699098,0.0479662,21.0233,-331.213,0.944758,0.0,0.0
48,11.75,30.1188,31.1466,151.008,99.3199,88.9261,0.000817,0.0471215,21.0219,-331.263,0.976514,0.0,0.0
56,13.75,30.7706,31.349,149.242,99.3087,88.8591,0.00139376,0.0477528,21.0175,-331.283,0.982175,0.0,0.0
64,15.75,30.7805,31.2912,144.486,99.2569,89.9314,0.00353217,0.0701188,20.9681,-331.504,0.871604,0.0,1.0
72,17.75,31.4166,32.4839,137.002,99.2268,63.9453,0.00763243,0.148568,20.8289,-331.674,3.8815,0.0,1.0
80,19.75,32.1075,32.7451,140.473,99.2156,61.1018,0.0125625,0.256635,20.6703,-331.904,4.28233,0.0,1.0
88,21.75,33.6204,33.4422,136.596,99.1582,61.3894,0.0170337,0.350242,20.5549,-332.064,4.23574,0.0,0.0
96,23.75,35.2247,35.7004,121.931,99.1101,42.292,0.0242552,0.429609,20.4246,-332.354,7.52335,0.0,0.0
104,25.75,36.7844,37.5741,118.505,99.0675,40.1258,0.0335552,0.589924,20.1584,-332.765,7.98404,0.0,0.0
112,27.75,40.6769,40.8139,101.461,99.0206,30.7619,0.0475526,0.827223,19.8203,-333.215,10.3274,0.0,0.0
120,29.75,45.473,45.4612,109.394,98.9684,32.1752,0.062462,1.10403,19.3951,-333.776,9.92598,0.0,0.0
128,31.75,50.743,51.604,95.1787,98.9223,26.2821,0.0776807,1.42359,18.8707,-334.446,11.709,0.0,0.0
136,33.75,57.3504,58.7645,90.6632,98.9227,23.6584,0.087336,1.71082,18.5313,-335.047,12.6382,0.0,0.0
144,35.75,64.0632,67.0269,101.571,98.9404,26.7471,0.0921523,1.83763,18.3444,-335.567,11.5557,0.0,0.0
152,37.75,69.9388,73.6666,99.9973,98.9544,24.4364,0.0894629,1.84102,18.3551,-336.038,12.3552,0.0,0.0
160,39.75,74.4416,78.8704,104.495,98.9608,37.0038,0.0826163,1.70763,18.5524,-336.478,8.69006,0.0,0.0
168,41.75,77.5983,82.8503,110.135,98.9777,40.0109,0.0721538,1.52585,18.8109,-336.848,8.00135,0.0,0.0
176,43.75,79.7327,85.3361,119.281,99.0017,39.7358,0.061343,1.30448,19.0707,-337.229,8.06446,0.0,0.0
184,45.75,80.2014,87.1641,116.442,99.0158,44.5261,0.0516797,1.10423,19.3866,-337.449,7.06019,0.0,0.0
192,47.75,80.6544,87.4531,126.929,99.0399,45.9468,0.0430914,0.923271,19.6499,-337.669,6.78487,0.0,0.0
200,49.75,80.5191,87.0607,132.616,99.0459,53.967,0.0356815,0.786296,19.8717,-337.789,5.36412,0.0,0.0
208,51.75,80.3219,86.6957,132.677,99.0675,51.0498,0.0295335,0.681177,20.0604,-337.98,5.85696,0.0,0.0
216,53.75,79.8464,86.3941,138.347,99.0748,62.4376,0.0243281,0.584403,20.2257,-338.08,4.07874,0.0,0.0
224,55.75,78.6049,85.1248,143.421,99.0812,70.5939,0.0192406,0.486137,20.3625,-338.18,2.99471,0.0,0.0
232,57.75,77.4271,84.1381,139.062,99.0976,72.3613,0.0152229,0.400055,20.4905,-338.26,2.77772,0.0,0.0
240,59.75,76.3401,83.0029,138.334,99.1097,74.7007,0.0122163,0.331802,20.6098,-338.32,2.49771,0.0,0.0
248,61.75,74.7974,81.2303,143.498,99.1357,81.281,0.00997631,0.276735,20.6921,-338.36,1.75424,0.0,0.0
256,63.75,73.688,80.2039,143.414,99.1486,81.5991,0.0082773,0.233084,20.7577,-338.4,1.72089,0.0,0.0
264,65.75,71.8061,78.5268,148.884,99.1674,84.371,0.00692441,0.196421,20.8178,-338.44,1.42746,0.0,0.0
272,67.75,70.595,77.2482,143.662,99.1811,88.3342,0.0059116,0.164516,20.8574,-338.46,1.02316,0.0,0.0
280,69.75,68.8263,75.2027,147.504,99.2032,91.2131,0.00473419,0.139852,20.8862,-338.46,0.741807,0.0,0.0
288,71.75,67.2594,73.987,147.842,99.2192,91.6527,0.00374417,0.120176,20.9174,-338.49,0.700764,0.0,0.0
296,73.75,66.2306,72.7773,143.896,99.2521,92.5768,0.00309255,0.102218,20.9474,-338.49,0.615068,0.0,0.0
304,75.75,64.7096,71.3136,148.126,99.2489,93.2332,0.00261093,0.0871914,20.9682,-338.49,0.552363,0.0,0.0
312,77.75,63.2297,70.0833,153.544,99.2802,93.5796,0.00211404,0.0745155,20.9869,-338.5,0.522394,0.0,0.0
320,79.75,61.1015,67.8931,144.689,99.279,93.9201,0.00159389,0.0644022,20.9999,-338.5,0.4902,0.0,0.0
328,81.75,60.2974,66.9583,146.172,99.3007,94.1969,0.0011395,0.0579414,21.011,-338.5,0.466129,0.0,0.0
336,83.75,59.3413,65.5861,148.063,99.3055,93.9496,0.000853311,0.052965,21.0162,-338.48,0.489776,0.0,0.0
344,85.75,58.0899,64.1625,146.048,99.3183,93.8335,0.000776992,0.049849,21.0196,-338.49,0.501846,0.0,0.0
352,87.75,57.2259,63.08,145.198,99.3416,93.7098,0.000913489,0.0480209,21.0223,-338.49,0.515563,0.0,0.0
360,89.75,55.916,62.0994,147.566,99.352,94.027,0.000944815,0.0467241,21.0237,-338.5,0.486638,0.0,0.0
368,91.75,55.0644,60.9483,145.275,99.3584,94.1985,0.000859028,0.0458523,21.0243,-338.51,0.471112,0.0,0.0
376,93.75,54.0522,59.9386,145.882,99.3769,93.8485,0.000768053,0.045375,21.0246,-338.51,0.505644,0.0,0.0
384,95.75,52.9774,58.7074,146.909,99.3893,94.1527,0.000709894,0.0449678,21.0258,-338.5,0.478153,0.0,0.0
392,97.75,52.5957,58.1905,143.509,99.4202,93.8793,0.000655193,0.0446728,21.0265,-338.53,0.506596,0.0,0.0
400,99.75,51.4857,57.2023,148.498,99.4407,94.032,0.000598729,0.0444897,21.0269,-338.52,0.49405,0.0,0.0
408,101.75,51.0479,56.5488,151.633,99.4543,94.2427,0.000547935,0.0445049,21.0263,-338.52,0.475497,0.0,0.0
416,103.75,49.9334,55.5062,147.67,99.4788,93.9155,0.000468835,0.0444923,21.0267,-338.54,0.508391,0.0,0.0
424,105.75,49.7431,55.4145,147.829,99.5017,94.0578,0.000375379,0.044425,21.0263,-338.51,0.497041,0.0,0.0
432,107.75,48.7284,54.0281,145.663,99.5221,94.1661,0.000378199,0.0444306,21.0253,-338.53,0.488699,0.0,0.0
440,109.75,48.6714,53.8072,145.998,99.5434,94.1706,0.000432832,0.0445107,21.0245,-338.52,0.490157,0.0,0.0
448,111.75,48.2885,52.9257,148.12,99.5578,94.189,0.00045395,0.0444654,21.0242,-338.51,0.489721,0.0,0.0
456,113.75,47.1904,52.2544,147.191,99.5895,94.2618,0.000445609,0.0444051,21.0252,-338.53,0.485703,0.0,0.0
464,115.75,46.8444,51.6035,143.196,99.6248,94.2039,0.000433718,0.0444064,21.0262,-338.54,0.494259,0.0,0.0
472,117.75,46.4816,51.0873,151.763,99.6473,94.4616,0.000409265,0.0445002,21.0267,-338.53,0.472121,0.0,0.0
480,119.75,46.0132,50.3426,151.291,99.6638,94.1902,0.000402394,0.0445935,21.0269,-338.54,0.498997,0.0,0.0
488,121.75,45.0873,50.1688,149.587,99.6846,94.1948,0.000466647,0.0445088,21.0268,-338.54,0.500417,0.0,0.0
496,123.75,44.7176,49.1038,146.374,99.7155,94.3463,0.000486737,0.0442929,21.0257,-338.54,0.488955,0.0,0.0
504,125.75,44.4836,49.2419,149.875,99.7251,94.6248,0.00035992,0.0442577,21.0258,-338.54,0.463771,0.0,0.0
512,127.75,44.3372,48.0352,145.538,99.7396,94.5282,0.000308101,0.0441356,21.0265,-338.54,0.474072,0.0,0.0
520,129.75,44.0159,48.2273,147.376,99.7536,94.4079,0.000411478,0.0439961,21.027,-338.53,0.486566,0.0,0.0
528,131.75,43.2138,47.6254,150.184,99.7589,94.2006,0.000536354,0.0440088,21.0276,-338.56,0.506447,0.0,0.0
536,133.75,42.7726,46.9199,148.388,99.7753,94.5728,0.000553826,0.0441097,21.0278,-338.55,0.473072,0.0,0.0
544,135.75,42.7193,46.6697,146.991,99.7689,94.2772,0.00044969,0.0440737,21.0279,-338.55,0.500155,0.0,0.0
552,137.75,42.7593,46.7227,147.159,99.7673,94.3001,0.000422428,0.0438972,21.0279,-338.57,0.497867,0.0,0.0
560,139.75,42.3919,46.0052,146.922,99.7625,94.2593,0.000527218,0.0439777,21.0282,-338.53,0.501263,0.0,0.0
568,141.75,41.5169,45.6398,147.527,99.7673,94.2015,0.0005222,0.043968,21.0276,-338.56,0.507114,0.0,0.0
576,143.75,41.8898,45.6349,145.99,99.7693,94.4508,0.000456433,0.0438552,21.0273,-338.56,0.48394,0.0,0.0
584,145.75,41.1971,45.0051,147.433,99.7745,94.092,0.000456762,0.0437935,21.0272,-338.55,0.518026,0.0,0.0
592,147.75,41.3531,44.5587,146.862,99.7613,94.2318,0.000458067,0.0437493,21.0271,-338.54,0.503731,0.0,0.0
600,149.75,40.8746,44.038,148.081,99.7653,94.5569,0.000342417,0.0436447,21.0271,-338.56,0.473662,0.0,0.0
608,151.75,40.7145,44.0133,148.832,99.7576,94.2951,0.000290231,0.0436863,21.0267,-338.55,0.497482,0.0,0.0
616,153.75,41.0807,43.2685,149.561,99.7621,94.0483,0.000406318,0.0437025,21.0278,-338.55,0.52103,0.0,0.0
624,155.75,40.241,43.593,151.964,99.75,94.6568,0.000498057,0.0437095,21.0282,-338.56,0.462984,0.0,0.0
632,157.75,39.8109,43.1644,147.404,99.7504,94.3089,0.000514239,0.0438518,21.0284,-338.54,0.495556,0.0,0.0
640,159.75,39.6144,42.6709,146.519,99.734,94.0541,0.000563254,0.0439106,21.0285,-338.55,0.517994,0.0,0.0
648,161.75,38.9766,42.4529,149.922,99.7211,94.4762,0.000675302,0.0439499,21.0286,-338.56,0.477301,0.0,0.0
656,163.75,39.3778,42.3536,146.901,99.7019,93.9625,0.000777112,0.0440166,21.0277,-338.54,0.523756,0.0,0.0
664,165.75,39.3421,42.6788,147.473,99.6922,94.1636,0.000795943,0.0442956,21.027,-338.55,0.504021,0.0,0.0
672,167.75,38.8761,41.9611,150.948,99.6846,94.288,0.000823443,0.0443011,21.0267,-338.55,0.491677,0.0,0.0
680,169.75,39.4055,41.1964,149.164,99.6605,94.0816,0.000784813,0.0442923,21.0278,-338.56,0.508908,0.0,0.0
688,171.75,38.7169,41.4907,146.891,99.6702,94.241,0.000666609,0.0444198,21.0275,-338.54,0.494805,0.0,0.0
696,173.75,38.8395,41.4138,146.778,99.6529,94.0907,0.000558665,0.0444181,21.0264,-338.54,0.507372,0.0,0.0
704,175.75,38.5989,41.7122,148.414,99.6313,94.4312,0.00059761,0.0444256,21.0259,-338.54,0.47354,0.0,0.0
712,177.75,38.2203,40.8925,147.465,99.6016,94.1469,0.000716221,0.044487,21.0249,-338.55,0.497544,0.0,0.0
720,179.75,38.1306,40.705,149.284,99.5907,94.1902,0.000724826,0.0446359,21.0244,-338.55,0.492523,0.0,0.0
728,181.75,38.2272,40.6556,143.73,99.5803,94.0537,0.000582621,0.044839,21.0253,-338.56,0.504412,0.0,0.0
736,183.75,37.8883,40.6091,152.128,99.5494,94.1548,0.000470266,0.0448745,21.0259,-338.55,0.492175,0.0,0.0
744,185.75,38.0797,40.4785,148.139,99.5273,93.9067,0.000489916,0.0449422,21.0262,-338.56,0.513525,0.0,0.0
752,187.75,37.4675,40.1071,149.317,99.5025,94.129,,0.0449533,,-338.57,0.490431,0.0,0.0
760,189.75,38.1278,39.5334,148.418,99.4824,94.0508,,,,-338.57,0.495997,0.0,0.0
768,191.75,37.6172,40.017,148.493,99.4684,94.0866,,,,-338.57,0.491388,0.0,0.0
776,193.75,37.3294,39.4121,147.896,99.4427,93.9059,,,,-338.56,0.506086,0.0,0.0
784,195.75,37.3504,39.585,146.211,99.4314,94.2223,,,,-338.59,0.475377,0.0,0.0
790,197.25,36.7041,38.9587,149.002,99.4218,93.7985,,,,-338.57,0.514341,0.0,0.0