File: 01_Data/XPS_Foam_Board/Cone/XPS_Foam_Insulation_Cone_HF25Scan_220412_R1.csv
Names,Time,Stack TC,Smoke TC,Exh Press,Smoke Comp,Smoke Meas,CO Meter,CO2 Meter,O2 Meter,Sample Mass,Ext Coeff,Start Test,Flame Verif
Chan Gain,,500,500,1,1,1,1,1,1,1,1,1.0,1.0
Offset,,0,0,0.134314,0,0,0,0,0,0,0,0.0,0.0
Gain,,1,1,25.011,13.1473,13.6402,1,1,1,1.00092,1.00708,1.0,1.0
Units,sec,C,C,Pa,%,%,%,%,%,g,/m,,
Baseline,,19.1494,19.5154,155.92,98.3522,93.5942,0.000798117,0.0499281,21.0165,-833.761,0.438062,,
16,3.75,18.1508,18.5824,156.655,98.8665,93.8489,0.000888223,0.0626221,21.0029,-330.172,0.460119,0.0,0.0
32,7.75,18.0406,19.0919,156.772,98.8589,93.7386,0.00107321,0.0657569,21.0018,-330.262,0.469828,0.0,0.0
48,11.75,17.9714,18.3893,159.962,98.8798,93.9038,0.00100467,0.0634867,21.005,-330.343,0.456133,0.0,0.0
64,15.75,18.2526,18.7342,156.99,98.8685,93.8247,0.000737407,0.0598353,21.0094,-330.383,0.462571,0.0,0.0
80,19.75,18.243,18.7489,156.519,98.8657,93.8689,0.000828591,0.0560311,21.0146,-330.393,0.458168,0.0,0.0
96,23.75,18.3457,18.3989,154.45,98.8509,93.3606,0.000750352,0.0530267,21.0179,-330.413,0.504803,0.0,0.0
112,27.75,18.5067,18.9776,156.174,98.8232,93.4276,0.000809259,0.0515973,21.0186,-330.443,0.49599,0.0,0.0
128,31.75,18.7995,19.3128,158.386,98.8047,92.8673,0.000855029,0.0529479,21.018,-330.443,0.547477,0.0,0.0
144,35.75,18.3927,18.6343,152.785,98.7742,92.8727,0.00104739,0.0548328,21.0172,-330.433,0.544236,0.0,0.0
160,39.75,18.91,19.4779,151.95,98.7498,92.66,0.00119789,0.0530902,21.0186,-330.453,0.562303,0.0,0.0
176,43.75,18.4879,19.3627,154.02,98.7329,92.7329,0.000936928,0.0509696,21.0213,-330.463,0.553854,0.0,0.0
192,47.75,18.8274,19.0293,156.978,98.6932,92.7345,0.00085548,0.0492596,21.0233,-330.483,0.550141,0.0,0.0
208,51.75,19.4151,19.5518,155.92,98.6615,92.0789,0.000704538,0.0480731,21.0237,-330.503,0.609979,0.0,0.0
224,55.75,19.302,19.0636,159.883,98.6282,92.3707,0.000711003,0.0475138,21.0238,-330.513,0.579046,0.0,0.0
240,59.75,19.0678,18.7747,151.304,98.6162,92.215,0.000771418,0.0472221,21.0238,-330.533,0.592869,0.0,0.0
256,63.75,18.722,19.0622,155.208,98.5909,92.0169,0.000486711,0.0473245,21.023,-330.543,0.609606,0.0,0.0
272,67.75,19.072,19.5897,156.287,98.5805,92.3703,0.000211669,0.0478971,21.022,-330.573,0.574808,0.0,0.0
288,71.75,19.2574,19.432,153.247,98.5724,92.2741,0.000641194,0.0482006,21.0219,-330.573,0.58329,0.0,0.0
304,75.75,19.5341,19.6722,158.6,98.68,92.5426,0.000640429,0.0483549,21.0224,-330.593,0.567254,0.0,0.0
320,79.75,18.9476,19.6581,157.299,98.7863,92.0739,0.000651764,0.0488262,21.0226,-330.623,0.621623,0.0,0.0
336,83.75,19.6161,19.8195,155.51,98.8665,92.2687,0.000489188,0.0484874,21.0224,-330.643,0.610125,0.0,0.0
352,87.75,18.8452,19.7956,157.93,98.9319,91.9424,0.000471134,0.0488469,21.0217,-330.663,0.647268,0.0,0.0
368,91.75,19.0779,19.6714,154.744,98.9857,92.5951,0.000708809,0.0500356,21.0205,-330.693,0.589576,0.0,0.0
384,95.75,19.6815,19.8257,152.581,99.0543,91.957,0.00071703,0.0501726,21.0207,-330.713,0.656789,0.0,0.0
400,99.75,19.2888,19.9582,157.469,99.0655,91.8358,0.000610121,0.0498986,21.0209,-330.723,0.669436,0.0,0.0
416,103.75,19.7622,19.9367,155.939,99.1032,92.0514,0.000775087,0.0510081,21.0194,-330.753,0.652081,0.0,0.0
432,107.75,19.7848,19.7833,152.201,99.1558,91.7447,0.000762676,0.0504948,21.0198,-330.773,0.686255,0.0,0.0
448,111.75,19.8471,20.4024,164.247,99.1935,91.7472,0.000760404,0.0491275,21.0211,-330.823,0.689374,0.0,0.0
464,115.75,19.0733,20.2223,157.602,99.2316,91.6319,0.000851717,0.0495415,21.0208,-330.843,0.703877,0.0,0.0
480,119.75,19.6442,20.063,154.549,99.2657,92.0635,0.00083858,0.0499145,21.0194,-330.883,0.665395,0.0,0.0
496,123.75,19.187,20.1538,158.79,99.3027,91.5086,0.000833608,0.0501292,21.0202,-330.923,0.722085,0.0,0.0
512,127.75,19.8611,20.6954,151.723,99.3335,91.7996,0.000813516,0.0499175,21.0212,-330.953,0.696787,0.0,0.0
528,131.75,19.5506,20.2456,153.046,99.3492,90.7535,0.000787457,0.0505155,21.0202,-330.973,0.799422,0.0,0.0
544,135.75,19.9685,20.5844,156.986,99.362,91.8013,0.000754637,0.0517792,21.018,-331.013,0.69916,0.0,0.0
560,139.75,20.4132,20.6225,154.822,99.3508,90.9471,0.000860473,0.0526314,21.0166,-331.053,0.780743,0.0,0.0
576,143.75,20.0579,20.29,151.956,99.348,90.9704,0.000873351,0.054527,21.0122,-331.113,0.778229,0.0,0.0
592,147.75,19.3171,20.1488,151.657,99.3199,87.1936,0.00329803,0.0819708,20.9468,-331.223,1.15032,0.0,1.0
608,151.75,21.2093,21.2927,135.211,99.279,48.9194,0.0125479,0.260731,20.6265,-331.664,6.25238,0.0,1.0
624,155.75,24.1495,24.1903,133.496,99.2401,53.1332,0.021779,0.457769,20.3633,-332.234,5.51897,0.0,0.0
640,159.75,27.939,27.7086,120.306,99.212,48.4365,0.0308478,0.586754,20.1749,-332.825,6.33404,0.0,0.0
656,163.75,33.043,32.4869,128.928,99.1538,45.0244,0.0381738,0.736006,19.9102,-333.485,6.97418,0.0,0.0
672,167.75,38.4523,38.5343,126.033,99.0872,49.7036,0.0424008,0.84478,19.7889,-334.116,6.0948,0.0,0.0
688,171.75,42.9186,43.8556,127.707,98.9973,50.8463,0.041544,0.834844,19.8172,-334.767,5.88599,0.0,0.0
704,175.75,46.6286,47.7452,125.631,98.9006,49.4439,0.0373009,0.768314,19.9362,-335.337,6.12444,0.0,0.0
720,179.75,48.8924,50.7787,128.315,98.7911,56.5304,0.0314049,0.659622,20.0926,-335.737,4.93142,0.0,0.0
736,183.75,49.9184,52.3036,135.599,98.7698,58.6483,0.0259106,0.56031,20.2475,-336.118,4.60459,0.0,0.0
752,187.75,50.4027,52.8345,139.685,98.8087,56.7114,0.0229737,0.506739,20.3305,-336.468,4.90475,0.0,0.0
768,191.75,50.3225,52.949,138.001,98.836,62.6236,0.0201965,0.476155,20.386,-336.768,4.03114,0.0,0.0
784,195.75,50.6339,53.4977,142.535,98.8802,68.5908,0.0156565,0.418765,20.4863,-336.979,3.23105,0.0,0.0
800,199.75,49.3778,52.5995,144.843,98.944,73.5119,0.011973,0.361178,20.5719,-337.209,2.62465,0.0,0.0
816,203.75,49.022,52.3153,148.418,98.9829,77.7819,0.00988346,0.317005,20.634,-337.399,2.12934,0.0,0.0
832,207.75,47.9228,51.1874,145.379,99.0326,77.9975,0.00860326,0.282898,20.6867,-337.549,2.10932,0.0,0.0
848,211.75,46.4727,49.9104,144.557,99.1004,76.4424,0.00744667,0.257701,20.7216,-337.669,2.29329,0.0,0.0
864,215.75,46.1027,49.4601,149.557,99.1747,77.7598,0.00653703,0.233808,20.7576,-337.789,2.14894,0.0,0.0
880,219.75,44.8464,48.4909,151.973,99.2405,85.3513,0.00508378,0.196951,20.8195,-337.839,1.33191,0.0,0.0
896,223.75,43.0845,46.8625,148.278,99.3067,87.5346,0.0036373,0.155501,20.8763,-337.909,1.11467,0.0,0.0
912,227.75,41.8795,45.7422,149.953,99.3693,89.5851,0.00296679,0.12963,20.9103,-337.959,0.915683,0.0,0.0
928,231.75,40.3809,43.996,149.167,99.4202,91.1161,0.00237427,0.109867,20.9389,-337.98,0.770512,0.0,0.0
944,235.75,38.968,42.5913,150.89,99.4684,91.5536,0.00214217,0.0941563,20.9597,-338.02,0.732474,0.0,0.0
960,239.75,37.5674,41.2649,151.953,99.4956,93.1512,0.00153328,0.0810431,20.981,-338.02,0.582071,0.0,0.0
976,243.75,36.4319,39.8992,156.193,99.5185,93.9067,0.00117062,0.0688597,20.9972,-338.04,0.512741,0.0,0.0
992,247.75,35.3118,38.4173,150.725,99.5253,94.1382,0.000995969,0.0587986,21.0101,-338.04,0.491601,0.0,0.0
1008,251.75,34.2607,37.7984,152.208,99.5237,93.8218,0.000788355,0.0519316,21.02,-338.05,0.521195,0.0,0.0
1024,255.75,32.3984,35.9899,152.949,99.5197,94.6061,0.000865626,0.0480701,21.0253,-338.04,0.447305,0.0,0.0
1040,259.75,31.5538,34.7963,150.854,99.5261,94.542,0.000644224,0.0461504,21.0274,-338.03,0.453862,0.0,0.0
1056,263.75,30.7474,33.5851,153.093,99.5193,94.3884,0.000833111,0.0452549,21.0283,-338.01,0.467621,0.0,0.0
1072,267.75,30.0211,33.1907,152.665,99.5021,93.9663,0.000767983,0.0449872,21.0296,-338.04,0.505683,0.0,0.0
1088,271.75,29.2376,31.6465,154.612,99.4796,94.2955,0.000438649,0.0447931,21.0301,-338.05,0.472787,0.0,0.0
1104,275.75,27.8616,31.2255,153.017,99.4627,93.9022,0.000397474,0.0447135,21.0289,-338.03,0.508219,0.0,0.0
1120,279.75,27.9224,30.6124,153.847,99.4407,94.2181,0.000736059,0.0447773,21.0272,-338.03,0.476587,0.0,0.0
1136,283.75,27.04,30.255,153.401,99.4062,94.037,0.000684016,0.0446776,21.0262,-338.03,0.490514,0.0,0.0
1152,287.75,27.0291,29.4475,154.329,99.3737,93.9996,0.00073224,0.0446387,21.0273,-338.03,0.491146,0.0,0.0
1168,291.75,26.3674,29.0515,156.441,99.3352,94.2189,0.000771494,0.0445954,21.0259,-338.05,0.467129,0.0,0.0
1184,295.75,26.396,28.2757,156.724,99.3043,93.9263,0.000445071,0.0445407,21.0268,-338.04,0.491861,0.0,0.0
1200,299.75,25.7709,28.153,155.071,99.2669,93.8918,0.00063621,0.0443657,21.0287,-338.05,0.491791,0.0,0.0
1216,303.75,25.3058,27.4401,153.706,99.23,94.082,0.000904042,0.0443128,21.0293,-338.05,0.470625,0.0,0.0
1232,307.75,25.0724,27.3397,153.575,99.2056,93.9276,0.000759358,0.0442297,21.0324,-338.03,0.482959,0.0,0.0
1248,311.75,24.9781,26.9373,154.487,99.1566,93.8551,0.000577444,0.0443223,21.0331,-338.03,0.485413,0.0,0.0
1264,315.75,24.6247,26.6205,153.188,99.1205,93.7814,0.000789743,0.0444564,21.0332,-338.05,0.489135,0.0,0.0
1280,319.75,24.6663,26.8627,154.46,99.0936,93.831,0.000664335,0.0445473,21.0309,-338.05,0.482073,0.0,0.0
1296,323.75,24.3039,26.1209,154.382,99.0487,93.6333,0.000653523,0.0444556,21.03,-338.04,0.496701,0.0,0.0
1312,327.75,23.8118,25.6735,153.79,99.0122,94.0945,0.000741741,0.0443918,21.0299,-338.04,0.450036,0.0,0.0
1328,331.75,23.746,25.3799,152.804,98.9965,93.7735,0.000653668,0.0442087,21.0284,-338.06,0.478822,0.0,0.0
1344,335.75,23.471,24.9756,152.008,98.9672,93.6691,0.000640353,0.0442728,21.0294,-338.05,0.486057,0.0,0.0
1360,339.75,23.0433,24.8352,152.769,98.9428,93.6058,0.000440463,0.0442272,21.0283,-338.04,0.489841,0.0,0.0
1376,343.75,22.892,24.7278,152.947,98.9379,93.4884,0.000591642,0.0441264,21.0282,-338.04,0.500497,0.0,0.0
1392,347.75,23.6143,24.631,154.43,98.9319,93.3868,0.000417102,0.0440421,21.028,-338.04,0.509561,0.0,0.0
1408,351.75,23.0385,24.4409,152.748,98.9215,93.6054,0.000464036,0.0439974,21.0274,-338.05,0.487982,0.0,0.0
1424,355.75,23.2678,23.7848,154.059,98.9147,93.4955,0.000362495,0.0439576,21.028,-338.06,0.49775,0.0,0.0
1440,359.75,22.7701,23.6183,155.501,98.895,93.7989,0.000476554,0.0440131,21.0284,-338.05,0.467368,0.0,0.0
1456,363.75,22.548,23.5929,156.171,98.8729,93.3939,,0.0439969,,-338.04,0.503625,0.0,0.0
1472,367.75,22.6706,23.5506,156.635,98.818,93.9454,,,,-338.06,0.446695,0.0,0.0
1488,371.75,22.8244,23.8434,155.272,98.7714,93.5991,,,,-338.05,0.47516,0.0,0.0
1489,372,22.0155,23.0878,152.871,98.7702,93.6083,,,,-338.06,0.474188,0.0,0.0