File: 01_Data/XPS_Foam_Board/Cone/XPS_Foam_Insulation_Cone_HF75Scan_220412_R1.csv
Names,Time,Stack TC,Smoke TC,Exh Press,Smoke Comp,Smoke Meas,CO Meter,CO2 Meter,O2 Meter,Sample Mass,Ext Coeff,Start Test,Flame Verif
Chan Gain,,500,500,1,1,1,1,1,1,1,1,1.0,1.0
Offset,,0,0,0.134314,0,0,0,0,0,0,0,0.0,0.0
Gain,,1,1,25.011,13.1473,13.6402,1,1,1,1.00092,1.00708,1.0,1.0
Units,sec,C,C,Pa,%,%,%,%,%,g,/m,,
Baseline,,39.8663,41.6302,145.783,99.5105,94.2364,0.000679223,0.046033,21.0235,-834.911,0.481084,,
7,1.5,39.294,40.6619,142.08,98.964,92.5035,0.0014613,0.0537601,21.0123,-329.782,0.596383,0.0,0.0
14,3.25,38.9745,40.9728,144.339,98.9556,87.3797,0.00317593,0.065729,20.9883,-329.952,1.09902,0.0,0.0
21,5,39.2958,40.6041,134.942,98.944,68.2628,0.00632642,0.124755,20.8791,-330.252,3.2791,0.0,1.0
28,6.75,40.0079,41.5238,130.071,98.9247,54.7554,0.010275,0.235252,20.7257,-330.413,5.22518,0.0,1.0
35,8.5,41.2379,42.7119,130.05,98.90625,56.9212,0.0152256,0.330277,20.5753,-330.593,4.88084,0.0,1.0
42,10.25,42.4365,43.6934,125.745,98.8962,40.4913,0.0222969,0.430066,20.3894,-330.873,7.88865,0.0,1.0
49,12,43.4037,45.1847,116.822,98.8866,27.2341,0.0337177,0.556969,20.1185,-331.193,11.3915,0.0,0.0
56,13.75,45.9792,46.6342,112.176,98.8565,25.2697,0.0479974,0.800978,19.7357,-331.564,12.0502,0.0,0.0
63,15.5,49.848,51.011,97.812,98.8356,22.7451,0.0674766,1.13563,19.3495,-332.244,12.9782,0.0,0.0
70,17.25,55.5294,56.6886,89.3137,98.8296,15.5029,0.0939017,1.53212,18.8651,-332.825,16.3639,0.0,0.0
77,19,61.7138,63.9641,87.1743,98.8164,16.4037,0.115848,1.89694,18.2359,-333.515,15.8638,0.0,0.0
84,20.75,69.1294,72.7036,84.8806,98.8148,22.6519,0.131201,2.23666,17.7216,-334.166,13.0126,0.0,0.0
91,22.5,76.5487,81.0267,77.9508,98.771,20.849,0.137906,2.44265,17.4756,-334.767,13.7413,0.0,0.0
98,24.25,83.5418,89.4262,89.9808,98.7626,22.3717,0.134719,2.46986,17.452,-335.367,13.1178,0.0,0.0
105,26,88.7672,96.6844,88.2161,98.7441,23.6297,0.123097,2.34005,17.6685,-335.838,12.6329,0.0,0.0
112,27.75,92.6031,101.093,101.389,98.7265,31.0941,0.106548,2.09192,18.0085,-336.228,10.2063,0.0,0.0
119,29.5,95.95,104.967,109.887,98.6892,34.5204,0.0876109,1.78457,18.3827,-336.568,9.27949,0.0,0.0
126,31.25,96.5725,106.592,122.118,98.6747,38.8004,0.0678266,1.459,18.8759,-336.748,8.24567,0.0,0.0
133,33,97.3436,107.702,126.664,98.6543,59.7643,0.0490776,1.1191,19.4806,-336.828,4.42773,0.0,0.0
140,34.75,95.9904,106.539,135.555,98.6262,80.5168,0.0349483,0.803475,19.9585,-336.828,1.79217,0.0,0.0
147,36.5,94.298,104.94,137.35,98.5989,83.9768,0.023891,0.569338,20.2861,-336.848,1.41804,0.0,0.0
154,38.25,92.5476,103.029,135.474,98.5788,83.0052,0.0164557,0.406703,20.5128,-336.858,1.51904,0.0,0.0
161,40,90.6957,101.165,137.605,98.5576,87.8164,0.0116281,0.298998,20.6665,-336.899,1.01938,0.0,0.0
168,41.75,88.665,99.527,142.886,98.5371,90.4255,0.00839669,0.230214,20.7627,-336.919,0.758903,0.0,0.0
175,43.5,87.27,97.3375,141.838,98.5114,90.8976,0.00635598,0.184024,20.8299,-336.929,0.710606,0.0,0.0
182,45.25,85.5001,95.269,143.786,98.4898,93.3793,0.00489828,0.151036,20.8828,-336.919,0.470701,0.0,0.0
189,47,82.8767,92.717,141.029,98.4773,93.3594,0.00382165,0.125612,20.9208,-336.919,0.471476,0.0,0.0
196,48.75,81.9488,91.4669,142.283,98.4565,93.627,0.00302198,0.106282,20.9466,-336.939,0.444314,0.0,0.0
203,50.5,80.0401,89.6796,142.903,98.4312,93.4613,0.00241545,0.093413,20.964,-336.949,0.457691,0.0,0.0
210,52.25,78.8302,87.4425,142.113,98.4059,93.3435,0.00196998,0.0836224,20.9779,-336.939,0.466564,0.0,0.0
217,54,77.1131,86.2044,144.476,98.4111,93.1799,0.00161229,0.0767655,20.9884,-336.949,0.482528,0.0,0.0
224,55.75,75.6837,84.2886,142.349,98.4139,93.2187,0.00133608,0.0714054,20.9943,-336.939,0.47911,0.0,0.0
231,57.5,74.688,83.0919,141.826,98.3923,93.6237,0.00107056,0.0672434,20.9995,-336.949,0.438866,0.0,0.0
238,59.25,72.8513,81.5957,145.572,98.379,93.5088,0.000970055,0.064141,21.003,-336.949,0.448524,0.0,0.0
245,61,72.1199,80.965,144.086,98.3429,93.7182,0.00110861,0.0613471,21.0075,-336.959,0.425523,0.0,0.0
252,62.75,70.3313,78.9529,141.511,98.359,93.5354,0.00125909,0.0591779,21.0097,-336.949,0.444207,0.0,0.0
259,64.5,70.0714,78.2147,142.418,98.3598,93.7336,0.0013044,0.0575177,21.0114,-336.969,0.425584,0.0,0.0
266,66.25,68.3469,76.7675,146.715,98.3457,93.6703,0.00125344,0.0557613,21.0136,-336.969,0.430287,0.0,0.0
273,68,67.8809,76.3663,140.607,98.3365,93.7831,0.00119904,0.0543822,21.0148,-336.979,0.418826,0.0,0.0
280,69.75,67.1016,75.1549,140.809,98.3249,93.6024,0.00113955,0.0534234,21.0164,-336.979,0.434816,0.0,0.0
287,71.5,65.98,74.4123,141.686,98.3365,93.6641,0.0010813,0.0522941,21.0172,-336.959,0.430049,0.0,0.0
294,73.25,65.1358,72.4863,145.323,98.3205,93.418,0.00106567,0.0512776,21.0176,-336.969,0.451839,0.0,0.0
301,75,64.3995,72.2615,144.979,98.3181,93.679,0.00107493,0.0505035,21.0189,-336.979,0.426977,0.0,0.0
308,76.75,63.309,71.1916,145.778,98.3056,93.6982,0.0010868,0.0498953,21.0196,-336.989,0.424053,0.0,0.0
315,78.5,62.6855,70.1319,140.997,98.3048,93.7178,0.00103682,0.0493258,21.0205,-336.979,0.422137,0.0,0.0
322,80.25,62.2568,69.8008,140.926,98.2815,93.4701,0.000895769,0.0488827,21.022,-336.979,0.443423,0.0,0.0
329,82,61.0308,69.0272,146.905,98.2723,93.4597,0.00075543,0.0485094,21.0227,-336.999,0.443577,0.0,0.0
336,83.75,60.5125,67.713,142.507,98.2723,93.5408,0.000709127,0.0483094,21.0231,-336.989,0.435908,0.0,0.0
343,85.5,59.5426,67.3997,140.334,98.2679,94.027,0.000719133,0.0480275,21.024,-336.999,0.389714,0.0,0.0
350,87.25,59.9235,66.5431,141.384,98.2643,93.6999,0.000673702,0.0477261,21.0238,-336.979,0.420183,0.0,0.0
357,89,58.5155,65.6397,141.484,98.241,93.3464,0.000627433,0.0475314,21.0235,-336.979,0.451473,0.0,0.0
364,90.75,58.0018,65.5746,143.449,98.2318,93.3706,0.000667033,0.0471903,21.0231,-336.969,0.448358,0.0,0.0
371,92.5,57.958,64.6383,140.621,98.2202,93.1458,0.000729933,0.0468527,21.0229,-336.989,0.468604,0.0,0.0
378,94.25,57.5619,63.7982,144.098,98.2157,93.1142,0.00066394,0.0466953,21.0228,-336.999,0.471207,0.0,0.0
385,96,56.5852,63.2514,142.143,98.2105,93.6149,0.000508719,0.0465107,21.0227,-336.969,0.423358,0.0,0.0
392,97.75,56.4378,63.0666,145.757,98.1901,93.1454,0.000461739,0.0464818,21.0227,-336.989,0.465936,0.0,0.0
399,99.5,55.5957,61.5821,141.329,98.1848,93.2503,0.000524444,0.0464236,21.0227,-336.979,0.455525,0.0,0.0
406,101.25,55.6514,61.7035,145.586,98.1772,93.2973,0.00055354,0.0463958,21.0236,-337.009,0.450383,0.0,0.0
413,103,55.4664,61.2964,145.392,98.168,93.4031,0.000532319,0.0464019,21.0237,-336.989,0.439547,0.0,0.0
420,104.75,54.7292,60.2795,141.432,98.154,93.2844,0.000582293,0.0463556,21.0232,-336.989,0.449512,0.0,0.0
427,106.5,54.4219,60.1303,142.806,98.1347,93.4717,0.000716522,0.0463258,21.0229,-336.999,0.430057,0.0,0.0
434,108.25,53.9408,59.6527,142.986,98.1403,93.0954,0.00084591,0.0462972,21.0228,-336.989,0.466199,0.0,0.0
441,110,53.6413,59.4044,144.97,98.1371,93.1038,0.000856533,0.0462231,21.0242,-336.989,0.465119,0.0,0.0
448,111.75,53.5861,58.5037,147.094,98.1271,93.5517,0.000788551,0.046163,21.0254,-336.989,0.42182,0.0,0.0
455,113.5,53.0436,58.1934,139.897,98.109,93.2432,0.000686259,0.0461004,21.0259,-336.999,0.44937,0.0,0.0
462,115.25,52.279,58.2758,141.796,98.1082,93.4326,0.000664036,0.0460323,21.0252,-336.989,0.431371,0.0,0.0
469,117,52.2609,57.5911,145.651,98.113,92.9015,0.000690088,0.0459287,21.0246,-336.999,0.482169,0.0,0.0
476,118.75,52.0034,56.9763,143.664,98.1118,93.2919,0.000681964,0.0458627,21.0243,-337.009,0.44501,0.0,0.0
483,120.5,51.7329,57.0435,142.83,98.1074,93.5275,0.000666784,0.0458421,21.0252,-337.019,0.42233,0.0,0.0
490,122.25,51.0707,56.4493,141.858,98.111,93.2082,0.0006923,0.0457403,21.0254,-336.989,0.452864,0.0,0.0
497,124,51.3168,56.1207,146.089,98.0966,93.4047,0.000724601,0.0454914,21.0254,-336.999,0.43296,0.0,0.0
504,125.75,50.8852,55.6709,143.223,98.1102,93.2649,0.000758559,0.0455271,21.0255,-336.999,0.447427,0.0,0.0
511,127.5,50.8976,55.6605,145.309,98.1062,93.1575,0.00079487,0.0454323,21.0255,-336.999,0.457245,0.0,0.0
518,129.25,50.7454,55.2059,139.718,98.0938,93.5488,0.000846492,0.0454376,21.0255,-336.999,0.419096,0.0,0.0
525,131,50.1197,54.7084,142.884,98.0958,93.7015,0.000889781,0.0453521,21.0255,-336.999,0.404862,0.0,0.0
532,132.75,50.1413,54.8544,141.913,98.0954,93.4613,0.000873386,0.0452679,21.0265,-337.009,0.427501,0.0,0.0
539,134.5,50.0942,54.6199,145.85,98.1223,93.1575,0.000773842,0.0451921,21.0276,-336.999,0.45869,0.0,0.0
546,136.25,50.1991,54.2931,142.512,98.1026,93.4193,0.000619475,0.0450853,21.0283,-337.019,0.432125,0.0,0.0
553,138,49.1706,53.6219,147.697,98.1002,93.1054,0.000516719,0.0451661,21.0296,-337.019,0.461638,0.0,0.0
560,139.75,49.4065,53.7606,144.626,98.1106,93.202,0.000514738,0.045341,21.0293,-337.019,0.453419,0.0,0.0
567,141.5,49.2887,53.6857,141.784,98.1351,93.1824,0.000549016,0.0452038,21.0289,-337.019,0.457477,0.0,0.0
574,143.25,49.2119,53.5031,144.031,98.117,93.1966,0.000542898,0.0450663,21.0287,-337.019,0.454509,0.0,0.0
581,145,49.0779,52.9136,139.58,98.1255,93.3706,0.000454359,0.0450739,21.0286,-337.049,0.438791,0.0,0.0
588,146.75,49.0292,52.7441,146.728,98.1371,92.9189,0.000361953,0.0450016,21.0288,-337.049,0.482674,0.0,0.0
595,148.5,48.765,52.3772,142.732,98.1475,93.2357,0.000429304,0.0450316,21.0298,-337.069,0.453547,0.0,0.0
602,150.25,48.4649,52.4064,142.151,98.1527,93.7361,0.00053349,0.0451138,21.0291,-337.059,0.406736,0.0,0.0
609,152,48.8786,52.1289,143.59,98.162,93.3319,0.000521422,0.0452476,21.0288,-337.039,0.445741,0.0,0.0
616,153.75,48.2706,52.3911,142.719,98.1684,93.5625,0.000455695,0.0453869,21.0282,-337.019,0.424518,0.0,0.0
623,155.5,48.1402,52.0504,143.597,98.1664,93.4426,,0.0454885,,-337.029,0.435664,0.0,0.0
630,157.25,48.3734,51.4309,142.235,98.1989,93.5221,,0.0454853,,-337.029,0.431075,0.0,0.0
637,159,48.0157,51.402,144.971,98.1961,93.2894,,,,-337.029,0.452829,0.0,0.0
644,160.75,48.1766,51.2023,141.849,98.2077,93.5221,,,,-337.039,0.431869,0.0,0.0
651,162.5,48.2811,51.4911,144.809,98.2214,93.2615,,,,-337.039,0.457745,0.0,0.0
658,164.25,47.5015,50.4594,146.966,98.2506,93.2191,,,,-337.049,0.464401,0.0,0.0
664,165.75,47.8509,51.2536,146.673,98.247,93.1425,,,,-337.039,0.471337,0.0,0.0