File: 01_Data/XPS_Foam_Board/Cone/XPS_Foam_Insulation_Cone_HF25Scan_220412_R3.csv
Names,Time,Stack TC,Smoke TC,Exh Press,Smoke Comp,Smoke Meas,CO Meter,CO2 Meter,O2 Meter,Sample Mass,Ext Coeff,Start Test,Flame Verif
Chan Gain,,500,500,1,1,1,1,1,1,1,1,1.0,1.0
Offset,,0,0,0.134314,0,0,0,0,0,0,0,0.0,0.0
Gain,,1,1,25.011,13.1473,13.6402,1,1,1,1.00092,1.00708,1.0,1.0
Units,sec,C,C,Pa,%,%,%,%,%,g,/m,,
Baseline,,19.6463,20.1164,155.668,99.2821,94.5091,0.000742566,0.0468504,21.0223,-833.86,0.435262,,
17,4,18.7505,19.4886,153.826,99.5121,94.2547,0.000649893,0.0654415,21.0024,-328.08,0.479494,0.0,0.0
34,8.25,18.7682,19.2178,152.666,99.492,94.5112,0.000665563,0.0645969,21.0034,-328.151,0.453713,0.0,0.0
51,12.5,19.0457,19.2584,156.482,99.4864,94.6402,0.000621062,0.0601373,21.0115,-328.211,0.441162,0.0,0.0
68,16.75,18.8237,19.589,156.674,99.4643,94.3738,0.00053925,0.0540017,21.0182,-328.271,0.464104,0.0,0.0
85,21,19.0392,19.8225,156.951,99.4407,94.119,0.000677316,0.050109,21.0231,-328.271,0.485881,0.0,0.0
102,25.25,19.3013,19.7264,153.354,99.4194,94.0387,0.000797933,0.0485873,21.0222,-328.271,0.491534,0.0,0.0
119,29.5,19.3101,19.8233,158.861,99.4058,94.0986,0.000774321,0.0478463,21.0236,-328.291,0.484694,0.0,0.0
136,33.75,19.1785,19.889,156.659,99.3713,93.9517,0.000791645,0.0470284,21.0249,-328.301,0.495432,0.0,0.0
153,38,19.4025,20.1037,160.293,99.3299,93.9796,0.000721511,0.0463916,21.0263,-328.331,0.489136,0.0,0.0
170,42.25,19.3607,19.8525,156.3,99.3027,93.9604,0.000532841,0.0462968,21.0265,-328.331,0.48851,0.0,0.0
187,46.5,19.3843,19.6682,156.047,99.2718,93.1949,0.000555881,0.0462003,21.0274,-328.341,0.558028,0.0,0.0
204,50.75,19.3989,19.5978,155.387,99.2068,92.9964,0.000592099,0.0460848,21.0272,-328.361,0.571083,0.0,0.0
221,55,19.4765,19.903,157.974,99.1711,92.9443,0.000919377,0.045971,21.0258,-328.381,0.572847,0.0,0.0
238,59.25,19.2948,20.1144,151.786,99.1406,93.1117,0.000895633,0.0461423,21.0256,-328.391,0.554239,0.0,0.0
255,63.5,19.7631,19.9969,151.435,99.0968,93.0904,0.000581815,0.0461651,21.0256,-328.401,0.552355,0.0,0.0
272,67.75,19.6099,20.0743,155.93,99.0443,93.2224,0.000844178,0.0459587,21.0266,-328.411,0.535156,0.0,0.0
289,72,19.6046,19.9234,156.077,98.9993,92.6509,0.000950201,0.0457278,21.0279,-328.441,0.585473,0.0,0.0
306,76.25,19.2714,20.2837,156.733,98.9424,92.598,0.00110431,0.0453172,21.029,-328.461,0.58543,0.0,0.0
323,80.5,20.0383,20.4206,153.786,98.9034,92.7782,0.000751875,0.0450861,21.0292,-328.461,0.564775,0.0,0.0
340,84.75,19.9231,20.2464,155.01,98.8585,92.9085,0.000431806,0.0453187,21.0292,-328.481,0.548363,0.0,0.0
357,89,20.2107,20.4641,151.533,98.7931,92.1122,0.000419548,0.0451831,21.0292,-328.501,0.61856,0.0,0.0
374,93.25,19.6871,20.1651,151.264,98.7161,92.6629,0.000309882,0.0450675,21.031,-328.541,0.559009,0.0,0.0
391,97.5,19.8376,19.8603,151.807,98.6755,91.9936,0.000585514,0.0451428,21.0314,-328.561,0.619426,0.0,0.0
408,101.75,19.3958,20.8148,157.843,98.6202,91.7692,0.00101631,0.0450652,21.0315,-328.581,0.63604,0.0,0.0
425,106,20.1259,20.9269,156.217,98.5576,92.1597,0.000769456,0.045079,21.0307,-328.601,0.592925,0.0,0.0
442,110.25,19.8831,20.5825,154.474,98.5247,91.2501,0.000724688,0.0450346,21.0295,-328.621,0.677593,0.0,0.0
459,114.5,20.1903,20.7364,152.633,98.4717,91.3467,0.000852568,0.045042,21.0295,-328.651,0.663499,0.0,0.0
476,118.75,20.1076,20.5658,157.811,98.4364,91.5873,0.000856752,0.0451777,21.0312,-328.671,0.637093,0.0,0.0
493,123,20.1323,20.1353,154.545,98.3867,91.4429,0.000820947,0.0452298,21.0312,-328.711,0.64657,0.0,0.0
510,127.25,20.2437,20.6381,153.711,98.3594,90.8301,0.000617239,0.0455945,21.0295,-328.731,0.703514,0.0,0.0
527,131.5,20.4173,20.9619,151.501,98.3205,91.3371,0.00071591,0.0456568,21.0299,-328.761,0.650845,0.0,0.0
544,135.75,19.9213,21.05,153.368,98.2767,90.7265,0.000421249,0.0458525,21.0304,-328.801,0.706175,0.0,0.0
561,140,20.2513,20.7869,155.53,98.2523,91.5174,0.000365198,0.0466945,21.0283,-328.821,0.627298,0.0,0.0
578,144.25,20.2379,20.4109,153.994,98.2137,90.2536,0.000580415,0.0479128,21.0266,-328.861,0.746675,0.0,0.0
595,148.5,19.4802,21.0507,158.897,98.17,90.6416,0.000737331,0.0472305,21.0263,-328.901,0.704848,0.0,0.0
612,152.75,20.1511,21.463,157.088,98.16,90.8355,0.0006174,0.0464565,21.0272,-328.921,0.68506,0.0,0.0
629,157,20.3924,21.3645,156.487,98.0817,90.4276,0.00054487,0.0462072,21.0267,-328.981,0.717779,0.0,0.0
646,161.25,20.3571,21.1336,148.114,98.0344,88.8412,0.00260366,0.0724441,21.0024,-329.141,0.869866,0.0,1.0
663,165.5,21.1746,21.4549,131.263,97.9846,45.7441,0.0119184,0.262408,20.6872,-329.552,6.7293,0.0,1.0
680,169.75,24.2629,25.0305,138.204,97.9249,60.2788,0.02002,0.429687,20.4389,-330.042,4.28645,0.0,0.0
697,174,28.4063,28.2633,126.699,97.853,47.1752,0.0279053,0.558644,20.2234,-330.643,6.44529,0.0,0.0
714,178.25,33.2156,33.3535,116.638,97.7844,47.2398,0.0359403,0.718672,19.966,-331.333,6.42702,0.0,0.0
731,182.5,38.7407,39.4741,124.537,97.7415,44.0978,0.0392908,0.821157,19.827,-331.974,7.03115,0.0,0.0
748,186.75,43.824,44.7383,128.137,97.6954,46.7777,0.0391969,0.830118,19.8322,-332.615,6.5058,0.0,0.0
765,191,47.6793,48.906,124.827,97.6596,51.0948,0.0365805,0.779755,19.9026,-333.235,5.72274,0.0,0.0
782,195.25,49.9409,52.3749,132.781,97.6147,55.222,0.0318984,0.68722,20.0515,-333.726,5.03245,0.0,0.0
799,199.5,51.0155,54.2796,130.378,97.5987,59.7364,0.0265695,0.594637,20.1937,-334.176,4.33682,0.0,0.0
816,203.75,52.1721,54.97,137.55,97.573,59.2902,0.0232285,0.537359,20.2803,-334.516,4.40073,0.0,0.0
833,208,52.8363,55.595,138.724,97.5433,59.1208,0.0206542,0.493195,20.345,-334.937,4.42332,0.0,0.0
850,212.25,52.6982,55.7237,138.17,97.5385,60.1169,0.0187645,0.456857,20.4062,-335.257,4.27528,0.0,0.0
867,216.5,52.4039,55.6539,141.757,97.5288,71.7785,0.0150996,0.400601,20.503,-335.477,2.70818,0.0,0.0
884,220.75,51.2127,55.2757,145.082,97.5369,81.3614,0.0100733,0.328161,20.6241,-335.637,1.60187,0.0,0.0
901,225,49.9661,53.6703,145.895,97.5272,80.8102,0.00654538,0.24972,20.7333,-335.697,1.66105,0.0,0.0
918,229.25,48.2464,51.751,148.029,97.5272,86.6966,0.00442601,0.182082,20.834,-335.737,1.03991,0.0,0.0
935,233.5,46.0325,49.8265,153.445,97.5638,88.8795,0.0030463,0.133738,20.9056,-335.777,0.823547,0.0,0.0
952,237.75,44.1997,48.0158,150.408,97.563,90.1221,0.00215082,0.104868,20.9476,-335.797,0.700829,0.0,0.0
969,242,42.1014,46.6477,153.41,97.5975,90.7881,0.00158386,0.0881821,20.9731,-335.818,0.638906,0.0,0.0
986,246.25,41.3129,44.3297,150.277,97.6203,90.9421,0.00139825,0.0777173,20.9858,-335.848,0.626003,0.0,0.0
1003,250.5,39.0657,43.7123,153.127,97.6709,91.4795,0.00129831,0.0712691,20.9931,-335.858,0.578528,0.0,0.0
1020,254.75,38.2454,41.6059,155.401,97.7258,91.4225,0.00124464,0.0667471,20.9994,-335.868,0.589007,0.0,0.0
1037,259,36.2111,40.3328,153.335,97.7768,92.2413,0.00135483,0.0621433,21.0054,-335.878,0.514845,0.0,0.0
1054,263.25,35.7162,38.6544,152.864,97.8683,92.7225,0.00116848,0.0579519,21.0113,-335.878,0.477141,0.0,0.0
1071,267.5,34.2802,38.0892,153.249,97.9433,92.9656,0.000842214,0.0538039,21.0171,-335.898,0.46078,0.0,0.0
1088,271.75,33.5896,36.8121,153.485,97.9955,93.2823,0.000955277,0.0503356,21.0227,-335.888,0.435433,0.0,0.0
1105,276,31.6913,35.3025,151.547,98.0825,93.2199,0.000774384,0.0475887,21.0259,-335.878,0.449193,0.0,0.0
1122,280.25,30.9991,34.6303,154.328,98.1223,93.1937,0.000540243,0.0463023,21.0276,-335.868,0.455256,0.0,0.0
1139,284.5,30.162,33.712,151.569,98.1752,92.5988,0.00032209,0.0460873,21.0293,-335.878,0.51659,0.0,0.0
1156,288.75,29.4773,32.4884,153.93,98.2462,93.3585,0.000266218,0.0459275,21.0296,-335.888,0.450799,0.0,0.0
1173,293,29.2226,31.8121,158.519,98.3353,93.326,0.000466201,0.0455342,21.0297,-335.888,0.461878,0.0,0.0
1190,297.25,28.776,30.8712,152.961,98.3919,93.2174,0.000414298,0.0455821,21.0297,-335.878,0.477248,0.0,0.0
1207,301.5,27.9834,30.4001,153.451,98.4629,93.3069,0.000529654,0.0454697,21.0296,-335.888,0.475144,0.0,0.0
1224,305.75,27.5558,29.8216,152.908,98.5387,93.3864,0.000523658,0.0453054,21.0305,-335.888,0.474422,0.0,0.0
1241,310,26.8497,28.9452,152.204,98.5937,93.2594,0.000514313,0.0451192,21.0307,-335.888,0.491366,0.0,0.0
1258,314.25,26.5931,29.0896,153.194,98.6515,93.4314,0.000562417,0.0451628,21.0307,-335.878,0.480271,0.0,0.0
1275,318.5,26.4654,28.5877,157.508,98.6916,93.7985,0.000656884,0.0450488,21.0307,-335.898,0.449217,0.0,0.0
1292,322.75,26.1422,27.8146,152.589,98.7389,93.7107,0.000747109,0.0450022,21.0286,-335.898,0.461731,0.0,0.0
1309,327,25.5085,27.6941,152.685,98.7638,93.59,0.000736637,0.0450125,21.0289,-335.898,0.475343,0.0,0.0
1326,331.25,25.0357,26.8733,156.848,98.7999,93.5492,0.00067867,0.0451007,21.0291,-335.898,0.482423,0.0,0.0
1343,335.5,24.4185,26.6658,153.901,98.8461,93.8314,0.000467356,0.0449944,21.0286,-335.908,0.459936,0.0,0.0
1360,339.75,24.7204,26.4867,152.994,98.8505,93.7569,0.000447995,0.0449641,21.0285,-335.888,0.46735,0.0,0.0
1377,344,24.5888,25.9938,153.197,98.8645,93.6312,9.71534e-05,0.0449453,21.0287,-335.898,0.480457,0.0,0.0
1394,348.25,24.3694,26.0239,151.295,98.8914,93.7694,0.000147588,0.0451222,21.0298,-335.888,0.46983,0.0,0.0
1411,352.5,24.3866,25.7243,152.638,98.8918,93.5704,0.000360891,0.0449756,21.029,-335.898,0.48863,0.0,0.0
1428,356.75,24.2598,25.3771,152.492,98.8693,93.4967,0.000359131,0.0450892,21.0288,-335.878,0.493581,0.0,0.0
1445,361,23.6285,25.127,150.94,98.8725,93.3756,0.000569018,0.0449863,21.0283,-335.898,0.505322,0.0,0.0
1462,365.25,23.5972,24.7106,153.228,98.8461,93.6324,0.00051012,0.0448593,21.0288,-335.898,0.478689,0.0,0.0
1479,369.5,23.3294,24.9624,154.677,98.7979,94.0387,0.0001816,0.0449153,21.0272,-335.898,0.436137,0.0,0.0
1496,373.75,23.5915,24.8743,152.605,98.7634,93.4139,0.000165105,0.0449546,21.0277,-335.908,0.491943,0.0,0.0
1513,378,23.1256,24.4945,154.158,98.751,94.1061,0.000465619,0.0450735,21.0272,-335.918,0.425607,0.0,0.0
1530,382.25,23.3467,24.3594,152.088,98.6924,93.4684,0.000558261,0.045134,21.0268,-335.908,0.480433,0.0,0.0
1547,386.5,23.4787,24.2252,155.539,98.6543,93.55,,,,-335.898,0.469312,0.0,0.0
1564,390.75,22.7171,24.4887,156.985,98.6214,93.2823,,,,-335.898,0.491678,0.0,0.0
1574,393.25,23.0466,24.1517,153.356,98.5989,93.4626,,,,-335.888,0.472612,0.0,0.0