File: 01_Data/XPS_Foam_Board/Cone/XPS_Foam_Insulation_Cone_HF75Scan_220412_R2.csv
Names,Time,Stack TC,Smoke TC,Exh Press,Smoke Comp,Smoke Meas,CO Meter,CO2 Meter,O2 Meter,Sample Mass,Ext Coeff,Start Test,Flame Verif
Chan Gain,,500,500,1,1,1,1,1,1,1,1,1.0,1.0
Offset,,0,0,0.134314,0,0,0,0,0,0,0,0.0,0.0
Gain,,1,1,25.011,13.1473,13.6402,1,1,1,1.00092,1.00708,1.0,1.0
Units,sec,C,C,Pa,%,%,%,%,%,g,/m,,
Baseline,,42.9788,44.519,145.1,99.0502,93.8314,0.000357343,0.0462684,21.0278,-835.082,0.478166,,
7,1.5,41.7266,43.2963,144.697,99.6068,93.4309,0.00221855,0.0549254,21.018,-333.856,0.565445,0.0,0.0
14,3.25,41.8934,43.9521,134.975,99.6084,75.5499,0.00532529,0.0951456,20.9669,-334.166,2.4422,0.0,1.0
21,5,42.587,44.2048,131.443,99.6172,55.9534,0.0102602,0.198694,20.807,-334.416,5.09561,0.0,1.0
28,6.75,44.4066,45.8901,128.207,99.6052,55.6824,0.0146503,0.318398,20.6322,-334.546,5.13743,0.0,1.0
35,8.5,44.6424,46.0074,127.871,99.5799,54.6672,0.0187659,0.399824,20.4984,-334.767,5.29774,0.0,1.0
42,10.25,45.8624,47.3772,127.68,99.5751,46.7157,0.0239183,0.469757,20.3654,-334.997,6.68588,0.0,0.0
49,12,47.1187,48.5191,124.136,99.5622,28.0009,0.0344884,0.58694,20.1564,-335.257,11.2064,0.0,0.0
56,13.75,49.3491,50.8584,104.762,99.5482,27.3806,0.0489204,0.779378,19.8601,-335.767,11.403,0.0,0.0
63,15.5,52.8445,54.1249,93.8911,99.5289,23.0024,0.0729872,1.11316,19.3342,-336.368,12.9406,0.0,0.0
70,17.25,58.7656,60.2056,81.6466,99.492,17.608,0.104321,1.63688,18.5905,-337.069,15.2981,0.0,0.0
77,19,66.2916,68.5836,64.5302,99.4708,14.5992,0.139943,2.22878,17.677,-337.919,16.9516,0.0,0.0
84,20.75,74.9249,78.7891,76.6205,99.4491,12.0704,0.168005,2.75016,16.9632,-338.67,18.63,0.0,0.0
91,22.5,84.7071,90.3361,80.404,99.4258,14.6005,0.176996,3.07284,16.5817,-339.431,16.9468,0.0,0.0
98,24.25,92.5713,101.27,86.8705,99.3905,17.7774,0.167682,3.06345,16.581,-340.001,15.2045,0.0,0.0
105,26,99.1201,109.33,103.049,99.3548,24.1716,0.144956,2.70622,17.0306,-340.292,12.4871,0.0,0.0
112,27.75,102.227,114.231,107.644,99.3344,32.2122,0.115515,2.26448,17.6306,-340.682,9.94841,0.0,0.0
119,29.5,103.893,116.265,121.286,99.3002,38.1985,0.0856825,1.74592,18.378,-340.912,8.43961,0.0,0.0
126,31.25,102.879,115.758,126.699,99.2617,48.7158,0.0609273,1.30939,19.0851,-341.012,6.28768,0.0,0.0
133,33,102.146,115.198,135.075,99.222,74.7798,0.0432093,0.934378,19.6786,-341.042,2.49837,0.0,0.0
140,34.75,101.082,113.47,138.853,99.1823,84.7785,0.0293698,0.664865,20.0821,-341.032,1.38622,0.0,0.0
147,36.5,99.1273,111.681,139.253,99.1442,88.5615,0.0196638,0.458205,20.4034,-341.052,0.997168,0.0,0.0
154,38.25,96.597,109.163,138.289,99.155,90.572,0.0125891,0.318687,20.6506,-341.072,0.799822,0.0,0.0
161,40,94.5783,106.425,141.226,99.1715,92.9377,0.00923433,0.225751,20.7725,-341.042,0.573516,0.0,0.0
168,41.75,92.7889,104.717,139.792,99.1935,94.1307,0.00652575,0.165344,20.8635,-341.052,0.462802,0.0,0.0
175,43.5,90.574,101.788,140.515,99.2056,94.487,0.00485863,0.127636,20.919,-341.032,0.430497,0.0,0.0
182,45.25,88.5078,100.142,142.653,99.2353,94.5536,0.00375817,0.103051,20.9548,-341.052,0.426917,0.0,0.0
189,47,86.5453,97.9697,145.78,99.2381,94.1249,0.00306125,0.0882758,20.9768,-341.082,0.467315,0.0,0.0
196,48.75,85.1483,95.7392,142.386,99.2694,95.0219,0.00269135,0.0789075,20.9886,-341.062,0.386307,0.0,0.0
203,50.5,83.2754,93.8908,138.066,99.2999,94.5961,0.00244764,0.0728755,20.9946,-341.082,0.428699,0.0,0.0
210,52.25,81.8231,92.2702,139.425,99.3203,94.5128,0.00221666,0.0688452,20.9992,-341.082,0.438297,0.0,0.0
217,54,80.2579,90.827,142.587,99.3412,94.4346,0.00198799,0.0651553,21.0034,-341.092,0.44747,0.0,0.0
224,55.75,79.058,88.8656,142.547,99.3572,94.718,0.00168821,0.0624161,21.0069,-341.092,0.422419,0.0,0.0
231,57.5,77.4933,87.3067,142.29,99.3945,94.7884,0.00144876,0.0603251,21.0095,-341.082,0.419178,0.0,0.0
238,59.25,76.157,86.4087,143.152,99.4014,94.6011,0.0012685,0.058274,21.0116,-341.072,0.437259,0.0,0.0
245,61,75.3187,84.7672,144.959,99.4282,94.6839,0.00111278,0.0566854,21.0144,-341.082,0.431914,0.0,0.0
252,62.75,73.7348,83.0318,141.325,99.4471,94.937,0.000975292,0.0557075,21.0159,-341.092,0.410008,0.0,0.0
259,64.5,73.3283,82.2093,140.023,99.4692,95.0094,0.000849242,0.0552218,21.0167,-341.092,0.405231,0.0,0.0
266,66.25,71.5545,81.3076,143.561,99.5053,94.7518,0.00072479,0.0548155,21.017,-341.102,0.432429,0.0,0.0
273,68,71.1306,79.6422,140.874,99.5221,94.8575,0.000599352,0.05463,21.0172,-341.112,0.424072,0.0,0.0
280,69.75,70.1119,79.0193,144.585,99.5478,94.5894,0.000427642,0.0544949,21.0171,-341.122,0.451353,0.0,0.0
287,71.5,68.8228,77.8271,140.707,99.5799,95.0719,0.000352194,0.0542107,21.0168,-341.132,0.409257,0.0,0.0
294,73.25,68.4462,76.4694,139.91,99.6104,94.7934,0.000420577,0.0539562,21.0169,-341.112,0.437876,0.0,0.0
301,75,67.3775,75.6946,141.752,99.6313,94.9632,0.00050105,0.0534971,21.0177,-341.122,0.423913,0.0,0.0
308,76.75,66.9153,74.8235,141.632,99.6461,94.81,0.000566328,0.0527135,21.018,-341.132,0.43949,0.0,0.0
315,78.5,65.8736,74.12,143.599,99.6654,94.885,0.000654435,0.0520066,21.0192,-341.112,0.43422,0.0,0.0
322,80.25,64.7351,72.2699,143.091,99.7083,94.7938,0.000731663,0.0511419,21.02,-341.132,0.446516,0.0,0.0
329,82,63.9091,72.0477,144.385,99.732,95.0473,0.000731171,0.0503852,21.0206,-341.112,0.425019,0.0,0.0
336,83.75,63.5795,70.9075,141.61,99.7376,94.8533,0.000722578,0.0496933,21.0217,-341.122,0.443565,0.0,0.0
343,85.5,63.1715,70.8829,141.349,99.7572,95.2804,0.000748908,0.0491893,21.0226,-341.122,0.405618,0.0,0.0
350,87.25,62.16,69.5133,139.518,99.7741,94.9903,0.000729414,0.0487066,21.0241,-341.112,0.434052,0.0,0.0
357,89,61.8805,69.2141,141.664,99.8022,94.9678,0.000648453,0.0483649,21.0247,-341.122,0.438629,0.0,0.0
364,90.75,60.5127,68.3413,144.161,99.815,94.8533,0.000530153,0.0480114,21.0251,-341.122,0.45042,0.0,0.0
371,92.5,60.6488,66.9836,139.993,99.8351,94.8721,0.000401013,0.0477713,21.0252,-341.102,0.450451,0.0,0.0
378,94.25,60.4048,67.2391,141.79,99.8644,95.0581,0.000296114,0.0473405,21.0253,-341.112,0.435733,0.0,0.0
385,96,59.8215,66.6363,137.18,99.8788,95.0856,0.000198901,0.0471225,21.025,-341.102,0.434458,0.0,0.0
392,97.75,59.5216,66.0996,144.235,99.8868,94.9486,0.000200995,0.0468574,21.0255,-341.102,0.447901,0.0,0.0
399,99.5,58.4303,65.5149,144.272,99.9049,95.0806,0.000272152,0.046616,21.026,-341.132,0.437229,0.0,0.0
406,101.25,58.4512,64.3583,141.964,99.9113,95.1251,0.000345156,0.0464406,21.0268,-341.122,0.433659,0.0,0.0
413,103,57.7376,64.0135,140.417,99.9318,95.3116,0.000366161,0.0463216,21.0273,-341.132,0.418166,0.0,0.0
420,104.75,57.2797,63.5277,142.834,99.9466,95.1014,0.000314877,0.0463243,21.0276,-341.122,0.438984,0.0,0.0
427,106.5,57.3111,62.4253,142.983,99.9466,95.3558,0.000168439,0.0462313,21.0278,-341.122,0.41539,0.0,0.0
434,108.25,56.6212,62.5355,141.21,99.9506,95.2683,4.52672e-05,0.0461434,21.0278,-341.122,0.423847,0.0,0.0
441,110,56.0311,62.1514,144.73,99.9675,95.1934,-1.24351e-05,0.0461464,21.0278,-341.122,0.432286,0.0,0.0
448,111.75,56.2555,61.9479,141.219,99.9875,95.1972,5.09499e-05,0.0460543,21.0272,-341.152,0.433712,0.0,0.0
455,113.5,55.3567,61.5873,143.248,99.9904,95.4103,0.000189754,0.0458984,21.0266,-341.142,0.414204,0.0,0.0
462,115.25,55.1699,60.7146,142.505,99.9875,95.1651,0.000294766,0.0458581,21.0256,-341.132,0.436686,0.0,0.0
469,117,54.8444,60.1724,142.662,99.998,95.2309,0.0003682,0.0458994,21.0251,-341.152,0.431505,0.0,0.0
476,118.75,54.5596,59.7147,141.73,100.004,95.0748,0.000413734,0.0459419,21.0261,-341.142,0.446565,0.0,0.0
483,120.5,54.4693,59.731,143.719,100.036,95.2171,0.000341048,0.045941,21.0266,-341.122,0.436146,0.0,0.0
490,122.25,54.6414,58.9123,140.148,100.011,95.173,0.00021654,0.0459016,21.0268,-341.142,0.438008,0.0,0.0
497,124,54.4636,58.7428,142.022,100.012,95.2459,0.000155748,0.0457588,21.0269,-341.152,0.431319,0.0,0.0
504,125.75,53.4433,58.3921,141.35,100.002,95.285,0.00014099,0.0456484,21.027,-341.122,0.426805,0.0,0.0
511,127.5,53.2985,58.0829,138.728,100.008,95.1676,0.000201875,0.0456723,21.026,-341.132,0.438263,0.0,0.0
518,129.25,53.2584,57.6402,141.211,99.9964,95.2313,0.000384468,0.04583,21.026,-341.152,0.431324,0.0,0.0
525,131,52.9933,57.5478,142.009,99.9944,94.9357,0.000633725,0.0458946,21.0265,-341.142,0.458607,0.0,0.0
532,132.75,52.6215,57.4324,141.371,99.9787,95.1368,0.000833862,0.0459557,21.0268,-341.162,0.438534,0.0,0.0
539,134.5,52.1124,56.9632,142.113,99.9775,95.2617,0.00083677,0.0458675,21.0273,-341.162,0.42684,0.0,0.0
546,136.25,52.3937,56.9999,140.204,99.9956,95.1809,0.00069561,0.0457195,21.0276,-341.172,0.435927,0.0,0.0
553,138,51.8975,56.3732,140.996,99.943,95.6563,0.000555386,0.0457078,21.0277,-341.192,0.387272,0.0,0.0
560,139.75,51.8299,56.3161,140.24,99.9466,95.5926,0.000506862,0.0458905,21.0266,-341.182,0.393475,0.0,0.0
567,141.5,51.7773,55.8478,140.749,99.9378,94.9745,0.000577831,0.0464075,21.0262,-341.172,0.450006,0.0,0.0
574,143.25,52.0602,56.15,142.892,99.9294,95.0481,0.000620463,0.0467561,21.026,-341.182,0.44241,0.0,0.0
581,145,51.7356,54.9534,141.706,99.9069,95.1364,0.00058041,0.0467414,21.0256,-341.162,0.432225,0.0,0.0
588,146.75,51.7966,55.5764,140.847,99.8933,94.8005,0.000497234,0.0466726,21.0253,-341.172,0.462266,0.0,0.0
595,148.5,51.4836,55.7429,145.022,99.8712,95.2638,0.000515999,0.0465565,21.0259,-341.132,0.417247,0.0,0.0
602,150.25,50.7274,55.2357,146.766,99.866,94.8271,0.000582687,0.046484,21.0267,-341.162,0.457371,0.0,0.0
609,152,51.1317,54.5263,142.459,99.8303,95.0098,,0.0466174,,-341.132,0.437205,0.0,0.0
616,153.75,50.6337,54.8533,142.416,99.8066,94.6785,,0.0469933,,-341.122,0.465972,0.0,0.0
623,155.5,51.0176,54.8002,143.587,99.7958,94.8259,,,,-341.102,0.451275,0.0,0.0
630,157.25,50.8244,54.0428,137.614,99.7617,94.8883,,,,-341.112,0.44244,0.0,0.0
637,159,50.8565,54.529,142.441,99.7388,95.0003,,,,-341.152,0.429996,0.0,0.0
644,160.75,49.6261,53.1821,144.778,99.7043,94.8225,,,,-341.172,0.443483,0.0,0.0
650,162.25,50.0293,53.7213,138.976,99.663,95.1926,,,,-341.152,0.405412,0.0,0.0