File: 01_Data/XPS_Foam_Board/Cone/XPS_Foam_Insulation_Cone_HF50Scan_220412_R1.csv
Names,Time,Stack TC,Smoke TC,Exh Press,Smoke Comp,Smoke Meas,CO Meter,CO2 Meter,O2 Meter,Sample Mass,Ext Coeff,Start Test,Flame Verif
Chan Gain,,500,500,1,1,1,1,1,1,1,1,1.0,1.0
Offset,,0,0,0.134314,0,0,0,0,0,0,0,0.0,0.0
Gain,,1,1,25.011,13.1473,13.6402,1,1,1,1.00092,1.00708,1.0,1.0
Units,sec,C,C,Pa,%,%,%,%,%,g,/m,,
Baseline,,28.4032,29.6201,151.009,98.7473,93.2805,0.000766161,0.0468042,21.0214,-834.145,0.503134,,
9,2,27.3984,28.6426,147.836,99.2501,93.145,0.00087256,0.0567039,21.0118,-332.404,0.560836,0.0,0.0
18,4.25,27.609,28.7943,150.454,99.2328,92.4694,0.000981216,0.0549479,21.016,-332.454,0.623608,0.0,0.0
27,6.5,27.838,28.9674,151.151,99.2116,90.7319,0.000941851,0.0533131,21.0178,-332.565,0.789284,0.0,0.0
36,8.75,27.743,28.8664,149.47,99.1975,88.4162,0.000975505,0.0527406,21.0181,-332.625,1.01642,0.0,0.0
45,11,27.7942,28.6797,151.765,99.1823,88.7688,0.0011594,0.0522956,21.0166,-332.645,0.97991,0.0,0.0
54,13.25,28.1293,29.0267,147.01,99.1731,88.405,0.00183307,0.0524829,21.0139,-332.685,1.01537,0.0,0.0
63,15.5,27.9652,29.093,142.247,99.1325,87.4675,0.00407154,0.0726334,20.9672,-332.915,1.10593,0.0,1.0
72,17.75,28.8877,29.4098,133.786,99.1221,65.1529,0.00833048,0.165378,20.8003,-333.125,3.7069,0.0,1.0
81,20,29.8961,30.4912,133.059,99.1045,55.9747,0.0134923,0.282895,20.6421,-333.365,5.04667,0.0,1.0
90,22.25,31.5124,31.9595,131.341,99.076,56.3784,0.0189008,0.38947,20.5076,-333.595,4.98063,0.0,0.0
99,24.5,33.2178,34.052,127.318,99.0523,46.1067,0.0264178,0.493552,20.3201,-333.956,6.7553,0.0,0.0
108,26.75,36.0486,37.1586,121.406,99.0475,37.8717,0.0350552,0.670992,20.0551,-334.326,8.49299,0.0,0.0
117,29,40.3555,40.5893,106.002,99.025,33.8435,0.048126,0.878369,19.7419,-334.867,9.48443,0.0,0.0
126,31.25,45.0349,45.9291,113.381,98.9833,32.3333,0.0611264,1.13455,19.2726,-335.397,9.88398,0.0,0.0
135,33.5,50.9935,52.9008,99.3859,98.9769,30.3777,0.0715277,1.39892,18.8926,-336.098,10.4346,0.0,0.0
144,35.75,57.7626,59.4897,96.6427,98.9219,30.2853,0.0785567,1.57505,18.6867,-336.638,10.4566,0.0,0.0
153,38,63.865,66.4986,107.572,98.8826,27.011,0.0815585,1.65534,18.5891,-337.279,11.4638,0.0,0.0
162,40.25,69.4657,72.9811,99.7943,98.8216,35.0453,0.0790878,1.63896,18.6236,-337.809,9.15802,0.0,0.0
171,42.5,73.4822,78.0794,111.506,98.8417,36.4706,0.0719088,1.52559,18.7704,-338.32,8.80765,0.0,0.0
180,44.75,76.6085,81.5561,117.153,98.8621,43.2898,0.0619202,1.33542,19.0213,-338.61,7.29522,0.0,0.0
189,47,78.0271,83.5527,120.55,98.8649,48.5452,0.0517211,1.11866,19.343,-338.96,6.28329,0.0,0.0
198,49.25,78.3761,83.9343,132.153,98.8778,51.2921,0.041438,0.911624,19.7034,-339.131,5.7982,0.0,0.0
207,51.5,77.5971,84.1263,129.389,98.903,49.1617,0.0328678,0.748646,19.9698,-339.361,6.17522,0.0,0.0
216,53.75,76.8289,83.4852,137.572,98.9279,65.4942,0.0258583,0.613463,20.1817,-339.501,3.64342,0.0,0.0
225,56,76.3358,82.6919,137.824,98.9528,69.7513,0.0196384,0.504749,20.34,-339.601,3.08932,0.0,0.0
234,58.25,74.6574,81.3852,139.332,98.9773,74.933,0.014691,0.419351,20.4701,-339.711,2.45848,0.0,0.0
243,60.5,73.6185,80.0524,141.568,99.0066,71.6316,0.011402,0.356245,20.5757,-339.781,2.85913,0.0,0.0
252,62.75,72.1711,79.1573,139.681,99.0198,74.5625,0.00933871,0.306563,20.6495,-339.851,2.50605,0.0,0.0
261,65,70.3539,77.4163,145.923,99.0659,78.4588,0.00819149,0.262415,20.7148,-339.881,2.06021,0.0,0.0
270,67.25,69.6962,76.1149,144.731,99.0976,82.5598,0.00749201,0.224042,20.767,-339.921,1.61294,0.0,0.0
279,69.5,67.5655,74.7974,147.145,99.1245,84.5087,0.00678333,0.192986,20.809,-339.961,1.40922,0.0,0.0
288,71.75,66.5422,72.8685,145.019,99.1369,86.5871,0.00598772,0.168509,20.8511,-339.991,1.19569,0.0,0.0
297,74,65.2262,71.52,147.043,99.1747,88.7217,0.00528678,0.148461,20.8816,-340.051,0.983914,0.0,0.0
306,76.25,63.8038,69.9524,145.105,99.212,87.7206,0.00466315,0.134697,20.9001,-340.061,1.08748,0.0,0.0
315,78.5,61.9092,68.7602,147.339,99.2248,88.9261,0.00422952,0.124372,20.9139,-340.081,0.968052,0.0,0.0
324,80.75,61.062,67.049,146.398,99.2565,88.8945,0.0038599,0.116105,20.9295,-340.101,0.974017,0.0,0.0
333,83,59.7977,65.612,148.001,99.2954,89.0215,0.00358964,0.107336,20.9415,-340.121,0.964872,0.0,0.0
342,85.25,58.6012,64.6715,150.963,99.3127,91.2834,0.00338944,0.1015,20.9494,-340.161,0.744744,0.0,0.0
351,87.5,57.188,63.6923,149.97,99.3323,91.6414,0.00320554,0.0942079,20.9618,-340.172,0.711916,0.0,0.0
360,89.75,56.2202,62.2891,145.779,99.36,92.0048,0.00299546,0.0860517,20.9707,-340.192,0.679416,0.0,0.0
369,92,55.3547,60.7665,147.134,99.3893,92.9423,0.00259144,0.0783524,20.9813,-340.202,0.592466,0.0,0.0
378,94.25,53.6184,60.045,148.887,99.4078,93.6778,0.00201258,0.0699079,20.9947,-340.192,0.524469,0.0,0.0
387,96.5,51.6793,57.9747,144.982,99.4174,93.826,0.00152944,0.0612338,21.0066,-340.202,0.511362,0.0,0.0
396,98.75,51.7873,57.5555,147.21,99.4583,94.2585,0.00123968,0.0552275,21.0139,-340.192,0.474369,0.0,0.0
405,101,50.9821,56.5993,148.115,99.47,93.9271,0.00107032,0.051474,21.0185,-340.192,0.506512,0.0,0.0
414,103.25,50.0573,55.5939,147.471,99.4864,94.2293,0.000883995,0.0493872,21.0225,-340.212,0.479595,0.0,0.0
423,105.5,48.9166,54.9712,146.286,99.4956,94.2581,0.000749544,0.0482249,21.0241,-340.212,0.477723,0.0,0.0
432,107.75,48.1009,53.6454,147.03,99.5257,94.199,0.000767111,0.0476776,21.025,-340.202,0.485935,0.0,0.0
441,110,47.5113,53.1299,149.048,99.5302,94.1015,0.000799451,0.0472048,21.0256,-340.212,0.495467,0.0,0.0
450,112.25,46.6653,52.487,143.753,99.5458,93.9217,0.000863997,0.0467926,21.0258,-340.202,0.513754,0.0,0.0
459,114.5,45.946,51.5859,143.436,99.5594,94.0445,0.000815256,0.0464687,21.0262,-340.202,0.503421,0.0,0.0
468,116.75,45.5622,50.8595,147.009,99.5899,93.7835,0.000666483,0.0462766,21.0265,-340.222,0.530677,0.0,0.0
477,119,45.2347,50.0346,146.959,99.5779,94.0483,0.000627457,0.0463046,21.0266,-340.212,0.504706,0.0,0.0
486,121.25,44.7779,49.4493,152.161,99.5915,94.2185,0.000698648,0.046159,21.0268,-340.222,0.48994,0.0,0.0
495,123.5,43.7267,48.9771,145.763,99.6164,93.9663,0.000743897,0.0459308,21.0279,-340.222,0.51583,0.0,0.0
504,125.75,43.4695,48.3703,146.008,99.6305,93.8589,0.000734343,0.0456547,21.0281,-340.232,0.527177,0.0,0.0
513,128,43.1492,47.8129,147.467,99.6305,94.1702,0.000626636,0.045568,21.0284,-340.242,0.497919,0.0,0.0
522,130.25,42.0328,46.775,145.388,99.6449,94.4067,0.000608029,0.0454253,21.0282,-340.222,0.477047,0.0,0.0
531,132.5,41.89,46.5759,150.019,99.6561,94.2839,0.000699114,0.0453054,21.0281,-340.212,0.489542,0.0,0.0
540,134.75,41.9259,45.6691,148.758,99.6497,94.0953,0.000689325,0.0451362,21.0281,-340.212,0.506659,0.0,0.0
549,137,40.6909,45.3272,148.085,99.6529,94.4745,0.00064186,0.0449077,21.0279,-340.212,0.471412,0.0,0.0
558,139.25,40.837,44.9894,146.538,99.6618,94.2202,0.000599791,0.0448489,21.0277,-340.232,0.496009,0.0,0.0
567,141.5,40.9872,44.3253,148.335,99.6878,94.236,0.000612405,0.0447987,21.028,-340.222,0.496838,0.0,0.0
576,143.75,40.4778,44.1053,147.699,99.6545,93.9392,0.000555736,0.0446271,21.0281,-340.222,0.521753,0.0,0.0
585,146,40.3105,43.934,146.357,99.6573,94.492,0.000411242,0.044543,21.0294,-340.242,0.470169,0.0,0.0
594,148.25,39.7235,43.4226,147.255,99.6561,93.9217,0.000379584,0.0445542,21.0301,-340.222,0.523539,0.0,0.0
603,150.5,38.8932,42.8719,148.891,99.6549,94.3193,0.000429055,0.0446128,21.0298,-340.222,0.48612,0.0,0.0
612,152.75,39.2665,42.5887,150.456,99.6349,94.0978,0.000543413,0.0446624,21.0297,-340.222,0.505108,0.0,0.0
621,155,38.5047,43.0014,148.711,99.6465,94.2223,0.000748842,0.0447548,21.0296,-340.222,0.494463,0.0,0.0
630,157.25,38.754,41.976,153.22,99.6401,94.4071,0.000826718,0.0447158,21.0296,-340.232,0.476581,0.0,0.0
639,159.5,38.7002,42.3835,150.615,99.624,94.0387,0.000834441,0.0447609,21.0296,-340.232,0.509699,0.0,0.0
648,161.75,37.9869,41.6769,148.17,99.5988,93.9467,0.000734584,0.0447148,21.0284,-340.232,0.516103,0.0,0.0
657,164,38.3115,40.8509,149.622,99.5903,94.2714,0.00067633,0.0449155,21.0277,-340.222,0.484877,0.0,0.0
666,166.25,38.183,41.0338,149.735,99.5815,94.0737,0.000658287,0.0449018,21.0275,-340.232,0.502642,0.0,0.0
675,168.5,38.0708,40.8861,149.19,99.5522,94.0358,0.000542306,0.0448361,21.0273,-340.232,0.503601,0.0,0.0
684,170.75,37.5454,40.8026,151.698,99.5414,93.8963,0.000499237,0.0448954,21.0283,-340.242,0.515749,0.0,0.0
693,173,37.4033,40.3705,150.175,99.5297,94.2585,0.000527901,0.0452411,21.0291,-340.242,0.48071,0.0,0.0
702,175.25,37.1864,39.8878,149.643,99.4993,93.8722,0.00065257,0.0452405,21.0294,-340.242,0.514282,0.0,0.0
711,177.5,36.9119,39.8636,150.704,99.4547,93.9654,0.000793028,0.0451401,21.0286,-340.252,0.501557,0.0,0.0
720,179.75,36.7692,39.8274,146.156,99.4314,94.2577,0.000851146,0.0452505,21.0278,-340.252,0.472059,0.0,0.0
729,182,36.3623,39.0151,146.224,99.4042,93.8147,0.000757794,0.045132,21.0277,-340.252,0.511243,0.0,0.0
738,184.25,36.9697,39.8979,153.237,99.3456,93.6699,0.000562998,0.0452172,21.0265,-340.242,0.519687,0.0,0.0
747,186.5,36.0665,38.2773,149.39,99.2914,94.1207,0.000487755,0.0451318,21.026,-340.252,0.472454,0.0,0.0
756,188.75,36.2065,38.8396,148.601,99.2605,93.9063,0.000490298,0.0450704,21.0257,-340.242,0.48985,0.0,0.0
765,191,37.1541,38.6979,146.944,99.1899,93.4638,0.000596713,0.045141,21.0254,-340.242,0.525287,0.0,0.0
774,193.25,36.3886,38.8431,147.721,99.1293,93.6033,0.0006394,0.0453762,21.025,-340.252,0.506719,0.0,0.0
783,195.5,36.3902,38.0567,150.784,99.0924,93.4255,0.000744211,0.045549,21.0248,-340.272,0.52022,0.0,0.0
792,197.75,36.2445,38.4785,147.952,99.0346,93.7173,0.00081649,0.0454912,21.0248,-340.252,0.487519,0.0,0.0
801,200,35.8818,37.8119,144.966,98.9592,93.5234,0.000765177,0.0454731,21.0248,-340.262,0.499092,0.0,0.0
810,202.25,35.7938,38.1583,148.636,98.881,93.5637,0.000499716,0.0453032,21.0248,-340.252,0.488292,0.0,0.0
819,204.5,36.0891,38.0951,150.157,98.812,93.4905,,0.0453836,,-340.272,0.489044,0.0,0.0
828,206.75,35.6599,37.8501,145.563,98.7377,93.3577,,0.045374,,-340.272,0.494961,0.0,0.0
837,209,34.933,37.8008,148.909,98.6583,93.1791,,,,-340.262,0.504765,0.0,0.0
846,211.25,35.9677,37.586,148.552,98.6073,93.0089,,,,-340.252,0.516357,0.0,0.0
855,213.5,35.3834,37.6177,148.809,98.5403,93.0705,,,,-340.262,0.504503,0.0,0.0
862,215.25,35.7427,37.275,146.012,98.4729,93.3881,,,,-340.242,0.468363,0.0,0.0