File: 01_Data/Nylon/STA/N2/10K_min/Nylon_STA_N2_10KData_220604_R1.csv
##Temp./Â°C,Time/min,DSC(subtr.2)/(mW/mg),Mass loss(subtr.2)/mg,Sensit./(uV/mW)
49.962,10.00917,-0.000910683,-0.00713,1.06046
52.962,11.29567,0.13705,-0.00663606,1.05984
55.962,11.72873,0.20405,-0.007946921,1.0592
58.962,12.09778,0.24461,-0.006288472,1.05854
61.962,12.44202,0.27056,-0.006242927,1.05787
64.962,12.77351,0.29143,-0.00891526,1.05718
67.962,13.0992,0.30696,-0.006690424,1.05647
70.962,13.4208,0.32165,-0.01030177,1.05574
73.962,13.73875,0.32741,-0.01031218,1.055
76.962,14.0535,0.33481,-0.008940257,1.05425
79.962,14.36495,0.33816,-0.009645818,1.05347
82.962,14.6738,0.34359,-0.01226029,1.05268
85.962,14.97923,0.34485,-0.01195,1.05188
88.962,15.2824,0.35221,-0.01496024,1.05105
91.962,15.58375,0.35602,-0.01229,1.05022
94.962,15.8824,0.36075,-0.0142599,1.04936
97.962,16.1803,0.36424,-0.01425993,1.04849
100.962,16.47707,0.3744,-0.01426041,1.0476
103.962,16.7725,0.38104,-0.01553961,1.0467
106.962,17.06718,0.38411,-0.01871406,1.04578
109.962,17.36287,0.39048,-0.01492996,1.04485
112.962,17.65705,0.3961,-0.01753988,1.0439
115.962,17.9509,0.40173,-0.01752948,1.04294
118.962,18.24354,0.4078,-0.01721961,1.04196
121.962,18.5362,0.41604,-0.0162296,1.04096
124.962,18.82775,0.4216,-0.01721935,1.03995
127.962,19.1185,0.42634,-0.01886102,1.03893
130.962,19.40996,0.43126,-0.01754981,1.03788
133.962,19.70061,0.43814,-0.01821,1.03683
136.962,19.99129,0.44197,-0.01724241,1.03576
139.962,20.28122,0.44691,-0.01557997,1.03467
142.962,20.57106,0.44972,-0.01722291,1.03357
145.962,20.86041,0.45779,-0.01753465,1.03245
148.962,21.14934,0.46317,-0.01886005,1.03132
151.962,21.438,0.46986,-0.0182,1.03018
154.962,21.72595,0.47361,-0.01788067,1.02902
157.962,22.01476,0.47921,-0.01824342,1.02784
160.962,22.30069,0.48555,-0.01689592,1.02665
163.962,22.589,0.48783,-0.01819872,1.02545
166.962,22.87807,0.48927,-0.01887016,1.02423
169.962,23.1667,0.49594,-0.01983268,1.023
172.962,23.45479,0.49779,-0.01957093,1.02175
175.962,23.74183,0.50324,-0.01908094,1.02049
178.962,24.02897,0.50772,-0.01920003,1.01922
181.962,24.31624,0.50803,-0.01762135,1.01793
184.962,24.60255,0.51244,-0.01951742,1.01663
187.962,24.88867,0.51644,-0.01952,1.01531
190.962,25.1747,0.51816,-0.02083914,1.01398
193.962,25.4616,0.52184,-0.02008515,1.01264
196.962,25.74771,0.52785,-0.02053591,1.01128
199.962,26.03345,0.5311,-0.02279618,1.00991
202.962,26.3197,0.53378,-0.02413907,1.00853
205.962,26.6065,0.53875,-0.02282,1.00713
208.962,26.89283,0.54378,-0.02282,1.00572
211.962,27.17953,0.54834,-0.02282,1.0043
214.962,27.46637,0.55669,-0.0238,1.00286
217.962,27.75323,0.56226,-0.02512697,1.00141
220.962,28.03929,0.5731,-0.02380052,0.99995
223.962,28.3254,0.57933,-0.02510945,0.99847
226.962,28.6115,0.59064,-0.02535377,0.99699
229.962,28.8977,0.60236,-0.02612842,0.99548
232.962,29.1836,0.61333,-0.02679457,0.99397
235.962,29.46985,0.62994,-0.02808276,0.99245
238.962,29.75528,0.64529,-0.02938284,0.99091
241.962,30.04225,0.66296,-0.03205283,0.98936
244.962,30.3284,0.68788,-0.02807989,0.98779
247.962,30.6149,0.73579,-0.03207089,0.98622
250.962,30.9021,0.84735,-0.03241808,0.98463
253.962,31.18954,1.02841,-0.03129192,0.98303
256.962,31.4784,1.30075,-0.03422,0.98142
259.962,31.7691,1.5429,-0.0306,0.9798
262.962,32.05853,1.36384,-0.03323983,0.97816
265.962,32.34344,0.71919,-0.03455829,0.97652
268.962,32.62755,0.60705,-0.03717942,0.97486
271.962,32.91265,0.58459,-0.03586508,0.97319
274.962,33.19833,0.58211,-0.0352396,0.97151
277.962,33.4842,0.58103,-0.03882935,0.96981
280.962,33.77071,0.58256,-0.03885821,0.96811
283.962,34.05645,0.58765,-0.03750976,0.96639
286.962,34.3433,0.58816,-0.04011121,0.96467
289.962,34.63016,0.59109,-0.04175439,0.96293
292.962,34.9167,0.59459,-0.04300643,0.96118
295.962,35.20277,0.595,-0.0431,0.95942
298.962,35.49096,0.59502,-0.04309991,0.95765
301.962,35.77872,0.5949,-0.04574,0.95587
304.962,36.06678,0.59773,-0.04475,0.95408
307.962,36.35488,0.60084,-0.0473819,0.95228
310.962,36.6436,0.60357,-0.05000999,0.95047
313.962,36.93199,0.60565,-0.05041747,0.94864
316.962,37.22065,0.60623,-0.05066997,0.94681
319.962,37.5096,0.61018,-0.05400506,0.94497
322.962,37.79861,0.60973,-0.05362797,0.94311
325.962,38.08748,0.6156,-0.0562197,0.94125
328.962,38.37686,0.61524,-0.05626086,0.93937
331.962,38.6661,0.61871,-0.0589,0.93749
334.962,38.95598,0.62119,-0.05857,0.9356
337.962,39.24605,0.62603,-0.0612,0.93369
340.962,39.5366,0.62788,-0.06382273,0.93178
343.962,39.82659,0.63063,-0.06180607,0.92986
346.962,40.1169,0.63334,-0.06581,0.92793
349.962,40.4069,0.6409,-0.0677878,0.92598
352.962,40.6974,0.64935,-0.07072365,0.92403
355.962,40.9879,0.65514,-0.07502065,0.92207
358.962,41.27819,0.66124,-0.07502934,0.9201
361.962,41.56899,0.67442,-0.07765995,0.91813
364.962,41.85968,0.68288,-0.08029229,0.91614
367.962,42.15045,0.69434,-0.08367027,0.91414
370.962,42.44195,0.7033,-0.08816649,0.91214
373.962,42.7333,0.71431,-0.09177367,0.91012
376.962,43.02519,0.72886,-0.09838227,0.9081
379.962,43.31657,0.75058,-0.10235,0.90607
382.962,43.60885,0.78087,-0.11516,0.90403
385.962,43.90115,0.82562,-0.12191,0.90198
388.962,44.19337,0.87993,-0.13238,0.89992
391.962,44.48591,0.94466,-0.1512,0.89786
394.962,44.77956,1.01778,-0.17225,0.89578
397.962,45.07262,1.10323,-0.19991,0.8937
400.962,45.36607,1.19398,-0.23636,0.89161
403.962,45.65975,1.28535,-0.28102,0.88951
406.962,45.9536,1.37795,-0.33123,0.88741
409.962,46.24735,1.47907,-0.39412,0.88529
412.962,46.5413,1.59103,-0.46749,0.88317
415.962,46.8356,1.68968,-0.55354,0.88104
418.962,47.13022,1.79407,-0.65519,0.87891
421.962,47.4253,1.88199,-0.76276,0.87676
424.962,47.71997,1.95858,-0.88374,0.87461
427.962,48.01449,2.02409,-1.02306,0.87245
430.962,48.30826,2.05608,-1.16802,0.87029
433.962,48.60386,2.08685,-1.32625,0.86811
436.962,48.8984,2.11242,-1.49358,0.86593
439.962,49.19332,2.1234,-1.66791,0.86375
442.962,49.48805,2.12602,-1.85217,0.86155
445.962,49.78308,2.10496,-2.04181,0.85935
448.962,50.07829,2.08006,-2.23516,0.85714
451.962,50.37362,2.02796,-2.4328,0.85493
454.962,50.66868,1.95008,-2.63159,0.85271
457.962,50.963,1.84312,-2.82442,0.85048
460.962,51.25685,1.69901,-3.01268,0.84825
463.962,51.54995,1.51332,-3.18756,0.846
466.962,51.84233,1.28398,-3.34725,0.84376
469.962,52.13411,1.02234,-3.48227,0.8415
472.962,52.426,0.74963,-3.58935,0.83924
475.962,52.71963,0.51195,-3.66581,0.83698
478.962,53.01412,0.34768,-3.71748,0.83471
481.962,53.3097,0.24966,-3.74519,0.83243
484.962,53.6046,0.19452,-3.76416,0.83015
487.962,53.9001,0.1661,-3.7734,0.82786
490.962,54.1958,0.15219,-3.77747,0.82556
493.962,54.4924,0.1491,-3.78209,0.82326
496.962,54.7891,0.14445,-3.78439,0.82096
499.962,55.08563,0.14907,-3.78691,0.81864
502.962,55.38239,0.16992,-3.78724,0.81633
505.962,55.6789,0.16472,-3.78956,0.814
508.962,55.9771,0.15268,-3.78954,0.81168
511.962,56.27511,0.14591,-3.78796,0.80934
514.962,56.5738,0.142,-3.79316,0.80701
517.962,56.8726,0.1388,-3.79354,0.80466
520.962,57.171,0.12646,-3.79119,0.80231
523.962,57.46904,0.11951,-3.79317,0.79996
526.962,57.7683,0.11332,-3.7948,0.7976
529.962,58.06725,0.11354,-3.79612,0.79524
532.962,58.3652,0.11318,-3.79516,0.79287
535.962,58.664,0.11259,-3.7958,0.7905
538.962,58.9625,0.11565,-3.79581,0.78813
541.962,59.26166,0.11872,-3.79711,0.78575
544.962,59.5606,0.11519,-3.79711,0.78336
547.962,59.8599,0.11528,-3.79843,0.78097
550.962,60.15954,0.12204,-3.79843,0.77858
553.962,60.45879,0.12062,-3.79974,0.77618
556.962,60.7581,0.12028,-3.79975,0.77378
559.962,61.05709,0.12337,-3.79971,0.77137
562.962,61.3564,0.12182,-3.80046,0.76896
565.962,61.65616,0.12384,-3.79968,0.76655
568.962,61.9557,0.12371,-3.80209,0.76413
571.962,62.25575,0.12781,-3.80205,0.76171
574.962,62.55585,0.12937,-3.80281,0.75929
577.962,62.85555,0.12834,-3.80172,0.75686
580.962,63.1565,0.12544,-3.80404,0.75443
583.962,63.45734,0.13031,-3.80378,0.75199
586.962,63.75776,0.13064,-3.80446,0.74955
589.962,64.0581,0.13261,-3.80512,0.74711
592.962,64.35816,0.13338,-3.80348,0.74467
595.962,64.6576,0.13311,-3.80611,0.74222
598.962,64.9582,0.12939,-3.80611,0.73977
601.962,65.25831,0.13303,-3.80676,0.73731
604.962,65.5577,0.13405,-3.80705,0.73486
607.962,65.85784,0.13178,-3.80709,0.7324
610.962,66.15841,0.13075,-3.80841,0.72993
613.962,66.46011,0.13479,-3.8071,0.72747
616.962,66.7615,0.1326,-3.80849,0.725
619.962,67.06328,0.13482,-3.80743,0.72253
622.962,67.36583,0.13156,-3.80979,0.72006
625.962,67.66736,0.13522,-3.81127,0.71758
628.962,67.969,0.14047,-3.80994,0.7151
631.962,68.2705,0.13509,-3.80961,0.71262
634.962,68.57104,0.13209,-3.80863,0.71014
637.962,68.8728,0.13469,-3.80853,0.70766
640.962,69.17405,0.13433,-3.80864,0.70517
643.962,69.47529,0.13154,-3.81124,0.70268
646.962,69.77695,0.13173,-3.81168,0.70019
649.962,70.07852,0.12888,-3.81258,0.6977
652.962,70.37904,0.13029,-3.8139,0.69521
655.962,70.6814,0.1364,-3.81389,0.69271
658.962,70.98603,0.1331,-3.81258,0.69021
661.962,71.28876,0.12852,-3.8152,0.68771
664.962,71.59097,0.1325,-3.81235,0.68521
667.962,71.89217,0.13097,-3.81521,0.68271
670.962,72.19285,0.13352,-3.81356,0.68021
673.962,72.49506,0.13722,-3.81719,0.6777
676.962,72.79884,0.13478,-3.81587,0.6752
679.962,73.10185,0.1311,-3.81319,0.67269
682.962,73.40383,0.12906,-3.81374,0.67018
685.962,73.70604,0.13412,-3.8185,0.66767
688.962,74.00873,0.1298,-3.81521,0.66516
691.962,74.31233,0.12702,-3.81422,0.66265
694.962,74.61625,0.12763,-3.81686,0.66014
697.962,74.92012,0.12473,-3.81619,0.65762
700.962,75.22413,0.1275,-3.81784,0.65511
703.962,75.52754,0.12472,-3.8185,0.6526
706.962,75.83103,0.13259,-3.81807,0.65008
709.962,76.1344,0.13236,-3.81883,0.64757
712.962,76.438,0.13198,-3.81882,0.64505
715.962,76.74155,0.1306,-3.81753,0.64253
718.962,77.0462,0.12979,-3.81752,0.64002
721.962,77.3507,0.12986,-3.81888,0.6375
724.962,77.655,0.13075,-3.81883,0.63498
727.962,77.95897,0.13285,-3.82048,0.63247
730.962,78.26307,0.13235,-3.82007,0.62995
733.962,78.56533,0.13516,-3.82015,0.62743
736.962,78.86831,0.13427,-3.81942,0.62491
739.962,79.1716,0.13414,-3.81882,0.6224
742.962,79.47516,0.13509,-3.81916,0.61988
745.962,79.77976,0.13975,-3.82179,0.61736
748.062,79.99287,0.14031,-3.82323,0.6156