File: 01_Data/Nylon/STA/N2/10K_min/Nylon_STA_N2_10KData_220604_R2.csv
##Temp./Â°C,Time/min,DSC(subtr.2)/(mW/mg),Mass loss(subtr.2)/mg,Sensit./(uV/mW)
49.935,10.01,0.00689387,-0.04081,1.06047
53.035,11.3063,0.13749,-0.04801765,1.05982
56.135,11.74875,0.1999,-0.04909396,1.05916
59.235,12.12732,0.23745,-0.05020919,1.05848
62.335,12.47987,0.2628,-0.05045365,1.05778
65.435,12.82167,0.2799,-0.05230953,1.05706
68.535,13.15681,0.294,-0.05182827,1.05633
71.635,13.4873,0.30747,-0.05289817,1.05558
74.735,13.8146,0.31268,-0.05420463,1.05481
77.835,14.13843,0.32008,-0.05549782,1.05402
80.935,14.45948,0.32075,-0.05944896,1.05322
84.035,14.7775,0.32444,-0.06077315,1.0524
87.135,15.09229,0.32463,-0.06292885,1.05156
90.235,15.4038,0.3275,-0.06467445,1.0507
93.335,15.7139,0.33051,-0.06502642,1.04983
96.435,16.02226,0.33445,-0.06719622,1.04894
99.535,16.3287,0.33828,-0.06735024,1.04803
102.635,16.6347,0.3411,-0.06955239,1.0471
105.735,16.93938,0.3484,-0.07260999,1.04616
108.835,17.24385,0.35248,-0.07280174,1.0452
111.935,17.54747,0.35626,-0.07130012,1.04423
115.035,17.85078,0.36358,-0.07300899,1.04324
118.135,18.15408,0.36359,-0.07392291,1.04223
121.235,18.4567,0.36848,-0.07459,1.0412
124.335,18.7595,0.3714,-0.07590273,1.04016
127.435,19.06075,0.37733,-0.07590975,1.03911
130.535,19.3623,0.38269,-0.07583571,1.03803
133.635,19.6627,0.38798,-0.0778804,1.03694
136.735,19.96336,0.39221,-0.07866221,1.03584
139.835,20.26286,0.39784,-0.08050986,1.03472
142.935,20.56215,0.40099,-0.07854077,1.03358
146.035,20.86029,0.40744,-0.08117,1.03243
149.135,21.15865,0.41557,-0.08183001,1.03126
152.235,21.45683,0.42017,-0.08247999,1.03007
155.335,21.75564,0.42056,-0.08248321,1.02887
158.435,22.0538,0.42467,-0.08479008,1.02765
161.535,22.35211,0.42808,-0.08512587,1.02642
164.635,22.6498,0.43646,-0.08643262,1.02518
167.735,22.94674,0.43761,-0.08643,1.02391
170.835,23.24445,0.44289,-0.08670111,1.02264
173.935,23.54093,0.4456,-0.08775204,1.02135
177.035,23.83728,0.44961,-0.08675114,1.02004
180.135,24.1341,0.44748,-0.08744032,1.01872
183.235,24.43094,0.44902,-0.08775742,1.01738
186.335,24.72683,0.45149,-0.0889748,1.01603
189.435,25.02141,0.45191,-0.09289228,1.01466
192.535,25.31784,0.45614,-0.09092933,1.01328
195.635,25.61528,0.45916,-0.09135049,1.01188
198.735,25.91133,0.46079,-0.09225,1.01047
201.835,26.20663,0.46469,-0.09225,1.00905
204.935,26.50344,0.47021,-0.09319169,1.00761
208.035,26.79932,0.47357,-0.09224993,1.00616
211.135,27.0947,0.48138,-0.09487999,1.00469
214.235,27.3907,0.48912,-0.09256979,1.00321
217.335,27.6872,0.49291,-0.09389047,1.00171
220.435,27.9823,0.4985,-0.09586856,1.00021
223.535,28.27768,0.50763,-0.09487605,0.99868
226.635,28.57312,0.51756,-0.09752303,0.99715
229.735,28.8687,0.52838,-0.09565001,0.9956
232.835,29.16362,0.53742,-0.09697,0.99404
235.935,29.46032,0.55175,-0.09827284,0.99246
239.035,29.7562,0.56867,-0.09762014,0.99087
242.135,30.0522,0.58677,-0.09894,0.98927
245.235,30.3483,0.61534,-0.09861434,0.98765
248.335,30.6445,0.6698,-0.09992012,0.98602
251.435,30.9401,0.79607,-0.0996,0.98438
254.535,31.2375,0.99052,-0.10254,0.98273
257.635,31.5358,1.25678,-0.1029,0.98106
260.735,31.8357,1.48646,-0.10321,0.97938
263.835,32.13405,1.07852,-0.10321,0.97768
266.935,32.4272,0.60276,-0.10552,0.97598
270.035,32.7209,0.52521,-0.10585,0.97426
273.135,33.01577,0.51089,-0.10688,0.97253
276.235,33.31126,0.51067,-0.10651,0.97079
279.335,33.60715,0.50838,-0.10521,0.96904
282.435,33.90318,0.51153,-0.10925,0.96727
285.535,34.19938,0.51357,-0.10892,0.96549
288.635,34.49558,0.51208,-0.10925,0.9637
291.735,34.79207,0.51337,-0.11059,0.9619
294.835,35.08863,0.5177,-0.1099,0.96009
297.935,35.38523,0.51935,-0.10925,0.95826
301.035,35.68217,0.52076,-0.11187,0.95642
304.135,35.97932,0.52324,-0.11315,0.95458
307.235,36.27694,0.52436,-0.11325,0.95272
310.335,36.57423,0.52824,-0.11418,0.95085
313.435,36.8717,0.53023,-0.11583,0.94896
316.535,37.16945,0.53318,-0.11715,0.94707
319.635,37.46752,0.5366,-0.11781,0.94517
322.735,37.76494,0.53867,-0.11879,0.94325
325.835,38.06255,0.54123,-0.12075,0.94133
328.935,38.36057,0.54461,-0.12131,0.93939
332.035,38.6592,0.54871,-0.12151,0.93745
335.135,38.9581,0.54909,-0.12198,0.93549
338.235,39.2562,0.55067,-0.12426,0.93352
341.335,39.55658,0.55145,-0.12611,0.93154
344.435,39.8564,0.55385,-0.12723,0.92955
347.535,40.156,0.55671,-0.1292,0.92756
350.635,40.4555,0.56089,-0.13184,0.92555
353.735,40.75574,0.56807,-0.13151,0.92353
356.835,41.05556,0.57544,-0.13406,0.9215
359.935,41.3559,0.585,-0.13774,0.91946
363.035,41.65699,0.60102,-0.13812,0.91742
366.135,41.95773,0.61624,-0.14205,0.91536
369.235,42.2584,0.63938,-0.14685,0.91329
372.335,42.5588,0.68431,-0.14874,0.91121
375.435,42.85972,0.73361,-0.15477,0.90913
378.535,43.1612,0.7698,-0.16224,0.90703
381.635,43.46315,0.79758,-0.16886,0.90493
384.735,43.7672,0.8108,-0.17824,0.90282
387.835,44.0713,0.82773,-0.19057,0.90069
390.935,44.3754,0.86598,-0.20647,0.89856
394.035,44.67908,0.93152,-0.22719,0.89642
397.135,44.98319,1.00662,-0.25512,0.89428
400.235,45.28695,1.09401,-0.2916,0.89212
403.335,45.59052,1.1764,-0.3354,0.88995
406.435,45.89419,1.27425,-0.38893,0.88778
409.535,46.19814,1.37979,-0.45614,0.8856
412.635,46.5022,1.39125,-0.52751,0.8834
415.735,46.80601,1.45064,-0.61243,0.88121
418.835,47.1082,1.50996,-0.69946,0.879
421.935,47.41215,1.58197,-0.80271,0.87678
425.035,47.71695,1.65938,-0.91537,0.87456
428.135,48.02279,1.72145,-1.04194,0.87233
431.235,48.32783,1.77839,-1.18622,0.87009
434.335,48.6327,1.8269,-1.33996,0.86784
437.435,48.93822,1.85756,-1.50539,0.86559
440.535,49.24324,1.87239,-1.68326,0.86333
443.635,49.54786,1.88088,-1.8685,0.86106
446.735,49.85281,1.89161,-2.06465,0.85878
449.835,50.15551,1.87917,-2.26367,0.8565
452.935,50.45984,1.8458,-2.47159,0.85421
456.035,50.7662,1.78864,-2.67979,0.85191
459.135,51.07095,1.70138,-2.88701,0.84961
462.235,51.37559,1.57837,-3.09067,0.8473
465.335,51.67991,1.41164,-3.28184,0.84498
468.435,51.9835,1.19124,-3.45803,0.84265
471.535,52.28682,0.92496,-3.61066,0.84032
474.635,52.59004,0.63504,-3.72846,0.83798
477.735,52.8928,0.39595,-3.80973,0.83564
480.835,53.19611,0.2323,-3.86593,0.83329
483.935,53.4997,0.13756,-3.89703,0.83093
487.035,53.80375,0.08446252,-3.91468,0.82856
490.135,54.1085,0.06090543,-3.92472,0.8262
493.235,54.41404,0.04972362,-3.93049,0.82382
496.335,54.71957,0.05063019,-3.93444,0.82144
499.435,55.0255,0.05328902,-3.93839,0.81905
502.535,55.3328,0.03178837,-3.93935,0.81666
505.635,55.6404,0.0322329,-3.94069,0.81426
508.735,55.94856,0.004924726,-3.9407,0.81185
511.835,56.2564,-0.02150676,-3.94168,0.80944
514.935,56.5634,-0.03280406,-3.94168,0.80703
518.035,56.87138,-0.03120841,-3.94432,0.80461
521.135,57.1792,-0.02865444,-3.94562,0.80218
524.235,57.48734,-0.02360133,-3.94631,0.79975
527.335,57.79484,-0.01933154,-3.94499,0.79731
530.435,58.10306,-0.01546047,-3.94822,0.79487
533.535,58.412,-0.01779895,-3.94692,0.79242
536.635,58.7209,-0.01449009,-3.94683,0.78997
539.735,59.02926,-0.01135225,-3.94574,0.78751
542.835,59.3393,-0.01183811,-3.94839,0.78505
545.935,59.6483,-0.01587315,-3.94805,0.78259
549.035,59.95769,-0.01673325,-3.94903,0.78012
552.135,60.2669,-0.01739074,-3.94936,0.77764
555.235,60.57676,-0.0151624,-3.9487,0.77516
558.335,60.8855,-0.01687541,-3.94925,0.77268
561.435,61.19322,-0.01747415,-3.9487,0.77019
564.535,61.5036,-0.01579962,-3.95133,0.7677
567.635,61.8125,-0.01610768,-3.95067,0.7652
570.735,62.12236,-0.01662296,-3.95143,0.7627
573.835,62.4325,-0.01491781,-3.95265,0.7602
576.935,62.7435,-0.01353094,-3.95218,0.75769
580.035,63.05369,-0.01483368,-3.95484,0.75518
583.135,63.3648,-0.01656125,-3.95484,0.75266
586.235,63.67493,-0.01570618,-3.95359,0.75014
589.335,63.98457,-0.01475901,-3.95583,0.74762
592.435,64.29462,-0.01746204,-3.95585,0.7451
595.535,64.60446,-0.01626465,-3.95594,0.74257
598.635,64.9147,-0.01813675,-3.95496,0.74003
601.735,65.2248,-0.0201548,-3.95699,0.7375
604.835,65.53482,-0.01824078,-3.95609,0.73496
607.935,65.8461,-0.01598464,-3.96014,0.73242
611.035,66.15767,-0.02010319,-3.95748,0.72987
614.135,66.46882,-0.01741348,-3.95649,0.72733
617.235,66.7805,-0.01995809,-3.95498,0.72478
620.335,67.09183,-0.01886835,-3.95765,0.72222
623.435,67.40279,-0.02167538,-3.95865,0.71967
626.535,67.7145,-0.01832569,-3.95934,0.71711
629.635,68.02558,-0.02100089,-3.96074,0.71455
632.735,68.33715,-0.02264578,-3.95914,0.71198
635.835,68.64887,-0.0212351,-3.96033,0.70942
638.935,68.96089,-0.02464275,-3.96033,0.70685
642.035,69.2735,-0.02396701,-3.96231,0.70428
645.135,69.58514,-0.02538909,-3.9623,0.70171
648.235,69.8966,-0.01762317,-3.96164,0.69913
651.335,70.208,-0.01603882,-3.96165,0.69656
654.435,70.51953,-0.02143171,-3.96263,0.69398
657.535,70.83122,-0.0203811,-3.96093,0.6914
660.635,71.1438,-0.02239575,-3.96472,0.68882
663.735,71.4564,-0.02567884,-3.96407,0.68624
666.835,71.7693,-0.02860409,-3.96338,0.68365
669.935,72.08161,-0.02563547,-3.9636,0.68106
673.035,72.39575,-0.0296683,-3.96603,0.67848
676.135,72.70895,-0.027021,-3.96512,0.67589
679.235,73.0224,-0.02858071,-3.96503,0.6733
682.335,73.33618,-0.02889836,-3.96438,0.6707
685.435,73.65013,-0.02864277,-3.96505,0.66811
688.535,73.96288,-0.02651224,-3.96876,0.66552
691.635,74.27551,-0.03102262,-3.96485,0.66292
694.735,74.58793,-0.03681123,-3.96504,0.66033
697.835,74.90047,-0.0331631,-3.96504,0.65773
700.935,75.2127,-0.03084305,-3.96636,0.65513
704.035,75.52563,-0.03065533,-3.96745,0.65253
707.135,75.83925,-0.03499224,-3.96636,0.64994
710.235,76.15309,-0.03451849,-3.96777,0.64734
713.335,76.467,-0.03712342,-3.96768,0.64474
716.435,76.7811,-0.03431149,-3.96571,0.64214
719.535,77.09528,-0.03545829,-3.96852,0.63954
722.635,77.41026,-0.0412736,-3.9679,0.63694
725.735,77.72403,-0.04319731,-3.96757,0.63433
728.835,78.0377,-0.04999633,-3.96757,0.63173
731.935,78.35112,-0.0530349,-3.96626,0.62913
735.035,78.66466,-0.05755298,-3.96857,0.62653
738.135,78.9785,-0.05735228,-3.96856,0.62393
741.235,79.29255,-0.06075004,-3.96955,0.62133
744.335,79.60641,-0.06123429,-3.96822,0.61873
747.435,79.92047,-0.06146721,-3.96822,0.61613
748.135,79.99138,-0.05919491,-3.96719,0.61554