File: 01_Data/Basswood_Panel/MCC/Basswood_Panel_MCC_30K_min_211117_R2.txt
Sample ID:	C:\MCC\MCC Cal\Test\Basswood_Panel_MCC_30K_min_211117_R2.txt
Sample Weight (mg):	4.78
Heating Rate (C/s):	0.5
Combustor Temp (C):	900
N2 Flow Rate (cc/min):	80
O2 Flow Rate (cc/min):	20
Calibration File:	C:\MCC\MCC Cal\Coeff1 JN10440_30_210304.txt.txt
T Correction Coefficients:	0	1.024463	0
Time Shift (s):	14
*
Time (s)	Temperature (C)	N2 flow rate (cc/min)	O2 flow rate (cc/min)	Flow Rate (cc/min)	Oxygen (%)	HRR (W/g)	Heating rate (C/s)
0.000	108.663	80.002	19.996	103.002	19.894	-0.183	0.006
8.000	108.637	80.002	19.995	103.013	19.893	-0.067	-0.003
16.000	108.595	80.002	19.995	103.012	19.892	-0.005	-0.007
24.000	108.649	80.002	19.994	103.095	19.886	0.362	0.023
32.000	108.935	80.002	19.995	103.170	19.870	1.442	0.073
40.000	109.747	80.002	19.994	103.214	19.858	2.295	0.130
48.000	110.994	80.003	19.996	103.259	19.851	2.770	0.206
56.000	112.770	80.003	19.995	103.262	19.843	3.264	0.228
64.000	115.005	80.003	19.995	103.274	19.846	3.053	0.284
72.000	117.629	80.006	19.996	103.259	19.847	3.035	0.361
80.000	120.487	80.004	19.996	103.273	19.848	2.919	0.396
88.000	123.571	80.001	19.996	103.258	19.844	3.217	0.373
96.000	126.777	80.002	19.996	103.262	19.845	3.141	0.384
104.000	130.242	80.004	19.995	103.269	19.842	3.342	0.429
112.000	133.808	80.003	19.996	103.270	19.848	2.977	0.476
120.000	137.470	80.002	19.995	103.282	19.846	3.090	0.464
128.000	141.165	80.003	19.995	103.265	19.841	3.426	0.482
136.000	145.005	80.004	19.995	103.261	19.843	3.262	0.490
144.000	148.804	80.004	19.995	103.260	19.839	3.542	0.476
152.000	152.729	80.004	19.995	103.256	19.838	3.635	0.478
160.000	156.549	80.003	19.995	103.256	19.837	3.691	0.476
168.000	160.527	80.002	19.995	103.260	19.839	3.583	0.521
176.000	164.458	80.002	19.995	103.246	19.838	3.623	0.497
184.000	168.454	80.003	19.997	103.235	19.838	3.591	0.485
192.000	172.378	80.002	19.995	103.236	19.836	3.763	0.487
200.000	176.302	80.002	19.996	103.229	19.835	3.839	0.469
208.000	180.212	80.003	19.995	103.223	19.836	3.732	0.467
216.000	184.112	80.004	19.994	103.220	19.832	4.033	0.465
224.000	188.137	80.003	19.996	103.220	19.834	3.921	0.516
232.000	192.036	80.002	19.994	103.222	19.829	4.239	0.495
240.000	195.912	80.004	19.996	103.221	19.827	4.344	0.487
248.000	199.820	80.002	19.996	103.225	19.824	4.554	0.486
256.000	203.738	80.001	19.995	103.225	19.824	4.553	0.478
264.000	207.750	80.002	19.996	103.220	19.819	4.882	0.491
272.000	211.702	80.003	19.997	103.219	19.816	5.088	0.482
280.000	215.687	80.001	19.996	103.218	19.808	5.658	0.479
288.000	219.627	80.004	19.995	103.218	19.807	5.684	0.499
296.000	223.537	80.003	19.996	103.218	19.804	5.915	0.484
304.000	227.495	80.003	19.996	103.223	19.800	6.206	0.521
312.000	231.464	80.003	19.996	103.223	19.797	6.380	0.479
320.000	235.499	80.006	19.994	103.220	19.791	6.762	0.504
328.000	239.490	80.002	19.996	103.220	19.782	7.422	0.509
336.000	243.419	80.002	19.994	103.219	19.777	7.758	0.497
344.000	247.440	80.000	19.996	103.223	19.768	8.364	0.516
352.000	251.499	80.000	19.995	103.219	19.755	9.193	0.497
360.000	255.537	80.001	19.995	103.225	19.741	10.135	0.525
368.000	259.537	80.003	19.997	103.223	19.718	11.709	0.498
376.000	263.513	80.004	19.995	103.230	19.697	13.090	0.486
384.000	267.547	80.002	19.995	103.239	19.671	14.891	0.517
392.000	271.594	80.004	19.995	103.259	19.643	16.790	0.536
400.000	275.608	80.004	19.995	103.263	19.612	18.856	0.487
408.000	279.609	80.002	19.995	103.289	19.574	21.452	0.514
416.000	283.597	80.003	19.995	103.297	19.536	23.980	0.493
424.000	287.601	80.002	19.995	103.300	19.495	26.731	0.525
432.000	291.608	80.001	19.995	103.324	19.453	29.598	0.502
440.000	295.606	80.001	19.996	103.330	19.418	31.933	0.532
448.000	299.580	80.002	19.994	103.340	19.382	34.398	0.520
456.000	303.596	80.003	19.995	103.336	19.360	35.862	0.500
464.000	307.605	80.002	19.996	103.334	19.340	37.207	0.498
472.000	311.664	80.004	19.996	103.336	19.319	38.605	0.544
480.000	315.731	80.005	19.995	103.340	19.304	39.622	0.521
488.000	319.776	80.004	19.995	103.339	19.281	41.221	0.475
496.000	323.795	80.002	19.995	103.360	19.254	43.049	0.524
504.000	327.789	80.001	19.995	103.369	19.218	45.452	0.530
512.000	331.796	80.003	19.995	103.380	19.178	48.162	0.516
520.000	335.763	80.003	19.996	103.412	19.120	52.075	0.517
528.000	339.689	80.001	19.996	103.421	19.059	56.240	0.465
536.000	343.652	80.003	19.995	103.453	18.983	61.361	0.490
544.000	347.632	80.003	19.994	103.468	18.902	66.844	0.510
552.000	351.706	80.002	19.996	103.494	18.827	71.979	0.514
560.000	356.012	80.002	19.997	103.531	18.750	77.178	0.537
568.000	360.302	80.004	19.995	103.531	18.698	80.614	0.537
576.000	364.640	80.002	19.995	103.514	18.674	82.203	0.541
584.000	368.800	80.004	19.995	103.479	18.719	79.116	0.607
592.000	373.289	80.002	19.995	103.398	18.827	71.752	0.558
600.000	377.549	80.004	19.995	103.303	19.005	59.765	0.475
608.000	381.727	80.002	19.993	103.238	19.228	44.693	0.538
616.000	385.792	80.004	19.994	103.180	19.440	30.401	0.497
624.000	389.872	80.003	19.995	103.153	19.596	19.932	0.503
632.000	393.908	80.002	19.995	103.145	19.686	13.843	0.520
640.000	397.782	80.004	19.995	103.143	19.734	10.603	0.471
648.000	401.573	80.003	19.996	103.142	19.750	9.570	0.454
656.000	405.332	80.003	19.996	103.138	19.761	8.786	0.470
664.000	409.016	80.004	19.996	103.139	19.770	8.177	0.463
672.000	412.769	80.003	19.996	103.142	19.775	7.859	0.459
680.000	416.552	80.002	19.996	103.143	19.783	7.313	0.434
688.000	420.478	80.001	19.996	103.145	19.784	7.238	0.492
696.000	424.390	80.004	19.994	103.145	19.787	7.017	0.480
704.000	428.424	80.004	19.995	103.140	19.787	7.040	0.528
712.000	432.488	80.003	19.995	103.148	19.790	6.849	0.496
720.000	436.700	80.004	19.995	103.141	19.794	6.597	0.528
728.000	440.939	80.008	19.995	103.141	19.800	6.186	0.519
736.000	445.255	80.001	19.995	103.139	19.800	6.150	0.554
744.000	449.523	80.001	19.997	103.139	19.808	5.665	0.555
752.000	453.766	80.003	19.998	103.141	19.806	5.743	0.545
760.000	458.017	80.002	19.996	103.141	19.814	5.200	0.520
768.000	462.156	80.001	19.995	103.131	19.817	5.022	0.505
776.000	466.171	80.001	19.995	103.134	19.817	5.011	0.487
784.000	470.170	80.005	19.994	103.123	19.826	4.448	0.517
792.000	474.143	80.004	19.994	103.134	19.827	4.337	0.518
800.000	478.054	80.005	19.995	103.132	19.830	4.123	0.453
808.000	482.069	80.006	19.995	103.124	19.827	4.364	0.510
816.000	486.004	80.004	19.995	103.134	19.829	4.250	0.509
824.000	490.035	80.003	19.996	103.132	19.832	4.041	0.512
832.000	494.064	80.001	19.997	103.124	19.833	3.951	0.486
840.000	498.177	80.002	19.997	103.128	19.830	4.179	0.519
848.000	502.267	80.002	19.995	103.119	19.836	3.747	0.516
856.000	506.274	80.001	19.995	103.134	19.836	3.765	0.516
864.000	510.376	80.004	19.995	103.134	19.838	3.621	0.503
872.000	514.490	80.004	19.994	103.122	19.835	3.805	0.530
880.000	518.643	80.003	19.995	103.123	19.836	3.743	0.506
888.000	522.780	80.006	19.995	103.142	19.838	3.598	0.520
896.000	526.850	80.004	19.994	103.118	19.835	3.821	0.509
904.000	530.941	80.002	19.995	103.130	19.839	3.534	0.496
912.000	535.054	80.002	19.994	103.132	19.840	3.477	0.550
920.000	539.166	80.003	19.996	103.119	19.837	3.710	0.540
928.000	543.283	80.003	19.996	103.114	19.838	3.596	0.544
936.000	547.354	80.002	19.995	103.126	19.838	3.645	0.519
944.000	551.506	80.004	19.995	103.126	19.840	3.503	0.536
952.000	555.625	80.004	19.996	103.119	19.838	3.586	0.530
960.000	559.776	80.003	19.995	103.116	19.839	3.519	0.513
968.000	563.894	80.004	19.994	103.115	19.838	3.646	0.527
976.000	568.040	80.005	19.994	103.114	19.841	3.441	0.551
984.000	572.107	80.002	19.994	103.113	19.838	3.617	0.474
992.000	576.298	80.003	19.996	103.113	19.839	3.539	0.516
1000.000	580.409	80.005	19.994	103.115	19.839	3.542	0.520
1008.000	584.488	80.003	19.996	103.107	19.841	3.392	0.516
1016.000	588.606	80.002	19.995	103.112	19.839	3.546	0.531
1024.000	592.711	80.003	19.996	103.107	19.836	3.761	0.507
1032.000	596.841	80.004	19.996	103.109	19.838	3.606	0.517
1040.000	600.940	80.004	19.996	103.106	19.834	3.875	0.513
1048.000	605.015	80.004	19.995	103.108	19.837	3.664	0.498
1056.000	609.142	80.006	19.994	103.115	19.841	3.394	0.517
1064.000	613.266	80.003	19.996	103.104	19.840	3.476	0.508
1072.000	617.381	80.003	19.996	103.110	19.839	3.566	0.491
1080.000	621.474	80.003	19.995	103.111	19.838	3.590	0.497
1088.001	625.588	80.002	19.995	103.108	19.840	3.461	0.508
1096.000	629.665	80.002	19.996	103.112	19.842	3.368	0.514
1104.001	633.783	80.004	19.994	103.117	19.838	3.599	0.523
1112.000	637.944	80.005	19.995	103.108	19.842	3.359	0.516
1120.000	642.001	80.002	19.996	103.103	19.838	3.608	0.509
1128.000	646.085	80.005	19.996	103.103	19.840	3.506	0.491
1136.000	650.174	80.015	19.993	103.103	19.837	3.709	0.511
1144.001	654.222	80.040	20.009	103.153	19.839	3.567	0.508
1152.000	658.294	80.002	19.997	103.113	19.834	3.884	0.503
1160.000	662.327	80.004	19.995	103.107	19.830	4.183	0.510
1168.000	666.355	80.003	19.994	103.115	19.834	3.855	0.493
1176.000	670.390	80.003	19.997	103.109	19.838	3.613	0.492
1184.000	674.421	80.003	19.995	103.105	19.835	3.813	0.488
1192.000	678.456	80.005	19.994	103.101	19.831	4.093	0.490
1200.000	682.441	80.003	19.995	103.103	19.833	3.977	0.496
1208.001	686.510	80.004	19.996	103.102	19.835	3.800	0.572
1216.000	690.531	80.006	19.995	103.103	19.836	3.735	0.525
1224.000	694.576	80.004	19.995	103.104	19.834	3.884	0.499
1232.000	698.665	80.003	19.995	103.108	19.836	3.724	0.518
1240.000	702.659	80.001	19.994	103.107	19.838	3.613	0.489
1248.000	706.708	80.003	19.995	103.104	19.832	4.004	0.506
1256.000	710.748	80.003	19.994	103.109	19.830	4.171	0.507
1264.000	714.758	80.003	19.995	103.102	19.835	3.802	0.502
1272.000	718.830	80.003	19.995	103.103	19.831	4.082	0.534
1280.001	722.804	80.003	19.995	103.100	19.832	4.051	0.462
1288.000	726.783	80.003	19.995	103.104	19.829	4.220	0.498
1296.001	730.845	80.005	19.995	103.102	19.832	4.005	0.512
1304.000	734.878	80.004	19.997	103.101	19.828	4.305	0.518
1312.000	738.878	80.003	19.996	103.084	19.830	4.170	0.490
1320.000	742.882	80.003	19.995	103.102	19.831	4.100	0.495
1321.500	743.679	80.003	19.995	103.103	19.834	3.915	0.525