File: 01_Data/Window_Screen/Cone/Window_Screen_Cone_HF25Scan_220524_R3.csv
Names,Time,Stack TC,Smoke TC,Exh Press,Smoke Comp,Smoke Meas,CO Meter,CO2 Meter,O2 Meter,Sample Mass,Ext Coeff,Start Test,Flame Verif
Chan Gain,,500,500,1,1,1,1,1,1,1,1,1.0,1.0
Offset,,0,0,0.13752,0,0,0,0,0,0,0,0.0,0.0
Gain,,1,1,25.011,13.8491,15.2622,1,1,1,1.00087,1.03118,1.0,1.0
Units,sec,C,C,Pa,%,%,%,%,%,g,/m,,
Baseline,,24.6693,25.3352,143.048,105.227,105.042,0.000494231,0.0428335,21.0035,-450.259,0.0159878,,
6,1.25,22.3977,23.1597,144.505,105.092,104.45,0.00229746,0.0490712,20.986,553.302,0.0554958,0.0,0.0
12,2.75,22.4509,22.9892,137.519,105.075,88.6257,0.00477235,0.0663587,20.9492,553.001,1.53998,0.0,1.0
18,4.25,22.5139,23.0172,133.885,105.063,94.4874,0.0067585,0.0910135,20.9179,553.001,0.959692,0.0,1.0
24,5.75,22.7987,23.4948,137.866,105.023,84.2541,0.0079142,0.108151,20.9012,552.841,1.99315,0.0,1.0
30,7.25,23.4873,23.0451,136.547,104.997,98.186,0.00775141,0.113801,20.8931,552.901,0.606689,0.0,1.0
36,8.75,22.2489,21.7687,139.103,104.975,101.519,0.00670492,0.104824,20.9096,552.851,0.302757,0.0,0.0
42,10.25,22.3857,21.9724,141.883,104.957,103.27,0.00518085,0.0891971,20.935,552.881,0.146599,0.0,0.0
48,11.75,21.0918,20.9232,144.398,104.92,104.179,0.0038459,0.075349,20.9544,552.851,0.0641029,0.0,0.0
54,13.25,21.2695,20.8898,141.584,104.901,104.416,0.00282319,0.064514,20.968,552.931,0.0419822,0.0,0.0
60,14.75,20.6124,20.6048,141.186,104.865,104.443,0.00214845,0.0572346,20.9786,552.921,0.0364712,0.0,0.0
66,16.25,20.6198,20.7732,143.75,104.864,104.241,0.00162091,0.0526135,20.9858,552.951,0.0538785,0.0,0.0
72,17.75,20.2744,20.4445,137.266,104.846,104.224,0.00120369,0.0498368,20.9903,552.871,0.0538463,0.0,0.0
78,19.25,20.5475,21.1884,143.983,104.83,104.227,0.000908945,0.0483815,20.9931,552.861,0.0521375,0.0,0.0
84,20.75,20.8618,21.1503,140.001,104.813,104.48,0.000730186,0.0476217,20.9945,552.841,0.0287558,0.0,0.0
90,22.25,20.8781,20.6077,144.643,104.805,104.272,0.000608323,0.0471561,20.9953,552.901,0.0461425,0.0,0.0
96,23.75,21.088,21.0637,140.922,104.801,104.229,0.000522099,0.0466651,20.9966,552.881,0.0494998,0.0,0.0
102,25.25,20.4732,21.4393,144.278,104.803,104.381,0.000507073,0.0461293,20.9977,552.871,0.0364744,0.0,0.0
108,26.75,20.8614,21.352,143.24,104.799,104.251,0.000582545,0.045581,20.9991,552.851,0.0474544,0.0,0.0
114,28.25,20.6951,21.0886,141.053,104.797,104.109,0.000686482,0.0450098,20.9999,552.821,0.0595696,0.0,0.0
120,29.75,20.7117,21.3845,147.029,104.81,104.197,0.000744139,0.0445253,21.0003,552.821,0.0530874,0.0,0.0
126,31.25,20.7125,20.9981,145.356,104.819,104.18,0.000715642,0.0442194,21.0005,552.821,0.0553094,0.0,0.0
132,32.75,20.7314,21.1416,144.051,104.841,104.316,0.000657613,0.0439675,21.0012,552.781,0.0454054,0.0,0.0
138,34.25,20.2527,21.0093,142.106,104.856,104.126,0.000639961,0.0437677,21.0021,552.801,0.0631735,0.0,0.0
144,35.75,19.9813,21.0495,141.086,104.882,104.412,0.000698076,0.0435678,21.0025,552.781,0.0406254,0.0,0.0
150,37.25,20.4456,20.3301,143.941,104.883,104.413,0.000802613,0.0433522,21.0027,552.801,0.0405804,0.0,0.0
156,38.75,20.3845,20.8099,143.292,104.917,104.466,0.000868768,0.0432271,21.0029,552.791,0.0388981,0.0,0.0
162,40.25,20.4241,20.883,138.695,104.928,104.633,0.000866719,0.043199,21.0029,552.771,0.0254961,0.0,0.0
168,41.75,20.1633,21.2343,144.26,104.95,104.398,0.000773112,0.0431381,21.003,552.791,0.0476658,0.0,0.0
174,43.25,20.4571,21.4474,142.728,104.971,104.632,0.000685842,0.0431732,21.003,552.801,0.0292147,0.0,0.0
180,44.75,20.0496,20.7608,145.262,105.001,104.461,0.000666897,0.0432113,21.003,552.791,0.0466263,0.0,0.0
186,46.25,20.3358,20.9344,144.371,105.013,104.771,0.000699254,0.0432458,21.003,552.871,0.0208283,0.0,0.0
192,47.75,20.2234,21.0879,141.942,105.046,105.142,0.00070777,0.0432641,21.003,552.881,-0.00821178,0.0,0.0
198,49.25,20.0355,21.2464,145.547,105.07,104.605,0.000643304,0.0431998,21.0022,552.831,0.0401821,0.0,0.0
204,50.75,20.0282,20.6983,142.196,105.078,104.603,0.000490864,0.0432269,21.0012,552.841,0.0409206,0.0,0.0
210,52.25,20.2138,21.2878,145.289,105.086,104.64,0.000346261,0.0432396,21.0006,552.861,0.0384675,0.0,0.0
216,53.75,20.2228,20.8883,143.557,105.108,104.645,0.000218268,0.0432499,21.0002,552.851,0.0399921,0.0,0.0
222,55.25,20.502,21.4027,139.385,105.132,104.629,0.000146698,0.043235,21.0001,552.871,0.0433613,0.0,0.0
228,56.75,19.9744,20.8193,144.545,105.131,104.495,0.000175959,0.0432228,21.0006,552.851,0.0548892,0.0,0.0
234,58.25,20.1546,20.7305,142.902,105.132,104.627,0.000326451,0.0432163,21.0013,552.871,0.0435223,0.0,0.0
240,59.75,19.7871,20.4848,142.438,105.141,104.499,0.000464964,0.043132,21.0017,552.861,0.0554798,0.0,0.0
246,61.25,19.7746,20.4525,141.146,105.135,104.801,0.000630956,0.0430283,21.0019,552.871,0.0287697,0.0,0.0
252,62.75,19.6734,20.9667,141.868,105.13,104.435,0.000805028,0.0428777,21.0028,552.861,0.0599466,0.0,0.0
258,64.25,20.0031,20.9361,145.898,105.128,104.703,0.00091578,0.0427713,21.0034,552.831,0.0367107,0.0,0.0
264,65.75,19.714,21.0634,146.152,105.111,104.93,0.000904302,0.042898,21.0037,552.821,0.0156015,0.0,0.0
270,67.25,20.0509,20.9975,143.929,105.111,104.782,0.00083117,0.0429692,21.0038,552.831,0.0283054,0.0,0.0
276,68.75,20.3894,20.8163,141.917,105.096,104.825,0.000776479,0.0429471,21.0039,552.831,0.0233712,0.0,0.0
282,70.25,19.9656,20.5553,142.777,105.095,104.805,0.00079716,0.0430235,21.004,552.841,0.0250295,0.0,0.0
288,71.75,20.5726,20.723,143.355,105.064,104.586,0.000765936,0.0430911,21.0036,552.831,0.0412512,0.0,0.0
294,73.25,20.5732,20.871,140.474,105.065,104.604,0.000658905,0.0432188,21.0027,552.851,0.0397859,0.0,0.0
300,74.75,19.8655,20.5418,143.884,105.016,104.356,0.000557924,0.0433644,21.0022,552.871,0.0570165,0.0,0.0
306,76.25,20.3353,20.8155,141.874,104.993,104.893,0.000547691,0.0435406,21.002,552.851,0.00866111,0.0,0.0
312,77.75,19.8098,20.6807,144.329,104.985,104.459,0.000573664,0.0436736,21.0027,552.831,0.0453679,0.0,0.0
318,79.25,20.433,21.0134,140.853,104.955,104.181,0.000565852,0.043737,21.0029,552.841,0.0670051,0.0,0.0
324,80.75,20.0995,20.7347,138.742,104.931,104.71,0.000557964,0.0436913,21.0028,552.851,0.01911,0.0,0.0
330,82.25,20.3321,20.7424,142.574,104.918,104.599,0.000577246,0.0436917,21.003,552.821,0.027597,0.0,0.0
336,83.75,20.7005,20.8022,142.43,104.892,104.512,0.000603635,0.0437302,21.0028,552.831,0.0328319,0.0,0.0
342,85.25,20.5581,20.9607,139.229,104.886,104.366,0.000630037,0.0437448,21.0016,552.871,0.0449494,0.0,0.0
348,86.75,19.9907,21.3476,142.709,104.854,104.355,0.000654371,0.0438103,21.0012,552.831,0.0431842,0.0,0.0
354,88.25,20.2365,21.0251,138.762,104.855,104.732,0.000651255,0.0437464,21.001,552.841,0.010614,0.0,0.0
360,89.75,19.7628,20.5608,143.32,104.818,104.684,0.000592346,0.0437276,21.0013,552.831,0.0115897,0.0,0.0
366,91.25,20.2464,21.3463,141.626,104.806,104.378,0.000543425,0.0437339,21.0011,552.821,0.0370479,0.0,0.0
372,92.75,20.2245,20.9873,145.787,104.795,104.517,0.000528799,0.0436774,21.0007,552.811,0.0240433,0.0,0.0
378,94.25,20.4456,21.0913,142.014,104.784,104.927,0.000519559,0.0437402,21,552.811,-0.0123491,0.0,0.0
384,95.75,20.4022,21.1527,144.292,104.76,104.574,0.000486325,0.0439157,20.9993,552.771,0.0160536,0.0,0.0
390,97.25,20.1386,20.7647,141.348,104.751,104.274,0.00046197,0.0440398,20.999,552.801,0.0413103,0.0,0.0
396,98.75,20.5422,20.8294,141.015,104.74,104.184,0.000473823,0.0440629,20.9988,552.771,0.0481634,0.0,0.0
402,100.25,20.6015,20.4359,143.255,104.73,104.496,0.000495595,0.044019,20.9987,552.801,0.0202731,0.0,0.0
408,101.75,20.3669,21.3741,140.074,104.731,104.123,0.000520529,0.0439263,20.9986,552.741,0.0526993,0.0,0.0
414,103.25,20.1898,21.8045,146.185,104.715,104.453,0.000518307,0.0439192,20.9986,552.751,0.0226699,0.0,0.0
420,104.75,19.5303,20.8588,142.432,104.72,104.302,0.000470974,0.0438388,20.9986,552.791,0.0362221,0.0,0.0
426,106.25,19.9481,21.0407,142.624,104.711,104.182,0.000391527,0.0435331,20.9986,552.781,0.0458099,0.0,0.0
432,107.75,20.2545,21.4304,144.389,104.724,104.375,0.000348042,0.0434315,20.9995,552.811,0.0302519,0.0,0.0
438,109.25,20.4675,20.94,141.541,104.731,104.19,0.000366271,0.0434281,21.0004,552.791,0.0468741,0.0,0.0
444,110.75,20.4283,21.074,141.064,104.72,104.632,0.000392986,0.0433662,21.0009,552.771,0.00766889,0.0,0.0
450,112.25,20.2926,20.9703,145.149,104.723,104.316,0.00041157,0.0433209,21.0011,552.761,0.0351523,0.0,0.0
456,113.75,20.5918,21.2526,141.082,104.751,104.476,0.000398986,0.0431947,21.0015,552.781,0.023796,0.0,0.0
462,115.25,20.2752,20.9104,143.628,104.735,103.919,0.000335779,0.0431413,21.0019,552.781,0.070804,0.0,0.0
468,116.75,20.3938,21.0456,143.083,104.739,104.286,0.00024299,0.0431129,21.002,552.771,0.0392427,0.0,0.0
474,118.25,20.6159,21.336,143.126,104.749,104.424,0.000225492,0.0431016,21.0021,552.771,0.0280872,0.0,0.0
480,119.75,20.9642,21.3956,145.723,104.745,104.378,,0.0430428,,552.781,0.0317166,0.0,0.0
486,121.25,21.1794,20.9698,139.283,104.73,104.659,,0.0429545,,552.801,0.00613671,0.0,0.0
492,122.75,20.798,21.3099,143.823,104.736,104.641,,,,552.791,0.00821403,0.0,0.0
498,124.25,20.9708,21.2837,146.787,104.725,104.546,,,,552.801,0.0154831,0.0,0.0
504,125.75,21.1595,21.483,139.776,104.731,104.492,,,,552.781,0.0206658,0.0,0.0
510,127.25,20.8101,21.24,145.166,104.745,104.149,,,,552.801,0.0516347,0.0,0.0
516,128.75,20.8343,21.6499,141.24,104.755,104.325,,,,552.771,0.0371585,0.0,0.0
522,130.25,20.6529,21.6903,140.513,104.773,104.221,,,,552.801,0.0477387,0.0,0.0