File: 01_Data/Window_Screen/Cone/Window_Screen_Cone_HF25Scan_220524_R4.csv
Names,Time,Stack TC,Smoke TC,Exh Press,Smoke Comp,Smoke Meas,CO Meter,CO2 Meter,O2 Meter,Sample Mass,Ext Coeff,Start Test,Flame Verif
Chan Gain,,500,500,1,1,1,1,1,1,1,1,1.0,1.0
Offset,,0,0,0.13752,0,0,0,0,0,0,0,0.0,0.0
Gain,,1,1,25.011,13.8491,15.2622,1,1,1,1.00087,1.03118,1.0,1.0
Units,sec,C,C,Pa,%,%,%,%,%,g,/m,,
Baseline,,24.2929,24.9291,142.975,104.522,104.378,0.000618374,0.0429603,21.0016,-450.233,0.0125314,,
6,1.25,19.9762,20.6927,142.76,105.193,105.008,0.00234208,0.0530253,20.9886,570.407,0.0159556,0.0,0.0
12,2.75,20.2263,20.906,137.287,105.205,94.0738,0.00418945,0.0673832,20.9745,570.337,1.01155,0.0,0.0
18,4.25,19.9784,20.8529,135.565,105.197,96.9946,0.00676337,0.0856072,20.9385,570.146,0.734291,0.0,1.0
24,5.75,20.5412,20.929,134.692,105.207,89.7855,0.00828457,0.10919,20.9083,570.146,1.43373,0.0,1.0
30,7.25,21.4823,21.5871,138.243,105.209,87.3882,0.00840731,0.121896,20.8922,570.056,1.67878,0.0,1.0
36,8.75,20.772,20.4682,142.907,105.209,101.406,0.00747424,0.120794,20.8959,570.196,0.333005,0.0,1.0
42,10.25,20.4554,20.8441,140.314,105.214,103.83,0.00578068,0.105995,20.9155,570.046,0.119772,0.0,0.0
48,11.75,19.7066,20.3232,154.381,105.226,104.563,0.00426988,0.0905781,20.9385,570.106,0.0572233,0.0,0.0
54,13.25,19.5701,19.9694,143.85,105.208,104.913,0.00308539,0.0772202,20.9588,570.056,0.0253746,0.0,0.0
60,14.75,19.4102,19.8202,142.814,105.221,105.09,0.0022102,0.0670592,20.9734,570.076,0.0112516,0.0,0.0
66,16.25,19.3607,19.4381,141.588,105.219,105.105,0.00159613,0.0600617,20.9816,570.046,0.00978679,0.0,0.0
72,17.75,19.495,20.0704,143.619,105.207,105,0.00116369,0.0551951,20.9876,570.036,0.0178725,0.0,0.0
78,19.25,19.0467,19.516,147.391,105.193,104.99,0.000910291,0.0519679,20.9913,570.066,0.0174399,0.0,0.0
84,20.75,19.2297,19.2753,140.947,105.183,104.368,0.000835119,0.0502934,20.9939,570.076,0.0703739,0.0,0.0
90,22.25,19.4423,20.1073,143.42,105.176,104.594,0.000863574,0.0496483,20.9958,570.076,0.0502365,0.0,0.0
96,23.75,18.9086,19.3688,142.135,105.162,104.742,0.000907636,0.0492598,20.9967,570.066,0.0362403,0.0,0.0
102,25.25,18.895,19.7394,143.625,105.151,104.799,0.000934284,0.0485752,20.9972,570.066,0.0302723,0.0,0.0
108,26.75,19.3782,19.7365,139.354,105.134,105.119,0.000951887,0.0476774,20.9975,570.066,0.0012777,0.0,0.0
114,28.25,19.0749,19.7749,144.694,105.141,104.783,0.000915136,0.0469752,20.9983,570.066,0.0309203,0.0,0.0
120,29.75,18.9728,19.7488,139.725,105.133,104.832,0.000855622,0.0463697,20.9991,570.036,0.0259359,0.0,0.0
126,31.25,19.1033,19.278,140.916,105.104,104.934,0.000822575,0.0461246,20.9996,570.026,0.0146617,0.0,0.0
132,32.75,18.8699,19.6748,141.632,105.108,104.769,0.000785717,0.0459838,20.9998,570.036,0.02929,0.0,0.0
138,34.25,18.9134,19.1838,142.686,105.114,104.844,0.000692378,0.0460679,21,570.046,0.0232141,0.0,0.0
144,35.75,18.9666,19.7199,142.729,105.076,104.666,0.000569684,0.0462946,20.999,570.026,0.0354165,0.0,0.0
150,37.25,18.7449,19.4254,141.571,105.08,104.788,0.000479697,0.04666,20.9984,570.046,0.0252047,0.0,0.0
156,38.75,18.8086,19.858,144.378,105.041,104.585,0.000433867,0.0469201,20.9982,570.056,0.0393264,0.0,0.0
162,40.25,18.8309,19.4977,142.504,105.043,104.587,0.000428612,0.0468549,20.9985,570.056,0.039306,0.0,0.0
168,41.75,18.8638,19.365,143.07,104.999,105.352,0.000499293,0.0464145,20.9989,570.046,-0.0303426,0.0,0.0
174,43.25,18.7037,19.2932,141.538,104.993,104.694,0.00063439,0.0458647,20.9991,570.036,0.0258671,0.0,0.0
180,44.75,18.9722,19.2987,139.952,104.963,104.756,0.000737171,0.0452468,21.0001,570.056,0.0178553,0.0,0.0
186,46.25,18.6274,19.3793,139.436,104.947,104.954,0.000751195,0.0446441,21.0008,570.046,-0.000645928,0.0,0.0
192,47.75,18.7893,19.4319,145.604,104.903,104.563,0.000696415,0.0442314,21.0011,570.066,0.0294233,0.0,0.0
198,49.25,18.885,19.9968,141.054,104.895,105.008,0.000656695,0.0437795,21.0021,570.056,-0.00966624,0.0,0.0
204,50.75,19.1209,19.6555,143.85,104.845,104.523,0.000655002,0.0433928,21.0032,570.066,0.0278227,0.0,0.0
210,52.25,19.0636,20.0007,143.979,104.828,104.213,0.000645609,0.0429894,21.0041,570.056,0.0532042,0.0,0.0
216,53.75,18.4702,19.426,143.552,104.799,104.642,0.000597428,0.0426784,21.0054,570.056,0.0136475,0.0,0.0
222,55.25,18.5783,19.5232,145.546,104.771,104.574,0.000456876,0.0424071,21.0061,570.066,0.0170427,0.0,0.0
228,56.75,18.7842,19.4299,142.79,104.761,104.483,0.000318846,0.0423073,21.0064,570.106,0.024067,0.0,0.0
234,58.25,18.154,19.1599,141.256,104.726,104.798,0.000245723,0.0423601,21.0066,570.066,-0.00622396,0.0,0.0
240,59.75,18.4556,19.156,141.553,104.713,104.555,0.000238516,0.0422706,21.0068,570.096,0.0136174,0.0,0.0
246,61.25,18.5503,19.0289,143.3,104.708,104.28,0.000285365,0.0422276,21.0065,570.096,0.0370254,0.0,0.0
252,62.75,18.6136,19.481,145.621,104.71,104.418,0.000348185,0.0423242,21.0062,570.046,0.025294,0.0,0.0
258,64.25,19.0064,19.5518,142.484,104.694,104.345,0.000433968,0.042376,21.0062,570.076,0.0302433,0.0,0.0
264,65.75,18.5084,19.5172,140.529,104.689,104.431,0.000537937,0.0424219,21.0059,569.986,0.0223386,0.0,0.0
270,67.25,18.362,19.2797,143.714,104.695,104.594,0.000567893,0.0424918,21.005,570.016,0.0087042,0.0,0.0
276,68.75,18.2675,19.284,141.516,104.7,104.37,0.000544753,0.0425181,21.0044,569.996,0.0285741,0.0,0.0
282,70.25,18.8934,19.1228,138.74,104.696,104.843,0.000493276,0.0424977,21.0041,570.056,-0.0127108,0.0,0.0
288,71.75,18.4072,19.5526,142.415,104.726,104.228,0.000454504,0.0425407,21.0039,570.046,0.0430447,0.0,0.0
294,73.25,20.4804,20.8343,143.146,104.73,104.383,0.000418473,0.0425261,21.0038,570.036,0.0300756,0.0,0.0
300,74.75,20.6212,21.2517,143.81,104.759,104.536,0.000440284,0.0425683,21.0038,570.026,0.0192122,0.0,0.0
306,76.25,21.0082,21.1768,142.561,104.772,104.691,0.000530471,0.0426578,21.0037,570.006,0.0070095,0.0,0.0
312,77.75,19.741,20.5038,142.04,104.793,104.513,0.000645985,0.0426556,21.0037,570.076,0.0241788,0.0,0.0
318,79.25,20.3589,20.6217,142.954,104.8,104.502,0.000724354,0.0426654,21.0037,570.046,0.0258069,0.0,0.0
324,80.75,20.0806,20.2903,143.904,104.828,104.67,0.000765433,0.042707,21.0037,570.006,0.0136357,0.0,0.0
330,82.25,20.2499,20.3882,142.67,104.821,104.7,0.000802786,0.0428006,21.0036,570.016,0.0104363,0.0,0.0
336,83.75,20.1455,20.7365,139.794,104.848,104.761,0.000811643,0.0428227,21.0037,570.056,0.00750405,0.0,0.0
342,85.25,20.2427,20.624,142.494,104.878,104.696,0.000822193,0.042809,21.0033,570.046,0.0156445,0.0,0.0
348,86.75,19.9388,20.6346,143.746,104.878,104.506,0.00083222,0.04284,21.0031,570.036,0.0321539,0.0,0.0
354,88.25,19.9476,20.3002,139.815,104.88,104.846,0.000783743,0.0429543,21.003,570.036,0.0029185,0.0,0.0
360,89.75,20.0727,20.9523,139.321,104.914,104.787,0.000701661,0.043047,21.0029,570.026,0.010935,0.0,0.0
366,91.25,20.4225,20.8934,145.659,104.947,104.494,0.000652509,0.0430737,21.0029,570.016,0.0391375,0.0,0.0
372,92.75,20.0866,20.8189,140.784,104.977,104.491,0.000639223,0.0430679,21.003,570.026,0.0420101,0.0,0.0
378,94.25,20.0753,20.7589,143.844,105.011,104.88,0.000631887,0.0430649,21.0034,570.026,0.0113184,0.0,0.0
384,95.75,20.4566,20.6769,141.847,105.03,104.492,0.000590809,0.0430459,21.0035,570.046,0.0464364,0.0,0.0
390,97.25,20.3788,20.2633,141.687,105.06,104.376,0.000570533,0.0430887,21.0036,570.016,0.0590693,0.0,0.0
396,98.75,20.5207,20.8275,141.801,105.064,104.587,0.000575168,0.0430851,21.0037,570.036,0.0411707,0.0,0.0
402,100.25,20.4546,21.0622,140.936,105.091,105.001,0.000574231,0.0431925,21.0037,570.066,0.00779387,0.0,0.0
408,101.75,20.2883,20.7076,143.239,105.103,105.054,0.000563106,0.0433619,21.0037,570.016,0.00427663,0.0,0.0
414,103.25,19.9933,20.7453,144.305,105.132,104.962,0.000533324,0.0434647,21.0037,569.976,0.0146531,0.0,0.0
420,104.75,19.9221,20.378,145.713,105.127,105.701,0.000488527,0.0434405,21.0037,570.016,-0.0492571,0.0,0.0
426,106.25,20.3634,20.292,143.555,105.147,105.039,0.000446002,0.0434486,21.0026,569.976,0.00934192,0.0,0.0
432,107.75,20.3098,21.1253,144.791,105.141,104.83,0.00042779,0.0433427,21.0021,569.996,0.026824,0.0,0.0
438,109.25,20.4913,20.3349,143.779,105.159,105.231,0.000447689,0.0432464,21.0018,570.026,-0.00618727,0.0,0.0
444,110.75,20.2851,20.513,143.667,105.13,105.08,0.000482043,0.0432906,21.0016,570.036,0.00428201,0.0,0.0
450,112.25,20.2048,20.8033,143.688,105.125,105.294,0.000495958,0.0433921,21.0015,570.036,-0.0145354,0.0,0.0
456,113.75,20.125,20.8419,145.769,105.097,105.161,0.000494324,0.043464,21.0015,570.016,-0.00545194,0.0,0.0
462,115.25,19.8831,20.7096,142.341,105.079,104.698,0.000517072,0.0434454,21.0015,570.006,0.0328544,0.0,0.0
468,116.75,20.3377,21.0409,144.164,105.044,104.343,0.000565839,0.0434354,21.0014,570.006,0.0605122,0.0,0.0
474,118.25,19.9001,20.7417,142.673,104.996,105.084,0.000643371,0.0434885,21.0019,570.016,-0.00749679,0.0,0.0
480,119.75,20.1721,20.8571,142.731,104.943,104.689,,0.0435005,,570.006,0.0219363,0.0,0.0
486,121.25,20.6056,20.7651,141.661,104.865,104.6,,0.0433997,,570.026,0.0229603,0.0,0.0
492,122.75,20.8073,20.9303,142.97,104.783,104.749,,,,570.016,0.00292928,0.0,0.0
498,124.25,20.0222,21.0232,145.795,104.701,104.558,,,,569.976,0.0124308,0.0,0.0
504,125.75,19.8876,20.477,142.851,104.605,104.253,,,,569.916,0.0304926,0.0,0.0
510,127.25,20.2082,20.8188,141.587,104.484,104.178,,,,569.926,0.0265832,0.0,0.0
516,128.75,19.8936,20.8628,142.482,104.361,104.014,,,,569.916,0.0301756,0.0,0.0
522,130.25,19.6934,20.775,144.507,104.268,104.043,,,,569.916,0.0195652,0.0,0.0
523,130.5,19.9945,20.4791,142.004,104.266,104.066,,,,569.916,0.0173581,0.0,0.0