File: 01_Data/Window_Screen/Cone/Window_Screen_Cone_HF25Scan_220524_R1.csv
Names,Time,Stack TC,Smoke TC,Exh Press,Smoke Comp,Smoke Meas,CO Meter,CO2 Meter,O2 Meter,Sample Mass,Ext Coeff,Start Test,Flame Verif
Chan Gain,,500,500,1,1,1,1,1,1,1,1,1.0,1.0
Offset,,0,0,0.13752,0,0,0,0,0,0,0,0.0,0.0
Gain,,1,1,25.011,13.8491,15.2622,1,1,1,1.00087,1.03118,1.0,1.0
Units,sec,C,C,Pa,%,%,%,%,%,g,/m,,
Baseline,,20.9815,21.4792,144.521,103.491,103.087,0.0005598,0.0438072,21.0039,-449.745,0.0353994,,
6,1.25,20.0665,21.4223,145.365,103.743,103.263,0.00381234,0.0513695,20.9953,48.4522,0.0419543,0.0,0.0
12,2.75,19.7666,20.5707,144.757,103.766,102.737,0.00973379,0.064451,20.9697,48.3421,0.0901239,0.0,0.0
18,4.25,19.8895,20.3586,131.838,103.792,67.3589,0.0149675,0.105238,20.8858,47.9217,3.9108,0.0,1.0
24,5.75,20.7986,20.7879,132.978,103.824,69.4441,0.0185066,0.157354,20.8206,47.9117,3.6379,0.0,1.0
30,7.25,21.9718,21.4303,140.468,103.846,73.2508,0.0177719,0.181323,20.7859,47.8216,3.15709,0.0,1.0
36,8.75,23.2016,22.1649,140.429,103.892,100.418,0.0150653,0.180036,20.7886,47.8316,0.307616,0.0,1.0
42,10.25,21.8266,21.4195,147.55,103.909,103.322,0.0111771,0.155827,20.8329,47.8517,0.051208,0.0,0.0
48,11.75,21.6868,21.6108,145.408,103.952,104.002,0.00813993,0.127408,20.8812,47.8517,-0.00433744,0.0,0.0
54,13.25,20.2216,19.8874,143.608,103.985,104.104,0.00576411,0.101622,20.9196,47.8316,-0.0103366,0.0,0.0
60,14.75,20.4281,19.2018,140.323,104.029,103.871,0.00406788,0.0833708,20.9483,47.8817,0.0137767,0.0,0.0
66,16.25,20.9739,20.0262,143.088,104.058,103.757,0.00291453,0.0707473,20.9673,47.8517,0.0262219,0.0,0.0
72,17.75,19.7315,20.4106,142.546,104.106,104.075,0.00217103,0.0622428,20.9795,47.8717,0.00275465,0.0,0.0
78,19.25,18.757,18.9364,143.58,104.122,104.152,0.00166243,0.0569317,20.9873,47.8817,-0.00260772,0.0,0.0
84,20.75,18.8315,19.4439,143.612,104.181,104.332,0.00126374,0.0538197,20.9918,47.8717,-0.0131066,0.0,0.0
90,22.25,19.0778,18.6128,141.887,104.206,103.965,0.00100732,0.05188,20.9953,47.8717,0.0208982,0.0,0.0
96,23.75,18.9482,18.8357,141.484,104.25,104.278,0.000881192,0.0507431,20.9968,47.8717,-0.00236449,0.0,0.0
102,25.25,18.568,19.0924,144.876,104.273,103.916,0.000816553,0.0501869,20.9976,47.8717,0.0310235,0.0,0.0
108,26.75,19.0073,19.7638,142.751,104.324,103.964,0.000783498,0.0498463,20.998,47.8717,0.0312459,0.0,0.0
114,28.25,18.7434,19.2844,143.67,104.344,103.914,0.000787602,0.0494034,20.9982,47.8517,0.0374227,0.0,0.0
120,29.75,19.0044,19.445,147.007,104.39,104.131,0.000809391,0.0488319,20.9983,47.8216,0.0224688,0.0,0.0
126,31.25,19.1701,19.1549,144.05,104.417,104.151,0.000842024,0.0481973,20.9984,47.8416,0.0230324,0.0,0.0
132,32.75,18.5675,18.8487,143.515,104.46,104.317,0.000866714,0.0476731,20.9984,47.8216,0.0123737,0.0,0.0
138,34.25,18.8014,19.2771,144.596,104.505,104.194,0.000891626,0.047394,20.999,47.8216,0.0269605,0.0,0.0
144,35.75,18.7783,18.9896,145.694,104.545,104.576,0.000872469,0.0479521,20.9996,47.8216,-0.00262444,0.0,0.0
150,37.25,18.3003,18.8962,139.874,104.593,104.357,0.000814924,0.049256,20.9988,47.8316,0.0204248,0.0,0.0
156,38.75,18.8595,19.0996,146.023,104.63,104.578,0.000729956,0.0504768,20.9984,47.8216,0.00456224,0.0,0.0
162,40.25,18.9025,19.2368,141.117,104.667,104.176,0.000623546,0.0512109,20.9981,47.8517,0.0425747,0.0,0.0
168,41.75,18.7219,18.7143,142.994,104.693,104.205,0.000605552,0.0514688,20.998,47.8416,0.0422945,0.0,0.0
174,43.25,18.7302,18.8215,137.202,104.744,104.484,0.000690412,0.0511722,20.9979,47.8717,0.0225258,0.0,0.0
180,44.75,18.6726,19.1316,141.272,104.771,104.391,0.000794486,0.0505485,20.9987,47.8517,0.0328534,0.0,0.0
186,46.25,18.2577,19.5935,142.887,104.828,104.526,0.000868053,0.0495998,20.999,47.8416,0.0260413,0.0,0.0
192,47.75,18.2954,19.1147,146.186,104.836,104.901,0.000912836,0.0488539,20.9996,47.8416,-0.00565424,0.0,0.0
198,49.25,18.946,19.1542,144.882,104.862,104.629,0.000949521,0.0479518,21.0005,47.8316,0.0201322,0.0,0.0
204,50.75,18.2018,19.5681,141.439,104.872,104.884,0.000943382,0.0469118,21.001,47.8416,-0.0010692,0.0,0.0
210,52.25,18.3533,18.9401,141.607,104.91,104.818,0.000924864,0.0459589,21.0021,47.8617,0.00791345,0.0,0.0
216,53.75,18.4584,18.9524,140.01,104.914,104.831,0.000936887,0.0451777,21.0028,47.8717,0.00715604,0.0,0.0
222,55.25,18.5114,19.2029,149.547,104.966,105.006,0.000953838,0.0445794,21.0033,47.8917,-0.00338489,0.0,0.0
228,56.75,17.8616,19.2526,141.793,104.988,104.91,0.000930115,0.0440807,21.0047,47.8917,0.00670565,0.0,0.0
234,58.25,18.0899,19.1997,141.135,105.055,104.791,0.000877239,0.0436511,21.0055,47.8917,0.0227387,0.0,0.0
240,59.75,18.4449,18.755,143.332,105.084,104.889,0.000809077,0.0433784,21.006,47.8817,0.0167747,0.0,0.0
246,61.25,18.2655,18.4282,143.216,105.137,104.765,0.000716337,0.0430673,21.0072,47.8416,0.0320486,0.0,0.0
252,62.75,18.1961,18.6674,140.067,105.157,105.061,0.000673114,0.042931,21.0079,47.8517,0.00832931,0.0,0.0
258,64.25,18.6253,19.0402,145.752,105.218,105.014,0.000693829,0.0429584,21.0083,47.8617,0.0176142,0.0,0.0
264,65.75,17.8701,19.2368,142.977,105.257,104.803,0.000713171,0.0430739,21.0083,47.8316,0.0391085,0.0,0.0
270,67.25,18.2122,18.8811,146.196,105.318,104.921,0.000715683,0.0430964,21.0075,47.8617,0.0341318,0.0,0.0
276,68.75,18.2303,19.2913,144.455,105.347,104.952,0.000724445,0.0431046,21.007,47.8517,0.0339503,0.0,0.0
282,70.25,18.5137,18.7676,143.117,105.385,105.057,0.000764977,0.0430592,21.0068,47.8717,0.0282237,0.0,0.0
288,71.75,18.614,18.839,144.005,105.409,105.167,0.000815737,0.0429803,21.0066,47.8617,0.0207562,0.0,0.0
294,73.25,18.4554,18.7427,141.166,105.447,105.045,0.00083551,0.0430429,21.0066,47.8216,0.0344852,0.0,0.0
300,74.75,18.7628,18.9027,142.974,105.472,105.392,0.000792109,0.0430725,21.0065,47.8316,0.00683387,0.0,0.0
306,76.25,17.992,19.263,141.956,105.508,105.696,0.000695272,0.0431876,21.0065,47.8416,-0.0160394,0.0,0.0
312,77.75,18.7263,19.1215,144.031,105.523,105.457,0.000623412,0.0432902,21.0063,47.8517,0.00566041,0.0,0.0
318,79.25,18.1976,19.5549,144.976,105.542,105.168,0.000576712,0.04336,21.0051,47.8617,0.0321335,0.0,0.0
324,80.75,18.1588,18.8916,141.489,105.555,105.774,0.000528557,0.0434218,21.0044,47.8416,-0.018749,0.0,0.0
330,82.25,18.6498,19.007,144.005,105.565,105.488,0.000515277,0.043418,21.0042,47.8517,0.00656881,0.0,0.0
336,83.75,18.3313,19.2508,141.655,105.588,105.227,0.00049286,0.0434535,21.005,47.8416,0.0309945,0.0,0.0
342,85.25,18.5449,19.0601,142.469,105.58,105.282,0.00047799,0.0435529,21.0054,47.8316,0.0255069,0.0,0.0
348,86.75,18.204,19.4047,144.765,105.583,105.244,0.00055658,0.0435399,21.0055,47.8517,0.0290825,0.0,0.0
354,88.25,18.5065,19.1267,147.559,105.568,105.277,0.000677486,0.0435366,21.0053,47.8316,0.0249327,0.0,0.0
360,89.75,18.4734,18.706,141.671,105.551,105.302,0.000839174,0.0435631,21.0051,47.8216,0.021364,0.0,0.0
366,91.25,18.1779,18.821,142.337,105.531,105.415,0.000942105,0.0435703,21.0051,47.8016,0.00994513,0.0,0.0
372,92.75,18.1146,18.6573,151.347,105.533,105.31,0.000934562,0.0435768,21.005,47.7716,0.0191229,0.0,0.0
378,94.25,17.7612,18.9822,141.26,105.5,105.226,0.000835935,0.0434879,21.005,47.8116,0.0235411,0.0,0.0
384,95.75,18.2503,18.749,145.011,105.482,105.529,0.00066086,0.043327,21.005,47.7816,-0.00404185,0.0,0.0
390,97.25,18.2013,19.5464,144.662,105.442,105.338,0.000485359,0.0433151,21.0048,47.7716,0.00893474,0.0,0.0
396,98.75,18.7324,19.0652,141.692,105.397,105.374,0.000435533,0.0433151,21.0038,47.7215,0.00193535,0.0,0.0
402,100.25,18.4774,18.9364,138.973,105.34,105.386,0.000508132,0.0433445,21.0033,47.6715,-0.00388974,0.0,0.0
408,101.75,18.4867,18.8758,142.877,105.288,104.888,0.000573394,0.043358,21.003,47.8216,0.0344057,0.0,0.0
414,103.25,18.783,18.4987,143.714,105.216,105.247,0.000634932,0.0433852,21.0039,47.8116,-0.00264116,0.0,0.0
420,104.75,17.7408,18.5453,144.766,105.155,105.33,0.000643363,0.0434132,21.0043,47.7816,-0.0150376,0.0,0.0
426,106.25,18.3617,18.9454,143.934,105.085,104.859,0.000626717,0.0435222,21.0045,47.7716,0.0194511,0.0,0.0
432,107.75,18.4374,18.9907,143.989,105.007,105.303,0.000619758,0.0435596,21.0047,47.8216,-0.0254509,0.0,0.0
438,109.25,18.6217,18.6946,143.05,104.939,104.62,0.000644042,0.043579,21.0048,47.8316,0.0276067,0.0,0.0
444,110.75,18.1016,18.9955,144.091,104.878,104.497,0.000671763,0.0436282,21.0048,47.7916,0.0328835,0.0,0.0
450,112.25,18.4322,19.1664,141.266,104.821,104.251,0.000690286,0.0436338,21.0048,47.7816,0.0493872,0.0,0.0
456,113.75,18.3729,18.7788,140.477,104.771,104.872,0.000691342,0.0437071,21.0048,47.8216,-0.00870125,0.0,0.0
462,115.25,18.706,18.9234,141.684,104.737,104.332,0.000661784,0.0437567,21.0048,47.8517,0.0350567,0.0,0.0
468,116.75,18.4486,18.818,141.48,104.709,104.792,0.000643449,0.0437207,21.0048,47.8216,-0.00712123,0.0,0.0
474,118.25,18.4889,19.3917,139.333,104.692,104.15,0.000667498,0.0437597,21.005,47.8316,0.0469567,0.0,0.0
480,119.75,18.4165,19.1355,141.04,104.773,104.717,0.000685654,0.0438598,21.0053,47.8316,0.00486616,0.0,0.0
486,121.25,18.8352,19.0267,142.132,104.866,104.649,,0.0439564,,47.8116,0.0187291,0.0,0.0
492,122.75,18.6041,19.0859,139.039,104.964,104.554,,0.0438995,,47.7916,0.0354359,0.0,0.0
498,124.25,18.1911,19.0971,142.22,105.027,104.734,,,,47.7816,0.0253198,0.0,0.0
504,125.75,18.3202,19.3067,145.904,105.076,104.991,,,,47.7716,0.00732735,0.0,0.0
510,127.25,18.4265,18.9251,144.618,105.114,105.084,,,,47.7616,0.0025757,0.0,0.0
516,128.75,18.4604,19.082,143.447,105.148,104.789,,,,47.7916,0.0309386,0.0,0.0
522,130.25,18.2943,18.942,141.347,105.177,104.73,,,,47.7816,0.0385147,0.0,0.0
524,130.75,18.6949,19.046,141.04,105.17,104.804,,,,47.7616,0.0315468,0.0,0.0