File: 01_Data/Window_Screen/Cone/Window_Screen_Cone_HF50Scan_220524_R2.csv
Names,Time,Stack TC,Smoke TC,Exh Press,Smoke Comp,Smoke Meas,CO Meter,CO2 Meter,O2 Meter,Sample Mass,Ext Coeff,Start Test,Flame Verif
Chan Gain,,500,500,1,1,1,1,1,1,1,1,1.0,1.0
Offset,,0,0,0.13752,0,0,0,0,0,0,0,0.0,0.0
Gain,,1,1,25.011,13.8491,15.2622,1,1,1,1.00087,1.03118,1.0,1.0
Units,sec,C,C,Pa,%,%,%,%,%,g,/m,,
Baseline,,34.0764,35.311,137.909,103.441,104.266,0.000623715,0.0428266,20.9992,-450.64,-0.0718908,,
6,1.25,29.9454,31.4821,120.829,103.397,76.0715,0.0112352,0.0962031,20.9223,552.391,2.77609,0.0,1.0
12,2.75,31.3212,32.1076,127.438,103.412,69.4651,0.0134345,0.136843,20.8901,552.321,3.5992,0.0,1.0
18,4.25,32.3903,32.8282,134.953,103.417,102.061,0.0129442,0.141031,20.8729,552.361,0.119419,0.0,1.0
24,5.75,31.1826,31.6174,134.136,103.447,102.74,0.010766,0.121536,20.8972,552.341,0.0620523,0.0,0.0
30,7.25,30.96,31.4264,139.571,103.431,104.355,0.00828162,0.0984288,20.9225,552.341,-0.0804516,0.0,0.0
36,8.75,29.5282,30.6536,136.249,103.471,104.121,0.00599907,0.0797852,20.9458,552.331,-0.0566918,0.0,0.0
42,10.25,29.6561,30.1345,137.767,103.471,104.395,0.00445317,0.0671525,20.9651,552.311,-0.0804522,0.0,0.0
48,11.75,29.3731,30.6307,137.355,103.507,103.821,0.00340617,0.0586476,20.9782,552.481,-0.027378,0.0,0.0
54,13.25,29.5437,30.5019,135.516,103.519,104.089,0.00271799,0.0534143,20.9858,552.351,-0.0496513,0.0,0.0
60,14.75,30.4502,31.1875,135.867,103.558,103.85,0.00215852,0.0503542,20.9926,552.301,-0.025466,0.0,0.0
66,16.25,30.5528,31.8974,136.887,103.565,104.454,0.00182215,0.048596,20.9952,552.341,-0.0773379,0.0,0.0
72,17.75,30.7654,31.364,132.968,103.595,104.222,0.0015187,0.0473695,20.9974,552.331,-0.0545338,0.0,0.0
78,19.25,30.2038,31.3338,136.418,103.615,104.192,0.00134352,0.0467337,20.9992,552.321,-0.0502091,0.0,0.0
84,20.75,30.2755,31.5767,139.316,103.653,104.372,0.00127443,0.0460724,21.0001,552.331,-0.062564,0.0,0.0
90,22.25,30.4566,31.2689,136.467,103.674,104.672,0.00127701,0.0454798,20.9994,552.331,-0.0866789,0.0,0.0
96,23.75,30.3382,31.8001,139.312,103.704,104.528,0.00127228,0.0449962,20.9997,552.311,-0.0716517,0.0,0.0
102,25.25,30.8395,31.557,138.133,103.713,104.679,0.00117971,0.0446139,20.9999,552.311,-0.083814,0.0,0.0
108,26.75,30.7032,31.6252,138.626,103.758,104.44,0.000964541,0.0444213,20.9996,552.301,-0.059273,0.0,0.0
114,28.25,30.3784,31.5549,136.779,103.759,105.325,0.000749907,0.0442722,21.0005,552.291,-0.135486,0.0,0.0
120,29.75,30.4476,31.8645,135.28,103.803,104.436,0.000564468,0.0440344,21.001,552.281,-0.054932,0.0,0.0
126,31.25,30.4557,31.4635,135.802,103.821,104.585,0.000456507,0.0438759,21.0012,552.301,-0.0663254,0.0,0.0
132,32.75,30.1814,31.6635,136.641,103.863,104.805,0.000410884,0.0438666,21.0013,552.311,-0.0816778,0.0,0.0
138,34.25,30.561,31.7914,138.914,103.873,105.213,0.000399698,0.0438577,21.0014,552.281,-0.116014,0.0,0.0
144,35.75,30.4485,31.852,137.905,103.909,105.193,0.000476652,0.0437659,21.0014,552.281,-0.111051,0.0,0.0
150,37.25,30.5528,31.3126,137.573,103.941,105.459,0.000651709,0.0437422,21.0014,552.281,-0.131172,0.0,0.0
156,38.75,30.5031,32.4144,138.092,103.967,104.496,0.000818028,0.0436614,21.0015,552.261,-0.0458556,0.0,0.0
162,40.25,31.1027,31.6291,140.088,103.995,105.039,0.000951798,0.043538,21.0015,552.241,-0.0903959,0.0,0.0
168,41.75,30.5876,31.8105,140.914,104.01,104.58,0.00104549,0.0435239,21.0015,552.211,-0.0494745,0.0,0.0
174,43.25,30.9703,31.4125,138.316,104.048,104.8,0.00111742,0.0434066,21.0012,552.211,-0.0651285,0.0,0.0
180,44.75,30.5009,31.2622,137.394,104.057,105.392,0.00113614,0.0432419,21.0007,552.231,-0.115268,0.0,0.0
186,46.25,30.4642,31.8317,137.985,104.094,105.341,0.00107857,0.0431863,21.001,552.231,-0.107711,0.0,0.0
192,47.75,30.9551,31.8049,137.02,104.103,105.261,0.000950082,0.043158,21.0011,552.211,-0.100025,0.0,0.0
198,49.25,30.7047,31.5635,137.152,104.144,105.364,0.000844083,0.0431166,21.0012,552.251,-0.105381,0.0,0.0
204,50.75,30.9613,31.8321,139.497,104.158,104.995,0.000753315,0.0430751,21.0013,552.231,-0.0724017,0.0,0.0
210,52.25,30.8107,31.6711,136.694,104.192,105.594,0.000648528,0.043127,21.0013,552.211,-0.120886,0.0,0.0
216,53.75,30.4315,31.4529,138.597,104.202,105.14,0.000560948,0.0431474,21.0013,552.201,-0.0810995,0.0,0.0
222,55.25,30.2199,31.4371,138.388,104.219,104.964,0.000501178,0.0431781,21.0013,552.201,-0.0643959,0.0,0.0
228,56.75,30.8777,31.8943,134.528,104.25,104.484,0.000489806,0.0432145,21.0013,552.191,-0.0202814,0.0,0.0
234,58.25,30.4467,31.4214,134.324,104.27,104.993,0.000531,0.0431555,21.0024,552.201,-0.0624467,0.0,0.0
240,59.75,30.8444,31.5062,132.668,104.275,104.816,0.000590381,0.0430229,21.003,552.201,-0.0467855,0.0,0.0
246,61.25,30.1237,31.6145,133.658,104.313,105.646,0.000601227,0.043032,21.0033,552.231,-0.114868,0.0,0.0
252,62.75,30.9319,31.6943,137.938,104.319,105.131,0.000623381,0.0430496,21.0034,552.231,-0.0701808,0.0,0.0
258,64.25,30.5793,31.9181,136.789,104.343,105.547,0.000722999,0.042993,21.0035,552.191,-0.103772,0.0,0.0
264,65.75,30.659,31.7374,139.115,104.357,105.198,0.000800875,0.0429689,21.0036,552.161,-0.0725751,0.0,0.0
270,67.25,30.5794,31.7617,137.522,104.38,105.184,0.000783369,0.0429967,21.0035,552.181,-0.0693565,0.0,0.0
276,68.75,30.9052,31.5038,137.443,104.392,105.054,0.000676235,0.0430308,21.0026,552.161,-0.0571486,0.0,0.0
282,70.25,30.5,32.3349,136.121,104.429,105.567,0.000555324,0.0431959,21.0023,552.161,-0.09801,0.0,0.0
288,71.75,31.1941,32.215,137.263,104.434,105.566,0.000453707,0.0432029,21.0017,552.181,-0.0974917,0.0,0.0
294,73.25,31.3534,32.1487,136.805,104.439,105.08,0.000385493,0.0432622,21.0018,552.161,-0.0553334,0.0,0.0
300,74.75,31.3128,32.2059,137.752,104.47,105.522,0.000414674,0.043349,21.0024,552.171,-0.0905914,0.0,0.0
306,76.25,31.0574,32.1039,137.463,104.475,105.234,0.000481019,0.0433346,21.0027,552.151,-0.0655206,0.0,0.0
312,77.75,30.9241,31.7994,137.839,104.487,105.63,0.000555164,0.0433643,21.0024,552.131,-0.0984226,0.0,0.0
318,79.25,30.7053,32.6073,140.514,104.504,105.137,0.000598803,0.0434437,21.0013,552.141,-0.0546212,0.0,0.0
324,80.75,30.7702,32.0006,137.821,104.53,105.821,0.000630304,0.0434156,21.0006,552.091,-0.11103,0.0,0.0
330,82.25,30.5657,31.5481,133.485,104.546,104.843,0.000669126,0.0433869,21.0002,552.091,-0.0256461,0.0,0.0
336,83.75,31.229,32.0636,138.487,104.566,104.906,0.000687944,0.0434716,21,552.151,-0.0293878,0.0,0.0
342,85.25,30.6235,32.35,137.927,104.562,105.352,0.000671528,0.0435359,21.0002,552.141,-0.0681054,0.0,0.0
348,86.75,30.9821,32.179,136.264,104.586,105.338,0.000656104,0.043449,21.0011,552.111,-0.0648618,0.0,0.0
354,88.25,31.1573,32.0655,134.623,104.587,105.504,0.000687546,0.0432536,21.0016,552.101,-0.0789792,0.0,0.0
360,89.75,30.878,32.0629,137.285,104.627,105.805,0.000737096,0.0431927,21.0012,552.141,-0.101231,0.0,0.0
366,91.25,31.1981,31.8012,136.62,104.625,105.294,0.00070368,0.043225,21.0009,552.081,-0.0576592,0.0,0.0
372,92.75,31.0967,32.2275,138.71,104.633,105.842,0.000569036,0.0432802,21.0008,552.141,-0.103864,0.0,0.0
378,94.25,30.8021,32.2458,137.218,104.633,105.723,0.000435989,0.0433585,21.0007,552.091,-0.0937451,0.0,0.0
384,95.75,31.0168,32.6481,136.728,104.66,105.781,0.000387383,0.0434316,21.0007,552.131,-0.0963833,0.0,0.0
390,97.25,30.9595,32.6541,136.829,104.657,105.757,0.000384519,0.0435582,21.0007,552.151,-0.0946108,0.0,0.0
396,98.75,31.0529,32.1715,138.017,104.671,105.669,0.000398395,0.0436901,21.0015,552.101,-0.0857574,0.0,0.0
402,100.25,31.1868,32.1117,137.286,104.692,105.399,0.000471297,0.0436011,21.0022,552.101,-0.0608893,0.0,0.0
408,101.75,31.2564,32.4379,132.649,104.709,105.791,0.000574412,0.0434256,21.0025,552.101,-0.0929471,0.0,0.0
414,103.25,30.9078,32.344,132.868,104.694,105.36,0.000619733,0.0433118,21.0027,552.151,-0.0573516,0.0,0.0
420,104.75,30.6932,32.3893,138.998,104.701,105.245,0.000605326,0.0433903,21.0021,552.101,-0.0468094,0.0,0.0
426,106.25,30.6039,32.1274,135.19,104.709,105.684,0.000543813,0.0434617,21.0014,552.101,-0.0838591,0.0,0.0
432,107.75,31.2611,32.6218,136.528,104.718,105.405,0.000397489,0.0434602,21.0011,552.091,-0.0591488,0.0,0.0
438,109.25,31.0885,32.3606,136.85,104.71,106.324,0.0002312,0.0434166,21.0009,552.071,-0.138398,0.0,0.0
444,110.75,30.9854,32.7249,134.861,104.723,105.172,0.000134865,0.043274,21.0011,552.081,-0.0387368,0.0,0.0
450,112.25,30.9245,32.4057,139.291,104.738,105.944,0.000147825,0.0432957,21.0024,552.041,-0.103557,0.0,0.0
456,113.75,30.9457,32.3579,136.165,104.721,105.347,0.000206069,0.0433256,21.0021,552.111,-0.053896,0.0,0.0
462,115.25,31.3535,32.8251,137.828,104.731,105.526,0.000320661,0.0433127,21.0016,552.071,-0.0684368,0.0,0.0
468,116.75,31.0354,32.539,139.356,104.727,105.71,,0.0433029,,552.041,-0.0844817,0.0,0.0
474,118.25,31.5532,32.338,137.375,104.732,105.224,,0.043268,,552.071,-0.0423827,0.0,0.0
480,119.75,31.3482,32.0761,137.69,104.733,105.798,,,,552.091,-0.0915396,0.0,0.0
486,121.25,31.1022,32.3428,135.606,104.737,105.419,,,,552.091,-0.058738,0.0,0.0
492,122.75,30.8964,32.6437,138.705,104.726,105.661,,,,552.021,-0.0803695,0.0,0.0
498,124.25,31.3469,32.7526,135.993,104.734,106.044,,,,552.061,-0.112469,0.0,0.0
504,125.75,31.7041,32.6315,134.401,104.719,106.146,,,,552.091,-0.122483,0.0,0.0
510,127.25,31.3477,32.3083,134.732,104.722,105.881,,,,552.071,-0.0995379,0.0,0.0
511,127.5,31.3454,32.6759,135.835,104.72,105.475,,,,552.061,-0.0649932,0.0,0.0