File: 01_Data/Window_Screen/Cone/Window_Screen_Cone_HF25Scan_220524_R2.csv
Names,Time,Stack TC,Smoke TC,Exh Press,Smoke Comp,Smoke Meas,CO Meter,CO2 Meter,O2 Meter,Sample Mass,Ext Coeff,Start Test,Flame Verif
Chan Gain,,500,500,1,1,1,1,1,1,1,1,1.0,1.0
Offset,,0,0,0.13752,0,0,0,0,0,0,0,0.0,0.0
Gain,,1,1,25.011,13.8491,15.2622,1,1,1,1.00087,1.03118,1.0,1.0
Units,sec,C,C,Pa,%,%,%,%,%,g,/m,,
Baseline,,24.8269,25.4177,143.164,105.161,105.154,0.000712645,0.0431229,21.0008,-450.244,0.000626873,,
6,1.25,22.6004,22.935,143.321,104.686,104.487,0.00279004,0.0560691,20.9866,575.641,0.0172429,0.0,0.0
12,2.75,21.5944,22.6881,136.446,104.637,96.105,0.00538536,0.071458,20.9598,575.421,0.769392,0.0,1.0
18,4.25,22.4172,22.9418,134.672,104.568,93.9154,0.00751325,0.0958684,20.9239,575.401,0.971866,0.0,1.0
24,5.75,23.7618,23.5598,139.305,104.506,92.2768,0.00837404,0.11113,20.9049,575.381,1.12574,0.0,1.0
30,7.25,23.1207,22.6316,139.536,104.459,99.9363,0.00779301,0.112997,20.9018,575.331,0.400351,0.0,1.0
36,8.75,22.791,22.2443,137.133,104.393,101.929,0.00651773,0.103723,20.9145,575.331,0.215987,0.0,0.0
42,10.25,22.7595,22.6228,140.628,104.334,103.289,0.00505538,0.0897472,20.9351,575.331,0.0909993,0.0,0.0
48,11.75,22.75,22.1105,142.661,104.274,103.956,0.00362876,0.0773293,20.955,575.331,0.0276142,0.0,0.0
54,13.25,20.9133,21.1168,142.568,104.204,104.27,0.00268266,0.0675626,20.9689,575.231,-0.00574865,0.0,0.0
60,14.75,20.573,20.9983,142.69,104.152,103.763,0.00208451,0.0609259,20.9784,575.211,0.0339202,0.0,0.0
66,16.25,20.9047,21.3344,143.472,104.099,104.037,0.0017152,0.0562328,20.9852,575.351,0.00537376,0.0,0.0
72,17.75,20.3361,21.351,142.922,104.045,103.663,0.0014802,0.053194,20.989,575.351,0.0332444,0.0,0.0
78,19.25,21.1331,21.9942,146.482,103.981,103.843,0.00132304,0.0517603,20.9911,575.291,0.0120237,0.0,0.0
84,20.75,21.2733,22.0188,142.611,103.934,103.534,0.00122298,0.0511779,20.9918,575.321,0.0349181,0.0,0.0
90,22.25,21.1765,21.702,140.595,103.885,103.743,0.00113328,0.0508101,20.9917,575.311,0.0124383,0.0,0.0
96,23.75,21.2182,21.7846,141.327,103.831,103.864,0.00102961,0.0499667,20.9923,575.321,-0.00286659,0.0,0.0
102,25.25,21.6226,21.1867,142.793,103.782,103.46,0.000906439,0.0485668,20.9952,575.321,0.0281022,0.0,0.0
108,26.75,21.3514,21.3347,141.994,103.731,103.551,0.000760795,0.0471569,20.9967,575.321,0.0157436,0.0,0.0
114,28.25,21.7299,21.3806,144.796,103.689,103.52,0.000603782,0.0459015,20.9978,575.311,0.0147015,0.0,0.0
120,29.75,21.1352,21.4876,141.254,103.655,103.487,0.000527063,0.0448534,20.9992,575.311,0.0146046,0.0,0.0
126,31.25,21.3127,21.6346,139.69,103.597,103.308,0.000569571,0.0440387,20.9999,575.301,0.0252746,0.0,0.0
132,32.75,21.3158,21.9718,140.828,103.573,103.395,0.000741551,0.0435197,21.0003,575.311,0.0156252,0.0,0.0
138,34.25,21.095,21.622,141.781,103.516,103.365,0.000921016,0.0431252,21.0005,575.311,0.0131759,0.0,0.0
144,35.75,21.4188,22.1339,141.191,103.499,103.864,0.00103788,0.0428955,21.0006,575.321,-0.0318904,0.0,0.0
150,37.25,21.1677,22.0864,140.655,103.466,103.573,0.00103935,0.0427147,21.0007,575.311,-0.00931002,0.0,0.0
156,38.75,21.6114,21.9941,145.122,103.451,103.288,0.00095362,0.0425166,21.0007,575.301,0.014329,0.0,0.0
162,40.25,21.373,21.5659,141.787,103.409,103.522,0.00082178,0.0423933,21.0008,575.311,-0.00986108,0.0,0.0
168,41.75,21.3713,21.0811,143.986,103.405,103.102,0.000662452,0.0422552,21.0008,575.311,0.0265531,0.0,0.0
174,43.25,21.5589,21.5787,141.439,103.39,103.205,0.000562783,0.0422173,21.0008,575.321,0.0162279,0.0,0.0
180,44.75,21.1076,21.7486,144.799,103.372,103.359,0.000510785,0.0421337,21.0021,575.301,0.00113646,0.0,0.0
186,46.25,20.7046,21.8879,141.164,103.359,103.402,0.000544608,0.0420189,21.0029,575.341,-0.0037549,0.0,0.0
192,47.75,20.6772,21.575,144.222,103.361,102.958,0.000629404,0.0418886,21.0033,575.351,0.0353424,0.0,0.0
198,49.25,20.5878,21.5191,141.55,103.354,103.179,0.000699161,0.0419023,21.0046,575.321,0.0153388,0.0,0.0
204,50.75,20.9025,21.8154,143.368,103.349,102.939,0.000730056,0.0419679,21.0046,575.301,0.0359439,0.0,0.0
210,52.25,20.55,21.6166,144.611,103.349,102.767,0.00076586,0.0420206,21.0042,575.341,0.0510214,0.0,0.0
216,53.75,20.9637,22.1483,141.813,103.357,103.11,0.000793692,0.0420868,21.0044,575.311,0.021676,0.0,0.0
222,55.25,21.3143,21.8412,143.47,103.332,102.953,0.000787697,0.0422015,21.0049,575.341,0.0332359,0.0,0.0
228,56.75,20.835,21.5687,143.112,103.332,103.197,0.000757553,0.0423057,21.0058,575.291,0.0118191,0.0,0.0
234,58.25,20.5649,21.6921,139.88,103.331,103.127,0.000744356,0.0423611,21.0063,575.331,0.0178338,0.0,0.0
240,59.75,20.7163,22.0924,142.607,103.325,103.274,0.000722404,0.0424578,21.0066,575.361,0.00449649,0.0,0.0
246,61.25,21.3273,21.6782,143.806,103.328,102.935,0.000688916,0.0424432,21.0067,575.311,0.0344219,0.0,0.0
252,62.75,21.1254,21.5143,143.124,103.33,103.264,0.000674305,0.0424278,21.0063,575.341,0.00583391,0.0,0.0
258,64.25,20.9996,21.63,145.351,103.337,103.197,0.000718716,0.0424596,21.0055,575.311,0.012266,0.0,0.0
264,65.75,20.7318,21.5309,144.29,103.322,103.077,0.000762646,0.0425259,21.0044,575.301,0.0214286,0.0,0.0
270,67.25,21.0086,21.1833,143.576,103.329,103.172,0.000709719,0.0425718,21.0031,575.281,0.0137229,0.0,0.0
276,68.75,20.9072,21.2718,140.96,103.322,103.886,0.000607902,0.0425912,21.0025,575.291,-0.0492864,0.0,0.0
282,70.25,21.0868,21.5637,140.869,103.333,103.203,0.00050069,0.0426809,21.0027,575.301,0.0113657,0.0,0.0
288,71.75,21.0982,21.9244,147.684,103.317,103.203,0.000423059,0.0426792,21.0029,575.291,0.00999576,0.0,0.0
294,73.25,20.7763,21.3065,145.228,103.324,103.057,0.000413159,0.0426755,21.0033,575.281,0.0234905,0.0,0.0
300,74.75,20.7982,21.8022,142.621,103.324,103.511,0.000483943,0.0426248,21.0032,575.301,-0.0163187,0.0,0.0
306,76.25,21.2628,21.767,144.652,103.33,103.433,0.000581789,0.0426473,21.0031,575.271,-0.00907849,0.0,0.0
312,77.75,21.0665,21.5541,143.583,103.308,103.341,0.000599871,0.0427616,21.003,575.261,-0.0028558,0.0,0.0
318,79.25,21.062,21.1531,147.211,103.316,103.295,0.000513243,0.0427696,21.0029,575.221,0.0018394,0.0,0.0
324,80.75,21.4389,21.8428,143.365,103.311,103.215,0.000407584,0.0427738,21.0029,575.241,0.00841765,0.0,0.0
330,82.25,21.1554,21.9785,142.686,103.324,103.215,0.000339033,0.0428054,21.0029,575.231,0.00956382,0.0,0.0
336,83.75,20.6723,21.5656,139.816,103.316,103.396,0.000309464,0.04286,21.0029,575.241,-0.00692537,0.0,0.0
342,85.25,20.7944,21.923,142.415,103.319,103.528,0.000321972,0.0429137,21.0029,575.191,-0.0182309,0.0,0.0
348,86.75,20.4593,21.5213,142.564,103.313,102.979,0.00042247,0.0429512,21.0029,575.211,0.0293168,0.0,0.0
354,88.25,20.7821,21.5994,143.76,103.319,103.077,0.000547114,0.0430048,21.0029,575.221,0.0211693,0.0,0.0
360,89.75,21.1717,22.019,144.253,103.316,103.206,0.000605503,0.0430085,21.003,575.211,0.00959937,0.0,0.0
366,91.25,20.9183,21.0399,147.16,103.311,103.217,0.000581614,0.0430352,21.0027,575.231,0.00817633,0.0,0.0
372,92.75,21.4453,21.6078,142.851,103.333,103.718,0.000549368,0.0431375,21.0019,575.231,-0.0336761,0.0,0.0
378,94.25,20.8959,21.3243,143.011,103.335,103.263,0.000551501,0.0432105,21.0015,575.231,0.00635976,0.0,0.0
384,95.75,20.9601,21.4827,147.607,103.343,103.439,0.000540445,0.0433106,21.0013,575.261,-0.00834616,0.0,0.0
390,97.25,21.2455,21.777,141.445,103.343,103.465,0.000470748,0.0433423,21.0012,575.241,-0.0105865,0.0,0.0
396,98.75,20.784,21.5254,142.817,103.363,103.564,0.000402424,0.0432655,21.0011,575.251,-0.017594,0.0,0.0
402,100.25,20.4931,21.6826,143.11,103.366,103.824,0.000423143,0.0432107,21.0011,575.231,-0.0400072,0.0,0.0
408,101.75,20.9766,21.5598,140.045,103.398,103.705,0.000530089,0.0432686,21.0011,575.231,-0.0268394,0.0,0.0
414,103.25,20.4289,21.4377,139.412,103.414,103.525,0.000646629,0.0432943,21.0011,575.221,-0.0097391,0.0,0.0
420,104.75,21.4622,21.166,145.216,103.461,103.216,0.000770877,0.0432386,21.0011,575.241,0.021463,0.0,0.0
426,106.25,21.173,21.3841,143.141,103.477,103.549,0.000892964,0.0432498,21.0011,575.241,-0.00627468,0.0,0.0
432,107.75,20.785,21.6964,144.241,103.535,103.405,0.000973573,0.0433388,21.0011,575.231,0.0114067,0.0,0.0
438,109.25,20.7979,21.48,143.257,103.568,103.687,0.000973219,0.0435044,21.0011,575.251,-0.0104068,0.0,0.0
444,110.75,20.8929,21.7617,139.584,103.638,103.824,0.00083462,0.0436103,21.0011,575.271,-0.0162166,0.0,0.0
450,112.25,20.8754,21.7458,144.398,103.652,103.207,0.000652646,0.0436119,21.0011,575.231,0.0389206,0.0,0.0
456,113.75,20.8296,21.6954,142.394,103.738,103.45,0.000466412,0.0437115,21.0005,575.241,0.0252037,0.0,0.0
462,115.25,20.8901,21.1195,143.897,103.781,103.736,0.000351398,0.0437513,21.0008,575.221,0.00398993,0.0,0.0
468,116.75,20.5773,21.7349,140.154,103.843,103.701,0.000295452,0.0437819,21.0014,575.161,0.0123726,0.0,0.0
474,118.25,21.1694,21.2211,144.106,103.897,103.936,0.000246547,0.0437152,21.0017,575.191,-0.0034097,0.0,0.0
480,119.75,21.2428,21.6604,141.515,103.964,103.891,0.00021081,0.0436797,21.0012,575.191,0.00629727,0.0,0.0
486,121.25,21.1181,21.9276,140.179,104.036,103.644,,0.0437021,,575.131,0.0341426,0.0,0.0
492,122.75,21.437,21.8212,139.671,104.108,103.658,,0.0437034,,575.171,0.0392019,0.0,0.0
498,124.25,20.9541,21.706,143.299,104.169,104.551,,,,575.211,-0.0330532,0.0,0.0
504,125.75,20.663,22.0665,140.952,104.244,104.373,,,,575.201,-0.0111528,0.0,0.0
510,127.25,20.8296,21.656,141.365,104.301,104.274,,,,575.181,0.00236226,0.0,0.0
516,128.75,20.7646,21.462,140.699,104.382,104.142,,,,575.251,0.0208014,0.0,0.0
522,130.25,21.3347,21.7873,144.708,104.433,104.603,,,,575.191,-0.0146925,0.0,0.0
525,131,21.3224,21.8859,139.612,104.464,104.265,,,,575.191,0.0172634,0.0,0.0