File: 01_Data/Window_Screen/Cone/Window_Screen_Cone_HF50Scalar_220524_R3.csv
LABORATORY,FSRI
TEST IDENT,Window_Screen_50_3
OPERATOR,Dow
MATERIAL,Window Screen
ORIENTATION,Horizontal
HEAT FLUX,50
SURF AREA,0.00884
C FACTOR,0.0419572
SPEC HOLDER DIFF,-566
SPECIMEN MASS,0.94
SCAN TIME,0.25
O2 DELAY TIME,11
CO DELAY TIME,11
CO2 DELAY TIME,8
FLOW FACTOR,1
SCAN COUNT,511
TIME TO IGN,1.25
END OF TEST SCAN,31
END OF TEST TIME,7.75
TEST STATUS,1
PRE TEST CMT,Dimensions: 101 x 102 x 0.22 mm; with frame; with calcium silicate substrate
POST TEST CMT,"Flame extinguished before software acknowledged ""flame verify"". "