File: 01_Data/Window_Screen/Cone/Window_Screen_Cone_HF75Scan_220524_R3.csv
Names,Time,Stack TC,Smoke TC,Exh Press,Smoke Comp,Smoke Meas,CO Meter,CO2 Meter,O2 Meter,Sample Mass,Ext Coeff,Start Test,Flame Verif
Chan Gain,,500,500,1,1,1,1,1,1,1,1,1.0,1.0
Offset,,0,0,0.13752,0,0,0,0,0,0,0,0.0,0.0
Gain,,1,1,25.011,13.8491,15.2622,1,1,1,1.00087,1.03118,1.0,1.0
Units,sec,C,C,Pa,%,%,%,%,%,g,/m,,
Baseline,,45.227,47.0678,132.943,104.653,107.155,0.000813532,0.0440265,20.9955,-451.73,-0.213674,,
6,1.25,43.8423,45.4741,117.079,104.192,46.5117,0.0150957,0.144295,20.8367,561.539,7.29543,0.0,1.0
12,2.75,45.2292,46.7173,129.189,104.186,99.7486,0.0157973,0.168825,20.808,561.499,0.393683,0.0,1.0
18,4.25,45.7607,47.1525,131.624,104.165,104.968,0.0141625,0.150549,20.8385,561.559,-0.0694902,0.0,1.0
24,5.75,43.9871,45.0899,127.551,104.182,104.893,0.0115801,0.122624,20.876,561.529,-0.0615212,0.0,0.0
30,7.25,43.3316,43.856,133.987,104.167,106.525,0.00907156,0.099542,20.901,561.549,-0.202458,0.0,0.0
36,8.75,43.0072,43.9486,134.259,104.171,105.834,0.00704421,0.0827469,20.9264,561.599,-0.143251,0.0,0.0
42,10.25,42.5669,44.9038,130.018,104.164,106.326,0.0054942,0.0721499,20.948,561.659,-0.185815,0.0,0.0
48,11.75,42.6922,44.0472,129.738,104.187,106.765,0.00450082,0.0640071,20.9626,561.449,-0.221121,0.0,0.0
54,13.25,41.6748,43.4087,131.339,104.167,107.009,0.00383303,0.0590213,20.9723,561.539,-0.243498,0.0,0.0
60,14.75,41.9384,42.9217,132.817,104.163,106.622,0.00323398,0.056014,20.9786,561.519,-0.211052,0.0,0.0
66,16.25,42.1569,43.786,129.615,104.155,106.669,0.00273317,0.0542007,20.9824,561.459,-0.215815,0.0,0.0
72,17.75,41.5117,43.0837,131.368,104.163,105.771,0.00233888,0.0528023,20.9859,561.509,-0.138572,0.0,0.0
78,19.25,41.7054,43.4572,133.394,104.152,106.096,0.00205311,0.0516102,20.9884,561.439,-0.167284,0.0,0.0
84,20.75,42.0375,43.6727,135.553,104.158,106.825,0.00186025,0.0503529,20.9899,561.449,-0.228704,0.0,0.0
90,22.25,42.2443,43.6129,127.35,104.15,107.113,0.00168722,0.0491691,20.9916,561.489,-0.253781,0.0,0.0
96,23.75,41.7353,43.4811,128.788,104.156,106.25,0.00147088,0.0483211,20.9934,561.479,-0.180051,0.0,0.0
102,25.25,41.7141,44.2636,129.054,104.148,106.74,0.00125971,0.0475053,20.9952,561.439,-0.222328,0.0,0.0
108,26.75,42.0759,43.6471,136.228,104.149,106.038,0.00109476,0.0469129,20.9965,561.429,-0.162578,0.0,0.0
114,28.25,41.8227,43.5939,129.314,104.14,106.621,0.000992607,0.046243,20.9973,561.369,-0.212952,0.0,0.0
120,29.75,41.9968,43.9255,132.427,104.146,105.98,0.000956749,0.0457143,20.9977,561.409,-0.157905,0.0,0.0
126,31.25,41.8102,44.0442,135.609,104.144,106.646,0.000923682,0.0452754,20.9976,561.399,-0.214755,0.0,0.0
132,32.75,41.8754,43.6628,135.841,104.141,106.359,0.000847253,0.0449561,20.9971,561.439,-0.190607,0.0,0.0
138,34.25,42.0904,43.617,132.176,104.15,105.737,0.000758598,0.0447972,20.9979,561.449,-0.136799,0.0,0.0
144,35.75,41.6598,43.766,130.949,104.155,105.648,0.000678318,0.0445668,20.9984,561.429,-0.128742,0.0,0.0
150,37.25,41.8974,44.3275,132.414,104.147,106.112,0.000612133,0.0443241,20.9978,561.429,-0.169111,0.0,0.0
156,38.75,42.1387,43.4851,134.827,104.136,106.125,0.000615454,0.044218,20.998,561.419,-0.171177,0.0,0.0
162,40.25,42.489,43.9839,132.833,104.148,105.606,0.00065415,0.0441687,20.9973,561.389,-0.125703,0.0,0.0
168,41.75,42.0058,43.5877,134.347,104.138,106.722,0.000697062,0.0441036,20.997,561.389,-0.221746,0.0,0.0
174,43.25,42.1125,43.9308,130.536,104.158,106.627,0.00071295,0.0439425,20.9977,561.399,-0.211888,0.0,0.0
180,44.75,42.6129,44.2148,128.507,104.164,106.466,0.000707737,0.0439544,20.9983,561.399,-0.197734,0.0,0.0
186,46.25,42.6033,44.1323,128.969,104.168,105.945,0.000718361,0.0439224,20.9986,561.369,-0.153014,0.0,0.0
192,47.75,42.3358,43.9247,131.359,104.152,105.448,0.000765088,0.0439288,20.9987,561.349,-0.111838,0.0,0.0
198,49.25,42.4522,44.1853,132.067,104.168,105.85,0.000878588,0.0439477,20.9986,561.359,-0.144862,0.0,0.0
204,50.75,42.2808,44.1868,130.176,104.152,106.906,0.000976311,0.0439683,20.9984,561.349,-0.236113,0.0,0.0
210,52.25,42.1658,44.368,131.392,104.165,105.913,0.00099617,0.0439133,20.9982,561.339,-0.150527,0.0,0.0
216,53.75,42.9785,44.3629,135.989,104.152,105.71,0.000931553,0.0438634,20.998,561.359,-0.134268,0.0,0.0
222,55.25,42.1319,44.4979,131.135,104.171,106.27,0.000800306,0.0438968,20.9973,561.359,-0.180435,0.0,0.0
228,56.75,42.3974,44.2363,133.381,104.149,106.676,0.000674659,0.0439393,20.997,561.319,-0.216921,0.0,0.0
234,58.25,42.2226,44.4275,135.162,104.178,106.661,0.000615941,0.0438238,20.9968,561.309,-0.213085,0.0,0.0
240,59.75,42.3477,44.0126,130.911,104.167,106.889,0.000645892,0.0437549,20.9967,561.309,-0.233334,0.0,0.0
246,61.25,42.376,43.8564,134.342,104.182,107.561,0.000723808,0.043763,20.9967,561.289,-0.288676,0.0,0.0
252,62.75,42.9526,44.3385,132.217,104.176,106.032,0.000810451,0.0437619,20.9966,561.289,-0.159747,0.0,0.0
258,64.25,42.7497,43.7921,132.122,104.171,106.232,0.000866189,0.0436868,20.9966,561.309,-0.177221,0.0,0.0
264,65.75,42.2687,44.6181,134.366,104.172,107.073,0.000855203,0.0435676,20.9966,561.279,-0.248489,0.0,0.0
270,67.25,42.284,44.4683,131.682,104.182,107.12,0.000743873,0.0434928,20.9966,561.289,-0.251581,0.0,0.0
276,68.75,42.7107,43.9809,131.839,104.179,107.154,0.000601249,0.0435556,20.9966,561.239,-0.254672,0.0,0.0
282,70.25,43.0196,44.8026,135.244,104.182,106.892,0.000517703,0.0436518,20.9967,561.299,-0.232286,0.0,0.0
288,71.75,42.9931,44.4369,133.994,104.189,107.254,0.000552554,0.0436678,20.997,561.269,-0.262236,0.0,0.0
294,73.25,42.9453,44.5722,130.653,104.181,106.904,0.000674907,0.0436307,20.9972,561.249,-0.233388,0.0,0.0
300,74.75,43.0132,44.8051,129.667,104.184,107.029,0.000787384,0.0436141,20.9973,561.259,-0.243647,0.0,0.0
306,76.25,42.6281,44.4935,131.526,104.185,106.963,0.000826347,0.0436123,20.9974,561.219,-0.238061,0.0,0.0
312,77.75,42.5904,44.6372,133.397,104.191,107.806,0.000809768,0.0436194,20.9975,561.229,-0.308521,0.0,0.0
318,79.25,42.7062,44.4629,131.025,104.183,107.053,0.000783369,0.043601,20.9977,561.239,-0.245806,0.0,0.0
324,80.75,42.8466,44.4528,131.929,104.204,106.57,0.000765613,0.0436356,20.9978,561.219,-0.203142,0.0,0.0
330,82.25,42.9022,44.614,132.644,104.185,106.644,0.000770519,0.0436096,20.9974,561.208,-0.211037,0.0,0.0
336,83.75,42.8236,44.6902,130.866,104.196,106.684,0.000833198,0.0435696,20.9972,561.189,-0.213443,0.0,0.0
342,85.25,43.3478,44.592,129.609,104.187,107.104,0.000928302,0.043539,20.9971,561.189,-0.249804,0.0,0.0
348,86.75,42.6492,44.5608,132.652,104.193,105.97,0.000987758,0.0435706,20.9971,561.199,-0.152993,0.0,0.0
354,88.25,42.846,44.903,130.029,104.201,107.308,0.00102114,0.0436793,20.9971,561.189,-0.265691,0.0,0.0
360,89.75,43.162,44.6548,131.203,104.212,107.327,0.00102737,0.0437947,20.9971,561.169,-0.266346,0.0,0.0
366,91.25,42.5186,45.1755,131.664,104.19,106.422,0.00100762,0.0438357,20.9966,561.169,-0.191735,0.0,0.0
372,92.75,42.6891,44.6348,137.106,104.201,107.133,0.00100889,0.0438485,20.9957,561.179,-0.250995,0.0,0.0
378,94.25,42.952,44.588,130.985,104.199,107.451,0.00103002,0.0439004,20.9953,561.169,-0.277995,0.0,0.0
384,95.75,43.2256,44.2989,131.99,104.204,107.67,0.00104041,0.0437547,20.9958,561.169,-0.295967,0.0,0.0
390,97.25,42.4896,45.0185,131.25,104.206,106.552,0.00102798,0.0437607,20.9964,561.138,-0.201379,0.0,0.0
396,98.75,42.7488,45.2091,131.489,104.219,107.004,0.00102039,0.0438158,20.9967,561.128,-0.238551,0.0,0.0
402,100.25,43.0974,45.05,132.603,104.204,107.025,0.00103751,0.0438579,20.9969,561.128,-0.241684,0.0,0.0
408,101.75,43.128,45.0981,131.473,104.223,106.755,0.00109843,0.0438109,20.9971,561.138,-0.217133,0.0,0.0
414,103.25,43.306,44.9861,134.222,104.221,106.464,0.00118053,0.0438174,20.9971,561.108,-0.192619,0.0,0.0
420,104.75,43.049,44.6596,129.306,104.223,107.04,0.00122023,0.0437506,20.9972,561.118,-0.241255,0.0,0.0
426,106.25,43.0608,44.6371,133.307,104.231,106.717,0.00118161,0.0437087,20.9972,561.108,-0.213205,0.0,0.0
432,107.75,43.5262,44.9413,132.696,104.223,106.541,0.00110692,0.0436465,20.9972,561.118,-0.198966,0.0,0.0
438,109.25,43.1386,44.746,134.671,104.226,106.631,0.00100665,0.0435888,20.9972,561.108,-0.206298,0.0,0.0
444,110.75,43.3643,44.8911,131.052,104.235,106.604,0.000918679,0.0434755,20.9972,561.098,-0.203312,0.0,0.0
450,112.25,42.9331,44.9692,129.567,104.256,107.148,0.000850174,0.0435141,20.9972,561.098,-0.247521,0.0,0.0
456,113.75,43.0997,44.9095,132.178,104.248,106.777,0.000833476,0.0434902,20.9972,561.098,-0.216823,0.0,0.0
462,115.25,42.611,45.2083,137.392,104.272,106.285,,0.0435447,,561.108,-0.17297,0.0,0.0
468,116.75,43.2342,45.3605,129.769,104.278,107.566,,0.043646,,561.098,-0.280778,0.0,0.0
474,118.25,43.1422,45.3697,128.219,104.281,107.768,,,,561.048,-0.297542,0.0,0.0
480,119.75,43.4165,45.144,133.753,104.279,106.146,,,,561.058,-0.160566,0.0,0.0
486,121.25,43.0689,45.3664,132.87,104.304,106.863,,,,561.108,-0.219246,0.0,0.0
492,122.75,43.0527,45.0515,132.366,104.306,107.517,,,,561.118,-0.274247,0.0,0.0
498,124.25,43.1857,45.4102,132.262,104.323,107.485,,,,561.088,-0.270037,0.0,0.0
504,125.75,42.9644,45.2474,131.665,104.338,108.602,,,,561.108,-0.362305,0.0,0.0
505,126,43.2498,45.3673,132.435,104.344,107.041,,,,561.118,-0.230773,0.0,0.0