File: 01_Data/Window_Screen/Cone/Window_Screen_Cone_HF50Scan_220524_R1.csv
Names,Time,Stack TC,Smoke TC,Exh Press,Smoke Comp,Smoke Meas,CO Meter,CO2 Meter,O2 Meter,Sample Mass,Ext Coeff,Start Test,Flame Verif
Chan Gain,,500,500,1,1,1,1,1,1,1,1,1.0,1.0
Offset,,0,0,0.13752,0,0,0,0,0,0,0,0.0,0.0
Gain,,1,1,25.011,13.8491,15.2622,1,1,1,1.00087,1.03118,1.0,1.0
Units,sec,C,C,Pa,%,%,%,%,%,g,/m,,
Baseline,,32.676,33.919,138.578,105.098,106.006,0.00091501,0.0440926,20.9975,-450.503,-0.0778086,,
6,1.25,29.9186,31.538,128.292,105.226,92.2545,0.0114887,0.108073,20.9034,574.65,1.19005,0.0,1.0
12,2.75,30.6015,31.6001,134.129,105.239,73.1307,0.0134133,0.144267,20.8722,574.57,3.2924,0.0,1.0
18,4.25,31.7952,32.4146,138.063,105.23,102.326,0.0122662,0.14307,20.8563,574.6,0.253133,0.0,1.0
24,5.75,32.5354,32.4812,137.725,105.266,105.991,0.0098941,0.125485,20.8716,574.57,-0.0621015,0.0,1.0
30,7.25,30.706,30.8807,137.592,105.256,106.106,0.00727058,0.102116,20.9021,574.59,-0.0727496,0.0,0.0
36,8.75,29.0271,29.8089,139.451,105.253,105.735,0.00530405,0.0842938,20.934,574.53,-0.0413395,0.0,0.0
42,10.25,29.7513,30.0449,138.709,105.264,106.569,0.00415743,0.0713236,20.9536,574.61,-0.111439,0.0,0.0
48,11.75,28.957,29.7221,135.952,105.278,106.24,0.00322975,0.0624041,20.9689,574.62,-0.0822463,0.0,0.0
54,13.25,29.4141,30.0029,135.377,105.276,105.846,0.00263282,0.0575287,20.9777,574.6,-0.0488197,0.0,0.0
60,14.75,29.487,30.312,136.986,105.319,105.845,0.00223489,0.0538461,20.9823,574.58,-0.0450368,0.0,0.0
66,16.25,28.3812,30.0471,135.866,105.289,106.069,0.00189886,0.0514506,20.9861,574.57,-0.0667002,0.0,0.0
72,17.75,29.0055,29.9257,137.17,105.326,106.721,0.00163676,0.0498151,20.9897,574.57,-0.11902,0.0,0.0
78,19.25,28.9856,30.4582,140.548,105.316,106.061,0.0014759,0.0486526,20.992,574.56,-0.0637747,0.0,0.0
84,20.75,29.4652,29.8809,139.249,105.347,105.975,0.00136187,0.0476639,20.9932,574.53,-0.0538162,0.0,0.0
90,22.25,28.9688,30.2594,136.644,105.354,106.296,0.00124941,0.0470001,20.9938,574.53,-0.0804734,0.0,0.0
96,23.75,29.0713,29.9086,138.286,105.362,106.093,0.00117578,0.0463551,20.9952,574.52,-0.0625624,0.0,0.0
102,25.25,28.8509,29.8978,141.478,105.364,106.706,0.00116246,0.045906,20.9959,574.53,-0.11449,0.0,0.0
108,26.75,29.2804,30.1493,137.411,105.389,106.196,0.00116913,0.0456172,20.9971,574.53,-0.0690485,0.0,0.0
114,28.25,29.1622,29.6667,139.349,105.381,106.731,0.0012026,0.0453314,20.9983,574.53,-0.115131,0.0,0.0
120,29.75,29.1906,30.1362,139.262,105.411,106.291,0.00124182,0.0451055,20.999,574.52,-0.0752158,0.0,0.0
126,31.25,29.4374,30.303,136.714,105.399,106.847,0.00123133,0.0449952,20.9993,574.52,-0.123471,0.0,0.0
132,32.75,29.2652,30.3071,136.638,105.42,106.691,0.00114266,0.0449672,20.9995,574.5,-0.108403,0.0,0.0
138,34.25,28.6185,29.6204,139.727,105.421,106.762,0.000982929,0.0448578,20.9996,574.49,-0.114327,0.0,0.0
144,35.75,28.7267,30.4539,137.166,105.431,106.101,0.00085926,0.0447208,20.9997,574.49,-0.0573613,0.0,0.0
150,37.25,29.157,30.3916,139.278,105.432,106.893,0.000776848,0.0445949,20.9997,574.51,-0.124509,0.0,0.0
156,38.75,29.7928,29.9102,137.851,105.429,106.42,0.000734303,0.0445707,20.9997,574.52,-0.0846254,0.0,0.0
162,40.25,29.4087,30.1479,137.944,105.443,106.098,0.000730386,0.0444716,20.9997,574.5,-0.0559957,0.0,0.0
168,41.75,29.3075,30.2637,138.798,105.431,107.331,0.000780862,0.044319,20.9997,574.49,-0.161627,0.0,0.0
174,43.25,28.9798,30.1801,137.681,105.434,106.487,0.000891176,0.0441707,21.0005,574.49,-0.0898536,0.0,0.0
180,44.75,28.9667,30.3054,136.938,105.439,106.227,0.0009822,0.0441696,21.0012,574.5,-0.0673905,0.0,0.0
186,46.25,29.0457,30.255,139.672,105.441,106.613,0.00107057,0.0442114,21.0016,574.48,-0.0999129,0.0,0.0
192,47.75,29.2426,30.3041,137.85,105.435,106.16,0.00115055,0.0441398,21.0018,574.48,-0.0620038,0.0,0.0
198,49.25,29.1575,30.4267,135.466,105.43,107.034,0.00117102,0.0440224,21.002,574.49,-0.136545,0.0,0.0
204,50.75,28.9884,30.5077,138.251,105.432,106.587,0.0011517,0.0439457,21.0023,574.49,-0.0984978,0.0,0.0
210,52.25,29.3626,30.4226,139.458,105.422,106.429,0.00112922,0.0440023,21.0025,574.46,-0.0859615,0.0,0.0
216,53.75,29.6492,30.3025,136.038,105.431,106.329,0.00110285,0.0440642,21.0026,574.48,-0.076761,0.0,0.0
222,55.25,29.1226,30.6357,138.08,105.426,106.717,0.00105908,0.0439769,21.0026,574.49,-0.110102,0.0,0.0
228,56.75,29.4447,30.801,140.083,105.418,105.937,0.000998042,0.0438292,21.0026,574.48,-0.0444614,0.0,0.0
234,58.25,29.4049,30.209,132.445,105.42,106.881,0.000911496,0.04372,21.0027,574.49,-0.124536,0.0,0.0
240,59.75,29.5924,30.7213,132.82,105.402,106.328,0.000819892,0.0437231,21.0027,574.48,-0.0791081,0.0,0.0
246,61.25,29.5223,31.1838,134.808,105.424,106.253,0.000756999,0.043679,21.0027,574.47,-0.0708377,0.0,0.0
252,62.75,29.1994,31.3787,138.133,105.405,105.812,0.000762957,0.0435994,21.0027,574.46,-0.034805,0.0,0.0
258,64.25,29.6333,30.4658,139.379,105.412,105.728,0.000831099,0.0436874,21.0024,574.45,-0.027059,0.0,0.0
264,65.75,29.2964,30.9988,135.437,105.406,106.311,0.000827733,0.0437418,21.0015,574.44,-0.0773553,0.0,0.0
270,67.25,29.2695,30.5792,135.181,105.406,106.981,0.000724785,0.043772,21.001,574.45,-0.134164,0.0,0.0
276,68.75,29.5784,30.3056,135.163,105.397,106.434,0.000572102,0.0437727,21.0007,574.45,-0.0885734,0.0,0.0
282,70.25,29.2899,30.8313,139.079,105.404,106.295,0.000491708,0.0438676,21.0005,574.43,-0.0761101,0.0,0.0
288,71.75,29.3043,30.2484,135.66,105.392,106.918,0.000517445,0.0439786,21.0004,574.44,-0.130039,0.0,0.0
294,73.25,29.4722,30.8585,137.634,105.392,106.378,0.000613979,0.044048,21.0001,574.43,-0.0842575,0.0,0.0
300,74.75,29.5672,30.5305,135.695,105.39,106.554,0.000700217,0.0441186,20.9999,574.44,-0.0993928,0.0,0.0
306,76.25,29.6759,30.7084,135.836,105.395,106.609,0.000794759,0.0442238,20.9998,574.42,-0.103626,0.0,0.0
312,77.75,29.7632,31.3294,138.143,105.395,107.016,0.00079996,0.0443019,20.9998,574.42,-0.13806,0.0,0.0
318,79.25,29.7813,30.7656,136.966,105.396,106.166,0.000714971,0.0443633,20.9998,574.4,-0.0658529,0.0,0.0
324,80.75,29.8593,31.0225,135.144,105.422,106.167,0.000601481,0.0443372,20.9997,574.4,-0.0637595,0.0,0.0
330,82.25,29.6487,31.0152,137.289,105.407,106.235,0.000568981,0.0441467,20.9997,574.38,-0.0707845,0.0,0.0
336,83.75,29.9701,31.073,140.632,105.422,106.573,0.000642198,0.0440208,20.9997,574.37,-0.0982182,0.0,0.0
342,85.25,29.6031,30.7847,136.465,105.409,105.812,0.000794149,0.0439155,20.9997,574.38,-0.0345187,0.0,0.0
348,86.75,29.6384,30.8921,137.664,105.431,106.255,0.000914843,0.0437272,20.9997,574.4,-0.0704954,0.0,0.0
354,88.25,30.0256,31.0172,136.023,105.42,106.365,0.000986769,0.0436118,20.9997,574.4,-0.08079,0.0,0.0
360,89.75,29.675,30.9678,133.594,105.436,106.121,0.00101967,0.0435795,20.9997,574.41,-0.058561,0.0,0.0
366,91.25,29.9879,31.2668,136.675,105.422,106.534,0.0009647,0.0434645,20.9997,574.36,-0.0949758,0.0,0.0
372,92.75,29.3067,31.0151,137.83,105.434,106.229,0.00085448,0.0434633,20.9997,574.37,-0.0679843,0.0,0.0
378,94.25,29.9586,30.7652,135.474,105.425,106.2,0.00077444,0.0435556,20.9997,574.38,-0.0662467,0.0,0.0
384,95.75,29.808,31.2946,141.857,105.448,106.339,0.000808309,0.0434907,21.0005,574.38,-0.0761031,0.0,0.0
390,97.25,29.7264,31.1079,136.621,105.418,106.899,0.00090699,0.0434084,21.0009,574.38,-0.126178,0.0,0.0
396,98.75,29.0557,30.6487,136.338,105.447,106.26,0.00096612,0.0433752,21.0011,574.38,-0.0694413,0.0,0.0
402,100.25,29.7613,31.7981,139.256,105.43,105.712,0.000976172,0.0433815,21.001,574.37,-0.0241804,0.0,0.0
408,101.75,29.5758,30.8326,137.473,105.448,106.107,0.000963384,0.0433362,21.0001,574.36,-0.0563902,0.0,0.0
414,103.25,29.9122,31.1401,135.703,105.436,106.28,0.000923789,0.0432827,21.0004,574.36,-0.072086,0.0,0.0
420,104.75,29.8708,31.422,134.48,105.459,106.417,0.000903453,0.0432093,21.0009,574.36,-0.0817779,0.0,0.0
426,106.25,30.4373,31.4766,136.927,105.439,106.175,0.000890974,0.0431575,21.0011,574.36,-0.0628713,0.0,0.0
432,107.75,30.0839,31.3867,142.309,105.44,106.198,0.00080895,0.0431499,21.0012,574.34,-0.0647793,0.0,0.0
438,109.25,29.7883,31.5621,140.842,105.434,105.758,0.000700651,0.043153,21.0013,574.35,-0.0277626,0.0,0.0
444,110.75,30.4138,31.6636,136.082,105.437,105.995,0.000577938,0.0432058,21.0013,574.34,-0.04776,0.0,0.0
450,112.25,30.0426,31.138,136.347,105.425,106.397,0.00047283,0.0432922,21.0014,574.34,-0.0829727,0.0,0.0
456,113.75,29.7721,31.6843,140.503,105.416,105.91,0.000410228,0.0433854,21.0014,574.36,-0.0422592,0.0,0.0
462,115.25,30.1684,31.6485,137.471,105.425,106.146,0.000390006,0.0434128,21.0006,574.34,-0.0617199,0.0,0.0
468,116.75,30.1764,31.1108,136.464,105.385,106.927,,0.0435519,,574.32,-0.131332,0.0,0.0
474,118.25,29.7843,30.892,136.693,105.396,106.768,,0.0436092,,574.33,-0.11698,0.0,0.0
480,119.75,29.5932,31.8093,136.552,105.378,106.978,,,,574.32,-0.136319,0.0,0.0
486,121.25,30.0699,31.4044,139.312,105.366,106.133,,,,574.31,-0.0656498,0.0,0.0
492,122.75,29.7575,31.9553,134.9,105.343,106.41,,,,574.27,-0.0912341,0.0,0.0
498,124.25,30.1196,31.4511,138.297,105.348,105.713,,,,574.29,-0.0312936,0.0,0.0
504,125.75,30.2693,31.3435,137.028,105.321,106.318,,,,574.29,-0.0852022,0.0,0.0
509,127,30.2243,31.8337,137.278,105.302,105.894,,,,574.27,-0.0506678,0.0,0.0