File: 01_Data/Window_Screen/Cone/Window_Screen_Cone_HF75Scan_220524_R1.csv
Names,Time,Stack TC,Smoke TC,Exh Press,Smoke Comp,Smoke Meas,CO Meter,CO2 Meter,O2 Meter,Sample Mass,Ext Coeff,Start Test,Flame Verif
Chan Gain,,500,500,1,1,1,1,1,1,1,1,1.0,1.0
Offset,,0,0,0.13752,0,0,0,0,0,0,0,0.0,0.0
Gain,,1,1,25.011,13.8491,15.2622,1,1,1,1.00087,1.03118,1.0,1.0
Units,sec,C,C,Pa,%,%,%,%,%,g,/m,,
Baseline,,44.2962,46.0527,133.705,104.171,106.46,0.000833966,0.0438026,20.9975,-451.174,-0.196546,,
6,1.25,40.1815,41.8293,120.061,104.347,52.7809,0.0156036,0.129756,20.8874,573.539,6.16513,0.0,1.0
12,2.75,42.0225,42.4097,127.631,104.389,100.994,0.016273,0.154026,20.8579,573.549,0.299078,0.0,1.0
18,4.25,42.672,43.6234,132.778,104.45,106.135,0.0145787,0.141797,20.8651,573.529,-0.144702,0.0,1.0
24,5.75,41.16,41.7529,136.894,104.489,106.524,0.0114252,0.116816,20.8953,573.499,-0.17446,0.0,0.0
30,7.25,39.5876,41.3654,133.536,104.554,106.106,0.00929367,0.0955888,20.9152,573.579,-0.133241,0.0,0.0
36,8.75,39.8667,40.858,133.833,104.597,106.879,0.00705701,0.080637,20.9368,573.689,-0.195258,0.0,0.0
42,10.25,40.0432,40.9732,131.592,104.629,107.345,0.00553468,0.0716972,20.9532,573.559,-0.231778,0.0,0.0
48,11.75,39.3358,41.4587,137.853,104.692,107.023,0.00447357,0.0641278,20.9669,573.509,-0.199174,0.0,0.0
54,13.25,39.661,40.9256,136.444,104.735,106.696,0.00369116,0.058987,20.9755,573.489,-0.16781,0.0,0.0
60,14.75,37.9893,40.0842,132.505,104.782,106.756,0.00313243,0.0553323,20.981,573.499,-0.168815,0.0,0.0
66,16.25,40.1588,41.9572,133.21,104.811,106.572,0.00260621,0.0528715,20.985,573.429,-0.150732,0.0,0.0
72,17.75,40.2206,41.9389,134.313,104.851,107.323,0.0022509,0.0514385,20.9883,573.409,-0.210735,0.0,0.0
78,19.25,40.9911,42.0373,131.43,104.876,107.016,0.00192261,0.0502403,20.991,573.359,-0.18275,0.0,0.0
84,20.75,40.5269,42.3359,133.586,104.902,106.974,0.00169631,0.0494109,20.9926,573.369,-0.176946,0.0,0.0
90,22.25,40.664,42.5788,133.1,104.917,107.727,0.00142761,0.0487668,20.9934,573.369,-0.239132,0.0,0.0
96,23.75,40.7574,42.8078,132.921,104.955,108.561,0.0012697,0.048258,20.9938,573.399,-0.305514,0.0,0.0
102,25.25,40.879,42.0179,134.164,104.974,107.423,0.00116428,0.0476916,20.9941,573.419,-0.2086,0.0,0.0
108,26.75,40.6401,42.3701,130.718,104.986,108.022,0.00110637,0.047145,20.9953,573.409,-0.257919,0.0,0.0
114,28.25,41.3447,41.8372,135.453,104.982,107.38,0.00105265,0.0467457,20.9959,573.389,-0.204263,0.0,0.0
120,29.75,41.4566,42.6665,133.126,105.004,107.433,0.000905752,0.0463287,20.9963,573.479,-0.206844,0.0,0.0
126,31.25,41.3079,42.6448,130.887,104.998,106.237,0.0007187,0.0458797,20.9964,573.469,-0.10608,0.0,0.0
132,32.75,41.1072,42.234,133.491,105.019,107.071,0.000613433,0.0456211,20.9965,573.469,-0.175084,0.0,0.0
138,34.25,41.0392,42.9161,135.954,104.995,107.147,0.000578173,0.0454049,20.9966,573.389,-0.183495,0.0,0.0
144,35.75,41.0743,42.8691,132.94,104.991,107.158,0.000586004,0.0452026,20.9966,573.359,-0.1848,0.0,0.0
150,37.25,41.2707,42.6077,133.598,104.974,106.588,0.000595358,0.0451519,20.9971,573.369,-0.137972,0.0,0.0
156,38.75,41.0545,42.8779,135.709,104.966,107.542,0.000632888,0.0451287,20.9979,573.379,-0.219293,0.0,0.0
162,40.25,40.845,42.7462,136.305,104.945,105.797,0.000735657,0.0451662,20.9984,573.389,-0.0731148,0.0,0.0
168,41.75,41.3206,43.0124,133.056,104.926,106.214,0.000831661,0.0451803,20.9984,573.379,-0.110365,0.0,0.0
174,43.25,41.5317,42.7105,133.875,104.897,107.496,0.000924818,0.0450764,20.9976,573.359,-0.221389,0.0,0.0
180,44.75,41.235,42.9284,130.376,104.871,107.57,0.000973306,0.0450081,20.9979,573.359,-0.229875,0.0,0.0
186,46.25,41.1298,42.7727,136.396,104.849,106.846,0.000966938,0.0449088,20.9987,573.339,-0.17063,0.0,0.0
192,47.75,41.1374,43.232,133.256,104.817,107.044,0.000933668,0.0448854,20.9991,573.349,-0.190179,0.0,0.0
198,49.25,41.4158,42.9704,136.108,104.799,107.391,0.000903595,0.0448772,20.9993,573.319,-0.221026,0.0,0.0
204,50.75,41.3937,43.2376,130.084,104.738,107.542,0.000876507,0.0448481,20.9995,573.329,-0.238982,0.0,0.0
210,52.25,41.5816,42.89,130.053,104.703,107.702,0.000857105,0.0447943,20.9995,573.319,-0.255439,0.0,0.0
216,53.75,41.4189,43.297,135.58,104.666,107.471,0.000837874,0.0447664,20.9995,573.289,-0.23923,0.0,0.0
222,55.25,41.1238,43.3751,134.568,104.637,106.646,0.000811961,0.0446069,20.9996,573.299,-0.17198,0.0,0.0
228,56.75,41.176,43.4912,134.331,104.572,107.219,0.0008392,0.0445789,20.9996,573.289,-0.22607,0.0,0.0
234,58.25,41.4453,43.3637,132.917,104.546,106.526,0.000921138,0.0446334,20.9994,573.289,-0.169757,0.0,0.0
240,59.75,41.6938,43.2541,133.942,104.486,107.271,0.000995566,0.0446424,20.9991,573.279,-0.237894,0.0,0.0
246,61.25,41.8539,43.3901,134.594,104.484,106.559,0.001024,0.0446807,20.9989,573.259,-0.177825,0.0,0.0
252,62.75,41.0297,43.4405,134.642,104.485,106.567,0.00100677,0.0446246,20.9988,573.269,-0.178425,0.0,0.0
258,64.25,41.457,42.8327,129.673,104.512,107.24,0.000947347,0.0445349,20.9988,573.229,-0.233067,0.0,0.0
264,65.75,41.533,42.8476,133.008,104.521,106.782,0.000875814,0.0445616,20.9988,573.269,-0.193525,0.0,0.0
270,67.25,41.0555,43.2353,132.249,104.549,106.686,0.000789973,0.0445634,20.9988,573.239,-0.18298,0.0,0.0
276,68.75,41.8982,43.7773,135.619,104.545,106.826,0.000668477,0.0444771,20.9994,573.249,-0.195261,0.0,0.0
282,70.25,42.0407,43.2026,132.488,104.581,106.883,0.00061414,0.0444522,20.9999,573.239,-0.196927,0.0,0.0
288,71.75,41.7691,43.3412,135.232,104.587,106.215,0.000647373,0.0444115,21.0002,573.259,-0.139713,0.0,0.0
294,73.25,42.0022,43.2759,136.321,104.604,107.279,0.00070501,0.0445029,21.0003,573.269,-0.22836,0.0,0.0
300,74.75,41.8906,43.1198,134.696,104.625,107.676,0.000762058,0.044511,21.0004,573.259,-0.260043,0.0,0.0
306,76.25,41.5414,43.2049,136.605,104.632,106.726,0.000827625,0.0446541,21.0004,573.249,-0.17925,0.0,0.0
312,77.75,42.0609,43.746,134.799,104.65,106.924,0.000867089,0.0447401,21.0004,573.249,-0.194402,0.0,0.0
318,79.25,41.7478,43.5243,134.284,104.67,106.66,0.000816794,0.0448987,21.0004,573.239,-0.170392,0.0,0.0
324,80.75,41.6773,43.5076,130.048,104.685,107.434,0.000733682,0.0451802,21.0004,573.229,-0.234449,0.0,0.0
330,82.25,42.2114,43.2242,135.232,104.704,107.518,0.0006916,0.0454234,21.0004,573.209,-0.239865,0.0,0.0
336,83.75,42.0822,43.5885,132.353,104.74,107.775,0.000696761,0.0455915,21.0004,573.169,-0.258327,0.0,0.0
342,85.25,42.1849,43.5434,132.681,104.764,106.756,0.000689548,0.0457836,21.0004,573.159,-0.170344,0.0,0.0
348,86.75,41.5109,44.2923,129.994,104.79,107.312,0.000639788,0.0458865,21.0004,573.169,-0.21508,0.0,0.0
354,88.25,41.8582,43.484,136.348,104.813,107.243,0.000599659,0.0459318,21.0004,573.199,-0.207338,0.0,0.0
360,89.75,41.9496,43.6812,133.709,104.83,108.125,0.000609393,0.0459157,21.0004,573.199,-0.279981,0.0,0.0
366,91.25,42.1463,44.1994,134.739,104.851,107.817,0.000699638,0.04591,20.9997,573.169,-0.252286,0.0,0.0
372,92.75,42.4016,44.1013,131.688,104.874,107.036,0.000752907,0.0458791,20.999,573.189,-0.184512,0.0,0.0
378,94.25,42.2646,44.0047,130.964,104.892,106.96,0.00078645,0.0458836,20.9987,573.159,-0.1766,0.0,0.0
384,95.75,42.5897,44.1192,134.542,104.922,107.451,0.000823723,0.0459954,20.9985,573.189,-0.215476,0.0,0.0
390,97.25,42.5018,43.9794,132.142,104.924,106.935,0.000841317,0.0460462,20.9984,573.169,-0.171745,0.0,0.0
396,98.75,42.2489,44.0603,133.035,104.952,107.22,0.000825758,0.0461387,20.9984,573.169,-0.193384,0.0,0.0
402,100.25,42.2955,43.836,132.858,104.97,107.648,0.000770724,0.0461076,20.9983,573.159,-0.227815,0.0,0.0
408,101.75,42.4818,44.53,134.031,105.005,108.053,0.000722947,0.046065,20.9998,573.169,-0.258853,0.0,0.0
414,103.25,42.0455,44.3178,133.105,105.019,107.813,0.000742033,0.0461505,21.0006,573.169,-0.23755,0.0,0.0
420,104.75,42.6972,44.8136,136.04,105.03,106.933,0.000822899,0.0461324,21.001,573.149,-0.162407,0.0,0.0
426,106.25,42.1998,44.3065,135.483,105.029,107.11,0.000920232,0.045972,21.0003,573.139,-0.177513,0.0,0.0
432,107.75,42.4045,44.5063,132.294,105.063,106.508,0.000946498,0.0458467,20.9997,573.139,-0.123565,0.0,0.0
438,109.25,42.9059,44.1043,129.073,105.054,107.027,0.000860563,0.0457406,20.9995,573.129,-0.168249,0.0,0.0
444,110.75,42.444,44.507,133.158,105.087,107.674,0.000728525,0.0456119,20.9993,573.129,-0.219999,0.0,0.0
450,112.25,42.5017,44.1967,133.675,105.087,107.124,0.000617727,0.0454724,20.9988,573.129,-0.173595,0.0,0.0
456,113.75,42.6014,44.5569,135.277,105.109,107.205,0.000572425,0.0453757,20.9987,573.109,-0.178619,0.0,0.0
462,115.25,42.7303,44.2627,134.538,105.126,108.113,,0.0452472,,573.109,-0.253437,0.0,0.0
468,116.75,42.4388,44.4424,134.055,105.134,107.478,,0.0452198,,573.109,-0.199399,0.0,0.0
474,118.25,42.2018,44.5022,132.031,105.144,107.538,,,,573.059,-0.203618,0.0,0.0
480,119.75,42.8472,44.0324,134.404,105.154,106.468,,,,573.099,-0.112303,0.0,0.0
486,121.25,42.4613,44.2861,132.143,105.152,106.816,,,,573.059,-0.142072,0.0,0.0
492,122.75,42.5295,44.1665,134.387,105.168,107.69,,,,573.069,-0.214311,0.0,0.0
498,124.25,42.513,44.1382,134.143,105.176,107.926,,,,573.039,-0.233394,0.0,0.0
503,125.5,42.5309,44.7397,133.129,105.185,107.279,,,,573.019,-0.178285,0.0,0.0