File: 01_Data/Window_Screen/Cone/Window_Screen_Cone_HF75Scan_220524_R2.csv
Names,Time,Stack TC,Smoke TC,Exh Press,Smoke Comp,Smoke Meas,CO Meter,CO2 Meter,O2 Meter,Sample Mass,Ext Coeff,Start Test,Flame Verif
Chan Gain,,500,500,1,1,1,1,1,1,1,1,1.0,1.0
Offset,,0,0,0.13752,0,0,0,0,0,0,0,0.0,0.0
Gain,,1,1,25.011,13.8491,15.2622,1,1,1,1.00087,1.03118,1.0,1.0
Units,sec,C,C,Pa,%,%,%,%,%,g,/m,,
Baseline,,46.4689,48.325,132.725,103.544,106.186,0.000830354,0.0447384,20.9958,-451.521,-0.227822,,
6,1.25,41.0082,43.3863,117.5,103.469,49.4144,0.014249,0.11304,20.8819,551.35,6.68493,0.0,1.0
12,2.75,42.3284,43.6531,128.395,103.481,91.1269,0.0160881,0.149118,20.841,551.41,1.14999,0.0,1.0
18,4.25,43.4158,44.2894,129.267,103.496,103.199,0.0148293,0.143839,20.8382,551.32,0.0259209,0.0,1.0
24,5.75,41.9758,43.3634,132.658,103.516,104.86,0.0122809,0.125146,20.8619,551.3,-0.11669,0.0,1.0
30,7.25,42.1329,43.6674,128.796,103.524,106.023,0.00992882,0.102923,20.8867,551.27,-0.215757,0.0,0.0
36,8.75,40.5759,42.2996,130.937,103.538,106.378,0.00759042,0.0864469,20.9178,551.25,-0.244808,0.0,0.0
42,10.25,41.5602,43.5269,132.854,103.576,107.012,0.00587691,0.074996,20.9417,551.25,-0.29515,0.0,0.0
48,11.75,41.69,43.329,131.535,103.608,106.436,0.00462897,0.0663263,20.9579,551.1,-0.243627,0.0,0.0
54,13.25,42.3104,43.8148,133.7,103.615,105.722,0.00376446,0.0605284,20.9694,551.3,-0.182038,0.0,0.0
60,14.75,41.3257,43.7453,131.424,103.659,105.752,0.00317023,0.0567315,20.9762,551.2,-0.180868,0.0,0.0
66,16.25,41.6089,43.4503,133.358,103.669,106.525,0.00274182,0.0543668,20.9808,551.35,-0.245835,0.0,0.0
72,17.75,41.7475,43.6455,129.817,103.701,106.043,0.00244138,0.0529632,20.9831,551.16,-0.202046,0.0,0.0
78,19.25,41.915,43.6993,127.712,103.731,105.924,0.00224817,0.0522326,20.9841,551.15,-0.189252,0.0,0.0
84,20.75,42.2788,43.4495,133.618,103.761,105.962,0.00206967,0.0517584,20.9851,551.21,-0.189893,0.0,0.0
90,22.25,42.371,43.5922,127.857,103.79,106.354,0.00190996,0.0511079,20.9862,551.2,-0.220768,0.0,0.0
96,23.75,41.9299,43.8483,132.455,103.829,106.429,0.0017352,0.0504689,20.9869,551.21,-0.223716,0.0,0.0
102,25.25,42.5534,44.5512,131.039,103.857,106.577,0.00152671,0.0496877,20.9883,551.19,-0.233792,0.0,0.0
108,26.75,41.9632,43.8429,132.147,103.899,106.106,0.00135532,0.0490149,20.9896,551.17,-0.190171,0.0,0.0
114,28.25,42.3293,43.7709,125.608,103.92,106.429,0.00126626,0.0482935,20.9908,551.18,-0.215729,0.0,0.0
120,29.75,42.1089,44.0509,128.319,103.968,106.434,0.00119232,0.0475687,20.9914,551.16,-0.212046,0.0,0.0
126,31.25,42.188,43.9497,131.253,103.979,105.92,0.00102195,0.0468953,20.9929,551.13,-0.167326,0.0,0.0
132,32.75,41.7701,43.7678,135.715,104.022,106.689,0.000859352,0.0463474,20.9945,551.12,-0.22893,0.0,0.0
138,34.25,42.305,43.6365,133.593,104.029,106.467,0.000810432,0.0458582,20.9953,551.14,-0.209528,0.0,0.0
144,35.75,42.1782,43.9639,133.268,104.049,107.248,0.000808831,0.0454598,20.9958,551.14,-0.273881,0.0,0.0
150,37.25,41.8617,43.484,134.716,104.069,106.318,0.000797282,0.0451084,20.996,551.12,-0.193404,0.0,0.0
156,38.75,42.2126,44.0473,130.206,104.093,106.922,0.000755238,0.0446453,20.9961,551.17,-0.242558,0.0,0.0
162,40.25,42.3793,43.87,130.78,104.11,106.443,0.000703315,0.0443805,20.9962,551.16,-0.200454,0.0,0.0
168,41.75,42.4666,43.8024,130.562,104.119,107.527,0.000661487,0.0442815,20.9963,551.15,-0.291357,0.0,0.0
174,43.25,42.1689,44.2342,130.756,104.145,106.105,0.000656807,0.0441122,20.9972,551.17,-0.168662,0.0,0.0
180,44.75,41.8023,44.2508,134.949,104.155,105.559,0.000678436,0.044017,20.9979,551.17,-0.121089,0.0,0.0
186,46.25,43.0779,43.7673,130.009,104.166,106.208,0.000721518,0.0439874,20.9982,551.14,-0.175674,0.0,0.0
192,47.75,42.3687,43.8966,131.013,104.183,107.247,0.00076246,0.0439044,20.9984,551.14,-0.262199,0.0,0.0
198,49.25,42.3786,44.4095,129.483,104.198,106.778,0.000732717,0.043933,20.9985,551.15,-0.22127,0.0,0.0
204,50.75,42.0453,44.1422,130.653,104.223,106.205,0.000647965,0.043833,20.9985,551.14,-0.17037,0.0,0.0
210,52.25,42.1897,43.6433,131.28,104.223,106.415,0.000574826,0.0438291,20.9986,551.13,-0.18828,0.0,0.0
216,53.75,42.1947,44.1305,131.551,104.247,107.532,0.000506252,0.0439626,20.9987,551.15,-0.280634,0.0,0.0
222,55.25,42.519,44.1776,129.22,104.264,107.708,0.000456352,0.0439831,20.9988,551.16,-0.293965,0.0,0.0
228,56.75,42.6594,44.2702,132.481,104.27,106.849,0.000478017,0.0438321,20.9988,551.14,-0.221032,0.0,0.0
234,58.25,42.4932,44.3944,129.58,104.299,106.347,0.000536476,0.0437988,20.9989,551.14,-0.175894,0.0,0.0
240,59.75,42.5121,44.4743,130.274,104.304,107.076,0.000617294,0.043773,20.9989,551.12,-0.237245,0.0,0.0
246,61.25,42.9941,44.0259,131.699,104.318,107.812,0.000666007,0.0437407,20.9989,551.09,-0.297952,0.0,0.0
252,62.75,42.7,44.5296,135.449,104.32,107.494,0.000701938,0.0437413,20.9989,551.14,-0.271155,0.0,0.0
258,64.25,42.709,44.5548,130.463,104.348,106.921,0.000753564,0.0438723,20.9989,551.12,-0.22036,0.0,0.0
264,65.75,42.5502,44.2118,133.416,104.359,107.318,0.000773713,0.0438343,20.9989,551.12,-0.25288,0.0,0.0
270,67.25,43.0696,44.6383,133.88,104.376,106.35,0.000769341,0.0438141,20.9983,551.13,-0.16943,0.0,0.0
276,68.75,42.6804,44.525,130.731,104.364,108.166,0.000714207,0.043921,20.9975,551.12,-0.323687,0.0,0.0
282,70.25,42.8648,44.776,135.837,104.396,107.383,0.000612007,0.0441492,20.9971,551.11,-0.255187,0.0,0.0
288,71.75,42.9589,44.9965,130.318,104.381,107.738,0.000515428,0.0443245,20.9968,551.07,-0.286393,0.0,0.0
294,73.25,42.9219,44.683,133.046,104.415,107.358,0.000470407,0.0444367,20.9967,551.09,-0.251384,0.0,0.0
300,74.75,43.1022,44.9983,132.511,104.414,107.559,0.000496078,0.0445643,20.9967,551.07,-0.268356,0.0,0.0
306,76.25,43.2452,44.7797,134.296,104.426,106.544,0.00055945,0.0446329,20.9969,551.06,-0.181574,0.0,0.0
312,77.75,43.0074,44.813,131.171,104.439,107.07,0.000642315,0.044734,20.9978,551.06,-0.225052,0.0,0.0
318,79.25,43.1721,44.7305,129.854,104.443,106.031,0.000700912,0.044698,20.9983,551.04,-0.136544,0.0,0.0
324,80.75,43.2424,44.8944,128.179,104.442,107.214,0.000747432,0.0446294,20.9986,551.05,-0.236983,0.0,0.0
330,82.25,43.1506,45.0379,136.038,104.455,106.864,0.000807846,0.0446139,20.9977,551.03,-0.206247,0.0,0.0
336,83.75,42.942,44.6109,135.046,104.449,106.705,0.000875569,0.044724,20.9979,551.01,-0.193306,0.0,0.0
342,85.25,43.1765,45.1812,129.944,104.465,107.475,0.000921887,0.044825,20.9978,551.03,-0.256947,0.0,0.0
348,86.75,43.2905,45.1136,132.255,104.464,107.855,0.000918572,0.0450206,20.9983,551.05,-0.288914,0.0,0.0
354,88.25,43.5899,45.3308,130.178,104.479,107.852,0.000873668,0.0451598,20.9978,551.06,-0.287475,0.0,0.0
360,89.75,42.8321,44.8804,132.509,104.491,107.983,0.000792882,0.0452033,20.9972,551.03,-0.297309,0.0,0.0
366,91.25,43.1649,45.2974,134.429,104.493,107.365,0.000667203,0.0450887,20.9972,551.03,-0.245315,0.0,0.0
372,92.75,43.0548,45.2857,128.375,104.495,106.936,0.00053148,0.0450593,20.9973,551.02,-0.208919,0.0,0.0
378,94.25,43.476,44.3885,136.85,104.499,107.007,0.000418192,0.0450588,20.9982,550.98,-0.214576,0.0,0.0
384,95.75,43.5018,45.2322,129.305,104.507,107.295,0.000361317,0.0450386,20.9989,550.99,-0.238183,0.0,0.0
390,97.25,43.0023,45.3804,131.82,104.504,108.432,0.000434548,0.0449708,20.9993,550.99,-0.333819,0.0,0.0
396,98.75,43.0155,44.8896,128.987,104.53,108.116,0.000540645,0.0448909,20.9995,550.95,-0.305131,0.0,0.0
402,100.25,43.2462,45.1571,134.024,104.527,106.593,0.000668318,0.0448484,20.9992,550.99,-0.17698,0.0,0.0
408,101.75,42.8943,45.124,131.749,104.546,107.612,0.000738524,0.0446897,20.9991,550.95,-0.261443,0.0,0.0
414,103.25,43.3653,45.3593,133.207,104.533,107.465,0.000786231,0.044506,20.999,550.95,-0.250157,0.0,0.0
420,104.75,43.1483,45.2111,132.576,104.572,107.191,0.000838185,0.0442357,20.9989,550.96,-0.223748,0.0,0.0
426,106.25,43.0472,45.1592,133.927,104.547,107.602,0.000912536,0.0440701,20.9989,550.96,-0.260545,0.0,0.0
432,107.75,43.62,44.8434,133.471,104.584,106.944,0.000987032,0.0439892,20.9989,550.95,-0.201796,0.0,0.0
438,109.25,43.4904,45.1854,132.351,104.585,107.874,0.00102051,0.043932,20.9989,550.93,-0.280055,0.0,0.0
444,110.75,43.3984,45.5039,131.362,104.586,107.395,0.00100999,0.0437357,20.9989,550.93,-0.239743,0.0,0.0
450,112.25,43.8579,45.4647,131.169,104.58,107.031,0.000979683,0.0438624,20.9989,550.95,-0.209565,0.0,0.0
456,113.75,43.8251,45.2223,132.662,104.586,106.937,0.000951938,0.0438718,20.9989,550.92,-0.201096,0.0,0.0
462,115.25,43.4905,45.5958,134.06,104.581,108.427,0.000913705,0.0438643,20.9989,550.91,-0.326736,0.0,0.0
468,116.75,43.3738,45.2264,130.459,104.595,108.076,,0.0437931,,550.91,-0.29611,0.0,0.0
474,118.25,43.9268,45.2896,129.686,104.589,107.081,,0.0437516,,550.88,-0.213045,0.0,0.0
480,119.75,43.0887,45.4773,133.402,104.596,107.105,,,,550.84,-0.214393,0.0,0.0
486,121.25,43.5995,44.8734,131.856,104.594,106.66,,,,550.829,-0.176969,0.0,0.0
492,122.75,43.307,45.4751,130.123,104.603,108.142,,,,550.87,-0.300985,0.0,0.0
498,124.25,43.2309,45.5879,131.565,104.589,107.999,,,,550.85,-0.290263,0.0,0.0
504,125.75,43.5209,45.1207,129.671,104.592,107.769,,,,550.82,-0.270715,0.0,0.0
510,127.25,43.7748,45.6969,128.797,104.599,107.015,,,,550.86,-0.206503,0.0,0.0