File: 01_Data/Standard_Gypsum/Cone/Standard_Gypsum_Cone_HF50Scan_220511_R3.csv
Names,Time,Stack TC,Smoke TC,Exh Press,Smoke Comp,Smoke Meas,CO Meter,CO2 Meter,O2 Meter,Sample Mass,Ext Coeff,Start Test,Flame Verif
Chan Gain,,500,500,1,1,1,1,1,1,1,1,1.0,1.0
Offset,,0,0,0.138628,0,0,0,0,0,0,0,0.0,0.0
Gain,,1,1,25.011,13.1256,14.6231,1,1,1,1.001,0.958019,1.0,1.0
Units,sec,C,C,Pa,%,%,%,%,%,g,/m,,
Baseline,,35.5932,36.8515,135.132,99.027,99.9248,0.000313042,0.042319,21.0024,-445.279,-0.0758111,,
7,1.5,31.99,33.168,133.461,99.2333,100.075,0.000284915,0.04849,20.997,124.385,-0.0709418,0.0,0.0
14,3.25,30.6098,32.0527,134.099,99.2417,100.489,0.000313937,0.0486743,20.9979,124.285,-0.104934,0.0,0.0
21,5,30.6151,31.8506,136.752,99.2485,100.091,0.000309862,0.0483562,20.9993,124.325,-0.0710019,0.0,0.0
28,6.75,31.1157,32.3537,132.677,99.2393,99.6935,0.000373237,0.0475687,21.0002,124.305,-0.0383691,0.0,0.0
35,8.5,31.403,32.7731,131.679,99.2325,99.8166,0.000511131,0.046629,21.0007,124.234,-0.0493216,0.0,0.0
42,10.25,31.1572,32.4659,134.886,99.2425,98.7086,0.000749083,0.0461291,21.0009,124.194,0.045337,0.0,0.0
49,12,31.3977,32.73,133.433,99.2429,99.1356,0.00113053,0.0458351,21.0008,124.154,0.00909039,0.0,0.0
56,13.75,31.8663,32.9156,134.003,99.2509,99.681,0.00153098,0.045937,20.9997,124.034,-0.0363319,0.0,0.0
63,15.5,32.0194,33.0627,132.929,99.2345,99.8907,0.00184123,0.0466639,20.9992,123.994,-0.0553871,0.0,0.0
70,17.25,31.4593,32.5137,133.049,99.2481,99.4355,0.00204415,0.047365,20.999,123.914,-0.0158518,0.0,0.0
77,19,32.2354,33.1043,134.668,99.2405,99.5542,0.00209702,0.0479716,20.9983,123.884,-0.0265218,0.0,0.0
84,20.75,32.0332,32.8481,137.572,99.2473,99.1843,0.00206823,0.0486365,20.9973,123.814,0.00534088,0.0,0.0
91,22.5,32.5778,33.0392,133.308,99.2301,99.4587,0.00205465,0.0492241,20.9969,123.734,-0.0193389,0.0,0.0
98,24.25,32.1418,33.0963,136.711,99.2313,98.8139,0.00211116,0.0501923,20.9963,123.664,0.0354259,0.0,0.0
105,26,32.2901,33.8215,135.676,99.2529,97.2877,0.00233447,0.0515108,20.9955,123.624,0.168069,0.0,0.0
112,27.75,32.5709,33.5701,134.774,99.2509,97.2314,0.00267714,0.0533295,20.9924,123.504,0.172757,0.0,0.0
119,29.5,32.2617,33.4053,134.532,99.2381,96.3786,0.00304223,0.0549234,20.99,123.414,0.245704,0.0,0.0
126,31.25,32.799,34.0143,141.437,99.2357,94.0666,0.00338542,0.056482,20.9865,123.304,0.449559,0.0,0.0
133,33,32.5532,33.5223,128.743,99.2373,103.092,0.00353035,0.086383,20.9484,123.063,-0.320223,0.0,1.0
140,34.75,33.3571,34.0074,119.112,99.2493,104.107,0.00346068,0.176315,20.8373,122.903,-0.401596,0.0,1.0
147,36.5,35.0866,35.1376,117.682,99.2409,104.498,0.00333651,0.278205,20.7338,122.503,-0.433769,0.0,1.0
154,38.25,35.655,35.3601,118.854,99.2313,103.75,0.0032427,0.34892,20.6763,122.222,-0.374219,0.0,0.0
161,40,37.0223,37.1105,118.839,99.2497,104.836,0.00317409,0.381796,20.6429,121.992,-0.460182,0.0,0.0
168,41.75,38.8885,38.0466,127.876,99.2461,102.877,0.00339263,0.383416,20.6455,121.822,-0.301925,0.0,0.0
175,43.5,39.7148,39.1136,125.946,99.2361,102.589,0.00418134,0.349326,20.6764,121.672,-0.279264,0.0,0.0
182,45.25,40.7146,40.5566,132.119,99.2345,101.253,0.00589374,0.295317,20.7246,121.502,-0.169233,0.0,0.0
189,47,40.7157,40.3729,132.277,99.2349,100.114,0.00782277,0.23303,20.7783,121.382,-0.0741036,0.0,0.0
196,48.75,40.5559,41.0447,133.631,99.2405,101.068,0.00999982,0.180905,20.835,121.292,-0.153375,0.0,0.0
203,50.5,39.994,40.3503,134.806,99.2389,100.681,0.0117383,0.145856,20.8715,121.151,-0.121241,0.0,0.0
210,52.25,39.5281,40.6329,134.666,99.2233,101.14,0.0130633,0.126563,20.8912,121.061,-0.160806,0.0,0.0
217,54,38.6862,39.8121,132.79,99.2357,100.459,0.0136849,0.117515,20.9007,120.971,-0.102979,0.0,0.0
224,55.75,38.2397,39.3362,133.734,99.2213,100.639,0.0137166,0.113406,20.906,120.871,-0.119231,0.0,0.0
231,57.5,38.4175,39.4721,133.47,99.2281,100.767,0.0134094,0.111277,20.9091,120.751,-0.129343,0.0,0.0
238,59.25,38.2108,39.3429,131.362,99.2237,100.449,0.0128062,0.10877,20.9124,120.721,-0.103176,0.0,0.0
245,61,37.906,38.8609,133.047,99.2169,101.407,0.0120779,0.105843,20.918,120.611,-0.183494,0.0,0.0
252,62.75,37.8379,39.1255,130.331,99.2133,100.825,0.0112786,0.101653,20.923,120.491,-0.135398,0.0,0.0
259,64.5,37.3534,38.9788,131.332,99.2173,100.828,0.0105609,0.0973406,20.9275,120.381,-0.135319,0.0,0.0
266,66.25,38.0826,38.6079,132.926,99.2029,100.737,0.00977666,0.0930241,20.9329,120.341,-0.128949,0.0,0.0
273,68,37.7531,39.0889,134.378,99.2041,101.112,0.00913683,0.0892874,20.9388,120.281,-0.160098,0.0,0.0
280,69.75,37.1619,39.0055,133.561,99.2065,100.896,0.00861207,0.0857228,20.944,120.15,-0.141924,0.0,0.0
287,71.5,36.6738,38.0926,134.259,99.1861,100.204,0.00824927,0.0827082,20.9486,120.08,-0.0857687,0.0,0.0
294,73.25,37.2549,38.9762,131.62,99.1708,100.868,0.00792743,0.0802921,20.9531,119.99,-0.142564,0.0,0.0
301,75,37.0732,38.859,135.315,99.1596,101.101,0.00765097,0.0785241,20.9569,119.97,-0.162975,0.0,0.0
308,76.75,36.8862,38.2245,135.474,99.1636,100.687,0.00739452,0.076681,20.9605,119.87,-0.128142,0.0,0.0
315,78.5,36.2923,38.2358,133.602,99.1468,100.953,0.00713239,0.0751537,20.9635,119.8,-0.1517,0.0,0.0
322,80.25,36.1963,38.0893,130.579,99.1384,100.252,0.00688093,0.0738795,20.966,119.73,-0.0938495,0.0,0.0
329,82,36.3812,38.1381,131.465,99.1524,101.127,0.0065629,0.0724636,20.9679,119.63,-0.1657,0.0,0.0
336,83.75,36.5506,38.3551,132.148,99.1332,100.617,0.00622142,0.0711159,20.9713,119.56,-0.124836,0.0,0.0
343,85.5,36.1928,38.3158,131.152,99.1236,101.073,0.00594582,0.0696105,20.9728,119.49,-0.163657,0.0,0.0
350,87.25,36.5786,38.2382,132.579,99.1188,100.281,0.00564635,0.0682016,20.9742,119.38,-0.0979447,0.0,0.0
357,89,35.7289,37.6882,135.55,99.1039,100.468,0.00527718,0.0668466,20.9759,119.3,-0.114893,0.0,0.0
364,90.75,35.7565,37.6519,133.064,99.0779,100.732,0.00493808,0.0656545,20.9774,119.189,-0.139133,0.0,0.0
371,92.5,35.8833,37.8548,130.67,99.0723,100.52,0.00467505,0.0644904,20.9782,119.139,-0.121943,0.0,0.0
378,94.25,35.407,37.4133,136.753,99.0703,101.279,0.00440647,0.0634172,20.9786,119.049,-0.185337,0.0,0.0
385,96,35.6276,37.3604,136.052,99.0723,100.279,0.00407697,0.0623397,20.9798,118.999,-0.101773,0.0,0.0
392,97.75,34.7759,36.8949,131.275,99.0663,100.734,0.00376175,0.0605628,20.9824,118.949,-0.140305,0.0,0.0
399,99.5,35.5604,37.2874,134.747,99.0262,100.494,0.00348024,0.0591516,20.9842,118.889,-0.123688,0.0,0.0
406,101.25,35.1675,37.6479,132.629,99.0262,100.754,0.00313794,0.057787,20.9863,118.809,-0.145342,0.0,0.0
413,103,35.8963,37.2583,133.182,99.0346,100.277,0.00279703,0.0561428,20.9878,118.739,-0.10478,0.0,0.0
420,104.75,35.1822,37.7732,133.86,99.0146,99.9371,0.00258001,0.0545939,20.99,118.619,-0.0779339,0.0,0.0
427,106.5,34.8485,37.3566,133.17,99.0118,100.241,0.00239205,0.0529753,20.9917,118.559,-0.103688,0.0,0.0
434,108.25,34.9805,36.8951,133.398,98.987,100.418,0.00213519,0.0515752,20.9935,118.509,-0.120598,0.0,0.0
441,110,35.0384,36.6152,131.22,98.9886,100.215,0.00185984,0.0504641,20.9956,118.449,-0.103453,0.0,0.0
448,111.75,34.8021,37.258,135.036,98.9802,100.162,0.0015764,0.0493944,20.997,118.409,-0.09975,0.0,0.0
455,113.5,34.8052,36.8336,133.653,98.9577,99.9032,0.00135299,0.048298,20.999,118.329,-0.0799104,0.0,0.0
462,115.25,34.9191,36.529,131.268,98.9409,100.123,0.00121565,0.0473886,21.0006,118.258,-0.099788,0.0,0.0
469,117,34.2906,36.1613,132.361,98.9413,100.113,0.00114091,0.0464819,21.0015,118.208,-0.0989669,0.0,0.0
476,118.75,34.6722,36.3226,130.45,98.9297,100.27,0.0010989,0.0457351,21.0025,118.158,-0.113092,0.0,0.0
483,120.5,34.9384,36.2537,134.37,98.9085,100.865,0.00107676,0.0450887,21.0029,118.118,-0.164641,0.0,0.0
490,122.25,33.9648,36.5689,133.665,98.9008,100.261,0.0010134,0.044492,21.0031,118.018,-0.114794,0.0,0.0
497,124,34.182,36.5238,134.454,98.8908,100.224,0.000869163,0.0440249,21.0037,117.948,-0.11254,0.0,0.0
504,125.75,33.8909,35.9972,132.541,98.8856,100.46,0.000772777,0.0435628,21.0047,117.938,-0.132754,0.0,0.0
511,127.5,33.9873,36.1575,129.549,98.886,100.091,0.000735579,0.0432532,21.0052,117.868,-0.101791,0.0,0.0
518,129.25,34.4515,36.1591,129.92,98.8752,99.8046,0.000744164,0.0431106,21.0054,117.838,-0.0786205,0.0,0.0
525,131,34.4905,36.4209,133.298,98.8612,100.305,0.000742235,0.0430804,21.006,117.788,-0.12183,0.0,0.0
532,132.75,33.909,36.1187,138.698,98.8604,100.443,0.000681803,0.0431094,21.007,117.688,-0.13348,0.0,0.0
539,134.5,34.0949,35.6099,131.682,98.8704,100.065,0.000594758,0.0430112,21.0075,117.718,-0.100944,0.0,0.0
546,136.25,33.6334,35.7853,135.226,98.856,99.7189,0.000481313,0.0429882,21.0075,117.588,-0.0730369,0.0,0.0
553,138,33.9484,35.92,131.515,98.842,100.228,0.000407637,0.0428775,21.0065,117.538,-0.117031,0.0,0.0
560,139.75,34.1171,35.6908,134.692,98.8448,99.8813,0.000358106,0.0428604,21.0061,117.518,-0.0876686,0.0,0.0
567,141.5,34.0221,36.0029,132.184,98.8524,100.066,0.000301415,0.0429181,21.0055,117.428,-0.102552,0.0,0.0
574,143.25,33.9608,35.8309,128.518,98.842,100.426,0.000273818,0.0429828,21.0052,117.458,-0.133627,0.0,0.0
581,145,34.0467,35.8956,136.576,98.8452,99.6542,0.000262533,0.0428336,21.0051,117.388,-0.0685018,0.0,0.0
588,146.75,33.9206,35.7504,131.741,98.8408,99.8224,0.000178796,0.0427812,21.0051,117.288,-0.0830512,0.0,0.0
595,148.5,33.2854,35.2524,132.014,98.838,99.8657,6.8175e-05,0.0427458,21.005,117.267,-0.0869337,0.0,0.0
602,150.25,34.5042,36.333,132.2,98.8472,100.083,3.62424e-06,0.0428454,21.005,117.237,-0.104419,0.0,0.0
609,152,33.6348,35.7266,133.734,98.8384,99.9103,1.62846e-05,0.0429472,21.0056,117.137,-0.0906534,0.0,0.0
616,153.75,33.3122,35.5022,134.821,98.8183,100.381,0.000156435,0.0429722,21.0065,117.107,-0.131864,0.0,0.0
623,155.5,33.6213,35.3065,133.193,98.8219,99.8064,0.000368475,0.0429597,21.0069,117.087,-0.0833001,0.0,0.0
630,157.25,33.8327,35.5115,134.433,98.8227,100.188,0.00052834,0.0428461,21.0067,117.007,-0.115335,0.0,0.0
637,159,33.7652,35.3408,133.997,98.84,99.8122,0.000576105,0.0427872,21.0058,116.987,-0.0822555,0.0,0.0
644,160.75,33.1079,34.9103,135.078,98.8267,99.685,,0.042765,,116.927,-0.072665,0.0,0.0
651,162.5,33.3408,35.1443,130.366,98.8271,100.119,,0.0427366,,116.907,-0.109156,0.0,0.0
658,164.25,33.3335,35.441,134.859,98.8336,100.582,,,,116.797,-0.147365,0.0,0.0
665,166,33.1979,35.1318,137.136,98.8384,100.245,,,,116.747,-0.118721,0.0,0.0
672,167.75,33.5211,35.1449,133.944,98.856,100.37,,,,116.767,-0.127766,0.0,0.0
679,169.5,33.2203,35.1214,132.635,98.832,99.8242,,,,116.727,-0.0839507,0.0,0.0
686,171.25,33.8182,35.1722,133.278,98.8291,100.017,,,,116.637,-0.100403,0.0,0.0