File: 01_Data/Standard_Gypsum/Cone/Standard_Gypsum_Cone_HF75Scan_220511_R1.csv
Names,Time,Stack TC,Smoke TC,Exh Press,Smoke Comp,Smoke Meas,CO Meter,CO2 Meter,O2 Meter,Sample Mass,Ext Coeff,Start Test,Flame Verif
Chan Gain,,500,500,1,1,1,1,1,1,1,1,1.0,1.0
Offset,,0,0,0.138628,0,0,0,0,0,0,0,0.0,0.0
Gain,,1,1,25.011,13.1256,14.6231,1,1,1,1.001,0.958019,1.0,1.0
Units,sec,C,C,Pa,%,%,%,%,%,g,/m,,
Baseline,,45.0743,46.9498,130.199,99.3062,102.142,0.000418213,0.0424503,21.0031,-445.909,-0.236519,,
7,1.5,41.7829,43.2178,133.174,99.0903,101.519,0.000352952,0.0446411,21.0007,126.477,-0.203461,0.0,0.0
14,3.25,41.2611,43.0509,130.542,99.0663,100.977,0.000513059,0.0444879,21.0004,126.397,-0.160533,0.0,0.0
21,5,41.3689,43.3908,129.011,99.0775,100.59,0.000847534,0.0446852,21.0005,126.327,-0.127357,0.0,0.0
28,6.75,41.3168,43.4771,130.643,99.0643,100.495,0.00133227,0.0454187,21.0005,126.236,-0.120496,0.0,0.0
35,8.5,41.5699,43.5544,128.805,99.0394,100.519,0.00173516,0.0462232,20.9995,126.136,-0.124655,0.0,0.0
42,10.25,41.6872,43.5389,129.338,99.0406,99.7573,0.00198697,0.0470017,20.9986,126.016,-0.0605876,0.0,0.0
49,12,41.6217,43.5195,131.622,99.027,99.2824,0.00212752,0.0480576,20.9965,125.906,-0.0216481,0.0,0.0
56,13.75,42.1489,44.1845,131.277,99.0242,98.0512,0.00227857,0.0493141,20.9936,125.776,0.0829825,0.0,0.0
63,15.5,42.0425,44.2434,128.458,99.0066,95.9658,0.00254396,0.0507835,20.9908,125.706,0.262147,0.0,0.0
70,17.25,42.7495,44.1935,128.64,99.0126,94.204,0.00288752,0.0644659,20.9807,125.516,0.418373,0.0,0.0
77,19,42.9938,44.7886,117.451,98.9962,105.056,0.00315039,0.108504,20.923,124.625,-0.499296,0.0,1.0
84,20.75,43.7539,45.5298,117.636,98.9998,104.738,0.00322935,0.208345,20.8246,124.935,-0.473499,0.0,1.0
91,22.5,45.4728,46.5988,111.758,98.9978,104.305,0.00313503,0.307595,20.7095,124.595,-0.438865,0.0,1.0
98,24.25,46.49,46.4232,114.479,98.997,104.743,0.00298522,0.377269,20.6453,124.285,-0.474131,0.0,0.0
105,26,48.6497,48.6763,111.958,98.9862,104.576,0.00293691,0.408899,20.614,124.064,-0.461648,0.0,0.0
112,27.75,49.7116,49.7367,114.667,98.9834,104.393,0.00324046,0.408221,20.6117,123.784,-0.447206,0.0,0.0
119,29.5,51.0185,51.0791,120.589,98.9886,104.116,0.00439224,0.386817,20.6318,123.554,-0.424389,0.0,0.0
126,31.25,52.5909,52.1788,127.698,98.987,102.696,0.00693563,0.326862,20.7113,123.464,-0.309157,0.0,0.0
133,33,52.4051,52.9162,126.763,98.9874,102.222,0.00964541,0.254259,20.7862,123.334,-0.270178,0.0,0.0
140,34.75,51.1579,52.3675,128.208,99.0082,102.147,0.0121231,0.196241,20.8365,123.163,-0.262318,0.0,0.0
147,36.5,50.2882,52.0833,130.342,99.0062,102.885,0.0138836,0.159572,20.868,122.993,-0.322922,0.0,0.0
154,38.25,50.2614,52.1466,127.825,99.0098,102.508,0.0146536,0.139035,20.8869,122.953,-0.291795,0.0,0.0
161,40,49.4875,51.2687,127.055,99.0062,101.874,0.0147739,0.127344,20.8976,122.793,-0.239989,0.0,0.0
168,41.75,49.8621,51.3639,129.13,99.0122,102.766,0.0142317,0.119791,20.9017,122.703,-0.31271,0.0,0.0
175,43.5,50.1804,51.0318,126.715,99.0182,103.436,0.0135214,0.114338,20.9078,122.613,-0.366799,0.0,0.0
182,45.25,49.0762,50.9112,129.62,99.023,103.036,0.0127487,0.109314,20.9146,122.483,-0.333878,0.0,0.0
189,47,49.4953,51.0432,127.571,99.0158,101.596,0.0120426,0.104737,20.9198,122.393,-0.216208,0.0,0.0
196,48.75,48.9713,50.6349,127.179,99.0098,103.477,0.0112872,0.100753,20.9246,122.283,-0.370884,0.0,0.0
203,50.5,48.7649,50.5768,127.921,99.0098,102.81,0.0105167,0.0968509,20.9296,122.192,-0.31649,0.0,0.0
210,52.25,48.688,50.7362,128.051,99.019,101.723,0.00985058,0.0935918,20.9351,122.052,-0.226376,0.0,0.0
217,54,48.4781,50.7768,129.082,99.0074,101.614,0.009364,0.090768,20.9388,121.932,-0.218361,0.0,0.0
224,55.75,48.3277,50.1932,131.52,99.007,103.493,0.00894193,0.0885017,20.9411,121.852,-0.37239,0.0,0.0
231,57.5,47.79,49.8084,129.269,99.003,102.49,0.0085581,0.0865564,20.9453,121.772,-0.29091,0.0,0.0
238,59.25,47.442,50.6737,127.815,99.0114,102.25,0.00823988,0.0848645,20.9481,121.672,-0.270486,0.0,0.0
245,61,47.3826,49.4118,128.298,99.0022,101.644,0.00797909,0.0832446,20.951,121.542,-0.221276,0.0,0.0
252,62.75,47.3427,49.8262,131.207,99.0018,102.591,0.00773192,0.0813869,20.9528,121.472,-0.299277,0.0,0.0
259,64.5,47.2525,50.1191,127.76,99.0122,102.255,0.00751279,0.0797709,20.9531,121.352,-0.270858,0.0,0.0
266,66.25,47.4988,49.7616,128.224,98.997,102.251,0.00731475,0.0786036,20.9543,121.251,-0.271746,0.0,0.0
273,68,46.9313,49.0915,125.5,99.0062,102.834,0.00707339,0.0776459,20.9558,121.161,-0.318766,0.0,0.0
280,69.75,46.964,49.7249,127.017,99.0074,102.481,0.00679206,0.0764872,20.9565,121.041,-0.289803,0.0,0.0
287,71.5,47.3336,49.4534,130.099,99.0066,102.033,0.0064728,0.0749315,20.9574,120.961,-0.253049,0.0,0.0
294,73.25,47.0184,49.1222,127.734,99.0086,102.843,0.00613412,0.0731028,20.9593,120.831,-0.319291,0.0,0.0
301,75,46.8365,49.2469,127.525,99.0154,101.687,0.00571686,0.0710728,20.9621,120.771,-0.223731,0.0,0.0
308,76.75,46.7615,49.1602,128.205,99.0018,102.499,0.00529125,0.0691548,20.9653,120.661,-0.291743,0.0,0.0
315,78.5,46.9146,49.2304,129.753,99.0158,102.421,0.00494861,0.0667244,20.9681,120.591,-0.284148,0.0,0.0
322,80.25,46.7237,49.0871,127.253,99.007,103.784,0.0046046,0.0642918,20.9721,120.521,-0.39602,0.0,0.0
329,82,46.4724,49.0776,129.327,99.0202,102.969,0.00419468,0.0616711,20.9763,120.401,-0.328618,0.0,0.0
336,83.75,46.5803,49.1377,126.507,99.0274,101.958,0.00361126,0.0589115,20.9803,120.281,-0.245068,0.0,0.0
343,85.5,45.8319,48.653,129.039,99.0214,102.019,0.00311285,0.0564092,20.9837,120.2,-0.250616,0.0,0.0
350,87.25,46.1534,48.577,130.917,99.0206,101.89,0.0025851,0.0538815,20.9873,120.13,-0.240054,0.0,0.0
357,89,45.9013,48.885,129.216,99.0378,102.879,0.0021592,0.0518294,20.9899,120.03,-0.319799,0.0,0.0
364,90.75,46.0011,48.9758,130.608,99.0346,102.242,0.00181758,0.0497351,20.9938,119.96,-0.267817,0.0,0.0
371,92.5,46.1266,48.6511,129.569,99.0214,101.62,0.00147636,0.048028,20.9962,119.91,-0.217725,0.0,0.0
378,94.25,46.1526,48.535,129.909,99.0282,101.897,0.00111981,0.0466069,20.9984,119.84,-0.239996,0.0,0.0
385,96,45.7117,47.9936,126.315,99.0382,101.248,0.000854814,0.0456505,20.9996,119.72,-0.185426,0.0,0.0
392,97.75,46.2842,48.1823,132.49,99.0551,101.95,0.000707756,0.0449214,21.0002,119.67,-0.242098,0.0,0.0
399,99.5,45.3835,47.9666,125.96,99.0599,102.022,0.00061029,0.0445255,21.0004,119.64,-0.247611,0.0,0.0
406,101.25,45.3721,47.7302,129.554,99.0426,102.363,0.000520921,0.0442369,21.0006,119.52,-0.277073,0.0,0.0
413,103,45.654,48.2708,129.203,99.0446,102.406,0.000494808,0.0440693,21.0006,119.41,-0.280456,0.0,0.0
420,104.75,45.5561,48.3065,126.39,99.0663,102.933,0.00057117,0.0439938,21.0007,119.42,-0.321759,0.0,0.0
427,106.5,45.4644,47.9618,128.36,99.0559,101.962,0.000637868,0.0438598,21.0007,119.31,-0.243023,0.0,0.0
434,108.25,45.7085,47.8563,128.731,99.0591,102.963,0.000638528,0.0436377,21.0007,119.249,-0.324848,0.0,0.0
441,110,44.9647,47.7962,127.176,99.0691,102.485,0.000603536,0.0434019,21.0019,119.159,-0.284862,0.0,0.0
448,111.75,45.1403,47.4323,127.56,99.0639,102.443,0.000586147,0.043296,21.0025,119.139,-0.281863,0.0,0.0
455,113.5,45.3172,47.9955,129.765,99.0743,102.577,0.000669092,0.0431382,21.0027,119.069,-0.291992,0.0,0.0
462,115.25,44.9182,47.4953,130.091,99.0679,102.351,0.000800866,0.0429985,21.0029,119.019,-0.273943,0.0,0.0
469,117,45.0468,47.1392,129.247,99.0843,101.994,0.000903497,0.0429616,21.0029,118.909,-0.243259,0.0,0.0
476,118.75,45.0817,47.87,129.477,99.0923,102.522,0.000918625,0.042889,21.003,118.839,-0.285965,0.0,0.0
483,120.5,45.0656,47.4662,130.759,99.1171,101.62,0.00082359,0.0429211,21.003,118.739,-0.209604,0.0,0.0
490,122.25,44.9898,47.6572,123.799,99.1135,102.582,0.000748058,0.0430682,21.003,118.759,-0.289065,0.0,0.0
497,124,45.1674,47.6938,132.656,99.1123,102.614,0.000686044,0.0431362,21.003,118.699,-0.291762,0.0,0.0
504,125.75,44.8389,47.1048,130.587,99.1123,102.45,0.000603349,0.0430454,21.003,118.549,-0.278338,0.0,0.0
511,127.5,44.8111,46.9054,128.544,99.1244,102.205,0.000524167,0.0430638,21.002,118.539,-0.257163,0.0,0.0
518,129.25,44.4038,46.6912,129.515,99.1216,102.067,0.000415628,0.0429914,21.002,118.519,-0.246054,0.0,0.0
525,131,44.7152,47.2319,127.487,99.1208,102.496,0.000310907,0.0430014,21.0025,118.439,-0.281358,0.0,0.0
532,132.75,44.8788,47.2661,128.535,99.1143,102.158,0.000290192,0.0430566,21.003,118.339,-0.254194,0.0,0.0
539,134.5,44.7701,47.0108,130.176,99.116,102.488,0.000363549,0.0430717,21.004,118.319,-0.281107,0.0,0.0
546,136.25,44.0882,46.8711,127.938,99.1284,102.84,0.000424989,0.0430638,21.0045,118.268,-0.308876,0.0,0.0
553,138,44.223,46.7493,128.28,99.116,102.416,0.000483143,0.0430545,21.0047,118.218,-0.27525,0.0,0.0
560,139.75,43.6901,47.0697,129.219,99.1135,103.2,0.00058481,0.0430492,21.0048,118.158,-0.339546,0.0,0.0
567,141.5,44.1212,46.366,129.991,99.1324,102.695,0.000699962,0.043023,21.0049,118.068,-0.296713,0.0,0.0
574,143.25,44.5122,46.8185,128.27,99.124,101.8,,0.0429105,,118.008,-0.223849,0.0,0.0
581,145,44.3256,47.1128,129.265,99.1248,102.501,,0.0427718,,117.988,-0.281457,0.0,0.0
588,146.75,44.1546,46.761,129.956,99.1168,102.263,,,,117.938,-0.262613,0.0,0.0
595,148.5,44.2549,46.747,131.852,99.1111,102.093,,,,117.888,-0.249104,0.0,0.0
602,150.25,44.2982,46.8751,129.855,99.1119,102.829,,,,117.818,-0.309393,0.0,0.0
609,152,44.471,46.4515,130.054,99.142,102.049,,,,117.758,-0.242889,0.0,0.0
613,153,44.5664,46.7633,127.913,99.1356,102.861,,,,117.718,-0.310015,0.0,0.0