File: 01_Data/Standard_Gypsum/Cone/Standard_Gypsum_Cone_HF75Scalar_220511_R3.csv
LABORATORY,FSRI
TEST IDENT,Standard_Gypsum_75_3
OPERATOR,Dow
MATERIAL,Standard Gypsum
ORIENTATION,Horizontal
HEAT FLUX,75
SURF AREA,0.01
C FACTOR,0.0418584
SPEC HOLDER DIFF,-566
SPECIMEN MASS,78.09
SCAN TIME,0.25
O2 DELAY TIME,11
CO DELAY TIME,11
CO2 DELAY TIME,8
FLOW FACTOR,1
SCAN COUNT,650
TIME TO IGN,3.75
END OF TEST SCAN,170
END OF TEST TIME,42.5
TEST STATUS,1
PRE TEST CMT,Dimensions: 100.41 x 102.65 x 12.72 mm
POST TEST CMT,"When the shutter was removed, ignition occurred almost instantaneously along the side of the sample and there was some flame spread across the surface of the sample until the rest of the sample ignited. After the flame self-extinguished, the gypsum paper shriveled and curled and had an orange glow, however the test was ended because there was no longer ignition."