File: 01_Data/Lightweight_Gypsum_Wallboard/Cone/Lightweight_Gypsum_Wallboard_Cone_HF50Scan_220506_R1.csv
Names,Time,Stack TC,Smoke TC,Exh Press,Smoke Comp,Smoke Meas,CO Meter,CO2 Meter,O2 Meter,Sample Mass,Ext Coeff,Start Test,Flame Verif
Chan Gain,,500,500,1,1,1,1,1,1,1,1,1.0,1.0
Offset,,0,0,0.135316,0,0,0,0,0,0,0,0.0,0.0
Gain,,1,1,25.011,13.8443,15.4071,1,1,1,1.00079,1.02936,1.0,1.0
Units,sec,C,C,Pa,%,%,%,%,%,g,/m,,
Baseline,,29.1243,30.3238,137.001,105.25,105.119,0.000493459,0.0419306,20.9985,-446.952,0.0112523,,
7,1.5,27.7959,30.0049,134.916,104.238,104.014,0.000247684,0.0440463,20.9997,109.426,0.0193898,0.0,0.0
14,3.25,27.2616,28.964,135.051,104.213,104.133,0.000341907,0.0439541,21.0002,109.356,0.00698632,0.0,0.0
21,5,28.1501,29.3233,135.475,104.209,104.008,0.000452683,0.0443039,21.0011,109.346,0.0173907,0.0,0.0
28,6.75,28.0609,29.0007,136.877,104.294,104.25,0.000526875,0.0452052,21.0007,109.336,0.00386666,0.0,0.0
35,8.5,27.95,29.3987,131.834,104.425,104.595,0.000566553,0.0459956,20.9992,109.266,-0.0146444,0.0,0.0
42,10.25,28.2402,29.4298,135.316,104.54,103.998,0.0005329,0.0467195,20.9982,109.206,0.0469485,0.0,0.0
49,12,28.4475,29.3058,135.812,104.652,104.384,0.000433301,0.0470788,20.9972,109.126,0.0231558,0.0,0.0
56,13.75,28.5755,29.8504,133.923,104.771,104.757,0.000342883,0.0472469,20.9961,109.036,0.00123777,0.0,0.0
63,15.5,28.4808,29.6248,136.788,104.88,104.38,0.00036995,0.0472391,20.9962,109.006,0.0431441,0.0,0.0
70,17.25,28.2046,29.4091,135.086,104.961,104.626,0.000427428,0.0472252,20.9956,108.916,0.0288411,0.0,0.0
77,19,28.5967,30.0009,134.609,105.032,104.514,0.000460118,0.0472377,20.9954,108.776,0.0446481,0.0,0.0
84,20.75,28.6243,29.368,136.686,105.073,104.208,0.000489909,0.0470572,20.9952,108.716,0.0746902,0.0,0.0
91,22.5,28.5465,29.8531,137.025,105.096,103.443,0.000543073,0.0468889,20.9952,108.746,0.143104,0.0,0.0
98,24.25,29.0482,29.8323,134.799,105.084,102.994,0.000638764,0.046966,20.9932,108.676,0.181405,0.0,0.0
105,26,29.2385,30.1008,135.336,105.027,101.392,0.000791866,0.0479575,20.9897,108.546,0.317973,0.0,0.0
112,27.75,29.185,29.9736,129.319,104.973,100.091,0.00120259,0.0492648,20.9862,108.516,0.430006,0.0,0.0
119,29.5,29.1092,30.4181,136.709,104.874,99.6719,0.001696,0.0527393,20.9829,108.406,0.459377,0.0,0.0
126,31.25,29.5002,30.3307,126.351,104.731,107.345,0.0021153,0.101118,20.9066,108.145,-0.222579,0.0,1.0
133,33,29.272,31.1414,114.499,104.569,109.012,0.00237238,0.205602,20.7915,107.885,-0.375743,0.0,1.0
140,34.75,31.5496,31.2823,120.936,104.543,108.593,0.00259995,0.299265,20.687,107.595,-0.34324,0.0,1.0
147,36.5,33.3213,32.8566,115.013,104.615,107.542,0.00276691,0.377985,20.606,107.285,-0.249234,0.0,1.0
154,38.25,35.423,34.9713,121.639,104.693,108.526,0.00289821,0.40904,20.5769,107.014,-0.324666,0.0,0.0
161,40,37.0876,36.493,123.226,104.76,107.213,0.00310544,0.400085,20.5947,106.774,-0.208983,0.0,0.0
168,41.75,37.8859,37.6517,129.165,104.854,107.819,0.00378554,0.357733,20.6288,106.654,-0.251801,0.0,0.0
175,43.5,38.8187,38.5726,131.512,104.959,106.278,0.00519259,0.309409,20.6944,106.494,-0.112774,0.0,0.0
182,45.25,38.7597,39.1221,132.031,105.048,105.24,0.00709417,0.245023,20.7785,106.434,-0.0165513,0.0,0.0
189,47,38.8873,39.0483,130.915,105.125,105.803,0.00864576,0.189509,20.8436,106.304,-0.0580678,0.0,0.0
196,48.75,37.7282,38.3398,132.384,105.2,105.868,0.00994853,0.151608,20.8839,106.174,-0.0571465,0.0,0.0
203,50.5,37.9882,38.1478,134.285,105.275,105.523,0.0107446,0.12819,20.9069,106.114,-0.0212871,0.0,0.0
210,52.25,37.4512,38.0108,133.436,105.347,105.523,0.0111272,0.113612,20.9212,105.994,-0.015053,0.0,0.0
217,54,37.229,38.0647,133.599,105.366,106.232,0.0111908,0.105352,20.928,105.904,-0.0739684,0.0,0.0
224,55.75,37.142,38.1017,130.372,105.376,105.752,0.0109833,0.100372,20.9331,105.833,-0.0322028,0.0,0.0
231,57.5,36.3011,37.1674,135.27,105.377,105.929,0.0107347,0.0976187,20.9363,105.743,-0.047137,0.0,0.0
238,59.25,36.2323,37.8257,131.689,105.336,105.633,0.0105021,0.0954164,20.9382,105.583,-0.0254803,0.0,0.0
245,61,36.6727,37.6329,131.586,105.303,105.547,0.0103183,0.0937162,20.9391,105.463,-0.0209472,0.0,0.0
252,62.75,35.5776,37.0674,130.738,105.211,105.95,0.0102105,0.0920874,20.9396,105.413,-0.0632146,0.0,0.0
259,64.5,35.9025,36.9426,132.716,105.109,105.94,0.0100957,0.0911896,20.941,105.323,-0.07108,0.0,0.0
266,66.25,35.373,35.7213,136.344,104.99,105.615,0.00980546,0.0900161,20.9421,105.233,-0.053546,0.0,0.0
273,68,35.5287,37.0499,136.616,104.851,105.411,0.00948329,0.0885838,20.9434,105.033,-0.0481228,0.0,0.0
280,69.75,35.0891,36.0964,135.03,104.675,105.182,0.00905926,0.0873454,20.944,105.063,-0.0436714,0.0,0.0
287,71.5,34.4162,36.6737,137.728,104.505,104.779,0.00866177,0.0863713,20.9459,104.973,-0.0236395,0.0,0.0
294,73.25,34.4688,35.6397,133.893,104.339,104.595,0.00831315,0.0850348,20.9492,104.873,-0.0220996,0.0,0.0
301,75,35.1084,36.0354,134.533,104.14,104.14,0.00805341,0.0835157,20.9516,104.753,2.15279e-06,0.0,0.0
308,76.75,34.2873,36.1448,137.687,103.975,104.245,0.00789116,0.0820882,20.9523,104.653,-0.0234258,0.0,0.0
315,78.5,34.647,35.7881,132.937,103.808,104.461,0.00786096,0.0814224,20.9519,104.572,-0.0566412,0.0,0.0
322,80.25,34.2572,35.8057,133.93,103.646,104.291,0.00783569,0.0812073,20.9517,104.462,-0.055962,0.0,0.0
329,82,33.9505,35.5529,134.381,103.514,103.845,0.00774932,0.080992,20.9522,104.452,-0.0288925,0.0,0.0
336,83.75,34.0552,35.6575,135.784,103.417,103.614,0.00754825,0.0805857,20.953,104.402,-0.0172404,0.0,0.0
343,85.5,33.9028,35.4485,133.027,103.343,104.515,0.00729198,0.0800228,20.954,104.302,-0.101788,0.0,0.0
350,87.25,33.9457,36.5049,137.554,103.277,103.938,0.00712038,0.0792486,20.9561,104.202,-0.0576426,0.0,0.0
357,89,33.7581,35.524,135.106,103.265,103.713,0.00703892,0.0786167,20.9571,104.112,-0.0391309,0.0,0.0
364,90.75,34.0237,35.5484,135.551,103.304,103.586,0.00699387,0.0780451,20.9588,104.072,-0.0245995,0.0,0.0
371,92.5,33.3137,35.7307,133.828,103.378,103.863,0.00688891,0.0774035,20.9597,103.982,-0.04228,0.0,0.0
378,94.25,33.1492,35.2275,134.662,103.468,103.817,0.0067267,0.0764277,20.9606,103.912,-0.0304578,0.0,0.0
385,96,33.3631,35.6859,131.407,103.585,103.793,0.00661304,0.0754198,20.9618,103.812,-0.0181641,0.0,0.0
392,97.75,33.9857,35.5122,132.564,103.72,104.344,0.00650041,0.0744777,20.9619,103.762,-0.0541627,0.0,0.0
399,99.5,33.2483,34.7114,134.985,103.875,104.054,0.00624392,0.0735855,20.9624,103.692,-0.0155306,0.0,0.0
406,101.25,33.0495,35.3762,135.25,104.015,104.254,0.00593304,0.0728114,20.9634,103.602,-0.0207881,0.0,0.0
413,103,32.9635,34.8037,134.921,104.159,104.653,0.00563597,0.0720902,20.9651,103.472,-0.0427207,0.0,0.0
420,104.75,32.7561,34.9663,134.836,104.301,104.582,0.00538222,0.0711803,20.9658,103.432,-0.0242951,0.0,0.0
427,106.5,33.2295,34.6747,133.174,104.417,104.651,0.00506916,0.0696705,20.9669,103.412,-0.0201678,0.0,0.0
434,108.25,32.8306,34.1039,136.811,104.52,105.112,0.00478049,0.0680637,20.9693,103.342,-0.0509639,0.0,0.0
441,110,33.2918,34.9764,132.163,104.602,104.95,0.00449985,0.0662464,20.9727,103.281,-0.0299848,0.0,0.0
448,111.75,33.264,34.899,136.519,104.639,105.147,0.00415866,0.0643733,20.9762,103.191,-0.043706,0.0,0.0
455,113.5,32.5801,34.6142,135.718,104.664,105.119,0.00377478,0.0625125,20.9788,103.091,-0.0391314,0.0,0.0
462,115.25,32.8274,34.8285,134.613,104.651,104.719,0.00346798,0.0604503,20.9817,103.001,-0.00590649,0.0,0.0
469,117,32.1562,34.2362,134.261,104.599,104.6,0.00318221,0.058431,20.9846,102.931,-0.000165228,0.0,0.0
476,118.75,32.5054,34.3542,135.616,104.522,105.14,0.00286772,0.0564439,20.9864,102.881,-0.0532038,0.0,0.0
483,120.5,32.5077,34.9492,133.702,104.47,104.854,0.00256213,0.0547372,20.9891,102.811,-0.0331102,0.0,0.0
490,122.25,32.428,34.2677,135.219,104.396,105.193,0.00225385,0.0529964,20.9919,102.761,-0.068726,0.0,0.0
497,124,32.4226,34.1819,136.126,104.302,104.775,0.00199946,0.0513833,20.9941,102.741,-0.0408878,0.0,0.0
504,125.75,32.4238,34.2129,134.452,104.238,104.946,0.00176561,0.0502366,20.9951,102.681,-0.0611093,0.0,0.0
511,127.5,32.2227,33.7679,133.859,104.197,104.914,0.00153835,0.0490727,20.9957,102.601,-0.0619085,0.0,0.0
518,129.25,32.0404,33.7837,136.225,104.228,104.474,0.00125997,0.0481207,20.996,102.541,-0.0212461,0.0,0.0
525,131,32.1175,33.8843,133.295,104.536,104.748,0.00103235,0.0473552,20.9962,102.491,-0.0182962,0.0,0.0
532,132.75,32.1678,33.5995,137.741,104.776,105.262,0.000869803,0.0469323,20.9967,102.421,-0.0418285,0.0,0.0
539,134.5,31.6779,33.9687,134.671,104.942,105.353,0.000851547,0.0464317,20.9977,102.361,-0.0353117,0.0,0.0
546,136.25,32.136,33.7938,133.313,105.048,105.701,0.000902904,0.0460145,20.9982,102.281,-0.055923,0.0,0.0
553,138,32.0035,33.7991,136.448,105.081,105.431,0.000922507,0.0455416,20.9986,102.251,-0.0300464,0.0,0.0
560,139.75,31.7863,33.9759,135.689,105.034,105.148,0.000846376,0.0451971,20.9997,102.211,-0.0098032,0.0,0.0
567,141.5,32.0481,33.9863,133.014,104.916,105.146,0.000730581,0.0448704,21.0003,102.171,-0.0198172,0.0,0.0
574,143.25,31.6355,33.8736,133.237,104.708,105.028,0.000630927,0.0445746,21.0006,102.101,-0.0275077,0.0,0.0
581,145,31.3352,33.6759,135.414,104.521,104.903,0.000561208,0.0443992,21.0008,102.051,-0.0329395,0.0,0.0
588,146.75,31.8169,33.2204,139.933,104.619,105.1,0.000548075,0.0442192,21.0018,102.03,-0.0414209,0.0,0.0
595,148.5,31.9628,33.2207,135.158,104.732,104.875,0.000569763,0.0440788,21.0027,101.99,-0.0123164,0.0,0.0
602,150.25,31.2999,33.437,135.444,104.877,105.335,0.000534071,0.0439148,21.0011,101.96,-0.0393801,0.0,0.0
609,152,31.4016,32.6751,138.937,105.022,105.411,0.000485452,0.0438293,20.9997,101.9,-0.0333225,0.0,0.0
616,153.75,31.4086,33.3507,134.301,105.164,105.551,0.000456188,0.0437355,20.9992,101.84,-0.03312,0.0,0.0
623,155.5,31.5949,33.2264,135.807,105.29,105.577,0.000408114,0.0436353,21,101.8,-0.0245687,0.0,0.0
630,157.25,31.7041,33.5064,134.504,105.343,105.96,,0.0436718,,101.72,-0.0527513,0.0,0.0
637,159,31.3338,33.1337,135.037,105.366,105.778,,,,101.67,-0.0352393,0.0,0.0
644,160.75,31.5013,33.2141,134.309,105.382,105.858,,,,101.6,-0.0406845,0.0,0.0
651,162.5,31.3085,33.5686,138.284,105.333,106.199,,,,101.5,-0.0739147,0.0,0.0
658,164.25,30.9343,32.997,135.811,105.254,106.03,,,,101.28,-0.0663673,0.0,0.0
665,166,31.5225,33.2204,135.125,105.124,105.327,,,,101.39,-0.0174404,0.0,0.0
667,166.5,31.2647,33.456,132.813,105.094,106.17,,,,101.42,-0.0920026,0.0,0.0