File: 01_Data/Lightweight_Gypsum_Wallboard/Cone/Lightweight_Gypsum_Wallboard_Cone_HF25Scalar_220506_R3.csv
LABORATORY,FSRI
TEST IDENT,LW_Gypsum_HF25_3
OPERATOR,Dow
MATERIAL,lightweight gypsum
ORIENTATION,Horizontal
HEAT FLUX,25
SURF AREA,0.01
C FACTOR,0.0414606
SPEC HOLDER DIFF,-566
SPECIMEN MASS,64.08
SCAN TIME,0.25
O2 DELAY TIME,11
CO DELAY TIME,11
CO2 DELAY TIME,8
FLOW FACTOR,1
SCAN COUNT,1145
TIME TO IGN,150.5
END OF TEST SCAN,665
END OF TEST TIME,166.25
TEST STATUS,1
PRE TEST CMT,Dimensions: 101.95 x 98.64 x 12.53 mm