File: 01_Data/Lightweight_Gypsum_Wallboard/Cone/Lightweight_Gypsum_Wallboard_Cone_HF25Scan_220506_R2.csv
Names,Time,Stack TC,Smoke TC,Exh Press,Smoke Comp,Smoke Meas,CO Meter,CO2 Meter,O2 Meter,Sample Mass,Ext Coeff,Start Test,Flame Verif
Chan Gain,,500,500,1,1,1,1,1,1,1,1,1.0,1.0
Offset,,0,0,0.135316,0,0,0,0,0,0,0,0.0,0.0
Gain,,1,1,25.011,13.8443,15.4071,1,1,1,1.00079,1.02936,1.0,1.0
Units,sec,C,C,Pa,%,%,%,%,%,g,/m,,
Baseline,,18.2578,18.7871,142.135,104.634,103.652,2.21041e-05,0.0449432,21.0016,-446.387,0.0851273,,
12,2.75,17.2179,17.8932,149.136,104.455,103.482,0.000186234,0.0492572,20.9988,114.03,0.0844634,0.0,0.0
24,5.75,17.2003,17.7723,137.508,104.45,103.569,8.84266e-05,0.0479157,21.0005,114.06,0.076476,0.0,0.0
36,8.75,16.9957,18.0849,143.978,104.446,103.691,-1.91935e-05,0.0477643,21.0001,114.03,0.0655764,0.0,0.0
48,11.75,17.6064,18.1144,141.4,104.441,103.459,-0.00013856,0.0487991,20.9986,114.01,0.0853474,0.0,0.0
60,14.75,17.0492,17.6699,140.348,104.434,103.537,-0.000141,0.0490373,20.9982,113.97,0.0779157,0.0,0.0
72,17.75,17.474,17.985,143.912,104.424,103.545,-7.5316e-05,0.048466,20.9999,113.97,0.0763383,0.0,0.0
84,20.75,17.4281,18.0958,142.19,104.428,103.475,2.20704e-05,0.0474799,21.0014,113.95,0.0828189,0.0,0.0
96,23.75,17.64,18.2847,141.843,104.427,103.433,-3.53287e-06,0.0464139,21.0024,113.89,0.0863976,0.0,0.0
108,26.75,17.3216,18.4135,138.85,104.434,103.522,1.39303e-05,0.0456721,21.0027,113.86,0.0791513,0.0,0.0
120,29.75,17.0956,17.8774,139.176,104.423,103.434,0.000169519,0.0451533,21.0028,113.81,0.0859146,0.0,0.0
132,32.75,17.6332,18.4741,144.292,104.426,103.42,0.000122354,0.0448238,21.0028,113.75,0.0873965,0.0,0.0
144,35.75,17.6677,17.9323,145.152,104.42,103.467,0.000106749,0.0446971,21.0046,113.71,0.0827816,0.0,0.0
156,38.75,17.8597,18.4663,140.762,104.426,103.418,0.000278402,0.0444188,21.0054,113.65,0.0876023,0.0,0.0
168,41.75,17.495,17.6623,139.577,104.422,103.688,0.000271355,0.0444476,21.0046,113.61,0.063704,0.0,0.0
180,44.75,18.031,18.3731,137.498,104.41,103.465,0.000164143,0.0443007,21.003,113.57,0.0820691,0.0,0.0
192,47.75,17.5809,18.1238,143.002,104.409,103.384,6.99222e-05,0.0442949,21.0023,113.5,0.0890615,0.0,0.0
204,50.75,17.4418,18.158,143.255,104.395,103.44,8.16981e-05,0.0444532,21.0021,113.439,0.0830066,0.0,0.0
216,53.75,17.4247,18.2565,144.984,104.394,103.497,0.000163178,0.0447258,21.002,113.389,0.0778911,0.0,0.0
228,56.75,17.6555,18.4599,139.42,104.388,103.386,0.000195847,0.0446109,21.002,113.339,0.0870693,0.0,0.0
240,59.75,18.1391,18.1239,144.141,104.385,103.406,0.000216309,0.0444749,21.002,113.309,0.0850894,0.0,0.0
252,62.75,18.0559,18.1,144.567,104.378,103.39,0.000299185,0.0445903,21.0013,113.239,0.0858229,0.0,0.0
264,65.75,18.632,18.5135,139.118,104.37,103.287,0.00040225,0.044572,21.0006,113.169,0.0941675,0.0,0.0
276,68.75,18.1261,18.6931,141.123,104.365,103.321,0.000379078,0.0445748,21.0007,113.089,0.0908008,0.0,0.0
288,71.75,17.9943,18.7179,144.599,104.359,103.203,0.000266394,0.0446082,21.0007,113.039,0.10061,0.0,0.0
300,74.75,18.484,18.9338,143.415,104.361,103.205,0.000288731,0.0448257,21.0015,112.979,0.100554,0.0,0.0
312,77.75,18.1885,18.754,141.85,104.359,102.791,0.000238094,0.044938,21.002,112.969,0.136681,0.0,0.0
324,80.75,18.1628,18.4471,141.625,104.355,102.883,0.000117421,0.044996,21.0006,112.909,0.128261,0.0,0.0
336,83.75,17.8536,18.2444,143.545,104.385,102.722,0.000107192,0.0450738,20.9997,112.869,0.145062,0.0,0.0
348,86.75,18.1228,18.5986,142.833,104.474,102.638,0.000288054,0.0452719,21.0012,112.819,0.160052,0.0,0.0
360,89.75,18.1635,18.4295,138.287,104.569,102.618,0.000377865,0.045369,21.0021,112.719,0.170079,0.0,0.0
372,92.75,18.5243,19.6379,141.787,104.656,102.654,0.000449793,0.0454762,21.0024,112.619,0.17437,0.0,0.0
384,95.75,18.3776,19.2605,138.527,104.731,102.589,0.000511391,0.0459495,21.0024,112.559,0.18657,0.0,0.0
396,98.75,18.4985,19.2431,143.751,104.784,102.278,0.000623089,0.0461624,21.0015,112.539,0.218596,0.0,0.0
408,101.75,18.0492,19.0463,140.462,104.86,102.1,0.000761103,0.046267,21.0014,112.449,0.240847,0.0,0.0
420,104.75,18.8476,19.7545,143.576,104.907,102.28,0.000875314,0.0465146,21.0028,112.339,0.229056,0.0,0.0
432,107.75,18.6474,19.0456,139.824,104.983,102.385,0.000817792,0.0468265,21.0027,112.259,0.226265,0.0,0.0
444,110.75,18.5211,19.53,139.94,105.026,102.475,0.000767883,0.0470066,21.0007,112.158,0.222017,0.0,0.0
456,113.75,19.0168,19.7398,142.761,105.069,102.401,0.000926572,0.0472238,20.9998,112.128,0.232227,0.0,0.0
468,116.75,18.4234,19.3503,145.988,105.106,102.235,0.00120658,0.0475303,20.9996,112.008,0.250069,0.0,0.0
480,119.75,19.0382,19.4802,141.561,105.137,102.568,0.00136736,0.0478841,20.9989,111.948,0.223365,0.0,0.0
492,122.75,18.8803,19.0186,146.827,105.146,102.057,0.00148369,0.0482034,20.9988,111.868,0.269233,0.0,0.0
504,125.75,18.5412,19.2645,143.236,105.179,101.978,0.00161496,0.0486189,20.9987,111.768,0.279095,0.0,0.0
516,128.75,18.7259,19.0009,141.533,105.182,101.792,0.00166733,0.049128,20.9985,111.678,0.295774,0.0,0.0
528,131.75,19.2099,19.4089,143.891,105.174,101.836,0.00195722,0.0495305,20.9972,111.558,0.291278,0.0,0.0
540,134.75,18.7952,19.1051,145.926,105.173,101.605,0.00248599,0.0502591,20.9957,111.418,0.311662,0.0,0.0
552,137.75,18.5607,19.7199,140.28,105.147,100.683,0.00291127,0.0512305,20.9951,111.328,0.391763,0.0,0.0
564,140.75,19.0008,19.6403,139.966,105.126,100.288,0.00326876,0.0522342,20.994,111.218,0.425403,0.0,0.0
576,143.75,18.8836,19.148,141.072,105.092,100.576,0.00374531,0.0534677,20.991,111.088,0.396593,0.0,0.0
588,146.75,19.5696,20.3287,137.813,105.051,100.647,0.00411871,0.0550986,20.9865,110.958,0.386735,0.0,0.0
600,149.75,19.184,19.5532,138.09,104.998,104.866,0.00384167,0.0810131,20.9495,110.787,0.011408,0.0,1.0
612,152.75,20.1185,20.3781,129.888,104.945,105.707,0.00304135,0.162029,20.8623,110.437,-0.0653145,0.0,1.0
624,155.75,21.2898,21.0654,133.772,104.854,105.079,0.00337923,0.215867,20.8052,110.157,-0.0193118,0.0,0.0
636,158.75,22.4831,22.2059,139.497,104.786,104.264,0.00483034,0.205856,20.8122,109.907,0.0451215,0.0,0.0
648,161.75,22.7657,22.8353,139.453,104.694,103.947,0.00654643,0.166757,20.8665,109.717,0.0645911,0.0,0.0
660,164.75,22.6322,22.8849,141.204,104.593,103.938,0.00803751,0.125564,20.9114,109.566,0.0567272,0.0,0.0
672,167.75,21.8461,23.0409,140.991,104.582,103.722,0.00923636,0.102347,20.9334,109.466,0.0746282,0.0,0.0
684,170.75,22.2266,22.6187,137.991,104.61,103.922,0.00988743,0.0937353,20.9407,109.366,0.0595378,0.0,0.0
696,173.75,21.489,22.1358,141.591,104.672,103.977,0.0102268,0.0919026,20.9415,109.216,0.0601227,0.0,0.0
708,176.75,21.3501,22.1756,136.13,104.725,103.843,0.0102245,0.0921193,20.9415,109.096,0.0764354,0.0,0.0
720,179.75,21.5993,22.187,140.008,104.795,104.027,0.00977461,0.0914427,20.9425,108.986,0.0663543,0.0,0.0
732,182.75,21.2587,22.4538,140.23,104.86,104.169,0.00921271,0.090242,20.9428,108.886,0.0596789,0.0,0.0
744,185.75,21.2447,21.9098,141.597,104.932,104.132,0.00859146,0.0880141,20.9455,108.766,0.0690818,0.0,0.0
756,188.75,21.2466,21.833,139.802,104.999,104.198,0.00804749,0.0849473,20.9499,108.666,0.069195,0.0,0.0
768,191.75,21.0086,21.4238,139.522,105.065,104.379,0.00770327,0.0828517,20.9526,108.516,0.0592245,0.0,0.0
780,194.75,20.4503,21.8023,140.846,105.135,104.308,0.00739324,0.0808474,20.9556,108.406,0.0713567,0.0,0.0
792,197.75,20.5174,21.0221,142.383,105.17,104.456,0.00720919,0.0785808,20.9586,108.335,0.0615201,0.0,0.0
804,200.75,20.5324,21.0449,142.607,105.219,104.475,0.00718111,0.0771708,20.9603,108.185,0.0640962,0.0,0.0
816,203.75,20.707,21.2179,140.259,105.25,104.535,0.00680711,0.0759772,20.9617,108.095,0.0615789,0.0,0.0
828,206.75,20.6284,21.7636,139.474,105.273,104.524,0.00634806,0.0741323,20.9651,108.045,0.0644703,0.0,0.0
840,209.75,20.224,21.205,139.716,105.317,104.441,0.00614526,0.0726421,20.9675,107.965,0.0754342,0.0,0.0
852,212.75,20.006,21.3191,140.314,105.326,104.495,0.00605075,0.0711069,20.9699,107.875,0.0714817,0.0,0.0
864,215.75,20.307,21.1121,138.705,105.354,104.656,0.00563167,0.0699365,20.974,107.755,0.0600232,0.0,0.0
876,218.75,20.191,21.266,145.634,105.365,104.4,0.00525321,0.0685385,20.9754,107.685,0.08306,0.0,0.0
888,221.75,19.6851,20.5256,143.651,105.379,104.659,0.00502777,0.0672773,20.9758,107.655,0.0619167,0.0,0.0
900,224.75,20.2388,21.1288,141.447,105.382,104.675,0.00463841,0.0662961,20.975,107.575,0.0607899,0.0,0.0
912,227.75,20.1135,20.9506,141.89,105.389,104.633,0.00424023,0.0650659,20.9761,107.485,0.0649394,0.0,0.0
924,230.75,19.2199,20.2605,140.188,105.386,104.602,0.00382995,0.0635293,20.9781,107.425,0.067365,0.0,0.0
936,233.75,19.8192,20.7413,141.724,105.384,104.545,0.00354488,0.0621167,20.979,107.315,0.07221,0.0,0.0
948,236.75,19.7074,20.851,139.999,105.381,104.486,0.00333465,0.0605534,20.9804,107.235,0.0770331,0.0,0.0
960,239.75,19.5099,20.9024,141.94,105.386,104.472,0.00298417,0.058608,20.982,107.165,0.0786146,0.0,0.0
972,242.75,19.1748,20.5419,142.648,105.376,104.639,0.00230788,0.0566104,20.9847,107.135,0.0634079,0.0,0.0
984,245.75,19.5812,20.7538,139.397,105.363,104.574,0.00196181,0.0546818,20.9865,107.084,0.0678821,0.0,0.0
996,248.75,19.4456,20.183,142.331,105.348,104.56,0.00178257,0.0531183,20.9909,107.034,0.0678319,0.0,0.0
1008,251.75,19.6384,20.6608,141.369,105.343,104.451,0.0013597,0.051284,20.9943,106.974,0.0768218,0.0,0.0
1020,254.75,19.5468,19.9232,140.612,105.316,104.468,0.00110217,0.049764,20.997,106.924,0.0729691,0.0,0.0
1032,257.75,19.5425,20.113,143.783,105.295,104.432,0.00125822,0.0485282,21,106.864,0.0742834,0.0,0.0
1044,260.75,19.1537,19.9065,144.776,105.285,104.436,0.00121658,0.0476106,21.001,106.834,0.0730482,0.0,0.0
1056,263.75,19.1278,20.2295,141.771,105.266,104.503,0.000947097,0.0469917,21.0012,106.724,0.0657227,0.0,0.0
1068,266.75,18.7939,20.0336,142.776,105.248,104.541,0.000732749,0.0466588,21.0009,106.694,0.0608743,0.0,0.0
1080,269.75,19.2576,20.2212,143.234,105.21,104.44,0.000512966,0.0461921,21.0001,106.664,0.0663831,0.0,0.0
1092,272.75,18.6433,19.8942,140.866,105.198,104.367,0.000420351,0.0460273,21.0003,106.584,0.0715938,0.0,0.0
1104,275.75,19.1462,20.1766,141.86,105.178,104.23,0.000586879,0.0460241,21.0014,106.554,0.0817395,0.0,0.0
1116,278.75,19.1945,20.0232,140.269,105.149,104.319,,0.0462383,,106.484,0.0714998,0.0,0.0
1128,281.75,18.5785,19.8781,138.802,105.138,104.404,,,,106.444,0.0631941,0.0,0.0
1140,284.75,18.3624,19.5134,140.675,105.111,104.592,,,,106.394,0.044693,0.0,0.0
1148,286.75,19.2323,19.5769,140.967,105.105,104.22,,,,106.364,0.0763543,0.0,0.0