File: 01_Data/Lightweight_Gypsum_Wallboard/Cone/Lightweight_Gypsum_Wallboard_Cone_HF25Scalar_220506_R2.csv
LABORATORY,FSRI
TEST IDENT,LW_Gypsum_HF25_2
OPERATOR,Dow
MATERIAL,lightweight gypsum
ORIENTATION,Horizontal
HEAT FLUX,25
SURF AREA,0.01
C FACTOR,0.0414606
SPEC HOLDER DIFF,-566
SPECIMEN MASS,64.39
SCAN TIME,0.25
O2 DELAY TIME,11
CO DELAY TIME,11
CO2 DELAY TIME,8
FLOW FACTOR,1
SCAN COUNT,1148
TIME TO IGN,149.25
END OF TEST SCAN,668
END OF TEST TIME,167
TEST STATUS,1
PRE TEST CMT,Dimensions: 99.15 x 102.00 x 12.50 mm