File: 01_Data/Lightweight_Gypsum_Wallboard/Cone/Lightweight_Gypsum_Wallboard_Cone_HF25Scalar_220506_R1.csv
LABORATORY,FSRI
TEST IDENT,LW_Gypsum_HF25_1
OPERATOR,Dow
MATERIAL,lightweight gypsum
ORIENTATION,Horizontal
HEAT FLUX,25
SURF AREA,0.01
C FACTOR,0.0414606
SPEC HOLDER DIFF,-566
SPECIMEN MASS,64.16
SCAN TIME,0.25
O2 DELAY TIME,11
CO DELAY TIME,11
CO2 DELAY TIME,8
FLOW FACTOR,1
SCAN COUNT,1153
TIME TO IGN,150.75
END OF TEST SCAN,673
END OF TEST TIME,168.25
TEST STATUS,1
PRE TEST CMT,Dimensions: 101.66 x 98.69 x 12.61 mm