File: 01_Data/Lightweight_Gypsum_Wallboard/Cone/Lightweight_Gypsum_Wallboard_Cone_HF50Scalar_220506_R3.csv
LABORATORY,FSRI
TEST IDENT,LW_Gypsum_HF50_3
OPERATOR,Dow
MATERIAL,lightweight gypsum
ORIENTATION,Horizontal
HEAT FLUX,50
SURF AREA,0.01
C FACTOR,0.0414606
SPEC HOLDER DIFF,-566
SPECIMEN MASS,64.45
SCAN TIME,0.25
O2 DELAY TIME,11
CO DELAY TIME,11
CO2 DELAY TIME,8
FLOW FACTOR,1
SCAN COUNT,660
TIME TO IGN,29
END OF TEST SCAN,180
END OF TEST TIME,45
TEST STATUS,1
PRE TEST CMT,Dimensions: 99.06 x 102.08 x 12.65 mm