File: 01_Data/Polyester_Felt/STA/N2/30K_min/Polyester_Felt_STA_N2_30KData_210722_R1.csv
##Temp./Â°C,Time/min,Mass loss(subtr.2)/mg,DSC(subtr.2)/(mW/mg),Sensit./(uV/mW)
50.598,10.00917,0.00186,-0.06465187,0.6235
53.598,11.57117,-7.84699e-05,-0.009314708,0.62346
56.598,11.92185,-0.001392255,0.03603308,0.62341
59.598,12.17802,-2.02779e-05,0.07237507,0.62335
62.598,12.39175,-0.0010693,0.09793565,0.62327
65.598,12.58262,-0.000966784,0.12283,0.62318
68.598,12.7585,-0.0008534303,0.14809,0.62308
71.598,12.92401,-0.001639979,0.16747,0.62296
74.598,13.08282,-0.00165399,0.18313,0.62283
77.598,13.23567,-0.00160609,0.18436,0.62269
80.598,13.3834,0.0008180383,0.17706,0.62253
83.598,13.5268,-0.003394775,0.171,0.62236
86.598,13.66649,-0.004696314,0.16654,0.62217
89.598,13.80225,-0.00328164,0.16185,0.62198
92.598,13.934,-0.00285885,0.16301,0.62177
95.598,14.06289,-0.003078004,0.16941,0.62155
98.598,14.18856,-0.002704056,0.17996,0.62131
101.598,14.3114,-0.003530174,0.19465,0.62106
104.598,14.43135,-0.00337183,0.20256,0.6208
107.598,14.5489,-0.00374551,0.21613,0.62053
110.598,14.6647,-0.00488351,0.22374,0.62025
113.598,14.77764,-0.003472925,0.23771,0.61995
116.598,14.88981,-0.00481933,0.24661,0.61964
119.598,14.99957,-0.00636505,0.266,0.61932
122.598,15.10762,-0.003715741,0.2886,0.61898
125.598,15.21411,-0.00516372,0.30456,0.61864
128.598,15.3186,-0.00657473,0.3244,0.61828
131.598,15.4218,-0.0039494,0.33399,0.61791
134.598,15.52355,-0.004151106,0.35171,0.61753
137.598,15.6237,-0.005486024,0.37354,0.61714
140.598,15.7228,-0.00557841,0.39058,0.61673
143.598,15.821,-0.005680876,0.40942,0.61632
146.598,15.9181,-0.00613974,0.41689,0.61589
149.598,16.01417,-0.00614002,0.4332,0.61545
152.598,16.10951,-0.006172667,0.44774,0.615
155.598,16.20411,-0.00570204,0.4603,0.61454
158.598,16.29805,-0.00669879,0.4644,0.61407
161.598,16.39135,-0.005697066,0.47527,0.61359
164.598,16.48413,-0.007009958,0.48172,0.61309
167.598,16.5761,-0.006032722,0.4881,0.61259
170.598,16.6676,-0.007677998,0.49484,0.61207
173.598,16.75872,-0.008653471,0.50708,0.61155
176.598,16.84926,-0.00700999,0.51995,0.61101
179.598,16.93919,-0.00701,0.52863,0.61047
182.598,17.02836,-0.007009785,0.53718,0.60991
185.598,17.11709,-0.00956514,0.56635,0.60934
188.598,17.2053,-0.009649979,0.58557,0.60877
191.598,17.29256,-0.00867656,0.59892,0.60818
194.598,17.37981,-0.00866078,0.60236,0.60758
197.598,17.4666,-0.008989657,0.61358,0.60698
200.598,17.55292,-0.01029898,0.65312,0.60636
203.598,17.6389,-0.0103,0.66388,0.60573
206.598,17.7247,-0.0106609,0.67853,0.6051
209.598,17.81007,-0.01063,0.69859,0.60445
212.598,17.8953,-0.01116021,0.72016,0.6038
215.598,17.98013,-0.01294001,0.75086,0.60314
218.598,18.06475,-0.01426544,0.77418,0.60246
221.598,18.1493,-0.0132572,0.79588,0.60178
224.598,18.2334,-0.01314216,0.81676,0.60109
227.598,18.31737,-0.01300151,0.85639,0.60039
230.598,18.40116,-0.01290973,0.89952,0.59968
233.598,18.48493,-0.01424994,0.96218,0.59897
236.598,18.56847,-0.01425,1.05192,0.59824
239.598,18.65168,-0.01424905,1.18896,0.59751
242.598,18.735,-0.01400066,1.39289,0.59677
245.598,18.81832,-0.01523998,1.71386,0.59602
248.598,18.9015,-0.01523944,2.13377,0.59526
251.598,18.98481,-0.01622899,2.51407,0.59449
254.598,19.06756,-0.01623,2.49465,0.59372
257.598,19.1507,-0.016232,1.9707,0.59294
260.598,19.23317,-0.01787657,1.53138,0.59215
263.598,19.31535,-0.0169879,1.25833,0.59135
266.598,19.39733,-0.01556962,1.10065,0.59055
269.598,19.47925,-0.01688956,1.00863,0.58973
272.598,19.56106,-0.01821094,0.96388,0.58891
275.598,19.64273,-0.01824404,0.9258,0.58809
278.598,19.72468,-0.01952003,0.91674,0.58725
281.598,19.80651,-0.01936385,0.90679,0.58641
284.598,19.88805,-0.01944549,0.8931,0.58557
287.598,19.96985,-0.02023681,0.89385,0.58471
290.598,20.05172,-0.02084,0.90246,0.58385
293.598,20.1337,-0.02110238,0.90283,0.58298
296.598,20.21561,-0.02310017,0.90065,0.58211
299.598,20.29743,-0.02313,0.90268,0.58123
302.598,20.37929,-0.02313,0.90179,0.58034
305.598,20.46143,-0.02313,0.89691,0.57945
308.598,20.54358,-0.02312998,0.90152,0.57855
311.598,20.62554,-0.02427775,0.9024,0.57764
314.598,20.70746,-0.02445,0.90568,0.57673
317.598,20.78908,-0.02445,0.91879,0.57582
320.598,20.87152,-0.02500913,0.91552,0.57489
323.598,20.95363,-0.02616641,0.92428,0.57397
326.598,21.0359,-0.02740668,0.93132,0.57303
329.598,21.1181,-0.02976867,0.935,0.57209
332.598,21.20041,-0.02837554,0.94504,0.57115
335.598,21.28292,-0.02971755,0.94241,0.5702
338.598,21.36506,-0.03137584,0.94946,0.56924
341.598,21.44783,-0.03190926,0.94955,0.56829
344.598,21.53071,-0.03268,0.9558,0.56732
347.598,21.61363,-0.03347739,0.95216,0.56635
350.598,21.69651,-0.03400015,0.94919,0.56538
353.598,21.77955,-0.03465328,0.94581,0.5644
356.598,21.86272,-0.03596992,0.95362,0.56342
359.598,21.9458,-0.03731841,0.95496,0.56243
362.598,22.02916,-0.03992005,0.95813,0.56144
365.598,22.1126,-0.04124049,0.95982,0.56044
368.598,22.19611,-0.04123951,0.96533,0.55944
371.598,22.27996,-0.04256433,0.96867,0.55844
374.598,22.3639,-0.04298157,0.97586,0.55743
377.598,22.4478,-0.0464499,0.98066,0.55642
380.598,22.53195,-0.04781551,0.99014,0.55541
383.598,22.6161,-0.0503735,1.00512,0.55439
386.598,22.70055,-0.05314618,1.02426,0.55337
389.598,22.7848,-0.0570629,1.04544,0.55234
392.598,22.86971,-0.060329,1.07054,0.55131
395.598,22.9544,-0.06655681,1.1068,0.55028
398.598,23.03935,-0.07196534,1.14368,0.54924
401.598,23.1246,-0.07897346,1.18874,0.54821
404.598,23.20972,-0.08899846,1.23277,0.54716
407.598,23.29526,-0.10086,1.28305,0.54612
410.598,23.38084,-0.11448,1.34341,0.54507
413.598,23.46646,-0.13471,1.40274,0.54402
416.598,23.5522,-0.15737,1.4721,0.54297
419.598,23.63801,-0.18498,1.53165,0.54192
422.598,23.72405,-0.21721,1.61591,0.54086
425.598,23.81024,-0.25988,1.67288,0.5398
428.598,23.89646,-0.30728,1.76682,0.53874
431.598,23.98292,-0.3659,1.90098,0.53768
434.598,24.0694,-0.43287,2.08785,0.53661
437.598,24.15616,-0.51499,2.30865,0.53554
440.598,24.2434,-0.61194,2.54504,0.53447
443.598,24.33054,-0.74523,2.78837,0.5334
446.598,24.41815,-0.87155,3.00727,0.53233
449.598,24.50617,-1.02229,3.19593,0.53126
452.598,24.59442,-1.18521,3.32755,0.53018
455.598,24.683,-1.36116,3.37672,0.5291
458.598,24.77166,-1.54799,3.32447,0.52802
461.598,24.86051,-1.73263,3.20267,0.52694
464.598,24.9494,-1.90083,2.97469,0.52586
467.598,25.038,-2.05388,2.65474,0.52478
470.598,25.1268,-2.18337,2.24159,0.5237
473.598,25.21546,-2.28447,1.79617,0.52261
476.598,25.30435,-2.35812,1.37193,0.52153
479.598,25.3936,-2.41277,1.0291,0.52044
482.598,25.48262,-2.45414,0.75024,0.51936
485.598,25.5717,-2.48682,0.53389,0.51827
488.598,25.66111,-2.51503,0.35939,0.51718
491.598,25.7503,-2.53286,0.21723,0.51609
494.598,25.8404,-2.55116,0.09023069,0.51501
497.598,25.9302,-2.56446,-0.004946287,0.51392
500.598,26.02042,-2.57414,-0.08778944,0.51283
503.598,26.11044,-2.58356,-0.15249,0.51174
506.598,26.2013,-2.59152,-0.19689,0.51065
509.598,26.2919,-2.59685,-0.23105,0.50956
512.598,26.3828,-2.60373,-0.25781,0.50847
515.598,26.4738,-2.60554,-0.28507,0.50738
518.598,26.56509,-2.60966,-0.30093,0.50629
521.598,26.6564,-2.61402,-0.31605,0.50521
524.598,26.74816,-2.61801,-0.32149,0.50412
527.598,26.8398,-2.61987,-0.32819,0.50303
530.598,26.9316,-2.6226,-0.47369,0.50194
533.598,27.0236,-2.62673,-0.60351,0.50086
536.598,27.11559,-2.62819,-0.64729,0.49977
539.598,27.2079,-2.63218,-0.66812,0.49869
542.598,27.30022,-2.63356,-0.68348,0.4976
545.598,27.39266,-2.63372,-0.69171,0.49652
548.598,27.4855,-2.63618,-0.71667,0.49543
551.598,27.5784,-2.63861,-0.7094,0.49435
554.598,27.6714,-2.63992,-0.71127,0.49327
557.598,27.7646,-2.63991,-0.72911,0.49219
560.598,27.85775,-2.64254,-0.7291,0.49111
563.598,27.95117,-2.64439,-0.73547,0.49003
566.598,28.0446,-2.64519,-0.74237,0.48896
569.598,28.1384,-2.64649,-0.76051,0.48788
572.598,28.2322,-2.65188,-0.76407,0.48681
575.598,28.32597,-2.65165,-0.77038,0.48574
578.598,28.41982,-2.65297,-0.7839,0.48467
581.598,28.514,-2.65303,-0.7943,0.4836
584.598,28.60828,-2.65605,-0.80243,0.48253
587.598,28.70283,-2.65523,-0.80922,0.48146
590.598,28.79715,-2.66714,-0.82149,0.4804
593.598,28.89175,-2.66378,-0.83576,0.47934
596.598,28.9866,-2.66361,-0.85029,0.47828
599.598,29.0814,-2.66494,-0.86713,0.47722
602.598,29.1763,-2.66637,-0.87384,0.47616
605.598,29.27135,-2.66849,-0.88984,0.47511
608.598,29.3666,-2.67154,-0.89784,0.47405
611.598,29.4619,-2.6729,-0.91473,0.473
614.598,29.55722,-2.67306,-0.92575,0.47195
617.598,29.6526,-2.67436,-0.93848,0.47091
620.598,29.74827,-2.67783,-0.95913,0.46986
623.598,29.84393,-2.68106,-0.96257,0.46882
626.598,29.9395,-2.68249,-0.9782,0.46778
629.598,30.0355,-2.68381,-0.98819,0.46674
632.598,30.1315,-2.68658,-0.99092,0.4657
635.598,30.22764,-2.68788,-0.99784,0.46467
638.598,30.3239,-2.6906,-1.00317,0.46364
641.598,30.42025,-2.69192,-1.00469,0.46261
644.598,30.5167,-2.69409,-1.00495,0.46159
647.598,30.61327,-2.69466,-1.01365,0.46056
650.598,30.70995,-2.69637,-1.01506,0.45954
653.598,30.80685,-2.69729,-1.02473,0.45852
656.598,30.90376,-2.69817,-1.02501,0.45751
659.598,31.0007,-2.69993,-1.02513,0.4565
662.598,31.09791,-2.70124,-1.02871,0.45549
665.598,31.1952,-2.70114,-1.02225,0.45448
668.598,31.29252,-2.70529,-1.02676,0.45348
671.598,31.39,-2.70519,-1.02874,0.45247
674.598,31.4874,-2.7065,-1.02355,0.45147
677.598,31.5849,-2.70782,-1.02872,0.45048
680.598,31.68272,-2.70907,-1.03237,0.44949
683.598,31.78027,-2.71052,-1.02909,0.4485
686.598,31.878,-2.71173,-1.02953,0.44751
689.598,31.9757,-2.71241,-1.02977,0.44652
692.598,32.07358,-2.71409,-1.04355,0.44554
695.598,32.1712,-2.7144,-1.04442,0.44457
698.598,32.26937,-2.71571,-1.04476,0.44359
701.598,32.3675,-2.71572,-1.05575,0.44262
704.598,32.46555,-2.71572,-1.05585,0.44165
707.598,32.56377,-2.71614,-1.04477,0.44068
710.598,32.66232,-2.71703,-1.04675,0.43972
713.598,32.7607,-2.71835,-1.0287,0.43876
716.598,32.8594,-2.71967,-1.02217,0.43781
719.598,32.958,-2.7203,-1.03115,0.43685
722.598,33.05659,-2.7196,-1.06483,0.4359
725.598,33.15529,-2.72065,-1.07713,0.43496
728.598,33.25403,-2.71968,-1.06449,0.43401
730.898,33.33109,-2.72097,-1.07634,0.43329