File: 01_Data/Polyester_Felt/STA/N2/30K_min/Polyester_Felt_STA_N2_30KData_210722_R2.csv
##Temp./Â°C,Time/min,Mass loss(subtr.2)/mg,DSC(subtr.2)/(mW/mg),Sensit./(uV/mW)
50.64,10.01,-0.01239,-0.0171892,0.6235
53.54,11.55695,-0.01556453,0.05150961,0.62347
56.44,11.9011,-0.01492314,0.09950838,0.62342
59.34,12.15424,-0.01030318,0.13174,0.62336
62.24,12.36496,-0.01657265,0.16494,0.62328
65.14,12.5526,-0.01677757,0.18717,0.6232
68.04,12.7248,-0.01407575,0.21568,0.6231
70.94,12.88647,-0.01503592,0.2415,0.62299
73.84,13.0417,-0.01632951,0.25788,0.62286
76.74,13.1907,-0.01705222,0.26819,0.62273
79.64,13.3354,-0.0161986,0.26469,0.62258
82.54,13.47525,-0.01328175,0.26054,0.62242
85.44,13.61149,-0.01659011,0.25526,0.62225
88.34,13.74399,-0.01744413,0.2532,0.62206
91.24,13.87297,-0.01629041,0.2493,0.62186
94.14,13.99875,-0.01921623,0.24621,0.62165
97.04,14.1215,-0.01740943,0.24981,0.62143
99.94,14.2416,-0.01840531,0.25688,0.6212
102.84,14.35941,-0.01716712,0.26562,0.62096
105.74,14.47454,-0.01345504,0.27018,0.6207
108.64,14.5875,-0.01669601,0.28608,0.62043
111.54,14.6988,-0.01795057,0.30108,0.62015
114.44,14.808,-0.01807332,0.31865,0.61986
117.34,14.9152,-0.01663208,0.33351,0.61956
120.24,15.02075,-0.01810083,0.35099,0.61925
123.14,15.12468,-0.01924569,0.37272,0.61892
126.04,15.227,-0.01765105,0.39299,0.61859
128.94,15.3282,-0.01764907,0.41025,0.61824
131.84,15.4277,-0.0189691,0.42985,0.61788
134.74,15.52604,-0.02039557,0.44266,0.61751
137.64,15.623,-0.02006168,0.46142,0.61713
140.54,15.71894,-0.01908077,0.4803,0.61674
143.44,15.81391,-0.01875026,0.4892,0.61634
146.34,15.9078,-0.01878069,0.50344,0.61593
149.24,16.00093,-0.01892082,0.50884,0.6155
152.14,16.09331,-0.02015723,0.52473,0.61507
155.04,16.1847,-0.01972828,0.53471,0.61463
157.94,16.27555,-0.02105331,0.54831,0.61417
160.84,16.36589,-0.02099621,0.56033,0.61371
163.74,16.45576,-0.01975167,0.56918,0.61324
166.64,16.5448,-0.01978771,0.58473,0.61275
169.54,16.63339,-0.02248026,0.591,0.61226
172.44,16.72174,-0.02248009,0.60182,0.61175
175.34,16.80934,-0.02117145,0.61694,0.61124
178.24,16.8965,-0.02115549,0.62846,0.61071
181.14,16.98304,-0.02386842,0.63903,0.61018
184.04,17.0689,-0.02375016,0.65346,0.60964
186.94,17.15394,-0.0249275,0.66019,0.60909
189.84,17.2395,-0.0238,0.67181,0.60852
192.74,17.3242,-0.02487407,0.69437,0.60795
195.64,17.4083,-0.02346492,0.71088,0.60737
198.54,17.49201,-0.02220474,0.72661,0.60678
201.44,17.57556,-0.02247998,0.73678,0.60618
204.34,17.65877,-0.02375573,0.7511,0.60558
207.24,17.74149,-0.02510991,0.75522,0.60496
210.14,17.8241,-0.02369252,0.77245,0.60434
213.04,17.90639,-0.02509123,0.78304,0.6037
215.94,17.98855,-0.02510496,0.79771,0.60306
218.84,18.0704,-0.0277406,0.81464,0.60241
221.74,18.15192,-0.02781587,0.8455,0.60175
224.64,18.23333,-0.029065,0.86822,0.60108
227.54,18.31467,-0.02840189,0.90643,0.60041
230.44,18.3956,-0.02809458,0.93639,0.59972
233.34,18.47655,-0.02878147,0.98588,0.59903
236.24,18.5573,-0.02972001,1.05153,0.59833
239.14,18.63776,-0.02972,1.15873,0.59762
242.04,18.71794,-0.02972041,1.29975,0.59691
244.94,18.79854,-0.02840034,1.50447,0.59618
247.84,18.87901,-0.02971783,1.80157,0.59545
250.74,18.95911,-0.03004989,2.16178,0.59471
253.64,19.03991,-0.03004964,2.49162,0.59397
256.54,19.1199,-0.03136,2.52517,0.59321
259.44,19.20019,-0.03136021,2.05304,0.59245
262.34,19.2802,-0.03104651,1.61015,0.59169
265.24,19.3596,-0.03234993,1.34569,0.59091
268.14,19.43883,-0.0336804,1.18823,0.59013
271.04,19.51793,-0.03432207,1.09767,0.58934
273.94,19.59703,-0.03319952,1.03903,0.58855
276.84,19.67596,-0.03433154,1.0174,0.58774
279.74,19.75495,-0.03564397,1.00069,0.58693
282.64,19.834,-0.0343314,0.99419,0.58612
285.54,19.91318,-0.03300728,0.98899,0.5853
288.44,19.99226,-0.03561735,0.99493,0.58447
291.34,20.07133,-0.03564093,1.00157,0.58364
294.24,20.15053,-0.03433029,1.00609,0.5828
297.14,20.2294,-0.03563726,1.00228,0.58195
300.04,20.30878,-0.03691512,0.99745,0.5811
302.94,20.38809,-0.03829254,0.99678,0.58024
305.84,20.4675,-0.03592096,0.99418,0.57938
308.74,20.5467,-0.03594599,0.99726,0.57851
311.64,20.62591,-0.03834142,1.00008,0.57763
314.54,20.70512,-0.03859996,1.00689,0.57675
317.44,20.78444,-0.03966389,1.00883,0.57586
320.34,20.86362,-0.04062098,1.01246,0.57497
323.24,20.94289,-0.04123999,1.00574,0.57408
326.14,21.0227,-0.04118849,1.01113,0.57317
329.04,21.1021,-0.043703,1.00894,0.57227
331.94,21.18177,-0.04418865,1.01039,0.57136
334.84,21.26135,-0.04289005,1.00709,0.57044
337.74,21.34105,-0.0440669,1.00596,0.56952
340.64,21.4209,-0.04660955,1.01361,0.56859
343.54,21.50085,-0.04666493,1.01257,0.56766
346.44,21.5809,-0.04686944,1.00856,0.56673
349.34,21.66103,-0.04794882,1.00751,0.56579
352.24,21.74128,-0.04923994,1.00767,0.56484
355.14,21.8214,-0.05073076,1.01333,0.5639
358.04,21.90194,-0.05216519,1.00991,0.56294
360.94,21.98252,-0.0533,1.01502,0.56199
363.84,22.06317,-0.05394748,1.02637,0.56103
366.74,22.14387,-0.05661794,1.02185,0.56006
369.64,22.22476,-0.05760623,1.01364,0.5591
372.54,22.30581,-0.05999577,1.01631,0.55812
375.44,22.38682,-0.05998268,1.02204,0.55715
378.34,22.46814,-0.06306059,1.03577,0.55617
381.24,22.54948,-0.06436586,1.03968,0.55519
384.14,22.6309,-0.06699479,1.04982,0.5542
387.04,22.7125,-0.07202054,1.05661,0.55321
389.94,22.79426,-0.07863545,1.07311,0.55222
392.84,22.87612,-0.08095113,1.08933,0.55123
395.74,22.95824,-0.08269455,1.11744,0.55023
398.64,23.04041,-0.08898852,1.15507,0.54923
401.54,23.1226,-0.10368,1.20065,0.54823
404.44,23.20515,-0.11412,1.24572,0.54722
407.34,23.28764,-0.12469,1.29796,0.54621
410.24,23.3705,-0.14347,1.33723,0.5452
413.14,23.45325,-0.16264,1.38433,0.54418
416.04,23.53614,-0.18917,1.42746,0.54317
418.94,23.6192,-0.21988,1.40149,0.54215
421.84,23.70259,-0.25293,1.36813,0.54113
424.74,23.78568,-0.29466,1.35938,0.5401
427.64,23.86898,-0.34124,1.38438,0.53908
430.54,23.95233,-0.39666,1.42864,0.53805
433.44,24.03572,-0.45993,1.54028,0.53702
436.34,24.1192,-0.54333,1.72297,0.53599
439.24,24.2028,-0.64271,1.95534,0.53496
442.14,24.28671,-0.76281,2.2074,0.53392
445.04,24.37102,-0.90246,2.49535,0.53289
447.94,24.45569,-1.06923,2.77392,0.53185
450.84,24.5409,-1.2583,3.00835,0.53081
453.74,24.62621,-1.47685,3.17768,0.52977
456.64,24.712,-1.6953,3.301,0.52873
459.54,24.79769,-1.92179,3.35887,0.52769
462.44,24.8836,-2.15106,3.31577,0.52664
465.34,24.9698,-2.3653,3.15521,0.5256
468.24,25.05578,-2.55049,2.89315,0.52455
471.14,25.14209,-2.71453,2.53672,0.5235
474.04,25.2282,-2.83914,2.11052,0.52245
476.94,25.31468,-2.93653,1.68396,0.52141
479.84,25.40096,-3.009,1.30359,0.52036
482.74,25.48745,-3.06191,0.99875,0.51931
485.64,25.57401,-3.10561,0.76093,0.51825
488.54,25.66056,-3.13697,0.56544,0.5172
491.44,25.74744,-3.16151,0.41925,0.51615
494.34,25.83435,-3.18294,0.28812,0.5151
497.24,25.92144,-3.19598,0.18469,0.51405
500.14,26.0086,-3.20886,0.10146,0.51299
503.04,26.09591,-3.22131,0.03772794,0.51194
505.94,26.18344,-3.23083,-0.009069665,0.51089
508.84,26.27096,-3.23564,-0.05007079,0.50984
511.74,26.35895,-3.24199,-0.07220106,0.50878
514.64,26.44663,-3.25219,-0.08567444,0.50773
517.54,26.5351,-3.25557,-0.14116,0.50668
520.44,26.6234,-3.26041,-0.15789,0.50563
523.34,26.71175,-3.26512,-0.17086,0.50457
526.24,26.8004,-3.26855,-0.1721,0.50352
529.14,26.8892,-3.27218,-0.17068,0.50247
532.04,26.97806,-3.2743,-0.16727,0.50142
534.94,27.06705,-3.27698,-0.16512,0.50037
537.84,27.1561,-3.27833,-0.15991,0.49932
540.74,27.2455,-3.28024,-0.15904,0.49827
543.64,27.33506,-3.28099,-0.1554,0.49722
546.54,27.4246,-3.28661,-0.15281,0.49618
549.44,27.5145,-3.28937,-0.14718,0.49513
552.34,27.60425,-3.29069,-0.15016,0.49408
555.24,27.6941,-3.29199,-0.15501,0.49304
558.14,27.7842,-3.29303,-0.15743,0.492
561.04,27.87442,-3.29476,-0.15825,0.49095
563.94,27.96463,-3.29884,-0.15318,0.48991
566.84,28.0551,-3.3001,-0.1502,0.48887
569.74,28.1456,-3.2988,-0.14657,0.48783
572.64,28.23623,-3.30122,-0.14725,0.48679
575.54,28.32708,-3.30417,-0.14879,0.48576
578.44,28.4175,-3.30885,-0.15303,0.48472
581.34,28.5089,-3.31021,-0.14778,0.48369
584.24,28.60009,-3.31021,-0.14602,0.48266
587.14,28.69132,-3.30933,-0.13881,0.48163
590.04,28.7827,-3.31487,-0.13455,0.4806
592.94,28.87415,-3.317,-0.14382,0.47957
595.84,28.96589,-3.31888,-0.14307,0.47854
598.74,29.05745,-3.3215,-0.13752,0.47752
601.64,29.1493,-3.32587,-0.14721,0.4765
604.54,29.24121,-3.32589,-0.1427,0.47548
607.44,29.3332,-3.32729,-0.14257,0.47446
610.34,29.42533,-3.3284,-0.1545,0.47344
613.24,29.5174,-3.32995,-0.16341,0.47243
616.14,29.6098,-3.33399,-0.16878,0.47141
619.04,29.70225,-3.33537,-0.16946,0.4704
621.94,29.7949,-3.3367,-0.17468,0.46939
624.84,29.88747,-3.33919,-0.17664,0.46839
627.74,29.9801,-3.34191,-0.16867,0.46738
630.64,30.07296,-3.34621,-0.16531,0.46638
633.54,30.16593,-3.34772,-0.18109,0.46538
636.44,30.25897,-3.34829,-0.17134,0.46438
639.34,30.35213,-3.35026,-0.17528,0.46339
642.24,30.4451,-3.35308,-0.28546,0.46239
645.14,30.538,-3.35592,-0.3028,0.4614
648.04,30.6319,-3.35722,-0.31328,0.46041
650.94,30.7253,-3.35979,-0.31251,0.45943
653.84,30.8189,-3.36068,-0.31494,0.45844
656.74,30.91252,-3.36247,-0.32045,0.45746
659.64,31.0063,-3.36377,-0.32681,0.45648
662.54,31.10016,-3.36561,-0.32026,0.45551
665.44,31.19388,-3.3679,-0.31879,0.45453
668.34,31.28818,-3.3693,-0.31949,0.45356
671.24,31.3823,-3.37065,-0.31808,0.45259
674.14,31.4763,-3.37178,-0.32756,0.45163
677.04,31.5707,-3.37195,-0.34642,0.45066
679.94,31.66493,-3.37329,-0.36266,0.4497
682.84,31.7591,-3.37459,-0.37131,0.44875
685.74,31.8537,-3.37665,-0.37531,0.44779
688.64,31.94827,-3.37876,-0.37554,0.44684
691.54,32.04296,-3.37975,-0.37914,0.44589
694.44,32.13771,-3.37961,-0.39256,0.44494
697.34,32.23257,-3.37881,-0.39964,0.444
700.24,32.32737,-3.38022,-0.40486,0.44306
703.14,32.42255,-3.38271,-0.43616,0.44212
706.04,32.51765,-3.38403,-0.46354,0.44118
708.94,32.61257,-3.38534,-0.49309,0.44025
711.84,32.7076,-3.38552,-0.4886,0.43932
714.74,32.80276,-3.38809,-0.50324,0.4384
717.64,32.8981,-3.38809,-0.51193,0.43747
720.54,32.9936,-3.38809,-0.51979,0.43655
723.44,33.08905,-3.38803,-0.54181,0.43564
726.34,33.18469,-3.38807,-0.56763,0.43472
729.24,33.2802,-3.38929,-0.58705,0.43381
730.84,33.33325,-3.38929,-0.58649,0.43331