File: 01_Data/Engineered_Wood_Furniture/Cone/Engineered_Wood_Furniture_Cone_HF75Scan_220330_R2.csv
Names,Time,Stack TC,Smoke TC,Exh Press,Smoke Comp,Smoke Meas,CO Meter,CO2 Meter,O2 Meter,Sample Mass,Ext Coeff,Start Test,Flame Verif
Chan Gain,,500,500,1,1,1,1,1,1,1,1,1.0,1.0
Offset,,0,0,0.135377,0,0,0,0,0,0,0,0.0,0.0
Gain,,1,1,25.011,13.2062,13.8682,1,1,1,1.0009,1.02317,1.0,1.0
Units,sec,C,C,Pa,%,%,%,%,%,g,/m,,
Baseline,,44.2378,46.2173,141.187,98.9612,94.6703,0.000662808,0.0427143,21.0731,-835.955,0.397885,,
36,8.75,42.6767,44.3257,141.522,98.5628,90.1742,0.00137462,0.0485296,21.0641,-229.597,0.798354,0.0,0.0
72,17.75,49.151,50.9589,94.4873,98.579,87.7017,0.00985838,0.926449,19.9218,-231.589,1.04935,0.0,0.0
108,26.75,63.0785,67.7673,118.326,98.5624,93.1503,0.00695332,0.783153,20.1314,-233.55,0.506884,0.0,0.0
144,35.75,70.1252,75.8678,112.457,98.5552,89.1809,0.00800587,0.801504,20.1306,-235.582,0.897071,0.0,0.0
180,44.75,77.4166,84.3389,116.131,98.5592,89.1496,0.00898193,0.859285,20.0598,-237.684,0.900591,0.0,0.0
216,53.75,81.9447,89.5067,112.933,98.5632,88.8647,0.00834391,0.752988,20.1824,-239.616,0.92968,0.0,0.0
252,62.75,84.8105,92.5714,121.879,98.5967,89.3785,0.00740699,0.667749,20.2841,-241.428,0.880982,0.0,0.0
288,71.75,85.7034,94.3029,123.707,98.6035,90.8022,0.00650342,0.589095,20.3815,-243.039,0.739765,0.0,0.0
324,80.75,86.8106,94.5044,121.813,98.6644,92.7449,0.00564702,0.545021,20.44,-244.55,0.555314,0.0,0.0
360,89.75,86.4819,94.8302,118.496,98.7426,92.7372,0.00523663,0.509151,20.4837,-246.012,0.563161,0.0,0.0
396,98.75,85.9982,94.9638,121.539,98.8611,93.6429,0.00487383,0.491168,20.5096,-247.383,0.486696,0.0,0.0
432,107.75,85.4997,94.156,119.469,99.0211,93.9244,0.00435845,0.475571,20.5271,-248.814,0.474275,0.0,0.0
468,116.75,85.3512,93.8008,122.948,99.2165,94.213,0.00433662,0.460975,20.5478,-250.135,0.464435,0.0,0.0
504,125.75,84.7065,93.0942,120.642,99.2572,94.712,0.00394275,0.447916,20.5643,-251.537,0.420707,0.0,0.0
540,134.75,84.2263,92.6303,124.127,99.4088,94.7827,0.00375453,0.428349,20.5875,-252.818,0.427704,0.0,0.0
576,143.75,83.8884,91.8412,124.724,99.5555,95.1331,0.00377528,0.427839,20.5909,-254.119,0.407816,0.0,0.0
612,152.75,83.6565,91.0528,129.134,99.6784,95.9118,0.00382939,0.414004,20.6083,-255.36,0.345722,0.0,0.0
648,161.75,82.7654,90.5319,127.601,99.778,96.0147,0.00352937,0.402011,20.6202,-256.621,0.345062,0.0,0.0
684,170.75,82.1645,90.1943,125.514,99.8328,96.1374,0.00339103,0.396063,20.628,-257.792,0.338526,0.0,0.0
720,179.75,82.037,89.5255,126.872,99.8666,96.1624,0.00342476,0.385501,20.6407,-259.023,0.339238,0.0,0.0
756,188.75,81.1064,88.2644,122.098,99.8477,97.1849,0.0033326,0.37742,20.6535,-260.214,0.242605,0.0,0.0
792,197.75,80.7368,88.1789,123.244,99.8029,96.44,0.00308918,0.374681,20.6572,-261.355,0.307639,0.0,0.0
828,206.75,80.6275,87.727,128.132,99.7082,96.856,0.00271793,0.371016,20.6604,-262.517,0.260482,0.0,0.0
864,215.75,79.8487,86.8368,131.344,99.593,95.9884,0.00283098,0.365188,20.6667,-263.658,0.330861,0.0,0.0
900,224.75,79.4059,86.2278,124.06,99.4652,96.7401,0.00308642,0.362157,20.6699,-264.829,0.249333,0.0,0.0
936,233.75,79.3366,86.0405,125.057,99.3588,96.0523,0.00272802,0.360675,20.671,-265.88,0.303761,0.0,0.0
972,242.75,79.2097,85.8474,128.813,99.2883,96.4595,0.00297593,0.35659,20.6771,-267.011,0.259424,0.0,0.0
1008,251.75,78.9634,85.4275,129.676,99.5644,96.01,0.00267791,0.35805,20.6736,-268.132,0.326263,0.0,0.0
1044,260.75,79.4926,85.254,124.803,99.8082,96.6906,0.00280615,0.355935,20.6802,-269.182,0.284822,0.0,0.0
1080,269.75,78.7889,85.0428,130.284,99.9984,96.6161,0.00268083,0.355942,20.6798,-270.303,0.308829,0.0,0.0
1116,278.75,78.4953,84.4994,122.908,100.12,96.5767,0.00293937,0.357988,20.677,-271.395,0.323403,0.0,0.0
1152,287.75,78.3121,83.9446,125.285,100.177,96.8687,0.00296777,0.364801,20.6676,-272.475,0.301362,0.0,0.0
1188,296.75,78.2178,84.7897,125.821,100.152,97.0355,0.00304327,0.367841,20.6639,-273.576,0.283722,0.0,0.0
1224,305.75,78.4278,84.3525,124.092,100.034,95.6266,0.00305334,0.372225,20.6633,-274.748,0.404441,0.0,0.0
1260,314.75,78.6408,85.0282,127.409,99.8094,96.4045,0.00318662,0.37663,20.6574,-275.858,0.311526,0.0,0.0
1296,323.75,79.1845,84.8192,121.649,99.7308,94.9295,0.00317092,0.374842,20.657,-276.96,0.442834,0.0,0.0
1332,332.75,79.0316,84.7381,123.807,99.8912,96.0346,0.00362965,0.386454,20.6421,-278.081,0.353384,0.0,0.0
1368,341.75,79.3114,85.071,123.819,100.021,95.3007,0.00345491,0.390581,20.6374,-279.232,0.433886,0.0,0.0
1404,350.75,79.4384,85.2746,124.826,100.16,94.2426,0.00358951,0.393779,20.6344,-280.373,0.546522,0.0,0.0
1440,359.75,79.6784,85.5353,126.189,100.289,94.9333,0.00375286,0.398358,20.6304,-281.514,0.492568,0.0,0.0
1476,368.75,79.9549,85.3129,126.731,100.398,95.8928,0.00398833,0.400251,20.6264,-282.725,0.412047,0.0,0.0
1512,377.75,80.2074,85.6317,125.059,100.483,94.4428,0.00412427,0.402759,20.624,-283.866,0.556394,0.0,0.0
1548,386.75,80.6723,85.9003,121.592,100.542,94.9769,0.00390196,0.405144,20.6209,-285.027,0.511033,0.0,0.0
1584,395.75,80.1262,85.956,124.031,100.548,95.8873,0.00401688,0.403312,20.6238,-286.168,0.425991,0.0,0.0
1620,404.75,80.7614,86.2994,124.63,100.499,94.5681,0.0039513,0.405552,20.6201,-287.329,0.545973,0.0,0.0
1656,413.75,80.5914,86.3157,125.969,100.407,94.6701,0.00415248,0.403138,20.6222,-288.45,0.528051,0.0,0.0
1692,422.75,80.523,86.4543,126.185,100.24,94.4039,0.00391134,0.400739,20.6229,-289.571,0.538398,0.0,0.0
1728,431.75,80.4852,86.3889,126.323,100.052,94.1986,0.00420931,0.398517,20.6256,-290.702,0.541102,0.0,0.0
1764,440.75,80.7217,86.4271,126.24,99.8267,94.6434,0.00424631,0.395904,20.6317,-291.863,0.478553,0.0,0.0
1800,449.75,80.7075,86.1279,124.549,99.624,94.0217,0.00397373,0.395548,20.6306,-292.984,0.519461,0.0,0.0
1836,458.75,80.4938,85.8893,127.259,99.435,93.8499,0.00433414,0.392359,20.6354,-294.065,0.518833,0.0,0.0
1872,467.75,80.6392,85.9303,127.257,99.2294,92.9311,0.00416991,0.387743,20.6417,-295.126,0.588564,0.0,0.0
1908,476.75,80.3297,86.2226,123.52,99.0348,93.2608,0.00399935,0.390878,20.6358,-296.197,0.539155,0.0,0.0
1944,485.75,80.1975,86.1387,129.752,98.8514,94.3032,0.0040219,0.389251,20.639,-297.288,0.422761,0.0,0.0
1980,494.75,80.4592,86.2817,123.067,98.7575,94.1055,0.00361175,0.39168,20.6376,-298.339,0.43306,0.0,0.0
2016,503.75,80.3516,85.6644,124.588,98.7047,93.6924,0.00339412,0.395471,20.6325,-299.4,0.467743,0.0,0.0
2052,512.75,80.3754,85.954,125.601,98.6926,93.6802,0.00369794,0.393855,20.6323,-300.471,0.46782,0.0,0.0
2088,521.75,80.2968,86.3101,124.25,98.745,94.2325,0.0034527,0.389929,20.6364,-301.452,0.419824,0.0,0.0
2124,530.75,80.0289,86.4913,122.177,98.8051,93.8545,0.00310549,0.38806,20.6372,-302.523,0.46135,0.0,0.0
2160,539.75,79.7013,86.0605,125.216,98.9102,94.5283,0.00351961,0.383825,20.6438,-303.573,0.406698,0.0,0.0
2196,548.75,80.2625,85.7133,131.224,99.036,94.3713,0.00343381,0.39186,20.6314,-304.564,0.433021,0.0,0.0
2232,557.75,80.2789,85.7238,120.818,99.1899,93.4089,0.0035825,0.394378,20.6289,-305.555,0.538962,0.0,0.0
2268,566.75,80.5154,86.081,125.459,99.3632,94.591,0.00323857,0.395603,20.6255,-306.626,0.441763,0.0,0.0
2304,575.75,80.4131,85.9742,123.061,99.5007,94.3421,0.00305402,0.389566,20.6322,-307.617,0.477812,0.0,0.0
2340,584.75,80.5424,86.0376,122.78,99.6228,93.8926,0.00313877,0.390015,20.634,-308.588,0.531682,0.0,0.0
2376,593.75,80.6815,85.9638,126.212,99.7461,95.0387,0.00338487,0.378456,20.646,-309.549,0.433895,0.0,0.0
2412,602.75,80.7739,85.4499,126.417,99.8545,93.0712,0.00337756,0.380773,20.6431,-310.49,0.631406,0.0,0.0
2448,611.75,80.5772,85.1076,128.991,99.9335,93.808,0.00308559,0.367434,20.6593,-311.451,0.567728,0.0,0.0
2484,620.75,79.7105,84.8802,127.561,99.969,94.4039,0.00320036,0.360654,20.6648,-312.331,0.51408,0.0,0.0
2520,629.75,79.5726,84.6307,126.871,99.9674,94.1677,0.00306256,0.35546,20.6699,-313.172,0.536414,0.0,0.0
2556,638.75,79.2997,84.2108,121.997,99.9726,94.2067,0.00324839,0.349151,20.6765,-314.043,0.533175,0.0,0.0
2592,647.75,79.0462,84.0055,128.294,99.9283,94.406,0.00293531,0.351565,20.6763,-314.884,0.510223,0.0,0.0
2628,656.75,78.1838,83.4903,129.279,99.8626,95.0264,0.00315744,0.350473,20.6758,-315.674,0.445528,0.0,0.0
2664,665.75,78.1347,83.2312,128.346,99.7921,94.4513,0.00282387,0.335521,20.6893,-316.445,0.493676,0.0,0.0
2700,674.75,77.546,82.7066,126.056,99.6945,95.0082,0.00268264,0.299397,20.7327,-317.076,0.43213,0.0,0.0
2736,683.75,76.4699,81.1546,130.953,99.6026,95.9148,0.00225925,0.252963,20.7864,-317.616,0.33862,0.0,0.0
2772,692.75,75.0008,79.3519,130.764,99.5386,96.7972,0.00269661,0.222946,20.8114,-317.986,0.250649,0.0,0.0
2808,701.75,72.9907,76.7198,128.462,99.4668,96.6025,0.00265112,0.20127,20.8339,-318.287,0.262248,0.0,0.0
2844,710.75,71.2875,75.2747,131.93,99.41,96.4955,0.00248135,0.190374,20.8452,-318.577,0.267073,0.0,0.0
2880,719.75,69.7522,73.64,131.956,99.3737,96.3367,0.00299288,0.171886,20.8701,-318.787,0.278571,0.0,0.0
2916,728.75,67.897,71.7211,134.629,99.3725,95.974,0.00300191,0.163291,20.8845,-318.987,0.312317,0.0,0.0
2952,737.75,66.9651,70.4596,130.847,99.5357,95.8386,0.00309591,0.156179,20.8944,-319.168,0.33972,0.0,0.0
2988,746.75,65.7277,68.6992,134.678,99.757,96.3706,0.00335666,0.152437,20.9003,-319.368,0.309967,0.0,0.0
3024,755.75,64.4869,66.5522,133.579,99.9557,96.5763,0.00353332,0.154475,20.8985,-319.528,0.308689,0.0,0.0
3060,764.75,63.3626,66.3986,132.728,100.103,96.8907,0.00381765,0.156161,20.8954,-319.678,0.292749,0.0,0.0
3096,773.75,62.666,65.1492,131.224,100.181,96.6575,0.00427671,0.151802,20.9022,-319.838,0.321384,0.0,0.0
3132,782.75,61.2388,64.0883,133.686,100.22,96.4396,0.00428989,0.150206,20.9067,-319.998,0.345112,0.0,0.0
3168,791.75,61.4421,64.0128,136.526,100.214,96.5886,0.00491341,0.150266,20.9104,-320.138,0.330752,0.0,0.0
3204,800.75,60.4238,62.6913,134.152,100.165,96.9737,0.00523789,0.150285,20.9127,-320.299,0.290631,0.0,0.0
3240,809.75,59.7716,62.2908,135.194,100.131,96.5848,0.00555275,0.149772,20.9185,-320.439,0.323631,0.0,0.0
3276,818.75,59.2911,61.5919,134.251,100.058,96.3456,0.00595371,0.15131,20.9165,-320.629,0.339302,0.0,0.0
3312,827.75,58.7929,60.8383,131.712,99.992,96.2106,0.00623382,0.151545,20.9185,-320.719,0.345994,0.0,0.0
3348,836.75,58.187,60.3741,136.174,99.8582,96.1603,0.0067313,0.150969,20.9211,-320.869,0.338675,0.0,0.0
3384,845.75,57.8598,60.1457,134.765,99.7429,96.2978,0.00716005,0.151581,20.9241,-320.989,0.315479,0.0,0.0
3420,854.75,57.6979,59.9853,138.547,99.7784,96.2144,0.00794153,0.15317,20.9201,-321.139,0.326446,0.0,0.0
3456,863.75,57.4373,59.4604,136.972,99.8223,95.6837,,,,-321.299,0.38004,0.0,0.0
3486,871.25,56.7929,59.174,135.033,99.8807,95.9986,,,,-321.41,0.355806,0.0,0.0