File: 01_Data/Engineered_Wood_Furniture/Cone/Engineered_Wood_Furniture_Cone_HF25Scan_220330_R2.csv
Names,Time,Stack TC,Smoke TC,Exh Press,Smoke Comp,Smoke Meas,CO Meter,CO2 Meter,O2 Meter,Sample Mass,Ext Coeff,Start Test,Flame Verif
Chan Gain,,500,500,1,1,1,1,1,1,1,1,1.0,1.0
Offset,,0,0,0.138301,0,0,0,0,0,0,0,0.0,0.0
Gain,,1,1,25.011,13.2062,13.8682,1,1,1,1.0009,1.02317,1.0,1.0
Units,sec,C,C,Pa,%,%,%,%,%,g,/m,,
Baseline,,19.474,19.86,156.729,100.034,99.6513,0.000890777,0.0720078,20.9959,-835.928,0.0343871,,
55,13.5,18.1092,18.7927,153.544,99.6309,98.7246,0.000993706,0.0746073,20.9957,-226.044,0.082015,0.0,0.0
110,27.25,18.709,18.9535,152.645,99.9295,98.6662,0.000729847,0.0795682,20.991,-226.214,0.114189,0.0,0.0
165,41,17.993,19.0591,159.564,100.237,98.4804,0.000769259,0.0712145,21.0008,-226.334,0.158681,0.0,0.0
220,54.75,18.7354,19.0558,155.092,100.277,97.9078,0.00102642,0.0715821,21.0022,-226.454,0.21463,0.0,0.0
275,68.5,18.7969,19.4087,157.798,99.8977,97.4363,0.000939957,0.0712505,21.0033,-226.594,0.22391,0.0,0.0
330,82.25,18.7645,19.0453,157.63,99.1448,96.2254,0.000831754,0.0721789,21.0041,-226.704,0.268248,0.0,0.0
385,96,23.6472,24.1504,131.215,98.3932,93.0322,0.0055887,0.473034,20.5021,-228.246,0.502841,0.0,0.0
440,109.75,31.1645,32.2409,149.746,98.2215,95.6736,0.00394027,0.345686,20.6741,-229.857,0.235895,0.0,0.0
495,123.5,32.3359,34.2035,143.408,98.7462,95.6884,0.00378261,0.277441,20.772,-231.038,0.282327,0.0,0.0
550,137.25,34.6223,37.3251,144.948,99.4241,95.7036,0.00381873,0.339679,20.6956,-232.519,0.342302,0.0,0.0
605,151,37.1067,39.5341,140.399,99.6159,96.0388,0.00419396,0.360293,20.6719,-234.081,0.328222,0.0,0.0
660,164.75,39.0857,41.952,145.531,99.6022,95.2605,0.00406013,0.356878,20.6704,-235.712,0.40002,0.0,0.0
715,178.5,40.9724,43.0814,142.323,99.4656,95.2503,0.00364096,0.346439,20.6788,-237.204,0.388658,0.0,0.0
770,192.25,40.7673,44.3094,139.441,99.3749,94.9405,0.00277414,0.336667,20.6851,-238.695,0.409711,0.0,0.0
825,206,41.9072,45.2903,144.63,99.3326,95.2317,0.00363529,0.330727,20.6893,-240.126,0.378403,0.0,0.0
880,219.75,41.7988,45.5722,144.143,99.4088,95.3853,0.00310033,0.318992,20.7033,-241.498,0.370816,0.0,0.0
935,233.5,42.1716,45.8341,145.912,99.3181,95.6994,0.00276967,0.300568,20.7223,-242.819,0.333125,0.0,0.0
990,247.25,41.7648,45.0962,142.181,99.3294,96.4946,0.00309161,0.286964,20.7356,-244.04,0.259872,0.0,0.0
1045,261,41.0077,44.4213,141.749,99.3874,96.6741,0.00281042,0.275172,20.7516,-245.311,0.248439,0.0,0.0
1100,274.75,40.6396,43.1845,145.72,99.4789,96.0959,0.00330471,0.267845,20.7621,-246.462,0.31053,0.0,0.0
1155,288.5,39.9409,42.3281,142.931,99.5712,96.6237,0.00283612,0.259556,20.7722,-247.643,0.269696,0.0,0.0
1210,302.25,38.8256,42.4415,150.079,99.6135,95.8763,0.00271943,0.254821,20.7775,-248.814,0.343205,0.0,0.0
1265,316,38.7684,41.3379,149.441,99.5845,96.0824,0.00279956,0.241142,20.7937,-249.855,0.321317,0.0,0.0
1320,329.75,37.3704,39.6726,146.915,99.4515,96.972,0.00282295,0.229471,20.806,-250.856,0.226604,0.0,0.0
1375,343.5,36.6434,40.3867,145,99.1339,96.2817,0.00329535,0.221103,20.8123,-251.847,0.262014,0.0,0.0
1430,357.25,36.085,38.8126,147.331,98.7164,95.6638,0.00351669,0.213365,20.8251,-252.758,0.281918,0.0,0.0
1485,371,36.0516,37.6416,146.409,98.34,95.8238,0.00401396,0.203248,20.8374,-253.719,0.232633,0.0,0.0
1540,384.75,34.8873,37.0806,145.717,98.1643,95.0713,0.00414189,0.192502,20.8518,-254.499,0.287341,0.0,0.0
1595,398.5,35.0125,35.1337,153.241,98.2985,95.2859,0.00465626,0.189377,20.8512,-255.39,0.279368,0.0,0.0
1650,412.25,33.2006,35.3823,147.979,98.6656,95.6003,0.00441418,0.179453,20.8674,-256.191,0.283259,0.0,0.0
1705,426,32.4836,34.402,155.27,99.1613,96.6838,0.00458937,0.172923,20.8732,-256.941,0.227094,0.0,0.0
1760,439.75,31.1739,34.3403,153.138,99.5212,97.4435,0.004759,0.168826,20.8783,-257.682,0.189363,0.0,0.0
1815,453.5,31.2535,33.5858,151.79,99.8356,96.8717,0.00510933,0.167152,20.8802,-258.383,0.270487,0.0,0.0
1870,467.25,31.9598,31.5923,151.429,100.09,97.2581,0.00576414,0.164534,20.8828,-259.113,0.257591,0.0,0.0
1925,481,30.2461,32.3379,147.861,100.231,97.8519,0.00588493,0.163027,20.887,-259.794,0.215566,0.0,0.0
1980,494.75,29.9143,31.9182,147.55,100.286,97.399,0.00566261,0.161113,20.8886,-260.485,0.262178,0.0,0.0
2035,508.5,30.0441,31.1493,145.966,100.246,98.6772,0.00597995,0.16055,20.8885,-261.165,0.141557,0.0,0.0
2090,522.25,29.812,31.5131,153.008,100.14,97.6856,0.00599291,0.159761,20.8912,-261.886,0.222711,0.0,0.0
2145,536,28.9049,30.308,149.625,100.033,97.496,0.00633769,0.158418,20.894,-262.527,0.230572,0.0,0.0
2200,549.75,29.775,30.5322,152.991,99.9234,98.237,0.0060397,0.157626,20.8961,-263.207,0.152768,0.0,0.0
2255,563.5,29.3113,30.252,152.486,99.8791,98.1782,0.00624323,0.159407,20.8948,-263.868,0.154162,0.0,0.0
2310,577.25,30.2253,29.4199,143.745,99.9791,97.5861,0.00623013,0.161148,20.8923,-264.538,0.21743,0.0,0.0
2365,591,29.3178,30.1548,156.101,100.189,97.8405,0.00596487,0.163374,20.8888,-265.249,0.212897,0.0,0.0
2420,604.75,29.6275,30.2556,149.702,100.287,97.4989,0.00580769,0.164149,20.889,-265.92,0.253087,0.0,0.0
2475,618.5,29.3093,30.7711,151.389,99.8009,97.0643,0.00547877,0.167353,20.8842,-266.64,0.249548,0.0,0.0
2530,632.25,29.0048,30.6636,150.156,98.7128,95.9525,0.00527399,0.171682,20.8806,-267.301,0.25455,0.0,0.0
2585,646,29.586,30.9588,154.32,98.2376,95.266,0.00510675,0.176177,20.8767,-268.041,0.275684,0.0,0.0
2640,659.75,29.5683,32.1772,148.298,99.1444,95.9779,0.00447101,0.182745,20.8683,-268.752,0.291334,0.0,0.0
2695,673.5,29.8659,31.3758,147.035,99.6369,96.3249,0.00412038,0.186531,20.8644,-269.453,0.303413,0.0,0.0
2750,687.25,30.7096,31.904,147.819,99.6712,96.5369,0.00380946,0.191687,20.86,-270.203,0.286763,0.0,0.0
2805,701,31.4777,32.7686,146.864,99.5369,96.2259,0.0032483,0.197686,20.8534,-270.984,0.303638,0.0,0.0
2860,714.75,31.6574,33.1534,151.158,100.32,96.6618,0.00313604,0.201508,20.8468,-271.745,0.333367,0.0,0.0
2915,728.5,31.8348,33.305,150.142,98.8321,95.5974,0.00280631,0.206494,20.8426,-272.566,0.298665,0.0,0.0
2970,742.25,32.7145,33.8738,151.785,98.695,95.4827,0.00211788,0.211935,20.8344,-273.376,0.296988,0.0,0.0
3025,756,32.7693,34.2368,146.357,99.5801,95.4789,0.00212703,0.217461,20.8304,-274.187,0.37747,0.0,0.0
3080,769.75,33.2042,35.1555,143.852,100.125,96.5103,0.00186826,0.222003,20.8244,-275.058,0.329978,0.0,0.0
3135,783.5,34.1336,35.0506,149.755,100.295,96.2212,0.00177172,0.226229,20.8227,-275.919,0.372132,0.0,0.0
3190,797.25,33.8451,36.3555,146.692,98.8192,94.6692,0.0018819,0.232277,20.8159,-276.839,0.385058,0.0,0.0
3245,811,34.6455,37.1795,147.824,98.8659,94.6667,0.00198776,0.240328,20.805,-277.78,0.389544,0.0,0.0
3300,824.75,35.4435,37.7894,146.08,99.5462,95.2537,0.00183365,0.24963,20.793,-278.761,0.395609,0.0,0.0
3355,838.5,36.3862,38.5198,148.13,100.04,95.6566,0.00204625,0.259816,20.7811,-279.762,0.402091,0.0,0.0
3410,852.25,37.157,39.1162,146.015,99.7796,95.7078,0.0019963,0.271766,20.7696,-280.873,0.373936,0.0,0.0
3465,866,37.9415,40.3401,144.472,100.258,95.6278,0.00219066,0.286517,20.7514,-281.974,0.424332,0.0,0.0
3520,879.75,38.8324,40.9129,141.933,99.0791,94.7433,0.00208989,0.304141,20.7295,-283.215,0.401617,0.0,0.0
3575,893.5,40.7394,43.0286,142.114,98.2787,93.7712,0.00219304,0.327868,20.7037,-284.566,0.421387,0.0,0.0
3630,907.25,41.9866,44.6131,141.137,98.845,93.32,0.00225958,0.353059,20.6706,-285.988,0.516236,0.0,0.0
3685,921,43.6529,46.2776,138.325,99.5579,93.2286,0.00303177,0.380263,20.6389,-287.549,0.589535,0.0,0.0
3740,934.75,45.5837,48.4073,140.047,99.5245,92.4799,0.00307454,0.406174,20.6062,-289.181,0.658887,0.0,0.0
3795,948.5,47.3305,50.6575,132.813,99.2714,92.1663,0.00369549,0.429013,20.5789,-290.972,0.666521,0.0,0.0
3850,962.25,49.2518,52.461,138.226,99.8086,92.3462,0.00382366,0.442701,20.5611,-292.734,0.697462,0.0,0.0
3905,976,50.766,53.9162,135.276,100.089,92.62,0.0041108,0.446466,20.5535,-294.605,0.696113,0.0,0.0
3960,989.75,51.9708,55.7317,137.439,99.8307,92.0334,0.00459435,0.456947,20.5395,-296.457,0.729904,0.0,0.0
4015,1003.5,53.3599,56.8766,136.742,99.6171,91.5251,0.00440271,0.454089,20.5412,-298.299,0.760387,0.0,0.0
4070,1017.25,53.5854,58.1186,139.935,99.9061,93.1181,0.00454927,0.455351,20.5397,-300.08,0.631513,0.0,0.0
4125,1031,54.6246,58.9482,132.719,100.106,93.3915,0.00450895,0.453127,20.5414,-301.892,0.623103,0.0,0.0
4180,1044.75,55.0428,59.6699,136.565,100.184,93.9307,0.00401725,0.448679,20.5438,-303.614,0.578478,0.0,0.0
4235,1058.5,55.5565,59.8563,133.34,100.204,93.7377,0.00415821,0.438259,20.5516,-305.315,0.598671,0.0,0.0
4290,1072.25,55.3954,59.3072,138.491,100.199,92.7093,0.00376497,0.406617,20.586,-306.816,0.697253,0.0,0.0
4345,1086,53.9362,58.345,143.326,100.189,92.3013,0.00345484,0.361468,20.6368,-308.128,0.736007,0.0,0.0
4400,1099.75,52.2561,55.9634,145.388,100.147,94.4475,0.00340562,0.296949,20.708,-309.179,0.525914,0.0,0.0
4455,1113.5,48.8281,52.3479,146.819,100.085,95.1043,0.00459912,0.225455,20.7922,-309.839,0.458112,0.0,0.0
4510,1127.25,45.3074,48.7646,146.54,99.9895,95.4429,0.00648053,0.183154,20.8425,-310.29,0.417682,0.0,0.0
4565,1141,41.7212,44.5959,148.498,99.8787,95.5999,0.00881792,0.158021,20.8762,-310.65,0.392975,0.0,0.0
4620,1154.75,38.7161,41.4494,155.314,99.7566,95.6033,0.0102614,0.147342,20.8913,-310.97,0.381678,0.0,0.0
4675,1168.5,36.3876,38.147,156.475,99.6659,95.8246,0.0116473,0.142574,20.8986,-311.25,0.352759,0.0,0.0
4730,1182.25,34.3342,35.8115,154.508,99.5611,95.8132,0.0119009,0.140909,20.9014,-311.541,0.344389,0.0,0.0
4785,1196,32.4936,34.0348,152.621,99.5954,95.9567,0.0143269,0.134013,20.9128,-311.781,0.334046,0.0,0.0
4840,1209.75,30.2617,31.5086,152.255,99.8166,95.693,0.0157631,0.129181,20.9195,-312.021,0.378659,0.0,0.0
4895,1223.5,28.8034,30.1751,148.524,99.9831,96.5522,0.0155005,0.129343,20.9187,-312.271,0.313393,0.0,0.0
4950,1237.25,28.3468,28.9318,154.691,100.071,96.9496,0.0148693,0.130578,20.9166,-312.482,0.284374,0.0,0.0
5005,1251,27.5783,28.0794,155.05,100.074,96.5479,0.0146607,0.131367,20.9195,-312.722,0.321959,0.0,0.0
5060,1264.75,26.9483,27.2058,156.217,100,96.8378,0.014106,0.132506,20.9151,-312.952,0.288432,0.0,0.0
5115,1278.5,26.1996,26.8204,150.453,99.8183,96.6377,0.0141146,0.132572,20.9155,-313.182,0.29064,0.0,0.0
5170,1292.25,25.7513,25.5162,155.104,99.493,96.3241,0.0133775,0.132769,20.9148,-313.382,0.290522,0.0,0.0
5225,1306,25.6473,25.6337,155.696,99.2254,95.9652,0.0128364,0.133595,20.9138,-313.613,0.299852,0.0,0.0
5280,1319.75,25.5414,25.4222,153.541,99.2798,95.8615,,,,-313.793,0.314475,0.0,0.0
5301,1325,25.1152,25.4275,154.263,99.2943,95.8568,,,,-313.873,0.316222,0.0,0.0