File: 01_Data/Engineered_Wood_Furniture/Cone/Engineered_Wood_Furniture_Cone_HF50Scan_220330_R2.csv
Names,Time,Stack TC,Smoke TC,Exh Press,Smoke Comp,Smoke Meas,CO Meter,CO2 Meter,O2 Meter,Sample Mass,Ext Coeff,Start Test,Flame Verif
Chan Gain,,500,500,1,1,1,1,1,1,1,1,1.0,1.0
Offset,,0,0,0.135377,0,0,0,0,0,0,0,0.0,0.0
Gain,,1,1,25.011,13.2062,13.8682,1,1,1,1.0009,1.02317,1.0,1.0
Units,sec,C,C,Pa,%,%,%,%,%,g,/m,,
Baseline,,33.3477,34.6656,146.351,100.196,96.5928,0.000842767,0.0433646,21.073,-835.471,0.328759,,
55,13.5,31.6368,33.4475,147.756,100.277,94.6917,0.000759085,0.0443989,21.0731,-230.187,0.514398,0.0,0.0
110,27.25,32.2177,33.5075,145.468,100.295,92.0935,0.0015018,0.0485095,21.0676,-230.508,0.76569,0.0,0.0
165,41,45.9375,47.8115,111.544,100.285,94.5258,0.00940101,0.99469,19.9087,-233.47,0.530821,0.0,0.0
220,54.75,57.835,61.2294,120.595,100.305,94.1724,0.00598405,0.67487,20.302,-236.123,0.566207,0.0,0.0
275,68.5,64.3607,69.4074,129.635,100.296,93.3755,0.00583956,0.6079,20.3809,-238.645,0.641689,0.0,0.0
330,82.25,67.8777,73.8705,126.247,100.296,93.0974,0.00530777,0.525652,20.4784,-240.847,0.668491,0.0,0.0
385,96,67.7914,74.5584,128.026,100.293,95.6507,0.00439052,0.449428,20.5735,-242.819,0.425398,0.0,0.0
440,109.75,67.5761,73.7654,126.556,100.289,95.8403,0.00417191,0.399495,20.6334,-244.58,0.407227,0.0,0.0
495,123.5,67.1796,73.3883,128.968,100.285,95.7684,0.00341463,0.37534,20.6642,-246.252,0.413607,0.0,0.0
550,137.25,66.3031,72.8468,125.998,100.258,95.2982,0.00340319,0.363303,20.6791,-247.943,0.455401,0.0,0.0
605,151,65.669,72.2749,128.897,100.211,96.1873,0.00326074,0.351406,20.6949,-249.575,0.367787,0.0,0.0
660,164.75,65.3285,71.2,131.042,100.151,96.0688,0.00304646,0.340407,20.7078,-251.206,0.373471,0.0,0.0
715,178.5,64.7004,70.2338,133.22,100.093,96.2915,0.00283043,0.328795,20.7236,-252.788,0.347531,0.0,0.0
770,192.25,63.6051,68.9662,136.928,99.967,95.8924,0.0027642,0.319815,20.735,-254.339,0.373489,0.0,0.0
825,206,63.2954,68.6675,130.409,99.8005,96.076,0.00271014,0.311118,20.7453,-255.82,0.341357,0.0,0.0
880,219.75,62.3366,67.8023,130.209,99.6123,95.4679,0.002742,0.302999,20.7547,-257.312,0.381411,0.0,0.0
935,233.5,62.1297,67.427,131.974,99.4201,95.4865,0.00251584,0.294126,20.7657,-258.763,0.362322,0.0,0.0
990,247.25,61.6538,66.3956,133.68,99.31,95.8894,0.00218868,0.287244,20.774,-260.164,0.314592,0.0,0.0
1045,261,60.7863,65.5015,130.531,99.2016,95.8373,0.00236696,0.279173,20.7818,-261.506,0.309663,0.0,0.0
1100,274.75,60.5542,65.1933,135.958,99.0549,95.5305,0.00204398,0.274267,20.789,-262.857,0.325162,0.0,0.0
1155,288.5,59.8572,64.1802,129.779,98.8663,94.8643,0.00199481,0.271906,20.7928,-264.228,0.370861,0.0,0.0
1210,302.25,59.7015,64.4315,138.107,98.6487,95.1521,0.00225988,0.266367,20.8005,-265.519,0.323895,0.0,0.0
1265,316,59.3928,63.4198,128.899,98.4972,95.2414,0.00204345,0.265122,20.8015,-266.77,0.301679,0.0,0.0
1320,329.75,58.7026,63.118,131.125,98.392,95.0662,0.00212156,0.26335,20.8038,-268.082,0.308615,0.0,0.0
1375,343.5,58.8285,63.0386,131.221,98.3492,94.7615,0.00203746,0.263223,20.8034,-269.383,0.333533,0.0,0.0
1430,357.25,58.7949,62.7744,132.634,98.3319,94.6108,0.00195542,0.263917,20.8047,-270.554,0.346232,0.0,0.0
1485,371,58.5554,62.638,132.747,98.3339,94.5783,0.00197551,0.267451,20.7985,-271.825,0.349508,0.0,0.0
1540,384.75,58.7661,62.6383,134.514,98.3537,94.726,0.00199942,0.271742,20.7917,-273.056,0.337304,0.0,0.0
1595,398.5,59.0279,62.9012,134.227,98.4117,94.4695,0.00214255,0.281225,20.7811,-274.367,0.366933,0.0,0.0
1650,412.25,58.4192,62.1289,128.014,98.5362,94.748,0.00201672,0.288993,20.7718,-275.668,0.351865,0.0,0.0
1705,426,59.4272,63.0293,130.628,98.6245,94.511,0.00244153,0.298981,20.7629,-277.03,0.38238,0.0,0.0
1760,439.75,60.1048,63.8519,131.657,98.7394,94.869,0.00232127,0.306785,20.7517,-278.421,0.358888,0.0,0.0
1815,453.5,60.3245,64.5,136.458,98.8566,94.1897,0.00249218,0.320547,20.7358,-279.822,0.434036,0.0,0.0
1870,467.25,60.8959,64.689,132.763,98.9864,93.3044,0.00283706,0.334367,20.7193,-281.303,0.530577,0.0,0.0
1925,481,61.8804,65.7633,131.653,99.063,93.9074,0.00278219,0.342946,20.7065,-282.805,0.479692,0.0,0.0
1980,494.75,62.479,66.4582,131.266,99.1694,93.397,0.00338766,0.354062,20.693,-284.386,0.53824,0.0,0.0
2035,508.5,63.1552,66.8828,136.756,99.2403,93.2036,0.00339516,0.359242,20.6865,-285.928,0.563264,0.0,0.0
2090,522.25,63.831,67.4523,135.065,99.2855,93.0487,0.00360149,0.362801,20.6815,-287.499,0.582274,0.0,0.0
2145,536,63.9467,67.9039,132.505,99.3225,93.0923,0.00363725,0.361094,20.6852,-289.1,0.581422,0.0,0.0
2200,549.75,64.444,68.9318,127.034,99.3689,92.9603,0.00361148,0.36569,20.6803,-290.652,0.598349,0.0,0.0
2255,563.5,64.4098,68.6159,127.861,99.4354,92.7097,0.00342239,0.362742,20.6812,-292.203,0.628576,0.0,0.0
2310,577.25,64.2516,69.5905,129.27,99.4713,92.9645,0.00366959,0.364364,20.6803,-293.815,0.607181,0.0,0.0
2365,591,65.0797,69.1989,130.089,99.5402,92.8138,0.00347935,0.361838,20.6811,-295.336,0.627955,0.0,0.0
2420,604.75,64.6565,69.2601,131.604,99.5881,93.8757,0.00346501,0.357416,20.6874,-296.867,0.530178,0.0,0.0
2475,618.5,65.4101,69.4865,133.611,99.6264,94.1732,0.00351879,0.355681,20.6872,-298.399,0.505228,0.0,0.0
2530,632.25,64.3822,68.9479,129.074,99.6454,93.8952,0.00341979,0.356871,20.6848,-299.9,0.533472,0.0,0.0
2585,646,65.4091,69.5204,129.607,99.6478,94.3726,0.00340951,0.354674,20.6894,-301.382,0.488173,0.0,0.0
2640,659.75,65.4911,69.8343,124.647,99.6248,94.3806,0.00307043,0.352556,20.6933,-302.873,0.485338,0.0,0.0
2695,673.5,65.6291,69.8358,134.056,99.595,94.4009,0.00292822,0.351377,20.6929,-304.304,0.480719,0.0,0.0
2750,687.25,65.6141,69.7064,133.374,99.543,94.3518,0.0033957,0.349175,20.694,-305.725,0.480702,0.0,0.0
2805,701,65.6044,69.6586,129.058,99.4636,94.8826,0.00281273,0.345558,20.6972,-307.117,0.423197,0.0,0.0
2860,714.75,65.4255,70.0431,128.922,99.3906,94.2845,0.00305078,0.342692,20.7001,-308.468,0.47336,0.0,0.0
2915,728.5,65.4543,69.6157,130.969,99.2919,94.2045,0.00309438,0.342047,20.6998,-309.869,0.472056,0.0,0.0
2970,742.25,65.639,69.6227,133.731,99.2117,94.3103,0.00317035,0.338356,20.7048,-311.14,0.454729,0.0,0.0
3025,756,65.2294,69.7694,131.754,99.1807,94.001,0.00292035,0.323821,20.7195,-312.361,0.481412,0.0,0.0
3080,769.75,65.0135,69.1033,129.822,99.1424,93.9476,0.00320831,0.317521,20.7267,-313.532,0.48304,0.0,0.0
3135,783.5,63.9079,67.7109,135.667,99.3233,94.238,0.00289561,0.282104,20.7674,-314.533,0.471712,0.0,0.0
3190,797.25,61.9179,65.66,137.413,99.5486,94.3286,0.00236392,0.207904,20.8572,-315.204,0.483426,0.0,0.0
3245,811,58.6285,62.129,141.53,99.7239,95.3701,0.00292492,0.156055,20.913,-315.644,0.400659,0.0,0.0
3300,824.75,55.8338,58.9063,140.363,99.8686,96.112,0.00340072,0.137081,20.939,-315.915,0.34412,0.0,0.0
3355,838.5,53.4242,56.004,144.611,99.9843,95.7375,0.00421039,0.127306,20.9528,-316.155,0.389555,0.0,0.0
3410,852.25,51.2765,53.7001,139.871,100.026,96.2585,0.00476386,0.124483,20.9562,-316.415,0.344571,0.0,0.0
3465,866,49.7548,51.7555,144.63,100.028,96.5065,0.00501682,0.12107,20.965,-316.645,0.321658,0.0,0.0
3520,879.75,48.5891,50.3741,143.269,99.9662,95.726,0.00550837,0.120003,20.9652,-316.845,0.388998,0.0,0.0
3575,893.5,47.4732,48.6456,138.203,99.8799,95.3777,0.0059408,0.115895,20.9729,-317.056,0.413968,0.0,0.0
3630,907.25,46.4509,47.8419,139.845,99.7735,95.7751,0.00567326,0.114002,20.9764,-317.266,0.367084,0.0,0.0
3685,921,45.69,46.7187,141.357,99.6417,95.7599,0.00635225,0.113898,20.9764,-317.416,0.356648,0.0,0.0
3740,934.75,45.1735,46.1537,141.121,99.5051,95.5948,0.00657708,0.1144,20.9797,-317.606,0.359817,0.0,0.0
3795,948.5,44.4901,45.5479,143.198,99.5539,95.5986,0.00659254,0.116078,20.9768,-317.796,0.363857,0.0,0.0
3850,962.25,44.2136,44.9201,138.573,99.5772,95.5699,0.00668997,0.111508,20.9872,-317.936,0.368667,0.0,0.0
3905,976,43.5056,44.4707,140.809,99.6248,96.0591,0.00657966,0.11042,20.9847,-318.117,0.327123,0.0,0.0
3960,989.75,43.1431,44.1515,140.54,99.7006,95.3557,0.00703922,0.109846,20.9847,-318.267,0.39991,0.0,0.0
4015,1003.5,42.8486,43.3523,145.047,99.811,95.5013,0.00745851,0.109923,20.9851,-318.407,0.396151,0.0,0.0
4070,1017.25,42.4565,43.2976,145.447,99.9351,96.523,0.00757378,0.108164,20.9865,-318.587,0.311801,0.0,0.0
4125,1031,42.0577,43.4028,142.223,100.057,96.0803,0.00796252,0.109444,20.986,-318.737,0.363984,0.0,0.0
4180,1044.75,42.1021,42.7488,142.458,100.12,96.0832,0.00802221,0.107643,20.9908,-318.887,0.369381,0.0,0.0
4235,1058.5,41.3036,42.4622,140.004,100.162,95.9643,0.00810862,0.107488,20.9893,-319.017,0.38429,0.0,0.0
4290,1072.25,41.33,42.2671,140.046,100.212,96.1924,0.0076602,0.107014,20.9933,-319.158,0.367458,0.0,0.0
4345,1086,41.1881,42.103,142.333,100.237,96.3232,0.00871359,0.106106,20.9905,-319.308,0.357464,0.0,0.0
4400,1099.75,41.0241,42.0551,141.581,100.259,96.443,0.00806125,0.105076,20.9893,-319.438,0.348261,0.0,0.0
4455,1113.5,40.9372,42.0991,142.355,100.259,96.0164,0.00857092,0.103757,20.9955,-319.578,0.38805,0.0,0.0
4510,1127.25,40.4921,41.3793,138.826,100.249,96.2957,0.00873238,0.103521,20.9944,-319.728,0.361111,0.0,0.0
4565,1141,40.0794,41.6603,141.968,100.238,96.6275,0.00907037,0.105044,20.9985,-319.858,0.329264,0.0,0.0
4620,1154.75,39.9562,41.4227,145.31,100.227,96.3219,0.0090555,0.103314,20.9971,-319.998,0.356717,0.0,0.0
4675,1168.5,40.0239,41.3147,141.484,100.238,96.3376,0.00909102,0.10194,20.9982,-320.118,0.356197,0.0,0.0
4730,1182.25,39.9384,41.1311,144.978,100.265,96.3647,0.00942492,0.101754,20.9976,-320.228,0.356091,0.0,0.0
4785,1196,39.5764,40.4207,140.063,100.286,97.6669,0.0101084,0.10174,20.9944,-320.379,0.237489,0.0,0.0
4840,1209.75,39.2028,39.6363,143.444,100.293,96.5386,0.0101465,0.100262,21.001,-320.509,0.342393,0.0,0.0
4895,1223.5,38.7022,40.2993,144.91,100.313,96.1675,0.0102297,0.100201,20.999,-320.649,0.378807,0.0,0.0
4950,1237.25,38.7075,40.1124,144.657,100.329,95.9918,0.00958502,0.0987846,20.9984,-320.769,0.396619,0.0,0.0
5005,1251,38.504,39.7692,142.042,100.312,97.2755,0.00941318,0.0987988,20.9997,-320.899,0.275881,0.0,0.0
5060,1264.75,38.1799,39.3904,142.718,100.302,96.2868,0.0090599,0.0984331,20.9999,-321.019,0.366666,0.0,0.0
5115,1278.5,37.9772,39.2654,144.749,100.292,96.112,0.00931958,0.0985668,21.0016,-321.139,0.382107,0.0,0.0
5170,1292.25,38.0965,38.8388,144.863,100.287,96.4379,0.00930884,0.098525,21.0038,-321.259,0.351257,0.0,0.0
5225,1306,37.6999,39.4414,142.183,100.278,96.2491,,,,-321.38,0.368012,0.0,0.0
5246,1311.25,37.5715,39.1091,144.227,100.306,96.2665,,,,-321.43,0.368955,0.0,0.0