File: 01_Data/Engineered_Wood_Furniture/Cone/Engineered_Wood_Furniture_Cone_HF25Scan_220330_R1.csv
Names,Time,Stack TC,Smoke TC,Exh Press,Smoke Comp,Smoke Meas,CO Meter,CO2 Meter,O2 Meter,Sample Mass,Ext Coeff,Start Test,Flame Verif
Chan Gain,,500,500,1,1,1,1,1,1,1,1,1.0,1.0
Offset,,0,0,0.138301,0,0,0,0,0,0,0,0.0,0.0
Gain,,1,1,25.011,13.2062,13.8682,1,1,1,1.0009,1.02317,1.0,1.0
Units,sec,C,C,Pa,%,%,%,%,%,g,/m,,
Baseline,,14.7268,15.4642,158.659,100.222,97.452,0.000944562,0.0723249,20.996,-835.964,0.251566,,
58,14.25,14.4727,15.3104,159.118,100.606,98.3195,0.000974511,0.0786018,20.9904,-230.968,0.20631,0.0,0.0
116,28.75,14.7478,15.5138,153.069,100.06,97.6183,0.000712173,0.0778966,20.99,-231.158,0.221741,0.0,0.0
174,43.25,14.499,15.204,155.23,100.326,97.3821,0.000796159,0.0810138,20.9895,-231.258,0.267308,0.0,0.0
232,57.75,14.8279,15.1325,157.629,99.8094,96.2428,0.000924663,0.073365,21.0019,-231.378,0.326591,0.0,0.0
290,72.25,14.7399,15.6048,158.929,100.015,96.2496,0.000475771,0.0724589,21.0034,-231.459,0.34446,0.0,0.0
348,86.75,15.4626,16.1704,160.888,99.4422,95.3667,0.000650581,0.0739246,21.0017,-231.609,0.375589,0.0,0.0
406,101.25,16.0176,16.5288,157.965,98.6584,93.1888,0.00126512,0.0775755,20.9974,-231.809,0.511903,0.0,0.0
464,115.75,16.2611,16.8665,158.678,98.99,92.6018,0.00186308,0.0799464,20.996,-232.099,0.598742,0.0,0.0
522,130.25,23.2639,24.5316,139.233,100.11,95.1136,0.00616794,0.565695,20.4192,-234.251,0.459473,0.0,0.0
580,144.75,30.0109,31.782,141.286,100.662,95.7684,0.0038643,0.391745,20.628,-235.983,0.447304,0.0,0.0
638,159.25,34.504,36.8083,139.639,100.26,95.5656,0.00418514,0.435252,20.5764,-237.884,0.430426,0.0,0.0
696,173.75,39.0027,41.6027,136.143,99.9823,95.2723,0.00400329,0.459065,20.5442,-239.896,0.433085,0.0,0.0
754,188.25,40.9129,44.3562,136.17,100.41,95.6071,0.00357371,0.426331,20.5808,-241.838,0.439942,0.0,0.0
812,202.75,42.7407,46.3849,141.486,99.9355,95.605,0.00328806,0.379448,20.6376,-243.569,0.397603,0.0,0.0
870,217.25,41.958,46.0594,144.606,99.6776,95.0595,0.00319685,0.329025,20.6957,-245.111,0.425769,0.0,0.0
928,231.75,40.9172,44.6541,143.474,99.8477,95.6456,0.00292025,0.297074,20.733,-246.462,0.385896,0.0,0.0
986,246.25,39.8822,43.4145,146.12,99.892,96.2563,0.00315485,0.282879,20.747,-247.763,0.332755,0.0,0.0
1044,260.75,38.886,41.739,143.714,99.6091,96.1433,0.00327664,0.265056,20.7671,-248.984,0.317841,0.0,0.0
1102,275.25,37.9142,41.0418,147.481,99.0303,94.9189,0.00308489,0.257567,20.7788,-250.175,0.380576,0.0,0.0
1160,289.75,36.4611,39.8592,150.736,98.5959,94.2812,0.0025864,0.243561,20.7955,-251.336,0.401626,0.0,0.0
1218,304.25,36.2953,38.4499,147.903,98.477,95.1953,0.00305647,0.239997,20.7985,-252.457,0.30419,0.0,0.0
1276,318.75,35.0027,37.9877,148.45,98.8575,94.7801,0.00323891,0.235336,20.8043,-253.568,0.378028,0.0,0.0
1334,333.25,34.7073,38.23,146.128,99.5281,95.5216,0.00341573,0.229135,20.8101,-254.619,0.368766,0.0,0.0
1392,347.75,33.9041,36.6711,143.752,100.067,96.2496,0.00325182,0.218883,20.8237,-255.69,0.349051,0.0,0.0
1450,362.25,33.8753,36.3063,148.677,100.476,96.6647,0.00356519,0.210962,20.8351,-256.711,0.347034,0.0,0.0
1508,376.75,33.6926,36.0016,146.87,100.484,96.5429,0.00383172,0.204289,20.8424,-257.672,0.359115,0.0,0.0
1566,391.25,32.593,35.027,149.344,100.196,96.7574,0.0038788,0.194961,20.8549,-258.593,0.313414,0.0,0.0
1624,405.75,31.9667,34.4978,151.824,99.815,96.2407,0.00438188,0.188467,20.8616,-259.464,0.327296,0.0,0.0
1682,420.25,31.7497,33.2034,148.46,99.9988,96.7498,0.00466185,0.184434,20.8643,-260.385,0.296449,0.0,0.0
1740,434.75,30.82,32.3126,151.148,100.291,96.8099,0.00448606,0.179669,20.8715,-261.185,0.317063,0.0,0.0
1798,449.25,30.1708,31.9462,151.671,100.16,96.8594,0.00525008,0.177205,20.8762,-262.046,0.300744,0.0,0.0
1856,463.75,29.8737,31.5416,150.231,99.5515,95.922,0.00454425,0.176036,20.8769,-262.867,0.333333,0.0,0.0
1914,478.25,29.765,31.3731,148.575,99.5914,95.4801,0.00476309,0.178626,20.8742,-263.728,0.378368,0.0,0.0
1972,492.75,29.9048,31.133,152.705,99.7344,96.3609,0.00479705,0.179431,20.8714,-264.498,0.308843,0.0,0.0
2030,507.25,29.8533,31.3487,150.786,99.7852,96.8408,0.0045471,0.181564,20.8694,-265.309,0.268821,0.0,0.0
2088,521.75,29.616,30.8476,152.734,99.7336,96.1023,0.00451878,0.184927,20.8663,-266.17,0.332889,0.0,0.0
2146,536.25,29.8294,31.3458,147.533,99.6284,96.1311,0.00423913,0.188425,20.8608,-267.011,0.320731,0.0,0.0
2204,550.75,29.6777,31.2724,153.218,99.4052,95.9905,0.0041656,0.191053,20.856,-267.831,0.313722,0.0,0.0
2262,565.25,29.8955,31.3699,152.967,99.0932,96.104,0.00366583,0.193624,20.8549,-268.662,0.274913,0.0,0.0
2320,579.75,29.9914,31.8421,151.471,98.7986,95.2453,0.00364622,0.195057,20.8526,-269.523,0.328747,0.0,0.0
2378,594.25,30.5369,31.766,152.855,98.5673,95.3676,0.00375786,0.196276,20.8528,-270.394,0.296189,0.0,0.0
2436,608.75,30.512,31.8821,150.152,98.4049,96.0964,0.00319373,0.199272,20.8481,-271.234,0.213061,0.0,0.0
2494,623.25,30.7251,31.9014,149.385,98.3162,94.7018,0.00329604,0.202112,20.8448,-272.095,0.33617,0.0,0.0
2552,637.75,31.0833,32.0269,150.505,98.2799,94.7247,0.00304041,0.202131,20.8444,-272.986,0.330692,0.0,0.0
2610,652.25,30.909,32.4209,147.72,98.2985,94.9896,0.00296292,0.203881,20.8425,-273.797,0.307317,0.0,0.0
2668,666.75,30.564,31.9542,147.056,98.3388,95.1987,0.00256345,0.205583,20.8415,-274.728,0.291263,0.0,0.0
2726,681.25,31.2607,32.7391,149.024,98.4028,95.0832,0.00253718,0.207509,20.8401,-275.568,0.30801,0.0,0.0
2784,695.75,31.6168,33.0183,149.31,98.5121,95.481,0.00234695,0.211003,20.8371,-276.459,0.280492,0.0,0.0
2842,710.25,31.686,33.402,148.465,98.6704,95.0319,0.00218005,0.216293,20.8318,-277.32,0.33722,0.0,0.0
2900,724.75,31.9407,33.3493,152.634,98.8127,96.0062,0.00217606,0.220477,20.8273,-278.241,0.258606,0.0,0.0
2958,739.25,32.3412,34.5274,150.709,98.9731,96.1082,0.00195898,0.226369,20.8174,-279.161,0.263634,0.0,0.0
3016,753.75,32.7169,34.3236,141.708,99.2065,96.6643,0.00179083,0.233724,20.8094,-280.162,0.232985,0.0,0.0
3074,768.25,33.051,35.0578,148.618,99.4305,96.0257,0.00212093,0.244479,20.7957,-281.143,0.312729,0.0,0.0
3132,782.75,34.0019,35.8098,146.95,99.6429,95.9774,0.001771,0.255049,20.7841,-282.184,0.336391,0.0,0.0
3190,797.25,34.8886,36.9399,146.111,99.8114,95.9563,0.00179938,0.268395,20.7682,-283.315,0.353532,0.0,0.0
3248,811.75,35.1391,37.6782,145.867,99.9359,97.2852,0.0018113,0.284908,20.7475,-284.536,0.241276,0.0,0.0
3306,826.25,36.2394,39.0023,144.36,100.106,96.3397,0.00220332,0.302541,20.7246,-285.787,0.344191,0.0,0.0
3364,840.75,38.3571,40.7295,150.075,100.267,95.641,0.0021031,0.318442,20.7085,-287.139,0.423967,0.0,0.0
3422,855.25,37.4152,42.3896,144.838,100.357,95.5208,0.00232298,0.334464,20.6898,-288.56,0.443258,0.0,0.0
3480,869.75,40.3135,43.1339,143.194,100.358,94.9922,0.00265139,0.350995,20.6716,-290.061,0.493209,0.0,0.0
3538,884.25,42.5178,44.8585,140.135,100.327,94.7695,0.0032082,0.365447,20.6542,-291.643,0.511492,0.0,0.0
3596,898.75,43.2682,46.1736,141.904,100.3,93.9654,0.003342,0.379526,20.6349,-293.264,0.585556,0.0,0.0
3654,913.25,44.977,47.6168,142.069,100.2,93.4334,0.00338358,0.389952,20.6224,-294.956,0.627529,0.0,0.0
3712,927.75,45.7713,49.0203,140.816,100.098,93.7779,0.0034073,0.398712,20.6096,-296.677,0.585323,0.0,0.0
3770,942.25,47.02,49.8969,137.696,100.049,93.8008,0.00388262,0.407948,20.6004,-298.409,0.578762,0.0,0.0
3828,956.75,48.1166,51.7074,138.868,100.036,93.5062,0.0038341,0.412693,20.5925,-300.18,0.605835,0.0,0.0
3886,971.25,49.1236,52.7107,134.644,100.069,93.0834,0.00361812,0.412712,20.59,-301.902,0.64951,0.0,0.0
3944,985.75,49.5496,52.7831,142.119,100.094,93.2819,0.00388212,0.414728,20.5854,-303.634,0.632561,0.0,0.0
4002,1000.25,50.6399,53.6621,136.904,100.118,92.7999,0.00391709,0.415895,20.5821,-305.385,0.68123,0.0,0.0
4060,1014.75,50.983,54.6265,140.093,100.121,93.4089,0.004379,0.412369,20.5858,-307.077,0.62281,0.0,0.0
4118,1029.25,50.6707,54.5374,140.963,100.169,93.9045,0.00390025,0.395243,20.6045,-308.698,0.579614,0.0,0.0
4176,1043.75,50.6279,54.2472,137.592,100.228,93.951,0.00368228,0.379573,20.6199,-310.239,0.580436,0.0,0.0
4234,1058.25,50.0563,53.8728,139.396,100.291,94.1961,0.00344666,0.361392,20.6417,-311.671,0.562757,0.0,0.0
4292,1072.75,49.6165,52.341,143.008,100.335,94.1546,0.00315464,0.348319,20.6552,-312.982,0.570569,0.0,0.0
4350,1087.25,48.1207,51.5801,144.306,100.336,94.0179,0.0031076,0.313435,20.6966,-314.133,0.583717,0.0,0.0
4408,1101.75,46.3435,49.6606,146.935,100.312,95.9364,0.00399975,0.255843,20.7595,-315.004,0.400326,0.0,0.0
4466,1116.25,42.8729,45.8862,148.804,100.305,96.779,0.00536707,0.192725,20.8309,-315.524,0.321154,0.0,0.0
4524,1130.75,40.3348,42.9826,147.366,100.303,97.4921,0.00763361,0.174553,20.8525,-315.935,0.255153,0.0,0.0
4582,1145.25,37.854,39.7034,149.773,100.277,97.9234,0.00872413,0.162185,20.8688,-316.255,0.213193,0.0,0.0
4640,1159.75,35.8307,37.5925,147.895,100.247,97.3601,0.00918456,0.159665,20.8729,-316.605,0.262231,0.0,0.0
4698,1174.25,33.7984,35.8175,153.069,100.25,98.2133,0.00980055,0.169064,20.8638,-316.926,0.184208,0.0,0.0
4756,1188.75,32.9674,34.3329,150.201,100.243,98.1401,0.00923246,0.163737,20.871,-317.246,0.190324,0.0,0.0
4814,1203.25,31.7218,32.9645,153.793,100.228,97.6602,0.00905841,0.166075,20.8701,-317.566,0.232952,0.0,0.0
4872,1217.75,31.395,32.3158,147.589,100.222,98.1122,0.00921513,0.164358,20.8708,-317.866,0.190967,0.0,0.0
4930,1232.25,30.5843,31.3453,152.714,100.238,97.6525,0.00935232,0.163739,20.8743,-318.157,0.234555,0.0,0.0
4988,1246.75,30.1086,30.9975,157.033,100.274,98.2459,0.00904895,0.161862,20.8782,-318.427,0.183358,0.0,0.0
5046,1261.25,28.5604,29.8363,152.855,100.285,98.0885,0.0128186,0.149362,20.8939,-318.717,0.198799,0.0,0.0
5104,1275.75,27.5987,27.6709,152.29,100.322,98.576,0.0138822,0.146894,20.8957,-318.967,0.157579,0.0,0.0
5162,1290.25,26.9806,27.4082,153.068,100.288,98.4232,0.0132844,0.147386,20.8948,-319.218,0.168472,0.0,0.0
5220,1304.75,26.2861,26.7501,157.729,100.244,99.0293,0.0124811,0.137528,20.9102,-319.438,0.109407,0.0,0.0
5278,1319.25,25.1923,25.5661,152.941,100.197,99.0043,0.0115559,0.1383,20.9123,-319.608,0.107484,0.0,0.0
5336,1333.75,25.8032,25.5831,157.478,100.09,98.8181,0.0109932,0.136564,20.9146,-319.818,0.114809,0.0,0.0
5394,1348.25,24.8533,25.3482,156.784,100,98.7699,0.0103365,0.138198,20.9128,-320.008,0.11113,0.0,0.0
5452,1362.75,24.1625,23.9391,154.539,99.9452,97.9539,0.0101056,0.140472,20.9073,-320.188,0.180628,0.0,0.0
5510,1377.25,24.5922,25.0057,148.875,99.9758,98.8147,,0.136706,,-320.349,0.104848,0.0,0.0
5550,1387.25,24.0124,24.5166,156.7,100.017,98.9726,,,,-320.449,0.0942095,0.0,0.0