File: 01_Data/Engineered_Wood_Furniture/Cone/Engineered_Wood_Furniture_Cone_HF50Scan_220330_R3.csv
Names,Time,Stack TC,Smoke TC,Exh Press,Smoke Comp,Smoke Meas,CO Meter,CO2 Meter,O2 Meter,Sample Mass,Ext Coeff,Start Test,Flame Verif
Chan Gain,,500,500,1,1,1,1,1,1,1,1,1.0,1.0
Offset,,0,0,0.135377,0,0,0,0,0,0,0,0.0,0.0
Gain,,1,1,25.011,13.2062,13.8682,1,1,1,1.0009,1.02317,1.0,1.0
Units,sec,C,C,Pa,%,%,%,%,%,g,/m,,
Baseline,,33.3792,34.8395,145.804,100.039,96.2779,0.000709151,0.0428405,21.0738,-835.642,0.343982,,
56,13.75,32.8326,33.3365,145.699,100.208,92.9421,0.00130618,0.0438219,21.0734,-227.725,0.675539,0.0,0.0
112,27.75,39.8323,41.6621,109.528,100.216,93.2214,0.0084881,0.698091,20.1853,-229.717,0.649328,0.0,0.0
168,41.75,51.0715,54.2462,130.697,100.227,96.4624,0.00396542,0.409339,20.6188,-231.799,0.343562,0.0,0.0
224,55.75,56.8596,61.4833,127.079,100.232,93.5274,0.00505232,0.584949,20.42,-234.111,0.621395,0.0,0.0
280,69.75,64.1137,69.3911,121.723,100.227,92.51,0.00576557,0.617647,20.3759,-236.733,0.719098,0.0,0.0
336,83.75,67.7126,74.2305,119.633,100.237,94.0247,0.00505689,0.545414,20.4555,-239.105,0.574234,0.0,0.0
392,97.75,69.4978,75.8331,126.266,100.243,95.5017,0.00414778,0.478159,20.536,-241.237,0.434843,0.0,0.0
448,111.75,69.1283,76.0883,127.571,100.2,95.8018,0.00364745,0.415394,20.613,-243.089,0.402896,0.0,0.0
504,125.75,67.8557,75.5085,127.61,100.132,96.4887,0.00318416,0.383217,20.6535,-244.891,0.332635,0.0,0.0
560,139.75,67.2692,73.896,132.793,100.065,96.0367,0.00295701,0.36111,20.6799,-246.612,0.36878,0.0,0.0
616,153.75,66.6083,72.8851,129.655,99.996,95.7629,0.00286778,0.343813,20.7017,-248.244,0.388224,0.0,0.0
672,167.75,65.5133,71.4802,129.391,99.8989,96.0473,0.0027627,0.331594,20.7181,-249.825,0.352886,0.0,0.0
728,181.75,64.353,70.456,127.322,99.8481,96.1162,0.00259275,0.321477,20.7293,-251.437,0.341878,0.0,0.0
784,195.75,64.0754,69.441,130.141,99.7437,96.7138,0.00268977,0.310522,20.7411,-252.908,0.276861,0.0,0.0
840,209.75,62.9448,68.793,133.111,99.5966,95.9999,0.00257583,0.302209,20.7521,-254.399,0.330119,0.0,0.0
896,223.75,62.3619,68.0905,133.216,99.3858,96.021,0.00241286,0.292081,20.766,-255.85,0.309126,0.0,0.0
952,237.75,61.9544,67.2273,132.721,99.2311,95.7277,0.0025685,0.283739,20.7771,-257.262,0.322596,0.0,0.0
1008,251.75,61.5891,65.9114,131.064,99.0739,95.7658,0.00215926,0.277072,20.7837,-258.663,0.304798,0.0,0.0
1064,265.75,60.6203,65.5884,135.668,98.9377,95.5961,0.00214603,0.270068,20.7934,-259.954,0.308368,0.0,0.0
1120,279.75,60.44,64.2706,137.125,98.7845,95.5022,0.00186208,0.264867,20.8011,-261.275,0.30329,0.0,0.0
1176,293.75,58.9693,64.9871,135.967,98.6261,94.8284,0.00177505,0.261287,20.8042,-262.567,0.352433,0.0,0.0
1232,307.75,58.8619,63.7727,137.449,98.5286,94.9964,0.0019505,0.257687,20.8078,-263.848,0.327664,0.0,0.0
1288,321.75,58.6902,62.7538,132.292,98.4802,94.8508,0.00195991,0.257328,20.8116,-265.109,0.337024,0.0,0.0
1344,335.75,58.4272,62.5882,136.221,98.4327,95.167,0.00217248,0.257178,20.811,-266.34,0.302824,0.0,0.0
1400,349.75,58.1622,62.2604,134.893,98.4327,94.8343,0.00203177,0.259799,20.8062,-267.581,0.334251,0.0,0.0
1456,363.75,58.7636,61.2415,131.276,98.4391,94.9608,0.00178577,0.263397,20.8023,-268.822,0.32287,0.0,0.0
1512,377.75,58.5167,61.9179,138.924,98.4794,94.8038,0.00223035,0.268839,20.7961,-270.123,0.341396,0.0,0.0
1568,391.75,58.5853,62.1613,133.037,98.5536,95.0311,0.0016943,0.274751,20.7909,-271.374,0.326662,0.0,0.0
1624,405.75,58.8807,62.1624,130.616,98.6761,94.836,0.0017186,0.281569,20.7816,-272.676,0.356258,0.0,0.0
1680,419.75,58.8814,62.5496,133.47,98.8361,95.0019,0.00191475,0.288036,20.773,-274.037,0.355113,0.0,0.0
1736,433.75,60.001,62.8803,133.692,98.9453,94.9947,0.0020793,0.297,20.7646,-275.348,0.365705,0.0,0.0
1792,447.75,60.0772,63.873,132.826,98.9006,94.6612,0.00229829,0.307464,20.7524,-276.729,0.393211,0.0,0.0
1848,461.75,60.3024,64.4547,128.621,99.0191,94.5457,0.0022025,0.315262,20.7428,-278.141,0.414919,0.0,0.0
1904,475.75,61.0184,64.8541,131.563,99.1903,94.4813,0.00221853,0.324113,20.7336,-279.602,0.43654,0.0,0.0
1960,489.75,61.2126,65.4313,128.924,99.3399,94.5055,0.00233473,0.333114,20.7219,-281.103,0.447768,0.0,0.0
2016,503.75,61.9804,66.1129,129.819,99.4777,94.3688,0.00245918,0.341014,20.7109,-282.575,0.473203,0.0,0.0
2072,517.75,62.7987,66.6794,132.788,99.52,94.3438,0.00304676,0.341962,20.7064,-284.076,0.479396,0.0,0.0
2128,531.75,62.7286,66.9968,135.255,99.5075,94.0911,0.00255957,0.346237,20.7039,-285.647,0.502339,0.0,0.0
2184,545.75,63.0414,67.5323,128.068,99.5204,94.2037,0.00286156,0.353116,20.6963,-287.139,0.492769,0.0,0.0
2240,559.75,63.9894,67.2716,130.357,99.5809,94.158,0.0028807,0.35495,20.6942,-288.68,0.502576,0.0,0.0
2296,573.75,64.1263,68.5251,133.557,99.6304,93.8579,0.00352216,0.361116,20.6857,-290.272,0.535691,0.0,0.0
2352,587.75,64.5483,69.1506,126.622,99.6482,94.1288,0.00336513,0.369152,20.6727,-291.843,0.511423,0.0,0.0
2408,601.75,65.4068,69.5903,134.097,99.6675,94.3556,0.00337329,0.370944,20.6688,-293.384,0.491562,0.0,0.0
2464,615.75,65.7056,69.8492,128.426,99.6865,93.728,0.00396555,0.367933,20.6717,-294.986,0.553168,0.0,0.0
2520,629.75,65.8493,69.4324,130.635,99.7276,93.9726,0.00352493,0.361985,20.6803,-296.517,0.533475,0.0,0.0
2576,643.75,66.0008,70.0797,133.304,99.7227,93.9565,0.00344328,0.362598,20.6789,-298.059,0.534576,0.0,0.0
2632,657.75,66.002,71.0489,128.55,99.7219,94.566,0.00312224,0.368733,20.67,-299.55,0.476474,0.0,0.0
2688,671.75,66.9842,70.7647,129.184,99.7191,93.9472,0.00300087,0.372579,20.6662,-301.091,0.535138,0.0,0.0
2744,685.75,67.4809,70.6379,129.767,99.7223,94.2198,0.00361492,0.370425,20.6633,-302.613,0.509428,0.0,0.0
2800,699.75,67.5381,71.5163,131.054,99.7131,94.0848,0.00347232,0.372492,20.6606,-304.144,0.521464,0.0,0.0
2856,713.75,67.6336,71.4372,132.254,99.7159,94.1601,0.00327764,0.365871,20.6663,-305.595,0.514533,0.0,0.0
2912,727.75,66.704,71.3542,131.767,99.6832,94.4449,0.00289728,0.345701,20.6928,-306.967,0.484487,0.0,0.0
2968,741.75,66.7869,70.5984,133.393,99.6091,93.9074,0.00314415,0.331252,20.7143,-308.288,0.529032,0.0,0.0
3024,755.75,65.8728,69.8843,133.923,99.5426,93.7428,0.00282291,0.315149,20.7327,-309.509,0.538788,0.0,0.0
3080,769.75,64.7605,69.0369,130.892,99.4374,94.4208,0.00226104,0.303251,20.7465,-310.66,0.464617,0.0,0.0
3136,783.75,64.3575,67.4459,134.301,99.3322,94.2168,0.00248949,0.283424,20.7697,-311.721,0.47453,0.0,0.0
3192,797.75,62.6259,66.3072,134.964,99.2089,94.3349,0.00200894,0.253533,20.8052,-312.632,0.452138,0.0,0.0
3248,811.75,60.8029,64.2175,135.625,99.4636,95.1369,0.00196481,0.213159,20.8511,-313.362,0.399169,0.0,0.0
3304,825.75,59.0237,60.8531,136.98,99.7961,94.9253,0.00270745,0.172292,20.897,-313.853,0.449108,0.0,0.0
3360,839.75,55.8369,58.5594,140.846,100.027,95.4319,0.00495391,0.14965,20.9252,-314.283,0.422081,0.0,0.0
3416,853.75,53.1299,56.0786,139.024,100.083,95.6168,0.00544746,0.139999,20.9341,-314.573,0.409729,0.0,0.0
3472,867.75,51.528,53.8452,139.443,100.072,95.9745,0.00581306,0.138003,20.9366,-314.854,0.375247,0.0,0.0
3528,881.75,49.872,52.6581,140.715,100.016,95.8115,0.00610668,0.135356,20.9421,-315.114,0.385472,0.0,0.0
3584,895.75,49.1529,50.7452,136.508,99.9291,95.5225,0.00647516,0.132269,20.944,-315.384,0.404776,0.0,0.0
3640,909.75,48.4583,49.4141,141.076,99.8565,95.5661,0.00680559,0.131132,20.9498,-315.614,0.394163,0.0,0.0
3696,923.75,47.0022,49.0659,138.364,99.7514,95.3858,0.00692273,0.130667,20.9506,-315.825,0.401651,0.0,0.0
3752,937.75,46.835,48.0214,140.418,99.6982,95.4031,0.00716045,0.129606,20.951,-316.055,0.395231,0.0,0.0
3808,951.75,45.8412,47.5142,139.195,99.6377,95.4349,0.0073965,0.129378,20.9501,-316.295,0.386802,0.0,0.0
3864,965.75,45.9274,46.6537,141.175,99.6433,95.2338,0.00745634,0.127963,20.9522,-316.465,0.406236,0.0,0.0
3920,979.75,45.4917,46.1279,143.451,99.6683,95.3756,0.00801946,0.129187,20.9509,-316.645,0.395135,0.0,0.0
3976,993.75,44.5915,45.4714,139.756,99.6248,95.2965,0.00814486,0.128257,20.9486,-316.885,0.398664,0.0,0.0
4032,1007.75,44.7066,45.2719,142.866,99.6127,95.2199,0.00787957,0.12732,20.953,-317.086,0.404794,0.0,0.0
4088,1021.75,43.8301,45.1378,140.209,99.618,95.5093,0.00831775,0.127096,20.9522,-317.276,0.37802,0.0,0.0
4144,1035.75,43.3163,44.7655,138.876,99.6361,95.0472,0.00859156,0.126384,20.9519,-317.476,0.423189,0.0,0.0
4200,1049.75,43.5111,44.6307,140.249,99.6703,95.1183,0.00928541,0.125915,20.954,-317.666,0.419563,0.0,0.0
4256,1063.75,42.7279,44.4866,142.689,99.7062,95.437,0.00969108,0.124697,20.9585,-317.856,0.392772,0.0,0.0
4312,1077.75,42.8277,43.8261,141.352,99.7679,95.6185,0.0100764,0.125417,20.9602,-318.067,0.381262,0.0,0.0
4368,1091.75,42.1098,43.5902,142.69,99.8332,95.597,0.0110818,0.124706,20.9617,-318.237,0.389161,0.0,0.0
4424,1105.75,42.4591,43.3107,139.842,99.867,95.6774,0.0108309,0.124043,20.9616,-318.467,0.384658,0.0,0.0
4480,1119.75,42.3747,43.2116,139.701,99.9198,95.5123,0.011493,0.127259,20.9615,-318.647,0.404898,0.0,0.0
4536,1133.75,41.684,43.2734,140.627,99.9879,95.7188,0.0120431,0.12501,20.9635,-318.787,0.391626,0.0,0.0
4592,1147.75,41.7068,42.9172,144.593,100.043,95.58,0.0117253,0.124993,20.9617,-319.037,0.409571,0.0,0.0
4648,1161.75,41.8711,42.796,140.248,100.069,95.4734,0.0124434,0.126508,20.9608,-319.178,0.421904,0.0,0.0
4704,1175.75,41.2597,42.7216,142.655,100.083,95.5148,0.0122431,0.129322,20.9595,-319.358,0.419272,0.0,0.0
4760,1189.75,41.5831,42.859,142.489,100.076,96.5598,0.0123011,0.124565,20.9673,-319.568,0.321038,0.0,0.0
4816,1203.75,41.0066,42.7262,144.257,100.071,95.8877,0.0123644,0.123959,20.9647,-319.738,0.383255,0.0,0.0
4872,1217.75,40.023,41.551,142.534,100.079,95.6659,0.0125002,0.124531,20.9659,-319.888,0.404797,0.0,0.0
4928,1231.75,40.377,41.9378,142.39,100.05,95.6444,0.0125168,0.123359,20.9701,-320.068,0.404219,0.0,0.0
4984,1245.75,40.5897,41.5524,143.06,100.037,96.0206,0.012631,0.120629,20.9708,-320.249,0.367752,0.0,0.0
5040,1259.75,40.5414,41.3331,143.469,100.023,96.0748,0.0122275,0.120344,20.9692,-320.429,0.361497,0.0,0.0
5096,1273.75,40.0164,41.5108,144.351,100.022,95.7595,0.0128148,0.121224,20.9733,-320.609,0.390856,0.0,0.0
5152,1287.75,39.1508,41.0877,146.007,100.05,95.7116,0.0121216,0.120227,20.9715,-320.769,0.397907,0.0,0.0
5208,1301.75,39.5673,41.2556,143.58,100.055,95.7938,0.0126605,0.12092,20.972,-320.939,0.390608,0.0,0.0
5264,1315.75,39.788,40.9166,144.512,100.028,96.3461,0.0125132,0.121256,20.9695,-321.089,0.336587,0.0,0.0
5320,1329.75,39.8472,40.7257,139.728,100.001,96.0748,,,,-321.279,0.359508,0.0,0.0
5323,1330.5,39.5885,40.945,140.4,100.01,95.7159,,,,-321.289,0.39393,0.0,0.0