File: 01_Data/Engineered_Wood_Furniture/Cone/Engineered_Wood_Furniture_Cone_HF75Scan_220330_R1.csv
Names,Time,Stack TC,Smoke TC,Exh Press,Smoke Comp,Smoke Meas,CO Meter,CO2 Meter,O2 Meter,Sample Mass,Ext Coeff,Start Test,Flame Verif
Chan Gain,,500,500,1,1,1,1,1,1,1,1,1.0,1.0
Offset,,0,0,0.135377,0,0,0,0,0,0,0,0.0,0.0
Gain,,1,1,25.011,13.2062,13.8682,1,1,1,1.0009,1.02317,1.0,1.0
Units,sec,C,C,Pa,%,%,%,%,%,g,/m,,
Baseline,,33.5661,35.8157,146.206,100.004,95.6721,0.000815929,0.0430681,21.0688,-835.568,0.397529,,
45,11,33.8133,36.3183,136.528,98.9514,94.9922,0.00313034,0.0869426,20.9974,-233.41,0.366493,0.0,1.0
90,22.25,49.6992,53.4158,115.986,98.5725,92.6594,0.00888818,0.910326,20.0348,-236.273,0.555229,0.0,0.0
135,33.5,62.4774,67.8987,108.356,98.3891,86.1121,0.00939385,0.97231,19.9249,-239.115,1.19622,0.0,0.0
180,44.75,73.4908,80.6022,118.079,98.3996,86.876,0.00955997,0.903035,20.0049,-241.978,1.11791,0.0,0.0
225,56,78.2337,86.9599,118.322,98.5733,89.4221,0.00797386,0.728061,20.2269,-244.46,0.874477,0.0,0.0
270,67.25,80.505,89.1445,124.089,98.8933,91.3304,0.00651141,0.605079,20.3664,-246.572,0.714046,0.0,0.0
315,78.5,81.2766,89.8361,125.585,99.2036,92.3208,0.00563191,0.532826,20.4572,-248.444,0.645367,0.0,0.0
360,89.75,80.3268,89.2886,118.192,99.5051,93.2582,0.00495606,0.500057,20.4966,-250.305,0.581923,0.0,0.0
405,101,80.2531,89.1118,125.407,99.701,93.6163,0.00477314,0.479966,20.5261,-252.047,0.56518,0.0,0.0
450,112.25,79.1364,88.1574,123.371,99.734,93.9595,0.00473933,0.460191,20.5498,-253.789,0.535309,0.0,0.0
495,123.5,78.7853,87.4471,129.468,99.6712,93.1249,0.00469509,0.445678,20.5669,-255.5,0.609727,0.0,0.0
540,134.75,78.2752,86.5218,129.716,99.5539,94.0365,0.00406621,0.430454,20.5861,-257.152,0.511727,0.0,0.0
585,146,77.2662,85.4761,124.347,99.4173,94.9363,0.00382251,0.410434,20.6134,-258.773,0.413931,0.0,0.0
630,157.25,76.7734,84.6977,131.459,99.6042,95.5013,0.00362483,0.398932,20.6263,-260.315,0.377541,0.0,0.0
675,168.5,75.2543,83.3417,126.832,100.06,94.3882,0.00340476,0.390314,20.6389,-261.896,0.523778,0.0,0.0
720,179.75,75.3236,82.8824,129.751,100.222,96.0388,0.00318196,0.382403,20.6468,-263.417,0.382705,0.0,0.0
765,191,74.487,82.1229,127.979,100.014,95.4124,0.00338502,0.371313,20.6602,-264.879,0.422754,0.0,0.0
810,202.25,74.3262,81.5716,126.455,99.7207,96.2661,0.00309159,0.366935,20.6649,-266.31,0.316444,0.0,0.0
855,213.5,73.7428,81.2975,125.338,100.008,95.7366,0.00270999,0.361035,20.6732,-267.751,0.391732,0.0,0.0
900,224.75,73.4923,80.3265,127.865,100.324,96.7744,0.00277929,0.356449,20.678,-269.163,0.323316,0.0,0.0
945,236,72.9699,79.6558,126.498,100.455,97.2331,0.00240766,0.353201,20.6838,-270.564,0.292544,0.0,0.0
990,247.25,73.2825,79.7851,127.904,100.252,96.145,0.00280014,0.353778,20.6832,-271.935,0.375382,0.0,0.0
1035,258.5,72.852,79.1505,126.316,99.7409,95.9512,0.00295436,0.354434,20.6817,-273.346,0.347663,0.0,0.0
1080,269.75,72.8915,79.2003,126.259,99.0973,95.5326,0.00258725,0.354757,20.6823,-274.707,0.328797,0.0,0.0
1125,281,72.5878,79.181,129.664,98.5822,95.0142,0.00286954,0.359539,20.6777,-276.119,0.330867,0.0,0.0
1170,292.25,73.1285,79.3537,126.852,98.4194,94.7192,0.00254895,0.363548,20.6727,-277.48,0.343939,0.0,0.0
1215,303.5,73.6517,79.6996,123.946,98.6116,93.9764,0.00318966,0.367766,20.6696,-278.891,0.432111,0.0,0.0
1260,314.75,73.6848,79.523,126.625,99.0465,95.2118,0.00330645,0.376457,20.66,-280.272,0.354387,0.0,0.0
1305,326,73.9561,79.8618,122.682,99.5107,94.8978,0.0033016,0.379851,20.6535,-281.694,0.42601,0.0,0.0
1350,337.25,74.3432,80.142,127.802,99.7602,94.6193,0.00326202,0.387988,20.6443,-283.135,0.474859,0.0,0.0
1395,348.5,74.3547,80.3457,130.418,99.6949,93.9667,0.00424292,0.392902,20.6373,-284.596,0.531102,0.0,0.0
1440,359.75,74.9309,81.1363,127.222,99.5059,93.1816,0.00407984,0.399437,20.6285,-286.018,0.589372,0.0,0.0
1485,371,75.4966,81.2461,125.469,99.3524,92.8214,0.00407765,0.401811,20.63,-287.489,0.610269,0.0,0.0
1530,382.25,75.34,81.2009,126.384,99.917,92.9797,0.00421844,0.402002,20.6279,-288.88,0.645839,0.0,0.0
1575,393.5,75.7564,81.6131,126.071,100.193,93.6649,0.00439097,0.403343,20.6257,-290.392,0.604741,0.0,0.0
1620,404.75,75.9788,81.8826,126.392,99.9291,92.8278,0.00435757,0.404144,20.6236,-291.843,0.661604,0.0,0.0
1665,416,75.5434,81.6438,126.466,99.7824,92.6598,0.00430852,0.400787,20.6288,-293.264,0.664678,0.0,0.0
1710,427.25,76.559,82.3458,131.18,100.174,94.2685,0.00418429,0.400228,20.6306,-294.695,0.545326,0.0,0.0
1755,438.5,76.3479,82.2549,126.415,100.426,93.8681,0.00404121,0.397326,20.634,-296.117,0.606066,0.0,0.0
1800,449.75,77.1339,82.7553,127.546,100.322,94.2989,0.00405089,0.395534,20.6351,-297.488,0.55574,0.0,0.0
1845,461,76.882,82.4651,124.908,99.8098,93.7559,0.00420138,0.397478,20.6319,-298.879,0.561591,0.0,0.0
1890,472.25,77.0932,82.3124,126.038,99.0779,93.3526,0.00420806,0.399687,20.628,-300.291,0.534229,0.0,0.0
1935,483.5,77.0146,82.7944,128.17,98.5508,92.6175,0.00391133,0.396756,20.6308,-301.612,0.557306,0.0,0.0
1980,494.75,76.851,82.6864,127.33,98.4605,92.8041,0.00384005,0.397294,20.6278,-303.023,0.531013,0.0,0.0
2025,506,76.9967,82.7268,126.593,98.7881,92.9514,0.00397083,0.398718,20.6274,-304.324,0.546598,0.0,0.0
2070,517.25,77.4696,83.1353,124.071,99.2951,93.6903,0.00338685,0.398826,20.6266,-305.655,0.521474,0.0,0.0
2115,528.5,77.9953,83.5719,124.672,99.6687,93.3492,0.0040319,0.402136,20.6238,-306.987,0.587917,0.0,0.0
2160,539.75,77.73,83.4899,129.352,99.7622,94.3345,0.0036481,0.407929,20.6137,-308.358,0.5021,0.0,0.0
2205,551,78.2023,84.039,127.462,99.5543,93.4961,0.00364754,0.415686,20.6018,-309.739,0.563495,0.0,0.0
2250,562.25,78.6206,84.302,125.321,99.3362,92.7432,0.00353657,0.4158,20.6011,-311.05,0.616386,0.0,0.0
2295,573.5,78.634,84.4021,125.024,99.7671,93.7483,0.00366336,0.407999,20.6075,-312.381,0.558477,0.0,0.0
2340,584.75,79.2973,84.2218,124.446,100.148,94.5867,0.00323981,0.393435,20.6252,-313.633,0.512729,0.0,0.0
2385,596,78.7122,84.5081,127.268,99.9774,94.4805,0.00340329,0.383553,20.6358,-314.794,0.50756,0.0,0.0
2430,607.25,78.8178,83.5232,126.852,99.7018,94.3658,0.00315091,0.36628,20.6548,-315.905,0.493681,0.0,0.0
2475,618.5,77.199,82.6519,131.121,100.088,94.3006,0.00274558,0.340832,20.6824,-316.885,0.534606,0.0,0.0
2520,629.75,76.1364,81.8246,133.356,100.396,94.4077,0.00258957,0.288309,20.7483,-317.706,0.551954,0.0,0.0
2565,641,73.9899,78.9847,134.913,100.406,96.7168,0.00209971,0.211921,20.8381,-318.247,0.335973,0.0,0.0
2610,652.25,70.7979,75.4949,131.737,100.108,96.9906,0.00278694,0.170618,20.8869,-318.557,0.283899,0.0,0.0
2655,663.5,68.3906,72.3624,133.244,99.5462,95.5419,0.00260331,0.148155,20.9133,-318.837,0.368493,0.0,0.0
2700,674.75,65.7351,69.2801,138.041,98.9034,95.2351,0.00260127,0.139119,20.93,-319.067,0.339219,0.0,0.0
2745,686,63.1622,66.7779,134.365,98.5177,94.8216,0.00284188,0.133378,20.9402,-319.278,0.343203,0.0,0.0
2790,697.25,61.6708,64.9653,135.997,98.5298,94.7111,0.00317937,0.131242,20.9428,-319.478,0.354765,0.0,0.0
2835,708.5,60.1871,63.1322,140.898,98.9183,94.8995,0.00354223,0.129409,20.9458,-319.648,0.372255,0.0,0.0
2880,719.75,59.4592,62.1817,139.142,99.3572,95.4818,0.00381115,0.130553,20.9456,-319.818,0.357082,0.0,0.0
2925,731,58.0945,60.5759,135.039,99.6913,96.0697,0.00422934,0.128219,20.9491,-319.978,0.332123,0.0,0.0
2970,742.25,57.2186,59.6656,137.217,99.778,95.9004,0.00443562,0.128891,20.9522,-320.108,0.35575,0.0,0.0
3015,753.5,55.878,58.8248,135.88,99.63,95.9262,0.00477309,0.128721,20.9514,-320.289,0.34002,0.0,0.0
3060,764.75,56.1593,58.4692,135.221,99.4773,95.4861,0.00486917,0.129198,20.9541,-320.449,0.367526,0.0,0.0
3105,776,55.776,57.6918,135.554,99.2959,95.1602,0.00523309,0.127707,20.9563,-320.569,0.381832,0.0,0.0
3150,787.25,55.2105,57.3286,137.711,99.3665,95.5225,0.00582497,0.130758,20.9503,-320.719,0.354102,0.0,0.0
3195,798.5,54.7951,56.9769,139.631,99.8013,95.4772,0.00623589,0.130569,20.9499,-320.869,0.39755,0.0,0.0
3240,809.75,54.411,56.0762,137.825,100.04,96.0765,0.00657446,0.134979,20.9476,-321.009,0.362821,0.0,0.0
3285,821,53.72,55.4169,142.513,100.146,96.0172,0.00669956,0.132505,20.9502,-321.159,0.377899,0.0,0.0
3330,832.25,53.9515,55.548,141.863,100.076,96.3761,0.00679576,0.129318,20.9552,-321.319,0.338127,0.0,0.0
3375,843.5,53.5159,55.6741,136.893,99.805,95.7472,0.00741019,0.131155,20.9543,-321.42,0.372528,0.0,0.0
3420,854.75,53.5856,55.1234,138.994,99.7119,95.9867,0.00772802,0.133905,20.9497,-321.58,0.341726,0.0,0.0
3465,866,52.9692,54.1256,138.116,99.9214,96.0625,0.00765594,0.130929,20.9562,-321.72,0.35349,0.0,0.0
3510,877.25,52.5157,54.4377,142.262,100.174,95.7933,0.00819128,0.132923,20.9515,-321.87,0.401342,0.0,0.0
3555,888.5,51.821,54.5548,140.465,100.355,96.3825,0.00823406,0.132908,20.9501,-322.02,0.362513,0.0,0.0
3600,899.75,52.4917,54.1439,132.554,100.443,96.225,0.00864613,0.133222,20.9514,-322.19,0.385004,0.0,0.0
3645,911,52.414,53.7227,140.728,100.422,96.6305,0.00923673,0.13226,20.9538,-322.33,0.345393,0.0,0.0
3690,922.25,52.0975,54.0982,140.27,100.292,96.1505,0.00923691,0.132837,20.9533,-322.481,0.378512,0.0,0.0
3735,933.5,51.7816,53.85,135.79,100.089,96.1793,0.00923547,0.134837,20.95,-322.641,0.357594,0.0,0.0
3780,944.75,52.1255,54.0686,138.228,99.8021,95.5982,0.00923425,0.134867,20.951,-322.781,0.386251,0.0,0.0
3825,956,52.1375,53.908,138.995,99.493,95.3684,0.00934381,0.135846,20.9485,-322.941,0.380011,0.0,0.0
3870,967.25,51.594,53.462,136.676,99.1867,95.0645,0.00977256,0.141068,20.9436,-323.081,0.38098,0.0,0.0
3915,978.5,50.9475,53.0595,135.767,98.9409,95.5153,0.00974018,0.137837,20.9477,-323.251,0.316254,0.0,0.0
3960,989.75,51.5243,53.4351,140.801,98.7837,95.0531,0.0101965,0.138808,20.9458,-323.421,0.345516,0.0,0.0
4005,1001,51.201,53.2052,136.887,98.6193,94.3933,0.0103809,0.139732,20.9435,-323.592,0.393082,0.0,0.0
4050,1012.25,51.0305,52.7502,137.83,98.5233,94.5605,0.0102891,0.140253,20.9434,-323.732,0.368467,0.0,0.0
4095,1023.5,51.1131,52.871,140.369,98.5028,94.8009,0.0106248,0.140837,20.9434,-323.892,0.343807,0.0,0.0
4140,1034.75,51.8569,52.7778,138.205,98.5882,94.5148,0.0107175,0.14272,20.9425,-324.072,0.378716,0.0,0.0
4185,1046,51.4594,53.2435,135.767,98.72,94.748,0.0109778,0.141378,20.9463,-324.222,0.368589,0.0,0.0
4230,1057.25,50.8466,53.3321,138.328,98.8845,95.0717,0.0110264,0.14289,20.9421,-324.382,0.352908,0.0,0.0
4275,1068.5,51.0942,53.0793,137.505,99.1013,95.1598,,,,-324.562,0.36426,0.0,0.0
4306,1076.25,50.3989,52.5377,139.34,99.2315,95.1174,,,,-324.693,0.380035,0.0,0.0