File: 01_Data/HDPE/STA/N2/30K_min/HDPE_STA_N2_30KData_21109_R2.csv
##Temp./Â°C,Time/min,Mass loss(subtr.2)/mg,DSC(subtr.2)/(mW/mg),Sensit./(uV/mW)
49.333,10.01,-0.02446,-0.01248635,1.05401
51.833,11.5394,-0.02836672,0.12762,1.05405
54.333,11.8886,-0.024201,0.22171,1.05406
56.833,12.1434,-0.02675542,0.30006,1.05404
59.333,12.35717,-0.02373849,0.36795,1.05399
61.833,12.5464,-0.03284386,0.42028,1.05392
64.333,12.7225,-0.0267252,0.46327,1.05381
66.833,12.88653,-0.02975996,0.49539,1.05367
69.333,13.04305,-0.0263566,0.52327,1.0535
71.833,13.19316,-0.02582117,0.5465,1.0533
74.333,13.33748,-0.03231636,0.56604,1.05307
76.833,13.4778,-0.029761,0.5903,1.05281
79.333,13.6134,-0.02574713,0.61677,1.05253
81.833,13.7445,-0.02918536,0.64288,1.05221
84.333,13.8717,-0.02591509,0.66694,1.05186
86.833,13.9954,-0.03040317,0.69662,1.05149
89.333,14.11546,-0.03032632,0.72414,1.05109
91.833,14.23196,-0.03168759,0.7525,1.05066
94.333,14.3457,-0.03055691,0.78694,1.0502
96.833,14.45646,-0.03094967,0.81966,1.04971
99.333,14.5648,-0.03145914,0.85305,1.0492
101.833,14.67066,-0.03017789,0.8901,1.04865
104.333,14.7745,-0.02944032,0.92704,1.04808
106.833,14.8764,-0.03246076,0.96973,1.04749
109.333,14.9766,-0.02943539,1.01392,1.04686
111.833,15.0754,-0.02756778,1.06699,1.04621
114.333,15.1729,-0.03036931,1.12389,1.04553
116.833,15.2687,-0.03240148,1.19372,1.04483
119.333,15.3631,-0.03051497,1.28201,1.0441
121.833,15.45643,-0.03268463,1.40166,1.04334
124.333,15.54868,-0.03349186,1.56907,1.04256
126.833,15.63975,-0.03454345,1.82854,1.04175
129.333,15.7299,-0.03268898,2.23986,1.04091
131.833,15.8193,-0.03258157,2.87736,1.04005
134.333,15.9082,-0.03454773,3.75951,1.03917
136.833,15.9966,-0.03084265,4.66231,1.03826
139.333,16.08399,-0.02871931,5.3781,1.03732
141.833,16.17077,-0.02998142,5.79053,1.03636
144.333,16.25706,-0.02746296,5.72312,1.03538
146.833,16.3414,-0.02771747,5.10275,1.03437
149.333,16.42408,-0.02835714,4.00754,1.03334
151.833,16.50529,-0.03112481,3.06848,1.03228
154.333,16.5858,-0.0310444,2.43453,1.0312
156.833,16.66526,-0.03048294,2.03776,1.0301
159.333,16.74417,-0.03418257,1.78983,1.02897
161.833,16.82274,-0.03323,1.6391,1.02782
164.333,16.901,-0.03323477,1.54917,1.02665
166.833,16.9788,-0.03476447,1.4989,1.02546
169.333,17.05612,-0.03315472,1.47024,1.02424
171.833,17.1331,-0.03211941,1.45723,1.023
174.333,17.21,-0.03443008,1.45532,1.02174
176.833,17.2864,-0.03702789,1.45621,1.02046
179.333,17.36213,-0.03894534,1.46579,1.01916
181.833,17.43744,-0.03488867,1.47788,1.01784
184.333,17.51206,-0.03487874,1.4906,1.01649
186.833,17.58638,-0.03490842,1.5011,1.01513
189.333,17.66094,-0.0381256,1.51869,1.01374
191.833,17.73465,-0.03836592,1.5305,1.01234
194.333,17.80798,-0.03776827,1.5448,1.01091
196.833,17.88117,-0.03662292,1.55909,1.00947
199.333,17.95393,-0.03674002,1.57508,1.008
201.833,18.02664,-0.03484536,1.58829,1.00652
204.333,18.09906,-0.03247193,1.60557,1.00502
206.833,18.1709,-0.0354294,1.61603,1.00349
209.333,18.2427,-0.03680915,1.63307,1.00195
211.833,18.31431,-0.03675274,1.64515,1.0004
214.333,18.38574,-0.03675547,1.6562,0.99882
216.833,18.45704,-0.03674999,1.66779,0.99723
219.333,18.52794,-0.03682383,1.68242,0.99561
221.833,18.59866,-0.03855764,1.69199,0.99398
224.333,18.66955,-0.04308365,1.71047,0.99234
226.833,18.7399,-0.04245789,1.72197,0.99068
229.333,18.81031,-0.04110443,1.73556,0.989
231.833,18.88046,-0.04203045,1.74656,0.9873
234.333,18.9503,-0.04014849,1.75682,0.98559
236.833,19.02015,-0.03739964,1.77118,0.98386
239.333,19.08989,-0.0374,1.7805,0.98212
241.833,19.15934,-0.0373636,1.7904,0.98036
244.333,19.22881,-0.03894499,1.80397,0.97859
246.833,19.29814,-0.03900303,1.8151,0.9768
249.333,19.36725,-0.03762012,1.82501,0.97499
251.833,19.43623,-0.03909204,1.83407,0.97318
254.333,19.50521,-0.03975292,1.84408,0.97134
256.833,19.57431,-0.04113028,1.85354,0.9695
259.333,19.64312,-0.04099111,1.86305,0.96764
261.833,19.71171,-0.03981776,1.87137,0.96576
264.333,19.78029,-0.04114258,1.88108,0.96388
266.833,19.8489,-0.04183221,1.89199,0.96198
269.333,19.91734,-0.04046998,1.90216,0.96007
271.833,19.9857,-0.04047192,1.9113,0.95814
274.333,20.05396,-0.04251854,1.92009,0.95621
276.833,20.12221,-0.04309922,1.92747,0.95426
279.333,20.1904,-0.04176831,1.93533,0.9523
281.833,20.25856,-0.04046992,1.94234,0.95033
284.333,20.32678,-0.04052016,1.95382,0.94834
286.833,20.39489,-0.03915986,1.96246,0.94635
289.333,20.46312,-0.04033487,1.96902,0.94435
291.833,20.53136,-0.04156029,1.97807,0.94233
294.333,20.59941,-0.04328886,1.9865,0.94031
296.833,20.66741,-0.04595978,1.99448,0.93827
299.333,20.73525,-0.04772795,2.00097,0.93623
301.833,20.80324,-0.04717045,2.00992,0.93417
304.333,20.87124,-0.0458198,2.01641,0.93211
306.833,20.93914,-0.0445341,2.02554,0.93003
309.333,21.00696,-0.04452955,2.03081,0.92795
311.833,21.0751,-0.04585604,2.03804,0.92586
314.333,21.14302,-0.04313171,2.04351,0.92376
316.833,21.21095,-0.04431222,2.0508,0.92166
319.333,21.27899,-0.04562995,2.0566,0.91954
321.833,21.34698,-0.0455697,2.06298,0.91742
324.333,21.41491,-0.04774277,2.06936,0.91529
326.833,21.4829,-0.04781088,2.07123,0.91315
329.333,21.55099,-0.04745179,2.07286,0.91101
331.833,21.61916,-0.04885118,2.07468,0.90886
334.333,21.6874,-0.04612829,2.07517,0.9067
336.833,21.75558,-0.04617677,2.0751,0.90454
339.333,21.8238,-0.04420126,2.07428,0.90237
341.833,21.89206,-0.04490707,2.07149,0.90019
344.333,21.96046,-0.04353945,2.0717,0.89801
346.833,22.02886,-0.04480665,2.07552,0.89583
349.333,22.09723,-0.04618034,2.07997,0.89364
351.833,22.16565,-0.04952878,2.085,0.89144
354.333,22.23411,-0.05264708,2.09109,0.88924
356.833,22.30288,-0.0553044,2.09854,0.88704
359.333,22.37169,-0.05385308,2.10426,0.88483
361.833,22.44054,-0.0515502,2.1103,0.88261
364.333,22.50935,-0.05316818,2.11598,0.8804
366.833,22.57824,-0.0495165,2.11881,0.87818
369.333,22.64724,-0.04927665,2.12882,0.87595
371.833,22.71647,-0.05027105,2.13569,0.87373
374.333,22.78557,-0.05192406,2.14296,0.8715
376.833,22.8549,-0.05187975,2.1497,0.86926
379.333,22.9241,-0.05325163,2.15923,0.86703
381.833,22.99371,-0.05319999,2.16547,0.86479
384.333,23.06317,-0.0532682,2.17439,0.86255
386.833,23.13287,-0.05222503,2.18394,0.86031
389.333,23.2026,-0.05352812,2.19333,0.85807
391.833,23.2723,-0.05495373,2.20424,0.85583
394.333,23.34219,-0.05591578,2.21087,0.85358
396.833,23.41232,-0.05660753,2.2209,0.85133
399.333,23.48232,-0.05395369,2.22744,0.84909
401.833,23.55249,-0.05587843,2.24323,0.84684
404.333,23.62285,-0.05812978,2.25095,0.84459
406.833,23.69311,-0.05527634,2.25996,0.84234
409.333,23.7633,-0.05303975,2.27127,0.84009
411.833,23.83411,-0.05549982,2.28392,0.83785
414.333,23.90464,-0.05892599,2.29638,0.8356
416.833,23.97533,-0.06292816,2.30765,0.83335
419.333,24.04603,-0.06312909,2.3179,0.8311
421.833,24.11691,-0.06274178,2.3296,0.82886
424.333,24.1879,-0.06407021,2.34312,0.82661
426.833,24.2591,-0.06668867,2.35798,0.82437
429.333,24.33023,-0.06765399,2.36965,0.82213
431.833,24.4016,-0.06567671,2.38621,0.81989
434.333,24.47314,-0.06973693,2.40949,0.81765
436.833,24.54465,-0.06585539,2.43226,0.81541
439.333,24.61639,-0.0660398,2.45294,0.81318
441.833,24.68815,-0.07079856,2.45777,0.81095
444.333,24.76003,-0.07612297,2.46579,0.80872
446.833,24.83205,-0.08036535,2.47947,0.80649
449.333,24.90418,-0.08816781,2.49625,0.80427
451.833,24.97648,-0.09164672,2.51958,0.80205
454.333,25.04887,-0.09518719,2.55356,0.79983
456.833,25.12115,-0.10036,2.59138,0.79762
459.333,25.19371,-0.10691,2.6351,0.79541
461.833,25.26634,-0.11823,2.68964,0.7932
464.333,25.33906,-0.12439,2.75499,0.791
466.833,25.4121,-0.13507,2.83779,0.7888
469.333,25.4851,-0.14876,2.93346,0.7866
471.833,25.55815,-0.17007,3.05009,0.78441
474.333,25.63127,-0.18583,3.18488,0.78223
476.833,25.70455,-0.20804,3.34936,0.78005
479.333,25.77785,-0.2381,3.54513,0.77787
481.833,25.8513,-0.27341,3.7787,0.7757
484.333,25.9246,-0.32365,4.05572,0.77353
486.833,25.99772,-0.38533,4.3261,0.77137
489.333,26.07079,-0.46478,4.64878,0.76922
491.833,26.14378,-0.55644,5.01893,0.76706
494.333,26.21658,-0.67362,5.45164,0.76492
496.833,26.2891,-0.81654,5.95758,0.76278
499.333,26.3611,-0.99657,6.4657,0.76065
501.833,26.433,-1.24592,6.92374,0.75852
504.333,26.50524,-1.51189,7.32044,0.7564
506.833,26.5785,-1.81318,7.59207,0.75428
509.333,26.652,-2.14801,7.75798,0.75218
511.833,26.72496,-2.52253,7.66087,0.75007
514.333,26.79767,-2.90212,7.2379,0.74798
516.833,26.86988,-3.25211,6.42537,0.74589
519.333,26.94383,-3.51632,5.15632,0.74381
521.833,27.0216,-3.74063,3.62401,0.74173
524.333,27.1006,-3.8944,2.25206,0.73966
526.833,27.1802,-3.98823,1.34981,0.7376
529.333,27.25917,-4.02674,0.83388,0.73555
531.833,27.33718,-4.04364,0.51958,0.7335
534.333,27.4143,-4.04809,0.31471,0.73147
536.833,27.49065,-4.05358,0.18049,0.72943
539.333,27.56672,-4.05912,0.1097,0.72741
541.833,27.64282,-4.05844,0.07943431,0.7254
544.333,27.719,-4.05981,0.06698507,0.72339
546.833,27.7954,-4.05849,0.06251899,0.72139
549.333,27.87173,-4.06007,0.05800205,0.7194
551.833,27.9481,-4.06106,0.04855287,0.71741
554.333,28.02475,-4.06405,0.05059918,0.71544
556.833,28.1013,-4.06562,0.05433998,0.71347
559.333,28.17833,-4.06181,0.06267007,0.71151
561.833,28.2553,-4.06058,0.07319815,0.70956
564.333,28.3322,-4.05926,0.08337648,0.70762
566.833,28.4092,-4.05993,0.08926057,0.70569
569.333,28.48607,-4.06298,0.09446513,0.70376
571.833,28.56335,-4.06133,0.09824278,0.70185
574.333,28.64048,-4.06105,0.09398138,0.69994
576.833,28.7178,-4.05954,0.09326165,0.69805
579.333,28.79503,-4.0559,0.09015739,0.69616
581.833,28.87237,-4.05585,0.0918684,0.69428
584.333,28.9497,-4.06297,0.0928493,0.69241
586.833,29.02706,-4.06455,0.09404273,0.69055
589.333,29.1048,-4.06269,0.09051947,0.68869
591.833,29.18253,-4.06134,0.09316635,0.68685
594.333,29.26045,-4.0598,0.09059604,0.68502
596.833,29.3384,-4.05837,0.09294962,0.68319
599.333,29.4164,-4.05836,0.08880388,0.68138
601.833,29.49428,-4.05572,0.09002825,0.67957
604.333,29.5724,-4.06046,0.09180661,0.67778
606.833,29.65062,-4.06069,0.0941103,0.67599
609.333,29.72893,-4.06069,0.0982944,0.67422
611.833,29.80726,-4.06405,0.0993862,0.67245
614.333,29.8857,-4.0626,0.09948434,0.67069
616.833,29.9642,-4.06255,0.09842525,0.66894
617.933,29.99873,-4.06119,0.098202,0.66818