File: 01_Data/HDPE/STA/N2/30K_min/HDPE_STA_N2_30KData_21109_R1.csv
##Temp./Â°C,Time/min,Mass loss(subtr.2)/mg,DSC(subtr.2)/(mW/mg),Sensit./(uV/mW)
49.321,10.00917,-0.03686,0.006333656,1.05401
51.821,11.5357,-0.04002615,0.15509,1.05405
54.321,11.8873,-0.04048641,0.25423,1.05406
56.821,12.14308,-0.04347926,0.33355,1.05404
59.321,12.35717,-0.04132465,0.40238,1.054
61.821,12.54707,-0.0389154,0.45565,1.05392
64.321,12.72176,-0.04197035,0.49829,1.05381
66.821,12.8865,-0.04224031,0.52793,1.05367
69.321,13.04295,-0.04330796,0.55709,1.0535
71.821,13.19266,-0.04211934,0.58022,1.0533
74.321,13.33761,-0.04386373,0.60124,1.05307
76.821,13.4778,-0.04601421,0.62434,1.05281
79.321,13.6132,-0.0425812,0.6491,1.05253
81.821,13.74509,-0.04360236,0.67329,1.05221
84.321,13.87241,-0.0423205,0.7028,1.05187
86.821,13.9961,-0.04565849,0.73014,1.05149
89.321,14.11549,-0.04539398,0.76228,1.05109
91.821,14.2327,-0.04451646,0.79161,1.05066
94.321,14.3461,-0.04333749,0.82434,1.0502
96.821,14.45703,-0.04542359,0.8573,1.04971
99.321,14.5655,-0.04471253,0.89171,1.0492
101.821,14.67146,-0.04631083,0.92627,1.04866
104.321,14.7752,-0.0446342,0.96764,1.04809
106.821,14.8772,-0.04605609,1.0064,1.04749
109.321,14.97749,-0.04627202,1.05157,1.04686
111.821,15.0761,-0.04922282,1.09884,1.04621
114.321,15.17351,-0.04631333,1.15969,1.04554
116.821,15.26932,-0.04782878,1.22891,1.04483
119.321,15.3642,-0.04733168,1.32018,1.0441
121.821,15.4575,-0.04761307,1.44257,1.04334
124.321,15.5497,-0.04785997,1.61257,1.04256
126.821,15.64069,-0.04790568,1.88137,1.04175
129.321,15.7309,-0.04656966,2.3177,1.04092
131.821,15.82046,-0.04845548,2.98596,1.04006
134.321,15.9094,-0.04736735,3.87838,1.03917
136.821,15.99797,-0.04506667,4.76806,1.03826
139.321,16.08555,-0.04401868,5.43996,1.03732
141.821,16.17258,-0.04671623,5.83315,1.03636
144.321,16.25839,-0.04529528,5.79556,1.03538
146.821,16.34262,-0.04673636,5.00139,1.03437
149.321,16.42529,-0.04673517,3.80082,1.03334
151.821,16.50636,-0.04742863,2.91315,1.03228
154.321,16.5866,-0.04902237,2.34228,1.03121
156.821,16.66614,-0.04947023,1.98768,1.0301
159.321,16.74514,-0.0481192,1.76916,1.02898
161.821,16.82378,-0.04821195,1.63601,1.02783
164.321,16.9021,-0.04812943,1.55737,1.02666
166.821,16.98,-0.04816173,1.50878,1.02546
169.321,17.05754,-0.04947965,1.48677,1.02425
171.821,17.13472,-0.04953942,1.47501,1.02301
174.321,17.2115,-0.05204631,1.47379,1.02175
176.821,17.2877,-0.05221087,1.47575,1.02047
179.321,17.3634,-0.05012796,1.4868,1.01917
181.821,17.43896,-0.0482717,1.49535,1.01784
184.321,17.5141,-0.04958022,1.50731,1.0165
186.821,17.5885,-0.05050923,1.52046,1.01513
189.321,17.66253,-0.05101001,1.53349,1.01375
191.821,17.73615,-0.05101807,1.54785,1.01234
194.321,17.80985,-0.05110974,1.55955,1.01092
196.821,17.88309,-0.05111974,1.57615,1.00947
199.321,17.95591,-0.04976599,1.58767,1.00801
201.821,18.02854,-0.0500808,1.60138,1.00653
204.321,18.1009,-0.05112003,1.61459,1.00502
206.821,18.1728,-0.05114748,1.62736,1.0035
209.321,18.24479,-0.05256559,1.63748,1.00196
211.821,18.31636,-0.05385996,1.65083,1.0004
214.321,18.3878,-0.05251534,1.66183,0.99883
216.821,18.45894,-0.05254119,1.67656,0.99723
219.321,18.52994,-0.05255032,1.6864,0.99562
221.821,18.6009,-0.05123358,1.69742,0.99399
224.321,18.67144,-0.05252644,1.71118,0.99235
226.821,18.7418,-0.05387389,1.72335,0.99068
229.321,18.8121,-0.05254951,1.73357,0.989
231.821,18.8823,-0.05255005,1.74661,0.98731
234.321,18.95228,-0.05336697,1.75796,0.9856
236.821,19.02211,-0.05386011,1.77022,0.98387
239.321,19.0917,-0.05253692,1.77995,0.98213
241.821,19.1613,-0.05386033,1.78815,0.98037
244.321,19.23086,-0.05251316,1.80089,0.97859
246.821,19.30012,-0.05255019,1.81117,0.9768
249.321,19.3693,-0.05485996,1.82168,0.975
251.821,19.4378,-0.05516999,1.83105,0.97318
254.321,19.50721,-0.05400606,1.83889,0.97135
256.821,19.57611,-0.05254568,1.84847,0.96951
259.321,19.64488,-0.05437652,1.85888,0.96765
261.821,19.71363,-0.05527992,1.86776,0.96577
264.321,19.78223,-0.05530529,1.87648,0.96389
266.821,19.85079,-0.05671642,1.88397,0.96199
269.321,19.9192,-0.05659543,1.89647,0.96008
271.821,19.9876,-0.05463051,1.90152,0.95815
274.321,20.0558,-0.05532254,1.91206,0.95622
276.821,20.1241,-0.05679705,1.92125,0.95427
279.321,20.1923,-0.05672005,1.92943,0.95231
281.821,20.26047,-0.05737499,1.93726,0.95034
284.321,20.3287,-0.05877998,1.94646,0.94835
286.821,20.39684,-0.05914634,1.95453,0.94636
289.321,20.46499,-0.05913006,1.96466,0.94436
291.821,20.53275,-0.05749327,1.97068,0.94234
294.321,20.601,-0.05728796,1.97596,0.94032
296.821,20.66924,-0.05847,1.98301,0.93828
299.321,20.7373,-0.05847,1.99181,0.93624
301.821,20.80528,-0.05846973,1.99958,0.93418
304.321,20.8734,-0.05984182,2.00768,0.93212
306.821,20.94139,-0.05978956,2.01193,0.93004
309.321,21.00939,-0.05847175,2.02171,0.92796
311.821,21.0773,-0.05763112,2.02615,0.92587
314.321,21.14536,-0.05879549,2.03317,0.92377
316.821,21.2133,-0.05841853,2.03834,0.92167
319.321,21.28135,-0.05982788,2.043,0.91955
321.821,21.34935,-0.05947546,2.04905,0.91743
324.321,21.41747,-0.06028349,2.0554,0.9153
326.821,21.48547,-0.06143004,2.06057,0.91316
329.321,21.55371,-0.06266019,2.05974,0.91102
331.821,21.6218,-0.06360826,2.06009,0.90887
334.321,21.69003,-0.06275012,2.06358,0.90671
336.821,21.75836,-0.06176412,2.06076,0.90455
339.321,21.82658,-0.06296824,2.05938,0.90238
341.821,21.895,-0.06313193,2.05874,0.90021
344.321,21.9634,-0.06076477,2.06307,0.89802
346.821,22.03173,-0.06203598,2.06554,0.89584
349.321,22.10011,-0.06492782,2.07193,0.89365
351.821,22.1687,-0.06494172,2.07799,0.89145
354.321,22.23736,-0.06361701,2.08467,0.88925
356.821,22.30612,-0.06492865,2.08663,0.88705
359.321,22.37479,-0.06363083,2.09408,0.88484
361.821,22.44365,-0.06362998,2.101,0.88262
364.321,22.51241,-0.06569026,2.10827,0.88041
366.821,22.58136,-0.06629177,2.11384,0.87819
369.321,22.65046,-0.06493997,2.12052,0.87596
371.821,22.7197,-0.06495754,2.12948,0.87374
374.321,22.78885,-0.06637371,2.13691,0.87151
376.821,22.85812,-0.0686602,2.14523,0.86927
379.321,22.92736,-0.06866,2.15453,0.86704
381.821,22.99679,-0.06866,2.16128,0.8648
384.321,23.0663,-0.06866001,2.17082,0.86256
386.821,23.13599,-0.06846575,2.18088,0.86032
389.321,23.2057,-0.06735608,2.19135,0.85808
391.821,23.2754,-0.06867573,2.20716,0.85584
394.321,23.34535,-0.06993357,2.21499,0.85359
396.821,23.4153,-0.07164934,2.23076,0.85134
399.321,23.4854,-0.072606,2.24376,0.8491
401.821,23.55552,-0.07130073,2.2555,0.84685
404.321,23.62578,-0.07129971,2.26935,0.8446
406.821,23.69612,-0.07538437,2.29055,0.84235
409.321,23.76654,-0.06507247,2.29062,0.8401
411.821,23.8371,-0.06992894,2.29629,0.83786
414.321,23.9074,-0.07405609,2.30834,0.83561
416.821,23.97852,-0.07501471,2.31423,0.83336
419.321,24.04942,-0.0753593,2.32223,0.83111
421.821,24.12005,-0.07769332,2.34091,0.82887
424.321,24.19143,-0.07626978,2.36447,0.82662
426.821,24.26267,-0.07667571,2.37156,0.82438
429.321,24.33391,-0.07786275,2.37268,0.82214
431.821,24.40535,-0.07809495,2.37515,0.8199
434.321,24.47683,-0.08093865,2.38172,0.81766
436.821,24.54841,-0.08385119,2.3928,0.81542
439.321,24.62021,-0.08640181,2.40803,0.81319
441.821,24.6921,-0.08897551,2.41931,0.81096
444.321,24.7641,-0.09168676,2.43546,0.80873
446.821,24.8361,-0.0929614,2.45722,0.8065
449.321,24.90819,-0.09591691,2.48514,0.80428
451.821,24.98038,-0.10135,2.51625,0.80206
454.321,25.05273,-0.10766,2.55147,0.79984
456.821,25.12521,-0.11096,2.59663,0.79763
459.321,25.1978,-0.1148,2.6478,0.79542
461.821,25.27054,-0.12015,2.7032,0.79321
464.321,25.3434,-0.13494,2.77551,0.79101
466.821,25.41639,-0.14939,2.85932,0.78881
469.321,25.48935,-0.16481,2.96357,0.78661
471.821,25.56242,-0.18162,3.08004,0.78442
474.321,25.6357,-0.201,3.21228,0.78224
476.821,25.709,-0.22173,3.37469,0.78006
479.321,25.78249,-0.24867,3.55956,0.77788
481.821,25.85587,-0.28429,3.79469,0.77571
484.321,25.92918,-0.33445,4.04459,0.77354
486.821,26.00238,-0.39987,4.34058,0.77138
489.321,26.0756,-0.47439,4.65984,0.76923
491.821,26.14871,-0.56677,4.99281,0.76708
494.321,26.22157,-0.67667,5.40615,0.76493
496.821,26.2941,-0.81117,5.85082,0.76279
499.321,26.36642,-0.99717,6.3677,0.76066
501.821,26.4386,-1.24539,6.85769,0.75853
504.321,26.51137,-1.51862,7.28001,0.75641
506.821,26.5846,-1.85207,7.64039,0.75429
509.321,26.65666,-2.2134,7.83485,0.75219
511.821,26.72751,-2.56539,7.75198,0.75008
514.321,26.80116,-2.898,7.22663,0.74799
516.821,26.87755,-3.27495,6.29589,0.7459
519.321,26.9521,-3.57758,4.95228,0.74382
521.821,27.0268,-3.76078,3.50899,0.74174
524.321,27.105,-3.90008,2.29156,0.73967
526.821,27.18432,-3.98565,1.44128,0.73761
529.321,27.26316,-4.02722,0.92555,0.73556
531.821,27.34105,-4.04671,0.60599,0.73351
534.321,27.418,-4.05517,0.38969,0.73148
536.821,27.49444,-4.05598,0.2489,0.72944
539.321,27.57062,-4.0573,0.16992,0.72742
541.821,27.64648,-4.06264,0.13862,0.72541
544.321,27.7229,-4.05194,0.12292,0.7234
546.821,27.79905,-4.05585,0.11344,0.7214
549.321,27.8753,-4.05722,0.10422,0.71941
551.821,27.95178,-4.05606,0.10075,0.71742
554.321,28.0283,-4.05588,0.10565,0.71545
556.821,28.10509,-4.05718,0.11652,0.71348
559.321,28.18197,-4.05856,0.13515,0.71152
561.821,28.25885,-4.05992,0.14828,0.70957
564.321,28.3358,-4.0585,0.15115,0.70763
566.821,28.4128,-4.05814,0.1558,0.7057
569.321,28.48997,-4.05981,0.15631,0.70377
571.821,28.5671,-4.05982,0.15362,0.70186
574.321,28.64426,-4.06029,0.15669,0.69995
576.821,28.72155,-4.05997,0.15853,0.69805
579.321,28.7989,-4.05839,0.15861,0.69617
581.821,28.87623,-4.05938,0.1648,0.69429
584.321,28.9536,-4.05938,0.17044,0.69242
586.821,29.0311,-4.05874,0.17016,0.69055
589.321,29.10877,-4.05873,0.16712,0.6887
591.821,29.18635,-4.05873,0.16373,0.68686
594.321,29.2641,-4.06015,0.16215,0.68503
596.821,29.34194,-4.06005,0.15915,0.6832
599.321,29.4199,-4.05872,0.15958,0.68139
601.821,29.4978,-4.05872,0.16379,0.67958
604.321,29.57589,-4.0601,0.16432,0.67779
606.821,29.65413,-4.05905,0.16519,0.676
609.321,29.73217,-4.05761,0.16678,0.67422
611.821,29.81069,-4.06162,0.17323,0.67246
614.321,29.88908,-4.05939,0.17033,0.6707
616.821,29.96756,-4.05772,0.17422,0.66895
617.821,29.99897,-4.05906,0.17179,0.66826