File: 01_Data/Polyolefin_Carpet_LowPile/Cone/Polyolefin_Carpet_Low_Pile_Cone_HF25Scan_220406_R2.csv
Names,Time,Stack TC,Smoke TC,Exh Press,Smoke Comp,Smoke Meas,CO Meter,CO2 Meter,O2 Meter,Sample Mass,Ext Coeff,Start Test,Flame Verif
Chan Gain,,500,500,1,1,1,1,1,1,1,1,1.0,1.0
Offset,,0,0,0.132524,0,0,0,0,0,0,0,0.0,0.0
Gain,,1,1,25.011,13.2301,13.3727,1,1,1,1.0009,1.0066,1.0,1.0
Units,sec,C,C,Pa,%,%,%,%,%,g,/m,,
Baseline,,19.0989,19.5009,161.951,98.7003,95.2591,0.00103591,0.0662785,21.0056,-833.737,0.313378,,
13,3,17.8636,18.4865,163.26,98.7274,95.246,0.00114415,0.07605,20.9974,206.144,0.316985,0.0,0.0
26,6.25,18.1231,18.316,164.352,98.7447,95.5345,0.000891109,0.0740291,21,206.144,0.291829,0.0,0.0
39,9.5,17.8501,18.9243,163.954,98.7613,95.1721,0.000831697,0.0711584,21.0036,206.144,0.326868,0.0,0.0
52,12.75,18.2654,18.8078,164.618,98.7782,94.9534,0.000892478,0.0686141,21.0045,206.114,0.348702,0.0,0.0
65,16,18.5297,18.3763,159.458,98.7912,95.2031,0.000802884,0.0672903,21.0047,206.104,0.326661,0.0,0.0
78,19.25,18.3023,18.8689,158.105,98.8069,95.1399,0.00102101,0.0664624,21.006,206.094,0.333937,0.0,0.0
91,22.5,18.1655,18.7003,160.629,98.8138,95.2945,0.00119249,0.0661703,21.0074,206.084,0.320207,0.0,0.0
104,25.75,18.7061,18.653,158.852,98.8436,95.1595,0.00111611,0.0660481,21.0074,206.074,0.335402,0.0,0.0
117,29,18.4799,19.3455,161.745,98.8424,94.9921,0.00118876,0.0659578,21.0061,206.084,0.350834,0.0,0.0
130,32.25,18.6312,19.0625,159.982,98.844,94.1465,0.00110537,0.066296,21.005,206.074,0.42993,0.0,0.0
143,35.5,17.9245,18.4031,158.806,98.8562,93.7772,0.00105181,0.067578,21.0027,209.397,0.465718,0.0,0.0
156,38.75,18.5384,19.1277,161.025,98.8695,93.7156,0.00133239,0.069152,20.9971,205.564,0.472714,0.0,0.0
169,42,18.3914,19.415,154.559,98.8772,93.432,0.00163108,0.0907022,20.9622,206.004,0.500162,0.0,1.0
182,45.25,19.5262,19.3365,150.73,98.8751,87.5789,0.00263549,0.146147,20.8619,205.894,1.07121,0.0,1.0
195,48.5,19.4792,20.494,148.138,98.8772,83.795,0.00428441,0.206416,20.7706,205.814,1.46137,0.0,1.0
208,51.75,21.1636,21.8044,144.084,98.8808,79.1871,0.0060547,0.2502,20.7008,205.674,1.96111,0.0,0.0
221,55,22.234,22.6139,144.401,98.88,76.7205,0.00733571,0.29006,20.641,205.524,2.24045,0.0,0.0
234,58.25,23.8659,24.6153,147.493,98.901,74.9273,0.00830553,0.325084,20.5887,205.334,2.45116,0.0,0.0
247,61.5,26.1086,26.7871,143.4,98.8969,73.7622,0.00918167,0.352269,20.5326,205.163,2.58918,0.0,0.0
260,64.75,26.2353,27.1157,142.228,98.8856,73.2459,0.0098953,0.381694,20.4844,204.983,2.65019,0.0,0.0
273,68,28.7631,29.9069,144.714,98.8994,73.0949,0.0103484,0.406369,20.4403,204.763,2.66963,0.0,0.0
286,71.25,31.2573,32.7003,142.829,98.9111,75.0681,0.0103334,0.419861,20.42,204.533,2.43548,0.0,0.0
299,74.5,32.5853,34.2026,136.029,98.9115,72.3379,0.0102669,0.426969,20.4069,204.323,2.76264,0.0,0.0
312,77.75,34.6125,36.4993,135.002,98.9119,72.1033,0.0105901,0.433901,20.3949,204.133,2.79136,0.0,0.0
325,81,35.9237,38.2229,140.774,98.9248,73.0101,0.0107971,0.439642,20.3871,203.932,2.68216,0.0,0.0
338,84.25,38.4124,40.2213,139.148,98.9349,72.4285,0.0107656,0.440718,20.3821,203.712,2.75368,0.0,0.0
351,87.5,39.373,41.8587,139.983,98.9236,73.523,0.0105734,0.439027,20.3862,203.502,2.62023,0.0,0.0
364,90.75,40.3815,43.0892,141.743,98.9357,74.4903,0.0102276,0.435561,20.3934,203.322,2.50591,0.0,0.0
377,94,41.608,44.6024,140.189,98.9389,76.7911,0.00986323,0.430574,20.4016,203.082,2.23759,0.0,0.0
390,97.25,42.6843,45.8436,146.525,98.9482,77.6637,0.00951914,0.424976,20.4103,202.891,2.13866,0.0,0.0
403,100.5,43.7036,47.1879,140.283,98.9373,78.0918,0.0092568,0.418222,20.4229,202.711,2.08915,0.0,0.0
416,103.75,44.8829,47.8609,141.561,98.9373,78.515,0.00906069,0.409832,20.4396,202.521,2.04142,0.0,0.0
429,107,45.0327,49.145,145.964,98.9292,78.3215,0.00885249,0.398642,20.459,202.341,2.06248,0.0,0.0
442,110.25,46.1241,49.7457,150.472,98.9038,80.127,0.00832894,0.38639,20.4812,202.181,1.85898,0.0,0.0
455,113.5,45.8034,49.7185,141.809,98.903,79.6017,0.00800937,0.373296,20.5022,202.011,1.91698,0.0,0.0
468,116.75,46.6073,50.5099,144.859,98.901,79.6311,0.00792016,0.361158,20.5246,201.861,1.91354,0.0,0.0
481,120,46.3089,50.3733,143.974,98.9014,80.8767,0.00754852,0.344865,20.5511,201.69,1.77654,0.0,0.0
494,123.25,46.9332,50.6754,146.979,98.8763,81.7635,0.00688216,0.327281,20.5822,201.57,1.67801,0.0,0.0
507,126.5,46.2172,50.5728,148.418,98.8667,81.5749,0.00658851,0.311038,20.6064,201.44,1.69753,0.0,0.0
520,129.75,46.2111,50.3319,148.203,98.8408,83.5959,0.0062386,0.292017,20.6432,201.31,1.47914,0.0,0.0
533,133,45.5002,49.8936,148.149,98.821,83.3918,0.00565045,0.272377,20.6771,201.22,1.49895,0.0,0.0
546,136.25,45.3566,49.1457,147.709,98.8081,81.7875,0.00529133,0.256118,20.7035,201.1,1.66932,0.0,0.0
559,139.5,44.5088,48.654,151.501,98.7964,83.9807,0.00467519,0.241136,20.7296,201.01,1.43462,0.0,0.0
572,142.75,44.2354,48.4109,150.844,98.7597,86.295,0.00407487,0.225311,20.7574,200.93,1.19129,0.0,0.0
585,146,43.4793,47.6261,155.767,98.7738,86.9631,0.00361346,0.20903,20.7856,200.87,1.12446,0.0,0.0
598,149.25,42.8051,47.3464,149.917,98.7383,89.0759,0.00318896,0.193486,20.8088,200.78,0.90933,0.0,0.0
611,152.5,42.0269,46.0405,154.806,98.7253,90.2194,0.00278614,0.179279,20.8355,200.74,0.795543,0.0,0.0
624,155.75,41.3695,45.1168,155.541,98.7128,90.8687,0.00252877,0.166117,20.8561,200.689,0.731105,0.0,0.0
637,159,40.3945,44.3639,155.128,98.6793,90.8548,0.00231961,0.15447,20.8771,200.629,0.729456,0.0,0.0
650,162.25,39.7491,43.4077,155.064,98.6603,92.1321,0.00229354,0.144337,20.8926,200.589,0.60448,0.0,0.0
663,165.5,38.7019,42.2818,157.187,98.6345,92.9471,0.00210061,0.136683,20.907,200.559,0.524404,0.0,0.0
676,168.75,37.8837,41.3248,157.298,98.6402,93.3471,0.00174851,0.129528,20.9167,200.529,0.486998,0.0,0.0
689,172,37.437,40.7829,156.208,98.6321,93.9511,0.00167779,0.122968,20.925,200.499,0.429327,0.0,0.0
702,175.25,36.1021,39.8825,153.502,98.6446,93.6846,0.00179451,0.116652,20.9352,200.489,0.455528,0.0,0.0
715,178.5,35.4015,38.8381,158.64,98.7189,94.4983,0.00184773,0.110342,20.9454,200.449,0.385811,0.0,0.0
728,181.75,34.9451,38.0508,158.286,98.7794,95.2366,0.00185337,0.104246,20.9533,200.429,0.322512,0.0,0.0
741,185,34.4243,37.3404,162.214,98.8521,94.9693,0.00162399,0.0983243,20.9639,200.419,0.353823,0.0,0.0
754,188.25,33.9161,36.7364,156.676,98.9268,95.1395,0.00170394,0.0924023,20.973,200.409,0.344685,0.0,0.0
767,191.5,32.3003,35.4704,161.875,99.008,94.7579,0.00176632,0.0864144,20.9815,200.399,0.387411,0.0,0.0
780,194.75,31.5598,35.3109,159.397,99.0496,94.9432,0.00161344,0.0796228,20.9891,200.399,0.37387,0.0,0.0
793,198,30.8926,33.4456,158.07,99.1041,94.3102,0.00141768,0.0747907,20.9958,200.399,0.437791,0.0,0.0
806,201.25,30.3484,32.2374,157.399,99.1481,94.704,0.00138877,0.0718525,20.9999,200.389,0.404917,0.0,0.0
819,204.5,29.5017,31.7132,158.62,99.1905,94.8534,0.000979437,0.0702452,21.002,200.359,0.394776,0.0,0.0
832,207.75,27.8703,30.4908,160.461,99.226,94.8848,0.000715114,0.0693384,21.0033,200.369,0.395013,0.0,0.0
845,211,27.9319,30.6185,161.416,99.2474,95.3203,0.00111308,0.068513,21.0042,200.359,0.356489,0.0,0.0
858,214.25,27.9756,29.8494,162.086,99.2522,94.9579,0.00106368,0.0679488,21.0045,200.349,0.390553,0.0,0.0
871,217.5,26.8164,29.0423,164.724,99.2833,95.4839,0.000800713,0.0675782,21.0043,200.389,0.344539,0.0,0.0
884,220.75,27.0848,28.8458,162.254,99.2716,95.4896,0.000859195,0.0672842,21.0048,200.339,0.342969,0.0,0.0
897,224,26.5855,28.5069,161.27,99.3071,95.6333,0.000866349,0.0671106,21.0046,200.369,0.332856,0.0,0.0
910,227.25,25.3145,28.1159,159.751,99.3225,95.4937,0.000674408,0.0671312,21.0046,200.329,0.347115,0.0,0.0
923,230.5,25.7246,27.4833,159.702,99.3447,95.0407,0.00087812,0.0674764,21.0031,200.339,0.391075,0.0,0.0
936,233.75,25.3758,27.4062,161.854,99.3516,95.4966,0.000957564,0.0677856,21.0031,200.339,0.349436,0.0,0.0
949,237,25.1171,26.702,166.091,99.3734,95.186,0.00105177,0.067748,21.0031,200.329,0.380135,0.0,0.0
962,240.25,24.8057,26.2585,164.934,99.3851,94.9672,0.000911055,0.0676428,21.0036,200.329,0.40149,0.0,0.0
975,243.5,24.2023,25.9108,161.293,99.3762,95.7357,0.000761847,0.0674102,21.0039,200.319,0.32954,0.0,0.0
988,246.75,23.6222,25.3882,158.294,99.3992,95.448,0.000781346,0.0672427,21.0039,200.319,0.35816,0.0,0.0
1001,250,23.3326,24.9497,160.097,99.4,95.1137,0.000778173,0.0671255,21.0039,200.309,0.389206,0.0,0.0
1014,253.25,23.6966,25.0121,161.697,99.3972,95.7177,0.000730763,0.0669431,21.0039,200.309,0.333061,0.0,0.0
1027,256.5,23.112,24.9174,159.79,99.4125,95.5014,0.000810804,0.0670766,21.0039,200.319,0.354399,0.0,0.0
1040,259.75,23.6367,24.3559,162.764,99.4149,95.9263,0.000888681,0.0670698,21.0039,200.309,0.315422,0.0,0.0
1053,263,23.5892,24.1347,154.038,99.404,95.8296,0.000912168,0.0669745,21.0037,200.289,0.323362,0.0,0.0
1066,266.25,22.7615,24.0101,168.576,99.3919,95.8671,0.000907001,0.066767,21.0037,200.289,0.318828,0.0,0.0
1079,269.5,23.3457,24.1557,162.549,99.4012,95.4031,0.000909038,0.0665112,21.0033,200.289,0.362494,0.0,0.0
1092,272.75,22.5185,23.4001,158.346,99.4097,95.7879,0.000964197,0.0665584,21.0047,200.289,0.3277,0.0,0.0
1105,276,22.0178,23.4003,158.3,99.3956,95.6545,0.00093378,0.0666303,21.0053,200.289,0.338754,0.0,0.0
1118,279.25,22.2018,23.1004,162.183,99.3964,95.6186,0.000758415,0.0665026,21.0037,200.299,0.342143,0.0,0.0
1131,282.5,21.9743,23.0651,162.944,99.4137,95.5059,0.000821038,0.0663911,21.0049,200.289,0.354091,0.0,0.0
1144,285.75,22.4822,22.9027,160.998,99.4004,95.8528,0.000926838,0.0664368,21.0053,200.269,0.320895,0.0,0.0
1157,289,21.9511,22.8135,160.548,99.4065,96.0197,0.0011826,0.0662986,21.0064,200.269,0.306072,0.0,0.0
1170,292.25,21.6068,22.9641,160.821,99.3887,95.6794,0.00115445,0.0662179,21.007,200.269,0.335846,0.0,0.0
1183,295.5,21.3016,21.9224,159.964,99.3919,95.852,0.00095591,0.0661631,21.0089,200.269,0.320218,0.0,0.0
1196,298.75,21,22.2279,157.146,99.3871,96.052,0.00091078,0.0659692,21.0097,200.269,0.301385,0.0,0.0
1209,302,21.43,22.7286,164.511,99.3883,95.6994,0.000949735,0.0659013,21.0088,200.259,0.333965,0.0,0.0
1222,305.25,21.4162,22.3834,159.787,99.3988,95.9349,,0.0659476,,200.259,0.313199,0.0,0.0
1235,308.5,21.3032,22.0783,157.134,99.3782,95.8957,,,,200.259,0.314976,0.0,0.0
1248,311.75,21.2155,21.5592,158.556,99.3625,95.4068,,,,200.249,0.358709,0.0,0.0
1257,314,20.9207,21.5448,164.691,99.3677,95.7908,,,,200.249,0.323707,0.0,0.0