File: 01_Data/Polyolefin_Carpet_LowPile/Cone/Polyolefin_Carpet_Low_Pile_Cone_HF25Scan_220406_R1.csv
Names,Time,Stack TC,Smoke TC,Exh Press,Smoke Comp,Smoke Meas,CO Meter,CO2 Meter,O2 Meter,Sample Mass,Ext Coeff,Start Test,Flame Verif
Chan Gain,,500,500,1,1,1,1,1,1,1,1,1.0,1.0
Offset,,0,0,0.132524,0,0,0,0,0,0,0,0.0,0.0
Gain,,1,1,25.011,13.2301,13.3727,1,1,1,1.0009,1.0066,1.0,1.0
Units,sec,C,C,Pa,%,%,%,%,%,g,/m,,
Baseline,,18.5234,19.0902,162.436,98.668,95.1083,0.00116674,0.0701335,20.9977,-833.663,0.324478,,
13,3,17.6956,18.3901,158.627,98.6935,94.8309,0.00125732,0.0786797,20.9927,201,0.352512,0.0,0.0
26,6.25,17.8509,17.5818,162.128,98.7056,95.4904,0.00134995,0.0784511,20.9912,201.07,0.292401,0.0,0.0
39,9.5,17.8678,18.3009,161.435,98.7116,95.3309,0.00112293,0.0811977,20.9885,201.11,0.307711,0.0,0.0
52,12.75,17.7381,18.0436,164.325,98.7241,94.8681,0.000863806,0.0817637,20.9885,201.09,0.351799,0.0,0.0
65,16,17.3794,18.2412,161.312,98.7504,95.2696,0.00106915,0.0811465,20.9906,201.1,0.316848,0.0,0.0
78,19.25,17.6249,18.4577,159.25,98.7871,94.8628,0.00116505,0.0784608,20.9943,201.08,0.357924,0.0,0.0
91,22.5,17.6788,18.5373,161.516,98.8323,95.3439,0.0009657,0.0745593,20.998,201.08,0.317292,0.0,0.0
104,25.75,17.7554,18.3557,159.859,98.8687,95.5117,0.00107076,0.0732542,20.9983,201.04,0.305018,0.0,0.0
117,29,17.5668,18.5606,157.884,98.8969,94.9795,0.0012103,0.0731883,20.9973,201.02,0.356877,0.0,0.0
130,32.25,17.4099,18.3824,161.136,98.9385,94.6844,0.00119954,0.0722541,20.9971,201.05,0.388063,0.0,0.0
143,35.5,18.0027,18.2808,162.281,98.9506,94.4934,0.00130573,0.0730068,20.9959,201.04,0.406972,0.0,0.0
156,38.75,18.1382,18.553,165.712,98.9841,94.5359,0.00150421,0.0778147,20.9838,201.27,0.405997,0.0,0.0
169,42,18.1575,18.197,158.178,99.0181,94.0078,0.00176779,0.111147,20.9299,200.9,0.458485,0.0,1.0
182,45.25,18.3495,19.0646,152.123,99.0322,89.7639,0.00250246,0.168447,20.8401,200.82,0.867633,0.0,0.0
195,48.5,19.0996,19.9538,147.841,99.0516,81.9745,0.00397712,0.227431,20.7333,200.73,1.67089,0.0,0.0
208,51.75,20.8235,20.7159,146.228,99.0625,79.5393,0.00612223,0.282449,20.6533,200.549,1.93814,0.0,0.0
221,55,22.5718,22.7912,143.45,99.0859,76.2578,0.00827271,0.334126,20.5581,200.369,2.31224,0.0,0.0
234,58.25,24.3139,24.8033,136.279,99.1073,73.2929,0.0100837,0.38996,20.4602,200.159,2.6643,0.0,0.0
247,61.5,26.0077,27.3478,137.582,99.1489,71.0504,0.0114888,0.445997,20.3701,199.909,2.94239,0.0,0.0
260,64.75,28.2095,29.9488,138.709,99.1662,70.0244,0.0124488,0.491642,20.3102,199.649,3.07236,0.0,0.0
273,68,31.0864,32.514,136.705,99.2034,70.0419,0.0130169,0.532494,20.239,199.418,3.07346,0.0,0.0
286,71.25,34.5278,36.0531,134.435,99.2171,70.8459,0.0133306,0.564965,20.1781,199.118,2.97391,0.0,0.0
299,74.5,37.0987,39.3388,129.185,99.2389,69.7901,0.0137129,0.581398,20.152,198.848,3.10842,0.0,0.0
312,77.75,39.5841,42.2846,138.631,99.2534,73.0562,0.0137572,0.593579,20.1308,198.568,2.70587,0.0,0.0
325,81,41.8772,45.2134,138.555,99.2757,73.301,0.0133529,0.59723,20.1253,198.277,2.6783,0.0,0.0
338,84.25,44.1872,47.8845,136.752,99.2983,73.9605,0.0128136,0.595269,20.1266,198.027,2.60123,0.0,0.0
351,87.5,45.5771,50.3643,129.111,99.3011,74.3058,0.0125636,0.589107,20.1389,197.767,2.56036,0.0,0.0
364,90.75,47.434,51.8478,129.215,99.3285,74.8004,0.0125005,0.574317,20.1657,197.487,2.50422,0.0,0.0
377,94,49.1852,54.091,133.935,99.3201,74.8706,0.0122801,0.560327,20.1899,197.246,2.49518,0.0,0.0
390,97.25,50.6578,54.9345,134.055,99.3415,76.2373,0.0116342,0.544641,20.2195,196.996,2.33735,0.0,0.0
403,100.5,51.8454,56.6806,135.544,99.3403,75.7754,0.0108918,0.528872,20.2447,196.776,2.39091,0.0,0.0
416,103.75,52.6982,57.4978,138.173,99.337,76.9793,0.0102765,0.507171,20.2879,196.556,2.25144,0.0,0.0
429,107,53.3732,58.5798,137.643,99.3455,79.101,0.00990316,0.481699,20.3314,196.366,2.01212,0.0,0.0
442,110.25,53.7405,59.0829,143.828,99.333,80.1213,0.00927597,0.445092,20.3883,196.165,1.89785,0.0,0.0
455,113.5,53.9811,59.2714,139.544,99.3354,81.3272,0.00823181,0.40452,20.462,196.015,1.76615,0.0,0.0
468,116.75,53.2774,58.6755,143.781,99.3148,83.209,0.00720953,0.360075,20.5415,195.885,1.56234,0.0,0.0
481,120,52.6833,58.1036,149.647,99.3023,84.1288,0.00607677,0.314884,20.6212,195.745,1.46415,0.0,0.0
494,123.25,51.8515,57.2166,149.679,99.2975,87.3018,0.00507659,0.276137,20.6872,195.655,1.13682,0.0,0.0
507,126.5,50.7846,56.1147,154.163,99.2688,89.013,0.00404873,0.243889,20.7437,195.565,0.962878,0.0,0.0
520,129.75,49.5556,54.7742,154.067,99.2458,90.736,0.00323329,0.216986,20.7834,195.505,0.791547,0.0,0.0
533,133,48.4568,53.6023,148.466,99.2349,92.6733,0.00265324,0.196196,20.8156,195.435,0.60404,0.0,0.0
546,136.25,47.4558,51.9494,155.196,99.1973,93.4875,0.00235952,0.177784,20.8432,195.405,0.523464,0.0,0.0
559,139.5,45.9755,50.9035,152.368,99.1872,93.6242,0.00234105,0.160731,20.8721,195.375,0.509663,0.0,0.0
572,142.75,44.3668,48.8302,156.098,99.1703,93.9498,0.0020807,0.145995,20.8942,195.335,0.477492,0.0,0.0
585,146,43.7006,48.3081,158.397,99.1509,94.5249,0.00198411,0.133802,20.9134,195.295,0.421888,0.0,0.0
598,149.25,42.0922,46.6253,157.564,99.0819,93.7197,0.00203473,0.124741,20.9264,195.245,0.491275,0.0,0.0
611,152.5,41.0718,45.5359,156.585,99.0685,95.1068,0.00205206,0.116776,20.9385,195.255,0.360356,0.0,0.0
624,155.75,39.8325,44.154,157.882,99.0318,94.4673,0.00208028,0.109405,20.947,195.245,0.416652,0.0,0.0
637,159,38.7922,42.7757,159.055,98.9942,95.2464,0.00208057,0.10413,20.9541,195.215,0.340783,0.0,0.0
650,162.25,37.7435,41.5671,162.928,98.9381,94.5942,0.00195638,0.0993592,20.961,195.215,0.396442,0.0,0.0
663,165.5,36.416,40.0058,159.687,98.8981,94.1616,0.00198806,0.0952014,20.966,195.125,0.433345,0.0,0.0
676,168.75,34.9993,38.9363,156.837,98.8558,93.6956,0.00206858,0.0924305,20.9702,195.185,0.473371,0.0,0.0
689,172,35.0025,38.3119,160.907,98.796,93.7748,0.00193999,0.0905295,20.9724,195.155,0.460574,0.0,0.0
702,175.25,34.2299,37.688,157.57,98.7564,94.6832,0.00185598,0.090298,20.9721,195.165,0.371911,0.0,0.0
715,178.5,33.2566,36.4433,161.192,98.7096,94.4175,0.00178586,0.0920203,20.971,195.155,0.392533,0.0,0.0
728,181.75,32.5164,35.8439,158.388,98.641,94.3804,0.00178591,0.093716,20.9703,195.145,0.389864,0.0,0.0
741,185,31.7258,35.0633,153.86,98.5913,93.6189,0.00169885,0.0922594,20.9744,195.135,0.456952,0.0,0.0
754,188.25,30.6469,33.5883,157.794,98.5303,93.2148,0.001497,0.0850481,20.9823,195.135,0.489679,0.0,0.0
767,191.5,30.1143,32.8263,160.227,98.4778,93.5275,0.0012745,0.0785035,20.989,195.125,0.455411,0.0,0.0
780,194.75,29.5783,31.8598,162.847,98.4318,93.3128,0.00126016,0.0746454,20.9944,195.115,0.471572,0.0,0.0
793,198,29.1035,31.4476,160.775,98.3818,93.2626,0.00128735,0.0722522,20.9965,195.115,0.471832,0.0,0.0
806,201.25,27.7349,30.6135,162.998,98.3075,93.6878,0.00114447,0.070387,20.9996,195.104,0.424993,0.0,0.0
819,204.5,27.1276,30.1793,162.193,98.2279,93.5825,0.0013052,0.0691853,21.002,195.094,0.427774,0.0,0.0
832,207.75,26.2363,28.7826,158.655,98.1859,93.6336,0.00135616,0.0682575,21.0026,195.074,0.419187,0.0,0.0
845,211,26.94,29.4451,161.22,98.1262,93.6919,0.00135208,0.067745,21.0023,195.074,0.40831,0.0,0.0
858,214.25,26.2913,28.1453,154.724,98.068,93.1936,0.00118694,0.0673697,21.002,195.064,0.450162,0.0,0.0
871,217.5,26.1215,27.9156,158.985,98.0406,93.0283,0.00106921,0.067206,21.003,195.074,0.463364,0.0,0.0
884,220.75,25.8288,27.4758,161.981,97.9845,93.7013,0.000975896,0.0672041,21.0039,195.064,0.394664,0.0,0.0
897,224,25.5939,27.6599,159.227,97.9461,93.5564,0.000924366,0.0670853,21.0042,195.064,0.40487,0.0,0.0
910,227.25,24.7706,26.8487,164.243,97.8993,93.2055,0.000888825,0.067143,21.0041,195.074,0.433833,0.0,0.0
923,230.5,24.9738,26.5709,159.797,97.8553,93.5838,0.00100284,0.0670617,21.0041,195.054,0.394096,0.0,0.0
936,233.75,24.4345,25.9842,160.883,97.806,93.2593,0.00115506,0.0670844,21.0041,195.054,0.420315,0.0,0.0
949,237,24.0469,25.2411,163.517,97.7418,93.3422,0.00103332,0.0669734,21.0041,195.044,0.406678,0.0,0.0
962,240.25,22.7718,24.385,162.4,97.6938,93.543,0.000819091,0.0669897,21.0041,195.044,0.383363,0.0,0.0
975,243.5,24.4815,24.483,161.155,97.6498,93.2328,0.000658208,0.0669388,21.0041,195.034,0.40871,0.0,0.0
988,246.75,23.4884,24.493,163.938,97.5876,93.1814,0.00068026,0.0668186,21.0041,195.034,0.407957,0.0,0.0
1001,250,23.1606,24.6518,159.367,97.5557,93.2814,0.000963285,0.0666476,21.0056,195.004,0.395601,0.0,0.0
1014,253.25,22.8971,23.6484,157.411,97.5282,93.2418,0.00102154,0.0666226,21.0062,195.034,0.396864,0.0,0.0
1027,256.5,23.1388,23.7932,158.64,97.4874,93.2397,0.0010245,0.0664362,21.0064,195.024,0.393365,0.0,0.0
1040,259.75,22.3269,23.8373,158.058,97.4644,93.1083,0.00104763,0.0663455,21.0064,195.004,0.403733,0.0,0.0
1053,263,22.5074,23.868,162.744,97.4547,93.5042,0.00122338,0.066237,21.007,195.004,0.365394,0.0,0.0
1066,266.25,22.321,23.5881,159.516,97.4402,92.8961,0.00119489,0.0662793,21.0072,195.004,0.421686,0.0,0.0
1079,269.5,21.8856,22.7142,164.146,97.4249,93.5483,0.000939411,0.0663863,21.0073,194.994,0.358525,0.0,0.0
1092,272.75,22.2246,22.6769,162.015,97.4136,93.3348,0.000611408,0.0664015,21.0076,194.994,0.377669,0.0,0.0
1105,276,22.3216,23.3394,161.032,97.4269,93.1475,0.000592489,0.0663579,21.0077,194.984,0.396616,0.0,0.0
1118,279.25,20.8635,22.2648,157.056,97.4184,92.9945,0.000810659,0.0662488,21.0077,194.984,0.410366,0.0,0.0
1131,282.5,21.6966,22.2157,160.99,97.4253,93.443,0.000864405,0.066213,21.0075,194.974,0.368506,0.0,0.0
1144,285.75,21.9104,22.4884,162.189,97.443,93.2891,0.000746396,0.066149,21.007,194.974,0.384665,0.0,0.0
1157,289,21.5946,22.61,162.192,97.4729,93.0626,0.000781994,0.0660449,21.0069,194.964,0.408836,0.0,0.0
1170,292.25,21.3706,22.4346,159.339,97.4951,93.5173,0.000999025,0.0660796,21.0085,194.964,0.367817,0.0,0.0
1183,295.5,21.3063,22.0904,155.97,97.5375,93.5446,,0.0661407,,194.964,0.369075,0.0,0.0
1196,298.75,21.6063,21.8954,164.324,97.5666,93.5393,,,,194.964,0.372207,0.0,0.0
1209,302,21.2085,21.6809,160.934,97.6005,93.2687,,,,194.954,0.400853,0.0,0.0
1222,305.25,20.8514,21.4345,157.949,97.6324,93.2075,,,,194.964,0.409536,0.0,0.0
1226,306.25,21.7948,21.7752,159.023,97.6498,94.3192,,,,194.954,0.306418,0.0,0.0