File: 01_Data/Polyolefin_Carpet_LowPile/Cone/Polyolefin_Carpet_Low_Pile_Cone_HF50Scan_220411_R2.csv
Names,Time,Stack TC,Smoke TC,Exh Press,Smoke Comp,Smoke Meas,CO Meter,CO2 Meter,O2 Meter,Sample Mass,Ext Coeff,Start Test,Flame Verif
Chan Gain,,500,500,1,1,1,1,1,1,1,1,1.0,1.0
Offset,,0,0,0.133936,0,0,0,0,0,0,0,0.0,0.0
Gain,,1,1,25.011,13.0656,13.5076,1,1,1,1.00089,1.01037,1.0,1.0
Units,sec,C,C,Pa,%,%,%,%,%,g,/m,,
Baseline,,30.6088,31.6027,148.505,98.4192,95.4949,0.000996698,0.0536386,21.005,-835.199,0.267397,,
17,4,28.7254,29.8055,150.28,98.5443,95.0316,0.000994205,0.0550856,21.0039,198.147,0.321698,0.0,0.0
34,8.25,28.7273,29.6749,150.364,98.5419,94.593,0.00114221,0.0544224,20.9984,198.167,0.362484,0.0,0.0
51,12.5,28.8329,29.7816,143.875,98.512,92.2334,0.00197787,0.106306,20.9187,198.027,0.583675,0.0,1.0
68,16.75,30.0718,31.4317,132.346,98.4706,78.0692,0.00518151,0.25102,20.6622,197.786,2.05763,0.0,1.0
85,21,34.1009,34.7324,126.391,98.4223,69.2737,0.00986153,0.389304,20.4486,197.456,3.11268,0.0,0.0
102,25.25,37.5412,39.0579,118.335,98.3497,64.391,0.0145224,0.527455,20.2383,197.086,3.75395,0.0,0.0
119,29.5,42.9394,44.3957,115.675,98.2636,61.3245,0.0190169,0.684051,19.9409,196.585,4.17864,0.0,0.0
136,33.75,49.2874,51.3484,109.486,98.1735,58.6323,0.0227165,0.849942,19.6711,195.985,4.5684,0.0,0.0
153,38,56.5837,59.456,107.366,98.0607,60.6616,0.0245205,0.949347,19.4897,195.434,4.25664,0.0,0.0
170,42.25,63.0008,67.1229,105.502,97.9339,61.2544,0.023762,0.973541,19.4495,194.814,4.15899,0.0,0.0
187,46.5,68.5159,73.473,108.523,97.8266,64.109,0.0225234,0.944544,19.4905,194.283,3.74557,0.0,0.0
204,50.75,73.4754,78.765,110.933,97.7496,68.77,0.0198527,0.848595,19.6801,193.843,3.11658,0.0,0.0
221,55,76.1714,81.92,119.486,97.7337,70.843,0.0163083,0.703877,19.9227,193.433,2.85191,0.0,0.0
238,59.25,76.9567,82.7444,130.438,97.7453,75.3774,0.013106,0.548423,20.193,193.092,2.30309,0.0,0.0
255,63.5,75.785,82.1307,133.753,97.7752,76.6689,0.0100265,0.415388,20.4284,192.892,2.15524,0.0,0.0
272,67.75,74.1502,80.555,140.488,97.7883,81.4127,0.00744704,0.316128,20.5838,192.712,1.62434,0.0,0.0
289,72,72.0964,77.8946,145.797,97.7931,85.4302,0.00482448,0.243274,20.7165,192.582,1.19787,0.0,0.0
306,76.25,68.7468,75.1965,143.263,97.8162,89.6901,0.00323108,0.190968,20.8034,192.482,0.768688,0.0,0.0
323,80.5,66.225,72.3637,141.812,97.8545,92.0323,0.00239786,0.153607,20.8682,192.422,0.543673,0.0,0.0
340,84.75,63.536,69.8916,140.253,97.8709,93.2788,0.00194998,0.125818,20.9101,192.392,0.425915,0.0,0.0
357,89,61.193,67.3214,147.093,97.9044,93.9087,0.00146026,0.10771,20.9356,192.312,0.3693,0.0,0.0
374,93.25,59.09,65.0948,147.618,97.9219,94.2822,0.00140418,0.0939213,20.9518,192.312,0.335711,0.0,0.0
391,97.5,56.6243,62.5609,144.717,97.9319,94.055,0.00141645,0.0847966,20.9627,192.282,0.357991,0.0,0.0
408,101.75,54.6045,60.5241,141.06,97.9387,94.3749,0.00153024,0.0789606,20.9704,192.242,0.328513,0.0,0.0
425,106,52.9533,58.2108,143.645,97.9709,94.0616,0.00154672,0.0751915,20.9754,192.231,0.360904,0.0,0.0
442,110.25,50.9389,56.138,148.638,97.9809,94.7484,0.00123533,0.0723875,20.9798,192.242,0.297333,0.0,0.0
459,114.5,49.9785,54.9941,146.542,97.9845,93.4899,0.000989094,0.070525,20.9822,192.211,0.416168,0.0,0.0
476,118.75,48.2894,53.2367,143.27,97.9993,94.539,0.000934783,0.0692408,20.9849,192.211,0.318601,0.0,0.0
493,123,47.1528,51.9383,144.122,98.016,94.5027,0.000959167,0.0682102,20.9854,192.201,0.323518,0.0,0.0
510,127.25,45.9552,50.5124,147.566,98.0128,94.2434,0.000867962,0.0674349,20.9855,192.171,0.347579,0.0,0.0
527,131.5,44.9604,49.2166,146.973,98.0355,94.4042,0.000830496,0.066737,20.9862,192.161,0.334528,0.0,0.0
544,135.75,43.7935,48.0193,145.358,98.0411,94.3172,0.000911753,0.0663618,20.9876,192.131,0.343202,0.0,0.0
561,140,42.625,46.6677,143.133,98.0252,94.6152,0.00101029,0.0662009,20.9888,192.151,0.313799,0.0,0.0
578,144.25,42.368,46.0423,144.827,98.0328,94.8572,0.00115888,0.0673698,20.9872,192.111,0.291847,0.0,0.0
595,148.5,41.2456,45.0015,147.71,98.0443,93.8914,0.00131014,0.0670724,20.9881,192.101,0.383595,0.0,0.0
612,152.75,40.6344,44.2904,147.591,98.0527,94.722,0.00145817,0.0658344,20.9907,192.081,0.30629,0.0,0.0
629,157,39.8712,42.9909,149.538,98.0503,95.1874,0.00131512,0.0646418,20.992,192.091,0.262635,0.0,0.0
646,161.25,39.0522,42.3491,145.487,98.065,94.1791,0.00127951,0.0641435,20.993,192.071,0.358351,0.0,0.0
663,165.5,39.1723,42.2767,148.234,98.0495,94.6433,0.00114466,0.0635592,20.9918,192.061,0.313372,0.0,0.0
680,169.75,38.3978,41.2515,147.511,98.0339,94.5678,0.0008629,0.0629945,20.9924,192.061,0.319032,0.0,0.0
697,174,38.1319,41.0305,146.242,98.0228,94.196,0.00109159,0.0623127,20.9927,192.031,0.35294,0.0,0.0
714,178.25,37.7553,40.3471,147.134,98.0128,94.5283,0.00101811,0.0622398,20.9944,192.031,0.320832,0.0,0.0
731,182.5,37.3794,40.0466,149.12,97.9773,94.464,0.000935627,0.0622394,20.9935,192.001,0.323654,0.0,0.0
748,186.75,36.7987,39.0688,147.953,97.967,94.5011,0.00110001,0.0621396,20.9955,192.001,0.319235,0.0,0.0
765,191,36.5902,39.0041,146.848,97.9394,94.6272,0.000960007,0.0626509,20.996,191.981,0.304925,0.0,0.0
782,195.25,36.4785,38.9495,146.027,97.8864,94.1387,0.000867742,0.0626622,20.9954,191.961,0.345994,0.0,0.0
799,199.5,36.8371,38.753,145.184,97.8577,94.2537,0.000873519,0.0628518,20.9945,191.941,0.332573,0.0,0.0
816,203.75,36.1818,38.3672,143.426,97.8186,94.1193,0.00106637,0.0630966,20.9951,191.941,0.341679,0.0,0.0
833,208,36.4676,38.4436,146.963,97.7676,94.7653,0.00107944,0.0631631,20.9948,191.921,0.276434,0.0,0.0
850,212.25,35.7418,37.501,147.133,97.7182,93.6906,0.00112476,0.0634272,20.9939,191.901,0.373033,0.0,0.0
867,216.5,35.7387,37.7684,146.488,97.6763,94.3955,0.00114301,0.0634252,20.9924,191.901,0.302802,0.0,0.0
884,220.75,35.6573,37.4064,141.558,97.6097,94.0934,0.00117734,0.0631099,20.994,191.881,0.325174,0.0,0.0
901,225,34.9961,36.7155,151.7,97.5487,94.0489,0.000984922,0.0631897,20.9944,191.861,0.323827,0.0,0.0
918,229.25,35.4381,37.1714,144.617,97.5052,93.9413,0.000741131,0.0629452,20.9937,191.851,0.330022,0.0,0.0
935,233.5,35.4098,36.9504,150.167,97.4634,93.6746,0.000830508,0.0629297,20.9938,191.831,0.351414,0.0,0.0
952,237.75,35.2336,36.5235,144.495,97.4143,93.9202,0.000935935,0.0624839,20.9938,191.821,0.323739,0.0,0.0
969,242,35.1368,36.6254,144.723,97.3868,93.4965,0.000813405,0.0617732,20.9938,191.841,0.361314,0.0,0.0
986,246.25,35.1211,36.529,145.34,97.384,94.0715,0.000857057,0.0612963,20.9948,191.801,0.306717,0.0,0.0
1003,250.5,34.6924,35.8808,146.329,97.3836,93.8378,0.00117454,0.0607813,20.9975,191.791,0.328729,0.0,0.0
1020,254.75,34.7935,36.0387,149.626,97.4382,93.9038,0.00117079,0.0604398,20.9987,191.821,0.327471,0.0,0.0
1037,259,34.5918,35.9333,146.387,97.4996,94.2945,0.000807519,0.0606127,20.9975,191.811,0.296248,0.0,0.0
1054,263.25,34.7166,36.022,144.975,97.5854,94.6861,0.000860628,0.0606529,20.9955,191.771,0.267306,0.0,0.0
1071,267.5,34.6866,35.9666,149.734,97.6831,94.2888,0.00111252,0.0606176,20.9962,191.781,0.313448,0.0,0.0
1088,271.75,34.6221,35.6886,150.465,97.7943,94.4899,0.00112558,0.0601938,20.9951,191.771,0.304647,0.0,0.0
1105,276,34.633,35.7039,147.974,97.9,94.1511,0.00103098,0.0600739,20.9955,191.811,0.346058,0.0,0.0
1122,280.25,34.6113,35.5684,143.252,97.963,95.0637,0.0011359,0.0599806,20.999,191.811,0.26626,0.0,0.0
1139,284.5,34.2589,35.3854,145.691,98.0415,94.1231,0.000761319,0.0594046,21.001,191.761,0.361502,0.0,0.0
1156,288.75,34.0845,35.0928,145.268,98.0551,95.2727,0.000784033,0.0570829,21.0036,191.751,0.255125,0.0,0.0
1173,293,33.9084,34.9407,143.178,98.0308,95.0036,0.000824942,0.0554889,21.0058,191.771,0.278003,0.0,0.0
1190,297.25,34.429,35.1693,145.206,98.02,94.9108,0.000766884,0.0550087,21.0065,191.721,0.285687,0.0,0.0
1207,301.5,33.3975,34.7608,145.207,98.0359,94.2026,0.000748508,0.0547759,21.0072,191.711,0.353508,0.0,0.0
1224,305.75,33.3046,34.4719,146.539,97.9773,95.6087,0.000726446,0.054511,21.0068,191.731,0.216897,0.0,0.0
1241,310,33.4791,34.9142,145.62,97.9199,94.2797,0.000796378,0.0544071,21.0066,191.711,0.335763,0.0,0.0
1258,314.25,33.7023,34.9024,149.496,97.8569,93.4763,0.00100196,0.0544545,21.0066,191.671,0.405909,0.0,0.0
1275,318.5,33.3333,34.8433,142.532,97.7931,93.8102,0.00100932,0.0543035,21.0066,191.681,0.368527,0.0,0.0
1292,322.75,33.4981,34.5889,143.701,97.7329,94.37,0.000970881,0.0542338,21.0066,191.651,0.310338,0.0,0.0
1309,327,33.0922,34.5678,145.393,98.0343,94.4635,0.000978924,0.0541482,21.0066,191.671,0.328849,0.0,0.0
1326,331.25,33.7578,34.5045,147.021,98.341,94.4631,0.00104152,0.0542235,21.0055,191.681,0.356565,0.0,0.0
1343,335.5,33.7072,34.5722,146.96,98.4957,95.0217,0.0011094,0.0541457,21.0062,191.661,0.318245,0.0,0.0
1360,339.75,33.4354,34.5863,144.771,98.5403,94.6655,0.00101104,0.0543259,21.0065,191.621,0.355545,0.0,0.0
1377,344,33.4001,34.4312,146.256,98.4139,94.5068,0.000904852,0.0541448,21.0066,191.611,0.35904,0.0,0.0
1394,348.25,33.3009,34.5684,146.176,98.0906,94.4747,0.00065529,0.054319,21.0059,191.611,0.332886,0.0,0.0
1411,352.5,32.8636,33.7661,147.015,98.0519,94.1886,0.000546357,0.054376,21.0057,191.601,0.356269,0.0,0.0
1428,356.75,32.2836,33.7161,145.885,98.2521,94.2286,0.000396382,0.0542329,21.0056,191.571,0.370581,0.0,0.0
1445,361,32.9308,33.9066,141.766,98.4797,94.9182,0.000419989,0.0542067,21.0056,191.561,0.326466,0.0,0.0
1462,365.25,33.2202,34.1394,144.332,98.6643,94.7286,0.000603005,0.0543458,21.0056,191.551,0.360788,0.0,0.0
1479,369.5,33.4938,34.4755,144.57,98.7552,94.5485,0.00085612,0.0540695,21.007,191.571,0.385821,0.0,0.0
1496,373.75,32.8137,34.2347,145.916,98.6795,94.8247,0.000850803,0.0541512,21.0083,191.541,0.353167,0.0,0.0
1513,378,33.4393,34.264,146.929,98.4821,93.7306,0.000982148,0.0541905,21.0072,191.501,0.438273,0.0,0.0
1530,382.25,33.2759,34.4358,145.968,98.1839,94.849,0.00104894,0.0541166,21.0064,191.511,0.306268,0.0,0.0
1547,386.5,33.1466,34.3903,147.434,97.7688,93.8155,0.000870348,0.0540142,21.0063,191.511,0.365817,0.0,0.0
1564,390.75,33.4735,34.2159,145.027,97.3254,93.3914,0.000764279,0.0540138,21.0045,191.501,0.365694,0.0,0.0
1581,395,32.4611,33.626,143.589,96.9283,92.961,0.000780106,0.0539954,21.0055,191.481,0.370391,0.0,0.0
1598,399.25,32.6067,33.6158,146.858,96.7361,92.4878,,,,191.461,0.398033,0.0,0.0
1615,403.5,32.6275,33.881,145.547,96.752,92.2685,,,,191.471,0.420534,0.0,0.0
1625,406,32.8868,33.9394,147.06,96.8489,92.7467,,,,191.441,0.383592,0.0,0.0