File: 01_Data/Polyolefin_Carpet_LowPile/Cone/Polyolefin_Carpet_Low_Pile_Cone_HF50Scan_220411_R3.csv
Names,Time,Stack TC,Smoke TC,Exh Press,Smoke Comp,Smoke Meas,CO Meter,CO2 Meter,O2 Meter,Sample Mass,Ext Coeff,Start Test,Flame Verif
Chan Gain,,500,500,1,1,1,1,1,1,1,1,1.0,1.0
Offset,,0,0,0.133936,0,0,0,0,0,0,0,0.0,0.0
Gain,,1,1,25.011,13.0656,13.5076,1,1,1,1.00089,1.01037,1.0,1.0
Units,sec,C,C,Pa,%,%,%,%,%,g,/m,,
Baseline,,31.4214,32.4933,148.292,97.1967,92.3781,0.00101046,0.0517908,21.0074,-835.45,0.450685,,
10,2.25,30.3252,31.0885,149.668,97.563,93.0047,0.000935317,0.057599,21.0011,194.704,0.42408,0.0,0.0
20,4.75,29.841,31.0134,150.422,97.5738,92.7821,0.000926267,0.0578239,21.0008,194.704,0.446295,0.0,0.0
30,7.25,30.1002,31.1265,147.203,97.5607,92.0475,0.000970206,0.0588175,20.9983,194.664,0.515548,0.0,0.0
40,9.75,30.1941,30.8208,147.432,97.5415,91.4882,0.00133707,0.0630789,20.986,194.584,0.567836,0.0,0.0
50,12.25,30.0449,31.3297,141.428,97.5535,91.6448,0.0018467,0.0920319,20.9477,194.494,0.553759,0.0,1.0
60,14.75,30.6229,32.1426,135.336,97.5379,85.4306,0.00306095,0.140802,20.8323,194.433,1.17466,0.0,1.0
70,17.25,32.1116,33.4593,129.316,97.5451,75.4599,0.00532986,0.22226,20.6773,194.303,2.27524,0.0,1.0
80,19.75,33.4147,34.2818,126.284,97.5343,68.2576,0.00877843,0.314954,20.5285,194.093,3.16332,0.0,0.0
90,22.25,35.8054,36.7124,125.956,97.5252,60.2882,0.0132113,0.42161,20.3238,193.863,4.26284,0.0,0.0
100,24.75,38.4507,39.5553,116.953,97.5088,57.3998,0.0170634,0.534692,20.1172,193.523,4.69649,0.0,0.0
110,27.25,41.4528,42.8325,114.549,97.516,58.5783,0.0198979,0.644276,19.9596,193.242,4.51701,0.0,0.0
120,29.75,44.8182,46.2011,113.038,97.4909,61.1093,0.0224996,0.756667,19.7509,192.912,4.13982,0.0,0.0
130,32.25,49.2351,51.5388,108.436,97.4969,56.7336,0.0246224,0.854159,19.5925,192.542,4.79886,0.0,0.0
140,34.75,54.196,56.4622,109.434,97.4809,57.6335,0.0259513,0.939117,19.481,192.151,4.65794,0.0,0.0
150,37.25,57.9221,61.1923,111.974,97.4757,59.9032,0.0268098,1.00487,19.3804,191.761,4.31513,0.0,0.0
160,39.75,62.9225,66.6119,98.6634,97.4693,61.8468,0.0268091,1.04615,19.3241,191.391,4.03155,0.0,0.0
170,42.25,67.1411,71.6223,104.725,97.4729,62.4853,0.0258672,1.05702,19.3155,191.08,3.94084,0.0,0.0
180,44.75,70.7056,75.8454,106.413,97.4566,64.2075,0.0246648,1.04108,19.3604,190.74,3.69838,0.0,0.0
190,47.25,74.4497,79.6632,111.351,97.443,64.7781,0.0234714,1.01015,19.4092,190.42,3.61874,0.0,0.0
200,49.75,76.8397,83.0744,112.563,97.4442,64.034,0.0218029,0.969757,19.4974,190.13,3.72124,0.0,0.0
210,52.25,79.3589,85.6932,116.461,97.4211,64.7026,0.0202545,0.896979,19.6255,189.829,3.62707,0.0,0.0
220,54.75,80.6295,87.3474,123.044,97.4175,68.0296,0.0183941,0.812079,19.7757,189.609,3.18235,0.0,0.0
230,57.25,81.3671,88.4919,117.658,97.4139,68.4958,0.0164409,0.711874,19.9437,189.399,3.12149,0.0,0.0
240,59.75,81.4462,88.7284,127.179,97.4163,71.1951,0.0142314,0.610602,20.0957,189.239,2.77915,0.0,0.0
250,62.25,80.1574,88.0728,129.342,97.4071,76.429,0.011668,0.515106,20.2622,189.079,2.14959,0.0,0.0
260,64.75,79.8529,87.128,136.51,97.4163,78.934,0.00940148,0.42642,20.433,188.959,1.86459,0.0,0.0
270,67.25,78.2122,85.6348,138.635,97.3912,82.1337,0.0073093,0.353223,20.5633,188.868,1.51013,0.0,0.0
280,69.75,76.5043,84.3785,139.844,97.4008,85.6594,0.00567215,0.297088,20.6494,188.788,1.13849,0.0,0.0
290,72.25,74.6629,82.1524,140.493,97.3832,87.6797,0.0042916,0.247999,20.7359,188.738,0.930287,0.0,0.0
300,74.75,73.3519,80.296,143.262,97.39,89.3125,0.00346192,0.213095,20.7902,188.668,0.767373,0.0,0.0
310,77.25,72.0677,78.6184,143.424,97.3756,90.8566,0.00288612,0.183003,20.8344,188.668,0.614141,0.0,0.0
320,79.75,70.2944,77.1192,142.965,97.3784,91.193,0.00242026,0.160415,20.8674,188.658,0.581643,0.0,0.0
330,82.25,68.1716,75.0895,141.895,97.386,92.1024,0.00210556,0.143036,20.8862,188.578,0.494391,0.0,0.0
340,84.75,66.1248,73.7464,144.242,97.3581,92.3567,0.00183691,0.128486,20.9075,188.568,0.46741,0.0,0.0
350,87.25,64.9354,71.5155,146.905,97.3553,92.4206,0.00171248,0.11616,20.927,188.558,0.461026,0.0,0.0
360,89.75,63.2845,69.9341,143.499,97.3525,92.0747,0.00169931,0.107026,20.9382,188.538,0.494,0.0,0.0
370,92.25,62.0189,68.019,145.541,97.3517,92.6069,0.00150482,0.0998505,20.9474,188.508,0.44285,0.0,0.0
380,94.75,60.2707,67.2422,144.074,97.3461,92.6246,0.00133238,0.0936265,20.9554,188.488,0.440645,0.0,0.0
390,97.25,58.6999,64.8996,143.865,97.3565,92.7772,0.00135796,0.0886102,20.9615,188.468,0.427007,0.0,0.0
400,99.75,57.1349,63.9012,148.744,97.335,93.3407,0.00160488,0.0840644,20.9678,188.478,0.371379,0.0,0.0
410,102.25,56.2648,61.9853,148.726,97.3457,92.7805,0.00168793,0.0803272,20.9712,188.468,0.425712,0.0,0.0
420,104.75,54.9355,61.7822,146.852,97.3354,92.3621,0.00172695,0.0772568,20.9746,188.468,0.464827,0.0,0.0
430,107.25,53.8379,59.6749,144.79,97.3278,92.4754,0.00169605,0.074813,20.979,188.418,0.453266,0.0,0.0
440,109.75,52.4382,59.2134,145.113,97.3087,92.2879,0.00164704,0.07288,20.9819,188.408,0.469517,0.0,0.0
450,112.25,52.0326,57.6894,148.126,97.3234,92.0611,0.0015484,0.0709828,20.9848,188.428,0.49266,0.0,0.0
460,114.75,51.0211,56.5824,143.235,97.3019,92.1065,0.00139494,0.0692416,20.9869,188.388,0.486335,0.0,0.0
470,117.25,50.1917,55.5361,147.279,97.3119,91.9119,0.00130691,0.0671082,20.9896,188.368,0.505986,0.0,0.0
480,119.75,49.4929,54.4031,145.899,97.2935,92.158,0.00125343,0.0643273,20.994,188.368,0.480615,0.0,0.0
490,122.25,48.8278,53.5174,142.34,97.3035,92.1118,0.00125462,0.0619144,20.9973,188.368,0.485965,0.0,0.0
500,124.75,47.5742,52.7162,148.279,97.2859,92.1807,0.00118883,0.0602437,20.9993,188.358,0.477746,0.0,0.0
510,127.25,46.104,51.2214,148.684,97.2895,91.7441,0.0010484,0.058521,21.0009,188.338,0.520145,0.0,0.0
520,129.75,45.9347,50.8739,144.464,97.2716,91.644,0.000943302,0.0568774,21.0015,188.358,0.528191,0.0,0.0
530,132.25,45.1629,49.7841,144.776,97.2616,91.5331,0.000978135,0.0559608,21.0018,188.358,0.538013,0.0,0.0
540,134.75,44.294,48.331,147.492,97.272,92.1073,0.0010887,0.0553702,21.0028,188.358,0.483531,0.0,0.0
550,137.25,43.4849,48.2402,144.573,97.2644,91.7483,0.00106631,0.054831,21.0031,188.328,0.517456,0.0,0.0
560,139.75,43.1731,47.3393,147.372,97.2811,92.515,0.00104341,0.0544699,21.0038,188.328,0.445224,0.0,0.0
570,142.25,42.7972,46.9467,147.501,97.2596,92.6725,0.00111002,0.0542246,21.0053,188.308,0.42819,0.0,0.0
580,144.75,42.3528,46.3912,145.837,97.2644,91.9684,0.00117994,0.0541136,21.0056,188.318,0.496218,0.0,0.0
590,147.25,41.6553,45.8041,148.195,97.2469,91.963,0.00117517,0.0539717,21.0056,188.318,0.495137,0.0,0.0
600,149.75,41.4867,45.135,143.681,97.2516,92.0739,0.00116154,0.0538751,21.0056,188.298,0.484892,0.0,0.0
610,152.25,40.8408,44.841,145.98,97.2457,92.2231,0.00130632,0.0537327,21.0065,188.308,0.469995,0.0,0.0
620,154.75,40.5735,44.0003,146.822,97.2508,92.2405,0.00130309,0.0536121,21.0069,188.278,0.468802,0.0,0.0
630,157.25,40.3103,43.8893,146.444,97.2469,92.3155,0.00122354,0.0535825,21.0071,188.278,0.461234,0.0,0.0
640,159.75,39.915,43.2116,144.231,97.2508,92.346,0.00129592,0.0535978,21.0059,188.268,0.458669,0.0,0.0
650,162.25,39.8228,42.9147,149.042,97.2588,92.3645,0.00129146,0.0533644,21.0057,188.258,0.457616,0.0,0.0
660,164.75,39.3406,42.9225,145.568,97.2429,91.9342,0.00112592,0.0533576,21.0055,188.258,0.497554,0.0,0.0
670,167.25,39.3301,41.7187,145.061,97.2532,92.3629,0.00108631,0.0533778,21.0056,188.268,0.457265,0.0,0.0
680,169.75,39.4926,42.022,145.598,97.2465,92.2673,0.00113224,0.0532395,21.0057,188.248,0.465829,0.0,0.0
690,172.25,38.7065,41.8354,145.65,97.25,92.1028,0.00113679,0.0530322,21.0057,188.238,0.481969,0.0,0.0
700,174.75,38.1263,40.3958,147.476,97.2381,92.4239,0.00111075,0.0529081,21.0049,188.228,0.450032,0.0,0.0
710,177.25,37.6282,40.4163,146.342,97.2477,91.855,0.00102962,0.0530041,21.0052,188.218,0.505623,0.0,0.0
720,179.75,38.1179,40.8706,149.501,97.2325,92.1902,0.000935573,0.0530843,21.0046,188.218,0.471964,0.0,0.0
730,182.25,37.3905,40.2075,143.759,97.2461,92.6898,0.000922845,0.0530193,21.0043,188.228,0.425299,0.0,0.0
740,184.75,37.4411,40.2549,146.81,97.2305,92.7178,0.000809028,0.0529379,21.0042,188.198,0.421202,0.0,0.0
750,187.25,36.9125,39.6741,145.155,97.2465,92.7351,0.000586651,0.0528459,21.0037,188.228,0.421001,0.0,0.0
760,189.75,37.13,39.4442,147.46,97.2381,92.6667,0.000471428,0.0528297,21.0035,188.228,0.426779,0.0,0.0
770,192.25,36.5899,39.2554,145.658,97.2469,92.4672,0.000468657,0.0527325,21.0034,188.198,0.446682,0.0,0.0
780,194.75,36.5268,38.6068,144.972,97.2437,92.2046,0.000452479,0.0527241,21.0048,188.188,0.471596,0.0,0.0
790,197.25,36.5124,38.6505,147.141,97.2425,92.1535,0.000424196,0.0526666,21.0066,188.198,0.476402,0.0,0.0
800,199.75,37.0336,38.7684,144.43,97.2389,92.5245,0.00050722,0.0526772,21.0082,188.198,0.440465,0.0,0.0
810,202.25,35.9977,38.1293,147.825,97.2309,92.8584,0.000740731,0.0526678,21.0087,188.188,0.407812,0.0,0.0
820,204.75,36.371,38.2604,146.411,97.2369,92.3295,0.000868497,0.0525174,21.0089,188.168,0.45898,0.0,0.0
830,207.25,36.1031,37.5812,147,97.2365,92.435,0.000943491,0.052633,21.009,188.168,0.44882,0.0,0.0
840,209.75,35.4767,37.4562,143.552,97.2433,92.1807,0.000919291,0.0526772,21.009,188.178,0.473857,0.0,0.0
850,212.25,36.1044,37.593,146.651,97.2337,92.3583,0.000926349,0.0528094,21.0084,188.168,0.45592,0.0,0.0
860,214.75,35.6432,37.3682,148.482,97.2477,92.2809,0.00105997,0.0528449,21.0073,188.158,0.464631,0.0,0.0
870,217.25,35.509,37.1103,151.284,97.2369,92.6696,0.00113463,0.0528594,21.0084,188.168,0.426395,0.0,0.0
880,219.75,35.2066,37.0428,150.288,97.2516,92.339,0.00102789,0.0528128,21.0086,188.158,0.459415,0.0,0.0
890,222.25,35.3816,37.2145,146.663,97.2381,92.6279,0.000785863,0.0528661,21.0081,188.148,0.430487,0.0,0.0
900,224.75,35.6527,36.5402,143.32,97.2516,92.9099,0.000740769,0.0526837,21.0067,188.138,0.404784,0.0,0.0
910,227.25,34.8768,36.8912,146.198,97.2409,92.6016,0.000872788,0.0526461,21.0061,188.158,0.433266,0.0,0.0
920,229.75,35.2497,36.5453,147.046,97.2473,92.4631,0.000937721,0.0527267,21.0067,188.148,0.447113,0.0,0.0
930,232.25,34.6607,36.1386,147.897,97.2381,92.5678,0.000918224,0.052599,21.0071,188.128,0.436247,0.0,0.0
940,234.75,34.9374,36.6575,147.572,97.2465,92.4078,0.000818951,0.0526385,21.0058,188.118,0.452337,0.0,0.0
950,237.25,34.9294,36.2672,147.513,97.2429,92.4494,,0.0526389,,188.138,0.448018,0.0,0.0
960,239.75,34.905,36.428,147.076,97.2425,92.8229,,,,188.118,0.41225,0.0,0.0
970,242.25,35.1566,36.4732,147.546,97.2381,92.2734,,,,188.108,0.464472,0.0,0.0
980,244.75,34.8531,36.5017,146.175,97.2409,92.1395,,,,188.098,0.477604,0.0,0.0
985,246,34.9632,35.9618,145.628,97.2321,92.7302,,,,188.118,0.420165,0.0,0.0