File: 01_Data/Nylon/Cone/Nylon_Cone_HF50Scan_220225_R3.csv
Names,Time,Stack TC,Smoke TC,Exh Press,Smoke Comp,Smoke Meas,CO Meter,CO2 Meter,O2 Meter,Sample Mass,Ext Coeff,Start Test,Flame Verif
Chan Gain,,500,500,1,1,1,1,1,1,1,1,1.0,1.0
Offset,,0,0,0.134422,0,0,0,0,0,0,0,0.0,0.0
Gain,,1,1,25.011,15.3125,15.3273,1,1,1,1.00096,1.02035,1.0,1.0
Units,sec,C,C,Pa,%,%,%,%,%,g,/m,,
Baseline,,38.2731,40.1194,154.406,115.573,111.953,0.000934202,0.068218,20.9963,-868.381,0.284891,,
16,3.75,35.39,36.81,157.378,115.775,112.337,0.000780914,0.0724438,20.9925,42.2205,0.269811,0.0,0.0
32,7.75,35.8767,36.984,157.075,115.949,113.037,0.000835626,0.0713278,20.9939,42.2405,0.227585,0.0,0.0
48,11.75,36.2106,37.2114,152.854,116.102,113.301,0.000793012,0.0710393,20.9945,42.1904,0.218617,0.0,0.0
64,15.75,36.1847,37.6679,155.263,116.258,112.655,0.00102975,0.071412,20.9946,42.1704,0.281781,0.0,0.0
80,19.75,36.3703,37.4517,157.997,116.368,112.899,0.000909901,0.0709015,20.9945,42.2205,0.270927,0.0,0.0
96,23.75,36.2077,37.6909,151.538,116.452,112.511,0.000692843,0.0703818,20.9962,42.1704,0.308115,0.0,0.0
112,27.75,36.4717,38.1053,153.13,116.507,113.006,0.000689746,0.0701777,20.9949,42.1404,0.273144,0.0,0.0
128,31.75,36.3274,37.6597,157.743,116.529,112.919,0.00071967,0.0700777,20.9944,42.1404,0.281615,0.0,0.0
144,35.75,36.5984,38.4452,151.645,116.528,112.95,0.000821731,0.0702034,20.9943,42.1204,0.279059,0.0,0.0
160,39.75,36.7827,38.4039,152.319,116.476,113.504,0.000970506,0.0700025,20.9943,42.1003,0.231331,0.0,0.0
176,43.75,36.9928,38.4468,154.548,116.413,112.895,0.000841501,0.0697008,20.9963,42.0703,0.2746,0.0,0.0
192,47.75,36.6346,38.4271,154.379,116.348,112.626,0.000951235,0.0699097,20.9959,42.0403,0.290991,0.0,0.0
208,51.75,36.8922,38.037,153.414,116.231,110.986,0.00110473,0.0703328,20.9951,41.9902,0.41332,0.0,0.0
224,55.75,37.3309,38.9391,150.462,116.125,109.4,0.00114076,0.0707691,20.995,41.9002,0.533949,0.0,0.0
240,59.75,37.4557,39.0417,156.063,116.014,110.026,0.00122171,0.0714593,20.994,41.9002,0.47435,0.0,0.0
256,63.75,37.4109,39.5038,155.476,115.9,109.777,0.00131647,0.0721708,20.9929,41.8601,0.485778,0.0,0.0
272,67.75,37.87,39.9144,155.267,115.774,109.395,0.00106732,0.0726948,20.9924,41.8301,0.507278,0.0,0.0
288,71.75,37.9629,40.0042,154.898,115.688,108.764,0.00112649,0.0730156,20.9923,41.77,0.552368,0.0,0.0
304,75.75,37.99,39.9075,151.632,115.603,106.908,0.00115001,0.0732242,20.9915,41.7,0.699878,0.0,0.0
320,79.75,38.4692,40.45,143.804,115.829,110.123,0.0014511,0.102763,20.941,41.6099,0.452189,0.0,1.0
336,83.75,38.5834,40.8388,138.484,116.004,110.163,0.00217475,0.222753,20.7195,41.3797,0.462452,0.0,1.0
352,87.75,41.4499,43.9363,129.322,116.139,109.03,0.00282836,0.40401,20.4853,40.9993,0.565351,0.0,0.0
368,91.75,45.6699,49.0136,123.203,116.223,108.589,0.0036865,0.575586,20.2214,40.4888,0.608112,0.0,0.0
384,95.75,50.7145,55.4503,115.743,116.293,108.182,0.00422355,0.724256,19.9827,39.9783,0.647082,0.0,0.0
400,99.75,56.2506,62.4189,118.096,116.248,106.866,0.00482102,0.855751,19.7694,39.3577,0.753154,0.0,0.0
416,103.75,62.8757,69.8644,121.562,116.181,106.079,0.00590577,0.986707,19.5593,38.7171,0.814189,0.0,0.0
432,107.75,69.3484,78.1928,109.718,116.061,105.963,0.00688676,1.12703,19.3381,37.8763,0.814686,0.0,0.0
448,111.75,75.9933,86.2313,107.579,115.891,103.541,0.00785776,1.25521,19.1696,37.1356,1.00855,0.0,0.0
464,115.75,82.5244,94.5319,109.21,115.667,102.534,0.00918371,1.3615,18.9998,36.2848,1.07873,0.0,0.0
480,119.75,88.4626,101.948,104.331,115.378,101.859,0.0101047,1.44103,18.8769,35.434,1.11547,0.0,0.0
496,123.75,95.263,110.296,101.28,115.308,101.14,0.0105016,1.48609,18.8109,34.5831,1.17342,0.0,0.0
512,127.75,100.652,117.17,105.21,115.362,101.069,0.0107059,1.49515,18.7925,33.8224,1.18385,0.0,0.0
528,131.75,105.654,123.274,97.6643,115.409,99.5906,0.0111353,1.51197,18.7651,32.8915,1.31942,0.0,0.0
544,135.75,110.747,129.221,105.679,115.485,100.421,0.0117485,1.57373,18.6792,32.1008,1.25105,0.0,0.0
560,139.75,114.943,134.574,94.4746,115.538,98.1274,0.012594,1.62416,18.5908,31.1899,1.46192,0.0,0.0
576,143.75,119.992,140.547,95.5027,115.588,97.4394,0.0129199,1.71105,18.4612,30.249,1.52874,0.0,0.0
592,147.75,124.251,146.672,96.5919,115.64,96.9351,0.0133884,1.79311,18.3288,29.3181,1.57919,0.0,0.0
608,151.75,128.957,152.822,97.9192,115.664,97.3575,0.0143921,1.92047,18.1514,28.2471,1.5422,0.0,0.0
624,155.75,133.698,159.089,94.8318,115.693,95.5459,0.0160329,2.03971,17.9672,27.2261,1.71252,0.0,0.0
640,159.75,138.885,166.039,95.018,115.728,94.6057,0.0183588,2.2033,17.7511,26.0149,1.8037,0.0,0.0
656,163.75,145.105,173.031,88.5722,115.733,92.6828,0.0211442,2.38524,17.4757,24.8939,1.9879,0.0,0.0
672,167.75,151.997,181.887,83.4468,115.72,92.2815,0.0243392,2.61646,17.1217,23.7027,2.02573,0.0,0.0
688,171.75,158.195,191.422,80.4303,115.705,90.3674,0.0265641,2.77815,16.8925,22.4415,2.21217,0.0,0.0
704,175.75,165.046,200.322,83.1644,115.672,86.9439,0.0285038,2.94046,16.6215,20.9,2.55531,0.0,0.0
720,179.75,172.002,209.199,84.3711,115.636,87.6484,0.0306806,3.09564,16.4196,19.5287,2.48033,0.0,0.0
736,183.75,177.986,217.987,84.9214,115.576,84.8475,0.0332156,3.23481,16.224,18.1774,2.76636,0.0,0.0
752,187.75,184.094,226.423,87.3364,115.533,84.564,0.035528,3.37802,16.0183,16.686,2.79298,0.0,0.0
768,191.75,190.36,235.067,75.8323,115.488,81.2724,0.0373221,3.40961,15.9687,15.2446,3.14485,0.0,0.0
784,195.75,194.519,241.176,86.203,115.445,83.7099,0.0380329,3.37093,16.0086,13.7932,2.87699,0.0,0.0
800,199.75,199.563,246.892,77.2184,115.401,80.6162,0.0376055,3.2637,16.1628,12.6521,3.21068,0.0,0.0
816,203.75,202.009,250.476,78.5679,115.358,78.9631,0.0371097,3.09394,16.3706,11.3409,3.39274,0.0,0.0
832,207.75,204.028,252.307,89.1324,115.335,77.9907,0.0343294,2.84959,16.7181,10.1297,3.50192,0.0,0.0
848,211.75,204.187,251.5,92.5,115.308,80.9445,0.0302717,2.45469,17.3877,9.03866,3.16704,0.0,0.0
864,215.75,201.591,247.775,105.563,115.299,85.9771,0.0259458,2.02429,17.9877,8.16783,2.62646,0.0,0.0
880,219.75,197.139,241.446,100.404,115.303,83.1187,0.0228685,1.6567,18.5465,7.47717,2.92941,0.0,0.0
896,223.75,191.625,233.437,116.253,115.31,84.9321,0.0191535,1.28335,19.0833,6.86658,2.73681,0.0,0.0
912,227.75,184.204,222.926,129.713,115.316,92.4396,0.0131912,0.881341,19.6665,6.49623,1.97912,0.0,0.0
928,231.75,175.593,210.721,133.664,115.308,99.9035,0.00818136,0.557151,20.257,6.38612,1.28351,0.0,0.0
944,235.75,165.875,198.816,135.872,115.292,102.864,0.00539511,0.385625,20.5206,6.27601,1.02083,0.0,0.0
960,239.75,157.809,187.264,137.393,115.289,104.478,0.0040923,0.286395,20.6776,6.1559,0.88132,0.0,0.0
976,243.75,149.647,176.232,139.928,115.311,104.811,0.00351775,0.224184,20.7832,6.08583,0.854503,0.0,0.0
992,247.75,142.048,166.7,139.296,115.362,107.867,0.00275234,0.177712,20.8538,6.07582,0.601229,0.0,0.0
1008,251.75,135.201,157.201,139.163,115.394,108.46,0.00242404,0.146184,20.8963,6.06581,0.554692,0.0,0.0
1024,255.75,128.607,149.612,145.015,115.429,107.467,0.00194461,0.121726,20.9267,6.01577,0.639698,0.0,0.0
1040,259.75,123.206,141.766,143.702,115.483,107.955,0.00148283,0.101126,20.9614,6.02577,0.603285,0.0,0.0
1056,263.75,117.33,133.706,146.36,115.543,107.62,0.00119513,0.0864035,20.9831,6.03578,0.635808,0.0,0.0
1072,267.75,112.389,127.086,144.44,115.579,108.283,0.00115637,0.0791278,20.9925,6.03578,0.583634,0.0,0.0
1088,271.75,107.884,121.767,146.496,115.643,108.171,0.00111962,0.0756545,20.9973,6.03578,0.597875,0.0,0.0
1104,275.75,103.635,116.239,146.631,115.692,108.357,0.000958087,0.0733879,20.9967,6.01577,0.586248,0.0,0.0
1120,279.75,99.8636,111.192,148.1,115.721,108.578,0.000831506,0.071965,20.9965,6.03578,0.570193,0.0,0.0
1136,283.75,96.3266,106.461,144.536,115.724,108.795,0.00086117,0.070856,20.9985,6.00576,0.552612,0.0,0.0
1152,287.75,92.7783,102.155,147.962,115.71,108.026,0.00090264,0.0698825,20.9999,6.01577,0.614976,0.0,0.0
1168,291.75,90.6182,98.4765,144.084,115.65,108.937,0.000929436,0.0693389,21.0011,6.03578,0.535172,0.0,0.0
1184,295.75,87.2539,95.3318,141.624,115.596,108.347,0.000902279,0.0686567,21.0021,6.01577,0.579681,0.0,0.0
1200,299.75,85.3207,92.0237,149.483,115.532,108.173,0.000827944,0.0682929,21.0041,6.00576,0.589033,0.0,0.0
1216,303.75,82.9071,88.829,144.729,115.454,107.415,0.000423028,0.0677756,21.0058,5.99575,0.645943,0.0,0.0
1232,307.75,80.7388,86.5013,148.644,115.372,108.182,0.000341043,0.0675548,21.0061,6.02577,0.575983,0.0,0.0
1248,311.75,78.8751,84.0671,145.167,115.32,108.017,0.000574599,0.0675215,21.0067,6.03578,0.585518,0.0,0.0
1264,315.75,76.961,81.645,142.683,115.702,108.972,0.000619973,0.0672766,21.0084,6.00576,0.53634,0.0,0.0
1280,319.75,75.7871,79.4303,148.43,116.08,108.52,0.000598795,0.0672034,21.0091,5.98574,0.602801,0.0,0.0
1296,323.75,74.2246,77.4787,145.323,116.269,108.789,0.000446542,0.0668274,21.0093,6.03578,0.595155,0.0,0.0
1312,327.75,72.9613,75.6623,148.371,116.228,109.118,0.000346777,0.0664631,21.0093,5.99575,0.564938,0.0,0.0
1328,331.75,71.0899,74.228,149.016,115.9,108.557,0.000372437,0.0662001,21.0093,6.02577,0.585835,0.0,0.0
1344,335.75,70.6548,72.5304,148.94,115.691,108.989,0.000652968,0.0659123,21.0093,5.98574,0.534164,0.0,0.0
1360,339.75,69.381,71.5706,148.439,115.958,108.883,0.000523054,0.0656102,21.0093,5.98574,0.563466,0.0,0.0
1376,343.75,68.4814,69.7193,143.475,116.254,108.638,0.000444295,0.0657194,21.0089,6.00576,0.606442,0.0,0.0
1392,347.75,67.4099,69.0235,146.204,116.497,108.614,0.000619078,0.0656996,21.0093,6.02577,0.627094,0.0,0.0
1408,351.75,66.3373,67.4054,151.294,116.541,108.795,0.000521683,0.0654002,21.0086,6.01577,0.615641,0.0,0.0
1424,355.75,66.0081,66.5305,144.12,116.403,108.653,0.00066109,0.065185,21.0096,5.99575,0.616715,0.0,0.0
1440,359.75,64.7821,65.921,149.507,116.086,108.924,0.00068736,0.064915,21.0099,6.00576,0.569966,0.0,0.0
1456,363.75,63.9965,64.5691,150.393,115.534,109.01,0.000708921,0.0647986,21.01,5.99575,0.520242,0.0,0.0
1472,367.75,63.4783,63.4004,142.56,114.957,107.595,0.00065033,0.0646182,21.01,6.01577,0.592322,0.0,0.0
1488,371.75,62.885,63.0436,148.367,114.463,107.435,,,,6.01577,0.567137,0.0,0.0
1504,375.75,61.6629,62.6104,148.884,114.209,107.444,,,,5.98574,0.546531,0.0,0.0
1517,379,61.7267,61.6959,146.899,114.217,108.548,,,,6.00576,0.45559,0.0,0.0