File: 01_Data/Nylon/Cone/Nylon_Cone_HF25Scan_220225_R3.csv
Names,Time,Stack TC,Smoke TC,Exh Press,Smoke Comp,Smoke Meas,CO Meter,CO2 Meter,O2 Meter,Sample Mass,Ext Coeff,Start Test,Flame Verif
Chan Gain,,500,500,1,1,1,1,1,1,1,1,1.0,1.0
Offset,,0,0,0.136092,0,0,0,0,0,0,0,0.0,0.0
Gain,,1,1,25.011,15.4219,15.1528,1,1,1,1.00089,1.02113,1.0,1.0
Units,sec,C,C,Pa,%,%,%,%,%,g,/m,,
Baseline,,25.2804,25.3893,161.694,116.215,113.946,-0.00984971,0.0421509,21.0098,-0.00225198,0.176702,,
40,9.75,23.9052,23.7299,163.473,116.125,114.089,-0.00970845,0.0488514,21.0021,908.084,0.158392,0.0,0.0
80,19.75,23.2661,24.2173,161.722,116.265,113.819,-0.0100586,0.0440687,21.0082,908.104,0.190504,0.0,0.0
120,29.75,23.619,24.4806,160.786,116.165,113.976,-0.00997461,0.0425486,21.0103,908.034,0.17034,0.0,0.0
160,39.75,23.7824,23.666,163.162,115.708,113.611,-0.00960301,0.0435878,21.011,908.054,0.163826,0.0,0.0
200,49.75,24.2599,24.4126,161.965,115.638,113.272,-0.00965555,0.0446505,21.0089,908.054,0.185123,0.0,0.0
240,59.75,23.5768,23.8655,161.411,115.889,113.906,-0.00965255,0.044946,21.0072,908.044,0.154575,0.0,0.0
280,69.75,24.1116,24.7462,165.003,116.181,114.415,-0.00996369,0.0442746,21.0077,908.024,0.137188,0.0,0.0
320,79.75,23.9298,23.9676,165.473,116.409,114.511,-0.00984117,0.0439628,21.0081,908.014,0.147206,0.0,0.0
360,89.75,23.7054,24.7769,161.344,116.408,113.891,-0.00991049,0.0428365,21.0101,907.974,0.195773,0.0,0.0
400,99.75,23.9343,24.5721,160.325,116.148,114.06,-0.00971499,0.0422488,21.0092,907.944,0.162495,0.0,0.0
440,109.75,24.2546,24.2304,162.603,115.782,113.629,-0.00994274,0.0420282,21.0092,907.874,0.168159,0.0,0.0
480,119.75,24.6283,24.6978,165.065,115.44,112.455,-0.0102255,0.0423551,21.0056,907.844,0.234684,0.0,0.0
520,129.75,24.15,25.0624,154.084,115.237,112.587,-0.010251,0.0427399,21.0095,907.824,0.208366,0.0,0.0
560,139.75,24.8377,24.9947,165.189,115.033,111.839,-0.00997691,0.0425081,21.011,907.774,0.252236,0.0,0.0
600,149.75,23.8516,24.9652,161.53,114.825,111.281,-0.00997498,0.0429335,21.0075,907.734,0.280802,0.0,0.0
640,159.75,24.4543,25.2759,163.873,114.673,111.179,-0.00957742,0.0437902,21.0048,907.664,0.277166,0.0,0.0
680,169.75,24.6061,25.2811,162.152,114.358,111.557,-0.00943685,0.0437023,21.0064,907.614,0.222076,0.0,0.0
720,179.75,24.9276,25.9557,159.016,114.124,110.319,-0.0100658,0.0435935,21.0085,907.544,0.303763,0.0,0.0
760,189.75,24.6869,25.8434,162.409,113.998,110.898,-0.00982031,0.0431471,21.0094,907.504,0.246936,0.0,0.0
800,199.75,24.6196,25.4697,158.658,114.082,110.539,-0.00968244,0.0428429,21.0079,907.384,0.282584,0.0,0.0
840,209.75,24.2564,25.5961,157.111,114.298,111.275,-0.00994389,0.0417455,21.008,907.374,0.240035,0.0,0.0
880,219.75,24.6848,25.3205,158.906,114.531,112.207,-0.0100459,0.0412068,21.0097,907.354,0.183579,0.0,0.0
920,229.75,24.9829,25.5189,161.267,114.848,111.834,-0.01007,0.0418787,21.0104,907.314,0.238194,0.0,0.0
960,239.75,24.6562,25.6965,159.955,115.1,111.641,-0.00989329,0.0421067,21.0088,907.273,0.273268,0.0,0.0
1000,249.75,24.4828,25.8594,161.97,115.301,110.612,-0.00963823,0.0436763,21.0094,907.264,0.371939,0.0,0.0
1040,259.75,24.8385,25.2749,158.891,115.49,112.183,-0.00988141,0.0429095,21.008,907.233,0.260239,0.0,0.0
1080,269.75,24.9065,25.7685,158.359,115.623,112.474,-0.0100828,0.0422359,21.0079,907.203,0.247405,0.0,0.0
1120,279.75,25.2528,25.9984,162.138,115.662,112.538,-0.00996533,0.0416197,21.0112,907.173,0.245276,0.0,0.0
1160,289.75,25.4661,25.9551,153.552,115.647,112.256,-0.00991909,0.0413032,21.0108,907.133,0.266626,0.0,0.0
1200,299.75,25.2003,26.1421,158.27,115.551,112.76,-0.00951545,0.0420169,21.0097,907.113,0.219021,0.0,0.0
1240,309.75,25.2647,26.5956,158.778,115.4,111.816,-0.010061,0.0436757,21.0084,907.103,0.282591,0.0,0.0
1280,319.75,24.7506,26.293,159.584,115.482,112.85,-0.0100129,0.0418744,21.0103,907.013,0.206533,0.0,0.0
1320,329.75,25.1947,26.4714,162.669,115.968,113.816,-0.00971964,0.0413197,21.0127,907.033,0.167778,0.0,0.0
1360,339.75,24.8383,26.4547,157.105,116.201,112.79,-0.00955302,0.0426924,21.0109,907.003,0.266876,0.0,0.0
1400,349.75,25.0536,26.1462,157.336,116.26,113.343,-0.0102171,0.0417354,21.012,907.003,0.227594,0.0,0.0
1440,359.75,24.7547,25.8803,157.941,116.168,113.115,-0.0103957,0.0411413,21.0108,907.003,0.238556,0.0,0.0
1480,369.75,24.8729,26.2509,160.158,115.961,113.515,-0.0102661,0.0409104,21.0098,906.943,0.190956,0.0,0.0
1520,379.75,25.3473,26.289,160.4,115.761,113.749,-0.00984103,0.0410561,21.0118,906.953,0.157084,0.0,0.0
1560,389.75,25.663,26.7551,162.832,115.683,112.895,-0.00973334,0.0407017,21.0126,906.913,0.218547,0.0,0.0
1600,399.75,25.1644,26.3475,161.591,115.735,112.711,-0.00977261,0.0406816,21.0122,906.843,0.237169,0.0,0.0
1640,409.75,25.3491,25.7641,155.584,115.795,113.778,-0.00996624,0.0407998,21.0152,906.883,0.157374,0.0,0.0
1680,419.75,25.1925,26.0798,156.805,115.896,113.532,-0.00999444,0.0460911,21.0052,906.863,0.184587,0.0,0.0
1720,429.75,25.3651,27.2755,162.132,116.028,113.786,-0.00948874,0.0556222,20.9945,906.933,0.174759,0.0,0.0
1760,439.75,25.7477,27.0101,161.029,116.14,114.75,-0.00976952,0.0453082,21.006,906.883,0.107823,0.0,0.0
1800,449.75,25.5438,26.9449,160.798,116.219,114.191,-0.010077,0.0444441,21.0086,906.873,0.157702,0.0,0.0
1840,459.75,25.6708,26.8127,158.7,116.175,114.537,-0.00979446,0.0461646,21.007,906.823,0.127164,0.0,0.0
1880,469.75,25.1106,26.5319,162.715,115.982,114.106,-0.00981401,0.0496249,21.0033,906.833,0.146042,0.0,0.0
1920,479.75,25.5012,26.8693,163.976,115.427,114.006,-0.00998173,0.0463465,21.0083,906.833,0.110931,0.0,0.0
1960,489.75,25.4491,26.5745,159.223,115.37,113.956,-0.00979008,0.0497082,21.0043,906.773,0.110435,0.0,0.0
2000,499.75,25.8525,27.1058,162.444,115.525,113.878,-0.0098678,0.0506656,21.0007,906.773,0.128594,0.0,0.0
2040,509.75,25.8577,27.3324,160.371,115.629,114.228,-0.0102807,0.0546582,20.9945,906.733,0.109235,0.0,0.0
2080,519.75,25.7576,27.08,161.011,115.603,113.954,-0.0103192,0.0548014,20.9915,906.673,0.128687,0.0,0.0
2120,529.75,26.1901,27.2636,160.245,115.507,114.039,-0.00974368,0.0608097,20.9845,906.633,0.114594,0.0,0.0
2160,539.75,26.1216,27.6728,157.621,115.175,113.239,-0.00976007,0.0681242,20.9738,906.593,0.151849,0.0,1.0
2200,549.75,26.445,27.7118,159.783,114.658,111.655,-0.00938843,0.081227,20.9514,906.523,0.237734,0.0,0.0
2240,559.75,26.6227,28.5408,158.34,114.164,110.325,-0.00944267,0.105677,20.9164,906.373,0.306414,0.0,0.0
2280,569.75,28.9458,30.2024,156.11,113.941,108.62,-0.00902352,0.156205,20.836,906.133,0.428402,0.0,0.0
2320,579.75,30.6894,32.9348,150.419,114.049,106.066,-0.00821017,0.211925,20.7489,905.732,0.649999,0.0,0.0
2360,589.75,33.9225,36.4077,146.046,114.661,103.311,-0.00734364,0.264686,20.6733,905.262,0.933627,0.0,0.0
2400,599.75,36.9715,40.2434,143.508,115.52,102.774,-0.00696971,0.304666,20.6021,904.831,1.04726,0.0,0.0
2440,609.75,40.4762,44.1164,140.084,116.239,100.995,-0.00550628,0.405703,20.4489,904.101,1.25914,0.0,0.0
2480,619.75,45.6772,50.1482,134.912,116.437,99.4742,-0.00466425,0.482109,20.3199,903.22,1.41035,0.0,0.0
2520,629.75,50.4551,56.3377,133.399,116.14,98.9577,-0.00443203,0.552047,20.2193,902.219,1.4341,0.0,0.0
2560,639.75,55.984,62.7053,129.518,115.75,98.8573,-0.00310917,0.641108,20.075,901.198,1.41305,0.0,0.0
2600,649.75,62.2228,70.0243,133.087,115.563,98.0657,-0.00254892,0.745593,19.9128,899.917,1.4706,0.0,0.0
2640,659.75,67.7253,76.9674,125.166,115.925,99.8123,-0.00227243,0.811326,19.815,898.526,1.34044,0.0,0.0
2680,669.75,73.8215,83.9422,117.893,116.196,97.6125,-0.00138382,0.884827,19.6949,897.094,1.56098,0.0,0.0
2720,679.75,79.7055,91.407,114.146,116.302,96.2668,-0.000590987,0.981248,19.5555,895.493,1.69348,0.0,0.0
2760,689.75,84.6762,98.0172,118.529,116.273,97.7642,-0.00018513,1.0464,19.4488,893.802,1.55306,0.0,0.0
2800,699.75,91.5382,105.552,112.913,116.234,96.382,0.000309082,1.1645,19.2797,892.03,1.67756,0.0,0.0
2840,709.75,98.2833,113.791,117.729,116.226,94.1258,0.00139664,1.26426,19.1269,890.289,1.88915,0.0,0.0
2880,719.75,104.868,121.591,115.134,116.165,93.3637,0.00211685,1.34354,19.0039,888.227,1.95725,0.0,0.0
2920,729.75,110.843,129.042,105.493,116.184,91.9403,0.00381486,1.4642,18.8138,886.055,2.09634,0.0,0.0
2960,739.75,117.595,137.282,105.406,116.16,92.0633,0.00412641,1.52604,18.7284,883.803,2.08248,0.0,0.0
3000,749.75,123.336,143.91,100.167,116.16,91.9084,0.00504716,1.54938,18.6868,881.701,2.0976,0.0,0.0
3040,759.75,127.696,149.286,101.597,116.182,86.4217,0.00727095,1.55705,18.6672,879.449,2.65062,0.0,0.0
3080,769.75,130.114,152,106.155,116.252,82.3325,0.00932908,1.52973,18.6996,877.177,3.09018,0.0,0.0
3120,779.75,131.848,153.716,104.474,116.292,82.9466,0.00938893,1.4144,18.8909,875.315,3.0267,0.0,0.0
3160,789.75,128.514,149.294,121.943,116.279,85.0155,0.00664759,1.06638,19.3682,873.724,2.80501,0.0,0.0
3200,799.75,120.605,138.782,131.405,116.076,87.6083,0.000410425,0.659802,20.0511,872.693,2.52031,0.0,0.0
3240,809.75,108.481,123.708,140.242,115.662,99.144,-0.00510079,0.339131,20.5547,872.192,1.3803,0.0,0.0
3280,819.75,97.1908,109.824,148.93,115.738,109.879,-0.0080923,0.163146,20.8145,872.012,0.465317,0.0,0.0
3320,829.75,85.6236,95.7107,153.333,116.046,110.977,-0.00939779,0.0749967,20.959,871.992,0.400096,0.0,0.0
3360,839.75,75.8776,83.3999,153.548,116.376,111.986,-0.0095057,0.0506997,20.9951,871.992,0.344452,0.0,0.0
3400,849.75,68.3043,74.0706,152.896,116.475,112.471,-0.0099726,0.045341,21.0033,872.022,0.313377,0.0,0.0
3440,859.75,61.7376,66.78,157.291,116.301,111.637,-0.00975618,0.0437996,21.0054,871.992,0.366586,0.0,0.0
3480,869.75,58.0614,60.7563,154.015,115.955,111.793,-0.0098583,0.0432723,21.0056,871.912,0.32741,0.0,0.0
3520,879.75,52.8412,55.1366,154.899,115.48,111.268,-0.0101257,0.0421773,21.0082,872.012,0.332767,0.0,0.0
3560,889.75,50.8029,51.8021,154.422,114.941,111.028,-0.0102616,0.0417323,21.0094,871.922,0.31025,0.0,0.0
3600,899.75,47.5371,48.7468,154.601,114.406,110.069,-0.00996654,0.0413813,21.0082,872.002,0.346161,0.0,0.0
3640,909.75,46.1759,45.8219,155.499,114.07,110.502,-0.00999516,0.0419471,21.0091,871.972,0.28462,0.0,0.0
3680,919.75,44.0101,44.1837,156.558,114.067,110.265,-0.0102266,0.0424442,21.0068,871.982,0.30365,0.0,0.0
3720,929.75,42.6411,41.9831,160.065,114.475,111.231,-0.0100153,0.0423944,21.0076,872.022,0.257429,0.0,0.0
3760,939.75,40.4945,40.6076,152.736,115.095,112.007,-0.00996131,0.0418222,21.0074,872.012,0.243638,0.0,0.0
3800,949.75,39.9674,39.5551,158.295,115.556,112.599,,,,871.902,0.232178,0.0,0.0
3811,952.5,39.8968,38.9469,154.045,115.621,113.105,,,,871.982,0.197057,0.0,0.0