File: 01_Data/Nylon/Cone/Nylon_Cone_HF50Scalar_220225_R3.csv
LABORATORY,FSRI
TEST IDENT,Nylon_HF50_3
OPERATOR,Dow
MATERIAL,Nylon
ORIENTATION,Horizontal
HEAT FLUX,50
SURF AREA,0.01
C FACTOR,0.0370678
SPEC HOLDER DIFF,307.42
SPECIMEN MASS,36.3
SCAN TIME,0.25
O2 DELAY TIME,11
CO DELAY TIME,11
CO2 DELAY TIME,8
FLOW FACTOR,1
SCAN COUNT,1517
TIME TO IGN,79.75
END OF TEST SCAN,1037
END OF TEST TIME,259.25
TEST STATUS,1
PRE TEST CMT,Dimensions: 99.52 x 99.64 x 3.00 mm; 60 mm spacing