File: 01_Data/Nylon/Cone/Nylon_Cone_HF75Scan_220225_R2.csv
Names,Time,Stack TC,Smoke TC,Exh Press,Smoke Comp,Smoke Meas,CO Meter,CO2 Meter,O2 Meter,Sample Mass,Ext Coeff,Start Test,Flame Verif
Chan Gain,,500,500,1,1,1,1,1,1,1,1,1.0,1.0
Offset,,0,0,0.134422,0,0,0,0,0,0,0,0.0,0.0
Gain,,1,1,25.011,15.3125,15.3273,1,1,1,1.00096,1.02035,1.0,1.0
Units,sec,C,C,Pa,%,%,%,%,%,g,/m,,
Baseline,,49.5013,52.1416,148.774,115.107,110.48,0.000813634,0.0683524,20.9959,-869.283,0.367314,,
13,3,48.3155,50.0316,153.4,115.416,111.111,0.000861757,0.0745883,20.9874,39.2576,0.340237,0.0,0.0
26,6.25,47.7607,50.446,147.617,115.422,111.123,0.00105021,0.0746528,20.9863,39.2877,0.339729,0.0,0.0
39,9.5,47.6773,50.6791,150.916,115.443,111.813,0.000876972,0.0736283,20.9871,39.1876,0.285998,0.0,0.0
52,12.75,47.6661,50.1459,149.063,115.471,112.207,0.000698929,0.0723493,20.9888,39.1475,0.256628,0.0,0.0
65,16,48.4109,50.7194,146.346,115.491,110.106,0.000896196,0.0713,20.9898,39.1375,0.427376,0.0,0.0
78,19.25,48.3037,50.8563,147.496,115.522,110.568,0.000949418,0.0702575,20.9927,39.0774,0.392278,0.0,0.0
91,22.5,48.7816,51.2715,148.466,115.535,109.838,0.000941315,0.0695369,20.9934,39.0274,0.452668,0.0,0.0
104,25.75,48.364,51.2816,150.046,115.55,108.261,0.00087127,0.0694019,20.9921,39.0374,0.583172,0.0,0.0
117,29,48.9534,51.152,148.487,115.558,107.755,0.00130553,0.0710194,20.984,38.9473,0.625764,0.0,0.0
130,32.25,49.2076,52.1059,139.119,115.559,109.012,0.00188092,0.0980929,20.935,38.8973,0.522006,0.0,1.0
143,35.5,50.2717,52.6973,135.276,115.558,108.207,0.00237018,0.186169,20.7519,38.647,0.588235,0.0,1.0
156,38.75,52.4313,55.4928,129.246,115.563,105.726,0.00297956,0.313413,20.5637,38.2867,0.796241,0.0,0.0
169,42,55.4851,58.8389,123.712,115.558,104.611,0.00397907,0.461073,20.3171,37.9664,0.890819,0.0,0.0
182,45.25,59.3203,63.9892,121.951,115.552,104.654,0.00489507,0.617072,20.0892,37.546,0.886671,0.0,0.0
195,48.5,64.1629,69.757,113.195,115.543,103.47,0.00583862,0.759917,19.8229,36.9754,0.987735,0.0,0.0
208,51.75,68.6548,75.285,109.787,115.519,101.466,0.00684356,0.90999,19.5839,36.4049,1.161,0.0,0.0
221,55,73.9433,82.4725,108.634,115.494,101.125,0.00783788,1.05678,19.3593,35.7743,1.18917,0.0,0.0
234,58.25,79.791,89.9509,101.827,115.483,100.141,0.00928722,1.20987,19.1182,35.0336,1.2758,0.0,0.0
247,61.5,85.9795,97.469,96.5133,115.458,97.9562,0.0107362,1.39364,18.8452,34.3029,1.47132,0.0,0.0
260,64.75,93.0621,106.428,99.9656,115.442,98.967,0.0112201,1.50468,18.7292,33.4821,1.37821,0.0,0.0
273,68,98.3824,112.798,102.058,115.418,99.9044,0.0113712,1.52695,18.719,32.8615,1.29194,0.0,0.0
286,71.25,103.685,119.372,105.454,115.383,97.9029,0.011577,1.5114,18.7473,32.1208,1.47036,0.0,0.0
299,74.5,106.994,124.669,91.6077,115.358,96.3472,0.0121951,1.55158,18.6467,31.34,1.61181,0.0,0.0
312,77.75,112.398,131.314,92.1657,115.344,97.0815,0.0132608,1.63737,18.5224,30.5393,1.54276,0.0,0.0
325,81,116.994,137.643,88.7927,115.324,97.1896,0.0151681,1.74895,18.3365,29.6885,1.53125,0.0,0.0
338,84.25,122.634,144.12,105.479,115.301,93.7044,0.0175506,1.94008,18.0257,28.7976,1.85633,0.0,0.0
351,87.5,128.988,152.968,84.6879,115.299,93.115,0.0195558,2.15983,17.6744,27.8467,1.91262,0.0,0.0
364,90.75,135.483,161.512,84.5993,115.303,91.6832,0.0221625,2.43298,17.2326,26.7757,2.05164,0.0,0.0
377,94,142.595,171.776,82.7041,115.292,89.4866,0.024827,2.72163,16.8315,25.7947,2.26789,0.0,0.0
390,97.25,150.658,182.318,67.144,115.266,88.3486,0.0277427,3.00074,16.4326,24.4735,2.38038,0.0,0.0
403,100.5,158.54,193.801,72.3381,115.277,85.9668,0.03171,3.28822,16.0246,23.3624,2.62582,0.0,0.0
416,103.75,167.341,205.51,74.8447,115.248,85.4944,0.035702,3.63791,15.4459,22.0111,2.6729,0.0,0.0
429,107,176.835,219.733,66.3563,115.261,88.9932,0.0386665,4.06385,14.902,20.5897,2.31496,0.0,0.0
442,110.25,186.409,234.347,80.9997,115.276,82.1682,0.0414943,4.46707,14.337,19.0683,3.03029,0.0,0.0
455,113.5,197.028,249.535,65.0824,115.311,86.0926,0.0440977,4.93249,13.6612,17.6169,2.61542,0.0,0.0
468,116.75,206.792,265.03,81.2913,115.345,82.9718,0.0463423,5.25487,13.2382,15.9753,2.94851,0.0,0.0
481,120,215.727,278.639,53.8294,115.384,83.2529,0.0483866,5.38823,13.0541,14.3838,2.92124,0.0,0.0
494,123.25,223.169,289.997,69.4956,115.421,79.5254,0.051074,5.50502,12.9238,12.8423,3.33413,0.0,0.0
507,126.5,230.871,301.137,69.546,115.449,80.6326,0.0533595,5.49383,12.9844,11.451,3.21252,0.0,0.0
520,129.75,236.606,309.609,69.043,115.514,76.4962,0.0527066,5.1655,13.449,9.98957,3.68893,0.0,0.0
533,133,239.284,312.287,84.5093,115.558,78.1717,0.0490948,4.60381,14.441,8.84848,3.49841,0.0,0.0
546,136.25,239.502,311.346,91.2154,115.577,78.3986,0.0439379,3.89168,15.4645,7.63732,3.47392,0.0,0.0
559,139.5,238.17,307.338,79.4594,115.561,77.3611,0.0406716,3.4123,16.0734,6.70643,3.59193,0.0,0.0
572,142.75,236.34,303.28,89.801,115.511,75.6323,0.0384568,3.0497,16.5265,5.68545,3.79038,0.0,0.0
585,146,232.415,297.367,95.1745,115.422,78.1464,0.0337228,2.64193,17.2388,4.87467,3.4908,0.0,0.0
598,149.25,228.024,289.776,106.192,115.346,81.0704,0.0282782,2.17397,17.9225,4.2741,3.15612,0.0,0.0
611,152.5,221.588,280.147,107.646,115.237,80.7018,0.0227196,1.69005,18.6172,3.80365,3.18841,0.0,0.0
624,155.75,213.953,268.729,121.465,115.136,92.1196,0.0168332,1.2482,19.2902,3.53339,1.99618,0.0,0.0
637,159,205.582,256.344,129.608,115.074,100.698,0.0114063,0.856101,19.9302,3.39325,1.19444,0.0,0.0
650,162.25,196.629,243.498,132.999,115.162,103.015,0.00797634,0.582622,20.3237,3.33319,0.9976,0.0,0.0
663,165.5,188.477,231.778,131.519,115.587,104.73,0.00588621,0.422,20.5537,3.19306,0.882903,0.0,0.0
676,168.75,180.267,221.041,133.579,115.875,107.68,0.00450284,0.312435,20.7139,3.19306,0.656452,0.0,0.0
689,172,172.715,210.101,134.392,116.035,108.494,0.00375984,0.239159,20.8061,3.15302,0.601467,0.0,0.0
702,175.25,165.651,200.833,134.522,116.009,108.351,0.00336581,0.189503,20.8722,3.17304,0.6113,0.0,0.0
715,178.5,159.427,191.355,135.222,115.814,108.399,0.00301492,0.157011,20.9035,3.15302,0.592202,0.0,0.0
728,181.75,153.287,183.326,133.779,115.431,108.101,0.00265706,0.134364,20.9309,3.09296,0.587208,0.0,0.0
741,185,147.559,174.92,140.272,115.57,108.134,0.00250257,0.119745,20.9466,3.11298,0.595217,0.0,0.0
754,188.25,141.913,167.89,134.531,115.809,108.534,0.00252677,0.110285,20.9583,3.07294,0.580683,0.0,0.0
767,191.5,136.444,160.945,140.492,116.059,108.652,0.00225664,0.102996,20.9667,3.09296,0.590233,0.0,0.0
780,194.75,132.905,154.494,136.497,116.262,109.08,0.00206608,0.0969649,20.9741,3.06294,0.57071,0.0,0.0
793,198,128.806,148.952,141.501,116.362,108.705,0.00203142,0.0916866,20.9803,3.09296,0.609202,0.0,0.0
806,201.25,124.912,144.128,136.255,116.336,109.232,0.00185606,0.0878055,20.981,3.08295,0.563961,0.0,0.0
819,204.5,121.499,139.311,137.076,116.119,109.157,0.00171758,0.084452,20.9841,3.05293,0.553326,0.0,0.0
832,207.75,118.075,135.184,139.367,115.771,108.657,0.00171284,0.0818732,20.9868,3.07294,0.567618,0.0,0.0
845,211,115.775,130.621,135.359,115.303,108.214,0.00147285,0.0797552,20.9883,3.05293,0.567946,0.0,0.0
858,214.25,112.453,126.323,137.223,114.838,107.465,0.00132961,0.0781423,20.9912,3.03291,0.593937,0.0,0.0
871,217.5,109.922,123.436,139.512,114.442,107.369,0.00139988,0.0765774,20.9935,3.0229,0.570989,0.0,0.0
884,220.75,107.055,119.731,139.889,114.177,107.082,0.00150644,0.0751053,20.995,3.03291,0.574177,0.0,0.0
897,224,104.802,116.129,141.173,114.089,107.108,0.00140137,0.0739643,20.9944,3.01289,0.565098,0.0,0.0
910,227.25,102.757,113.559,141.72,114.159,106.95,0.00116067,0.0731664,20.9954,3.06294,0.583854,0.0,0.0
923,230.5,100.853,110.759,138.464,114.392,106.794,0.00111976,0.0721776,20.9964,3.05293,0.615126,0.0,0.0
936,233.75,99.2113,108.824,140.466,114.711,107.116,0.0010619,0.0710247,20.998,3.08295,0.613133,0.0,0.0
949,237,97.1596,106.076,139.257,115.06,107.41,0.000822076,0.0705044,20.9999,3.03291,0.61578,0.0,0.0
962,240.25,95.6268,103.586,139.905,115.347,108.186,0.000752011,0.0699884,21.0003,3.05293,0.573638,0.0,0.0
975,243.5,94.2762,101.29,143.638,115.551,107.939,0.000627739,0.0692335,21.0005,3.00288,0.610003,0.0,0.0
988,246.75,92.924,99.8391,140.65,115.585,107.968,0.000657462,0.0686445,20.9993,3.06294,0.610203,0.0,0.0
1001,250,91.0239,97.6,140.472,115.488,108.187,0.000635692,0.0682093,20.9985,3.0229,0.584544,0.0,0.0
1014,253.25,90.786,96.2717,141.704,115.284,107.872,0.000766805,0.0678475,20.9985,3.05293,0.594787,0.0,0.0
1027,256.5,89.1924,94.4905,141.608,115.111,107.52,0.00078233,0.0674055,21,3.03291,0.610584,0.0,0.0
1040,259.75,87.864,93.1036,143.184,114.987,107.148,0.000853883,0.0670704,21.0004,3.03291,0.632002,0.0,0.0
1053,263,87.0724,91.4908,136.497,115.584,108.286,0.000896404,0.0666917,21.0013,3.05293,0.583804,0.0,0.0
1066,266.25,86.3096,90.3122,141.082,115.936,108.439,0.000722623,0.0662016,21.0025,3.01289,0.5983,0.0,0.0
1079,269.5,85.2266,89.4778,140.041,115.993,108.396,0.000650722,0.0659046,21.0044,3.0229,0.606329,0.0,0.0
1092,272.75,83.8036,87.9809,139.721,115.701,108.046,0.000717354,0.0655537,21.0081,3.03291,0.612701,0.0,0.0
1105,276,83.0352,87.0531,141.905,115.461,107.678,0.000741723,0.0652765,21.0096,3.0229,0.62457,0.0,0.0
1118,279.25,82.5176,85.7432,140.418,115.727,108.128,0.000460602,0.0650971,21.0104,2.99287,0.607911,0.0,0.0
1131,282.5,81.5236,84.5781,141.518,116.024,108.615,0.000164962,0.0649393,21.0106,3.01289,0.590611,0.0,0.0
1144,285.75,81.2662,83.9359,141.916,116.267,108.811,0.000107368,0.0650978,21.0103,3.01289,0.593165,0.0,0.0
1157,289,80.3891,82.4595,138.306,116.343,109.244,0.000129252,0.0648953,21.0087,2.97285,0.56358,0.0,0.0
1170,292.25,80.1586,82.3009,138.973,116.229,108.252,0.000430518,0.0648275,21.0077,2.98286,0.636383,0.0,0.0
1183,295.5,79.0536,82.2081,144.072,115.92,108.579,0.000503138,0.0645753,21.0077,2.97285,0.585535,0.0,0.0
1196,298.75,78.6521,80.3304,139.891,115.498,108.141,,0.0645195,,2.97285,0.589135,0.0,0.0
1209,302,78.6173,80.1957,142.106,115.026,107.634,,,,3.00288,0.594475,0.0,0.0
1222,305.25,77.4855,79.5301,141.992,114.539,106.807,,,,3.01289,0.625577,0.0,0.0
1231,307.5,77.4133,79.0838,142.042,114.284,107.168,,,,2.99287,0.575447,0.0,0.0