File: 01_Data/Nylon/Cone/Nylon_Cone_HF25Scalar_220225_R3.csv
LABORATORY,FSRI
TEST IDENT,Nylon_HF25_3
OPERATOR,Dow
MATERIAL,Nylon
ORIENTATION,Horizontal
HEAT FLUX,25
SURF AREA,0.01
C FACTOR,0.0385692
SPEC HOLDER DIFF,304.3
SPECIMEN MASS,36.4
SCAN TIME,0.25
O2 DELAY TIME,11
CO DELAY TIME,11
CO2 DELAY TIME,8
FLOW FACTOR,1
SCAN COUNT,3811
TIME TO IGN,538.25
END OF TEST SCAN,3331
END OF TEST TIME,832.75
TEST STATUS,1
PRE TEST CMT,Dimensions: 99.95 x 99.90 x 3.10 mm; 60 mm spacing
POST TEST CMT,"Prior to ignition, the sample expanded vertically and a single large bubble formed. Top of the bubble touched the spark ignitor which immediately created a small hole releasing a candle-sized flame. This flame remained steady for approximately one minute with occassonal bursts as gases released from the bubble. The time to ignition event was recorded when the flame began spreading across the surface of the sample. "