File: 01_Data/Nylon/Cone/Nylon_Cone_HF75Scan_220225_R1.csv
Names,Time,Stack TC,Smoke TC,Exh Press,Smoke Comp,Smoke Meas,CO Meter,CO2 Meter,O2 Meter,Sample Mass,Ext Coeff,Start Test,Flame Verif
Chan Gain,,500,500,1,1,1,1,1,1,1,1,1.0,1.0
Offset,,0,0,0.134422,0,0,0,0,0,0,0,0.0,0.0
Gain,,1,1,25.011,15.3125,15.3273,1,1,1,1.00096,1.02035,1.0,1.0
Units,sec,C,C,Pa,%,%,%,%,%,g,/m,,
Baseline,,41.6199,43.7664,153.072,115.901,110.298,0.000534508,0.0638545,21.0243,-868.69,0.44354,,
12,2.75,39.3766,41.4372,153.828,115.825,109.96,0.000932558,0.0701785,21.0177,39.668,0.465142,0.0,0.0
24,5.75,39.7163,41.3451,155.655,115.823,110.845,0.000763863,0.0684014,21.0183,121.146,0.393214,0.0,0.0
36,8.75,39.5635,41.4333,150.839,115.834,110.336,0.000723087,0.0677555,21.0172,137.322,0.43523,0.0,0.0
48,11.75,39.85,41.724,153.887,115.825,109.196,0.000578026,0.067776,21.0167,97.9038,0.527495,0.0,0.0
60,14.75,39.7252,41.745,157.311,115.84,108.808,0.000552215,0.0675934,21.0172,81.7383,0.560531,0.0,0.0
72,17.75,39.9904,41.33,152.611,115.88,108.415,0.000510137,0.0672666,21.0173,56.1738,0.596015,0.0,0.0
84,20.75,39.6215,41.5356,151.696,115.889,108.815,0.00046338,0.0671088,21.016,38.597,0.563707,0.0,0.0
96,23.75,40.1051,41.8565,153.33,115.934,107.632,0.000677618,0.0677044,21.0148,39.1775,0.66508,0.0,0.0
108,26.75,40.0009,41.7302,151.542,115.932,108.092,0.000975258,0.070696,21.0062,39.3077,0.626742,0.0,0.0
120,29.75,40.8289,42.1679,147.473,115.961,109.628,0.00144695,0.082403,20.9785,39.2576,0.502681,0.0,1.0
132,32.75,41.4051,43.2635,140.15,115.999,108.212,0.0018068,0.135486,20.8601,39.0274,0.621953,0.0,1.0
144,35.75,42.21,44.2386,134.269,116.028,106.458,0.00223506,0.230586,20.7252,38.8572,0.770422,0.0,1.0
156,38.75,44.4609,47.1408,126.86,116.059,105.237,0.00315125,0.349201,20.5404,39.0474,0.876147,0.0,0.0
168,41.75,47.5017,50.8181,124.368,116.103,105.238,0.00404809,0.496253,20.315,40.6089,0.879414,0.0,0.0
180,44.75,51.2908,55.2169,118.603,116.116,103.533,0.00508579,0.633307,20.1158,37.606,1.02658,0.0,0.0
192,47.75,56.4382,61.4568,110.74,116.133,103.129,0.00598587,0.762082,19.9468,37.3258,1.06292,0.0,0.0
204,50.75,60.1832,66.7113,112.075,116.164,103.206,0.0069271,0.873208,19.7983,36.8253,1.05864,0.0,0.0
216,53.75,65.4689,73.0408,110.999,116.186,103.059,0.00789366,0.981985,19.6298,36.2948,1.07312,0.0,0.0
228,56.75,71.1106,79.7586,107.926,116.222,100.953,0.00905913,1.10869,19.4789,35.6742,1.26071,0.0,0.0
240,59.75,76.5761,86.5382,98.3276,116.243,96.5796,0.0110062,1.25976,19.2311,34.9735,1.65862,0.0,0.0
252,62.75,83.4559,95.5041,99.9709,116.258,100.711,0.0121402,1.45729,18.9859,34.1627,1.28487,0.0,0.0
264,65.75,89.5206,103.299,99.4809,116.264,99.9096,0.0131463,1.54978,18.891,33.4821,1.35691,0.0,0.0
276,68.75,95.6513,110.761,95.4004,116.288,99.7468,0.0142193,1.63816,18.7571,32.8215,1.3733,0.0,0.0
288,71.75,101.017,118.14,96.1423,116.307,99.1831,0.0143215,1.72133,18.6641,32.0507,1.42553,0.0,0.0
300,74.75,106.891,125.627,99.5481,116.322,99.8923,0.0149448,1.78554,18.5879,31.2399,1.36292,0.0,0.0
312,77.75,112.305,132.361,90.0117,116.339,97.4815,0.017198,1.93811,18.3007,30.3491,1.58283,0.0,0.0
324,80.75,119.11,141.54,82.7064,116.346,93.6758,0.0201659,2.21014,17.8959,29.4682,1.9398,0.0,0.0
336,83.75,126.649,151.142,87.109,116.374,90.6462,0.0235948,2.49058,17.501,28.4272,2.23625,0.0,0.0
348,86.75,134.412,161.773,75.8094,116.364,88.7649,0.0268304,2.8228,17.0218,27.3162,2.42314,0.0,0.0
360,89.75,142.413,173.313,79.2717,116.371,86.5318,0.0303942,3.15828,16.4869,26.2452,2.65176,0.0,0.0
372,92.75,152.209,187.035,85.2015,116.364,86.2652,0.0346478,3.49079,16.0358,24.9739,2.6788,0.0,0.0
384,95.75,160.558,199.475,78.6939,116.365,84.0616,0.0379337,3.85473,15.5563,23.4525,2.91055,0.0,0.0
396,98.75,170.551,213.543,65.0274,116.372,84.1248,0.0403212,4.16194,15.1725,22.2713,2.90437,0.0,0.0
408,101.75,178.593,225.955,72.8334,116.375,83.5691,0.0430662,4.44494,14.7695,20.89,2.96391,0.0,0.0
420,104.75,187.235,238.88,57.6969,116.365,83.237,0.046516,4.77998,14.3168,19.4086,2.99879,0.0,0.0
432,107.75,196.838,252.77,64.4466,116.368,84.5037,0.0498478,5.10909,13.7571,18.0473,2.86379,0.0,0.0
444,110.75,206.928,267.422,60.5058,116.358,79.7494,0.0516613,5.36356,13.4185,16.5358,3.38131,0.0,0.0
456,113.75,214.376,279.786,66.7272,116.36,82.0391,0.052771,5.50035,13.1607,15.0845,3.12814,0.0,0.0
468,116.75,222.791,291.704,64.0016,116.355,83.8928,0.0534705,5.59502,13.0131,13.6231,2.92776,0.0,0.0
480,119.75,229.481,302.303,72.7014,116.35,71.3795,0.0549321,5.54501,13.0863,12.1316,4.37312,0.0,0.0
492,122.75,234.612,309.886,72.0648,116.35,76.68,0.0573529,5.42719,13.2772,10.7903,3.73196,0.0,0.0
504,125.75,239.295,316.048,74.9553,116.338,73.9624,0.0593904,5.26007,13.4908,9.39901,4.05403,0.0,0.0
516,128.75,243.148,321.14,77.3986,116.346,75.3348,0.0576965,4.98031,13.8982,8.29795,3.89012,0.0,0.0
528,131.75,245.217,323.163,81.8531,116.343,76.5865,0.0531219,4.37881,14.8141,7.22693,3.74234,0.0,0.0
540,134.75,243.783,319.898,81.763,116.351,74.8165,0.046695,3.71335,16.0024,6.3661,3.95231,0.0,0.0
552,137.75,240.026,312.884,94.6967,116.344,73.1892,0.0416664,3.00413,17.0145,5.62539,4.14859,0.0,0.0
564,140.75,235.336,304.917,102.588,116.37,71.8355,0.0380629,2.50865,17.6225,4.92472,4.31763,0.0,0.0
576,143.75,229.062,295.381,108.837,116.354,74.9695,0.0318282,2.05667,18.3866,4.40422,3.93424,0.0,0.0
588,146.75,222.358,284.539,118.583,116.365,81.3426,0.0243686,1.59119,19.0219,4.00384,3.20481,0.0,0.0
600,149.75,213.628,271.719,126.556,116.365,95.2372,0.0169858,1.15129,19.6434,3.85369,1.79332,0.0,0.0
612,152.75,205.033,259.463,136.595,116.364,107.644,0.0115201,0.784722,20.2046,3.82366,0.697162,0.0,0.0
624,155.75,195.365,245.907,136.514,116.368,108.995,0.008067,0.493033,20.5836,3.81365,0.585897,0.0,0.0
636,158.75,185.282,232.158,138.267,116.37,109.015,0.00619747,0.329483,20.7738,3.81365,0.584315,0.0,0.0
648,161.75,177.582,220.588,138.999,116.371,108.739,0.00488141,0.239741,20.8564,3.7536,0.607112,0.0,0.0
660,164.75,169.447,209.381,145.409,116.375,108.922,0.00396641,0.191725,20.9011,3.80365,0.592395,0.0,0.0
672,167.75,162.141,200.027,138.999,116.368,109.017,0.00362015,0.162096,20.9241,3.73358,0.584092,0.0,0.0
684,170.75,155.945,191.074,141.318,116.376,108.672,0.00326346,0.141984,20.9401,3.73358,0.613089,0.0,0.0
696,173.75,150.239,182.22,142.694,116.364,108.51,0.00280657,0.128631,20.9479,3.72357,0.625457,0.0,0.0
708,176.75,144.32,174.599,142.549,116.354,108.72,0.00259042,0.116852,20.9519,3.71356,0.607398,0.0,0.0
720,179.75,138.996,167.332,138.344,116.331,108.781,0.0021963,0.108015,20.9591,3.70355,0.60059,0.0,0.0
732,182.75,134.735,160.259,138.715,116.334,108.276,0.00185185,0.100956,20.9665,3.66351,0.64247,0.0,0.0
744,185.75,129.855,154.174,146.214,116.32,108.776,0.00161669,0.0948789,20.9729,3.66351,0.600189,0.0,0.0
756,188.75,125.872,148.687,145.48,116.3,108.382,0.00159861,0.0904891,20.9767,3.68353,0.631109,0.0,0.0
768,191.75,122.188,143.047,141.239,116.275,108.35,0.00152109,0.0869636,20.9812,3.71356,0.631829,0.0,0.0
780,194.75,118.479,138.13,145.828,116.254,107.895,0.00133198,0.0843733,20.9842,3.68353,0.667925,0.0,0.0
792,197.75,114.87,133.071,144.513,116.241,108.535,0.00121637,0.0822211,20.9838,3.69354,0.613917,0.0,0.0
804,200.75,111.863,128.828,139.825,116.202,108.472,0.00117539,0.0805357,20.9842,3.69354,0.616175,0.0,0.0
816,203.75,108.886,124.21,141.578,116.186,108.098,0.00103569,0.0791505,20.9861,3.68353,0.645807,0.0,0.0
828,206.75,106.565,121.021,145.87,116.16,108.118,0.000954618,0.0777314,20.9867,3.69354,0.642125,0.0,0.0
840,209.75,103.828,117.523,142.741,116.139,108.271,0.00107608,0.076717,20.9883,3.67352,0.62789,0.0,0.0
852,212.75,101.254,114.174,138.477,116.119,108.294,0.000974913,0.0757929,20.9893,3.64349,0.624444,0.0,0.0
864,215.75,98.9402,110.984,145.305,116.092,107.619,0.000737543,0.0749743,20.9903,3.64349,0.678279,0.0,0.0
876,218.75,96.8222,108.193,141.421,116.07,108.316,0.000612168,0.0741673,20.9906,3.67352,0.618809,0.0,0.0
888,221.75,94.5941,105.356,146.364,116.052,108.176,0.000595178,0.073707,20.9899,3.64349,0.629043,0.0,0.0
900,224.75,93.2676,102.796,139.353,116.023,107.35,0.000579647,0.0730027,20.9897,3.63348,0.695453,0.0,0.0
912,227.75,91.3546,100.642,148.085,116.009,107.733,0.000662473,0.0724881,20.9896,3.67352,0.662449,0.0,0.0
924,230.75,89.9418,98.0793,144.097,116,107.814,0.000669421,0.072087,20.9896,3.70355,0.655043,0.0,0.0
936,233.75,87.7554,95.7689,143.124,115.984,107.983,0.000392162,0.0716038,20.9896,3.67352,0.639775,0.0,0.0
948,236.75,85.9731,92.9261,144.85,115.975,108.093,0.000384581,0.0709951,20.992,3.69354,0.629948,0.0,0.0
960,239.75,85.0077,91.4537,143.363,115.957,107.616,0.000595003,0.0706933,20.9936,3.6535,0.668205,0.0,0.0
972,242.75,83.6218,89.9871,140.096,115.957,108.147,0.000711497,0.0702903,20.994,3.71356,0.624123,0.0,0.0
984,245.75,82.9463,88.6151,147.295,115.954,107.85,0.000755619,0.0698728,20.9948,3.68353,0.648484,0.0,0.0
996,248.75,81.3617,86.6239,144.715,115.952,108.265,0.000767472,0.0699523,20.9934,3.6535,0.613974,0.0,0.0
1008,251.75,80.775,84.7735,142.965,115.941,107.779,0.000817141,0.0701562,20.9916,3.6535,0.653376,0.0,0.0
1020,254.75,79.2649,83.6616,139.861,115.92,107.965,0.000898015,0.0709141,20.99,3.6535,0.636309,0.0,0.0
1032,257.75,78.3449,82.7291,144.631,115.923,108.202,0.000766901,0.0713818,20.9886,3.63348,0.616959,0.0,0.0
1044,260.75,77.2597,80.9579,145.545,115.9,107.795,0.000625681,0.0714797,20.988,3.64349,0.648917,0.0,0.0
1056,263.75,76.3118,80.0725,143.615,115.889,107.729,0.000728606,0.0717155,20.9864,3.6535,0.653489,0.0,0.0
1068,266.75,75.8007,78.7486,145.076,115.863,107.595,,0.0717035,,3.6535,0.662629,0.0,0.0
1080,269.75,74.8017,77.5969,146.351,115.838,108.089,,,,3.63348,0.619684,0.0,0.0
1092,272.75,74.3175,76.9732,144.574,115.814,107.917,,,,3.63348,0.63211,0.0,0.0
1104,275.75,73.0895,75.2319,148.953,115.787,108.045,,,,3.62347,0.619426,0.0,0.0
1109,277,73.3415,75.1964,141.697,115.779,108.269,,,,3.63348,0.600308,0.0,0.0