File: 01_Data/Nylon/Cone/Nylon_Cone_HF50Scan_220225_R2.csv
Names,Time,Stack TC,Smoke TC,Exh Press,Smoke Comp,Smoke Meas,CO Meter,CO2 Meter,O2 Meter,Sample Mass,Ext Coeff,Start Test,Flame Verif
Chan Gain,,500,500,1,1,1,1,1,1,1,1,1.0,1.0
Offset,,0,0,0.136092,0,0,0,0,0,0,0,0.0,0.0
Gain,,1,1,25.011,15.4219,15.1528,1,1,1,1.00089,1.02113,1.0,1.0
Units,sec,C,C,Pa,%,%,%,%,%,g,/m,,
Baseline,,40.1408,41.2749,153.58,116.672,109.604,-0.0098152,0.0410979,21.0065,-0.13929,0.559806,,
17,4,33.5609,34.1973,150.943,114.59,106.833,-0.00963836,0.0420208,21.0055,908.024,0.627852,0.0,0.0
34,8.25,33.9083,34.7931,153.265,114.556,107.275,-0.0098862,0.0415482,21.0059,908.114,0.588138,0.0,0.0
51,12.5,33.7584,34.36,152.561,114.54,107.499,-0.0100012,0.040845,21.0055,908.014,0.568294,0.0,0.0
68,16.75,34.1157,34.9774,155.934,114.569,107.732,-0.0100195,0.0407853,21.008,907.994,0.551138,0.0,0.0
85,21,35.0771,35.5198,158.243,114.597,107.407,-0.00986134,0.0409766,21.0098,907.984,0.580416,0.0,0.0
102,25.25,35.3465,36.0463,154.704,114.658,107.249,-0.00994818,0.040988,21.0101,908.054,0.598397,0.0,0.0
119,29.5,35.3652,36.2008,153.303,114.73,107.84,-0.0100559,0.0407361,21.0101,907.974,0.554721,0.0,0.0
136,33.75,35.3946,36.3154,153.503,114.819,108.073,-0.0100275,0.0404122,21.0097,907.904,0.542328,0.0,0.0
153,38,36.1328,36.6065,152.746,114.876,107.577,-0.00997386,0.040608,21.0087,907.834,0.587987,0.0,0.0
170,42.25,36.3208,36.9766,151.404,114.966,107.55,-0.0100025,0.0407286,21.0062,907.934,0.59734,0.0,0.0
187,46.5,36.595,37.5776,156.699,115.048,107.404,-0.00989513,0.0409677,21.0051,907.834,0.615819,0.0,0.0
204,50.75,36.514,37.3862,154.254,115.132,107.4,-0.00975682,0.0412522,21.005,907.634,0.622688,0.0,0.0
221,55,36.1692,37.349,154.776,115.162,106.868,-0.00974079,0.041496,21.0054,907.694,0.669491,0.0,0.0
238,59.25,36.1504,37.7526,153.383,115.188,105.339,-0.00978792,0.0420618,21.005,907.654,0.800645,0.0,0.0
255,63.5,36.7181,37.59,153.061,115.244,106.446,-0.0095101,0.0423352,21.0057,907.614,0.711315,0.0,0.0
272,67.75,37.1066,38.1886,148.605,115.308,107.393,-0.00892204,0.0491493,20.9954,907.534,0.636948,0.0,0.0
289,72,38.0002,39.1545,145.262,115.349,106.666,-0.00892265,0.111544,20.8875,907.504,0.700966,0.0,1.0
306,76.25,38.7234,40.8498,141.717,115.374,106.872,-0.00842756,0.219155,20.7296,907.193,0.685674,0.0,0.0
323,80.5,42.0338,44.2999,131.975,115.369,105.038,-0.00794331,0.345954,20.5351,906.813,0.840281,0.0,0.0
340,84.75,45.8711,48.5939,134.243,115.382,105.555,-0.00745674,0.453307,20.3947,906.393,0.797329,0.0,0.0
357,89,49.6111,52.9892,127.348,115.373,104.603,-0.00645366,0.573033,20.2082,905.892,0.877796,0.0,0.0
374,93.25,54.5072,59.1488,121.617,115.36,104.419,-0.00561935,0.721638,19.9672,905.392,0.892543,0.0,0.0
391,97.5,59.8685,65.8039,117.259,115.373,103.203,-0.00493397,0.85135,19.7737,904.671,0.998471,0.0,0.0
408,101.75,65.7752,72.8043,118.884,115.38,101.391,-0.00416525,0.945204,19.6203,903.901,1.1577,0.0,0.0
425,106,71.7567,79.8695,110.462,115.36,100.865,-0.00310309,1.02138,19.5077,903.34,1.20274,0.0,0.0
442,110.25,76.8917,86.5412,115.105,115.39,100.925,-0.00256839,1.05331,19.4583,902.599,1.19974,0.0,0.0
459,114.5,82.0505,93.0186,112.502,115.445,99.6143,-0.00211198,1.11011,19.3702,901.839,1.32105,0.0,0.0
476,118.75,86.3479,98.4553,108.84,115.461,97.976,-0.00175724,1.14114,19.3214,901.108,1.47084,0.0,0.0
493,123,91.6269,104.432,110.537,115.553,98.9984,-0.00182844,1.16613,19.284,900.387,1.38504,0.0,0.0
510,127.25,95.7113,109.531,110.994,115.612,97.3272,-0.00168569,1.17422,19.2679,899.467,1.5421,0.0,0.0
527,131.5,99.1357,113.505,115.482,115.7,97.4816,-0.00104824,1.19973,19.2348,898.766,1.53472,0.0,0.0
544,135.75,102.491,117.776,107.581,115.728,97.9195,-0.000455328,1.23864,19.1717,898.035,1.49672,0.0,0.0
561,140,105.869,122.088,108.369,115.795,96.0541,-0.000484737,1.24958,19.1473,897.335,1.67421,0.0,0.0
578,144.25,108.853,125.705,110.383,115.873,94.6627,0.000163218,1.27702,19.1048,896.434,1.81096,0.0,0.0
595,148.5,112.124,129.516,105.058,115.876,95.2818,0.00083146,1.35589,18.9769,895.573,1.75278,0.0,0.0
612,152.75,116.197,134.443,103.365,115.896,94.9498,0.00169332,1.45959,18.8387,894.742,1.78561,0.0,0.0
629,157,120.157,139.163,100.065,115.954,91.5427,0.00233088,1.53983,18.7162,893.832,2.11741,0.0,0.0
646,161.25,123.965,144.118,99.5811,115.975,88.5558,0.00389188,1.64278,18.5292,892.811,2.4161,0.0,0.0
663,165.5,129.007,150.994,92.7696,116.005,88.7117,0.00669768,1.86491,18.2262,891.78,2.40271,0.0,0.0
680,169.75,134.534,157.778,94.2634,115.993,88.0481,0.00848421,2.01092,18.0149,890.479,2.46906,0.0,0.0
697,174,139.64,164.518,91.0904,115.957,86.4902,0.0102487,2.14612,17.8195,889.378,2.62617,0.0,0.0
714,178.25,145.348,171.795,87.2015,115.938,86.2603,0.0121427,2.3124,17.5853,888.047,2.64851,0.0,0.0
731,182.5,150.678,179.318,89.9234,115.981,83.268,0.013486,2.44361,17.3866,886.895,2.96806,0.0,0.0
748,186.75,156.803,187.262,90.4134,116.036,83.3549,0.0150786,2.57207,17.2024,885.624,2.96301,0.0,0.0
765,191,162.506,195.018,91.2103,116.07,82.2853,0.0159788,2.64223,17.1023,884.293,3.0813,0.0,0.0
782,195.25,167.386,201.376,95.1839,116.121,80.9951,0.0162393,2.60169,17.1449,883.032,3.22678,0.0,0.0
799,199.5,171.324,206.754,94.0565,116.146,82.277,0.016429,2.54245,17.2065,881.831,3.08809,0.0,0.0
816,203.75,174.03,210.402,91.1866,116.091,82.3921,0.015912,2.41917,17.3974,880.73,3.07132,0.0,0.0
833,208,175.993,212.581,86.5177,116,81.059,0.0151867,2.30135,17.5725,879.529,3.21039,0.0,0.0
850,212.25,177.98,214.498,97.7409,115.957,80.7686,0.0150979,2.19748,17.7062,878.198,3.23919,0.0,0.0
867,216.5,177.458,213.817,97.8317,115.875,79.0594,0.013714,1.97494,18.0678,877.417,3.42444,0.0,0.0
884,220.75,175.64,210.527,104.355,115.8,78.1716,0.0123923,1.73876,18.3692,876.476,3.51982,0.0,0.0
901,225,172.826,206.571,104.356,115.752,79.6823,0.0106053,1.53942,18.6573,875.635,3.34465,0.0,0.0
918,229.25,169.529,201.761,113.886,115.697,78.6899,0.0083989,1.307,19.0206,875.015,3.45268,0.0,0.0
935,233.5,165.02,195.411,116.425,115.649,80.9494,0.00668316,1.12302,19.2948,874.414,3.19539,0.0,0.0
952,237.75,160.347,188.89,118.051,115.626,80.9776,0.00486765,0.975042,19.5481,873.774,3.19045,0.0,0.0
969,242,155.228,181.816,120.483,115.856,84.9568,0.00255839,0.817611,19.775,873.223,2.77858,0.0,0.0
986,246.25,149.664,174.744,127.683,116.105,86.9299,-0.000167337,0.66195,20.0039,872.783,2.59219,0.0,0.0
1003,250.5,143.806,166.738,130.9,116.313,93.9394,-0.00254431,0.504432,20.2764,872.723,1.91357,0.0,0.0
1020,254.75,136.827,158.094,135.182,116.465,97.6476,-0.00409463,0.375399,20.4847,872.483,1.57852,0.0,0.0
1037,259,131.903,151.225,143.691,116.568,99.4645,-0.0052404,0.290451,20.6277,872.363,1.42124,0.0,0.0
1054,263.25,126.163,143.723,139.984,116.599,100.592,-0.00620388,0.230028,20.7231,872.263,1.32267,0.0,0.0
1071,267.5,119.618,135.777,141.088,116.634,102.552,-0.00712984,0.179455,20.8002,872.182,1.15251,0.0,0.0
1088,271.75,115.334,130.231,138.402,116.638,104.277,-0.007837,0.1418,20.8584,872.192,1.00336,0.0,0.0
1105,276,110.403,124.046,144.658,116.621,104.416,-0.00840853,0.113261,20.9005,872.162,0.990189,0.0,0.0
1122,280.25,105.971,118.478,142.548,116.594,105.966,-0.00876322,0.0974132,20.9258,872.072,0.856138,0.0,0.0
1139,284.5,102.017,113.262,148,116.534,106.246,-0.00914801,0.0808121,20.9498,871.992,0.827812,0.0,0.0
1156,288.75,97.1019,106.944,148.141,116.399,105.968,-0.00916047,0.0662666,20.9724,871.892,0.840997,0.0,0.0
1173,293,93.8258,102.798,145.072,116.22,106.639,-0.00922262,0.0570587,20.9849,872.092,0.770614,0.0,0.0
1190,297.25,89.9049,98.1943,150.533,116.032,105.887,-0.00942099,0.0535324,20.9905,871.932,0.819546,0.0,0.0
1207,301.5,87.7047,94.8688,148.199,116.057,106.087,-0.00939882,0.0508452,20.9941,871.922,0.804552,0.0,0.0
1224,305.75,84.6994,91.2662,145.096,116.124,106.193,-0.00953766,0.0491801,20.9955,871.942,0.800809,0.0,0.0
1241,310,82.5762,88.4842,145.914,116.224,106.856,-0.00974826,0.0485514,20.9965,872.012,0.75274,0.0,0.0
1258,314.25,79.8799,85.8354,150.739,116.313,105.948,-0.00970763,0.0478259,20.9982,872.012,0.836087,0.0,0.0
1275,318.5,77.9666,82.449,144.735,116.44,106.438,-0.00973245,0.0473504,20.9994,872.092,0.804522,0.0,0.0
1292,322.75,75.2646,79.7278,146.952,116.53,106.773,-0.00975403,0.0471829,21.0005,872.062,0.783265,0.0,0.0
1309,327,74.3316,78.0228,149.482,116.599,106.422,-0.00984706,0.0467317,21.0003,871.992,0.818038,0.0,0.0
1326,331.25,72.5093,75.9743,145.764,116.656,106.314,-0.00977663,0.0461745,21.0018,871.982,0.83156,0.0,0.0
1343,335.5,71.159,74.2355,146.821,116.726,107.497,-0.00962386,0.0459537,21.0021,872.002,0.737794,0.0,0.0
1360,339.75,69.906,72.2846,143.231,116.802,106.575,-0.00962743,0.0459366,21.0015,872.012,0.820772,0.0,0.0
1377,344,68.8568,71.2459,144.554,116.856,106.707,-0.00980587,0.0457663,21.0011,872.002,0.813852,0.0,0.0
1394,348.25,67.1215,69.5213,148.128,116.909,106.912,-0.00987042,0.045477,21.001,872.002,0.800634,0.0,0.0
1411,352.5,66.1592,68.1926,146.286,116.986,107.167,-0.00982428,0.0448628,21.0003,872.012,0.785224,0.0,0.0
1428,356.75,65.1372,66.5929,147.076,116.985,107.251,-0.00985171,0.044465,21.0002,872.052,0.77812,0.0,0.0
1445,361,64.5446,65.274,151.753,117.002,107.034,-0.00992869,0.0441141,21.0007,872.052,0.797626,0.0,0.0
1462,365.25,63.3752,65.2895,145.601,116.988,107.76,-0.00974385,0.0437644,21.0027,872.072,0.735991,0.0,0.0
1479,369.5,62.6657,63.748,143.672,116.946,106.913,-0.0100588,0.0436305,21.0038,872.062,0.803405,0.0,0.0
1496,373.75,62.2123,62.791,151,116.829,107.035,-0.0101704,0.0434286,21.0042,871.972,0.784242,0.0,0.0
1513,378,61.0552,61.5283,148.014,116.776,106.849,-0.0101358,0.0429822,21.0059,871.912,0.795844,0.0,0.0
1530,382.25,60.8247,61.0363,146.307,116.704,106.907,-0.00991448,0.0426275,21.0055,871.932,0.785325,0.0,0.0
1547,386.5,59.7774,60.0317,145.409,116.569,107.202,-0.00990349,0.0423938,21.0046,872.012,0.750339,0.0,0.0
1564,390.75,59.2845,59.6079,148.354,116.445,107.613,-0.00990257,0.0423606,21.004,871.972,0.706505,0.0,0.0
1581,395,59.1365,59.1351,147.788,116.304,106.351,-0.00982614,0.0422036,21.0037,871.962,0.801371,0.0,0.0
1598,399.25,58.5304,58.2553,148.043,116.159,106.316,,0.0420196,,871.852,0.793122,0.0,0.0
1615,403.5,57.5708,58.2122,147.618,116.019,105.631,,,,871.952,0.840187,0.0,0.0
1631,407.5,56.859,56.9134,145.63,115.887,107.139,,,,872.002,0.703006,0.0,0.0