File: 01_Data/Nylon/Cone/Nylon_Cone_HF25Scan_220225_R2.csv
Names,Time,Stack TC,Smoke TC,Exh Press,Smoke Comp,Smoke Meas,CO Meter,CO2 Meter,O2 Meter,Sample Mass,Ext Coeff,Start Test,Flame Verif
Chan Gain,,500,500,1,1,1,1,1,1,1,1,1.0,1.0
Offset,,0,0,0.136092,0,0,0,0,0,0,0,0.0,0.0
Gain,,1,1,25.011,15.4219,15.1528,1,1,1,1.00089,1.02113,1.0,1.0
Units,sec,C,C,Pa,%,%,%,%,%,g,/m,,
Baseline,,23.4382,24.6506,161.034,115.723,115.758,-0.00947113,0.0767725,20.8877,-0.0163478,-0.00271603,,
43,10.5,21.1802,22.1679,160.946,115.837,116.131,-0.00946568,0.0786935,20.8846,907.273,-0.0227241,0.0,0.0
86,21.25,21.2318,22.1042,162.541,115.845,115.817,-0.00931816,0.0776311,20.8839,907.213,0.00218122,0.0,0.0
129,32,21.8887,22.6427,160.669,115.823,116.234,-0.00976387,0.0769486,20.8841,907.183,-0.0316934,0.0,0.0
172,42.75,22.2053,22.6125,165.836,115.78,115.988,-0.00946893,0.0762573,20.8935,907.203,-0.0161365,0.0,0.0
215,53.5,21.7697,22.79,162.864,115.703,115.966,-0.00975262,0.0762488,20.896,907.143,-0.0203233,0.0,0.0
258,64.25,22.3831,22.9823,160.882,115.583,115.858,-0.00950505,0.0767275,20.8889,907.093,-0.0212565,0.0,0.0
301,75,22.254,23.2377,160.005,115.385,115.627,-0.00923537,0.0767807,20.8874,907.123,-0.0188037,0.0,0.0
344,85.75,22.4868,23.0179,161.718,115.056,115.325,-0.00975033,0.0752867,20.8944,907.043,-0.020883,0.0,0.0
387,96.5,22.7224,23.3518,160.544,114.771,114.819,-0.0100631,0.0734332,20.9024,907.023,-0.00373483,0.0,0.0
430,107.25,22.6948,23.7778,159.649,114.496,114.594,-0.00963974,0.0738432,20.9007,906.983,-0.00769884,0.0,0.0
473,118,22.8973,23.9726,159.516,114.262,114.591,-0.0096377,0.0746612,20.8971,906.933,-0.0257632,0.0,0.0
516,128.75,22.0561,23.6082,156.446,114.087,113.751,-0.00970743,0.0752024,20.8972,906.853,0.0264218,0.0,0.0
559,139.5,22.7575,24.2634,160.74,113.961,113.765,-0.00985143,0.0754035,20.8969,906.853,0.0153853,0.0,0.0
602,150.25,23.0043,24.4813,159.256,113.91,113.245,-0.00963768,0.0758177,20.8944,906.853,0.0524804,0.0,0.0
645,161,23.0797,24.2197,158.13,113.878,113.205,-0.00960222,0.0769707,20.8911,906.653,0.0531088,0.0,0.0
688,171.75,23.2789,24.3932,157.297,113.889,113.464,-0.009565,0.0772481,20.8896,906.593,0.0334936,0.0,0.0
731,182.5,23.2451,24.8064,165.614,113.887,113.571,-0.0096907,0.0767178,20.8919,906.553,0.0248439,0.0,0.0
774,193.25,23.3588,25.3098,160.1,113.917,113.241,-0.00966938,0.078132,20.8897,906.513,0.0533285,0.0,0.0
817,204,23.9185,24.1331,157.68,113.926,113.637,-0.0092704,0.0782745,20.8886,906.503,0.0227747,0.0,0.0
860,214.75,23.4668,24.9132,163.176,113.89,113.811,-0.00942619,0.0762833,20.8954,906.393,0.00619316,0.0,0.0
903,225.5,22.9673,24.7223,159.617,113.852,112.199,-0.00949633,0.0769625,20.898,906.273,0.130973,0.0,0.0
946,236.25,23.3945,24.3997,157.398,113.899,113.53,-0.00927491,0.0763881,20.9027,906.263,0.0290894,0.0,0.0
989,247,23.6467,24.9856,161.222,114.008,107.796,-0.00909455,0.0734047,20.9128,906.163,0.501866,0.0,0.0
1032,257.75,23.6423,24.5188,162.239,114.175,113.948,-0.00925344,0.0711559,20.9179,906.243,0.0178665,0.0,0.0
1075,268.5,23.5799,24.7963,162.68,114.458,114.229,-0.00984473,0.072263,20.9145,906.243,0.0179198,0.0,0.0
1118,279.25,23.2926,25.0654,159.806,114.911,112.962,-0.00987218,0.0678485,20.924,906.073,0.153228,0.0,0.0
1161,290,23.6155,25.5296,157.73,115.366,114.504,-0.00952728,0.0684618,20.9283,906.143,0.067246,0.0,0.0
1204,300.75,23.8175,25.0929,156.508,115.769,115.403,-0.00937319,0.0662768,20.9328,906.102,0.0283869,0.0,0.0
1247,311.5,23.6629,25.1073,160.964,116.115,115.379,-0.00929376,0.0650759,20.9399,905.972,0.0569059,0.0,0.0
1290,322.25,23.1562,25.6147,162.172,116.308,116,-0.00971458,0.0636411,20.9436,905.912,0.02373,0.0,0.0
1333,333,23.3633,25.0606,162.035,116.383,116.541,-0.00984251,0.062567,20.9466,905.832,-0.0121538,0.0,0.0
1376,343.75,24.0994,25.1904,158.56,116.308,115.48,-0.0096478,0.0612199,20.9494,905.822,0.0639558,0.0,0.0
1419,354.5,23.5587,24.9395,159.844,116.1,115.742,-0.00966094,0.0606654,20.9519,905.812,0.0276429,0.0,0.0
1462,365.25,24.5411,25.5892,163.757,115.886,115.557,-0.00951883,0.0600832,20.9498,905.732,0.0254327,0.0,0.0
1505,376,23.4563,25.511,162.279,115.72,115.881,-0.00976543,0.058702,20.9537,905.432,-0.0124371,0.0,0.0
1548,386.75,23.3859,25.2023,160.126,115.631,115.373,-0.00999643,0.058348,20.9607,905.742,0.0200445,0.0,0.0
1591,397.5,23.1974,25.3797,156.932,115.594,115.136,-0.0100171,0.0572037,20.9627,905.722,0.0355645,0.0,0.0
1634,408.25,23.6746,25.717,161.531,115.597,115.716,-0.00971051,0.0561112,20.9678,905.662,-0.00918126,0.0,0.0
1677,419,22.9028,24.4777,158.675,115.629,115.634,-0.00973599,0.0552026,20.9686,905.792,-0.000399361,0.0,0.0
1720,429.75,23.8213,25.1737,162.274,115.68,115.653,-0.00977239,0.055023,20.9711,905.702,0.00206913,0.0,0.0
1763,440.5,23.4991,25.0556,160.31,115.725,115.194,-0.00965733,0.0545407,20.9755,905.562,0.0411284,0.0,0.0
1806,451.25,23.5693,24.7755,161.889,115.703,115.247,-0.00974826,0.0536898,20.9735,905.512,0.0354273,0.0,0.0
1849,462,23.2726,24.8156,163.571,115.747,115.529,-0.0098434,0.0530269,20.9769,905.382,0.0168456,0.0,0.0
1892,472.75,23.8735,25.3632,156.082,115.796,115.202,-0.00989234,0.0521851,20.9791,905.572,0.0460886,0.0,0.0
1935,483.5,23.4576,24.8691,159.035,115.932,115.959,-0.00944462,0.0513124,20.9814,905.292,-0.00213369,0.0,0.0
1978,494.25,23.7774,24.9003,160.476,116.134,115.542,-0.00966931,0.0510435,20.9839,905.402,0.0457657,0.0,0.0
2021,505,23.6579,24.8232,161.003,116.331,115.94,-0.00971745,0.0505255,20.9863,905.302,0.0301494,0.0,0.0
2064,515.75,23.7296,24.9144,159.777,116.4,115.406,-0.00997293,0.0503968,20.987,905.262,0.0768702,0.0,0.0
2107,526.5,24.0611,24.6989,160.498,116.339,115.581,-0.00981298,0.0504307,20.987,905.392,0.0586045,0.0,0.0
2150,537.25,23.2533,25.431,158.195,115.992,116.324,-0.00972169,0.0521147,20.9839,905.302,-0.0255838,0.0,0.0
2193,548,24.3772,25.6399,159.077,115.31,115.161,-0.00983312,0.0648316,20.9652,905.132,0.0115673,0.0,0.0
2236,558.75,24.784,25.7851,158.194,114.557,114.583,-0.00923843,0.0702898,20.9565,905.182,-0.00197295,0.0,0.0
2279,569.5,25.1747,26.7243,157.098,114.08,113.194,-0.00941331,0.0782021,20.9465,905.082,0.0698178,0.0,0.0
2322,580.25,24.9377,27.2815,154.835,113.883,111.432,-0.00911851,0.0981612,20.9115,904.821,0.194872,0.0,0.0
2365,591,26.3953,28.2537,157.038,113.859,110.563,-0.0088245,0.137737,20.8541,904.701,0.263103,0.0,0.0
2408,601.75,28.3775,30.3484,150.545,113.862,109.147,-0.00821328,0.169737,20.8038,904.461,0.378817,0.0,0.0
2451,612.5,30.477,32.9086,148.472,113.89,107.826,-0.00795462,0.187795,20.7816,904.001,0.490045,0.0,0.0
2494,623.25,32.0221,34.7974,152.549,113.891,108.289,-0.00755256,0.206962,20.7481,903.63,0.451712,0.0,0.0
2537,634,33.7439,36.7004,150.285,113.883,105.127,-0.00687916,0.251147,20.6823,903.35,0.71653,0.0,0.0
2580,644.75,37.2951,40.7049,147.09,113.871,103.593,-0.00595679,0.314776,20.5827,902.619,0.84734,0.0,0.0
2623,655.5,40.3563,44.2606,145.522,113.868,101.631,-0.00431356,0.376628,20.4838,901.989,1.01832,0.0,0.0
2666,666.25,42.5251,46.873,137.575,113.861,99.4872,-0.00347334,0.43387,20.3895,901.098,1.20881,0.0,0.0
2709,677,47.5852,52.924,137.469,113.859,99.9931,-0.00364373,0.503025,20.2855,900.207,1.16315,0.0,0.0
2752,687.75,52.2588,58.1741,132.419,113.834,95.0566,-0.00217351,0.596082,20.1307,898.836,1.61471,0.0,0.0
2795,698.5,57.612,64.8398,128.136,113.833,95.2846,-0.000781747,0.718102,19.9434,897.895,1.59314,0.0,0.0
2838,709.25,64.2874,72.5264,128.133,113.838,93.3716,0.0011671,0.861032,19.7219,896.274,1.77525,0.0,0.0
2881,720,71.4131,81.4198,116.863,113.849,92.2673,0.00159525,0.985861,19.5128,894.502,1.88267,0.0,0.0
2924,730.75,78.6845,90.5668,114.956,113.849,90.6506,0.00198885,1.06238,19.418,892.651,2.04097,0.0,0.0
2967,741.5,85.3414,98.3145,111.219,113.853,90.7912,0.00316002,1.12245,19.3194,890.739,2.02742,0.0,0.0
3010,752.25,91.4655,105.742,117.438,113.843,90.3593,0.0031997,1.14681,19.2863,888.937,2.0694,0.0,0.0
3053,763,95.9673,111.399,121.177,113.854,88.6899,0.00383698,1.18091,19.231,886.966,2.23724,0.0,0.0
3096,773.75,101.613,117.896,115.343,113.868,88.2936,0.00479239,1.24098,19.1306,884.904,2.2785,0.0,0.0
3139,784.5,107.303,124.78,121.799,113.866,88.6923,0.00550248,1.34611,18.9815,882.802,2.23797,0.0,0.0
3182,795.25,111.826,129.926,117.055,113.934,87.3008,0.00582608,1.32324,19.0171,880.84,2.38498,0.0,0.0
3225,806,113.913,132.071,115.896,114.059,86.6756,0.00511741,1.19913,19.2102,878.718,2.45919,0.0,0.0
3268,816.75,112.883,130.723,123.952,114.197,87.6587,0.00484084,1.08659,19.3709,876.837,2.36895,0.0,0.0
3311,827.5,112.186,129.55,121.921,114.417,85.7729,0.00458641,1.02721,19.4618,875.155,2.58101,0.0,0.0
3354,838.25,109.377,125.739,129.111,114.739,87.7202,0.0023773,0.859939,19.7172,873.824,2.40509,0.0,0.0
3397,849,104.376,119.4,126.107,114.974,93.9824,-0.000402865,0.674018,20.0176,872.563,1.8058,0.0,0.0
3440,859.75,97.6445,110.789,140.161,115.176,97.6768,-0.00366733,0.467772,20.3484,871.432,1.47616,0.0,0.0
3483,870.5,89.3869,100.51,143.85,115.416,102.311,-0.00649486,0.289297,20.6329,871.132,1.07959,0.0,0.0
3526,881.25,80.8856,89.8316,158.608,115.578,107.897,-0.00801784,0.17799,20.8068,870.831,0.615969,0.0,0.0
3569,892,70.7084,78.1272,154.787,115.684,113.214,-0.00975213,0.0615747,20.9786,870.951,0.193303,0.0,0.0
3612,902.75,63.6435,68.4169,157.282,115.782,113.289,-0.00992025,0.046606,21.0033,871.031,0.194991,0.0,0.0
3655,913.5,57.9526,61.2634,154.177,115.794,113.763,-0.00966823,0.0445534,21.0023,870.961,0.158503,0.0,0.0
3698,924.25,53.0174,55.6625,157.579,115.733,113.521,-0.0100973,0.0438524,21.0043,870.951,0.172832,0.0,0.0
3741,935,49.4385,51.3099,155.725,115.563,113.479,-0.0101785,0.0432228,21.0063,870.891,0.162994,0.0,0.0
3784,945.75,46.2316,47.6675,157.515,115.427,113.926,-0.00994857,0.0429377,21.0087,870.901,0.117219,0.0,0.0
3827,956.5,43.1635,44.8117,150.652,116.109,114.517,-0.0099134,0.0425563,21.0079,870.951,0.123638,0.0,0.0
3870,967.25,42.5788,42.0589,156.921,116.32,114.47,-0.00991891,0.0424763,21.0057,870.921,0.143651,0.0,0.0
3913,978,40.3741,40.752,154.852,115.966,113.483,-0.00982593,0.0420364,21.0079,870.891,0.19391,0.0,0.0
3956,988.75,38.9506,38.3381,155.319,115.608,114.788,-0.00989786,0.0416839,21.0116,870.961,0.0637533,0.0,0.0
3999,999.5,37.6595,37.1508,158.795,115.982,114.763,,0.0416299,,870.951,0.0946085,0.0,0.0
4035,1008.5,36.1713,35.9206,156.579,116.25,114.407,,,,870.881,0.143136,0.0,0.0