File: 01_Data/Nylon/Cone/Nylon_Cone_HF25-FrameScan_220309_R4.csv
Names,Time,Stack TC,Smoke TC,Exh Press,Smoke Comp,Smoke Meas,CO Meter,CO2 Meter,O2 Meter,Sample Mass,Ext Coeff,Start Test,Flame Verif
Chan Gain,,500,500,1,1,1,1,1,1,1,1,1.0,1.0
Offset,,0,0,0.134647,0,0,0,0,0,0,0,0.0,0.0
Gain,,1,1,25.011,13.2859,13.1681,1,1,1,1.00096,0.993885,1.0,1.0
Units,sec,C,C,Pa,%,%,%,%,%,g,/m,,
Baseline,,21.5654,22.3564,172.915,100.141,96.7738,0.000950196,0.0745696,20.96,-0.434626,0.298203,,
59,14.5,19.9036,20.4361,171.617,99.1362,95.9311,0.00114408,0.07628,20.9578,959.114,0.28652,0.0,0.0
118,29.25,20.1239,20.8366,175.007,99.926,96.9024,0.000782971,0.0787743,20.9537,959.083,0.267876,0.0,0.0
177,44,20.9659,21.1887,172.653,100.54,97.4252,0.000635604,0.0777514,20.9548,959.073,0.274358,0.0,0.0
236,58.75,21.1707,21.5163,171.547,100.742,97.3802,0.000875753,0.0774842,20.9529,959.053,0.295879,0.0,0.0
295,73.5,21.2286,21.5544,169.543,100.512,97.3264,0.000819985,0.0783509,20.9521,959.053,0.280818,0.0,0.0
354,88.25,20.9721,22.121,172.952,100.089,96.9796,0.000266326,0.0777495,20.955,959.013,0.275181,0.0,0.0
413,103,20.9542,21.5817,170.459,100.333,97.1226,0.000849675,0.0767617,20.9541,958.983,0.283495,0.0,0.0
472,117.75,21.5406,21.9618,179.17,100.558,97.9051,0.000683608,0.0760527,20.9557,958.933,0.233107,0.0,0.0
531,132.5,21.4289,22.694,169.678,100.098,96.9277,0.000554391,0.0775465,20.9522,958.893,0.280585,0.0,0.0
590,147.25,21.8457,21.8972,174.25,99.8405,96.3679,0.000775893,0.0763706,20.954,958.883,0.308629,0.0,0.0
649,162,21.3282,22.4068,176.174,100.031,96.7501,0.0006793,0.0768097,20.9526,958.833,0.290711,0.0,0.0
708,176.75,21.9261,22.6772,173.933,100.031,96.6247,0.000489469,0.077909,20.9506,958.763,0.302053,0.0,0.0
767,191.5,22.2674,22.7656,171.628,99.9143,95.6743,0.000827405,0.0771016,20.9527,958.703,0.378047,0.0,0.0
826,206.25,21.8756,22.8022,175.572,99.5725,96.6693,0.000879388,0.0766907,20.9535,958.663,0.25797,0.0,0.0
885,221,22.2365,22.8195,176.201,99.1691,96.1176,0.000932094,0.0786685,20.9511,958.633,0.272479,0.0,0.0
944,235.75,22.517,23.109,171.99,98.8285,95.95,0.000688622,0.0791664,20.9453,958.613,0.257698,0.0,0.0
1003,250.5,22.5852,22.8986,172.043,98.6407,95.9617,0.000838921,0.0791726,20.9461,958.573,0.240064,0.0,0.0
1062,265.25,22.612,23.39,172.299,98.6067,95.7993,0.000491481,0.0782937,20.9477,958.523,0.251816,0.0,0.0
1121,280,22.3571,23.1413,167.254,98.7068,95.5056,0.000803144,0.0774358,20.9487,958.493,0.28744,0.0,0.0
1180,294.75,22.3836,23.3737,175.639,98.9517,96.3165,0.000681448,0.0804014,20.9424,958.473,0.235328,0.0,0.0
1239,309.5,22.4169,23.5777,175.062,99.251,96.0846,0.000920321,0.0852502,20.936,958.453,0.282666,0.0,0.0
1298,324.25,22.6201,23.4616,172.812,99.5319,96.2132,0.000722379,0.0812651,20.9461,958.413,0.295652,0.0,0.0
1357,339,23.0324,23.7617,162.365,99.8324,96.6979,0.000988947,0.0803897,20.9531,958.423,0.278124,0.0,0.0
1416,353.75,22.5051,23.5116,173.669,100.085,97.0161,0.000632556,0.0754271,20.9608,958.373,0.271542,0.0,0.0
1475,368.5,22.8077,23.6325,166.556,100.29,97.2255,0.000182979,0.0757411,20.961,958.353,0.270565,0.0,0.0
1534,383.25,23.0251,23.4805,172.205,100.46,97.6953,0.000641763,0.0812812,20.9545,958.323,0.243333,0.0,0.0
1593,398,22.7519,24.2815,175.159,100.571,97.8199,0.000863405,0.0811093,20.9529,958.273,0.241787,0.0,0.0
1652,412.75,22.511,23.9013,169.4,100.672,97.3682,0.000820574,0.0796613,20.9572,958.313,0.290885,0.0,0.0
1711,427.5,23.4546,23.6271,174.699,100.707,97.977,0.000625114,0.0753019,20.9642,958.263,0.239562,0.0,0.0
1770,442.25,23.2592,24.6733,174.727,100.711,98.9077,0.000863486,0.0755093,20.9605,958.243,0.157521,0.0,0.0
1829,457,22.9909,23.7867,173.33,100.68,98.2788,0.000648682,0.0755308,20.9589,958.223,0.210431,0.0,0.0
1888,471.75,23.2867,24.099,166.672,100.614,97.6294,0.000801801,0.0901542,20.9425,958.213,0.262576,0.0,1.0
1947,486.5,22.8318,23.9041,168.564,100.539,97.4899,0.000686216,0.0786042,20.9542,958.203,0.268535,0.0,0.0
2006,501.25,22.8028,24.5101,172.64,100.473,97.7503,0.000549476,0.0859097,20.9432,958.183,0.239511,0.0,0.0
2065,516,23.0318,24.763,174.076,100.385,97.8323,0.000779732,0.0862927,20.9413,958.123,0.224599,0.0,0.0
2124,530.75,23.181,24.6699,173.789,100.282,97.4272,0.000568527,0.0884455,20.9406,958.052,0.251823,0.0,0.0
2183,545.5,23.2651,24.7616,164.644,100.162,96.8851,0.000847382,0.0904419,20.9398,958.002,0.289994,0.0,0.0
2242,560.25,24.5085,25.4312,166.437,100.061,95.604,0.000974902,0.107789,20.9116,957.892,0.397291,0.0,0.0
2301,575,25.6683,26.67,167.076,99.9937,94.7943,0.00125382,0.137764,20.8683,957.702,0.465546,0.0,0.0
2360,589.75,27.9235,29.0178,169.533,99.9678,93.9102,0.00178967,0.174784,20.8105,957.352,0.544975,0.0,0.0
2419,604.5,32.5336,33.6787,162.015,99.941,90.4823,0.00303203,0.295906,20.6164,956.741,0.866825,0.0,0.0
2478,619.25,39.0116,40.3137,146.834,100.104,88.7905,0.00403061,0.386061,20.4778,955.83,1.04559,0.0,0.0
2537,634,45.4911,47.694,152.266,100.266,87.5624,0.00474476,0.468799,20.3438,954.709,1.18113,0.0,0.0
2596,648.75,52.0359,55.0757,144.739,100.408,86.2969,0.00544656,0.5288,20.2526,953.378,1.32038,0.0,0.0
2655,663.5,59.1274,63.0658,145.611,100.48,86.4062,0.00683332,0.612801,20.1155,951.907,1.31557,0.0,0.0
2714,678.25,66.8434,71.8497,140.359,100.529,84.7675,0.00736789,0.709445,19.9635,950.205,1.48673,0.0,0.0
2773,693,73.9476,79.9795,138.74,100.542,86.0168,0.00786828,0.777678,19.8583,948.313,1.36033,0.0,0.0
2832,707.75,80.3979,87.4533,136.341,100.525,84.4026,0.0085409,0.826986,19.7797,946.281,1.52406,0.0,0.0
2891,722.5,85.6414,93.941,139.553,100.503,85.5611,0.00895386,0.878029,19.7009,944.129,1.40326,0.0,0.0
2950,737.25,90.1667,99.783,123.299,100.473,84.0365,0.00904791,0.891739,19.6737,942.047,1.55742,0.0,0.0
3009,752,94.8038,104.907,127.234,100.408,83.707,0.0101189,0.908431,19.6501,939.865,1.586,0.0,0.0
3068,766.75,96.3045,106.881,134.309,100.303,82.9908,0.00935041,0.826709,19.7772,937.823,1.65179,0.0,0.0
3127,781.5,95.6191,106.292,132.238,100.182,82.9077,0.00863067,0.742903,19.9105,936.021,1.65006,0.0,0.0
3186,796.25,92.8023,103.706,138.244,100.052,83.0117,0.00873625,0.673481,20.0154,934.36,1.62779,0.0,0.0
3245,811,90.0241,99.5005,144.075,99.9325,82.3338,0.00805678,0.564688,20.1921,932.918,1.68885,0.0,0.0
3304,825.75,83.7757,93.2226,146.138,99.95,84.7634,0.00620597,0.4475,20.3778,931.797,1.43682,0.0,0.0
3363,840.5,78.0231,86.412,149.424,100.007,87.122,0.00531217,0.390756,20.4755,930.866,1.20253,0.0,0.0
3422,855.25,71.5387,79.3948,156.985,100.153,87.3808,0.00434523,0.346992,20.542,930.046,1.18939,0.0,0.0
3481,870,66.9175,73.613,154.698,100.349,88.8395,0.00322237,0.303947,20.6066,929.325,1.06208,0.0,0.0
3540,884.75,63.1978,68.5976,154.145,100.551,90.2806,0.00273513,0.264685,20.6689,928.744,0.939318,0.0,0.0
3599,899.5,58.6612,63.9114,156.084,100.717,92.224,0.0025192,0.242834,20.6997,928.264,0.76804,0.0,0.0
3658,914.25,56.172,60.4375,161.259,100.433,93.2162,0.00200777,0.223666,20.7296,927.803,0.650143,0.0,0.0
3717,929,53.1412,56.7929,168.001,99.478,92.4052,0.00178466,0.202864,20.7662,927.423,0.643002,0.0,0.0
3776,943.75,50.2862,53.1147,164.16,98.6233,92.4486,0.00159988,0.181848,20.8022,927.063,0.563679,0.0,0.0
3835,958.5,47.6762,50.2688,166.502,99.1236,93.7695,0.00150097,0.159821,20.8373,926.812,0.48411,0.0,0.0
3894,973.25,45.3255,47.3347,162.873,99.9889,94.3056,0.00153888,0.14362,20.8616,926.612,0.51018,0.0,0.0
3953,988,42.978,44.7351,163.28,99.9159,94.5556,0.00115884,0.136839,20.8677,926.442,0.480737,0.0,0.0
4012,1002.75,40.7485,42.6156,168.076,100.456,95.6418,0.00104425,0.128604,20.8823,926.272,0.428152,0.0,0.0
4071,1017.5,39.4049,40.8731,164.427,100,95.381,0.00128205,0.119769,20.8971,926.132,0.412317,0.0,0.0
4130,1032.25,37.9757,39.5703,173.807,100.702,96.036,0.00110736,0.113776,20.9075,925.992,0.413658,0.0,0.0
4189,1047,37.205,37.7288,163.702,99.8486,94.6825,0.00123694,0.111662,20.9082,925.882,0.463162,0.0,0.0
4248,1061.75,36.7924,37.118,166.947,98.6176,94.6166,0.000976357,0.107303,20.9153,925.771,0.361083,0.0,0.0
4307,1076.5,34.7018,35.4885,167.996,99.4654,95.1407,0.00117821,0.102047,20.9215,925.671,0.387561,0.0,0.0
4366,1091.25,34.1972,34.9769,166.77,100.003,95.51,0.00124947,0.100364,20.923,925.601,0.400817,0.0,0.0
4425,1106,33.8579,34.2112,166.066,99.6953,95.1539,0.00117005,0.0981992,20.9275,925.551,0.406473,0.0,0.0
4484,1120.75,33.3424,33.4698,164.772,100.438,95.6647,0.00104624,0.0925917,20.9369,925.431,0.42448,0.0,0.0
4543,1135.5,32.5417,32.7082,167.31,100.322,95.5783,0.000715975,0.0894353,20.9437,925.371,0.422286,0.0,0.0
4602,1150.25,32.0259,32.1054,168.084,100.688,96.2952,0.000965977,0.0936389,20.9325,925.331,0.388896,0.0,0.0
4661,1165,31.3935,31.557,164.071,99.8887,95.2323,0.000734384,0.0896817,20.9422,925.311,0.416193,0.0,0.0
4720,1179.75,31.4553,31.4613,166.134,98.9213,94.3221,0.00128073,0.0897474,20.9394,925.281,0.415073,0.0,0.0
4779,1194.5,30.8839,30.7998,169.31,98.6334,94.699,0.00103326,0.0896235,20.9438,925.231,0.354893,0.0,0.0
4838,1209.25,30.5529,30.5754,167.914,98.8175,94.8742,0.000818113,0.0851127,20.9497,925.201,0.355033,0.0,0.0
4897,1224,29.7888,30.136,167.018,99.1358,95.1608,0.00101657,0.0830591,20.9523,925.191,0.356778,0.0,0.0
4956,1238.75,29.7422,29.9076,170.809,99.3669,95.4859,0.000664985,0.0819456,20.9535,925.151,0.347345,0.0,0.0
5015,1253.5,29.4652,29.6441,169.846,99.5615,95.6651,0.000667,0.0820918,20.954,925.151,0.348055,0.0,0.0
5074,1268.25,28.6535,28.9334,168.521,99.7407,95.3581,0.000780106,0.0800192,20.9554,925.101,0.391758,0.0,0.0
5133,1283,28.5459,28.7415,167.133,99.8356,96.3061,0.000628477,0.0793139,20.9553,925.101,0.313805,0.0,0.0
5192,1297.75,28.022,27.6352,168.299,99.8522,96.1558,0.00100242,0.0788698,20.9541,925.111,0.328872,0.0,0.0
5251,1312.5,27.3467,28.062,166.876,99.8526,96.3896,0.000451635,0.0779558,20.9586,925.061,0.307728,0.0,0.0
5310,1327.25,27.0035,27.7836,167.874,99.8445,95.7792,0.000754662,0.0810134,20.9479,925.051,0.362407,0.0,0.0
5369,1342,27.7545,27.5903,167.401,99.8599,96.7224,0.000433121,0.0841204,20.934,925.051,0.278321,0.0,0.0
5428,1356.75,27.2753,27.1895,171.327,99.8932,96.114,0.000694087,0.0818309,20.9389,925.051,0.336237,0.0,0.0
5487,1371.5,26.0612,27.166,166.376,99.9086,97.1025,0.000900083,0.0771971,20.9559,925.061,0.248368,0.0,0.0
5546,1386.25,26.8841,27.2231,167.127,99.9329,96.9555,0.000881882,0.0766086,20.9568,925.041,0.263707,0.0,0.0
5605,1401,26.4972,26.5409,175.784,99.9637,96.5082,,0.0763184,,925.051,0.306706,0.0,0.0
5642,1410.25,26.2948,26.8676,170.103,99.986,96.509,,,,925.051,0.308578,0.0,0.0