File: 01_Data/Polyester_Fabric/FTIR/ATR/Polyester_Fabric_ATR_210608_R3.tst
4497.79,0.01919
4484.29,0.01968
4470.79,0.01934
4457.29,0.01956
4443.79,0.01983
4430.28,0.01959
4416.78,0.01981
4403.28,0.01998
4389.78,0.01984
4376.28,0.01996
4362.78,0.01994
4349.28,0.01992
4335.78,0.02015
4322.28,0.02026
4308.77,0.02036
4295.27,0.02044
4281.77,0.02062
4268.27,0.02043
4254.77,0.02047
4241.27,0.02061
4227.77,0.02065
4214.27,0.02062
4200.77,0.02082
4187.26,0.02068
4173.76,0.02092
4160.26,0.02084
4146.76,0.02082
4133.26,0.02128
4119.76,0.02113
4106.26,0.02141
4092.76,0.02140
4079.26,0.02184
4065.75,0.02143
4052.25,0.02142
4038.75,0.02150
4025.25,0.02198
4011.75,0.02210
3998.25,0.02178
3984.75,0.02217
3971.25,0.02299
3957.75,0.02318
3944.25,0.02413
3930.74,0.02539
3917.24,0.02491
3903.74,0.02892
3890.24,0.02503
3876.74,0.02423
3863.24,0.02811
3849.74,0.02608
3836.24,0.02826
3822.74,0.02776
3809.23,0.02380
3795.73,0.02437
3782.23,0.02385
3768.73,0.02566
3755.23,0.02752
3741.73,0.02868
3728.23,0.02646
3714.73,0.02557
3701.23,0.02379
3687.72,0.02623
3674.22,0.02820
3660.72,0.02337
3647.22,0.02930
3633.72,0.02526
3620.22,0.02801
3606.72,0.02605
3593.22,0.02545
3579.72,0.02438
3566.21,0.02970
3552.71,0.02522
3539.21,0.02366
3525.71,0.02698
3512.21,0.02389
3498.71,0.02369
3485.21,0.02372
3471.71,0.02257
3458.21,0.02317
3444.7,0.02404
3431.2,0.02378
3417.7,0.02349
3404.2,0.02298
3390.7,0.02311
3377.2,0.02270
3363.7,0.02331
3350.2,0.02261
3336.7,0.02345
3323.2,0.02310
3309.69,0.02347
3296.19,0.02320
3282.69,0.02335
3269.19,0.02326
3255.69,0.02338
3242.19,0.02325
3228.69,0.02334
3215.19,0.02334
3201.69,0.02322
3188.18,0.02322
3174.68,0.02341
3161.18,0.02315
3147.68,0.02326
3134.18,0.02362
3120.68,0.02396
3107.18,0.02407
3093.68,0.02401
3080.18,0.02458
3066.67,0.02459
3053.17,0.02476
3039.67,0.02400
3026.17,0.02419
3012.67,0.02516
2999.17,0.02522
2985.67,0.02607
2972.17,0.02850
2958.67,0.02851
2945.16,0.02697
2931.66,0.02654
2918.16,0.02705
2904.66,0.02773
2891.16,0.02661
2877.66,0.02629
2864.16,0.02621
2850.66,0.02639
2837.16,0.02552
2823.66,0.02500
2810.15,0.02519
2796.65,0.02502
2783.15,0.02489
2769.65,0.02482
2756.15,0.02476
2742.65,0.02480
2729.15,0.02467
2715.65,0.02459
2702.15,0.02453
2688.64,0.02451
2675.14,0.02446
2661.64,0.02449
2648.14,0.02403
2634.64,0.02368
2621.14,0.02338
2607.64,0.02301
2594.14,0.02308
2580.64,0.02307
2567.13,0.02286
2553.63,0.02277
2540.13,0.02256
2526.63,0.02246
2513.13,0.02241
2499.63,0.02230
2486.13,0.02219
2472.63,0.02213
2459.13,0.02221
2445.62,0.02196
2432.12,0.02224
2418.62,0.02232
2405.12,0.02249
2391.62,0.02266
2378.12,0.02317
2364.62,0.01700
2351.12,0.02102
2337.62,0.01781
2324.12,0.02145
2310.61,0.02343
2297.11,0.02236
2283.61,0.02201
2270.11,0.02122
2256.61,0.02125
2243.11,0.02094
2229.61,0.02068
2216.11,0.02051
2202.61,0.01996
2189.1,0.01901
2175.6,0.01845
2162.1,0.01834
2148.6,0.01900
2135.1,0.01951
2121.6,0.01969
2108.1,0.01961
2094.6,0.01997
2081.1,0.02014
2067.59,0.02008
2054.09,0.01932
2040.59,0.01917
2027.09,0.01844
2013.59,0.01896
2000.09,0.01858
1986.59,0.01938
1973.09,0.01835
1959.59,0.01969
1946.08,0.02054
1932.58,0.01918
1919.08,0.01995
1905.58,0.01846
1892.08,0.01846
1878.58,0.01721
1865.08,0.01849
1851.58,0.01734
1838.08,0.01833
1824.57,0.01950
1811.07,0.01921
1797.57,0.01973
1784.07,0.01757
1770.57,0.01943
1757.07,0.01802
1743.57,0.03920
1730.07,0.12155
1716.57,0.23206
1703.07,0.14472
1689.56,0.07285
1676.06,0.05662
1662.56,0.04406
1649.06,0.04240
1635.56,0.03758
1622.06,0.03464
1608.56,0.03222
1595.06,0.02878
1581.56,0.03049
1568.05,0.03045
1554.55,0.03255
1541.05,0.03887
1527.55,0.03241
1514.05,0.03181
1500.55,0.03589
1487.05,0.02883
1473.55,0.03928
1460.05,0.03419
1446.54,0.03227
1433.04,0.02895
1419.54,0.03195
1406.04,0.06362
1392.54,0.03583
1379.04,0.03419
1365.54,0.03203
1352.04,0.03020
1338.54,0.08438
1325.03,0.02923
1311.53,0.03530
1298.03,0.05613
1284.53,0.09685
1271.03,0.15524
1257.53,0.21766
1244.03,0.27252
1230.53,0.18509
1217.03,0.10725
1203.53,0.07104
1190.02,0.05084
1176.52,0.04965
1163.02,0.04363
1149.52,0.05068
1136.02,0.09813
1122.52,0.18524
1109.02,0.19510
1095.52,0.23050
1082.02,0.16998
1068.51,0.10000
1055.01,0.07553
1041.51,0.07225
1028.01,0.07164
1014.51,0.13115
1001.01,0.06406
987.508,0.05627
974.007,0.07017
960.506,0.05910
947.005,0.04577
933.503,0.04100
920.002,0.03815
906.501,0.04134
893,0.04375
879.499,0.05723
865.998,0.06207
852.497,0.06241
838.996,0.05505
825.495,0.04180
811.994,0.03912
798.493,0.04036
784.992,0.03741
771.49,0.03130
757.989,0.02670
744.488,0.02981
730.987,0.18722
717.486,0.17142
703.985,0.07437
690.484,0.04951
676.983,0.04507
663.482,0.03944
649.981,0.03571
636.48,0.03564
622.979,0.03426
609.477,0.03377
599.834,0.03461