File: 01_Data/Nylon_Carpet_HighPile/Cone/Nylon_Carpet_High_Pile_Cone_HF50Scan_220318_R1.csv
Names,Time,Stack TC,Smoke TC,Exh Press,Smoke Comp,Smoke Meas,CO Meter,CO2 Meter,O2 Meter,Sample Mass,Ext Coeff,Start Test,Flame Verif
Chan Gain,,500,500,1,1,1,1,1,1,1,1,1.0,1.0
Offset,,0,0,0.13495,0,0,0,0,0,0,0,0.0,0.0
Gain,,1,1,25.011,13.0212,13.19,1,1,1,1.0009,1.01015,1.0,1.0
Units,sec,C,C,Pa,%,%,%,%,%,g,/m,,
Baseline,,36.3385,38.3421,132.05,97.967,92.5149,0.000767185,0.0434089,21.0229,-489.231,0.507464,,
16,3.75,35.617,37.8478,131.368,97.6067,91.824,0.00083274,0.0534364,21.0143,24.3919,0.541164,0.0,0.0
32,7.75,36.0682,37.7176,133.127,97.6198,92.3911,0.000842281,0.0526003,21.013,24.3519,0.487791,0.0,0.0
48,11.75,36.1353,37.9562,130.079,97.6067,91.884,0.000870086,0.0532491,21.012,24.3018,0.535378,0.0,0.0
64,15.75,36.2236,37.9608,126.032,97.6071,92.3505,0.000952076,0.0537124,21.0126,24.2618,0.490537,0.0,0.0
80,19.75,35.8276,37.8114,134.418,97.6079,91.8928,0.000903451,0.0545328,21.0135,24.2218,0.534631,0.0,0.0
96,23.75,36.6433,38.0606,128.18,97.6087,91.6871,0.000759498,0.053653,21.0147,24.1917,0.554561,0.0,0.0
112,27.75,36.8063,38.2681,129.555,97.6059,90.9259,0.000739145,0.0512206,21.0166,24.1317,0.628178,0.0,0.0
128,31.75,36.4884,38.2954,134.368,97.6111,91.8723,0.000959803,0.0496904,21.018,24.1117,0.5369,0.0,0.0
144,35.75,37.1191,38.6625,127.848,97.6405,90.5089,0.00111932,0.0495221,21.0182,24.0616,0.672049,0.0,0.0
160,39.75,37.223,38.5873,130.643,97.6111,88.489,0.00144284,0.0501396,21.0158,23.9816,0.869369,0.0,0.0
176,43.75,36.8309,39.0773,128.412,97.6151,90.7231,0.00142247,0.0511105,21.0146,23.8815,0.6488,0.0,0.0
192,47.75,37.5269,39.4172,130.427,97.6182,89.3187,0.00152236,0.0501635,21.0122,23.8414,0.787331,0.0,0.0
208,51.75,37.7001,39.5648,118.051,97.6238,91.1316,0.00207751,0.0992783,20.8931,23.6813,0.609778,0.0,1.0
224,55.75,39.8373,42.4516,114.444,97.6369,91.7539,0.00286087,0.294386,20.6156,23.351,0.550665,0.0,0.0
240,59.75,43.9307,46.6372,114.969,97.6298,91.0725,0.00354552,0.40683,20.472,23.0007,0.616075,0.0,0.0
256,63.75,47.4164,50.3512,109.161,97.6405,89.982,0.00403802,0.47649,20.3768,22.6404,0.723785,0.0,0.0
272,67.75,50.8335,53.5156,114.339,97.6508,87.7432,0.00488104,0.520773,20.3045,22.24,0.947981,0.0,0.0
288,71.75,53.5913,57.796,109.619,97.6508,84.9363,0.00635423,0.562453,20.2397,21.8396,1.23607,0.0,0.0
304,75.75,57.3679,61.2346,103.337,97.6496,81.4287,0.00814285,0.629402,20.113,21.3992,1.60966,0.0,0.0
320,79.75,60.9946,65.9074,104.491,97.654,81.7797,0.00937784,0.705114,20.0086,20.9188,1.57194,0.0,0.0
336,83.75,64.622,69.9339,105.553,97.656,82.6045,0.010498,0.758408,19.9269,20.3783,1.48321,0.0,0.0
352,87.75,68.4754,74.1525,105.013,97.6759,79.4962,0.011408,0.805139,19.8593,19.8979,1.82487,0.0,0.0
368,91.75,71.6487,78.5439,101.945,97.6874,77.4655,0.0124624,0.829079,19.8182,19.3474,2.05521,0.0,0.0
384,95.75,74.8396,82.081,103.84,97.6866,77.3866,0.0137335,0.862066,19.7559,18.8069,2.06417,0.0,0.0
400,99.75,78.1135,85.6784,99.9676,97.689,76.1701,0.0144834,0.877919,19.7375,18.2564,2.20478,0.0,0.0
416,103.75,80.9023,88.7686,106.499,97.7204,75.3474,0.0150042,0.862267,19.7603,17.7059,2.30386,0.0,0.0
432,107.75,82.9213,91.5391,104.924,97.7494,72.3002,0.0164096,0.849591,19.7764,17.1854,2.67228,0.0,0.0
448,111.75,84.3753,93.387,101.887,97.7768,72.3087,0.0174882,0.829173,19.8052,16.655,2.67373,0.0,0.0
464,115.75,85.9414,95.2216,106.926,97.8181,70.2163,0.0177419,0.801643,19.8456,16.1245,2.93766,0.0,0.0
480,119.75,86.5774,95.9968,108.084,97.8833,70.5408,0.0180274,0.759899,19.9116,15.7041,2.90271,0.0,0.0
496,123.75,88.2168,97.4694,109.29,97.9338,70.2051,0.0178725,0.720825,19.9664,15.2237,2.94955,0.0,0.0
512,127.75,87.0812,96.983,106.653,97.9977,67.5995,0.0165811,0.695428,19.9993,14.8133,3.29046,0.0,0.0
528,131.75,87.2402,97.3874,107.812,98.0565,69.7555,0.0150859,0.662602,20.0465,14.3829,3.01759,0.0,0.0
544,135.75,87.5398,97.5186,114.278,98.1265,73.0996,0.0137051,0.632443,20.0983,13.9926,2.60896,0.0,0.0
560,139.75,87.252,97.0674,105.688,98.2068,75.77,0.0123478,0.593941,20.1605,13.6723,2.29829,0.0,0.0
576,143.75,86.7725,96.4151,112.722,98.2727,74.8901,0.0111428,0.573343,20.1956,13.332,2.40774,0.0,0.0
592,147.75,86.2212,96.1184,113.991,98.3633,77.2441,0.0103029,0.537342,20.2597,12.9917,2.14167,0.0,0.0
608,151.75,86.0003,95.4915,110.374,98.436,75.2681,0.00963949,0.505596,20.3019,12.7114,2.37785,0.0,0.0
624,155.75,85.4083,94.6014,113.491,98.5068,78.4726,0.00921434,0.480153,20.3404,12.3811,2.01477,0.0,0.0
640,159.75,84.2337,93.8429,113.857,98.5914,77.5955,0.00850201,0.458031,20.3821,12.1209,2.12198,0.0,0.0
656,163.75,83.7511,93.509,116.337,98.6625,78.8896,0.00793924,0.443876,20.4015,11.8406,1.9818,0.0,0.0
672,167.75,83.0362,92.1914,118.081,98.7182,77.7569,0.00748524,0.4325,20.4202,11.5504,2.11495,0.0,0.0
688,171.75,82.3267,91.7507,113.93,98.7889,78.979,0.007269,0.422605,20.441,11.3102,1.98312,0.0,0.0
704,175.75,81.7085,91.0353,115.281,98.8461,80.93,0.00745294,0.405218,20.4623,11.08,1.77201,0.0,0.0
720,179.75,80.9717,89.8894,114.341,98.8783,80.3282,0.00730777,0.391881,20.4841,10.8297,1.84103,0.0,0.0
736,183.75,80.4028,89.5765,112.697,98.8871,79.3678,0.00734224,0.384203,20.4952,10.5995,1.9484,0.0,0.0
752,187.75,79.8395,88.7517,114.752,98.8783,79.8645,0.00714373,0.375721,20.5099,10.3493,1.89233,0.0,0.0
768,191.75,79.2305,87.5874,117.357,98.8676,80.7271,0.0069242,0.363822,20.5299,10.1291,1.79618,0.0,0.0
784,195.75,78.0796,86.3236,118.652,98.8239,82.1275,0.00653291,0.351147,20.5469,9.92893,1.63986,0.0,0.0
800,199.75,78.111,86.2384,118.021,98.7635,80.3395,0.00596007,0.341418,20.563,9.73875,1.82949,0.0,0.0
816,203.75,77.0832,85.0829,119.418,98.7202,81.698,0.00553793,0.326581,20.5877,9.46851,1.67702,0.0,0.0
832,207.75,76.613,84.5665,118.807,98.6566,82.6625,0.00501229,0.310574,20.6157,9.29836,1.56732,0.0,0.0
848,211.75,75.4035,83.5215,118.315,98.5934,85.4496,0.00453153,0.288139,20.6546,9.1182,1.26781,0.0,0.0
864,215.75,74.1022,82.1149,120.704,98.5258,85.4379,0.00442871,0.266044,20.6881,9.02812,1.26294,0.0,0.0
880,219.75,73.609,80.9611,119.922,98.4829,86.2313,0.00423253,0.248085,20.716,8.87798,1.17718,0.0,0.0
896,223.75,72.5231,79.4654,119.486,98.4567,86.8866,0.00375658,0.237327,20.7311,8.71784,1.10774,0.0,0.0
912,227.75,71.4425,78.5547,119.122,98.4488,87.9002,0.00324311,0.226714,20.7493,8.63776,1.00425,0.0,0.0
928,231.75,70.6898,77.0981,121.986,98.6804,89.1983,0.00302971,0.21226,20.7733,8.50765,0.895174,0.0,0.0
944,235.75,69.4205,76.3173,122.638,98.8807,90.0943,0.00265204,0.198537,20.7965,8.39755,0.824573,0.0,0.0
960,239.75,68.5151,75.1424,123.151,99.0476,90.6748,0.00226985,0.181562,20.8255,8.33749,0.782613,0.0,0.0
976,243.75,67.0975,73.554,128.658,99.17,91.9391,0.00210109,0.151639,20.871,8.24741,0.670855,0.0,0.0
992,247.75,65.7525,72.4081,125.85,99.2375,92.9015,0.00201967,0.121592,20.9148,8.2374,0.584612,0.0,0.0
1008,251.75,63.6266,69.3996,129.538,99.2737,93.4317,0.00148913,0.0918132,20.9599,8.2274,0.53742,0.0,0.0
1024,255.75,61.9179,67.718,125.981,99.2662,92.5912,0.00164851,0.0760568,20.9832,8.18736,0.616817,0.0,0.0
1040,259.75,60.8468,66.1936,133.802,99.2201,92.9909,0.00152321,0.0694339,20.9921,8.17735,0.574532,0.0,0.0
1056,263.75,59.3935,64.3447,127.52,99.1493,92.7458,0.00139849,0.064194,20.9998,8.14732,0.591601,0.0,0.0
1072,267.75,58.446,62.8026,130.805,99.0416,92.9313,0.00134759,0.0592958,21.0048,8.15733,0.56426,0.0,0.0
1088,271.75,56.998,61.2158,126.93,98.9085,92.9354,0.00107629,0.0554939,21.0083,8.13732,0.55196,0.0,0.0
1104,275.75,55.9914,60.6976,130.756,98.7432,92.6588,0.000939943,0.0524158,21.0116,8.1173,0.563544,0.0,0.0
1120,279.75,55.0281,59.1996,124.362,98.777,92.8013,0.000584189,0.0499243,21.0146,8.15733,0.552958,0.0,0.0
1136,283.75,54.2491,58.4897,130.395,98.8445,92.2704,0.000493414,0.0478226,21.0175,8.13732,0.609856,0.0,0.0
1152,287.75,53.1576,57.1047,127.897,98.932,92.619,0.000632718,0.0465499,21.0181,8.12731,0.584277,0.0,0.0
1168,291.75,52.6286,55.8626,125.587,99.019,92.5546,0.000596239,0.0453652,21.02,8.15733,0.598233,0.0,0.0
1184,295.75,51.5347,54.9376,129.177,99.1076,92.8766,0.000455638,0.0445743,21.0211,8.12731,0.575383,0.0,0.0
1200,299.75,50.9137,54.4063,127.752,99.2081,92.8593,0.000208126,0.0438873,21.0195,8.13732,0.586018,0.0,0.0
1216,303.75,50.8971,54.0361,126.819,99.3015,92.9788,0.000349013,0.0431327,21.021,8.14732,0.582954,0.0,0.0
1232,307.75,50.4307,53.0073,129.261,99.3862,92.7486,0.000245473,0.0428802,21.0213,8.12731,0.612474,0.0,0.0
1248,311.75,50.4736,52.9519,126.272,99.4517,93.4019,0.000446575,0.0427022,21.0214,8.1173,0.556121,0.0,0.0
1264,315.75,49.5234,52.4947,125.311,99.5157,93.2964,0.000224235,0.0427388,21.0221,8.13732,0.571831,0.0,0.0
1280,319.75,49.3833,51.7704,128.752,99.528,92.6761,0.000261261,0.0423987,21.0212,8.12731,0.632037,0.0,0.0
1296,323.75,49.1563,51.4876,129.068,99.5328,93.4442,0.000333597,0.0422982,21.0224,8.12731,0.559332,0.0,0.0
1312,327.75,48.6057,51.0472,133.015,99.5205,93.6011,0.000476835,0.0422642,21.0221,8.13732,0.543362,0.0,0.0
1328,331.75,48.122,50.7814,129.774,99.4966,92.8995,0.000197015,0.0423514,21.0229,8.1173,0.607909,0.0,0.0
1344,335.75,48.1548,50.2601,124.312,99.4498,92.5409,-2.95311e-06,0.0422666,21.0234,8.14732,0.638007,0.0,0.0
1360,339.75,47.6856,49.734,124.286,99.3901,93.5645,6.67881e-05,0.0422741,21.0234,8.12731,0.535218,0.0,0.0
1376,343.75,47.9694,49.0492,128.936,99.3226,93.6325,0.000696414,0.0423022,21.0234,8.2274,0.522753,0.0,0.0
1392,347.75,47.1933,48.7381,126.354,99.2324,92.9406,0.00074288,0.042843,21.0216,8.1173,0.580427,0.0,0.0
1408,351.75,46.8287,49.2273,127.725,99.1366,93.0762,0.000496304,0.0442862,21.0192,8.12731,0.558948,0.0,0.0
1424,355.75,46.6745,48.3323,126.192,99.0385,93.0122,0.000469024,0.0459311,21.0179,8.09728,0.556266,0.0,0.0
1440,359.75,46.3756,48.6388,130.851,98.9252,92.3388,,0.0467332,,8.07726,0.610516,0.0,0.0
1456,363.75,46.1517,48.0054,127.446,98.8108,92.9434,,,,8.10729,0.542431,0.0,0.0
1472,367.75,46.4459,48.3436,125.566,98.6788,92.7103,,,,8.12731,0.552839,0.0,0.0
1482,370.25,46.1739,47.4944,132.318,98.5811,92.2434,,,,8.08727,0.588797,0.0,0.0