File: 01_Data/Coffee_Machine/STA/N2/30K_min/Coffee_Machine_STA_N2_30KData_220203_R3.csv
##Temp./Â°C,Time/min,Mass loss(subtr.2)/mg,DSC(subtr.2)/(mW/mg),Sensit./(uV/mW)
48.235,10.00667,0.03126,-0.003763416,1.06966
50.835,10.8202,0.03213309,0.17724,1.06943
53.435,11.03262,0.03307594,0.31421,1.06917
56.035,11.1934,0.03543047,0.42434,1.0689
58.635,11.331,0.03513965,0.52183,1.06862
61.235,11.45456,0.03737068,0.60205,1.06831
63.835,11.56939,0.03647591,0.67462,1.06798
66.435,11.6777,0.03621086,0.73549,1.06764
69.035,11.78242,0.03677979,0.78357,1.06727
71.635,11.88325,0.03630544,0.82377,1.06689
74.235,11.9818,0.03740383,0.853,1.06649
76.835,12.07848,0.03673008,0.87694,1.06607
79.435,12.17338,0.03684924,0.89675,1.06563
82.035,12.267,0.03857662,0.91756,1.06518
84.635,12.35898,0.0372607,0.93255,1.0647
87.235,12.45016,0.03921327,0.94646,1.06421
89.835,12.54043,0.03825834,0.96212,1.0637
92.435,12.63011,0.03886363,0.97693,1.06317
95.035,12.7191,0.04002946,0.99051,1.06263
97.635,12.80748,0.03927055,1.0034,1.06206
100.235,12.89541,0.03870807,1.01506,1.06148
102.835,12.983,0.04001645,1.02411,1.06088
105.435,13.07048,0.04004317,1.03576,1.06027
108.035,13.158,0.03872015,1.04553,1.05963
110.635,13.24497,0.03883468,1.0555,1.05898
113.235,13.332,0.04010723,1.06769,1.05831
115.835,13.41894,0.04279971,1.07675,1.05763
118.435,13.5056,0.04146275,1.08798,1.05692
121.035,13.592,0.04146003,1.10412,1.0562
123.635,13.67813,0.04146,1.12052,1.05547
126.235,13.7638,0.04151239,1.13921,1.05471
128.835,13.84932,0.04008471,1.16043,1.05394
131.435,13.93457,0.04111717,1.18787,1.05315
134.035,14.0198,0.04277098,1.22144,1.05235
136.635,14.10423,0.04145002,1.26287,1.05153
139.235,14.18879,0.04145,1.31581,1.05069
141.835,14.2729,0.04145645,1.37959,1.04983
144.435,14.35674,0.04015425,1.45879,1.04896
147.035,14.44043,0.04145829,1.56206,1.04808
149.635,14.52369,0.04145596,1.69851,1.04717
152.235,14.60709,0.04146,1.88119,1.04625
154.835,14.6902,0.04145999,2.11146,1.04532
157.435,14.7734,0.04276997,2.40335,1.04437
160.035,14.8568,0.04277002,2.75112,1.0434
162.635,14.93966,0.04408999,3.12674,1.04242
165.235,15.02289,0.04278003,3.43774,1.04142
167.835,15.1059,0.04277995,3.48094,1.04041
170.435,15.18785,0.04409998,3.11162,1.03938
173.035,15.2703,0.04344628,2.55036,1.03833
175.635,15.3515,0.04343873,2.13826,1.03727
178.235,15.43224,0.04278,1.88453,1.0362
180.835,15.5124,0.04277911,1.73138,1.03511
183.435,15.5924,0.04409,1.63788,1.034
186.035,15.67208,0.04409,1.58117,1.03288
188.635,15.7517,0.0435738,1.5506,1.03175
191.235,15.83121,0.04343,1.5321,1.0306
193.835,15.9108,0.04478903,1.52494,1.02944
196.435,15.99017,0.04605623,1.52119,1.02826
199.035,16.0696,0.04475,1.52047,1.02707
201.635,16.14888,0.04475,1.5216,1.02586
204.235,16.22822,0.04412368,1.52659,1.02464
206.835,16.3074,0.04508,1.53108,1.0234
209.435,16.38658,0.04508,1.53556,1.02215
212.035,16.46595,0.04475013,1.54385,1.02089
214.635,16.54488,0.04343273,1.54468,1.01962
217.235,16.62407,0.04343,1.55481,1.01833
219.835,16.703,0.04343,1.55861,1.01702
222.435,16.78196,0.04343022,1.56522,1.01571
225.035,16.86103,0.04474998,1.56869,1.01437
227.635,16.93979,0.04474832,1.57532,1.01303
230.235,17.01876,0.04414001,1.58249,1.01168
232.835,17.0976,0.04441325,1.58682,1.01031
235.435,17.17653,0.0444217,1.59042,1.00892
238.035,17.25515,0.04376,1.59868,1.00753
240.635,17.33396,0.04376075,1.60376,1.00612
243.235,17.41244,0.04475,1.60978,1.0047
245.835,17.49115,0.04381254,1.61428,1.00327
248.435,17.56964,0.04276969,1.61735,1.00182
251.035,17.64808,0.04277,1.62248,1.00036
253.635,17.72671,0.04277003,1.62794,0.99889
256.235,17.80515,0.04244,1.63523,0.99741
258.835,17.88356,0.04243964,1.63916,0.99592
261.435,17.96196,0.04112987,1.64629,0.99441
264.035,18.04042,0.04243998,1.65021,0.9929
266.635,18.1189,0.04243952,1.65587,0.99137
269.235,18.1973,0.04211,1.66184,0.98983
271.835,18.27575,0.04211,1.66781,0.98828
274.435,18.3542,0.04211,1.674,0.98671
277.035,18.4326,0.04210946,1.67759,0.98514
279.635,18.51115,0.04075011,1.68207,0.98356
282.235,18.58954,0.04310114,1.68656,0.98196
284.835,18.66805,0.0431,1.69078,0.98035
287.435,18.74677,0.0431,1.69668,0.97874
290.035,18.82536,0.04310297,1.69988,0.97711
292.635,18.90395,0.04179001,1.70398,0.97547
295.235,18.98249,0.04179,1.70881,0.97382
297.835,19.06127,0.04179,1.71087,0.97216
300.435,19.13994,0.04179,1.7171,0.97049
303.035,19.21874,0.04179,1.72142,0.96881
305.635,19.2975,0.0421195,1.72244,0.96712
308.235,19.37622,0.04212,1.72819,0.96543
310.835,19.4551,0.04212,1.72986,0.96372
313.435,19.5335,0.04212007,1.73364,0.962
316.035,19.6128,0.03980996,1.73665,0.96027
318.635,19.69177,0.03981,1.74116,0.95853
321.235,19.77076,0.03981,1.74611,0.95679
323.835,19.8496,0.03981,1.75031,0.95503
326.435,19.92845,0.03980964,1.75208,0.95327
329.035,20.00781,0.03848676,1.75502,0.95149
331.635,20.08708,0.03849,1.7616,0.94971
334.235,20.16636,0.03849,1.76257,0.94792
336.835,20.2456,0.03849,1.7661,0.94612
339.435,20.3249,0.03850547,1.7722,0.94431
342.035,20.40429,0.03751,1.77658,0.94249
344.635,20.4838,0.03751001,1.7795,0.94067
347.235,20.56344,0.03717983,1.78479,0.93884
349.835,20.643,0.03685075,1.78695,0.93699
352.435,20.72265,0.0355299,1.79182,0.93515
355.035,20.8024,0.03553,1.79772,0.93329
357.635,20.8822,0.03419132,1.80083,0.93142
360.235,20.96193,0.03290488,1.80271,0.92955
362.835,21.04187,0.0334077,1.80493,0.92767
365.435,21.12186,0.03374273,1.81336,0.92578
368.035,21.20178,0.03160015,1.81563,0.92389
370.635,21.28186,0.03027078,1.81857,0.92199
373.235,21.3621,0.02895999,1.82322,0.92008
375.835,21.44214,0.02881317,1.82431,0.91816
378.435,21.5226,0.02764,1.82839,0.91624
381.035,21.6029,0.02632618,1.83187,0.91431
383.635,21.6834,0.02473779,1.83473,0.91237
386.235,21.76374,0.02338155,1.84272,0.91043
388.835,21.84423,0.02107051,1.84992,0.90848
391.435,21.92483,0.01973834,1.8556,0.90652
394.035,22.00566,0.01843248,1.86237,0.90456
396.635,22.08633,0.01578553,1.87621,0.90259
399.235,22.16722,0.01344425,1.8814,0.90062
401.835,22.24819,0.01001546,1.89224,0.89864
404.435,22.32913,0.006037651,1.90795,0.89665
407.035,22.40997,0.004426721,1.92655,0.89466
409.635,22.49108,-0.00154464,1.95216,0.89266
412.235,22.57219,-0.00659783,1.97905,0.89066
414.835,22.65332,-0.01173824,2.0018,0.88865
417.435,22.7345,-0.01711351,2.02693,0.88664
420.035,22.81575,-0.02346139,2.07138,0.88462
422.635,22.89714,-0.03091319,2.15358,0.8826
425.235,22.97845,-0.04217378,2.21072,0.88057
427.835,23.0599,-0.05308313,2.24304,0.87853
430.435,23.1417,-0.06613316,2.28712,0.87649
433.035,23.2231,-0.08069455,2.3569,0.87445
435.635,23.30487,-0.0987809,2.42824,0.8724
438.235,23.3866,-0.11691,2.52443,0.87035
440.835,23.46854,-0.13763,2.57031,0.86829
443.435,23.55039,-0.16195,2.55328,0.86623
446.035,23.63251,-0.18169,2.61689,0.86416
448.635,23.7148,-0.20232,2.75246,0.86209
451.235,23.7969,-0.23095,2.94789,0.86002
453.835,23.8793,-0.26919,3.18762,0.85794
456.435,23.96189,-0.31612,3.48323,0.85586
459.035,24.04449,-0.37535,3.81533,0.85377
461.635,24.12732,-0.45168,4.18681,0.85168
464.235,24.21034,-0.54445,4.60368,0.84959
466.835,24.29362,-0.65932,5.05491,0.84749
469.435,24.37695,-0.79786,5.52336,0.84539
472.035,24.46045,-0.96588,5.98973,0.84329
474.635,24.54413,-1.16045,6.42747,0.84118
477.235,24.6279,-1.41364,6.80432,0.83907
479.835,24.7117,-1.67543,7.03393,0.83696
482.435,24.79547,-1.96115,7.12453,0.83484
485.035,24.87908,-2.25959,6.96231,0.83272
487.635,24.96217,-2.56088,6.52552,0.8306
490.235,25.04533,-2.8517,5.83553,0.82847
492.835,25.12791,-3.11556,4.92273,0.82635
495.435,25.21027,-3.39372,3.64652,0.82422
498.035,25.29167,-3.57157,2.46841,0.82208
500.635,25.37238,-3.68623,1.57874,0.81995
503.235,25.45297,-3.75574,0.9364,0.81781
505.835,25.53373,-3.79529,0.52761,0.81567
508.435,25.61489,-3.81761,0.27638,0.81353
511.035,25.6965,-3.82781,0.12018,0.81139
513.635,25.7783,-3.83387,0.02779321,0.80924
516.235,25.86029,-3.83675,-0.0341344,0.8071
518.835,25.943,-3.83988,-0.07229017,0.80495
521.435,26.02565,-3.84297,-0.09098629,0.8028
524.035,26.10864,-3.84583,-0.10193,0.80064
526.635,26.19174,-3.84643,-0.10845,0.79849
529.235,26.2749,-3.84823,-0.11041,0.79633
531.835,26.3582,-3.84952,-0.10902,0.79418
534.435,26.44149,-3.85086,-0.11233,0.79202
537.035,26.52488,-3.85218,-0.10314,0.78986
539.635,26.60855,-3.85438,-0.10236,0.7877
542.235,26.6922,-3.8561,-0.10032,0.78554
544.835,26.776,-3.85671,-0.09377746,0.78337
547.435,26.85991,-3.85843,-0.08515667,0.78121
550.035,26.94394,-3.85843,-0.08167888,0.77904
552.635,27.02804,-3.85755,-0.09135202,0.77688
555.235,27.1124,-3.85843,-0.09797576,0.77471
557.835,27.1966,-3.85942,-0.10587,0.77254
560.435,27.2811,-3.85942,-0.11595,0.77038
563.035,27.36573,-3.85942,-0.12252,0.76821
565.635,27.45034,-3.85942,-0.1253,0.76604
568.235,27.5349,-3.85949,-0.12966,0.76387
570.835,27.61957,-3.85975,-0.13075,0.7617
573.435,27.70438,-3.85975,-0.13033,0.75953
576.035,27.7891,-3.85975,-0.13387,0.75736
578.635,27.87401,-3.86041,-0.13713,0.75519
581.235,27.9589,-3.85909,-0.14351,0.75302
583.835,28.04402,-3.85909,-0.14585,0.75085
586.435,28.12909,-3.85943,-0.14945,0.74868
589.035,28.21445,-3.85975,-0.15359,0.74651
591.635,28.29966,-3.85975,-0.15397,0.74434
594.235,28.385,-3.85876,-0.15298,0.74217
596.835,28.4704,-3.85859,-0.15423,0.74
599.435,28.5557,-3.85909,-0.15667,0.73783
602.035,28.6411,-3.85909,-0.15534,0.73566
604.635,28.72656,-3.85909,-0.15157,0.73349
607.235,28.8121,-3.85941,-0.15068,0.73132
609.835,28.8975,-3.86073,-0.15081,0.72916
612.435,28.98297,-3.86073,-0.15467,0.72699
615.035,29.0686,-3.85943,-0.15184,0.72482
617.635,29.1541,-3.86073,-0.1517,0.72266
620.235,29.2396,-3.86073,-0.14926,0.72049
622.835,29.32515,-3.86158,-0.15064,0.71833
625.435,29.41085,-3.86091,-0.14467,0.71617
628.035,29.4965,-3.86205,-0.14745,0.714
630.635,29.5822,-3.86205,-0.14327,0.71184
633.235,29.6678,-3.86203,-0.14739,0.70968
635.835,29.75352,-3.86106,-0.15144,0.70752
638.435,29.83936,-3.86106,-0.1486,0.70537
641.035,29.92513,-3.86139,-0.14954,0.70321
643.235,29.9979,-3.86139,-0.15129,0.70139