File: 01_Data/Coffee_Machine/STA/N2/30K_min/Coffee_Machine_STA_N2_30KData_220201_R1.csv
##Temp./Â°C,Time/min,Mass loss(subtr.2)/mg,DSC(subtr.2)/(mW/mg),Sensit./(uV/mW)
49.249,10.00667,-0.00352,0.002689618,1.07447
51.949,10.83183,-0.00520276,0.19237,1.07428
54.649,11.04721,-0.008728645,0.33007,1.07407
57.349,11.21119,-0.005958956,0.44206,1.07385
60.049,11.35144,-0.00515982,0.53787,1.0736
62.749,11.47799,-0.0066227,0.62152,1.07334
65.449,11.5953,-0.004516371,0.69244,1.07306
68.149,11.70708,-0.005946723,0.75316,1.07277
70.849,11.81436,-0.004219335,0.80168,1.07246
73.549,11.91808,-0.004048725,0.83941,1.07213
76.249,12.01925,-0.004257296,0.86971,1.07178
78.949,12.11848,-0.003329807,0.89591,1.07142
81.649,12.21607,-0.005009822,0.91762,1.07104
84.349,12.31247,-0.00442592,0.93542,1.07065
87.049,12.40762,-0.004602163,0.95202,1.07023
89.749,12.50177,-0.001853876,0.96759,1.0698
92.449,12.59496,-0.001991803,0.98159,1.06936
95.149,12.68735,-0.00351625,0.99559,1.06889
97.849,12.77962,-0.00350967,1.00665,1.06841
100.549,12.8713,-0.00290451,1.01836,1.06792
103.249,12.96234,-0.003510832,1.03165,1.0674
105.949,13.0534,-0.00351975,1.0418,1.06687
108.649,13.1442,-0.00352,1.05074,1.06633
111.349,13.23497,-0.003558871,1.06294,1.06577
114.049,13.32523,-0.00482999,1.07507,1.06519
116.749,13.41572,-0.004880742,1.08582,1.06459
119.449,13.5056,-0.003498852,1.10022,1.06398
122.149,13.5952,-0.003519752,1.11434,1.06335
124.849,13.6844,-0.00352135,1.13309,1.06271
127.549,13.77341,-0.0022,1.15485,1.06204
130.249,13.8622,-0.003506042,1.1772,1.06137
132.949,13.9505,-0.002199848,1.20919,1.06067
135.649,14.03825,-0.003510878,1.24723,1.05996
138.349,14.12592,-0.00483,1.29269,1.05924
141.049,14.213,-0.004847376,1.34921,1.0585
143.749,14.29974,-0.00484,1.42155,1.05774
146.449,14.3863,-0.00484,1.51261,1.05697
149.149,14.4727,-0.004840134,1.63719,1.05618
151.849,14.55905,-0.003190176,1.80485,1.05537
154.549,14.64515,-0.00318991,2.03279,1.05455
157.249,14.7313,-0.004501071,2.3336,1.05371
159.949,14.81749,-0.003800693,2.68658,1.05286
162.649,14.9037,-0.00384,3.06071,1.05199
165.349,14.98996,-0.002534796,3.36172,1.05111
168.049,15.0758,-0.003510885,3.39063,1.05021
170.749,15.16145,-0.001985536,3.08436,1.04929
173.449,15.2463,-0.003734728,2.60906,1.04836
176.149,15.3307,-0.00505,2.187,1.04741
178.849,15.41435,-0.005714219,1.90906,1.04645
181.549,15.4978,-0.005048255,1.73738,1.04548
184.249,15.5808,-0.005709943,1.63632,1.04448
186.949,15.66366,-0.005037158,1.57833,1.04348
189.649,15.7462,-0.005059999,1.5407,1.04245
192.349,15.8286,-0.0063744,1.52659,1.04142
195.049,15.91116,-0.00509978,1.51703,1.04036
197.749,15.99366,-0.00374,1.51186,1.0393
200.449,16.0761,-0.0039726,1.51134,1.03821
203.149,16.1585,-0.00637063,1.51261,1.03712
205.849,16.24073,-0.00637,1.51733,1.03601
208.549,16.323,-0.006363962,1.52083,1.03488
211.249,16.4052,-0.00571,1.52396,1.03374
213.949,16.4873,-0.004365645,1.53233,1.03258
216.649,16.56941,-0.005711351,1.53764,1.03141
219.349,16.65129,-0.00538241,1.54306,1.03023
222.049,16.7334,-0.00429102,1.55023,1.02903
224.749,16.8155,-0.00635881,1.55572,1.02781
227.449,16.8975,-0.007141,1.56166,1.02659
230.149,16.9794,-0.00846169,1.56714,1.02534
232.849,17.0612,-0.007139999,1.57297,1.02409
235.549,17.14309,-0.00714,1.58068,1.02282
238.249,17.22496,-0.00714,1.58376,1.02153
240.949,17.30622,-0.007140034,1.5906,1.02023
243.649,17.38847,-0.00813241,1.59591,1.01892
246.349,17.47012,-0.00813,1.60184,1.0176
249.049,17.55187,-0.00813,1.6086,1.01626
251.749,17.63351,-0.008788951,1.61191,1.0149
254.449,17.7151,-0.00879,1.61785,1.01354
257.149,17.79671,-0.00879,1.62441,1.01215
259.849,17.87828,-0.00879,1.62665,1.01076
262.549,17.95968,-0.00879,1.63171,1.00935
265.249,18.04146,-0.008789992,1.63921,1.00793
267.949,18.12293,-0.01009908,1.6443,1.0065
270.649,18.2042,-0.01108006,1.65098,1.00505
273.349,18.28571,-0.01109249,1.65738,1.00359
276.049,18.36721,-0.00977,1.66329,1.00212
278.749,18.44878,-0.00977,1.66801,1.00063
281.449,18.53029,-0.00977007,1.67421,0.99913
284.149,18.61188,-0.0110897,1.68207,0.99762
286.849,18.69335,-0.01043,1.68582,0.9961
289.549,18.77498,-0.01043,1.69373,0.99456
292.249,18.8566,-0.01178821,1.69868,0.99301
294.949,18.9382,-0.01042022,1.70465,0.99145
297.649,19.01977,-0.01173998,1.70907,0.98987
300.349,19.10152,-0.0117102,1.71474,0.98828
303.049,19.1832,-0.01076003,1.72162,0.98668
305.749,19.2649,-0.01239944,1.72407,0.98507
308.449,19.34645,-0.0124,1.72958,0.98345
311.149,19.42831,-0.01243594,1.73734,0.98181
313.849,19.51005,-0.01338,1.74105,0.98016
316.549,19.5918,-0.01337999,1.75003,0.97851
319.249,19.67365,-0.01404003,1.75271,0.97683
321.949,19.7557,-0.01403987,1.7572,0.97515
324.649,19.8376,-0.01436999,1.76478,0.97346
327.349,19.91958,-0.01437009,1.76988,0.97175
330.049,20.00167,-0.01437004,1.77577,0.97003
332.749,20.084,-0.01536012,1.77773,0.9683
335.449,20.16619,-0.01568999,1.78082,0.96656
338.149,20.24843,-0.01609733,1.78898,0.96481
340.849,20.33073,-0.0173299,1.78943,0.96305
343.549,20.41325,-0.01865,1.7984,0.96127
346.249,20.49563,-0.01865,1.80303,0.95949
348.949,20.578,-0.01996189,1.80744,0.95769
351.649,20.6605,-0.02160271,1.8151,0.95589
354.349,20.74294,-0.021616,1.82044,0.95407
357.049,20.8256,-0.02226999,1.8281,0.95224
359.749,20.90814,-0.02359023,1.82988,0.9504
362.449,20.99095,-0.02483737,1.83776,0.94855
365.149,21.07374,-0.0259239,1.84424,0.94669
367.849,21.15646,-0.02622032,1.84866,0.94482
370.549,21.23949,-0.02754039,1.8545,0.94294
373.249,21.32252,-0.02884717,1.8621,0.94105
375.949,21.40555,-0.03150665,1.86028,0.93915
378.649,21.48871,-0.03279902,1.86377,0.93724
381.349,21.57198,-0.03411985,1.86852,0.93532
384.049,21.65523,-0.03542889,1.87383,0.93339
386.749,21.7385,-0.03809393,1.87659,0.93145
389.449,21.82209,-0.03990888,1.88175,0.9295
392.149,21.90551,-0.04300772,1.88795,0.92754
394.849,21.98919,-0.04571534,1.89594,0.92558
397.549,22.0728,-0.04848195,1.90791,0.9236
400.249,22.15662,-0.05198378,1.91631,0.92161
402.949,22.24036,-0.05573915,1.92798,0.91962
405.649,22.32432,-0.05881207,1.93997,0.91761
408.349,22.40794,-0.06336347,1.95724,0.9156
411.049,22.49202,-0.06811326,1.99345,0.91357
413.749,22.57609,-0.07347322,2.01981,0.91154
416.449,22.6602,-0.0793488,2.04458,0.9095
419.149,22.74464,-0.0867416,2.07288,0.90745
421.849,22.82899,-0.09561809,2.11378,0.90539
424.549,22.91341,-0.10598,2.14734,0.90333
427.249,22.9979,-0.11595,2.20668,0.90125
429.949,23.08246,-0.1282,2.25935,0.89917
432.649,23.16714,-0.14213,2.32621,0.89708
435.349,23.2519,-0.15703,2.40734,0.89498
438.049,23.3367,-0.17823,2.54505,0.89287
440.749,23.4219,-0.19907,2.61411,0.89075
443.449,23.50689,-0.22637,2.72768,0.88863
446.149,23.59206,-0.25816,2.85257,0.8865
448.849,23.6773,-0.29582,3.00915,0.88436
451.549,23.76265,-0.33796,3.20254,0.88221
454.249,23.84826,-0.38677,3.45048,0.88006
456.949,23.9339,-0.44656,3.71166,0.8779
459.649,24.01974,-0.52283,4.02079,0.87573
462.349,24.10581,-0.61044,4.37251,0.87355
465.049,24.1919,-0.71538,4.76243,0.87137
467.749,24.27819,-0.84181,5.17665,0.86918
470.449,24.36474,-0.99384,5.62166,0.86698
473.149,24.45145,-1.17238,6.06517,0.86478
475.849,24.53835,-1.38091,6.47994,0.86257
478.549,24.62514,-1.64331,6.81117,0.86035
481.249,24.71227,-1.91751,7.08379,0.85813
483.949,24.79907,-2.22056,7.04566,0.8559
486.649,24.88556,-2.52989,6.80009,0.85366
489.349,24.97167,-2.83502,6.29467,0.85141
492.049,25.05728,-3.1193,5.48279,0.84916
494.749,25.14274,-3.36707,4.43587,0.84691
497.449,25.22762,-3.56548,3.29053,0.84465
500.149,25.31204,-3.70769,2.24121,0.84238
502.849,25.3962,-3.80267,1.4202,0.8401
505.549,25.48028,-3.86045,0.85898,0.83782
508.249,25.56445,-3.89385,0.50691,0.83554
510.949,25.6492,-3.91591,0.29557,0.83325
513.649,25.7341,-3.92638,0.17054,0.83095
516.349,25.81939,-3.93191,0.09506844,0.82865
519.049,25.9052,-3.93324,0.05063748,0.82634
521.749,25.9906,-3.93324,0.02406305,0.82403
524.449,26.0773,-3.93522,0.00128075,0.82171
527.149,26.1635,-3.9362,-0.00702761,0.81938
529.849,26.2499,-3.9362,-0.01050014,0.81706
532.549,26.3363,-3.93726,-0.0086234,0.81472
535.249,26.4229,-3.93719,-0.01259691,0.81238
537.949,26.50975,-3.93839,-0.01394612,0.81004
540.649,26.59665,-3.93851,-0.01448007,0.80769
543.349,26.68352,-3.93752,-0.01174082,0.80534
546.049,26.7706,-3.93785,-0.01381215,0.80298
548.749,26.85762,-3.93785,-0.01237633,0.80062
551.449,26.9449,-3.93884,-0.00559487,0.79826
554.149,27.03221,-3.93884,-0.00611812,0.79589
556.849,27.1198,-3.93884,-0.01935132,0.79351
559.549,27.2074,-3.93752,-0.02987804,0.79113
562.249,27.29502,-3.93752,-0.03437203,0.78875
564.949,27.3827,-3.93916,-0.03774243,0.78637
567.649,27.47046,-3.93916,-0.03842344,0.78398
570.349,27.55831,-3.93916,-0.04508715,0.78158
573.049,27.6464,-3.93916,-0.04556727,0.77918
575.749,27.7344,-3.93916,-0.04810308,0.77678
578.449,27.82252,-3.93917,-0.04957933,0.77438
581.149,27.91054,-3.93982,-0.0484223,0.77197
583.849,27.9985,-3.93987,-0.04989238,0.76956
586.549,28.0868,-3.93883,-0.04849663,0.76715
589.249,28.1748,-3.93883,-0.04685911,0.76473
591.949,28.26308,-3.93881,-0.04731888,0.76231
594.649,28.35143,-3.93981,-0.04538068,0.75988
597.349,28.4399,-3.93982,-0.04754495,0.75746
600.049,28.5283,-3.94048,-0.04703726,0.75503
602.749,28.6164,-3.94048,-0.04906172,0.75259
605.449,28.7048,-3.94048,-0.049129,0.75016
608.149,28.79338,-3.94048,-0.04845296,0.74772
610.849,28.8818,-3.93984,-0.04883374,0.74528
613.549,28.9704,-3.93907,-0.04470614,0.74284
616.249,29.0588,-3.94037,-0.04604288,0.7404
618.949,29.1472,-3.94169,-0.04819232,0.73795
621.649,29.23602,-3.9407,-0.04672196,0.7355
624.349,29.3247,-3.94039,-0.04937333,0.73305
627.049,29.41337,-3.94103,-0.04377752,0.7306
629.749,29.5019,-3.94103,-0.04515437,0.72814
632.449,29.59065,-3.94107,-0.04424008,0.72568
635.149,29.6794,-3.94108,-0.04309753,0.72323
637.849,29.76823,-3.94034,-0.03897189,0.72077
640.549,29.85704,-3.93893,-0.03863139,0.7183
643.249,29.946,-3.94026,-0.03620616,0.71584
644.849,29.9987,-3.94026,-0.0367847,0.71438