File: 01_Data/Overstuffed_Chair_Polyurethane_Foam/Cone/Overstuffed_Chair_Polyurethane_Foam_Cone_HF75Scan_210325_R1.csv
Names,Time,Stack TC,Smoke TC,Exh Press,Smoke Comp,Smoke Meas,CO Meter,CO2 Meter,O2 Meter,Sample Mass,Ext Coeff,Start Test,Flame Verif
Chan Gain,,500,500,1,1,1,1,1,1,1,1,1.0,1.0
Offset,,0,0,0.138348,0,0,0,0,0,0,0,0.0,0.0
Gain,,1,1,25.011,13.5067,16.616,1,1,1,1.00091,1.04608,1.0,1.0
Units,sec,C,C,Pa,%,%,%,%,%,g,/m,,
Baseline,,40.7659,44.1739,157.204,101.516,99.1312,-0.000567699,0.0831851,20.8627,-1.15113,0.218133,,
7,1.5,36.4642,38.6964,148.987,101.548,88.1684,0.00144496,0.100185,20.7938,483.4,1.29646,0.0,1.0
14,3.25,38.8022,42.3997,142.38,101.563,78.8462,0.00362466,0.129297,20.6501,482.809,2.32318,0.0,1.0
21,5,41.5217,47.0281,139.049,101.566,75.7343,0.00659419,0.185647,20.4954,482.679,2.69295,0.0,1.0
28,6.75,42.8649,49.8207,141.024,101.589,76.2921,0.00956072,0.252659,20.3523,482.409,2.6277,0.0,0.0
35,8.5,45.0332,53.2555,129.942,101.574,74.3779,0.0123825,0.325954,20.2246,482.069,2.85953,0.0,0.0
42,10.25,47.6193,58.7878,134.901,101.589,73.5767,0.0143246,0.404461,20.1412,481.819,2.96025,0.0,0.0
49,12,49.9542,61.4711,135.489,101.584,73.6213,0.0158662,0.464801,20.0968,481.538,2.95424,0.0,0.0
56,13.75,51.5934,64.2554,137.708,101.603,75.1248,0.0175464,0.517385,20.0308,481.258,2.77049,0.0,0.0
63,15.5,54.9969,70.2508,130.602,101.604,75.9452,0.0196197,0.58423,19.8125,480.728,2.67093,0.0,0.0
70,17.25,61.489,82.1646,105.383,101.601,79.7417,0.0218461,0.691395,19.5063,480.137,2.22305,0.0,0.0
77,19,71.5493,101.013,94.9374,101.608,88.8615,0.0236083,0.89433,19.0704,479.436,1.22996,0.0,0.0
84,20.75,82.969,121.46,100.631,101.623,93.7052,0.0244293,1.16419,18.466,478.796,0.744324,0.0,0.0
91,22.5,93.9202,140.636,101.436,101.627,94.8664,0.0241199,1.46077,17.9104,478.015,0.631646,0.0,0.0
98,24.25,102.222,155.381,93.8039,101.624,94.7234,0.0228536,1.77848,17.6304,477.445,0.645264,0.0,0.0
105,26,107.698,164.317,110.983,101.627,94.2117,0.0207693,1.99069,17.5393,476.784,0.695261,0.0,0.0
112,27.75,111.464,168.033,106.376,101.641,93.5896,0.0181089,2.09253,17.6855,476.354,0.757253,0.0,0.0
119,29.5,110.902,166.306,112.222,101.644,94.944,0.0151348,2.07209,18.1037,476.063,0.625707,0.0,0.0
126,31.25,109.993,161.307,129.415,101.645,93.231,0.0125154,1.94524,18.5431,475.833,0.792879,0.0,0.0
133,33,105.109,153.381,140.471,101.643,97.1041,0.0100377,1.75088,18.9973,475.833,0.419236,0.0,0.0
140,34.75,101.879,144.511,137.309,101.646,94.6869,0.00831337,1.54119,19.4084,475.723,0.650774,0.0,0.0
147,36.5,97.7584,136.862,145.483,101.674,96.9201,0.00712879,1.31661,19.736,475.663,0.439399,0.0,0.0
154,38.25,92.9293,128.347,149.55,101.669,99.4443,0.00623735,1.11858,19.9707,475.683,0.202987,0.0,0.0
161,40,88.2311,120.163,154.642,101.671,99.676,0.00551669,0.944943,20.2085,475.713,0.181852,0.0,0.0
168,41.75,84.507,113.168,151.45,101.669,99.9326,0.00500361,0.791682,20.3968,475.703,0.158038,0.0,0.0
175,43.5,80.7898,105.946,152.649,101.679,99.6831,0.00460099,0.653334,20.5181,475.733,0.181943,0.0,0.0
182,45.25,77.6697,100.328,146.422,101.684,100.077,0.00422013,0.549547,20.5946,475.713,0.146191,0.0,0.0
189,47,74.6979,95.4417,153.226,101.685,99.993,0.00374173,0.456725,20.6505,475.713,0.153987,0.0,0.0
196,48.75,72.2428,91.1668,155.197,101.688,99.7059,0.00320498,0.387698,20.6979,475.713,0.180586,0.0,0.0
203,50.5,69.9827,87.0896,153.891,101.693,100.167,0.00265906,0.332181,20.7343,475.693,0.138783,0.0,0.0
210,52.25,67.9096,82.691,151.137,101.702,99.7602,0.00225329,0.288386,20.7551,475.683,0.176858,0.0,0.0
217,54,66.1958,79.6119,156.677,101.698,99.8763,0.00171924,0.252324,20.7747,475.683,0.165887,0.0,0.0
224,55.75,64.461,76.8407,154.954,101.695,99.7896,0.00136953,0.227211,20.7901,475.683,0.173559,0.0,0.0
231,57.5,62.2283,73.7364,154.593,101.712,100.113,0.00106642,0.201789,20.8036,475.633,0.145346,0.0,0.0
238,59.25,61.8273,71.3201,152.978,101.716,99.78,0.000878341,0.181924,20.8127,475.643,0.176304,0.0,0.0
245,61,60.2336,69.6169,150.344,101.7,100.237,0.000698484,0.16524,20.8214,475.693,0.132888,0.0,0.0
252,62.75,58.9364,67.5092,152.727,101.712,99.7937,0.000503226,0.152144,20.8287,475.683,0.174747,0.0,0.0
259,64.5,58.4559,65.6723,157.13,101.704,99.9027,0.000324153,0.141559,20.8337,475.703,0.163947,0.0,0.0
266,66.25,57.4016,64.139,155.276,101.723,99.8996,0.000196628,0.132752,20.8368,475.683,0.165938,0.0,0.0
273,68,56.3796,62.6952,153.701,101.714,99.6152,0.000115622,0.125479,20.8401,475.693,0.191324,0.0,0.0
280,69.75,55.5833,61.4102,151.612,101.704,100.155,5.21096e-05,0.120143,20.8444,475.653,0.140782,0.0,0.0
287,71.5,54.6456,60.5558,153.096,101.718,100.274,-1.91004e-05,0.115162,20.8485,475.663,0.131182,0.0,0.0
294,73.25,53.9537,59.0907,150.111,101.724,100.071,-0.000115099,0.111064,20.851,475.653,0.150365,0.0,0.0
301,75,53.205,57.9023,152.741,101.722,99.9803,-0.000177313,0.107301,20.8526,475.643,0.158498,0.0,0.0
308,76.75,52.1061,57.2776,154.567,101.707,99.8439,-0.000228597,0.104285,20.8541,475.653,0.169687,0.0,0.0
315,78.5,52.1476,56.5928,157.503,101.709,100.029,-0.000284618,0.101771,20.8549,475.653,0.152878,0.0,0.0
322,80.25,51.8948,55.6025,154.969,101.718,99.7298,-0.000346575,0.100026,20.8552,475.653,0.181108,0.0,0.0
329,82,51.0044,55.1046,152.923,101.723,99.7896,-0.000386295,0.0987997,20.8554,475.613,0.176124,0.0,0.0
336,83.75,50.9719,54.3556,154.397,101.733,99.9448,-0.000399892,0.0978811,20.8555,475.663,0.162686,0.0,0.0
343,85.5,50.1108,54.1941,155.884,101.713,99.7004,-0.000378495,0.0970855,20.8555,475.663,0.183405,0.0,0.0
350,87.25,49.7707,52.9075,156.371,101.724,100.069,-0.000336681,0.0962529,20.8555,475.653,0.150551,0.0,0.0
357,89,49.3462,52.8868,156.199,101.73,100.268,-0.000286537,0.0955178,20.8555,475.643,0.132818,0.0,0.0
364,90.75,49.5149,52.1989,156.629,101.733,99.8555,-0.000240085,0.0946568,20.8569,475.613,0.170957,0.0,0.0
371,92.5,48.5765,52.1098,155.643,101.73,99.6598,-0.000152747,0.0940347,20.8577,475.623,0.188664,0.0,0.0
378,94.25,48.9069,51.9612,158.094,101.728,99.9833,-6.59414e-05,0.0931704,20.8581,475.623,0.158739,0.0,0.0
385,96,49.2237,50.7261,152.132,101.727,99.9504,-2.25343e-05,0.0923159,20.8583,475.623,0.161653,0.0,0.0
392,97.75,48.2148,51.1804,151.212,101.742,99.9884,-4.12788e-05,0.0915812,20.8584,475.603,0.159575,0.0,0.0
399,99.5,48.2813,50.5625,156.078,101.732,99.6644,-0.000142391,0.0908388,20.8584,475.633,0.188393,0.0,0.0
406,101.25,47.9162,50.4197,153.712,101.733,99.7348,-0.000251138,0.0902037,20.858,475.613,0.181979,0.0,0.0
413,103,47.6106,50.2981,153.017,101.736,99.9696,-0.000310347,0.0895943,20.8578,475.603,0.160739,0.0,0.0
420,104.75,47.8048,50.1903,152.994,101.737,99.7927,-0.000311677,0.0890463,20.8577,475.603,0.177072,0.0,0.0
427,106.5,47.4875,50.119,156.105,101.745,99.7764,-0.00030771,0.0887864,20.8571,475.603,0.17927,0.0,0.0
434,108.25,47.5094,49.9072,153.362,101.741,100.008,-0.000348055,0.0887418,20.8562,475.613,0.157612,0.0,0.0
441,110,47.3057,49.4036,150.181,101.74,100.134,-0.000354314,0.0890788,20.8553,475.613,0.145996,0.0,0.0
448,111.75,47.1064,49.28,157.111,101.739,99.6836,-0.000274451,0.0897061,20.8531,475.583,0.187287,0.0,0.0
455,113.5,46.6439,48.9248,154.524,101.751,100.119,-0.000241752,0.0905941,20.851,475.613,0.148395,0.0,0.0
462,115.25,46.7172,49.4152,155.446,101.758,99.9808,-0.000319491,0.0916562,20.8501,475.593,0.161685,0.0,0.0
469,117,46.4656,48.8741,156.405,101.74,99.7247,-0.000440667,0.0924431,20.8501,475.583,0.183545,0.0,0.0
476,118.75,46.6267,48.3348,156.044,101.746,99.7414,-0.000487394,0.0929184,20.8518,475.603,0.182563,0.0,0.0
483,120.5,46.2978,48.9448,154.197,101.754,99.6066,-0.000441224,0.0929748,20.8533,475.613,0.195725,0.0,0.0
490,122.25,46.2637,48.1825,157.506,101.753,99.7384,-0.000393379,0.0928034,20.8548,475.603,0.183512,0.0,0.0
497,124,46.3525,48.206,150.645,101.749,99.7445,-0.000406303,0.0923436,20.8551,475.573,0.18258,0.0,0.0
504,125.75,46.4943,48.1329,153.029,101.745,99.5949,-0.000483947,0.0920287,20.8551,475.593,0.196018,0.0,0.0
511,127.5,45.5379,48.3313,151.736,101.749,99.6836,-0.000528338,0.0918945,20.8556,475.593,0.188143,0.0,0.0
518,129.25,46.4529,48.0309,152.683,101.76,99.6578,-0.000528991,0.0917377,20.8559,475.553,0.191528,0.0,0.0
525,131,45.8268,47.9624,154.616,101.75,99.889,-0.000501438,0.0914041,20.8561,475.583,0.169369,0.0,0.0
532,132.75,45.3616,47.7009,153.905,101.751,99.5954,-0.000422653,0.0908568,20.8561,475.613,0.196529,0.0,0.0
539,134.5,45.7061,47.6317,154.915,101.763,99.5442,-0.000380778,0.0901894,20.8564,475.633,0.202327,0.0,0.0
546,136.25,45.3111,47.5024,159.4,101.754,99.5569,-0.000476125,0.0892938,20.8575,475.583,0.20034,0.0,0.0
553,138,45.149,47.1612,153.384,101.762,99.9037,-0.000654817,0.0885667,20.858,475.553,0.169097,0.0,0.0
560,139.75,45.2099,47.7569,153.574,101.76,99.7668,-0.000782514,0.088101,20.8583,475.603,0.181494,0.0,0.0
567,141.5,45.1347,47.6936,156.38,101.756,99.606,-0.000847472,0.0874366,20.8594,475.583,0.195994,0.0,0.0
574,143.25,45.4429,47.4592,153.986,101.764,99.5807,-0.000817376,0.0868643,20.8601,475.563,0.198998,0.0,0.0
581,145,44.6789,47.0683,151.499,101.772,99.6806,-0.00073005,0.0864199,20.8605,475.563,0.190543,0.0,0.0
588,146.75,44.8997,46.7449,157.435,101.763,99.7049,-0.000676983,0.0859995,20.8607,475.583,0.187484,0.0,0.0
595,148.5,44.6331,47.4109,150.754,101.756,99.8834,-0.000635223,0.0856335,20.8608,475.563,0.170477,0.0,0.0
602,150.25,44.4437,47.4634,154.844,101.769,99.8038,,0.0853285,,475.553,0.178945,0.0,0.0
609,152,44.7302,46.8543,155.798,101.77,99.6025,,,,475.563,0.197547,0.0,0.0
616,153.75,44.7755,46.7646,155.809,101.766,99.3936,,,,475.563,0.216442,0.0,0.0
623,155.5,44.6932,46.6409,156.989,101.757,99.5467,,,,475.553,0.201535,0.0,0.0
630,157.25,44.3437,47.1325,158.226,101.756,99.9306,,,,475.563,0.16607,0.0,0.0
637,159,44.1173,46.6425,150.9,101.761,99.4357,,,,475.613,0.212112,0.0,0.0
639,159.5,44.3417,46.3521,159.139,101.76,99.6715,,,,475.603,0.190267,0.0,0.0