File: 01_Data/Overstuffed_Chair_Polyurethane_Foam/Cone/Overstuffed_Chair_Polyurethane_Foam_Cone_HF25Scalar_210324_R3.csv
LABORATORY,FSRI
TEST IDENT,PUF-HF25-3
OPERATOR,Morrissey
MATERIAL,1'' PUF
ORIENTATION,Horizontal
HEAT FLUX,25
SURF AREA,0.01
C FACTOR,0.0386052
SPEC HOLDER DIFF,-86.6
SPECIMEN MASS,7.8
SCAN TIME,0.25
O2 DELAY TIME,11
CO DELAY TIME,11
CO2 DELAY TIME,8
FLOW FACTOR,1
SCAN COUNT,937
TIME TO IGN,5.75
END OF TEST SCAN,457
END OF TEST TIME,114.25
TEST STATUS,1
PRE TEST CMT,test w/o retainer grid or frame
POST TEST CMT,Corner lifted with 20 seconds till burn out