File: 01_Data/Overstuffed_Chair_Polyurethane_Foam/Cone/Overstuffed_Chair_Polyurethane_Foam_Cone_HF50Scan_210326_R3.csv
Names,Time,Stack TC,Smoke TC,Exh Press,Smoke Comp,Smoke Meas,CO Meter,CO2 Meter,O2 Meter,Sample Mass,Ext Coeff,Start Test,Flame Verif
Chan Gain,,500,500,1,1,1,1,1,1,1,1,1.0,1.0
Offset,,0,0,0.138348,0,0,0,0,0,0,0,0.0,0.0
Gain,,1,1,25.011,13.5067,16.616,1,1,1,1.00091,1.04608,1.0,1.0
Units,sec,C,C,Pa,%,%,%,%,%,g,/m,,
Baseline,,35.4001,36.8739,159.038,101.197,97.3255,-0.00112009,0.0646179,20.9237,-0.180581,0.357947,,
7,1.5,32.2401,33.5381,166.662,101.655,96.3856,-0.000528484,0.0675438,20.8847,475.193,0.48843,0.0,1.0
14,3.25,32.7595,34.88,138.504,101.68,85.9261,0.000821751,0.0807466,20.7956,475.082,1.54475,0.0,1.0
21,5,35.2481,39.1114,141.552,101.684,79.3518,0.00281606,0.105695,20.6754,474.802,2.27547,0.0,1.0
28,6.75,35.7562,40.2817,142.18,101.703,78.7651,0.00481854,0.138406,20.5634,474.502,2.34528,0.0,0.0
35,8.5,37.6468,43.2691,139.694,101.717,80.7458,0.00670142,0.18187,20.469,474.282,2.11869,0.0,0.0
42,10.25,39.9058,46.0946,144.092,101.733,77.4076,0.00826043,0.224666,20.3998,474.052,2.50748,0.0,0.0
49,12,41.3676,49.5418,133.258,101.741,76.2865,0.00948872,0.263022,20.3519,473.801,2.64214,0.0,0.0
56,13.75,43.4492,51.3635,144.243,101.742,80.0987,0.0103348,0.303655,20.3095,473.481,2.19475,0.0,0.0
63,15.5,44.8757,54.5579,139.932,101.753,78.3549,0.0110506,0.340675,20.2738,473.261,2.39773,0.0,0.0
70,17.25,46.3655,56.3402,145.783,101.748,83.7755,0.0116931,0.373483,20.2527,473.071,1.78347,0.0,0.0
77,19,47.1665,58.3649,140.935,101.748,77.5253,0.0130202,0.405189,20.2141,472.75,2.49496,0.0,0.0
84,20.75,49.5032,62.8264,120.05,101.737,78.2712,0.0145541,0.438473,20.0005,472.33,2.40605,0.0,0.0
91,22.5,55.9879,74.2622,92.5636,101.771,87.7794,0.0158046,0.522174,19.4975,471.739,1.35715,0.0,0.0
98,24.25,65.1672,91.6451,104.004,101.748,93.6448,0.0166288,0.676579,18.9774,471.109,0.761505,0.0,0.0
105,26,75.0995,109.483,83.4547,101.75,95.3745,0.0170239,0.856189,18.4745,470.378,0.593789,0.0,0.0
112,27.75,84.8772,126.86,105.844,101.752,96.1716,0.0170079,1.07414,18.0658,469.698,0.517563,0.0,0.0
119,29.5,93.2105,141.454,98.6355,101.749,95.6762,0.016714,1.29465,17.8483,469.057,0.564695,0.0,0.0
126,31.25,99.61,153.049,100.624,101.754,95.087,0.0162132,1.48325,17.7792,468.567,0.62179,0.0,0.0
133,33,104.085,159.074,98.853,101.765,96.0423,0.0149243,1.61091,17.9096,468.006,0.531061,0.0,0.0
140,34.75,106.63,161.156,110.333,101.754,94.1245,0.0135477,1.67172,18.0939,467.686,0.715178,0.0,0.0
147,36.5,106.416,158.557,121.418,101.751,91.3949,0.0118155,1.65794,18.4621,467.405,0.984997,0.0,0.0
154,38.25,104.095,150.813,141.312,101.75,96.3146,0.00985913,1.59262,18.9034,467.385,0.503781,0.0,0.0
161,40,99.2215,141.424,144.346,101.768,98.3804,0.00840772,1.45947,19.4199,467.385,0.310605,0.0,0.0
168,41.75,94.3322,133.139,143.263,101.777,99.0914,0.00756982,1.30279,19.8611,467.345,0.245353,0.0,0.0
175,43.5,89.2103,124.733,149.834,101.758,98.245,0.00691563,1.14364,20.1742,467.365,0.322388,0.0,0.0
182,45.25,85.3357,117.603,150.906,101.761,98.2567,0.00627013,0.996576,20.3569,467.335,0.321521,0.0,0.0
189,47,81.7845,110.313,149.435,101.761,98.4388,0.00534284,0.874503,20.4761,467.345,0.304611,0.0,0.0
196,48.75,76.5869,103.006,157.695,101.745,98.3556,0.00443133,0.766451,20.5772,467.345,0.310916,0.0,0.0
203,50.5,73.3596,97.7686,154.935,101.735,98.4388,0.00361986,0.672324,20.6506,467.335,0.302232,0.0,0.0
210,52.25,70.8571,91.8505,157.417,101.736,98.5863,0.00292159,0.592925,20.7036,467.375,0.288598,0.0,0.0
217,54,68.0191,87.0579,151.94,101.744,98.5432,0.00225057,0.523973,20.7411,467.365,0.293317,0.0,0.0
224,55.75,65.7617,83.1791,153.44,101.728,98.6441,0.00174741,0.464946,20.7705,467.355,0.282477,0.0,0.0
231,57.5,63.355,79.161,153.096,101.726,98.3135,0.00142556,0.412595,20.7905,467.375,0.313134,0.0,0.0
238,59.25,61.6536,75.9864,155.54,101.722,98.1228,0.00121691,0.369947,20.8043,467.355,0.330575,0.0,0.0
245,61,59.506,72.5045,153.349,101.725,98.3551,0.00100854,0.334464,20.8193,467.365,0.309105,0.0,0.0
252,62.75,57.4682,69.7244,153.105,101.725,98.2663,0.000892134,0.301456,20.8339,467.345,0.317387,0.0,0.0
259,64.5,56.3293,67.3385,155.254,101.722,98.2704,0.000855189,0.272991,20.8464,467.335,0.316748,0.0,0.0
266,66.25,56.1029,64.2312,152.494,101.722,98.3962,0.000770394,0.248283,20.8544,467.325,0.305051,0.0,0.0
273,68,54.3995,62.425,157.811,101.722,98.3399,0.00054533,0.228303,20.8615,467.355,0.310264,0.0,0.0
280,69.75,52.7966,60.6255,153.494,101.745,98.4743,0.000251236,0.210566,20.8697,467.345,0.299816,0.0,0.0
287,71.5,51.7928,58.9268,155.667,101.73,98.1771,6.46319e-05,0.193784,20.876,467.335,0.326209,0.0,0.0
294,73.25,51.0368,57.7129,157.306,101.737,98.2699,-1.97894e-05,0.178952,20.8803,467.355,0.318209,0.0,0.0
301,75,50.5032,55.9084,155.599,101.719,98.6573,-8.85035e-05,0.166797,20.8845,467.325,0.280432,0.0,0.0
308,76.75,49.68,54.9641,155.462,101.726,98.5163,-0.000155223,0.156363,20.888,467.345,0.294185,0.0,0.0
315,78.5,48.7104,53.2008,154.377,101.72,98.4595,-0.000172174,0.146792,20.8912,467.375,0.298955,0.0,0.0
322,80.25,48.6503,51.7233,155.925,101.711,98.2288,-0.000145915,0.138545,20.8941,467.325,0.319628,0.0,0.0
329,82,47.3891,51.9869,157.269,101.72,98.3556,-0.000129886,0.130619,20.8963,467.325,0.308612,0.0,0.0
336,83.75,46.958,50.2771,156.615,101.71,98.3252,-0.000257244,0.124836,20.8981,467.365,0.310559,0.0,0.0
343,85.5,46.1049,49.6317,154.532,101.713,98.5904,-0.00036969,0.118884,20.8995,467.355,0.286139,0.0,0.0
350,87.25,45.6631,48.2703,156.318,101.698,98.5006,-0.000424443,0.113419,20.9022,467.335,0.293157,0.0,0.0
357,89,45.3561,47.9373,154.767,101.705,98.3049,-0.000484145,0.108852,20.9033,467.365,0.312041,0.0,0.0
364,90.75,44.8934,47.391,152.606,101.709,98.1274,-0.000591886,0.105167,20.9045,467.355,0.328958,0.0,0.0
371,92.5,44.6325,46.883,155.125,101.727,98.3262,-0.000750338,0.101171,20.9067,467.345,0.311988,0.0,0.0
378,94.25,43.8734,46.631,155.698,101.74,98.6218,-0.000928364,0.0974297,20.9087,467.335,0.285667,0.0,0.0
385,96,43.7244,45.9083,157.234,101.744,98.2237,-0.00104248,0.0944201,20.9103,467.325,0.323077,0.0,0.0
392,97.75,43.0744,45.6393,155.758,101.751,98.4935,-0.00103601,0.0917737,20.911,467.335,0.298578,0.0,0.0
399,99.5,43.1188,44.7427,152.92,101.775,98.4398,-0.00096208,0.0894651,20.9128,467.335,0.305743,0.0,0.0
406,101.25,43.4615,44.448,154.667,101.791,98.3784,-0.0009477,0.087296,20.9139,467.345,0.312913,0.0,0.0
413,103,42.4632,44.2068,155.359,101.785,98.4129,-0.000998435,0.0853451,20.9144,467.335,0.309141,0.0,0.0
420,104.75,42.9001,43.9792,154.294,101.794,98.3612,-0.00103952,0.0836001,20.9146,467.345,0.314781,0.0,0.0
427,106.5,42.5409,43.8253,155.431,101.805,98.3262,-0.00104391,0.082122,20.9149,467.345,0.319013,0.0,0.0
434,108.25,41.6285,43.7419,154.903,101.822,98.6928,-0.000985751,0.0807583,20.9154,467.315,0.286386,0.0,0.0
441,110,41.6279,43.606,154.116,101.834,98.5427,-0.000882492,0.0793834,20.9163,467.355,0.301466,0.0,0.0
448,111.75,41.4195,42.6115,157.426,101.848,98.4646,-0.000764134,0.0781064,20.917,467.315,0.309965,0.0,0.0
455,113.5,41.1749,42.9442,155.243,101.84,98.2456,-0.00070485,0.0769871,20.9181,467.325,0.329697,0.0,0.0
462,115.25,41.195,42.475,156.267,101.849,98.5807,-0.000743308,0.0759248,20.9187,467.285,0.299299,0.0,0.0
469,117,41.1432,42.2059,154.986,101.866,98.4261,-0.000847008,0.0749791,20.9189,467.315,0.315229,0.0,0.0
476,118.75,40.9058,42.0715,153.5,101.879,98.424,-0.000882793,0.0742418,20.919,467.375,0.316605,0.0,0.0
483,120.5,40.3699,41.8294,156.465,101.869,98.2334,-0.000813844,0.0735101,20.9194,467.415,0.333434,0.0,0.0
490,122.25,40.9402,41.1577,155.544,101.872,98.4514,-0.000810699,0.0729101,20.9197,467.325,0.313385,0.0,0.0
497,124,40.1224,41.408,156.616,101.893,98.3612,-0.00095381,0.0722376,20.9199,467.335,0.323695,0.0,0.0
504,125.75,39.9415,41.5057,156.081,101.904,98.4119,-0.00108338,0.0715175,20.9199,467.345,0.320006,0.0,0.0
511,127.5,40.8104,41.1202,153.639,101.898,98.3815,-0.00102599,0.0709325,20.9209,467.355,0.322285,0.0,0.0
518,129.25,40.2474,41.2946,155.282,101.895,98.4251,-0.000928264,0.0704779,20.9217,467.345,0.317884,0.0,0.0
525,131,39.6082,40.7469,154.98,101.935,98.349,-0.000819743,0.0700796,20.9215,467.375,0.328653,0.0,0.0
532,132.75,39.9147,41.001,155.52,101.903,98.6411,-0.000790263,0.0698161,20.9214,467.365,0.29851,0.0,0.0
539,134.5,39.8354,40.6834,155.949,101.925,98.5239,-0.000851431,0.0694791,20.9214,467.365,0.311454,0.0,0.0
546,136.25,40.0251,40.9028,152.847,101.929,98.5239,-0.000927795,0.0690961,20.9226,467.365,0.311751,0.0,0.0
553,138,39.425,41.5081,155.999,101.939,98.456,-0.000969202,0.0688397,20.9231,467.375,0.319009,0.0,0.0
560,139.75,39.3566,40.798,154.843,101.942,98.3424,-0.000948539,0.068426,20.9234,467.365,0.329825,0.0,0.0
567,141.5,39.3359,40.5523,156.583,101.958,98.4266,-0.000955759,0.067998,20.9235,467.345,0.323421,0.0,0.0
574,143.25,39.0551,40.7025,152.221,101.946,98.6365,-0.000991361,0.0677437,20.9224,467.335,0.302832,0.0,0.0
581,145,39.3931,40.0715,155.268,101.946,98.4185,-0.00097801,0.067535,20.9218,467.325,0.323175,0.0,0.0
588,146.75,38.8792,40.4329,152.097,101.971,98.6101,-0.000937298,0.0673574,20.922,467.305,0.30751,0.0,0.0
595,148.5,38.6296,39.8661,159.764,101.972,98.5924,-0.00091627,0.0670914,20.9229,467.275,0.309236,0.0,0.0
602,150.25,38.9875,40.2252,157.258,101.986,98.5468,-0.000928613,0.0669019,20.9233,467.295,0.314782,0.0,0.0
609,152,38.6596,40.1883,153.987,101.948,98.4535,-0.000955247,0.0668231,20.9235,467.285,0.320062,0.0,0.0
616,153.75,38.2714,39.5307,157.117,101.961,98.5919,-0.000996771,0.0667682,20.9243,467.295,0.30832,0.0,0.0
623,155.5,38.2331,39.4358,155.453,101.974,98.5179,-0.0010876,0.0665432,20.9248,467.305,0.316436,0.0,0.0
630,157.25,39.1167,40.0889,158.062,101.969,98.4692,,0.0662953,,467.305,0.320451,0.0,0.0
637,159,38.8917,39.4795,153.741,101.951,98.4195,,0.0661773,,467.325,0.323526,0.0,0.0
644,160.75,38.0396,40.1119,152.871,101.962,98.597,,,,467.315,0.307958,0.0,0.0
651,162.5,38.3997,39.7857,157.594,101.967,98.2684,,,,467.315,0.338998,0.0,0.0
658,164.25,38.3746,39.525,153.359,101.977,98.4504,,,,467.305,0.322905,0.0,0.0
665,166,38.2876,39.5842,158.049,101.953,98.3003,,,,467.315,0.334755,0.0,0.0
671,167.5,37.7381,39.1696,153.572,101.963,98.49,,,,467.315,0.317958,0.0,0.0