File: 01_Data/Wool_Rug/MCC/Wool_Rug_MCC_30K_min_211116_R4.txt
Sample ID:	C:\MCC\MCC Cal\Test\Wool_Rug\Wool_Rug_MCC_30K_min_211116_R4.txt
Sample Weight (mg):	4.85
Heating Rate (C/s):	0.5
Combustor Temp (C):	900
N2 Flow Rate (cc/min):	80
O2 Flow Rate (cc/min):	20
Calibration File:	C:\MCC\MCC Cal\Coeff1 JN10440_30_210304.txt.txt
T Correction Coefficients:	0	1.024463	0
Time Shift (s):	14
*
Time (s)	Temperature (C)	N2 flow rate (cc/min)	O2 flow rate (cc/min)	Flow Rate (cc/min)	Oxygen (%)	HRR (W/g)	Heating rate (C/s)
0.000	110.566	80.006	19.998	103.091	20.002	0.007	0.006
8.000	110.526	80.006	19.997	103.101	20.001	0.076	-0.016
16.000	110.519	80.009	19.996	103.104	20.002	0.020	-0.002
24.000	110.527	80.007	19.995	103.088	20.002	-0.025	-0.014
32.000	110.518	80.006	19.994	103.094	20.005	-0.182	-0.014
40.000	110.547	80.006	19.996	103.090	20.005	-0.200	-0.010
48.000	110.530	80.007	19.996	103.081	20.009	-0.438	0.011
56.000	110.526	80.007	19.994	103.073	20.006	-0.290	0.026
64.001	110.457	80.005	19.996	103.072	20.008	-0.420	0.032
72.000	110.476	80.008	19.994	103.079	20.003	-0.063	-0.007
80.001	110.384	80.006	19.994	103.105	20.007	-0.357	-0.042
88.000	110.322	80.006	19.997	103.076	20.008	-0.411	-0.007
96.001	110.307	80.005	20.001	103.069	20.010	-0.499	-0.017
104.000	110.267	80.005	20.001	103.059	20.008	-0.370	0.010
112.000	110.206	80.005	19.995	103.087	20.012	-0.664	-0.011
120.001	110.180	80.005	19.995	103.412	19.961	2.709	-0.000
128.000	111.711	80.006	19.995	103.670	19.909	6.226	0.300
136.000	114.874	80.007	19.996	103.646	19.906	6.391	0.475
144.000	119.259	80.004	19.996	103.608	19.909	6.228	0.613
152.000	124.501	80.009	19.996	103.572	19.914	5.885	0.677
160.000	130.348	80.010	19.995	103.525	19.926	5.037	0.766
168.000	136.449	80.008	19.994	103.493	19.932	4.668	0.762
176.000	142.691	80.008	19.995	103.450	19.937	4.356	0.783
184.000	148.922	80.007	19.994	103.419	19.946	3.733	0.797
192.000	155.042	80.008	19.995	103.406	19.952	3.303	0.743
200.000	160.997	80.005	19.999	103.371	19.956	3.066	0.720
208.000	166.833	80.002	19.991	103.352	19.964	2.543	0.748
216.000	172.319	80.008	19.995	103.335	19.970	2.142	0.688
224.000	177.603	80.005	19.996	103.336	19.969	2.176	0.627
232.000	182.811	80.009	19.991	103.334	19.971	2.090	0.638
240.000	187.886	80.008	19.992	103.311	19.970	2.154	0.620
248.000	192.703	80.004	19.995	103.304	19.973	1.924	0.575
256.000	197.435	80.009	19.990	103.293	19.974	1.895	0.597
264.000	202.011	80.007	19.995	103.284	19.973	1.915	0.560
272.000	206.485	80.007	19.998	103.274	19.969	2.192	0.561
280.000	210.831	80.008	19.996	103.272	19.965	2.433	0.542
288.000	215.028	80.006	19.997	103.253	19.957	2.981	0.536
296.000	219.135	80.005	19.996	103.249	19.946	3.696	0.500
304.000	223.159	80.007	19.996	103.246	19.933	4.573	0.519
312.000	227.064	80.006	19.994	103.243	19.923	5.264	0.484
320.000	230.964	80.007	19.997	103.220	19.913	5.945	0.451
328.000	234.892	80.009	19.995	103.221	19.910	6.108	0.487
336.000	238.704	80.009	19.994	103.220	19.910	6.098	0.466
344.000	242.498	80.010	19.994	103.234	19.907	6.301	0.466
352.000	246.377	80.005	19.994	103.241	19.893	7.251	0.476
360.000	250.284	80.006	19.997	103.252	19.892	7.314	0.490
368.000	254.223	80.007	19.995	103.254	19.885	7.798	0.494
376.000	258.127	80.006	19.996	103.252	19.872	8.606	0.493
384.000	262.054	80.006	19.996	103.243	19.860	9.458	0.497
392.000	266.014	80.007	19.996	103.243	19.848	10.249	0.519
400.000	269.999	80.009	19.994	103.246	19.834	11.155	0.482
408.000	274.080	80.008	19.995	103.253	19.817	12.315	0.505
416.000	278.133	80.007	19.995	103.253	19.795	13.747	0.532
424.000	282.150	80.008	19.994	103.253	19.769	15.505	0.533
432.000	286.153	80.006	19.994	103.261	19.740	17.386	0.494
440.000	290.182	80.006	19.994	103.265	19.708	19.538	0.496
448.000	294.243	80.006	19.997	103.282	19.678	21.502	0.522
456.000	298.308	80.008	19.996	103.290	19.637	24.256	0.509
464.000	302.330	80.005	19.996	103.289	19.596	26.979	0.503
472.000	306.322	80.006	19.996	103.295	19.560	29.385	0.499
480.000	310.358	80.008	19.997	103.300	19.526	31.638	0.499
488.000	314.441	80.007	19.995	103.322	19.501	33.311	0.528
496.000	318.425	80.007	19.993	103.300	19.476	34.978	0.513
504.000	322.396	80.008	19.995	103.323	19.468	35.466	0.494
512.000	326.370	80.008	19.995	103.325	19.456	36.263	0.498
520.000	330.411	80.006	19.994	103.321	19.454	36.412	0.498
528.000	334.460	80.006	19.995	103.310	19.447	36.927	0.531
536.000	338.516	80.006	19.995	103.319	19.433	37.855	0.549
544.000	342.606	80.005	19.995	103.329	19.437	37.538	0.504
552.000	346.640	80.007	19.994	103.331	19.441	37.270	0.531
560.000	350.772	80.008	19.995	103.311	19.455	36.372	0.500
568.000	354.858	80.007	19.996	103.291	19.480	34.654	0.512
576.000	358.880	80.007	19.994	103.272	19.514	32.412	0.492
584.000	362.826	80.010	19.994	103.258	19.550	30.011	0.486
592.000	366.762	80.006	19.995	103.250	19.582	27.897	0.490
600.000	370.640	80.005	19.995	103.242	19.615	25.732	0.501
608.000	374.540	80.008	19.995	103.218	19.645	23.675	0.489
616.000	378.485	80.006	19.994	103.217	19.673	21.824	0.498
624.000	382.395	80.006	19.996	103.216	19.698	20.159	0.504
632.000	386.393	80.007	19.996	103.217	19.721	18.672	0.518
640.000	390.387	80.008	19.995	103.209	19.744	17.154	0.514
648.000	394.474	80.007	19.995	103.214	19.763	15.854	0.580
656.000	398.420	80.008	19.995	103.203	19.771	15.369	0.568
664.000	402.976	80.008	19.996	103.201	19.788	14.194	1.132
672.000	406.582	80.006	19.995	103.208	19.797	13.637	0.524
680.001	410.588	80.007	19.994	103.200	19.813	12.554	0.453
688.000	414.595	80.006	19.994	103.193	19.832	11.280	0.486
696.000	418.586	80.007	19.995	103.202	19.853	9.902	0.502
704.000	422.586	80.006	19.995	103.190	19.872	8.600	0.509
712.000	426.668	80.007	19.995	103.204	19.889	7.471	0.515
720.001	430.746	80.007	19.996	103.180	19.897	7.002	0.498
728.000	434.843	80.008	19.995	103.177	19.906	6.392	0.521
736.000	438.873	80.007	19.995	103.178	19.917	5.677	0.490
744.000	442.946	80.007	19.996	103.177	19.924	5.190	0.507
752.000	446.957	80.003	19.995	103.172	19.933	4.605	0.494
760.001	450.956	80.006	19.996	103.178	19.943	3.926	0.507
768.000	455.002	80.006	19.995	103.175	19.951	3.391	0.511
776.000	458.964	80.005	19.995	103.177	19.959	2.866	0.504
784.000	463.048	80.005	19.996	103.169	19.969	2.217	0.496
792.001	467.117	80.007	19.994	103.170	19.975	1.772	0.514
800.000	471.263	80.007	19.995	103.173	19.983	1.292	0.468
808.000	475.464	80.007	19.994	103.168	19.994	0.547	0.499
816.000	479.733	80.008	19.995	103.168	20.001	0.090	0.527
824.000	483.926	80.006	19.995	103.155	20.013	-0.696	0.518
832.000	488.164	80.004	19.995	103.140	20.015	-0.871	0.533
840.000	492.292	80.005	19.996	103.141	20.023	-1.366	0.515
848.000	496.519	80.005	19.995	103.136	20.036	-2.278	0.529
856.000	500.629	80.006	19.995	103.135	20.040	-2.549	0.512
864.000	504.777	80.005	19.996	103.144	20.051	-3.269	0.501
872.000	508.890	80.006	19.995	103.140	20.056	-3.563	0.552
880.000	512.912	80.006	19.996	103.140	20.065	-4.200	0.496
888.000	517.039	80.006	19.995	103.142	20.074	-4.744	0.518
896.000	521.121	80.009	19.994	103.136	20.076	-4.880	0.524
904.000	525.209	80.007	19.995	103.137	20.078	-5.044	0.512
912.000	529.282	80.006	19.996	103.137	20.082	-5.316	0.516
920.000	533.355	80.005	19.995	103.136	20.086	-5.565	0.528
928.000	537.470	80.005	19.996	103.137	20.086	-5.580	0.518
936.000	541.547	80.006	19.996	103.140	20.090	-5.811	0.517
944.000	545.657	80.004	19.993	103.142	20.092	-6.000	0.524
952.000	549.772	80.007	19.994	103.134	20.095	-6.189	0.521
960.000	553.890	80.005	19.994	103.134	20.096	-6.265	0.510
968.000	557.964	80.007	19.994	103.134	20.098	-6.364	0.487
976.000	562.070	80.009	19.994	103.136	20.100	-6.523	0.513
984.000	566.126	80.006	19.994	103.138	20.099	-6.401	0.550
992.000	570.176	80.004	19.995	103.135	20.100	-6.487	0.505
1000.000	574.282	80.004	19.996	103.134	20.101	-6.575	0.542
1008.000	578.321	80.006	19.997	103.140	20.102	-6.647	0.509
1016.000	582.326	80.005	19.996	103.139	20.110	-7.163	0.508
1024.000	586.358	80.008	19.996	103.128	20.110	-7.159	0.516
1032.000	590.393	80.007	19.994	103.110	20.111	-7.248	0.496
1040.000	594.472	80.007	19.995	103.132	20.117	-7.638	0.518
1048.000	598.561	80.006	19.995	103.122	20.115	-7.511	0.525
1056.000	602.621	80.006	19.994	103.135	20.128	-8.333	0.530
1064.000	606.672	80.005	19.995	103.136	20.127	-8.321	0.513
1072.000	610.814	80.006	19.994	103.135	20.130	-8.505	0.494
1080.000	614.912	80.005	19.995	103.131	20.136	-8.860	0.534
1088.001	619.001	80.005	19.996	103.137	20.138	-9.044	0.514
1096.000	623.067	80.005	19.996	103.135	20.137	-8.948	0.535
1104.000	627.108	80.006	19.995	103.127	20.135	-8.790	0.503
1112.000	631.141	80.005	19.996	103.132	20.137	-8.978	0.507
1120.000	635.228	80.005	19.995	103.130	20.141	-9.191	0.517
1128.001	639.267	80.009	19.994	103.137	20.137	-8.986	0.493
1136.001	643.288	80.006	19.994	103.134	20.138	-9.019	0.514
1144.000	647.288	80.006	19.995	103.145	20.140	-9.127	0.495
1152.000	651.311	80.005	19.994	103.151	20.139	-9.074	0.510
1160.000	655.291	80.005	19.995	103.153	20.137	-8.949	0.483
1168.001	659.281	80.004	19.995	103.167	20.137	-8.958	0.542
1176.000	663.324	80.006	19.995	103.172	20.134	-8.739	0.494
1184.000	667.336	80.007	19.995	103.182	20.137	-8.935	0.521
1192.001	671.410	80.005	19.996	103.180	20.134	-8.782	0.492
1200.000	675.489	80.004	19.995	103.205	20.137	-8.963	0.510
1208.001	679.566	80.008	19.994	103.221	20.137	-8.969	0.505
1216.001	683.647	80.005	19.995	103.213	20.136	-8.897	0.519
1224.000	687.630	80.006	19.996	103.230	20.139	-9.119	0.503
1232.001	691.677	80.006	19.994	103.247	20.135	-8.833	0.498
1240.000	695.612	80.005	19.994	103.255	20.135	-8.801	0.479
1248.000	699.704	80.003	19.994	103.259	20.134	-8.781	0.505
1256.000	703.631	80.005	19.995	103.258	20.130	-8.521	0.469
1264.001	707.695	80.007	19.995	103.257	20.135	-8.860	0.519
1272.000	711.639	80.007	19.995	103.254	20.134	-8.746	0.528
1280.000	715.665	80.006	19.995	103.251	20.130	-8.463	0.504
1288.000	719.713	80.008	19.995	103.216	20.132	-8.660	0.523
1296.000	723.713	80.005	19.995	103.214	20.136	-8.867	0.520
1304.000	727.793	80.004	19.994	103.189	20.141	-9.214	0.480
1312.000	731.791	80.006	19.995	103.178	20.144	-9.437	0.514
1320.000	735.760	80.006	19.994	103.146	20.145	-9.485	0.502
1328.000	739.774	80.006	19.996	103.144	20.149	-9.720	0.502
1335.500	743.508	80.006	19.995	103.137	20.153	-10.040	0.477