File: 01_Data/Wool_Rug/MCC/Wool_Rug_MCC_30K_min_211115_O3.txt
Sample ID:	C:\MCC\MCC Cal\Test\Wool_Rug_MCC_30K_min_211115_R3.txt
Sample Weight (mg):	4.78
Heating Rate (C/s):	0.5
Combustor Temp (C):	900
N2 Flow Rate (cc/min):	80
O2 Flow Rate (cc/min):	20
Calibration File:	C:\MCC\MCC Cal\Coeff1 JN10440_30_210304.txt.txt
T Correction Coefficients:	0	1.024463	0
Time Shift (s):	14
*
Time (s)	Temperature (C)	N2 flow rate (cc/min)	O2 flow rate (cc/min)	Flow Rate (cc/min)	Oxygen (%)	HRR (W/g)	Heating rate (C/s)
0.000	104.848	80.005	19.994	103.074	20.102	-0.140	0.012
8.000	104.856	80.005	19.994	103.061	20.102	-0.144	0.005
16.000	104.833	80.005	19.994	103.074	20.104	-0.230	-0.039
24.000	104.836	80.003	19.994	103.062	20.102	-0.138	0.012
32.001	104.868	80.005	19.994	103.060	20.103	-0.184	0.028
40.000	104.865	80.001	19.994	103.048	20.101	-0.030	-0.021
48.000	104.881	80.006	19.995	103.185	20.103	-0.186	0.011
56.000	105.400	80.004	19.994	103.298	20.104	-0.227	0.121
64.000	106.536	80.005	19.995	103.288	20.099	0.059	0.203
72.000	108.200	80.006	19.995	103.303	20.101	-0.048	0.206
80.001	110.194	80.006	19.994	103.293	20.105	-0.306	0.239
88.000	112.487	80.003	19.994	103.286	20.097	0.222	0.311
96.000	114.954	80.004	19.995	103.324	20.103	-0.222	0.322
104.000	117.641	80.005	19.994	103.296	20.098	0.138	0.345
112.000	120.562	80.006	19.993	103.327	20.103	-0.188	0.374
120.000	123.662	80.004	19.993	103.324	20.099	0.050	0.398
128.000	127.054	80.005	19.993	103.335	20.098	0.114	0.447
136.000	130.538	80.004	19.994	103.333	20.102	-0.094	0.443
144.001	134.237	80.004	19.995	103.363	20.104	-0.255	0.440
152.000	138.074	80.006	19.994	103.341	20.102	-0.113	0.477
160.000	142.015	80.007	19.995	103.306	20.102	-0.113	0.486
168.000	146.017	80.003	19.994	103.318	20.101	-0.037	0.518
176.000	149.996	80.005	19.993	103.292	20.098	0.120	0.506
184.000	153.801	80.004	19.995	103.331	20.104	-0.271	0.468
192.001	157.710	80.006	19.994	103.282	20.100	0.004	0.493
200.000	161.554	80.003	19.994	103.259	20.097	0.186	0.486
208.000	165.447	80.006	19.994	103.320	20.103	-0.161	0.469
216.000	169.361	80.007	19.992	103.265	20.102	-0.124	0.504
224.000	173.267	80.006	19.994	103.281	20.099	0.048	0.489
232.000	177.102	80.007	19.995	103.270	20.104	-0.233	0.460
240.000	180.981	80.008	19.995	103.290	20.096	0.308	0.471
248.000	184.789	80.005	19.995	103.295	20.096	0.275	0.495
256.000	188.723	80.002	19.995	103.288	20.091	0.633	0.504
264.000	192.669	80.003	19.995	103.272	20.083	1.133	0.516
272.000	196.614	80.007	19.995	103.274	20.078	1.518	0.484
280.000	200.596	80.004	19.994	103.257	20.066	2.275	0.488
288.000	204.663	80.004	19.995	103.259	20.046	3.638	0.514
296.000	208.701	80.006	19.993	103.262	20.027	4.929	0.519
304.000	212.788	80.006	19.994	103.237	20.010	6.098	0.511
312.000	216.861	80.006	19.994	103.251	19.996	7.030	0.511
320.000	220.900	80.008	19.996	103.240	19.983	7.872	0.518
328.000	224.915	80.004	19.994	103.216	19.974	8.526	0.526
336.000	228.922	80.003	19.994	103.217	19.968	8.931	0.504
344.000	232.901	80.002	19.995	103.216	19.964	9.151	0.515
352.000	236.875	80.003	19.995	103.202	19.955	9.761	0.504
360.000	240.830	80.004	19.994	103.219	19.946	10.371	0.501
368.000	244.837	80.003	19.994	103.216	19.934	11.207	0.493
376.000	248.848	80.007	19.995	103.239	19.909	12.875	0.522
384.000	252.884	80.005	19.993	103.235	19.892	14.045	0.498
392.000	256.929	80.006	19.994	103.239	19.866	15.792	0.487
400.000	260.964	80.008	19.993	103.218	19.838	17.686	0.500
408.000	264.922	80.007	19.993	103.188	19.814	19.269	0.506
416.000	268.907	80.003	19.995	103.210	19.784	21.289	0.506
424.000	272.965	80.003	19.995	103.192	19.757	23.122	0.504
432.000	276.948	80.004	19.996	103.225	19.727	25.148	0.498
440.000	280.955	80.004	19.995	103.236	19.702	26.795	0.500
448.000	284.904	80.002	19.996	103.221	19.682	28.185	0.475
456.000	288.926	80.005	19.995	103.246	19.659	29.748	0.494
464.000	293.056	80.008	19.993	103.221	19.641	30.912	0.530
472.000	297.062	80.006	19.994	103.242	19.623	32.175	0.465
480.000	301.179	80.007	19.994	103.247	19.607	33.241	0.538
488.000	305.274	80.007	19.994	103.252	19.591	34.326	0.512
496.000	309.520	80.008	19.994	103.277	19.569	35.802	0.663
504.000	313.611	80.008	19.994	103.276	19.552	36.930	0.404
512.000	317.652	80.005	19.995	103.279	19.531	38.375	0.500
520.000	321.747	80.006	19.995	103.278	19.516	39.357	0.482
528.000	325.901	80.004	19.994	103.261	19.509	39.802	0.528
536.000	330.034	80.006	19.995	103.253	19.515	39.391	0.522
544.000	334.172	80.007	19.996	103.219	19.529	38.488	0.542
552.000	338.200	80.006	19.994	103.209	19.555	36.702	0.480
560.000	342.247	80.008	19.994	103.231	19.590	34.366	0.466
568.000	346.267	80.008	19.993	103.182	19.622	32.223	0.510
576.000	350.298	80.005	19.995	103.182	19.657	29.835	0.487
584.000	354.327	80.005	19.995	103.232	19.685	27.964	0.507
592.000	358.201	80.006	19.993	103.220	19.710	26.258	0.475
600.000	362.133	80.005	19.994	103.248	19.740	24.238	0.501
608.000	366.019	80.005	19.994	103.216	19.761	22.850	0.459
616.000	369.980	80.005	19.995	103.225	19.783	21.403	0.492
624.000	373.916	80.007	19.994	103.248	19.800	20.255	0.496
632.000	377.924	80.007	19.995	103.244	19.816	19.185	0.497
640.000	381.965	80.006	19.994	103.237	19.833	18.012	0.498
648.000	386.161	80.008	19.993	103.262	19.845	17.205	0.548
656.000	390.224	80.007	19.994	103.254	19.856	16.443	0.570
664.000	394.298	80.005	19.993	103.251	19.864	15.884	0.525
672.000	398.359	80.005	19.995	103.251	19.870	15.504	0.522
680.000	402.458	80.006	19.994	103.253	19.874	15.256	0.498
688.000	406.534	80.006	19.994	103.246	19.873	15.277	0.513
696.000	410.720	80.005	19.995	103.246	19.872	15.382	0.554
704.000	414.848	80.007	19.994	103.264	19.872	15.407	0.515
712.000	419.014	80.007	19.995	103.257	19.865	15.863	0.516
720.000	423.133	80.005	19.995	103.270	19.848	17.009	0.521
728.000	427.223	80.007	19.995	103.264	19.831	18.163	0.492
736.000	431.283	80.007	19.994	103.284	19.809	19.593	0.474
744.000	435.377	80.004	19.993	103.266	19.781	21.551	0.493
752.000	439.496	80.005	19.994	103.294	19.746	23.854	0.476
760.000	443.577	80.005	19.994	103.302	19.722	25.482	0.518
768.000	447.627	80.006	19.995	103.309	19.706	26.563	0.496
776.000	451.701	80.003	19.994	103.333	19.697	27.162	0.504
784.000	455.664	80.006	19.995	103.333	19.694	27.379	0.489
792.000	459.713	80.005	19.994	103.337	19.690	27.657	0.509
800.000	463.795	80.007	19.996	103.336	19.693	27.496	0.500
808.000	467.855	80.006	19.995	103.333	19.690	27.672	0.518
816.000	471.994	80.008	19.994	103.334	19.687	27.879	0.510
824.000	476.147	80.004	19.996	103.349	19.697	27.223	0.509
832.000	480.209	80.004	19.996	103.340	19.693	27.451	0.505
840.000	484.228	80.004	19.994	103.348	19.701	26.897	0.474
848.000	488.229	80.003	19.993	103.341	19.707	26.506	0.475
856.000	492.218	80.005	19.994	103.342	19.716	25.898	0.483
864.000	496.164	80.007	19.995	103.348	19.722	25.492	0.506
872.000	500.074	80.006	19.993	103.328	19.727	25.200	0.506
880.000	503.981	80.006	19.994	103.339	19.740	24.276	0.465
888.000	507.991	80.006	19.996	103.339	19.749	23.651	0.547
896.000	512.088	80.006	19.994	103.332	19.752	23.510	0.497
904.000	516.155	80.005	19.994	103.335	19.755	23.286	0.494
912.000	520.248	80.004	19.994	103.361	19.747	23.813	0.509
920.000	524.344	80.004	19.995	103.368	19.747	23.843	0.485
928.000	528.438	80.005	19.995	103.371	19.737	24.511	0.540
936.000	532.605	80.006	19.995	103.361	19.737	24.508	0.502
944.000	536.812	80.006	19.995	103.334	19.752	23.500	0.541
952.000	540.854	80.007	19.994	103.345	19.778	21.740	0.478
960.000	544.725	80.005	19.994	103.351	19.802	20.129	0.500
968.000	548.487	80.005	19.992	103.299	19.831	18.141	0.459
976.000	552.182	80.007	19.993	103.297	19.857	16.402	0.456
984.000	555.988	80.006	19.994	103.293	19.893	13.964	0.482
992.000	559.753	80.004	19.994	103.278	19.924	11.843	0.465
1000.000	563.602	80.005	19.994	103.252	19.944	10.497	0.476
1008.000	567.532	80.004	19.994	103.271	19.971	8.704	0.498
1016.000	571.411	80.004	19.995	103.277	19.991	7.350	0.488
1024.000	575.342	80.005	19.996	103.212	20.013	5.861	0.508
1032.000	579.318	80.007	19.994	103.242	20.032	4.602	0.550
1040.001	583.381	80.006	19.993	103.231	20.047	3.557	0.532
1048.001	587.572	80.003	19.993	103.197	20.056	2.963	0.521
1056.000	591.736	80.007	19.994	103.202	20.065	2.378	0.514
1064.001	595.961	80.006	19.994	103.205	20.074	1.753	0.516
1072.000	599.969	80.004	19.993	103.182	20.076	1.636	0.516
1080.000	603.933	80.003	19.995	103.198	20.071	1.988	0.462
1088.000	607.948	80.005	19.994	103.211	20.077	1.567	0.514
1096.000	611.971	80.003	19.993	103.200	20.070	2.038	0.486
1104.001	616.000	80.002	19.994	103.215	20.082	1.249	0.493
1112.000	619.952	80.005	19.995	103.216	20.076	1.656	0.472
1120.000	623.939	80.005	19.992	103.232	20.072	1.882	0.512
1128.000	628.060	80.005	19.993	103.200	20.070	2.020	0.521
1136.000	632.363	80.006	19.995	103.227	20.066	2.274	0.554
1144.001	636.746	80.007	19.993	103.218	20.069	2.121	0.570
1152.000	641.047	80.005	19.995	103.242	20.070	2.035	0.560
1160.000	645.350	80.005	19.994	103.246	20.066	2.284	0.577
1168.000	649.429	80.005	19.994	103.284	20.063	2.520	0.512
1176.001	653.474	80.004	19.993	103.239	20.059	2.750	0.494
1184.000	657.538	80.003	19.994	103.259	20.056	2.985	0.492
1192.000	661.640	80.004	19.995	103.275	20.053	3.184	0.518
1200.000	665.676	80.005	19.995	103.257	20.053	3.163	0.493
1208.000	669.749	80.006	19.995	103.299	20.061	2.661	0.523
1216.000	673.874	80.005	19.994	103.319	20.058	2.854	0.545
1224.000	678.114	80.007	19.994	103.292	20.054	3.114	0.526
1232.000	682.378	80.005	19.995	103.307	20.055	3.078	0.553
1240.000	686.520	80.005	19.994	103.326	20.052	3.246	0.495
1248.000	690.726	80.006	19.994	103.305	20.057	2.941	0.528
1256.000	694.945	80.007	19.995	103.325	20.054	3.090	0.527
1264.001	699.158	80.005	19.994	103.331	20.057	2.911	0.546
1272.001	703.303	80.004	19.995	103.294	20.050	3.362	0.514
1280.000	707.314	80.007	19.995	103.323	20.051	3.287	0.480
1288.000	711.335	80.006	19.994	103.286	20.058	2.841	0.483
1296.000	715.338	80.006	19.995	103.222	20.058	2.836	0.508
1304.000	719.442	80.008	19.995	103.213	20.067	2.199	0.502
1312.001	723.494	80.006	19.992	103.173	20.066	2.326	0.544
1320.000	727.476	80.004	19.995	103.183	20.065	2.356	0.522
1328.000	731.448	80.005	19.995	103.143	20.069	2.072	0.532
1336.000	735.470	80.006	19.995	103.156	20.064	2.428	0.532
1344.000	739.386	80.005	19.993	103.173	20.066	2.273	0.488
1352.000	743.305	80.005	19.996	103.177	20.065	2.363	0.500
1353.000	743.816	80.004	19.994	103.179	20.070	2.014	0.500