File: 01_Data/Wool_Rug/MCC/Wool_Rug_MCC_30K_min_211112_R1.txt
Sample ID:	C:\MCC\MCC Cal\Test\Wool_Rug_MCC_30K_min_211112_R1.txt
Sample Weight (mg):	4.72
Heating Rate (C/s):	0.5
Combustor Temp (C):	900
N2 Flow Rate (cc/min):	80
O2 Flow Rate (cc/min):	20
Calibration File:	C:\MCC\MCC Cal\Coeff1 JN10440_30_210304.txt.txt
T Correction Coefficients:	0	1.024463	0
Time Shift (s):	14
*
Time (s)	Temperature (C)	N2 flow rate (cc/min)	O2 flow rate (cc/min)	Flow Rate (cc/min)	Oxygen (%)	HRR (W/g)	Heating rate (C/s)
0.000	108.408	79.998	19.996	102.937	20.109	-0.150	0.015
8.000	108.413	79.998	19.995	102.941	20.110	-0.238	0.029
16.000	108.408	80.002	19.994	102.963	20.104	0.210	0.008
24.000	108.507	80.001	19.995	103.016	20.091	1.085	0.020
32.001	108.899	79.998	19.995	103.057	20.086	1.446	0.073
40.000	109.608	79.999	19.994	103.103	20.073	2.290	0.126
48.000	110.694	79.999	19.995	103.153	20.071	2.449	0.176
56.000	112.236	79.998	19.995	103.162	20.066	2.771	0.235
64.000	114.198	79.997	19.996	103.187	20.063	3.003	0.298
72.000	116.431	79.999	19.994	103.187	20.059	3.290	0.304
80.000	119.030	79.984	19.996	103.181	20.061	3.126	0.343
88.000	121.906	80.000	19.994	103.189	20.063	3.002	0.361
96.000	124.876	80.001	19.993	103.190	20.062	3.039	0.383
104.000	128.065	79.998	19.994	103.190	20.060	3.210	0.433
112.001	131.388	80.001	19.995	103.210	20.060	3.181	0.411
120.000	134.852	79.995	19.996	103.192	20.060	3.184	0.417
128.000	138.529	80.001	19.995	103.194	20.057	3.439	0.462
136.001	142.157	79.990	19.995	103.200	20.055	3.541	0.469
144.001	146.000	79.998	19.995	103.189	20.058	3.314	0.482
152.000	149.884	80.003	19.995	103.187	20.057	3.427	0.500
160.000	153.796	80.000	19.993	103.192	20.057	3.381	0.481
168.000	157.744	79.999	19.996	103.192	20.065	2.834	0.515
176.000	161.671	80.003	19.994	103.191	20.067	2.758	0.479
184.000	165.705	80.006	19.994	103.188	20.062	3.059	0.492
192.000	169.654	79.981	19.996	103.178	20.062	3.057	0.478
200.000	173.626	79.996	19.996	103.170	20.060	3.230	0.492
208.000	177.570	79.998	19.996	103.162	20.060	3.179	0.453
216.000	181.540	79.998	19.994	103.159	20.058	3.356	0.519
224.000	185.497	79.998	19.995	103.155	20.056	3.475	0.513
232.000	189.438	79.995	19.995	103.155	20.057	3.426	0.489
240.000	193.361	80.000	19.995	103.149	20.057	3.417	0.485
248.000	197.267	79.997	19.995	103.148	20.058	3.355	0.495
256.000	201.170	80.004	19.993	103.150	20.056	3.489	0.466
264.000	205.122	79.999	19.995	103.150	20.052	3.744	0.508
272.000	209.106	80.009	19.992	103.138	20.048	4.035	0.489
280.000	213.021	79.999	19.994	103.150	20.045	4.242	0.491
288.000	217.004	80.000	19.994	103.145	20.037	4.751	0.493
296.000	220.996	80.006	19.995	103.146	20.025	5.583	0.503
304.001	225.000	79.998	19.995	103.131	20.018	6.043	0.526
312.000	229.048	80.014	19.994	103.114	20.004	6.993	0.504
320.000	233.012	80.003	19.995	103.107	19.985	8.294	0.479
328.000	236.974	80.002	19.997	103.105	19.980	8.682	0.479
336.000	240.970	80.001	19.994	103.118	19.982	8.495	0.478
344.000	244.948	79.977	19.996	103.144	19.979	8.715	0.482
352.000	248.969	80.001	19.994	103.135	19.977	8.830	0.489
360.000	252.946	80.001	19.995	103.151	19.966	9.605	0.454
368.000	256.992	80.009	19.994	103.140	19.956	10.285	0.503
376.000	260.965	79.995	19.995	103.148	19.943	11.213	0.499
384.000	264.914	80.002	19.996	103.146	19.934	11.790	0.480
392.000	268.882	79.995	19.996	103.141	19.917	12.982	0.452
400.000	272.922	80.002	19.995	103.148	19.901	14.055	0.483
408.000	276.871	80.001	19.995	103.150	19.882	15.361	0.471
416.000	280.851	79.989	19.997	103.143	19.860	16.870	0.495
424.000	284.822	80.013	19.992	103.158	19.837	18.426	0.478
432.000	288.815	80.004	19.995	103.153	19.807	20.436	0.499
440.000	292.840	80.000	19.994	103.149	19.774	22.677	0.498
448.000	296.876	79.999	19.995	103.156	19.743	24.812	0.537
456.000	300.856	79.996	19.994	103.173	19.709	27.169	0.523
464.000	304.853	79.996	19.995	103.170	19.669	29.894	0.503
472.000	308.950	80.008	19.995	103.186	19.627	32.744	0.518
480.000	313.018	79.993	19.994	103.187	19.591	35.214	0.521
488.000	317.040	79.999	19.995	103.191	19.560	37.347	0.516
496.000	321.067	79.998	19.995	103.192	19.534	39.063	0.527
504.000	325.137	79.996	19.995	103.200	19.516	40.335	0.492
512.000	329.232	79.997	19.993	103.197	19.502	41.263	0.526
520.000	333.276	79.998	19.996	103.224	19.494	41.851	0.537
528.000	337.369	80.002	19.994	103.225	19.487	42.316	0.554
536.000	341.367	80.004	19.994	103.224	19.478	42.895	0.512
544.000	345.414	80.002	19.994	103.214	19.475	43.089	0.508
552.000	349.444	80.000	19.994	103.227	19.483	42.595	0.494
560.000	353.548	80.002	19.995	103.191	19.488	42.239	0.517
568.000	357.533	80.006	19.995	103.183	19.516	40.314	0.492
576.001	361.579	80.008	19.994	103.161	19.539	38.720	0.479
584.000	365.571	80.002	19.995	103.152	19.566	36.872	0.491
592.000	369.674	80.002	19.996	103.148	19.600	34.585	0.504
600.001	373.692	80.022	19.992	103.141	19.626	32.816	0.482
608.000	377.744	79.990	19.994	103.135	19.654	30.885	0.501
616.000	381.783	79.998	19.996	103.117	19.671	29.734	0.505
624.000	385.809	79.982	19.996	103.105	19.699	27.781	0.492
632.000	389.850	79.999	19.994	103.109	19.717	26.577	0.504
640.000	393.941	80.000	19.995	103.113	19.744	24.772	0.496
648.000	398.000	80.004	19.994	103.096	19.765	23.276	0.500
656.000	401.986	79.998	19.995	103.113	19.777	22.508	0.479
664.000	406.073	79.999	19.993	103.111	19.784	22.018	0.522
672.000	410.080	79.995	19.995	103.109	19.801	20.845	0.537
680.000	414.051	79.998	19.996	103.111	19.815	19.921	0.516
688.000	418.117	79.999	19.996	103.106	19.827	19.051	0.519
696.000	422.096	79.996	19.994	103.110	19.840	18.172	0.528
704.000	426.209	80.006	19.993	103.115	19.856	17.139	0.516
712.000	430.214	79.998	19.995	103.110	19.870	16.125	0.507
720.000	434.340	80.001	19.993	103.107	19.882	15.334	0.534
728.000	438.348	80.001	19.993	103.111	19.886	15.090	0.486
736.000	442.430	80.015	19.995	103.108	19.895	14.454	0.521
744.000	446.467	80.013	19.993	103.105	19.899	14.181	0.491
752.000	450.483	80.003	19.995	103.108	19.905	13.753	0.502
760.000	454.484	80.007	19.994	103.105	19.912	13.260	0.482
768.000	458.560	79.997	19.994	103.102	19.917	12.975	0.543
776.000	462.618	79.995	19.996	103.100	19.922	12.599	0.529
784.000	466.615	80.003	19.992	103.106	19.929	12.116	0.522
792.000	470.564	79.987	19.995	103.104	19.934	11.788	0.536
800.000	474.616	79.989	19.995	103.088	19.939	11.479	0.492
808.000	478.649	80.001	19.995	103.082	19.944	11.082	0.474
816.000	482.664	80.002	19.993	103.085	19.950	10.715	0.500
824.000	486.616	80.008	19.997	103.086	19.958	10.181	0.501
832.000	490.513	80.002	19.995	103.080	19.960	10.015	0.493
840.000	494.439	79.985	19.997	103.100	19.968	9.452	0.463
848.000	498.356	80.000	19.994	103.095	19.972	9.210	0.481
856.000	502.375	80.001	19.996	103.098	19.977	8.871	0.491
864.000	506.349	79.977	19.997	103.082	19.978	8.773	0.493
872.000	510.400	80.002	19.995	103.099	19.985	8.329	0.495
880.000	514.426	79.994	19.995	103.084	19.982	8.545	0.498
888.000	518.751	80.005	19.995	103.087	19.989	8.057	0.508
896.000	522.806	80.015	19.993	103.107	19.993	7.771	0.600
904.000	526.769	80.012	19.993	103.105	19.995	7.634	0.531
912.000	530.919	80.009	19.991	103.094	19.998	7.426	0.530
920.000	534.985	80.009	19.994	103.110	19.997	7.480	0.454
928.000	539.105	79.992	19.996	103.105	19.998	7.410	0.514
936.000	543.177	79.997	19.996	103.092	19.995	7.658	0.501
944.000	547.265	80.000	19.994	103.105	19.999	7.374	0.517
952.000	551.326	80.005	19.995	103.093	19.995	7.651	0.500
960.000	555.362	80.003	19.995	103.102	19.995	7.660	0.522
968.000	559.391	80.005	19.993	103.088	19.993	7.767	0.506
976.000	563.475	80.000	19.996	103.109	19.992	7.853	0.513
984.000	567.552	80.002	19.993	103.102	19.989	8.014	0.527
992.000	571.665	80.001	19.993	103.097	19.983	8.467	0.493
1000.000	575.839	80.001	19.993	103.105	19.982	8.537	0.525
1008.000	579.896	80.007	19.994	103.102	19.982	8.492	0.527
1016.000	583.985	80.004	19.994	103.105	19.981	8.587	0.513
1024.000	588.049	80.002	19.996	103.099	19.978	8.801	0.507
1032.000	592.015	80.001	19.995	103.094	19.982	8.515	0.484
1040.001	596.076	80.001	19.994	103.103	19.983	8.425	0.510
1048.000	600.160	79.997	19.996	103.105	19.982	8.524	0.488
1056.000	604.318	80.000	19.995	103.113	19.981	8.616	0.529
1064.001	608.549	80.001	19.994	103.112	19.984	8.399	0.513
1072.000	612.787	80.000	19.995	103.111	19.982	8.501	0.544
1080.000	617.109	80.000	19.995	103.108	19.982	8.488	0.545
1088.000	621.368	80.001	19.995	103.110	19.984	8.387	0.528
1096.000	625.544	80.001	19.994	103.111	19.981	8.616	0.505
1104.000	629.818	80.003	19.995	103.114	19.981	8.588	0.524
1112.000	634.034	80.001	19.994	103.118	19.980	8.626	0.542
1120.001	638.304	80.000	19.995	103.117	19.976	8.947	0.549
1128.000	642.477	80.003	19.995	103.140	19.976	8.956	0.513
1136.001	646.639	80.000	19.996	103.144	19.973	9.121	0.510
1144.000	650.897	80.001	19.996	103.144	19.974	9.072	0.503
1152.000	655.041	80.001	19.993	103.148	19.969	9.419	0.508
1160.000	659.251	80.002	19.994	103.149	19.967	9.534	0.541
1168.001	663.364	79.999	19.994	103.159	19.967	9.569	0.528
1176.000	667.422	80.001	19.994	103.164	19.962	9.891	0.496
1184.000	671.463	80.001	19.994	103.182	19.955	10.345	0.493
1192.000	675.502	80.002	19.995	103.190	19.956	10.276	0.492
1200.000	679.539	80.003	19.995	103.189	19.953	10.504	0.520
1208.000	683.563	80.005	19.994	103.187	19.948	10.839	0.491
1216.001	687.597	80.004	19.994	103.205	19.942	11.276	0.501
1224.000	691.588	80.001	19.995	103.223	19.944	11.124	0.492
1232.000	695.650	79.999	19.994	103.226	19.941	11.352	0.527
1240.000	699.714	80.002	19.996	103.233	19.938	11.537	0.538
1248.001	703.775	80.001	19.994	103.228	19.933	11.873	0.500
1256.000	707.818	80.000	19.995	103.232	19.930	12.106	0.505
1264.000	711.904	80.004	19.994	103.228	19.932	11.969	0.515
1272.000	716.014	80.005	19.993	103.225	19.928	12.218	0.494
1280.000	720.063	80.002	19.995	103.219	19.927	12.301	0.490
1288.000	724.150	80.004	19.994	103.190	19.927	12.249	0.506
1296.000	728.173	80.002	19.995	103.177	19.930	12.083	0.517
1304.000	732.152	80.000	19.996	103.159	19.931	12.000	0.479
1312.001	736.179	80.001	19.994	103.149	19.929	12.116	0.517
1320.001	740.102	79.999	19.992	103.137	19.931	11.977	0.525
1327.501	743.778	80.002	19.995	103.126	19.933	11.849	0.466