File: 01_Data/Wool_Rug/MCC/Wool_Rug_MCC_30K_min_211112_R2.txt
Sample ID:	C:\MCC\MCC Cal\Test\Wool_Rug_MCC_30K_min_211112_R2.txt
Sample Weight (mg):	4.27
Heating Rate (C/s):	0.5
Combustor Temp (C):	900
N2 Flow Rate (cc/min):	80
O2 Flow Rate (cc/min):	20
Calibration File:	C:\MCC\MCC Cal\Coeff1 JN10440_30_210304.txt.txt
T Correction Coefficients:	0	1.024463	0
Time Shift (s):	14
*
Time (s)	Temperature (C)	N2 flow rate (cc/min)	O2 flow rate (cc/min)	Flow Rate (cc/min)	Oxygen (%)	HRR (W/g)	Heating rate (C/s)
-0.001	108.617	80.003	19.995	103.064	19.794	-0.041	-0.039
8.000	108.568	80.003	19.996	103.063	19.793	0.021	-0.000
16.000	108.591	80.003	19.995	103.088	19.793	0.076	0.019
24.000	108.679	80.003	19.994	103.140	19.781	0.933	0.027
32.000	109.028	80.002	19.995	103.180	19.771	1.720	0.069
39.999	109.746	80.006	19.996	103.239	19.765	2.196	0.120
48.000	110.917	80.005	19.994	103.273	19.762	2.404	0.170
55.999	112.502	80.003	19.995	103.302	19.756	2.865	0.238
64.000	114.498	80.006	19.994	103.311	19.749	3.386	0.272
72.000	116.817	80.006	19.993	103.331	19.747	3.537	0.309
80.000	119.503	80.001	19.996	103.334	19.745	3.656	0.364
88.000	122.485	80.003	19.995	103.332	19.746	3.578	0.407
95.999	125.686	80.002	19.995	103.331	19.746	3.578	0.411
103.999	129.055	80.002	19.996	103.335	19.747	3.553	0.437
111.999	132.592	80.003	19.995	103.336	19.746	3.580	0.477
119.999	136.222	80.003	19.994	103.332	19.746	3.604	0.443
127.999	139.959	80.003	19.995	103.329	19.751	3.232	0.486
136.000	143.816	80.005	19.994	103.335	19.748	3.423	0.471
144.000	147.760	80.002	19.995	103.312	19.748	3.435	0.458
152.000	151.782	80.007	19.994	103.320	19.751	3.227	0.503
160.000	155.765	80.004	19.995	103.304	19.753	3.054	0.483
168.000	159.749	80.004	19.994	103.301	19.753	3.091	0.500
176.000	163.753	80.001	19.994	103.297	19.753	3.056	0.501
184.000	167.751	80.004	19.994	103.299	19.750	3.270	0.486
192.000	171.694	80.001	19.995	103.289	19.755	2.916	0.463
200.000	175.697	80.002	19.997	103.286	19.753	3.063	0.495
208.000	179.637	80.006	19.995	103.277	19.756	2.858	0.467
216.000	183.701	80.004	19.994	103.266	19.755	2.905	0.501
224.000	187.681	80.003	19.995	103.273	19.753	3.072	0.477
232.000	191.635	80.004	19.994	103.269	19.755	2.905	0.486
240.000	195.643	80.006	19.994	103.269	19.757	2.798	0.470
248.000	199.640	80.003	19.993	103.274	19.755	2.882	0.486
256.000	203.594	80.005	19.996	103.273	19.749	3.390	0.505
264.000	207.591	80.004	19.995	103.262	19.742	3.861	0.519
272.000	211.537	80.003	19.994	103.259	19.740	4.048	0.508
280.000	215.481	80.004	19.994	103.246	19.737	4.303	0.491
288.000	219.520	80.002	19.996	103.258	19.722	5.401	0.497
296.000	223.484	80.004	19.995	103.239	19.707	6.521	0.478
304.000	227.534	80.004	19.996	103.237	19.698	7.237	0.498
312.000	231.518	80.004	19.994	103.227	19.684	8.265	0.486
320.000	235.524	80.005	19.993	103.222	19.682	8.415	0.496
328.000	239.514	80.007	19.994	103.223	19.680	8.575	0.504
336.000	243.517	80.005	19.995	103.223	19.676	8.843	0.477
344.000	247.480	80.004	19.994	103.228	19.671	9.276	0.464
352.000	251.555	80.005	19.995	103.226	19.666	9.666	0.511
360.000	255.501	80.004	19.995	103.229	19.659	10.124	0.501
368.000	259.480	80.003	19.995	103.229	19.648	10.987	0.503
376.000	263.539	80.006	19.995	103.235	19.636	11.914	0.517
384.000	267.411	80.003	19.995	103.232	19.623	12.863	0.534
392.000	271.490	80.005	19.996	103.247	19.611	13.747	0.524
400.000	275.472	80.005	19.996	103.250	19.589	15.464	0.536
408.000	279.476	80.007	19.994	103.245	19.568	17.000	0.469
416.000	283.448	80.003	19.995	103.259	19.551	18.323	0.516
424.000	287.444	80.004	19.995	103.262	19.522	20.493	0.494
432.000	291.463	80.005	19.994	103.264	19.496	22.454	0.509
440.000	295.478	80.003	19.994	103.267	19.463	24.989	0.498
448.000	299.546	80.002	19.995	103.295	19.429	27.501	0.491
456.000	303.580	80.003	19.995	103.297	19.391	30.394	0.516
464.000	307.658	80.005	19.995	103.296	19.358	32.876	0.534
472.000	311.643	80.004	19.994	103.297	19.332	34.820	0.472
480.000	315.780	80.005	19.996	103.297	19.304	36.956	0.507
488.000	319.845	80.005	19.995	103.304	19.287	38.279	0.521
496.000	323.895	80.004	19.995	103.303	19.277	39.006	0.502
504.000	327.906	80.002	19.994	103.300	19.267	39.771	0.492
512.000	331.991	80.005	19.994	103.309	19.258	40.432	0.509
520.000	336.062	80.003	19.993	103.310	19.256	40.552	0.489
528.000	340.097	80.004	19.994	103.307	19.251	40.929	0.493
536.000	344.086	80.005	19.995	103.316	19.255	40.678	0.510
544.000	348.084	80.007	19.995	103.299	19.266	39.856	0.488
552.000	352.159	80.004	19.994	103.286	19.279	38.820	0.524
560.000	356.147	80.005	19.994	103.270	19.306	36.804	0.486
568.000	360.184	80.007	19.995	103.265	19.330	34.979	0.524
576.000	364.267	80.005	19.996	103.260	19.355	33.108	0.506
584.000	368.292	80.002	19.995	103.232	19.382	31.032	0.505
592.000	372.307	80.005	19.995	103.223	19.402	29.512	0.521
600.000	376.392	80.004	19.994	103.221	19.425	27.824	0.516
608.000	380.440	80.003	19.994	103.218	19.444	26.386	0.515
616.000	384.461	80.004	19.994	103.217	19.465	24.772	0.501
624.000	388.540	80.004	19.994	103.212	19.487	23.149	0.508
632.000	392.570	80.007	19.993	103.220	19.505	21.790	0.505
640.000	396.652	80.006	19.994	103.205	19.521	20.583	0.508
648.000	400.716	80.006	19.994	103.213	19.538	19.288	0.517
656.000	404.755	80.005	19.995	103.196	19.547	18.574	0.517
664.000	408.783	80.004	19.994	103.195	19.561	17.535	0.486
672.000	412.822	80.004	19.995	103.189	19.575	16.457	0.480
680.000	416.817	80.003	19.996	103.182	19.594	15.050	0.503
688.000	420.854	80.006	19.995	103.203	19.608	13.986	0.527
696.000	424.868	80.002	19.994	103.196	19.627	12.538	0.506
704.000	428.819	80.001	19.994	103.187	19.636	11.865	0.454
712.000	432.895	80.004	19.995	103.188	19.650	10.837	0.510
720.000	436.951	80.004	19.994	103.184	19.656	10.389	0.500
728.000	440.993	80.007	19.994	103.181	19.662	9.953	0.498
736.000	445.008	80.006	19.994	103.179	19.667	9.531	0.492
744.000	448.983	80.003	19.995	103.179	19.672	9.198	0.481
752.000	453.003	80.005	19.995	103.174	19.681	8.485	0.490
760.000	457.061	80.003	19.994	103.172	19.684	8.303	0.506
768.000	461.104	80.003	19.996	103.179	19.689	7.917	0.512
776.000	465.130	80.003	19.996	103.176	19.697	7.278	0.521
784.000	469.169	80.004	19.995	103.176	19.703	6.813	0.505
792.000	473.265	80.005	19.994	103.169	19.708	6.475	0.523
800.000	477.378	80.006	19.995	103.174	19.716	5.822	0.542
808.000	481.454	80.005	19.995	103.151	19.723	5.342	0.518
816.000	485.538	80.006	19.993	103.165	19.731	4.704	0.507
824.000	489.595	80.007	19.993	103.156	19.736	4.334	0.529
832.000	493.676	80.003	19.995	103.164	19.743	3.786	0.508
840.000	497.727	80.004	19.994	103.151	19.744	3.730	0.534
848.000	501.800	80.003	19.994	103.152	19.749	3.387	0.493
856.000	505.824	80.004	19.994	103.153	19.755	2.908	0.526
864.000	509.820	80.002	19.995	103.159	19.760	2.548	0.466
872.000	513.762	80.003	19.995	103.143	19.765	2.133	0.470
880.000	517.754	80.006	19.994	103.141	19.773	1.556	0.515
888.000	521.506	80.005	19.994	103.146	19.777	1.235	0.447
896.000	525.424	80.004	19.995	103.150	19.778	1.182	0.478
904.000	529.291	80.008	19.994	103.154	19.783	0.793	0.473
912.000	533.270	80.006	19.994	103.156	19.783	0.820	0.500
920.000	537.330	80.004	19.994	103.146	19.787	0.510	0.491
928.000	541.394	80.003	19.995	103.160	19.789	0.341	0.492
936.000	545.457	80.005	19.995	103.152	19.790	0.273	0.525
944.000	549.505	80.004	19.995	103.148	19.792	0.140	0.502
952.000	553.615	80.003	19.996	103.147	19.787	0.473	0.561
960.000	557.869	80.004	19.996	103.155	19.788	0.442	0.534
968.000	562.308	80.004	19.996	103.171	19.787	0.508	0.583
976.000	566.816	80.006	19.994	103.175	19.784	0.719	0.571
984.000	571.410	80.007	19.994	103.155	19.782	0.880	0.549
992.000	576.083	80.006	19.994	103.159	19.784	0.762	0.601
1000.000	580.612	80.005	19.995	103.151	19.786	0.614	0.598
1008.000	585.030	80.004	19.994	103.170	19.783	0.812	0.540
1016.000	589.446	80.005	19.994	103.150	19.789	0.323	0.540
1024.000	593.845	80.002	19.995	103.146	19.790	0.269	0.504
1032.000	598.173	80.002	19.995	103.146	19.796	-0.199	0.532
1039.999	602.401	80.003	19.995	103.145	19.802	-0.637	0.525
1047.999	606.497	80.005	19.996	103.142	19.804	-0.754	0.493
1055.999	610.472	80.006	19.996	103.144	19.808	-1.079	0.483
1063.999	614.471	80.006	19.996	103.142	19.810	-1.227	0.500
1071.999	618.463	80.008	19.995	103.141	19.808	-1.118	0.541
1079.999	622.388	80.004	19.995	103.141	19.813	-1.488	0.518
1087.999	626.376	80.003	19.993	103.151	19.811	-1.307	0.513
1095.999	630.355	80.004	19.994	103.149	19.814	-1.523	0.506
1103.999	634.387	80.004	19.994	103.149	19.816	-1.689	0.492
1111.999	638.422	80.002	19.994	103.153	19.816	-1.698	0.487
1119.999	642.477	80.003	19.995	103.167	19.811	-1.336	0.505
1128.000	646.418	80.005	19.995	103.166	19.808	-1.118	0.461
1135.999	650.464	80.006	19.995	103.176	19.814	-1.533	0.501
1143.999	654.429	80.005	19.996	103.177	19.814	-1.540	0.509
1152.000	658.439	80.005	19.995	103.187	19.813	-1.439	0.488
1159.999	662.328	80.004	19.996	103.182	19.819	-1.895	0.512
1167.999	666.123	80.003	19.994	103.186	19.815	-1.589	0.462
1176.000	669.758	80.003	19.994	103.205	19.818	-1.809	0.440
1184.000	673.451	80.004	19.995	103.194	19.817	-1.748	0.468
1191.999	677.183	80.004	19.995	103.207	19.814	-1.540	0.469
1199.999	680.956	80.004	19.994	103.219	19.809	-1.174	0.469
1207.999	684.816	80.006	19.994	103.221	19.808	-1.057	0.486
1215.999	688.821	80.005	19.994	103.227	19.813	-1.454	0.515
1223.999	692.929	80.003	19.995	103.230	19.808	-1.078	0.515
1231.999	697.027	80.005	19.995	103.255	19.810	-1.230	0.503
1239.999	701.115	80.005	19.995	103.230	19.818	-1.828	0.479
1247.999	705.135	80.002	19.995	103.225	19.807	-1.043	0.483
1255.999	709.081	80.004	19.995	103.249	19.809	-1.185	0.485
1263.999	713.137	80.004	19.995	103.224	19.816	-1.657	0.484
1271.999	717.214	80.003	19.995	103.222	19.815	-1.589	0.518
1279.999	721.202	80.001	19.994	103.197	19.817	-1.780	0.507
1287.999	725.258	80.006	19.995	103.181	19.817	-1.735	0.511
1295.999	729.334	80.006	19.994	103.182	19.825	-2.380	0.531
1303.999	733.386	80.004	19.995	103.165	19.828	-2.573	0.471
1311.999	737.557	80.006	19.995	103.143	19.824	-2.311	0.495
1319.999	741.800	80.006	19.995	103.138	19.828	-2.552	0.530
1323.499	743.618	80.004	19.994	103.135	19.832	-2.917	0.505