File: 01_Data/Composite_Deck_Board/HFM/Composite_Deck_Board_Density_Wet_R1.csv
,Composite_Deck_Board_WET_1
Sample Mass [g],343.6
Sample Volume [cm3],319.4
Sample Density [kg/m3],1076