File: 01_Data/Composite_Deck_Board/HFM/Composite_Deck_Board_Density_Wet_R3.csv
,Composite_Deck_Board_WET_3
Sample Mass [g],347.4
Sample Volume [cm3],312.3
Sample Density [kg/m3],1112