File: 01_Data/Composite_Deck_Board/HFM/Composite_Deck_Board_Ignition_Temp_Properties.csv
Thermal Conductivity (W/m-K),0.233
Heat Capacity (J/kg-K),1565.0
Density (kg/m3),1103.0