File: 01_Data/Composite_Deck_Board/HFM/Composite_Deck_Board_Density_Wet_R2.csv
,Composite_Deck_Board_WET_2
Sample Mass [g],343.4
Sample Volume [cm3],306.4
Sample Density [kg/m3],1121