File: 01_Data/Overstuffed_Chair_Assembly/Cone/Overstuffed_Chair_Assembly_Cone_HF50Scalar_210326_R2.csv
LABORATORY,FSRI
TEST IDENT,Stack_HF50_2
OPERATOR,Morrissey
MATERIAL,"1"" PUF, 1.75"" PE Batting, PE Fabric"
ORIENTATION,Horizontal
HEAT FLUX,50
SURF AREA,0.01
C FACTOR,0.0386052
SPEC HOLDER DIFF,-95.12
SPECIMEN MASS,15.95
SCAN TIME,0.25
O2 DELAY TIME,11
CO DELAY TIME,11
CO2 DELAY TIME,8
FLOW FACTOR,1
SCAN COUNT,968
TIME TO IGN,15.25
END OF TEST SCAN,488
END OF TEST TIME,122
TEST STATUS,1
PRE TEST CMT,"Sample is an assembly of approximately 1 inch polyurethane foam, topped by 1.75 inch polyester batting, topped by polyester fabric."
POST TEST CMT,"The fabric shrivelled upon heating and impacted the spark ignitor causing a spike in the mass time history data. The sample then retracted away from the spark ignitor prior to ignition due to further pyrolysis and melting of the materials."