File: 01_Data/Overstuffed_Chair_Assembly/Cone/Overstuffed_Chair_Assembly_Cone_HF75Scalar_210325_R1.csv
LABORATORY,FSRI
TEST IDENT,Stack_HF75_1
OPERATOR,Dow
MATERIAL,"1"" PUF, 1.75"" PE Batting, PE Fabric"
ORIENTATION,Horizontal
HEAT FLUX,35
SURF AREA,0.01
C FACTOR,0.0386052
SPEC HOLDER DIFF,-71.86
SPECIMEN MASS,15.85
SCAN TIME,0.25
O2 DELAY TIME,11
CO DELAY TIME,11
CO2 DELAY TIME,8
FLOW FACTOR,1
SCAN COUNT,815
TIME TO IGN,8
END OF TEST SCAN,335
END OF TEST TIME,83.75
TEST STATUS,1
PRE TEST CMT,"Sample is an assembly of approximately 1 inch polyurethane foam, topped by 1.75 inch polyester batting, topped by polyester fabric."
POST TEST CMT,"The fabric shrivelled upon heating and impacted the spark ignitor causing a spike in the mass time history data. The sample then retracted away from the spark ignitor prior to ignition due to further pyrolysis and melting of the materials. The foil pan folded upwards slightly after ignition and was impacted by the removal of the spark ignitor causing further disturbances in the mass time history data. The foil pan continue to fold in on itself before end of test."