File: 01_Data/Rebond_Foam_Carpet_Pad/HFM/Rebond_Foam_Carpet_Pad_Density_Dry_R3.csv
,Rebond_Foam_Carpet_Pad_DRY_3
Sample Mass [g],21.2
Sample Volume [cm3],240.1
Sample Density [kg/m3],88