File: 01_Data/Rebond_Foam_Carpet_Pad/HFM/Rebond_Foam_Carpet_Pad_Density_Dry_R2.csv
,Rebond_Foam_Carpet_Pad_DRY_2
Sample Mass [g],33.6
Sample Volume [cm3],406.5
Sample Density [kg/m3],83