File: 01_Data/Rebond_Foam_Carpet_Pad/HFM/Rebond_Foam_Carpet_Pad_Density_Wet_R2.csv
,Rebond_Foam_Carpet_Pad_WET_2
Sample Mass [g],34.0
Sample Volume [cm3],406.5
Sample Density [kg/m3],84