File: 01_Data/Rebond_Foam_Carpet_Pad/HFM/Rebond_Foam_Carpet_Pad_Density_Dry_R1.csv
,Rebond_Foam_Carpet_Pad_DRY_1
Sample Mass [g],34.0
Sample Volume [cm3],412.0
Sample Density [kg/m3],83