File: 01_Data/Rebond_Foam_Carpet_Pad/HFM/Rebond_Foam_Carpet_Pad_Density_Wet_R1.csv
,Rebond_Foam_Carpet_Pad_WET_1
Sample Mass [g],34.4
Sample Volume [cm3],412.0
Sample Density [kg/m3],84