File: 01_Data/Polyolefin_Carpet_Low_Pile/STA/N2/30K_min/Polyolefin_Carpet_Low_Pile_STA_N2_30KData_220303_R1.csv
##Temp./Â°C,Time/min,DSC(subtr.2)/mW,Mass loss(subtr.2)/mg,Sensit./(uV/mW)
48.85,10.00667,-0.01051047,-0.00976,1.08885
51.95,10.86775,0.54334,-0.00854322,1.08624
55.05,11.0962,0.93148,-0.009114747,1.08364
58.15,11.2718,1.25816,-0.00815858,1.08106
61.25,11.42335,1.50563,-0.00703427,1.0785
64.35,11.56104,1.7277,-0.00713809,1.07596
67.45,11.68999,1.91805,-0.008011845,1.07343
70.55,11.81278,2.06532,-0.007258393,1.07092
73.65,11.9314,2.18044,-0.009003232,1.06843
76.75,12.04735,2.27774,-0.009050391,1.06595
79.85,12.16055,2.36335,-0.01118329,1.06349
82.95,12.2721,2.42722,-0.01044662,1.06104
86.05,12.38177,2.48777,-0.00937929,1.05861
89.15,12.4903,2.5516,-0.009232969,1.0562
92.25,12.5975,2.59202,-0.009217476,1.05381
95.35,12.70317,2.6388,-0.008983826,1.05143
98.45,12.80919,2.67077,-0.01031296,1.04906
101.55,12.91408,2.69885,-0.01031228,1.04672
104.65,13.01925,2.73255,-0.01031682,1.04439
107.75,13.1235,2.75968,-0.0109382,1.04207
110.85,13.2276,2.78216,-0.01297241,1.03977
113.95,13.3311,2.80746,-0.01415477,1.03749
117.05,13.4352,2.81619,-0.01169178,1.03522
120.15,13.5385,2.85104,-0.01379583,1.03297
123.25,13.64144,2.87846,-0.01327219,1.03073
126.35,13.744,2.90867,-0.01459,1.02851
129.45,13.8457,2.94431,-0.01459,1.02631
132.55,13.94708,2.99147,-0.01556217,1.02412
135.65,14.0481,3.05998,-0.01426,1.02195
138.75,14.1482,3.13283,-0.01426017,1.01979
141.85,14.2483,3.26456,-0.01359999,1.01764
144.95,14.34781,3.42346,-0.01360003,1.01551
148.05,14.44716,3.66126,-0.01492145,1.0134
151.15,14.54624,4.02897,-0.01458604,1.0113
154.25,14.64499,4.57408,-0.01458998,1.00921
157.35,14.74346,5.30065,-0.01593243,1.00714
160.45,14.84198,6.12568,-0.0159,1.00509
163.55,14.9403,6.79944,-0.01488187,1.00305
166.65,15.03841,6.61025,-0.01327001,1.00102
169.75,15.13633,5.53111,-0.01577477,0.999
172.85,15.23352,4.61389,-0.01689001,0.997
175.95,15.33027,4.07266,-0.01791629,0.99502
179.05,15.42671,3.78293,-0.01689,0.99304
182.15,15.5228,3.6308,-0.01800119,0.99109
185.25,15.6184,3.56386,-0.01689,0.98914
188.35,15.71398,3.53774,-0.01688994,0.98721
191.45,15.80949,3.52019,-0.01919135,0.98528
194.55,15.9043,3.53098,-0.01919,0.98338
197.65,15.99978,3.54787,-0.0198447,0.98148
200.75,16.09456,3.5599,-0.02018,0.9796
203.85,16.18917,3.5758,-0.02018,0.97773
206.95,16.284,3.59782,-0.02015408,0.97587
210.05,16.37875,3.61169,-0.02118287,0.97402
213.15,16.47336,3.62565,-0.02183004,0.97219
216.25,16.5678,3.65631,-0.02182999,0.97036
219.35,16.66234,3.66434,-0.02123102,0.96855
222.45,16.75664,3.68932,-0.02182047,0.96675
225.55,16.85067,3.7002,-0.02182,0.96496
228.65,16.94497,3.72061,-0.0218209,0.96318
231.75,17.0391,3.7347,-0.02314012,0.96141
234.85,17.1333,3.74296,-0.02413,0.95965
237.95,17.2274,3.75798,-0.02413,0.9579
241.05,17.32143,3.76216,-0.02545125,0.95616
244.15,17.41545,3.78442,-0.02412994,0.95443
247.25,17.50931,3.79877,-0.02413098,0.95271
250.35,17.6032,3.81196,-0.02413024,0.951
253.45,17.69695,3.82268,-0.02412525,0.9493
256.55,17.7908,3.83848,-0.02679868,0.94761
259.65,17.88441,3.85192,-0.02808233,0.94593
262.75,17.97805,3.86442,-0.02564282,0.94425
265.85,18.07144,3.87812,-0.02654,0.94259
268.95,18.16549,3.89528,-0.02785825,0.94093
272.05,18.259,3.89196,-0.02917003,0.93928
275.15,18.35281,3.89605,-0.02917,0.93763
278.25,18.44661,3.9076,-0.02917,0.936
281.35,18.5402,3.90118,-0.02917006,0.93437
284.45,18.6341,3.9169,-0.03049,0.93275
287.55,18.72799,3.918,-0.03049741,0.93113
290.65,18.82171,3.92572,-0.0318117,0.92953
293.75,18.9158,3.92121,-0.03181005,0.92792
296.85,19.0096,3.92738,-0.03444369,0.92633
299.95,19.1037,3.94589,-0.03442122,0.92474
303.05,19.19773,3.93351,-0.03523857,0.92316
306.15,19.29138,3.94765,-0.03477,0.92158
309.25,19.38555,3.95181,-0.03608581,0.92
312.35,19.4796,3.96668,-0.03767884,0.91843
315.45,19.5736,3.97766,-0.04073024,0.91687
318.55,19.6676,3.97285,-0.03873808,0.91531
321.65,19.76181,3.97864,-0.04003,0.91376
324.75,19.85608,3.98757,-0.04134963,0.9122
327.85,19.95026,3.99674,-0.0413549,0.91066
330.95,20.0446,4.01094,-0.0437341,0.90911
334.05,20.13896,4.00366,-0.04365069,0.90757
337.15,20.2337,4.00423,-0.04533138,0.90604
340.25,20.3282,4.00817,-0.04759996,0.9045
343.35,20.42278,3.9899,-0.050104,0.90297
346.45,20.51773,3.98183,-0.05154042,0.90144
349.55,20.61259,3.98165,-0.05509759,0.89991
352.65,20.70743,3.99409,-0.05872088,0.89839
355.75,20.80251,4.00079,-0.05995118,0.89686
358.85,20.89755,4.00655,-0.06164696,0.89534
361.95,20.99269,4.03038,-0.06552766,0.89382
365.05,21.088,4.04483,-0.06897609,0.8923
368.15,21.18304,4.06431,-0.07381757,0.89078
371.25,21.27873,4.10981,-0.07930655,0.88926
374.35,21.37421,4.13651,-0.08387678,0.88775
377.45,21.46963,4.17672,-0.08985624,0.88623
380.55,21.56532,4.23672,-0.09495107,0.88471
383.65,21.66085,4.30698,-0.10444,0.88319
386.75,21.75647,4.38051,-0.1127,0.88167
389.85,21.85225,4.48069,-0.11974,0.88015
392.95,21.94817,4.5899,-0.13145,0.87863
396.05,22.0442,4.72854,-0.14309,0.87711
399.15,22.14007,4.85867,-0.15565,0.87558
402.25,22.23617,5.00544,-0.16914,0.87406
405.35,22.33221,5.17299,-0.18516,0.87253
408.45,22.4287,5.33417,-0.20324,0.871
411.55,22.52524,5.50545,-0.22317,0.86947
414.65,22.62179,5.69136,-0.24415,0.86794
417.75,22.71847,5.88617,-0.26896,0.8664
420.85,22.81531,6.07919,-0.29373,0.86486
423.95,22.91216,6.26004,-0.32111,0.86331
427.05,23.00927,6.43794,-0.34915,0.86177
430.15,23.10634,6.62368,-0.38018,0.86022
433.25,23.2038,6.79915,-0.412,0.85866
436.35,23.3012,6.98268,-0.44899,0.8571
439.45,23.39892,7.17114,-0.48522,0.85554
442.55,23.49677,7.34846,-0.52744,0.85398
445.65,23.5945,7.54129,-0.57125,0.8524
448.75,23.6925,7.74324,-0.61357,0.85083
451.85,23.79051,7.94787,-0.66107,0.84924
454.95,23.88862,8.16568,-0.71385,0.84766
458.05,23.98699,8.39235,-0.76921,0.84607
461.15,24.08519,8.60351,-0.82848,0.84447
464.25,24.18359,8.8309,-0.89198,0.84286
467.35,24.28217,9.03535,-0.96436,0.84125
470.45,24.3808,9.21271,-1.04145,0.83964
473.55,24.47951,9.33731,-1.11951,0.83801
476.65,24.578,9.41497,-1.206,0.83639
479.75,24.67699,9.397,-1.29377,0.83475
482.85,24.77581,9.27956,-1.3841,0.83311
485.95,24.87474,9.03348,-1.47766,0.83146
489.05,24.97345,8.60328,-1.56719,0.8298
492.15,25.07234,7.9841,-1.66076,0.82814
495.25,25.17134,7.19295,-1.74659,0.82646
498.35,25.2701,6.21905,-1.8227,0.82478
501.45,25.36877,4.96618,-1.88377,0.82309
504.55,25.46764,3.64414,-1.92317,0.8214
507.65,25.56625,2.64012,-1.947,0.81969
510.75,25.6651,1.96001,-1.95902,0.81798
513.85,25.7644,1.53786,-1.96189,0.81626
516.95,25.86352,1.30623,-1.96327,0.81453
520.05,25.963,1.17227,-1.96198,0.81279
523.15,26.06259,1.09681,-1.96063,0.81104
526.25,26.16205,1.09204,-1.96294,0.80929
529.35,26.2615,1.22015,-1.96463,0.80752
532.45,26.36125,1.31056,-1.96725,0.80574
535.55,26.46123,1.24842,-1.96854,0.80396
538.65,26.5613,1.17761,-1.97007,0.80216
541.75,26.6617,1.1075,-1.97117,0.80036
544.85,26.7622,1.05552,-1.97248,0.79854
547.95,26.8626,0.99485,-1.97387,0.79672
551.05,26.96309,0.93246,-1.9738,0.79488
554.15,27.0636,0.89953,-1.97512,0.79304
557.25,27.1643,0.88929,-1.97644,0.79118
560.35,27.26475,0.91965,-1.97775,0.78931
563.45,27.36559,0.94407,-1.97903,0.78744
566.55,27.46625,0.97908,-1.98103,0.78555
569.65,27.5666,1.00177,-1.98202,0.78365
572.75,27.6677,1.07034,-1.98289,0.78174
575.85,27.7686,1.11041,-1.98498,0.77982
578.95,27.8697,1.14465,-1.9863,0.77789
582.05,27.97073,1.20337,-1.98811,0.77594
585.15,28.07193,1.25226,-1.99158,0.77399
588.25,28.1733,1.29557,-1.9942,0.77202
591.35,28.2746,1.35376,-1.99501,0.77004
594.45,28.3762,1.41425,-1.99552,0.76805
597.55,28.47762,1.48154,-1.99416,0.76605
600.65,28.579,1.56218,-1.99926,0.76404
603.75,28.6806,1.67051,-2.00519,0.76202
606.85,28.7823,1.78152,-2.00911,0.75998
609.95,28.8841,1.92176,-2.01128,0.75793
613.05,28.98572,2.10692,-2.01597,0.75587
616.15,29.08742,2.34829,-2.01651,0.7538
619.25,29.18913,2.62107,-2.0208,0.75172
622.35,29.29092,2.94354,-2.0246,0.74962
625.45,29.3927,3.30312,-2.0311,0.74751
628.55,29.4947,3.67228,-2.03997,0.74539
631.65,29.59664,4.03512,-2.05121,0.74326
634.75,29.69882,4.37368,-2.05995,0.74111
637.85,29.801,4.66588,-2.0662,0.73895
640.95,29.9032,4.91548,-2.07936,0.73678
644.05,30.00549,5.08666,-2.09044,0.7346
647.15,30.10779,5.18429,-2.09855,0.73241
650.25,30.21007,5.18987,-2.10959,0.7302
653.35,30.31243,5.09198,-2.12024,0.72798
656.45,30.4148,4.86937,-2.13109,0.72575
659.55,30.51717,4.56748,-2.13997,0.7235
662.65,30.61942,4.21596,-2.14964,0.72124
665.75,30.72192,3.88846,-2.15471,0.71897
668.85,30.82439,3.65657,-2.16013,0.71669
671.95,30.9271,3.8566,-2.16806,0.7144
675.05,31.02983,4.75526,-2.1746,0.71209
678.15,31.13267,5.54377,-2.18357,0.70977
681.25,31.2356,6.15938,-2.19346,0.70744
684.35,31.33855,6.7184,-2.20359,0.70509
687.45,31.4415,7.2575,-2.21516,0.70274
690.55,31.54467,7.76437,-2.22672,0.70037
693.65,31.6475,8.28205,-2.23762,0.69799
696.75,31.75072,8.75081,-2.25387,0.69559
699.85,31.85383,9.22077,-2.26787,0.69318
702.95,31.95692,9.64867,-2.2851,0.69077
706.05,32.0601,10.05353,-2.30025,0.68833
709.15,32.16329,10.37888,-2.31717,0.68589
712.25,32.26648,10.66623,-2.3343,0.68344
715.35,32.36977,10.9153,-2.35152,0.68097
718.45,32.47306,11.25676,-2.36863,0.67849
721.55,32.5764,11.77539,-2.3889,0.676
724.65,32.68,12.43828,-2.40903,0.67349
727.75,32.78363,13.189,-2.42984,0.67098
730.85,32.88715,13.96374,-2.45524,0.66845
733.95,32.99069,14.7624,-2.48092,0.66591
737.05,33.09448,15.5703,-2.50607,0.66336
740.15,33.19822,16.3447,-2.53065,0.6608
743.25,33.30172,17.10471,-2.55973,0.65822
746.35,33.40553,17.77545,-2.5909,0.65563
749.45,33.50943,18.33703,-2.62409,0.65304
752.55,33.6132,18.74619,-2.65315,0.65043
755.65,33.71672,19.02211,-2.68434,0.64781
758.75,33.82097,19.07,-2.71707,0.64518
761.85,33.92477,18.61877,-2.75063,0.64253
764.95,34.0285,16.66921,-2.78346,0.63988
768.05,34.1319,8.38499,-2.80846,0.63722
771.15,34.23447,2.04812,-2.81454,0.63454
774.25,34.3376,0.24487,-2.81454,0.63185
777.35,34.4411,-0.35851,-2.81658,0.62916
780.45,34.54473,-0.49994,-2.82182,0.62645
783.55,34.6481,-0.48659,-2.82299,0.62373
786.65,34.75208,-0.43197,-2.82245,0.621
789.75,34.85582,-0.41631,-2.82287,0.61826
792.85,34.95995,-0.39781,-2.82442,0.61552
793.95,34.99686,-0.39657,-2.82289,0.61454