File: 01_Data/Polyolefin_Carpet_Low_Pile/STA/N2/30K_min/Polyolefin_Carpet_Low_Pile_STA_N2_30KData_220403_R2.csv
##Temp./Â°C,Time/min,DSC(subtr.2)/mW,Mass loss(subtr.2)/mg,Sensit./(uV/mW)
48.82,10.00667,0.02242184,-0.00614,1.08887
51.92,10.8668,0.67804,-0.00438442,1.08626
55.02,11.09577,1.09881,-0.004997482,1.08367
58.12,11.27171,1.43995,-0.007459498,1.08109
61.22,11.4228,1.70288,-0.006248273,1.07853
64.32,11.56027,1.9425,-0.00624805,1.07598
67.42,11.68871,2.12744,-0.006098023,1.07346
70.52,11.81172,2.28292,-0.005512286,1.07095
73.62,11.9306,2.40735,-0.00417715,1.06845
76.72,12.04604,2.51062,-0.003888602,1.06597
79.82,12.1595,2.58932,-0.003449404,1.06351
82.92,12.27081,2.66677,-0.005174597,1.06107
86.02,12.38021,2.73449,-0.005738496,1.05864
89.12,12.4884,2.79211,-0.00657788,1.05623
92.22,12.59565,2.84831,-0.00594366,1.05383
95.32,12.70149,2.90476,-0.006207356,1.05145
98.42,12.80723,2.94063,-0.007279074,1.04909
101.52,12.91207,2.98277,-0.00706249,1.04674
104.62,13.01689,3.01587,-0.0066389,1.04441
107.72,13.12106,3.04342,-0.006700008,1.04209
110.82,13.22528,3.0825,-0.007787604,1.03979
113.92,13.3292,3.12508,-0.006691273,1.03751
117.02,13.4328,3.14216,-0.00697534,1.03524
120.12,13.5359,3.15958,-0.00667564,1.03299
123.22,13.6387,3.15823,-0.009330513,1.03076
126.32,13.7411,3.15515,-0.008583762,1.02854
129.42,13.84276,3.17688,-0.009555765,1.02633
132.52,13.9442,3.23432,-0.008247311,1.02414
135.62,14.04505,3.30399,-0.00943699,1.02197
138.72,14.14538,3.40123,-0.00954951,1.01981
141.82,14.2452,3.51952,-0.00955,1.01766
144.92,14.34494,3.70288,-0.0108965,1.01553
148.02,14.44408,3.95393,-0.01086993,1.01342
151.12,14.54295,4.31363,-0.01085964,1.01132
154.22,14.6415,4.87342,-0.01086,1.00923
157.32,14.74024,5.59526,-0.01086,1.00716
160.42,14.83875,6.41549,-0.01136424,1.00511
163.52,14.9369,7.06934,-0.01218,1.00307
166.62,15.03524,6.8231,-0.01218027,1.00104
169.72,15.13305,5.73511,-0.01415021,0.99902
172.82,15.23027,4.85313,-0.01152461,0.99702
175.92,15.327,4.32331,-0.01119,0.99504
179.02,15.42332,4.0598,-0.01383818,0.99306
182.12,15.51929,3.90689,-0.01382,0.9911
185.22,15.6151,3.83366,-0.01515768,0.98916
188.32,15.7106,3.79486,-0.01447582,0.98722
191.42,15.806,3.79459,-0.01447995,0.9853
194.52,15.90104,3.80903,-0.01580151,0.98339
197.62,15.9963,3.83142,-0.01447961,0.9815
200.72,16.09117,3.84302,-0.01712002,0.97962
203.82,16.18604,3.85711,-0.0157968,0.97775
206.92,16.2808,3.87257,-0.01581669,0.97589
210.02,16.3755,3.88923,-0.018425,0.97404
213.12,16.47,3.90193,-0.01843,0.9722
216.22,16.5644,3.91849,-0.01850033,0.97038
219.32,16.6589,3.94215,-0.01777267,0.96857
222.42,16.75315,3.95609,-0.0164598,0.96677
225.52,16.8474,3.96171,-0.01777085,0.96498
228.62,16.94141,3.98402,-0.01876,0.9632
231.72,17.0353,3.9916,-0.01876,0.96143
234.82,17.12916,4.01715,-0.0180949,0.95967
237.92,17.22314,4.02075,-0.0181,0.95792
241.02,17.31691,4.038,-0.01810096,0.95618
244.12,17.41078,4.05305,-0.01956835,0.95445
247.22,17.5044,4.05305,-0.02073966,0.95273
250.32,17.5979,4.0685,-0.02073098,0.95102
253.42,17.69156,4.07916,-0.02204,0.94932
256.52,17.78525,4.07653,-0.02202646,0.94763
259.62,17.87888,4.08364,-0.02106,0.94594
262.72,17.97229,4.09596,-0.02106,0.94427
265.82,18.0658,4.09821,-0.02237979,0.9426
268.92,18.15916,4.09854,-0.02368999,0.94094
272.02,18.25282,4.11305,-0.02366943,0.93929
275.12,18.34635,4.11951,-0.02468,0.93765
278.22,18.44005,4.12435,-0.02468,0.93601
281.32,18.53366,4.13348,-0.0237012,0.93439
284.42,18.6268,4.13872,-0.02501,0.93277
287.52,18.72106,4.14774,-0.02634222,0.93115
290.62,18.81469,4.16515,-0.0276404,0.92954
293.72,18.9084,4.15857,-0.02898475,0.92794
296.82,19.0019,4.16703,-0.02869237,0.92634
299.92,19.09595,4.16158,-0.030269,0.92475
303.02,19.18956,4.16394,-0.03027,0.92317
306.12,19.2834,4.16407,-0.03028299,0.92159
309.22,19.37729,4.1735,-0.03290995,0.92002
312.32,19.47114,4.16365,-0.03422,0.91845
315.42,19.56495,4.1647,-0.03422,0.91689
318.52,19.65863,4.17026,-0.03470954,0.91533
321.62,19.75296,4.17274,-0.03685999,0.91377
324.72,19.84714,4.16645,-0.0375684,0.91222
327.82,19.94145,4.16479,-0.03816132,0.91067
330.92,20.03569,4.172,-0.04213137,0.90913
334.02,20.1299,4.16961,-0.04114409,0.90759
337.12,20.22447,4.16862,-0.04245,0.90605
340.22,20.3189,4.15752,-0.04389935,0.90452
343.32,20.4136,4.15636,-0.04683617,0.90298
346.42,20.50824,4.1513,-0.05079226,0.90145
349.52,20.60305,4.16553,-0.05346954,0.89993
352.62,20.6979,4.16145,-0.05474017,0.8984
355.72,20.7928,4.17178,-0.05605826,0.89688
358.82,20.8877,4.18125,-0.05966495,0.89536
361.92,20.9828,4.18218,-0.06239439,0.89384
365.02,21.078,4.20271,-0.06522563,0.89232
368.12,21.17342,4.21465,-0.07097495,0.8908
371.22,21.2687,4.25104,-0.07396453,0.88928
374.32,21.36431,4.27987,-0.08098538,0.88776
377.42,21.45996,4.3242,-0.08631626,0.88624
380.52,21.55544,4.38253,-0.09241144,0.88472
383.62,21.6512,4.44987,-0.10062,0.88321
386.72,21.74709,4.52655,-0.10929,0.88169
389.82,21.8431,4.62006,-0.11731,0.88017
392.92,21.93915,4.71208,-0.12901,0.87864
396.02,22.03533,4.83569,-0.14072,0.87712
399.12,22.13172,4.9766,-0.15154,0.8756
402.22,22.2283,5.13442,-0.16882,0.87407
405.32,22.32471,5.31359,-0.18587,0.87255
408.42,22.42116,5.48351,-0.20494,0.87102
411.52,22.51791,5.66945,-0.22479,0.86949
414.62,22.61453,5.86228,-0.24554,0.86795
417.72,22.7115,6.06143,-0.26925,0.86641
420.82,22.80854,6.24233,-0.29456,0.86487
423.92,22.90568,6.45081,-0.32359,0.86333
427.02,23.00263,6.63796,-0.35135,0.86178
430.12,23.10004,6.82389,-0.38238,0.86023
433.22,23.19739,7.00305,-0.41429,0.85868
436.32,23.29496,7.1781,-0.45021,0.85712
439.42,23.39268,7.36366,-0.48709,0.85556
442.52,23.49036,7.55515,-0.52775,0.85399
445.62,23.58809,7.73573,-0.56961,0.85242
448.72,23.68591,7.94145,-0.61344,0.85084
451.82,23.784,8.16543,-0.66137,0.84926
454.92,23.88202,8.37941,-0.71272,0.84767
458.02,23.9801,8.59456,-0.76885,0.84608
461.12,24.07805,8.81166,-0.8289,0.84448
464.22,24.17651,9.01666,-0.89115,0.84288
467.32,24.27489,9.20671,-0.96042,0.84127
470.42,24.37321,9.37044,-1.03205,0.83965
473.52,24.47158,9.47046,-1.10996,0.83803
476.62,24.5701,9.51379,-1.19168,0.8364
479.72,24.6686,9.48054,-1.27703,0.83477
482.82,24.76718,9.34992,-1.36529,0.83312
485.92,24.86567,9.09302,-1.4579,0.83147
489.02,24.96428,8.66662,-1.54744,0.82982
492.12,25.06302,8.0667,-1.63453,0.82815
495.22,25.1616,7.30968,-1.71561,0.82648
498.32,25.26022,6.35997,-1.78903,0.8248
501.42,25.35879,5.11727,-1.84861,0.82311
504.52,25.4574,3.81701,-1.89098,0.82142
507.62,25.5562,2.81577,-1.91491,0.81971
510.72,25.655,2.12813,-1.92487,0.818
513.82,25.75405,1.72513,-1.92802,0.81628
516.92,25.8533,1.49772,-1.92894,0.81455
520.02,25.95284,1.37627,-1.93026,0.81281
523.12,26.05247,1.32005,-1.93158,0.81106
526.22,26.15224,1.26695,-1.93322,0.8093
529.32,26.2518,1.36466,-1.93552,0.80754
532.42,26.3515,1.47956,-1.93683,0.80576
535.52,26.4516,1.47551,-1.93683,0.80398
538.62,26.55183,1.39684,-1.93815,0.80218
541.72,26.65215,1.32145,-1.93947,0.80037
544.82,26.75232,1.26213,-1.94078,0.79856
547.92,26.8532,1.17878,-1.94077,0.79673
551.02,26.95402,1.12068,-1.94342,0.7949
554.12,27.0548,1.09002,-1.94473,0.79305
557.22,27.1558,1.08474,-1.94605,0.7912
560.32,27.25665,1.10816,-1.94605,0.78933
563.42,27.35763,1.12934,-1.94736,0.78745
566.52,27.4587,1.17361,-1.94868,0.78557
569.62,27.5599,1.21495,-1.95,0.78367
572.72,27.66109,1.24464,-1.95132,0.78176
575.82,27.76243,1.29993,-1.95262,0.77984
578.92,27.86373,1.32412,-1.95395,0.7779
582.02,27.9651,1.3761,-1.95526,0.77596
585.12,28.06649,1.41327,-1.95854,0.77401
588.22,28.16777,1.46373,-1.96053,0.77204
591.32,28.26926,1.52662,-1.96234,0.77006
594.42,28.3706,1.59193,-1.96472,0.76807
597.52,28.47245,1.66793,-1.96623,0.76607
600.62,28.5742,1.76492,-1.96896,0.76406
603.72,28.67585,1.86818,-1.97168,0.76204
606.82,28.7777,1.98061,-1.9749,0.76
609.92,28.8796,2.1339,-1.97651,0.75795
613.02,28.9816,2.34749,-1.97961,0.75589
616.12,29.08343,2.58835,-1.984,0.75382
619.22,29.18539,2.88416,-1.9883,0.75174
622.32,29.2875,3.23843,-1.99419,0.74964
625.42,29.38953,3.60357,-2.00221,0.74753
628.52,29.49157,3.98797,-2.0096,0.74541
631.62,29.59385,4.36782,-2.01686,0.74328
634.72,29.6962,4.72895,-2.02509,0.74113
637.82,29.7984,5.03942,-2.03371,0.73897
640.92,29.9005,5.30012,-2.04392,0.7368
644.02,30.003,5.50217,-2.05572,0.73462
647.12,30.1054,5.59263,-2.06662,0.73243
650.22,30.2078,5.64299,-2.07965,0.73022
653.32,30.3102,5.57341,-2.08903,0.728
656.42,30.4126,5.40346,-2.09848,0.72577
659.52,30.51492,5.09491,-2.1089,0.72352
662.62,30.61719,4.75462,-2.11626,0.72127
665.72,30.7196,4.41987,-2.12448,0.719
668.82,30.8221,4.17785,-2.12958,0.71671
671.92,30.92447,4.41603,-2.1392,0.71442
675.02,31.02715,5.36143,-2.1448,0.71211
678.12,31.1299,6.17161,-2.15414,0.70979
681.22,31.23273,6.84766,-2.16483,0.70746
684.32,31.33555,7.43902,-2.17647,0.70512
687.42,31.4384,8.01683,-2.1893,0.70276
690.52,31.54131,8.56964,-2.19998,0.70039
693.62,31.64443,9.12983,-2.21334,0.69801
696.72,31.74745,9.62823,-2.22757,0.69561
699.82,31.8506,10.13898,-2.24446,0.69321
702.92,31.95378,10.60016,-2.26107,0.69079
706.02,32.05683,11.02773,-2.27839,0.68836
709.12,32.15981,11.38274,-2.29418,0.68592
712.22,32.26299,11.67282,-2.31228,0.68346
715.32,32.36627,11.93822,-2.33074,0.68099
718.42,32.4697,12.29579,-2.34915,0.67851
721.52,32.57305,12.86156,-2.36724,0.67602
724.62,32.6763,13.60299,-2.39066,0.67352
727.72,32.7797,14.41339,-2.41357,0.671
730.82,32.88315,15.23187,-2.43605,0.66847
733.92,32.98676,16.08023,-2.46182,0.66593
737.02,33.09046,16.92952,-2.48848,0.66338
740.12,33.19423,17.76142,-2.51753,0.66082
743.22,33.29753,18.5541,-2.54795,0.65825
746.32,33.40186,19.24149,-2.57931,0.65566
749.42,33.50565,19.76849,-2.61205,0.65306
752.52,33.60946,20.1649,-2.64614,0.65045
755.62,33.71329,20.4032,-2.67874,0.64783
758.72,33.8172,20.406,-2.71395,0.6452
761.82,33.92096,19.56244,-2.74652,0.64256
764.92,34.02451,16.16258,-2.77875,0.63991
768.02,34.1275,5.33509,-2.79978,0.63724
771.12,34.2299,1.56807,-2.80105,0.63457
774.22,34.33354,0.36805,-2.80237,0.63188
777.32,34.4373,-0.04938725,-2.80242,0.62918
780.42,34.5412,-0.12907,-2.80237,0.62648
783.52,34.6452,-0.11687,-2.80303,0.62376
786.62,34.74926,-0.07168615,-2.80304,0.62103
789.72,34.85313,-0.04195719,-2.80369,0.61829
792.82,34.95725,-0.02978895,-2.80355,0.61554
794.02,34.99758,-0.01893724,-2.80374,0.61448