File: 01_Data/Fiberglass_Insulation_R13_Paper_Faced/Cone/Fiberglass_Insulation_R13_Paper_Faced_Cone_HF75Scalar_220429_R1.csv
LABORATORY,FSRI
TEST IDENT,R13Insulation_HF75_1
OPERATOR,Dow
MATERIAL,R13 Fiberglass Insulation (pink)
ORIENTATION,Horizontal
HEAT FLUX,75
SURF AREA,0.01
C FACTOR,0.0414268
SPEC HOLDER DIFF,-566
SPECIMEN MASS,5.65
SCAN TIME,0.25
O2 DELAY TIME,11
CO DELAY TIME,11
CO2 DELAY TIME,8
FLOW FACTOR,1
SCAN COUNT,7686
TIME TO IGN,0
END OF TEST SCAN,7206
END OF TEST TIME,1801.5
TEST STATUS,1
PRE TEST CMT,Dimensions: 99.3 x 98.2 x 24.2 mm
POST TEST CMT,Sample gradually shrivelled throughout the test (see post test pictures).No ignition. Test ended after 30 minutes.