File: 01_Data/Fiberglass_Insulation_R13_Paper_Faced/Cone/Fiberglass_Insulation_R13_Paper_Faced_Cone_HF75Scan_220429_R1.csv
Names,Time,Stack TC,Smoke TC,Exh Press,Smoke Comp,Smoke Meas,CO Meter,CO2 Meter,O2 Meter,Sample Mass,Ext Coeff,Start Test,Flame Verif
Chan Gain,,500,500,1,1,1,1,1,1,1,1,1.0,1.0
Offset,,0,0,0.13436,0,0,0,0,0,0,0,0.0,0.0
Gain,,1,1,25.011,14.4414,16.1819,1,1,1,1.0009,1.01483,1.0,1.0
Units,sec,C,C,Pa,%,%,%,%,%,g,/m,,
Baseline,,39.7387,41.3702,132.371,108.008,110.121,0.000936378,0.0561835,21.0129,-495.887,-0.172437,,
83,20.5,40.7652,41.7418,131.421,109.403,112.123,0.00235449,0.0660886,21.0032,0.940844,-0.218624,0.0,0.0
166,41.25,41.95,43.3195,130.267,109.48,112.657,0.00184379,0.0641586,21.0069,0.920826,-0.254598,0.0,0.0
249,62,42.7573,43.7188,131.407,109.432,112.582,0.00105984,0.0576434,21.0158,0.870782,-0.252644,0.0,0.0
332,82.75,43.1417,44.9464,131.134,109.281,111.576,0.000833055,0.0563318,21.0154,0.860773,-0.185054,0.0,0.0
415,103.5,43.5584,45.1785,131.509,109.006,112.387,0.00061823,0.0559844,21.0173,0.850764,-0.271909,0.0,0.0
498,124.25,43.4007,45.2644,129.039,109.163,112.256,0.000592898,0.0561975,21.016,0.850764,-0.24877,0.0,0.0
581,145,43.6379,45.494,133.247,109.499,112.341,0.000643047,0.056482,21.0155,0.810728,-0.228048,0.0,0.0
664,165.75,43.9983,45.925,127.469,109.837,112.463,0.000537975,0.0561199,21.0167,0.79071,-0.210341,0.0,0.0
747,186.5,43.8629,46.4722,132.699,109.941,112.364,0.000487551,0.0557188,21.0183,0.770692,-0.194062,0.0,0.0
830,207.25,44.2232,46.1407,128.818,109.898,112.631,0.000826558,0.0559077,21.0162,0.760683,-0.218623,0.0,0.0
913,228,44.0458,46.4426,132.272,109.618,112.599,0.000592738,0.0557156,21.019,0.760683,-0.238819,0.0,0.0
996,248.75,44.2557,46.2,129.183,109.177,112.266,0.000466945,0.0555994,21.0155,0.730656,-0.248403,0.0,0.0
1079,269.5,44.1168,46.3282,132.397,108.801,111.757,0.000681815,0.0556748,21.0162,0.740665,-0.238605,0.0,0.0
1162,290.25,44.3195,46.7011,129.82,108.351,110.929,0.000394578,0.0555068,21.0165,0.740665,-0.209325,0.0,0.0
1245,311,44.1931,46.7559,126.036,107.998,111.129,0.000342581,0.0553887,21.013,0.710638,-0.254411,0.0,0.0
1328,331.75,44.1443,46.6774,133.394,107.985,110.955,0.000251296,0.0553341,21.0167,0.730656,-0.241529,0.0,0.0
1411,352.5,44.6978,46.7511,129.046,108.144,110.828,0.000506465,0.0555912,21.018,0.730656,-0.218231,0.0,0.0
1494,373.25,44.7604,46.6699,131.211,108.38,111.695,0.000561767,0.0557145,21.0195,0.770692,-0.268193,0.0,0.0
1577,394,45.046,46.6704,129.79,108.522,111.524,0.000406521,0.0563212,21.0142,0.710638,-0.242916,0.0,0.0
1660,414.75,45.3098,47.2378,135.697,108.521,110.717,0.000438572,0.0561722,21.0148,0.740665,-0.178302,0.0,0.0
1743,435.5,45.1607,47.2756,133.138,108.631,112.319,0.000227636,0.0565608,21.015,0.700629,-0.297227,0.0,0.0
1826,456.25,45.1227,46.6611,133.721,108.662,110.919,0.000297369,0.0557823,21.0177,0.700629,-0.182969,0.0,0.0
1909,477,45.3243,46.7897,126.496,108.61,112.123,0.000851438,0.0572967,21.011,0.740665,-0.283373,0.0,0.0
1992,497.75,45.638,47.4203,124.622,108.64,111.913,0.000482126,0.0561356,21.0172,0.680611,-0.264237,0.0,0.0
2075,518.5,45.2072,47.7548,127.501,108.837,111.303,0.000490254,0.057201,21.0153,0.710638,-0.199464,0.0,0.0
2158,539.25,44.9609,47.3473,128.698,109.149,112.092,0.000869374,0.0569772,21.0132,0.710638,-0.236798,0.0,0.0
2241,560,45.8481,47.9249,130.384,109.335,111.608,0.000300339,0.056934,21.0136,0.680611,-0.183196,0.0,0.0
2324,580.75,45.4059,47.6243,129.188,109.294,112.144,0.000455349,0.0566895,21.0164,0.69062,-0.229169,0.0,0.0
2407,601.5,45.2963,47.5311,130.816,109.071,111.992,0.000556881,0.0564972,21.0122,0.69062,-0.235272,0.0,0.0
2490,622.25,45.5424,47.5561,128.614,108.997,112.349,0.000444091,0.0561255,21.0159,0.710638,-0.269612,0.0,0.0
2573,643,45.6727,47.3379,133.121,108.758,111.542,0.000574953,0.0562327,21.0169,0.680611,-0.224976,0.0,0.0
2656,663.75,45.9347,47.9908,130.718,108.767,111.544,0.000820755,0.0566623,21.0136,0.670602,-0.224412,0.0,0.0
2739,684.5,45.3862,47.5794,133.983,109.168,111.543,0.000476226,0.0561624,21.0145,0.700629,-0.191534,0.0,0.0
2822,705.25,45.4712,47.8598,126.271,109.443,112.813,0.000318016,0.0560481,21.0168,0.700629,-0.270002,0.0,0.0
2905,726,45.3708,47.3772,129.676,109.558,112.838,0.000598009,0.0560067,21.0172,0.69062,-0.262603,0.0,0.0
2988,746.75,45.4679,47.3496,128.603,109.614,112.479,0.000410486,0.0561668,21.0173,0.750674,-0.229723,0.0,0.0
3071,767.5,45.732,48.0267,132.725,109.553,112.261,0.000612349,0.0571916,21.015,0.700629,-0.217336,0.0,0.0
3154,788.25,45.711,47.7628,126.314,109.42,112.487,0.000468574,0.0563906,21.0173,0.69062,-0.246075,0.0,0.0
3237,809,45.8763,47.1812,129.49,109.249,113.12,0.000590158,0.0561697,21.0179,0.69062,-0.309923,0.0,0.0
3320,829.75,45.4925,48.3521,128.911,109.142,111.473,0.000533862,0.056251,21.0172,0.680611,-0.188167,0.0,0.0
3403,850.5,46.3561,47.4413,131.769,109.301,112.881,0.000574544,0.0558954,21.0169,0.700629,-0.286929,0.0,0.0
3486,871.25,45.7019,47.6991,128.782,109.474,113.751,0.000412821,0.0558489,21.0165,0.660593,-0.341191,0.0,0.0
3569,892,45.8607,47.9746,127.429,109.577,112.85,0.000348616,0.0559394,21.0169,0.660593,-0.261962,0.0,0.0
3652,912.75,46.2712,47.6853,128.666,109.734,113.469,0.000639018,0.0562696,21.0154,0.69062,-0.297942,0.0,0.0
3735,933.5,45.5153,47.7735,127.041,109.933,112.677,0.000296648,0.0560587,21.0185,0.710638,-0.219467,0.0,0.0
3818,954.25,45.805,47.4124,129.871,110.046,112.637,0.000390871,0.0560525,21.0176,0.680611,-0.207104,0.0,0.0
3901,975,45.9891,47.931,128.836,110.059,113.271,0.000279632,0.0560439,21.0187,0.720647,-0.256082,0.0,0.0
3984,995.75,46.1372,47.5204,131.039,110.056,113.006,0.000237492,0.0558153,21.0184,0.710638,-0.23543,0.0,0.0
4067,1016.5,45.6129,48.1983,129.614,110.057,114.526,0.000296314,0.0557425,21.0202,0.710638,-0.3543,0.0,0.0
4150,1037.25,45.6869,48.0989,127.558,110.053,113.718,0.000171518,0.0557926,21.0186,0.740665,-0.291635,0.0,0.0
4233,1058,45.7323,47.799,128.583,109.978,112.876,-0.000103741,0.0563187,21.0164,0.710638,-0.231576,0.0,0.0
4316,1078.75,46.1166,47.8791,131.716,109.903,112.198,0.000403738,0.0565726,21.0158,0.700629,-0.184047,0.0,0.0
4399,1099.5,46.0556,47.8019,126.888,109.725,113.229,-7.56842e-05,0.0559197,21.0157,0.700629,-0.279769,0.0,0.0
4482,1120.25,45.9918,47.8137,132.762,109.566,112.812,0.000762491,0.0555395,21.0174,0.680611,-0.259857,0.0,0.0
4565,1141,46.033,47.9364,131.513,109.375,112.428,0.000426717,0.0559647,21.0173,0.700629,-0.245117,0.0,0.0
4648,1161.75,45.673,47.6154,122.707,109.105,112.76,0.000637909,0.0557807,21.0184,0.710638,-0.293373,0.0,0.0
4731,1182.5,45.9421,47.5316,127.542,108.843,112.865,0.000425659,0.0562283,21.0174,0.700629,-0.323019,0.0,0.0
4814,1203.25,45.9757,47.4731,129.288,108.618,112.516,0.000523889,0.0559944,21.0189,0.680611,-0.313913,0.0,0.0
4897,1224,46.3166,47.6196,129.204,108.512,111.744,0.00015567,0.0558071,21.0178,0.720647,-0.261268,0.0,0.0
4980,1244.75,46.1204,48.1349,128.835,108.39,111.543,0.000656379,0.0572365,21.0158,0.740665,-0.255302,0.0,0.0
5063,1265.5,46.0061,48,132.171,108.283,111.286,0.000322959,0.0565432,21.0162,0.730656,-0.243549,0.0,0.0
5146,1286.25,45.869,47.9267,132.18,108.168,111.486,0.000879186,0.0563079,21.0156,0.730656,-0.268994,0.0,0.0
5229,1307,45.9814,47.8094,126.745,108.132,111.886,0.000360186,0.0566858,21.0152,0.750674,-0.303815,0.0,0.0
5312,1327.75,46.0255,47.4652,128.513,108.271,112.526,0.000766144,0.0569006,21.013,0.700629,-0.343169,0.0,0.0
5395,1348.5,45.7788,48.0175,125.618,108.514,110.994,0.000632689,0.0576793,21.0122,0.730656,-0.201167,0.0,0.0
5478,1369.25,45.6817,47.7812,131.595,108.739,111.703,0.000593261,0.0570643,21.0135,0.730656,-0.239442,0.0,0.0
5561,1390,45.8046,48.0774,134.398,108.845,112.116,0.000480235,0.0566247,21.0145,0.710638,-0.263555,0.0,0.0
5644,1410.75,45.7063,47.9466,133.236,108.939,112.437,0.000702685,0.0565578,21.0127,0.740665,-0.281331,0.0,0.0
5727,1431.5,45.8701,47.9472,128.814,109.004,112.623,0.000389009,0.0569219,21.0137,0.740665,-0.290691,0.0,0.0
5810,1452.25,46.0636,48.0456,133.853,109.175,112.249,0.000493913,0.0568365,21.014,0.710638,-0.247215,0.0,0.0
5893,1473,45.9499,47.9083,127.403,109.317,112.981,0.000823706,0.0565726,21.0128,0.750674,-0.293468,0.0,0.0
5976,1493.75,45.6638,48.0376,129.211,109.373,114.05,0.000231939,0.0570208,21.0106,0.720647,-0.37279,0.0,0.0
6059,1514.5,45.9335,48.4196,131.264,109.442,112.614,0.000402426,0.056576,21.0148,0.710638,-0.254356,0.0,0.0
6142,1535.25,46.1966,48.4127,129.989,109.489,113.057,0.000393172,0.0569661,21.0125,0.730656,-0.285469,0.0,0.0
6225,1556,46.1295,48.0791,129.992,109.502,112.794,0.000333013,0.0566334,21.0147,0.720647,-0.26372,0.0,0.0
6308,1576.75,46.0721,47.638,129.608,109.51,113.048,0.000300489,0.0568529,21.0146,0.730656,-0.283124,0.0,0.0
6391,1597.5,45.8984,48.4216,129.749,109.518,112.896,0.000586831,0.0567788,21.0139,0.720647,-0.270419,0.0,0.0
6474,1618.25,45.8188,48.1482,130.942,109.52,112.915,0.000394781,0.0568963,21.0132,0.750674,-0.271795,0.0,0.0
6557,1639,46.6048,48.2782,132.003,109.501,112.202,0.000682505,0.0571867,21.0132,0.760683,-0.216977,0.0,0.0
6640,1659.75,46.3938,48.4437,130.052,109.46,112.94,0.000358668,0.0573449,21.0129,0.760683,-0.278578,0.0,0.0
6723,1680.5,46.2582,47.7839,131.722,109.318,111.919,0.000295331,0.0567579,21.0122,0.740665,-0.209305,0.0,0.0
6806,1701.25,46.2317,48.1515,129.94,109.144,112.171,0.000607539,0.0568973,21.0104,0.740665,-0.243541,0.0,0.0
6889,1722,45.9087,48.069,129.772,108.972,112.598,0.000651315,0.057005,21.0129,0.770692,-0.291328,0.0,0.0
6972,1742.75,46.021,47.4981,127.95,108.898,111.937,0.000512732,0.0569495,21.0124,0.710638,-0.245023,0.0,0.0
7055,1763.5,46.1966,47.9329,129.04,108.871,111.82,0.000227091,0.0568718,21.0135,0.760683,-0.237907,0.0,0.0
7138,1784.25,46.3472,47.6091,129.663,108.863,111.503,0.000352233,0.0568102,21.0123,0.780701,-0.21328,0.0,0.0
7221,1805,44.9746,47.2021,126.699,109.099,112.846,0.000304997,0.0569023,21.0129,0.740665,-0.300622,0.0,0.0
7304,1825.75,45.2331,47.1179,130.271,109.424,112.638,0.000269444,0.0571567,21.0127,0.760683,-0.257739,0.0,0.0
7387,1846.5,45.4512,46.8496,130.538,109.676,112.739,9.95272e-05,0.0569599,21.0117,0.750674,-0.245216,0.0,0.0
7470,1867.25,45.092,47.2023,127.646,109.71,113.064,0.000435974,0.0573344,21.0116,0.720647,-0.268083,0.0,0.0
7553,1888,45.2235,46.9511,131.774,109.588,111.952,0.000564896,0.0568844,21.0108,0.750674,-0.18996,0.0,0.0
7636,1908.75,44.8287,47.1306,130.419,109.305,113.592,0.000128366,0.0566295,21.0145,0.750674,-0.342474,0.0,0.0
7686,1921.25,45.1735,47.1221,130.514,109.244,112.701,,,,0.750674,-0.277338,0.0,0.0