File: 01_Data/Fiberglass_Insulation_R13_Paper_Faced/Cone/R13_Fiberglass_Insulation_Cone_HF25Scan_220429_R2.csv
Names,Time,Stack TC,Smoke TC,Exh Press,Smoke Comp,Smoke Meas,CO Meter,CO2 Meter,O2 Meter,Sample Mass,Ext Coeff,Start Test,Flame Verif
Chan Gain,,500,500,1,1,1,1,1,1,1,1,1.0,1.0
Offset,,0,0,0.134537,0,0,0,0,0,0,0,0.0,0.0
Gain,,1,1,25.011,14.8585,16.6522,1,1,1,1.00087,1.0138,1.0,1.0
Units,sec,C,C,Pa,%,%,%,%,%,g,/m,,
Baseline,,20.7685,21.3616,140.303,111.891,112.776,0.000309397,0.0521417,21.0125,-833.974,-0.0700326,,
31,7.5,19.5935,20.0748,140.646,111.527,112.581,0.000554544,0.0632866,21.0024,-330.867,-0.0836461,0.0,0.0
62,15.25,19.6503,20.5581,142.696,111.643,112.343,0.000479645,0.0569133,21.0087,-330.957,-0.0555921,0.0,0.0
93,23,19.9207,20.6007,141.776,111.738,113.158,0.000762159,0.0535425,21.0139,-330.997,-0.112335,0.0,0.0
124,30.75,20.1265,20.5985,139.903,111.824,112.787,0.000376211,0.0529223,21.0144,-331.047,-0.0762422,0.0,0.0
155,38.5,20.6732,20.7718,137.171,111.894,112.843,0.00033001,0.0526092,21.0122,-331.067,-0.0750923,0.0,0.0
186,46.25,20.1957,21.1486,146.677,111.954,112.586,0.000171684,0.0524632,21.0155,-331.077,-0.0500168,0.0,0.0
217,54,20.7562,21.0869,138.503,111.927,112.93,0.00027968,0.0523889,21.0152,-331.097,-0.079312,0.0,0.0
248,61.75,20.6623,20.9915,139.048,111.91,113.106,0.000712441,0.0523164,21.0165,-331.097,-0.094593,0.0,0.0
279,69.5,20.9405,21.4531,137.608,111.898,112.908,0.000376374,0.0521157,21.0134,-331.107,-0.0798977,0.0,0.0
310,77.25,20.8479,21.3075,137.888,111.91,112.633,0.000336158,0.0520716,21.0108,-331.117,-0.0572036,0.0,0.0
341,85,20.851,21.6138,142.558,111.951,113.071,0.000184609,0.0519513,21.0104,-331.127,-0.0884813,0.0,0.0
372,92.75,20.9593,21.7645,138.082,112.01,112.767,0.000432692,0.0518621,21.0145,-331.157,-0.0599419,0.0,0.0
403,100.5,20.9432,21.8045,142.303,112.083,112.893,0.000519117,0.0517681,21.0157,-331.147,-0.0640455,0.0,0.0
434,108.25,21.54,21.8568,139.613,112.136,113.175,0.000129045,0.0517583,21.0136,-331.147,-0.0820266,0.0,0.0
465,116,21.4147,21.9953,141.101,112.22,113.443,0.000240947,0.0516621,21.0159,-331.157,-0.0963959,0.0,0.0
496,123.75,21.5347,21.5892,143.5,112.269,113.774,0.000163574,0.0517887,21.0159,-331.157,-0.118408,0.0,0.0
527,131.5,20.886,22.1263,139.171,112.294,113.471,1.88551e-05,0.0518064,21.0179,-331.177,-0.0926913,0.0,0.0
558,139.25,21.3748,22.0797,138.849,112.333,113.399,0.000157114,0.0519528,21.0147,-331.177,-0.0840261,0.0,0.0
589,147,21.285,22.1385,144.155,112.362,113.695,-1.27811e-05,0.0519324,21.0144,-331.177,-0.104889,0.0,0.0
620,154.75,21.5715,22.008,137.982,112.398,113.543,0.000274432,0.0516756,21.0136,-331.167,-0.0900897,0.0,0.0
651,162.5,21.4143,22.3117,134.825,112.426,113.427,0.000344725,0.051712,21.0156,-331.177,-0.0788259,0.0,0.0
682,170.25,20.8956,22.3132,139.886,112.465,113.518,0.000218728,0.0515895,21.0157,-331.187,-0.0829426,0.0,0.0
713,178,21.515,22.1593,139.867,112.501,113.723,0.000116344,0.0516537,21.0136,-331.177,-0.0960289,0.0,0.0
744,185.75,21.619,21.8767,139.648,112.525,113.334,9.70426e-06,0.0516606,21.0156,-331.187,-0.0636761,0.0,0.0
775,193.5,21.349,22.3358,138.523,112.541,113.457,9.27685e-05,0.0514687,21.0157,-331.217,-0.0720661,0.0,0.0
806,201.25,21.6373,21.9996,139.063,112.533,113.997,0.000128326,0.0515612,21.0157,-331.207,-0.114949,0.0,0.0
837,209,20.9789,21.9523,142.381,112.529,113.663,0.000127492,0.0514859,21.0147,-331.207,-0.0891554,0.0,0.0
868,216.75,21.3726,22.3154,141.327,112.494,113.833,-0.000186124,0.0515305,21.0157,-331.197,-0.105296,0.0,0.0
899,224.5,21.0495,22.7031,138.077,112.489,113.944,-0.000214344,0.0514883,21.0137,-331.207,-0.114265,0.0,0.0
930,232.25,21.4534,21.94,138.449,112.458,113.48,1.65187e-05,0.0514939,21.0157,-331.207,-0.0804186,0.0,0.0
961,240,21.6709,22.4681,138.226,112.431,113.452,-2.47025e-05,0.0515036,21.0139,-331.197,-0.0804149,0.0,0.0
992,247.75,21.6415,21.8992,140.583,112.378,113.825,0.000124928,0.0513969,21.0155,-331.217,-0.113807,0.0,0.0
1023,255.5,21.7747,22.0597,139.661,112.325,113.707,3.58549e-05,0.0510827,21.018,-331.217,-0.108751,0.0,0.0
1054,263.25,21.7186,22.1612,140.626,112.266,113.396,2.60849e-05,0.0510925,21.0186,-331.227,-0.089097,0.0,0.0
1085,271,21.2729,22.4052,138.586,112.221,113.108,7.37014e-05,0.0510829,21.0186,-331.217,-0.0700277,0.0,0.0
1116,278.75,21.3294,22.0935,142.874,112.165,113.32,-5.6094e-05,0.051067,21.0147,-331.237,-0.0911344,0.0,0.0
1147,286.5,21.558,22.2432,135.741,112.116,113.39,0.000301844,0.0510459,21.0149,-331.227,-0.100445,0.0,0.0
1178,294.25,21.7318,22.0622,139.445,112.064,112.99,0.00034458,0.0511007,21.0149,-331.237,-0.0732354,0.0,0.0
1209,302,21.6763,22.225,141.719,111.988,113.304,0.000271179,0.0509662,21.0151,-331.237,-0.103895,0.0,0.0
1240,309.75,21.9548,22.1291,145.289,112.019,113.139,0.000191714,0.0511663,21.0163,-331.227,-0.0884701,0.0,0.0
1271,317.5,21.4612,22.357,141.825,112.058,113.319,-4.27006e-05,0.0511555,21.0159,-331.247,-0.0995435,0.0,0.0
1302,325.25,21.7792,22.7278,136.334,112.077,113.452,0.000160225,0.0510352,21.0164,-331.237,-0.10844,0.0,0.0
1333,333,21.682,22.4337,141.079,112.118,113.639,-0.000180238,0.0512557,21.0156,-331.247,-0.119845,0.0,0.0
1364,340.75,21.839,22.4255,137.978,112.153,113.49,-0.000128395,0.0513717,21.0161,-331.237,-0.105344,0.0,0.0
1395,348.5,21.7638,22.3276,140.859,112.197,113.313,0.000102187,0.0511931,21.018,-331.227,-0.087984,0.0,0.0
1426,356.25,21.5843,22.527,139.85,112.196,113.238,0.000284239,0.0514639,21.0169,-331.237,-0.0822668,0.0,0.0
1457,364,21.886,22.2906,139.159,112.213,113.366,0.000336025,0.0521045,21.0153,-331.247,-0.0909133,0.0,0.0
1488,371.75,22.0337,22.4868,136.695,112.245,113.466,-5.35337e-05,0.0518926,21.0148,-331.237,-0.0962084,0.0,0.0
1519,379.5,21.6193,22.0119,137.876,112.29,113.321,-0.000252893,0.0515637,21.0168,-331.267,-0.0812932,0.0,0.0
1550,387.25,21.9705,22.3948,139.155,112.373,113.341,-0.000237137,0.051297,21.0179,-331.247,-0.076247,0.0,0.0
1581,395,21.1156,22.3148,142.288,112.455,113.683,-0.000150465,0.0510369,21.0171,-331.257,-0.0965851,0.0,0.0
1612,402.75,21.6795,22.4085,138.781,112.55,113.863,1.68094e-05,0.0510952,21.0167,-331.267,-0.103159,0.0,0.0
1643,410.5,21.4797,22.5497,142.566,112.632,113.759,-2.77518e-05,0.0511465,21.015,-331.257,-0.0885718,0.0,0.0
1674,418.25,21.8967,22.5134,138.583,112.705,113.943,4.6615e-05,0.051112,21.0176,-331.257,-0.0971793,0.0,0.0
1705,426,21.6313,22.6906,137.286,112.775,113.869,4.53814e-05,0.0510489,21.0155,-331.277,-0.0858381,0.0,0.0
1736,433.75,21.7462,22.5676,139.53,112.846,114.025,4.78076e-05,0.0510491,21.0169,-331.257,-0.0923662,0.0,0.0
1767,441.5,21.7531,22.6305,139.757,112.886,113.999,-0.000284361,0.051142,21.0161,-331.257,-0.0872008,0.0,0.0
1798,449.25,21.8298,22.3679,134.732,112.941,114.219,9.21581e-05,0.0508882,21.0151,-331.257,-0.100068,0.0,0.0
1829,457,21.6671,22.5007,137.804,112.961,114.188,0.000160894,0.0509432,21.0151,-331.257,-0.0961194,0.0,0.0
1860,464.75,21.4961,22.1737,139.332,112.973,113.947,4.18836e-05,0.0508383,21.0165,-331.257,-0.0763363,0.0,0.0
1891,472.5,21.7733,22.4204,134.878,112.982,114.018,7.8364e-06,0.0509285,21.0174,-331.277,-0.0811375,0.0,0.0
1922,480.25,21.4427,22.0157,140.525,112.98,114.29,-0.000252016,0.0507951,21.0162,-331.257,-0.102536,0.0,0.0
1953,488,21.4527,22.4122,140.85,112.991,114.016,7.95368e-05,0.0508162,21.0165,-331.257,-0.0803764,0.0,0.0
1984,495.75,21.4063,22.737,136.473,112.991,114.587,0.000263873,0.0508851,21.0146,-331.257,-0.124667,0.0,0.0
2015,503.5,21.4496,22.3621,139.89,112.981,114.623,-3.83148e-05,0.0507825,21.0145,-331.257,-0.128363,0.0,0.0
2046,511.25,21.6476,22.1372,139.246,112.964,114.298,0.000157552,0.0507802,21.0173,-331.247,-0.104414,0.0,0.0
2077,519,21.9318,22.5016,137.61,112.929,114.105,0.000212946,0.0507054,21.0192,-331.247,-0.0921252,0.0,0.0
2108,526.75,21.4442,22.6128,139.249,112.914,114.515,-2.61869e-05,0.0515578,21.0168,-331.277,-0.125209,0.0,0.0
2139,534.5,21.5921,22.4969,140.76,112.895,114.272,0.000199941,0.0507123,21.0181,-331.277,-0.107786,0.0,0.0
2170,542.25,21.5097,22.2343,143.601,112.874,113.777,-0.000307786,0.0506428,21.0184,-331.277,-0.0708601,0.0,0.0
2201,550,21.3725,22.4987,139.3,112.835,114.036,-0.000278471,0.0505698,21.0174,-331.257,-0.0941714,0.0,0.0
2232,557.75,21.84,22.3659,139.85,112.781,114.264,8.41586e-06,0.0507278,21.0171,-331.277,-0.116163,0.0,0.0
2263,565.5,21.7181,22.4653,139.924,112.739,114.035,-2.7804e-05,0.0507253,21.0174,-331.297,-0.101597,0.0,0.0
2294,573.25,21.7374,22.3907,138.939,112.673,114.152,-5.97199e-06,0.0506592,21.0169,-331.277,-0.115967,0.0,0.0
2325,581,21.2943,22.5599,140.148,112.609,113.579,0.00029867,0.0506858,21.017,-331.267,-0.0762876,0.0,0.0
2356,588.75,21.7091,22.5745,137.91,112.52,113.535,0.000104241,0.0507272,21.0165,-331.287,-0.0798426,0.0,0.0
2387,596.5,21.8477,22.5312,141.084,112.448,113.416,0.000167751,0.0504607,21.0166,-331.257,-0.076224,0.0,0.0
2418,604.25,20.7067,21.8574,143.995,112.364,113.696,0.000370339,0.0504748,21.018,-331.267,-0.104829,0.0,0.0
2449,612,20.9993,21.9421,143.927,112.248,113.658,0.000355883,0.0504182,21.0202,-331.287,-0.110964,0.0,0.0
2480,619.75,21.2043,21.897,139.664,112.113,113.164,-0.000106259,0.0503342,21.0186,-331.267,-0.0829784,0.0,0.0
2511,627.5,21.0696,22.3957,140,111.95,113.011,9.37042e-05,0.0504987,21.018,-331.267,-0.0838752,0.0,0.0
2542,635.25,21.2514,21.647,145.191,111.805,112.909,-3.40161e-05,0.0505003,21.0174,-331.267,-0.0873678,0.0,0.0
2573,643,21.0197,21.9065,136.312,111.667,112.74,-9.72686e-05,0.0504846,21.0174,-331.267,-0.0850364,0.0,0.0
2604,650.75,20.9683,21.9278,141.218,111.543,112.467,-0.000113668,0.0503971,21.0174,-331.277,-0.0733888,0.0,0.0
2635,658.5,21.1567,21.8024,139.963,111.435,112.918,-0.000131046,0.0505223,21.0167,-331.277,-0.117528,0.0,0.0
2666,666.25,21.215,22.1078,141.294,111.367,112.382,5.42952e-05,0.050713,21.0178,-331.267,-0.0807096,0.0,0.0
2697,674,20.5877,21.893,138.284,111.262,112.639,2.34317e-05,0.0505269,21.0174,-331.277,-0.109363,0.0,0.0
2728,681.75,21.279,22.1942,141.682,111.192,112.243,1.78041e-05,0.0505302,21.0153,-331.287,-0.083636,0.0,0.0
2759,689.5,21.0551,21.472,139.064,111.138,112.378,0.000195399,0.0505801,21.0173,-331.307,-0.0986151,0.0,0.0
2790,697.25,21.2697,22.173,137.024,111.088,112.442,0.000253044,0.0505642,21.0183,-331.287,-0.10775,0.0,0.0
2821,705,21.2604,21.7424,140.673,111.061,112.214,-8.3292e-08,0.0505805,21.018,-331.297,-0.0918269,0.0,0.0
2852,712.75,21.5789,22.035,139.491,111.026,112.568,,0.0506597,,-331.297,-0.122646,0.0,0.0
2883,720.5,21.7891,22.2269,139.239,110.997,112.279,,,,-331.277,-0.102142,0.0,0.0
2885,721,21.0232,21.9644,140.339,110.971,112.181,,,,-331.297,-0.0964007,0.0,0.0