File: 01_Data/Polyisocyanurate_Foam_Board/MCC/Polyisocyanurate_Foam_Board_MCC_30K_min_220214_R2.txt
Sample ID:	C:\MCC\MCC Cal\Test\Polyisocyanurate_Foam_Board_MCC_30K_min_220214_R2.txt
Sample Weight (mg):	4.66
Heating Rate (C/s):	0.5
Combustor Temp (C):	900
N2 Flow Rate (cc/min):	80
O2 Flow Rate (cc/min):	20
Calibration File:	C:\MCC\MCC Cal\Coeff1 JN10440_30_210304.txt.txt
T Correction Coefficients:	0	1.024463	0
Time Shift (s):	14
*
Time (s)	Temperature (C)	N2 flow rate (cc/min)	O2 flow rate (cc/min)	Flow Rate (cc/min)	Oxygen (%)	HRR (W/g)	Heating rate (C/s)
0.000	113.717	80.001	19.992	103.645	20.099	-0.161	-0.031
8.000	113.664	80.001	19.994	103.645	20.097	-0.056	-0.028
16.000	113.659	80.003	19.994	103.675	20.101	-0.326	-0.014
24.000	113.744	80.003	19.993	103.721	20.088	0.599	0.017
32.000	114.144	80.002	19.993	103.831	20.069	1.914	0.063
40.000	115.020	80.005	19.993	103.836	20.067	2.045	0.131
48.000	116.310	80.003	19.994	103.851	20.061	2.511	0.166
56.000	118.034	80.002	19.993	103.878	20.060	2.546	0.225
64.001	120.129	80.002	19.994	103.910	20.049	3.280	0.278
72.000	122.580	80.002	19.994	103.918	20.052	3.103	0.323
80.000	125.372	80.001	19.996	103.913	20.048	3.411	0.368
88.000	128.421	80.001	19.994	103.910	20.045	3.559	0.403
96.000	131.700	80.004	19.994	103.914	20.046	3.530	0.437
104.001	135.166	80.003	19.993	103.912	20.046	3.553	0.403
112.000	138.889	80.002	19.993	103.914	20.046	3.499	0.482
120.000	142.640	80.005	19.993	103.914	20.045	3.622	0.485
128.000	146.575	80.003	19.992	103.913	20.037	4.149	0.500
136.000	150.588	80.002	19.994	103.914	20.038	4.046	0.499
144.000	154.585	80.002	19.994	103.904	20.033	4.408	0.524
152.000	158.614	80.002	19.994	103.896	20.033	4.397	0.502
160.000	162.637	80.002	19.994	103.885	20.027	4.849	0.519
168.000	166.697	80.001	19.996	103.876	20.025	4.965	0.513
176.000	170.735	80.002	19.994	103.877	20.017	5.567	0.508
184.000	174.716	80.004	19.993	103.877	20.013	5.820	0.469
192.000	178.734	80.003	19.994	103.879	20.003	6.531	0.519
200.000	182.705	80.003	19.993	103.867	19.997	6.915	0.491
208.000	186.739	80.005	19.993	103.868	19.991	7.355	0.504
216.000	190.715	80.004	19.994	103.864	19.984	7.853	0.516
224.000	194.640	80.002	19.993	103.859	19.979	8.191	0.507
232.000	198.559	80.002	19.994	103.854	19.975	8.450	0.494
240.000	202.542	80.003	19.994	103.857	19.968	8.958	0.511
248.000	206.490	80.001	19.994	103.863	19.971	8.733	0.509
256.000	210.445	80.002	19.993	103.870	19.965	9.155	0.499
264.000	214.440	80.003	19.994	103.845	19.969	8.853	0.493
272.000	218.366	80.003	19.995	103.861	19.970	8.833	0.513
280.000	222.322	80.004	19.994	103.861	19.971	8.743	0.514
288.000	226.259	80.006	19.994	103.870	19.973	8.578	0.474
296.001	230.233	80.004	19.993	103.862	19.976	8.418	0.468
304.000	234.254	80.003	19.993	103.867	19.983	7.911	0.500
312.000	238.225	80.003	19.993	103.859	19.980	8.105	0.478
320.000	242.217	80.003	19.993	103.867	19.974	8.523	0.522
328.000	246.247	80.002	19.993	103.869	19.974	8.547	0.522
336.000	250.226	80.003	19.996	103.874	19.960	9.486	0.516
344.000	254.192	80.005	19.993	103.851	19.957	9.742	0.515
352.000	258.148	80.004	19.993	103.873	19.951	10.098	0.518
360.000	262.102	80.003	19.994	103.875	19.935	11.228	0.470
368.000	266.098	80.006	19.994	103.886	19.916	12.586	0.482
376.000	270.086	80.005	19.994	103.908	19.902	13.506	0.510
384.000	274.115	80.003	19.993	103.913	19.886	14.673	0.494
392.000	278.087	80.003	19.994	103.927	19.866	16.035	0.480
400.000	282.099	80.003	19.993	103.952	19.843	17.620	0.486
408.000	286.086	80.002	19.994	103.953	19.817	19.451	0.485
416.000	290.115	80.004	19.995	103.965	19.786	21.627	0.490
424.000	294.153	80.004	19.994	103.991	19.746	24.384	0.514
432.000	298.179	80.005	19.994	104.013	19.696	27.939	0.488
440.000	302.220	80.005	19.994	104.029	19.628	32.610	0.516
448.000	306.278	80.003	19.995	104.013	19.557	37.599	0.519
456.000	310.346	80.002	19.996	103.995	19.483	42.678	0.503
464.000	314.491	80.003	19.994	103.962	19.437	45.880	0.496
472.000	318.617	80.003	19.995	103.947	19.431	46.319	0.492
480.000	322.690	80.005	19.993	103.918	19.447	45.164	0.497
488.000	326.817	80.003	19.994	103.915	19.481	42.787	0.520
496.000	330.937	80.004	19.993	103.858	19.515	40.434	0.530
504.000	335.041	80.005	19.993	103.884	19.555	37.647	0.532
512.000	339.056	80.005	19.994	103.869	19.600	34.536	0.500
520.000	343.095	80.004	19.994	103.851	19.635	32.121	0.479
528.000	347.078	80.007	19.996	103.840	19.667	29.880	0.505
536.000	351.084	80.005	19.993	103.837	19.685	28.589	0.502
544.000	355.139	80.004	19.996	103.828	19.694	27.957	0.507
552.000	359.107	80.002	19.995	103.834	19.687	28.507	0.480
560.000	363.125	80.004	19.995	103.822	19.692	28.151	0.481
568.000	367.172	80.003	19.993	103.828	19.690	28.264	0.513
576.000	371.211	80.002	19.995	103.839	19.694	28.014	0.493
584.000	375.282	80.004	19.994	103.835	19.696	27.850	0.487
592.000	379.302	80.006	19.995	103.834	19.700	27.555	0.491
600.000	383.364	80.005	19.994	103.832	19.706	27.169	0.511
608.000	387.415	80.005	19.994	103.838	19.717	26.358	0.496
616.000	391.574	80.007	19.995	103.860	19.713	26.650	0.517
624.000	395.633	80.004	19.995	103.802	19.720	26.209	0.507
632.000	399.723	80.003	19.995	103.800	19.720	26.191	0.527
640.000	403.786	80.003	19.996	103.803	19.729	25.555	0.524
648.000	407.821	80.002	19.993	103.801	19.737	24.983	0.486
656.000	411.845	80.002	19.992	103.803	19.749	24.192	0.511
664.000	415.839	80.004	19.995	103.798	19.762	23.265	0.508
672.000	419.851	80.006	19.994	103.776	19.769	22.739	0.487
680.000	423.950	80.004	19.994	103.797	19.782	21.881	0.505
688.000	427.965	80.006	19.993	103.791	19.783	21.819	0.503
696.000	431.937	80.007	19.997	103.800	19.787	21.500	0.477
704.000	436.013	80.002	19.993	103.789	19.794	21.037	0.478
712.000	440.043	80.004	19.993	103.801	19.799	20.689	0.494
720.000	444.135	80.003	19.993	103.797	19.802	20.470	0.508
728.000	448.231	80.003	19.995	103.794	19.797	20.839	0.528
736.000	452.388	80.002	19.995	103.795	19.787	21.488	0.523
744.000	456.501	80.004	19.993	103.786	19.788	21.422	0.501
752.000	460.651	80.006	19.994	103.795	19.765	23.072	0.519
760.000	464.723	80.006	19.995	103.790	19.755	23.753	0.502
768.000	468.886	80.004	19.994	103.798	19.746	24.396	0.525
776.000	472.990	80.006	19.992	103.800	19.736	25.063	0.536
784.000	477.203	80.003	19.993	103.800	19.734	25.225	0.542
792.000	481.317	80.003	19.994	103.796	19.739	24.860	0.501
800.000	485.431	80.003	19.995	103.798	19.742	24.662	0.545
808.000	489.559	80.004	19.994	103.797	19.751	24.023	0.492
816.001	493.697	80.004	19.996	103.795	19.767	22.894	0.494
824.000	497.900	80.002	19.995	103.798	19.781	21.912	0.514
832.000	502.004	80.004	19.995	103.796	19.801	20.536	0.509
840.000	506.104	80.004	19.994	103.799	19.816	19.526	0.504
848.000	510.226	80.004	19.994	103.796	19.835	18.206	0.527
856.000	514.295	80.006	19.993	103.772	19.850	17.123	0.527
864.000	518.450	80.005	19.994	103.777	19.870	15.737	0.508
872.000	522.616	80.005	19.993	103.768	19.882	14.909	0.530
880.000	526.721	80.004	19.994	103.771	19.894	14.081	0.497
888.000	530.872	80.005	19.993	103.759	19.904	13.362	0.518
896.000	534.889	80.003	19.995	103.761	19.910	12.982	0.528
904.000	539.007	80.003	19.994	103.763	19.915	12.608	0.498
912.000	543.032	80.005	19.993	103.760	19.918	12.417	0.500
920.000	547.118	80.004	19.995	103.755	19.922	12.098	0.545
928.000	551.205	80.004	19.994	103.760	19.925	11.943	0.508
936.000	555.378	80.005	19.993	103.758	19.925	11.901	0.501
944.000	559.487	80.008	19.994	103.757	19.926	11.853	0.522
952.000	563.694	80.003	19.993	103.758	19.922	12.164	0.539
960.000	567.852	80.003	19.993	103.759	19.919	12.306	0.522
968.000	572.021	80.005	19.993	103.764	19.926	11.877	0.552
976.000	576.312	80.004	19.993	103.763	19.920	12.303	0.524
984.000	580.494	80.003	19.995	103.759	19.926	11.859	0.551
992.000	584.658	80.005	19.993	103.750	19.934	11.330	0.498
1000.000	588.937	80.006	19.994	103.746	19.935	11.194	0.559
1008.000	593.042	80.006	19.996	103.747	19.948	10.298	0.508
1016.000	597.135	80.007	19.995	103.746	19.955	9.841	0.517
1024.000	600.716	80.005	19.994	103.746	19.954	9.890	0.045
1032.001	605.448	80.004	19.993	103.754	19.965	9.139	0.515
1040.000	609.499	80.004	19.992	103.747	19.977	8.320	0.503
1048.000	613.678	80.005	19.993	103.748	19.984	7.823	0.522
1056.000	617.796	80.004	19.995	103.748	19.990	7.394	0.510
1064.000	621.887	80.005	19.994	103.732	20.000	6.744	0.508
1072.000	625.969	80.004	19.993	103.739	20.007	6.237	0.493
1080.000	630.047	80.007	19.994	103.714	20.010	6.000	0.504
1088.000	634.141	80.005	19.993	103.721	20.019	5.420	0.522
1096.000	638.224	80.007	19.996	103.723	20.020	5.355	0.491
1104.000	642.298	80.004	19.993	103.725	20.026	4.891	0.508
1112.000	646.288	80.003	19.994	103.718	20.025	4.954	0.506
1120.000	650.389	80.004	19.995	103.717	20.032	4.505	0.527
1128.000	654.468	80.004	19.993	103.717	20.030	4.622	0.507
1136.000	658.623	80.003	19.994	103.711	20.038	4.095	0.512
1144.000	662.703	80.003	19.994	103.710	20.036	4.217	0.416
1152.000	666.826	80.004	19.993	103.712	20.035	4.265	0.499
1160.000	670.929	80.004	19.992	103.714	20.037	4.167	0.526
1168.000	674.999	80.004	19.995	103.706	20.038	4.085	0.512
1176.000	679.054	80.006	19.995	103.718	20.040	3.914	0.525
1184.000	683.145	80.008	19.993	103.704	20.037	4.160	0.497
1192.000	687.262	80.005	19.994	103.719	20.040	3.902	0.510
1200.000	691.339	80.003	19.996	103.716	20.038	4.043	0.498
1208.000	695.421	80.003	19.995	103.710	20.043	3.718	0.477
1216.000	699.486	80.002	19.994	103.711	20.043	3.750	0.474
1224.000	703.556	80.008	19.994	103.692	20.044	3.663	0.487
1232.000	707.644	80.004	19.993	103.703	20.043	3.693	0.522
1240.000	711.675	80.004	19.994	103.708	20.040	3.914	0.527
1248.000	715.769	80.008	19.992	103.705	20.044	3.663	0.521
1256.000	719.880	80.003	19.995	103.711	20.044	3.657	0.488
1264.000	723.934	80.009	19.994	103.691	20.044	3.676	0.505
1272.000	728.036	80.005	19.994	103.712	20.041	3.835	0.510
1280.000	732.126	80.003	19.995	103.688	20.037	4.131	0.490
1288.000	736.187	80.004	19.994	103.717	20.044	3.682	0.484
1296.000	740.206	80.002	19.995	103.698	20.043	3.743	0.484
1303.000	743.719	80.009	19.995	103.705	20.043	3.745	0.528