File: 01_Data/Polyisocyanurate_Foam_Board/MCC/Polyisocyanurate_Foam_Board_MCC_30K_min_220211_R1.txt
Sample ID:	C:\MCC\MCC Cal\Test\Polyisocyanurate_Foam_Board_MCC_30K_min_220211_R1.txt
Sample Weight (mg):	4.6
Heating Rate (C/s):	0.5
Combustor Temp (C):	900
N2 Flow Rate (cc/min):	80
O2 Flow Rate (cc/min):	20
Calibration File:	C:\MCC\MCC Cal\Coeff1 JN10440_30_210304.txt.txt
T Correction Coefficients:	0	1.024463	0
Time Shift (s):	14
*
Time (s)	Temperature (C)	N2 flow rate (cc/min)	O2 flow rate (cc/min)	Flow Rate (cc/min)	Oxygen (%)	HRR (W/g)	Heating rate (C/s)
0.000	112.568	80.009	19.995	103.644	19.865	0.085	0.000
7.500	112.578	80.008	19.995	103.621	19.852	1.001	-0.001
15.000	112.614	80.012	19.994	103.665	19.838	2.002	-0.000
22.500	112.791	80.009	19.995	103.785	19.827	2.754	0.052
30.000	113.444	80.007	19.994	103.813	19.816	3.520	0.078
37.500	114.584	80.007	19.995	103.854	19.815	3.605	0.191
45.000	116.107	80.009	19.995	103.877	19.816	3.559	0.159
52.500	118.014	80.009	19.993	103.882	19.814	3.655	0.270
60.001	120.201	80.008	19.994	103.886	19.810	3.981	0.309
67.501	122.716	80.008	19.994	103.906	19.813	3.721	0.376
75.001	125.413	80.011	19.993	103.918	19.811	3.891	0.370
82.500	128.403	80.008	19.993	103.912	19.812	3.796	0.414
90.000	131.557	80.009	19.995	103.922	19.812	3.777	0.421
97.500	134.902	80.011	19.993	103.913	19.810	3.918	0.454
105.000	138.356	80.010	19.993	103.905	19.806	4.260	0.457
112.500	141.910	80.009	19.996	103.909	19.807	4.149	0.477
120.000	145.584	80.008	19.994	103.907	19.799	4.694	0.500
127.500	149.321	80.007	19.993	103.903	19.796	4.962	0.521
135.000	153.104	80.007	19.994	103.902	19.800	4.647	0.517
142.500	156.880	80.008	19.995	103.899	19.796	4.919	0.512
150.000	160.646	80.008	19.993	103.901	19.789	5.421	0.502
157.500	164.495	80.010	19.994	103.886	19.786	5.608	0.539
165.000	168.312	80.010	19.993	103.883	19.786	5.630	0.539
172.500	172.069	80.011	19.993	103.870	19.777	6.290	0.498
180.000	175.861	80.012	19.993	103.873	19.774	6.456	0.518
187.500	179.590	80.009	19.993	103.856	19.768	6.875	0.517
195.000	183.305	80.008	19.992	103.863	19.758	7.601	0.493
202.500	187.085	80.007	19.993	103.867	19.755	7.817	0.502
210.000	190.717	80.008	19.993	103.861	19.750	8.209	0.463
217.500	194.431	80.008	19.993	103.864	19.742	8.765	0.487
225.000	198.082	80.009	19.995	103.859	19.738	9.052	0.506
232.500	201.771	80.007	19.994	103.863	19.732	9.432	0.505
240.000	205.463	80.009	19.993	103.872	19.737	9.102	0.519
247.500	209.169	80.010	19.994	103.860	19.734	9.281	0.505
255.000	212.925	80.010	19.993	103.863	19.735	9.245	0.490
262.500	216.651	80.011	19.993	103.862	19.736	9.151	0.493
270.000	220.373	80.010	19.994	103.862	19.735	9.207	0.501
277.500	224.120	80.009	19.993	103.867	19.737	9.089	0.502
285.000	227.862	80.008	19.993	103.869	19.737	9.095	0.492
292.500	231.586	80.008	19.993	103.809	19.732	9.446	0.483
300.000	235.337	80.008	19.995	103.894	19.731	9.549	0.492
307.500	239.007	80.008	19.994	103.867	19.734	9.285	0.465
315.000	242.722	80.009	19.994	103.880	19.723	10.070	0.522
322.500	246.481	80.011	19.996	103.872	19.721	10.225	0.509
330.000	250.290	80.009	19.996	103.893	19.713	10.821	0.532
337.500	254.037	80.009	19.994	103.890	19.706	11.309	0.452
345.000	257.842	80.011	19.993	103.895	19.691	12.338	0.510
352.500	261.598	80.010	19.992	103.903	19.679	13.177	0.480
360.000	265.387	80.008	19.993	103.900	19.670	13.821	0.509
367.500	269.237	80.009	19.994	103.912	19.652	15.066	0.545
375.000	273.074	80.009	19.993	103.935	19.629	16.737	0.539
382.500	276.812	80.011	19.994	103.939	19.612	17.924	0.513
390.000	280.602	80.008	19.993	103.956	19.585	19.814	0.487
397.500	284.344	80.008	19.993	103.980	19.569	20.985	0.524
405.000	288.090	80.010	19.993	103.982	19.531	23.642	0.488
412.500	291.931	80.008	19.994	104.014	19.489	26.589	0.506
420.000	295.738	80.010	19.993	104.023	19.433	30.521	0.519
427.500	299.449	80.011	19.994	104.017	19.361	35.606	0.509
435.000	303.220	80.011	19.993	104.008	19.288	40.784	0.518
442.500	307.068	80.010	19.994	103.979	19.222	45.421	0.515
450.000	310.845	80.010	19.994	103.968	19.195	47.339	0.516
457.500	314.723	80.010	19.992	103.947	19.191	47.584	0.535
465.000	318.611	80.008	19.992	103.937	19.212	46.133	0.539
472.500	322.431	80.008	19.994	103.936	19.243	43.923	0.513
480.000	326.279	80.009	19.992	103.924	19.275	41.632	0.536
487.500	330.094	80.010	19.993	103.900	19.307	39.357	0.546
495.000	333.889	80.009	19.995	103.871	19.353	36.115	0.478
502.500	337.711	80.009	19.992	103.862	19.396	33.116	0.522
510.000	341.445	80.011	19.994	103.857	19.434	30.406	0.515
517.500	345.146	80.010	19.996	103.827	19.460	28.598	0.486
525.000	348.905	80.007	19.995	103.823	19.470	27.861	0.468
532.500	352.658	80.007	19.993	103.838	19.469	27.975	0.479
540.000	356.448	80.009	19.993	103.841	19.457	28.823	0.481
547.500	360.239	80.010	19.992	103.844	19.457	28.838	0.509
555.000	363.992	80.009	19.993	103.829	19.458	28.767	0.513
562.500	367.796	80.010	19.994	103.837	19.461	28.544	0.537
570.000	371.577	80.011	19.992	103.835	19.465	28.248	0.468
577.500	375.396	80.011	19.993	103.827	19.471	27.853	0.513
585.000	379.176	80.010	19.994	103.836	19.481	27.098	0.494
592.500	382.967	80.011	19.993	103.824	19.486	26.767	0.510
600.000	386.830	80.010	19.994	103.828	19.485	26.863	0.537
607.500	390.606	80.008	19.993	103.824	19.487	26.670	0.512
615.000	394.419	80.007	19.994	103.824	19.489	26.531	0.477
622.500	398.196	80.008	19.994	103.819	19.497	25.999	0.469
630.000	402.026	80.008	19.994	103.819	19.495	26.111	0.508
637.500	405.775	80.008	19.994	103.817	19.506	25.385	0.498
645.000	409.550	80.009	19.993	103.822	19.513	24.870	0.499
652.500	413.353	80.010	19.994	103.800	19.521	24.265	0.498
660.000	417.087	80.010	19.994	103.795	19.529	23.741	0.486
667.500	420.944	80.011	19.993	103.792	19.538	23.114	0.508
675.000	424.688	80.011	19.991	103.803	19.541	22.921	0.489
682.500	428.547	80.010	19.993	103.811	19.542	22.828	0.508
690.000	432.363	80.008	19.995	103.800	19.553	22.055	0.532
697.500	436.371	80.009	19.994	103.787	19.555	21.888	0.502
705.000	439.946	80.009	19.994	103.789	19.558	21.702	0.485
712.500	443.784	80.008	19.995	103.803	19.556	21.797	0.528
720.000	447.579	80.009	19.995	103.798	19.553	22.017	0.519
727.500	451.351	80.007	19.993	103.802	19.544	22.707	0.520
735.000	455.185	80.012	19.994	103.788	19.534	23.369	0.514
742.500	458.951	80.009	19.993	103.805	19.523	24.134	0.499
750.000	462.768	80.009	19.993	103.819	19.516	24.653	0.490
757.500	466.580	80.012	19.994	103.821	19.507	25.299	0.508
765.000	470.445	80.010	19.993	103.785	19.497	25.986	0.518
772.500	474.268	80.009	19.993	103.800	19.495	26.100	0.509
780.000	478.158	80.009	19.994	103.801	19.498	25.917	0.490
787.500	482.093	80.008	19.995	103.819	19.500	25.811	0.506
795.000	486.010	80.008	19.992	103.820	19.509	25.110	0.530
802.500	489.872	80.008	19.993	103.800	19.518	24.528	0.526
810.000	493.782	80.008	19.995	103.807	19.530	23.642	0.514
817.500	497.683	80.009	19.994	103.813	19.546	22.508	0.504
825.000	501.534	80.010	19.993	103.794	19.559	21.587	0.506
832.500	505.438	80.009	19.994	103.808	19.576	20.425	0.551
840.000	509.219	80.012	19.994	103.786	19.593	19.201	0.497
847.500	513.026	80.010	19.993	103.784	19.609	18.077	0.452
855.001	517.051	80.011	19.995	103.783	19.619	17.397	0.521
862.500	520.895	80.010	19.993	103.782	19.629	16.692	0.507
870.000	524.703	80.009	19.994	103.783	19.639	15.975	0.495
877.500	528.470	80.008	19.994	103.785	19.645	15.548	0.504
885.000	532.344	80.008	19.994	103.785	19.657	14.711	0.520
892.500	536.220	80.010	19.994	103.770	19.661	14.427	0.507
900.000	540.019	80.011	19.995	103.770	19.663	14.278	0.460
907.500	543.944	80.010	19.994	103.775	19.666	14.085	0.506
915.000	547.803	80.010	19.994	103.777	19.666	14.055	0.522
922.500	551.692	80.012	19.993	103.760	19.664	14.237	0.519
930.000	555.573	80.011	19.993	103.777	19.666	14.107	0.537
937.500	559.427	80.009	19.994	103.775	19.667	13.979	0.516
945.000	563.349	80.010	19.994	103.779	19.669	13.877	0.509
952.500	567.238	80.010	19.994	103.773	19.674	13.547	0.523
960.000	571.089	80.012	19.993	103.781	19.680	13.087	0.540
967.500	575.023	80.009	19.993	103.771	19.678	13.228	0.499
975.000	578.846	80.011	19.995	103.765	19.680	13.071	0.484
982.500	582.632	80.010	19.994	103.753	19.689	12.496	0.521
990.000	586.404	80.010	19.993	103.769	19.691	12.314	0.480
997.500	590.247	80.009	19.993	103.758	19.695	12.032	0.507
1005.000	594.070	80.010	19.994	103.754	19.703	11.450	0.525
1012.500	597.949	80.011	19.993	103.757	19.711	10.893	0.517
1020.000	601.766	80.009	19.993	103.744	19.712	10.836	0.490
1027.500	605.581	80.009	19.993	103.744	19.718	10.397	0.477
1035.001	609.398	80.010	19.994	103.743	19.726	9.844	0.521
1042.500	613.217	80.010	19.993	103.742	19.737	9.107	0.519
1050.000	617.165	80.010	19.994	103.742	19.742	8.725	0.509
1057.500	621.047	80.009	19.994	103.742	19.751	8.089	0.520
1065.000	624.948	80.011	19.994	103.727	19.761	7.401	0.516
1072.500	628.825	80.010	19.994	103.733	19.766	7.072	0.522
1080.000	632.665	80.011	19.994	103.745	19.772	6.595	0.509
1087.500	636.567	80.011	19.995	103.742	19.779	6.126	0.548
1095.000	640.344	80.010	19.994	103.739	19.781	5.972	0.486
1102.500	644.121	80.008	19.994	103.731	19.782	5.937	0.505
1110.000	647.913	80.010	19.995	103.727	19.785	5.691	0.533
1117.500	651.740	80.009	19.993	103.707	19.783	5.822	0.507
1125.000	655.653	80.010	19.993	103.743	19.789	5.451	0.514
1132.500	659.472	80.009	19.993	103.719	19.783	5.837	0.478
1140.001	663.329	80.009	19.993	103.725	19.787	5.545	0.505
1147.500	667.157	80.011	19.992	103.722	19.786	5.607	0.525
1155.000	671.009	80.009	19.994	103.711	19.786	5.666	0.517
1162.500	674.862	80.010	19.994	103.720	19.790	5.346	0.551
1170.000	678.693	80.012	19.993	103.721	19.788	5.529	0.499
1177.500	682.494	80.011	19.993	103.719	19.785	5.713	0.527
1185.000	686.282	80.009	19.993	103.718	19.784	5.790	0.499
1192.500	690.082	80.007	19.993	103.732	19.786	5.604	0.485
1200.000	693.852	80.009	19.994	103.732	19.785	5.739	0.483
1207.501	697.610	80.008	19.993	103.725	19.784	5.798	0.481
1215.000	701.364	80.009	19.994	103.716	19.788	5.471	0.486
1222.500	705.163	80.009	19.994	103.738	19.788	5.486	0.512
1230.001	708.986	80.010	19.993	103.722	19.788	5.497	0.478
1237.501	712.829	80.011	19.993	103.721	19.791	5.260	0.519
1245.000	716.679	80.011	19.993	103.724	19.787	5.556	0.482
1252.500	720.522	80.011	19.993	103.715	19.786	5.661	0.498
1260.000	724.294	80.010	19.994	103.728	19.789	5.439	0.508
1267.500	728.040	80.009	19.993	103.718	19.788	5.528	0.518
1275.000	731.911	80.009	19.994	103.715	19.786	5.604	0.551
1282.500	735.718	80.008	19.994	103.731	19.790	5.371	0.508
1290.001	739.595	80.008	19.995	103.726	19.788	5.499	0.537
1297.500	743.425	80.009	19.995	103.714	19.785	5.703	0.516