File: 01_Data/PP/Cone/PP_Cone_HF50Scan_220203_R3.csv
Names,Time,Stack TC,Smoke TC,Exh Press,Smoke Comp,Smoke Meas,CO Meter,CO2 Meter,O2 Meter,Sample Mass,Ext Coeff,Start Test,Flame Verif
Chan Gain,,500,500,1,1,1,1,1,1,1,1,1.0,1.0
Offset,,0,0,0.14021,0,0,0,0,0,0,0,0.0,0.0
Gain,,1,1,25.011,13.3046,13.3037,1,1,1,1.00093,1.10262,1.0,1.0
Units,sec,C,C,Pa,%,%,%,%,%,g,/m,,
Baseline,,33.7104,35.3397,135.805,100.858,101.741,0.00260003,0.115433,20.8773,-871.182,-0.0840867,,
12,2.75,30.7561,31.7095,136.337,100.68,102.511,0.0026563,0.123759,20.8663,27.6557,-0.174345,0.0,0.0
24,5.75,30.6571,32.218,136.023,100.838,102.167,0.00288453,0.123497,20.8666,27.6356,-0.126722,0.0,0.0
36,8.75,30.7984,32.5166,135.702,100.96,102.553,0.00302585,0.123102,20.8682,27.5856,-0.151413,0.0,0.0
48,11.75,31.4983,32.7991,134.519,101.033,102.63,0.00298822,0.122387,20.8695,27.6056,-0.151687,0.0,0.0
60,14.75,31.2168,32.8268,135.49,101.028,102.191,0.00279912,0.12198,20.8688,27.5756,-0.110626,0.0,0.0
72,17.75,31.8833,33.1296,135.399,100.972,102.63,0.00261783,0.122273,20.87,27.5756,-0.157518,0.0,0.0
84,20.75,32.0372,32.8456,137.237,100.853,101.884,0.00242328,0.122454,20.8705,27.5856,-0.0982997,0.0,0.0
96,23.75,31.6411,33.2593,134.584,100.684,102.269,0.00254099,0.122474,20.8707,27.5856,-0.15106,0.0,0.0
108,26.75,31.4514,32.7565,135.492,100.498,101.049,0.00256674,0.122073,20.8711,27.5856,-0.0529013,0.0,0.0
120,29.75,32.0803,33.5737,132.387,100.288,99.7433,0.00271831,0.121278,20.8715,27.5856,0.0527041,0.0,0.0
132,32.75,32.0804,33.3953,137.802,100.086,99.5728,0.00300756,0.12124,20.8659,27.3854,0.0496946,0.0,0.0
144,35.75,32.4522,33.768,133.564,99.9034,100.213,0.00322819,0.128308,20.8222,27.4555,-0.0299709,0.0,1.0
156,38.75,32.7311,34.556,127.493,99.7836,99.1664,0.00325709,0.149456,20.7548,27.3954,0.0600141,0.0,1.0
168,41.75,34.2887,36.2851,130.558,99.7576,96.8944,0.00359718,0.181428,20.6553,27.2953,0.281666,0.0,0.0
180,44.75,35.7412,38.3343,121.873,99.7994,90.9791,0.00462697,0.222476,20.5564,27.1752,0.89499,0.0,0.0
192,47.75,38.2386,41.6574,115.986,99.9314,87.3328,0.00626682,0.269148,20.4357,27.0351,1.30339,0.0,0.0
204,50.75,40.7963,44.4458,119.559,100.138,82.8031,0.00795754,0.326406,20.3026,26.8349,1.83847,0.0,0.0
216,53.75,43.9633,48.7608,118.519,100.395,83.0768,0.00954869,0.389184,20.129,26.5446,1.83139,0.0,0.0
228,56.75,46.8202,52.9568,109.852,100.684,77.9381,0.0109836,0.458789,19.9697,26.2343,2.47673,0.0,0.0
240,59.75,51.3214,58.7392,105.825,100.95,80.035,0.012432,0.537209,19.82,25.9241,2.24545,0.0,0.0
252,62.75,55.2227,64.0032,104.971,101.191,76.4051,0.0140318,0.61414,19.7079,25.5637,2.71751,0.0,0.0
264,65.75,59.3733,69.6306,97.299,101.401,70.836,0.0162276,0.69243,19.562,25.2434,3.46951,0.0,0.0
276,68.75,63.9541,75.933,104.235,101.562,68.4167,0.0183646,0.786705,19.363,24.833,3.82099,0.0,0.0
288,71.75,68.8045,82.8088,92.8422,101.643,70.4617,0.0207351,0.884306,19.1522,24.2825,3.54381,0.0,0.0
300,74.75,74.0582,89.86,97.4241,101.669,67.0862,0.0234386,1.00257,18.9529,23.8621,4.02113,0.0,0.0
312,77.75,79.7711,98.1446,81.2893,101.636,66.4123,0.0270423,1.12881,18.701,23.2616,4.11562,0.0,0.0
324,80.75,86.0168,106.756,83.4432,101.551,62.3316,0.0313438,1.26047,18.4326,22.7411,4.72084,0.0,0.0
336,83.75,92.5225,116.337,87.5474,101.425,61.5383,0.0351683,1.41932,18.1998,22.1506,4.83277,0.0,0.0
348,86.75,99.4004,126.398,89.1502,101.274,60.6066,0.0401178,1.56654,17.9494,21.4499,4.96589,0.0,0.0
360,89.75,106.996,138.124,78.1408,101.126,60.1169,0.0451681,1.74874,17.5797,20.6692,5.03026,0.0,0.0
372,92.75,114.472,149,92.3583,100.982,59.0581,0.0499314,1.94322,17.2494,19.9185,5.1883,0.0,0.0
384,95.75,122.778,161.65,66.268,100.877,55.7651,0.055572,2.17143,16.8074,19.0377,5.73322,0.0,0.0
396,98.75,130.431,173.443,75.08,100.995,57.1296,0.0616799,2.41734,16.3942,18.1869,5.51068,0.0,0.0
408,101.75,139.979,188.335,73.9618,101.205,57.6197,0.0677886,2.69232,15.9098,17.256,5.44812,0.0,0.0
420,104.75,148.508,202.18,70.0538,101.332,56.1033,0.0729056,2.98088,15.4849,16.4152,5.71821,0.0,0.0
432,107.75,157.464,216.793,73.4848,101.379,50.4205,0.0771609,3.24869,15.1151,15.3342,6.75567,0.0,0.0
444,110.75,165.356,230.495,58.9513,101.356,57.629,0.081304,3.53388,14.7039,14.3333,5.46097,0.0,0.0
456,113.75,174.325,244.589,71.5316,101.274,56.5454,0.0875936,3.80604,14.2314,13.2123,5.63674,0.0,0.0
468,116.75,182.871,258.567,60.8068,101.1,54.761,0.0942608,4.15569,13.6728,11.831,5.93026,0.0,0.0
480,119.75,190.669,271.84,67.3702,100.923,51.7615,0.101116,4.56458,12.9241,10.6299,6.45819,0.0,0.0
492,122.75,200.167,287.43,69.9562,100.651,55.0391,0.104462,4.98563,12.338,9.46879,5.83825,0.0,0.0
504,125.75,208.618,301.324,64.3178,100.465,60.1628,0.10302,5.37819,11.8518,8.27768,4.95941,0.0,0.0
516,128.75,216.435,313.687,50.8483,100.509,54.4598,0.103926,5.61616,11.7518,6.92643,5.92693,0.0,0.0
528,131.75,221.305,321.368,53.3259,100.557,58.255,0.106006,5.68399,11.8705,5.67527,5.27991,0.0,0.0
540,134.75,225.75,326.944,54.9296,100.627,54.016,0.10407,5.57431,12.2787,4.49417,6.01739,0.0,0.0
552,137.75,227.386,328.096,71.9704,100.677,55.3156,0.101127,5.33046,12.8289,3.42318,5.79228,0.0,0.0
564,140.75,230.383,330.384,60.9884,100.76,54.6616,0.0971375,5.11287,13.1682,2.28212,5.91528,0.0,0.0
576,143.75,230.186,328.539,63.0813,100.846,56.7305,0.0915222,4.8655,13.698,1.41131,5.56417,0.0,0.0
588,146.75,229.834,325.905,68.0442,100.91,54.3088,0.0839784,4.53964,14.381,0.480446,5.99228,0.0,0.0
600,149.75,228.201,320.229,81.6969,100.97,56.2031,0.0724781,4.1201,15.2632,-0.130121,5.66637,0.0,0.0
612,152.75,223.36,310.549,75.7746,101.005,61.6081,0.0599925,3.5602,16.2926,-0.770715,4.78169,0.0,0.0
624,155.75,215.783,296.492,104.088,101.027,62.9134,0.044192,3.00185,17.2532,-1.04097,4.58101,0.0,0.0
636,158.75,204.514,277.757,112.72,101.042,89.2398,0.0290697,2.35815,18.6125,-1.14106,1.20139,0.0,0.0
648,161.75,190.05,256.077,120.339,101.039,98.76,0.0175814,1.72308,19.7026,-1.13105,0.220703,0.0,0.0
660,164.75,177.157,236.121,119.291,101.034,98.1879,0.0109636,1.24743,20.2917,-1.14106,0.276384,0.0,0.0
672,167.75,166.141,219.204,122.308,100.998,99.2236,0.00779933,0.922366,20.5559,-1.11103,0.171436,0.0,0.0
684,170.75,156.648,204.052,123.904,100.977,98.2793,0.00621615,0.711731,20.673,-1.13105,0.261946,0.0,0.0
696,173.75,147.708,190.268,124.328,100.948,98.2281,0.00538815,0.564855,20.7364,-1.10102,0.264221,0.0,0.0
708,176.75,139.541,178.355,119.642,100.916,97.9078,0.00497202,0.468457,20.7679,-1.09101,0.292662,0.0,0.0
720,179.75,132.885,166.212,123.565,100.862,98.2175,0.00461944,0.402115,20.7935,-1.09101,0.257009,0.0,0.0
732,182.75,127.707,158.473,122.439,100.813,97.7892,0.00436728,0.347041,20.8095,-1.10102,0.294569,0.0,0.0
744,185.75,122.174,150.096,117.931,100.758,97.6889,0.00401557,0.307133,20.8232,-1.11103,0.299232,0.0,0.0
756,188.75,117.45,142.066,124.605,100.693,97.6703,0.00345298,0.276182,20.8334,-1.13105,0.294845,0.0,0.0
768,191.75,113.016,135.303,124.072,100.62,97.4332,0.00312479,0.251491,20.8423,-1.13105,0.31129,0.0,0.0
780,194.75,108.96,129.111,121.178,100.566,97.2302,0.00308675,0.230471,20.8492,-1.13105,0.32631,0.0,0.0
792,197.75,106.144,123.398,124.785,100.498,97.3179,0.00299719,0.21433,20.8573,-1.13105,0.311026,0.0,0.0
804,200.75,102.523,118.548,121.13,100.433,97.1348,0.00298142,0.200118,20.8632,-1.12104,0.322989,0.0,0.0
816,203.75,99.5754,113.438,124.221,100.356,96.8388,0.00306706,0.188955,20.8635,-1.10102,0.345033,0.0,0.0
828,206.75,96.9892,109.548,122.569,100.299,97.1258,0.0029115,0.178601,20.8671,-1.13105,0.310965,0.0,0.0
840,209.75,94.4076,105.07,123.263,100.217,96.8453,0.00277006,0.170129,20.8702,-1.14106,0.33103,0.0,0.0
852,212.75,92.1325,102.416,122.384,100.14,96.2785,0.00271655,0.162783,20.8725,-1.1811,0.380393,0.0,0.0
864,215.75,89.4568,98.2314,124.895,100.071,96.769,0.00273405,0.156629,20.8763,-1.13105,0.3245,0.0,0.0
876,218.75,88.5119,96.2216,123.546,100.002,96.4137,0.00263873,0.151288,20.8775,-1.11103,0.353439,0.0,0.0
888,221.75,86.7663,93.1871,125.755,99.9452,96.6269,0.0026096,0.146553,20.8808,-1.13105,0.326579,0.0,0.0
900,224.75,85.1855,91.2728,125.558,99.8977,96.162,0.00258921,0.142734,20.8803,-1.15107,0.368625,0.0,0.0
912,227.75,83.5757,88.5309,126.413,99.8555,96.5477,0.00227911,0.139451,20.8795,-1.13105,0.32582,0.0,0.0
924,230.75,82.4021,86.2579,122.927,99.8169,96.0499,0.00208856,0.136322,20.8811,-1.15107,0.372077,0.0,0.0
936,233.75,80.8699,84.1636,126.49,99.799,96.1405,0.00209836,0.133665,20.8815,-1.13105,0.361232,0.0,0.0
948,236.75,79.2103,82.5088,127.1,99.7645,95.7698,0.00234878,0.131578,20.8817,-1.13105,0.39525,0.0,0.0
960,239.75,78.6205,80.1711,124.643,99.7487,96.7917,0.00260283,0.129812,20.8821,-1.12104,0.291058,0.0,0.0
972,242.75,77.3665,78.5223,124.065,99.7369,96.4941,0.00254352,0.128114,20.882,-1.15107,0.3197,0.0,0.0
984,245.75,76.9471,77.7654,124.43,99.7247,96.5676,0.00231863,0.1266,20.8818,-1.13105,0.311156,0.0,0.0
996,248.75,74.7343,75.7403,123.975,99.7243,96.084,0.0021988,0.1256,20.8794,-1.12104,0.359668,0.0,0.0
1008,251.75,74.864,74.6821,127.751,99.7166,96.3041,0.0022537,0.124356,20.8781,-1.12104,0.336795,0.0,0.0
1020,254.75,73.4983,73.0466,128.937,99.7133,96.7474,0.00231119,0.123152,20.8793,-1.11103,0.292055,0.0,0.0
1032,257.75,73.1613,72.8035,132.26,99.7223,96.8575,0.00229665,0.122108,20.8797,-1.13105,0.281929,0.0,0.0
1044,260.75,72.5029,71.7359,127.125,99.7373,95.7081,0.00234158,0.121186,20.8809,-1.14106,0.398847,0.0,0.0
1056,263.75,72.134,70.5003,124.114,99.7572,96.2099,0.00240398,0.120167,20.8812,-1.14106,0.350197,0.0,0.0
1068,266.75,70.523,69.8601,128.89,99.7527,95.918,0.00268277,0.11935,20.8813,-1.14106,0.379155,0.0,0.0
1080,269.75,70.2381,69.0941,129.291,99.7783,96.4977,0.00258686,0.118614,20.8829,-1.12104,0.323349,0.0,0.0
1092,272.75,69.1553,68.5862,127.541,99.8108,96.5761,0.00239499,0.117733,20.8834,-1.13105,0.318647,0.0,0.0
1104,275.75,67.8856,66.5901,127.673,99.8372,96.5274,0.0025539,0.117129,20.8835,-1.12104,0.326084,0.0,0.0
1116,278.75,67.9625,66.3134,127.803,99.864,97.1473,0.00242677,0.116583,20.8835,-1.14106,0.266758,0.0,0.0
1128,281.75,67.3508,65.1893,128.676,99.8766,96.2546,0.00214374,0.116249,20.8819,-1.12104,0.357275,0.0,0.0
1140,284.75,66.3144,64.8645,126.425,99.9123,96.4247,,0.115988,,-1.11103,0.343655,0.0,0.0
1152,287.75,66.1648,64.0893,125.645,99.9224,96.8489,,,,-1.13105,0.302175,0.0,0.0
1164,290.75,65.9973,63.537,127.303,99.9529,97.6037,,,,-1.06098,0.23004,0.0,0.0
1176,293.75,64.9197,63.2327,126.712,99.9578,97.3337,,,,-1.081,0.257303,0.0,0.0
1178,294.25,64.6335,63.2519,126.835,99.9724,96.5846,,,,-1.07099,0.33344,0.0,0.0