File: 01_Data/PP/Cone/PP_Cone_HF75Scan_220204_R1.csv
Names,Time,Stack TC,Smoke TC,Exh Press,Smoke Comp,Smoke Meas,CO Meter,CO2 Meter,O2 Meter,Sample Mass,Ext Coeff,Start Test,Flame Verif
Chan Gain,,500,500,1,1,1,1,1,1,1,1,1.0,1.0
Offset,,0,0,0.14021,0,0,0,0,0,0,0,0.0,0.0
Gain,,1,1,25.011,13.3046,13.3037,1,1,1,1.00093,1.10262,1.0,1.0
Units,sec,C,C,Pa,%,%,%,%,%,g,/m,,
Baseline,,39.2725,42.4986,131.939,100.913,104.718,0.000891173,0.121797,20.838,-871.643,-0.357919,,
10,2.25,34.6674,36.696,135.139,101.316,105.361,0.000975003,0.130756,20.8258,26.975,-0.378658,0.0,0.0
20,4.75,35.222,37.5303,132.41,101.313,104.704,0.000881626,0.128913,20.8277,26.985,-0.318398,0.0,0.0
30,7.25,35.8375,37.8401,130.382,101.308,105.934,0.000854978,0.128092,20.8275,26.965,-0.431838,0.0,0.0
40,9.75,35.9577,38.4421,134.441,101.318,105.349,0.000823998,0.12809,20.8271,26.985,-0.37742,0.0,0.0
50,12.25,36.4536,38.2165,128.403,101.313,105.845,0.000726579,0.127583,20.827,26.985,-0.42325,0.0,0.0
60,14.75,36.3504,38.8191,133.113,101.32,104.984,0.000976727,0.127366,20.825,26.935,-0.343543,0.0,0.0
70,17.25,36.9192,39.1283,132.428,101.326,104.834,0.00135688,0.132994,20.7978,26.8549,-0.329113,0.0,1.0
80,19.75,37.0189,39.6917,123.414,101.321,103.211,0.00181497,0.157793,20.7093,26.8349,-0.178804,0.0,1.0
90,22.25,38.6889,42.0062,117.868,101.324,93.9079,0.00274919,0.208186,20.5675,26.7148,0.735169,0.0,0.0
100,24.75,40.9091,44.3404,116.424,101.322,86.4242,0.00466828,0.276437,20.418,26.5747,1.53821,0.0,0.0
110,27.25,43.7384,48.3497,112.503,101.333,80.5401,0.00717064,0.376892,20.2189,26.3645,2.22122,0.0,0.0
120,29.75,47.5754,53.7951,107.417,101.321,78.2174,0.00968451,0.500045,19.9562,26.0342,2.50313,0.0,0.0
130,32.25,51.6743,60.53,102.74,101.33,73.5659,0.0124841,0.631858,19.7138,25.7038,3.09699,0.0,0.0
140,34.75,56.9862,67.0385,96.6799,101.327,72.3999,0.0157954,0.768917,19.4176,25.3735,3.25125,0.0,0.0
150,37.25,62.278,75.6478,87.7336,101.324,67.2158,0.0192212,0.92142,19.1332,24.9932,3.96955,0.0,0.0
160,39.75,68.7157,83.9649,98.6148,101.32,65.1988,0.0227308,1.08076,18.8683,24.5328,4.26392,0.0,0.0
170,42.25,74.586,92.7265,88.7465,101.316,63.3694,0.0260621,1.2348,18.5996,24.1224,4.53872,0.0,0.0
180,44.75,80.7257,102.116,86.8619,101.318,59.9557,0.0298756,1.37887,18.3807,23.6219,5.0745,0.0,0.0
190,47.25,86.6936,111.245,86.2773,101.331,58.2859,0.0351235,1.5241,18.1373,23.0113,5.34898,0.0,0.0
200,49.75,93.643,120.225,93.3627,101.322,55.271,0.0406131,1.6816,17.8583,22.5609,5.86188,0.0,0.0
210,52.25,99.7063,129.706,75.0243,101.319,59.3317,0.0480435,1.85514,17.6071,21.7902,5.17581,0.0,0.0
220,54.75,107.736,141.297,73.7702,101.322,58.6005,0.056885,2.11845,17.0541,21.1997,5.2961,0.0,0.0
230,57.25,116.342,155.598,67.9213,101.311,55.4967,0.0666362,2.43959,16.4535,20.2788,5.82141,0.0,0.0
240,59.75,125.623,170.116,64.5415,101.319,59.5867,0.0764897,2.80108,15.7934,19.6382,5.13433,0.0,0.0
250,62.25,134.582,185.719,80.9114,101.302,54.5946,0.0839954,3.19104,15.1111,18.7574,5.97903,0.0,0.0
260,64.75,145.505,202.756,63.3279,101.301,57.4877,0.0907494,3.60748,14.458,17.6764,5.47952,0.0,0.0
270,67.25,155.248,220.111,67.9678,101.282,54.3161,0.0989943,4.01573,13.9118,16.6755,6.0266,0.0,0.0
280,69.75,165.752,237.073,66.6993,101.287,64.7883,0.105143,4.5128,12.9687,15.6345,4.32186,0.0,0.0
290,72.25,177.398,258.738,46.4908,101.239,58.7252,0.108547,5.18629,11.9224,14.3633,5.2676,0.0,0.0
300,74.75,188.755,279.302,53.7862,101.209,59.2854,0.109959,5.79921,11.1345,13.0921,5.17285,0.0,0.0
310,77.25,198.61,297.849,83.1249,101.164,58.3529,0.107001,6.33919,10.3058,11.9711,5.32193,0.0,0.0
320,79.75,209.396,318.133,54.9311,101.089,59.0902,0.101066,6.94223,9.35798,10.6899,5.19327,0.0,0.0
330,82.25,219.245,335.88,46.3725,101.012,66.1614,0.0966233,7.37985,8.92991,9.24858,4.0927,0.0,0.0
340,84.75,227.798,351.688,47.8815,100.896,68.5555,0.0967444,7.58879,8.84852,7.8673,3.73779,0.0,0.0
350,87.25,235.132,361.34,57.2629,100.752,65.3506,0.0991277,7.5952,8.95273,6.76628,4.18704,0.0,0.0
360,89.75,240.651,370.065,45.8374,100.722,65.7477,0.10001,7.51136,9.10743,5.66526,4.12557,0.0,0.0
370,92.25,246.663,378.403,47.6998,100.789,64.2284,0.099122,7.44622,9.26388,4.5242,4.35808,0.0,0.0
380,94.75,250.894,383.797,40.8181,100.868,69.2007,0.101931,7.27447,9.68627,3.19296,3.64452,0.0,0.0
390,97.25,252.92,385.987,70.9385,100.968,56.0911,0.106251,6.97814,10.0999,2.42225,5.68548,0.0,0.0
400,99.75,255.208,387.56,60.1473,101.075,56.4983,0.107434,6.65748,10.624,1.30121,5.62582,0.0,0.0
410,102.25,255.744,385.675,69.2501,101.198,53.148,0.104039,6.20996,11.4453,0.510474,6.22884,0.0,0.0
420,104.75,254.725,380.839,68.5403,101.293,49.1116,0.097454,5.59866,12.6937,-0.230214,7.00187,0.0,0.0
430,107.25,251.73,371.539,65.3658,101.4,49.3467,0.0875696,4.88346,13.8111,-0.990919,6.96583,0.0,0.0
440,109.75,246.321,359.694,76.9844,101.453,57.2023,0.0718707,4.22251,14.9398,-1.43133,5.54215,0.0,0.0
450,112.25,239.494,344.176,85.301,101.478,60.4429,0.0556093,3.45358,16.3324,-1.8317,5.01152,0.0,0.0
460,114.75,229.804,326.714,105.074,101.437,77.2978,0.0394816,2.69975,17.6652,-1.99185,2.6286,0.0,0.0
470,117.25,217.658,305.565,112.332,101.337,98.0998,0.0247427,1.98242,18.8428,-1.92178,0.31398,0.0,0.0
480,119.75,205.322,285.139,115.284,101.151,99.8959,0.0152277,1.34577,19.6815,-1.93179,0.120768,0.0,0.0
490,122.25,193.059,265.417,113.825,100.916,99.6117,0.00928513,0.930263,20.1703,-1.96182,0.12578,0.0,0.0
500,124.75,182.988,249.249,115.82,100.628,99.6454,0.00594987,0.656929,20.4702,-1.93179,0.0949174,0.0,0.0
510,127.25,174.93,234.558,119.024,100.312,98.9224,0.00422057,0.478697,20.6337,-1.96182,0.13491,0.0,0.0
520,129.75,166.349,221.154,113.424,100.001,98.7023,0.00322407,0.373061,20.707,-1.96182,0.126453,0.0,0.0
530,132.25,159.302,209.3,116.766,99.7166,98.034,0.00254107,0.30851,20.7433,-1.98184,0.164594,0.0,0.0
540,134.75,152.799,197.949,116.717,99.4986,97.9845,0.00191809,0.264498,20.7684,-1.96182,0.14831,0.0,0.0
550,137.25,146.889,188.051,119.41,99.3792,97.5728,0.00162306,0.236526,20.7826,-1.96182,0.177422,0.0,0.0
560,139.75,141.925,179.598,118.167,99.393,97.8314,0.00159757,0.21347,20.7925,-1.93179,0.153164,0.0,0.0
570,142.25,137.03,171.272,119.416,99.512,98.3243,0.0017664,0.196963,20.8004,-1.95181,0.116126,0.0,0.0
580,144.75,132.233,163.841,116.859,99.7641,97.8136,0.00187757,0.184547,20.8042,-1.97183,0.190976,0.0,0.0
590,147.25,128.986,157.311,118.104,100.052,98.0052,0.00171873,0.175067,20.8073,-1.97183,0.199953,0.0,0.0
600,149.75,125.596,151.616,115.561,100.352,98.4254,0.00132608,0.16701,20.8116,-1.97183,0.187456,0.0,0.0
610,152.25,121.557,145.247,118.856,100.591,98.5147,0.00101535,0.161503,20.8154,-1.98184,0.201743,0.0,0.0
620,154.75,118.638,141.205,119.908,100.752,98.4648,0.00102063,0.15625,20.8204,-2.01187,0.222096,0.0,0.0
630,157.25,115.899,136.053,119.789,100.775,98.4932,0.00111931,0.151804,20.8246,-1.99185,0.221487,0.0,0.0
640,159.75,113.725,132.509,118.973,100.749,98.7153,0.00124488,0.148165,20.8272,-2.00186,0.197208,0.0,0.0
650,162.25,110.77,128.035,118.881,100.68,98.4453,0.00143779,0.144668,20.8304,-1.99185,0.217108,0.0,0.0
660,164.75,108.318,124.063,116.569,100.545,98.1424,0.00144746,0.141965,20.8331,-1.97183,0.233913,0.0,0.0
670,167.25,106.934,121.475,119.209,100.454,98.2224,0.00133163,0.139611,20.834,-2.00186,0.217241,0.0,0.0
680,169.75,105.434,118.281,119.027,100.923,98.7096,0.00122454,0.137667,20.8331,-2.00186,0.214473,0.0,0.0
690,172.25,103.273,115.996,120.545,101.228,98.7835,0.0010993,0.13578,20.8338,-2.00186,0.236453,0.0,0.0
700,174.75,101.874,112.596,120.58,101.277,98.76,0.00111725,0.134217,20.8347,-2.02188,0.243452,0.0,0.0
710,177.25,100.075,110.236,120.032,101.08,98.5817,0.00111172,0.132695,20.8377,-2.01187,0.24202,0.0,0.0
720,179.75,98.8687,107.956,124.386,100.694,98.0422,0.00101684,0.131263,20.8407,-2.03189,0.258125,0.0,0.0
730,182.25,97.34,106.109,121.889,100.888,98.6926,0.00101134,0.130121,20.8424,-1.99185,0.212836,0.0,0.0
740,184.75,95.5647,103.836,118.278,101.141,98.5679,0.000991668,0.1291,20.8453,-2.00186,0.24924,0.0,0.0
750,187.25,95.195,101.73,122.989,101.362,98.6788,0.000898596,0.128032,20.8476,-2.01187,0.25947,0.0,0.0
760,189.75,92.8533,99.9231,121.819,101.471,98.6723,0.000740436,0.127287,20.8486,-2.00186,0.270483,0.0,0.0
770,192.25,92.6218,98.6825,121.507,101.436,98.4413,0.000625118,0.12637,20.8434,-2.01187,0.289826,0.0,0.0
780,194.75,91.8534,97.3395,117.363,101.223,98.9865,0.000543933,0.125544,20.8428,-2.00186,0.216054,0.0,0.0
790,197.25,90.8103,95.4703,121.592,100.877,98.0527,0.0005841,0.125085,20.843,-2.02188,0.274696,0.0,0.0
800,199.75,89.3081,93.4975,122.856,100.417,97.2716,0.00075082,0.124431,20.8441,-1.99185,0.307849,0.0,0.0
810,202.25,88.9247,92.5338,119.148,99.9545,97.0982,0.000963258,0.123789,20.8445,-2.00186,0.280416,0.0,0.0
820,204.75,87.8288,92.0503,119.237,99.5997,96.799,0.00105186,0.123251,20.8472,-2.02188,0.275868,0.0,0.0
830,207.25,87.4145,90.5658,121.205,99.4072,96.5997,0.0010344,0.122924,20.8486,-2.01187,0.2771,0.0,0.0
840,209.75,86.4764,89.2017,119.43,99.4446,96.6585,0.000931059,0.122393,20.8492,-2.02188,0.274842,0.0,0.0
850,212.25,85.3985,88.5872,123.449,99.6374,96.758,0.000738062,0.12202,20.8509,-2.01187,0.283633,0.0,0.0
860,214.75,85.3503,87.3735,122.192,99.9744,97.2655,0.000715601,0.121776,20.8484,-1.99185,0.265694,0.0,0.0
870,217.25,84.3158,86.6337,119.093,100.335,97.6345,0.000828967,0.121195,20.8475,-2.03189,0.263884,0.0,0.0
880,219.75,83.5904,85.5554,121.944,100.651,97.4364,0.000903092,0.12076,20.8472,-2.00186,0.313972,0.0,0.0
890,222.25,82.8366,84.8629,121.485,100.781,98.7108,0.00076321,0.120443,20.8471,-2.03189,0.200764,0.0,0.0
900,224.75,82.3506,84.0786,123.473,100.741,97.885,0.000567596,0.120169,20.8483,-2.02188,0.278161,0.0,0.0
910,227.25,81.0957,82.8556,120.264,100.626,97.6094,0.00060029,0.11993,20.8485,-2.02188,0.294439,0.0,0.0
920,229.75,81.1333,82.055,121.157,100.491,97.8063,,0.119738,,-2.00186,0.261943,0.0,0.0
930,232.25,80.5267,81.7843,125.128,100.541,98.0637,,,,-2.00186,0.241288,0.0,0.0
940,234.75,79.5188,81.1767,120.841,101.081,98.7514,,,,-2.03189,0.22554,0.0,0.0
950,237.25,79.4629,80.0556,120.648,101.261,98.5436,,,,-2.01187,0.263078,0.0,0.0
959,239.5,78.716,79.4641,124.188,101.131,98.7835,,,,-2.03189,0.227138,0.0,0.0