File: 01_Data/PP/Cone/PP_Cone_HF25Scan_220203_R1.csv
Names,Time,Stack TC,Smoke TC,Exh Press,Smoke Comp,Smoke Meas,CO Meter,CO2 Meter,O2 Meter,Sample Mass,Ext Coeff,Start Test,Flame Verif
Chan Gain,,500,500,1,1,1,1,1,1,1,1,1.0,1.0
Offset,,0,0,0.14021,0,0,0,0,0,0,0,0.0,0.0
Gain,,1,1,25.011,13.3046,13.3037,1,1,1,1.00093,1.10262,1.0,1.0
Units,sec,C,C,Pa,%,%,%,%,%,g,/m,,
Baseline,,16.7869,17.9104,144.929,100.482,106.399,0.00266438,0.115968,20.8692,-869.987,-0.553478,,
18,4.25,15.4327,15.9122,145.065,99.1847,104.719,0.00236265,0.124525,20.8589,30.218,-0.525178,0.0,0.0
36,8.75,15.3793,16.3972,143.163,99.0048,104.655,0.00237892,0.126204,20.8559,30.208,-0.536771,0.0,0.0
54,13.25,15.4025,16.8813,141.106,98.935,104.989,0.00208135,0.124297,20.8598,30.208,-0.574464,0.0,0.0
72,17.75,15.8541,17.0116,146.489,98.9744,104.931,0.00211203,0.121238,20.8648,30.188,-0.565264,0.0,0.0
90,22.25,15.5391,16.5935,143.028,99.1315,104.847,0.0025583,0.120121,20.8649,30.178,-0.542134,0.0,0.0
108,26.75,16.1264,16.7073,148.552,99.3792,105.494,0.00269697,0.122746,20.8613,30.158,-0.577516,0.0,0.0
126,31.25,16.011,17.2064,145.433,99.7231,105.858,0.00276954,0.12679,20.8538,30.178,-0.577472,0.0,0.0
144,35.75,16.011,16.9175,147.801,100.066,106.07,0.00251658,0.1304,20.8511,30.168,-0.563561,0.0,0.0
162,40.25,15.7945,17.6027,145.625,100.423,106.272,0.00243469,0.129991,20.8525,30.178,-0.547469,0.0,0.0
180,44.75,16.0311,16.8949,144.085,100.726,106.529,0.00272341,0.128104,20.8547,30.148,-0.541853,0.0,0.0
198,49.25,16.3143,17.3833,143.892,100.931,106.818,0.00274372,0.126751,20.8583,30.168,-0.548281,0.0,0.0
216,53.75,16.4394,17.3336,149.697,101.041,107.16,0.00243006,0.123434,20.8657,30.168,-0.568759,0.0,0.0
234,58.25,15.978,17.4135,140.4,101.012,107.104,0.00241377,0.120353,20.8692,30.138,-0.566385,0.0,0.0
252,62.75,16.4151,18.0403,144.676,100.912,107.102,0.00241824,0.118786,20.8691,30.148,-0.575885,0.0,0.0
270,67.25,16.4284,17.1355,146.002,100.71,106.755,0.00250683,0.118703,20.8678,30.158,-0.563771,0.0,0.0
288,71.75,16.4886,17.2883,142.68,100.515,106.544,0.00226384,0.1187,20.8672,30.128,-0.563397,0.0,0.0
306,76.25,16.5721,17.7792,144.343,100.329,106.275,0.00239615,0.118587,20.8689,30.158,-0.55684,0.0,0.0
324,80.75,16.6525,17.8003,144.121,100.396,106.191,0.00242186,0.117481,20.8696,30.138,-0.542809,0.0,0.0
342,85.25,16.4125,17.916,146.893,100.723,105.999,0.00249361,0.118079,20.867,30.128,-0.493865,0.0,0.0
360,89.75,15.8662,17.9267,144.404,100.873,105.482,0.00263007,0.117258,20.8684,30.148,-0.432214,0.0,0.0
378,94.25,16.7779,18.1169,146.3,100.818,105.319,0.00245935,0.116202,20.8687,30.128,-0.422417,0.0,0.0
396,98.75,16.8159,17.74,144.291,100.559,104.572,0.00272529,0.115405,20.8698,30.0979,-0.37845,0.0,0.0
414,103.25,16.5167,17.4532,150.294,100.125,103.743,0.0029258,0.114527,20.87,30.0679,-0.343265,0.0,0.0
432,107.75,16.9705,17.9995,143.047,100.11,103.647,0.00283158,0.113965,20.8697,30.0579,-0.335895,0.0,0.0
450,112.25,16.6116,17.9459,141.122,100.221,103.781,0.00296105,0.113932,20.8683,30.0279,-0.337608,0.0,0.0
468,116.75,17.6012,19.2324,134.285,100.313,105.23,0.00322987,0.134682,20.819,29.9077,-0.462903,0.0,1.0
486,121.25,18.9628,20.9095,133.758,100.367,104.089,0.00315853,0.186434,20.7218,29.7676,-0.352113,0.0,1.0
504,125.75,20.8889,23.5338,136.451,100.364,102.017,0.00334764,0.234005,20.6378,29.6575,-0.158009,0.0,0.0
522,130.25,22.7492,25.937,132.133,100.333,98.0905,0.00384591,0.274292,20.5694,29.5374,0.218627,0.0,0.0
540,134.75,24.4467,28.2158,129.511,100.225,95.3796,0.00496896,0.308137,20.5073,29.3672,0.479231,0.0,0.0
558,139.25,26.6511,32.3191,127.435,100.039,95.2712,0.00597339,0.344854,20.439,29.127,0.472307,0.0,0.0
576,143.75,28.9848,35.1061,124.578,99.7945,94.0127,0.00660099,0.382164,20.3925,28.8768,0.577271,0.0,0.0
594,148.25,32.0137,38.097,132.41,99.531,89.0961,0.00747733,0.420171,20.3178,28.6466,1.07123,0.0,0.0
612,152.75,35.1337,41.9881,122.321,99.3,88.6186,0.00830179,0.465256,20.2319,28.3463,1.10072,0.0,0.0
630,157.25,38.102,46.0968,123.585,99.0901,87.9861,0.00904535,0.508728,20.1509,28.016,1.14954,0.0,0.0
648,161.75,40.9468,50.6986,115.556,98.9508,85.2245,0.00971147,0.560052,20.0594,27.6657,1.44438,0.0,0.0
666,166.25,44.4143,55.3053,116.211,98.9005,80.8231,0.0108413,0.612302,19.9838,27.3053,1.95233,0.0,0.0
684,170.75,48.299,60.1805,117.829,98.9569,79.9742,0.0123327,0.667867,19.8711,26.895,2.05998,0.0,0.0
702,175.25,51.9603,66.1174,105.126,99.1043,79.4699,0.0128977,0.733208,19.7582,26.4145,2.13555,0.0,0.0
720,179.75,56.3004,71.3405,113.433,99.3012,77.7266,0.0138397,0.801461,19.6396,25.914,2.36929,0.0,0.0
738,184.25,60.2035,77.2167,112.956,99.5769,77.8139,0.015094,0.865976,19.5258,25.3836,2.38525,0.0,0.0
756,188.75,65.0294,83.7325,107.57,99.8396,75.0632,0.0164805,0.930855,19.4365,24.783,2.75882,0.0,0.0
774,193.25,69.0028,89.3336,105.896,100.129,75.7944,0.0181914,0.99964,19.3152,24.2325,2.69302,0.0,0.0
792,197.75,74.0195,96.4869,97.0814,100.353,76.9377,0.0192993,1.07157,19.1769,23.5418,2.56984,0.0,0.0
810,202.25,79.0195,103.146,102.59,100.569,74.6507,0.0207296,1.13954,19.0772,22.8612,2.88254,0.0,0.0
828,206.75,83.8046,109.596,98.9453,100.772,71.9196,0.0225322,1.2072,18.9519,22.1606,3.26254,0.0,0.0
846,211.25,88.0845,116.156,92.1598,100.898,74.0121,0.0242735,1.28642,18.8336,21.55,2.99718,0.0,0.0
864,215.75,93.3439,123.843,86.5314,100.972,70.4418,0.0258565,1.36965,18.6908,20.7092,3.48251,0.0,0.0
882,220.25,99.3335,131.358,88.1206,101.022,68.7573,0.0279416,1.45288,18.5329,19.9485,3.72143,0.0,0.0
900,224.75,104.318,138.503,101.282,101.037,69.9676,0.0300954,1.54587,18.3731,19.1378,3.55406,0.0,0.0
918,229.25,110.008,146.343,87.8321,100.978,68.9916,0.0330413,1.64572,18.2124,18.2069,3.68425,0.0,0.0
936,233.75,115.611,154.673,85.0637,100.918,66.4703,0.0354046,1.7623,18.0228,17.3361,4.03861,0.0,0.0
954,238.25,121.353,163.054,89.3807,100.805,65.6003,0.0375316,1.87148,17.8537,16.3852,4.15519,0.0,0.0
972,242.75,127.211,171.383,77.0829,100.691,64.6137,0.0401704,1.9849,17.6533,15.4143,4.29087,0.0,0.0
990,247.25,132.998,178.59,84.0424,100.571,64.2934,0.0427329,2.09821,17.4653,14.4134,4.32739,0.0,0.0
1008,251.75,139.003,188.039,80.9839,100.46,63.3072,0.0443137,2.20316,17.298,13.2923,4.46615,0.0,0.0
1026,256.25,143.434,194.352,80.1558,100.359,60.5241,0.0462318,2.28537,17.2037,12.0912,4.89133,0.0,0.0
1044,260.75,149.881,202.747,84.0218,100.287,65.1314,0.0501478,2.42601,16.9644,11.0102,4.17481,0.0,0.0
1062,265.25,154.83,211.318,67.6083,100.329,59.2627,0.0535699,2.56796,16.7317,9.82912,5.0921,0.0,0.0
1080,269.75,160.742,220.145,73.5161,100.525,61.1007,0.0574712,2.70581,16.4857,8.68806,4.81562,0.0,0.0
1098,274.25,166.645,227.968,82.4281,100.678,58.5997,0.0614651,2.83832,16.278,7.34682,5.23449,0.0,0.0
1116,278.75,172.078,236.555,75.6677,100.786,60.0203,0.062779,2.94069,16.1428,6.16572,5.01318,0.0,0.0
1134,283.25,175.261,241.186,68.1861,100.857,59.8782,0.0600835,2.93459,16.2064,5.01465,5.04296,0.0,0.0
1152,287.75,178.102,244.022,90.0952,100.903,60.2367,0.0575458,2.85066,16.3924,3.81354,4.98963,0.0,0.0
1170,292.25,178.802,242.238,81.0381,100.89,65.1095,0.0509783,2.64999,16.7601,2.90269,4.23604,0.0,0.0
1188,296.75,175.276,234.767,86.9383,100.884,69.942,0.0403722,2.2895,17.4945,2.11196,3.54293,0.0,0.0
1206,301.25,167.687,221.923,98.566,100.872,75.4899,0.0303481,1.82789,18.1562,1.52141,2.8035,0.0,0.0
1224,305.75,157.872,205.499,105.843,100.852,75.8383,0.0224306,1.41297,18.9149,1.13105,2.75703,0.0,0.0
1242,310.25,146.912,187.088,120.705,100.849,77.4229,0.0155809,1.00948,19.641,0.890826,2.55678,0.0,0.0
1260,314.75,133.239,167.48,130.133,100.816,98.101,0.00893193,0.672557,20.1949,0.880817,0.264051,0.0,0.0
1278,319.25,120.646,148.515,130.298,100.784,98.643,0.00487354,0.41099,20.6158,0.870808,0.207683,0.0,0.0
1296,323.75,109.555,134.025,127.956,100.754,99.2252,0.00336336,0.268546,20.7746,0.910845,0.147842,0.0,0.0
1314,328.25,101.618,120.774,133.597,100.723,99.7912,0.00298959,0.202053,20.826,0.900836,0.0899072,0.0,0.0
1332,332.75,94.4364,109.921,135.458,100.723,99.3263,0.00288053,0.165346,20.8496,0.890826,0.135029,0.0,0.0
1350,337.25,88.4517,100.145,131.682,100.697,99.252,0.00272489,0.146452,20.8595,0.910845,0.139772,0.0,0.0
1368,341.75,82.4045,92.1416,133.535,100.655,100.02,0.00251864,0.135774,20.8647,0.910845,0.0612264,0.0,0.0
1386,346.25,78.8247,85.6432,135.173,100.636,100.095,0.00240204,0.12974,20.866,0.900836,0.0521319,0.0,0.0
1404,350.75,74.4718,79.218,135.153,100.601,100.214,0.0024324,0.125641,20.8649,0.910845,0.0372486,0.0,0.0
1422,355.25,71.2889,74.7452,137.105,100.572,99.7364,0.00247358,0.123069,20.8654,0.910845,0.0806682,0.0,0.0
1440,359.75,67.5243,69.8445,132.136,100.517,100.147,0.00250217,0.121029,20.8662,0.920854,0.0356715,0.0,0.0
1458,364.25,65.9884,66.4301,132.232,100.49,99.5943,0.00262751,0.119276,20.8682,0.920854,0.0866053,0.0,0.0
1476,368.75,63.4212,62.7987,131.123,100.494,101.088,0.00271178,0.117962,20.8699,0.910845,-0.0569441,0.0,0.0
1494,373.25,61.6202,60.2935,134.062,100.46,101.45,0.00243226,0.11706,20.8699,0.930864,-0.0947769,0.0,0.0
1512,377.75,59.6542,57.4853,135.521,100.453,100.759,0.00233815,0.116398,20.8686,0.920854,-0.0294927,0.0,0.0
1530,382.25,58.2777,55.4642,133.795,100.437,101.428,0.00205531,0.115779,20.8684,0.930864,-0.0949923,0.0,0.0
1548,386.75,56.637,53.9464,137.242,100.438,101.621,0.00208208,0.115139,20.8704,0.930864,-0.113248,0.0,0.0
1566,391.25,54.4211,50.8301,137.375,100.429,101.758,0.00223383,0.114738,20.8707,0.930864,-0.127161,0.0,0.0
1584,395.75,53.3869,49.6327,133.635,100.432,100.836,0.0023316,0.114587,20.8701,0.920854,-0.0388489,0.0,0.0
1602,400.25,52.7537,48.3908,137.702,100.448,101.338,0.00250824,0.114331,20.8695,0.920854,-0.0852606,0.0,0.0
1620,404.75,51.5976,47.2525,137.904,100.437,101.196,0.00228513,0.114187,20.8694,0.920854,-0.0728606,0.0,0.0
1638,409.25,50.9604,46.5405,136.502,100.464,101.735,0.00220036,0.113918,20.8712,0.920854,-0.121637,0.0,0.0
1656,413.75,49.5627,45.5207,138.931,100.497,102.034,0.00221896,0.11373,20.8712,0.920854,-0.14676,0.0,0.0
1674,418.25,48.673,44.0852,138.22,100.541,101.994,0.00206898,0.113668,20.8699,0.920854,-0.138808,0.0,0.0
1692,422.75,47.6037,42.4338,135.125,100.574,102.124,0.00206733,0.11385,20.8705,0.930864,-0.147879,0.0,0.0
1710,427.25,47.5593,42.5248,135.648,100.602,103.314,,0.113653,,0.920854,-0.257312,0.0,0.0
1728,431.75,46.4598,41.5016,137.581,100.661,102.756,,,,0.910845,-0.199288,0.0,0.0
1744,435.75,45.6027,41.1716,135.256,100.683,103.782,,,,0.920854,-0.293272,0.0,0.0