File: 01_Data/PP/Cone/PP_Cone_HF75Scan_220204_R2.csv
Names,Time,Stack TC,Smoke TC,Exh Press,Smoke Comp,Smoke Meas,CO Meter,CO2 Meter,O2 Meter,Sample Mass,Ext Coeff,Start Test,Flame Verif
Chan Gain,,500,500,1,1,1,1,1,1,1,1,1.0,1.0
Offset,,0,0,0.14021,0,0,0,0,0,0,0,0.0,0.0
Gain,,1,1,25.011,13.3046,13.3037,1,1,1,1.00093,1.10262,1.0,1.0
Units,sec,C,C,Pa,%,%,%,%,%,g,/m,,
Baseline,,52.409,53.1388,129.006,100.612,99.961,0.00086055,0.119,20.8399,-871.934,0.0629721,,
10,2.25,45.8251,45.6635,130.246,101.031,99.5906,0.0013395,0.133625,20.8268,28.036,0.138875,0.0,0.0
20,4.75,45.6733,46.4247,131.085,101.078,100.85,0.00129143,0.12996,20.8314,28.0861,0.0218386,0.0,0.0
30,7.25,46.084,46.5612,129.682,101.144,100.372,0.00112683,0.126704,20.8352,28.056,0.0740695,0.0,0.0
40,9.75,46.4025,46.8366,129.876,101.154,100.456,0.00110556,0.124695,20.8376,28.056,0.067022,0.0,0.0
50,12.25,46.8238,46.8993,132.197,101.204,100.51,0.0010829,0.123474,20.8395,28.056,0.0665216,0.0,0.0
60,14.75,47.1773,47.9413,130.914,101.19,99.2143,0.00113786,0.122488,20.8359,28.006,0.190721,0.0,0.0
70,17.25,47.2609,47.6429,127.557,101.207,99.2005,0.00128442,0.126006,20.8225,27.9659,0.193696,0.0,1.0
80,19.75,47.3055,48.787,123.464,101.205,99.7043,0.00151163,0.145629,20.7506,27.9259,0.144503,0.0,1.0
90,22.25,48.5546,49.6591,117.91,101.201,93.767,0.00225719,0.187684,20.6292,27.8358,0.737938,0.0,1.0
100,24.75,50.2144,52.1209,111.922,101.175,86.887,0.00402661,0.260808,20.4627,27.6356,1.47251,0.0,0.0
110,27.25,52.4924,55.4954,105.157,101.172,80.9717,0.00635975,0.361555,20.2331,27.4555,2.15421,0.0,0.0
120,29.75,56.4433,60.6885,105.107,101.142,77.3957,0.00891123,0.476032,19.9957,27.1452,2.58822,0.0,0.0
130,32.25,60.9895,66.455,95.6014,101.101,74.939,0.0112262,0.603406,19.7768,26.995,2.89624,0.0,0.0
140,34.75,65.0862,72.525,96.7257,101.073,70.6862,0.0139118,0.716645,19.5748,26.5646,3.45865,0.0,0.0
150,37.25,69.7601,79.2983,94.8313,101.028,70.0196,0.0169457,0.852571,19.3586,26.2544,3.54598,0.0,0.0
160,39.75,75.0047,86.6636,100.105,100.99,65.9373,0.020893,0.980419,19.1056,25.834,4.12342,0.0,0.0
170,42.25,80.2324,94.7684,85.0308,100.935,63.2061,0.0247329,1.12517,18.8308,25.3836,4.52732,0.0,0.0
180,44.75,85.6856,102.307,86.3879,100.908,63.0933,0.0291498,1.26509,18.5643,24.8531,4.54196,0.0,0.0
190,47.25,92.5134,111.837,81.3259,100.833,64.2958,0.0339429,1.43554,18.2829,24.3926,4.35214,0.0,0.0
200,49.75,98.782,121.796,84.824,100.742,56.1755,0.03832,1.60008,17.9941,23.8221,5.64932,0.0,0.0
210,52.25,105.099,131.671,85.3232,100.68,56.8694,0.0436923,1.78534,17.6698,23.2716,5.52466,0.0,0.0
220,54.75,113.279,142.696,75.8273,100.714,53.7651,0.0500302,1.98754,17.3033,22.591,6.07077,0.0,0.0
230,57.25,120.628,154.168,69.9897,100.743,53.9426,0.0570067,2.22538,16.9626,21.9404,6.04175,0.0,0.0
240,59.75,128.76,167.103,91.5278,100.766,53.0246,0.0659197,2.49667,16.5104,21.1296,6.20994,0.0,0.0
250,62.25,137.925,181.059,52.7619,100.801,58.7361,0.0740603,2.84911,15.7604,20.2087,5.22389,0.0,0.0
260,64.75,146.537,196.914,67.8762,100.822,51.3446,0.0818826,3.23626,15.1254,19.2879,6.52673,0.0,0.0
270,67.25,155.407,212.025,86.1841,100.872,56.5097,0.088492,3.68703,14.3916,18.5172,5.60443,0.0,0.0
280,69.75,166.102,231.644,63.7301,100.897,57.1747,0.0929541,4.28812,13.4119,17.3261,5.49364,0.0,0.0
290,72.25,177.198,251.101,36.3476,100.96,60.8928,0.0957234,4.88111,12.508,16.0649,4.89033,0.0,0.0
300,74.75,187.601,269.983,55.7554,100.979,59.4418,0.0968126,5.44515,11.5966,15.0339,5.12539,0.0,0.0
310,77.25,198.061,289.757,46.5931,101.043,65.1602,0.097136,6.02155,10.7107,13.7728,4.24309,0.0,0.0
320,79.75,208.334,308.896,50.7995,101.086,62.8956,0.0958889,6.56888,10.0855,12.5216,4.58935,0.0,0.0
330,82.25,218.802,327.478,50.1614,101.141,65.3198,0.0896073,6.96824,9.54287,11.0302,4.22884,0.0,0.0
340,84.75,228.546,344.387,54.0442,101.177,77.6251,0.083071,7.44771,8.7806,9.65896,2.56289,0.0,0.0
350,87.25,238.851,363.497,39.4343,101.247,78.5934,0.0780369,7.98466,7.98769,8.4078,2.4497,0.0,0.0
360,89.75,248.686,382.845,51.5727,101.29,78.1326,0.0729383,8.60782,7.01493,6.77629,2.51073,0.0,0.0
370,92.25,260.613,406.024,54.6975,101.334,80.9055,0.0685448,9.30021,5.98815,5.50511,2.17756,0.0,0.0
380,94.75,270.292,423.838,59.007,101.381,71.6744,0.068662,9.74967,5.45697,4.18388,3.35385,0.0,0.0
390,97.25,277.791,437.169,28.1493,101.43,79.1074,0.074408,9.88854,5.43477,2.45228,2.40413,0.0,0.0
400,99.75,282.823,444.086,55.8699,101.446,58.4024,0.0862954,9.70013,5.85259,1.41131,5.34067,0.0,0.0
410,102.25,284.096,442.22,45.6031,101.472,55.4435,0.0998915,8.9806,6.95579,0.350325,5.84602,0.0,0.0
420,104.75,282.017,433.206,69.7898,101.511,50.0661,0.103632,7.87345,9.24705,-0.230214,6.83645,0.0,0.0
430,107.25,276.343,418.132,71.0377,101.518,57.0042,0.0885048,6.37247,11.9245,-0.720669,5.5819,0.0,0.0
440,109.75,266.134,395.741,101.489,101.532,85.3763,0.0611497,4.77588,14.9105,-0.860799,1.67618,0.0,0.0
450,112.25,250.101,366.48,110.08,101.522,97.5891,0.0392237,3.23612,17.2218,-0.890826,0.382162,0.0,0.0
460,114.75,234.787,339.652,109.566,101.524,97.8968,0.0231253,2.1633,18.7411,-0.860799,0.351903,0.0,0.0
470,117.25,222.059,316.957,113.204,101.491,100.888,0.014138,1.4241,19.6672,-0.860799,0.057651,0.0,0.0
480,119.75,210.555,295.697,113.116,101.473,101.262,0.00917225,0.949014,20.1554,-0.820762,0.0200887,0.0,0.0
490,122.25,199.053,277.418,111.094,101.43,100.955,0.00636919,0.673515,20.3952,-0.770715,0.0454253,0.0,0.0
500,124.75,189.609,260.146,113.989,101.4,101.043,0.00443227,0.514033,20.5486,-0.800743,0.0341229,0.0,0.0
510,127.25,180.761,245.013,113.528,101.339,100.651,0.00329175,0.404521,20.6415,-0.790734,0.065964,0.0,0.0
520,129.75,173.156,231.422,114.392,101.287,100.866,0.00260828,0.32971,20.6946,-0.810752,0.0402701,0.0,0.0
530,132.25,166.446,219.364,116.168,101.226,101.076,0.00210939,0.281952,20.7242,-0.850789,0.0143466,0.0,0.0
540,134.75,159.932,208.831,113.966,101.179,100.699,0.00189935,0.249799,20.7421,-0.830771,0.0460427,0.0,0.0
550,137.25,154.79,199.084,112.512,101.113,100.926,0.00182541,0.227219,20.7562,-0.870808,0.0179011,0.0,0.0
560,139.75,149.877,189.419,116.532,101.042,99.7047,0.00174336,0.209821,20.765,-0.890826,0.12889,0.0,0.0
570,142.25,144.798,181.532,118.109,100.958,100.165,0.00155777,0.197101,20.7714,-0.880817,0.0762432,0.0,0.0
580,144.75,141.046,174.336,117.782,100.876,100.255,0.00131603,0.186986,20.7765,-0.870808,0.0597219,0.0,0.0
590,147.25,136.918,167.086,119.452,100.802,100.247,0.00120887,0.178798,20.78,-0.860799,0.0533795,0.0,0.0
600,149.75,133.13,160.631,115.789,100.73,99.6613,0.00124575,0.172365,20.7812,-0.860799,0.10317,0.0,0.0
610,152.25,130.316,155.188,119.281,100.657,99.8432,0.00123168,0.166786,20.7841,-0.860799,0.0785149,0.0,0.0
620,154.75,127.277,150.969,113.601,100.579,99.5711,0.00111865,0.162033,20.7884,-0.860799,0.0973695,0.0,0.0
630,157.25,124.601,145.745,120.177,100.506,99.6012,0.00105294,0.158365,20.794,-0.830771,0.08746,0.0,0.0
640,159.75,122.278,141.111,117.415,100.429,99.1708,0.000948029,0.154206,20.8014,-0.800743,0.121954,0.0,0.0
650,162.25,119.901,137.383,121.821,100.364,98.9593,0.000894759,0.150744,20.8068,-0.820762,0.136307,0.0,0.0
660,164.75,117.575,133.275,115.841,100.284,98.5545,0.0010568,0.147684,20.8121,-0.860799,0.168239,0.0,0.0
670,167.25,115.055,130.107,119.339,100.232,99.1997,0.00105279,0.144938,20.8162,-0.830771,0.100119,0.0,0.0
680,169.75,113.263,126.871,115.024,100.157,98.9106,0.00087429,0.14267,20.8193,-0.860799,0.121133,0.0,0.0
690,172.25,111.477,123.971,116.557,100.098,97.8355,0.00077595,0.140663,20.8176,-0.880817,0.221111,0.0,0.0
700,174.75,109.965,121.04,114.733,100.033,98.1213,0.000729981,0.138749,20.8155,-0.860799,0.186654,0.0,0.0
710,177.25,108.47,118.515,117.641,99.9866,98.1299,0.000638322,0.136934,20.8166,-0.870808,0.181299,0.0,0.0
720,179.75,106.352,115.185,117.307,99.9277,98.2581,0.000428209,0.135545,20.8183,-0.920854,0.162965,0.0,0.0
730,182.25,105.413,114.52,116.028,99.8766,98.1112,0.000285329,0.134386,20.8192,-0.900836,0.172491,0.0,0.0
740,184.75,104.535,112.118,117.948,99.8372,97.7535,0.000450179,0.133682,20.8186,-0.880817,0.204001,0.0,0.0
750,187.25,102.962,109.966,117.211,99.7937,97.641,0.00072173,0.133371,20.8178,-0.890826,0.210926,0.0,0.0
760,189.75,101.581,107.78,118.249,99.7742,97.7913,0.000803103,0.133277,20.8175,-0.880817,0.194168,0.0,0.0
770,192.25,100.697,106.239,118.475,99.7304,97.5099,0.000825576,0.132933,20.8174,-0.870808,0.217784,0.0,0.0
780,194.75,99.8133,104.824,119.337,99.7182,97.108,0.00076416,0.132382,20.8158,-0.880817,0.256553,0.0,0.0
790,197.25,99.0544,102.758,122.444,99.687,97.7584,0.000685495,0.131737,20.8138,-0.890826,0.188954,0.0,0.0
800,199.75,97.766,101.918,117.263,99.6711,97.1408,0.000722853,0.131383,20.8146,-0.900836,0.248709,0.0,0.0
810,202.25,97.0206,100.778,121.113,99.6488,97.1356,0.000753124,0.130867,20.8149,-0.910845,0.247067,0.0,0.0
820,204.75,95.8184,99.3254,121.918,99.6447,97.1932,0.000836462,0.130329,20.8157,-0.890826,0.240934,0.0,0.0
830,207.25,95.0127,98.2897,119.072,99.637,97.2135,0.000873821,0.129929,20.8168,-0.890826,0.238165,0.0,0.0
840,209.75,94.0905,96.6068,118.913,99.6325,96.8327,0.000809293,0.129292,20.8172,-0.880817,0.275696,0.0,0.0
850,212.25,93.2249,95.5044,122.93,99.6362,96.8692,0.000602064,0.128917,20.8183,-0.890826,0.272401,0.0,0.0
860,214.75,92.7725,94.4149,118.87,99.6362,97.369,0.000426576,0.128379,20.8193,-0.870808,0.222628,0.0,0.0
870,217.25,91.55,93.4742,118.723,99.6403,96.8217,0.000404946,0.127974,20.8196,-0.890826,0.277539,0.0,0.0
880,219.75,90.9474,92.8594,118.394,99.6459,96.594,0.000599932,0.127579,20.8173,-0.890826,0.30087,0.0,0.0
890,222.25,90.8084,91.8326,119.821,99.6573,96.7629,0.000689993,0.127202,20.8177,-0.850789,0.285076,0.0,0.0
900,224.75,90.272,90.6412,115.949,99.6606,96.8262,0.000684523,0.127044,20.8178,-0.880817,0.279064,0.0,0.0
910,227.25,89.0316,89.8698,120.828,99.6691,96.8567,0.000632229,0.126867,20.8165,-0.870808,0.27685,0.0,0.0
920,229.75,88.4413,89.3206,121.156,99.6593,96.9139,,0.126819,,-0.830771,0.270189,0.0,0.0
930,232.25,87.876,88.489,119.856,99.6736,96.4555,,,,-0.850789,0.317422,0.0,0.0
940,234.75,87.0104,87.4909,120.303,99.6845,96.341,,,,-0.84078,0.329973,0.0,0.0
950,237.25,86.7199,87.0916,123.847,99.7142,96.4251,,,,-0.84078,0.324415,0.0,0.0
954,238.25,86.5975,86.5255,120.393,99.7036,96.2895,,,,-0.850789,0.337003,0.0,0.0