File: 01_Data/PP/Cone/PP_Cone_HF25Scalar_220203_R1.csv
LABORATORY,FSRI
TEST IDENT,PP_HF25_1
OPERATOR,Dow
MATERIAL,polypropylene
ORIENTATION,Horizontal
HEAT FLUX,25
SURF AREA,0.01
C FACTOR,0.0415673
SPEC HOLDER DIFF,304.03
SPECIMEN MASS,29.2
SCAN TIME,0.25
O2 DELAY TIME,11
CO DELAY TIME,11
CO2 DELAY TIME,8
FLOW FACTOR,1
SCAN COUNT,1744
TIME TO IGN,114.75
END OF TEST SCAN,1264
END OF TEST TIME,316
TEST STATUS,1
PRE TEST CMT,Dimensions: 100.11 x 99.35 x 3.06 mm