File: 01_Data/PP/Cone/PP_Cone_HF50Scalar_220203_R3.csv
LABORATORY,FSRI
TEST IDENT,PP_HF50_3
OPERATOR,Dow
MATERIAL,polypropylene
ORIENTATION,Horizontal
HEAT FLUX,50
SURF AREA,0.01
C FACTOR,0.0415673
SPEC HOLDER DIFF,303.34
SPECIMEN MASS,28.6
SCAN TIME,0.25
O2 DELAY TIME,11
CO DELAY TIME,11
CO2 DELAY TIME,8
FLOW FACTOR,1
SCAN COUNT,1178
TIME TO IGN,34.25
END OF TEST SCAN,698
END OF TEST TIME,174.5
TEST STATUS,1
PRE TEST CMT,Dimensions: 100.00 x 98.39 x 3.05 mm