File: 01_Data/PP/Cone/PP_Cone_HF50Scan_220203_R1.csv
Names,Time,Stack TC,Smoke TC,Exh Press,Smoke Comp,Smoke Meas,CO Meter,CO2 Meter,O2 Meter,Sample Mass,Ext Coeff,Start Test,Flame Verif
Chan Gain,,500,500,1,1,1,1,1,1,1,1,1.0,1.0
Offset,,0,0,0.14021,0,0,0,0,0,0,0,0.0,0.0
Gain,,1,1,25.011,13.3046,13.3037,1,1,1,1.00093,1.10262,1.0,1.0
Units,sec,C,C,Pa,%,%,%,%,%,g,/m,,
Baseline,,29.4126,31.6101,137.855,100.271,103.344,0.00287884,0.113576,20.8644,-870.756,-0.291869,,
12,2.75,25.7178,27.3434,135.507,101.244,104.853,0.00285436,0.124901,20.8507,28.1261,-0.338743,0.0,0.0
24,5.75,26.2828,28.1305,141.185,101.105,104.979,0.00253975,0.122198,20.8541,28.1161,-0.363735,0.0,0.0
36,8.75,26.8457,28.3508,136.897,100.946,104.504,0.00238266,0.119318,20.8575,28.1161,-0.33511,0.0,0.0
48,11.75,26.8315,28.1976,140.757,100.815,103.18,0.00241525,0.116966,20.8619,28.066,-0.224327,0.0,0.0
60,14.75,27.266,28.8863,139.083,100.734,104.756,0.00242013,0.115102,20.8655,28.076,-0.378591,0.0,0.0
72,17.75,27.5746,28.8451,135.525,100.675,103.949,0.00245739,0.11387,20.8671,28.076,-0.30959,0.0,0.0
84,20.75,27.5273,29.329,138.412,100.9,104.77,0.0024709,0.113088,20.8676,28.0861,-0.363973,0.0,0.0
96,23.75,27.4052,29.0927,134.961,101.059,104.175,0.00240608,0.112437,20.8677,28.076,-0.293779,0.0,0.0
108,26.75,27.7772,29.5934,138.999,101.161,103.897,0.00230894,0.112206,20.8677,28.066,-0.258135,0.0,0.0
120,29.75,27.5221,29.4756,135.218,101.215,103.221,0.00232819,0.111925,20.8653,28.046,-0.1898,0.0,0.0
132,32.75,28.0024,29.5358,134.877,101.195,102.75,0.00282365,0.114103,20.8605,27.996,-0.147548,0.0,0.0
144,35.75,28.758,30.8733,132.589,101.123,103.704,0.00345525,0.128516,20.8364,27.9259,-0.2437,0.0,1.0
156,38.75,29.919,32.3617,132.623,100.993,101.911,0.00363334,0.166332,20.7589,27.8058,-0.0875356,0.0,1.0
168,41.75,30.4626,33.662,128.947,100.823,98.6792,0.00370147,0.214644,20.6682,27.7658,0.207919,0.0,0.0
180,44.75,32.0223,35.5861,126.215,100.601,92.4569,0.00475994,0.265254,20.5822,27.6356,0.816509,0.0,0.0
192,47.75,34.1525,38.5556,117.484,100.329,87.1879,0.00634057,0.323633,20.4514,27.4455,1.35789,0.0,0.0
204,50.75,37.9216,43.4497,117.981,100.358,85.3913,0.00767912,0.393575,20.3388,27.2553,1.56205,0.0,0.0
216,53.75,40.8175,47.5084,117.588,100.408,80.4508,0.00915634,0.469045,20.1916,27.0451,2.14327,0.0,0.0
228,56.75,44.4197,52.5409,115.463,100.469,79.5767,0.0106203,0.552319,20.0678,26.6547,2.25487,0.0,0.0
240,59.75,48.1776,57.7249,108.073,100.556,78.2284,0.0124381,0.630368,19.9162,26.3545,2.42848,0.0,0.0
252,62.75,52.9372,63.7176,110.61,100.619,74.7981,0.0137349,0.711333,19.7706,26.0642,2.86823,0.0,0.0
264,65.75,56.2602,68.5339,110.921,100.715,74.8135,0.0151293,0.778921,19.6606,25.6438,2.87548,0.0,0.0
276,68.75,60.4988,74.2609,103.935,100.769,71.8234,0.0166357,0.864262,19.5053,25.3535,3.27517,0.0,0.0
288,71.75,65.0622,81.1498,101.257,100.809,69.2132,0.0188201,0.971448,19.3207,24.823,3.63707,0.0,0.0
300,74.75,71.1396,89.5255,101.353,100.796,67.2511,0.0218716,1.09587,19.0607,24.2925,3.91395,0.0,0.0
312,77.75,77.0685,98.0457,98.7774,100.749,65.867,0.0256002,1.24526,18.8299,23.8121,4.11056,0.0,0.0
324,80.75,83.1319,107.349,87.4,100.661,64.5244,0.0302158,1.3846,18.5983,23.2015,4.30129,0.0,0.0
336,83.75,90.6291,118.302,87.1741,100.528,61.4567,0.0344534,1.55944,18.3049,22.5309,4.7597,0.0,0.0
348,86.75,97.2265,128.109,77.0981,100.387,59.4312,0.0382301,1.73427,18.0213,21.8803,5.0702,0.0,0.0
360,89.75,104.774,139.407,70.9309,100.23,58.3139,0.0433921,1.92293,17.6914,21.0495,5.23869,0.0,0.0
372,92.75,112.38,151.919,83.5653,100.053,59.0045,0.0493201,2.15519,17.3325,20.449,5.10769,0.0,0.0
384,95.75,121.428,164.958,67.7335,99.8713,58.2676,0.0560099,2.40547,16.8949,19.368,5.21168,0.0,0.0
396,98.75,129.21,177.594,60.387,99.7186,59.253,0.0622649,2.63613,16.5354,18.6373,5.03468,0.0,0.0
408,101.75,138.562,193.127,71.066,99.5944,55.5767,0.0672006,2.90633,16.1382,17.6764,5.64214,0.0,0.0
420,104.75,147.14,206.866,73.213,99.5107,57.741,0.071022,3.16443,15.7489,16.6254,5.2645,0.0,0.0
432,107.75,155.679,220.98,63.2233,99.4551,54.025,0.074996,3.4153,15.3024,15.6045,5.9025,0.0,0.0
444,110.75,163.642,234.781,81.7747,99.4539,56.3379,0.0788109,3.65449,14.9285,14.5435,5.49691,0.0,0.0
456,113.75,170.766,247.087,65.4536,99.5002,52.9166,0.0827633,3.91002,14.536,13.4124,6.10738,0.0,0.0
468,116.75,178.349,258.214,55.9081,99.5879,56.9437,0.0863538,4.17733,14.1314,12.3114,5.40649,0.0,0.0
480,119.75,187.639,275.302,59.6634,99.7052,54.0286,0.0900833,4.5527,13.5689,11.1503,5.92614,0.0,0.0
492,122.75,196.308,290.103,81.4175,99.864,54.8987,0.0954232,4.93511,12.9823,9.84914,5.78701,0.0,0.0
504,125.75,203.354,300.618,53.664,100.032,59.9042,0.101815,5.23263,12.6018,8.47787,4.95936,0.0,0.0
516,128.75,210.714,314.968,74.3702,100.194,62.5265,0.107178,5.53208,12.0858,7.10659,4.56054,0.0,0.0
528,131.75,218.108,326.306,46.4748,100.359,55.057,0.10764,5.83649,11.6363,5.85543,5.80701,0.0,0.0
540,134.75,223.282,334.477,58.1055,100.511,51.2025,0.108187,5.91284,11.5468,4.58425,6.52361,0.0,0.0
552,137.75,226.824,337.873,53.7694,100.665,55.7959,0.107796,5.68883,11.8958,3.51326,5.70749,0.0,0.0
564,140.75,228.874,338.691,79.0689,100.819,50.7924,0.103262,5.36697,12.3655,2.46228,6.63103,0.0,0.0
576,143.75,228.453,335.092,67.7778,100.953,56.6915,0.0956052,4.90667,13.1761,1.56145,5.58109,0.0,0.0
588,146.75,226.213,328.842,64.3705,101.078,53.9929,0.0874518,4.35777,13.9566,0.680631,6.06476,0.0,0.0
600,149.75,223.285,320.764,75.3853,101.168,57.3302,0.0743385,3.82428,14.8595,0.0200186,5.4933,0.0,0.0
612,152.75,217.799,308.365,88.1564,101.258,61.7653,0.0592387,3.16035,15.9235,-0.450418,4.7812,0.0,0.0
624,155.75,208.346,291.017,105.843,101.327,72.309,0.0413135,2.50136,17.2352,-0.660613,3.2634,0.0,0.0
636,158.75,195.467,269.582,116.755,101.372,92.4955,0.027155,1.75252,18.4473,-0.730678,0.886283,0.0,0.0
648,161.75,182.098,247.633,123.363,101.417,99.0328,0.0169396,1.13769,19.3198,-0.720669,0.23006,0.0,0.0
660,164.75,169.468,227.284,120.25,101.448,98.9995,0.0103346,0.748886,20.0612,-0.740687,0.236294,0.0,0.0
672,167.75,158.767,209.648,121.172,101.453,99.3081,0.00696739,0.487425,20.4427,-0.730678,0.206659,0.0,0.0
684,170.75,149.693,194.751,121.841,101.466,98.7397,0.00521361,0.345744,20.6242,-0.690641,0.263416,0.0,0.0
696,173.75,140.97,181.975,121.791,101.459,98.9337,0.00423666,0.264755,20.7282,-0.690641,0.243766,0.0,0.0
708,176.75,133.971,169.871,120.56,101.449,98.6901,0.00373624,0.215975,20.7877,-0.680631,0.266682,0.0,0.0
720,179.75,127.528,159.837,123.33,101.421,99.0263,0.00355743,0.184053,20.8194,-0.690641,0.231121,0.0,0.0
732,182.75,121.979,150.344,124.37,101.388,98.2728,0.00335646,0.164264,20.8373,-0.690641,0.301863,0.0,0.0
744,185.75,117.254,142.7,121.683,101.362,98.192,0.00321812,0.150499,20.8483,-0.710659,0.307339,0.0,0.0
756,188.75,112.373,135.34,124.375,101.321,98.4088,0.00301016,0.141033,20.8557,-0.70065,0.282055,0.0,0.0
768,191.75,109.113,129.077,125.56,101.28,98.6361,0.00268101,0.134186,20.8595,-0.710659,0.255819,0.0,0.0
780,194.75,104.77,123.166,125.118,101.237,98.3885,0.00283445,0.129334,20.859,-0.720669,0.276063,0.0,0.0
792,197.75,101.15,117.082,126.13,101.182,97.8879,0.00298042,0.125952,20.8593,-0.720669,0.320161,0.0,0.0
804,200.75,98.7331,112.316,124.981,101.136,97.8631,0.00263461,0.123243,20.8608,-0.730678,0.318144,0.0,0.0
816,203.75,95.2948,107.963,125.339,101.08,97.9057,0.00244074,0.120953,20.8626,-0.690641,0.30861,0.0,0.0
828,206.75,92.765,103.781,122.989,101.03,97.7373,0.00254614,0.119445,20.8641,-0.720669,0.320529,0.0,0.0
840,209.75,90.716,99.8653,126.453,100.994,97.8716,0.00268288,0.118208,20.8646,-0.740687,0.303702,0.0,0.0
852,212.75,88.7398,96.6447,125.696,100.951,97.7381,0.0026352,0.117159,20.8647,-0.730678,0.312865,0.0,0.0
864,215.75,86.5787,93.4741,124.451,100.904,97.7758,0.00248403,0.116488,20.8664,-0.730678,0.304617,0.0,0.0
876,218.75,85.2132,90.9674,128.628,100.863,98.0129,0.00240018,0.115873,20.8658,-0.710659,0.277221,0.0,0.0
888,221.75,83.5118,88.9582,128.089,100.836,98.5894,0.00230644,0.115277,20.8656,-0.710659,0.217924,0.0,0.0
900,224.75,82.1335,86.154,125.08,100.805,97.6191,0.00242823,0.114882,20.8655,-0.710659,0.310591,0.0,0.0
912,227.75,80.1445,83.777,126.772,100.769,97.3869,0.0023745,0.114533,20.8655,-0.730678,0.330199,0.0,0.0
924,230.75,79.0715,82.1484,126.487,100.732,97.5521,0.00238161,0.114102,20.8655,-0.710659,0.310293,0.0,0.0
936,233.75,78.0203,80.2384,128.292,100.705,96.9939,0.00247406,0.113629,20.8668,-0.690641,0.36315,0.0,0.0
948,236.75,76.9111,78.0155,128.259,100.687,98.2224,0.00260096,0.113244,20.8675,-0.730678,0.239695,0.0,0.0
960,239.75,75.7029,76.9538,126.403,100.674,98.4469,0.00261522,0.112839,20.8672,-0.710659,0.216325,0.0,0.0
972,242.75,74.7122,75.3193,128.631,100.655,97.4916,0.00250201,0.11256,20.8664,-0.730678,0.308805,0.0,0.0
984,245.75,73.7656,74.446,126.102,100.668,98.0284,0.00245186,0.112289,20.8662,-0.720669,0.256952,0.0,0.0
996,248.75,72.6608,72.1505,127.719,100.735,98.438,0.00246505,0.112085,20.8675,-0.720669,0.22313,0.0,0.0
1008,251.75,71.7653,71.1523,126.978,100.799,97.7015,0.00260388,0.112034,20.868,-0.740687,0.301921,0.0,0.0
1020,254.75,70.3198,69.7156,128.223,100.848,98.6922,0.00264637,0.111835,20.8667,-0.710659,0.208983,0.0,0.0
1032,257.75,70.1081,69.5391,128.46,100.903,97.5253,0.00261665,0.111848,20.868,-0.710659,0.329272,0.0,0.0
1044,260.75,69.7683,68.2884,128.249,100.95,98.2285,0.00265603,0.111809,20.8683,-0.730678,0.264336,0.0,0.0
1056,263.75,68.6728,67.4142,130.069,100.993,98.4993,0.00243077,0.111873,20.8674,-0.720669,0.241832,0.0,0.0
1068,266.75,67.8429,66.7675,127.486,101.035,98.3312,0.00223425,0.112028,20.8653,-0.710659,0.262315,0.0,0.0
1080,269.75,67.5121,66.1462,127.248,101.054,99.2313,0.00236693,0.112166,20.8645,-0.720669,0.17601,0.0,0.0
1092,272.75,66.7517,65.2564,130.731,101.085,98.1258,,0.112189,,-0.730678,0.287401,0.0,0.0
1104,275.75,66.166,63.8984,125.582,101.11,98.1558,,,,-0.750696,0.286848,0.0,0.0
1116,278.75,65.1578,63.3111,129.097,101.144,98.8472,,,,-0.730678,0.222142,0.0,0.0
1126,281.25,64.4337,63.2402,129.552,101.14,99.1083,,,,-0.730678,0.196282,0.0,0.0