File: 01_Data/PP/Cone/PP_Cone_HF25Scan_220203_R2.csv
Names,Time,Stack TC,Smoke TC,Exh Press,Smoke Comp,Smoke Meas,CO Meter,CO2 Meter,O2 Meter,Sample Mass,Ext Coeff,Start Test,Flame Verif
Chan Gain,,500,500,1,1,1,1,1,1,1,1,1.0,1.0
Offset,,0,0,0.14021,0,0,0,0,0,0,0,0.0,0.0
Gain,,1,1,25.011,13.3046,13.3037,1,1,1,1.00093,1.10262,1.0,1.0
Units,sec,C,C,Pa,%,%,%,%,%,g,/m,,
Baseline,,26.3193,25.4849,141.302,100.123,104.832,0.00274799,0.114071,20.8706,-870.037,-0.444453,,
19,4.5,20.374,20.9609,146.606,99.1514,102.747,0.00241522,0.123817,20.8647,28.7567,-0.344558,0.0,0.0
38,9.25,20.907,20.7948,142.144,99.0901,102.517,0.00252177,0.1215,20.8674,28.7267,-0.328885,0.0,0.0
57,14,21.712,20.9739,142.374,99.086,102.841,0.00251013,0.117369,20.8719,28.7367,-0.359723,0.0,0.0
76,18.75,21.2738,21.4389,144.978,99.1433,102.551,0.00258303,0.114049,20.8758,28.7267,-0.326835,0.0,0.0
95,23.5,20.9382,21.0974,141.638,99.2265,102.62,0.00272426,0.112421,20.8768,28.7166,-0.325264,0.0,0.0
114,28.25,21.3667,21.1562,143.737,99.3195,102.776,0.0024437,0.112189,20.8769,28.7166,-0.33085,0.0,0.0
133,33,20.6577,21.2002,142.861,99.419,103.288,0.00236259,0.112084,20.8778,28.7066,-0.369266,0.0,0.0
152,37.75,20.5988,21.2247,145.71,99.5388,103.256,0.00257647,0.111647,20.8772,28.7267,-0.354654,0.0,0.0
171,42.5,21.1787,21.1075,141.408,99.6191,103.249,0.00241042,0.111126,20.8784,28.6966,-0.346161,0.0,0.0
190,47.25,20.9899,21.6051,143.321,99.6841,103.554,0.00246434,0.11069,20.8786,28.7166,-0.368338,0.0,0.0
209,52,21.1452,21.3467,138.668,99.758,103.643,0.00250623,0.110387,20.8804,28.7066,-0.369548,0.0,0.0
228,56.75,21.0754,21.2693,143.914,99.7832,103.485,0.00257623,0.110214,20.8809,28.7066,-0.35232,0.0,0.0
247,61.5,21.2438,21.3923,142.064,99.8327,103.394,0.00237199,0.11007,20.8809,28.7066,-0.339015,0.0,0.0
266,66.25,20.6042,21.5816,139.711,99.8867,102.976,0.00219021,0.110778,20.8793,28.6866,-0.294625,0.0,0.0
285,71,20.9517,21.3594,141.534,99.9143,104.053,0.00226964,0.112634,20.8768,28.6866,-0.392595,0.0,0.0
304,75.75,21.3439,21.662,143.392,99.8961,103.445,0.00234071,0.11314,20.8749,28.6666,-0.337666,0.0,0.0
323,80.5,21.0034,21.2808,137.581,99.905,103.342,0.00234591,0.113308,20.8741,28.6766,-0.327154,0.0,0.0
342,85.25,21.1386,22.1369,144.356,99.9078,103.515,0.00249628,0.112853,20.874,28.6666,-0.343053,0.0,0.0
361,90,20.9362,21.3756,142.536,99.8932,102.398,0.00292083,0.112394,20.8729,28.6666,-0.239504,0.0,0.0
380,94.75,20.8048,21.4911,142.884,99.8473,102.197,0.00317094,0.113638,20.8702,28.6666,-0.224946,0.0,0.0
399,99.5,21.1696,21.6302,139.824,99.8075,102.069,0.00316114,0.114388,20.8694,28.6366,-0.216728,0.0,0.0
418,104.25,20.7416,21.4932,142.37,99.7604,101.612,0.00280514,0.113979,20.8696,28.6266,-0.177838,0.0,0.0
437,109,21.1318,21.8574,142.486,99.6959,101.349,0.00293064,0.113915,20.8692,28.6065,-0.159102,0.0,0.0
456,113.75,21.2451,21.9949,140.983,99.6468,100.692,0.00298454,0.116706,20.8627,28.5765,-0.100896,0.0,0.0
475,118.5,21.3976,22.2683,137.321,99.5688,102.411,0.00313494,0.1332,20.8248,28.5165,-0.272269,0.0,1.0
494,123.25,22.6856,24.073,132.451,99.5063,99.9491,0.00318854,0.187061,20.7304,28.3863,-0.0429495,0.0,0.0
513,128,24.7696,27.0198,134.456,99.4186,98.3544,0.0035674,0.241504,20.6376,28.2062,0.10409,0.0,0.0
532,132.75,26.4836,29.2849,131.921,99.3313,95.1222,0.00420963,0.284708,20.5576,28.026,0.41878,0.0,0.0
551,137.5,29.2597,32.8551,131.337,99.2675,92.4544,0.00521752,0.322913,20.4943,27.8659,0.687711,0.0,0.0
570,142.25,31.3503,35.8695,132.825,99.2212,89.9214,0.00605931,0.360546,20.4251,27.5956,0.951888,0.0,0.0
589,147,33.7549,40.0142,123.123,99.1555,89.0676,0.00687174,0.400802,20.3546,27.3954,1.03775,0.0,0.0
608,151.75,36.82,43.4353,124.298,99.1189,86.2707,0.00799596,0.437059,20.2992,27.0751,1.34278,0.0,0.0
627,156.5,39.2254,46.0876,126.392,99.0946,82.3988,0.00874551,0.475955,20.2267,26.8249,1.78454,0.0,0.0
646,161.25,42.0793,50.2414,118.468,99.1051,81.2474,0.0097323,0.516737,20.1507,26.4545,1.92168,0.0,0.0
665,166,45.1415,54.8903,119.489,99.1547,78.7379,0.0111587,0.572273,20.0474,26.0942,2.22996,0.0,0.0
684,170.75,48.1618,59.0784,118.533,99.2237,80.1702,0.0123275,0.635296,19.9431,25.6238,2.06233,0.0,0.0
703,175.5,52.2909,64.7845,112.993,99.3081,78.5536,0.0133198,0.718494,19.7865,25.0833,2.26759,0.0,0.0
722,180.25,56.2558,70.5581,105.619,99.4401,73.818,0.0149052,0.804144,19.634,24.6028,2.88182,0.0,0.0
741,185,62.6348,78.9032,104.688,99.594,74.3548,0.0160407,0.898058,19.4659,23.9923,2.82671,0.0,0.0
760,189.75,67.3242,85.9718,107.028,99.7747,73.8453,0.0173487,0.992646,19.3062,23.3717,2.91075,0.0,0.0
779,194.5,72.9807,93.5869,110.249,99.957,72.8595,0.0185827,1.07387,19.1905,22.641,3.05839,0.0,0.0
798,199.25,78.153,101.229,93.0048,100.159,73.1067,0.0200879,1.14635,19.0761,21.9504,3.04517,0.0,0.0
817,204,83.3434,108.337,96.2266,100.333,72.1072,0.0210746,1.21446,18.9581,21.2697,3.19505,0.0,0.0
836,208.75,89.0111,115.848,96.4555,100.488,70.2445,0.0230475,1.30161,18.7976,20.459,3.46317,0.0,0.0
855,213.5,94.5809,123.619,84.927,100.637,68.7196,0.0252385,1.40108,18.6377,19.6282,3.68974,0.0,0.0
874,218.25,100.475,131.861,90.8134,100.778,70.0297,0.0284713,1.51151,18.4567,18.7474,3.52061,0.0,0.0
893,223,106.73,140.237,100.572,100.892,64.9401,0.0317507,1.62302,18.269,17.8165,4.26134,0.0,0.0
912,227.75,113.147,149.978,83.1135,100.971,69.6574,0.0341225,1.732,18.0791,16.8156,3.5907,0.0,0.0
931,232.5,119.024,158.749,75.2502,101.03,67.9632,0.0365381,1.85254,17.8785,15.8847,3.83449,0.0,0.0
950,237.25,126.02,168.757,89.467,101.069,65.9231,0.0397032,1.99313,17.6438,14.7737,4.13304,0.0,0.0
969,242,131.806,177.23,82.28,101.092,65.4416,0.0423815,2.10976,17.4737,13.6927,4.20612,0.0,0.0
988,246.75,138.18,187.008,80.3176,101.105,62.1339,0.0456033,2.24194,17.2625,12.5516,4.70902,0.0,0.0
1007,251.5,144.362,195.321,86.1971,101.106,63.9382,0.0475721,2.32768,17.1229,11.4606,4.43227,0.0,0.0
1026,256.25,150.203,204.052,78.9399,101.075,64.5821,0.049465,2.41774,17.0015,10.2795,4.3324,0.0,0.0
1045,261,154.133,208.726,75.3174,101.043,61.5249,0.04892,2.42631,16.9957,9.16851,4.79842,0.0,0.0
1064,265.75,157.696,213.839,80.9778,101.009,63.9873,0.0498679,2.44008,16.97,8.06748,4.41556,0.0,0.0
1083,270.5,161.514,218.209,87.0558,100.969,64.1261,0.0501951,2.45199,16.9675,6.91642,4.39074,0.0,0.0
1102,275.25,163.579,221.009,78.1698,100.935,63.2695,0.0477704,2.39335,17.0716,5.89547,4.51755,0.0,0.0
1121,280,165.175,221.959,87.7679,100.91,65.8106,0.0451671,2.29092,17.2552,4.82448,4.13435,0.0,0.0
1140,284.75,164.618,219.324,79.8276,100.861,64.9572,0.0409285,2.14564,17.4928,3.8836,4.25585,0.0,0.0
1159,289.5,162.469,214.795,93.8864,100.816,66.8061,0.0362628,1.98925,17.752,3.00279,3.98007,0.0,0.0
1178,294.25,159.552,208.712,88.0565,100.802,67.4062,0.0320549,1.78921,18.0953,2.19203,3.89226,0.0,0.0
1197,299,155.917,200.218,95.4022,100.791,68.8133,0.0275537,1.59486,18.4329,1.52141,3.69137,0.0,0.0
1216,303.75,149.717,190.597,98.8454,100.79,70.9594,0.0232494,1.37193,18.8067,0.890826,3.39425,0.0,0.0
1235,308.5,143.028,179.794,108.573,100.749,73.5355,0.0201264,1.14444,19.1975,0.490455,3.04541,0.0,0.0
1254,313.25,134.286,165.276,115.889,100.721,76.8756,0.016257,0.887797,19.6571,0.190176,2.61308,0.0,0.0
1273,318,124.365,151.244,125.212,100.714,88.4814,0.0110164,0.632369,20.0998,0.0500464,1.25249,0.0,0.0
1292,322.75,114.277,136.08,125.471,100.698,96.1924,0.00654086,0.421283,20.4703,0.0600557,0.442698,0.0,0.0
1311,327.5,104.83,122.774,130.904,100.67,97.244,0.00413596,0.272508,20.6889,0.070065,0.334928,0.0,0.0
1330,332.25,96.693,110.271,132.309,100.68,97.1084,0.0030208,0.195153,20.7946,0.0800743,0.349361,0.0,0.0
1349,337,89.708,100.046,132.326,100.63,98.0677,0.0027689,0.155506,20.836,0.0600557,0.249477,0.0,0.0
1368,341.75,83.7082,92.2204,132.39,100.605,99.0681,0.0029047,0.137026,20.8535,0.0800743,0.148893,0.0,0.0
1387,346.5,79.6086,85.4718,134.361,100.558,98.2301,0.00282673,0.128185,20.8587,0.0800743,0.226524,0.0,0.0
1406,351.25,75.6306,79.2666,130.466,100.528,98.6118,0.0028976,0.123441,20.8618,0.100093,0.186169,0.0,0.0
1425,356,71.258,73.4283,132.182,100.495,98.7092,0.00255096,0.120578,20.8637,0.070065,0.173452,0.0,0.0
1444,360.75,69.0413,69.9067,132.287,100.44,98.2419,0.00233794,0.118805,20.8621,0.0800743,0.213994,0.0,0.0
1463,365.5,66.0545,66.1807,134.37,100.409,98.3121,0.00238698,0.117299,20.8636,0.100093,0.204149,0.0,0.0
1482,370.25,63.1586,62.7489,133.316,100.365,98.1733,0.00233466,0.116319,20.8641,0.0900836,0.213555,0.0,0.0
1501,375,61.3356,59.3035,131.936,100.329,98.0482,0.0026491,0.115507,20.8648,0.110102,0.222438,0.0,0.0
1520,379.75,59.9477,57.4097,134.662,100.293,99.1903,0.00281838,0.115151,20.8672,0.100093,0.106944,0.0,0.0
1539,384.5,57.7683,54.5097,133.922,100.366,98.5103,0.00255233,0.114734,20.867,0.0800743,0.180491,0.0,0.0
1558,389.25,56.5965,53.9071,136.593,100.481,99.3551,0.00222824,0.115568,20.8665,0.100093,0.108996,0.0,0.0
1577,394,55.2139,51.6832,138.125,100.6,99.6897,0.00214241,0.116089,20.8665,0.110102,0.0878897,0.0,0.0
1596,398.75,53.9735,50.4077,133.818,100.686,100.124,0.00238981,0.11562,20.8673,0.0900836,0.0541455,0.0,0.0
1615,403.5,53.4956,48.3192,136.393,100.751,99.2362,0.00254475,0.114883,20.8673,0.110102,0.146501,0.0,0.0
1634,408.25,52.2423,47.155,136.021,100.795,100.297,0.00251149,0.11429,20.8672,0.0900836,0.0479394,0.0,0.0
1653,413,50.6149,46.2104,134.867,100.828,100.405,0.00247903,0.113727,20.8694,0.100093,0.0406065,0.0,0.0
1672,417.75,49.5353,45.2203,132.697,100.857,100.498,0.00264709,0.11345,20.8698,0.100093,0.0344584,0.0,0.0
1691,422.5,49.4446,43.7723,133.655,100.845,100.5,0.00265677,0.113147,20.8698,0.0900836,0.0331726,0.0,0.0
1710,427.25,48.2096,43.3339,138.415,100.812,100.834,0.00253352,0.112741,20.869,0.0900836,-0.00212407,0.0,0.0
1729,432,47.3308,42.2966,133.693,100.755,101.358,0.00263726,0.112594,20.8686,0.110102,-0.0577253,0.0,0.0
1748,436.75,46.5544,41.807,135.089,100.678,101.384,0.00245944,0.11252,20.8704,0.120111,-0.0676128,0.0,0.0
1767,441.5,45.6852,41.1643,134.066,100.546,101.088,,,,0.110102,-0.0519432,0.0,0.0
1786,446.25,44.2959,39.8455,134.898,100.423,101.301,,,,0.110102,-0.0841574,0.0,0.0
1798,449.25,44.4819,40.5789,137.575,100.328,100.355,,,,0.130121,-0.00256808,0.0,0.0