File: 01_Data/PP/Cone/PP_Cone_HF25Scalar_220203_R3.csv
LABORATORY,FSRI
TEST IDENT,PP_HF25_3
OPERATOR,Dow
MATERIAL,polypropylene
ORIENTATION,Horizontal
HEAT FLUX,25
SURF AREA,0.01
C FACTOR,0.0415673
SPEC HOLDER DIFF,304.16
SPECIMEN MASS,28.5
SCAN TIME,0.25
O2 DELAY TIME,11
CO DELAY TIME,11
CO2 DELAY TIME,8
FLOW FACTOR,1
SCAN COUNT,1679
TIME TO IGN,107.5
END OF TEST SCAN,1199
END OF TEST TIME,299.75
TEST STATUS,1
PRE TEST CMT,Dimensions: 98.47 x 99.80 x 3.06 mm