File: 01_Data/PP/Cone/PP_Cone_HF50Scan_220203_R2.csv
Names,Time,Stack TC,Smoke TC,Exh Press,Smoke Comp,Smoke Meas,CO Meter,CO2 Meter,O2 Meter,Sample Mass,Ext Coeff,Start Test,Flame Verif
Chan Gain,,500,500,1,1,1,1,1,1,1,1,1.0,1.0
Offset,,0,0,0.14021,0,0,0,0,0,0,0,0.0,0.0
Gain,,1,1,25.011,13.3046,13.3037,1,1,1,1.00093,1.10262,1.0,1.0
Units,sec,C,C,Pa,%,%,%,%,%,g,/m,,
Baseline,,37.5987,38.2422,135.199,100.491,101.969,0.00230897,0.109378,20.8705,-870.913,-0.141012,,
11,2.5,33.0418,33.415,134.12,100.548,102.974,0.00260153,0.124651,20.8464,28.7367,-0.23064,0.0,0.0
22,5.25,32.5303,33.2796,135.34,100.523,103.493,0.00249303,0.122765,20.8496,28.7166,-0.281636,0.0,0.0
33,8,33.5653,33.5833,135.646,100.51,102.593,0.0023803,0.120448,20.8555,28.7166,-0.198397,0.0,0.0
44,10.75,33.042,33.6457,136.238,100.483,103.268,0.00240776,0.118102,20.8599,28.6866,-0.264461,0.0,0.0
55,13.5,33.5341,33.9714,133.421,100.449,102.93,0.00245543,0.115742,20.8635,28.6966,-0.23594,0.0,0.0
66,16.25,33.1949,34.5037,133.31,100.397,102.537,0.00245695,0.113906,20.8666,28.6866,-0.203983,0.0,0.0
77,19,33.7401,34.4259,138.683,100.374,103.316,0.00235526,0.112768,20.8682,28.7066,-0.279504,0.0,0.0
88,21.75,34.1925,34.6954,135.973,100.352,103.489,0.0022983,0.111968,20.8708,28.7166,-0.297755,0.0,0.0
99,24.5,34.5181,34.4837,136.444,100.307,101.376,0.00236561,0.111161,20.8723,28.6966,-0.102517,0.0,0.0
110,27.25,33.8251,34.8985,136.644,100.255,100.944,0.00254376,0.110541,20.8727,28.6766,-0.0662271,0.0,0.0
121,30,34.2342,34.9332,133.277,100.209,100.576,0.00277153,0.111768,20.8686,28.5965,-0.0353459,0.0,0.0
132,32.75,34.5402,35.3587,130.831,100.166,102.173,0.00302729,0.120485,20.8509,28.6065,-0.191891,0.0,1.0
143,35.5,35.8086,36.1838,128.363,100.102,100.324,0.00330963,0.144895,20.8102,28.4864,-0.0214605,0.0,1.0
154,38.25,35.7682,37.426,132.095,100.048,96.7271,0.00355323,0.18603,20.7373,28.4064,0.326522,0.0,0.0
165,41,37.0615,38.9079,122.269,99.9947,91.785,0.00425733,0.240618,20.6327,28.2862,0.828599,0.0,0.0
176,43.75,39.1397,42.0028,122.784,99.9196,88.9365,0.00545341,0.299378,20.5424,28.1361,1.12625,0.0,0.0
187,46.5,41.8939,45.022,118.586,99.8676,83.5323,0.0070868,0.358719,20.4273,27.976,1.72756,0.0,0.0
198,49.25,43.6371,47.9853,112.299,99.8047,83.0138,0.00853939,0.43203,20.2839,27.7958,1.78168,0.0,0.0
209,52,47.7199,52.6966,115.224,99.7507,80.7451,0.00992805,0.503498,20.1656,27.5656,2.04445,0.0,0.0
220,54.75,50.6488,56.8038,115.05,99.6841,77.7639,0.0112847,0.571687,20.0334,27.2653,2.40186,0.0,0.0
231,57.5,54.0853,62.0344,113.065,99.6378,74.7462,0.0125287,0.645138,19.9257,26.985,2.78019,0.0,0.0
242,60.25,57.6907,66.502,106.215,99.6029,76.8354,0.013859,0.708863,19.7934,26.6948,2.51016,0.0,0.0
253,63,61.6493,71.7212,104.105,99.5586,72.3187,0.0149053,0.777964,19.6804,26.3545,3.09182,0.0,0.0
264,65.75,65.1579,76.7598,93.0498,99.5087,73.0621,0.015992,0.846057,19.5811,26.0241,2.98806,0.0,0.0
275,68.5,69.485,82.5798,105.146,99.4714,70.2709,0.0174277,0.920122,19.4593,25.5437,3.36118,0.0,0.0
286,71.25,73.2461,88.2794,97.4997,99.4474,68.6741,0.0194608,1.00286,19.32,25.2234,3.58116,0.0,0.0
297,74,78.103,94.8412,91.6072,99.4429,68.0777,0.0217739,1.09653,19.1463,24.8631,3.66509,0.0,0.0
308,76.75,82.8009,101.677,104.178,99.4263,66.0932,0.0242692,1.1955,18.9552,24.3226,3.94961,0.0,0.0
319,79.5,87.9211,109.197,92.7895,99.4255,61.7458,0.0275123,1.31959,18.7669,23.7921,4.60762,0.0,0.0
330,82.25,93.7419,117.665,88.9861,99.432,64.0932,0.031066,1.46724,18.4921,23.2316,4.24736,0.0,0.0
341,85,100.141,127.036,85.3041,99.458,60.7702,0.0348988,1.64032,18.24,22.601,4.76483,0.0,0.0
352,87.75,106.417,136.896,79.075,99.4726,57.6903,0.0405639,1.81091,17.9221,21.9003,5.2693,0.0,0.0
363,90.5,113.944,148.173,82.3098,99.5018,57.7427,0.0461655,2.01919,17.5954,21.1796,5.26336,0.0,0.0
374,93.25,120.945,158.861,69.3913,99.5302,53.703,0.0516023,2.20993,17.3118,20.5491,5.96761,0.0,0.0
385,96,128.593,170.796,68.4807,99.5582,53.4452,0.0575474,2.45018,16.8825,19.5882,6.01688,0.0,0.0
396,98.75,136.472,183.297,70.9118,99.5952,55.2998,0.0631428,2.72557,16.4354,18.8475,5.69053,0.0,0.0
407,101.5,144.839,197.769,58.4803,99.6346,57.2076,0.0692809,3.01841,15.9733,17.7665,5.36631,0.0,0.0
418,104.25,152.921,210.933,76.1669,99.6679,53.6766,0.0748374,3.31941,15.4843,16.9357,5.98573,0.0,0.0
429,107,161.988,225.862,53.6305,99.6906,57.698,0.0800102,3.63052,15.0183,15.8947,5.28918,0.0,0.0
440,109.75,170.771,242.035,53.5595,99.7162,54.8357,0.0847339,3.97725,14.473,14.9138,5.78378,0.0,0.0
451,112.5,179.544,256.275,57.311,99.7377,57.791,0.0901379,4.34581,13.9626,13.8529,5.27818,0.0,0.0
462,115.25,186.937,268.263,69.8226,99.7414,57.5316,0.0950871,4.62346,13.5261,12.4816,5.32205,0.0,0.0
473,118,195.005,282.963,70.2332,99.7621,57.5096,0.0963472,4.98033,12.9182,11.4406,5.32774,0.0,0.0
484,120.75,203.638,297.098,64.1782,99.7661,68.1751,0.0953614,5.36828,12.3054,10.0493,3.68265,0.0,0.0
495,123.5,213.096,314.086,37.4773,99.7686,65.9389,0.0937814,5.8798,11.5629,8.9483,4.00546,0.0,0.0
506,126.25,222.047,329.313,59.2955,99.7539,66.282,0.0924239,6.37227,10.887,7.59705,3.95385,0.0,0.0
517,129,229.182,341.98,59.2344,99.7434,60.8672,0.0945463,6.67327,10.4418,6.18574,4.77711,0.0,0.0
528,131.75,236.598,353.452,58.188,99.7361,69.0894,0.0983911,6.8314,10.178,4.86451,3.55088,0.0,0.0
539,134.5,242.375,362.347,65.4398,99.7267,54.0262,0.101363,6.84969,10.1005,3.72345,5.92866,0.0,0.0
550,137.25,246.382,367.992,61.2983,99.7032,59.2578,0.102503,6.75752,10.2003,2.45228,5.03239,0.0,0.0
561,140,247.904,368.32,61.7197,99.6796,53.9641,0.102473,6.42113,10.6344,1.54143,5.93522,0.0,0.0
572,142.75,247.541,363.565,64.2247,99.6549,55.1967,0.0972563,5.72628,11.7762,0.880817,5.71438,0.0,0.0
583,145.5,242.241,351.543,74.377,99.6273,55.3396,0.0833717,4.82622,13.2731,0.310288,5.68669,0.0,0.0
594,148.25,234.061,335.111,91.4553,99.5972,68.7399,0.0628692,3.84941,14.6921,0.0300279,3.58647,0.0,0.0
605,151,221.841,313.26,113.071,99.6179,90.7387,0.0427585,2.79047,16.4265,-0.0100093,0.90297,0.0,0.0
616,153.75,206.148,288.154,120.98,99.5599,97.4482,0.0263403,1.78488,18.1059,-0.0300279,0.207353,0.0,0.0
627,156.5,191.559,265.032,118.027,99.5278,98.1668,0.0158737,1.12508,19.2534,0,0.133173,0.0,0.0
638,159.25,180.385,246.676,121.331,99.5063,98.1883,0.0102545,0.715162,19.9538,-0.0100093,0.128962,0.0,0.0
649,162,169.754,229.745,117.313,99.4843,97.4973,0.00706935,0.489633,20.3272,0.0100093,0.195139,0.0,0.0
660,164.75,160.308,214.564,122.483,99.4624,97.4275,0.00550971,0.351338,20.5453,0,0.199937,0.0,0.0
671,167.5,153.043,200.698,123.424,99.449,97.6914,0.00451991,0.275005,20.6823,0.0300279,0.172472,0.0,0.0
682,170.25,145.023,188.355,121.257,99.436,97.2216,0.00382209,0.223829,20.7527,0.0300279,0.217827,0.0,0.0
693,173,138.136,177.658,125.851,99.4287,97.4587,0.00339905,0.192161,20.7959,0.0100093,0.193557,0.0,0.0
704,175.75,131.967,168.341,121.836,99.4393,97.0016,0.00325534,0.169873,20.8195,0.0100093,0.24006,0.0,0.0
715,178.5,127.443,159.444,121.462,99.4446,97.056,0.00309612,0.155549,20.8339,-0.0100093,0.23515,0.0,0.0
726,181.25,123.073,151.865,122.211,99.4442,96.9983,0.00267361,0.145046,20.8432,-0.0100093,0.240857,0.0,0.0
737,184,119.076,144.322,123.022,99.4693,96.6914,0.00244956,0.137391,20.8469,0,0.27396,0.0,0.0
748,186.75,114.137,137.201,121.344,99.4835,96.8018,0.0025182,0.132214,20.8492,0.0200186,0.264301,0.0,0.0
759,189.5,111.744,132.24,123.195,99.5018,96.7219,0.00261705,0.128076,20.8525,0.0100093,0.274072,0.0,0.0
770,192.25,108.064,126.988,122.543,99.5339,96.9062,0.0025719,0.125324,20.8548,0.0100093,0.258775,0.0,0.0
781,195,104.568,121.796,124.58,99.5542,96.3991,0.00247486,0.123483,20.8559,0,0.311493,0.0,0.0
792,197.75,102.539,117.825,119.22,99.5806,97.0154,0.00247474,0.121712,20.8562,-0.0200186,0.252417,0.0,0.0
803,200.5,100.39,113.549,121.537,99.6131,96.5794,0.00259643,0.120311,20.8577,-0.0100093,0.299141,0.0,0.0
814,203.25,98.0105,109.523,122.68,99.6411,96.7097,0.00262578,0.119365,20.8584,-0.0100093,0.288819,0.0,0.0
825,206,95.686,106.707,124.717,99.6577,96.6423,0.00245092,0.118584,20.8588,0,0.297176,0.0,0.0
836,208.75,94.2058,103.352,125.759,99.678,96.3926,0.0022199,0.117905,20.8597,-0.0100093,0.324168,0.0,0.0
847,211.5,91.8481,100.209,125.029,99.7044,96.8441,0.00236274,0.117147,20.8609,0,0.281534,0.0,0.0
858,214.25,89.9815,97.67,128.184,99.745,97.1165,0.00246618,0.116455,20.862,-0.0100093,0.258302,0.0,0.0
869,217,88.3332,94.9064,129.034,99.7751,96.5789,0.00236005,0.11553,20.8623,-0.0100093,0.3149,0.0,0.0
880,219.75,87.54,93.3428,124.897,99.7954,96.4973,0.00233975,0.114937,20.8629,-0.0100093,0.325043,0.0,0.0
891,222.5,86.205,90.8345,123.542,99.8148,96.8035,0.0022699,0.114417,20.8642,-0.0100093,0.296297,0.0,0.0
902,225.25,84.3909,88.4496,122.409,99.8494,96.3914,0.00229695,0.114025,20.8646,0,0.340902,0.0,0.0
913,228,83.4302,87.0536,130.515,99.894,96.4681,0.00247402,0.113656,20.865,-0.0200186,0.337531,0.0,0.0
924,230.75,82.2814,85.3558,124.879,99.918,96.3236,0.00261991,0.113568,20.8644,-0.0100093,0.354352,0.0,0.0
935,233.5,81.3347,83.6038,124.097,99.9521,96.0702,0.00264233,0.113532,20.8638,0.0100093,0.383125,0.0,0.0
946,236.25,80.0575,81.767,125.597,99.9708,96.3236,0.00254111,0.113576,20.862,-0.0100093,0.35946,0.0,0.0
957,239,79.6,80.2675,127.117,99.9736,96.4762,0.00245617,0.113631,20.8614,-0.0300279,0.344418,0.0,0.0
968,241.75,78.0928,79.2267,127.052,100.011,97.1583,0.00233704,0.113544,20.8612,-0.0200186,0.279891,0.0,0.0
979,244.5,76.9713,78.1886,123.769,99.9959,97.0471,0.00222351,0.113598,20.8612,0.0200186,0.28952,0.0,0.0
990,247.25,76.2308,76.5578,129.157,100.004,96.9167,0.00219953,0.11358,20.8597,0.0100093,0.303263,0.0,0.0
1001,250,76.0276,75.4688,123.006,100.03,96.4027,0.0021856,0.113733,20.8591,-0.0300279,0.357209,0.0,0.0
1012,252.75,74.9162,75.0262,130.717,100.082,96.9212,0.00218865,0.114023,20.8592,-0.0200186,0.310394,0.0,0.0
1023,255.5,73.6214,73.2534,126.18,100.112,97.1193,0.00224943,0.11406,20.8601,0,0.293507,0.0,0.0
1034,258.25,73.7593,72.6112,130.827,100.13,97.2419,0.0022542,0.114055,20.859,-0.0100093,0.283068,0.0,0.0
1045,261,72.6423,71.538,127.194,100.171,96.5806,0.00228155,0.114079,20.86,-0.0300279,0.353076,0.0,0.0
1056,263.75,72.4805,71.0595,125.749,100.238,97.1295,,0.114012,,-0.0100093,0.304727,0.0,0.0
1067,266.5,71.4992,70.0254,124.781,100.33,96.7389,,,,0.0100093,0.352548,0.0,0.0
1078,269.25,70.7658,68.9164,127.12,100.408,97.3487,,,,-0.0100093,0.299282,0.0,0.0
1089,272,69.906,68.0975,126.776,100.493,97.1729,,,,-0.0300279,0.324975,0.0,0.0
1093,273,70.0277,68.1253,130.617,100.499,97.5923,,,,0.0100093,0.283906,0.0,0.0