File: 01_Data/PP/Cone/PP_Cone_HF50Scalar_220203_R1.csv
LABORATORY,FSRI
TEST IDENT,PP_HF50_1
OPERATOR,Dow
MATERIAL,polypropylene
ORIENTATION,Horizontal
HEAT FLUX,50
SURF AREA,0.01
C FACTOR,0.0415673
SPEC HOLDER DIFF,303.4
SPECIMEN MASS,28.6
SCAN TIME,0.25
O2 DELAY TIME,11
CO DELAY TIME,11
CO2 DELAY TIME,8
FLOW FACTOR,1
SCAN COUNT,1126
TIME TO IGN,34.5
END OF TEST SCAN,646
END OF TEST TIME,161.5
TEST STATUS,1
PRE TEST CMT,Dimensions: 99.31 x 99.98 x 3.04 mm