File: 01_Data/PP/Cone/PP_Cone_HF25Scalar_220203_R2.csv
LABORATORY,FSRI
TEST IDENT,PP_HF25_2
OPERATOR,Dow
MATERIAL,polypropylene
ORIENTATION,Horizontal
HEAT FLUX,25
SURF AREA,0.01
C FACTOR,0.0415673
SPEC HOLDER DIFF,303.2
SPECIMEN MASS,28.6
SCAN TIME,0.25
O2 DELAY TIME,11
CO DELAY TIME,11
CO2 DELAY TIME,8
FLOW FACTOR,1
SCAN COUNT,1798
TIME TO IGN,116.25
END OF TEST SCAN,1318
END OF TEST TIME,329.5
TEST STATUS,1
PRE TEST CMT,Dimensions: 100.07 x 99.10 x 2.99 mm