File: 01_Data/PET/STA/N2/30K_min/PET_STA_N2_30KData_210827_R1.csv
##Temp./Â°C,Time/min,Mass loss(subtr.2)/mg,DSC(subtr.2)/(mW/mg),Sensit./(uV/mW)
49.381,10.01,0.00625,-0.01236721,1.05401
51.881,11.54021,0.001106709,0.02421497,1.05405
54.381,11.88875,0.00285293,0.046671,1.05406
56.881,12.1428,0.002565857,0.06741776,1.05404
59.381,12.35597,0.00296202,0.07693573,1.05399
61.881,12.5449,0.00170167,0.08828948,1.05391
64.381,12.7198,0.001090314,0.09713293,1.0538
66.881,12.884,0.00204982,0.10662,1.05366
69.381,13.03975,0.002659257,0.12023,1.05349
71.881,13.18927,0.00195942,0.13061,1.05329
74.381,13.3338,0.002492598,0.1314,1.05307
76.881,13.4735,0.003191797,0.12714,1.05281
79.381,13.6082,0.001336022,0.12945,1.05252
81.881,13.73879,0.00319093,0.14745,1.0522
84.381,13.8659,0.001959155,0.16665,1.05186
86.881,13.9892,0.004956202,0.18166,1.05148
89.381,14.10861,0.00276875,0.19582,1.05108
91.881,14.2247,-0.01109581,0.20384,1.05065
94.381,14.3383,0.00194164,0.21695,1.05019
96.881,14.44878,0.00310199,0.2266,1.0497
99.381,14.557,0.00307893,0.23268,1.04919
101.881,14.6626,0.001477432,0.24152,1.04864
104.381,14.7664,0.002772232,0.24943,1.04807
106.881,14.86835,0.002495725,0.25619,1.04747
109.381,14.9683,0.002988008,0.26481,1.04685
111.881,15.0667,0.00200672,0.26926,1.0462
114.381,15.1638,0.00341002,0.27784,1.04552
116.881,15.2594,0.002419631,0.28438,1.04481
119.381,15.35369,0.00255646,0.29078,1.04408
121.881,15.4468,0.002649168,0.29711,1.04332
124.381,15.53839,0.00376793,0.30348,1.04254
126.881,15.6287,0.004084234,0.31042,1.04173
129.381,15.71845,0.002308596,0.31354,1.04089
131.881,15.8071,0.003830615,0.31877,1.04003
134.381,15.89429,0.004011388,0.32542,1.03915
136.881,15.98071,0.00396081,0.33052,1.03824
139.381,16.06626,0.003908055,0.33756,1.0373
141.881,16.15096,0.003279865,0.34602,1.03634
144.381,16.2348,0.002978399,0.35089,1.03536
146.881,16.31803,0.00248808,0.36156,1.03435
149.381,16.40042,0.00326954,0.3662,1.03332
151.881,16.48232,0.001117632,0.3725,1.03226
154.381,16.5635,0.002704613,0.37945,1.03118
156.881,16.64386,0.002974902,0.38915,1.03008
159.381,16.72399,0.003992645,0.39651,1.02895
161.881,16.80337,0.00330396,0.40411,1.0278
164.381,16.88253,-0.00437741,0.41008,1.02663
166.881,16.9609,0.01031131,0.41907,1.02543
169.381,17.03894,0.00230374,0.42393,1.02422
171.881,17.11652,0.002203814,0.43247,1.02298
174.381,17.19371,0.003620085,0.43773,1.02172
176.881,17.27047,0.00490351,0.4434,1.02044
179.381,17.3464,0.002606429,0.45056,1.01914
181.881,17.42205,0.003624277,0.45675,1.01781
184.381,17.49721,0.00362549,0.46663,1.01647
186.881,17.5719,0.00226888,0.47301,1.0151
189.381,17.64629,0.002411838,0.47953,1.01372
191.881,17.7205,0.002332522,0.48683,1.01231
194.381,17.79415,0.00361999,0.49408,1.01088
196.881,17.8675,0.003626443,0.50219,1.00944
199.381,17.9406,0.00233051,0.51221,1.00797
201.881,18.01315,0.003619903,0.52119,1.00649
204.381,18.08567,0.00408721,0.53028,1.00499
206.881,18.15767,0.00232399,0.53741,1.00346
209.381,18.22976,0.002310842,0.54242,1.00192
211.881,18.30165,0.003634947,0.55266,1.00037
214.381,18.37313,0.002712806,0.55896,0.99879
216.881,18.4445,0.001644971,0.56802,0.99719
219.381,18.5156,0.00165001,0.57599,0.99558
221.881,18.58652,0.00155337,0.58095,0.99395
224.381,18.65736,0.00297004,0.58591,0.99231
226.881,18.72795,0.00296016,0.59301,0.99064
229.381,18.79832,0.00296,0.60013,0.98896
231.881,18.8686,0.002960001,0.60635,0.98727
234.381,18.93853,0.002948395,0.61294,0.98556
236.881,19.00845,0.002971418,0.61951,0.98383
239.381,19.07834,0.00297035,0.62488,0.98208
241.881,19.14803,0.00389399,0.63371,0.98033
244.381,19.21755,0.002605108,0.64232,0.97855
246.881,19.2869,0.0013154,0.65059,0.97676
249.381,19.35625,0.001319965,0.65663,0.97496
251.881,19.42536,0.00272639,0.66412,0.97314
254.381,19.4943,0.00286327,0.67064,0.97131
256.881,19.56314,0.00263036,0.68049,0.96946
259.381,19.63195,0.001314639,0.68778,0.9676
261.881,19.7009,0.00132029,0.69407,0.96573
264.381,19.76965,0.002630436,0.70168,0.96384
266.881,19.83824,0.00263001,0.70822,0.96194
269.381,19.9067,0.0022501,0.71523,0.96003
271.881,19.97511,0.0013202,0.72409,0.95811
274.381,20.04353,0.002671737,0.73044,0.95617
276.881,20.1119,0.00336528,0.73494,0.95422
279.381,20.18027,0.002849354,0.74427,0.95226
281.881,20.24851,0.001528048,0.75202,0.95029
284.381,20.31682,0.00153,0.75777,0.94831
286.881,20.38494,0.00153871,0.76432,0.94631
289.381,20.4531,0.003230652,0.77203,0.94431
291.881,20.52148,0.002081538,0.77693,0.94229
294.381,20.58964,0.001860884,0.78442,0.94027
296.881,20.6578,0.002849483,0.79311,0.93823
299.381,20.72589,0.00284999,0.79811,0.93619
301.881,20.79417,0.002086824,0.80483,0.93413
304.381,20.86221,0.001507141,0.81459,0.93207
306.881,20.93026,0.002505949,0.8202,0.92999
309.381,20.99832,0.002850128,0.82599,0.92791
311.881,21.06656,0.002849978,0.83491,0.92582
314.381,21.13448,0.002195437,0.83999,0.92372
316.881,21.20259,0.00185998,0.84857,0.92162
319.381,21.27044,0.00186,0.85428,0.9195
321.881,21.33863,0.001861153,0.8649,0.91738
324.381,21.40695,0.003179426,0.8711,0.91525
326.881,21.4751,0.000816181,0.87788,0.91311
329.381,21.54331,0.000880007,0.88681,0.91097
331.881,21.61156,0.00088,0.89258,0.90882
334.381,21.67977,0.000879965,0.90148,0.90666
336.881,21.74811,0.002208685,0.90871,0.9045
339.381,21.81648,0.00219,0.91368,0.90233
341.881,21.8849,0.002166266,0.92387,0.90015
344.381,21.95339,0.0008797983,0.93091,0.89797
346.881,22.0218,0.002206479,0.94234,0.89579
349.381,22.09038,0.0007699447,0.94798,0.8936
351.881,22.1591,0.002083653,0.95912,0.8914
354.381,22.22769,0.0008091856,0.96592,0.8892
356.881,22.29644,0.0008211831,0.97858,0.88699
359.381,22.36536,-0.0005401964,0.98516,0.88478
361.881,22.43414,0.001474204,0.99419,0.88257
364.381,22.5031,0.001180098,1.00642,0.88035
366.881,22.5721,-0.001352729,1.02002,0.87813
369.381,22.64125,-0.001309997,1.03241,0.87591
371.881,22.71032,-0.00131,1.04667,0.87368
374.381,22.77964,-0.00130926,1.06529,0.87145
376.881,22.84894,-0.00263072,1.08195,0.86922
379.381,22.91848,-0.002631285,1.0987,0.86699
381.881,22.9879,-0.00525628,1.11821,0.86475
384.381,23.05735,-0.00738462,1.14321,0.86251
386.881,23.12708,-0.008741431,1.16297,0.86027
389.381,23.197,-0.007906561,1.19041,0.85803
391.881,23.2668,-0.01101298,1.21957,0.85578
394.381,23.33681,-0.01408235,1.2489,0.85354
396.881,23.40696,-0.01775502,1.29105,0.85129
399.381,23.4772,-0.02017677,1.32407,0.84904
401.881,23.54756,-0.02560931,1.37386,0.8468
404.381,23.61798,-0.03508118,1.44471,0.84455
406.881,23.6887,-0.04539552,1.52011,0.8423
409.381,23.75926,-0.0570978,1.60837,0.84005
411.881,23.82985,-0.07137887,1.71697,0.8378
414.381,23.9007,-0.08814673,1.83221,0.83555
416.881,23.9715,-0.10968,1.96811,0.83331
419.381,24.04233,-0.13817,2.14086,0.83106
421.881,24.11307,-0.17064,2.34261,0.82882
424.381,24.18439,-0.2112,2.56434,0.82657
426.881,24.2557,-0.26569,2.84996,0.82433
429.381,24.32703,-0.3286,3.20948,0.82209
431.881,24.39859,-0.4113,3.61405,0.81985
434.381,24.47043,-0.51524,4.06069,0.81761
436.881,24.54245,-0.64979,4.42606,0.81537
439.381,24.61449,-0.80728,4.72129,0.81314
441.881,24.6867,-0.99175,5.01616,0.81091
444.381,24.75931,-1.21118,5.1019,0.80868
446.881,24.83173,-1.43374,4.99202,0.80645
449.381,24.9044,-1.65578,4.69919,0.80423
451.881,24.9771,-1.87034,4.24995,0.80201
454.381,25.04975,-2.07087,3.74889,0.79979
456.881,25.1222,-2.24921,3.2775,0.79758
459.381,25.19465,-2.41106,2.84324,0.79536
461.881,25.26688,-2.55966,2.53709,0.79316
464.381,25.33928,-2.70417,2.28579,0.79096
466.881,25.41177,-2.83854,2.05458,0.78876
469.381,25.48431,-2.96303,1.81535,0.78656
471.881,25.55714,-3.0709,1.55669,0.78437
474.381,25.62979,-3.15792,1.27761,0.78219
476.881,25.7028,-3.22796,1.00004,0.78001
479.381,25.77621,-3.28317,0.74202,0.77783
481.881,25.84958,-3.3244,0.50525,0.77566
484.381,25.92298,-3.35963,0.29737,0.77349
486.881,25.99645,-3.38851,0.1095,0.77133
489.381,26.07026,-3.41078,-0.0688089,0.76917
491.881,26.14388,-3.42709,-0.19968,0.76702
494.381,26.218,-3.44055,-0.28253,0.76488
496.881,26.29222,-3.44996,-0.32587,0.76274
499.381,26.36662,-3.45567,-0.34928,0.76061
501.881,26.44102,-3.4592,-0.35978,0.75848
504.381,26.51575,-3.464,-0.36701,0.75636
506.881,26.5905,-3.46681,-0.37326,0.75424
509.381,26.6652,-3.46901,-0.37691,0.75213
511.881,26.73994,-3.47222,-0.37978,0.75003
514.381,26.815,-3.47352,-0.38688,0.74794
516.881,26.8903,-3.47354,-0.39165,0.74585
519.381,26.96555,-3.47608,-0.39436,0.74377
521.881,27.0408,-3.47748,-0.40306,0.74169
524.381,27.1162,-3.47879,-0.40627,0.73962
526.881,27.19175,-3.48091,-0.41305,0.73756
529.381,27.26707,-3.48344,-0.41952,0.73551
531.881,27.34295,-3.48606,-0.42547,0.73346
534.381,27.41903,-3.48954,-0.43696,0.73143
536.881,27.49492,-3.49122,-0.4373,0.7294
539.381,27.5709,-3.49365,-0.4402,0.72737
541.881,27.6469,-3.49062,-0.44703,0.72536
544.381,27.7232,-3.49024,-0.44892,0.72335
546.881,27.7995,-3.49163,-0.45193,0.72135
549.381,27.87603,-3.49197,-0.45869,0.71936
551.881,27.9524,-3.49432,-0.46043,0.71738
554.381,28.029,-3.49426,-0.46644,0.7154
556.881,28.1057,-3.49429,-0.47059,0.71343
559.381,28.1824,-3.49558,-0.47197,0.71148
561.881,28.25923,-3.49845,-0.47704,0.70953
564.381,28.33608,-3.49975,-0.47652,0.70758
566.881,28.41295,-3.49856,-0.48101,0.70565
569.381,28.4899,-3.50107,-0.48269,0.70373
571.881,28.56707,-3.50098,-0.48829,0.70181
574.381,28.64428,-3.50382,-0.49046,0.69991
576.881,28.72144,-3.50563,-0.49259,0.69801
579.381,28.79888,-3.50666,-0.49679,0.69612
581.881,28.87612,-3.50519,-0.50342,0.69424
584.381,28.9536,-3.50928,-0.50756,0.69237
586.881,29.03105,-3.5105,-0.50977,0.69051
589.381,29.1086,-3.51047,-0.51266,0.68866
591.881,29.1862,-3.51309,-0.52165,0.68682
594.381,29.26387,-3.51649,-0.52701,0.68498
596.881,29.3418,-3.51716,-0.53274,0.68316
599.381,29.41985,-3.51719,-0.53983,0.68134
601.881,29.4977,-3.51735,-0.54546,0.67954
604.381,29.5756,-3.51972,-0.55133,0.67774
606.881,29.65392,-3.51964,-0.55518,0.67596
609.381,29.73227,-3.5216,-0.56506,0.67418
611.881,29.8106,-3.52421,-0.56976,0.67241
614.381,29.8891,-3.52551,-0.58608,0.67066
616.881,29.9676,-3.52455,-0.59556,0.66891
617.881,29.99884,-3.52523,-0.59871,0.66821