File: 01_Data/PET/STA/N2/30K_min/PET_STA_N2_30KData_210830_R2.csv
##Temp./Â°C,Time/min,Mass loss(subtr.2)/mg,DSC(subtr.2)/(mW/mg),Sensit./(uV/mW)
48.804,10.01,-0.02786,0.03608536,1.05399
51.304,11.53123,-0.02839588,0.12066,1.05404
53.804,11.88332,-0.03082924,0.18013,1.05406
56.304,12.1383,-0.03082043,0.22726,1.05405
58.804,12.35262,-0.03005441,0.26017,1.05401
61.304,12.54268,-0.03002463,0.2929,1.05394
63.804,12.71752,-0.03001603,0.32114,1.05383
66.304,12.88141,-0.03076601,0.34669,1.0537
68.804,13.0375,-0.03129617,0.37339,1.05354
71.304,13.1874,-0.03047224,0.40068,1.05334
73.804,13.33131,-0.03237153,0.4189,1.05312
76.304,13.4709,-0.03181709,0.42757,1.05287
78.804,13.60612,-0.03172993,0.44391,1.05259
81.304,13.73724,-0.03109354,0.48504,1.05228
83.804,13.8643,-0.03258151,0.54681,1.05194
86.304,13.98755,-0.03165548,0.55212,1.05157
88.804,14.107,-0.03166551,0.51061,1.05118
91.304,14.2233,-0.03122461,0.48386,1.05075
93.804,14.3368,-0.03288853,0.47375,1.0503
96.304,14.4476,-0.03119437,0.4699,1.04982
98.804,14.55561,-0.03222311,0.47238,1.04931
101.304,14.6611,-0.03204955,0.45341,1.04877
103.804,14.76482,-0.03158951,0.46708,1.04821
106.304,14.86653,-0.03278501,0.47891,1.04762
108.804,14.9662,-0.03239685,0.49123,1.047
111.304,15.06512,-0.03152919,0.50229,1.04635
113.804,15.16211,-0.03212035,0.51149,1.04568
116.304,15.25775,-0.03231542,0.51936,1.04498
118.804,15.35232,-0.03291854,0.52858,1.04425
121.304,15.4454,-0.03262102,0.53597,1.0435
123.804,15.537,-0.03254545,0.55031,1.04272
126.304,15.62766,-0.0326609,0.55999,1.04192
128.804,15.71744,-0.03212595,0.57159,1.04109
131.304,15.8058,-0.03363947,0.58316,1.04023
133.804,15.89301,-0.03292149,0.602,1.03935
136.304,15.9794,-0.03257,0.61989,1.03845
138.804,16.065,-0.03112073,0.6495,1.03752
141.304,16.14976,-0.03390358,0.67045,1.03657
143.804,16.23349,-0.03329197,0.69549,1.03559
146.304,16.3167,-0.03400591,0.72117,1.03458
148.804,16.39915,-0.03390011,0.74662,1.03356
151.304,16.48089,-0.03389113,0.77034,1.03251
153.804,16.56212,-0.03389411,0.79501,1.03143
156.304,16.64272,-0.03399093,0.81672,1.03033
158.804,16.72267,-0.03387494,0.83702,1.02921
161.304,16.8022,-0.03389591,0.85577,1.02807
163.804,16.88111,-0.0339039,0.87639,1.0269
166.304,16.95951,-0.03351743,0.89629,1.02571
168.804,17.03752,-0.0329383,0.91738,1.0245
171.304,17.11523,-0.03395157,0.93934,1.02327
173.804,17.19228,-0.03356715,0.95782,1.02201
176.304,17.26906,-0.03384444,0.97488,1.02074
178.804,17.34525,-0.03387447,0.98973,1.01944
181.304,17.42101,-0.03389644,1.00851,1.01812
183.804,17.49614,-0.03411941,1.02161,1.01678
186.304,17.5709,-0.03515343,1.0368,1.01542
188.804,17.64526,-0.03388998,1.05673,1.01404
191.304,17.7192,-0.03480459,1.0724,1.01264
193.804,17.79278,-0.03521304,1.08896,1.01122
196.304,17.8663,-0.03524889,1.09934,1.00977
198.804,17.93929,-0.03521065,1.11717,1.00831
201.304,18.01194,-0.03516946,1.1293,1.00683
203.804,18.08447,-0.03521,1.14321,1.00534
206.304,18.1568,-0.03519569,1.15781,1.00382
208.804,18.2287,-0.03521187,1.16962,1.00228
211.304,18.30044,-0.03521014,1.18431,1.00073
213.804,18.37186,-0.03651914,1.19472,0.99915
216.304,18.44325,-0.0352077,1.20612,0.99756
218.804,18.51454,-0.03653367,1.21531,0.99596
221.304,18.58545,-0.03653053,1.22373,0.99433
223.804,18.65626,-0.03557517,1.23749,0.99269
226.304,18.72681,-0.03652575,1.24805,0.99103
228.804,18.79726,-0.035181,1.25693,0.98935
231.304,18.86746,-0.03615553,1.26818,0.98766
233.804,18.9376,-0.03619,1.27589,0.98595
236.304,19.00754,-0.03619012,1.2901,0.98423
238.804,19.07725,-0.03748889,1.29942,0.98249
241.304,19.14688,-0.03751004,1.30843,0.98073
243.804,19.21634,-0.03686673,1.32101,0.97896
246.304,19.28579,-0.03652997,1.32684,0.97718
248.804,19.35516,-0.03652996,1.33546,0.97538
251.304,19.42429,-0.03794609,1.34589,0.97356
253.804,19.49335,-0.03785045,1.35423,0.97173
256.304,19.56229,-0.03620231,1.36441,0.96989
258.804,19.63116,-0.03750559,1.37567,0.96803
261.304,19.69997,-0.03752,1.38435,0.96616
263.804,19.76855,-0.03751875,1.39121,0.96428
266.304,19.8371,-0.03689799,1.40174,0.96238
268.804,19.90586,-0.03751001,1.40877,0.96047
271.304,19.9744,-0.03728559,1.41475,0.95855
273.804,20.04279,-0.03620061,1.42441,0.95662
276.304,20.1112,-0.03750195,1.43085,0.95467
278.804,20.17944,-0.03552829,1.43816,0.95271
281.304,20.2477,-0.03554823,1.44856,0.95075
283.804,20.31588,-0.03586322,1.45474,0.94877
286.304,20.38424,-0.0371908,1.46139,0.94677
288.804,20.4523,-0.03654307,1.46776,0.94477
291.304,20.52037,-0.03750959,1.47391,0.94276
293.804,20.58857,-0.03751445,1.47917,0.94074
296.304,20.6567,-0.03619915,1.48394,0.9387
298.804,20.72477,-0.03752663,1.49093,0.93666
301.304,20.79293,-0.03752,1.49843,0.93461
303.804,20.86105,-0.03752002,1.5011,0.93254
306.304,20.92902,-0.03841206,1.50721,0.93047
308.804,20.99708,-0.03764786,1.5127,0.92839
311.304,21.065,-0.03751998,1.51689,0.92631
313.804,21.1332,-0.03752063,1.52431,0.92421
316.304,21.20123,-0.03882193,1.5278,0.9221
318.804,21.26914,-0.03883,1.53156,0.91999
321.304,21.3373,-0.03885349,1.53998,0.91787
323.804,21.40542,-0.04014027,1.54306,0.91574
326.304,21.4734,-0.03790284,1.55188,0.91361
328.804,21.54166,-0.03884109,1.55524,0.91146
331.304,21.60998,-0.03947849,1.55755,0.90931
333.804,21.67811,-0.04011795,1.56156,0.90716
336.304,21.74642,-0.03915961,1.56518,0.905
338.804,21.8148,-0.03916628,1.57126,0.90283
341.304,21.88315,-0.03981951,1.5743,0.90066
343.804,21.9515,-0.03982134,1.58297,0.89848
346.304,22.02008,-0.03981915,1.58752,0.89629
348.804,22.0886,-0.04113401,1.59553,0.8941
351.304,22.1573,-0.03981974,1.59856,0.89191
353.804,22.2258,-0.03979149,1.60666,0.88971
356.304,22.2945,-0.03882939,1.61281,0.8875
358.804,22.3633,-0.03987667,1.62099,0.88529
361.304,22.43225,-0.04113042,1.62806,0.88308
363.804,22.50124,-0.04112941,1.63948,0.88087
366.304,22.57024,-0.04145998,1.65136,0.87865
368.804,22.63948,-0.04278064,1.65981,0.87642
371.304,22.70857,-0.04403286,1.67039,0.8742
373.804,22.7778,-0.04541011,1.6852,0.87197
376.304,22.84711,-0.04411326,1.69697,0.86974
378.804,22.9165,-0.04408973,1.71483,0.8675
381.304,22.9862,-0.04544279,1.73196,0.86527
383.804,23.05579,-0.04663386,1.75247,0.86303
386.304,23.1254,-0.04832977,1.77557,0.86079
388.804,23.19516,-0.04883562,1.80752,0.85854
391.304,23.26526,-0.05123748,1.8441,0.8563
393.804,23.33509,-0.05430738,1.87457,0.85406
396.304,23.40522,-0.05860096,1.90287,0.85181
398.804,23.47547,-0.06371858,1.94021,0.84956
401.304,23.54577,-0.06956927,1.98492,0.84731
403.804,23.61618,-0.07656819,2.0543,0.84507
406.304,23.68674,-0.08583858,2.13586,0.84282
408.804,23.75724,-0.09777718,2.23004,0.84057
411.304,23.82787,-0.11102,2.34659,0.83832
413.804,23.89861,-0.12927,2.48351,0.83607
416.304,23.96966,-0.15093,2.63852,0.83383
418.804,24.04051,-0.17901,2.82966,0.83158
421.304,24.1115,-0.21198,3.07685,0.82933
423.804,24.18264,-0.2543,3.33755,0.82709
426.304,24.25389,-0.30599,3.57536,0.82485
428.804,24.3252,-0.36789,3.90801,0.8226
431.304,24.39695,-0.44544,4.16916,0.82036
433.804,24.46876,-0.53074,4.39718,0.81812
436.304,24.5407,-0.62937,4.61665,0.81589
438.804,24.61275,-0.74479,4.8073,0.81365
441.304,24.68489,-0.87514,4.96256,0.81142
443.804,24.75712,-1.02114,5.08962,0.80919
446.304,24.8295,-1.1747,5.06814,0.80696
448.804,24.9021,-1.33981,4.95806,0.80474
451.304,24.97466,-1.51006,4.7735,0.80252
453.804,25.0472,-1.68543,4.44635,0.8003
456.304,25.11973,-1.85396,3.9999,0.79809
458.804,25.19233,-2.00541,3.63222,0.79587
461.304,25.26491,-2.14741,3.25542,0.79367
463.804,25.33765,-2.27869,2.9197,0.79146
466.304,25.41038,-2.39931,2.63949,0.78926
468.804,25.4832,-2.51234,2.36744,0.78707
471.304,25.55588,-2.60656,2.1004,0.78488
473.804,25.6289,-2.6868,1.82253,0.78269
476.304,25.7022,-2.75184,1.54291,0.78051
478.804,25.77546,-2.80296,1.28189,0.77833
481.304,25.849,-2.84217,1.04726,0.77616
483.804,25.92276,-2.87328,0.84719,0.77399
486.304,25.99654,-2.89873,0.67927,0.77183
488.804,26.0704,-2.9192,0.54014,0.76967
491.304,26.1445,-2.93835,0.41672,0.76752
493.804,26.2184,-2.95135,0.31648,0.76537
496.304,26.29255,-2.96494,0.24424,0.76323
498.804,26.36685,-2.9744,0.19601,0.7611
501.304,26.4414,-2.98189,0.17409,0.75897
503.804,26.51588,-2.98732,0.16227,0.75685
506.304,26.59035,-2.99096,0.15887,0.75473
508.804,26.6653,-2.99621,0.15474,0.75262
511.304,26.7402,-2.99959,0.15563,0.75052
513.804,26.81516,-3.00387,0.14952,0.74842
516.304,26.89023,-3.00399,0.14277,0.74633
518.804,26.9656,-3.00771,0.12857,0.74425
521.304,27.04076,-3.01038,0.11942,0.74217
523.804,27.1162,-3.00772,0.11643,0.7401
526.304,27.19186,-3.00771,0.1149,0.73804
528.804,27.2675,-3.00905,0.10991,0.73598
531.304,27.3431,-3.01056,0.11491,0.73394
533.804,27.41903,-3.01178,0.11437,0.7319
536.304,27.495,-3.01308,0.1159,0.72986
538.804,27.5708,-3.01443,0.11959,0.72784
541.304,27.6469,-3.01702,0.11527,0.72582
543.804,27.7228,-3.01697,0.11886,0.72381
546.304,27.79907,-3.01834,0.11721,0.72181
548.804,27.8754,-3.01971,0.12206,0.71982
551.304,27.9517,-3.01966,0.12342,0.71783
553.804,28.0281,-3.02097,0.12837,0.71586
556.304,28.1046,-3.02227,0.12674,0.71389
558.804,28.1812,-3.02361,0.12365,0.71193
561.304,28.2579,-3.02493,0.12704,0.70997
563.804,28.33462,-3.02629,0.12666,0.70803
566.304,28.41152,-3.0263,0.12905,0.7061
568.804,28.4885,-3.0289,0.13123,0.70417
571.304,28.56555,-3.02887,0.1297,0.70225
573.804,28.64268,-3.03016,0.13092,0.70035
576.304,28.71984,-3.03151,0.13121,0.69845
578.804,28.7971,-3.03282,0.1343,0.69656
581.304,28.8744,-3.03422,0.13232,0.69467
583.804,28.95188,-3.03546,0.14246,0.6928
586.304,29.02937,-3.03542,0.13893,0.69094
588.804,29.10698,-3.03677,0.14148,0.68908
591.304,29.1847,-3.03677,0.13403,0.68724
593.804,29.2625,-3.0394,0.13469,0.6854
596.304,29.34024,-3.04071,0.12847,0.68358
598.804,29.4183,-3.04196,0.12698,0.68176
601.304,29.49638,-3.04198,0.11755,0.67995
603.804,29.5744,-3.04242,0.11585,0.67816
606.304,29.65255,-3.04369,0.11418,0.67637
608.804,29.73102,-3.04507,0.11033,0.67459
611.304,29.8095,-3.04632,0.10255,0.67282
613.804,29.8878,-3.04763,0.10174,0.67106
616.304,29.9662,-3.04763,0.09583207,0.66931
617.304,29.998,-3.04763,0.09372121,0.66862