File: 01_Data/Triexta_Carpet_High_Pile/STA/N2/10K_min/Triexta_Carpet_High_Pile_STA_N2_10KData_220110_R1.csv
##Temp./Â°C,Time/min,Mass loss(subtr.2)/mg,DSC(subtr.2)/(mW/mg),Sensit./(uV/mW)
49.442,10.01,0.02765,0.004292604,1.07446
52.442,11.28481,0.03303572,0.12525,1.07424
55.442,11.71909,0.02839079,0.1724,1.07401
58.442,12.08862,0.02954899,0.20014,1.07375
61.442,12.4321,0.03093818,0.21644,1.07347
64.442,12.76367,0.0349733,0.21894,1.07317
67.442,13.08952,0.03019834,0.22572,1.07285
70.442,13.4119,0.03100958,0.23124,1.07251
73.442,13.73015,0.03313,0.23696,1.07214
76.442,14.0455,0.03165815,0.24526,1.07176
79.442,14.35723,0.0340638,0.25036,1.07135
82.442,14.6664,0.02983963,0.25766,1.07093
85.442,14.97127,0.0381134,0.26243,1.07048
88.442,15.27506,0.03018018,0.26838,1.07001
91.442,15.57659,0.02885012,0.27305,1.06953
94.442,15.87684,0.0286301,0.27467,1.06902
97.442,16.1746,0.03445025,0.27953,1.06849
100.442,16.47149,0.03181966,0.28416,1.06794
103.442,16.7677,0.03434398,0.29153,1.06737
106.442,17.06258,0.03228331,0.29843,1.06678
109.442,17.3585,0.03027881,0.30344,1.06616
112.442,17.65277,0.03557493,0.30949,1.06553
115.442,17.94655,0.02701999,0.31452,1.06488
118.442,18.24015,0.03138,0.31725,1.06421
121.442,18.53301,0.03410985,0.32178,1.06352
124.442,18.8262,0.0270779,0.3301,1.0628
127.442,19.1182,0.02968535,0.3359,1.06207
130.442,19.40985,0.02973017,0.33824,1.06132
133.442,19.69965,0.03238165,0.34262,1.06055
136.442,19.9909,0.02513259,0.34691,1.05975
139.442,20.28058,0.03389667,0.35304,1.05894
142.442,20.56985,0.02720942,0.35723,1.05811
145.442,20.85961,0.02784466,0.363,1.05726
148.442,21.1483,0.02721081,0.36709,1.05638
151.442,21.43746,0.0245737,0.37385,1.05549
154.442,21.72618,0.02852,0.38282,1.05458
157.442,22.01339,0.02423709,0.3958,1.05365
160.442,22.303,0.02684583,0.40712,1.0527
163.442,22.5914,0.02402166,0.42621,1.05173
166.442,22.87956,0.02479043,0.44177,1.05074
169.442,23.16747,0.01986221,0.43708,1.04974
172.442,23.45531,0.02112342,0.42773,1.04871
175.442,23.7431,0.01985319,0.42528,1.04766
178.442,24.0304,0.02117185,0.43079,1.0466
181.442,24.31718,0.01844886,0.43786,1.04552
184.442,24.60515,0.0146001,0.45099,1.04441
187.442,24.89134,0.01465812,0.46068,1.04329
190.442,25.17868,0.01569,0.47433,1.04215
193.442,25.46612,0.0132556,0.48828,1.04099
196.442,25.75465,0.01130004,0.50467,1.03982
199.442,26.0423,0.007349994,0.52335,1.03862
202.442,26.3286,0.00603853,0.54321,1.03741
205.442,26.61625,0.00260354,0.57024,1.03617
208.442,26.9033,0.001106044,0.6002,1.03492
211.442,27.19125,-0.001429921,0.65113,1.03366
214.442,27.478,-0.005357636,0.7279,1.03237
217.442,27.7654,-0.00932043,0.74553,1.03106
220.442,28.05214,-0.01203818,0.76109,1.02974
223.442,28.33946,-0.01852872,0.86437,1.0284
226.442,28.62715,-0.02117,0.94879,1.02705
229.442,28.91415,-0.0266569,0.89639,1.02567
232.442,29.2016,-0.03224675,0.88617,1.02428
235.442,29.489,-0.04135136,0.91497,1.02287
238.442,29.77641,-0.04598405,0.98858,1.02144
241.442,30.06425,-0.05914341,1.08879,1.02
244.442,30.35213,-0.07087066,1.21168,1.01853
247.442,30.64081,-0.08119117,1.3545,1.01705
250.442,30.9296,-0.09696331,1.46213,1.01556
253.442,31.21847,-0.10998,1.49125,1.01405
256.442,31.50618,-0.12757,1.50024,1.01252
259.442,31.7938,-0.14317,1.48033,1.01097
262.442,32.0801,-0.16014,1.39337,1.00941
265.442,32.36616,-0.17143,1.21886,1.00783
268.442,32.6509,-0.18373,0.99472,1.00623
271.442,32.93521,-0.1898,0.80086,1.00462
274.442,33.2196,-0.19326,0.6782,1.003
277.442,33.50466,-0.19853,0.60114,1.00135
280.442,33.78992,-0.2038,0.5546,0.99969
283.442,34.07567,-0.2025,0.52234,0.99802
286.442,34.36169,-0.20899,0.5026,0.99633
289.442,34.6483,-0.21529,0.49016,0.99462
292.442,34.9356,-0.21198,0.48033,0.9929
295.442,35.22306,-0.21442,0.47386,0.99116
298.442,35.51119,-0.22145,0.46986,0.98941
301.442,35.79908,-0.21959,0.46612,0.98764
304.442,36.08742,-0.222,0.46327,0.98585
307.442,36.37535,-0.22226,0.46126,0.98406
310.442,36.66471,-0.22683,0.46125,0.98224
313.442,36.95316,-0.22278,0.46283,0.98041
316.442,37.24173,-0.23333,0.46389,0.97857
319.442,37.5304,-0.22967,0.46417,0.97671
322.442,37.81893,-0.23862,0.46717,0.97484
325.442,38.107,-0.24011,0.46636,0.97296
328.442,38.39529,-0.24246,0.47102,0.97106
331.442,38.68458,-0.24424,0.47061,0.96914
334.442,38.9737,-0.25041,0.47116,0.96721
337.442,39.26255,-0.25537,0.47125,0.96527
340.442,39.55322,-0.25357,0.47042,0.96331
343.442,39.84341,-0.26171,0.46942,0.96134
346.442,40.13475,-0.26516,0.47009,0.95936
349.442,40.42629,-0.28836,0.475,0.95736
352.442,40.71761,-0.28056,0.47918,0.95535
355.442,41.0084,-0.2903,0.48609,0.95333
358.442,41.30017,-0.30227,0.49716,0.95129
361.442,41.5912,-0.31799,0.50694,0.94924
364.442,41.88245,-0.33692,0.52193,0.94718
367.442,42.17411,-0.35267,0.5377,0.94511
370.442,42.46501,-0.37621,0.5522,0.94302
373.442,42.7573,-0.40954,0.57465,0.94092
376.442,43.04906,-0.44381,0.60218,0.9388
379.442,43.34122,-0.48639,0.62951,0.93668
382.442,43.6338,-0.54045,0.66648,0.93454
385.442,43.92666,-0.59272,0.70685,0.93239
388.442,44.21973,-0.6633,0.747,0.93023
391.442,44.5127,-0.74478,0.7962,0.92806
394.442,44.80573,-0.82896,0.84227,0.92587
397.442,45.0986,-0.92927,0.88301,0.92368
400.442,45.39147,-1.03703,0.9168,0.92147
403.442,45.6847,-1.14937,0.93057,0.91925
406.442,45.97853,-1.26649,0.91985,0.91702
409.442,46.2725,-1.38567,0.87971,0.91478
412.442,46.56629,-1.50136,0.81155,0.91253
415.442,46.8596,-1.60585,0.74758,0.91026
418.442,47.15307,-1.69606,0.69404,0.90799
421.442,47.44628,-1.78202,0.64404,0.9057
424.442,47.73937,-1.85943,0.59768,0.90341
427.442,48.03322,-1.92205,0.56465,0.9011
430.442,48.32687,-1.97987,0.53589,0.89879
433.442,48.62162,-2.03276,0.51867,0.89646
436.442,48.9161,-2.07561,0.49968,0.89413
439.442,49.21043,-2.10831,0.47883,0.89178
442.442,49.50482,-2.14342,0.45738,0.88942
445.442,49.79954,-2.17085,0.44239,0.88706
448.442,50.09369,-2.19643,0.42672,0.88468
451.442,50.38843,-2.22595,0.42066,0.8823
454.442,50.6826,-2.25147,0.40703,0.87991
457.442,50.97655,-2.28077,0.39713,0.8775
460.442,51.2712,-2.3042,0.38718,0.87509
463.442,51.56619,-2.32107,0.35627,0.87267
466.442,51.86248,-2.33366,0.32216,0.87024
469.442,52.15817,-2.34899,0.28964,0.8678
472.442,52.4543,-2.35671,0.26128,0.86536
475.442,52.7503,-2.36045,0.24053,0.8629
478.442,53.0463,-2.36855,0.22709,0.86044
481.442,53.3428,-2.37391,0.21762,0.85797
484.442,53.6401,-2.37656,0.21095,0.85549
487.442,53.9369,-2.3783,0.21079,0.853
490.442,54.2339,-2.38186,0.20181,0.8505
493.442,54.53114,-2.38502,0.19924,0.848
496.442,54.82826,-2.39153,0.19691,0.84549
499.442,55.12539,-2.39159,0.19373,0.84297
502.442,55.4223,-2.39586,0.19324,0.84045
505.442,55.71955,-2.39826,0.19313,0.83791
508.442,56.01673,-2.40333,0.19112,0.83537
511.442,56.31465,-2.40889,0.1923,0.83283
514.442,56.61226,-2.41007,0.18947,0.83027
517.442,56.90964,-2.41374,0.1883,0.82771
520.442,57.20714,-2.41391,0.18369,0.82515
523.442,57.50516,-2.42053,0.18434,0.82257
526.442,57.8033,-2.42274,0.18487,0.81999
529.442,58.10182,-2.42669,0.18306,0.81741
532.442,58.4003,-2.42943,0.18254,0.81481
535.442,58.6993,-2.43535,0.18267,0.81222
538.442,58.9983,-2.43838,0.18299,0.80961
541.442,59.297,-2.44468,0.18416,0.807
544.442,59.59535,-2.44995,0.18555,0.80439
547.442,59.8951,-2.45518,0.18862,0.80177
550.442,60.195,-2.46359,0.19397,0.79914
553.442,60.49505,-2.46497,0.19443,0.79651
556.442,60.7951,-2.47236,0.19747,0.79387
559.442,61.09471,-2.47778,0.19856,0.79123
562.442,61.39467,-2.48327,0.20387,0.78858
565.442,61.694,-2.49137,0.20866,0.78593
568.442,61.9927,-2.49591,0.21418,0.78327
571.442,62.29255,-2.50302,0.22093,0.78061
574.442,62.5924,-2.51358,0.22712,0.77795
577.442,62.8926,-2.51913,0.23793,0.77528
580.442,63.19251,-2.52817,0.25679,0.7726
583.442,63.4924,-2.53495,0.28119,0.76992
586.442,63.7927,-2.54916,0.3226,0.76724
589.442,64.0933,-2.56667,0.33641,0.76455
592.442,64.3942,-2.58108,0.32762,0.76186
595.442,64.69428,-2.59527,0.32456,0.75917
598.442,64.99452,-2.61971,0.32002,0.75647
601.442,65.29575,-2.63957,0.30752,0.75377
604.442,65.59645,-2.65567,0.28545,0.75107
607.442,65.89706,-2.67442,0.26472,0.74836
610.442,66.19819,-2.67994,0.24457,0.74565
613.442,66.49888,-2.68458,0.21846,0.74294
616.442,66.7996,-2.68815,0.21266,0.74022
619.442,67.10088,-2.69894,0.22013,0.7375
622.442,67.40175,-2.69777,0.23419,0.73478
625.442,67.70281,-2.70196,0.25221,0.73206
628.442,68.00426,-2.69478,0.27268,0.72933
631.442,68.30596,-2.71051,0.29112,0.7266
634.442,68.60804,-2.71318,0.30426,0.72387
637.442,68.91003,-2.71528,0.32031,0.72114
640.442,69.21217,-2.71994,0.33844,0.7184
643.442,69.51446,-2.71729,0.3474,0.71566
646.442,69.8178,-2.72951,0.36323,0.71292
649.442,70.1207,-2.73006,0.37769,0.71018
652.442,70.42255,-2.73328,0.39785,0.70744
655.442,70.7252,-2.73914,0.42265,0.7047
658.442,71.02767,-2.74592,0.44667,0.70195
661.442,71.33,-2.75136,0.4656,0.69921
664.442,71.63181,-2.7583,0.49602,0.69646
667.442,71.93409,-2.76258,0.52006,0.69371
670.442,72.23568,-2.77151,0.55024,0.69096
673.442,72.537,-2.77584,0.58807,0.68821
676.442,72.8386,-2.78225,0.61822,0.68546
679.442,73.14169,-2.79522,0.63616,0.68271
682.442,73.4448,-2.79918,0.63777,0.67996
685.442,73.74813,-2.80873,0.61325,0.6772
688.442,74.05131,-2.82285,0.53835,0.67445
691.442,74.35398,-2.82661,0.42309,0.6717
694.442,74.65581,-2.82859,0.22912,0.66894
697.442,74.95875,-2.82684,0.18429,0.66619
700.442,75.2611,-2.83076,0.17224,0.66344
703.442,75.5641,-2.83228,0.16697,0.66069
706.442,75.86716,-2.83273,0.16557,0.65793
709.442,76.17007,-2.83341,0.15983,0.65518
712.442,76.47329,-2.8344,0.15708,0.65243
715.442,76.77736,-2.83237,0.15387,0.64968
718.442,77.08064,-2.83165,0.14934,0.64693
721.442,77.38494,-2.8355,0.15082,0.64418
724.442,77.68889,-2.83505,0.14802,0.64143
727.442,77.9926,-2.8361,0.14733,0.63868
730.442,78.2963,-2.83441,0.14794,0.63593
733.442,78.59961,-2.83813,0.15178,0.63319
736.442,78.90375,-2.83824,0.14759,0.63044
739.442,79.2072,-2.83791,0.14309,0.6277
742.442,79.51017,-2.8369,0.14485,0.62496
745.442,79.81385,-2.84403,0.14474,0.62222
747.242,79.9936,-2.84273,0.14382,0.62057