File: 01_Data/Triexta_Carpet_High_Pile/STA/N2/10K_min/Triexta_Carpet_High_Pile_STA_N2_10KData_220110_R2.csv
##Temp./Â°C,Time/min,Mass loss(subtr.2)/mg,DSC(subtr.2)/(mW/mg),Sensit./(uV/mW)
49.306,10.00917,-0.03928,0.000706529,1.07447
52.606,11.3362,-0.04405742,0.1014,1.07423
55.906,11.7979,-0.04447216,0.14724,1.07397
59.206,12.1949,-0.04611973,0.16614,1.07368
62.506,12.56895,-0.04737687,0.17328,1.07337
65.806,12.93084,-0.05112027,0.17492,1.07303
69.106,13.2865,-0.05155873,0.18071,1.07266
72.406,13.6367,-0.05231194,0.18498,1.07227
75.706,13.9831,-0.05266052,0.1918,1.07185
79.006,14.32695,-0.05376816,0.19621,1.07141
82.306,14.6676,-0.05736859,0.20128,1.07095
85.606,15.0059,-0.0562654,0.20397,1.07046
88.906,15.3398,-0.05736814,0.21199,1.06994
92.206,15.67135,-0.06057175,0.21406,1.0694
95.506,16.00001,-0.05960956,0.21698,1.06883
98.806,16.32793,-0.06177063,0.21951,1.06824
102.106,16.65479,-0.06570663,0.22327,1.06762
105.406,16.98111,-0.06304493,0.22733,1.06698
108.706,17.30601,-0.06766352,0.23502,1.06632
112.006,17.6308,-0.06768,0.23765,1.06563
115.306,17.95407,-0.0676669,0.24188,1.06491
118.606,18.277,-0.06505323,0.24414,1.06417
121.906,18.59916,-0.06681,0.24647,1.06341
125.206,18.9205,-0.07340277,0.25237,1.06262
128.506,19.24129,-0.07339001,0.2573,1.06181
131.806,19.56229,-0.07569628,0.26138,1.06097
135.106,19.88212,-0.07339654,0.26591,1.06011
138.406,20.20104,-0.07675497,0.26941,1.05922
141.706,20.51865,-0.07557805,0.27576,1.05831
145.006,20.8366,-0.0768935,0.27794,1.05738
148.306,21.15407,-0.07926093,0.28566,1.05642
151.606,21.47168,-0.08180761,0.29225,1.05544
154.906,21.7895,-0.08183003,0.30279,1.05444
158.206,22.10656,-0.08446,0.31406,1.05341
161.506,22.42334,-0.08717862,0.33234,1.05236
164.806,22.7407,-0.08762414,0.34948,1.05129
168.106,23.0577,-0.09051474,0.35631,1.05019
171.406,23.3741,-0.09223831,0.34299,1.04907
174.706,23.69032,-0.09357,0.33651,1.04792
178.006,24.0069,-0.09719023,0.34178,1.04675
181.306,24.3226,-0.09609002,0.34818,1.04556
184.606,24.63922,-0.10003,0.35873,1.04435
187.906,24.95506,-0.10069,0.37278,1.04312
191.206,25.27081,-0.10269,0.38688,1.04186
194.506,25.58662,-0.10666,0.40391,1.04058
197.806,25.90159,-0.11056,0.42498,1.03927
201.106,26.21663,-0.11268,0.44606,1.03795
204.406,26.5315,-0.11583,0.47114,1.0366
207.706,26.84699,-0.12109,0.50225,1.03523
211.006,27.1628,-0.12246,0.55206,1.03384
214.306,27.4794,-0.12702,0.63147,1.03243
217.606,27.7956,-0.13401,0.65082,1.03099
220.906,28.1108,-0.14022,0.67107,1.02954
224.206,28.42616,-0.144,0.80635,1.02806
227.506,28.7424,-0.14611,0.83364,1.02656
230.806,29.0584,-0.15276,0.79117,1.02504
234.106,29.3742,-0.16398,0.80828,1.0235
237.406,29.6909,-0.16919,0.86863,1.02193
240.706,30.0083,-0.18416,0.97511,1.02035
244.006,30.32627,-0.19547,1.10177,1.01875
247.306,30.64463,-0.21159,1.25373,1.01712
250.606,30.9627,-0.22945,1.36191,1.01548
253.906,31.2808,-0.24576,1.38692,1.01381
257.206,31.5976,-0.26302,1.39028,1.01213
260.506,31.91248,-0.28425,1.34079,1.01042
263.806,32.22602,-0.30011,1.19733,1.00869
267.106,32.53867,-0.31146,0.94507,1.00695
270.406,32.8505,-0.31767,0.70181,1.00518
273.706,33.1624,-0.32674,0.54937,1.0034
277.006,33.47572,-0.33132,0.46694,1.00159
280.306,33.79027,-0.33671,0.42272,0.99977
283.606,34.10557,-0.33816,0.39681,0.99792
286.906,34.4214,-0.33937,0.38083,0.99606
290.206,34.73799,-0.34067,0.37255,0.99418
293.506,35.05487,-0.34634,0.36906,0.99228
296.806,35.37082,-0.34827,0.36426,0.99036
300.106,35.68672,-0.3509,0.36305,0.98843
303.406,36.00255,-0.35484,0.36009,0.98647
306.706,36.31882,-0.35714,0.35964,0.9845
310.006,36.63552,-0.35876,0.35484,0.98251
313.306,36.9529,-0.36253,0.35575,0.9805
316.606,37.2708,-0.36674,0.35227,0.97847
319.906,37.5891,-0.36867,0.35123,0.97643
323.206,37.90868,-0.36987,0.34768,0.97436
326.506,38.22782,-0.37669,0.34844,0.97228
329.806,38.54733,-0.37809,0.35108,0.97019
333.106,38.86546,-0.38318,0.35601,0.96807
336.406,39.18355,-0.38605,0.35878,0.96594
339.706,39.50142,-0.39342,0.36387,0.96379
343.006,39.82077,-0.3975,0.36118,0.96163
346.306,40.13988,-0.40292,0.36156,0.95945
349.606,40.45961,-0.41511,0.36144,0.95725
352.906,40.7798,-0.42046,0.3629,0.95504
356.206,41.10092,-0.43305,0.36713,0.95281
359.506,41.42242,-0.44614,0.37737,0.95057
362.806,41.74484,-0.46398,0.38766,0.94831
366.106,42.0663,-0.48809,0.40509,0.94603
369.406,42.38728,-0.5103,0.42319,0.94374
372.706,42.7076,-0.54277,0.4446,0.94143
376.006,43.0283,-0.58239,0.4713,0.93911
379.306,43.3493,-0.62864,0.49899,0.93678
382.606,43.67066,-0.68799,0.53618,0.93442
385.906,43.99279,-0.75289,0.57559,0.93206
389.206,44.31544,-0.83519,0.61789,0.92968
392.506,44.6383,-0.92895,0.66374,0.92728
395.806,44.96155,-1.0359,0.71178,0.92488
399.106,45.2844,-1.15145,0.74732,0.92245
402.406,45.607,-1.2755,0.76947,0.92002
405.706,45.92972,-1.40552,0.76975,0.91757
409.006,46.25199,-1.53773,0.73577,0.9151
412.306,46.57403,-1.66695,0.67064,0.91263
415.606,46.8965,-1.78058,0.60244,0.91014
418.906,47.21873,-1.88634,0.54162,0.90764
422.206,47.54096,-1.98084,0.49026,0.90512
425.506,47.86274,-2.05713,0.44624,0.90259
428.806,48.18581,-2.12951,0.41405,0.90005
432.106,48.5081,-2.18652,0.39192,0.8975
435.406,48.83162,-2.23892,0.36729,0.89493
438.706,49.1554,-2.2849,0.34614,0.89236
442.006,49.47961,-2.31609,0.32196,0.88977
445.306,49.80404,-2.34932,0.30718,0.88717
448.606,50.12836,-2.38385,0.29409,0.88455
451.906,50.4529,-2.41382,0.2832,0.88193
455.206,50.7774,-2.4464,0.27044,0.8793
458.506,51.10263,-2.47201,0.25472,0.87665
461.806,51.4275,-2.49217,0.228,0.87399
465.106,51.75238,-2.51356,0.19309,0.87132
468.406,52.07748,-2.53031,0.15923,0.86865
471.706,52.40402,-2.53864,0.12675,0.86596
475.006,52.73024,-2.54657,0.10242,0.86326
478.306,53.05607,-2.54984,0.08574981,0.86055
481.606,53.38211,-2.55449,0.07796596,0.85783
484.906,53.70796,-2.55844,0.0667729,0.8551
488.206,54.03379,-2.56353,0.06890555,0.85236
491.506,54.36009,-2.5666,0.06418134,0.84962
494.806,54.6862,-2.57141,0.06155102,0.84686
498.106,55.01256,-2.57369,0.05762148,0.84409
501.406,55.33961,-2.5784,0.05368395,0.84132
504.706,55.66649,-2.58196,0.05149045,0.83854
508.006,55.9938,-2.58622,0.04940965,0.83574
511.306,56.32198,-2.59189,0.04921778,0.83294
514.606,56.6499,-2.59473,0.04324388,0.83013
517.906,56.9783,-2.59605,0.04591725,0.82732
521.206,57.30656,-2.59885,0.04525618,0.82449
524.506,57.63426,-2.6049,0.04598462,0.82166
527.806,57.9617,-2.60801,0.04194294,0.81882
531.106,58.29016,-2.61266,0.04289832,0.81597
534.406,58.61874,-2.61624,0.03469663,0.81311
537.706,58.9478,-2.62018,0.03283835,0.81025
541.006,59.2773,-2.62491,0.03378678,0.80738
544.306,59.607,-2.63149,0.02904615,0.80451
547.606,59.93584,-2.63872,0.03056526,0.80162
550.906,60.26492,-2.64816,0.0290928,0.79873
554.206,60.59421,-2.65078,0.02815658,0.79584
557.506,60.9224,-2.65737,0.03289275,0.79293
560.806,61.25166,-2.66277,0.02957828,0.79003
564.106,61.58,-2.66808,0.03488618,0.78711
567.406,61.9091,-2.6781,0.04017022,0.78419
570.706,62.23871,-2.68601,0.03938003,0.78126
574.006,62.568,-2.69399,0.05026189,0.77833
577.306,62.8972,-2.70452,0.06208194,0.7754
580.606,63.2269,-2.71278,0.07797163,0.77246
583.906,63.5572,-2.72433,0.1086,0.76951
587.206,63.8882,-2.73764,0.13971,0.76656
590.506,64.21876,-2.75738,0.14036,0.7636
593.806,64.54975,-2.77722,0.12949,0.76064
597.106,64.88036,-2.79701,0.12253,0.75768
600.406,65.21078,-2.81977,0.10885,0.75471
603.706,65.54097,-2.84163,0.08417616,0.75173
607.006,65.872,-2.85754,0.05680113,0.74876
610.306,66.20314,-2.86873,0.0277869,0.74577
613.606,66.53381,-2.87066,0.02041944,0.74279
616.906,66.86417,-2.87623,0.02767438,0.7398
620.206,67.19544,-2.87718,0.03468142,0.73681
623.506,67.52627,-2.88627,0.05169525,0.73381
626.806,67.8574,-2.88782,0.07088132,0.73082
630.106,68.18895,-2.89012,0.0821334,0.72782
633.406,68.52068,-2.89407,0.0912398,0.72481
636.706,68.8519,-2.89675,0.1043,0.72181
640.006,69.18423,-2.90244,0.12342,0.7188
643.306,69.51567,-2.90587,0.1385,0.71579
646.606,69.84737,-2.90988,0.15926,0.71277
649.906,70.17916,-2.91744,0.17996,0.70976
653.206,70.51123,-2.91963,0.19632,0.70674
656.506,70.8437,-2.92757,0.21981,0.70372
659.806,71.17668,-2.93589,0.24127,0.7007
663.106,71.50961,-2.94341,0.26129,0.69768
666.406,71.8418,-2.94733,0.28915,0.69466
669.706,72.1745,-2.95436,0.31999,0.69164
673.006,72.50684,-2.9636,0.35531,0.68861
676.306,72.84022,-2.97313,0.38624,0.68558
679.606,73.17305,-2.98243,0.39917,0.68256
682.906,73.5056,-2.9885,0.3859,0.67953
686.206,73.83807,-2.99992,0.33503,0.6765
689.506,74.17125,-3.00572,0.24226,0.67347
692.806,74.5043,-3.01104,0.04721779,0.67045
696.106,74.83763,-3.01319,-0.02622323,0.66742
699.406,75.17048,-3.01484,-0.03898983,0.66439
702.706,75.50365,-3.01615,-0.04536738,0.66136
706.006,75.83609,-3.01663,-0.04743189,0.65833
709.306,76.1687,-3.01647,-0.05503858,0.6553
712.606,76.5018,-3.01649,-0.05708259,0.65228
715.906,76.83426,-3.02175,-0.05978644,0.64925
719.206,77.1673,-3.01775,-0.05979958,0.64623
722.506,77.5,-3.01906,-0.06477095,0.6432
725.806,77.83327,-3.02141,-0.06926953,0.64018
729.106,78.16636,-3.02208,-0.06892468,0.63716
732.406,78.49954,-3.02141,-0.07328931,0.63413
735.706,78.8341,-3.02341,-0.0773838,0.63111
739.006,79.16924,-3.02405,-0.07616239,0.6281
742.306,79.50397,-3.02405,-0.0800296,0.62508
745.606,79.8392,-3.02273,-0.08481774,0.62207
748.906,80.17361,-3.02367,-0.08604332,0.61905
752.206,80.50717,-3.02503,-0.08206287,0.61604
755.506,80.84062,-3.02471,-0.08612624,0.61303
758.806,81.17485,-3.02931,-0.08880476,0.61003
762.106,81.50912,-3.02537,-0.09067721,0.60702
765.406,81.84354,-3.02807,-0.09557014,0.60402
768.706,82.17771,-3.02452,-0.09869207,0.60102
772.006,82.5124,-3.02669,-0.09284201,0.59803
775.306,82.8464,-3.02536,-0.08986976,0.59504
778.606,83.18051,-3.02518,-0.09406405,0.59204
781.906,83.51468,-3.02947,-0.09162816,0.58906
785.206,83.84869,-3.02811,-0.09564452,0.58607
788.506,84.18209,-3.02947,-0.0964755,0.58309
791.806,84.51658,-3.02946,-0.09746808,0.58012
795.106,84.85082,-3.02856,-0.09683211,0.57714
796.506,84.993,-3.02975,-0.09457481,0.57588