File: 01_Data/Black_PMMA/HFM/Black_PMMA_Density_Wet_R1.csv
,Black_PMMA_WET_1
Sample Mass [g],408.0
Sample Volume [cm3],343.3
Sample Density [kg/m3],1188