File: 01_Data/Black_PMMA/HFM/Black_PMMA_Density_Wet_R3.csv
,Black_PMMA_WET_3
Sample Mass [g],410.2
Sample Volume [cm3],347.4
Sample Density [kg/m3],1181