File: 01_Data/Black_PMMA/HFM/Black_PMMA_Density_Wet_R2.csv
,Black_PMMA_WET_2
Sample Mass [g],406.7
Sample Volume [cm3],345.5
Sample Density [kg/m3],1177