File: 01_Data/Black_PMMA/HFM/Black_PMMA_Density_Dry_R2.csv
,Black_PMMA_DRY_2
Sample Mass [g],406.4
Sample Volume [cm3],345.5
Sample Density [kg/m3],1176