File: 01_Data/Black_PMMA/HFM/Black_PMMA_Density_Dry_R1.csv
,Black_PMMA_DRY_1
Sample Mass [g],407.1
Sample Volume [cm3],343.3
Sample Density [kg/m3],1186