File: 01_Data/Black_PMMA/HFM/Black_PMMA_Density_Dry_R3.csv
,Black_PMMA_DRY_3
Sample Mass [g],409.9
Sample Volume [cm3],347.4
Sample Density [kg/m3],1180