File: 01_Data/Pine_Lap_Siding_Paint/MCC/Pine_Lap_Siding_Paint_MCC_30K_min_211122_R3.txt
Sample ID:	C:\MCC\MCC Cal\Test\PineLap_SidingA_MCC_30K_min_211122_R3.txt
Sample Weight (mg):	4.83
Heating Rate (C/s):	0.5
Combustor Temp (C):	900
N2 Flow Rate (cc/min):	80
O2 Flow Rate (cc/min):	20
Calibration File:	C:\MCC\MCC Cal\Coeff1 JN10440_30_210304.txt.txt
T Correction Coefficients:	0	1.024463	0
Time Shift (s):	14
*
Time (s)	Temperature (C)	N2 flow rate (cc/min)	O2 flow rate (cc/min)	Flow Rate (cc/min)	Oxygen (%)	HRR (W/g)	Heating rate (C/s)
0.000	108.766	80.004	19.994	103.137	20.044	0.331	0.005
8.000	108.768	80.005	19.994	103.140	20.045	0.242	-0.002
16.000	108.715	80.004	19.996	103.139	20.042	0.469	-0.023
24.000	108.759	80.006	19.994	103.170	20.041	0.526	-0.014
32.000	109.031	80.007	19.995	103.251	20.024	1.649	0.056
40.001	109.579	80.006	19.996	103.225	20.019	2.006	0.084
48.000	110.384	80.008	19.995	103.273	20.008	2.681	0.127
56.000	111.527	80.008	19.994	103.299	20.005	2.923	0.184
64.000	113.086	80.008	19.994	103.362	19.998	3.354	0.226
72.000	115.096	80.005	19.995	103.396	19.993	3.689	0.261
80.000	117.506	80.005	19.995	103.383	19.994	3.632	0.288
88.000	120.167	80.005	19.995	103.373	19.994	3.659	0.357
96.000	123.195	80.006	19.993	103.373	19.989	3.973	0.375
104.000	126.433	80.005	19.995	103.415	19.991	3.828	0.395
112.000	129.859	80.003	19.995	103.413	19.991	3.875	0.447
120.000	133.523	80.007	19.994	103.406	19.993	3.709	0.464
128.000	137.210	80.005	19.995	103.405	19.988	4.071	0.470
136.000	141.099	80.006	19.995	103.472	19.992	3.801	0.410
144.000	145.081	80.007	19.995	103.386	19.988	4.037	0.495
152.000	149.068	80.005	19.994	103.398	19.990	3.939	0.498
160.000	153.117	80.004	19.995	103.392	19.991	3.843	0.508
168.000	157.135	80.005	19.994	103.371	19.988	4.051	0.481
176.000	161.234	80.005	19.994	103.371	19.990	3.938	0.555
184.000	165.232	80.005	19.995	103.360	19.989	3.955	0.499
192.000	169.292	80.005	19.997	103.367	19.996	3.527	0.551
200.000	173.214	80.006	19.995	103.355	19.991	3.818	0.486
208.000	177.202	80.005	19.996	103.343	19.994	3.648	0.492
216.000	181.109	80.007	19.995	103.331	19.992	3.783	0.484
224.000	185.082	80.009	19.994	103.330	19.993	3.692	0.489
232.000	188.963	80.006	19.996	103.331	19.994	3.677	0.508
240.000	192.832	80.003	19.995	103.327	19.990	3.934	0.483
248.000	196.675	80.006	19.995	103.331	19.989	3.988	0.502
256.000	200.582	80.005	19.994	103.321	19.988	4.029	0.484
264.000	204.490	80.006	19.995	103.326	19.989	3.969	0.506
272.000	208.444	80.005	19.995	103.339	19.992	3.803	0.504
280.001	212.403	80.007	19.994	103.330	19.991	3.853	0.503
288.000	216.379	80.007	19.995	103.320	19.991	3.861	0.473
296.000	220.328	80.006	19.994	103.327	19.990	3.908	0.496
304.000	224.289	80.006	19.995	103.316	19.992	3.788	0.520
312.000	228.264	80.007	19.995	103.298	19.994	3.633	0.551
320.000	232.288	80.005	19.995	103.299	19.986	4.162	0.456
328.000	236.237	80.003	19.994	103.297	19.984	4.347	0.469
336.000	240.238	80.005	19.995	103.331	19.986	4.206	0.472
344.000	244.234	80.005	19.993	103.307	19.986	4.184	0.484
352.000	248.225	80.006	19.995	103.292	19.984	4.313	0.457
360.000	252.307	80.006	19.994	103.293	19.984	4.338	0.498
368.000	256.280	80.007	19.994	103.283	19.983	4.362	0.725
376.000	260.165	80.006	19.994	103.288	19.980	4.568	0.465
384.000	264.054	80.005	19.995	103.295	19.982	4.444	0.489
392.000	267.902	80.009	19.994	103.290	19.984	4.289	0.465
400.000	271.799	80.006	19.995	103.283	19.982	4.451	0.489
408.000	275.596	80.005	19.995	103.288	19.983	4.398	0.454
416.000	279.509	80.006	19.994	103.289	19.984	4.340	0.500
424.000	283.423	80.005	19.996	103.291	19.979	4.670	0.494
432.000	287.385	80.005	19.996	103.287	19.975	4.927	0.490
440.000	291.432	80.005	19.995	103.292	19.977	4.762	0.483
448.000	295.511	80.007	19.994	103.291	19.978	4.694	0.506
456.000	299.584	80.006	19.994	103.288	19.974	4.998	0.495
464.000	303.742	80.005	19.994	103.296	19.977	4.772	0.558
472.000	307.887	80.007	19.995	103.272	19.973	5.050	0.531
480.000	312.074	80.007	19.993	103.290	19.966	5.495	0.550
488.000	316.160	80.006	19.995	103.281	19.962	5.757	0.530
496.000	320.210	80.004	19.995	103.285	19.956	6.186	0.514
504.000	324.312	80.005	19.995	103.293	19.946	6.815	0.519
512.000	328.287	80.005	19.994	103.264	19.937	7.447	0.487
520.000	332.254	80.002	19.995	103.293	19.929	7.950	0.500
528.000	336.227	80.005	19.996	103.287	19.919	8.652	0.459
536.000	340.185	80.006	19.994	103.269	19.923	8.390	0.492
544.000	344.068	80.007	19.994	103.283	19.917	8.761	0.485
552.000	348.101	80.007	19.995	103.272	19.922	8.430	0.489
560.000	352.188	80.007	19.995	103.269	19.923	8.403	0.539
568.000	356.358	80.005	19.994	103.282	19.922	8.429	0.515
576.000	360.485	80.007	19.995	103.279	19.921	8.534	0.493
584.000	364.678	80.005	19.994	103.283	19.924	8.344	0.522
592.000	368.833	80.004	19.994	103.276	19.919	8.626	0.548
600.000	373.023	80.004	19.995	103.280	19.911	9.156	0.569
608.000	377.209	80.005	19.994	103.251	19.902	9.775	0.561
616.000	381.327	80.004	19.995	103.268	19.882	11.143	0.518
624.000	385.338	80.006	19.995	103.256	19.870	11.932	0.512
632.000	389.349	80.007	19.994	103.246	19.850	13.251	0.497
640.000	393.442	80.008	19.994	103.262	19.828	14.718	0.522
648.000	397.418	80.006	19.994	103.251	19.799	16.640	0.509
656.000	401.347	80.006	19.995	103.252	19.778	18.031	0.509
664.000	405.233	80.007	19.994	103.257	19.765	18.939	0.476
672.000	409.206	80.007	19.994	103.249	19.758	19.414	0.537
680.000	413.162	80.004	19.995	103.241	19.765	18.908	0.530
688.000	417.114	80.005	19.995	103.251	19.776	18.182	0.541
696.000	421.135	80.007	19.995	103.292	19.814	15.615	0.505
704.000	425.213	80.008	19.996	103.258	19.839	13.966	0.536
712.000	429.248	80.005	19.994	103.250	19.867	12.104	0.506
720.000	433.362	80.008	19.995	103.251	19.892	10.443	0.491
728.000	437.496	80.008	19.995	103.243	19.910	9.272	0.520
736.000	441.496	80.006	19.995	103.261	19.913	9.021	0.484
744.000	445.542	80.006	19.996	103.252	19.920	8.569	0.517
752.000	449.545	80.006	19.995	103.244	19.926	8.158	0.538
760.000	453.538	80.006	19.994	103.251	19.928	8.079	0.493
768.000	457.685	80.006	19.995	103.254	19.928	8.036	0.532
776.000	461.777	80.007	19.995	103.258	19.926	8.164	0.493
784.000	465.892	80.008	19.995	103.252	19.928	8.064	0.536
792.000	470.017	80.007	19.996	103.256	19.942	7.098	0.546
800.000	474.182	80.008	19.994	103.244	19.943	7.037	0.524
808.000	478.349	80.008	19.995	103.232	19.947	6.784	0.509
816.000	482.440	80.007	19.995	103.223	19.955	6.262	0.495
824.000	486.518	80.006	19.994	103.251	19.960	5.901	0.540
832.000	490.631	80.005	19.994	103.232	19.959	5.971	0.521
840.000	494.706	80.006	19.995	103.248	19.970	5.237	0.518
848.000	498.835	80.005	19.995	103.236	19.975	4.903	0.539
856.000	502.907	80.005	19.994	103.247	19.978	4.703	0.538
864.000	507.041	80.008	19.994	103.221	19.975	4.909	0.512
872.000	511.188	80.006	19.995	103.247	19.987	4.127	0.514
880.000	515.368	80.007	19.996	103.246	19.987	4.095	0.527
888.000	519.504	80.009	19.994	103.250	19.989	3.982	0.553
896.000	523.648	80.006	19.995	103.214	19.987	4.112	0.517
904.000	527.773	80.006	19.996	103.227	19.993	3.688	0.526
912.000	531.891	80.006	19.994	103.229	19.989	3.983	0.515
920.000	536.020	80.006	19.994	103.260	19.996	3.530	0.523
928.000	540.068	80.005	19.994	103.220	19.994	3.658	0.512
936.000	544.122	80.006	19.995	103.228	19.987	4.090	0.495
944.000	548.202	80.006	19.993	103.228	19.990	3.916	0.510
952.000	552.222	80.007	19.994	103.217	19.993	3.736	0.478
960.000	556.279	80.007	19.994	103.241	19.988	4.042	0.482
968.000	560.318	80.008	19.996	103.252	19.993	3.736	0.524
976.000	564.342	80.006	19.995	103.232	19.994	3.630	0.517
984.000	568.464	80.007	19.995	103.229	19.994	3.637	0.506
992.000	572.529	80.006	19.995	103.246	19.997	3.457	0.511
1000.000	576.707	80.006	19.996	103.230	19.996	3.538	0.481
1008.000	580.826	80.006	19.994	103.242	19.997	3.417	0.492
1016.000	584.903	80.007	19.995	103.219	19.992	3.779	0.509
1024.000	588.943	80.007	19.995	103.218	19.992	3.751	0.505
1032.000	592.964	80.009	19.994	103.219	19.989	3.990	0.481
1040.001	597.129	80.006	19.993	103.259	19.990	3.918	0.492
1048.000	601.157	80.007	19.994	103.246	19.993	3.741	0.493
1056.000	605.252	80.009	19.993	103.236	19.994	3.646	0.542
1064.000	609.283	80.007	19.995	103.251	19.990	3.930	0.484
1072.001	613.323	80.006	19.995	103.233	19.995	3.559	0.496
1080.000	617.369	80.006	19.995	103.226	19.989	3.961	0.497
1088.001	621.370	80.006	19.995	103.248	19.990	3.920	0.496
1096.001	625.290	80.003	19.995	103.251	19.985	4.268	0.482
1104.000	629.296	80.006	19.994	103.248	19.989	3.947	0.509
1112.000	633.275	80.008	19.993	103.241	19.985	4.231	0.509
1120.000	637.286	80.006	19.994	103.233	19.989	3.993	0.527
1128.000	641.195	80.006	19.995	103.253	19.984	4.323	0.494
1136.000	645.163	80.009	19.994	103.262	19.985	4.230	0.498
1144.000	649.127	80.008	19.994	103.295	19.984	4.295	0.488
1152.000	653.246	80.006	19.994	103.265	19.984	4.313	0.518
1160.000	657.398	80.005	19.995	103.266	19.986	4.202	0.531
1168.000	661.521	80.006	19.995	103.271	19.982	4.475	0.511
1176.000	665.669	80.006	19.995	103.302	19.977	4.761	0.508
1184.000	669.838	80.004	19.995	103.306	19.979	4.655	0.551
1192.000	673.927	80.007	19.996	103.297	19.975	4.946	0.531
1200.000	677.975	80.006	19.995	103.305	19.973	5.074	0.507
1208.001	682.019	80.005	19.995	103.326	19.969	5.338	0.488
1216.000	686.031	80.009	19.996	103.363	19.969	5.338	0.493
1224.000	690.094	80.006	19.994	103.328	19.966	5.533	0.482
1232.000	694.165	80.006	19.994	103.338	19.965	5.566	0.518
1240.000	698.305	80.006	19.994	103.374	19.960	5.935	0.541
1248.000	702.357	80.005	19.994	103.376	19.961	5.883	0.539
1256.000	706.407	80.005	19.995	103.374	19.957	6.129	0.499
1264.000	710.555	80.007	19.995	103.430	19.957	6.133	0.524
1272.000	714.627	80.008	19.995	103.432	19.952	6.445	0.506
1280.000	718.671	80.006	19.996	103.445	19.951	6.541	0.485
1288.000	722.666	80.006	19.994	103.446	19.946	6.833	0.490
1296.000	726.619	80.006	19.994	103.487	19.942	7.104	0.477
1304.000	730.716	80.009	19.994	103.488	19.941	7.167	0.494
1312.000	734.663	80.005	19.994	103.506	19.940	7.286	0.472
1320.000	738.693	80.005	19.994	103.530	19.936	7.509	0.492
1328.001	742.712	80.006	19.994	103.515	19.933	7.702	0.518
1330.000	743.735	80.005	19.994	103.527	19.933	7.739	0.512