File: 01_Data/Pine_Lap_Siding_Paint/MCC/Pine_Lap_Siding_Paint_MCC_30K_min_211122_O2.txt
Sample ID:	C:\MCC\MCC Cal\Test\PineLap_SidingA_MCC_30K_min_211122_R2.txt
Sample Weight (mg):	4.84
Heating Rate (C/s):	0.5
Combustor Temp (C):	900
N2 Flow Rate (cc/min):	80
O2 Flow Rate (cc/min):	20
Calibration File:	C:\MCC\MCC Cal\Coeff1 JN10440_30_210304.txt.txt
T Correction Coefficients:	0	1.024463	0
Time Shift (s):	14
*
Time (s)	Temperature (C)	N2 flow rate (cc/min)	O2 flow rate (cc/min)	Flow Rate (cc/min)	Oxygen (%)	HRR (W/g)	Heating rate (C/s)
-0.001	106.661	80.009	19.994	103.129	20.009	-0.140	-0.024
8.000	106.683	80.006	19.995	103.125	20.014	-0.446	-0.023
16.000	106.707	80.009	19.991	103.140	20.009	-0.154	0.005
24.000	106.772	80.008	19.996	103.186	19.994	0.856	0.041
32.000	107.089	80.011	19.993	103.296	19.973	2.236	0.059
40.000	107.949	80.011	19.993	103.346	19.967	2.639	0.131
48.000	109.263	80.009	19.996	103.335	19.965	2.784	0.160
55.999	111.031	80.002	19.989	103.354	19.965	2.813	0.254
64.000	113.068	80.007	19.996	103.374	19.959	3.202	0.274
71.999	115.459	80.008	19.994	103.372	19.960	3.120	0.332
80.000	118.073	80.005	19.995	103.383	19.956	3.382	0.323
87.999	120.976	80.005	19.995	103.384	19.958	3.282	0.372
95.999	124.116	80.004	19.996	103.380	19.947	3.970	0.422
104.001	127.409	80.004	19.999	103.427	19.949	3.853	0.440
112.000	130.862	80.005	19.988	103.376	19.947	4.034	0.463
120.000	134.390	80.008	19.996	103.411	19.951	3.765	0.403
127.999	138.106	80.010	19.994	103.415	19.948	3.951	0.491
136.000	141.890	80.007	19.995	103.389	19.950	3.771	0.462
144.000	145.754	80.008	19.993	103.377	19.947	3.988	0.464
152.000	149.665	80.011	19.994	103.382	19.946	4.095	0.556
160.000	153.554	80.005	19.996	103.386	19.949	3.864	0.461
168.000	157.420	80.006	19.995	103.377	19.954	3.547	0.483
176.000	161.378	80.005	19.995	103.382	19.950	3.782	0.478
184.000	165.417	80.005	19.993	103.369	19.953	3.614	0.517
192.000	169.378	80.005	19.993	103.366	19.951	3.747	0.519
200.000	173.345	80.009	19.991	103.371	19.953	3.595	0.468
208.000	177.292	80.009	19.994	103.339	19.955	3.464	0.510
216.000	181.435	80.010	19.994	103.350	19.952	3.682	0.710
224.000	185.247	80.007	19.993	103.333	19.955	3.444	0.504
232.000	189.087	80.009	19.996	103.332	19.956	3.391	0.494
240.000	192.898	80.002	19.995	103.334	19.956	3.382	0.471
248.000	196.705	80.003	20.000	103.364	19.957	3.304	0.474
256.000	200.589	80.005	19.996	103.336	19.952	3.688	0.527
264.000	204.403	80.005	19.994	103.337	19.955	3.472	0.486
272.000	208.266	80.003	19.996	103.335	19.946	4.081	0.499
280.000	212.151	80.006	19.996	103.337	19.954	3.540	0.480
288.000	216.078	80.013	19.994	103.330	19.955	3.468	0.517
296.000	219.978	80.012	19.991	103.334	19.951	3.729	0.500
304.000	223.864	80.010	19.996	103.334	19.951	3.761	0.519
312.000	227.922	80.004	20.000	103.330	19.948	3.948	0.564
320.000	231.898	80.002	19.992	103.336	19.946	4.047	0.523
328.000	235.877	80.006	19.994	103.336	19.940	4.433	0.542
336.000	239.905	80.005	19.993	103.337	19.940	4.482	0.518
344.000	243.930	80.000	19.996	103.337	19.935	4.784	0.510
352.000	247.899	80.005	19.994	103.333	19.936	4.699	0.486
360.000	251.907	80.003	19.998	103.332	19.931	5.087	0.491
368.000	255.925	80.001	20.001	103.324	19.930	5.143	0.468
376.000	259.923	80.004	19.999	103.330	19.925	5.455	0.501
384.000	263.943	80.005	19.995	103.328	19.926	5.370	0.507
392.000	267.961	80.006	20.000	103.318	19.932	5.025	0.540
400.000	272.000	80.011	19.997	103.321	19.934	4.838	0.501
408.000	276.012	80.003	19.994	103.329	19.939	4.501	0.541
416.000	280.055	80.005	19.992	103.315	19.939	4.552	0.501
424.000	284.070	80.008	19.994	103.310	19.944	4.206	0.511
432.000	288.096	80.004	19.995	103.302	19.938	4.617	0.532
440.000	292.187	80.007	19.996	103.308	19.941	4.390	0.506
448.000	296.217	80.008	19.994	103.305	19.939	4.554	0.508
456.000	300.275	80.009	19.994	103.309	19.933	4.939	0.507
464.000	304.360	80.007	19.996	103.323	19.930	5.140	0.513
472.000	308.399	80.006	19.994	103.327	19.920	5.813	0.486
480.000	312.466	80.005	19.994	103.318	19.912	6.341	0.529
488.000	316.457	80.001	19.994	103.301	19.905	6.828	0.508
496.000	320.455	80.006	19.995	103.334	19.893	7.622	0.485
504.000	324.476	80.006	19.995	103.325	19.885	8.138	0.485
512.000	328.389	80.009	19.990	103.328	19.872	8.970	0.469
520.000	332.436	80.003	19.995	103.331	19.868	9.276	0.515
528.000	336.458	80.007	19.996	103.324	19.868	9.290	0.453
536.000	340.464	80.021	19.993	103.303	19.868	9.274	0.531
544.000	344.411	80.011	19.994	103.302	19.871	9.067	0.504
552.000	348.399	80.017	19.993	103.295	19.886	8.077	0.480
560.000	352.389	80.004	19.996	103.293	19.886	8.029	0.503
568.000	356.401	80.009	19.995	103.272	19.893	7.569	0.500
576.000	360.465	80.008	19.996	103.300	19.895	7.472	0.509
584.000	364.475	80.001	19.996	103.280	19.894	7.513	0.520
592.000	368.408	80.007	19.995	103.293	19.890	7.823	0.469
600.000	372.507	80.010	19.994	103.296	19.881	8.410	0.541
608.000	376.510	80.007	19.996	103.277	19.872	8.977	0.520
616.000	380.485	80.008	19.995	103.271	19.864	9.503	0.485
624.000	384.466	80.009	19.995	103.291	19.850	10.480	0.527
632.000	388.548	80.010	19.995	103.283	19.833	11.590	0.511
640.000	392.605	80.009	19.996	103.287	19.819	12.548	0.471
648.000	396.773	80.010	19.996	103.291	19.806	13.413	0.526
656.000	400.821	80.001	19.995	103.290	19.800	13.798	0.505
664.000	404.964	80.010	19.998	103.295	19.791	14.417	0.495
672.000	409.175	80.010	19.994	103.293	19.786	14.747	0.522
680.000	413.256	80.007	19.994	103.280	19.792	14.290	0.497
688.000	417.383	80.004	19.995	103.276	19.803	13.601	0.499
696.000	421.460	80.004	19.996	103.269	19.816	12.695	0.489
704.000	425.525	80.017	19.994	103.271	19.833	11.577	0.488
712.000	429.587	80.006	19.995	103.289	19.848	10.578	0.531
720.000	433.731	80.010	19.995	103.298	19.857	10.011	0.532
728.000	437.983	80.006	19.995	103.296	19.866	9.413	0.499
736.000	442.215	80.005	19.995	103.295	19.868	9.262	0.511
744.000	446.557	80.006	19.995	103.274	19.871	9.029	0.524
752.000	450.792	79.997	19.996	103.287	19.874	8.830	0.552
760.000	454.998	80.007	19.996	103.259	19.872	8.967	0.513
768.000	459.305	80.005	19.996	103.274	19.877	8.640	0.529
776.000	463.475	80.015	19.995	103.262	19.885	8.119	0.521
784.000	467.636	80.005	19.995	103.283	19.888	7.901	0.524
792.000	471.758	80.016	19.994	103.275	19.894	7.496	0.506
800.000	475.882	80.011	19.995	103.270	19.902	6.996	0.528
808.000	479.937	80.009	19.993	103.261	19.908	6.624	0.525
816.000	483.949	80.003	19.996	103.253	19.913	6.284	0.484
824.000	487.953	80.000	19.997	103.272	19.921	5.752	0.499
832.000	491.994	80.016	19.994	103.266	19.928	5.281	0.509
840.000	496.104	80.005	19.996	103.258	19.930	5.142	0.501
848.000	500.175	79.997	19.997	103.275	19.937	4.691	0.506
856.000	504.229	80.000	19.997	103.260	19.942	4.357	0.496
864.000	508.301	80.005	19.994	103.285	19.943	4.254	0.497
872.000	512.343	80.003	19.995	103.268	19.944	4.193	0.520
880.000	516.478	79.997	19.998	103.261	19.946	4.090	0.536
888.000	520.538	80.000	19.996	103.259	19.950	3.805	0.501
896.000	524.682	80.009	19.994	103.261	19.954	3.496	0.521
904.000	528.748	79.998	19.995	103.256	19.953	3.627	0.501
912.000	532.852	80.003	19.995	103.267	19.953	3.563	0.501
920.000	536.985	80.007	19.996	103.248	19.949	3.871	0.532
928.000	541.035	80.002	19.996	103.267	19.951	3.760	0.488
936.000	545.094	80.003	19.996	103.270	19.947	4.004	0.519
944.000	549.208	80.010	19.995	103.271	19.952	3.630	0.514
952.000	553.281	80.023	19.993	103.265	19.952	3.639	0.469
960.000	557.344	80.006	19.995	103.264	19.950	3.796	0.487
968.000	561.472	80.015	19.993	103.265	19.948	3.961	0.521
976.000	565.494	80.010	19.993	103.253	19.947	3.998	0.519
984.000	569.504	79.999	19.998	103.260	19.947	4.001	0.466
992.000	573.620	80.008	19.995	103.260	19.952	3.689	0.505
1000.000	577.777	80.005	19.994	103.269	19.951	3.747	0.546
1008.000	581.768	80.010	19.996	103.260	19.951	3.761	0.511
1016.000	585.891	80.006	19.996	103.260	19.951	3.736	0.526
1024.000	589.900	80.007	19.996	103.283	19.947	3.992	0.521
1031.999	593.928	80.005	19.997	103.265	19.948	3.916	0.508
1039.999	598.013	80.020	19.995	103.255	19.947	4.020	0.515
1047.999	602.009	80.004	19.996	103.258	19.950	3.777	0.457
1055.999	606.153	79.991	19.996	103.268	19.951	3.755	0.534
1063.999	610.181	80.006	19.995	103.265	19.949	3.867	0.478
1071.999	614.288	79.998	19.995	103.263	19.950	3.795	0.529
1079.999	618.365	80.016	19.994	103.272	19.952	3.647	0.484
1087.999	622.368	80.009	19.994	103.286	19.947	3.978	0.496
1096.000	626.397	80.006	19.994	103.288	19.949	3.862	0.494
1103.999	630.352	80.008	19.996	103.280	19.947	4.017	0.487
1112.000	634.344	80.005	19.994	103.297	19.946	4.040	0.487
1119.999	638.251	80.013	19.995	103.289	19.947	3.995	0.458
1128.000	642.136	80.003	19.997	103.300	19.943	4.243	0.495
1136.000	646.164	80.005	19.996	103.293	19.944	4.176	0.522
1143.999	650.186	80.005	19.995	103.318	19.937	4.633	0.534
1152.001	654.286	80.005	19.996	103.323	19.939	4.509	0.501
1159.999	658.391	80.002	19.995	103.332	19.935	4.775	0.538
1167.999	662.511	80.004	19.995	103.329	19.936	4.716	0.548
1175.999	666.628	80.009	19.994	103.337	19.932	5.004	0.533
1183.999	670.712	80.008	19.995	103.340	19.936	4.763	0.556
1192.000	674.748	79.991	19.996	103.353	19.930	5.113	0.503
1200.000	678.800	80.008	19.996	103.367	19.931	5.074	0.494
1208.000	682.788	80.016	19.994	103.359	19.931	5.077	0.513
1215.999	686.744	79.995	19.998	103.372	19.932	4.977	0.499
1223.999	690.632	80.007	19.996	103.378	19.928	5.253	0.468
1231.999	694.543	80.009	19.995	103.402	19.927	5.337	0.510
1239.999	698.350	80.007	19.994	103.418	19.928	5.261	0.469
1247.999	702.274	80.013	19.993	103.438	19.922	5.645	0.504
1255.999	706.281	80.003	19.994	103.433	19.915	6.127	0.507
1263.999	710.401	79.998	19.996	103.451	19.915	6.143	0.532
1271.999	714.703	80.010	19.995	103.469	19.911	6.433	0.560
1280.000	719.086	80.008	19.995	103.484	19.907	6.653	0.556
1288.000	723.421	80.012	19.995	103.506	19.902	6.981	0.572
1295.999	727.678	80.008	19.995	103.527	19.901	7.061	0.546
1303.999	731.882	80.007	19.995	103.538	19.902	6.992	0.540
1312.000	736.099	80.005	19.994	103.544	19.898	7.270	0.530
1320.000	740.212	80.007	19.995	103.569	19.895	7.507	0.469
1325.999	743.342	80.004	19.996	103.577	19.895	7.489	0.522