File: 01_Data/Cotton_Shirt/STA/N2/30K_min/Cotton_Shirt_STA_N2_30KData_21287_R2.csv
##Temp./Â°C,Time/min,DSC(subtr.2)/(mW/mg),Mass loss(subtr.2)/mg,Sensit./(uV/mW)
50.629,10.01,0.04382444,-0.0747,0.6235
53.529,11.55758,0.1366,-0.08051149,0.62347
56.429,11.907,0.20189,-0.08148016,0.62342
59.329,12.1603,0.25862,-0.08173906,0.62336
62.229,12.37191,0.30171,-0.08343532,0.62328
65.129,12.55988,0.34581,-0.08523839,0.6232
68.029,12.73258,0.38624,-0.08732667,0.6231
70.929,12.89516,0.42646,-0.08935896,0.62299
73.829,13.04931,0.46199,-0.09285177,0.62286
76.729,13.19865,0.50488,-0.0941971,0.62273
79.629,13.3436,0.54422,-0.09684425,0.62258
82.529,13.4841,0.57561,-0.09943869,0.62242
85.429,13.6219,0.61103,-0.10364,0.62225
88.329,13.75474,0.64149,-0.10639,0.62206
91.229,13.8841,0.67866,-0.10905,0.62186
94.129,14.01034,0.70356,-0.11432,0.62166
97.029,14.1338,0.72497,-0.11711,0.62143
99.929,14.25414,0.7427,-0.12254,0.6212
102.829,14.3719,0.75738,-0.12918,0.62096
105.729,14.4874,0.76322,-0.13063,0.6207
108.629,14.6006,0.76936,-0.13461,0.62043
111.529,14.712,0.7709,-0.13728,0.62015
114.429,14.8212,0.76362,-0.13985,0.61986
117.329,14.9285,0.75269,-0.14402,0.61956
120.229,15.0343,0.74019,-0.14667,0.61925
123.129,15.1381,0.73026,-0.14798,0.61892
126.029,15.2405,0.71261,-0.15027,0.61859
128.929,15.34155,0.7017,-0.15159,0.61824
131.829,15.44084,0.68655,-0.15162,0.61788
134.729,15.53909,0.6752,-0.15291,0.61751
137.629,15.6356,0.66081,-0.15456,0.61713
140.529,15.7314,0.6544,-0.1542,0.61674
143.429,15.8262,0.65122,-0.15554,0.61634
146.329,15.9202,0.64979,-0.15422,0.61593
149.229,16.01281,0.65435,-0.15554,0.61551
152.129,16.10484,0.66061,-0.1555,0.61507
155.029,16.19647,0.66461,-0.15655,0.61463
157.929,16.28718,0.6729,-0.15549,0.61418
160.829,16.37735,0.678,-0.15554,0.61371
163.729,16.46697,0.6911,-0.15686,0.61324
166.629,16.55603,0.69704,-0.15686,0.61275
169.529,16.64459,0.7089,-0.15682,0.61226
172.429,16.73268,0.72534,-0.15816,0.61175
175.329,16.82011,0.73312,-0.15817,0.61124
178.229,16.90711,0.74473,-0.15948,0.61072
181.129,16.99328,0.75062,-0.15817,0.61018
184.029,17.0793,0.76598,-0.15949,0.60964
186.929,17.16515,0.77688,-0.15949,0.60909
189.829,17.24996,0.78958,-0.15817,0.60853
192.729,17.3345,0.79593,-0.15875,0.60796
195.629,17.41849,0.80618,-0.1595,0.60738
198.529,17.50236,0.82071,-0.15949,0.60679
201.429,17.58587,0.82132,-0.16146,0.60619
204.329,17.669,0.83209,-0.16146,0.60558
207.229,17.75178,0.83688,-0.15947,0.60496
210.129,17.83432,0.84067,-0.16082,0.60434
213.029,17.91666,0.84431,-0.16212,0.6037
215.929,17.99865,0.84885,-0.16342,0.60306
218.829,18.0806,0.8579,-0.16212,0.60241
221.729,18.16218,0.85665,-0.16344,0.60175
224.629,18.24363,0.8594,-0.1634,0.60108
227.529,18.3247,0.86595,-0.16475,0.60041
230.429,18.4058,0.8704,-0.16375,0.59972
233.329,18.4867,0.87546,-0.16369,0.59903
236.229,18.56735,0.87726,-0.16637,0.59833
239.129,18.6478,0.88094,-0.16772,0.59762
242.029,18.72823,0.88078,-0.16774,0.59691
244.929,18.8084,0.8834,-0.16903,0.59619
247.829,18.88861,0.88088,-0.17034,0.59545
250.729,18.96855,0.88646,-0.17464,0.59472
253.629,19.04832,0.89093,-0.17606,0.59397
256.529,19.1278,0.89977,-0.17771,0.59322
259.429,19.20717,0.9003,-0.18063,0.59246
262.329,19.28705,0.90938,-0.1866,0.59169
265.229,19.36669,0.91873,-0.19083,0.59091
268.129,19.44604,0.91964,-0.19677,0.59013
271.029,19.5254,0.92973,-0.20163,0.58934
273.929,19.6047,0.94265,-0.20689,0.58855
276.829,19.68404,0.9575,-0.2159,0.58775
279.729,19.7633,0.96921,-0.2247,0.58694
282.629,19.8426,0.99032,-0.23452,0.58612
285.529,19.92182,1.00721,-0.24469,0.5853
288.429,20.0011,1.03019,-0.25726,0.58447
291.329,20.0805,1.05008,-0.26891,0.58364
294.229,20.15973,1.06771,-0.28249,0.5828
297.129,20.2391,1.09854,-0.29859,0.58195
300.029,20.3183,1.12049,-0.31302,0.5811
302.929,20.39759,1.14431,-0.33194,0.58024
305.829,20.47692,1.17376,-0.35325,0.57938
308.729,20.55632,1.2104,-0.37635,0.57851
311.629,20.63564,1.24616,-0.39962,0.57763
314.529,20.71483,1.28781,-0.42746,0.57675
317.429,20.79426,1.32542,-0.45728,0.57587
320.329,20.8737,1.35646,-0.49058,0.57498
323.229,20.95295,1.40607,-0.52671,0.57408
326.129,21.0325,1.46689,-0.56583,0.57318
329.029,21.11174,1.53969,-0.6108,0.57227
331.929,21.1911,1.62737,-0.66265,0.57136
334.829,21.2709,1.72539,-0.71684,0.57044
337.729,21.35046,1.83689,-0.77975,0.56952
340.629,21.4302,1.96936,-0.85021,0.5686
343.529,21.51022,2.14087,-0.93239,0.56767
346.429,21.5902,2.3365,-1.02434,0.56673
349.329,21.67009,2.58671,-1.12969,0.56579
352.229,21.7501,2.87661,-1.25209,0.56485
355.129,21.83052,3.21134,-1.39405,0.5639
358.029,21.91075,3.57329,-1.55576,0.56295
360.929,21.99129,3.93651,-1.74182,0.56199
363.829,22.0721,4.27358,-1.98004,0.56103
366.729,22.15341,4.54459,-2.19673,0.56007
369.629,22.23464,4.72142,-2.441,0.5591
372.529,22.31624,4.76334,-2.69337,0.55813
375.429,22.398,4.64666,-2.94284,0.55715
378.329,22.4799,4.364,-3.17968,0.55617
381.229,22.5616,3.90989,-3.39306,0.55519
384.129,22.64337,3.3323,-3.56715,0.55421
387.029,22.72502,2.69991,-3.71402,0.55322
389.929,22.80666,2.08992,-3.82277,0.55223
392.829,22.88843,1.55048,-3.90159,0.55123
395.729,22.9699,1.09346,-3.95666,0.55023
398.629,23.05143,0.73996,-3.99391,0.54923
401.529,23.1329,0.47934,-4.01678,0.54823
404.429,23.21474,0.31052,-4.03082,0.54722
407.329,23.29682,0.19754,-4.04003,0.54621
410.229,23.37903,0.14126,-4.04764,0.5452
413.129,23.46098,0.1642,-4.05234,0.54419
416.029,23.5432,0.18662,-4.05895,0.54317
418.929,23.62622,0.14642,-4.06314,0.54215
421.829,23.7094,0.10308,-4.06823,0.54113
424.729,23.793,0.06282501,-4.07109,0.54011
427.629,23.87675,0.02890525,-4.07631,0.53908
430.529,23.96047,-0.000886116,-4.07937,0.53806
433.429,24.04433,-0.00612064,-4.08415,0.53703
436.329,24.12852,-0.05938937,-4.0868,0.536
439.229,24.21255,-0.07068549,-4.09149,0.53496
442.129,24.2973,-0.0784756,-4.09524,0.53393
445.029,24.38181,-0.08356104,-4.09991,0.53289
447.929,24.46636,-0.09702018,-4.10219,0.53185
450.829,24.55135,-0.17007,-4.1054,0.53082
453.729,24.63641,-0.16561,-4.10793,0.52977
456.629,24.7217,-0.15468,-4.11322,0.52873
459.529,24.80677,-0.14707,-4.11482,0.52769
462.429,24.892,-0.18762,-4.11924,0.52665
465.329,24.97815,-0.18241,-4.12241,0.5256
468.229,25.06417,-0.17384,-4.12685,0.52455
471.129,25.14977,-0.21524,-4.13097,0.52351
474.029,25.23636,-0.19497,-4.13406,0.52246
476.929,25.32228,-0.19285,-4.13572,0.52141
479.829,25.4088,-0.21302,-4.13725,0.52036
482.729,25.49557,-0.20058,-4.14129,0.51931
485.629,25.5826,-0.21928,-4.14604,0.51826
488.529,25.66965,-0.2382,-4.14866,0.51721
491.429,25.75675,-0.22297,-4.15162,0.51616
494.329,25.84412,-0.231,-4.15593,0.5151
497.229,25.9316,-0.24811,-4.15818,0.51405
500.129,26.01915,-0.2468,-4.16153,0.513
503.029,26.10685,-0.24553,-4.16305,0.51195
505.929,26.19481,-0.2527,-4.16484,0.51089
508.829,26.28283,-0.26079,-4.16665,0.50984
511.729,26.37095,-0.26367,-4.16939,0.50879
514.629,26.4594,-0.27141,-4.17,0.50774
517.529,26.5477,-0.27226,-4.17212,0.50668
520.429,26.6366,-0.27647,-4.175,0.50563
523.329,26.72555,-0.28036,-4.1775,0.50458
526.229,26.81437,-0.28455,-4.17882,0.50353
529.129,26.90332,-0.28992,-4.1802,0.50248
532.029,26.99254,-0.29073,-4.18014,0.50142
534.929,27.08186,-0.28856,-4.18145,0.50037
537.829,27.17132,-0.28367,-4.18418,0.49933
540.729,27.2607,-0.27968,-4.18551,0.49828
543.629,27.35047,-0.27722,-4.18786,0.49723
546.529,27.44029,-0.27319,-4.18948,0.49618
549.429,27.5302,-0.27405,-4.19288,0.49513
552.329,27.62006,-0.27713,-4.19319,0.49409
555.229,27.70995,-0.27554,-4.19594,0.49304
558.129,27.8003,-0.27455,-4.19726,0.492
561.029,27.8906,-0.27544,-4.19723,0.49096
563.929,27.9809,-0.27127,-4.20003,0.48992
566.829,28.0714,-0.27017,-4.20132,0.48888
569.729,28.16207,-0.26922,-4.20278,0.48784
572.629,28.25286,-0.26726,-4.20527,0.4868
575.529,28.3437,-0.26618,-4.20657,0.48576
578.429,28.43465,-0.2592,-4.20789,0.48473
581.329,28.52573,-0.25913,-4.20921,0.48369
584.229,28.61679,-0.25485,-4.21005,0.48266
587.129,28.70826,-0.24987,-4.21154,0.48163
590.029,28.7996,-0.24177,-4.21283,0.4806
592.929,28.8911,-0.24047,-4.21356,0.47957
595.829,28.98266,-0.23061,-4.21664,0.47855
598.729,29.0744,-0.22572,-4.2182,0.47752
601.629,29.16599,-0.21997,-4.21692,0.4765
604.529,29.2583,-0.2099,-4.21841,0.47548
607.429,29.35042,-0.20547,-4.22084,0.47446
610.329,29.4423,-0.19983,-4.22075,0.47345
613.229,29.5345,-0.19923,-4.22106,0.47243
616.129,29.6269,-0.18594,-4.22217,0.47142
619.029,29.7193,-0.18518,-4.22342,0.47041
621.929,29.8118,-0.16572,-4.22445,0.4694
624.829,29.904,-0.16848,-4.22577,0.46839
627.729,29.99665,-0.16116,-4.22674,0.46739
630.629,30.08928,-0.15382,-4.22709,0.46638
633.529,30.18208,-0.14175,-4.22839,0.46538
636.429,30.27488,-0.13586,-4.22972,0.46439
639.329,30.36794,-0.13086,-4.22968,0.46339
642.229,30.4611,-0.12195,-4.23004,0.4624
645.129,30.55426,-0.11725,-4.23005,0.46141
648.029,30.6477,-0.11553,-4.23286,0.46042
650.929,30.74115,-0.10684,-4.2353,0.45943
653.829,30.83525,-0.09375424,-4.23531,0.45845
656.729,30.9291,-0.08887486,-4.23564,0.45747
659.629,31.0229,-0.07864539,-4.23833,0.45649
662.529,31.1169,-0.07378026,-4.23696,0.45551
665.429,31.2108,-0.06112694,-4.23826,0.45454
668.329,31.3049,-0.05331245,-4.23828,0.45357
671.229,31.39917,-0.04621251,-4.23824,0.4526
674.129,31.49342,-0.03739329,-4.23937,0.45163
677.029,31.5878,-0.0349573,-4.24083,0.45067
679.929,31.6822,-0.02606613,-4.24084,0.44971
682.829,31.7766,-0.01566578,-4.24223,0.44875
685.729,31.87128,-0.003896375,-4.24223,0.44779
688.629,31.96598,0.01032873,-4.24216,0.44684
691.529,32.06073,0.01913226,-4.24222,0.44589
694.429,32.15533,0.01890442,-4.24288,0.44495
697.329,32.25016,0.01589619,-4.24288,0.444
700.229,32.3452,0.02177023,-4.24419,0.44306
703.129,32.44034,0.01489585,-4.24452,0.44212
706.029,32.53537,0.00591147,-4.24485,0.44119
708.929,32.63046,-0.008719376,-4.24617,0.44026
711.829,32.7256,-0.02002834,-4.24748,0.43933
714.729,32.821,-0.02095501,-4.24748,0.4384
717.629,32.91632,-0.02535364,-4.24739,0.43748
720.529,33.01166,-0.03255479,-4.24892,0.43656
723.429,33.10705,-0.03118322,-4.24893,0.43564
726.329,33.20248,-0.02942937,-4.25023,0.43473
729.229,33.29865,-0.02323667,-4.25021,0.43381
730.229,33.33204,-0.01967311,-4.25023,0.4335