File: 01_Data/FDNY_LDF/Cone/FDNY_LDF_Cone_HF25Scan_220909_R1.csv
Names,Time,Stack TC,Smoke TC,Exh Press,Smoke Comp,Smoke Meas,CO Meter,CO2 Meter,O2 Meter,Sample Mass,Ext Coeff,Start Test,Flame Verif
Chan Gain,,500,500,1,1,1,1,1,1,1,1,1.0,1.0
Offset,,0,0,0.142519,0,0,0,0,0,0,0,0.0,0.0
Gain,,1,1,25.011,13.0826,14.7555,1,1,1,1.00088,1.03743,1.0,1.0
Units,sec,C,C,Pa,%,%,%,%,%,g,/m,,
Baseline,,44.6059,45.0516,137.95,100.723,108.577,0.00031747,0.0478855,20.9959,-443.69,-0.683248,,
22,5.25,42.2263,43.1589,135.707,100.159,107.534,0.000418055,0.0594587,20.9813,61.8845,-0.646589,0.0,0.0
44,10.75,42.4164,43.0033,136.589,99.981,107.386,4.95504e-05,0.0567387,20.986,61.8244,-0.6502,0.0,0.0
66,16.25,42.6876,43.0349,135.679,99.8385,106.649,0.000180348,0.0526566,20.9925,61.7544,-0.600537,0.0,0.0
88,21.75,42.5449,42.8558,136.209,99.773,105.826,0.000324737,0.0508917,20.9935,61.6543,-0.535957,0.0,0.0
110,27.25,43.0734,43.2311,137.97,99.7914,105.735,0.000427675,0.050336,20.9941,61.5742,-0.526456,0.0,0.0
132,32.75,43.1079,43.3731,139.098,99.8469,104.674,0.000797852,0.0503803,20.9939,61.4641,-0.429666,0.0,0.0
154,38.25,43.5619,43.7983,140.485,99.9763,104.447,0.00141173,0.0565823,20.9832,61.334,-0.398091,0.0,0.0
176,43.75,46.4114,44.7551,121.729,100.117,104.137,0.00181991,0.273982,20.7176,60.7335,-0.358275,0.0,1.0
198,49.25,50.5982,47.3004,123.907,100.25,103.978,0.00252014,0.366252,20.6238,60.143,-0.3323,0.0,0.0
220,54.75,54.1913,50.891,131.546,100.384,105.141,0.00236861,0.354265,20.6402,59.6025,-0.421325,0.0,0.0
242,60.25,56.3152,53.2104,129.501,100.548,105.426,0.00208053,0.327187,20.6762,59.1421,-0.431096,0.0,0.0
264,65.75,57.0319,54.5453,127.41,100.709,105.411,0.00191682,0.305196,20.7021,58.7017,-0.415262,0.0,0.0
286,71.25,58.044,55.8111,127.077,100.825,106.18,0.0018269,0.287945,20.7226,58.2513,-0.470931,0.0,0.0
308,76.75,57.9822,57.063,128.155,100.922,106.401,0.00171135,0.273469,20.7375,57.861,-0.481106,0.0,0.0
330,82.25,58.6235,57.5494,128.477,100.984,106.882,0.00188892,0.262442,20.7509,57.4206,-0.516603,0.0,0.0
352,87.75,58.6108,58.2449,130.69,101.049,107.517,0.00141962,0.252103,20.7624,57.0402,-0.564642,0.0,0.0
374,93.25,59.02,58.699,127.326,101.095,107.309,0.00121381,0.243766,20.7733,56.6299,-0.542844,0.0,0.0
396,98.75,58.8296,58.8819,130.783,101.134,107.571,0.00136521,0.234564,20.785,56.2696,-0.561557,0.0,0.0
418,104.25,57.684,59.1879,127.642,101.154,107.856,0.00173931,0.227551,20.7962,55.9192,-0.583771,0.0,0.0
440,109.75,58.0136,59.2201,128.168,101.159,108.184,0.00162516,0.22198,20.8022,55.5189,-0.610994,0.0,0.0
462,115.25,57.6877,59.4885,132.166,101.174,108.455,0.00137017,0.217395,20.8073,55.1486,-0.632404,0.0,0.0
484,120.75,57.8154,59.6742,129.557,101.196,108.07,0.00131059,0.211199,20.8135,54.7983,-0.598102,0.0,0.0
506,126.25,57.7387,59.7751,128.366,101.182,108.179,0.00155165,0.208788,20.8141,54.478,-0.608569,0.0,0.0
528,131.75,57.6104,59.5755,132.152,101.198,108.162,0.00143849,0.203273,20.8198,54.1277,-0.605654,0.0,0.0
550,137.25,57.398,59.5828,132.812,101.207,108.47,0.00161777,0.201121,20.8223,53.8074,-0.630708,0.0,0.0
572,142.75,57.0336,59.3324,131.798,101.215,108.394,0.0016275,0.19662,20.8267,53.4571,-0.623601,0.0,0.0
594,148.25,56.721,59.0265,132.704,101.25,108.553,0.00154853,0.193321,20.8323,53.1668,-0.633779,0.0,0.0
616,153.75,56.7177,58.6351,129.697,101.265,108.414,0.00151423,0.189123,20.8393,52.8666,-0.620817,0.0,0.0
638,159.25,55.9559,58.6004,129.672,101.278,108.689,0.00171798,0.186528,20.8404,52.5563,-0.642663,0.0,0.0
660,164.75,55.8959,58.7587,133.096,101.299,108.447,0.0017261,0.184493,20.8445,52.266,-0.620528,0.0,0.0
682,170.25,56.5078,58.07,131.776,101.301,108.567,0.00171849,0.184565,20.8437,51.9257,-0.630468,0.0,0.0
704,175.75,55.6723,58.1205,132.463,101.305,108.382,0.00168583,0.182598,20.8444,51.6054,-0.614508,0.0,0.0
726,181.25,55.3241,57.7984,132.682,101.324,108.373,0.0017584,0.183368,20.8447,51.3252,-0.611994,0.0,0.0
748,186.75,54.971,57.3653,134.433,101.294,108.546,0.00161226,0.182771,20.8454,50.9949,-0.62923,0.0,0.0
770,192.25,55.0024,57.76,136.076,101.25,108.327,0.0016027,0.184455,20.8432,50.7647,-0.614809,0.0,0.0
792,197.75,55.1577,57.4769,128.321,101.153,108.37,0.00117533,0.186228,20.8422,50.4544,-0.627127,0.0,0.0
814,203.25,55.1469,57.4856,130.858,101.013,107.888,0.00129489,0.188766,20.8392,50.1241,-0.599267,0.0,0.0
836,208.75,55.3831,57.222,134.207,100.837,107.965,0.00120474,0.1933,20.8333,49.8239,-0.621599,0.0,0.0
858,214.25,55.5667,57.4965,129.029,100.67,107.868,0.0010146,0.197572,20.829,49.5136,-0.628469,0.0,0.0
880,219.75,55.1445,57.4382,126.079,100.55,107.507,0.000860468,0.202463,20.8232,49.2534,-0.608896,0.0,0.0
902,225.25,55.8619,57.6731,130.961,100.467,107.166,0.00165502,0.211363,20.8118,49.0132,-0.58744,0.0,0.0
924,230.75,55.9553,58.0637,129.22,100.404,107.454,0.00161991,0.216969,20.8061,48.6629,-0.617521,0.0,0.0
946,236.25,56.4752,58.0165,135.156,100.551,107.299,0.00179887,0.225386,20.7962,48.3926,-0.591086,0.0,0.0
968,241.75,57.4869,58.5117,125.843,100.669,106.822,0.00133393,0.234592,20.7856,48.0623,-0.539896,0.0,0.0
990,247.25,57.5553,59.0011,131.764,100.751,107.634,0.00133841,0.242206,20.7756,47.722,-0.601407,0.0,0.0
1012,252.75,58.1538,59.454,132.739,100.751,106.778,0.00153054,0.251874,20.7629,47.3417,-0.528706,0.0,0.0
1034,258.25,58.5244,59.9496,130.209,100.7,107.019,0.00146223,0.259285,20.7554,46.9914,-0.553796,0.0,0.0
1056,263.75,58.7084,60.5702,129.268,100.627,106.624,0.00135226,0.265507,20.7472,46.581,-0.526796,0.0,0.0
1078,269.25,59.8842,61.1081,131.956,100.485,106.621,0.00142564,0.270883,20.7418,46.2207,-0.539352,0.0,0.0
1100,274.75,60.1935,61.7224,129.115,100.341,106.109,0.00164529,0.277375,20.7335,45.8304,-0.508608,0.0,0.0
1122,280.25,60.5209,62.1521,126.736,100.093,105.897,0.00159853,0.285937,20.7232,45.47,-0.512951,0.0,0.0
1144,285.75,61.3612,62.4749,130.734,100.135,105.686,0.00159752,0.292314,20.7149,44.9596,-0.490938,0.0,0.0
1166,291.25,62.1584,62.8147,128.264,100.288,105.518,0.001873,0.301998,20.7025,44.5592,-0.462618,0.0,0.0
1188,296.75,62.771,63.4611,126.533,100.475,104.966,0.00191405,0.312911,20.6901,44.1189,-0.397978,0.0,0.0
1210,302.25,63.2063,64.3792,128.019,100.62,104.536,0.00244868,0.320439,20.6802,43.7385,-0.347464,0.0,0.0
1232,307.75,63.8753,64.7058,127.844,100.74,105.302,0.00252733,0.325591,20.6755,43.2681,-0.403001,0.0,0.0
1254,313.25,64.3531,65.4329,132.768,100.811,103.81,0.00271056,0.328262,20.6715,42.8177,-0.266806,0.0,0.0
1276,318.75,64.1729,66.0305,132.314,100.801,103.425,0.00241764,0.325028,20.6756,42.3673,-0.233857,0.0,0.0
1298,324.25,64.5926,66.2509,129.246,100.739,103.904,0.00237203,0.316786,20.6825,41.8869,-0.281542,0.0,0.0
1320,329.75,64.6606,66.1927,127.76,100.602,103.108,0.00223849,0.302098,20.698,41.4965,-0.223849,0.0,0.0
1342,335.25,64.1068,66.4765,127.314,100.402,102.357,0.00351205,0.291102,20.7062,41.1562,-0.175501,0.0,0.0
1364,340.75,64.0293,66.1246,130.329,100.171,105.415,0.00689669,0.28579,20.7056,40.6558,-0.464303,0.0,0.0
1386,346.25,63.7402,66.0972,125.635,99.9531,102.064,0.0101553,0.322254,20.655,40.2454,-0.190207,0.0,0.0
1408,351.75,63.7196,66.4386,128.041,99.7307,106.066,0.011201,0.317921,20.6472,39.8451,-0.560434,0.0,0.0
1430,357.25,61.9685,65.2884,134.876,99.6121,106.833,0.0134022,0.251779,20.7259,39.6349,-0.636897,0.0,0.0
1452,362.75,59.9859,64.0694,134.929,99.5858,107.009,0.0165147,0.202065,20.7927,39.4648,-0.654252,0.0,0.0
1474,368.25,58.0763,62.9597,133.898,99.6736,106.709,0.0174274,0.185868,20.8149,39.3346,-0.620689,0.0,0.0
1496,373.75,57.5693,61.6108,134.409,99.8824,107.155,0.0169688,0.178828,20.8251,39.2245,-0.639621,0.0,0.0
1518,379.25,55.6227,60.4422,133.108,100.14,107.435,0.0165894,0.176062,20.8276,39.1345,-0.639905,0.0,0.0
1540,384.75,54.2835,58.9773,134.477,100.455,107.658,0.0159182,0.169126,20.8398,39.0144,-0.630186,0.0,0.0
1562,390.25,53.5316,57.921,130.916,100.763,107.974,0.0159374,0.167943,20.8426,38.9243,-0.628951,0.0,0.0
1584,395.75,52.7168,57.1081,135.482,101.017,108.435,0.0159461,0.162931,20.8486,38.8242,-0.644864,0.0,0.0
1606,401.25,50.0097,54.5395,137.534,101.154,108.303,0.0162738,0.161474,20.8511,38.7041,-0.621458,0.0,0.0
1628,406.75,49.4859,53.8982,135.763,101.191,108.506,0.0167326,0.159048,20.855,38.624,-0.635129,0.0,0.0
1650,412.25,49.6783,52.6031,137.722,101.133,108.568,0.0171503,0.155772,20.8589,38.5139,-0.645585,0.0,0.0
1672,417.75,48.7997,52.3514,139.021,100.952,108.373,0.0174325,0.152802,20.8605,38.4338,-0.645551,0.0,0.0
1694,423.25,48.6002,51.6196,136.544,100.73,108.057,0.017415,0.1526,20.8613,38.3538,-0.638963,0.0,0.0
1716,428.75,48.0006,51.3927,137.856,100.477,107.572,0.0172932,0.151237,20.8644,38.2637,-0.620924,0.0,0.0
1738,434.25,48.1576,50.2005,135.059,100.286,107.63,0.0165488,0.146487,20.8695,38.2137,-0.643138,0.0,0.0
1760,439.75,47.6363,50.3492,132.944,100.488,107.611,0.0165967,0.146285,20.8702,38.0835,-0.623227,0.0,0.0
1782,445.25,47.2853,49.7569,132.394,100.643,108.055,0.0162245,0.142742,20.8737,37.9434,-0.646641,0.0,0.0
1804,450.75,47.006,49.6362,134.212,100.657,107.883,0.0162683,0.143078,20.8737,37.9234,-0.630878,0.0,0.0
1826,456.25,46.7405,49.0493,135.325,100.497,107.474,0.015649,0.140975,20.8778,37.8433,-0.610846,0.0,0.0
1848,461.75,46.6033,48.5842,134.413,100.252,107.37,0.0150162,0.136816,20.8844,37.7232,-0.624259,0.0,0.0
1870,467.25,46.5509,48.6375,135.497,99.9248,106.892,0.0153074,0.136726,20.8841,37.6732,-0.613405,0.0,0.0
1892,472.75,46.3325,48.3171,133.549,100.034,107.06,0.0147903,0.135892,20.8832,37.6031,-0.617736,0.0,0.0
1914,478.25,46.1066,48.206,137.244,100.233,107.419,0.0140425,0.131937,20.8856,37.5331,-0.630086,0.0,0.0
1936,483.75,46.023,47.8244,135.514,100.41,107.671,0.0139809,0.131393,20.888,37.443,-0.635416,0.0,0.0
1958,489.25,46.1012,47.7142,133.738,100.563,107.652,0.0137251,0.12835,20.8927,37.3829,-0.619893,0.0,0.0
1980,494.75,45.8685,47.5254,136.781,100.647,107.428,0.0130866,0.12639,20.897,37.3229,-0.593337,0.0,0.0
2002,500.25,45.383,46.9697,134.509,100.659,107.754,0.0121949,0.1211,20.9044,37.2428,-0.619827,0.0,0.0
2024,505.75,45.5212,47.0414,135.63,100.603,107.9,0.0119134,0.117939,20.9087,37.2128,-0.637231,0.0,0.0
2046,511.25,45.619,46.3914,134.497,100.475,107.782,,,,37.1527,-0.638914,0.0,0.0
2068,516.75,45.1838,46.2688,136.732,100.312,106.832,,,,37.1027,-0.573027,0.0,0.0
2074,518.25,45.0227,46.6537,136.287,100.264,107.413,,,,37.0827,-0.626835,0.0,0.0