File: 01_Data/FDNY_LDF/Cone/FDNY_LDF_Cone_HF50Scan_220913_R3.csv
Names,Time,Stack TC,Smoke TC,Exh Press,Smoke Comp,Smoke Meas,CO Meter,CO2 Meter,O2 Meter,Sample Mass,Ext Coeff,Start Test,Flame Verif
Chan Gain,,500,500,1,1,1,1,1,1,1,1,1.0,1.0
Offset,,0,0,0.139139,0,0,0,0,0,0,0,0.0,0.0
Gain,,1,1,25.011,13.0826,14.7555,1,1,1,1.00088,1.03743,1.0,1.0
Units,sec,C,C,Pa,%,%,%,%,%,g,/m,,
Baseline,,51.7087,53.1017,137.478,98.3966,100.185,0.00073906,0.0500585,20.9823,-445.838,-0.163831,,
23,5.5,50.1058,51.004,133.445,98.2136,99.6402,0.00181054,0.0801984,20.9276,79.5901,-0.131243,0.0,0.0
46,11.25,53.4716,51.9866,120.245,98.1106,98.5447,0.00324846,0.304297,20.6601,78.9395,-0.0401761,0.0,1.0
69,17,58.8609,56.7926,122.665,98.0036,97.4955,0.00394466,0.410793,20.5516,78.2089,0.0473039,0.0,0.0
92,22.75,63.0156,60.333,123.507,97.9457,96.7367,0.00407905,0.422958,20.5463,77.5783,0.113027,0.0,0.0
115,28.5,65.7926,63.1633,122.196,97.8283,96.5764,0.00409612,0.415603,20.5558,76.9277,0.117207,0.0,0.0
138,34.25,67.7079,65.7294,125.397,97.7365,97.0992,0.00415587,0.401853,20.5764,76.2371,0.0595318,0.0,0.0
161,40,69.2394,68.2197,124.399,97.6299,96.8304,0.00384474,0.387718,20.594,75.5565,0.0748308,0.0,0.0
184,45.75,70.765,69.3667,126.558,97.5552,97.5639,0.00372576,0.373878,20.6091,74.966,-0.000811497,0.0,0.0
207,51.5,71.0263,70.7887,126.302,97.4622,97.4797,0.00363587,0.36072,20.6267,74.4356,-0.00163554,0.0,0.0
230,57.25,71.8447,71.712,126.831,97.4087,97.6922,0.00372197,0.347205,20.6412,73.8651,-0.0264521,0.0,0.0
253,63,71.63,72.2848,128.531,97.3408,97.5774,0.00327821,0.331327,20.6584,73.3046,-0.022093,0.0,0.0
276,68.75,71.9955,73.0719,126.335,97.3129,98.0822,0.00307603,0.316613,20.6761,72.7241,-0.0716617,0.0,0.0
299,74.5,72.0593,73.8681,125.765,97.2893,98.8891,0.00272086,0.304227,20.6919,72.1235,-0.148429,0.0,0.0
322,80.25,71.4355,73.8314,129.743,97.3065,99.1332,0.00235473,0.292377,20.7057,71.6031,-0.169256,0.0,0.0
345,86,71.572,74.336,132.649,97.2849,99.6303,0.00217076,0.28353,20.7163,71.1527,-0.216795,0.0,0.0
368,91.75,71.4328,74.1454,126.207,97.2729,99.6065,0.0022418,0.274221,20.7285,70.6022,-0.215735,0.0,0.0
391,97.5,70.4927,74.2559,126.89,97.231,99.7082,0.00211106,0.267573,20.7376,70.1918,-0.228951,0.0,0.0
414,103.25,70.3547,74.0401,129.91,97.2067,99.6312,0.0023214,0.259321,20.7479,69.6413,-0.2242,0.0,0.0
437,109,69.917,73.7109,128.771,97.1823,99.4367,0.00232593,0.253364,20.7544,69.1609,-0.208695,0.0,0.0
460,114.75,69.8068,73.5185,126.717,97.1599,99.8109,0.00202807,0.248082,20.7604,68.7205,-0.24497,0.0,0.0
483,120.5,68.9503,73.3449,131.216,97.1555,99.5745,0.00199422,0.245408,20.7645,68.3102,-0.223801,0.0,0.0
506,126.25,68.9769,73.6646,133.765,97.1412,99.5529,0.0017947,0.242897,20.7673,67.9198,-0.223172,0.0,0.0
529,132,69.2379,72.74,125.078,97.1208,99.7028,0.00198167,0.244257,20.7644,67.4494,-0.238777,0.0,0.0
552,137.75,68.8309,72.9605,125.395,97.1208,98.8918,0.00179894,0.247794,20.7601,67.009,-0.164451,0.0,0.0
575,143.5,69.1442,72.5595,126.084,97.1112,100.209,0.00204311,0.255594,20.751,66.5386,-0.285715,0.0,0.0
598,149.25,69.2834,72.8385,127.532,97.104,100.173,0.00240301,0.265602,20.7386,66.1382,-0.283157,0.0,0.0
621,155,68.9674,73.5978,127.619,97.1116,99.3845,0.00255104,0.280571,20.7193,65.6578,-0.210532,0.0,0.0
644,160.75,70.2769,73.5294,128.864,97.1268,98.727,0.00199356,0.301191,20.6932,65.2074,-0.148711,0.0,0.0
667,166.5,70.441,74.1881,126.424,97.132,99.0332,0.00230764,0.32361,20.666,64.697,-0.176406,0.0,0.0
690,172.25,72.0282,75.2746,125.878,97.1248,97.3383,0.00253806,0.34805,20.6371,64.1065,-0.0199808,0.0,0.0
713,178,73.2874,75.7429,125.313,97.1372,96.938,0.0031352,0.368685,20.6108,63.576,0.0186824,0.0,0.0
736,183.75,73.7022,76.815,120.493,97.1432,95.9703,0.00338344,0.382555,20.5926,63.0055,0.110545,0.0,0.0
759,189.5,74.6842,77.2351,125.447,97.1647,96.1423,0.00330985,0.399078,20.568,62.425,0.0962676,0.0,0.0
782,195.25,76.1105,78.1348,126.216,97.1719,94.3411,0.00369856,0.411613,20.5506,61.7644,0.269051,0.0,0.0
805,201,77.1593,79.4327,124.074,97.1755,94.0295,0.00359088,0.43059,20.5276,61.1338,0.299495,0.0,0.0
828,206.75,78.2932,80.8228,123.185,97.1947,95.0944,0.0036959,0.445733,20.5122,60.4332,0.198801,0.0,0.0
851,212.5,79.5258,81.8266,122.957,97.2063,94.3911,0.00387621,0.450926,20.5086,59.7826,0.267445,0.0,0.0
874,218.25,80.1097,83.09,122.439,97.225,93.7575,0.00412797,0.440866,20.5212,59.1721,0.330491,0.0,0.0
897,224,80.17,82.9828,123.827,97.2466,93.5139,0.00400842,0.408924,20.5619,58.6316,0.356185,0.0,0.0
920,229.75,79.4473,82.8129,127.43,97.2705,93.8273,0.00400537,0.349023,20.631,58.1812,0.327979,0.0,0.0
943,235.5,77.0412,81.9154,132.278,97.2598,98.7635,0.00289785,0.255437,20.7473,57.881,-0.139624,0.0,0.0
966,241.25,74.1362,79.7819,135.058,97.2534,99.2696,0.00308345,0.171902,20.8412,57.7408,-0.186741,0.0,0.0
989,247,70.9034,77.3348,135.2,97.2725,99.3259,0.00437038,0.133185,20.8852,57.6808,-0.190105,0.0,0.0
1012,252.75,67.6826,74.9414,134.213,97.2833,99.6276,0.00572899,0.120411,20.9002,57.6608,-0.216697,0.0,0.0
1035,258.5,66.2242,72.8363,139.792,97.2929,99.9676,0.00639104,0.115553,20.8995,57.6207,-0.246803,0.0,0.0
1058,264.25,64.4203,71.0253,134.068,97.3085,99.2444,0.00657144,0.114357,20.9025,57.5407,-0.179274,0.0,0.0
1081,270,62.8453,69.7204,135.348,97.2973,99.6402,0.00668623,0.111367,20.9053,57.4306,-0.216542,0.0,0.0
1104,275.75,61.5911,68.5775,136.583,97.3252,99.1665,0.00729862,0.109924,20.9075,57.3605,-0.17056,0.0,0.0
1127,281.5,60.8951,66.6319,137.689,97.3444,98.9792,0.00740073,0.108525,20.9095,57.3105,-0.151561,0.0,0.0
1150,287.25,59.9969,66.1849,136.507,97.3831,100.07,0.00737085,0.107811,20.8891,57.2504,-0.247667,0.0,0.0
1173,293,59.3838,65.1854,135.7,97.4422,100.066,0.00777391,0.106575,20.8947,57.2104,-0.241779,0.0,0.0
1196,298.75,58.9448,64.0337,142.538,97.471,99.5736,0.00772618,0.106123,20.901,57.1703,-0.194223,0.0,0.0
1219,304.5,58.1361,62.8484,139.198,97.5045,99.6578,0.00819453,0.104491,20.9134,57.0202,-0.198786,0.0,0.0
1242,310.25,57.7967,62.1866,137.005,97.53,99.1764,0.00784652,0.104353,20.9158,57.0002,-0.152338,0.0,0.0
1265,316,57.3043,61.4347,134.941,97.5456,99.6974,0.00817661,0.103798,20.9142,56.9902,-0.198567,0.0,0.0
1288,321.75,57.6055,61.3515,134.856,97.5328,100.347,0.00811098,0.103406,20.917,56.9702,-0.258877,0.0,0.0
1311,327.5,56.8858,60.8883,132.337,97.5121,99.9158,0.00809385,0.101718,20.9197,56.9301,-0.221608,0.0,0.0
1334,333.25,56.8146,60.4903,132.501,97.5197,99.4538,0.00801281,0.101579,20.92,56.83,-0.178724,0.0,0.0
1357,339,56.0875,59.3755,133.558,97.475,99.869,0.00828216,0.101351,20.921,56.75,-0.220808,0.0,0.0
1380,344.75,56.3215,59.5642,138.527,97.4462,99.3966,0.00822414,0.100024,20.924,56.6899,-0.180347,0.0,0.0
1403,350.5,56.038,58.8155,135.537,97.4558,100.036,0.00858721,0.0995692,20.9234,56.6899,-0.237767,0.0,0.0
1426,356.25,55.9365,58.558,137.756,97.4777,99.6461,0.0082584,0.0989633,20.9234,56.6599,-0.200214,0.0,0.0
1449,362,55.8818,57.9029,134.683,97.4678,99.2264,0.00810867,0.0986781,20.9234,56.5798,-0.162736,0.0,0.0
1472,367.75,55.8234,57.861,136.092,97.4845,99.7145,0.00856007,0.0977763,20.9259,56.5198,-0.205828,0.0,0.0
1495,373.5,55.4065,58.0618,134.145,97.4706,99.4714,0.00857796,0.0966515,20.9266,56.4397,-0.184914,0.0,0.0
1518,379.25,55.6508,57.8244,142.819,97.4614,100.198,0.00844739,0.0965921,20.9273,56.3997,-0.25198,0.0,0.0
1541,385,55.5196,57.2029,137.647,97.4474,99.2917,0.00805444,0.0954954,20.9285,56.3596,-0.170624,0.0,0.0
1564,390.75,55.7566,57.1652,138.785,97.4302,99.67,0.00791137,0.0944602,20.9296,56.3897,-0.206829,0.0,0.0
1587,396.5,55.2668,56.9759,136.766,97.4155,99.6866,0.00831555,0.0937145,20.9302,56.3396,-0.20973,0.0,0.0
1610,402.25,55.0862,56.4642,135.366,97.4446,99.71,0.00863522,0.0937257,20.9291,56.2595,-0.209145,0.0,0.0
1633,408,54.4352,56.784,139.049,97.4446,99.23,0.00831247,0.093354,20.9303,56.1795,-0.165229,0.0,0.0
1656,413.75,54.252,56.3805,135.36,97.443,100.229,0.008463,0.0932104,20.9304,56.1595,-0.256517,0.0,0.0
1679,419.5,54.1049,56.3933,136.244,97.4398,99.828,0.00841549,0.0925876,20.9301,56.1795,-0.220354,0.0,0.0
1702,425.25,54.3925,56.0745,136.39,97.4406,99.5691,0.00803319,0.0913557,20.9321,56.0994,-0.196646,0.0,0.0
1725,431,52.7389,54.1345,135.048,97.4286,99.5502,0.00789616,0.0909197,20.9324,56.0894,-0.196035,0.0,0.0
1748,436.75,52.6777,54.3198,137.231,97.4087,99.2134,0.00798116,0.0911599,20.9324,55.9693,-0.167058,0.0,0.0
1771,442.5,52.3865,54.3381,137.115,97.3987,99.7906,0.00820925,0.0910922,20.9297,55.9192,-0.220788,0.0,0.0
1794,448.25,52.1863,54.2413,136.519,97.3775,99.5777,0.00750081,0.0899301,20.9327,55.9092,-0.203321,0.0,0.0
1817,454,52.7893,53.9952,136.029,97.3727,98.8207,0.00776925,0.0901992,20.9315,55.9192,-0.134327,0.0,0.0
1840,459.75,51.9535,54.0493,134.261,97.3699,99.6461,0.00777352,0.0894091,20.9314,55.8892,-0.210283,0.0,0.0
1863,465.5,52.5533,53.8177,136.795,97.3352,99.8947,0.00761601,0.089513,20.9337,55.8192,-0.236202,0.0,0.0
1886,471.25,52.2182,53.7235,137.655,97.3244,99.7199,0.00732645,0.0892517,20.9349,55.7191,-0.22128,0.0,0.0
1909,477,52.2187,53.6643,138.595,97.2981,98.5861,0.00773108,0.0888535,20.9351,55.7191,-0.119677,0.0,0.0
1932,482.75,52.3534,54.2035,137.386,97.3021,99.7055,0.007437,0.0883076,20.9353,55.6991,-0.222055,0.0,0.0
1955,488.5,52.0928,53.5013,135.769,97.32,99.5786,0.00728166,0.0880619,20.9381,55.7091,-0.208777,0.0,0.0
1978,494.25,51.8727,53.4996,136.134,97.3372,99.2359,0.00715281,0.0876074,20.9381,55.679,-0.175801,0.0,0.0
2001,500,52.0224,53.4668,134.742,97.338,99.2597,0.00705143,0.0875716,20.9384,55.639,-0.177915,0.0,0.0
2024,505.75,52.045,53.1696,135.11,97.3364,99.4871,0.00681281,0.0868225,20.9384,55.5189,-0.198889,0.0,0.0
2047,511.5,52.3188,53.6687,131.99,97.3672,99.9883,0.00655959,0.086919,20.937,55.4989,-0.241745,0.0,0.0
2070,517.25,52.2852,53.804,136.784,97.3715,100.372,0.00694258,0.0866411,20.9389,55.4789,-0.276227,0.0,0.0
2093,523,51.9888,53.7127,139.194,97.3819,99.0422,0.0067846,0.0861531,20.9391,55.5389,-0.153847,0.0,0.0
2116,528.75,51.9853,53.4029,136.714,97.3684,100.094,0.00648013,0.0855137,20.9391,55.4388,-0.251259,0.0,0.0
2139,534.5,52.047,53.478,137.773,97.3496,99.6754,0.00616041,0.0852121,20.9403,55.2787,-0.214858,0.0,0.0
2162,540.25,51.8796,53.5753,133.887,97.3157,99.9564,,,,55.2887,-0.24365,0.0,0.0
2185,546,51.7404,52.8952,135.732,97.2817,99.5421,,,,55.2487,-0.209028,0.0,0.0
2192,547.75,51.7606,53.7493,137.834,97.2765,99.0508,,,,55.3688,-0.164489,0.0,0.0