File: 01_Data/FDNY_LDF/Cone/FDNY_LDF_Cone_HF25Scan_220909_R2.csv
Names,Time,Stack TC,Smoke TC,Exh Press,Smoke Comp,Smoke Meas,CO Meter,CO2 Meter,O2 Meter,Sample Mass,Ext Coeff,Start Test,Flame Verif
Chan Gain,,500,500,1,1,1,1,1,1,1,1,1.0,1.0
Offset,,0,0,0.142519,0,0,0,0,0,0,0,0.0,0.0
Gain,,1,1,25.011,13.0826,14.7555,1,1,1,1.00088,1.03743,1.0,1.0
Units,sec,C,C,Pa,%,%,%,%,%,g,/m,,
Baseline,,41.7114,42.4472,138.459,100.038,106.564,0.000180927,0.0459546,20.9974,-443.987,-0.575062,,
23,5.5,40.2123,41.0157,136.527,99.8325,106,0.000135172,0.0493153,20.9951,80.8512,-0.545506,0.0,0.0
46,11.25,40.3891,41.039,138.947,99.8034,105.256,9.78689e-05,0.0484858,20.9959,80.8512,-0.484035,0.0,0.0
69,17,40.1695,40.9926,137.71,99.7643,105.238,0.000188964,0.0483152,20.9942,80.8012,-0.486123,0.0,0.0
92,22.75,40.3606,40.9164,139.31,99.696,104.391,0.000295873,0.047646,20.9949,80.6811,-0.418772,0.0,0.0
115,28.5,40.191,41.1415,142.623,99.6393,104.203,0.000517778,0.0475713,20.9944,80.611,-0.407525,0.0,0.0
138,34.25,40.3189,41.2496,135.005,99.5503,103.362,0.000826109,0.0489931,20.9953,80.5109,-0.341941,0.0,0.0
161,40,41.9081,41.3715,124.949,99.4225,104.907,0.00138707,0.206732,20.8139,80.0405,-0.488686,0.0,1.0
184,45.75,45.5387,44.0216,131.08,99.3259,104.497,0.00188108,0.311494,20.6942,79.53,-0.461879,0.0,0.0
207,51.5,48.9198,46.4798,126.243,99.27,104.446,0.00190222,0.305841,20.6993,79.0596,-0.462529,0.0,0.0
230,57.25,50.6821,48.5069,128.663,99.2536,104.337,0.00187013,0.29964,20.7059,78.5492,-0.45457,0.0,0.0
253,63,52.5428,50.1461,129.751,99.3199,104.661,0.00176521,0.28899,20.7198,78.1288,-0.476651,0.0,0.0
276,68.75,53.4699,51.8441,128.987,99.5119,105.526,0.00203477,0.275899,20.7356,77.7385,-0.534017,0.0,0.0
299,74.5,54.1788,53.0385,129.793,99.8082,105.748,0.00170113,0.267273,20.7458,77.208,-0.526091,0.0,0.0
322,80.25,54.0404,53.7438,127.51,100.116,106.078,0.00158467,0.256017,20.7586,76.8577,-0.526391,0.0,0.0
345,86,54.8515,54.2541,129.928,100.409,106.299,0.00163538,0.247603,20.7683,76.4473,-0.518777,0.0,0.0
368,91.75,54.8377,55.2627,132.564,100.638,106.23,0.00135372,0.241953,20.7777,76.0169,-0.49213,0.0,0.0
391,97.5,55.0739,55.5347,130.947,100.81,106.956,0.00140454,0.233583,20.7857,75.6967,-0.538517,0.0,0.0
414,103.25,54.4995,55.8164,132.327,100.929,107.008,0.00174801,0.227591,20.7912,75.3564,-0.532225,0.0,0.0
437,109,54.4477,55.9726,128.681,100.971,107.247,0.00158828,0.220947,20.7988,74.936,-0.548757,0.0,0.0
460,114.75,55.182,56.3995,132.702,100.965,106.959,0.00164509,0.215425,20.8048,74.5757,-0.52481,0.0,0.0
483,120.5,54.3587,55.9241,134.181,100.881,107.159,0.00145387,0.209315,20.8111,74.2154,-0.549367,0.0,0.0
506,126.25,54.2848,56.5306,133.56,100.745,107.012,0.00139804,0.207631,20.815,73.775,-0.549182,0.0,0.0
529,132,54.312,56.5204,130.477,100.574,107.071,0.00151945,0.202003,20.8228,73.5147,-0.569718,0.0,0.0
552,137.75,53.8209,56.5612,131.783,100.436,106.398,0.00163004,0.199328,20.8269,73.1945,-0.524794,0.0,0.0
575,143.5,53.5135,56.1496,133.508,100.313,107.187,0.00174977,0.194797,20.8341,72.8842,-0.603208,0.0,0.0
598,149.25,53.4687,55.3182,125.95,100.142,106.87,0.00194874,0.191739,20.8369,72.5339,-0.591694,0.0,0.0
621,155,53.3791,55.6703,133.644,100.136,106.772,0.00221986,0.188922,20.8384,72.2136,-0.583986,0.0,0.0
644,160.75,53.0983,55.6951,134.636,100.309,106.814,0.001707,0.185662,20.8427,71.8132,-0.571821,0.0,0.0
667,166.5,52.7804,55.613,132.172,100.367,106.452,0.00167174,0.18385,20.8466,71.583,-0.535634,0.0,0.0
690,172.25,52.5091,55.0806,133.052,100.472,106.953,0.00162565,0.180858,20.8481,71.2327,-0.568901,0.0,0.0
713,178,52.3088,55.1441,132.86,100.454,106.886,0.00170631,0.179303,20.8492,70.9625,-0.564818,0.0,0.0
736,183.75,52.1969,55.0012,134.669,100.305,106.863,0.00189147,0.17847,20.8491,70.6722,-0.576363,0.0,0.0
759,189.5,51.9178,54.8831,131.07,100.093,106.52,0.00164111,0.178225,20.849,70.382,-0.566389,0.0,0.0
782,195.25,51.7435,54.6597,131.619,99.892,106.223,0.00142977,0.178577,20.8491,70.0117,-0.55924,0.0,0.0
805,201,51.7782,54.3888,136.919,99.686,105.917,0.00110286,0.179589,20.8478,69.7514,-0.551795,0.0,0.0
828,206.75,51.5502,53.9487,134.62,99.7619,106.022,0.00121991,0.180656,20.8492,69.5012,-0.553883,0.0,0.0
851,212.5,51.7722,54.0279,137.766,99.8401,106.035,0.0012908,0.18291,20.8467,69.1809,-0.54783,0.0,0.0
874,218.25,52.1222,53.9876,131.831,99.9759,106.201,0.00113951,0.186764,20.8411,68.9407,-0.549676,0.0,0.0
897,224,51.601,54.1776,130.238,100.108,106.819,0.00101307,0.189516,20.8368,68.5904,-0.590518,0.0,0.0
920,229.75,52.1283,53.9248,134.297,100.241,106.685,0.00120731,0.194766,20.8306,68.2701,-0.567001,0.0,0.0
943,235.5,51.9355,53.7323,128.578,100.348,105.838,0.00117959,0.197826,20.8272,68.0499,-0.484753,0.0,0.0
966,241.25,52.3981,54.0968,134.24,100.376,106.387,0.00109603,0.201953,20.8215,67.6296,-0.529293,0.0,0.0
989,247,52.3473,54.2154,132.252,100.336,106.659,0.00131031,0.20603,20.8174,67.4394,-0.556113,0.0,0.0
1012,252.75,53.0626,54.8711,132.981,100.261,106.342,0.00105066,0.211396,20.8104,67.1491,-0.535873,0.0,0.0
1035,258.5,53.2063,55.0354,131.206,100.11,106.136,0.000979801,0.215428,20.8051,66.8088,-0.53199,0.0,0.0
1058,264.25,53.2125,55.3469,131.223,99.9144,106.426,0.00150611,0.220976,20.7995,66.4285,-0.574586,0.0,0.0
1081,270,53.8233,55.6558,132.475,99.7115,105.552,0.00158517,0.227495,20.7912,66.2083,-0.518032,0.0,0.0
1104,275.75,54.094,56.0278,129.403,99.4992,105.373,0.000978786,0.23272,20.7852,65.878,-0.521972,0.0,0.0
1127,281.5,54.8003,56.4833,131.012,99.3399,105.112,0.00123084,0.238519,20.7777,65.4877,-0.514009,0.0,0.0
1150,287.25,54.9769,56.6775,129.838,99.2157,105.722,0.00113562,0.24329,20.7725,65.1774,-0.578064,0.0,0.0
1173,293,55.5879,56.9544,132.853,99.145,105.002,0.000954913,0.246516,20.7677,64.757,-0.522319,0.0,0.0
1196,298.75,55.8156,57.5522,130.794,99.1231,104.699,0.00119043,0.250516,20.7635,64.3867,-0.49807,0.0,0.0
1219,304.5,56.5478,57.919,130.012,99.1937,105.016,0.00129349,0.254877,20.7596,64.0564,-0.519098,0.0,0.0
1242,310.25,56.8691,58.5011,127.681,99.3151,104.752,0.00101343,0.260477,20.7521,63.7161,-0.485035,0.0,0.0
1265,316,57.1911,58.6869,131.986,99.5011,104.749,0.00116915,0.26774,20.743,63.2757,-0.467729,0.0,0.0
1288,321.75,57.772,59.3148,130.518,99.7159,105.145,0.0013493,0.274371,20.7359,62.8654,-0.482466,0.0,0.0
1311,327.5,57.8655,59.3709,125.398,99.9563,105.183,0.00127723,0.281231,20.7273,62.3649,-0.463831,0.0,0.0
1334,333.25,58.6752,59.8352,127.21,100.213,105.039,0.00145172,0.284798,20.7231,62.0446,-0.428016,0.0,0.0
1357,339,58.9254,60.4918,127.558,100.434,104.565,0.00147171,0.286174,20.7223,61.5842,-0.366815,0.0,0.0
1380,344.75,59.0498,60.9302,132.406,100.605,104.871,0.00164015,0.281838,20.7263,61.294,-0.377917,0.0,0.0
1403,350.5,59.2367,61.0289,127.404,100.732,105.132,0.00186831,0.265994,20.7418,60.9237,-0.389075,0.0,0.0
1426,356.25,58.5504,61.1242,134.966,100.821,104.994,0.00234764,0.241702,20.766,60.6334,-0.369097,0.0,0.0
1449,362,58.092,60.8647,134.727,100.85,105.558,0.00303129,0.213112,20.8036,60.3431,-0.415204,0.0,0.0
1472,367.75,56.7352,59.5811,134.178,100.846,106.318,0.00456605,0.177837,20.8453,60.183,-0.480858,0.0,0.0
1495,373.5,55.2483,58.7814,135.719,100.782,106.535,0.00603073,0.147963,20.8768,60.0929,-0.50522,0.0,0.0
1518,379.25,53.3588,57.343,139.64,100.651,106.787,0.00773907,0.126501,20.8982,59.9928,-0.53853,0.0,0.0
1541,385,51.7394,56.1708,132.856,100.528,106.71,0.00865064,0.11327,20.9133,59.8927,-0.543165,0.0,0.0
1564,390.75,50.6861,54.7188,135.248,100.391,106.371,0.00972897,0.106195,20.9221,59.7927,-0.526607,0.0,0.0
1587,396.5,49.3562,53.4538,138.104,100.241,106.175,0.0103333,0.0999786,20.93,59.6826,-0.523414,0.0,0.0
1610,402.25,48.1079,52.8359,134.332,100.093,105.913,0.0104388,0.0960829,20.9338,59.6826,-0.514347,0.0,0.0
1633,408,47.3227,51.8771,138.898,99.9719,105.508,0.0102851,0.0951339,20.9345,59.6025,-0.4905,0.0,0.0
1656,413.75,46.9453,50.9681,138.225,100.13,105.82,0.0103515,0.0939798,20.9377,59.5524,-0.503031,0.0,0.0
1679,419.5,46.3587,49.3327,139.966,100.277,106.119,0.0102128,0.091929,20.9396,59.4624,-0.515254,0.0,0.0
1702,425.25,43.6424,47.552,140.323,100.356,106.01,0.0102564,0.090993,20.9407,59.3523,-0.498805,0.0,0.0
1725,431,43.6632,46.9917,138.067,100.373,106.195,0.0098561,0.0902719,20.9429,59.2922,-0.513125,0.0,0.0
1748,436.75,43.2917,46.2251,136.104,100.367,106.234,0.00923032,0.0892556,20.943,59.3022,-0.51706,0.0,0.0
1771,442.5,42.9488,45.4532,137.891,100.352,106.32,0.00915124,0.0896892,20.9425,59.2522,-0.525651,0.0,0.0
1794,448.25,42.528,45.3774,140.875,100.328,105.96,0.00941802,0.0900105,20.9425,59.2021,-0.497014,0.0,0.0
1817,454,42.2948,44.8581,138.151,100.292,106.403,0.00938258,0.0890659,20.9425,59.1421,-0.538322,0.0,0.0
1840,459.75,42.4828,44.3078,141.1,100.252,105.951,0.00925644,0.0883534,20.9432,59.002,-0.503196,0.0,0.0
1863,465.5,41.4871,43.7198,136.975,100.246,106.176,0.00914324,0.0877947,20.9438,59.032,-0.522984,0.0,0.0
1886,471.25,41.9012,43.653,137.892,100.245,105.65,0.0090353,0.0881343,20.9446,58.992,-0.477865,0.0,0.0
1909,477,41.3456,43.2644,136.99,100.251,106.11,0.00863749,0.0880065,20.9444,58.9219,-0.516876,0.0,0.0
1932,482.75,41.5563,42.9973,140.311,100.267,106.158,0.00890149,0.0872694,20.9439,58.8718,-0.519555,0.0,0.0
1955,488.5,41.5558,43.1796,135.14,100.276,105.973,0.00856212,0.0865708,20.9463,58.8118,-0.502918,0.0,0.0
1978,494.25,41.4612,42.7512,138.181,100.288,106.145,0.00878149,0.0863384,20.947,58.7017,-0.51659,0.0,0.0
2001,500,41.0303,42.2044,137.715,100.321,106.491,0.00908098,0.0860023,20.9458,58.7317,-0.543149,0.0,0.0
2024,505.75,41.1199,41.887,145.096,100.356,106.169,0.00862352,0.0853456,20.9456,58.7017,-0.512406,0.0,0.0
2047,511.5,41.5664,42.3771,139.645,100.388,106.141,0.00859449,0.0857756,20.9442,58.6717,-0.507115,0.0,0.0
2070,517.25,41.2719,42.3293,138.744,100.392,106.094,0.00842172,0.0869589,20.9441,58.6016,-0.502662,0.0,0.0
2093,523,41.1543,42.3796,137.846,100.337,106.56,0.00877424,0.0868513,20.9444,58.5115,-0.547623,0.0,0.0
2116,528.75,41.2531,42.2802,135.768,100.217,106.01,,0.0864733,,58.4415,-0.511415,0.0,0.0
2139,534.5,41.0278,41.8781,136.745,99.985,105.897,,,,58.4715,-0.522757,0.0,0.0
2159,539.5,40.6556,41.9208,137.135,100.01,106.261,,,,58.4315,-0.551718,0.0,0.0