File: 01_Data/FDNY_LDF/Cone/FDNY_LDF_Cone_HF25Scan_220909_R3.csv
Names,Time,Stack TC,Smoke TC,Exh Press,Smoke Comp,Smoke Meas,CO Meter,CO2 Meter,O2 Meter,Sample Mass,Ext Coeff,Start Test,Flame Verif
Chan Gain,,500,500,1,1,1,1,1,1,1,1,1.0,1.0
Offset,,0,0,0.139139,0,0,0,0,0,0,0,0.0,0.0
Gain,,1,1,25.011,13.0826,14.7555,1,1,1,1.00088,1.03743,1.0,1.0
Units,sec,C,C,Pa,%,%,%,%,%,g,/m,,
Baseline,,32.722,32.8964,146.871,96.5837,95.8728,0.000977371,0.0457379,20.991,-441.962,0.067256,,
24,5.75,31.6444,31.7449,144.614,97.5025,97.0587,0.00146095,0.0465616,20.9901,83.8639,0.0415207,0.0,0.0
48,11.75,31.4022,31.9794,145.789,97.5819,96.5552,0.001235,0.0461688,20.9914,83.7538,0.0962579,0.0,0.0
72,17.75,31.6003,31.8881,150.027,97.6538,96.3346,0.000804059,0.0461688,20.9922,83.7237,0.123778,0.0,0.0
96,23.75,32.0428,32.2285,148.48,97.7185,95.5902,0.000886862,0.0461949,20.9922,83.6637,0.200392,0.0,0.0
120,29.75,31.5995,32.0396,145.195,97.7468,96.0117,0.000946856,0.0463779,20.9922,83.5836,0.162993,0.0,0.0
144,35.75,31.7244,32.2558,145.969,97.7796,95.0282,0.00152494,0.0471153,20.9913,83.5135,0.259737,0.0,0.0
168,41.75,33.992,33.3807,134.65,97.8051,99.2719,0.00185314,0.152405,20.8147,83.0732,-0.135462,0.0,1.0
192,47.75,36.6298,34.1194,136.16,97.8359,98.197,0.00205892,0.257287,20.7261,82.4626,-0.0335306,0.0,1.0
216,53.75,39.7429,36.8199,137.453,97.8522,98.4424,0.00214464,0.273675,20.726,81.9922,-0.0547235,0.0,0.0
240,59.75,41.585,38.5957,136.425,97.8722,98.5721,0.00235191,0.270913,20.7346,81.5218,-0.0648474,0.0,0.0
264,65.75,42.9669,40.184,137.553,97.8862,98.3636,0.00228671,0.266308,20.7429,81.0614,-0.0442801,0.0,0.0
288,71.75,43.9616,41.8964,138.658,97.8998,97.8832,0.00225708,0.256524,20.7564,80.611,0.00154251,0.0,0.0
312,77.75,44.589,42.9181,138.325,97.9081,98.6536,0.00228197,0.248002,20.7652,80.2707,-0.0690292,0.0,0.0
336,83.75,45.3754,43.9165,133.942,97.9169,98.1007,0.00233396,0.243107,20.7736,79.8803,-0.0170599,0.0,0.0
360,89.75,44.9125,44.6087,138.626,97.9077,98.3641,0.00250729,0.234039,20.7832,79.44,-0.0423175,0.0,0.0
384,95.75,45.2763,45.153,134.393,97.9057,98.1768,0.00209721,0.227539,20.7909,79.0997,-0.0251564,0.0,0.0
408,101.75,45.2943,45.9345,136.22,97.8906,98.2375,0.00210627,0.222755,20.7943,78.7494,-0.0321996,0.0,0.0
432,107.75,45.3567,45.7128,137.486,97.8742,98.4532,0.00266736,0.215948,20.8032,78.329,-0.0536808,0.0,0.0
456,113.75,45.0687,45.7977,141.548,97.8626,98.3952,0.0024977,0.211678,20.8057,77.9386,-0.049386,0.0,0.0
480,119.75,45.0621,46.2206,137.471,97.8526,98.301,0.00250089,0.207075,20.8112,77.5883,-0.0416053,0.0,0.0
504,125.75,45.3439,46.4661,140.704,97.8087,98.3839,0.00229984,0.203064,20.8146,77.228,-0.0533583,0.0,0.0
528,131.75,44.8971,46.2135,139.036,97.7995,98.2357,0.00243998,0.198931,20.8239,76.8677,-0.0404986,0.0,0.0
552,137.75,44.663,46.7545,140.877,97.7612,98.7068,0.00266605,0.194967,20.8297,76.5174,-0.0875953,0.0,0.0
576,143.75,44.7418,46.8196,139.575,97.7349,98.3524,0.0022417,0.190045,20.8351,76.1771,-0.057317,0.0,0.0
600,149.75,44.5673,46.3873,136.655,97.7141,97.8521,0.00258349,0.18557,20.839,75.7968,-0.0128416,0.0,0.0
624,155.75,44.5287,46.4853,140.585,97.6798,98.1025,0.00293182,0.183364,20.8381,75.4865,-0.0392952,0.0,0.0
648,161.75,43.9783,45.8834,138.437,97.6331,97.6909,0.00287665,0.180435,20.844,75.1662,-0.00538783,0.0,0.0
672,167.75,44.0401,46.3115,137.911,97.5999,98.2029,0.00307754,0.176285,20.8491,74.8759,-0.0560475,0.0,0.0
696,173.75,43.6919,45.9715,134.743,97.5764,98.0412,0.00336175,0.172587,20.8537,74.5356,-0.0432505,0.0,0.0
720,179.75,43.3759,46.1729,136.082,97.7724,98.2191,0.00363553,0.170286,20.8555,74.2554,-0.0414821,0.0,0.0
744,185.75,43.3282,45.3637,142.003,97.9912,98.7829,0.00358384,0.167744,20.8584,73.9251,-0.0732276,0.0,0.0
768,191.75,42.8729,45.4609,140.663,98.1684,98.3101,0.00338554,0.165501,20.8618,73.6449,-0.013117,0.0,0.0
792,197.75,42.924,44.9212,143.523,98.2747,98.5924,0.00335118,0.164219,20.8622,73.3146,-0.0293749,0.0,0.0
816,203.75,42.4362,44.9365,140.963,98.287,98.6716,0.00315014,0.16354,20.862,72.9843,-0.0355414,0.0,0.0
840,209.75,42.4279,45.0876,139.221,98.3425,99.0724,0.0029892,0.163028,20.8649,72.644,-0.0672924,0.0,0.0
864,215.75,42.2526,44.7656,142.889,98.3884,98.274,0.00326731,0.162379,20.8665,72.3237,0.0105884,0.0,0.0
888,221.75,42.4447,44.6309,141.148,98.4152,99.5835,0.00283733,0.164046,20.8608,72.1035,-0.107396,0.0,0.0
912,227.75,42.593,44.3968,146.081,98.39,99.1328,0.00248481,0.166294,20.859,71.8433,-0.0684378,0.0,0.0
936,233.75,42.4716,44.5945,138.617,98.3293,98.0944,0.00290696,0.16803,20.8556,71.563,0.0217749,0.0,0.0
960,239.75,42.6231,44.4419,142.206,98.2275,98.1551,0.00281288,0.16912,20.8548,71.2728,0.00670943,0.0,0.0
984,245.75,42.6821,44.3924,139.197,98.1133,98.3168,0.00234868,0.173587,20.8506,70.9425,-0.0188513,0.0,0.0
1008,251.75,42.6487,44.7005,140.729,97.9628,97.9696,0.00263017,0.176872,20.8454,70.6722,-0.000630314,0.0,0.0
1032,257.75,43.1699,44.5185,141.147,97.8678,98.8405,0.00326429,0.181235,20.8403,70.362,-0.0899998,0.0,0.0
1056,263.75,43.0152,44.4679,135.677,97.9341,98.5194,0.00299328,0.184556,20.8365,70.1117,-0.0542302,0.0,0.0
1080,269.75,43.7043,44.7515,139.8,97.986,98.9774,0.00269075,0.186537,20.8342,69.7815,-0.0916122,0.0,0.0
1104,275.75,43.7311,44.8686,139.613,98.0734,98.9031,0.0027649,0.189245,20.8306,69.5212,-0.0766622,0.0,0.0
1128,281.75,43.9045,44.6554,138.464,98.1928,98.297,0.00253153,0.193202,20.8261,69.221,-0.00965097,0.0,0.0
1152,287.75,43.7241,45.1728,138.656,98.305,98.8923,0.00254618,0.197904,20.8207,68.8707,-0.0542057,0.0,0.0
1176,293.75,44.5317,45.6278,137.624,98.398,99.1674,0.00246655,0.203631,20.8129,68.5704,-0.0708816,0.0,0.0
1200,299.75,45.1488,45.9484,136.775,98.4775,98.9355,0.00252967,0.207891,20.8089,68.2601,-0.0422298,0.0,0.0
1224,305.75,45.2073,46.2832,141.004,98.5294,99.2764,0.00231086,0.212527,20.8015,67.9298,-0.0687357,0.0,0.0
1248,311.75,45.9488,46.6787,137.319,98.5749,98.8554,0.00231906,0.218446,20.7957,67.5895,-0.025857,0.0,0.0
1272,317.75,46.5157,47.4838,134.788,98.6164,99.103,0.00232983,0.222985,20.7916,67.2592,-0.0447946,0.0,0.0
1296,323.75,46.4029,47.2825,138.501,98.6464,99.8024,0.00179367,0.228732,20.7847,66.9089,-0.106023,0.0,0.0
1320,329.75,46.7243,47.9562,133.189,98.6659,100.471,0.00175949,0.231862,20.783,66.5586,-0.164948,0.0,0.0
1344,335.75,47.3018,48.5765,136.794,98.6755,99.8217,0.00169612,0.233505,20.7819,66.1983,-0.1051,0.0,0.0
1368,341.75,48.0744,48.6515,135.872,98.6931,100.544,0.00212533,0.237333,20.7766,65.818,-0.169131,0.0,0.0
1392,347.75,48.3675,48.9969,134.107,98.6751,100.27,0.00233197,0.240675,20.7731,65.4476,-0.145893,0.0,0.0
1416,353.75,48.7635,49.8269,135.659,98.6543,100.29,0.00219031,0.2456,20.7667,65.1073,-0.149647,0.0,0.0
1440,359.75,48.9896,50.2608,133.51,98.6192,98.9211,0.00233437,0.251463,20.7572,64.6469,-0.027816,0.0,0.0
1464,365.75,49.5047,51.022,134.694,98.5909,99.7654,0.00235726,0.256057,20.7523,64.2266,-0.107776,0.0,0.0
1488,371.75,49.7009,51.5348,135.461,98.5589,99.5835,0.001997,0.258239,20.7491,63.8462,-0.0941159,0.0,0.0
1512,377.75,50.7342,51.6536,136.069,98.5194,99.1904,0.0024447,0.25244,20.7567,63.556,-0.0617711,0.0,0.0
1536,383.75,50.1102,51.6237,139.494,98.4363,98.5478,0.00292851,0.24189,20.7685,63.2357,-0.0102982,0.0,0.0
1560,389.75,49.9181,51.399,138.739,98.3641,97.8854,0.00401983,0.22585,20.79,62.9655,0.0443928,0.0,0.0
1584,395.75,49.2065,51.0368,137.632,98.2675,98.4983,0.0048019,0.207288,20.811,62.7152,-0.0213497,0.0,0.0
1608,401.75,48.1874,50.5553,136.688,98.1704,97.4824,0.00588985,0.188169,20.8333,62.495,0.0640067,0.0,0.0
1632,407.75,47.4616,50.0915,141.456,98.0327,97.7386,0.00658937,0.168325,20.8514,62.3049,0.0273413,0.0,0.0
1656,413.75,45.961,49.6523,142.919,97.9073,97.9723,0.00724006,0.151467,20.872,62.1547,-0.00603751,0.0,0.0
1680,419.75,45.5017,48.4859,140.552,97.788,98.3249,0.00829186,0.136017,20.8876,62.0446,-0.0498322,0.0,0.0
1704,425.75,43.9393,47.9045,145.213,97.6726,97.5211,0.00931625,0.123953,20.9022,61.9345,0.0141223,0.0,0.0
1728,431.75,43.0193,46.8395,143.892,97.558,96.8839,0.010612,0.110458,20.9183,61.7944,0.0630953,0.0,0.0
1752,437.75,41.8693,46.0422,145.69,97.4446,97.3158,0.0114303,0.101854,20.925,61.7544,0.0120392,0.0,0.0
1776,443.75,39.6497,43.051,144.384,97.3352,96.9988,0.0116236,0.096657,20.9311,61.5842,0.031511,0.0,0.0
1800,449.75,38.401,42.3575,141.001,97.2594,96.7817,0.0115022,0.0936462,20.9348,61.5842,0.0448008,0.0,0.0
1824,455.75,37.9685,41.5138,143.967,97.1867,96.3211,0.0112371,0.0924606,20.9369,61.5342,0.0814186,0.0,0.0
1848,461.75,37.7753,40.382,144.044,97.1472,96.6021,0.0113531,0.0925632,20.937,61.4942,0.0512076,0.0,0.0
1872,467.75,37.7193,40.2024,145.452,97.0565,96.2148,0.0106964,0.0911637,20.9381,61.364,0.079268,0.0,0.0
1896,473.75,36.7807,39.5,142.384,96.9815,96.5449,0.0105967,0.0905816,20.9382,61.364,0.0410628,0.0,0.0
1920,479.75,36.717,39.2914,139.226,96.9128,96.607,0.0102372,0.089741,20.9375,61.274,0.0287603,0.0,0.0
1944,485.75,36.306,38.7606,146.162,96.833,96.3048,0.0102564,0.0890856,20.9374,61.2339,0.0497674,0.0,0.0
1968,491.75,36.4815,38.5596,146.815,96.7831,96.6201,0.0101163,0.0888236,20.9386,61.1739,0.0153386,0.0,0.0
1992,497.75,35.8588,37.8247,143.758,96.7435,96.1819,0.0102088,0.0883631,20.9392,61.1639,0.052982,0.0,0.0
2016,503.75,36.1045,37.7237,141.696,96.7092,96.0473,0.0103495,0.0881663,20.9395,61.0638,0.0624995,0.0,0.0
2040,509.75,35.7639,37.4184,145.061,96.6876,96.4517,0.0097522,0.087334,20.9417,60.9737,0.022237,0.0,0.0
2064,515.75,35.8576,37.2745,139.459,96.6932,96.9641,0.00977277,0.0868383,20.942,60.8936,-0.0254577,0.0,0.0
2088,521.75,35.079,36.9964,143.882,96.6844,96.5957,0.00995243,0.086503,20.9421,60.8236,0.0083516,0.0,0.0
2112,527.75,35.3096,36.7453,144.059,96.6848,96.3152,0.00981457,0.0866666,20.9421,60.8736,0.0348574,0.0,0.0
2136,533.75,34.8409,36.5847,145.452,96.7308,96.4449,0.00970944,0.0863405,20.9421,60.8035,0.0269325,0.0,0.0
2160,539.75,35.3401,36.3792,140.642,96.7635,96.0937,0.00985426,0.085653,20.9413,60.7635,0.0632149,0.0,0.0
2184,545.75,35.1393,36.0605,147.38,96.7659,96.1486,0.00935222,0.0853409,20.9411,60.6935,0.0582384,0.0,0.0
2208,551.75,35.0614,35.4797,143.015,96.7842,96.3571,,0.0846266,,60.6634,0.0402539,0.0,0.0
2232,557.75,34.9561,35.8911,141.797,96.7994,96.6205,,,,60.6034,0.0168352,0.0,0.0
2240,559.75,34.7939,36.0698,141.772,96.817,96.8961,,,,60.5934,-0.00743256,0.0,0.0