File: 01_Data/FDNY_LDF/Cone/FDNY_LDF_Cone_HF75Scan_220913_R3.csv
Names,Time,Stack TC,Smoke TC,Exh Press,Smoke Comp,Smoke Meas,CO Meter,CO2 Meter,O2 Meter,Sample Mass,Ext Coeff,Start Test,Flame Verif
Chan Gain,,500,500,1,1,1,1,1,1,1,1,1.0,1.0
Offset,,0,0,0.139139,0,0,0,0,0,0,0,0.0,0.0
Gain,,1,1,25.011,13.0826,14.7555,1,1,1,1.00088,1.03743,1.0,1.0
Units,sec,C,C,Pa,%,%,%,%,%,g,/m,,
Baseline,,63.773,65.4052,133.076,97.2982,100.672,0.000791645,0.0498316,20.9831,-449.568,-0.310073,,
13,3,61.1295,62.9998,119.443,97.564,99.7199,0.00227095,0.10201,20.9268,75.4364,-0.198908,0.0,1.0
26,6.25,64.9291,64.6946,113.99,97.6127,94.3956,0.00373316,0.335776,20.6212,74.8259,0.304982,0.0,1.0
39,9.5,69.4324,66.7174,116.609,97.6239,93.5657,0.00512595,0.538102,20.3934,74.2754,0.386386,0.0,0.0
52,12.75,74.2191,70.6765,107.957,97.6718,92.3489,0.00593949,0.614874,20.3106,73.7049,0.509966,0.0,0.0
65,16,77.9663,74.453,115.105,97.7049,93.7917,0.0065556,0.627312,20.3,73.0243,0.371978,0.0,0.0
78,19.25,81.1994,77.8395,115.007,97.7373,90.8413,0.00696288,0.617461,20.3138,72.5639,0.665855,0.0,0.0
91,22.5,83.6693,79.711,117.04,97.8071,92.8398,0.00688199,0.602063,20.3363,72.1135,0.474329,0.0,0.0
104,25.75,85.2951,82.0559,115.795,97.8275,93.7746,0.00683963,0.578245,20.3615,71.583,0.385049,0.0,0.0
117,29,87.0189,84.0541,116.629,97.8846,93.6057,0.0068598,0.558091,20.3867,71.0125,0.40676,0.0,0.0
130,32.25,88.1708,85.8173,117.024,97.9417,93.7854,0.00681929,0.542051,20.4092,70.5221,0.394615,0.0,0.0
143,35.5,88.9821,87.4609,118.875,98.0056,94.7414,0.00672144,0.521065,20.431,70.2218,0.308255,0.0,0.0
156,38.75,89.5938,88.0683,120.368,98.0503,95.6096,0.00639349,0.503895,20.4531,69.7214,0.229394,0.0,0.0
169,42,89.9942,89.2785,116.535,98.1217,95.8248,0.00604417,0.485772,20.4732,69.281,0.21556,0.0,0.0
182,45.25,89.8288,90.1573,120.682,98.1844,97.0447,0.005603,0.47161,20.4889,68.8506,0.106254,0.0,0.0
195,48.5,90.5226,91.2206,118.247,98.2267,96.5714,0.00535,0.459051,20.5016,68.3702,0.154664,0.0,0.0
208,51.75,91.1736,92.184,114.95,98.2766,96.8934,0.00496417,0.445278,20.5215,67.9198,0.128997,0.0,0.0
221,55,91.1702,92.4871,117.493,98.3413,97.1613,0.00473788,0.429009,20.5418,67.5495,0.109856,0.0,0.0
234,58.25,91.3371,92.717,121.944,98.382,97.0996,0.00451099,0.415673,20.5585,67.0691,0.119403,0.0,0.0
247,61.5,91.0745,93.2052,117.962,98.4112,97.69,0.00406492,0.403623,20.5735,66.6687,0.0669374,0.0,0.0
260,64.75,91.2802,93.5487,120.494,98.4244,99.0841,0.00371442,0.393571,20.5866,66.2583,-0.0607964,0.0,0.0
273,68,90.452,93.4978,118.01,98.4244,100.037,0.00360616,0.382632,20.5992,65.9481,-0.147932,0.0,0.0
286,71.25,90.1978,93.5413,119.994,98.4232,99.6731,0.00349985,0.375056,20.6076,65.5477,-0.114843,0.0,0.0
299,74.5,90.6408,93.6059,122.167,98.4391,99.6929,0.00340578,0.367175,20.6192,65.1574,-0.115175,0.0,0.0
312,77.75,90.2889,93.8641,121.313,98.4787,100.039,0.00338987,0.360716,20.6266,64.7871,-0.143036,0.0,0.0
325,81,90.0248,94.2717,123.133,98.4898,99.7168,0.00320774,0.352185,20.6357,64.4568,-0.112667,0.0,0.0
338,84.25,89.4061,93.7997,121.362,98.5086,100.314,0.00301759,0.350052,20.6386,64.0464,-0.165304,0.0,0.0
351,87.5,89.4456,93.9492,120.974,98.5314,100.333,0.00300991,0.348168,20.6402,63.6661,-0.164878,0.0,0.0
364,90.75,89.2728,93.9788,119.578,98.5545,100.74,0.00277363,0.346934,20.6415,63.3858,-0.199586,0.0,0.0
377,94,89.4788,93.7903,121.547,98.5497,100.957,0.00270162,0.346404,20.6416,62.9354,-0.219614,0.0,0.0
390,97.25,89.4008,93.9763,125.007,98.5521,100.701,0.00258576,0.350432,20.6403,62.5751,-0.196308,0.0,0.0
403,100.5,88.6219,94.6317,121.538,98.5645,100.321,0.00257998,0.357381,20.63,62.2148,-0.160755,0.0,0.0
416,103.75,89.0143,93.8493,119.365,98.5374,100.749,0.00265019,0.370462,20.6165,61.8645,-0.201985,0.0,0.0
429,107,89.385,94.1613,120.151,98.5433,99.6709,0.0030468,0.385249,20.5974,61.4641,-0.103533,0.0,0.0
442,110.25,89.913,94.4297,118.907,98.5402,99.7411,0.00327009,0.400232,20.58,61.0337,-0.110239,0.0,0.0
455,113.5,90.3949,95.1842,118.03,98.5218,100.195,0.00341614,0.41023,20.5675,60.6834,-0.153215,0.0,0.0
468,116.75,90.8558,95.1743,118.148,98.5034,98.3785,0.00354617,0.421363,20.5541,60.3031,0.0115484,0.0,0.0
481,120,91.004,95.8211,119.332,98.5082,99.4354,0.00347417,0.430392,20.5438,59.9028,-0.0852505,0.0,0.0
494,123.25,91.4552,96.5583,120.071,98.5026,97.9192,0.00360639,0.447195,20.5156,59.4824,0.0540627,0.0,0.0
507,126.5,92.0876,96.522,118.43,98.4703,98.7784,0.00365493,0.465653,20.493,59.092,-0.028427,0.0,0.0
520,129.75,93.1232,97.1896,118.922,98.4615,97.699,0.00397283,0.479745,20.4727,58.6917,0.0707498,0.0,0.0
533,133,93.4695,97.8497,123.343,98.4639,95.5474,0.00434206,0.487078,20.4633,58.3013,0.273619,0.0,0.0
546,136.25,94.2783,97.9592,118.057,98.4387,94.0596,0.004593,0.494723,20.4509,57.8509,0.414113,0.0,0.0
559,139.5,94.7148,98.2828,113.62,98.4399,91.4803,0.0047722,0.502785,20.4423,57.4806,0.66726,0.0,0.0
572,142.75,95.3385,99.3291,113.971,98.4371,92.3057,0.00486553,0.514786,20.4242,57.0803,0.585259,0.0,0.0
585,146,95.8279,99.7102,115.037,98.4383,92.1427,0.00498286,0.523814,20.4097,56.6799,0.601455,0.0,0.0
598,149.25,96.5473,101.112,116.435,98.4391,91.8496,0.00542144,0.527233,20.4042,56.1995,0.630528,0.0,0.0
611,152.5,97.0127,101.346,114.461,98.4383,92.353,0.00550778,0.534709,20.3971,55.7791,0.58071,0.0,0.0
624,155.75,97.3735,101.54,116.432,98.4423,92.9501,0.00531549,0.535031,20.4024,55.3888,0.522432,0.0,0.0
637,159,97.9441,101.654,115.501,98.4391,92.811,0.00504208,0.524284,20.4182,54.9984,0.535769,0.0,0.0
650,162.25,97.8917,102.465,123.036,98.4164,94.3411,0.00456884,0.508309,20.4338,54.5681,0.384856,0.0,0.0
663,165.5,97.2134,102.483,114.864,98.418,95.0953,0.0043547,0.480944,20.4674,54.2278,0.312537,0.0,0.0
676,168.75,96.5112,102.097,118.316,98.4024,94.8387,0.00478006,0.440637,20.5187,53.9075,0.335693,0.0,0.0
689,172,95.4246,101.612,121.631,98.408,96.2535,0.00471372,0.392528,20.5794,53.6773,0.201449,0.0,0.0
702,175.25,94.2423,100.781,126.024,98.414,97.98,0.00367149,0.330959,20.6574,53.5171,0.0402215,0.0,0.0
715,178.5,91.9909,99.5654,124.418,98.4112,101.801,0.00279207,0.243819,20.7635,53.4471,-0.308167,0.0,0.0
728,181.75,89.3894,97.7703,131.947,98.3996,102.601,0.00248053,0.177972,20.8309,53.377,-0.380489,0.0,0.0
741,185,86.9714,95.7974,128.739,98.3976,102.412,0.002364,0.144643,20.8687,53.347,-0.363883,0.0,0.0
754,188.25,85.5719,93.6599,127.962,98.4096,102.274,0.00234092,0.129598,20.8829,53.347,-0.350483,0.0,0.0
767,191.5,82.4985,91.1515,128.995,98.4,101.663,0.0020868,0.123531,20.8907,53.2969,-0.296834,0.0,0.0
780,194.75,80.7544,89.9836,130.282,98.4004,102.004,0.00194069,0.119099,20.8961,53.2169,-0.3273,0.0,0.0
793,198,79.5335,88.3264,133.263,98.4024,102.412,0.00233363,0.116837,20.899,53.1868,-0.36348,0.0,0.0
806,201.25,78.0646,86.6598,131.433,98.4048,102.41,0.00258376,0.116388,20.9013,53.1668,-0.363018,0.0,0.0
819,204.5,76.6334,85.8044,127.007,98.3972,102.317,0.00238205,0.115536,20.9034,53.0968,-0.355474,0.0,0.0
832,207.75,76.0065,84.2401,128.926,98.3809,102.378,0.00217493,0.114233,20.9043,53.0968,-0.362432,0.0,0.0
845,211,74.8971,83.4789,130.317,98.3785,102.491,0.0023352,0.113903,20.9052,53.0767,-0.372695,0.0,0.0
858,214.25,74.6684,82.3303,128.944,98.3385,103.129,0.00248011,0.113487,20.905,52.9666,-0.43283,0.0,0.0
871,217.5,73.6223,81.6032,130.834,98.3086,102.041,0.00246797,0.113195,20.9056,52.9166,-0.33913,0.0,0.0
884,220.75,72.4833,80.3783,127.78,98.2766,102.614,0.00261542,0.113305,20.9058,52.9867,-0.393026,0.0,0.0
897,224,72.7296,79.8099,129.057,98.2527,101.452,0.00249492,0.113147,20.9062,52.8666,-0.291584,0.0,0.0
910,227.25,72.0448,79.4184,127.522,98.2283,101.823,0.00243328,0.113337,20.9059,52.8766,-0.327104,0.0,0.0
923,230.5,71.5612,78.5278,129.512,98.2048,101.977,0.00252496,0.113993,20.9058,52.8365,-0.34304,0.0,0.0
936,233.75,70.9798,78.0102,131.1,98.1864,101.08,0.00258342,0.114144,20.9058,52.8666,-0.26434,0.0,0.0
949,237,70.6603,76.9666,128.471,98.1457,101.506,0.00251587,0.113411,20.9055,52.7264,-0.306347,0.0,0.0
962,240.25,70.6815,76.7316,131.029,98.1066,102.371,0.00246031,0.113133,20.9067,52.6964,-0.387199,0.0,0.0
975,243.5,70.0591,75.3988,129.947,98.0958,101.359,0.00244705,0.11322,20.907,52.7765,-0.297764,0.0,0.0
988,246.75,69.769,75.5482,132.981,98.0734,101.609,0.00254186,0.113271,20.9071,52.7064,-0.32229,0.0,0.0
1001,250,69.8736,75.2315,132.088,98.0455,101.523,0.00262051,0.113145,20.9059,52.6564,-0.317137,0.0,0.0
1014,253.25,69.5391,74.6535,130.046,98.0351,102.247,0.00279682,0.112712,20.9057,52.6063,-0.382855,0.0,0.0
1027,256.5,69.0826,74.1232,128.01,98.0143,101.745,0.00292562,0.113198,20.9059,52.6464,-0.339987,0.0,0.0
1040,259.75,69.1363,73.8218,130.495,98.0119,101.466,0.00292771,0.112982,20.9062,52.6163,-0.315163,0.0,0.0
1053,263,68.5549,73.3908,130.117,97.9976,102.134,0.00289126,0.112428,20.90625,52.5763,-0.376276,0.0,0.0
1066,266.25,68.4026,72.8262,128.966,98.0103,101.786,0.0030295,0.111988,20.9056,52.5563,-0.344021,0.0,0.0
1079,269.5,68.2448,72.4521,128.459,97.9856,102.235,0.00313276,0.112297,20.9044,52.4662,-0.38633,0.0,0.0
1092,272.75,67.791,72.7087,128.677,97.9804,101.374,0.0029995,0.111892,20.9061,52.4862,-0.30985,0.0,0.0
1105,276,67.8776,72.6476,128.88,97.9828,101.555,0.00288896,0.111756,20.9063,52.4662,-0.325902,0.0,0.0
1118,279.25,68.1812,72.0672,128.299,98.0008,102.008,0.00277874,0.111826,20.9063,52.4562,-0.364697,0.0,0.0
1131,282.5,67.4716,71.7237,130.177,98.0786,102.594,0.00287669,0.112841,20.9083,52.3761,-0.409625,0.0,0.0
1144,285.75,67.6691,71.7466,131.443,98.1457,101.692,0.00290097,0.112804,20.9078,52.3461,-0.323045,0.0,0.0
1157,289,67.7848,71.1111,132.238,98.2267,102.458,0.00281578,0.112462,20.9092,52.3561,-0.383782,0.0,0.0
1170,292.25,68.1261,70.8985,130.543,98.2727,102.137,0.00282486,0.111725,20.9097,52.2961,-0.350967,0.0,0.0
1183,295.5,67.379,70.9896,129.863,98.3118,102.155,0.00303262,0.111618,20.9103,52.266,-0.348948,0.0,0.0
1196,298.75,67.443,70.8158,132.273,98.42,101.469,,0.110904,,52.3161,-0.277639,0.0,0.0
1209,302,67.7269,70.7198,129.298,98.4755,102.821,,,,52.206,-0.392986,0.0,0.0
1222,305.25,67.1404,70.4371,128.531,98.5397,101.783,,,,52.1659,-0.294676,0.0,0.0
1233,308,67.1202,70.2958,128.622,98.6012,101.451,,,,52.1559,-0.259319,0.0,0.0