File: 01_Data/FDNY_LDF/Cone/FDNY_LDF_Cone_HF50Scan_220913_R1.csv
Names,Time,Stack TC,Smoke TC,Exh Press,Smoke Comp,Smoke Meas,CO Meter,CO2 Meter,O2 Meter,Sample Mass,Ext Coeff,Start Test,Flame Verif
Chan Gain,,500,500,1,1,1,1,1,1,1,1,1.0,1.0
Offset,,0,0,0.139139,0,0,0,0,0,0,0,0.0,0.0
Gain,,1,1,25.011,13.0826,14.7555,1,1,1,1.00088,1.03743,1.0,1.0
Units,sec,C,C,Pa,%,%,%,%,%,g,/m,,
Baseline,,46.8865,48.1891,139.696,97.9027,99.0401,0.00145517,0.0482968,20.9857,-443.597,-0.105062,,
21,5,45.7465,47.386,141.107,98.1309,96.3098,0.0030103,0.0610226,20.9454,82.2324,0.17047,0.0,0.0
42,10.25,49.138,49.1215,122.5,98.1724,98.6919,0.00293094,0.250909,20.6878,81.6119,-0.0480254,0.0,1.0
63,15.5,53.5145,51.5439,126.275,98.283,97.3288,0.00362895,0.378893,20.5797,80.9813,0.0887828,0.0,0.0
84,20.75,57.8639,54.8629,127.078,98.3513,97.0497,0.00427163,0.41081,20.5577,80.3708,0.121244,0.0,0.0
105,26,61.0764,58.2635,121.089,98.4547,97.3748,0.00431118,0.410027,20.5633,79.6001,0.100371,0.0,0.0
126,31.25,62.94,61.037,124.594,98.5366,96.3954,0.00414623,0.401309,20.577,79.1197,0.199929,0.0,0.0
147,36.5,64.905,62.3733,129.335,98.6104,97.3946,0.003718,0.385356,20.5981,78.5091,0.112901,0.0,0.0
168,41.75,65.7912,64.295,126.329,98.6543,97.7665,0.00357059,0.370033,20.6182,77.9186,0.0822658,0.0,0.0
189,47,66.4949,65.4271,127.056,98.7042,98.2285,0.00365484,0.357467,20.6357,77.4782,0.0439642,0.0,0.0
210,52.25,67.2859,66.7479,129.082,98.7258,97.8525,0.00358458,0.345165,20.6488,76.9878,0.0808531,0.0,0.0
231,57.5,67.0726,67.9458,126.713,98.6903,99.0355,0.00346073,0.335595,20.6599,76.3773,-0.0317772,0.0,0.0
252,62.75,67.2878,68.3352,129.265,98.6939,98.6063,0.00331499,0.323966,20.6704,75.8868,0.00807305,0.0,0.0
273,68,67.9811,69.1299,131.27,98.701,98.9828,0.00323648,0.312484,20.6856,75.4264,-0.0259407,0.0,0.0
294,73.25,67.9859,69.6351,132.338,98.707,99.8411,0.00336631,0.300752,20.6983,74.8459,-0.103957,0.0,0.0
315,78.5,67.2818,69.7434,132.578,98.7374,100.152,0.0031647,0.291792,20.7071,74.3955,-0.129436,0.0,0.0
336,83.75,67.1778,70.2134,125.426,98.7542,99.4007,0.0029471,0.281332,20.7205,73.9451,-0.0593844,0.0,0.0
357,89,66.64,70.0514,127.608,98.749,100.23,0.00274697,0.273303,20.7313,73.4146,-0.135445,0.0,0.0
378,94.25,66.7203,69.6669,130.388,98.7677,100.124,0.00270665,0.265691,20.741,72.9442,-0.124102,0.0,0.0
399,99.5,66.6582,69.7952,130.274,98.7809,100.67,0.00257401,0.259195,20.7488,72.6039,-0.1724,0.0,0.0
420,104.75,66.1262,69.5225,128.161,98.7917,100.935,0.0023695,0.25262,20.7554,72.1836,-0.19531,0.0,0.0
441,110,65.8125,69.6508,129.732,98.8284,100.856,0.00235969,0.247123,20.7632,71.7132,-0.18482,0.0,0.0
462,115.25,65.4575,69.6612,132.218,98.8655,101.502,0.00234614,0.242578,20.7697,71.3328,-0.239521,0.0,0.0
483,120.5,65.2639,69.5064,132.499,98.8899,101.486,0.00193716,0.238175,20.7732,70.8924,-0.235786,0.0,0.0
504,125.75,64.9532,68.6445,124.255,98.9226,101.652,0.00192756,0.238305,20.7734,70.5021,-0.247661,0.0,0.0
525,131,65.0344,68.7343,134.065,98.935,101.632,0.00200635,0.235741,20.7772,70.1318,-0.244748,0.0,0.0
546,136.25,64.8076,68.712,129.128,98.933,100.583,0.00202509,0.238027,20.7753,69.7915,-0.150537,0.0,0.0
567,141.5,64.3039,68.6984,132.203,98.9182,101.124,0.00191578,0.239651,20.7726,69.3511,-0.200654,0.0,0.0
588,146.75,64.4859,68.4989,129.579,98.8899,100.992,0.00222264,0.244773,20.7653,69.0108,-0.191382,0.0,0.0
609,152,64.8011,68.7113,128.857,98.8512,102.046,0.00184724,0.25211,20.7552,68.5804,-0.289484,0.0,0.0
630,157.25,65.4082,69.2077,130.743,98.8009,100.122,0.00175081,0.262959,20.7411,68.14,-0.120845,0.0,0.0
651,162.5,66.0376,69.6201,126.784,98.7825,101.187,0.00195136,0.276993,20.7235,67.7296,-0.218904,0.0,0.0
672,167.75,66.7712,69.3089,130.086,98.7338,100.786,0.00216224,0.291312,20.7038,67.2993,-0.187237,0.0,0.0
693,173,67.4756,70.0609,129.911,98.6867,99.1661,0.00211487,0.311985,20.6783,66.7788,-0.0440997,0.0,0.0
714,178.25,68.0542,70.7964,124.435,98.6699,98.7685,0.00241633,0.327103,20.6588,66.3584,-0.00908464,0.0,0.0
735,183.5,68.8186,71.7026,126.988,98.6376,98.2213,0.0028236,0.342549,20.6374,65.878,0.0384824,0.0,0.0
756,188.75,69.7219,72.3879,128.425,98.6,98.4613,0.00298219,0.353198,20.624,65.3676,0.0128094,0.0,0.0
777,194,70.4069,73.1528,127.046,98.5825,96.6836,0.00307019,0.358135,20.6163,64.9072,0.177002,0.0,0.0
798,199.25,71.4399,73.6485,128.377,98.5697,96.3431,0.00331938,0.363731,20.6098,64.4067,0.207922,0.0,0.0
819,204.5,71.665,74.0751,126.202,98.5429,97.2577,0.00343427,0.367693,20.6075,63.8662,0.119472,0.0,0.0
840,209.75,72.1351,74.68,125.281,98.5298,97.2536,0.00351812,0.374565,20.5968,63.3658,0.118635,0.0,0.0
861,215,73.0011,75.5199,132.449,98.5298,96.67,0.00347561,0.38538,20.5845,62.8754,0.173408,0.0,0.0
882,220.25,73.7197,76.376,121.444,98.513,96.3134,0.00340771,0.3973,20.5735,62.2748,0.205494,0.0,0.0
903,225.5,74.5546,76.5276,123.595,98.5106,96.0995,0.0036124,0.403582,20.5683,61.7344,0.225506,0.0,0.0
924,230.75,74.9568,77.7748,125.942,98.489,95.9446,0.00344218,0.397881,20.5754,61.2239,0.238193,0.0,0.0
945,236,74.7288,78.3526,127.888,98.4511,96.2382,0.00349406,0.374865,20.6055,60.6935,0.206884,0.0,0.0
966,241.25,74.4805,77.7093,125.104,98.3996,97.6251,0.00322546,0.330012,20.665,60.3431,0.0719091,0.0,0.0
987,246.5,72.9844,76.8095,126.881,98.3545,98.8166,0.00287976,0.260762,20.7423,60.153,-0.0426592,0.0,0.0
1008,251.75,69.9714,75.1519,132.935,98.295,100.685,0.00311492,0.19157,20.826,59.9428,-0.218616,0.0,0.0
1029,257,67.4022,73.0791,133.77,98.2235,99.6862,0.0042214,0.146721,20.8776,59.8827,-0.134511,0.0,0.0
1050,262.25,65.2309,71.6155,136.764,98.176,100.027,0.00561915,0.126094,20.8985,59.8527,-0.169981,0.0,0.0
1071,267.5,63.4559,69.6649,134.52,98.1621,99.5695,0.00664531,0.116704,20.9055,59.7927,-0.129557,0.0,0.0
1092,272.75,61.5353,68.2828,134.144,98.1381,100.897,0.00740554,0.112746,20.9061,59.6625,-0.252304,0.0,0.0
1113,278,60.59,66.9875,138.857,98.0842,99.5912,0.00800571,0.110237,20.9088,59.6225,-0.138752,0.0,0.0
1134,283.25,59.5511,65.5525,133.425,98.0539,99.4804,0.00809604,0.108949,20.911,59.5625,-0.131441,0.0,0.0
1155,288.5,58.1721,64.2346,135.557,98.004,99.7033,0.00813204,0.108422,20.9125,59.4824,-0.156441,0.0,0.0
1176,293.75,57.6159,62.8466,138.12,97.9509,98.8288,0.00811953,0.107142,20.9122,59.4624,-0.081203,0.0,0.0
1197,299,56.8719,61.8344,133.313,97.8854,100.246,0.00798949,0.10569,20.915,59.4123,-0.216891,0.0,0.0
1218,304.25,55.9764,61.4947,139.082,97.8155,99.2309,0.00820937,0.104859,20.9149,59.3022,-0.130739,0.0,0.0
1239,309.5,56.0546,60.3951,134.709,97.7912,99.212,0.00864549,0.103902,20.9167,59.3022,-0.131271,0.0,0.0
1260,314.75,55.4105,60.1325,139.098,97.7712,99.8631,0.00841043,0.103592,20.917,59.2622,-0.19266,0.0,0.0
1281,320,54.6389,59.3729,137.389,97.7341,99.5646,0.00863692,0.102866,20.9208,59.1421,-0.168869,0.0,0.0
1302,325.25,54.6506,59.1407,135.364,97.748,99.4786,0.00853819,0.102598,20.9212,59.1321,-0.159703,0.0,0.0
1323,330.5,54.2844,58.148,133.747,97.7668,99.4844,0.00893277,0.102065,20.9213,59.102,-0.158492,0.0,0.0
1344,335.75,54.1485,57.7431,133.672,97.7365,99.013,0.00867639,0.101239,20.9219,58.9519,-0.118087,0.0,0.0
1365,341,53.9885,57.2025,135.034,97.764,99.353,0.00865496,0.100644,20.9234,58.9719,-0.146717,0.0,0.0
1386,346.25,53.6405,57.2488,136.752,97.7289,100.319,0.00893969,0.10058,20.9242,58.9219,-0.238032,0.0,0.0
1407,351.5,53.3296,56.6408,133.868,97.7013,99.5083,0.00893726,0.0996038,20.9243,58.8518,-0.166771,0.0,0.0
1428,356.75,53.2518,56.0074,137.257,97.6774,99.1526,0.0090047,0.0992651,20.9238,58.8418,-0.136412,0.0,0.0
1449,362,53.0623,56.507,138.753,97.6279,99.1463,0.00885593,0.0982465,20.9255,58.8018,-0.140447,0.0,0.0
1470,367.25,52.7406,55.6808,138.337,97.5185,99.4376,0.00892057,0.0972937,20.9265,58.6817,-0.177352,0.0,0.0
1491,372.5,52.0504,55.1549,141.575,97.4215,99.6105,0.00894162,0.0970904,20.927,58.6216,-0.202221,0.0,0.0
1512,377.75,52.5705,55.1083,139.263,97.3105,99.0828,0.009072,0.0964454,20.9281,58.6617,-0.164251,0.0,0.0
1533,383,52.3547,54.3438,137.592,97.1907,99.1044,0.009328,0.0957713,20.929,58.5416,-0.177444,0.0,0.0
1554,388.25,50.9841,52.9613,134.435,97.1092,98.2785,0.00928765,0.0943916,20.9282,58.4615,-0.108922,0.0,0.0
1575,393.5,50.5937,53.0821,133.576,97.0334,98.5636,0.00959833,0.0939609,20.9283,58.5215,-0.14239,0.0,0.0
1596,398.75,50.7442,52.8023,137.96,97.0094,99.294,0.0094589,0.0944512,20.9283,58.4615,-0.211824,0.0,0.0
1617,404,50.8228,52.4134,134.915,97.0006,99.3498,0.00901844,0.0932343,20.9303,58.3814,-0.217764,0.0,0.0
1638,409.25,50.7894,52.637,135.976,97.011,97.8602,0.00883833,0.0922447,20.9306,58.4014,-0.0793118,0.0,0.0
1659,414.5,50.4731,52.1882,139.907,97.0146,97.7373,0.00865513,0.0911504,20.9327,58.3814,-0.0675356,0.0,0.0
1680,419.75,50.2582,52.1425,139.441,97.0605,98.401,0.0085446,0.0915503,20.9329,58.2813,-0.124822,0.0,0.0
1701,425,50.5481,52.4768,133.848,97.1072,100.151,0.00805906,0.0910275,20.933,58.2713,-0.280853,0.0,0.0
1722,430.25,50.199,51.8981,134.858,97.1176,98.224,0.00823616,0.090316,20.9334,58.2313,-0.103089,0.0,0.0
1743,435.5,50.0914,51.5889,138.002,97.0925,98.8914,0.00805501,0.0902091,20.9357,58.1212,-0.167066,0.0,0.0
1764,440.75,49.9608,51.9653,135.548,97.0925,98.4177,0.00797594,0.0902306,20.9365,58.1912,-0.123369,0.0,0.0
1785,446,50.4936,51.5018,133.164,97.0961,98.2587,0.00797973,0.0897462,20.9375,58.1212,-0.108322,0.0,0.0
1806,451.25,49.9965,51.8396,133.122,97.0985,98.7329,0.00806888,0.0893035,20.9385,58.0311,-0.151907,0.0,0.0
1827,456.5,50.0193,51.6097,136.437,97.1284,99.1201,0.00791498,0.0893732,20.9364,58.0011,-0.184725,0.0,0.0
1848,461.75,50.3259,51.3821,137.698,97.122,99.3642,0.00769532,0.0885008,20.937,58.0011,-0.207704,0.0,0.0
1869,467,49.9877,51.7157,138.751,97.0965,99.2593,0.0079158,0.0881042,20.9368,57.871,-0.200485,0.0,0.0
1890,472.25,50.3336,51.7038,135.395,97.0933,99.2566,0.00765898,0.0880757,20.9376,57.861,-0.200536,0.0,0.0
1911,477.5,49.9689,51.2036,135.216,97.0669,98.7667,0.0076217,0.0878557,20.9375,57.871,-0.157976,0.0,0.0
1932,482.75,50.3024,51.5949,134.67,97.0414,98.9387,0.00742694,0.0880532,20.9373,57.7509,-0.176207,0.0,0.0
1953,488,49.9882,51.5069,132.704,97.0314,98.9342,0.00730129,0.0880589,20.9361,57.7208,-0.176729,0.0,0.0
1974,493.25,50.2131,51.6448,138.572,97.0342,98.8184,,0.0877603,,57.8109,-0.165816,0.0,0.0
1995,498.5,50.0836,51.2283,137.431,97.013,98.8653,,,,57.7108,-0.172113,0.0,0.0
2012,502.75,50.2787,51.2094,138.782,97.023,98.8387,,,,57.6508,-0.16873,0.0,0.0