File: 01_Data/FDNY_LDF/Cone/FDNY_LDF_Cone_HF25Scalar_220913_R4.csv
LABORATORY,FSRI
TEST IDENT,FDNY_LDF_HF25_R4
OPERATOR,Dow
MATERIAL,FDNY Low Density Fiberboard
ORIENTATION,Horizontal
HEAT FLUX,25
SURF AREA,0.01
C FACTOR,0.0415136
SPEC HOLDER DIFF,-566
SPECIMEN MASS,26.9
SCAN TIME,0.25
O2 DELAY TIME,11
CO DELAY TIME,11
CO2 DELAY TIME,8
FLOW FACTOR,1
SCAN COUNT,2296
TIME TO IGN,37.5
END OF TEST SCAN,1816
END OF TEST TIME,454
TEST STATUS,1
PRE TEST CMT,Dimensions: 99.20 x 98.92 x 12.14 mm; with tie wires