File: 01_Data/FDNY_LDF/Cone/FDNY_LDF_Cone_HF75Scan_220913_R2.csv
Names,Time,Stack TC,Smoke TC,Exh Press,Smoke Comp,Smoke Meas,CO Meter,CO2 Meter,O2 Meter,Sample Mass,Ext Coeff,Start Test,Flame Verif
Chan Gain,,500,500,1,1,1,1,1,1,1,1,1.0,1.0
Offset,,0,0,0.139139,0,0,0,0,0,0,0,0.0,0.0
Gain,,1,1,25.011,13.0826,14.7555,1,1,1,1.00088,1.03743,1.0,1.0
Units,sec,C,C,Pa,%,%,%,%,%,g,/m,,
Baseline,,63.3029,65.0276,132.87,97.9397,100.958,0.000799661,0.0491674,20.9837,-449.337,-0.276157,,
13,3,60.6424,62.4293,120.818,98.6803,100.48,0.00297391,0.11521,20.8643,75.2262,-0.164479,0.0,1.0
26,6.25,64.41,64.0953,112.667,98.7078,94.8918,0.00436528,0.353487,20.5756,74.6357,0.358797,0.0,1.0
39,9.5,68.9699,66.341,107.787,98.7498,93.6512,0.00549828,0.540008,20.3844,74.1553,0.482421,0.0,0.0
52,12.75,74.0367,70.9068,113.667,98.7549,92.8614,0.0062661,0.620629,20.3012,73.5247,0.559974,0.0,0.0
65,16,77.9911,74.2546,114.873,98.7629,92.8546,0.00668516,0.63049,20.2945,72.9542,0.561372,0.0,0.0
78,19.25,80.8694,77.3995,115.974,98.7741,93.3468,0.00694823,0.620207,20.3102,72.4038,0.514293,0.0,0.0
91,22.5,83.0287,79.7584,114.377,98.7917,92.9947,0.00708552,0.602616,20.3318,71.9333,0.550305,0.0,0.0
104,25.75,85.3418,81.5434,119.732,98.7597,93.9939,0.00693509,0.578541,20.3628,71.3729,0.450101,0.0,0.0
117,29,86.6206,83.769,111.022,98.737,93.8021,0.00671877,0.557092,20.3876,70.8924,0.466596,0.0,0.0
130,32.25,87.6767,85.3584,117.203,98.7418,94.4874,0.00614213,0.539813,20.4076,70.5021,0.40079,0.0,0.0
143,35.5,88.5916,86.6743,117.998,98.7174,96.0806,0.00574944,0.522244,20.433,70.0117,0.246381,0.0,0.0
156,38.75,89.4653,87.9149,118.455,98.6699,95.3903,0.00563863,0.502225,20.4559,69.5613,0.307619,0.0,0.0
169,42,89.4453,88.6929,115.805,98.6639,94.3145,0.0052651,0.4869,20.4749,69.1409,0.41028,0.0,0.0
182,45.25,89.9393,89.7427,117.941,98.6164,96.2657,0.00494283,0.470479,20.494,68.7505,0.219553,0.0,0.0
195,48.5,90.6005,90.4978,116.266,98.5589,95.5389,0.00500818,0.454212,20.5111,68.2701,0.283212,0.0,0.0
208,51.75,90.3661,91.5056,114.702,98.5082,95.6713,0.00503699,0.441796,20.5278,67.8097,0.265927,0.0,0.0
221,55,90.5787,91.8824,121.939,98.4663,97.3014,0.0049287,0.428161,20.5423,67.4094,0.108305,0.0,0.0
234,58.25,90.7221,92.668,117.547,98.3892,97.2843,0.00451917,0.413386,20.562,66.9389,0.102781,0.0,0.0
247,61.5,90.48,92.5418,118.433,98.3246,97.6985,0.00411089,0.402494,20.575,66.5886,0.0581252,0.0,0.0
260,64.75,89.974,93.1166,120.532,98.2838,98.0318,0.00377982,0.392791,20.5887,66.1783,0.0233689,0.0,0.0
273,68,90.3224,92.7376,120.6,98.287,98.8774,0.00355728,0.381637,20.6018,65.7979,-0.0545009,0.0,0.0
286,71.25,89.563,92.8991,123.789,98.287,98.949,0.00329516,0.37321,20.6097,65.3475,-0.0610885,0.0,0.0
299,74.5,89.6406,93.2495,118.891,98.309,99.262,0.00327933,0.367426,20.6181,65.0573,-0.087793,0.0,0.0
312,77.75,89.2487,93.1773,119.258,98.3521,99.0868,0.00325188,0.361423,20.6236,64.697,-0.067729,0.0,0.0
325,81,89.46,93.4883,122.681,98.3653,99.8609,0.00322356,0.355713,20.631,64.2466,-0.137326,0.0,0.0
338,84.25,88.7726,93.3876,119.974,98.3952,100.56,0.00303868,0.350561,20.6363,63.9263,-0.198021,0.0,0.0
351,87.5,87.968,93.4177,122.977,98.4156,100.076,0.00303351,0.346912,20.64,63.566,-0.152266,0.0,0.0
364,90.75,88.3433,93.0787,124.609,98.4363,100.312,0.00294853,0.344025,20.6412,63.2257,-0.171738,0.0,0.0
377,94,87.7751,92.9067,118.257,98.4487,99.8712,0.00276373,0.343757,20.6394,62.8554,-0.130553,0.0,0.0
390,97.25,88.1704,93.1273,116.383,98.4894,99.9365,0.0027805,0.34951,20.6339,62.485,-0.132737,0.0,0.0
403,100.5,88.2542,93.4457,121.477,98.5062,99.7974,0.00279786,0.354113,20.6309,62.1547,-0.118508,0.0,0.0
416,103.75,88.127,93.757,118.868,98.5034,99.9392,0.00289095,0.362924,20.6225,61.7644,-0.131692,0.0,0.0
429,107,88.0503,93.6319,118.078,98.509,99.4367,0.00307177,0.377766,20.603,61.3741,-0.0852997,0.0,0.0
442,110.25,89.2389,93.5327,116.676,98.5338,99.099,0.00314006,0.396793,20.5778,60.9837,-0.0520528,0.0,0.0
455,113.5,89.4402,94.1167,116.862,98.5402,98.1106,0.00337931,0.418098,20.5509,60.6034,0.0397592,0.0,0.0
468,116.75,89.7679,94.7024,116.693,98.5737,98.36,0.00359893,0.436004,20.5296,60.193,0.0197454,0.0,0.0
481,120,90.2823,95.5702,118.883,98.5833,98.3339,0.00378147,0.448119,20.5158,59.7626,0.0230475,0.0,0.0
494,123.25,90.9229,95.913,115.225,98.6136,97.6139,0.00398196,0.453495,20.5089,59.3423,0.0927289,0.0,0.0
507,126.5,91.4565,96.3968,114.887,98.63,97.5274,0.00395878,0.45815,20.4989,58.9719,0.102303,0.0,0.0
520,129.75,92.355,96.7498,115.924,98.6715,96.208,0.00389872,0.463694,20.4894,58.5516,0.230085,0.0,0.0
533,133,92.4358,96.9993,121.744,98.7346,96.05,0.004108,0.470744,20.4764,58.2213,0.250865,0.0,0.0
546,136.25,92.8554,97.1843,118.528,98.7749,95.5997,0.00426261,0.47895,20.4623,57.8209,0.297345,0.0,0.0
559,139.5,93.3765,97.5882,116.97,98.8224,96.4778,0.00420776,0.490096,20.4479,57.4706,0.218515,0.0,0.0
572,142.75,93.4945,97.5508,119.014,98.8631,96.3697,0.00412252,0.50178,20.433,56.9101,0.232465,0.0,0.0
585,146,94.1209,98.3651,117.746,98.8943,97.8012,0.00416245,0.515547,20.4139,56.7099,0.101146,0.0,0.0
598,149.25,94.2641,99.2462,116.574,98.9202,97.6715,0.00411431,0.527918,20.4009,56.2395,0.115608,0.0,0.0
611,152.5,95.2477,99.5142,115.913,98.9474,97.6778,0.00399861,0.534238,20.3959,55.8292,0.117518,0.0,0.0
624,155.75,95.5926,99.9884,117.94,98.9705,98.8635,0.00396529,0.533309,20.4016,55.3888,0.00985044,0.0,0.0
637,159,95.8174,100.604,117.47,98.9781,97.6364,0.00426945,0.527084,20.4125,54.9484,0.124206,0.0,0.0
650,162.25,95.9867,100.606,116.988,98.9805,98.1754,0.0045964,0.515292,20.4284,54.6081,0.0743251,0.0,0.0
663,165.5,96.0697,100.953,118.351,98.9961,98.0484,0.00457715,0.489905,20.4648,54.2678,0.0875354,0.0,0.0
676,168.75,94.7805,100.653,119.352,98.9881,96.6709,0.00448848,0.450936,20.5032,53.9575,0.215558,0.0,0.0
689,172,93.8591,100.415,121.949,98.9813,97.2784,0.0042854,0.401206,20.5667,53.6873,0.157928,0.0,0.0
702,175.25,93.0651,99.3479,127.068,99.0013,98.6095,0.00384013,0.329738,20.6554,53.5372,0.036085,0.0,0.0
715,178.5,90.3622,98.0303,125.639,99.0005,102.144,0.00304551,0.250693,20.7618,53.417,-0.284457,0.0,0.0
728,181.75,88.5003,96.4867,128.689,99.0089,103.157,0.00242185,0.181739,20.8321,53.377,-0.373509,0.0,0.0
741,185,86.5712,94.8561,128.206,99.0292,102.463,0.00228808,0.145943,20.8697,53.357,-0.310176,0.0,0.0
754,188.25,82.6742,91.4818,129.476,99.0468,102.491,0.00238472,0.12784,20.8898,53.327,-0.31104,0.0,0.0
767,191.5,81.0357,89.6445,132.099,99.0432,101.821,0.00231464,0.121723,20.8968,53.2169,-0.25168,0.0,0.0
780,194.75,79.3834,88.4366,130.389,99.0528,102.267,0.0022177,0.119632,20.8975,53.2669,-0.290597,0.0,0.0
793,198,78.3692,87.3379,128.687,99.0771,102.549,0.00224837,0.117302,20.8997,53.2169,-0.31345,0.0,0.0
806,201.25,76.9305,86.1521,131.711,99.0783,102.9,0.00225198,0.11585,20.9017,53.1468,-0.344455,0.0,0.0
819,204.5,76.0054,84.5971,133.269,99.0895,103.419,0.00209617,0.116014,20.9004,53.1268,-0.389151,0.0,0.0
832,207.75,75.1059,83.6737,127.24,99.1095,102.347,0.00206104,0.116043,20.9006,53.0868,-0.292479,0.0,0.0
845,211,74.1505,82.266,137.238,99.1027,103.317,0.00234052,0.114691,20.9013,53.0367,-0.378982,0.0,0.0
858,214.25,73.7132,81.4703,131.488,99.1079,103.199,0.00253094,0.11497,20.9015,52.9266,-0.368107,0.0,0.0
871,217.5,72.9903,80.4839,127.1,99.1239,103.13,0.00261287,0.114994,20.9024,52.8866,-0.360564,0.0,0.0
884,220.75,72.3045,80.0588,129.454,99.1263,102.753,0.00271828,0.114592,20.9044,52.9366,-0.326984,0.0,0.0
897,224,71.9151,79.3475,127.947,99.1187,102.944,0.00264996,0.114197,20.9051,52.8666,-0.344574,0.0,0.0
910,227.25,71.1618,78.044,129.149,99.1099,102.287,0.00272808,0.114438,20.9053,52.8666,-0.287117,0.0,0.0
923,230.5,70.926,77.834,132.965,99.1203,102.787,0.00278046,0.11401,20.9054,52.8766,-0.330525,0.0,0.0
936,233.75,70.0519,77.204,131.746,99.1039,103.125,0.00286172,0.113483,20.9054,52.8666,-0.361959,0.0,0.0
949,237,70.2537,76.2167,129.666,99.0943,102.628,0.00287945,0.113313,20.9054,52.7064,-0.318824,0.0,0.0
962,240.25,69.5862,75.9074,132.052,99.0712,103.344,0.00285876,0.113946,20.9054,52.6964,-0.384297,0.0,0.0
975,243.5,69.2973,75.0983,129.332,99.064,102.405,0.0028621,0.113432,20.9068,52.7565,-0.301864,0.0,0.0
988,246.75,69.2347,74.7238,129.618,99.0145,102.546,0.00277302,0.112546,20.9075,52.6664,-0.318889,0.0,0.0
1001,250,68.8374,74.3366,130.926,98.9969,103.029,0.00275276,0.113067,20.9063,52.5863,-0.363321,0.0,0.0
1014,253.25,68.9196,73.7647,127.456,98.9809,102.343,0.002823,0.113273,20.9074,52.6263,-0.303931,0.0,0.0
1027,256.5,68.2567,73.4866,129.074,98.947,103.01,0.00295535,0.113083,20.9076,52.6364,-0.3662,0.0,0.0
1040,259.75,68.4163,73.2538,133.937,98.9158,103.599,0.00299712,0.112629,20.9083,52.5463,-0.42099,0.0,0.0
1053,263,67.8068,72.4532,132.81,98.9306,102.774,0.0030313,0.112484,20.9083,52.5963,-0.346876,0.0,0.0
1066,266.25,67.712,72.5074,128.995,98.931,102.368,0.00307685,0.11342,20.9072,52.5263,-0.310763,0.0,0.0
1079,269.5,68.0468,72.1574,129.827,98.9226,102.37,0.00288372,0.113496,20.9076,52.4462,-0.311774,0.0,0.0
1092,272.75,67.6514,71.9649,129.767,98.915,101.686,0.00284359,0.112464,20.9083,52.4362,-0.251422,0.0,0.0
1105,276,67.2181,71.5578,133.519,98.9234,101.792,0.00288811,0.112754,20.9085,52.4862,-0.260116,0.0,0.0
1118,279.25,66.9031,71.198,125.842,98.9238,102.021,0.00293108,0.112575,20.909,52.4562,-0.280508,0.0,0.0
1131,282.5,67.3374,70.7623,130.916,98.9234,101.741,0.00313882,0.11175,20.9101,52.3361,-0.255566,0.0,0.0
1144,285.75,67.03,70.8997,134.505,98.9334,102.322,0.00336508,0.11129,20.911,52.3761,-0.306499,0.0,0.0
1157,289,67.1484,70.5561,134.215,98.9314,102.955,0.00337374,0.110906,20.912,52.3161,-0.362777,0.0,0.0
1170,292.25,66.5828,70.1851,129.823,98.9302,102.935,0.00339603,0.111454,20.9123,52.276,-0.361096,0.0,0.0
1183,295.5,67.1319,69.973,131.726,98.947,101.935,0.00337095,0.111676,20.9124,52.256,-0.270783,0.0,0.0
1196,298.75,66.848,70.1368,130.964,98.951,102.59,,0.111507,,52.3161,-0.328641,0.0,0.0
1209,302,66.7373,69.8802,134.154,98.9318,102.51,,,,52.206,-0.32329,0.0,0.0
1222,305.25,66.2755,69.5492,130.608,98.927,102.434,,,,52.1759,-0.317053,0.0,0.0
1228,306.75,66.437,69.4653,130.356,98.9314,102.807,,,,52.236,-0.349673,0.0,0.0