File: 01_Data/FDNY_LDF/Cone/FDNY_LDF_Cone_HF50Scan_220913_R2.csv
Names,Time,Stack TC,Smoke TC,Exh Press,Smoke Comp,Smoke Meas,CO Meter,CO2 Meter,O2 Meter,Sample Mass,Ext Coeff,Start Test,Flame Verif
Chan Gain,,500,500,1,1,1,1,1,1,1,1,1.0,1.0
Offset,,0,0,0.139139,0,0,0,0,0,0,0,0.0,0.0
Gain,,1,1,25.011,13.0826,14.7555,1,1,1,1.00088,1.03743,1.0,1.0
Units,sec,C,C,Pa,%,%,%,%,%,g,/m,,
Baseline,,50.8845,52.3998,137.587,97.9988,99.515,0.00101608,0.0494675,20.9839,-445.082,-0.139653,,
20,4.75,49.2874,50.402,140.617,98.2643,96.5453,0.00171396,0.0660873,20.955,79.6902,0.160602,0.0,0.0
40,9.75,52.4977,51.7617,124.279,98.2315,99.4232,0.00261566,0.260144,20.7109,79.1297,-0.109733,0.0,1.0
60,14.75,56.2243,54.3375,123.378,98.2072,97.6247,0.00345161,0.382481,20.58,78.4791,0.0541371,0.0,0.0
80,19.75,60.2235,57.5063,122.231,98.1645,97.1127,0.00400027,0.411718,20.5547,77.8786,0.09803,0.0,0.0
100,24.75,63.104,60.6978,125.165,98.1497,96.4413,0.00396696,0.419309,20.5512,77.3081,0.159794,0.0,0.0
120,29.75,65.6692,63.4367,120.497,98.1645,96.3949,0.00412644,0.414821,20.5602,76.7076,0.165542,0.0,0.0
140,34.75,67.4641,65.5231,125.767,98.1844,96.1004,0.00434231,0.406527,20.5735,76.1771,0.195237,0.0,0.0
160,39.75,69.0964,66.9549,124.337,98.2012,97.409,0.00429017,0.390987,20.5922,75.6566,0.0737106,0.0,0.0
180,44.75,69.3241,68.4112,121.581,98.2335,96.725,0.00417235,0.377546,20.608,75.1362,0.140835,0.0,0.0
200,49.75,70.2195,69.753,124.082,98.192,98.3128,0.00384638,0.364133,20.6238,74.6257,-0.011184,0.0,0.0
220,54.75,70.521,70.8087,124.934,98.18,97.0087,0.00339745,0.352214,20.6397,74.0852,0.109225,0.0,0.0
240,59.75,70.9498,71.264,125.891,98.1772,98.8594,0.00297236,0.337388,20.6568,73.5748,-0.0630147,0.0,0.0
260,64.75,71.1506,72.2728,129.924,98.1521,99.3367,0.0028341,0.325283,20.6725,73.1344,-0.10918,0.0,0.0
280,69.75,71.1937,72.6284,130.078,98.1461,98.7923,0.00269973,0.312289,20.6848,72.614,-0.0597234,0.0,0.0
300,74.75,71.2729,72.5896,128.479,98.113,99.0202,0.00282395,0.302374,20.6976,72.1135,-0.0837608,0.0,0.0
320,79.75,70.5667,73.5022,130.96,98.1201,98.9769,0.00255143,0.292079,20.711,71.6631,-0.0791208,0.0,0.0
340,84.75,70.5141,73.152,127.82,98.1185,99.7339,0.00242781,0.282978,20.7199,71.2327,-0.148601,0.0,0.0
360,89.75,70.4991,73.2475,123.24,98.0814,99.9645,0.00254813,0.276876,20.7275,70.7823,-0.173059,0.0,0.0
380,94.75,70.114,73.2712,129.027,98.1261,100.049,0.0023339,0.269217,20.7363,70.352,-0.176615,0.0,0.0
400,99.75,69.3267,73.1412,128.664,98.1808,100.656,0.00217208,0.263899,20.7441,69.9316,-0.226589,0.0,0.0
420,104.75,68.8089,73.0312,130.934,98.1884,100.471,0.00216348,0.258199,20.7515,69.5613,-0.209179,0.0,0.0
440,109.75,68.9677,72.9524,128.564,98.184,100.719,0.00216711,0.254177,20.7563,69.1609,-0.231991,0.0,0.0
460,114.75,68.7881,72.614,128.985,98.212,102.012,0.00225361,0.250088,20.7604,68.7906,-0.345508,0.0,0.0
480,119.75,68.5167,72.7781,128.449,98.2375,100.278,0.00222949,0.246648,20.7634,68.3602,-0.187114,0.0,0.0
500,124.75,68.1802,72.8477,127.769,98.2503,100.65,0.00207852,0.246028,20.7634,67.9799,-0.219622,0.0,0.0
520,129.75,68.2731,72.4114,132.019,98.2487,100.974,0.00187735,0.246934,20.763,67.5795,-0.249038,0.0,0.0
540,134.75,67.654,72.2314,123.54,98.2471,100.36,0.00173382,0.248087,20.761,67.2192,-0.193661,0.0,0.0
560,139.75,68.1282,72.3656,131.325,98.2838,100.72,0.00185506,0.251455,20.7568,66.8489,-0.222785,0.0,0.0
580,144.75,68.3352,72.6162,127.21,98.3258,101.227,0.00173275,0.257387,20.747,66.3985,-0.264642,0.0,0.0
600,149.75,68.2129,72.1256,131.062,98.4048,101.152,0.00218463,0.264114,20.7382,65.9481,-0.250565,0.0,0.0
620,154.75,68.2897,72.3629,125.297,98.4799,101.55,0.00219134,0.274877,20.7238,65.5878,-0.27941,0.0,0.0
640,159.75,69.1223,72.6705,127.322,98.5182,101.274,0.00222766,0.291176,20.7031,65.1874,-0.251059,0.0,0.0
660,164.75,69.3941,72.9417,127.399,98.5354,99.8555,0.00254622,0.305007,20.6904,64.767,-0.121111,0.0,0.0
680,169.75,70.5117,73.4326,126.195,98.5693,99.4336,0.00237296,0.322476,20.6665,64.3266,-0.0794436,0.0,0.0
700,174.75,71.2095,74.1234,124.143,98.5909,98.2096,0.00265868,0.34386,20.6394,63.8462,0.0352573,0.0,0.0
720,179.75,72.0182,74.7336,128.043,98.6008,98.0732,0.00302837,0.364072,20.612,63.3958,0.0488298,0.0,0.0
740,184.75,72.7011,75.7188,119.964,98.6312,97.6954,0.00337672,0.375891,20.6005,62.8954,0.0867542,0.0,0.0
760,189.75,73.2252,76.0934,124.632,98.6336,97.7359,0.00355179,0.379491,20.5953,62.3949,0.0832011,0.0,0.0
780,194.75,74.1402,77.0822,123.251,98.6515,97.2379,0.0037209,0.382306,20.589,61.8845,0.131349,0.0,0.0
800,199.75,74.8313,77.7709,125.694,98.6647,96.2823,0.00377807,0.38799,20.582,61.4241,0.222435,0.0,0.0
820,204.75,75.0656,77.9858,128.851,98.6595,97.0965,0.00385005,0.398136,20.5683,60.9337,0.145328,0.0,0.0
840,209.75,75.8459,78.8946,124.757,98.6679,97.0821,0.00357176,0.405341,20.5596,60.3932,0.147452,0.0,0.0
860,214.75,76.7431,79.2984,125.015,98.6595,97.404,0.00354882,0.411923,20.5549,59.8827,0.116549,0.0,0.0
880,219.75,77.2354,80.3281,122.169,98.6515,97.3878,0.00370014,0.412502,20.5553,59.3423,0.117327,0.0,0.0
900,224.75,77.8026,80.664,124.478,98.6599,96.7412,0.00358977,0.403707,20.5657,58.8118,0.178726,0.0,0.0
920,229.75,77.3654,81.3408,123.995,98.6611,98.2659,0.00302238,0.378849,20.6005,58.3214,0.0365269,0.0,0.0
940,234.75,76.9642,81.2192,125.523,98.6591,97.2455,0.00301846,0.341052,20.6418,57.951,0.131333,0.0,0.0
960,239.75,75.8026,80.3239,128.37,98.6555,98.5703,0.00320929,0.272292,20.727,57.7008,0.00786386,0.0,0.0
980,244.75,73.3547,78.9421,130.39,98.6491,100.241,0.0031273,0.201719,20.8115,57.6608,-0.14567,0.0,0.0
1000,249.75,70.9197,77.3109,134.592,98.6543,100.011,0.00385493,0.159626,20.8562,57.5307,-0.124277,0.0,0.0
1020,254.75,68.2782,75.3965,131.287,98.6567,100.313,0.00473999,0.138303,20.8787,57.4106,-0.15155,0.0,0.0
1040,259.75,66.6986,73.7145,135.758,98.6683,100.265,0.00578013,0.126809,20.8911,57.4306,-0.146068,0.0,0.0
1060,264.75,64.7917,71.9826,132.043,98.6763,100.715,0.00637152,0.120138,20.8983,57.3605,-0.186071,0.0,0.0
1080,269.75,63.3699,70.699,137.649,98.6787,100.949,0.00662526,0.115072,20.9045,57.2504,-0.207024,0.0,0.0
1100,274.75,62.7005,69.2001,136.18,98.6719,100.663,0.00719534,0.112534,20.9076,57.2905,-0.181836,0.0,0.0
1120,279.75,60.6002,67.8016,138.875,98.6751,100.816,0.00768176,0.109261,20.9115,57.2504,-0.195332,0.0,0.0
1140,284.75,60.5706,66.629,133.326,98.6551,100.51,0.00810716,0.108684,20.9101,57.1503,-0.16949,0.0,0.0
1160,289.75,59.64,65.6198,133.997,98.6288,100.177,0.00823732,0.107528,20.9117,57.0703,-0.141742,0.0,0.0
1180,294.75,59.2073,64.8559,137.224,98.6136,100.251,0.00806048,0.10654,20.9139,57.0102,-0.149848,0.0,0.0
1200,299.75,58.1639,63.8052,132.504,98.6096,100.461,0.008256,0.105527,20.915,56.9201,-0.169245,0.0,0.0
1220,304.75,57.4865,63.1663,136.35,98.6032,100.236,0.00898172,0.10488,20.9136,56.8901,-0.149498,0.0,0.0
1240,309.75,57.3343,62.245,131.621,98.5968,100.437,0.00887854,0.104265,20.915,56.83,-0.168302,0.0,0.0
1260,314.75,56.8417,61.8322,137.025,98.5921,100.675,0.00862156,0.103249,20.9155,56.78,-0.190302,0.0,0.0
1280,319.75,56.4034,60.7046,132.913,98.5885,100.885,0.00891005,0.10322,20.9155,56.76,-0.209542,0.0,0.0
1300,324.75,56.4454,60.6824,137.485,98.5817,100.77,0.00892816,0.102778,20.9166,56.6999,-0.199764,0.0,0.0
1320,329.75,56.3559,59.9363,133.93,98.5681,100.589,0.00888422,0.10254,20.9171,56.6599,-0.184695,0.0,0.0
1340,334.75,56.0317,59.3795,134.083,98.5713,100.289,0.00900739,0.101489,20.9172,56.6199,-0.157228,0.0,0.0
1360,339.75,55.5127,59.4645,134.608,98.5717,100.617,0.0090354,0.100849,20.9172,56.6499,-0.18693,0.0,0.0
1380,344.75,56.1062,58.7663,135.773,98.5721,100.221,0.00913473,0.100938,20.9178,56.5698,-0.150941,0.0,0.0
1400,349.75,55.1733,58.6561,132.814,98.5509,100.213,0.00910881,0.0999099,20.9201,56.5398,-0.152199,0.0,0.0
1420,354.75,55.2615,58.2423,134.471,98.5617,101.065,0.00910232,0.0994717,20.9206,56.4998,-0.228203,0.0,0.0
1440,359.75,53.4516,56.1219,136.778,98.5541,100.566,0.00968109,0.0983253,20.9221,56.4597,-0.183867,0.0,0.0
1460,364.75,53.7333,56.3107,136.928,98.537,100.129,0.00982989,0.0969318,20.9223,56.3396,-0.145881,0.0,0.0
1480,369.75,53.2396,55.6168,137.936,98.4883,100.131,0.00941268,0.0960902,20.9223,56.3296,-0.150544,0.0,0.0
1500,374.75,52.9771,55.4578,137.148,98.418,99.8366,0.00951967,0.0959633,20.9246,56.2395,-0.130234,0.0,0.0
1520,379.75,53.1993,55.5707,134.18,98.3473,100.138,0.0093212,0.0947293,20.9267,56.1895,-0.164231,0.0,0.0
1540,384.75,52.4635,55.369,132.239,98.2523,99.2489,0.00898988,0.0948602,20.9271,56.1294,-0.0918456,0.0,0.0
1560,389.75,53.249,55.3385,134.42,98.1748,100.004,0.00877714,0.0947599,20.9285,56.1294,-0.168002,0.0,0.0
1580,394.75,52.3645,54.3049,135.506,98.1856,99.7803,0.00889819,0.0952616,20.9272,56.0894,-0.146614,0.0,0.0
1600,399.75,52.255,54.615,133.478,98.22,100.099,0.00854235,0.0944756,20.9261,56.0093,-0.172421,0.0,0.0
1620,404.75,52.6322,54.5572,133.217,98.2164,100.54,0.00832893,0.094162,20.9271,55.9993,-0.212827,0.0,0.0
1640,409.75,52.6622,54.2485,138.898,98.2543,99.8348,0.00833736,0.0939106,20.9272,56.0293,-0.145219,0.0,0.0
1660,414.75,52.4288,54.1498,134.32,98.3126,99.9955,0.00798357,0.0930271,20.9294,56.0093,-0.154464,0.0,0.0
1680,419.75,52.6984,53.8756,134.796,98.3537,100.91,0.00804793,0.0928269,20.9301,55.9593,-0.233471,0.0,0.0
1700,424.75,52.79,53.8476,137.503,98.4248,99.4628,0.00792397,0.0920536,20.9303,55.8292,-0.0954752,0.0,0.0
1720,429.75,52.269,53.5676,138.486,98.4815,100.02,0.00774328,0.0920476,20.9302,55.8091,-0.141057,0.0,0.0
1740,434.75,52.1996,53.7909,142.299,98.5374,100.987,0.007771,0.0917486,20.9287,55.7991,-0.223436,0.0,0.0
1760,439.75,52.0279,53.2386,135.145,98.5825,100.147,0.00790101,0.0917617,20.9302,55.7891,-0.143275,0.0,0.0
1780,444.75,51.9925,53.7082,139.991,98.6164,100.071,0.00778367,0.0910337,20.9317,55.7591,-0.133266,0.0,0.0
1800,449.75,51.7922,53.777,134.998,98.6392,100.554,0.0077904,0.0904014,20.9319,55.659,-0.174957,0.0,0.0
1820,454.75,51.8031,53.2382,136.769,98.6471,100.289,0.00785596,0.090692,20.9324,55.599,-0.150227,0.0,0.0
1840,459.75,52.1596,53.0221,135.441,98.7054,100.78,0.00748038,0.0906397,20.9327,55.599,-0.189322,0.0,0.0
1860,464.75,51.7176,53.2634,137.212,98.737,100.915,,0.0901027,,55.5489,-0.198604,0.0,0.0
1880,469.75,52.0024,52.7395,135.423,98.7885,100.892,,,,55.5289,-0.191707,0.0,0.0
1900,474.75,51.5946,52.5533,138.606,98.822,100.458,,,,55.4588,-0.14946,0.0,0.0
1903,475.5,51.7462,53.171,137.028,98.818,100.955,,,,55.4789,-0.19471,0.0,0.0