File: 01_Data/FDNY_LDF/Cone/FDNY_LDF_Cone_HF25Scalar_220909_R3.csv
LABORATORY,FSRI
TEST IDENT,FDNY_LDF_HF25_R3
OPERATOR,Dow
MATERIAL,FDNY Low Density Fiberboard
ORIENTATION,Horizontal
HEAT FLUX,25
SURF AREA,0.01
C FACTOR,0.0415136
SPEC HOLDER DIFF,-566
SPECIMEN MASS,27.03
SCAN TIME,0.25
O2 DELAY TIME,11
CO DELAY TIME,11
CO2 DELAY TIME,8
FLOW FACTOR,1
SCAN COUNT,2240
TIME TO IGN,37.75
END OF TEST SCAN,1760
END OF TEST TIME,440
TEST STATUS,1
PRE TEST CMT,Dimensions: 99.20 x 99.24 x 11.96 mm; with tie wires