File: 01_Data/FDNY_LDF/Cone/FDNY_LDF_Cone_HF25Scan_220913_R4.csv
Names,Time,Stack TC,Smoke TC,Exh Press,Smoke Comp,Smoke Meas,CO Meter,CO2 Meter,O2 Meter,Sample Mass,Ext Coeff,Start Test,Flame Verif
Chan Gain,,500,500,1,1,1,1,1,1,1,1,1.0,1.0
Offset,,0,0,0.139139,0,0,0,0,0,0,0,0.0,0.0
Gain,,1,1,25.011,13.0826,14.7555,1,1,1,1.00088,1.03743,1.0,1.0
Units,sec,C,C,Pa,%,%,%,%,%,g,/m,,
Baseline,,36.0601,36.5563,145.287,98.0431,97.7555,0.000933445,0.0464242,20.9902,-442.286,0.0267661,,
24,5.75,34.1886,35.0962,150.943,97.9644,97.9458,0.000812312,0.0478891,20.9891,83.1032,0.00173558,0.0,0.0
48,11.75,34.5575,34.6639,140.498,97.9477,97.0663,0.000778494,0.0468389,20.9912,83.0231,0.0822561,0.0,0.0
72,17.75,34.4606,35.1902,140.201,97.9393,96.8655,0.00104493,0.0464846,20.9907,82.943,0.100326,0.0,0.0
96,23.75,34.4857,35.5648,143.282,97.9285,96.5228,0.000957608,0.046732,20.9908,82.913,0.131576,0.0,0.0
120,29.75,34.3789,35.2392,144.301,97.8938,95.909,0.0013512,0.0472825,20.9906,82.7929,0.186399,0.0,0.0
144,35.75,35.0466,35.1317,146.081,97.8646,95.5465,0.00143952,0.0487489,20.987,82.7128,0.218149,0.0,0.0
168,41.75,37.2013,36.5761,135.467,97.8558,98.9468,0.0022343,0.182011,20.7831,82.1824,-0.100893,0.0,1.0
192,47.75,40.0837,37.5826,133.42,97.8107,99.0715,0.00265547,0.276525,20.7109,81.6319,-0.116554,0.0,0.0
216,53.75,42.7412,39.9591,133.481,97.786,98.8297,0.00246813,0.284128,20.714,81.1515,-0.0966187,0.0,0.0
240,59.75,44.4032,42.1777,136.364,97.7612,98.7567,0.00219044,0.275552,20.7298,80.6911,-0.0922023,0.0,0.0
264,65.75,46.5682,43.7584,138.214,97.7349,98.6126,0.00228312,0.266847,20.7417,80.2707,-0.0813677,0.0,0.0
288,71.75,46.7037,44.8473,138.537,97.7181,98.5654,0.00239982,0.256816,20.7562,79.8303,-0.0785649,0.0,0.0
312,77.75,47.7578,46.1195,139.103,97.6965,98.4289,0.00220564,0.246495,20.7684,79.48,-0.0679667,0.0,0.0
336,83.75,48.0485,46.5954,139.285,97.667,98.3834,0.00261128,0.238928,20.7764,79.0896,-0.0665132,0.0,0.0
360,89.75,48.7211,47.6696,135.577,97.6542,98.0741,0.0024947,0.231965,20.7852,78.6993,-0.039044,0.0,0.0
384,95.75,47.7107,48.0813,141.31,97.6462,98.3497,0.00248481,0.223801,20.7932,78.309,-0.0653238,0.0,0.0
408,101.75,48.2877,48.6566,137.65,97.6913,98.6,0.00228628,0.218808,20.7962,77.9787,-0.0842573,0.0,0.0
432,107.75,47.927,48.8043,138.404,97.7748,98.465,0.00258619,0.214693,20.8028,77.5983,-0.0640105,0.0,0.0
456,113.75,48.0371,49.0042,139.881,97.6953,98.2835,0.00276429,0.209647,20.8071,77.208,-0.0546209,0.0,0.0
480,119.75,48.2437,48.8704,140.077,97.6762,99.2183,0.00248967,0.205472,20.8126,76.8176,-0.142555,0.0,0.0
504,125.75,47.9759,49.6039,136.861,97.7069,99.5939,0.00250782,0.200327,20.8157,76.4373,-0.174072,0.0,0.0
528,131.75,47.8268,49.5824,137.798,97.7832,98.3028,0.00270129,0.195727,20.8215,76.087,-0.0482354,0.0,0.0
552,137.75,47.4207,49.8062,136.924,97.865,98.6514,0.00255097,0.190725,20.8273,75.7867,-0.0728296,0.0,0.0
576,143.75,47.5197,49.3193,133.641,97.9828,98.2475,0.00270194,0.186177,20.8322,75.4965,-0.0245472,0.0,0.0
600,149.75,47.0233,49.1924,140.712,98.0822,99.3061,0.00285752,0.181214,20.8397,75.1762,-0.112854,0.0,0.0
624,155.75,46.6812,49.1404,139.572,98.1832,99.2183,0.00294541,0.178167,20.8428,74.8559,-0.0954368,0.0,0.0
648,161.75,46.8062,48.6805,143.106,98.2495,98.936,0.00293518,0.174279,20.8487,74.5356,-0.0633627,0.0,0.0
672,167.75,46.6357,48.7681,141.732,98.317,99.1728,0.00311396,0.170874,20.8522,74.2254,-0.0788762,0.0,0.0
696,173.75,45.769,48.4131,135.851,98.3713,98.863,0.00317626,0.168887,20.855,73.9251,-0.0453784,0.0,0.0
720,179.75,45.7687,48.0529,137.764,98.4052,99.0913,0.00317117,0.166,20.8601,73.6048,-0.0632305,0.0,0.0
744,185.75,46.0104,48.0526,141.392,98.4427,99.3827,0.00363805,0.163548,20.8634,73.3346,-0.0864775,0.0,0.0
768,191.75,45.3305,47.9263,138.959,98.4767,99.3512,0.00369323,0.160322,20.866,73.0243,-0.0804548,0.0,0.0
792,197.75,45.2733,47.392,141.62,98.4974,98.632,0.00389741,0.158454,20.8674,72.684,-0.0124256,0.0,0.0
816,203.75,44.9589,47.5076,141.268,98.5122,98.9463,0.00367851,0.156626,20.8703,72.3938,-0.0400148,0.0,0.0
840,209.75,44.7152,47.2329,139.557,98.4962,99.5182,0.00370094,0.155174,20.8712,72.0935,-0.0939367,0.0,0.0
864,215.75,44.6967,46.9262,140.745,98.4675,98.696,0.00330305,0.156254,20.8713,71.8733,-0.0210898,0.0,0.0
888,221.75,44.5359,46.6907,143.635,98.4128,99.2197,0.00313596,0.157052,20.8689,71.573,-0.0743076,0.0,0.0
912,227.75,44.4261,46.4639,137.872,98.3769,98.8117,0.00292732,0.158782,20.8652,71.3128,-0.0401352,0.0,0.0
936,233.75,44.3904,46.5485,139.736,98.3381,98.7604,0.00272431,0.161348,20.8621,71.0426,-0.0389896,0.0,0.0
960,239.75,44.6912,46.2477,142.654,98.299,99.035,0.00266379,0.164416,20.8584,70.7323,-0.0678864,0.0,0.0
984,245.75,44.5722,46.1229,138.985,98.2235,98.6581,0.0026476,0.167464,20.8555,70.4821,-0.040175,0.0,0.0
1008,251.75,44.4797,46.1057,140.3,98.1669,98.2799,0.00272949,0.169222,20.8539,70.2118,-0.0104715,0.0,0.0
1032,257.75,44.2989,46.3865,136.734,98.0419,99.5632,0.00247323,0.171195,20.8515,69.9416,-0.140129,0.0,0.0
1056,263.75,44.4437,46.4726,141.841,97.988,99.0535,0.00302007,0.17347,20.8477,69.6613,-0.0984208,0.0,0.0
1080,269.75,44.8213,46.6571,140.085,98.0044,98.7171,0.00293781,0.176519,20.8438,69.4011,-0.0659444,0.0,0.0
1104,275.75,44.7697,46.7258,138.766,98.0551,98.7032,0.00277695,0.180273,20.8373,69.0808,-0.0599511,0.0,0.0
1128,281.75,45.6117,46.835,140.769,98.1038,98.3857,0.0026419,0.184031,20.8337,68.8206,-0.0261148,0.0,0.0
1152,287.75,45.7466,47.0854,137.888,98.1465,99.7213,0.00260096,0.18847,20.8302,68.5504,-0.144859,0.0,0.0
1176,293.75,46.0773,47.1334,138.79,98.2016,98.5523,0.00237144,0.193702,20.8258,68.3001,-0.0324435,0.0,0.0
1200,299.75,46.4709,47.8464,133.948,98.2323,99.4074,0.00225201,0.197728,20.8204,68.0199,-0.108216,0.0,0.0
1224,305.75,46.9164,47.8502,137.086,98.3126,98.7477,0.00206919,0.202074,20.8161,67.6896,-0.0401919,0.0,0.0
1248,311.75,46.9198,47.9631,137.595,98.3549,99.0634,0.0021262,0.20632,20.811,67.4094,-0.0653194,0.0,0.0
1272,317.75,47.5772,48.8583,136.953,98.4212,99.3133,0.00238055,0.211897,20.8035,67.0891,-0.0821192,0.0,0.0
1296,323.75,47.7116,49.1784,131.969,98.4747,99.6254,0.00198607,0.216299,20.7974,66.7388,-0.105724,0.0,0.0
1320,329.75,48.3335,49.4668,135.054,98.5402,99.8123,0.00200361,0.220359,20.7927,66.3985,-0.116728,0.0,0.0
1344,335.75,48.2638,49.7028,135.877,98.5733,99.8348,0.00227515,0.226519,20.7866,66.0482,-0.115721,0.0,0.0
1368,341.75,49.0273,50.1839,133.32,98.6148,99.615,0.0022095,0.232518,20.7786,65.7079,-0.0918363,0.0,0.0
1392,347.75,49.5664,50.4469,138.44,98.6623,100.154,0.002481,0.239989,20.7692,65.2475,-0.13652,0.0,0.0
1416,353.75,50.1627,51.1027,136.26,98.6959,99.8775,0.00267568,0.249289,20.7584,64.8571,-0.108311,0.0,0.0
1440,359.75,50.7225,51.457,134.181,98.7366,99.4781,0.00242148,0.256737,20.7484,64.4868,-0.0680919,0.0,0.0
1464,365.75,51.4574,52.1945,135.411,98.7577,100.028,0.00232357,0.259388,20.7483,64.1265,-0.116342,0.0,0.0
1488,371.75,51.6899,52.7735,132.09,98.7737,100.117,0.00241382,0.263278,20.7435,63.7261,-0.122937,0.0,0.0
1512,377.75,52.4099,52.5862,135.842,98.7953,99.33,0.00258762,0.26646,20.7389,63.3158,-0.049121,0.0,0.0
1536,383.75,52.4734,53.5517,134.871,98.8096,99.3237,0.00300052,0.26211,20.7471,62.9254,-0.047219,0.0,0.0
1560,389.75,52.1761,54.2338,133.033,98.8041,98.3123,0.00350303,0.249421,20.7628,62.5851,0.0454053,0.0,0.0
1584,395.75,52.148,53.8357,136.979,98.8168,98.2538,0.00375997,0.231336,20.7816,62.3249,0.0520027,0.0,0.0
1608,401.75,52.0005,53.6645,139.927,98.8041,98.1988,0.00440879,0.208654,20.8055,62.0747,0.0559163,0.0,0.0
1632,407.75,50.3615,53.1248,138.985,98.7933,98.6167,0.00559413,0.181933,20.8367,61.8445,0.0162786,0.0,0.0
1656,413.75,49.1652,52.2855,143.602,98.7549,98.8076,0.0069089,0.156821,20.8642,61.7043,-0.00485378,0.0,0.0
1680,419.75,47.8697,51.54,137.878,98.7182,99.3228,0.00845005,0.137527,20.8854,61.5442,-0.0555612,0.0,0.0
1704,425.75,46.5411,50.0229,140.771,98.6683,98.7995,0.00911033,0.124149,20.8982,61.4241,-0.0120942,0.0,0.0
1728,431.75,45.3621,49.2869,143.06,98.6515,98.7847,0.0104404,0.113304,20.912,61.304,-0.0122724,0.0,0.0
1752,437.75,44.4641,47.84,137.694,98.628,98.8058,0.0111123,0.105188,20.9207,61.274,-0.0163953,0.0,0.0
1776,443.75,43.2967,47.2562,142.877,98.5905,98.8981,0.0107814,0.100297,20.9263,61.1739,-0.0283563,0.0,0.0
1800,449.75,42.6291,46.4303,145.186,98.5326,98.6955,0.0108055,0.0966068,20.9311,61.1238,-0.0150364,0.0,0.0
1824,455.75,40.6584,43.8735,141.415,98.4387,98.5406,0.0108363,0.0946153,20.9315,61.0738,-0.00941151,0.0,0.0
1848,461.75,39.6925,43.2282,142.751,98.317,98.0759,0.011245,0.0920792,20.9342,61.0137,0.022342,0.0,0.0
1872,467.75,39.2105,42.0669,143.773,98.2008,98.1705,0.0109158,0.0909453,20.9347,60.9437,0.00281147,0.0,0.0
1896,473.75,39.098,42.0376,137.825,98.1177,97.649,0.0106846,0.0910476,20.9328,60.8836,0.0435798,0.0,0.0
1920,479.75,38.8171,41.3777,142.206,98.0163,97.7832,0.0103204,0.0906087,20.9334,60.8136,0.021671,0.0,0.0
1944,485.75,38.217,40.978,140.285,97.9297,97.4473,0.0104423,0.0898531,20.9358,60.7835,0.0449412,0.0,0.0
1968,491.75,37.7224,40.3519,142.898,97.8079,98.4348,0.0103867,0.0889276,20.9368,60.6834,-0.0581386,0.0,0.0
1992,497.75,38.3267,39.8076,142.335,97.7125,97.4356,0.0105016,0.0885005,20.9367,60.5733,0.0258292,0.0,0.0
2016,503.75,37.374,39.8972,142.851,97.6163,97.6661,0.0104392,0.0889057,20.9349,60.5433,-0.00464376,0.0,0.0
2040,509.75,37.609,39.3176,143.412,97.5193,98.1074,0.0104401,0.0883505,20.9377,60.4933,-0.0547192,0.0,0.0
2064,515.75,37.0183,39.0875,143.92,97.4618,97.4608,0.0104114,0.0878741,20.9383,60.4833,9.32958e-05,0.0,0.0
2088,521.75,36.6979,38.4442,144.123,97.3991,97.9939,0.0105677,0.0879663,20.9395,60.3632,-0.0554089,0.0,0.0
2112,527.75,36.575,38.4228,142.325,97.344,97.5914,0.0099986,0.0877458,20.9398,60.3531,-0.0230962,0.0,0.0
2136,533.75,37.1935,38.4704,142.768,97.2693,97.3991,0.0104414,0.0875984,20.9392,60.3031,-0.0121306,0.0,0.0
2160,539.75,36.4419,38.0102,140.579,97.2186,97.3099,0.0103745,0.0877556,20.9369,60.2931,-0.0085417,0.0,0.0
2184,545.75,36.6991,37.7058,143.097,97.1647,97.5459,0.010187,0.086993,20.9408,60.2431,-0.035628,0.0,0.0
2208,551.75,36.6656,37.6405,144.354,97.1428,97.1915,0.0104535,0.0864694,20.9407,60.133,-0.0045629,0.0,0.0
2232,557.75,36.6664,37.4885,144.94,97.1372,97.5567,0.0100441,0.0866542,20.9415,60.1129,-0.0392173,0.0,0.0
2256,563.75,36.3387,37.3654,144.892,97.1088,97.6166,,0.0865715,,60.0729,-0.0474578,0.0,0.0
2280,569.75,36.4957,37.4875,141.527,97.0705,96.9546,,,,59.9928,0.0108701,0.0,0.0
2296,573.75,36.4317,37.4447,143.257,97.0545,96.6813,,,,59.9428,0.0350638,0.0,0.0