File: 01_Data/FDNY_LDF/Cone/FDNY_LDF_Cone_HF25Scalar_220909_R2.csv
LABORATORY,FSRI
TEST IDENT,FDNY_LDF_HF25_R2
OPERATOR,Dow
MATERIAL,FDNY Low Density Fiberboard
ORIENTATION,Horizontal
HEAT FLUX,25
SURF AREA,0.01
C FACTOR,0.0424895
SPEC HOLDER DIFF,-566
SPECIMEN MASS,26.23
SCAN TIME,0.25
O2 DELAY TIME,11
CO DELAY TIME,11
CO2 DELAY TIME,8
FLOW FACTOR,1
SCAN COUNT,2159
TIME TO IGN,35.75
END OF TEST SCAN,1679
END OF TEST TIME,419.75
TEST STATUS,1
PRE TEST CMT,Dimensions: 99.28 x 98.95 x 12.04 mm; with tie wires