File: 01_Data/FDNY_LDF/Cone/FDNY_LDF_Cone_HF75Scan_220913_R1.csv
Names,Time,Stack TC,Smoke TC,Exh Press,Smoke Comp,Smoke Meas,CO Meter,CO2 Meter,O2 Meter,Sample Mass,Ext Coeff,Start Test,Flame Verif
Chan Gain,,500,500,1,1,1,1,1,1,1,1,1.0,1.0
Offset,,0,0,0.139139,0,0,0,0,0,0,0,0.0,0.0
Gain,,1,1,25.011,13.0826,14.7555,1,1,1,1.00088,1.03743,1.0,1.0
Units,sec,C,C,Pa,%,%,%,%,%,g,/m,,
Baseline,,60.7714,62.8954,133.649,98.5607,100.984,0.00109671,0.0509063,20.9757,-448.732,-0.220953,,
13,3,59.1165,60.5286,119.312,98.9749,100.236,0.00305896,0.120622,20.8897,76.6575,-0.115216,0.0,1.0
26,6.25,62.1091,62.8596,116.244,98.9917,96.2576,0.00423571,0.318375,20.5988,76.087,0.254885,0.0,1.0
39,9.5,66.201,64.699,112.1,98.9997,94.2852,0.00530214,0.509006,20.3956,75.5165,0.444022,0.0,0.0
52,12.75,71.1335,68.2118,115.121,99.0248,94.2767,0.00590062,0.594922,20.3219,74.956,0.447159,0.0,0.0
65,16,75.2217,71.8113,113.731,99.034,93.5391,0.00628811,0.612546,20.3137,74.3755,0.519482,0.0,0.0
78,19.25,78.4187,74.8663,114.521,99.0384,93.341,0.00657796,0.600612,20.3288,73.765,0.539182,0.0,0.0
91,22.5,80.6496,77.8212,114.742,99.0452,94.396,0.00653404,0.5835,20.3525,73.3846,0.437519,0.0,0.0
104,25.75,82.8924,80.0516,119.848,99.0688,93.4887,0.00645532,0.560337,20.3832,72.9242,0.527581,0.0,0.0
117,29,84.0629,81.5961,116.59,99.0568,94.7662,0.00637764,0.541828,20.4051,72.3837,0.402968,0.0,0.0
130,32.25,84.8407,83.1849,118.333,99.046,94.392,0.006356,0.526405,20.4209,71.9033,0.437982,0.0,0.0
143,35.5,86.5405,84.8354,118.696,99.0628,94.5086,0.0062496,0.510722,20.4421,71.533,0.428287,0.0,0.0
156,38.75,86.4817,85.6923,118.211,99.0476,94.5851,0.00616375,0.493073,20.4632,71.0526,0.419525,0.0,0.0
169,42,87.0231,87.0187,117.116,99.032,95.1115,0.00612576,0.479388,20.4813,70.6122,0.367588,0.0,0.0
182,45.25,87.3832,87.6194,116.349,99.0201,96.222,0.0056903,0.464719,20.4979,70.2719,0.260855,0.0,0.0
195,48.5,88.2191,88.7794,118.268,99.0089,96.5746,0.0051853,0.448759,20.5194,69.7514,0.226542,0.0,0.0
208,51.75,88.5544,89.0941,116.463,98.9817,96.68,0.00486365,0.434241,20.5336,69.311,0.214122,0.0,0.0
221,55,88.3133,89.5042,114.501,98.9522,97.1825,0.00467222,0.424296,20.5452,68.8907,0.164225,0.0,0.0
234,58.25,88.2161,90.6096,119.777,98.9166,97.7485,0.00441995,0.412225,20.5596,68.5404,0.108106,0.0,0.0
247,61.5,88.071,90.2665,119.829,98.8735,98.2925,0.00405882,0.401085,20.5752,68.09,0.0536367,0.0,0.0
260,64.75,87.9657,90.7714,120.027,98.8284,98.1705,0.00392754,0.38989,20.5872,67.7096,0.0607884,0.0,0.0
273,68,87.9555,91.5119,120.948,98.7877,99.1899,0.00370744,0.380252,20.6004,67.2993,-0.0369802,0.0,0.0
286,71.25,87.9078,91.5772,120.58,98.707,99.0229,0.0034983,0.373091,20.6091,66.8789,-0.0290718,0.0,0.0
299,74.5,88.1608,91.2347,122.27,98.6416,99.4331,0.00355432,0.365311,20.619,66.4285,-0.0727333,0.0,0.0
312,77.75,87.6424,91.7928,121.974,98.5637,98.4915,0.00329266,0.360177,20.6224,66.2483,0.00666715,0.0,0.0
325,81,87.5178,91.8486,118.574,98.4871,99.0179,0.00314239,0.35745,20.6244,65.7779,-0.0489209,0.0,0.0
338,84.25,87.1114,91.4351,121.186,98.3936,99.0125,0.00309708,0.350758,20.6335,65.3776,-0.0570616,0.0,0.0
351,87.5,87.0137,91.4694,121.833,98.3014,99.0922,0.00300186,0.344689,20.6404,65.0673,-0.0729181,0.0,0.0
364,90.75,86.7685,91.5968,118.041,98.2439,99.2503,0.00278978,0.342552,20.6422,64.7971,-0.0927464,0.0,0.0
377,94,86.539,91.5111,124.735,98.1936,99.5461,0.00275471,0.343028,20.6427,64.3567,-0.124492,0.0,0.0
390,97.25,86.3003,91.6538,121.352,98.1313,99.1935,0.00297112,0.343641,20.6408,63.9363,-0.0979773,0.0,0.0
403,100.5,86.3109,91.4723,120.302,98.0818,100.389,0.00296973,0.34716,20.6353,63.6661,-0.211556,0.0,0.0
416,103.75,86.2431,91.7389,119.785,98.0463,99.8222,0.0029467,0.35371,20.6296,63.2757,-0.163356,0.0,0.0
429,107,86.5501,91.4914,122.144,97.968,98.6924,0.0030148,0.361427,20.6208,62.8954,-0.0670356,0.0,0.0
442,110.25,86.4513,91.6728,117.954,97.9313,99.0026,0.00302124,0.372828,20.6042,62.415,-0.0990114,0.0,0.0
455,113.5,87.0207,92.0498,119.252,97.8926,98.0025,0.00331367,0.387144,20.5847,62.1848,-0.0102124,0.0,0.0
468,116.75,87.2344,92.4965,119.274,97.8602,97.9498,0.00364257,0.402236,20.5668,61.7744,-0.00832616,0.0,0.0
481,120,88.3515,92.8112,118.892,97.8419,98.2137,0.00379375,0.41983,20.5432,61.3941,-0.0345172,0.0,0.0
494,123.25,88.866,93.1833,122.096,97.8379,97.1465,0.00395722,0.436268,20.5243,60.9937,0.0645377,0.0,0.0
507,126.5,89.1766,93.9337,117.652,97.8035,96.1914,0.0041358,0.451991,20.5039,60.5533,0.151256,0.0,0.0
520,129.75,89.8273,94.2779,114.351,97.7608,95.2484,0.0042801,0.464652,20.4863,60.173,0.236927,0.0,0.0
533,133,90.606,95.2134,114.602,97.7508,93.6611,0.00415049,0.474361,20.47,59.6826,0.388933,0.0,0.0
546,136.25,91.3631,95.4807,117.367,97.7397,92.0243,0.00438439,0.480202,20.4596,59.3923,0.548338,0.0,0.0
559,139.5,91.5467,96.1058,116.18,97.7149,92.0063,0.00468921,0.486446,20.4478,58.9819,0.547814,0.0,0.0
572,142.75,92.4008,96.7825,115.266,97.6898,91.1989,0.0047943,0.495255,20.4363,58.5916,0.625683,0.0,0.0
585,146,92.5455,97.7413,112.72,97.6866,89.9497,0.00500126,0.504848,20.4209,58.1712,0.750892,0.0,0.0
598,149.25,93.1704,98.1551,112.158,97.6806,89.8691,0.00516896,0.515634,20.41,57.7909,0.758493,0.0,0.0
611,152.5,93.9002,97.9772,119.684,97.6662,89.503,0.0051904,0.526877,20.3994,57.2804,0.794302,0.0,0.0
624,155.75,94.2869,98.5972,114.942,97.6542,90.8823,0.00536406,0.534098,20.3952,56.8401,0.654015,0.0,0.0
637,159,94.1511,98.9117,118.271,97.6362,91.0471,0.0060802,0.535486,20.3962,56.4397,0.635853,0.0,0.0
650,162.25,94.282,99.0808,118.375,97.6163,90.3221,0.00674774,0.532759,20.4021,55.9693,0.706746,0.0,0.0
663,165.5,93.5714,99.0404,118.321,97.6019,89.3792,0.00691782,0.516319,20.4259,55.5589,0.800909,0.0,0.0
676,168.75,94.0137,99.3875,119.32,97.5716,90.2739,0.00659135,0.488042,20.4594,55.2286,0.707433,0.0,0.0
689,172,92.9856,99.0851,124.291,97.5201,92.317,0.00569662,0.442262,20.5067,54.9084,0.498971,0.0,0.0
702,175.25,92.2175,98.412,120.5,97.4789,94.6063,0.00422642,0.369101,20.6109,54.7182,0.27221,0.0,0.0
715,178.5,90.3332,96.8911,125.373,97.4494,100.907,0.00302514,0.275698,20.7241,54.6381,-0.317327,0.0,0.0
728,181.75,87.7744,95.3855,128.092,97.4067,100.488,0.00241536,0.196343,20.8183,54.468,-0.28339,0.0,0.0
741,185,85.3532,94.4613,132.437,97.3927,101.031,0.00215722,0.152146,20.8636,54.498,-0.333743,0.0,0.0
754,188.25,83.8748,92.2585,128.423,97.368,100.157,0.00204888,0.131795,20.8839,54.478,-0.256986,0.0,0.0
767,191.5,81.7882,90.6557,129.535,97.3264,99.6515,0.00207969,0.122069,20.8928,54.448,-0.214844,0.0,0.0
780,194.75,80.4163,88.9753,129.584,97.2897,100.501,0.00210302,0.117854,20.8987,54.3979,-0.295548,0.0,0.0
793,198,79.2795,87.7836,129.355,97.2653,100.341,0.00220624,0.115003,20.9006,54.3679,-0.28334,0.0,0.0
806,201.25,75.9794,85.1453,132.06,97.2594,99.3741,0.00230189,0.112935,20.9028,54.4279,-0.195752,0.0,0.0
819,204.5,75.161,83.9521,132.251,97.2242,100.673,0.00221436,0.113241,20.9019,54.2878,-0.317237,0.0,0.0
832,207.75,74.3173,83.0934,130.4,97.1963,99.574,0.00209507,0.113789,20.9023,54.2678,-0.219946,0.0,0.0
845,211,73.2289,81.8896,128.57,97.1803,99.8496,0.00205739,0.113042,20.9039,54.2578,-0.246593,0.0,0.0
858,214.25,72.3499,81.3631,131.749,97.1671,100.301,0.00209245,0.112108,20.9054,54.1777,-0.288899,0.0,0.0
871,217.5,71.743,79.9432,132.015,97.1528,99.7636,0.00210876,0.112458,20.9041,54.1277,-0.241332,0.0,0.0
884,220.75,70.9035,79.2376,128.897,97.142,99.6141,0.00212034,0.11244,20.9037,54.0176,-0.228694,0.0,0.0
897,224,71.112,77.7183,126.648,97.1376,100.428,0.00233086,0.112261,20.9045,54.0776,-0.303179,0.0,0.0
910,227.25,70.6204,77.865,133.039,97.112,100.268,0.00250759,0.1112,20.9072,54.0376,-0.290995,0.0,0.0
923,230.5,69.6041,76.8596,127.139,97.1156,99.6772,0.00252943,0.111723,20.906,54.0276,-0.236921,0.0,0.0
936,233.75,69.1567,76.2329,131.671,97.1084,100.317,0.00244867,0.113122,20.9052,54.0476,-0.295827,0.0,0.0
949,237,69.1281,75.894,128.119,97.0949,99.4259,0.00228968,0.112383,20.9079,53.9675,-0.215896,0.0,0.0
962,240.25,68.5093,75.2082,131.462,97.1044,100.244,0.00224135,0.11129,20.9096,53.9075,-0.28954,0.0,0.0
975,243.5,68.532,74.782,129.527,97.0993,100.126,0.00241195,0.110505,20.9096,53.9175,-0.27935,0.0,0.0
988,246.75,68.2152,74.3602,128.125,97.1096,100.326,0.00251221,0.111424,20.9077,53.9275,-0.29649,0.0,0.0
1001,250,68.2699,73.4768,130.044,97.1248,99.2926,0.00250272,0.111581,20.9072,53.8074,-0.200883,0.0,0.0
1014,253.25,67.6346,73.3767,127.451,97.1132,99.1733,0.00248697,0.111732,20.9075,53.8274,-0.191024,0.0,0.0
1027,256.5,67.6402,73.123,134.274,97.1384,99.6002,0.00265578,0.11097,20.9084,53.8274,-0.227756,0.0,0.0
1040,259.75,67.3688,71.9638,129.79,97.1384,100.119,0.00274375,0.111269,20.9074,53.7273,-0.275029,0.0,0.0
1053,263,67.093,72.2666,131.413,97.1524,99.4016,0.00265706,0.111459,20.9071,53.7273,-0.208284,0.0,0.0
1066,266.25,66.7016,71.8794,129.502,97.1607,100.805,0.00265154,0.11153,20.9088,53.7173,-0.335059,0.0,0.0
1079,269.5,66.6858,71.3475,127.987,97.1859,100.757,0.00265731,0.111094,20.9106,53.6673,-0.328393,0.0,0.0
1092,272.75,66.577,70.4617,128.786,97.1911,99.6164,0.00246964,0.110755,20.9115,53.6272,-0.224301,0.0,0.0
1105,276,66.8798,70.7254,135.463,97.2418,99.8649,0.00260967,0.109989,20.9137,53.6072,-0.242233,0.0,0.0
1118,279.25,66.3925,70.5109,134.956,97.2614,100.351,0.00277742,0.110068,20.9136,53.6472,-0.284571,0.0,0.0
1131,282.5,65.7248,70.0677,131.034,97.2929,100.105,0.0026662,0.110361,20.913,53.5772,-0.259296,0.0,0.0
1144,285.75,65.795,69.7541,128.603,97.3396,100.532,0.00258123,0.110515,20.9123,53.5372,-0.293653,0.0,0.0
1157,289,65.7222,69.7286,133.871,97.3747,100.851,0.00267143,0.110378,20.9112,53.5772,-0.319183,0.0,0.0
1170,292.25,66.1128,69.9855,127.964,97.4111,101.061,0.00263518,0.109999,20.9112,53.5171,-0.334784,0.0,0.0
1183,295.5,66.0574,69.4667,131.883,97.4302,100.142,0.00279322,0.109069,20.9141,53.4571,-0.249815,0.0,0.0
1196,298.75,65.3331,69.2638,132.372,97.4801,100.016,0.00299999,0.109367,20.915,53.397,-0.233731,0.0,0.0
1209,302,65.6968,69.3904,129.016,97.5209,100.927,0.00303315,0.109463,20.9143,53.4271,-0.312442,0.0,0.0
1222,305.25,65.5069,68.4965,130.824,97.5644,99.9262,0.0030499,0.110138,20.9127,53.347,-0.217672,0.0,0.0
1235,308.5,65.1238,68.2989,131.075,97.6003,100.309,,0.109626,,53.3069,-0.249152,0.0,0.0
1248,311.75,65.5906,68.611,130.413,97.671,100.288,,,,53.387,-0.240605,0.0,0.0
1261,315,64.9355,68.5172,133.325,97.7257,100.938,,,,53.3069,-0.294283,0.0,0.0
1273,318,65.232,68.0701,133.434,97.7636,100.847,,,,53.2069,-0.282547,0.0,0.0