File: 01_Data/Cotton_Rug/MCC/Cotton_Rug_MCC_30K_min_211115_R1.txt
Sample ID:	C:\MCC\MCC Cal\Test\Cotton_Rug_MCC_30K_min_211115_R1.txt
Sample Weight (mg):	4.17
Heating Rate (C/s):	0.5
Combustor Temp (C):	900
N2 Flow Rate (cc/min):	80
O2 Flow Rate (cc/min):	20
Calibration File:	C:\MCC\MCC Cal\Coeff1 JN10440_30_210304.txt.txt
T Correction Coefficients:	0	1.024463	0
Time Shift (s):	14
*
Time (s)	Temperature (C)	N2 flow rate (cc/min)	O2 flow rate (cc/min)	Flow Rate (cc/min)	Oxygen (%)	HRR (W/g)	Heating rate (C/s)
0.000	106.511	80.002	19.992	103.054	20.129	-0.017	0.001
8.000	106.494	80.003	19.995	103.069	20.127	0.152	-0.014
16.000	106.556	80.006	19.994	103.119	20.118	0.821	0.011
24.000	106.853	80.005	19.994	103.260	20.097	2.420	0.061
32.000	107.793	80.004	19.995	103.262	20.095	2.610	0.160
40.000	109.204	80.006	19.995	103.271	20.095	2.632	0.185
48.000	110.934	80.004	19.994	103.260	20.089	3.114	0.245
56.000	112.840	80.003	19.994	103.270	20.092	2.828	0.228
64.000	115.066	80.004	19.994	103.269	20.090	3.025	0.276
72.000	117.418	80.005	19.993	103.296	20.089	3.047	0.304
80.000	120.038	80.004	19.994	103.298	20.083	3.564	0.315
88.000	122.841	80.004	19.994	103.315	20.087	3.205	0.350
96.000	125.753	80.004	19.994	103.303	20.083	3.571	0.370
104.001	128.854	80.007	19.995	103.325	20.084	3.458	0.381
112.000	132.134	80.005	19.995	103.311	20.086	3.309	0.410
120.000	135.587	80.006	19.994	103.331	20.084	3.459	0.429
128.000	139.147	80.006	19.995	103.307	20.085	3.422	0.454
136.000	142.692	80.003	19.995	103.296	20.085	3.370	0.455
144.000	146.479	80.003	19.994	103.302	20.086	3.326	0.468
152.000	150.276	80.004	19.994	103.290	20.084	3.467	0.478
160.000	154.069	80.003	19.993	103.301	20.086	3.307	0.468
168.000	157.884	80.002	19.995	103.307	20.091	2.903	0.470
176.000	161.805	80.004	19.994	103.297	20.088	3.142	0.525
184.000	165.750	80.006	19.993	103.297	20.089	3.044	0.490
192.000	169.739	80.002	19.994	103.294	20.087	3.228	0.479
200.000	173.757	80.005	19.994	103.290	20.084	3.429	0.516
208.000	177.703	80.006	19.994	103.294	20.085	3.349	0.473
216.000	181.728	80.005	19.994	103.289	20.085	3.347	0.476
224.001	185.810	80.004	19.995	103.286	20.088	3.136	0.489
232.000	189.855	80.004	19.994	103.277	20.088	3.171	0.516
240.000	193.894	80.005	19.993	103.282	20.091	2.932	0.559
248.000	197.773	80.003	19.994	103.270	20.087	3.230	0.495
256.000	201.757	80.004	19.993	103.269	20.092	2.832	0.484
264.000	205.706	80.006	19.994	103.284	20.090	2.993	0.515
272.000	209.696	80.004	19.995	103.267	20.093	2.800	0.472
280.000	213.652	80.006	19.994	103.256	20.094	2.724	0.491
288.000	217.559	80.006	19.994	103.258	20.092	2.828	0.493
296.000	221.436	80.005	19.993	103.263	20.094	2.698	0.481
304.000	225.386	80.005	19.995	103.261	20.090	2.967	0.483
312.000	229.328	80.004	19.995	103.255	20.086	3.270	0.501
320.000	233.222	80.004	19.995	103.256	20.086	3.276	0.506
328.000	237.095	80.003	19.994	103.269	20.082	3.634	0.475
336.000	240.977	80.004	19.993	103.266	20.082	3.644	0.467
344.001	244.937	80.006	19.994	103.259	20.078	3.887	0.505
352.000	249.003	80.005	19.994	103.269	20.072	4.352	0.522
360.000	253.123	80.006	19.994	103.262	20.067	4.806	0.504
368.000	257.216	80.007	19.993	103.272	20.068	4.725	0.501
376.000	261.336	80.005	19.994	103.274	20.059	5.420	0.527
384.000	265.424	80.003	19.994	103.260	20.055	5.664	0.515
392.000	269.480	80.003	19.994	103.258	20.045	6.480	0.489
400.000	273.595	80.005	19.995	103.284	20.043	6.660	0.507
408.000	277.634	80.003	19.996	103.268	20.032	7.445	0.521
416.000	281.632	80.005	19.994	103.234	20.020	8.434	0.525
424.000	285.588	80.007	19.994	103.288	20.010	9.170	0.465
432.000	289.562	80.008	19.995	103.288	19.994	10.419	0.517
440.000	293.421	80.004	19.994	103.296	19.986	11.009	0.452
448.000	297.374	80.007	19.993	103.254	19.967	12.533	0.453
456.000	301.294	80.006	19.993	103.299	19.945	14.200	0.484
464.000	305.165	80.005	19.994	103.295	19.923	15.941	0.421
472.000	309.066	80.005	19.994	103.298	19.898	17.871	0.507
480.000	312.998	80.005	19.995	103.333	19.862	20.620	0.503
488.000	316.995	80.003	19.994	103.331	19.824	23.583	0.490
496.000	321.093	80.005	19.994	103.357	19.769	27.817	0.514
504.000	325.186	80.004	19.996	103.369	19.700	33.192	0.523
512.000	329.326	80.006	19.994	103.428	19.618	39.591	0.518
520.000	333.435	80.004	19.994	103.425	19.515	47.520	0.508
528.000	337.551	80.006	19.994	103.506	19.379	58.142	0.508
536.000	341.708	80.006	19.993	103.562	19.210	71.304	0.536
544.000	345.774	80.005	19.994	103.642	19.009	86.879	0.511
552.000	349.826	80.006	19.994	103.693	18.817	101.722	0.493
560.000	353.937	80.003	19.995	103.684	18.686	111.832	0.519
568.000	358.016	80.004	19.994	103.599	18.699	110.704	0.526
576.001	362.072	80.005	19.995	103.526	18.868	97.506	0.530
584.000	366.137	80.003	19.995	103.387	19.144	76.157	0.519
592.000	370.178	80.007	19.995	103.369	19.429	54.076	0.509
600.000	374.291	80.005	19.996	103.296	19.628	38.720	0.503
608.000	378.382	80.007	19.994	103.296	19.732	30.701	0.517
616.000	382.400	80.008	19.993	103.292	19.783	26.696	0.484
624.000	386.414	80.005	19.992	103.304	19.791	26.071	0.527
632.000	390.325	80.005	19.994	103.296	19.784	26.627	0.486
640.000	394.334	80.005	19.993	103.338	19.778	27.087	0.482
648.000	398.343	80.007	19.993	103.330	19.756	28.829	0.509
656.000	402.343	80.004	19.994	103.312	19.727	31.039	0.497
664.000	406.320	80.005	19.995	103.325	19.703	32.955	0.470
672.000	410.376	80.007	19.994	103.358	19.671	35.438	0.521
680.000	414.374	80.004	19.995	103.360	19.645	37.411	0.519
688.000	418.421	80.005	19.997	103.364	19.630	38.574	0.510
696.000	422.462	80.006	19.996	103.363	19.635	38.205	0.522
704.000	426.494	80.006	19.995	103.358	19.655	36.638	0.498
712.000	430.518	80.004	19.994	103.337	19.701	33.087	0.518
720.000	434.646	80.004	19.994	103.330	19.769	27.793	0.550
728.000	438.653	80.005	19.994	103.301	19.838	22.464	0.513
736.000	442.705	80.005	19.994	103.289	19.892	18.293	0.508
744.000	446.727	80.005	19.993	103.254	19.938	14.749	0.470
752.000	450.780	80.008	19.995	103.250	19.976	11.765	0.508
760.000	454.877	80.007	19.995	103.225	20.004	9.679	0.495
768.000	458.954	80.007	19.995	103.205	20.020	8.431	0.512
776.000	463.019	80.006	19.994	103.220	20.044	6.562	0.489
784.000	467.082	80.007	19.995	103.216	20.053	5.869	0.513
792.000	471.188	80.004	19.995	103.204	20.064	5.027	0.522
800.000	475.274	80.005	19.995	103.197	20.069	4.580	0.521
808.000	479.304	80.006	19.994	103.207	20.071	4.432	0.479
816.001	483.374	80.004	19.994	103.187	20.075	4.172	0.544
824.000	487.469	80.006	19.994	103.202	20.080	3.801	0.524
832.000	491.566	80.006	19.993	103.198	20.084	3.445	0.525
840.000	495.693	80.008	19.994	103.195	20.088	3.187	0.523
848.000	499.785	80.005	19.994	103.180	20.085	3.379	0.535
856.000	503.864	80.005	19.994	103.198	20.086	3.290	0.511
864.000	507.934	80.006	19.994	103.173	20.089	3.046	0.492
872.000	511.966	80.006	19.994	103.206	20.088	3.182	0.500
880.000	516.093	80.002	19.995	103.179	20.085	3.394	0.502
888.000	520.151	80.004	19.995	103.174	20.087	3.200	0.497
896.000	524.188	80.005	19.994	103.178	20.085	3.384	0.514
904.000	528.210	80.005	19.994	103.182	20.080	3.793	0.504
912.000	532.224	80.005	19.996	103.179	20.078	3.940	0.497
920.000	536.311	80.005	19.993	103.182	20.082	3.607	0.514
928.000	540.326	80.004	19.994	103.182	20.081	3.692	0.498
936.000	544.362	80.006	19.995	103.176	20.082	3.599	0.481
944.000	548.391	80.006	19.994	103.188	20.078	3.954	0.496
952.000	552.391	80.007	19.994	103.177	20.082	3.635	0.486
960.000	556.439	80.004	19.994	103.193	20.076	4.041	0.502
968.000	560.418	80.004	19.994	103.191	20.078	3.916	0.524
976.000	564.385	80.004	19.995	103.176	20.066	4.825	0.474
984.000	568.270	80.003	19.994	103.181	20.074	4.203	0.472
992.000	572.192	80.006	19.994	103.201	20.070	4.507	0.474
1000.000	576.248	80.006	19.994	103.199	20.079	3.870	0.492
1008.000	580.234	80.006	19.995	103.185	20.070	4.512	0.490
1016.000	584.300	80.005	19.994	103.190	20.073	4.282	0.507
1024.000	588.393	80.008	19.995	103.212	20.066	4.822	0.506
1032.000	592.502	80.006	19.993	103.181	20.070	4.513	0.512
1040.000	596.624	80.004	19.993	103.207	20.060	5.303	0.535
1048.000	600.732	80.003	19.994	103.184	20.063	5.067	0.498
1056.000	604.776	80.005	19.994	103.200	20.060	5.292	0.495
1064.000	608.778	80.005	19.995	103.188	20.065	4.917	0.506
1072.000	612.780	80.002	19.995	103.200	20.077	4.005	0.528
1080.000	616.730	80.005	19.994	103.197	20.077	3.981	0.464
1088.000	620.649	80.006	19.993	103.185	20.079	3.856	0.496
1096.000	624.657	80.004	19.994	103.179	20.081	3.681	0.482
1104.000	628.610	80.006	19.992	103.174	20.079	3.808	0.478
1112.001	632.835	80.008	19.994	103.179	20.077	3.973	0.544
1120.000	637.208	80.005	19.993	103.182	20.081	3.723	0.552
1128.000	641.572	80.005	19.994	103.170	20.078	3.888	0.545
1136.000	645.876	80.005	19.995	103.176	20.083	3.574	0.548
1144.000	650.205	80.006	19.994	103.175	20.083	3.529	0.539
1152.000	654.580	80.005	19.995	103.174	20.084	3.482	0.566
1160.000	658.866	80.005	19.995	103.177	20.080	3.738	0.525
1168.000	663.069	80.005	19.995	103.180	20.081	3.718	0.478
1176.000	667.144	80.004	19.994	103.174	20.084	3.489	0.536
1184.000	671.199	80.006	19.993	103.165	20.084	3.450	0.517
1192.000	675.354	80.005	19.993	103.174	20.089	3.089	0.563
1200.000	679.366	80.007	19.994	103.148	20.085	3.378	0.536
1208.000	683.390	80.006	19.994	103.171	20.078	3.901	0.476
1216.000	687.331	80.006	19.994	103.155	20.081	3.663	0.476
1224.000	691.249	80.004	19.994	103.151	20.085	3.344	0.501
1232.000	695.128	80.004	19.995	103.168	20.077	4.025	0.463
1240.000	699.056	80.004	19.994	103.145	20.079	3.877	0.480
1248.000	702.990	80.005	19.994	103.149	20.075	4.126	0.509
1256.000	706.931	80.006	19.995	103.159	20.079	3.822	0.473
1264.000	710.898	80.005	19.996	103.171	20.077	3.979	0.513
1272.000	714.944	80.006	19.993	103.166	20.075	4.132	0.508
1280.000	719.114	80.008	19.994	103.156	20.075	4.162	0.519
1288.000	723.241	80.006	19.994	103.168	20.074	4.214	0.538
1296.000	727.391	80.004	19.995	103.173	20.077	4.007	0.507
1304.000	731.597	80.006	19.993	103.151	20.080	3.748	0.540
1312.000	735.738	80.005	19.993	103.153	20.077	3.991	0.504
1320.000	739.945	80.005	19.994	103.173	20.075	4.145	0.521
1326.500	743.358	80.006	19.994	103.172	20.079	3.872	0.557