File: 01_Data/Overstuffed_Chair_Polyester_Fabric/FTIR/IS/Overstuffed_Chair_Polyester_Fabric_IS_T_221019_R3.dpt
7497.03,0.02496
7473.88,0.02685
7450.74,0.02832
7427.59,0.02270
7404.45,0.02200
7381.31,0.02878
7358.16,0.02186
7335.02,0.03370
7311.87,0.03538
7288.73,0.02742
7265.58,0.02108
7242.44,0.01819
7219.29,0.03134
7196.15,0.02466
7173,0.02750
7149.86,0.02359
7126.71,0.02484
7103.57,0.02757
7080.42,0.01984
7057.28,0.02054
7034.13,0.02584
7010.99,0.02138
6987.84,0.02323
6964.7,0.02139
6941.55,0.02181
6918.41,0.02537
6895.26,0.02819
6872.12,0.02335
6848.97,0.02698
6825.83,0.02290
6802.68,0.02596
6779.54,0.02322
6756.39,0.02691
6733.25,0.02691
6710.1,0.02165
6686.96,0.02058
6663.81,0.02888
6640.67,0.02506
6617.52,0.02237
6594.38,0.02343
6571.23,0.02360
6548.09,0.01880
6524.94,0.02346
6501.8,0.02154
6478.65,0.02264
6455.51,0.02305
6432.36,0.02584
6409.22,0.02696
6386.07,0.01977
6362.93,0.02214
6339.78,0.02177
6316.64,0.02395
6293.49,0.02050
6270.35,0.01919
6247.2,0.02600
6224.06,0.02030
6200.91,0.02159
6177.77,0.01870
6154.62,0.02039
6131.48,0.01852
6108.33,0.02227
6085.19,0.02056
6062.04,0.02274
6038.9,0.02175
6015.75,0.02187
5992.61,0.02221
5969.46,0.02170
5946.32,0.01852
5923.17,0.01934
5900.03,0.02127
5876.88,0.02206
5853.74,0.02041
5830.59,0.02330
5807.45,0.01962
5784.3,0.02177
5761.16,0.02262
5738.01,0.02055
5714.87,0.02353
5691.72,0.02076
5668.58,0.02161
5645.44,0.02381
5622.29,0.02041
5599.15,0.02038
5576,0.02142
5552.86,0.02246
5529.71,0.02470
5506.57,0.02126
5483.42,0.02056
5460.28,0.02190
5437.13,0.02145
5413.99,0.02020
5390.84,0.02089
5367.7,0.02112
5344.55,0.02036
5321.41,0.02117
5298.26,0.02254
5275.12,0.02254
5251.97,0.02150
5228.83,0.02198
5205.68,0.02083
5182.54,0.02321
5159.39,0.02224
5136.25,0.02158
5113.1,0.02245
5089.96,0.02181
5066.81,0.02450
5043.67,0.02252
5020.52,0.02220
4997.38,0.02327
4974.23,0.02217
4951.09,0.02154
4927.94,0.02248
4904.8,0.02180
4881.65,0.02179
4858.51,0.02121
4835.36,0.02167
4812.22,0.02238
4789.07,0.02333
4765.93,0.02236
4742.78,0.02147
4719.64,0.02344
4696.49,0.02251
4673.35,0.02293
4650.2,0.02265
4627.06,0.02276
4603.91,0.02208
4580.77,0.02237
4557.62,0.02173
4534.48,0.02286
4511.33,0.02269
4488.19,0.02220
4465.04,0.02247
4441.9,0.02275
4418.75,0.02244
4395.61,0.02203
4372.46,0.02193
4349.32,0.02214
4326.17,0.02225
4303.03,0.02266
4279.88,0.02318
4256.74,0.02268
4233.59,0.02274
4210.45,0.02228
4187.3,0.02283
4164.16,0.02283
4141.01,0.02282
4117.87,0.02373
4094.72,0.02263
4071.58,0.02259
4048.43,0.02268
4025.29,0.02259
4002.14,0.02284
3979,0.02267
3955.85,0.02309
3932.71,0.02250
3909.57,0.02283
3886.42,0.02325
3863.28,0.02340
3840.13,0.02291
3816.99,0.02296
3793.84,0.02315
3770.7,0.02235
3747.55,0.02298
3724.41,0.02266
3701.26,0.02281
3678.12,0.02263
3654.97,0.02199
3631.83,0.02249
3608.68,0.02171
3585.54,0.02182
3562.39,0.02181
3539.25,0.02129
3516.1,0.02151
3492.96,0.02033
3469.81,0.02064
3446.67,0.02082
3423.52,0.02065
3400.38,0.02129
3377.23,0.02080
3354.09,0.02074
3330.94,0.02052
3307.8,0.02046
3284.65,0.02065
3261.51,0.02048
3238.36,0.02133
3215.22,0.02124
3192.07,0.02091
3168.93,0.02181
3145.78,0.02096
3122.64,0.02143
3099.49,0.02126
3076.35,0.02075
3053.2,0.02063
3030.06,0.02120
3006.91,0.02102
2983.77,0.02024
2960.62,0.02017
2937.48,0.02003
2914.33,0.02063
2891.19,0.02037
2868.04,0.02100
2844.9,0.02150
2821.75,0.02196
2798.61,0.02152
2775.46,0.02169
2752.32,0.02154
2729.17,0.02123
2706.03,0.02176
2682.88,0.02157
2659.74,0.02175
2636.59,0.02175
2613.45,0.02169
2590.3,0.02168
2567.16,0.02179
2544.01,0.02193
2520.87,0.02189
2497.72,0.02180
2474.58,0.02146
2451.43,0.02198
2428.29,0.02155
2405.14,0.02200
2382,0.02165
2358.85,0.02173
2335.71,0.02197
2312.56,0.02130
2289.42,0.02197
2266.27,0.02131
2243.13,0.02149
2219.98,0.02140
2196.84,0.02157
2173.7,0.02179
2150.55,0.02137
2127.41,0.02168
2104.26,0.02147
2081.12,0.02131
2057.97,0.02120
2034.83,0.02151
2011.68,0.02117
1988.54,0.02143
1965.39,0.02144
1942.25,0.02143
1919.1,0.02154
1895.96,0.02112
1872.81,0.02120
1849.67,0.02071
1826.52,0.02078
1803.38,0.02040
1780.23,0.01988
1757.09,0.01840
1733.94,0.01979
1710.8,0.02077
1687.65,0.01957
1664.51,0.01899
1641.36,0.01899
1618.22,0.01921
1595.07,0.01882
1571.93,0.01835
1548.78,0.01844
1525.64,0.01882
1502.49,0.01925
1479.35,0.01909
1456.2,0.01869
1433.06,0.01892
1409.91,0.01824
1386.77,0.01839
1363.62,0.01838
1340.48,0.01783
1317.33,0.01749
1294.19,0.01793
1271.04,0.01978
1247.9,0.02025
1224.75,0.01957
1201.61,0.01859
1178.46,0.01790
1155.32,0.01779
1132.17,0.01812
1109.03,0.01893
1085.88,0.01818
1062.74,0.02034
1039.59,0.01984
1016.45,0.01991
993.303,0.02062
970.158,0.02075
947.014,0.01997
923.869,0.02019
900.724,0.01934
877.579,0.01969
854.434,0.01929
831.289,0.01875
808.144,0.01877
784.999,0.01866
761.854,0.01907
738.709,0.01877
715.564,0.01877
692.419,0.01879
669.274,0.01748
646.129,0.01675
622.984,0.01645
599.84,0.01489