File: 01_Data/Overstuffed_Chair_Polyester_Fabric/FTIR/IS/Overstuffed_Chair_Polyester_Fabric_IS_T_221019_R2.dpt
7497.03,0.03114
7473.88,0.02945
7450.74,0.02857
7427.59,0.03061
7404.45,0.02309
7381.31,0.02387
7358.16,0.02559
7335.02,0.02304
7311.87,0.02725
7288.73,0.02848
7265.58,0.02464
7242.44,0.01609
7219.29,0.02449
7196.15,0.02067
7173,0.02459
7149.86,0.02243
7126.71,0.02105
7103.57,0.02624
7080.42,0.02916
7057.28,0.02453
7034.13,0.02832
7010.99,0.01927
6987.84,0.02489
6964.7,0.01801
6941.55,0.02029
6918.41,0.02240
6895.26,0.02633
6872.12,0.02522
6848.97,0.02254
6825.83,0.02032
6802.68,0.02102
6779.54,0.02594
6756.39,0.01855
6733.25,0.02404
6710.1,0.01872
6686.96,0.02088
6663.81,0.02591
6640.67,0.01754
6617.52,0.02391
6594.38,0.02433
6571.23,0.02042
6548.09,0.01706
6524.94,0.02462
6501.8,0.02274
6478.65,0.02061
6455.51,0.02665
6432.36,0.02225
6409.22,0.02513
6386.07,0.01878
6362.93,0.02290
6339.78,0.02362
6316.64,0.02393
6293.49,0.02314
6270.35,0.01832
6247.2,0.02436
6224.06,0.02497
6200.91,0.02219
6177.77,0.02211
6154.62,0.02151
6131.48,0.01891
6108.33,0.02140
6085.19,0.02210
6062.04,0.02075
6038.9,0.02365
6015.75,0.02138
5992.61,0.02193
5969.46,0.02214
5946.32,0.02057
5923.17,0.02103
5900.03,0.02451
5876.88,0.02224
5853.74,0.02254
5830.59,0.02024
5807.45,0.02276
5784.3,0.02247
5761.16,0.02312
5738.01,0.02173
5714.87,0.02299
5691.72,0.02463
5668.58,0.02145
5645.44,0.02262
5622.29,0.02166
5599.15,0.02273
5576,0.02258
5552.86,0.02387
5529.71,0.01954
5506.57,0.02049
5483.42,0.02085
5460.28,0.02301
5437.13,0.02334
5413.99,0.02163
5390.84,0.02257
5367.7,0.02205
5344.55,0.02145
5321.41,0.02119
5298.26,0.02283
5275.12,0.02308
5251.97,0.02419
5228.83,0.02153
5205.68,0.02191
5182.54,0.02276
5159.39,0.02162
5136.25,0.02243
5113.1,0.02111
5089.96,0.02134
5066.81,0.02109
5043.67,0.02372
5020.52,0.02298
4997.38,0.02272
4974.23,0.02183
4951.09,0.02215
4927.94,0.02164
4904.8,0.02232
4881.65,0.02212
4858.51,0.02160
4835.36,0.02157
4812.22,0.02191
4789.07,0.02218
4765.93,0.02228
4742.78,0.02230
4719.64,0.02281
4696.49,0.02293
4673.35,0.02275
4650.2,0.02206
4627.06,0.02227
4603.91,0.02205
4580.77,0.02276
4557.62,0.02194
4534.48,0.02263
4511.33,0.02188
4488.19,0.02281
4465.04,0.02310
4441.9,0.02207
4418.75,0.02231
4395.61,0.02247
4372.46,0.02278
4349.32,0.02247
4326.17,0.02217
4303.03,0.02184
4279.88,0.02283
4256.74,0.02256
4233.59,0.02240
4210.45,0.02266
4187.3,0.02248
4164.16,0.02240
4141.01,0.02252
4117.87,0.02287
4094.72,0.02277
4071.58,0.02324
4048.43,0.02232
4025.29,0.02316
4002.14,0.02247
3979,0.02332
3955.85,0.02201
3932.71,0.02266
3909.57,0.02254
3886.42,0.02254
3863.28,0.02304
3840.13,0.02300
3816.99,0.02234
3793.84,0.02297
3770.7,0.02210
3747.55,0.02267
3724.41,0.02287
3701.26,0.02217
3678.12,0.02299
3654.97,0.02238
3631.83,0.02195
3608.68,0.02118
3585.54,0.02177
3562.39,0.02064
3539.25,0.02124
3516.1,0.02097
3492.96,0.02135
3469.81,0.02161
3446.67,0.02045
3423.52,0.02113
3400.38,0.01999
3377.23,0.02051
3354.09,0.02111
3330.94,0.02085
3307.8,0.02081
3284.65,0.02145
3261.51,0.02108
3238.36,0.02080
3215.22,0.02049
3192.07,0.02129
3168.93,0.02103
3145.78,0.02101
3122.64,0.02128
3099.49,0.02112
3076.35,0.02068
3053.2,0.02083
3030.06,0.02074
3006.91,0.02058
2983.77,0.01998
2960.62,0.01975
2937.48,0.01953
2914.33,0.02035
2891.19,0.02083
2868.04,0.02056
2844.9,0.02141
2821.75,0.02153
2798.61,0.02179
2775.46,0.02155
2752.32,0.02167
2729.17,0.02153
2706.03,0.02158
2682.88,0.02172
2659.74,0.02161
2636.59,0.02136
2613.45,0.02150
2590.3,0.02158
2567.16,0.02156
2544.01,0.02161
2520.87,0.02177
2497.72,0.02180
2474.58,0.02161
2451.43,0.02152
2428.29,0.02175
2405.14,0.02135
2382,0.02154
2358.85,0.02205
2335.71,0.02118
2312.56,0.02169
2289.42,0.02127
2266.27,0.02148
2243.13,0.02147
2219.98,0.02152
2196.84,0.02130
2173.7,0.02132
2150.55,0.02141
2127.41,0.02152
2104.26,0.02111
2081.12,0.02149
2057.97,0.02101
2034.83,0.02169
2011.68,0.02121
1988.54,0.02116
1965.39,0.02116
1942.25,0.02120
1919.1,0.02139
1895.96,0.02118
1872.81,0.02069
1849.67,0.02069
1826.52,0.02022
1803.38,0.01989
1780.23,0.01968
1757.09,0.01800
1733.94,0.01987
1710.8,0.02055
1687.65,0.01959
1664.51,0.01891
1641.36,0.01873
1618.22,0.01929
1595.07,0.01892
1571.93,0.01850
1548.78,0.01789
1525.64,0.01873
1502.49,0.01868
1479.35,0.01883
1456.2,0.01873
1433.06,0.01882
1409.91,0.01845
1386.77,0.01790
1363.62,0.01832
1340.48,0.01831
1317.33,0.01716
1294.19,0.01798
1271.04,0.01940
1247.9,0.02012
1224.75,0.01980
1201.61,0.01917
1178.46,0.01803
1155.32,0.01800
1132.17,0.01817
1109.03,0.01870
1085.88,0.01796
1062.74,0.01996
1039.59,0.02058
1016.45,0.01915
993.303,0.02130
970.158,0.02067
947.014,0.02014
923.869,0.01998
900.724,0.01909
877.579,0.01916
854.434,0.01900
831.289,0.01934
808.144,0.01834
784.999,0.01859
761.854,0.01800
738.709,0.01861
715.564,0.01835
692.419,0.01859
669.274,0.01835
646.129,0.01585
622.984,0.01660
599.84,0.01826