File: 01_Data/Overstuffed_Chair_Polyester_Fabric/FTIR/IS/Overstuffed_Chair_Polyester_Fabric_IS_REFLECT_MEAS_210623_R4.dpt
5996.41,0.67306
5977.12,0.66647
5957.84,0.68191
5938.55,0.68856
5919.26,0.69925
5899.97,0.71767
5880.69,0.71801
5861.4,0.70356
5842.11,0.71814
5822.82,0.71435
5803.54,0.72272
5784.25,0.71879
5764.96,0.72131
5745.68,0.73640
5726.39,0.74858
5707.1,0.74422
5687.81,0.73997
5668.53,0.74878
5649.24,0.74667
5629.95,0.75278
5610.66,0.75412
5591.38,0.75459
5572.09,0.75227
5552.8,0.75253
5533.52,0.75460
5514.23,0.75278
5494.94,0.75260
5475.65,0.73793
5456.37,0.75896
5437.08,0.76260
5417.79,0.76652
5398.5,0.76092
5379.22,0.75572
5359.93,0.76984
5340.64,0.74799
5321.36,0.75831
5302.07,0.75929
5282.78,0.73989
5263.49,0.70447
5244.21,0.70500
5224.92,0.71633
5205.63,0.72104
5186.34,0.73986
5167.06,0.74018
5147.77,0.73948
5128.48,0.73486
5109.2,0.73008
5089.91,0.74777
5070.62,0.75815
5051.33,0.76053
5032.05,0.75937
5012.76,0.75370
4993.47,0.75361
4974.18,0.75149
4954.9,0.75765
4935.61,0.74947
4916.32,0.74607
4897.04,0.74185
4877.75,0.74174
4858.46,0.74153
4839.17,0.73608
4819.89,0.71827
4800.6,0.71285
4781.31,0.71046
4762.02,0.71315
4742.74,0.69213
4723.45,0.65754
4704.16,0.63742
4684.88,0.61663
4665.59,0.65676
4646.3,0.64442
4627.01,0.64131
4607.73,0.68018
4588.44,0.65850
4569.15,0.67086
4549.87,0.69023
4530.58,0.68900
4511.29,0.67272
4492,0.62932
4472.72,0.60022
4453.43,0.55422
4434.14,0.54366
4414.85,0.56812
4395.57,0.58067
4376.28,0.59305
4356.99,0.58742
4337.71,0.57848
4318.42,0.57606
4299.13,0.55558
4279.84,0.55689
4260.56,0.56750
4241.27,0.56420
4221.98,0.56633
4202.69,0.57966
4183.41,0.56951
4164.12,0.57757
4144.83,0.58391
4125.55,0.56739
4106.26,0.54507
4086.97,0.49793
4067.68,0.56059
4048.4,0.57729
4029.11,0.59142
4009.82,0.59005
3990.53,0.59837
3971.25,0.59906
3951.96,0.60779
3932.67,0.60868
3913.39,0.61332
3894.1,0.62413
3874.81,0.62834
3855.52,0.62082
3836.24,0.63474
3816.95,0.62342
3797.66,0.62177
3778.37,0.62615
3759.09,0.60410
3739.8,0.60765
3720.51,0.61469
3701.23,0.58738
3681.94,0.52463
3662.65,0.49126
3643.36,0.45139
3624.08,0.43471
3604.79,0.44489
3585.5,0.44406
3566.21,0.41877
3546.93,0.40012
3527.64,0.41484
3508.35,0.43304
3489.07,0.43742
3469.78,0.42728
3450.49,0.39278
3431.2,0.33654
3411.92,0.41002
3392.63,0.44460
3373.34,0.45414
3354.05,0.44522
3334.77,0.43003
3315.48,0.44443
3296.19,0.44349
3276.91,0.45279
3257.62,0.45787
3238.33,0.45426
3219.04,0.45856
3199.76,0.46109
3180.47,0.46251
3161.18,0.45946
3141.89,0.44590
3122.61,0.42706
3103.32,0.39404
3084.03,0.38623
3064.75,0.37344
3045.46,0.40338
3026.17,0.39357
3006.88,0.32243
2987.6,0.28729
2968.31,0.21072
2949.02,0.28637
2929.74,0.35552
2910.45,0.27900
2891.16,0.33452
2871.87,0.36359
2852.59,0.39403
2833.3,0.45816
2814.01,0.46631
2794.72,0.48026
2775.44,0.50312
2756.15,0.50792
2736.86,0.51529
2717.58,0.53628
2698.29,0.55080
2679,0.55300
2659.71,0.55314
2640.43,0.52904
2621.14,0.51744
2601.85,0.51172
2582.56,0.49367
2563.28,0.49063
2543.99,0.48623
2524.7,0.49097
2505.42,0.50261
2486.13,0.51662
2466.84,0.53320
2447.55,0.52933
2428.27,0.49717
2408.98,0.46293
2389.69,0.44107
2370.4,0.41251
2351.12,0.42988
2331.83,0.44777
2312.54,0.48026
2293.26,0.46085
2273.97,0.45545
2254.68,0.45057
2235.39,0.47463
2216.11,0.48313
2196.82,0.49873
2177.53,0.48358
2158.24,0.44010
2138.96,0.40304
2119.67,0.37001
2100.38,0.36757
2081.1,0.39222
2061.81,0.43920
2042.52,0.47108
2023.23,0.44919
2003.95,0.40759
1984.66,0.36272
1965.37,0.29709
1946.08,0.31830
1926.8,0.37170
1907.51,0.40374
1888.22,0.41400
1868.94,0.40082
1849.65,0.32686
1830.36,0.26893
1811.07,0.25386
1791.79,0.24202
1772.5,0.20028
1753.21,0.09931
1733.92,0.02508
1714.64,0.04608
1695.35,0.14431
1676.06,0.17909
1656.78,0.23971
1637.49,0.26176
1618.2,0.24989
1598.91,0.27378
1579.63,0.19264
1560.34,0.27570
1541.05,0.28494
1521.76,0.24616
1502.48,0.14640
1483.19,0.20555
1463.9,0.14967
1444.62,0.13994
1425.33,0.14553
1406.04,0.06308
1386.75,0.09115
1367.47,0.08241
1348.18,0.04609
1328.89,0.09217
1309.61,0.03587
1290.32,0.02941
1271.03,0.04599
1251.74,0.04849
1232.46,0.08189
1213.17,0.18477
1193.88,0.24171
1174.59,0.16309
1155.31,0.08569
1136.02,0.03637
1116.73,0.04312
1097.45,0.05896
1078.16,0.17839
1058.87,0.26399
1039.58,0.19686
1020.3,0.08334
1001.01,0.31605
981.722,0.23532
962.434,0.25254
943.147,0.34574
923.86,0.33898
904.573,0.25171
885.285,0.21365
865.998,0.19764
846.711,0.15339
827.424,0.24739
808.136,0.24273
788.849,0.21526
769.562,0.25768
750.274,0.21281
730.987,0.04783
711.7,0.21673
692.413,0.27193
673.125,0.24645
653.838,0.26197
634.551,0.24298
615.264,0.25097
595.976,0.24541
576.689,0.23332
557.402,0.19624
538.115,0.16375
518.827,0.12162
499.54,0.09842
480.253,0.11578
460.966,0.11115
441.678,0.05654
422.391,0.08302
403.104,0.05411
399.246,0.04237