File: 01_Data/Overstuffed_Chair_Polyester_Fabric/FTIR/IS/Overstuffed_Chair_Polyester_Fabric_IS_S_221019_R8.dpt
7497.03,0.83556
7473.88,0.83341
7450.74,0.82759
7427.59,0.82440
7404.45,0.83038
7381.31,0.82800
7358.16,0.81699
7335.02,0.81476
7311.87,0.82012
7288.73,0.82369
7265.58,0.82345
7242.44,0.81408
7219.29,0.82422
7196.15,0.81421
7173,0.81973
7149.86,0.81664
7126.71,0.81271
7103.57,0.80767
7080.42,0.81209
7057.28,0.81041
7034.13,0.81169
7010.99,0.80217
6987.84,0.81070
6964.7,0.80342
6941.55,0.80711
6918.41,0.80778
6895.26,0.81063
6872.12,0.80926
6848.97,0.80447
6825.83,0.80931
6802.68,0.81072
6779.54,0.81335
6756.39,0.81064
6733.25,0.81167
6710.1,0.81572
6686.96,0.81598
6663.81,0.82109
6640.67,0.81680
6617.52,0.81813
6594.38,0.81595
6571.23,0.81620
6548.09,0.81543
6524.94,0.81789
6501.8,0.81944
6478.65,0.81980
6455.51,0.82231
6432.36,0.81729
6409.22,0.81736
6386.07,0.82052
6362.93,0.81863
6339.78,0.81764
6316.64,0.81694
6293.49,0.81517
6270.35,0.81655
6247.2,0.81430
6224.06,0.81517
6200.91,0.80774
6177.77,0.80812
6154.62,0.79952
6131.48,0.79817
6108.33,0.78286
6085.19,0.75261
6062.04,0.72141
6038.9,0.69232
6015.75,0.67502
5992.61,0.70789
5969.46,0.72033
5946.32,0.73268
5923.17,0.74460
5900.03,0.76473
5876.88,0.75236
5853.74,0.74604
5830.59,0.75185
5807.45,0.74828
5784.3,0.75119
5761.16,0.75735
5738.01,0.77026
5714.87,0.77702
5691.72,0.77941
5668.58,0.77835
5645.44,0.77895
5622.29,0.78784
5599.15,0.78836
5576,0.78286
5552.86,0.78248
5529.71,0.78352
5506.57,0.78906
5483.42,0.78325
5460.28,0.78476
5437.13,0.79233
5413.99,0.79656
5390.84,0.79583
5367.7,0.79747
5344.55,0.79756
5321.41,0.79810
5298.26,0.79572
5275.12,0.79144
5251.97,0.78471
5228.83,0.78430
5205.68,0.78307
5182.54,0.78375
5159.39,0.77828
5136.25,0.77120
5113.1,0.76452
5089.96,0.78017
5066.81,0.78603
5043.67,0.78781
5020.52,0.78696
4997.38,0.78818
4974.23,0.78691
4951.09,0.78289
4927.94,0.77785
4904.8,0.77215
4881.65,0.77004
4858.51,0.76756
4835.36,0.75793
4812.22,0.74341
4789.07,0.73908
4765.93,0.74516
4742.78,0.72555
4719.64,0.68937
4696.49,0.65958
4673.35,0.68339
4650.2,0.69287
4627.06,0.68065
4603.91,0.71642
4580.77,0.69139
4557.62,0.72611
4534.48,0.72591
4511.33,0.71067
4488.19,0.66352
4465.04,0.61803
4441.9,0.59386
4418.75,0.60522
4395.61,0.61939
4372.46,0.63004
4349.32,0.62306
4326.17,0.61666
4303.03,0.60174
4279.88,0.59730
4256.74,0.60642
4233.59,0.60553
4210.45,0.61713
4187.3,0.61548
4164.16,0.61954
4141.01,0.62144
4117.87,0.60730
4094.72,0.54922
4071.58,0.59491
4048.43,0.61803
4025.29,0.63208
4002.14,0.63259
3979,0.64019
3955.85,0.64769
3932.71,0.65398
3909.57,0.65885
3886.42,0.67504
3863.28,0.68271
3840.13,0.68521
3816.99,0.67899
3793.84,0.67721
3770.7,0.67362
3747.55,0.68116
3724.41,0.68397
3701.26,0.66768
3678.12,0.64246
3654.97,0.64679
3631.83,0.61234
3608.68,0.57783
3585.54,0.53043
3562.39,0.47622
3539.25,0.45530
3516.1,0.45882
3492.96,0.45626
3469.81,0.43347
3446.67,0.37981
3423.52,0.35779
3400.38,0.42446
3377.23,0.43387
3354.09,0.42098
3330.94,0.40642
3307.8,0.41515
3284.65,0.42216
3261.51,0.43203
3238.36,0.43464
3215.22,0.44538
3192.07,0.44766
3168.93,0.45046
3145.78,0.44508
3122.64,0.42857
3099.49,0.40279
3076.35,0.38835
3053.2,0.37093
3030.06,0.41503
3006.91,0.33638
2983.77,0.28522
2960.62,0.24109
2937.48,0.32394
2914.33,0.28434
2891.19,0.32488
2868.04,0.35512
2844.9,0.40369
2821.75,0.47047
2798.61,0.47820
2775.46,0.50922
2752.32,0.51579
2729.17,0.53440
2706.03,0.55426
2682.88,0.56359
2659.74,0.56618
2636.59,0.53816
2613.45,0.53641
2590.3,0.52076
2567.16,0.51711
2544.01,0.51228
2520.87,0.52120
2497.72,0.53093
2474.58,0.55687
2451.43,0.56000
2428.29,0.53065
2405.14,0.49461
2382,0.48568
2358.85,0.51882
2335.71,0.54133
2312.56,0.55360
2289.42,0.50316
2266.27,0.49392
2243.13,0.50625
2219.98,0.52311
2196.84,0.53903
2173.7,0.51739
2150.55,0.46283
2127.41,0.42692
2104.26,0.40784
2081.12,0.43326
2057.97,0.49045
2034.83,0.51031
2011.68,0.46732
1988.54,0.41473
1965.39,0.33746
1942.25,0.37119
1919.1,0.43028
1895.96,0.45420
1872.81,0.44213
1849.67,0.36891
1826.52,0.29840
1803.38,0.28596
1780.23,0.25004
1757.09,0.14493
1733.94,0.03320
1710.8,0.08166
1687.65,0.17572
1664.51,0.23601
1641.36,0.27742
1618.22,0.27287
1595.07,0.29558
1571.93,0.25359
1548.78,0.28540
1525.64,0.25937
1502.49,0.16339
1479.35,0.20332
1456.2,0.15055
1433.06,0.16906
1409.91,0.05876
1386.77,0.10705
1363.62,0.10103
1340.48,0.05817
1317.33,0.06795
1294.19,0.03711
1271.04,0.06051
1247.9,0.06221
1224.75,0.14645
1201.61,0.24692
1178.46,0.19954
1155.32,0.10325
1132.17,0.05367
1109.03,0.06072
1085.88,0.12498
1062.74,0.26924
1039.59,0.20821
1016.45,0.14050
993.303,0.30586
970.158,0.18992
947.014,0.35292
923.869,0.35543
900.724,0.26090
877.579,0.18925
854.434,0.19012
831.289,0.26557
808.144,0.26783
784.999,0.26456
761.854,0.28904
738.709,0.09979
715.564,0.23825
692.419,0.30376
669.274,0.29234
646.129,0.30019
622.984,0.29239
599.84,0.28488