File: 01_Data/Overstuffed_Chair_Polyester_Fabric/FTIR/IS/Overstuffed_Chair_Polyester_Fabric_IS_S_221019_R3.dpt
7497.03,0.82805
7473.88,0.84217
7450.74,0.84474
7427.59,0.81678
7404.45,0.82488
7381.31,0.82067
7358.16,0.82836
7335.02,0.81392
7311.87,0.82160
7288.73,0.82284
7265.58,0.81300
7242.44,0.81508
7219.29,0.82272
7196.15,0.81750
7173,0.81639
7149.86,0.81420
7126.71,0.81092
7103.57,0.80642
7080.42,0.80716
7057.28,0.80501
7034.13,0.80479
7010.99,0.79916
6987.84,0.80752
6964.7,0.80591
6941.55,0.80658
6918.41,0.80388
6895.26,0.80394
6872.12,0.81303
6848.97,0.80945
6825.83,0.80810
6802.68,0.81163
6779.54,0.81133
6756.39,0.81288
6733.25,0.81142
6710.1,0.80970
6686.96,0.81518
6663.81,0.81192
6640.67,0.81930
6617.52,0.81337
6594.38,0.81288
6571.23,0.81642
6548.09,0.81680
6524.94,0.81914
6501.8,0.81690
6478.65,0.81616
6455.51,0.82242
6432.36,0.81769
6409.22,0.81818
6386.07,0.81823
6362.93,0.82159
6339.78,0.81716
6316.64,0.81675
6293.49,0.81793
6270.35,0.81754
6247.2,0.81899
6224.06,0.81604
6200.91,0.80684
6177.77,0.80639
6154.62,0.80059
6131.48,0.79705
6108.33,0.77995
6085.19,0.74913
6062.04,0.71885
6038.9,0.68983
6015.75,0.67756
5992.61,0.70543
5969.46,0.71886
5946.32,0.73134
5923.17,0.74655
5900.03,0.76211
5876.88,0.74950
5853.74,0.74837
5830.59,0.75052
5807.45,0.74942
5784.3,0.75210
5761.16,0.75843
5738.01,0.76676
5714.87,0.77447
5691.72,0.77568
5668.58,0.77938
5645.44,0.78070
5622.29,0.78650
5599.15,0.78820
5576,0.78351
5552.86,0.78382
5529.71,0.78236
5506.57,0.78498
5483.42,0.78061
5460.28,0.78789
5437.13,0.79096
5413.99,0.79663
5390.84,0.79756
5367.7,0.79503
5344.55,0.79374
5321.41,0.79666
5298.26,0.79543
5275.12,0.78684
5251.97,0.78154
5228.83,0.77899
5205.68,0.78062
5182.54,0.77999
5159.39,0.77617
5136.25,0.76796
5113.1,0.76294
5089.96,0.77926
5066.81,0.78393
5043.67,0.78469
5020.52,0.78488
4997.38,0.78528
4974.23,0.78542
4951.09,0.78086
4927.94,0.77599
4904.8,0.77256
4881.65,0.76787
4858.51,0.76748
4835.36,0.75624
4812.22,0.74489
4789.07,0.73807
4765.93,0.74490
4742.78,0.72677
4719.64,0.68965
4696.49,0.65963
4673.35,0.68339
4650.2,0.69181
4627.06,0.67995
4603.91,0.71649
4580.77,0.69019
4557.62,0.72561
4534.48,0.72499
4511.33,0.71091
4488.19,0.66268
4465.04,0.61718
4441.9,0.59492
4418.75,0.60486
4395.61,0.61840
4372.46,0.62939
4349.32,0.62213
4326.17,0.61685
4303.03,0.60054
4279.88,0.59723
4256.74,0.60649
4233.59,0.60466
4210.45,0.61652
4187.3,0.61511
4164.16,0.61826
4141.01,0.62122
4117.87,0.60673
4094.72,0.54861
4071.58,0.59385
4048.43,0.61761
4025.29,0.63192
4002.14,0.63276
3979,0.63919
3955.85,0.64684
3932.71,0.65408
3909.57,0.65762
3886.42,0.67402
3863.28,0.68171
3840.13,0.68404
3816.99,0.67868
3793.84,0.67701
3770.7,0.67281
3747.55,0.68009
3724.41,0.68189
3701.26,0.66418
3678.12,0.63423
3654.97,0.62618
3631.83,0.59067
3608.68,0.56237
3585.54,0.52064
3562.39,0.46791
3539.25,0.44818
3516.1,0.45242
3492.96,0.45073
3469.81,0.43053
3446.67,0.37725
3423.52,0.35592
3400.38,0.42232
3377.23,0.43103
3354.09,0.41850
3330.94,0.40444
3307.8,0.41326
3284.65,0.42013
3261.51,0.42927
3238.36,0.43156
3215.22,0.44266
3192.07,0.44435
3168.93,0.44805
3145.78,0.44168
3122.64,0.42621
3099.49,0.40102
3076.35,0.38576
3053.2,0.36889
3030.06,0.41332
3006.91,0.33541
2983.77,0.28471
2960.62,0.24119
2937.48,0.32285
2914.33,0.28337
2891.19,0.32453
2868.04,0.35452
2844.9,0.40322
2821.75,0.46901
2798.61,0.47633
2775.46,0.50835
2752.32,0.51417
2729.17,0.53263
2706.03,0.55285
2682.88,0.56232
2659.74,0.56468
2636.59,0.53667
2613.45,0.53541
2590.3,0.52018
2567.16,0.51666
2544.01,0.51153
2520.87,0.52028
2497.72,0.53019
2474.58,0.55587
2451.43,0.55881
2428.29,0.53022
2405.14,0.49383
2382,0.48491
2358.85,0.51764
2335.71,0.54124
2312.56,0.55309
2289.42,0.50272
2266.27,0.49314
2243.13,0.50602
2219.98,0.52196
2196.84,0.53815
2173.7,0.51610
2150.55,0.46173
2127.41,0.42615
2104.26,0.40719
2081.12,0.43276
2057.97,0.48942
2034.83,0.50924
2011.68,0.46685
1988.54,0.41459
1965.39,0.33738
1942.25,0.37113
1919.1,0.43017
1895.96,0.45322
1872.81,0.44137
1849.67,0.36848
1826.52,0.29814
1803.38,0.28611
1780.23,0.24974
1757.09,0.14482
1733.94,0.03321
1710.8,0.08154
1687.65,0.17533
1664.51,0.23535
1641.36,0.27530
1618.22,0.27105
1595.07,0.29417
1571.93,0.25291
1548.78,0.28519
1525.64,0.25942
1502.49,0.16328
1479.35,0.20310
1456.2,0.15026
1433.06,0.16885
1409.91,0.05899
1386.77,0.10719
1363.62,0.10097
1340.48,0.05822
1317.33,0.06803
1294.19,0.03707
1271.04,0.06084
1247.9,0.06229
1224.75,0.14656
1201.61,0.24674
1178.46,0.19940
1155.32,0.10362
1132.17,0.05339
1109.03,0.06067
1085.88,0.12522
1062.74,0.26911
1039.59,0.20920
1016.45,0.14032
993.303,0.30658
970.158,0.18990
947.014,0.35293
923.869,0.35553
900.724,0.26047
877.579,0.18876
854.434,0.18906
831.289,0.26567
808.144,0.26699
784.999,0.26397
761.854,0.28804
738.709,0.09981
715.564,0.23679
692.419,0.30247
669.274,0.29190
646.129,0.29973
622.984,0.29215
599.84,0.28290