File: 01_Data/Overstuffed_Chair_Polyester_Fabric/FTIR/IS/Overstuffed_Chair_Polyester_Fabric_IS_TRANS_MEAS_210623_R4.dpt
5998.34,0.09056
5979.05,0.10198
5959.76,0.10956
5940.48,0.11835
5921.19,0.13464
5901.9,0.14202
5882.61,0.12466
5863.33,0.12861
5844.04,0.14757
5824.75,0.13928
5805.47,0.13751
5786.18,0.12762
5766.89,0.14520
5747.6,0.14779
5728.32,0.16054
5709.03,0.15615
5689.74,0.16253
5670.46,0.16033
5651.17,0.17452
5631.88,0.16661
5612.59,0.17103
5593.31,0.16644
5574.02,0.16663
5554.73,0.16811
5535.44,0.16415
5516.16,0.17146
5496.87,0.16020
5477.58,0.18083
5458.3,0.16903
5439.01,0.17403
5419.72,0.17901
5400.43,0.17114
5381.15,0.18138
5361.86,0.18149
5342.57,0.17435
5323.28,0.17602
5304,0.17427
5284.71,0.17759
5265.42,0.17433
5246.14,0.15968
5226.85,0.16262
5207.56,0.16421
5188.27,0.16969
5168.99,0.17376
5149.7,0.16336
5130.41,0.16527
5111.12,0.15536
5091.84,0.16943
5072.55,0.16858
5053.26,0.17325
5033.98,0.17276
5014.69,0.17089
4995.4,0.16958
4976.11,0.17091
4956.83,0.17073
4937.54,0.16777
4918.25,0.16253
4898.96,0.16656
4879.68,0.16250
4860.39,0.16438
4841.1,0.15751
4821.82,0.14397
4802.53,0.13881
4783.24,0.14245
4763.95,0.14926
4744.67,0.13373
4725.38,0.10852
4706.09,0.09828
4686.8,0.08204
4667.52,0.10707
4648.23,0.10740
4628.94,0.09267
4609.66,0.12435
4590.37,0.11360
4571.08,0.11829
4551.79,0.13226
4532.51,0.12972
4513.22,0.12081
4493.93,0.09856
4474.64,0.07941
4455.36,0.05999
4436.07,0.05235
4416.78,0.06362
4397.5,0.06740
4378.21,0.07227
4358.92,0.06889
4339.63,0.06900
4320.35,0.06541
4301.06,0.06035
4281.77,0.06358
4262.48,0.06551
4243.2,0.06549
4223.91,0.06653
4204.62,0.07302
4185.34,0.06763
4166.05,0.07271
4146.76,0.07495
4127.47,0.06751
4108.19,0.06361
4088.9,0.04928
4069.61,0.06398
4050.33,0.07183
4031.04,0.07817
4011.75,0.07812
3992.46,0.08070
3973.18,0.08469
3953.89,0.08913
3934.6,0.08952
3915.31,0.09234
3896.03,0.09949
3876.74,0.10781
3857.45,0.11215
3838.17,0.11745
3818.88,0.11066
3799.59,0.10452
3780.3,0.10595
3761.02,0.09776
3741.73,0.11380
3722.44,0.11200
3703.15,0.09878
3683.87,0.06997
3664.58,0.06950
3645.29,0.06145
3626.01,0.05913
3606.72,0.06188
3587.43,0.06030
3568.14,0.05678
3548.86,0.04999
3529.57,0.05177
3510.28,0.05654
3490.99,0.05642
3471.71,0.05358
3452.42,0.04699
3433.13,0.04364
3413.85,0.04731
3394.56,0.05493
3375.27,0.05392
3355.98,0.05283
3336.7,0.04947
3317.41,0.05133
3298.12,0.04977
3278.83,0.05299
3259.55,0.05425
3240.26,0.05396
3220.97,0.05392
3201.69,0.05409
3182.4,0.05663
3163.11,0.05477
3143.82,0.05169
3124.54,0.04903
3105.25,0.04609
3085.96,0.04508
3066.67,0.04533
3047.39,0.04421
3028.1,0.04634
3008.81,0.04315
2989.53,0.04160
2970.24,0.04258
2950.95,0.04261
2931.66,0.04477
2912.38,0.04453
2893.09,0.04434
2873.8,0.04586
2854.51,0.04694
2835.23,0.05106
2815.94,0.05208
2796.65,0.05504
2777.37,0.05995
2758.08,0.06193
2738.79,0.06168
2719.5,0.06995
2700.22,0.07485
2680.93,0.07827
2661.64,0.07900
2642.35,0.07306
2623.07,0.06686
2603.78,0.06634
2584.49,0.06146
2565.21,0.06037
2545.92,0.06023
2526.63,0.05993
2507.34,0.06428
2488.06,0.06886
2468.77,0.07707
2449.48,0.07540
2430.2,0.06645
2410.91,0.05902
2391.62,0.05604
2372.33,0.05046
2353.05,0.05530
2333.76,0.05801
2314.47,0.06810
2295.18,0.06294
2275.9,0.06158
2256.61,0.06217
2237.32,0.06860
2218.04,0.07118
2198.75,0.07731
2179.46,0.07665
2160.17,0.06562
2140.89,0.05946
2121.6,0.05519
2102.31,0.05506
2083.02,0.05784
2063.74,0.06678
2044.45,0.07880
2025.16,0.07336
2005.88,0.06440
1986.59,0.05670
1967.3,0.05227
1948.01,0.05140
1928.73,0.05817
1909.44,0.06531
1890.15,0.06732
1870.86,0.06638
1851.58,0.05526
1832.29,0.05011
1813,0.04958
1793.72,0.04966
1774.43,0.04917
1755.14,0.04600
1735.85,0.04437
1716.57,0.04636
1697.28,0.04932
1677.99,0.04544
1658.7,0.04561
1639.42,0.04718
1620.13,0.04752
1600.84,0.04773
1581.56,0.04503
1562.27,0.05018
1542.98,0.05114
1523.69,0.05192
1504.41,0.04657
1485.12,0.04650
1465.83,0.04499
1446.54,0.04651
1427.26,0.04743
1407.97,0.04275
1388.68,0.04515
1369.4,0.04490
1350.11,0.04460
1330.82,0.04452
1311.53,0.04577
1292.25,0.04397
1272.96,0.04434
1253.67,0.04318
1234.38,0.04292
1215.1,0.04525
1195.81,0.04614
1176.52,0.04577
1157.24,0.04574
1137.95,0.04438
1118.66,0.04297
1099.37,0.04316
1080.09,0.04444
1060.8,0.04479
1041.51,0.04612
1022.22,0.04347
1002.94,0.04832
983.65,0.04471
964.363,0.04700
945.076,0.04746
925.789,0.05168
906.501,0.04764
887.214,0.04610
867.927,0.04768
848.64,0.04723
829.352,0.04961
810.065,0.05105
790.778,0.04852
771.49,0.04925
752.203,0.05436
732.916,0.04444
713.629,0.05037
694.341,0.05126
675.054,0.04799
655.767,0.05448
636.48,0.05555
617.192,0.06362
597.905,0.06447
578.618,0.07268
559.331,0.06341
540.043,0.05750
520.756,0.04120
501.469,0.05024
482.182,0.05592
462.894,0.04748
443.607,0.05396
424.32,0.05852
405.033,0.04746
399.246,0.06186