File: 01_Data/Overstuffed_Chair_Polyester_Fabric/FTIR/IS/Overstuffed_Chair_Polyester_Fabric_IS_REFLECT_MEAS_210623_R5.dpt
5996.41,0.65687
5977.12,0.66594
5957.84,0.67427
5938.55,0.68416
5919.26,0.70073
5899.97,0.70791
5880.69,0.70953
5861.4,0.71128
5842.11,0.70549
5822.82,0.71272
5803.54,0.71783
5784.25,0.72162
5764.96,0.71869
5745.68,0.72660
5726.39,0.74211
5707.1,0.73785
5687.81,0.73686
5668.53,0.74112
5649.24,0.74069
5629.95,0.75812
5610.66,0.75066
5591.38,0.75258
5572.09,0.75438
5552.8,0.74855
5533.52,0.74411
5514.23,0.74874
5494.94,0.73914
5475.65,0.73636
5456.37,0.75004
5437.08,0.76440
5417.79,0.76226
5398.5,0.75868
5379.22,0.75768
5359.93,0.76230
5340.64,0.74433
5321.36,0.76063
5302.07,0.75448
5282.78,0.73484
5263.49,0.70485
5244.21,0.70584
5224.92,0.71095
5205.63,0.72033
5186.34,0.73670
5167.06,0.73698
5147.77,0.73513
5128.48,0.73463
5109.2,0.72929
5089.91,0.74619
5070.62,0.75541
5051.33,0.75688
5032.05,0.75803
5012.76,0.75237
4993.47,0.75170
4974.18,0.75297
4954.9,0.75234
4935.61,0.74304
4916.32,0.73823
4897.04,0.73635
4877.75,0.73674
4858.46,0.73852
4839.17,0.73265
4819.89,0.71255
4800.6,0.70556
4781.31,0.70526
4762.02,0.70792
4742.74,0.68628
4723.45,0.64894
4704.16,0.63147
4684.88,0.60907
4665.59,0.65110
4646.3,0.63872
4627.01,0.63587
4607.73,0.67562
4588.44,0.65017
4569.15,0.66739
4549.87,0.68406
4530.58,0.68370
4511.29,0.66903
4492,0.62354
4472.72,0.59387
4453.43,0.54523
4434.14,0.53662
4414.85,0.56041
4395.57,0.57335
4376.28,0.58320
4356.99,0.57905
4337.71,0.57151
4318.42,0.56937
4299.13,0.54874
4279.84,0.54980
4260.56,0.56026
4241.27,0.55592
4221.98,0.56015
4202.69,0.57253
4183.41,0.56206
4164.12,0.57265
4144.83,0.57733
4125.55,0.55894
4106.26,0.53902
4086.97,0.49114
4067.68,0.55320
4048.4,0.57145
4029.11,0.58565
4009.82,0.58390
3990.53,0.59223
3971.25,0.59308
3951.96,0.59993
3932.67,0.60252
3913.39,0.60600
3894.1,0.61622
3874.81,0.62208
3855.52,0.61644
3836.24,0.62807
3816.95,0.61789
3797.66,0.61536
3778.37,0.62128
3759.09,0.59691
3739.8,0.59980
3720.51,0.60870
3701.23,0.58209
3681.94,0.52008
3662.65,0.49095
3643.36,0.45423
3624.08,0.43830
3604.79,0.45293
3585.5,0.44616
3566.21,0.42112
3546.93,0.40279
3527.64,0.41683
3508.35,0.43367
3489.07,0.43801
3469.78,0.42754
3450.49,0.39055
3431.2,0.33333
3411.92,0.40737
3392.63,0.44342
3373.34,0.45211
3354.05,0.44170
3334.77,0.42435
3315.48,0.43902
3296.19,0.43560
3276.91,0.44622
3257.62,0.45303
3238.33,0.44819
3219.04,0.45327
3199.76,0.45627
3180.47,0.45630
3161.18,0.45311
3141.89,0.44041
3122.61,0.42068
3103.32,0.38747
3084.03,0.37907
3064.75,0.36683
3045.46,0.39749
3026.17,0.38696
3006.88,0.31713
2987.6,0.28299
2968.31,0.20783
2949.02,0.28109
2929.74,0.34763
2910.45,0.27391
2891.16,0.32979
2871.87,0.35806
2852.59,0.38798
2833.3,0.45149
2814.01,0.46035
2794.72,0.47296
2775.44,0.49709
2756.15,0.50204
2736.86,0.50877
2717.58,0.53094
2698.29,0.54425
2679,0.54757
2659.71,0.54700
2640.43,0.52226
2621.14,0.51098
2601.85,0.50501
2582.56,0.48662
2563.28,0.48425
2543.99,0.47974
2524.7,0.48422
2505.42,0.49625
2486.13,0.50967
2466.84,0.52641
2447.55,0.52181
2428.27,0.49070
2408.98,0.45605
2389.69,0.43488
2370.4,0.40520
2351.12,0.42412
2331.83,0.44230
2312.54,0.47289
2293.26,0.45363
2273.97,0.44886
2254.68,0.44334
2235.39,0.46727
2216.11,0.47684
2196.82,0.49232
2177.53,0.47729
2158.24,0.43322
2138.96,0.39648
2119.67,0.36422
2100.38,0.36123
2081.1,0.38587
2061.81,0.43315
2042.52,0.46497
2023.23,0.44355
2003.95,0.40117
1984.66,0.35706
1965.37,0.29092
1946.08,0.31199
1926.8,0.36567
1907.51,0.39864
1888.22,0.40840
1868.94,0.39415
1849.65,0.32153
1830.36,0.26433
1811.07,0.24855
1791.79,0.23748
1772.5,0.19722
1753.21,0.09860
1733.92,0.02611
1714.64,0.04860
1695.35,0.14178
1676.06,0.17480
1656.78,0.23278
1637.49,0.25663
1618.2,0.24870
1598.91,0.27139
1579.63,0.19070
1560.34,0.27001
1541.05,0.27975
1521.76,0.24110
1502.48,0.14582
1483.19,0.20399
1463.9,0.15004
1444.62,0.13927
1425.33,0.14438
1406.04,0.06356
1386.75,0.09261
1367.47,0.08232
1348.18,0.04801
1328.89,0.09235
1309.61,0.03619
1290.32,0.03016
1271.03,0.04875
1251.74,0.05141
1232.46,0.08408
1213.17,0.18781
1193.88,0.24601
1174.59,0.16897
1155.31,0.08882
1136.02,0.03723
1116.73,0.04673
1097.45,0.06135
1078.16,0.18040
1058.87,0.26304
1039.58,0.19663
1020.3,0.08465
1001.01,0.31670
981.722,0.23481
962.434,0.25197
943.147,0.34248
923.86,0.33854
904.573,0.25282
885.285,0.21419
865.998,0.19713
846.711,0.15256
827.424,0.24572
808.136,0.24117
788.849,0.21573
769.562,0.25817
750.274,0.21552
730.987,0.04918
711.7,0.21558
692.413,0.27529
673.125,0.25728
653.838,0.27410
634.551,0.24719
615.264,0.26563
595.976,0.25383
576.689,0.24208
557.402,0.21301
538.115,0.16815
518.827,0.12524
499.54,0.09489
480.253,0.12249
460.966,0.10960
441.678,0.06078
422.391,0.09191
403.104,0.05557
399.246,0.06323