File: 01_Data/Overstuffed_Chair_Polyester_Fabric/FTIR/IS/Overstuffed_Chair_Polyester_Fabric_IS_S_221019_R5.dpt
7497.03,0.83207
7473.88,0.83891
7450.74,0.83797
7427.59,0.82715
7404.45,0.82649
7381.31,0.82361
7358.16,0.81707
7335.02,0.81188
7311.87,0.82644
7288.73,0.81565
7265.58,0.81039
7242.44,0.81746
7219.29,0.80616
7196.15,0.81156
7173,0.81376
7149.86,0.81267
7126.71,0.80925
7103.57,0.81257
7080.42,0.80646
7057.28,0.80288
7034.13,0.80029
7010.99,0.80362
6987.84,0.79997
6964.7,0.81345
6941.55,0.80446
6918.41,0.80368
6895.26,0.80886
6872.12,0.80721
6848.97,0.80659
6825.83,0.81119
6802.68,0.80948
6779.54,0.80782
6756.39,0.81223
6733.25,0.81445
6710.1,0.81461
6686.96,0.81157
6663.81,0.81267
6640.67,0.80464
6617.52,0.82046
6594.38,0.81138
6571.23,0.81382
6548.09,0.81617
6524.94,0.81991
6501.8,0.81772
6478.65,0.81992
6455.51,0.81630
6432.36,0.81787
6409.22,0.81930
6386.07,0.81948
6362.93,0.81956
6339.78,0.82022
6316.64,0.81454
6293.49,0.81970
6270.35,0.81776
6247.2,0.81757
6224.06,0.81618
6200.91,0.80673
6177.77,0.80447
6154.62,0.80281
6131.48,0.79658
6108.33,0.78238
6085.19,0.75050
6062.04,0.71868
6038.9,0.69246
6015.75,0.67853
5992.61,0.70622
5969.46,0.71770
5946.32,0.72890
5923.17,0.74555
5900.03,0.75976
5876.88,0.75271
5853.74,0.74789
5830.59,0.74927
5807.45,0.74800
5784.3,0.75091
5761.16,0.75704
5738.01,0.76783
5714.87,0.77836
5691.72,0.77808
5668.58,0.78055
5645.44,0.78253
5622.29,0.78899
5599.15,0.78790
5576,0.78407
5552.86,0.78098
5529.71,0.78412
5506.57,0.78593
5483.42,0.78191
5460.28,0.78432
5437.13,0.79378
5413.99,0.79566
5390.84,0.79468
5367.7,0.79664
5344.55,0.79490
5321.41,0.79822
5298.26,0.79521
5275.12,0.79003
5251.97,0.78210
5228.83,0.78280
5205.68,0.78178
5182.54,0.78228
5159.39,0.77862
5136.25,0.76843
5113.1,0.76280
5089.96,0.77818
5066.81,0.78414
5043.67,0.78593
5020.52,0.78649
4997.38,0.78631
4974.23,0.78713
4951.09,0.78280
4927.94,0.77735
4904.8,0.77222
4881.65,0.77006
4858.51,0.76589
4835.36,0.75827
4812.22,0.74430
4789.07,0.73835
4765.93,0.74507
4742.78,0.72492
4719.64,0.68997
4696.49,0.65988
4673.35,0.68299
4650.2,0.69227
4627.06,0.68112
4603.91,0.71646
4580.77,0.69018
4557.62,0.72581
4534.48,0.72484
4511.33,0.71021
4488.19,0.66276
4465.04,0.61844
4441.9,0.59548
4418.75,0.60452
4395.61,0.61916
4372.46,0.62974
4349.32,0.62423
4326.17,0.61634
4303.03,0.60103
4279.88,0.59738
4256.74,0.60567
4233.59,0.60509
4210.45,0.61712
4187.3,0.61509
4164.16,0.61970
4141.01,0.62131
4117.87,0.60579
4094.72,0.54828
4071.58,0.59354
4048.43,0.61745
4025.29,0.63188
4002.14,0.63253
3979,0.63940
3955.85,0.64757
3932.71,0.65311
3909.57,0.65839
3886.42,0.67481
3863.28,0.68253
3840.13,0.68548
3816.99,0.67861
3793.84,0.67733
3770.7,0.67333
3747.55,0.68043
3724.41,0.68237
3701.26,0.66611
3678.12,0.63817
3654.97,0.63528
3631.83,0.59974
3608.68,0.56988
3585.54,0.52437
3562.39,0.47238
3539.25,0.45104
3516.1,0.45551
3492.96,0.45389
3469.81,0.43171
3446.67,0.37823
3423.52,0.35678
3400.38,0.42326
3377.23,0.43222
3354.09,0.41963
3330.94,0.40533
3307.8,0.41425
3284.65,0.42109
3261.51,0.42984
3238.36,0.43323
3215.22,0.44370
3192.07,0.44617
3168.93,0.44840
3145.78,0.44348
3122.64,0.42770
3099.49,0.40206
3076.35,0.38643
3053.2,0.36978
3030.06,0.41429
3006.91,0.33613
2983.77,0.28502
2960.62,0.24098
2937.48,0.32325
2914.33,0.28388
2891.19,0.32467
2868.04,0.35495
2844.9,0.40319
2821.75,0.46974
2798.61,0.47706
2775.46,0.50851
2752.32,0.51507
2729.17,0.53345
2706.03,0.55300
2682.88,0.56279
2659.74,0.56561
2636.59,0.53774
2613.45,0.53602
2590.3,0.52020
2567.16,0.51707
2544.01,0.51192
2520.87,0.52073
2497.72,0.53039
2474.58,0.55640
2451.43,0.55967
2428.29,0.53036
2405.14,0.49436
2382,0.48567
2358.85,0.51822
2335.71,0.54125
2312.56,0.55265
2289.42,0.50305
2266.27,0.49416
2243.13,0.50609
2219.98,0.52230
2196.84,0.53846
2173.7,0.51678
2150.55,0.46246
2127.41,0.42660
2104.26,0.40754
2081.12,0.43305
2057.97,0.49003
2034.83,0.51009
2011.68,0.46700
1988.54,0.41461
1965.39,0.33723
1942.25,0.37102
1919.1,0.43025
1895.96,0.45380
1872.81,0.44219
1849.67,0.36883
1826.52,0.29857
1803.38,0.28631
1780.23,0.24943
1757.09,0.14485
1733.94,0.03344
1710.8,0.08124
1687.65,0.17572
1664.51,0.23574
1641.36,0.27622
1618.22,0.27203
1595.07,0.29530
1571.93,0.25330
1548.78,0.28551
1525.64,0.25918
1502.49,0.16388
1479.35,0.20291
1456.2,0.15009
1433.06,0.16928
1409.91,0.05859
1386.77,0.10706
1363.62,0.10074
1340.48,0.05789
1317.33,0.06766
1294.19,0.03695
1271.04,0.06036
1247.9,0.06215
1224.75,0.14633
1201.61,0.24673
1178.46,0.19929
1155.32,0.10365
1132.17,0.05419
1109.03,0.06032
1085.88,0.12513
1062.74,0.26970
1039.59,0.20821
1016.45,0.14028
993.303,0.30631
970.158,0.18993
947.014,0.35269
923.869,0.35581
900.724,0.26034
877.579,0.18857
854.434,0.19021
831.289,0.26573
808.144,0.26754
784.999,0.26461
761.854,0.28923
738.709,0.10027
715.564,0.23758
692.419,0.30325
669.274,0.29226
646.129,0.29927
622.984,0.29263
599.84,0.28333