File: 01_Data/Overstuffed_Chair_Polyester_Fabric/FTIR/IS/Overstuffed_Chair_Polyester_Fabric_IS_REFLECT_MEAS_210623_R1.dpt
5996.41,0.65986
5977.12,0.66811
5957.84,0.69110
5938.55,0.68797
5919.26,0.70664
5899.97,0.72050
5880.69,0.72374
5861.4,0.71675
5842.11,0.72088
5822.82,0.72457
5803.54,0.72667
5784.25,0.72011
5764.96,0.71886
5745.68,0.73815
5726.39,0.74730
5707.1,0.74504
5687.81,0.73534
5668.53,0.73795
5649.24,0.73861
5629.95,0.74460
5610.66,0.74393
5591.38,0.74577
5572.09,0.74670
5552.8,0.74856
5533.52,0.74303
5514.23,0.74553
5494.94,0.74226
5475.65,0.73292
5456.37,0.75323
5437.08,0.75870
5417.79,0.75604
5398.5,0.75080
5379.22,0.75006
5359.93,0.76230
5340.64,0.73811
5321.36,0.74954
5302.07,0.75268
5282.78,0.73922
5263.49,0.71423
5244.21,0.71494
5224.92,0.72085
5205.63,0.72910
5186.34,0.74042
5167.06,0.73473
5147.77,0.73681
5128.48,0.73935
5109.2,0.73030
5089.91,0.74548
5070.62,0.75073
5051.33,0.75391
5032.05,0.75262
5012.76,0.74613
4993.47,0.74382
4974.18,0.74538
4954.9,0.74963
4935.61,0.74389
4916.32,0.74259
4897.04,0.73894
4877.75,0.73670
4858.46,0.73760
4839.17,0.73386
4819.89,0.71985
4800.6,0.71435
4781.31,0.71476
4762.02,0.71378
4742.74,0.69624
4723.45,0.66209
4704.16,0.64226
4684.88,0.61901
4665.59,0.66313
4646.3,0.64899
4627.01,0.64863
4607.73,0.68858
4588.44,0.66405
4569.15,0.67774
4549.87,0.69135
4530.58,0.69155
4511.29,0.67654
4492,0.63715
4472.72,0.60360
4453.43,0.55727
4434.14,0.55005
4414.85,0.57159
4395.57,0.58707
4376.28,0.59453
4356.99,0.59381
4337.71,0.58424
4318.42,0.58069
4299.13,0.55896
4279.84,0.56324
4260.56,0.57358
4241.27,0.56808
4221.98,0.57201
4202.69,0.58492
4183.41,0.57351
4164.12,0.58406
4144.83,0.59118
4125.55,0.57358
4106.26,0.55164
4086.97,0.50296
4067.68,0.56713
4048.4,0.58285
4029.11,0.59906
4009.82,0.59757
3990.53,0.60386
3971.25,0.60676
3951.96,0.61344
3932.67,0.61764
3913.39,0.62205
3894.1,0.63513
3874.81,0.64059
3855.52,0.63749
3836.24,0.64665
3816.95,0.63695
3797.66,0.63371
3778.37,0.63641
3759.09,0.61780
3739.8,0.62379
3720.51,0.62704
3701.23,0.60131
3681.94,0.54212
3662.65,0.51675
3643.36,0.47698
3624.08,0.46082
3604.79,0.47034
3585.5,0.46833
3566.21,0.43779
3546.93,0.41984
3527.64,0.43534
3508.35,0.45208
3489.07,0.45779
3469.78,0.44661
3450.49,0.40732
3431.2,0.34829
3411.92,0.42561
3392.63,0.46117
3373.34,0.46855
3354.05,0.45872
3334.77,0.43994
3315.48,0.45591
3296.19,0.45291
3276.91,0.46450
3257.62,0.46854
3238.33,0.46359
3219.04,0.46930
3199.76,0.47133
3180.47,0.47080
3161.18,0.46766
3141.89,0.45206
3122.61,0.43439
3103.32,0.40073
3084.03,0.39096
3064.75,0.37902
3045.46,0.40766
3026.17,0.39831
3006.88,0.32724
2987.6,0.29124
2968.31,0.21446
2949.02,0.28885
2929.74,0.35867
2910.45,0.28228
2891.16,0.33780
2871.87,0.36711
2852.59,0.39880
2833.3,0.46307
2814.01,0.47115
2794.72,0.48489
2775.44,0.50832
2756.15,0.51349
2736.86,0.52051
2717.58,0.54193
2698.29,0.55617
2679,0.55964
2659.71,0.55900
2640.43,0.53437
2621.14,0.52224
2601.85,0.51683
2582.56,0.49884
2563.28,0.49624
2543.99,0.49148
2524.7,0.49633
2505.42,0.50773
2486.13,0.52139
2466.84,0.53814
2447.55,0.53394
2428.27,0.50238
2408.98,0.46776
2389.69,0.44496
2370.4,0.42099
2351.12,0.43180
2331.83,0.45330
2312.54,0.48361
2293.26,0.46448
2273.97,0.45981
2254.68,0.45511
2235.39,0.47868
2216.11,0.48691
2196.82,0.50282
2177.53,0.48803
2158.24,0.44403
2138.96,0.40660
2119.67,0.37292
2100.38,0.37003
2081.1,0.39487
2061.81,0.44337
2042.52,0.47484
2023.23,0.45350
2003.95,0.41084
1984.66,0.36599
1965.37,0.29984
1946.08,0.32049
1926.8,0.37457
1907.51,0.40752
1888.22,0.41767
1868.94,0.40525
1849.65,0.32918
1830.36,0.27273
1811.07,0.25548
1791.79,0.24651
1772.5,0.20536
1753.21,0.10196
1733.92,0.02697
1714.64,0.04948
1695.35,0.14880
1676.06,0.18342
1656.78,0.24579
1637.49,0.27109
1618.2,0.25773
1598.91,0.27678
1579.63,0.19623
1560.34,0.28323
1541.05,0.29458
1521.76,0.24856
1502.48,0.15122
1483.19,0.20898
1463.9,0.15273
1444.62,0.14247
1425.33,0.14687
1406.04,0.06531
1386.75,0.09366
1367.47,0.08443
1348.18,0.04788
1328.89,0.09377
1309.61,0.03688
1290.32,0.03078
1271.03,0.04698
1251.74,0.05148
1232.46,0.08511
1213.17,0.18885
1193.88,0.24436
1174.59,0.16597
1155.31,0.08756
1136.02,0.03805
1116.73,0.04708
1097.45,0.06233
1078.16,0.18289
1058.87,0.26426
1039.58,0.20018
1020.3,0.08907
1001.01,0.31775
981.722,0.23752
962.434,0.25461
943.147,0.34971
923.86,0.34326
904.573,0.25560
885.285,0.21712
865.998,0.19954
846.711,0.15971
827.424,0.24889
808.136,0.24499
788.849,0.21920
769.562,0.26156
750.274,0.21398
730.987,0.05269
711.7,0.21926
692.413,0.27596
673.125,0.25276
653.838,0.27187
634.551,0.24684
615.264,0.25845
595.976,0.24939
576.689,0.23934
557.402,0.20598
538.115,0.16216
518.827,0.12718
499.54,0.09769
480.253,0.12593
460.966,0.10885
441.678,0.05738
422.391,0.07402
403.104,0.05830
399.246,0.05752