File: 01_Data/Overstuffed_Chair_Polyester_Fabric/FTIR/IS/Overstuffed_Chair_Polyester_Fabric_IS_S_221019_R6.dpt
7497.03,0.83980
7473.88,0.82886
7450.74,0.82099
7427.59,0.83360
7404.45,0.82637
7381.31,0.82562
7358.16,0.81862
7335.02,0.81629
7311.87,0.81338
7288.73,0.81325
7265.58,0.81635
7242.44,0.80981
7219.29,0.81071
7196.15,0.81711
7173,0.81354
7149.86,0.80639
7126.71,0.80970
7103.57,0.80932
7080.42,0.81574
7057.28,0.80318
7034.13,0.81236
7010.99,0.80698
6987.84,0.80386
6964.7,0.80509
6941.55,0.79684
6918.41,0.80327
6895.26,0.81187
6872.12,0.81035
6848.97,0.80752
6825.83,0.80717
6802.68,0.81010
6779.54,0.81052
6756.39,0.81007
6733.25,0.81156
6710.1,0.81058
6686.96,0.81120
6663.81,0.81391
6640.67,0.81080
6617.52,0.81475
6594.38,0.81591
6571.23,0.81709
6548.09,0.81501
6524.94,0.82020
6501.8,0.81892
6478.65,0.81964
6455.51,0.81748
6432.36,0.81872
6409.22,0.81777
6386.07,0.81805
6362.93,0.81799
6339.78,0.82489
6316.64,0.82002
6293.49,0.81760
6270.35,0.81976
6247.2,0.81995
6224.06,0.81586
6200.91,0.80899
6177.77,0.80761
6154.62,0.79839
6131.48,0.79499
6108.33,0.78268
6085.19,0.74621
6062.04,0.72208
6038.9,0.69149
6015.75,0.67464
5992.61,0.70507
5969.46,0.71482
5946.32,0.72977
5923.17,0.74738
5900.03,0.75953
5876.88,0.74922
5853.74,0.75014
5830.59,0.75016
5807.45,0.75036
5784.3,0.75159
5761.16,0.75780
5738.01,0.76804
5714.87,0.77317
5691.72,0.77647
5668.58,0.78169
5645.44,0.78084
5622.29,0.78881
5599.15,0.78854
5576,0.78430
5552.86,0.78352
5529.71,0.78280
5506.57,0.78621
5483.42,0.78264
5460.28,0.78494
5437.13,0.79102
5413.99,0.79758
5390.84,0.79513
5367.7,0.79673
5344.55,0.79464
5321.41,0.79641
5298.26,0.79492
5275.12,0.78939
5251.97,0.78570
5228.83,0.78157
5205.68,0.78188
5182.54,0.78114
5159.39,0.77712
5136.25,0.76936
5113.1,0.76317
5089.96,0.77990
5066.81,0.78457
5043.67,0.78671
5020.52,0.78611
4997.38,0.78684
4974.23,0.78660
4951.09,0.78177
4927.94,0.77684
4904.8,0.77225
4881.65,0.76824
4858.51,0.76717
4835.36,0.75855
4812.22,0.74386
4789.07,0.73925
4765.93,0.74517
4742.78,0.72575
4719.64,0.68944
4696.49,0.65913
4673.35,0.68235
4650.2,0.69271
4627.06,0.68089
4603.91,0.71681
4580.77,0.69216
4557.62,0.72615
4534.48,0.72540
4511.33,0.71024
4488.19,0.66251
4465.04,0.61760
4441.9,0.59466
4418.75,0.60591
4395.61,0.61837
4372.46,0.62881
4349.32,0.62403
4326.17,0.61676
4303.03,0.60162
4279.88,0.59806
4256.74,0.60708
4233.59,0.60619
4210.45,0.61686
4187.3,0.61550
4164.16,0.61884
4141.01,0.62121
4117.87,0.60657
4094.72,0.54865
4071.58,0.59418
4048.43,0.61768
4025.29,0.63177
4002.14,0.63320
3979,0.64023
3955.85,0.64706
3932.71,0.65430
3909.57,0.65875
3886.42,0.67555
3863.28,0.68313
3840.13,0.68536
3816.99,0.67888
3793.84,0.67791
3770.7,0.67388
3747.55,0.68060
3724.41,0.68300
3701.26,0.66718
3678.12,0.63902
3654.97,0.63917
3631.83,0.60383
3608.68,0.57248
3585.54,0.52727
3562.39,0.47337
3539.25,0.45286
3516.1,0.45660
3492.96,0.45463
3469.81,0.43271
3446.67,0.37895
3423.52,0.35786
3400.38,0.42426
3377.23,0.43266
3354.09,0.42011
3330.94,0.40543
3307.8,0.41505
3284.65,0.42198
3261.51,0.43114
3238.36,0.43391
3215.22,0.44492
3192.07,0.44644
3168.93,0.44941
3145.78,0.44328
3122.64,0.42799
3099.49,0.40275
3076.35,0.38730
3053.2,0.37004
3030.06,0.41400
3006.91,0.33608
2983.77,0.28567
2960.62,0.24112
2937.48,0.32365
2914.33,0.28364
2891.19,0.32479
2868.04,0.35456
2844.9,0.40345
2821.75,0.47042
2798.61,0.47807
2775.46,0.50917
2752.32,0.51488
2729.17,0.53371
2706.03,0.55415
2682.88,0.56326
2659.74,0.56632
2636.59,0.53800
2613.45,0.53631
2590.3,0.52080
2567.16,0.51722
2544.01,0.51230
2520.87,0.52095
2497.72,0.53062
2474.58,0.55681
2451.43,0.55975
2428.29,0.53043
2405.14,0.49468
2382,0.48580
2358.85,0.51822
2335.71,0.54168
2312.56,0.55354
2289.42,0.50335
2266.27,0.49424
2243.13,0.50676
2219.98,0.52270
2196.84,0.53895
2173.7,0.51732
2150.55,0.46291
2127.41,0.42680
2104.26,0.40815
2081.12,0.43360
2057.97,0.49034
2034.83,0.51021
2011.68,0.46748
1988.54,0.41490
1965.39,0.33725
1942.25,0.37105
1919.1,0.43067
1895.96,0.45396
1872.81,0.44214
1849.67,0.36904
1826.52,0.29852
1803.38,0.28591
1780.23,0.24961
1757.09,0.14496
1733.94,0.03340
1710.8,0.08158
1687.65,0.17591
1664.51,0.23591
1641.36,0.27647
1618.22,0.27225
1595.07,0.29528
1571.93,0.25337
1548.78,0.28570
1525.64,0.25944
1502.49,0.16378
1479.35,0.20314
1456.2,0.15030
1433.06,0.16930
1409.91,0.05888
1386.77,0.10714
1363.62,0.10132
1340.48,0.05829
1317.33,0.06824
1294.19,0.03713
1271.04,0.06050
1247.9,0.06237
1224.75,0.14653
1201.61,0.24687
1178.46,0.19960
1155.32,0.10404
1132.17,0.05448
1109.03,0.06087
1085.88,0.12633
1062.74,0.26940
1039.59,0.20802
1016.45,0.14062
993.303,0.30700
970.158,0.19012
947.014,0.35266
923.869,0.35593
900.724,0.26018
877.579,0.18847
854.434,0.18954
831.289,0.26510
808.144,0.26730
784.999,0.26476
761.854,0.28965
738.709,0.10092
715.564,0.23839
692.419,0.30287
669.274,0.29214
646.129,0.30124
622.984,0.29347
599.84,0.28265