File: 01_Data/Overstuffed_Chair_Polyester_Batting/STA/N2/10K_min/Overstuffed_Chair_Polyester_Batting_STA_N2_10KData_220201_R3.csv
##Temp./Â°C,Time/min,DSC(subtr.2)/(mW/mg),Mass(subtr.2)/%,Sensit./(uV/mW)
49.28,10.01,-0.00926926,100.846,1.07447
51.98,11.23077,0.08105651,100.937,1.07428
54.68,11.63305,0.12793,100.949,1.07407
57.38,11.97102,0.15051,100.975,1.07384
60.08,12.28497,0.16376,101.007,1.0736
62.78,12.5869,0.17369,100.988,1.07334
65.48,12.8827,0.1831,101.024,1.07306
68.18,13.1739,0.19841,101,1.07277
70.88,13.4628,0.199,101.041,1.07245
73.58,13.74896,0.20053,101.056,1.07213
76.28,14.0322,0.20109,101.09,1.07178
78.98,14.3117,0.20439,101.056,1.07142
81.68,14.59048,0.20793,101.122,1.07104
84.38,14.866,0.21361,101.121,1.07064
87.08,15.13822,0.21662,101.121,1.07023
89.78,15.4099,0.2201,101.153,1.0698
92.48,15.67932,0.22551,101.178,1.06935
95.18,15.94716,0.22996,101.153,1.06889
97.88,16.21584,0.23122,101.191,1.06841
100.58,16.48285,0.23443,101.158,1.06791
103.28,16.74909,0.23957,101.1994,1.0674
105.98,17.01495,0.24053,101.191,1.06687
108.68,17.28027,0.24339,101.191,1.06632
111.38,17.54515,0.24766,101.194,1.06576
114.08,17.8094,0.25385,101.194,1.06518
116.78,18.0734,0.26054,101.226,1.06458
119.48,18.3365,0.26581,101.228,1.06397
122.18,18.59962,0.275,101.2345,1.06334
124.88,18.8624,0.28588,101.2266,1.0627
127.58,19.1254,0.30301,101.229,1.06204
130.28,19.3886,0.31642,101.259,1.06136
132.98,19.65121,0.31922,101.259,1.06067
135.68,19.91258,0.30185,101.259,1.05996
138.38,20.17437,0.27519,101.2916,1.05923
141.08,20.4348,0.26273,101.259,1.05849
143.78,20.6938,0.26054,101.259,1.05773
146.48,20.9535,0.26275,101.283,1.05696
149.18,21.21248,0.26587,101.258,1.05617
151.88,21.472,0.26838,101.255,1.05536
154.58,21.73099,0.27006,101.299,1.05454
157.28,21.9892,0.2716,101.267,1.0537
159.98,22.2485,0.2753,101.3,1.05285
162.68,22.50725,0.27388,101.324,1.05198
165.38,22.76586,0.27845,101.331,1.0511
168.08,23.02454,0.27713,101.338,1.0502
170.78,23.2833,0.28121,101.307,1.04928
173.48,23.54148,0.28299,101.307,1.04835
176.18,23.79965,0.28404,101.316,1.0474
178.88,24.05804,0.28672,101.34,1.04644
181.58,24.31566,0.29035,101.326,1.04546
184.28,24.5729,0.29191,101.31,1.04447
186.98,24.8304,0.29031,101.359,1.04347
189.68,25.08804,0.2935,101.326,1.04244
192.38,25.34544,0.29567,101.3516,1.04141
195.08,25.6026,0.29757,101.359,1.04035
197.78,25.86081,0.298,101.359,1.03928
200.48,26.119,0.30221,101.358,1.0382
203.18,26.3772,0.30447,101.359,1.03711
205.88,26.6353,0.30439,101.36,1.03599
208.58,26.8932,0.30851,101.359,1.03487
211.28,27.1511,0.31238,101.391,1.03372
213.98,27.40904,0.31641,101.4,1.03257
216.68,27.66667,0.3206,101.325,1.0314
219.38,27.92403,0.32546,101.393,1.03021
222.08,28.181,0.33372,101.374,1.02901
224.78,28.43958,0.3414,101.375,1.0278
227.48,28.69787,0.34781,101.3914,1.02657
230.18,28.95615,0.35397,101.407,1.02533
232.88,29.2149,0.36654,101.375,1.02407
235.58,29.47304,0.3892,101.407,1.0228
238.28,29.7307,0.41145,101.352,1.02152
240.98,29.98917,0.44754,101.383,1.02022
243.68,30.24778,0.50551,101.383,1.01891
246.38,30.50631,0.59403,101.383,1.01758
249.08,30.7646,0.75566,101.359,1.01624
251.78,31.02433,0.98761,101.367,1.01489
254.48,31.28411,1.06657,101.365,1.01352
257.18,31.5424,0.70823,101.399,1.01214
259.88,31.799,0.44669,101.375,1.01074
262.58,32.05488,0.36878,101.4076,1.00934
265.28,32.31205,0.34734,101.391,1.00792
267.98,32.56916,0.34166,101.359,1.00648
270.68,32.82648,0.34168,101.375,1.00503
273.38,33.08337,0.3436,101.357,1.00357
276.08,33.3404,0.34459,101.367,1.0021
278.78,33.5981,0.3466,101.367,1.00061
281.48,33.85561,0.34744,101.344,0.99911
284.18,34.11333,0.34927,101.324,0.9976
286.88,34.3718,0.34986,101.346,0.99608
289.58,34.62952,0.34671,101.3325,0.99454
292.28,34.88743,0.34826,101.333,0.99299
294.98,35.14568,0.34931,101.3318,0.99143
297.68,35.40367,0.34932,101.291,0.98985
300.38,35.6616,0.34993,101.275,0.98827
303.08,35.92,0.34929,101.232,0.98667
305.78,36.17882,0.34929,101.248,0.98505
308.48,36.43723,0.34816,101.248,0.98343
311.18,36.69639,0.34837,101.216,0.98179
313.88,36.95561,0.34734,101.183,0.98015
316.58,37.21566,0.34943,101.199,0.97849
319.28,37.47565,0.34841,101.159,0.97681
321.98,37.7359,0.34746,101.159,0.97513
324.68,37.99592,0.3471,101.128,0.97344
327.38,38.25633,0.3475,101.094,0.97173
330.08,38.51682,0.34752,101.062,0.97001
332.78,38.77698,0.35381,100.997,0.96828
335.48,39.0373,0.35373,101.032,0.96654
338.18,39.2973,0.35733,101,0.96479
340.88,39.55704,0.35995,100.935,0.96303
343.58,39.81762,0.36098,100.967,0.96125
346.28,40.07759,0.36102,100.934,0.95947
348.98,40.33912,0.36271,100.894,0.95767
351.68,40.60094,0.36307,100.837,0.95586
354.38,40.8615,0.36825,100.804,0.95405
357.08,41.12189,0.37113,100.74,0.95222
359.78,41.38243,0.37746,100.702,0.95038
362.48,41.64328,0.37874,100.6,0.94853
365.18,41.90465,0.38063,100.602,0.94667
367.88,42.16632,0.38638,100.448,0.9448
370.58,42.42857,0.38771,100.362,0.94292
373.28,42.69095,0.39508,100.202,0.94103
375.98,42.95312,0.40481,100.033,0.93913
378.68,43.2157,0.40916,99.90394,0.93722
381.38,43.4786,0.41516,99.6614,0.9353
384.08,43.74211,0.42339,99.34949,0.93337
386.78,44.00538,0.43441,99.00288,0.93143
389.48,44.26889,0.44796,98.52341,0.92948
392.18,44.53141,0.45986,98.02354,0.92752
394.88,44.79403,0.47883,97.40154,0.92555
397.58,45.0565,0.49375,96.5694,0.92358
400.28,45.31969,0.50708,95.711,0.92159
402.98,45.58356,0.51738,94.6541,0.91959
405.68,45.8479,0.53629,93.455,0.91759
408.38,46.11231,0.5653,91.9352,0.91557
411.08,46.37695,0.59625,90.23859,0.91355
413.78,46.64168,0.63313,88.1824,0.91152
416.48,46.90737,0.70227,85.75725,0.90948
419.18,47.1721,0.73184,82.84264,0.90743
421.88,47.43696,0.71591,79.59962,0.90537
424.58,47.70173,0.75884,76.03229,0.9033
427.28,47.96707,0.76986,72.03239,0.90123
429.98,48.23149,0.81306,67.53664,0.89914
432.68,48.49478,0.81303,62.7643,0.89705
435.38,48.75887,0.82007,57.70515,0.89495
438.08,49.02309,0.80071,52.6388,0.89285
440.78,49.28788,0.74758,47.5197,0.89073
443.48,49.55348,0.66898,42.7768,0.88861
446.18,49.81797,0.55794,38.64725,0.88648
448.88,50.08274,0.43637,35.2074,0.88434
451.58,50.34702,0.32352,32.66235,0.88219
454.28,50.61063,0.22906,30.73272,0.88004
456.98,50.8746,0.15404,29.24592,0.87787
459.68,51.13967,0.09703941,28.13215,0.87571
462.38,51.40592,0.04414073,27.1845,0.87353
465.08,51.67216,-0.000749611,26.468,0.87135
467.78,51.93938,-0.04383304,25.86603,0.86916
470.48,52.20704,-0.08117013,25.35373,0.86696
473.18,52.4742,-0.11547,24.97036,0.86475
475.88,52.74083,-0.15017,24.6818,0.86254
478.58,53.0073,-0.17696,24.354,0.86033
481.28,53.27327,-0.1953,24.10922,0.8581
483.98,53.53977,-0.21518,23.88941,0.85587
486.68,53.80515,-0.21176,23.71764,0.85363
489.38,54.0706,-0.20539,23.55626,0.85139
492.08,54.33642,-0.20441,23.4105,0.84914
494.78,54.6016,-0.21034,23.31476,0.84688
497.48,54.8675,-0.23755,23.1846,0.84462
500.18,55.1342,-0.24574,23.0553,0.84235
502.88,55.4006,-0.25271,22.95758,0.84008
505.58,55.6674,-0.25486,22.8441,0.8378
508.28,55.93391,-0.26155,22.7468,0.83551
510.98,56.20139,-0.26252,22.66837,0.83322
513.68,56.4682,-0.2679,22.59825,0.83092
516.38,56.7366,-0.27497,22.51172,0.82862
519.08,57.00509,-0.27765,22.4362,0.82631
521.78,57.2729,-0.28218,22.3708,0.824
524.48,57.54061,-0.28698,22.3064,0.82168
527.18,57.80868,-0.28989,22.26602,0.81936
529.88,58.077,-0.29312,22.18691,0.81703
532.58,58.3457,-0.29615,22.19847,0.8147
535.28,58.61485,-0.30099,22.1552,0.81236
537.98,58.8826,-0.30248,22.0761,0.81001
540.68,59.1516,-0.30926,22.07674,0.80767
543.38,59.42043,-0.31293,22.01207,0.80531
546.08,59.6896,-0.31525,21.92343,0.80296
548.78,59.95895,-0.31927,21.92291,0.80059
551.48,60.228,-0.32355,21.8823,0.79823
554.18,60.4965,-0.32697,21.85135,0.79586
556.88,60.76469,-0.33347,21.81718,0.79348
559.58,61.0334,-0.33818,21.72002,0.79111
562.28,61.30219,-0.34053,21.70686,0.78872
564.98,61.57156,-0.34633,21.65542,0.78634
567.68,61.84094,-0.35096,21.61502,0.78395
570.38,62.11091,-0.35683,21.5578,0.78155
573.08,62.3818,-0.36206,21.48319,0.77916
575.78,62.65209,-0.36836,21.46084,0.77676
578.48,62.9222,-0.37386,21.4203,0.77435
581.18,63.1934,-0.38059,21.3554,0.77194
583.88,63.4634,-0.38602,21.35543,0.76953
586.58,63.7317,-0.38979,21.26662,0.76712
589.28,64.00187,-0.39549,21.20952,0.7647
591.98,64.27109,-0.40598,21.1611,0.76228
594.68,64.54135,-0.411,21.13443,0.75986
597.38,64.8113,-0.41761,21.10401,0.75743
600.08,65.08059,-0.41996,21.07167,0.755
602.78,65.3502,-0.42825,21.01503,0.75257
605.48,65.62043,-0.43113,20.9746,0.75013
608.18,65.8912,-0.43449,20.9021,0.74769
610.88,66.1626,-0.44228,20.86873,0.74525
613.58,66.43392,-0.44426,20.80275,0.74281
616.28,66.70545,-0.44964,20.73967,0.74037
618.98,66.9768,-0.45305,20.74749,0.73792
621.68,67.2479,-0.45715,20.65046,0.73547
624.38,67.51855,-0.46188,20.65024,0.73302
627.08,67.7885,-0.46657,20.58539,0.73057
629.78,68.05847,-0.46958,20.56168,0.72811
632.48,68.32949,-0.46992,20.5206,0.72566
635.18,68.59994,-0.47863,20.46392,0.7232
637.88,68.87122,-0.48297,20.43712,0.72074
640.58,69.1421,-0.48953,20.39905,0.71827
643.28,69.41322,-0.49234,20.39901,0.71581
645.98,69.68503,-0.49727,20.3776,0.71335
648.68,69.9572,-0.50431,20.31299,0.71088
651.38,70.2291,-0.51319,20.2803,0.70841
654.08,70.5008,-0.51933,20.2803,0.70594
656.78,70.77271,-0.52835,20.2963,0.70347
659.48,71.0441,-0.53447,20.2261,0.701
662.18,71.31529,-0.53814,20.21775,0.69853
664.88,71.5861,-0.54938,20.1756,0.69606
667.58,71.85831,-0.55376,20.15506,0.69358
670.28,72.13006,-0.56747,20.11551,0.69111
672.98,72.40186,-0.57485,20.08299,0.68863
675.68,72.67367,-0.58188,20.05049,0.68616
678.38,72.9466,-0.59556,20.01822,0.68368
681.08,73.2189,-0.60232,19.9859,0.68121
683.78,73.4902,-0.61852,19.99384,0.67873
686.48,73.76142,-0.63035,19.94803,0.67625
689.18,74.03226,-0.649,19.948,0.67377
691.88,74.30311,-0.66093,19.92197,0.6713
694.58,74.5761,-0.67376,19.90756,0.66882
697.28,74.84908,-0.68455,19.89926,0.66634
698.68,74.99172,-0.69503,19.883,0.66506