File: 01_Data/Overstuffed_Chair_Polyester_Batting/STA/N2/10K_min/Overstuffed_Chair_Polyester_Batting_STA_N2_10KData_220131_R2.csv
##Temp./Â°C,Time/min,DSC(subtr.2)/(mW/mg),Mass(subtr.2)/%,Sensit./(uV/mW)
49.362,10.01,-0.007082496,100.69,1.07447
52.062,11.22601,0.07144112,100.714,1.07427
54.762,11.63133,0.11379,100.751,1.07406
57.462,11.9712,0.1375,100.791,1.07384
60.162,12.28576,0.15306,100.751,1.07359
62.862,12.58838,0.16306,100.755,1.07333
65.562,12.8855,0.17034,100.781,1.07305
68.262,13.17785,0.18664,100.755,1.07276
70.962,13.46611,0.18819,100.788,1.07244
73.662,13.75191,0.18776,100.822,1.07212
76.362,14.0348,0.19124,100.776,1.07177
79.062,14.314,0.1952,100.824,1.07141
81.762,14.5912,0.20105,100.789,1.07103
84.462,14.86679,0.20419,100.822,1.07063
87.162,15.13977,0.20548,100.822,1.07022
89.862,15.41105,0.21144,100.788,1.06979
92.562,15.68031,0.21451,100.814,1.06934
95.262,15.9481,0.21608,100.814,1.06887
97.962,16.21656,0.22055,100.822,1.06839
100.662,16.48337,0.22217,100.822,1.0679
103.362,16.74934,0.22724,100.855,1.06738
106.062,17.01474,0.23108,100.855,1.06685
108.762,17.2793,0.23365,100.865,1.06631
111.462,17.54368,0.23875,100.856,1.06574
114.162,17.8081,0.24205,100.889,1.06516
116.862,18.07222,0.24748,100.864,1.06457
119.562,18.3365,0.25407,100.889,1.06395
122.262,18.59971,0.26293,100.889,1.06332
124.962,18.86317,0.27551,100.923,1.06268
127.662,19.12614,0.29125,100.8886,1.06202
130.362,19.38779,0.30704,100.888,1.06134
133.062,19.65008,0.31349,100.889,1.06064
135.762,19.91142,0.29681,100.9224,1.05993
138.462,20.17197,0.27278,100.889,1.05921
141.162,20.43194,0.25922,100.89,1.05847
143.862,20.6917,0.2544,100.923,1.05771
146.562,20.95119,0.25768,100.923,1.05693
149.262,21.21015,0.26032,100.931,1.05614
151.962,21.4695,0.26475,100.923,1.05534
154.662,21.7284,0.26478,100.962,1.05451
157.362,21.98736,0.27015,100.9146,1.05368
160.062,22.2461,0.27037,100.915,1.05282
162.762,22.5048,0.27624,100.915,1.05195
165.462,22.7635,0.27575,100.939,1.05107
168.162,23.02219,0.27776,100.936,1.05017
170.862,23.2811,0.27619,100.9312,1.04925
173.562,23.5393,0.28256,100.931,1.04832
176.262,23.79835,0.28143,100.931,1.04737
178.962,24.05697,0.28649,100.9312,1.04641
181.662,24.31496,0.2865,100.9312,1.04543
184.362,24.57384,0.2879,100.932,1.04444
187.062,24.83234,0.29499,100.898,1.04343
189.762,25.08996,0.29407,100.931,1.04241
192.462,25.3478,0.2972,100.923,1.04137
195.162,25.60516,0.30407,100.8977,1.04032
197.862,25.8626,0.30671,100.915,1.03925
200.562,26.11993,0.30674,100.965,1.03817
203.262,26.3773,0.30954,100.931,1.03707
205.962,26.63413,0.31216,100.915,1.03596
208.662,26.8916,0.31477,100.966,1.03483
211.362,27.1489,0.31757,100.898,1.03369
214.062,27.40635,0.31879,100.933,1.03253
216.762,27.6639,0.325,100.8977,1.03136
219.462,27.9215,0.33299,100.898,1.03018
222.162,28.17955,0.33622,100.923,1.02898
224.862,28.4373,0.3428,100.923,1.02776
227.562,28.69521,0.35087,100.923,1.02653
230.262,28.95335,0.361,100.889,1.02529
232.962,29.2121,0.37447,100.889,1.02403
235.662,29.47012,0.39019,100.881,1.02276
238.362,29.72819,0.41315,100.906,1.02148
241.062,29.98563,0.4524,100.906,1.02018
243.762,30.24369,0.50387,100.923,1.01887
246.462,30.5026,0.58604,100.909,1.01754
249.162,30.7617,0.73389,100.889,1.0162
251.862,31.0218,0.95885,100.8892,1.01485
254.562,31.282,1.09108,100.881,1.01348
257.262,31.54138,0.7833,100.882,1.0121
259.962,31.798,0.46986,100.872,1.0107
262.662,32.05434,0.38324,100.892,1.00929
265.362,32.3116,0.3596,100.864,1.00787
268.062,32.56886,0.35851,100.846,1.00644
270.762,32.82627,0.35589,100.8555,1.00499
273.462,33.08381,0.35636,100.847,1.00353
276.162,33.34149,0.35859,100.864,1.00206
278.862,33.59912,0.35834,100.864,1.00057
281.562,33.85727,0.35916,100.847,0.99907
284.262,34.11515,0.35904,100.856,0.99756
286.962,34.3731,0.36074,100.866,0.99603
289.662,34.6312,0.36258,100.83,0.99449
292.362,34.88962,0.36478,100.847,0.99294
295.062,35.1469,0.36807,100.809,0.99138
297.762,35.40473,0.36801,100.8305,0.9898
300.462,35.6625,0.37095,100.812,0.98822
303.162,35.92069,0.37009,100.78,0.98662
305.862,36.17927,0.37005,100.813,0.985
308.562,36.43833,0.36908,100.746,0.98338
311.262,36.69773,0.37237,100.738,0.98174
313.962,36.95671,0.37353,100.771,0.9801
316.662,37.2162,0.376,100.704,0.97844
319.362,37.47555,0.37609,100.705,0.97676
322.062,37.73512,0.37792,100.669,0.97508
324.762,37.995,0.37899,100.696,0.97338
327.462,38.25481,0.379,100.637,0.97168
330.162,38.51509,0.38036,100.628,0.96996
332.862,38.7757,0.38018,100.595,0.96823
335.562,39.03662,0.38136,100.561,0.96649
338.262,39.29696,0.38324,100.561,0.96474
340.962,39.5571,0.38457,100.527,0.96297
343.662,39.81755,0.38727,100.477,0.9612
346.362,40.078,0.39185,100.4518,0.95941
349.062,40.33848,0.39179,100.4518,0.95762
351.762,40.59918,0.39762,100.409,0.95581
354.462,40.8607,0.40198,100.376,0.95399
357.162,41.1221,0.40378,100.283,0.95216
359.862,41.38366,0.40905,100.267,0.95032
362.562,41.6452,0.41401,100.199,0.94847
365.262,41.9064,0.4188,100.136,0.94661
367.962,42.16806,0.42049,100.077,0.94474
370.662,42.4297,0.42524,99.9468,0.94286
373.362,42.69187,0.42686,99.83753,0.94097
376.062,42.95442,0.43512,99.68711,0.93907
378.762,43.21757,0.44271,99.48428,0.93716
381.462,43.4793,0.45124,99.2684,0.93524
384.162,43.74232,0.45866,98.9594,0.93331
386.862,44.00396,0.47214,98.63002,0.93137
389.562,44.26702,0.48366,98.19697,0.92942
392.262,44.53029,0.49019,97.64835,0.92746
394.962,44.79408,0.50884,97.0099,0.92549
397.662,45.05813,0.52112,96.24559,0.92352
400.362,45.32197,0.53481,95.35259,0.92153
403.062,45.5856,0.55836,94.31448,0.91953
405.762,45.84919,0.57692,93.11901,0.91753
408.462,46.11309,0.60072,91.66251,0.91551
411.162,46.37791,0.62949,89.92472,0.91349
413.862,46.643,0.66478,87.94285,0.91146
416.562,46.9078,0.69255,85.57625,0.90942
419.262,47.17261,0.75012,82.87709,0.90737
421.962,47.43765,0.78907,79.63602,0.90531
424.662,47.70227,0.82178,75.98223,0.90324
427.362,47.9672,0.85978,71.93473,0.90116
430.062,48.23283,0.85879,67.3229,0.89908
432.762,48.49783,0.86701,62.59,0.89699
435.462,48.7626,0.87107,57.50858,0.89489
438.162,49.0263,0.85029,52.3906,0.89278
440.862,49.29022,0.80991,47.41953,0.89067
443.562,49.5537,0.74579,42.70228,0.88854
446.262,49.81775,0.64812,38.60848,0.88641
448.962,50.08173,0.52958,35.20908,0.88427
451.662,50.34604,0.41943,32.61334,0.88212
454.362,50.61,0.32863,30.65928,0.87997
457.062,50.87507,0.26263,29.19815,0.87781
459.762,51.13985,0.21219,28.0312,0.87564
462.462,51.40549,0.16062,27.11866,0.87346
465.162,51.67142,0.1071,26.39677,0.87128
467.862,51.93673,0.06481137,25.78678,0.86909
470.562,52.20302,0.02566435,25.2835,0.86689
473.262,52.46918,-0.01086276,24.8579,0.86469
475.962,52.73555,-0.04433178,24.5377,0.86248
478.662,53.0019,-0.07219218,24.26441,0.86026
481.362,53.26894,-0.09582519,23.99895,0.85803
484.062,53.53474,-0.10719,23.77355,0.8558
486.762,53.8008,-0.08928196,23.604,0.85356
489.462,54.0673,-0.09231226,23.4668,0.85132
492.162,54.33406,-0.10794,23.34056,0.84907
494.862,54.601,-0.10117,23.2049,0.84681
497.562,54.86825,-0.11231,23.09691,0.84455
500.262,55.1347,-0.11597,22.96489,0.84228
502.962,55.4012,-0.11913,22.86625,0.84001
505.662,55.6688,-0.12635,22.7652,0.83773
508.362,55.936,-0.13411,22.70044,0.83544
511.062,56.20339,-0.13685,22.58709,0.83315
513.762,56.4712,-0.14118,22.52123,0.83085
516.462,56.7391,-0.14044,22.45397,0.82855
519.162,57.0068,-0.14697,22.41316,0.82624
521.862,57.27423,-0.14933,22.3445,0.82393
524.562,57.54095,-0.15072,22.26044,0.82161
527.262,57.809,-0.15465,22.21,0.81929
529.962,58.07801,-0.1565,22.17822,0.81696
532.662,58.34724,-0.16268,22.12585,0.81462
535.362,58.6164,-0.16366,22.05857,0.81229
538.062,58.88541,-0.15483,22.0248,0.80994
540.762,59.1544,-0.1559,22.01374,0.80759
543.462,59.4229,-0.1558,21.96574,0.80524
546.162,59.69067,-0.1589,21.93197,0.80288
548.862,59.95921,-0.15792,21.89846,0.80052
551.562,60.22814,-0.15766,21.8312,0.79816
554.262,60.49674,-0.16573,21.8274,0.79579
556.962,60.76575,-0.16897,21.7332,0.79341
559.662,61.03515,-0.17544,21.73016,0.79103
562.362,61.30477,-0.18283,21.6958,0.78865
565.062,61.5747,-0.18919,21.64603,0.78627
567.762,61.84495,-0.19484,21.60587,0.78388
570.462,62.11464,-0.19342,21.51134,0.78148
573.162,62.38358,-0.19399,21.49437,0.77908
575.862,62.65229,-0.19678,21.47476,0.77668
578.562,62.9216,-0.20478,21.3988,0.77428
581.262,63.1911,-0.2079,21.3345,0.77187
583.962,63.45992,-0.21075,21.30937,0.76946
586.662,63.72971,-0.2152,21.2673,0.76704
589.362,63.99925,-0.22291,21.19999,0.76463
592.062,64.26934,-0.22384,21.15748,0.76221
594.762,64.5403,-0.23239,21.12415,0.75978
597.462,64.81115,-0.23305,21.03171,0.75735
600.162,65.0822,-0.23472,20.99794,0.75493
602.862,65.35259,-0.238,20.92258,0.75249
605.562,65.6232,-0.24369,20.88745,0.75006
608.262,65.89406,-0.24821,20.89366,0.74762
610.962,66.16463,-0.25139,20.81981,0.74518
613.662,66.43561,-0.25986,20.78721,0.74274
616.362,66.70691,-0.25611,20.72379,0.74029
619.062,66.97765,-0.26017,20.68668,0.73785
621.762,67.24845,-0.26385,20.65295,0.7354
624.462,67.5185,-0.26024,20.58587,0.73295
627.162,67.78928,-0.25981,20.5266,0.73049
629.862,68.0602,-0.26101,20.5601,0.72804
632.562,68.33148,-0.26337,20.49185,0.72558
635.262,68.60135,-0.26713,20.45934,0.72312
637.962,68.8708,-0.26787,20.42557,0.72066
640.662,69.14155,-0.26881,20.42558,0.7182
643.362,69.4118,-0.27266,20.3921,0.71574
646.062,69.68312,-0.27576,20.35857,0.71327
648.762,69.95482,-0.2798,20.29105,0.71081
651.462,70.22708,-0.28185,20.3209,0.70834
654.162,70.4991,-0.28861,20.22379,0.70587
656.862,70.77144,-0.29455,20.2584,0.7034
659.562,71.04258,-0.29506,20.22384,0.70093
662.262,71.31381,-0.29577,20.15522,0.69846
664.962,71.5857,-0.29914,20.14808,0.69598
667.662,71.8582,-0.30018,20.14782,0.69351
670.362,72.1306,-0.30331,20.1143,0.69103
673.062,72.40374,-0.30844,20.0808,0.68856
675.762,72.67657,-0.30467,20.07212,0.68608
678.462,72.9486,-0.31305,20.0721,0.68361
681.162,73.22143,-0.31769,20.03034,0.68113
683.862,73.49364,-0.32824,20.00486,0.67865
686.562,73.76541,-0.33409,19.98987,0.67618
689.262,74.03745,-0.34268,19.96294,0.6737
691.962,74.30969,-0.34344,19.9379,0.67122
694.662,74.58148,-0.3515,19.9574,0.66874
697.362,74.85324,-0.35652,19.93845,0.66626
698.762,74.99512,-0.35939,19.90384,0.66498