File: 01_Data/FRP_Panel/STA/N2/10K_min/FRP_Panel_STA_N2_10KData_22238_R2.csv
##Temp./Â°C,Time/min,Mass loss(subtr.2)/mg,DSC(subtr.2)/(mW/mg),Sensit./(uV/mW)
50.119,10.01,0.03602,0.0007562311,1.02684
53.319,11.4781,0.03925692,0.09853989,1.02657
56.519,12.0085,0.03974037,0.13953,1.02628
59.719,12.45732,0.04389894,0.16217,1.02599
62.919,12.872,0.04453513,0.18427,1.0257
66.119,13.26435,0.04438764,0.20677,1.0254
69.319,13.64225,0.04460531,0.2245,1.02509
72.519,14.00785,0.04610408,0.22747,1.02477
75.719,14.36478,0.04623438,0.22544,1.02444
78.919,14.71434,0.04606023,0.22943,1.02411
82.119,15.0577,0.04679884,0.23419,1.02377
85.319,15.39494,0.04754988,0.24026,1.02343
88.519,15.7269,0.04424744,0.24789,1.02307
91.719,16.05505,0.04554294,0.25233,1.02271
94.919,16.3784,0.04557049,0.25685,1.02234
98.119,16.6991,0.04557438,0.26138,1.02197
101.319,17.01791,0.04304512,0.26506,1.02158
104.519,17.33464,0.04269154,0.26858,1.02119
107.719,17.64984,0.04162,0.27329,1.02078
110.919,17.96434,0.04028956,0.27523,1.02037
114.119,18.2772,0.03964307,0.27932,1.01995
117.319,18.59095,0.03830549,0.2829,1.01952
120.519,18.90255,0.03701185,0.28412,1.01909
123.719,19.2136,0.03634074,0.28516,1.01864
126.919,19.52316,0.03635041,0.28746,1.01818
130.119,19.83171,0.0331917,0.28754,1.01772
133.319,20.14043,0.03371006,0.28728,1.01724
136.519,20.448,0.03108,0.28993,1.01676
139.719,20.75473,0.0310109,0.29156,1.01626
142.919,21.06129,0.03106674,0.29126,1.01576
146.119,21.36628,0.0284405,0.29089,1.01524
149.319,21.67159,0.02712002,0.29076,1.01472
152.519,21.9766,0.02712869,0.29207,1.01418
155.719,22.2805,0.02711945,0.29499,1.01364
158.919,22.58444,0.02539791,0.29495,1.01308
162.119,22.88831,0.02349634,0.29609,1.01251
165.319,23.19256,0.02250983,0.29642,1.01193
168.519,23.4967,0.02120132,0.29591,1.01135
171.719,23.80102,0.0185604,0.29443,1.01074
174.919,24.1055,0.01789763,0.29147,1.01013
178.119,24.4103,0.0139403,0.29134,1.00951
181.319,24.71453,0.01296998,0.28799,1.00887
184.519,25.01851,0.01264033,0.28858,1.00823
187.719,25.32161,0.01064652,0.28916,1.00757
190.919,25.6253,0.006816627,0.2891,1.00689
194.119,25.92889,0.00438997,0.29931,1.00621
197.319,26.23195,0.0014397,0.30692,1.00551
200.519,26.5354,0.00012167,0.31935,1.0048
203.719,26.8388,-0.00381078,0.33778,1.00408
206.919,27.1424,-0.00776826,0.35562,1.00335
210.119,27.44603,-0.01042407,0.3699,1.0026
213.319,27.74965,-0.01437008,0.38366,1.00184
216.519,28.05422,-0.02052989,0.39039,1.00107
219.719,28.35844,-0.02282997,0.39742,1.00028
222.919,28.6628,-0.02526058,0.4011,0.99948
226.119,28.9669,-0.03039322,0.40313,0.99866
229.319,29.2703,-0.03435977,0.40583,0.99783
232.519,29.5743,-0.03830955,0.40252,0.99699
235.719,29.8781,-0.04095142,0.40025,0.99613
238.919,30.1815,-0.04536518,0.39757,0.99526
242.119,30.48605,-0.04950695,0.39732,0.99438
245.319,30.7902,-0.05347581,0.3959,0.99348
248.519,31.0943,-0.05851009,0.39706,0.99256
251.719,31.3984,-0.06548884,0.40219,0.99163
254.919,31.7035,-0.06808218,0.40675,0.99069
258.119,32.00802,-0.07456121,0.41031,0.98973
261.319,32.31261,-0.07996578,0.4109,0.98875
264.519,32.6173,-0.08430965,0.41205,0.98776
267.719,32.9223,-0.08915182,0.40706,0.98676
270.919,33.22691,-0.09543463,0.4033,0.98574
274.119,33.53178,-0.1033,0.39273,0.9847
277.319,33.8369,-0.10793,0.38589,0.98364
280.519,34.14293,-0.11382,0.37494,0.98258
283.719,34.44895,-0.12174,0.36585,0.98149
286.919,34.75465,-0.12512,0.35243,0.98039
290.119,35.0612,-0.13127,0.3428,0.97927
293.319,35.36815,-0.13788,0.33704,0.97814
296.519,35.67467,-0.14286,0.33538,0.97699
299.719,35.98144,-0.14973,0.33505,0.97582
302.919,36.28865,-0.15369,0.33563,0.97464
306.119,36.59636,-0.1579,0.33652,0.97343
309.319,36.9041,-0.16501,0.34101,0.97222
312.519,37.2117,-0.17046,0.34562,0.97098
315.719,37.5194,-0.17607,0.34774,0.96973
318.919,37.8266,-0.18305,0.35113,0.96846
322.119,38.13462,-0.18942,0.35443,0.96717
325.319,38.443,-0.19498,0.35294,0.96587
328.519,38.75127,-0.20406,0.35555,0.96454
331.719,39.06088,-0.21365,0.3601,0.9632
334.919,39.37011,-0.22133,0.3639,0.96184
338.119,39.67968,-0.22985,0.36607,0.96047
341.319,39.98965,-0.23933,0.36985,0.95908
344.519,40.29906,-0.25097,0.37395,0.95766
347.719,40.6094,-0.26299,0.3789,0.95623
350.919,40.9189,-0.27664,0.38507,0.95478
354.119,41.22929,-0.29156,0.39193,0.95332
357.319,41.53839,-0.30501,0.39768,0.95183
360.519,41.8483,-0.31944,0.40762,0.95033
363.719,42.15789,-0.33957,0.41968,0.94881
366.919,42.46846,-0.36045,0.43265,0.94727
370.119,42.77858,-0.38335,0.44421,0.94571
373.319,43.08928,-0.40777,0.45807,0.94413
376.519,43.4003,-0.43443,0.47392,0.94253
379.719,43.7117,-0.4645,0.49307,0.94091
382.919,44.02343,-0.49931,0.51642,0.93928
386.119,44.33531,-0.54211,0.54311,0.93762
389.319,44.6473,-0.58588,0.57311,0.93595
392.519,44.95841,-0.63698,0.60518,0.93426
395.719,45.27049,-0.69503,0.64207,0.93255
398.919,45.58295,-0.76133,0.67435,0.93082
402.119,45.8951,-0.83498,0.70536,0.92907
405.319,46.20742,-0.91635,0.72923,0.9273
408.519,46.52,-1.00538,0.73772,0.92551
411.719,46.83157,-1.0962,0.73547,0.9237
414.919,47.1439,-1.18986,0.70988,0.92187
418.119,47.45636,-1.28101,0.66824,0.92003
421.319,47.7692,-1.36633,0.61187,0.91816
424.519,48.08139,-1.44374,0.54893,0.91628
427.719,48.3943,-1.51027,0.4807,0.91437
430.919,48.70712,-1.56481,0.4098,0.91245
434.119,49.0204,-1.60857,0.34986,0.9105
437.319,49.33321,-1.6367,0.3001,0.90854
440.519,49.64605,-1.65181,0.26839,0.90655
443.719,49.9595,-1.67407,0.24616,0.90455
446.919,50.27262,-1.67925,0.22826,0.90253
450.119,50.58678,-1.68521,0.22008,0.90049
453.319,50.90067,-1.6901,0.21456,0.89843
456.519,51.21362,-1.69065,0.20963,0.89634
459.719,51.5274,-1.69328,0.21031,0.89424
462.919,51.8414,-1.69735,0.20691,0.89212
466.119,52.15589,-1.69853,0.2077,0.88998
469.319,52.46995,-1.70207,0.21036,0.88782
472.519,52.7849,-1.7047,0.20931,0.88564
475.719,53.0995,-1.70633,0.20985,0.88345
478.919,53.41434,-1.708,0.21103,0.88123
482.119,53.72979,-1.71063,0.20959,0.87899
485.319,54.04563,-1.71263,0.20809,0.87673
488.519,54.3624,-1.71656,0.20897,0.87446
491.719,54.6781,-1.71788,0.21205,0.87216
494.919,54.994,-1.72018,0.21048,0.86985
498.119,55.30981,-1.72051,0.20611,0.86751
501.319,55.6253,-1.72579,0.20725,0.86516
504.519,55.94169,-1.7276,0.20323,0.86279
507.719,56.2574,-1.72751,0.2027,0.8604
510.919,56.57362,-1.73039,0.20366,0.85799
514.119,56.8895,-1.73205,0.20238,0.85556
517.319,57.20701,-1.73378,0.20164,0.85311
520.519,57.52389,-1.73778,0.20236,0.85064
523.719,57.8408,-1.73917,0.20254,0.84815
526.919,58.15744,-1.73859,0.21717,0.84565
530.119,58.4749,-1.73786,0.22282,0.84313
533.319,58.79237,-1.73824,0.22563,0.84058
536.519,59.1095,-1.7395,0.23284,0.83802
539.719,59.4268,-1.74082,0.23625,0.83544
542.919,59.7447,-1.7428,0.22475,0.83285
546.119,60.0625,-1.74126,0.2067,0.83023
549.319,60.38054,-1.74258,0.20244,0.8276
552.519,60.6984,-1.7439,0.19801,0.82494
555.719,61.016,-1.74251,0.19388,0.82227
558.919,61.33328,-1.74377,0.19177,0.81958
562.119,61.6515,-1.7439,0.18947,0.81688
565.319,61.9702,-1.74522,0.1898,0.81416
568.519,62.28815,-1.74521,0.18999,0.81141
571.719,62.60541,-1.7462,0.18926,0.80866
574.919,62.92371,-1.74881,0.19107,0.80588
578.119,63.24335,-1.74763,0.19586,0.80309
581.319,63.56259,-1.74895,0.19462,0.80028
584.519,63.8816,-1.74828,0.1948,0.79745
587.719,64.2012,-1.74854,0.19635,0.7946
590.919,64.52071,-1.75131,0.2015,0.79174
594.119,64.83968,-1.75071,0.20472,0.78887
597.319,65.16,-1.75005,0.21192,0.78597
600.519,65.48005,-1.75169,0.21766,0.78306
603.719,65.79949,-1.754,0.22379,0.78013
606.919,66.1187,-1.75563,0.23016,0.77719
610.119,66.4376,-1.75729,0.23937,0.77423
613.319,66.75689,-1.75828,0.24876,0.77126
616.519,67.0762,-1.76059,0.26023,0.76827
619.719,67.3973,-1.76457,0.27177,0.76526
622.919,67.7188,-1.76793,0.29441,0.76224
626.119,68.04039,-1.76893,0.3089,0.7592
629.319,68.36211,-1.77256,0.32747,0.75615
632.519,68.6827,-1.77629,0.3457,0.75308
635.719,69.0029,-1.77915,0.36851,0.75
638.919,69.32273,-1.78474,0.38957,0.74691
642.119,69.6416,-1.78869,0.41399,0.7438
645.319,69.96082,-1.79396,0.43961,0.74067
648.519,70.2803,-1.79903,0.46915,0.73753
651.719,70.59917,-1.80766,0.50007,0.73438
654.919,70.91829,-1.81231,0.53211,0.73121
658.119,71.23779,-1.82164,0.56863,0.72803
661.319,71.5582,-1.83302,0.60823,0.72484
664.519,71.8788,-1.84108,0.64866,0.72163
667.719,72.19951,-1.85069,0.69193,0.71841
670.919,72.52009,-1.86302,0.74241,0.71518
674.119,72.8407,-1.87429,0.79382,0.71194
677.319,73.16195,-1.88667,0.85628,0.70868
680.519,73.48331,-1.90083,0.9149,0.70541
683.719,73.8044,-1.91778,0.98534,0.70213
686.919,74.12518,-1.93419,1.04994,0.69883
690.119,74.4452,-1.95482,1.1309,0.69553
693.319,74.765,-1.97542,1.21081,0.69221
696.519,75.0856,-1.99625,1.27816,0.68888
699.719,75.40596,-2.01922,1.35315,0.68554
702.919,75.72609,-2.04567,1.43461,0.68219
706.119,76.0474,-2.07101,1.50996,0.67883
709.319,76.3691,-2.10184,1.58404,0.67546
712.519,76.69094,-2.1335,1.66046,0.67208
715.719,77.0124,-2.16043,1.73217,0.66869
718.919,77.33259,-2.19132,1.79001,0.66528
722.119,77.6532,-2.23054,1.83358,0.66187
725.319,77.97328,-2.26258,1.8597,0.65845
728.519,78.29364,-2.29789,1.85157,0.65502
731.719,78.61345,-2.33221,1.79756,0.65158
734.919,78.93403,-2.35966,1.6589,0.64813
738.119,79.2556,-2.38887,1.35809,0.64468
741.319,79.57667,-2.41039,0.8397,0.64121
744.519,79.8977,-2.41962,0.34184,0.63774
747.719,80.21863,-2.42335,0.14366,0.63426
750.919,80.54037,-2.42334,0.08123351,0.63077
754.119,80.86113,-2.42334,0.06969868,0.62727
757.319,81.18134,-2.42598,0.0671638,0.62377
760.519,81.5016,-2.42532,0.06480949,0.62026
763.719,81.82332,-2.42729,0.06004996,0.61674
766.919,82.14509,-2.42729,0.05613707,0.61322
770.119,82.46655,-2.42719,0.05208726,0.60969
773.319,82.78833,-2.42884,0.05040579,0.60615
776.519,83.1101,-2.42609,0.04412463,0.60261
779.719,83.43213,-2.42707,0.04238337,0.59906
782.919,83.75466,-2.43004,0.04365156,0.59551
786.119,84.0778,-2.43008,0.03954438,0.59195
789.319,84.3998,-2.43004,0.0405728,0.58839
792.519,84.72208,-2.43144,0.04302513,0.58482
795.219,84.99368,-2.43138,0.04002901,0.5818