File: 01_Data/FRP_Panel/STA/N2/10K_min/FRP_Panel_STA_N2_10KData_22158_R1.csv
##Temp./Â°C,Time/min,Mass loss(subtr.2)/mg,DSC(subtr.2)/(mW/mg),Sensit./(uV/mW)
49.691,10.01,0.01877,0.0001773403,1.07018
52.691,11.2965,0.01830796,0.09054312,1.06935
55.691,11.72964,0.01908204,0.12428,1.06852
58.691,12.095,0.01845235,0.14322,1.06767
61.691,12.43781,0.0206854,0.16076,1.06681
64.691,12.7696,0.01986897,0.17535,1.06595
67.691,13.09329,0.01954584,0.19162,1.06508
70.691,13.4126,0.01951309,0.19103,1.06419
73.691,13.72829,0.01953949,0.18508,1.0633
76.691,14.041,0.01788913,0.18009,1.0624
79.691,14.3509,0.01921849,0.18239,1.06148
82.691,14.65841,0.01788516,0.18328,1.06056
85.691,14.9639,0.01657953,0.18808,1.05963
88.691,15.26586,0.01526081,0.19051,1.05869
91.691,15.5653,0.01525128,0.19411,1.05774
94.691,15.8634,0.01393951,0.19556,1.05678
97.691,16.16004,0.01262,0.19665,1.05581
100.691,16.4549,0.01217052,0.19923,1.05483
103.691,16.74961,0.01131002,0.19848,1.05385
106.691,17.04365,0.01032,0.20164,1.05285
109.691,17.33708,0.007380419,0.20254,1.05184
112.691,17.62997,0.006699686,0.203,1.05082
115.691,17.9242,0.00564146,0.20376,1.0498
118.691,18.2169,0.0067478,0.2051,1.04876
121.691,18.50846,0.003722384,0.20726,1.04771
124.691,18.80012,0.002410959,0.20689,1.04666
127.691,19.09125,0.001091098,0.20768,1.04559
130.691,19.38287,-0.0002153584,0.20531,1.04452
133.691,19.6729,-0.001369075,0.20527,1.04343
136.691,19.96329,-0.0008775308,0.20534,1.04233
139.691,20.25306,-0.002199978,0.20413,1.04123
142.691,20.54126,-0.004831732,0.20504,1.04011
145.691,20.82968,-0.004509324,0.20773,1.03899
148.691,21.11867,-0.006480296,0.20593,1.03785
151.691,21.406,-0.006802842,0.20734,1.03671
154.691,21.69368,-0.007790545,0.20541,1.03555
157.691,21.9813,-0.00813666,0.20703,1.03439
160.691,22.26833,-0.01089185,0.20659,1.03321
163.691,22.55621,-0.01174617,0.20477,1.03202
166.691,22.84386,-0.01309024,0.2042,1.03083
169.691,23.13105,-0.01570002,0.20196,1.02962
172.691,23.41825,-0.01702001,0.2003,1.02841
175.691,23.70486,-0.01965302,0.19873,1.02718
178.691,23.99154,-0.02229034,0.19577,1.02594
181.691,24.27698,-0.02294363,0.19265,1.0247
184.691,24.56352,-0.02690085,0.19403,1.02344
187.691,24.8499,-0.02953996,0.19313,1.02217
190.691,25.13589,-0.03150966,0.19238,1.02089
193.691,25.42214,-0.03353866,0.19767,1.01961
196.691,25.70755,-0.03710998,0.20918,1.01831
199.691,25.9936,-0.04006054,0.22053,1.017
202.691,26.2793,-0.04170154,0.23532,1.01568
205.691,26.56522,-0.04534,0.25233,1.01435
208.691,26.84964,-0.04929989,0.26544,1.01301
211.691,27.1358,-0.05197261,0.27608,1.01166
214.691,27.42169,-0.05430835,0.28354,1.0103
217.691,27.7074,-0.05850657,0.28903,1.00893
220.691,27.99332,-0.06312779,0.29403,1.00754
223.691,28.2788,-0.067329,0.29556,1.00615
226.691,28.5646,-0.07036956,0.29526,1.00475
229.691,28.8497,-0.07431991,0.29448,1.00333
232.691,29.1349,-0.07761654,0.2925,1.00191
235.691,29.42065,-0.08288517,0.28926,1.00047
238.691,29.7059,-0.086639,0.2871,0.99903
241.691,29.99158,-0.0901402,0.28396,0.99757
244.691,30.2774,-0.09454392,0.28321,0.9961
247.691,30.5629,-0.09770279,0.28621,0.99462
250.691,30.84865,-0.10166,0.28965,0.99313
253.691,31.13435,-0.10985,0.29315,0.99163
256.691,31.4209,-0.11062,0.30135,0.99012
259.691,31.70692,-0.11482,0.29841,0.9886
262.691,31.99315,-0.12142,0.30112,0.98707
265.691,32.27789,-0.12698,0.30263,0.98553
268.691,32.56422,-0.1347,0.29704,0.98397
271.691,32.84967,-0.13995,0.29152,0.98241
274.691,33.13573,-0.14628,0.28126,0.98083
277.691,33.42348,-0.15186,0.26977,0.97925
280.691,33.71141,-0.15837,0.2638,0.97765
283.691,33.99818,-0.16319,0.25616,0.97604
286.691,34.28264,-0.16661,0.2473,0.97442
289.691,34.56779,-0.17324,0.23704,0.97279
292.691,34.85671,-0.17932,0.23173,0.97115
295.691,35.14347,-0.18346,0.23065,0.9695
298.691,35.4298,-0.18839,0.22945,0.96784
301.691,35.71378,-0.19267,0.22962,0.96616
304.691,36.0032,-0.19959,0.23309,0.96448
307.691,36.29098,-0.20354,0.23017,0.96278
310.691,36.57675,-0.21013,0.23466,0.96107
313.691,36.8641,-0.214,0.23682,0.95936
316.691,37.15263,-0.22199,0.23844,0.95763
319.691,37.441,-0.22795,0.24273,0.95589
322.691,37.72831,-0.23419,0.24494,0.95414
325.691,38.01579,-0.24212,0.24896,0.95237
328.691,38.30563,-0.25096,0.25101,0.9506
331.691,38.59608,-0.25695,0.25412,0.94882
334.691,38.88562,-0.26448,0.25379,0.94702
337.691,39.17473,-0.27539,0.25961,0.94522
340.691,39.46359,-0.28364,0.26363,0.9434
343.691,39.7547,-0.29551,0.26331,0.94157
346.691,40.0441,-0.30719,0.27039,0.93973
349.691,40.33133,-0.3174,0.2774,0.93788
352.691,40.62353,-0.33097,0.28,0.93602
355.691,40.91183,-0.34501,0.29014,0.93415
358.691,41.20312,-0.35949,0.29613,0.93227
361.691,41.49198,-0.37586,0.3058,0.93037
364.691,41.78427,-0.39437,0.31688,0.92847
367.691,42.07369,-0.4143,0.32506,0.92655
370.691,42.3643,-0.43556,0.33608,0.92463
373.691,42.6564,-0.46107,0.34569,0.92269
376.691,42.94623,-0.48808,0.36326,0.92074
379.691,43.237,-0.51773,0.37925,0.91878
382.691,43.52964,-0.55093,0.40012,0.91681
385.691,43.821,-0.58915,0.42412,0.91483
388.691,44.1124,-0.62978,0.44988,0.91284
391.691,44.40388,-0.67687,0.47727,0.91084
394.691,44.69619,-0.72965,0.50804,0.90882
397.691,44.9882,-0.78973,0.53624,0.9068
400.691,45.28093,-0.85629,0.56305,0.90476
403.691,45.5721,-0.93024,0.58205,0.90272
406.691,45.8653,-1.00861,0.59381,0.90066
409.691,46.15782,-1.09166,0.59554,0.89859
412.691,46.45162,-1.17776,0.58174,0.89652
415.691,46.74387,-1.2633,0.55286,0.89443
418.691,47.03654,-1.34543,0.51088,0.89233
421.691,47.32911,-1.42375,0.45751,0.89022
424.691,47.62277,-1.4936,0.3943,0.8881
427.691,47.9139,-1.55239,0.32905,0.88597
430.691,48.20715,-1.60179,0.26387,0.88382
433.691,48.49896,-1.63984,0.21239,0.88167
436.691,48.79313,-1.66864,0.16785,0.87951
439.691,49.08769,-1.68742,0.12991,0.87734
442.691,49.38078,-1.70036,0.10172,0.87515
445.691,49.6746,-1.70836,0.0877036,0.87296
448.691,49.96763,-1.71485,0.07457118,0.87076
451.691,50.2618,-1.7193,0.06377497,0.86854
454.691,50.55604,-1.72332,0.06014305,0.86632
457.691,50.85066,-1.72591,0.05846788,0.86408
460.691,51.14562,-1.72855,0.05524438,0.86184
463.691,51.44164,-1.73078,0.05540521,0.85958
466.691,51.73692,-1.73447,0.05489676,0.85732
469.691,52.03223,-1.73579,0.06267214,0.85504
472.691,52.32767,-1.73875,0.06974993,0.85276
475.691,52.6222,-1.73974,0.07003986,0.85046
478.691,52.91809,-1.74238,0.07292385,0.84816
481.691,53.2126,-1.74501,0.07274512,0.84584
484.691,53.50655,-1.74766,0.0781972,0.84352
487.691,53.80035,-1.74896,0.07285474,0.84118
490.691,54.0992,-1.75031,0.07088458,0.83884
493.691,54.39532,-1.75324,0.06862754,0.83648
496.691,54.69255,-1.75423,0.06064907,0.83412
499.691,54.9874,-1.75686,0.06199671,0.83175
502.691,55.2841,-1.7594,0.05525596,0.82936
505.691,55.5814,-1.76049,0.05065414,0.82697
508.691,55.8781,-1.76175,0.04781615,0.82457
511.691,56.17575,-1.76413,0.0441758,0.82216
514.691,56.47269,-1.76679,0.03804803,0.81974
517.691,56.77015,-1.76675,0.03669034,0.81731
520.691,57.067,-1.76769,0.03354333,0.81487
523.691,57.3643,-1.76938,0.02657768,0.81242
526.691,57.6614,-1.7707,0.0211533,0.80997
529.691,57.95926,-1.7707,0.01696935,0.8075
532.691,58.25705,-1.77136,0.01033302,0.80503
535.691,58.55624,-1.77234,0.004458182,0.80255
538.691,58.8552,-1.77333,-0.005742905,0.80005
541.691,59.15379,-1.77564,-0.01526993,0.79755
544.691,59.45236,-1.77432,-0.03133259,0.79504
547.691,59.7509,-1.77432,-0.04304282,0.79252
550.691,60.04974,-1.77564,-0.06629608,0.79
553.691,60.34789,-1.77564,-0.06816348,0.78746
556.691,60.6472,-1.77563,-0.06970257,0.78492
559.691,60.9461,-1.77595,-0.06180988,0.78237
562.691,61.24485,-1.77733,-0.06169951,0.77981
565.691,61.54436,-1.77698,-0.05919535,0.77724
568.691,61.84355,-1.77729,-0.05688334,0.77467
571.691,62.14258,-1.77861,-0.04536061,0.77208
574.691,62.442,-1.7786,-0.04542633,0.76949
577.691,62.74256,-1.78063,-0.04265847,0.76689
580.691,63.0438,-1.78025,-0.03572013,0.76428
583.691,63.3437,-1.7809,-0.03086601,0.76167
586.691,63.6441,-1.78218,-0.02848283,0.75905
589.691,63.94481,-1.78354,-0.02396145,0.75642
592.691,64.24428,-1.78453,-0.01899039,0.75378
595.691,64.5443,-1.78524,-0.0148924,0.75113
598.691,64.84382,-1.78683,-0.005017624,0.74848
601.691,65.14315,-1.78914,0.002505366,0.74582
604.691,65.44275,-1.79047,0.01252161,0.74316
607.691,65.74259,-1.7921,0.02020363,0.74048
610.691,66.04227,-1.79474,0.14175,0.7378
613.691,66.34356,-1.79803,0.1545,0.73511
616.691,66.6442,-1.79995,0.16685,0.73242
619.691,66.94463,-1.80203,0.1738,0.72972
622.691,67.24537,-1.80497,0.19111,0.72701
625.691,67.54681,-1.80827,0.20302,0.7243
628.691,67.85025,-1.8122,0.2209,0.72158
631.691,68.1519,-1.81549,0.23705,0.71886
634.691,68.45196,-1.81959,0.2576,0.71612
637.691,68.75174,-1.82339,0.27395,0.71339
640.691,69.05428,-1.82977,0.30583,0.71064
643.691,69.35571,-1.83556,0.33389,0.70789
646.691,69.65624,-1.84085,0.35726,0.70514
649.691,69.95458,-1.84819,0.38084,0.70237
652.691,70.25633,-1.85596,0.41084,0.69961
655.691,70.55843,-1.86319,0.44626,0.69684
658.691,70.86046,-1.87206,0.48078,0.69406
661.691,71.16336,-1.88195,0.5156,0.69127
664.691,71.46486,-1.89181,0.55641,0.68849
667.691,71.76649,-1.9028,0.60455,0.68569
670.691,72.06855,-1.9152,0.6519,0.6829
673.691,72.37136,-1.92752,0.70365,0.68009
676.691,72.6739,-1.94086,0.76166,0.67728
679.691,72.97589,-1.9557,0.82322,0.67447
682.691,73.27842,-1.97276,0.88752,0.67165
685.691,73.5804,-1.99086,0.95522,0.66883
688.691,73.88265,-2.00922,1.02949,0.66601
691.691,74.1855,-2.02946,1.10425,0.66318
694.691,74.4885,-2.0504,1.17994,0.66034
697.691,74.79047,-2.07372,1.2609,0.65751
700.691,75.0926,-2.09753,1.33958,0.65466
703.691,75.39458,-2.12428,1.42109,0.65182
706.691,75.6968,-2.14832,1.50057,0.64897
709.691,75.99813,-2.17746,1.57404,0.64612
712.691,76.29951,-2.20629,1.63318,0.64326
715.691,76.60226,-2.23731,1.67866,0.6404
718.691,76.90534,-2.26953,1.70698,0.63754
721.691,77.2088,-2.30045,1.70406,0.63467
724.691,77.51215,-2.33132,1.66523,0.6318
727.691,77.8155,-2.36049,1.58397,0.62893
730.691,78.11786,-2.38807,1.43762,0.62605
733.691,78.42,-2.41227,1.17245,0.62318
736.691,78.72134,-2.42969,0.73638,0.6203
739.691,79.02395,-2.43948,0.2886,0.61741
742.691,79.3268,-2.4434,0.04776827,0.61453
745.691,79.62966,-2.4441,-0.04562068,0.61164
748.691,79.93258,-2.44345,-0.07438122,0.60875
749.291,79.9931,-2.44453,-0.07985034,0.60818