File: 01_Data/Basswood_Panel/Cone/Basswood_Panel_Cone_HF75Scalar_221219_R3.csv
LABORATORY,FSRI
TEST IDENT,Basswood_HF75_3
OPERATOR,Dow
MATERIAL,Basswood Panel
ORIENTATION,Horizontal
HEAT FLUX,75
SURF AREA,0.01
C FACTOR,0.038613
SPEC HOLDER DIFF,-566
SPECIMEN MASS,88.22
SCAN TIME,0.25
O2 DELAY TIME,11
CO DELAY TIME,11
CO2 DELAY TIME,8
FLOW FACTOR,1
SCAN COUNT,2668
TIME TO IGN,6.5
END OF TEST SCAN,2188
END OF TEST TIME,547
TEST STATUS,1
PRE TEST CMT,Dimensions: 101.35 x 101.15 x 19.10 mm; with tie wires