File: 01_Data/Basswood_Panel/Cone/Basswood_Panel_Cone_HF75Scan_221219_R1.csv
Names,Time,Stack TC,Smoke TC,Exh Press,Smoke Comp,Smoke Meas,CO Meter,CO2 Meter,O2 Meter,Sample Mass,Ext Coeff,Start Test,Flame Verif
Chan Gain,,500,500,1,1,1,1,1,1,1,1,1.0,1.0
Offset,,0,0,0.136803,0,0,0,0,0,0,0,0.0,0.0
Gain,,1,1,25.011,13.2421,13.1342,1,1,1,1.00087,1.04452,1.0,1.0
Units,sec,C,C,Pa,%,%,%,%,%,g,/m,,
Baseline,,30.1565,30.9791,156.827,99.8912,99.8054,-0.000644235,0.0528706,20.9335,-445.028,0.00789526,,
27,6.5,30.4587,31.8903,139.743,99.6895,97.3349,-0.000680301,0.0630447,20.9203,161.051,0.219003,0.0,1.0
54,13.25,35.5579,34.4151,134.14,100.033,91.2244,-0.000560437,0.0756834,20.9179,159.579,0.844579,0.0,1.0
81,20,43.7697,42.8807,132.433,100.307,89.9045,0.0019444,0.541828,20.6049,157.978,1.00322,0.0,0.0
108,26.75,49.6344,49.6742,124.138,100.572,89.3157,0.00489946,0.75095,20.1688,156.427,1.08753,0.0,0.0
135,33.5,54.4116,55.3029,133.438,100.783,90.5839,0.00569636,0.775512,20.072,155.005,0.977582,0.0,0.0
162,40.25,57.9522,59.461,133.676,100.922,92.3675,0.00618912,0.745752,20.0791,153.554,0.811585,0.0,0.0
189,47,60.5026,62.2509,134.646,100.948,91.6004,0.00563927,0.70319,20.13,152.103,0.890315,0.0,0.0
216,53.75,62.4134,64.9857,132.928,100.844,93.6494,0.00537636,0.660087,20.1807,150.762,0.678222,0.0,0.0
243,60.5,64.3301,67.3398,136.096,100.654,93.071,0.00519612,0.628676,20.2303,149.581,0.717676,0.0,0.0
270,67.25,65.4742,68.8251,139.054,100.461,93.9348,0.00459087,0.595781,20.2631,148.37,0.615432,0.0,0.0
297,74,66.2907,69.9624,134.015,100.29,93.3415,0.00435684,0.573845,20.2971,147.299,0.657875,0.0,0.0
324,80.75,66.4472,70.5936,132.4,100.14,94.1985,0.00376932,0.550579,20.3259,146.178,0.560394,0.0,0.0
351,87.5,67.9554,71.8845,137.193,100.211,94.5444,0.00405674,0.532315,20.3517,144.987,0.533351,0.0,0.0
378,94.25,67.6759,72.9043,133.553,100.465,95.3565,0.00365802,0.517447,20.3725,143.866,0.4782,0.0,0.0
405,101,68.3069,72.9661,139.061,100.581,94.6763,0.003358,0.506347,20.3848,142.855,0.554327,0.0,0.0
432,107.75,68.4456,73.3701,135.448,100.58,95.4495,0.00308714,0.490139,20.406,141.794,0.479731,0.0,0.0
459,114.5,67.2026,72.7139,138.257,100.489,95.2935,0.00292845,0.479977,20.4183,140.843,0.486386,0.0,0.0
486,121.25,68.5934,73.7086,136.366,100.357,95.4743,0.00277372,0.472259,20.4311,139.872,0.457002,0.0,0.0
513,128,68.6512,74.0977,134.726,100.193,95.6266,0.00232066,0.463898,20.4408,138.801,0.427367,0.0,0.0
540,134.75,68.2799,73.8131,135.34,99.9328,95.4242,0.00257743,0.456458,20.4506,137.85,0.422989,0.0,0.0
567,141.5,68.9797,74.5802,136.383,99.7162,94.8306,0.0026541,0.448408,20.4591,136.92,0.460283,0.0,0.0
594,148.25,69.2068,74.618,135.364,99.7586,94.5176,0.00262466,0.443025,20.4655,135.949,0.494477,0.0,0.0
621,155,69.3298,74.2981,137.883,99.8293,94.9252,0.00258648,0.440577,20.4716,135.048,0.461539,0.0,0.0
648,161.75,68.77,74.7752,138.542,99.9356,95.8327,0.00232403,0.437013,20.4736,134.117,0.384114,0.0,0.0
675,168.5,69.271,74.581,135.33,100.023,95.3777,0.00220357,0.433314,20.4797,133.166,0.435712,0.0,0.0
702,175.25,69.4083,74.5247,136.99,100.078,95.5645,0.0022596,0.429407,20.4846,132.215,0.422857,0.0,0.0
729,182,69.1732,74.7076,135.632,100.153,96.0808,0.00223361,0.428288,20.4873,131.265,0.380334,0.0,0.0
756,188.75,69.3498,74.7228,139.407,100.182,95.4006,0.00235288,0.42464,20.4919,130.414,0.448092,0.0,0.0
783,195.5,69.1788,74.414,137.095,100.178,95.809,0.00224923,0.420682,20.4961,129.553,0.408615,0.0,0.0
810,202.25,69.4343,74.561,140.196,100.177,96.5569,0.00202429,0.422478,20.4972,128.682,0.337218,0.0,0.0
837,209,69.8517,74.4328,134.437,100.147,95.821,0.00196838,0.422197,20.496,127.782,0.404619,0.0,0.0
864,215.75,69.4766,74.6839,139.3,100.11,95.9994,0.0021529,0.421991,20.4977,126.781,0.384177,0.0,0.0
891,222.5,69.4269,75.0683,135.87,100.064,95.5481,0.00228393,0.423706,20.4962,125.9,0.423138,0.0,0.0
918,229.25,69.3882,75.2628,137.9,100.017,95.4507,0.00219301,0.423025,20.4957,124.989,0.428152,0.0,0.0
945,236,69.9444,74.8129,139.838,99.9453,95.5296,0.00206511,0.424222,20.4964,124.088,0.41402,0.0,0.0
972,242.75,70.3776,74.9689,133.82,99.8855,95.3124,0.00210638,0.424998,20.4928,123.258,0.429395,0.0,0.0
999,249.5,70.2804,75.3836,138.435,99.8047,95.7942,0.00179188,0.424865,20.4924,122.387,0.375781,0.0,0.0
1026,256.25,70.5416,74.9086,138.901,99.7222,96.1549,0.00187498,0.425884,20.4937,121.486,0.333769,0.0,0.0
1053,263,70.276,75.0638,133.684,99.6535,95.2671,0.0019443,0.425781,20.4937,120.555,0.412448,0.0,0.0
1080,269.75,70.6688,75.568,144.805,99.6074,95.9906,0.00167923,0.425999,20.4921,119.634,0.338891,0.0,0.0
1107,276.5,71.2181,75.89,139.625,99.5581,95.8375,0.00203428,0.428596,20.4899,118.724,0.348982,0.0,0.0
1134,283.25,70.7319,75.1326,135.831,99.54,95.3705,0.00179981,0.428099,20.4875,117.913,0.392061,0.0,0.0
1161,290,71.3439,75.6742,139.294,99.5424,95.7773,0.00202073,0.432623,20.4861,117.002,0.353282,0.0,0.0
1188,296.75,71.6945,76.236,129.678,99.5064,94.9537,0.00213421,0.433519,20.4824,116.121,0.42911,0.0,0.0
1215,303.5,71.6993,76.2143,136.178,99.4175,95.0807,0.00214441,0.436936,20.4809,115.231,0.408667,0.0,0.0
1242,310.25,71.6453,76.4023,138.503,99.3258,94.9621,0.00204499,0.438397,20.4774,114.32,0.411649,0.0,0.0
1269,317,71.8265,76.7874,134.315,99.2563,95.1188,0.00205227,0.438406,20.475,113.449,0.390126,0.0,0.0
1296,323.75,72.2536,76.798,131.936,99.207,94.2747,0.00230126,0.442502,20.4709,112.588,0.467249,0.0,0.0
1323,330.5,72.1225,76.2314,132.067,99.1601,93.5584,0.00208685,0.444353,20.467,111.748,0.532799,0.0,0.0
1350,337.25,72.6895,77.2677,133.134,99.1354,94.3929,0.00190177,0.449575,20.4633,110.797,0.449156,0.0,0.0
1377,344,73.1648,77.8355,136.555,99.0938,93.3155,0.00195282,0.451137,20.4592,109.856,0.550492,0.0,0.0
1404,350.75,73.5822,77.7088,134.923,99.0486,93.2273,0.00190197,0.457414,20.4539,108.935,0.554968,0.0,0.0
1431,357.5,72.6472,77.821,135.868,99.0162,92.3331,0.00258291,0.459757,20.4491,108.024,0.640288,0.0,0.0
1458,364.25,74.1094,78.2713,136.871,98.9762,92.0008,0.00250644,0.469618,20.4399,107.184,0.669618,0.0,0.0
1485,371,74.619,78.5406,135.372,98.9431,91.8437,0.00259276,0.473412,20.4315,106.333,0.682212,0.0,0.0
1512,377.75,74.3234,79.2217,136.978,98.9196,92.6116,0.00270254,0.477664,20.424,105.402,0.603745,0.0,0.0
1539,384.5,74.6858,78.8554,134.905,98.893,91.1234,0.00260105,0.478438,20.4213,104.471,0.74971,0.0,0.0
1566,391.25,75.4776,79.9832,135.326,98.859,92.6541,0.00250589,0.479493,20.4193,103.49,0.593925,0.0,0.0
1593,398,75.6516,79.6776,136.768,98.8352,91.2047,0.00247972,0.483488,20.4171,102.58,0.736176,0.0,0.0
1620,404.75,75.8861,80.0985,133.566,98.8376,90.7979,0.00230341,0.488638,20.4104,101.679,0.777364,0.0,0.0
1647,411.5,76.184,80.3994,137.645,98.8222,90.9943,0.00267021,0.495102,20.4032,100.748,0.756142,0.0,0.0
1674,418.25,76.5026,80.5392,134.162,98.8121,90.4768,0.00285015,0.501321,20.3946,99.8472,0.807459,0.0,0.0
1701,425,76.915,81.4419,133.149,98.8081,89.6327,0.00284583,0.50864,20.3848,98.8163,0.892969,0.0,0.0
1728,431.75,77.7237,81.7374,137.315,98.7992,90.24,0.00318451,0.512309,20.3782,97.8054,0.830281,0.0,0.0
1755,438.5,78.0149,82.0317,134.561,98.8041,89.0239,0.00299536,0.516873,20.3727,96.8245,0.955047,0.0,0.0
1782,445.25,78.1272,82.4128,134.027,98.8089,87.538,0.00289926,0.521211,20.3646,95.8337,1.10971,0.0,0.0
1809,452,77.9907,82.6974,133.686,98.8037,88.3621,0.00291899,0.520851,20.3611,94.9629,1.02337,0.0,0.0
1836,458.75,78.7303,82.8151,132.314,98.8089,88.9092,0.00303181,0.512257,20.3617,94.1222,0.967301,0.0,0.0
1863,465.5,77.767,82.7333,131.867,98.8085,90.2576,0.00285918,0.5041,20.3718,93.3014,0.829351,0.0,0.0
1890,472.25,77.5983,81.7074,139.779,98.8045,91.9114,0.00293192,0.466707,20.3981,92.6509,0.662611,0.0,0.0
1917,479,76.0204,81.3259,143.843,98.7948,95.0266,0.00211522,0.40396,20.4504,92.1805,0.356308,0.0,0.0
1944,485.75,73.4666,78.4423,143.269,98.7871,97.5005,0.00140965,0.323446,20.5323,91.8902,0.120116,0.0,0.0
1971,492.5,70.9925,76.1322,148.624,98.796,97.9041,0.00124594,0.23204,20.6514,91.7901,0.0830879,0.0,0.0
1998,499.25,68.6964,73.8204,144.793,98.8028,98.064,0.000977721,0.168722,20.7458,91.67,0.0687707,0.0,0.0
2025,506,65.9344,70.5243,143.903,98.7911,97.957,0.00117517,0.146065,20.7945,91.5099,0.0776884,0.0,0.0
2052,512.75,64.9815,69.1603,149.281,98.7895,97.8861,0.00144228,0.136954,20.8117,91.4498,0.0841767,0.0,0.0
2079,519.5,63.0042,66.7548,147.392,98.7883,98.0757,0.00139931,0.132588,20.8208,91.3898,0.0663355,0.0,0.0
2106,526.25,61.6648,65.2728,144.552,98.7879,97.9354,0.00140538,0.127556,20.8264,91.2997,0.0794124,0.0,0.0
2133,533,60.1755,63.5369,144.091,98.7948,97.9153,0.0014005,0.12676,20.8305,91.2797,0.0819242,0.0,0.0
2160,539.75,58.4616,61.9039,149.181,98.8016,97.9911,0.00121814,0.127382,20.831,91.2096,0.0754765,0.0,0.0
2187,546.5,57.5681,59.9269,148.253,98.7992,98.0228,0.00170265,0.126132,20.831,91.0695,0.0722911,0.0,0.0
2214,553.25,56.3172,59.0419,145.636,98.7883,97.933,0.00221432,0.124064,20.8332,90.9094,0.0796755,0.0,0.0
2241,560,55.8452,58.0351,145.567,98.7927,98.0392,0.00225394,0.122568,20.8351,90.8293,0.070155,0.0,0.0
2268,566.75,55.1232,57.0077,146.126,98.8033,98.0829,0.00230616,0.121254,20.8374,90.7292,0.0670479,0.0,0.0
2295,573.5,54.4473,56.4207,149.233,98.8158,97.9346,0.00276294,0.120865,20.8379,90.7192,0.0820736,0.0,0.0
2322,580.25,53.9152,55.312,146.446,98.8271,98.1282,0.00300369,0.122064,20.8387,90.6591,0.0650276,0.0,0.0
2349,587,53.0863,54.4056,145.265,98.8453,98.3446,0.00293629,0.121533,20.839,90.5691,0.0465253,0.0,0.0
2376,593.75,51.892,54.0007,145.588,98.8255,98.1354,0.00341353,0.121968,20.8407,90.459,0.0642055,0.0,0.0
2403,600.5,51.4061,52.6361,146.986,98.8332,97.9598,0.00369178,0.121807,20.8405,90.3789,0.0813223,0.0,0.0
2430,607.25,51.5341,53.2216,155.688,98.8283,97.9919,0.00431458,0.122274,20.8415,90.2988,0.0778747,0.0,0.0
2457,614,51.021,52.4568,147.623,98.8279,98.3226,0.00469181,0.121503,20.8421,90.2388,0.0469698,0.0,0.0
2484,620.75,50.8651,51.8422,148.336,98.8069,98.0075,0.00478138,0.121258,20.8421,90.2288,0.0744268,0.0,0.0
2511,627.5,50.4234,51.5956,147.921,98.8069,98.4063,0.00503993,0.120907,20.8444,90.1487,0.0372172,0.0,0.0
2538,634.25,49.804,51.1906,147.481,98.7984,98.1438,0.00553809,0.121027,20.8452,90.0386,0.0609077,0.0,0.0
2565,641,49.6086,50.8832,147.153,98.7968,98.224,0.00571386,0.121513,20.8425,89.9585,0.0532768,0.0,0.0
2592,647.75,49.3562,50.2663,149.104,98.7948,98.2003,0.00594768,0.121097,20.843,89.9085,0.0552964,0.0,0.0
2619,654.5,49.2975,50.4351,147.775,98.7996,97.9041,0.00599622,0.120343,20.8465,89.8184,0.0834245,0.0,0.0
2629,657,49.2942,49.9133,147.173,98.8089,98.2556,0.00620203,0.12067,20.8467,89.8384,0.0514479,0.0,0.0