File: 01_Data/Basswood_Panel/Cone/Basswood_Panel_Cone_HF75Scan_221219_R3.csv
Names,Time,Stack TC,Smoke TC,Exh Press,Smoke Comp,Smoke Meas,CO Meter,CO2 Meter,O2 Meter,Sample Mass,Ext Coeff,Start Test,Flame Verif
Chan Gain,,500,500,1,1,1,1,1,1,1,1,1.0,1.0
Offset,,0,0,0.136803,0,0,0,0,0,0,0,0.0,0.0
Gain,,1,1,25.011,13.2421,13.1342,1,1,1,1.00087,1.04452,1.0,1.0
Units,sec,C,C,Pa,%,%,%,%,%,g,/m,,
Baseline,,43.834,43.873,151.733,99.6978,99.5685,-0.000907733,0.058009,20.9239,-445.683,0.0118962,,
28,6.75,41.833,41.9357,144.302,99.6252,97.9803,-0.00110691,0.0682004,20.9088,164.243,0.152549,0.0,1.0
56,13.75,46.4896,45.5648,121.433,99.6305,92.3194,-0.000919791,0.0777761,20.9087,162.832,0.698305,0.0,0.0
84,20.75,54.0372,52.7525,132.418,99.6394,90.7061,0.00143807,0.521387,20.6661,161.211,0.860657,0.0,0.0
112,27.75,60.3694,59.2842,122.128,99.6224,91.123,0.00458687,0.745736,20.2015,159.559,0.817084,0.0,0.0
140,34.75,65.3826,64.9452,124.661,99.6151,91.2404,0.00616319,0.776363,20.0675,157.958,0.804615,0.0,0.0
168,41.75,68.6973,69.2723,127.661,99.6014,90.4107,0.00572268,0.754187,20.0727,156.517,0.887051,0.0,0.0
196,48.75,71.2184,72.7552,125.082,99.5921,91.3374,0.00560868,0.709411,20.1133,155.055,0.792759,0.0,0.0
224,55.75,72.9034,74.9314,131.843,99.582,93.2145,0.00503068,0.678308,20.1583,153.764,0.605441,0.0,0.0
252,62.75,74.8416,77.3874,129.791,99.5751,93.057,0.00461645,0.639912,20.2014,152.453,0.620306,0.0,0.0
280,69.75,76.3016,78.6056,129.249,99.5876,92.0084,0.00420363,0.611028,20.2406,151.162,0.725288,0.0,0.0
308,76.75,76.6837,80.2419,127.552,99.5808,93.3608,0.00380846,0.587809,20.2752,149.931,0.590961,0.0,0.0
336,83.75,77.109,81.6417,130.9,99.5654,93.863,0.00346464,0.577596,20.2911,148.62,0.540391,0.0,0.0
364,90.75,77.761,81.9686,132.212,99.5743,94.2899,0.00303809,0.564383,20.3091,147.429,0.499634,0.0,0.0
392,97.75,78.7471,83.159,134.795,99.5585,93.9596,0.00317098,0.552267,20.3247,146.298,0.530334,0.0,0.0
420,104.75,78.7608,83.324,133.573,99.5557,94.564,0.00305779,0.537631,20.3377,145.137,0.47132,0.0,0.0
448,111.75,78.9466,83.8872,132.009,99.5509,94.7729,0.00288186,0.524489,20.3603,144.026,0.450662,0.0,0.0
476,118.75,79.2575,83.921,135.541,99.5549,95.1957,0.00306354,0.519398,20.3685,142.915,0.410242,0.0,0.0
504,125.75,79.004,84.0459,135.384,99.5691,95.8964,0.00281241,0.50985,20.3766,141.854,0.344355,0.0,0.0
532,132.75,79.5154,84.4492,132.541,99.5541,94.7721,0.00257603,0.500571,20.3887,140.753,0.451036,0.0,0.0
560,139.75,79.4101,84.2205,132.42,99.5642,95.4531,0.00216244,0.490973,20.4018,139.672,0.386363,0.0,0.0
588,146.75,79.1766,84.5814,132.446,99.5501,95.5753,0.00212327,0.486064,20.4092,138.681,0.373335,0.0,0.0
616,153.75,79.5097,84.6329,130.568,99.5452,94.8867,0.00191241,0.477608,20.4184,137.56,0.439143,0.0,0.0
644,160.75,79.4683,84.2816,132.429,99.586,95.4006,0.00216048,0.475,20.4252,136.549,0.393413,0.0,0.0
672,167.75,78.8868,84.3925,131.774,99.6273,95.5741,0.00225232,0.468204,20.4307,135.568,0.380551,0.0,0.0
700,174.75,78.8153,84.2256,134.698,99.6325,95.6844,0.00206349,0.46302,20.4372,134.567,0.370473,0.0,0.0
728,181.75,78.5565,83.8859,127.457,99.6099,95.6282,0.00208352,0.457721,20.443,133.557,0.373767,0.0,0.0
756,188.75,78.065,83.5778,130.001,99.6091,95.4984,0.00205408,0.451816,20.4531,132.596,0.386143,0.0,0.0
784,195.75,78.9687,83.3721,133.621,99.5909,95.9301,0.00189901,0.451726,20.4546,131.585,0.343147,0.0,0.0
812,202.75,79.0136,83.5124,135.11,99.5521,96.1144,0.00190412,0.448491,20.4577,130.684,0.321983,0.0,0.0
840,209.75,78.498,83.4338,135.67,99.5808,95.4034,0.00186903,0.447119,20.4593,129.773,0.39266,0.0,0.0
868,216.75,78.3949,83.4231,132.39,99.5868,95.5982,0.00184914,0.441501,20.4632,128.752,0.374529,0.0,0.0
896,223.75,78.8512,82.8243,132.206,99.5634,95.7589,0.00200404,0.447568,20.4647,127.762,0.356979,0.0,0.0
924,230.75,78.3487,83.5045,133.353,99.529,95.9309,0.0020396,0.448463,20.457,126.781,0.33738,0.0,0.0
952,237.75,78.6355,83.0108,133.58,99.5254,95.5469,0.00202582,0.446888,20.4609,125.8,0.373794,0.0,0.0
980,244.75,78.5739,83.4789,129.325,99.5303,95.6182,0.00210288,0.449131,20.46,124.799,0.367401,0.0,0.0
1008,251.75,78.8482,83.1913,132.438,99.5359,95.9637,0.00198613,0.449192,20.4584,123.858,0.334874,0.0,0.0
1036,258.75,79.0822,83.33,129.546,99.5262,95.3164,0.00194293,0.44884,20.4583,122.877,0.395996,0.0,0.0
1064,265.75,78.6664,83.4321,131.103,99.5238,94.9601,0.0019801,0.452346,20.4554,121.916,0.430091,0.0,0.0
1092,272.75,78.7567,83.2993,136.249,99.5185,95.5421,0.00190956,0.453105,20.4546,120.956,0.373622,0.0,0.0
1120,279.75,79.1418,83.444,131.001,99.5355,95.1132,0.00201639,0.454697,20.4521,119.995,0.416407,0.0,0.0
1148,286.75,79.39,83.34,129.254,99.5278,95.6371,0.00192589,0.457698,20.4479,119.074,0.365373,0.0,0.0
1176,293.75,78.9856,84.0041,132.939,99.5234,94.8751,0.00226815,0.458749,20.4448,118.063,0.438257,0.0,0.0
1204,300.75,78.9375,83.6564,131.957,99.5129,95.1573,0.00219925,0.460342,20.4429,117.142,0.410078,0.0,0.0
1232,307.75,79.0304,84.0547,135.833,99.521,94.5368,0.00220636,0.459615,20.4441,116.131,0.470762,0.0,0.0
1260,314.75,78.8162,83.3532,136.217,99.5189,94.2201,0.00209105,0.462649,20.4414,115.161,0.501317,0.0,0.0
1288,321.75,79.9199,83.4505,132.386,99.544,94.9176,0.00229245,0.46266,20.442,114.26,0.436051,0.0,0.0
1316,328.75,79.4973,84.0566,135.776,99.5484,95.0034,0.00217918,0.464332,20.4387,113.249,0.428183,0.0,0.0
1344,335.75,79.7772,83.7965,131.432,99.5569,94.6943,0.00237178,0.46461,20.438,112.318,0.458818,0.0,0.0
1372,342.75,79.4134,84.0108,135.956,99.5731,94.2266,0.00238212,0.466104,20.4365,111.417,0.505678,0.0,0.0
1400,349.75,79.7974,83.4306,131.741,99.5917,94.2682,0.00266669,0.465275,20.4359,110.436,0.503336,0.0,0.0
1428,356.75,80.2144,83.7275,133.117,99.5949,94.0061,0.00261303,0.462266,20.4377,109.576,0.529147,0.0,0.0
1456,363.75,79.9836,84.3392,134.273,99.5933,93.8293,0.00244025,0.466669,20.4356,108.595,0.546243,0.0,0.0
1484,370.75,80.314,83.6496,130.083,99.6042,93.7764,0.00253922,0.462417,20.4337,107.734,0.552415,0.0,0.0
1512,377.75,79.8602,84.4697,129.553,99.5965,93.8241,0.00256369,0.469969,20.4346,106.823,0.54705,0.0,0.0
1540,384.75,80.2602,84.6556,127.856,99.5982,92.7639,0.00257262,0.47189,20.4277,105.762,0.651322,0.0,0.0
1568,391.75,80.6283,84.24,132.173,99.6115,92.6549,0.00278508,0.472219,20.4275,104.862,0.663323,0.0,0.0
1596,398.75,80.6171,84.2979,136.409,99.626,93.5896,0.00319638,0.477041,20.4223,103.931,0.572691,0.0,0.0
1624,405.75,80.6781,84.7994,133.923,99.6313,91.8284,0.00284582,0.481342,20.4186,103.02,0.747242,0.0,0.0
1652,412.75,80.9519,85.0191,132.464,99.6329,92.2172,0.00307955,0.487253,20.4122,102.029,0.708678,0.0,0.0
1680,419.75,81.4081,85.0777,132.472,99.6309,92.7619,0.00306036,0.495617,20.4025,101.018,0.65453,0.0,0.0
1708,426.75,81.4274,85.125,133.632,99.6539,92.6657,0.00287845,0.496447,20.3953,100.097,0.666155,0.0,0.0
1736,433.75,81.4136,85.4181,130.916,99.6555,92.2084,0.00314002,0.501589,20.3903,99.0865,0.711635,0.0,0.0
1764,440.75,81.2882,86.2339,128.607,99.6778,91.7988,0.00307014,0.501837,20.3885,98.1957,0.754475,0.0,0.0
1792,447.75,81.3012,85.7053,130.587,99.6964,92.6377,0.00308937,0.493957,20.3931,97.2349,0.67283,0.0,0.0
1820,454.75,82.2174,85.7363,129.365,99.7008,92.1892,0.00279082,0.490833,20.3959,96.3041,0.717708,0.0,0.0
1848,461.75,81.8722,85.573,131.462,99.7101,92.198,0.00264836,0.482584,20.4018,95.4233,0.717686,0.0,0.0
1876,468.75,81.4913,85.7984,132.55,99.7246,92.4866,0.00227962,0.472053,20.4088,94.5726,0.690387,0.0,0.0
1904,475.75,81.1598,85.5619,134.316,99.7477,92.6429,0.00218778,0.459425,20.4275,93.8119,0.677029,0.0,0.0
1932,482.75,80.3447,85.3467,130.123,99.78,93.3067,0.00215139,0.447223,20.4405,92.9511,0.614586,0.0,0.0
1960,489.75,79.9702,84.433,140.47,99.7832,93.9119,0.00182073,0.426374,20.4588,92.3606,0.555641,0.0,0.0
1988,496.75,79.5337,82.8644,139.07,99.8152,94.7621,0.0017583,0.400567,20.485,91.7101,0.476002,0.0,0.0
2016,503.75,77.8024,82.0948,139.575,99.8285,95.8138,0.00157552,0.368152,20.516,91.2496,0.376091,0.0,0.0
2044,510.75,75.9041,80.0313,142.647,99.8451,97.6396,0.0016875,0.319211,20.5625,90.9194,0.204661,0.0,0.0
2072,517.75,73.794,77.9352,142.212,99.854,98.9831,0.00120994,0.2507,20.6321,90.6792,0.0802559,0.0,0.0
2100,524.75,71.2548,75.3226,143.886,99.8475,99.0517,0.00105238,0.184159,20.7185,90.6091,0.0733205,0.0,0.0
2128,531.75,69.2417,72.9536,149.223,99.8447,99.1635,0.00140031,0.149578,20.7802,90.4389,0.0627227,0.0,0.0
2156,538.75,67.4197,70.5354,145.153,99.858,99.2128,0.00140892,0.138027,20.8052,90.3489,0.0593918,0.0,0.0
2184,545.75,65.4385,68.6799,145.712,99.8701,99.1202,0.00135149,0.133857,20.8148,90.2988,0.069059,0.0,0.0
2212,552.75,63.2908,65.6571,149.371,99.8673,99.1928,0.00157455,0.129842,20.8206,90.2588,0.0620957,0.0,0.0
2240,559.75,62.4183,65.0525,146.036,99.8851,99.2377,0.00155622,0.128329,20.8246,90.1187,0.0595806,0.0,0.0
2268,566.75,60.7016,63.8658,147.065,99.8915,99.4317,0.0019625,0.131907,20.8224,90.0286,0.0422796,0.0,0.0
2296,573.75,60.0127,62.7413,146.507,99.9214,99.2521,0.00218953,0.128621,20.8202,89.9385,0.0615847,0.0,0.0
2324,580.75,58.8545,60.2614,146.102,99.9501,99.5327,0.00242226,0.127839,20.825,89.8584,0.0383506,0.0,0.0
2352,587.75,58.305,60.74,147.317,99.9425,99.3976,0.00275948,0.126791,20.8251,89.8484,0.0500891,0.0,0.0
2380,594.75,57.7263,59.1444,146.457,99.9566,99.4922,0.00284039,0.125937,20.8276,89.7383,0.0426699,0.0,0.0
2408,601.75,57.2263,58.3328,146.869,99.9703,99.4601,0.00271931,0.1253,20.829,89.7183,0.0468828,0.0,0.0
2436,608.75,56.2619,57.622,141.362,99.9663,99.23,0.00289849,0.125635,20.83,89.5181,0.0677321,0.0,0.0
2464,615.75,55.4696,57.1423,145.552,99.9623,99.3527,0.00321146,0.128468,20.8279,89.4481,0.0560433,0.0,0.0
2492,622.75,55.1731,56.6223,148.614,99.951,99.4429,0.00354422,0.126164,20.8256,89.368,0.0466927,0.0,0.0
2520,629.75,54.879,55.4197,148.407,99.9315,99.3347,0.00356834,0.124674,20.8294,89.308,0.0548914,0.0,0.0
2548,636.75,54.073,55.0338,146.25,99.9085,99.3074,0.00369952,0.124129,20.8323,89.2479,0.0552942,0.0,0.0
2576,643.75,53.8239,54.8158,149.85,99.8948,99.6172,0.00398199,0.125852,20.832,89.1578,0.0254916,0.0,0.0
2604,650.75,52.7958,53.3856,143.093,99.8766,99.3435,0.00384624,0.125544,20.83,89.1278,0.0490375,0.0,0.0
2632,657.75,52.8924,53.3127,147.879,99.8536,99.3615,0.00413135,0.124535,20.8314,89.0177,0.0452603,0.0,0.0
2660,664.75,52.9547,53.3824,146.622,99.8483,99.422,0.00455494,0.124896,20.8332,89.0177,0.039199,0.0,0.0
2668,666.75,52.5586,53.01,146.081,99.8487,99.1932,0.00462024,0.12514,20.8338,88.9576,0.0603521,0.0,0.0