File: 01_Data/Basswood_Panel/Cone/Basswood_Panel_Cone_HF50Scan_221219_R3.csv
Names,Time,Stack TC,Smoke TC,Exh Press,Smoke Comp,Smoke Meas,CO Meter,CO2 Meter,O2 Meter,Sample Mass,Ext Coeff,Start Test,Flame Verif
Chan Gain,,500,500,1,1,1,1,1,1,1,1,1.0,1.0
Offset,,0,0,0.136404,0,0,0,0,0,0,0,0.0,0.0
Gain,,1,1,25.011,13.2727,13.2115,1,1,1,1.00087,1.04452,1.0,1.0
Units,sec,C,C,Pa,%,%,%,%,%,g,/m,,
Baseline,,32.662,32.7343,168.795,100.157,100.299,-0.000204308,0.0470207,20.943,-445.73,-0.0129471,,
36,8.75,30.6283,31.246,166.75,100.464,100.26,5.22309e-05,0.0553415,20.9335,165.344,0.0186476,0.0,0.0
72,17.75,30.4663,31.6564,156.207,100.545,98.8865,-0.000243262,0.0524047,20.9359,164.854,0.152359,0.0,1.0
108,26.75,36.6752,36.0848,147.936,100.526,95.0433,0.000821401,0.177677,20.9176,163.413,0.513821,0.0,0.0
144,35.75,42.4349,42.4275,143.198,100.263,93.4169,0.00311085,0.459009,20.5217,161.931,0.64798,0.0,0.0
180,44.75,46.7189,46.8685,159.855,99.9941,94.2644,0.00420238,0.509922,20.4068,160.38,0.540658,0.0,0.0
216,53.75,50.1623,50.9352,141.795,100.275,94.2995,0.00443868,0.518696,20.3815,158.829,0.56297,0.0,0.0
252,62.75,52.956,54.2378,149.449,100.711,96.6278,0.00388643,0.512448,20.3772,157.337,0.379185,0.0,0.0
288,71.75,54.6126,56.0966,149.836,100.411,96.602,0.00346817,0.481758,20.4184,155.946,0.354322,0.0,0.0
324,80.75,56.0548,58.2517,155.481,100.62,97.1036,0.0032656,0.457245,20.4441,154.605,0.325888,0.0,0.0
360,89.75,57.5508,59.9211,155.126,101.067,97.7168,0.00290729,0.440026,20.471,153.374,0.308836,0.0,0.0
396,98.75,58.1203,61.1473,147.191,101.086,97.6842,0.00300588,0.428432,20.4861,152.203,0.313624,0.0,0.0
432,107.75,58.5131,61.6895,153.325,100.514,97.8378,0.00313356,0.419377,20.4977,151.012,0.24724,0.0,0.0
468,116.75,58.7643,62.0903,151.806,99.7085,96.9988,0.00254033,0.405015,20.5149,149.841,0.252454,0.0,0.0
504,125.75,59.1558,62.5429,155.442,99.3323,96.4537,0.00222928,0.388402,20.5346,148.69,0.269446,0.0,0.0
540,134.75,59.1938,62.7235,156.683,99.5421,97.3536,0.00204514,0.378226,20.5457,147.479,0.20369,0.0,0.0
576,143.75,59.3665,63.059,154.371,100.086,98.4833,0.00228199,0.368587,20.5603,146.388,0.147914,0.0,0.0
612,152.75,59.2114,63.0187,152.302,100.514,99.082,0.00202485,0.361121,20.5676,145.377,0.131453,0.0,0.0
648,161.75,59.016,62.8353,154.642,100.434,99.0417,0.00172605,0.34743,20.5843,144.336,0.127868,0.0,0.0
684,170.75,59.0029,62.8252,148.476,99.9459,98.7409,0.00177645,0.33923,20.5962,143.415,0.111137,0.0,0.0
720,179.75,58.4101,62.2156,150.414,100.518,99.2304,0.00208154,0.32654,20.606,142.464,0.118112,0.0,0.0
756,188.75,58.5047,62.1821,149.403,100.502,99.1457,0.00185857,0.32662,20.6117,141.514,0.124457,0.0,0.0
792,197.75,57.7889,61.4509,153.915,100.625,99.4271,0.00198327,0.324429,20.6149,140.533,0.109742,0.0,0.0
828,206.75,58.3811,61.853,152.698,101.114,99.9944,0.00165461,0.319401,20.6193,139.552,0.102023,0.0,0.0
864,215.75,57.8586,61.6164,149.324,100.472,99.5546,0.00164943,0.317662,20.6242,138.521,0.0840198,0.0,0.0
900,224.75,57.937,61.5564,154.119,99.3979,98.1962,0.00153898,0.315155,20.6258,137.57,0.111443,0.0,0.0
936,233.75,58.3516,61.4238,159.402,99.7567,98.4168,0.0014291,0.318107,20.6227,136.639,0.123908,0.0,0.0
972,242.75,57.705,61.3264,154.366,100.558,99.4542,0.00149777,0.31325,20.6261,135.749,0.101129,0.0,0.0
1008,251.75,58.0013,61.1915,148.337,100.07,99.0453,0.00175608,0.311148,20.6323,134.878,0.0942892,0.0,0.0
1044,260.75,57.9027,61.1077,155.678,100.504,99.5638,0.00165912,0.314695,20.6288,133.957,0.0860845,0.0,0.0
1080,269.75,58.0361,61.2925,154.346,100.234,99.1127,0.00167865,0.312307,20.6304,133.016,0.103071,0.0,0.0
1116,278.75,58.2624,61.3377,149.596,101.034,99.9073,0.00172439,0.312509,20.6307,132.115,0.102774,0.0,0.0
1152,287.75,57.9861,61.3234,152.791,100.581,99.5654,0.00165305,0.313178,20.6307,131.124,0.0929486,0.0,0.0
1188,296.75,57.8847,61.1692,159.18,99.3975,98.322,0.00154128,0.31297,20.6288,130.154,0.0996757,0.0,0.0
1224,305.75,57.938,61.3191,150.707,99.7932,98.7079,0.00150378,0.312854,20.631,129.263,0.100195,0.0,0.0
1260,314.75,58.1875,61.5127,146.928,100.491,99.4848,0.00158249,0.313,20.6297,128.362,0.0921776,0.0,0.0
1296,323.75,58.2045,61.0653,156.25,100.442,99.4804,0.00159848,0.313018,20.6309,127.511,0.0881899,0.0,0.0
1332,332.75,58.0782,61.2359,157.502,99.9998,99.1368,0.00142443,0.313493,20.628,126.631,0.0794092,0.0,0.0
1368,341.75,58.0986,61.0903,149.951,99.9795,99.1316,0.00165688,0.310558,20.6322,125.75,0.0780371,0.0,0.0
1404,350.75,58.3195,61.1772,152.499,100.376,99.3937,0.00133022,0.311488,20.6333,124.869,0.0900796,0.0,0.0
1440,359.75,58.0563,61.0421,155.019,100.544,99.6049,0.00119023,0.312155,20.6316,123.908,0.0859926,0.0,0.0
1476,368.75,58.5246,61.4644,151.398,100.572,99.6449,0.00142123,0.313675,20.6279,122.967,0.0848682,0.0,0.0
1512,377.75,57.7373,61.1833,154.523,100.557,99.5799,0.0016067,0.318302,20.6252,122.057,0.0894371,0.0,0.0
1548,386.75,58.1747,61.1384,151.943,100.56,99.5179,0.00129835,0.319836,20.6198,121.166,0.0954459,0.0,0.0
1584,395.75,58.5686,61.8331,157.581,100.579,99.5695,0.00182387,0.327278,20.615,120.315,0.0924674,0.0,0.0
1620,404.75,59.0369,61.666,147.991,100.569,99.4275,0.00167165,0.330351,20.6111,119.414,0.104577,0.0,0.0
1656,413.75,58.6792,61.4292,151.801,100.482,99.3062,0.00162918,0.338165,20.6019,118.443,0.107829,0.0,0.0
1692,422.75,59.6111,62.1264,152.014,100.229,98.8288,0.00163814,0.345565,20.5921,117.473,0.128905,0.0,0.0
1728,431.75,59.8359,62.6625,152.246,99.9743,98.5736,0.00190712,0.353083,20.5865,116.442,0.129275,0.0,0.0
1764,440.75,60.643,63.0913,153.121,99.86,98.1801,0.00177027,0.359341,20.5799,115.441,0.155451,0.0,0.0
1800,449.75,61.0328,62.9799,150.726,100.097,98.3382,0.00162411,0.365606,20.572,114.45,0.162392,0.0,0.0
1836,458.75,61.0345,63.835,151.701,100.357,98.1962,0.00206302,0.375983,20.5588,113.479,0.199434,0.0,0.0
1872,467.75,61.2014,63.6169,148.773,100.524,97.6975,0.00213822,0.381433,20.5508,112.478,0.261275,0.0,0.0
1908,476.75,61.8219,64.6319,146.706,100.548,97.7822,0.00192458,0.383009,20.5454,111.427,0.255553,0.0,0.0
1944,485.75,62.3331,65.084,151.959,100.391,97.6656,0.00203708,0.395641,20.535,110.376,0.252145,0.0,0.0
1980,494.75,63.1063,65.952,148.781,100.097,96.8294,0.00251008,0.405194,20.5226,109.245,0.304128,0.0,0.0
2016,503.75,63.2431,66.1209,148.115,99.7158,95.882,0.00256851,0.415676,20.5098,108.064,0.35923,0.0,0.0
2052,512.75,63.8064,66.4006,157.023,99.3873,95.9412,0.00293499,0.423277,20.4937,106.883,0.323334,0.0,0.0
2088,521.75,64.6838,67.4653,147.877,99.3683,95.2796,0.00269305,0.432611,20.4851,105.742,0.384984,0.0,0.0
2124,530.75,65.3872,68.1081,148.015,99.6846,94.295,0.0027991,0.437914,20.4758,104.611,0.50928,0.0,0.0
2160,539.75,65.1451,68.2726,148.684,100.329,95.4135,0.00300718,0.442226,20.4726,103.46,0.460249,0.0,0.0
2196,548.75,65.7562,69.0417,154.029,100.895,95.9138,0.00259297,0.441392,20.4684,102.329,0.463932,0.0,0.0
2232,557.75,66.0409,69.2588,148.479,101.123,96.7093,0.00289724,0.433305,20.4732,101.188,0.408904,0.0,0.0
2268,566.75,66.0903,69.2245,146.396,100.997,95.8058,0.0029488,0.425891,20.4813,100.087,0.48345,0.0,0.0
2304,575.75,65.8099,68.8841,146.099,100.645,95.1732,0.00276734,0.420155,20.4894,98.9464,0.512236,0.0,0.0
2340,584.75,65.7447,69.1197,147.165,100.274,94.5942,0.00288576,0.412956,20.4954,97.8955,0.53423,0.0,0.0
2376,593.75,65.3332,68.5044,150.439,100.536,94.9139,0.00270903,0.406177,20.5038,96.8345,0.527229,0.0,0.0
2412,602.75,65.5618,68.8152,151.476,100.573,94.8426,0.00267458,0.394709,20.5152,95.9337,0.537553,0.0,0.0
2448,611.75,64.9881,68.3151,152.474,100.047,94.6006,0.0024456,0.369687,20.5355,95.123,0.512893,0.0,0.0
2484,620.75,63.8681,67.2959,153.196,100,95.4731,0.00229003,0.337569,20.5708,94.4324,0.424472,0.0,0.0
2520,629.75,62.1609,65.4875,159.484,100.392,96.7855,0.00204376,0.290948,20.6163,93.932,0.335201,0.0,0.0
2556,638.75,59.9551,63.3545,158.874,100.566,98.8071,0.00206239,0.238202,20.6728,93.6517,0.161715,0.0,0.0
2592,647.75,56.6967,60.0987,158.693,100.429,99.6634,0.00240627,0.175344,20.7473,93.4015,0.0701279,0.0,0.0
2628,656.75,54.9958,58.002,159.231,99.9601,99.1514,0.00292225,0.139112,20.8055,93.1914,0.07443,0.0,0.0
2664,665.75,52.7314,55.5938,163.341,99.4558,98.795,0.00326595,0.126256,20.8301,93.0112,0.0610845,0.0,0.0
2700,674.75,50.5157,53.308,163.332,99.3549,98.6857,0.00383975,0.119781,20.8398,92.8911,0.0619264,0.0,0.0
2736,683.75,50.013,52.2704,163.882,99.826,99.1381,0.00344124,0.115223,20.8487,92.841,0.0633617,0.0,0.0
2772,692.75,47.7854,49.7473,160.682,100.549,100.105,0.00395723,0.113986,20.8506,92.791,0.0405616,0.0,0.0
2808,701.75,47.3774,48.9273,160.51,101.08,100.671,0.00395842,0.113116,20.8535,92.6709,0.0371573,0.0,0.0
2844,710.75,46.5017,47.9829,162.705,100.99,100.389,0.00468967,0.112304,20.8541,92.5808,0.0546884,0.0,0.0
2880,719.75,45.0144,46.4037,164.547,100.475,99.9009,0.0052878,0.109505,20.8578,92.4707,0.052496,0.0,0.0
2916,728.75,44.3184,45.4001,163.283,100.526,100.165,0.00535704,0.108792,20.8611,92.2906,0.0329236,0.0,0.0
2952,737.75,43.7722,44.752,166.923,100.522,99.9448,0.00521163,0.108498,20.8578,92.1705,0.0527871,0.0,0.0
2988,746.75,42.3928,43.3005,165.893,99.8924,99.3796,0.00528855,0.111399,20.8567,92.0804,0.0471632,0.0,0.0
3024,755.75,42.1374,43.0811,164.2,100.333,100.033,0.00530814,0.109836,20.8561,91.9903,0.0274378,0.0,0.0
3060,764.75,41.5163,42.67,163.16,100.544,99.8739,0.00532117,0.107778,20.8605,92.0103,0.0612516,0.0,0.0
3096,773.75,40.9994,42.1506,165.115,100.154,99.7086,0.00511654,0.106155,20.86,91.9102,0.0408498,0.0,0.0
3132,782.75,41.0469,41.0394,164.31,99.4692,98.9316,0.00590681,0.106008,20.8633,91.8402,0.049648,0.0,0.0
3168,791.75,40.6434,40.7863,162.164,99.4635,99.0909,0.00636757,0.10561,20.8635,91.7301,0.0343873,0.0,0.0
3204,800.75,39.4487,40.3573,165.518,100.415,99.9936,0.00655851,0.104499,20.8633,91.5799,0.0384898,0.0,0.0
3240,809.75,39.6918,40.2518,165.468,101.114,100.742,0.00657486,0.104523,20.8655,91.4198,0.0338214,0.0,0.0
3276,818.75,39.4021,39.7358,163.435,100.777,100.628,0.00662797,0.104071,20.8653,91.3698,0.0135427,0.0,0.0
3312,827.75,39.1206,39.2458,165.455,100.43,100.267,0.00656905,0.103801,20.8655,91.2797,0.0148437,0.0,0.0
3348,836.75,39.3396,39.1294,165.109,100.51,99.998,0.00721934,0.102847,20.866,91.2697,0.0467644,0.0,0.0
3384,845.75,38.7087,38.5551,163.159,100.051,99.6686,0.00711392,0.104251,20.8671,91.1796,0.0351022,0.0,0.0
3420,854.75,38.4093,38.9967,167.098,100.534,100.448,0.00741358,0.1044,20.8646,91.1296,0.00780739,0.0,0.0
3449,862,38.3888,38.45,167.831,100.402,100.02,0.00722089,0.104053,20.8665,90.9294,0.0348693,0.0,0.0