File: 01_Data/Basswood_Panel/Cone/Basswood_Panel_Cone_HF25Scan_221212_R4.csv
Names,Time,Stack TC,Smoke TC,Exh Press,Smoke Comp,Smoke Meas,CO Meter,CO2 Meter,O2 Meter,Sample Mass,Ext Coeff,Start Test,Flame Verif
Chan Gain,,500,500,1,1,1,1,1,1,1,1,1.0,1.0
Offset,,0,0,0.136404,0,0,0,0,0,0,0,0.0,0.0
Gain,,1,1,25.011,14.0546,13.8657,1,1,1,1.00087,1.04452,1.0,1.0
Units,sec,C,C,Pa,%,%,%,%,%,g,/m,,
Baseline,,19.837,20.2839,174.971,105.961,106.681,0.000292862,0.0512481,20.9327,-444.626,-0.0621285,,
43,10.5,18.665,19.1376,173.471,104.743,105.29,0.000161557,0.0670907,20.9182,157.658,-0.0477646,0.0,0.0
86,21.25,18.883,19.1231,175.612,104.785,105.315,0.000198205,0.057783,20.9255,157.528,-0.0462594,0.0,0.0
129,32,18.6739,19.5717,173.176,105.355,105.578,0.000371459,0.0546551,20.9323,157.367,-0.0194217,0.0,0.0
172,42.75,19.5389,19.8047,177.612,105.884,105.779,0.000219042,0.0583139,20.9265,157.257,0.00906669,0.0,0.0
215,53.5,19.6295,19.5672,174.582,106.034,105.307,0.000466385,0.0584909,20.926,157.157,0.0630438,0.0,0.0
258,64.25,19.2599,20.0859,173.769,105.947,104.608,0.000477977,0.057558,20.9264,156.987,0.116542,0.0,0.0
301,75,19.2343,20.2227,177.28,105.761,103.728,0.000717031,0.0572371,20.9289,156.747,0.177846,0.0,0.0
344,85.75,19.6161,19.7755,174.98,105.584,102.493,0.00099815,0.0588006,20.9277,156.507,0.272246,0.0,0.0
387,96.5,21.9725,22.0998,159.946,105.489,102.061,0.00137897,0.0596263,20.9281,155.586,0.302607,0.0,1.0
430,107.25,27.4668,27.4125,156.649,105.89,100.228,0.00231709,0.35379,20.6679,153.984,0.503547,0.0,0.0
473,118,32.7911,32.7596,153.387,106.221,101.886,0.00319534,0.461207,20.4749,152.383,0.38176,0.0,0.0
516,128.75,35.5604,35.8985,157.819,106.374,104.548,0.00302336,0.439953,20.4711,150.932,0.158639,0.0,0.0
559,139.5,37.3486,38.0831,156.44,106.4,104.58,0.00247791,0.380944,20.5329,149.671,0.158075,0.0,0.0
602,150.25,37.9131,39.3512,160.273,106.302,104.961,0.0018644,0.334156,20.5969,148.62,0.116308,0.0,0.0
645,161,37.9426,39.9809,158.738,106.181,105.01,0.00188041,0.305106,20.639,147.619,0.101667,0.0,0.0
688,171.75,38.357,40.8059,162.809,106.066,105.048,0.00150564,0.295766,20.6517,146.598,0.0883825,0.0,0.0
731,182.5,38.4882,40.8163,162.421,105.938,104.889,0.00158162,0.284836,20.6624,145.637,0.091186,0.0,0.0
774,193.25,38.4667,40.9184,162.757,105.865,104.715,0.00161587,0.270098,20.6822,144.706,0.100119,0.0,0.0
817,204,38.2097,41.058,162.635,105.939,104.794,0.00158335,0.26393,20.6888,143.836,0.0995439,0.0,0.0
860,214.75,37.7892,41.1119,155.942,106.049,104.905,0.00154397,0.259742,20.6951,142.905,0.0994218,0.0,0.0
903,225.5,38.8854,40.6023,167.39,106.297,104.988,0.00163868,0.255733,20.7019,142.044,0.1135,0.0,0.0
946,236.25,38.245,40.6168,162.025,106.556,105.301,0.00177667,0.250652,20.7057,141.053,0.108591,0.0,0.0
989,247,38.0552,40.3306,162.814,106.728,105.233,0.00147836,0.247087,20.7122,140.182,0.129298,0.0,0.0
1032,257.75,37.8239,40.4186,165.15,106.693,105.397,0.00194226,0.239967,20.7187,139.492,0.111957,0.0,0.0
1075,268.5,37.2885,39.6145,161.392,106.341,104.771,0.00169899,0.236666,20.7231,138.651,0.136271,0.0,0.0
1118,279.25,37.227,39.5188,162.022,105.989,104.723,0.0018979,0.235549,20.7244,137.86,0.1101,0.0,0.0
1161,290,37.5057,39.4229,159.44,105.738,104.152,0.00205208,0.237934,20.7229,137.03,0.1385,0.0,0.0
1204,300.75,37.0569,39.2715,164.092,105.776,104.177,0.00195489,0.232445,20.7255,136.169,0.139575,0.0,0.0
1247,311.5,36.5617,38.9396,168.487,106.043,104.478,0.00224216,0.23315,20.7282,135.398,0.136195,0.0,0.0
1290,322.25,36.7397,38.6028,164.731,106.295,105.086,0.00213542,0.232702,20.7286,134.567,0.104826,0.0,0.0
1333,333,36.1481,38.4463,167.104,106.599,105.449,0.00172613,0.233685,20.7269,133.707,0.0994002,0.0,0.0
1376,343.75,36.5446,38.2648,166.398,106.734,105.561,0.0018911,0.23149,20.7276,132.916,0.101231,0.0,0.0
1419,354.5,36.2608,37.8159,164.32,106.497,105.296,0.00195839,0.227824,20.7332,132.135,0.103868,0.0,0.0
1462,365.25,35.9518,38.1479,163.285,105.938,104.665,0.00240271,0.224987,20.7352,131.425,0.110834,0.0,0.0
1505,376,35.85,37.9045,170.06,106.393,105.332,0.0022206,0.221227,20.7389,130.674,0.0918413,0.0,0.0
1548,386.75,35.9444,37.6106,167.744,105.834,104.701,0.00260103,0.219584,20.7416,129.913,0.0986309,0.0,0.0
1591,397.5,35.69,37.4566,167.66,105.701,104.842,0.00229502,0.218876,20.743,129.193,0.0747518,0.0,0.0
1634,408.25,35.5144,36.7327,168.199,106.032,105.198,0.00257586,0.218177,20.7421,128.452,0.0723626,0.0,0.0
1677,419,35.5122,37.0266,164.764,105.801,104.856,0.00227324,0.218885,20.7468,127.701,0.0821905,0.0,0.0
1720,429.75,35.3121,36.9882,168.553,105.102,104.398,0.00269353,0.218664,20.7479,126.871,0.0616151,0.0,0.0
1763,440.5,35.2596,36.7758,162.805,104.642,103.909,0.00260799,0.218189,20.7461,126.1,0.0644366,0.0,0.0
1806,451.25,35.0213,36.6348,166.24,105.018,103.985,0.00225085,0.217454,20.7471,125.329,0.0905631,0.0,0.0
1849,462,34.8443,36.9336,167.577,105.878,105.063,0.00257512,0.219208,20.7451,124.629,0.070737,0.0,0.0
1892,472.75,35.1528,36.5182,166.882,106.628,105.969,0.00232903,0.221286,20.7431,123.918,0.0567945,0.0,0.0
1935,483.5,34.3288,36.4275,170.765,106.672,105.853,0.00226011,0.223087,20.7421,123.158,0.0706199,0.0,0.0
1978,494.25,35.4449,37.0804,165.011,106.115,105.559,0.00243271,0.223781,20.7402,122.357,0.0481292,0.0,0.0
2021,505,35.0907,36.8358,165.5,106.288,105.729,0.00211523,0.228265,20.734,121.626,0.048252,0.0,0.0
2064,515.75,35.3306,36.8184,161.028,106.14,105.391,0.00231344,0.231821,20.73,120.805,0.0649073,0.0,0.0
2107,526.5,35.7373,36.6597,164.949,105.645,105.101,0.00202138,0.23543,20.7253,120.035,0.0472773,0.0,0.0
2150,537.25,35.7824,36.6208,165.177,106.001,105.142,0.00193819,0.240211,20.7205,119.224,0.0745969,0.0,0.0
2193,548,36.0466,37.2212,163.862,105.367,104.627,0.00133893,0.243058,20.7172,118.323,0.0645493,0.0,0.0
2236,558.75,36.3596,37.5951,163.201,104.587,103.968,0.00148427,0.244135,20.7172,117.543,0.0544061,0.0,0.0
2279,569.5,36.8023,38.1312,164.184,105.623,105.044,0.00118489,0.248785,20.7102,116.792,0.0503237,0.0,0.0
2322,580.25,36.2056,38.1124,158.594,106.741,105.765,0.00139676,0.252566,20.7078,115.971,0.0840977,0.0,0.0
2365,591,37.4776,38.0911,161.099,106.311,105.582,0.00115519,0.259143,20.7028,115.141,0.0630189,0.0,0.0
2408,601.75,37.9383,38.6574,162.155,106.135,105.355,0.00122681,0.264621,20.6949,114.29,0.06759,0.0,0.0
2451,612.5,38.2151,38.9904,165.163,106.363,105.451,0.00163251,0.272675,20.6862,113.349,0.0788807,0.0,0.0
2494,623.25,38.2366,40.59,161.215,105.63,104.676,0.00162107,0.278274,20.6783,112.438,0.0831236,0.0,0.0
2537,634,39.1141,40.4593,159.08,105.677,104.805,0.0013239,0.28606,20.6714,111.457,0.0759619,0.0,0.0
2580,644.75,39.6007,41.3281,161.701,105.851,104.041,0.00168518,0.296762,20.6565,110.446,0.158029,0.0,0.0
2623,655.5,40.3196,41.9938,160.906,105.904,104.451,0.00147308,0.302592,20.649,109.436,0.126555,0.0,0.0
2666,666.25,40.5918,42.5451,160.304,105.915,104.394,0.00161069,0.312006,20.6385,108.395,0.132495,0.0,0.0
2709,677,41.5272,43.1671,161.999,105.927,103.771,0.00200297,0.323364,20.6294,107.364,0.188478,0.0,0.0
2752,687.75,41.9621,44.0632,157.468,105.881,103.521,0.0017654,0.333333,20.6144,106.223,0.206541,0.0,0.0
2795,698.5,43.4896,44.9043,155.949,105.775,102.589,0.00160146,0.346614,20.5987,105.062,0.280286,0.0,0.0
2838,709.25,44.0148,46.0131,157.016,105.661,102.917,0.0024726,0.35605,20.5856,103.851,0.241118,0.0,0.0
2881,720,45.0693,46.6853,160.456,105.561,102.233,0.00218165,0.372664,20.5715,102.62,0.293529,0.0,0.0
2924,730.75,45.4039,47.5363,156.191,105.956,101.598,0.00227372,0.378223,20.5582,101.318,0.384817,0.0,0.0
2967,741.5,46.4961,48.1904,157.276,106.354,102.744,0.00258251,0.383915,20.5496,100.037,0.316447,0.0,0.0
3010,752.25,47.0459,49.0087,159.077,106.411,102.209,0.00235311,0.382363,20.5445,98.6861,0.369147,0.0,0.0
3053,763,47.4095,49.2462,158.782,106.052,101.463,0.00235643,0.382232,20.5452,97.5452,0.405303,0.0,0.0
3096,773.75,47.4294,49.9713,159.095,106.017,101.036,0.00263194,0.377149,20.5538,96.3641,0.440976,0.0,0.0
3139,784.5,47.5019,50.125,159.275,106.38,102.146,0.00238097,0.373952,20.5512,95.2231,0.372103,0.0,0.0
3182,795.25,47.0595,49.4527,162.281,106.689,103.234,0.00247117,0.351277,20.5712,94.2723,0.301555,0.0,0.0
3225,806,45.5106,48.2973,166.007,106.74,103.92,0.00219847,0.299335,20.6243,93.5316,0.245336,0.0,0.0
3268,816.75,43.5053,46.5659,163.928,106.543,104.695,0.00263043,0.241691,20.6893,93.0512,0.160288,0.0,0.0
3311,827.5,41.3788,43.8611,173.987,106.031,104.474,0.00303078,0.187921,20.7514,92.7209,0.135529,0.0,0.0
3354,838.25,39.0352,41.2799,170.575,105.443,105.167,0.00441396,0.145271,20.8075,92.4807,0.0240602,0.0,0.0
3397,849,36.7341,38.7626,170.68,104.961,104.552,0.00560254,0.119277,20.8431,92.2105,0.0357583,0.0,0.0
3440,859.75,34.2864,36.6795,173.342,104.654,104.583,0.00639047,0.106635,20.863,92.0704,0.00624229,0.0,0.0
3483,870.5,32.9724,34.7698,174.26,104.578,104.437,0.00660716,0.103755,20.8686,91.9803,0.0124291,0.0,0.0
3526,881.25,31.3299,33.1451,168.88,104.704,104.657,0.00654574,0.0995856,20.8741,91.8602,0.0040743,0.0,0.0
3569,892,30.0863,32.0162,173.186,105.01,105.145,0.00681564,0.1054,20.8714,91.7301,-0.0117433,0.0,0.0
3612,902.75,28.2729,29.765,170.262,105.371,105.23,0.00682823,0.103962,20.8678,91.62,0.0122687,0.0,0.0
3655,913.5,27.5046,28.4697,175.431,105.73,105.818,0.00727692,0.0984368,20.8775,91.4899,-0.00760197,0.0,0.0
3698,924.25,26.7411,27.5921,166.448,105.943,106.021,0.00736068,0.0949337,20.8802,91.3397,-0.00675481,0.0,0.0
3741,935,26.2462,27.0331,172.692,106.001,106.142,0.00688757,0.0911136,20.886,91.2597,-0.0122376,0.0,0.0
3784,945.75,25.6131,26.7458,172.469,105.965,106.122,0.0069286,0.091751,20.8854,91.1195,-0.0135983,0.0,0.0
3827,956.5,25.0884,25.3828,173.043,105.853,105.847,0.00638722,0.0906165,20.8855,90.9494,0.000458736,0.0,0.0
3870,967.25,25.0174,25.354,178.587,105.712,105.786,0.00621496,0.0899142,20.8901,90.8693,-0.00641487,0.0,0.0
3913,978,24.1212,24.5397,173.429,105.583,105.626,0.00605868,0.0892693,20.8878,90.8193,-0.00378435,0.0,0.0
3956,988.75,23.6918,24.2993,170.133,105.511,105.778,0.00622338,0.0892894,20.8898,90.6992,-0.0232076,0.0,0.0
3999,999.5,23.4654,23.8463,177.725,105.924,106.224,0.00582038,0.0886128,20.8896,90.6491,-0.0259598,0.0,0.0
4042,1010.25,23.2719,23.4458,174.493,106.304,106.444,0.00573548,0.0891584,20.8895,90.499,-0.0121069,0.0,0.0
4076,1018.75,23.3553,23.3674,178.766,106.397,106.689,0.00574933,0.0892263,20.8894,90.3689,-0.0251169,0.0,0.0