File: 01_Data/Basswood_Panel/Cone/Basswood_Panel_Cone_HF75Scan_221219_R2.csv
Names,Time,Stack TC,Smoke TC,Exh Press,Smoke Comp,Smoke Meas,CO Meter,CO2 Meter,O2 Meter,Sample Mass,Ext Coeff,Start Test,Flame Verif
Chan Gain,,500,500,1,1,1,1,1,1,1,1,1.0,1.0
Offset,,0,0,0.136803,0,0,0,0,0,0,0,0.0,0.0
Gain,,1,1,25.011,13.2421,13.1342,1,1,1,1.00087,1.04452,1.0,1.0
Units,sec,C,C,Pa,%,%,%,%,%,g,/m,,
Baseline,,40.4615,40.5405,153.112,98.8259,98.6269,-0.000936657,0.0570452,20.929,-445.466,0.0184672,,
26,6.25,39.9105,39.5739,136.529,98.8186,95.9036,-0.00065562,0.0660409,20.9211,157.067,0.274347,0.0,1.0
52,12.75,44.4985,43.9852,125.854,98.8384,88.9393,-0.000665403,0.0767134,20.914,155.656,0.96694,0.0,1.0
78,19.25,52.5762,51.4915,126.541,98.8392,88.6816,0.00146982,0.532667,20.6665,154.145,0.993604,0.0,0.0
104,25.75,58.3901,57.7501,127.741,98.8671,89.4443,0.00451529,0.785316,20.1608,152.693,0.917718,0.0,0.0
130,32.25,62.7264,62.744,128.213,98.8513,89.4131,0.00599636,0.80448,20.0339,151.092,0.919461,0.0,0.0
156,38.75,66.6158,66.9768,127.606,98.8639,90.2243,0.006006,0.775218,20.0486,149.741,0.837862,0.0,0.0
182,45.25,69.7068,70.7877,132.047,98.8412,90.547,0.0059191,0.738162,20.0896,148.35,0.803056,0.0,0.0
208,51.75,71.3348,73.3364,126.18,98.8356,91.7787,0.00527177,0.701101,20.1346,147.078,0.678732,0.0,0.0
234,58.25,73.1581,75.2916,128.877,98.7988,92.2577,0.00476725,0.665554,20.1798,145.907,0.627628,0.0,0.0
260,64.75,74.017,77.098,135.182,98.7798,92.8994,0.00439324,0.634184,20.2175,144.576,0.562356,0.0,0.0
286,71.25,74.8987,78.3274,126.187,98.7839,93.0413,0.00399963,0.613079,20.2532,143.415,0.548746,0.0,0.0
312,77.75,75.6649,79.1936,127.776,98.7576,93.5063,0.0036042,0.60248,20.2672,142.274,0.500636,0.0,0.0
338,84.25,76.6144,80.6746,131.068,98.7491,93.5464,0.00344365,0.588621,20.2816,141.163,0.495922,0.0,0.0
364,90.75,77.3168,81.7045,134.381,98.756,92.9459,0.00332608,0.575807,20.3014,139.982,0.555558,0.0,0.0
390,97.25,76.9519,81.8591,132.695,98.7422,92.6842,0.00322848,0.568045,20.309,138.831,0.580121,0.0,0.0
416,103.75,78.4044,82.8957,133.354,98.76,93.2197,0.00327345,0.559,20.3218,137.8,0.528986,0.0,0.0
442,110.25,78.2367,82.9964,130.993,98.7394,93.6297,0.00316728,0.547201,20.3348,136.739,0.48686,0.0,0.0
468,116.75,78.3379,83.6775,135.914,98.7455,93.8634,0.00315458,0.536465,20.3475,135.638,0.464583,0.0,0.0
494,123.25,78.8089,83.911,130.973,98.7576,94.1043,0.00279775,0.528445,20.3597,134.567,0.442222,0.0,0.0
520,129.75,78.4004,83.3075,130.839,98.7624,93.6125,0.00280212,0.514158,20.3732,133.527,0.490684,0.0,0.0
546,136.25,78.2308,83.4074,132.348,98.7875,93.5387,0.00253833,0.501885,20.3889,132.656,0.500229,0.0,0.0
572,142.75,78.5317,83.9171,131.499,98.8008,94.1324,0.0026973,0.504447,20.3969,131.525,0.443502,0.0,0.0
598,149.25,78.0277,83.9294,134.104,98.84,94.1981,0.00264786,0.495204,20.399,130.664,0.440741,0.0,0.0
624,155.75,78.3569,83.905,131.468,98.8538,93.6193,0.00264233,0.491121,20.4085,129.643,0.498485,0.0,0.0
650,162.25,78.3568,83.6229,131.347,98.8724,94.3616,0.00247026,0.485614,20.4181,128.582,0.427843,0.0,0.0
676,168.75,78.0118,83.2094,134.953,98.9043,93.8907,0.00242786,0.484622,20.4184,127.671,0.476648,0.0,0.0
702,175.25,77.8051,83.1625,133.481,98.9253,94.6522,0.0023853,0.479909,20.4232,126.741,0.404575,0.0,0.0
728,181.75,78.3913,83.4815,130.075,98.9726,93.7985,0.00233828,0.477905,20.4247,125.73,0.491974,0.0,0.0
754,188.25,78.2085,83.2661,135.045,98.9734,94.5075,0.00233943,0.476357,20.4286,124.759,0.423046,0.0,0.0
780,194.75,78.5802,83.3445,135.342,99.0259,94.7248,0.00228641,0.471164,20.4319,123.918,0.406869,0.0,0.0
806,201.25,78.4211,83.2676,135.065,99.0675,94.3953,0.00240245,0.467961,20.4417,122.897,0.442645,0.0,0.0
832,207.75,77.9405,83.2358,133.114,99.127,94.2378,0.00238412,0.46728,20.4433,121.966,0.463442,0.0,0.0
858,214.25,78.0983,83.2072,131.738,99.2288,93.9315,0.00229595,0.467165,20.4383,121.126,0.502672,0.0,0.0
884,220.75,78.017,82.9952,134.431,99.2934,94.6029,0.00209353,0.459749,20.445,120.205,0.443384,0.0,0.0
910,227.25,77.9081,82.8862,132.69,99.3759,95.1412,0.00207773,0.466139,20.4441,119.204,0.398999,0.0,0.0
936,233.75,78.2537,83.0134,132.715,99.4393,95.5617,0.00224948,0.458133,20.4457,118.323,0.364444,0.0,0.0
962,240.25,77.6757,82.6332,128.63,99.451,94.9537,0.00243697,0.454385,20.4537,117.463,0.42401,0.0,0.0
988,246.75,77.6002,82.4519,134.467,99.4967,94.8731,0.0021236,0.451888,20.4579,116.522,0.435994,0.0,0.0
1014,253.25,77.8923,83.1743,130.953,99.5101,94.4218,0.00209062,0.45456,20.4584,115.591,0.480913,0.0,0.0
1040,259.75,78.3169,82.6143,134.243,99.5489,95.3982,0.00219757,0.456031,20.4555,114.75,0.390223,0.0,0.0
1066,266.25,77.4491,82.1412,133.621,99.5723,94.1973,0.0023593,0.458278,20.4525,113.759,0.508449,0.0,0.0
1092,272.75,78.5256,83.2869,132.707,99.6099,94.1572,0.00251746,0.461941,20.4493,112.849,0.515807,0.0,0.0
1118,279.25,78.2276,82.7731,137.77,99.6891,95.027,0.00262902,0.463326,20.4418,112.068,0.438839,0.0,0.0
1144,285.75,77.9291,82.8648,130.689,99.7194,94.5464,0.00237533,0.462584,20.4434,111.137,0.48808,0.0,0.0
1170,292.25,78.4573,82.7459,130.394,99.8063,94.7284,0.00282121,0.458875,20.4464,110.216,0.478441,0.0,0.0
1196,298.75,78.6316,83.0979,132.379,99.8822,94.1095,0.00269944,0.460727,20.4456,109.275,0.545469,0.0,0.0
1222,305.25,77.8152,82.8244,132.918,99.9695,94.257,0.00262067,0.460504,20.4451,108.525,0.539123,0.0,0.0
1248,311.75,78.1368,82.7509,129.945,100.033,94.235,0.00230566,0.461534,20.4435,107.604,0.547042,0.0,0.0
1274,318.25,78.1327,82.9745,131.64,100.049,93.2882,0.00284092,0.456288,20.4462,106.673,0.641041,0.0,0.0
1300,324.75,78.3553,82.9889,130.885,100.076,94.1255,0.00278955,0.458545,20.4493,105.902,0.561685,0.0,0.0
1326,331.25,78.8372,83.0203,129.574,100.063,93.8762,0.00289049,0.460977,20.4467,105.052,0.584802,0.0,0.0
1352,337.75,78.151,83.1718,136.275,100.062,93.8698,0.00279211,0.460732,20.4452,104.221,0.585353,0.0,0.0
1378,344.25,78.5912,83.0635,137.187,100.039,93.7728,0.0027061,0.463092,20.4421,103.28,0.59268,0.0,0.0
1404,350.75,78.744,82.7216,137.29,100.026,92.5323,0.00291976,0.466283,20.443,102.459,0.713519,0.0,0.0
1430,357.25,78.5794,83.1881,127.385,100.023,93.198,0.00311082,0.476237,20.4278,101.629,0.647571,0.0,0.0
1456,363.75,79.0753,82.9798,134.015,100.001,93.1576,0.00325239,0.478079,20.4257,100.668,0.649552,0.0,0.0
1482,370.25,79.4417,83.8528,135.52,100.017,92.1403,0.00341722,0.490048,20.4129,99.7371,0.751566,0.0,0.0
1508,376.75,79.211,83.2847,131.719,99.9982,91.2733,0.00337363,0.494702,20.406,98.8863,0.836484,0.0,0.0
1534,383.25,79.9041,84.2614,134.669,99.9841,92.4814,0.00352085,0.499337,20.4026,97.9255,0.71471,0.0,0.0
1560,389.75,80.4578,83.9023,133.594,99.9813,91.7527,0.00389835,0.512254,20.3869,96.9847,0.786931,0.0,0.0
1586,396.25,80.692,84.5257,132.318,99.9546,91.3426,0.00339153,0.513525,20.3782,96.0138,0.825526,0.0,0.0
1612,402.75,80.9617,85.0673,131.18,99.9639,91.8276,0.00378525,0.519244,20.373,95.2031,0.777856,0.0,0.0
1638,409.25,81.0991,85.5424,130.79,99.9295,90.5847,0.00373161,0.522826,20.3657,94.1522,0.899576,0.0,0.0
1664,415.75,81.4153,85.4318,128.37,99.9251,89.8872,0.00359292,0.520995,20.3622,93.2714,0.969986,0.0,0.0
1690,422.25,81.9372,85.8851,136.342,99.919,91.2156,0.0038793,0.515347,20.3635,92.5007,0.835019,0.0,0.0
1716,428.75,80.5397,85.3203,134.73,99.8855,92.1815,0.0034384,0.494539,20.3771,91.7301,0.735422,0.0,0.0
1742,435.25,80.2039,84.6479,139.849,99.8915,95.5717,0.00296827,0.442563,20.4176,91.2196,0.405056,0.0,0.0
1768,441.75,77.8082,82.4486,142.652,99.8758,98.1097,0.00219239,0.368574,20.4851,90.9194,0.163464,0.0,0.0
1794,448.25,75.4723,80.3328,144.097,99.8693,99.1635,0.00124913,0.26574,20.5896,90.7993,0.0649843,0.0,0.0
1820,454.75,73.0418,77.5114,141.775,99.8608,98.9643,0.00057899,0.184207,20.7146,90.6191,0.08263,0.0,0.0
1846,461.25,70.2348,74.8232,142.947,99.8483,99.1463,0.000216787,0.151084,20.7813,90.519,0.064648,0.0,0.0
1872,467.75,68.8589,73.1266,148.103,99.8608,99.0878,0.000562418,0.138386,20.8056,90.489,0.0712085,0.0,0.0
1898,474.25,67.1831,70.8414,148.029,99.8536,99.1214,0.000767458,0.13315,20.816,90.3489,0.0674274,0.0,0.0
1924,480.75,65.5162,68.879,144.211,99.8523,99.1695,0.000642513,0.132133,20.8191,90.2888,0.0628713,0.0,0.0
1950,487.25,63.6361,67.4449,143.74,99.8305,99.1178,0.000917188,0.129562,20.8225,90.1987,0.0656469,0.0,0.0
1976,493.75,62.3071,65.4004,147.557,99.8309,99.0264,0.00111237,0.127159,20.8274,90.0986,0.0741364,0.0,0.0
2002,500.25,61.0892,63.6405,148.779,99.8043,99.0364,0.00151116,0.129535,20.8279,90.0686,0.0707608,0.0,0.0
2028,506.75,60.2441,62.6889,149.897,99.7966,99.0765,0.00191685,0.13262,20.8225,89.9785,0.0663485,0.0,0.0
2054,513.25,58.9321,61.5206,145.846,99.8055,99.01,0.00238287,0.128575,20.8226,89.9485,0.0733195,0.0,0.0
2080,519.75,57.7771,60.7265,146.854,99.7792,99.1607,0.00207211,0.124381,20.8305,89.7884,0.0569715,0.0,0.0
2106,526.25,57.6615,59.5513,145.358,99.7683,99.1375,0.00244567,0.123791,20.8328,89.7784,0.0581177,0.0,0.0
2132,532.75,57.2123,59.3584,147.344,99.7562,99.0044,0.00245361,0.123286,20.8343,89.7283,0.0693127,0.0,0.0
2158,539.25,56.274,58.0665,146.377,99.721,99.0136,0.00243225,0.124105,20.8338,89.5782,0.0652283,0.0,0.0
2184,545.75,56.1597,57.4212,148.095,99.7113,99.0312,0.00299792,0.124487,20.8357,89.5982,0.0627054,0.0,0.0
2210,552.25,53.9649,55.8838,150.07,99.6842,98.9302,0.00328113,0.124233,20.836,89.4681,0.0695674,0.0,0.0
2236,558.75,53.7904,55.981,144.734,99.683,99.0886,0.00343363,0.124749,20.8349,89.4481,0.0548046,0.0,0.0
2262,565.25,54.0306,55.8116,151.834,99.6576,98.9118,0.00384525,0.12322,20.8348,89.338,0.0688238,0.0,0.0
2288,571.75,53.1044,54.7803,147.896,99.647,99.03,0.0041448,0.12341,20.8359,89.308,0.0569107,0.0,0.0
2314,578.25,52.9207,53.9276,151.846,99.658,99.0637,0.00460697,0.123307,20.8365,89.2279,0.0547992,0.0,0.0
2340,584.75,52.8302,53.9699,148.103,99.6523,98.9595,0.00496597,0.123681,20.8358,89.1178,0.0639235,0.0,0.0
2366,591.25,52.2454,53.4297,145.944,99.6721,98.9627,0.00479659,0.123398,20.8372,89.1478,0.0654473,0.0,0.0
2392,597.75,51.7649,53.2045,144.068,99.6628,99.028,0.00504498,0.124065,20.8358,88.9476,0.0585453,0.0,0.0
2418,604.25,51.4899,52.1377,149.672,99.6644,99.1735,0.00508977,0.122868,20.8368,88.8676,0.0452418,0.0,0.0
2436,608.75,52.0155,52.8387,149.379,99.677,99.2761,0.00547924,0.122867,20.8401,88.8476,0.036918,0.0,0.0