File: 01_Data/Basswood_Panel/Cone/Basswood_Panel_Cone_HF25Scan_221212_R3.csv
Names,Time,Stack TC,Smoke TC,Exh Press,Smoke Comp,Smoke Meas,CO Meter,CO2 Meter,O2 Meter,Sample Mass,Ext Coeff,Start Test,Flame Verif
Chan Gain,,500,500,1,1,1,1,1,1,1,1,1.0,1.0
Offset,,0,0,0.136389,0,0,0,0,0,0,0,0.0,0.0
Gain,,1,1,25.011,14.2696,296.664,1,1,1,1.0009,1.04656,1.0,1.0
Units,sec,C,C,Pa,%,%,%,%,%,g,/m,,
Baseline,,21.8294,22.4432,162.486,106.183,108.79,0.000530139,0.0621582,20.9623,-445.043,-0.222628,,
45,11,19.9569,20.4457,164.182,107.314,109.665,5.96531e-05,0.0604868,20.966,158.572,-0.19888,0.0,0.0
90,22.25,20.428,20.8604,161.402,107.342,109.755,9.61084e-05,0.0577369,20.9708,158.512,-0.204108,0.0,0.0
135,33.5,20.1673,20.9337,160.278,107.037,108.578,0.000320621,0.0552537,20.976,158.392,-0.131278,0.0,0.0
180,44.75,20.0054,20.8372,162.979,106.659,109.04,0.000476794,0.0558597,20.9731,158.252,-0.202711,0.0,0.0
225,56,20.7504,21.0888,160.098,106.77,109.266,0.000580907,0.0580028,20.9704,158.112,-0.212194,0.0,0.0
270,67.25,20.3897,21.3137,164.829,106.904,108.986,0.000714269,0.0598524,20.9692,157.891,-0.17702,0.0,0.0
315,78.5,20.9398,21.319,156.726,106.048,107.039,0.000945242,0.0616273,20.9665,157.731,-0.0853556,0.0,0.0
360,89.75,21.2739,21.5211,160.684,106.416,106.695,0.00114128,0.0616634,20.9673,157.491,-0.0240027,0.0,0.0
405,101,21.1397,21.8403,161.489,106.677,107.012,0.00175883,0.0625449,20.9672,157.251,-0.0287511,0.0,0.0
450,112.25,20.9249,22.1334,162.435,106.169,107.519,0.00234736,0.069882,20.9618,156.941,-0.115981,0.0,0.0
495,123.5,27.757,27.4962,141.045,105.45,118.374,0.00330277,0.445138,20.5369,155.359,-1.06135,0.0,0.0
540,134.75,35.33,36.0586,139.626,105.43,119.705,0.00339894,0.528696,20.4338,153.658,-1.16573,0.0,0.0
585,146,40.7901,42.0983,141.911,106.198,118.627,0.00303852,0.48168,20.4881,151.956,-1.01612,0.0,0.0
630,157.25,43.6156,45.8095,144.057,107.098,120.646,0.00241815,0.412345,20.5724,150.585,-1.09353,0.0,0.0
675,168.5,44.7529,47.6412,145.951,107.376,121.063,0.00212497,0.376003,20.6112,149.324,-1.10138,0.0,0.0
720,179.75,45.05,48.5472,145.734,106.958,120.728,0.00191148,0.344252,20.6467,148.063,-1.11175,0.0,0.0
765,191,44.8413,48.9536,148.976,106.474,119.94,0.00175857,0.330557,20.6618,147.032,-1.09332,0.0,0.0
810,202.25,44.7755,48.6158,148.577,106.997,118.618,0.0016612,0.315925,20.6786,145.961,-0.946601,0.0,0.0
855,213.5,43.7426,48.8408,151.405,106.33,119.913,0.00180253,0.306054,20.6882,144.94,-1.10368,0.0,0.0
900,224.75,44.2203,48.4323,150.738,106.318,119.976,0.00192898,0.296938,20.6998,143.959,-1.10954,0.0,0.0
945,236,44.029,47.7501,148.545,106.654,121.28,0.00202531,0.291737,20.7063,142.898,-1.17978,0.0,0.0
990,247.25,43.4833,47.5526,152.115,106.521,120.094,0.00174123,0.286214,20.7136,142.007,-1.10107,0.0,0.0
1035,258.5,42.6821,47.1435,151.37,105.919,119.134,0.00203687,0.275415,20.7248,141.076,-1.07943,0.0,0.0
1080,269.75,42.4964,46.5777,151.145,105.389,119.08,0.00180852,0.268525,20.7326,140.176,-1.12126,0.0,0.0
1125,281,42.2282,45.3265,151.192,105.353,120.284,0.0018975,0.265085,20.7373,139.295,-1.21681,0.0,0.0
1170,292.25,41.6905,45.6869,153.207,105.93,119.297,0.00190051,0.260025,20.7426,138.364,-1.09096,0.0,0.0
1215,303.5,41.3535,44.971,154.483,106.744,120.158,0.0022118,0.258689,20.7437,137.573,-1.08665,0.0,0.0
1260,314.75,41.0517,44.3836,151.499,107.276,120.9,0.00221829,0.253933,20.7487,136.662,-1.09754,0.0,0.0
1305,326,40.6174,44.494,150.438,107.351,120.013,0.00192637,0.254285,20.7481,135.872,-1.02351,0.0,0.0
1350,337.25,40.3908,43.989,151.402,106.981,119.913,0.00177904,0.253603,20.7505,135.011,-1.0476,0.0,0.0
1395,348.5,40.6238,43.5617,155.621,106.526,119.804,0.00185796,0.250442,20.7532,134.13,-1.07845,0.0,0.0
1440,359.75,40.5765,43.4448,154.289,106.931,119.786,0.00224718,0.246792,20.7559,133.38,-1.04223,0.0,0.0
1485,371,40.1486,43.2527,155.996,106.842,119.451,0.00180408,0.247999,20.7557,132.569,-1.02411,0.0,0.0
1530,382.25,40.3803,42.5444,153.133,106.083,119.424,0.00219745,0.24612,20.7581,131.748,-1.08748,0.0,0.0
1575,393.5,39.7991,42.8358,148.726,106.32,118.836,0.00175499,0.247165,20.756,130.897,-1.02165,0.0,0.0
1620,404.75,39.7922,43.1009,152.266,106.595,119.832,0.00156301,0.245298,20.7574,130.047,-1.0746,0.0,0.0
1665,416,39.878,42.4595,149.684,106.614,120.855,0.00176706,0.24447,20.7588,129.266,-1.151,0.0,0.0
1710,427.25,39.5803,42.5193,149.484,106.285,119.433,0.001876,0.245492,20.7562,128.455,-1.07074,0.0,0.0
1755,438.5,39.4695,42.2675,150.989,105.769,120.221,0.00229252,0.244944,20.7579,127.654,-1.17573,0.0,0.0
1800,449.75,39.7455,42.3287,156.81,105.355,118.048,0.00218653,0.246184,20.7563,126.864,-1.04434,0.0,0.0
1845,461,39.2339,42.2375,153.12,105.241,117.876,0.00201552,0.24584,20.7573,125.983,-1.0409,0.0,0.0
1890,472.25,39.8159,42.1118,153.554,105.459,118.139,0.00196853,0.243955,20.7568,125.262,-1.04228,0.0,0.0
1935,483.5,39.581,41.9325,159.016,105.893,119.116,0.00204616,0.243923,20.7566,124.472,-1.08023,0.0,0.0
1980,494.75,39.5463,42.2846,150.187,106.478,120.592,0.002105,0.243191,20.7586,123.701,-1.1427,0.0,0.0
2025,506,39.5325,41.9213,151.344,106.954,121.172,0.0019912,0.246163,20.7533,122.92,-1.14576,0.0,0.0
2070,517.25,39.9068,41.8277,148.057,107.27,121.208,0.00190309,0.248248,20.7523,122.049,-1.12144,0.0,0.0
2115,528.5,39.4265,42.5801,150.57,107.356,120.52,0.00192062,0.247739,20.7512,121.349,-1.0618,0.0,0.0
2160,539.75,39.7528,42.5591,147.482,107.242,122.321,0.00199495,0.251219,20.7508,120.508,-1.20779,0.0,0.0
2205,551,39.9827,42.0089,149.835,107.02,121.072,0.00156799,0.251478,20.7503,119.737,-1.13261,0.0,0.0
2250,562.25,39.9307,42.1354,148.023,106.73,121.57,0.00190843,0.255892,20.7449,118.887,-1.19512,0.0,0.0
2295,573.5,40.3338,42.5559,150.394,106.509,120.999,0.00187013,0.255022,20.7474,118.056,-1.17103,0.0,0.0
2340,584.75,40.6757,42.9135,151.111,106.649,120.855,0.00158143,0.258478,20.741,117.325,-1.14796,0.0,0.0
2385,596,40.4848,42.9683,150.113,106.885,119.424,0.00174742,0.259942,20.7391,116.454,-1.01832,0.0,0.0
2430,607.25,40.6206,43.9581,155.91,107.014,121.651,0.00173031,0.263216,20.7366,115.704,-1.17688,0.0,0.0
2475,618.5,41.5012,43.4953,151.978,106.942,121.425,0.00127646,0.267049,20.7293,114.883,-1.16595,0.0,0.0
2520,629.75,41.0267,43.7152,149.609,106.615,121.208,0.00164963,0.272018,20.7237,113.952,-1.1777,0.0,0.0
2565,641,41.3472,44.4526,147.952,106.109,119.832,0.00133012,0.279019,20.7191,113.161,-1.11652,0.0,0.0
2610,652.25,42.0577,44.6493,147.381,106.206,121.968,0.00171259,0.285969,20.7104,112.261,-1.27036,0.0,0.0
2655,663.5,42.3505,45.2353,152.871,106.4,120.773,0.00161924,0.29635,20.6989,111.37,-1.16324,0.0,0.0
2700,674.75,43.4771,45.5675,150.873,106.535,120.565,0.00172493,0.308327,20.6857,110.429,-1.13575,0.0,0.0
2745,686,43.7736,46.5485,148.437,106.613,122.195,0.00166965,0.319684,20.6748,109.408,-1.25229,0.0,0.0
2790,697.25,44.2384,47.6241,146.111,106.543,123.29,0.00202343,0.330636,20.6635,108.407,-1.34023,0.0,0.0
2835,708.5,45.7307,48.4244,150.167,106.419,122.892,0.00217014,0.343895,20.6489,107.256,-1.32126,0.0,0.0
2880,719.75,45.8888,49.9981,150.158,106.224,122.231,0.00240062,0.353404,20.6381,106.195,-1.28852,0.0,0.0
2925,731,46.9777,50.1834,146.978,105.928,122.358,0.00226911,0.368603,20.6161,105.014,-1.32367,0.0,0.0
2970,742.25,49.0222,51.1912,144.232,105.545,123,0.00242872,0.376779,20.607,103.773,-1.40504,0.0,0.0
3015,753.5,48.9589,52.6419,141.776,105.255,122.52,0.00272838,0.385807,20.5936,102.602,-1.39442,0.0,0.0
3060,764.75,49.9046,53.581,147.578,105.159,121.199,0.00295671,0.386835,20.5887,101.401,-1.3032,0.0,0.0
3105,776,50.3324,54.2143,151.821,105.346,122.674,0.00253326,0.400053,20.5769,100.15,-1.39797,0.0,0.0
3150,787.25,52.0936,55.0814,139.663,105.795,121.878,0.00281036,0.41016,20.5653,98.8586,-1.29915,0.0,0.0
3195,798.5,52.4071,56.2386,140.357,106.311,122.638,0.00337502,0.425452,20.5424,97.5474,-1.31159,0.0,0.0
3240,809.75,53.4354,57.1823,143.524,106.688,122.883,0.00331472,0.429574,20.537,96.2462,-1.29739,0.0,0.0
3285,821,53.6274,57.9775,143.618,106.793,121.814,0.00317626,0.412056,20.5559,94.845,-1.20817,0.0,0.0
3330,832.25,53.9242,57.1961,145.471,106.778,121.597,0.00274894,0.366869,20.6076,93.8741,-1.19309,0.0,0.0
3375,843.5,52.4179,56.4321,148.352,106.573,118.166,0.00236253,0.303617,20.6783,93.0334,-0.947927,0.0,0.0
3420,854.75,49.9217,53.8827,149.061,106.194,119.542,0.0021018,0.244836,20.7464,92.4128,-1.08691,0.0,0.0
3465,866,47.3531,51.1405,151.725,105.696,116.563,0.00373234,0.199668,20.7961,91.9324,-0.89844,0.0,0.0
3510,877.25,44.0773,47.8677,156.608,105.239,117.26,0.00497785,0.163245,20.8374,91.5821,-0.992982,0.0,0.0
3555,888.5,41.1986,45.0703,160.298,105.23,118.492,0.00546515,0.141654,20.8627,91.3819,-1.08964,0.0,0.0
3600,899.75,38.7216,42.347,155.291,105.777,117.541,0.00553944,0.129163,20.8803,91.2017,-0.968095,0.0,0.0
3645,911,36.499,39.3486,155.962,106.439,118.003,0.00604942,0.12082,20.8891,90.9915,-0.946855,0.0,0.0
3690,922.25,35.2859,37.5447,163.064,106.546,117.939,0.00639232,0.117401,20.8942,90.8714,-0.932652,0.0,0.0
3735,933.5,33.9068,35.7437,157.193,106.175,116.835,0.00665171,0.110096,20.9027,90.6312,-0.878333,0.0,0.0
3780,944.75,32.2676,34.2002,158.395,106.819,116.772,0.00665801,0.109825,20.9038,90.6212,-0.817794,0.0,0.0
3825,956,30.7952,32.3189,155.956,106.73,117.632,0.0074068,0.105428,20.9076,90.451,-0.892876,0.0,0.0
3870,967.25,29.5994,31.407,156.641,106.993,117.84,0.00715442,0.104839,20.911,90.2809,-0.886479,0.0,0.0
3915,978.5,28.98,30.389,160.032,107.314,117.46,0.00686143,0.104268,20.9112,90.2309,-0.829312,0.0,0.0
3960,989.75,28.1446,29.1892,159.065,106.161,115.314,0.00656505,0.103832,20.9107,90.0307,-0.759242,0.0,0.0
4005,1001,27.1898,28.3328,159.998,105.236,115.214,0.0064106,0.104043,20.9106,89.9706,-0.831645,0.0,0.0
4050,1012.25,27.3009,27.5601,161.266,106.124,115.196,0.00623618,0.103799,20.9105,89.8805,-0.753031,0.0,0.0
4095,1023.5,27.0273,27.5864,157.414,106.547,115.386,0.00605326,0.104143,20.9107,89.7204,-0.731664,0.0,0.0
4140,1034.75,26.4667,27.2236,159.704,106.322,115.45,0.0060129,0.103431,20.9112,89.6804,-0.756086,0.0,0.0
4185,1046,25.8091,26.5393,157.741,106.625,117.441,0.00598467,0.10321,20.9121,89.5202,-0.886984,0.0,0.0
4230,1057.25,26.0005,26.2902,158.95,107.269,116.455,0.00606922,0.103051,20.9103,89.5202,-0.754306,0.0,0.0
4275,1068.5,26.0059,26.6862,161.729,106.567,115.739,,,,89.4301,-0.758025,0.0,0.0
4277,1069,25.6859,26.3167,158.653,106.48,115.54,,,,89.4101,-0.749719,0.0,0.0