File: 01_Data/Basswood_Panel/Cone/Basswood_Panel_Cone_HF50Scan_221212_R1.csv
Names,Time,Stack TC,Smoke TC,Exh Press,Smoke Comp,Smoke Meas,CO Meter,CO2 Meter,O2 Meter,Sample Mass,Ext Coeff,Start Test,Flame Verif
Chan Gain,,500,500,1,1,1,1,1,1,1,1,1.0,1.0
Offset,,0,0,0.136404,0,0,0,0,0,0,0,0.0,0.0
Gain,,1,1,25.011,13.2008,13.1217,1,1,1,1.00087,1.04452,1.0,1.0
Units,sec,C,C,Pa,%,%,%,%,%,g,/m,,
Baseline,,28.9997,29.7589,169.785,99.3834,99.2846,4.68862e-05,0.0445397,20.9467,-445.34,0.00912222,,
31,7.5,28.7878,29.7928,165.881,99.9365,98.4422,0.000184367,0.0484113,20.9408,159.309,0.13804,0.0,0.0
62,15.25,29.83,30.0465,157.811,100.407,98.0085,0.00020574,0.0487218,20.9416,158.879,0.221496,0.0,1.0
93,23,33.6799,33.4148,145.7,99.7488,94.0169,0.000238526,0.0867635,20.9438,157.668,0.542239,0.0,1.0
124,30.75,39.5019,39.3142,145.506,98.8947,91.3584,0.00305937,0.417726,20.6399,156.236,0.726276,0.0,0.0
155,38.5,43.699,43.8163,149.118,98.6534,91.8473,0.00447855,0.531449,20.4028,154.745,0.654984,0.0,0.0
186,46.25,48.3006,48.5033,151.017,98.9805,92.7651,0.00484534,0.547051,20.3546,153.364,0.594211,0.0,0.0
217,54,50.1348,50.6267,148.463,99.3983,93.6909,0.00467458,0.536886,20.3576,152.093,0.541811,0.0,0.0
248,61.75,53.1143,54.1644,148.573,99.7343,95.3928,0.00431393,0.513165,20.3836,150.922,0.407787,0.0,0.0
279,69.5,54.4441,56.6174,148.364,99.8737,95.8177,0.00390488,0.490098,20.4106,149.711,0.379867,0.0,0.0
310,77.25,55.7629,57.5092,153.907,99.8866,96.4676,0.00348725,0.473503,20.4391,148.56,0.319111,0.0,0.0
341,85,57.3607,58.8632,152.793,99.8354,96.993,0.00314948,0.453631,20.4574,147.429,0.264651,0.0,0.0
372,92.75,56.7928,60.0648,152.007,99.7597,97.0446,0.00309981,0.436934,20.4771,146.238,0.25282,0.0,0.0
403,100.5,58.0184,61.2347,150.985,99.6787,97.6301,0.00266881,0.424444,20.4961,145.217,0.190269,0.0,0.0
434,108.25,58.4736,61.8906,151.129,99.6525,97.7566,0.00237452,0.413742,20.5084,144.196,0.175995,0.0,0.0
465,116,58.4187,62.0664,149.182,99.6066,97.4951,0.0024359,0.399982,20.5261,143.355,0.196313,0.0,0.0
496,123.75,58.1649,62.311,144.88,99.5921,97.8231,0.00202533,0.386115,20.5395,142.294,0.164209,0.0,0.0
527,131.5,58.5945,62.518,148.969,99.5788,97.6029,0.00207114,0.38604,20.5473,141.293,0.183637,0.0,0.0
558,139.25,59.02,63.0974,152.754,99.6118,97.4499,0.00174492,0.372975,20.5579,140.333,0.201048,0.0,0.0
589,147,59.2379,62.5245,153.844,99.6529,97.6789,0.00177452,0.364228,20.5703,139.382,0.183316,0.0,0.0
620,154.75,58.42,62.3378,148.874,99.7311,98.1118,0.00227828,0.354815,20.5808,138.441,0.149984,0.0,0.0
651,162.5,58.7938,62.6907,154.054,99.8072,97.713,0.00208594,0.350339,20.5907,137.6,0.1943,0.0,0.0
682,170.25,58.7768,62.8193,154.987,99.8737,98.3084,0.001847,0.345554,20.5945,136.739,0.144733,0.0,0.0
713,178,58.3557,62.7161,152.387,99.9099,98.0197,0.00170246,0.33871,20.6019,135.869,0.175008,0.0,0.0
744,185.75,58.4391,62.2573,154.913,99.914,98.2432,0.00184308,0.33756,20.6065,134.998,0.154514,0.0,0.0
775,193.5,58.1811,62.4611,150.654,99.8414,98.4298,0.00177307,0.332985,20.6104,134.087,0.130475,0.0,0.0
806,201.25,58.4817,61.9781,155.696,99.7061,98.4174,0.00150498,0.330418,20.614,133.206,0.1192,0.0,0.0
837,209,58.2163,61.7922,152.3,99.5474,97.8908,0.00164119,0.328908,20.6182,132.315,0.153757,0.0,0.0
868,216.75,58.0318,61.5992,156.259,99.3064,97.8059,0.00176891,0.32766,20.6181,131.565,0.139506,0.0,0.0
899,224.5,57.7272,61.5343,149.848,99.0321,97.2721,0.00214457,0.326323,20.6213,130.714,0.164302,0.0,0.0
930,232.25,58.0945,61.5032,154.776,98.7989,97.3238,0.00153956,0.326595,20.6209,129.873,0.137831,0.0,0.0
961,240,58.1646,61.2353,153.594,98.7114,96.9998,0.00170675,0.326232,20.6187,129.063,0.160269,0.0,0.0
992,247.75,57.7722,61.7413,153.593,98.8444,97.1079,0.00165142,0.323559,20.6224,128.162,0.162395,0.0,0.0
1023,255.5,57.7033,61.505,156.101,99.1348,97.2349,0.00189734,0.325172,20.6216,127.301,0.177309,0.0,0.0
1054,263.25,57.8168,61.3712,153.677,99.5321,97.9625,0.0017517,0.323684,20.6205,126.49,0.145642,0.0,0.0
1085,271,58.1594,61.4093,149.445,99.9442,98.4033,0.00154394,0.326009,20.6212,125.71,0.142358,0.0,0.0
1116,278.75,57.7826,61.3812,154.089,100.298,98.2948,0.00193796,0.326652,20.6209,124.899,0.184837,0.0,0.0
1147,286.5,57.8237,61.2443,153.701,100.484,98.662,0.00161217,0.326813,20.6201,123.988,0.167622,0.0,0.0
1178,294.25,57.9051,61.2741,160.137,100.475,98.6212,0.0014407,0.326797,20.6196,123.188,0.170608,0.0,0.0
1209,302,58.0466,61.4819,152.003,100.268,98.24,0.0016958,0.328193,20.6169,122.307,0.187266,0.0,0.0
1240,309.75,58.3632,61.4189,154.328,99.9679,98.069,0.00193008,0.328539,20.6173,121.406,0.175723,0.0,0.0
1271,317.5,58.0489,61.3473,153.311,99.6803,97.7494,0.00168449,0.329544,20.6159,120.615,0.179227,0.0,0.0
1302,325.25,58.3923,61.201,150.681,99.8769,97.9637,0.00155301,0.330513,20.6158,119.815,0.17722,0.0,0.0
1333,333,58.5627,61.2725,150.487,100.06,98.2724,0.00150164,0.331226,20.6136,118.964,0.165189,0.0,0.0
1364,340.75,58.2984,61.1731,153.387,99.8358,97.8107,0.00184114,0.331713,20.6136,118.173,0.187768,0.0,0.0
1395,348.5,58.8047,61.6894,152.063,99.3105,97.2493,0.00162004,0.332627,20.6097,117.302,0.192171,0.0,0.0
1426,356.25,58.7052,61.3444,155.381,99.3939,97.6041,0.00153479,0.332035,20.6126,116.462,0.166495,0.0,0.0
1457,364,58.6922,60.946,159.41,99.692,97.5644,0.00191311,0.334282,20.6085,115.611,0.197658,0.0,0.0
1488,371.75,58.6868,61.7892,154.949,99.9047,97.4383,0.00167075,0.335295,20.6067,114.82,0.229039,0.0,0.0
1519,379.5,58.7877,61.8869,153.57,99.8729,97.7678,0.00173022,0.33516,20.6048,114.05,0.195184,0.0,0.0
1550,387.25,58.8818,61.6032,151.505,99.5711,97.2829,0.00170965,0.337926,20.6037,113.239,0.213018,0.0,0.0
1581,395,59.0266,62.2417,153.97,99.1534,96.8216,0.00216495,0.338873,20.6061,112.398,0.218046,0.0,0.0
1612,402.75,58.2422,62.1955,149.366,98.79,96.6618,0.00166678,0.337517,20.605,111.597,0.199539,0.0,0.0
1643,410.5,59.5528,61.9783,150.759,98.6844,96.1324,0.00199768,0.340298,20.6022,110.757,0.240062,0.0,0.0
1674,418.25,59.3023,62.2438,151.566,98.9145,96.1128,0.00210188,0.342399,20.6005,109.956,0.263265,0.0,0.0
1705,426,59.5568,62.7007,148.559,99.387,96.4892,0.00216266,0.342608,20.5986,109.155,0.27112,0.0,0.0
1736,433.75,59.7272,62.6433,149.61,99.9003,97.4495,0.00200778,0.346106,20.5936,108.415,0.227579,0.0,0.0
1767,441.5,59.6485,62.2429,149.72,100.318,97.4435,0.00193825,0.346679,20.5918,107.564,0.266379,0.0,0.0
1798,449.25,60.2556,62.5909,154.778,100.507,97.5552,0.00194898,0.350653,20.5887,106.753,0.273084,0.0,0.0
1829,457,60.253,62.7294,152.664,100.411,96.9918,0.00196198,0.353598,20.5843,105.963,0.317447,0.0,0.0
1860,464.75,60.5509,63.4237,153.501,100.104,96.5561,0.00212143,0.358045,20.5794,105.072,0.330606,0.0,0.0
1891,472.5,60.5216,63.0771,154.901,99.773,95.9534,0.00225914,0.363033,20.5714,104.221,0.35765,0.0,0.0
1922,480.25,61.1062,63.7037,152.929,99.6976,95.3211,0.00241551,0.370022,20.5654,103.36,0.411306,0.0,0.0
1953,488,61.4347,64.0173,150.462,100.008,95.6988,0.00221122,0.374498,20.5595,102.54,0.403545,0.0,0.0
1984,495.75,61.4393,64.4681,155.044,100.088,96.1685,0.00229246,0.382152,20.5525,101.639,0.366061,0.0,0.0
2015,503.5,61.395,63.9889,152.892,99.9619,94.7922,0.00278365,0.388379,20.5447,100.748,0.486551,0.0,0.0
2046,511.25,62.254,64.4775,147.798,99.6501,94.5923,0.00261615,0.391969,20.5402,99.7971,0.47726,0.0,0.0
2077,519,62.5332,65.5334,151.87,99.3363,94.1482,0.00284255,0.396057,20.5301,98.8463,0.491477,0.0,0.0
2108,526.75,62.7948,65.6744,145.619,99.2964,93.7883,0.00305433,0.398612,20.5267,97.8955,0.522899,0.0,0.0
2139,534.5,63.5064,66.0112,148.757,99.3391,93.538,0.00276581,0.401725,20.5268,97.0047,0.551322,0.0,0.0
2170,542.25,62.8268,65.7737,148.768,99.3645,92.651,0.00295155,0.401948,20.5239,96.1239,0.640962,0.0,0.0
2201,550,63.4471,66.2705,149.75,99.3588,93.2284,0.00287006,0.400977,20.5199,95.2632,0.583514,0.0,0.0
2232,557.75,63.1853,66.5797,150.501,99.3242,93.3518,0.00277738,0.38973,20.5279,94.4124,0.568204,0.0,0.0
2263,565.5,63.0686,66.0755,156.581,99.2702,94.9111,0.0028086,0.374078,20.5415,93.7218,0.411441,0.0,0.0
2294,573.25,61.7636,64.7246,156.817,99.5373,96.2498,0.0027785,0.339579,20.5676,93.1813,0.30773,0.0,0.0
2325,581,59.9056,63.5823,159.196,99.9079,98.0201,0.00201296,0.277828,20.6318,92.8611,0.174786,0.0,0.0
2356,588.75,58.1618,61.4972,160.198,100.088,99.1249,0.00212758,0.200244,20.718,92.741,0.0886259,0.0,0.0
2387,596.5,55.4072,59.3852,161.076,100.04,99.2034,0.002351,0.146875,20.7925,92.6609,0.0769475,0.0,0.0
2418,604.25,53.1335,57.4083,161.6,99.7166,98.9299,0.00297947,0.125308,20.8321,92.5408,0.0725674,0.0,0.0
2449,612,52.0083,54.9454,158.379,99.7705,98.9215,0.00344655,0.121675,20.8442,92.4207,0.0783046,0.0,0.0
2480,619.75,50.5191,53.4441,158.293,100.042,99.1518,0.00394253,0.120383,20.844,92.2205,0.0819415,0.0,0.0
2511,627.5,49.3521,51.8994,160.673,100.351,99.5082,0.00408975,0.115142,20.8532,92.0904,0.0773223,0.0,0.0
2542,635.25,47.4499,49.9731,159.625,100.502,99.8181,0.00411618,0.113542,20.8549,92.0103,0.0625741,0.0,0.0
2573,643,46.5304,49.1055,162.296,100.337,99.5066,0.00458301,0.11401,20.8552,92.0003,0.0761817,0.0,0.0
2604,650.75,45.5206,47.3971,166.492,99.8201,99.1001,0.0047273,0.110213,20.8608,91.9102,0.0663268,0.0,0.0
2635,658.5,44.8868,46.7515,163.637,99.1477,98.4093,0.00455282,0.108108,20.8655,91.8202,0.068491,0.0,0.0
2666,666.25,44.1667,45.8203,166.674,98.7118,97.9713,0.00513159,0.108738,20.8621,91.7301,0.0689983,0.0,0.0
2697,674,43.3116,44.7244,163.913,98.8585,98.0309,0.00552571,0.107066,20.8643,91.5399,0.0770223,0.0,0.0
2728,681.75,42.7015,44.7874,164.058,99.4338,98.9948,0.00566114,0.10738,20.8649,91.4198,0.0405377,0.0,0.0
2759,689.5,42.1655,43.5453,164.75,99.866,99.1169,0.00562088,0.106009,20.864,91.3798,0.0689864,0.0,0.0
2790,697.25,41.9905,43.0856,163.488,99.7931,99.1001,0.00547909,0.106275,20.8667,91.3698,0.0638487,0.0,0.0
2821,705,41.377,42.6957,159.779,99.3629,98.4085,0.00554056,0.104982,20.8681,91.3397,0.0884247,0.0,0.0
2852,712.75,40.6321,41.3236,165.224,99.6787,98.8931,0.00582287,0.105662,20.8688,91.2597,0.0724992,0.0,0.0
2883,720.5,40.6997,41.8363,161.101,100.031,99.211,0.0060734,0.104575,20.868,91.0995,0.0754332,0.0,0.0
2914,728.25,40.6908,41.4943,163.493,99.6243,98.8338,0.0060563,0.103699,20.8679,90.9894,0.0729911,0.0,0.0
2945,736,40.5251,41.699,165.958,100.11,99.3288,0.00659098,0.104435,20.869,90.8993,0.071759,0.0,0.0
2976,743.75,39.8542,40.5657,163.475,100.466,99.9338,0.00627865,0.106038,20.8712,90.8693,0.0486518,0.0,0.0
2999,749.5,39.933,40.7518,162.837,100.39,99.4565,0.00614482,0.105952,20.8715,90.8793,0.0856106,0.0,0.0