File: 01_Data/Basswood_Panel/Cone/Basswood_Panel_Cone_HF25Scan_221212_R2.csv
Names,Time,Stack TC,Smoke TC,Exh Press,Smoke Comp,Smoke Meas,CO Meter,CO2 Meter,O2 Meter,Sample Mass,Ext Coeff,Start Test,Flame Verif
Chan Gain,,500,500,1,1,1,1,1,1,1,1,1.0,1.0
Offset,,0,0,0.136389,0,0,0,0,0,0,0,0.0,0.0
Gain,,1,1,25.011,14.2696,296.664,1,1,1,1.0009,1.04656,1.0,1.0
Units,sec,C,C,Pa,%,%,%,%,%,g,/m,,
Baseline,,22.0762,23.0146,162.403,106.693,110.286,0.000814245,0.0659424,20.9556,-443.306,-0.304026,,
43,10.5,20.1659,21.1539,165.244,105.609,108.551,0.000642382,0.0684391,20.9528,159.763,-0.252274,0.0,0.0
86,21.25,20.1659,21.154,160.952,105.598,109.094,0.000597152,0.0661599,20.9543,159.633,-0.299008,0.0,0.0
129,32,20.1954,21.3078,165.956,105.612,108.904,0.000745498,0.0664081,20.9579,159.513,-0.281822,0.0,0.0
172,42.75,20.4664,20.9627,162.528,105.629,107.365,0.000575949,0.0664928,20.9579,159.403,-0.149641,0.0,0.0
215,53.5,20.2716,22.0088,163.748,105.684,109.022,0.000883569,0.0667211,20.9585,159.233,-0.285457,0.0,0.0
258,64.25,20.2333,21.4078,162.883,105.817,108.225,0.00100414,0.0675927,20.9586,159.033,-0.206592,0.0,0.0
301,75,20.4833,21.5136,159.204,106.058,107.926,0.00136499,0.06835,20.9582,158.822,-0.16027,0.0,0.0
344,85.75,20.8188,21.8609,163.258,106.348,108.044,0.0015743,0.0696795,20.9557,158.592,-0.145281,0.0,0.0
387,96.5,21.0733,21.962,153.688,106.587,114.888,0.00250416,0.0866786,20.9435,158.292,-0.688547,0.0,1.0
430,107.25,27.3798,27.5335,141.258,106.807,119.804,0.00326971,0.429002,20.5488,156.851,-1.05428,0.0,0.0
473,118,34.5028,35.3263,138.624,107.016,120.456,0.00375274,0.497965,20.4734,155.279,-1.08614,0.0,0.0
516,128.75,39.5465,41.0989,142.016,107.142,120.827,0.00353482,0.491091,20.4811,153.708,-1.10356,0.0,0.0
559,139.5,43.4298,44.9298,138.395,107.261,121.452,0.00323107,0.449717,20.5295,152.256,-1.14068,0.0,0.0
602,150.25,45.131,47.2292,147.08,107.334,120.837,0.00287995,0.395544,20.5899,150.985,-1.08781,0.0,0.0
645,161,45.0208,48.6445,145.172,107.319,122.321,0.00208634,0.369233,20.6187,149.764,-1.20119,0.0,0.0
688,171.75,45.6319,49.513,144.918,107.218,122.955,0.00224479,0.348757,20.6464,148.623,-1.25731,0.0,0.0
731,182.5,45.6715,49.6944,141.24,106.976,123.362,0.0024489,0.332255,20.6647,147.622,-1.3084,0.0,0.0
774,193.25,44.6719,49.5631,152.398,106.649,121.606,0.00206844,0.315018,20.6848,146.621,-1.20483,0.0,0.0
817,204,44.6701,49.2362,146.785,106.477,122.104,0.00191061,0.301701,20.698,145.681,-1.2572,0.0,0.0
860,214.75,44.3004,48.847,154.871,106.912,120.791,0.00179515,0.296339,20.7032,144.71,-1.12053,0.0,0.0
903,225.5,43.8932,48.4368,154.41,106.822,120.275,0.0018714,0.291109,20.7079,143.759,-1.08897,0.0,0.0
946,236.25,43.7343,47.7864,149.094,106.262,120.411,0.00213731,0.287581,20.7129,142.838,-1.14755,0.0,0.0
989,247,43.1153,47.1297,149.396,106.12,119.859,0.00225449,0.279241,20.7239,141.967,-1.11766,0.0,0.0
1032,257.75,42.6958,47.2806,149.803,106.348,121.57,0.00200345,0.27775,20.7249,141.076,-1.22811,0.0,0.0
1075,268.5,42.4398,46.9262,149.573,106.583,120.33,0.00219075,0.275425,20.7277,140.116,-1.11365,0.0,0.0
1118,279.25,42.4414,46.6877,149.984,106.601,120.999,0.00224973,0.274396,20.7288,139.195,-1.16312,0.0,0.0
1161,290,42.1764,46.3212,151.045,106.39,120.637,0.00266168,0.272107,20.7294,138.324,-1.15377,0.0,0.0
1204,300.75,42.0725,46.1539,152.356,105.968,120.737,0.00190926,0.268711,20.7315,137.573,-1.19783,0.0,0.0
1247,311.5,41.8485,45.5495,148.587,105.589,121.126,0.00215475,0.268586,20.7324,136.723,-1.2603,0.0,0.0
1290,322.25,41.5415,45.2772,149.174,105.308,120.185,0.0020548,0.265851,20.7356,135.882,-1.21308,0.0,0.0
1333,333,41.451,44.9929,151.453,105.282,118.827,0.00213479,0.260841,20.7411,135.081,-1.11099,0.0,0.0
1376,343.75,41.1134,44.6191,149.84,105.556,120.592,0.0023953,0.259198,20.7423,134.22,-1.22257,0.0,0.0
1419,354.5,40.9797,44.3744,150.144,106.119,121.316,0.00233111,0.257255,20.7475,133.41,-1.2287,0.0,0.0
1462,365.25,40.3053,44.1235,149.713,106.805,122.004,0.00217046,0.254589,20.7512,132.599,-1.22148,0.0,0.0
1505,376,41.0977,43.901,151.403,107.24,121.76,0.0024282,0.251573,20.753,131.728,-1.16571,0.0,0.0
1548,386.75,41.0573,44.281,149.947,107.307,122.475,0.00191575,0.250804,20.7531,130.947,-1.21378,0.0,0.0
1591,397.5,41.1522,42.9194,151.048,106.961,121.027,0.00229184,0.249213,20.7568,130.167,-1.13422,0.0,0.0
1634,408.25,40.8243,43.4646,154.91,106.498,121.09,0.00223497,0.247756,20.7599,129.416,-1.1788,0.0,0.0
1677,419,40.0065,43.4219,152.65,106.894,120.936,0.00264363,0.246897,20.7594,128.615,-1.1331,0.0,0.0
1720,429.75,40.4814,43.2104,150.323,106.891,121.316,0.00215721,0.249635,20.7587,127.805,-1.16215,0.0,0.0
1763,440.5,40.3453,42.862,154.101,106.141,120.158,0.00195758,0.2513,20.7544,127.024,-1.1387,0.0,0.0
1806,451.25,40.6353,43.4144,153.468,106.219,119.886,0.00240941,0.252485,20.7554,126.203,-1.11115,0.0,0.0
1849,462,40.5086,43.3015,151.174,106.464,120.348,0.00196339,0.252337,20.7553,125.432,-1.12527,0.0,0.0
1892,472.75,40.5067,43.43,155.056,106.618,120.972,0.00182988,0.254354,20.7511,124.512,-1.15952,0.0,0.0
1935,483.5,40.6935,43.0162,158.055,106.409,121.615,0.0021503,0.255749,20.7495,123.721,-1.22623,0.0,0.0
1978,494.25,40.7566,43.3349,150.233,105.961,120.33,0.00209742,0.257588,20.7462,123.01,-1.16737,0.0,0.0
2021,505,41.3136,42.6348,152.3,105.482,120.683,0.00193767,0.257973,20.746,122.179,-1.23586,0.0,0.0
2064,515.75,40.8765,43.4738,152.06,105.227,119.397,0.00185661,0.261709,20.7408,121.409,-1.15978,0.0,0.0
2107,526.5,40.5585,43.8044,150.702,105.324,118.917,0.00173098,0.26394,20.7369,120.628,-1.11438,0.0,0.0
2150,537.25,40.7998,43.3465,145.666,105.778,120.701,0.00155391,0.265291,20.7354,119.797,-1.21158,0.0,0.0
2193,548,40.9789,43.5505,148.223,106.427,122.167,0.00169801,0.268836,20.7313,118.967,-1.26628,0.0,0.0
2236,558.75,40.9542,43.9643,149.179,107.027,122.376,0.00184014,0.27185,20.7269,118.196,-1.23026,0.0,0.0
2279,569.5,41.4943,44.12,153.885,107.318,121.941,0.00175539,0.275936,20.7231,117.335,-1.17272,0.0,0.0
2322,580.25,41.8257,44.5263,154.27,107.276,123.706,0.00204,0.28264,20.7158,116.474,-1.30825,0.0,0.0
2365,591,42.6149,44.7469,151.691,106.992,122.475,0.00178272,0.287835,20.7114,115.644,-1.24079,0.0,0.0
2408,601.75,42.64,45.1059,142.494,106.625,123.073,0.0014885,0.294878,20.7023,114.783,-1.31699,0.0,0.0
2451,612.5,43.4505,45.5558,151.374,106.531,122.991,0.00168306,0.300972,20.6957,113.942,-1.31905,0.0,0.0
2494,623.25,43.7682,46.1103,146.756,106.898,124.168,0.00166543,0.307829,20.688,113.041,-1.37486,0.0,0.0
2537,634,44.2156,46.7837,142.825,106.982,123.924,0.00170138,0.314355,20.6829,112.14,-1.34959,0.0,0.0
2580,644.75,44.3765,47.3607,147.882,106.782,122.122,0.0023056,0.324224,20.6685,111.23,-1.23231,0.0,0.0
2623,655.5,45.2602,47.8737,148.254,106.303,123.489,0.00193659,0.33362,20.6599,110.229,-1.37578,0.0,0.0
2666,666.25,45.8485,48.8101,144.047,106.124,123.299,0.00208167,0.345662,20.6452,109.208,-1.37707,0.0,0.0
2709,677,46.8848,49.9671,148.861,106.266,122.819,0.00223572,0.354325,20.6313,108.087,-1.32904,0.0,0.0
2752,687.75,47.1117,50.6857,148.179,106.43,123.091,0.00253878,0.367692,20.6168,106.976,-1.33515,0.0,0.0
2795,698.5,48.2552,51.8324,148.435,106.553,123.027,0.00227543,0.37602,20.609,105.965,-1.3198,0.0,0.0
2838,709.25,49.2688,52.563,148.455,106.565,124.693,0.00218063,0.387617,20.5939,104.774,-1.44225,0.0,0.0
2881,720,50.1625,53.719,142.137,106.375,125.037,0.00281541,0.395618,20.5808,103.623,-1.48396,0.0,0.0
2924,730.75,50.6019,54.2017,146.253,106.067,123.218,0.00271095,0.404553,20.5708,102.362,-1.37598,0.0,0.0
2967,741.5,51.649,55.0681,142.393,105.694,123.245,0.00300291,0.405361,20.5711,101.211,-1.41036,0.0,0.0
3010,752.25,51.8322,55.7153,140.596,105.368,122.059,0.00281152,0.408695,20.5667,99.9395,-1.34992,0.0,0.0
3053,763,52.4438,56.1723,142.995,105.182,121.977,0.00292863,0.411339,20.5655,98.7185,-1.36001,0.0,0.0
3096,773.75,52.9499,56.611,144.114,105.2,122.602,0.00359258,0.415262,20.5592,97.4573,-1.40535,0.0,0.0
3139,784.5,53.2825,57.0678,142.704,105.403,121.181,0.00281349,0.395579,20.5818,96.2462,-1.2806,0.0,0.0
3182,795.25,53.4476,56.8692,146.743,105.823,121.217,0.00241836,0.365936,20.6128,95.1853,-1.24678,0.0,0.0
3225,806,51.7852,56.6541,152.511,106.333,121.262,0.00187036,0.322828,20.6593,94.4046,-1.20611,0.0,0.0
3268,816.75,50.5321,54.6187,150.019,106.814,120.809,0.002156,0.27542,20.7123,93.714,-1.13036,0.0,0.0
3311,827.5,47.8331,52.386,152.189,107.121,120.465,0.00233386,0.222357,20.7705,93.2636,-1.0778,0.0,0.0
3354,838.25,44.8417,48.6198,158.444,107.23,119.904,0.00365706,0.177995,20.8219,92.8932,-1.02559,0.0,0.0
3397,849,42.2848,45.7084,157.538,107.23,119.107,0.00486077,0.150425,20.8562,92.633,-0.964355,0.0,0.0
3440,859.75,39.5576,42.9934,157.773,107.161,118.356,0.00586431,0.133117,20.8744,92.4428,-0.912183,0.0,0.0
3483,870.5,37.2341,40.5309,158.142,106.942,117.894,0.00763281,0.122204,20.8874,92.2827,-0.895045,0.0,0.0
3526,881.25,35.0984,37.9462,156.518,106.533,118.193,0.00821104,0.117224,20.8921,92.0825,-0.953525,0.0,0.0
3569,892,33.6959,36.3994,160.127,105.903,116.898,0.00776247,0.113477,20.8976,91.8823,-0.906874,0.0,0.0
3612,902.75,32.8682,34.5603,158.327,105.345,115.504,0.00714786,0.113047,20.8982,91.8723,-0.845208,0.0,0.0
3655,913.5,31.1891,32.3115,159.127,105.157,115.314,0.00831484,0.112403,20.8988,91.7522,-0.846456,0.0,0.0
3698,924.25,30.6971,31.9389,159.559,105.521,114.291,0.0077572,0.108434,20.9034,91.6121,-0.732957,0.0,0.0
3741,935,29.5426,30.4176,157.588,106.181,115.558,0.00733813,0.108021,20.9032,91.522,-0.776912,0.0,0.0
3784,945.75,29.0924,30.4473,157.266,106.584,115.576,0.00767634,0.108107,20.9031,91.3519,-0.743627,0.0,0.0
3827,956.5,28.1631,29.2149,155.981,106.39,116.065,0.00754469,0.109264,20.9027,91.2618,-0.799084,0.0,0.0
3870,967.25,28.0479,28.754,154.962,106.087,115.739,0.00707443,0.10833,20.9048,91.1317,-0.799459,0.0,0.0
3913,978,27.681,28.5304,161.232,106.983,117.604,0.00688266,0.107491,20.9056,91.0316,-0.869019,0.0,0.0
3956,988.75,27.5656,27.763,159.853,106.465,116.246,0.0066516,0.107092,20.9051,90.8314,-0.806934,0.0,0.0
3999,999.5,26.8946,27.6648,161.097,107.199,116.237,0.00679515,0.106416,20.9059,90.7613,-0.743089,0.0,0.0
4042,1010.25,26.7544,27.1027,159.585,107.043,115.278,0.00616075,0.107141,20.9061,90.7113,-0.680416,0.0,0.0
4085,1021,26.5633,27.1499,156.16,105.638,114.888,,0.106226,,90.6312,-0.770604,0.0,0.0
4125,1031,26.1787,26.4924,160.708,105.316,113.159,,,,90.5411,-0.659464,0.0,0.0