File: 01_Data/Basswood_Panel/Cone/Basswood_Panel_Cone_HF50Scalar_221212_R1.csv
LABORATORY,FSRI
TEST IDENT,Basswood_HF50_1
OPERATOR,Dow
MATERIAL,Basswood Panel
ORIENTATION,Horizontal
HEAT FLUX,50
SURF AREA,0.01
C FACTOR,0.0389493
SPEC HOLDER DIFF,-566
SPECIMEN MASS,80.12
SCAN TIME,0.25
O2 DELAY TIME,11
CO DELAY TIME,11
CO2 DELAY TIME,8
FLOW FACTOR,1
SCAN COUNT,2999
TIME TO IGN,14.5
END OF TEST SCAN,2519
END OF TEST TIME,629.75
TEST STATUS,1
PRE TEST CMT,Dimensions: 101.20 x 101.13 x 18.99 mm; with tie wires