File: 01_Data/Basswood_Panel/Cone/Basswood_Panel_Cone_HF25Scalar_221212_R4.csv
LABORATORY,FSRI
TEST IDENT,Basswood_HF25_4
OPERATOR,Dow
MATERIAL,Basswood Panel
ORIENTATION,Horizontal
HEAT FLUX,25
SURF AREA,0.01
C FACTOR,0.0389493
SPEC HOLDER DIFF,-566
SPECIMEN MASS,79.8
SCAN TIME,0.25
O2 DELAY TIME,11
CO DELAY TIME,11
CO2 DELAY TIME,8
FLOW FACTOR,1
SCAN COUNT,4076
TIME TO IGN,92.5
END OF TEST SCAN,3596
END OF TEST TIME,899
TEST STATUS,1
PRE TEST CMT,Dimensions: 101.27 x 101.20 x 19.01 mm; with tie wires