File: 01_Data/Basswood_Panel/Cone/Basswood_Panel_Cone_HF50Scalar_221212_R2.csv
LABORATORY,FSRI
TEST IDENT,Basswood_HF50_2
OPERATOR,Dow
MATERIAL,Basswood Panel
ORIENTATION,Horizontal
HEAT FLUX,50
SURF AREA,0.01
C FACTOR,0.0389493
SPEC HOLDER DIFF,-566
SPECIMEN MASS,78.65
SCAN TIME,0.25
O2 DELAY TIME,11
CO DELAY TIME,11
CO2 DELAY TIME,8
FLOW FACTOR,1
SCAN COUNT,3000
TIME TO IGN,13.75
END OF TEST SCAN,2520
END OF TEST TIME,630
TEST STATUS,1
PRE TEST CMT,Dimensions: 101.13 x 101.19 x 18.86 mm; with tie wires