File: 01_Data/Basswood_Panel/Cone/Basswood_Panel_Cone_HF25Scan_221212_R1.csv
Names,Time,Stack TC,Smoke TC,Exh Press,Smoke Comp,Smoke Meas,CO Meter,CO2 Meter,O2 Meter,Sample Mass,Ext Coeff,Start Test,Flame Verif
Chan Gain,,500,500,1,1,1,1,1,1,1,1,1.0,1.0
Offset,,0,0,0.136389,0,0,0,0,0,0,0,0.0,0.0
Gain,,1,1,25.011,14.2696,296.664,1,1,1,1.0009,1.04656,1.0,1.0
Units,sec,C,C,Pa,%,%,%,%,%,g,/m,,
Baseline,,24.4992,25.3778,160.922,106.747,112.622,0.000620808,0.0671075,20.9537,-447.042,-0.491761,,
40,9.75,22.3171,23.55,163.709,105.521,112.2,0.000788938,0.0744165,20.9432,132.899,-0.563415,0.0,0.0
80,19.75,22.4134,23.4022,160.129,105.451,111.593,0.0004626,0.0717279,20.9453,132.729,-0.519713,0.0,0.0
120,29.75,22.7395,23.1399,157.951,105.707,111.602,0.000875859,0.0697388,20.9487,132.599,-0.498154,0.0,0.0
160,39.75,22.4655,23.5345,160.412,106.14,111.584,0.000824356,0.0700357,20.9499,132.469,-0.45915,0.0,0.0
200,49.75,22.4829,23.8215,160.363,106.571,111.521,0.000716824,0.0707123,20.9512,132.329,-0.416759,0.0,0.0
240,59.75,22.8882,23.6386,159.925,107.019,112.625,0.000852631,0.0699632,20.9518,132.148,-0.468716,0.0,0.0
280,69.75,22.7067,24.2558,157.823,107.364,111.738,0.00103007,0.0704439,20.9502,131.968,-0.366571,0.0,0.0
320,79.75,23.1134,24.2363,161.954,107.485,110.679,0.00138266,0.0709976,20.9518,131.728,-0.268819,0.0,0.0
360,89.75,23.4535,23.8718,145.522,107.386,121.968,0.00211477,0.132147,20.8379,131.198,-1.16892,0.0,1.0
400,99.75,31.0758,30.6112,143.9,107.126,126.993,0.00399694,0.517743,20.4686,129.566,-1.56182,0.0,0.0
440,109.75,38.2138,38.5929,142.948,106.835,120.112,0.00433595,0.541081,20.4504,128.065,-1.0754,0.0,0.0
480,119.75,42.4051,44.0687,142.972,106.609,123.254,0.00395375,0.489916,20.5065,126.593,-1.33187,0.0,0.0
520,129.75,44.8273,47.0214,146.24,106.855,121.063,0.00331704,0.435879,20.5628,125.352,-1.14609,0.0,0.0
560,139.75,45.5708,48.4908,141.9,107.086,122.249,0.00261724,0.392171,20.6074,124.141,-1.2157,0.0,0.0
600,149.75,46.1237,49.4303,149.881,107.055,121.869,0.00220645,0.367385,20.6341,123.06,-1.18975,0.0,0.0
640,159.75,46.2102,49.8657,145.74,106.757,122.946,0.00203288,0.34306,20.6597,122.049,-1.29617,0.0,0.0
680,169.75,45.6962,50.35,151.395,106.188,122.43,0.00189956,0.325325,20.6805,121.078,-1.30663,0.0,0.0
720,179.75,47.2733,50.1409,151.154,106.257,121.027,0.00214253,0.315942,20.6882,120.178,-1.19482,0.0,0.0
760,189.75,44.8838,49.3777,144.25,106.42,121.968,0.00224288,0.310521,20.6953,119.247,-1.25186,0.0,0.0
800,199.75,45.6092,49.6775,148.587,106.576,122.53,0.0023305,0.303978,20.7018,118.356,-1.28061,0.0,0.0
840,209.75,44.8237,49.2141,151.087,106.714,122.448,0.00244908,0.299888,20.7054,117.475,-1.26259,0.0,0.0
880,219.75,44.7966,49.1768,151.589,106.687,121.108,0.00202974,0.297771,20.7077,116.614,-1.16393,0.0,0.0
920,229.75,44.6042,48.9524,148.003,106.507,120.99,0.00227487,0.295288,20.7082,115.754,-1.1705,0.0,0.0
960,239.75,44.254,48.7499,149.805,106.194,122.013,0.00224048,0.292011,20.711,114.893,-1.27482,0.0,0.0
1000,249.75,44.573,48.6608,148.022,105.828,123.127,0.00219256,0.291519,20.7122,114.022,-1.38994,0.0,0.0
1040,259.75,44.1115,47.9948,147.811,105.516,121.398,0.00205224,0.289857,20.7155,113.171,-1.28719,0.0,0.0
1080,269.75,43.6458,47.7157,146.278,105.312,120.511,0.00192777,0.282078,20.7234,112.331,-1.23764,0.0,0.0
1120,279.75,43.7034,47.4694,151.382,105.326,121.108,0.00211959,0.277569,20.7289,111.54,-1.28175,0.0,0.0
1160,289.75,43.3346,47.0231,150.429,105.629,121.353,0.00202336,0.271762,20.736,110.709,-1.27396,0.0,0.0
1200,299.75,43.0705,46.8294,148.641,106.102,121.416,0.00222208,0.266285,20.7423,109.928,-1.23766,0.0,0.0
1240,309.75,42.8648,46.7963,149.896,106.56,121.633,0.00188775,0.263618,20.7437,109.128,-1.21456,0.0,0.0
1280,319.75,42.586,46.0053,154.272,106.9,121.525,0.00192739,0.261019,20.7469,108.367,-1.17714,0.0,0.0
1320,329.75,42.1393,45.5435,149.816,107.128,121.144,0.00192807,0.256458,20.7514,107.626,-1.12884,0.0,0.0
1360,339.75,41.6532,45.0958,146.356,107.269,122.846,0.00194768,0.254592,20.7533,106.876,-1.24484,0.0,0.0
1400,349.75,41.34,44.8028,146.798,107.384,122.991,0.00195474,0.252556,20.7546,106.115,-1.24575,0.0,0.0
1440,359.75,41.5653,44.7514,153.318,107.372,121.95,0.00241238,0.254611,20.7526,105.394,-1.16875,0.0,0.0
1480,369.75,41.2206,44.216,150.095,107.276,123.236,0.00192044,0.252484,20.7548,104.684,-1.27321,0.0,0.0
1520,379.75,40.74,44.2252,153.875,107.086,122.385,0.0020439,0.253511,20.7524,103.943,-1.2259,0.0,0.0
1560,389.75,40.8987,43.9125,149.774,106.864,123.299,0.00211949,0.254034,20.7515,103.192,-1.31333,0.0,0.0
1600,399.75,40.6886,43.9884,145.956,106.632,122.421,0.00166526,0.252378,20.7541,102.442,-1.26763,0.0,0.0
1640,409.75,40.991,43.7581,147.467,106.465,122.457,0.00166008,0.25174,20.7547,101.731,-1.28476,0.0,0.0
1680,419.75,40.8939,43.6656,149.127,106.732,122.14,0.00146207,0.253312,20.7531,101.041,-1.23794,0.0,0.0
1720,429.75,40.9731,43.5841,151.028,106.872,121.679,0.00155302,0.253881,20.7542,100.3,-1.19119,0.0,0.0
1760,439.75,40.9363,43.9694,150.269,106.887,123.308,0.00169402,0.255096,20.7511,99.5992,-1.31202,0.0,0.0
1800,449.75,41.0371,43.746,152.979,106.796,123.743,0.00163417,0.257458,20.7469,98.8286,-1.3521,0.0,0.0
1840,459.75,41.1448,43.8104,150.025,106.603,123.516,0.00149559,0.258616,20.7502,98.1079,-1.35193,0.0,0.0
1880,469.75,41.599,44.0646,149.224,106.497,121.923,0.00202957,0.261716,20.7467,97.3572,-1.24185,0.0,0.0
1920,479.75,41.897,44.4556,148.929,106.669,122.186,0.0017381,0.262878,20.7434,96.6466,-1.24678,0.0,0.0
1960,489.75,42.0023,44.4805,146.204,106.972,124.087,0.0017284,0.261514,20.7475,95.9259,-1.36248,0.0,0.0
2000,499.75,41.8238,44.5606,144.873,107.25,124.965,0.00171097,0.264565,20.7437,95.1252,-1.40337,0.0,0.0
2040,509.75,41.9781,45.1406,147.111,107.344,124.512,0.00229113,0.267284,20.7409,94.3846,-1.36204,0.0,0.0
2080,519.75,42.3678,45.5041,149.046,107.117,124.159,0.00155367,0.268857,20.7388,93.6439,-1.35543,0.0,0.0
2120,529.75,43.108,45.845,147.003,106.487,123.743,0.00168366,0.27279,20.7327,92.9233,-1.37872,0.0,0.0
2160,539.75,42.657,45.739,147.549,105.749,123.589,0.00144389,0.275956,20.7315,92.1426,-1.43111,0.0,0.0
2200,549.75,43.1097,46.3064,150.188,105.255,123.779,0.00164431,0.282127,20.7222,91.2918,-1.48827,0.0,0.0
2240,559.75,43.4677,46.2023,147.925,105.405,124.802,0.00183354,0.286757,20.7171,90.6012,-1.5507,0.0,0.0
2280,569.75,44.1969,46.8366,146.717,106.123,125.916,0.0016514,0.293167,20.7115,89.7704,-1.56996,0.0,0.0
2320,579.75,44.462,47.2346,147.725,106.63,125.744,0.00170123,0.301292,20.7014,88.9297,-1.51366,0.0,0.0
2360,589.75,45.0788,47.7537,152.682,106.427,124.06,0.00197349,0.307847,20.6917,88.119,-1.40734,0.0,0.0
2400,599.75,45.1913,48.4451,145.14,106.139,125.78,0.00165034,0.317807,20.6828,87.2782,-1.55862,0.0,0.0
2440,609.75,45.8,48.4927,151.395,107.015,127.192,0.00208028,0.330599,20.6661,86.3674,-1.58569,0.0,0.0
2480,619.75,46.91,50.3934,147.154,106.629,126.585,0.00195054,0.340089,20.655,85.3765,-1.575,0.0,0.0
2520,629.75,47.4574,50.663,147.883,107.318,126.54,0.00175769,0.35607,20.6375,84.4457,-1.51256,0.0,0.0
2560,639.75,47.7509,52.07,145.738,106.938,128.731,0.00240371,0.368122,20.6246,83.3947,-1.70273,0.0,0.0
2600,649.75,49.1461,52.2977,142.631,105.679,124.992,0.00239206,0.383573,20.6063,82.3438,-1.54089,0.0,0.0
2640,659.75,50.0296,53.3065,140.909,105.407,124.711,0.00267211,0.397553,20.5883,81.2628,-1.54388,0.0,0.0
2680,669.75,51.2596,54.8319,140.948,106.368,127.599,0.00270655,0.413445,20.5702,80.0918,-1.67073,0.0,0.0
2720,679.75,52.0527,55.4965,144.912,106.585,126.911,0.00278365,0.424014,20.5561,78.9107,-1.6024,0.0,0.0
2760,689.75,52.938,56.825,143.718,106.343,126.133,0.00273094,0.434269,20.545,77.7497,-1.56678,0.0,0.0
2800,699.75,53.7704,58.1062,140.245,106.688,127.427,0.00273098,0.441405,20.5387,76.4885,-1.6308,0.0,0.0
2840,709.75,54.6625,58.8197,140.107,107.293,126.92,0.0030235,0.444877,20.5338,75.2975,-1.5423,0.0,0.0
2880,719.75,55.046,59.5408,142.172,106.672,128.505,0.00271311,0.438896,20.5391,74.1164,-1.70944,0.0,0.0
2920,729.75,55.6332,60.2429,139.283,105.341,125.671,0.00282992,0.438028,20.5402,72.9053,-1.62002,0.0,0.0
2960,739.75,55.9647,60.5487,139.175,106.374,124.204,0.00328572,0.445036,20.5315,71.6842,-1.42264,0.0,0.0
3000,749.75,56.8074,61.0603,151.682,106.483,125.499,0.00315927,0.459616,20.5124,70.4631,-1.5084,0.0,0.0
3040,759.75,57.4787,62.0097,145.421,106.666,123.562,0.00379533,0.473785,20.4889,69.152,-1.34989,0.0,0.0
3080,769.75,57.4173,62.1116,150.007,106.642,122.466,0.00361673,0.438148,20.5295,67.9709,-1.27016,0.0,0.0
3120,779.75,55.8978,60.8305,149.415,107.101,122.72,0.00300887,0.336771,20.6389,67.1602,-1.24968,0.0,0.0
3160,789.75,53.1615,58.3555,150.093,107.354,121.479,0.00495619,0.281869,20.689,66.5997,-1.13484,0.0,0.0
3200,799.75,50.6362,55.4102,151.315,106.648,122.068,0.00725363,0.223181,20.7562,66.1993,-1.23973,0.0,0.0
3240,809.75,47.1137,51.8955,156.838,105.714,120.293,0.00941092,0.182608,20.804,65.9291,-1.18602,0.0,0.0
3280,819.75,44.1494,48.4811,157.499,105.393,118.184,0.0115134,0.169781,20.8183,65.6488,-1.05156,0.0,0.0
3320,829.75,41.5133,45.4117,154.043,105.629,117.74,0.0116976,0.165682,20.8215,65.4186,-0.996535,0.0,0.0
3360,839.75,38.9722,42.4106,157.389,106.117,117.505,0.012591,0.160665,20.829,65.2284,-0.935796,0.0,0.0
3400,849.75,36.8894,39.5054,158.249,106.494,116.69,0.0126041,0.15319,20.8384,65.0483,-0.839423,0.0,0.0
3440,859.75,35.3458,37.9954,157.839,106.703,117.369,0.0128944,0.144492,20.8496,64.8581,-0.874611,0.0,0.0
3480,869.75,33.8888,36.1952,157.933,106.71,117.405,0.0114558,0.142612,20.8541,64.698,-0.876882,0.0,0.0
3520,879.75,33.0466,34.8399,154.74,106.569,116.536,0.0114503,0.141226,20.855,64.6379,-0.820815,0.0,0.0
3560,889.75,32.1634,33.7185,151.956,106.373,116.21,0.0109541,0.141275,20.8537,64.4477,-0.811963,0.0,0.0
3600,899.75,31.3037,32.3965,156.28,106.243,116.219,0.011134,0.141098,20.8541,64.2676,-0.823921,0.0,0.0
3640,909.75,30.4891,32.1337,156.756,106.154,114.907,0.0104897,0.139036,20.857,64.1675,-0.727353,0.0,0.0
3680,919.75,30.4009,30.9284,161.184,106.089,114.888,0.0106094,0.140649,20.8593,63.9673,-0.731519,0.0,0.0
3720,929.75,29.8423,30.7278,159.102,106.197,114.454,0.0103518,0.140662,20.858,63.8372,-0.687426,0.0,0.0
3760,939.75,28.6097,29.5276,157.162,106.49,114.961,0.0101308,0.144039,20.8523,63.7571,-0.702664,0.0,0.0
3800,949.75,29.0245,29.7874,158.163,106.691,115.83,,,,63.6771,-0.754518,0.0,0.0
3809,952,29.0696,29.6685,159.052,106.733,115.332,,,,63.607,-0.711296,0.0,0.0