File: 01_Data/Basswood_Panel/Cone/Basswood_Panel_Cone_HF75Scalar_221219_R1.csv
LABORATORY,FSRI
TEST IDENT,Basswood_HF75_1
OPERATOR,Dow
MATERIAL,Basswood Panel
ORIENTATION,Horizontal
HEAT FLUX,75
SURF AREA,0.01
C FACTOR,0.038613
SPEC HOLDER DIFF,-566
SPECIMEN MASS,82.86
SCAN TIME,0.25
O2 DELAY TIME,11
CO DELAY TIME,11
CO2 DELAY TIME,8
FLOW FACTOR,1
SCAN COUNT,2629
TIME TO IGN,6.5
END OF TEST SCAN,2149
END OF TEST TIME,537.25
TEST STATUS,1
PRE TEST CMT,Dimensions: 101.17 x 101.14 x 19.09 mm; with tie wires