File: 01_Data/Basswood_Panel/Cone/Basswood_Panel_Cone_HF50Scan_221212_R2.csv
Names,Time,Stack TC,Smoke TC,Exh Press,Smoke Comp,Smoke Meas,CO Meter,CO2 Meter,O2 Meter,Sample Mass,Ext Coeff,Start Test,Flame Verif
Chan Gain,,500,500,1,1,1,1,1,1,1,1,1.0,1.0
Offset,,0,0,0.136404,0,0,0,0,0,0,0,0.0,0.0
Gain,,1,1,25.011,13.2008,13.1217,1,1,1,1.00087,1.04452,1.0,1.0
Units,sec,C,C,Pa,%,%,%,%,%,g,/m,,
Baseline,,31.8108,32.0555,169,99.9427,99.5011,3.71617e-05,0.0456781,20.9454,-445.601,0.0405811,,
31,7.5,30.0098,30.4204,170.189,98.8738,98.3333,5.56565e-06,0.052441,20.9337,150.401,0.050226,0.0,0.0
62,15.25,30.4831,31.1114,157.401,99.3878,96.7852,2.79104e-05,0.0505421,20.9396,149.781,0.243136,0.0,1.0
93,23,35.6842,35.234,148.63,100.298,93.9813,0.000788123,0.116397,20.9337,148.49,0.59605,0.0,0.0
124,30.75,41.125,40.5875,147.604,100.626,93.2617,0.00294174,0.443501,20.5914,147.188,0.696382,0.0,0.0
155,38.5,45.2567,44.9644,154.252,100.114,93.18,0.00409302,0.522275,20.4109,145.807,0.65767,0.0,0.0
186,46.25,48.7482,48.8029,145.767,100.037,93.4503,0.00484501,0.540359,20.364,144.506,0.624084,0.0,0.0
217,54,51.2042,52.4433,151.292,99.9965,94.8578,0.00461804,0.522267,20.3708,143.165,0.48338,0.0,0.0
248,61.75,52.9914,54.8425,148.752,99.4853,95.1962,0.00392643,0.511531,20.3834,141.904,0.403791,0.0,0.0
279,69.5,55.0543,56.5749,152.076,99.9317,96.259,0.00353,0.485233,20.4173,140.653,0.343086,0.0,0.0
310,77.25,56.2477,58.1074,150.764,99.9953,97.1744,0.00309317,0.462144,20.4442,139.542,0.262198,0.0,0.0
341,85,57.0584,59.2969,151.666,99.4732,96.5749,0.00282698,0.440285,20.4681,138.461,0.27093,0.0,0.0
372,92.75,57.5634,60.4544,150.339,98.8947,96.4131,0.00252591,0.433851,20.4819,137.47,0.23285,0.0,0.0
403,100.5,58.4798,61.4314,152.262,99.047,96.5801,0.00254454,0.414901,20.5009,136.399,0.231093,0.0,0.0
434,108.25,58.5544,61.7837,151.137,99.8918,97.574,0.00210062,0.407062,20.5163,135.418,0.215101,0.0,0.0
465,116,58.8708,62.0145,157.444,100.565,98.3056,0.00224302,0.398688,20.5245,134.337,0.208197,0.0,0.0
496,123.75,59.0262,62.1654,147.07,100.486,98.4658,0.0021894,0.388438,20.5365,133.356,0.186047,0.0,0.0
527,131.5,59.2942,62.7048,150.343,99.8785,98.1683,0.00193037,0.382074,20.5489,132.386,0.158249,0.0,0.0
558,139.25,59.1329,62.9052,157.371,100.193,98.4838,0.00184171,0.371975,20.5584,131.545,0.157625,0.0,0.0
589,147,59.1515,63.1323,156.749,99.7411,98.2868,0.00199663,0.367182,20.5683,130.624,0.134582,0.0,0.0
620,154.75,59.2912,62.7239,150.027,99.5792,97.9733,0.00199551,0.358659,20.5759,129.733,0.148969,0.0,0.0
651,162.5,58.8865,62.568,152.546,99.9969,98.4362,0.00197741,0.353062,20.5822,128.893,0.144138,0.0,0.0
682,170.25,59.0876,62.8555,146.315,99.9301,98.1875,0.00224675,0.34552,20.5898,127.922,0.161184,0.0,0.0
713,178,59.3234,62.5032,153.944,99.4773,98.0321,0.00210631,0.344413,20.5957,127.041,0.134082,0.0,0.0
744,185.75,59.0513,62.399,154.594,98.9781,97.2829,0.00169332,0.341808,20.5979,126.16,0.158287,0.0,0.0
775,193.5,58.9252,62.4993,145.072,98.794,97.2909,0.00181335,0.340073,20.6003,125.359,0.140474,0.0,0.0
806,201.25,58.8793,62.5959,150.941,98.9672,97.7638,0.00187393,0.337193,20.6006,124.509,0.112096,0.0,0.0
837,209,58.747,62.5139,148.125,99.3757,98.0894,0.00159309,0.333078,20.6056,123.658,0.119376,0.0,0.0
868,216.75,58.6224,62.9199,149.781,99.8684,98.4198,0.00168141,0.328242,20.6106,122.817,0.133883,0.0,0.0
899,224.5,58.428,62.2614,152.725,100.27,98.9752,0.00156089,0.327031,20.6145,121.926,0.119098,0.0,0.0
930,232.25,59.0185,61.9959,153.657,100.508,99.0645,0.00180998,0.323413,20.6169,121.126,0.132529,0.0,0.0
961,240,58.7862,62.1386,156.005,100.61,99.2979,0.00162217,0.322796,20.6227,120.325,0.120285,0.0,0.0
992,247.75,58.8186,61.8904,157.306,100.651,99.2879,0.00167804,0.320171,20.6244,119.594,0.12495,0.0,0.0
1023,255.5,58.6505,61.3431,151.157,100.656,99.3636,0.00179336,0.323551,20.6225,118.754,0.118372,0.0,0.0
1054,263.25,58.4479,61.8519,152.573,100.636,99.5266,0.00160912,0.321858,20.622,117.933,0.101558,0.0,0.0
1085,271,57.7871,62.4297,154.754,100.633,99.2403,0.00162381,0.32094,20.6217,117.162,0.127662,0.0,0.0
1116,278.75,58.2383,61.909,153.415,100.621,99.1081,0.00168278,0.321684,20.6217,116.251,0.138843,0.0,0.0
1147,286.5,58.4508,61.8258,152.239,100.637,99.5963,0.00132811,0.322235,20.6213,115.421,0.0952924,0.0,0.0
1178,294.25,58.8087,61.4805,153.325,100.644,99.3472,0.00165584,0.321329,20.6221,114.68,0.118785,0.0,0.0
1209,302,58.6814,61.7459,148.737,100.648,99.0773,0.00183994,0.320836,20.6216,113.879,0.144151,0.0,0.0
1240,309.75,58.8796,62.1438,155.645,100.581,99.3163,0.00176258,0.323141,20.6204,113.089,0.11598,0.0,0.0
1271,317.5,59.1986,62.1626,150.598,100.411,99.0332,0.00168212,0.323782,20.6187,112.278,0.126636,0.0,0.0
1302,325.25,58.8636,62.1175,151.16,100.125,98.5231,0.00162999,0.322958,20.6185,111.487,0.147821,0.0,0.0
1333,333,59.0998,61.6198,155.875,99.7661,98.1158,0.00181115,0.324173,20.6179,110.637,0.15283,0.0,0.0
1364,340.75,59.0242,62.3953,153.257,99.3661,97.8063,0.00171771,0.324615,20.618,109.856,0.144969,0.0,0.0
1395,348.5,59.645,62.1118,151.853,99.0333,97.504,0.00166171,0.326748,20.6177,109.045,0.142599,0.0,0.0
1426,356.25,59.7721,62.346,152.841,98.813,97.051,0.00158524,0.329023,20.616,108.285,0.164848,0.0,0.0
1457,364,59.1259,61.5972,148.817,98.8843,97.19,0.00127899,0.329262,20.6126,107.464,0.158347,0.0,0.0
1488,371.75,59.4224,62.0481,156.801,99.219,97.2501,0.00180298,0.334001,20.609,106.663,0.183655,0.0,0.0
1519,379.5,59.931,61.8817,150.799,99.7125,97.6629,0.001547,0.337377,20.6027,105.832,0.190299,0.0,0.0
1550,387.25,60.1694,62.5491,156.377,99.9917,97.9785,0.00175666,0.337555,20.6057,105.022,0.186362,0.0,0.0
1581,395,60.0327,62.5651,149.886,99.9478,97.8111,0.00191588,0.341872,20.6015,104.151,0.198003,0.0,0.0
1612,402.75,60.6465,62.8892,152.535,99.5486,97.2497,0.00164209,0.345591,20.5971,103.4,0.214073,0.0,0.0
1643,410.5,60.4395,62.9203,156.851,99.6984,97.2236,0.00217167,0.345322,20.5942,102.61,0.230309,0.0,0.0
1674,418.25,60.3224,63.1147,154.842,100.204,97.54,0.00200211,0.348503,20.5937,101.759,0.246891,0.0,0.0
1705,426,60.8723,63.4982,151.914,99.8004,96.9642,0.00215476,0.350921,20.5894,100.978,0.264157,0.0,0.0
1736,433.75,60.8259,63.2637,148.764,100.374,97.403,0.00204269,0.354183,20.5849,100.127,0.275334,0.0,0.0
1767,441.5,61.2497,63.8444,150.37,100.592,97.6541,0.00194906,0.354617,20.5819,99.3067,0.271546,0.0,0.0
1798,449.25,61.0218,63.9515,149.036,99.9349,96.7795,0.00196194,0.361255,20.5762,98.486,0.293963,0.0,0.0
1829,457,61.4054,64.464,148.325,98.9773,96.1469,0.00187982,0.363617,20.5744,97.6753,0.26584,0.0,0.0
1860,464.75,61.7863,64.7138,147.276,98.9495,95.4056,0.00207541,0.371137,20.5638,96.8045,0.334177,0.0,0.0
1891,472.5,62.0615,64.5982,149.674,99.6847,95.9342,0.0022561,0.376566,20.5573,95.9337,0.351379,0.0,0.0
1922,480.25,62.5925,65.1082,149.823,100.017,95.6003,0.0024969,0.385038,20.5467,95.043,0.413793,0.0,0.0
1953,488,62.7869,65.7943,154.439,99.5369,94.9259,0.00203343,0.396645,20.5376,94.0721,0.434593,0.0,0.0
1984,495.75,63.0522,65.8919,150.613,99.9111,95.2739,0.002404,0.400521,20.5288,93.1213,0.435452,0.0,0.0
2015,503.5,63.7898,66.5454,149.022,99.9003,95.2274,0.00253407,0.411322,20.5156,92.1504,0.438922,0.0,0.0
2046,511.25,64.1294,66.9464,149.362,100.234,94.8498,0.00234068,0.418877,20.5048,91.2296,0.505906,0.0,0.0
2077,519,64.5217,67.2078,148.922,100.588,94.6997,0.00226524,0.420212,20.5001,90.3088,0.552737,0.0,0.0
2108,526.75,64.7599,67.9022,150.027,99.8846,94.0145,0.00239623,0.421558,20.4957,89.368,0.554935,0.0,0.0
2139,534.5,64.9902,68.0547,151.455,98.9548,93.3594,0.0025321,0.423682,20.4925,88.4072,0.533316,0.0,0.0
2170,542.25,64.8261,67.7996,152.039,98.9419,93.3374,0.00278702,0.413751,20.496,87.5164,0.534284,0.0,0.0
2201,550,64.5439,67.7171,151.813,99.6714,93.9056,0.00321004,0.400552,20.5039,86.7657,0.545988,0.0,0.0
2232,557.75,63.8344,67.5086,157.292,100.007,95.394,0.00260782,0.372873,20.5315,86.0651,0.432731,0.0,0.0
2263,565.5,63.3447,66.6158,156.477,99.5248,96.4844,0.00251772,0.339144,20.563,85.6047,0.284269,0.0,0.0
2294,573.25,61.3121,64.5586,155.554,99.7625,97.9593,0.00191925,0.284361,20.6216,85.2744,0.167129,0.0,0.0
2325,581,59.1426,62.3693,165.86,100.055,98.9311,0.0018429,0.207459,20.7064,85.0943,0.103497,0.0,0.0
2356,588.75,56.7152,60.0129,164.024,99.8837,98.853,0.00205891,0.154564,20.7796,84.9141,0.0950394,0.0,0.0
2387,596.5,54.4178,57.6044,163.02,100.457,99.5174,0.00287839,0.131399,20.8226,84.744,0.0861062,0.0,0.0
2418,604.25,52.9266,55.4202,158.6,100.383,99.384,0.00346639,0.121688,20.8396,84.6039,0.0916651,0.0,0.0
2449,612,51.1826,53.9029,162.198,99.5276,98.4614,0.00382809,0.11651,20.8471,84.5438,0.0986849,0.0,0.0
2480,619.75,49.711,53.0934,163.421,98.8561,97.8916,0.00423901,0.114174,20.8509,84.4837,0.0898319,0.0,0.0
2511,627.5,48.5498,51.3898,167.45,99.049,97.9581,0.00460101,0.111762,20.8544,84.4037,0.10148,0.0,0.0
2542,635.25,47.5314,49.0482,163.763,99.6525,98.4998,0.00480031,0.109623,20.8576,84.3336,0.106598,0.0,0.0
2573,643,46.3685,48.0891,164.096,99.9732,98.9744,0.00513626,0.111614,20.8563,84.1434,0.0920003,0.0,0.0
2604,650.75,45.0314,46.7843,165.232,99.9897,98.8687,0.00562557,0.11152,20.856,84.0634,0.103306,0.0,0.0
2635,658.5,44.6455,46.6261,170.399,99.8104,98.7169,0.00606624,0.110558,20.8583,83.9333,0.10094,0.0,0.0
2666,666.25,43.7246,45.9691,162.901,99.5703,98.6556,0.00604203,0.10851,20.8599,83.8932,0.0845598,0.0,0.0
2697,674,43.1307,44.8185,160.313,99.3902,98.4286,0.00668058,0.107804,20.8615,83.8332,0.0890856,0.0,0.0
2728,681.75,42.8097,43.8671,163.842,99.3326,98.268,0.00657727,0.108504,20.8631,83.7531,0.0987335,0.0,0.0
2759,689.5,41.9774,43.7544,163.712,99.3077,98.274,0.00665574,0.107563,20.8602,83.6931,0.0958685,0.0,0.0
2790,697.25,42.2745,43.0695,168.191,99.3073,98.1899,0.00677733,0.107537,20.8609,83.5429,0.103676,0.0,0.0
2821,705,41.9081,42.6231,163.891,99.3173,98.4114,0.00653115,0.106166,20.8637,83.4428,0.0839646,0.0,0.0
2852,712.75,40.8956,42.2608,165.098,99.3427,98.3433,0.00694301,0.105675,20.863,83.3227,0.0926448,0.0,0.0
2883,720.5,40.9687,41.1472,161.181,99.3504,98.5163,0.00774224,0.106834,20.8626,83.3628,0.0772487,0.0,0.0
2914,728.25,39.9313,41.2888,163.897,99.3649,98.4766,0.00742077,0.104515,20.8666,83.3227,0.0822739,0.0,0.0
2945,736,40.0154,40.6065,164.291,99.4031,98.435,0.00755822,0.103192,20.8672,83.2026,0.0896784,0.0,0.0
2976,743.75,39.9136,40.3916,165.326,99.4527,98.6913,0.00762936,0.103574,20.8677,83.1426,0.0704194,0.0,0.0
3000,749.75,39.6383,39.7008,159.324,99.5518,98.5023,0.00781404,0.103769,20.8678,83.0925,0.0971093,0.0,0.0