File: 01_Data/Countertop_Plastic_Laminate/Cone/Countertop_Plastic_Laminate_Cone_HF50Scan_220415_R3.csv
Names,Time,Stack TC,Smoke TC,Exh Press,Smoke Comp,Smoke Meas,CO Meter,CO2 Meter,O2 Meter,Sample Mass,Ext Coeff,Start Test,Flame Verif
Chan Gain,,500,500,1,1,1,1,1,1,1,1,1.0,1.0
Offset,,0,0,0.134921,0,0,0,0,0,0,0,0.0,0.0
Gain,,1,1,25.011,13.0391,14.631,1,1,1,1.0009,1.01612,1.0,1.0
Units,sec,C,C,Pa,%,%,%,%,%,g,/m,,
Baseline,,35.6115,36.8674,131.791,98.4512,102.82,0.000558659,0.065557,20.9876,-478.163,-0.386967,,
157,39,42.0071,41.162,114.324,99.3385,105.167,0.00513247,0.417355,20.5595,747.732,-0.508178,0.0,0.0
314,78.25,48.98,50.4716,127.726,99.2844,103.945,0.00333345,0.230012,20.8088,744.489,-0.408929,0.0,0.0
471,117.5,45.5323,48.1065,127.704,99.2709,104.071,0.00360285,0.164469,20.871,742.788,-0.420934,0.0,0.0
628,156.75,47.1839,49.1991,124.603,99.0699,100.664,0.00463402,0.226127,20.7996,740.556,-0.142252,0.0,0.0
785,196,51.0696,53.3216,117.936,98.894,100.365,0.00569229,0.282262,20.7414,737.333,-0.131602,0.0,0.0
942,235.25,55.0637,57.2129,122.238,98.7265,101.813,0.00461596,0.305776,20.716,733.439,-0.27443,0.0,0.0
1099,274.5,57.022,59.546,119.878,98.5956,103.134,0.00384306,0.302752,20.7184,729.426,-0.40114,0.0,0.0
1256,313.75,58.269,60.584,121.824,98.4814,103.611,0.00318644,0.292537,20.7271,725.662,-0.452589,0.0,0.0
1413,353,57.6387,61.0819,125.485,98.4715,104.07,0.0027147,0.283005,20.7368,722.229,-0.492851,0.0,0.0
1570,392.25,57.345,61.0347,120.21,98.2884,105.044,0.00225334,0.269267,20.7515,718.986,-0.592491,0.0,0.0
1727,431.5,57.2768,60.8238,122.122,98.1714,103.661,0.00223255,0.261031,20.7605,715.823,-0.484951,0.0,0.0
1884,470.75,56.8865,60.1324,123.44,98.2379,105.134,0.00219065,0.257556,20.7655,712.751,-0.604725,0.0,0.0
2041,510,57.2861,60.2208,119.181,98.45,105.261,0.00190985,0.252599,20.7695,709.768,-0.596245,0.0,0.0
2198,549.25,57.2591,59.8744,124.448,98.7603,105.801,0.00159568,0.245295,20.7763,706.976,-0.613783,0.0,0.0
2355,588.5,56.0907,58.7045,122.541,99.0839,106.618,0.00179056,0.235933,20.7893,704.223,-0.653207,0.0,0.0
2512,627.75,55.5238,58.3538,123.791,99.3373,106.488,0.00168095,0.226781,20.8017,701.571,-0.619565,0.0,0.0
2669,667,54.802,57.3529,120.176,99.3401,105.831,0.00172624,0.217628,20.8127,698.998,-0.564131,0.0,0.0
2826,706.25,53.7652,56.244,123.528,99.1981,105.636,0.00208137,0.208566,20.8209,696.596,-0.560475,0.0,0.0
2983,745.5,53.4138,55.5803,123.141,98.8172,104.363,0.00159501,0.202475,20.829,694.304,-0.486694,0.0,0.0
3140,784.75,52.9153,54.8343,124.739,98.8582,105.366,0.00171473,0.195612,20.8392,692.022,-0.568278,0.0,0.0
3297,824,51.7524,54.5002,123.648,99.2442,105.932,0.00192745,0.193222,20.8403,689.74,-0.581234,0.0,0.0
3454,863.25,51.7399,53.3561,123.78,99.3489,105.623,0.00199089,0.189054,20.8455,687.518,-0.545879,0.0,0.0
3611,902.5,51.4583,53.5772,124.505,99.1201,105.978,0.00232089,0.187329,20.8493,685.416,-0.59626,0.0,0.0
3768,941.75,51.036,53.2664,125.094,98.988,105.439,0.00231133,0.185548,20.8494,683.244,-0.562781,0.0,0.0
3925,981,51.0122,52.6928,129.525,99.2259,106.234,0.00248338,0.185847,20.8456,681.042,-0.608315,0.0,0.0
4082,1020.25,50.9007,52.8016,123.622,99.4814,104.781,0.00219534,0.184167,20.8533,678.92,-0.462651,0.0,0.0
4239,1059.5,50.3433,52.4491,127.67,99.5562,106.127,0.00220644,0.184378,20.8508,676.888,-0.5697,0.0,0.0
4396,1098.75,50.5685,52.4638,124.717,99.6795,105.719,0.0018707,0.184447,20.8537,674.727,-0.524283,0.0,0.0
4553,1138,50.2017,52.3134,126.889,99.8057,106.717,0.00211064,0.182501,20.855,672.605,-0.596828,0.0,0.0
4710,1177.25,50.0055,51.7965,127.371,99.7969,106.093,0.00210819,0.184256,20.8554,670.433,-0.545283,0.0,0.0
4867,1216.5,50.3296,52.0108,121.803,99.7488,105.395,0.00196955,0.184956,20.8552,668.331,-0.490797,0.0,0.0
5024,1255.75,50.1933,52.1498,125.1,99.6648,105.11,0.00207952,0.185421,20.8544,666.269,-0.474179,0.0,0.0
5181,1295,49.7928,51.7171,123.285,99.5856,106.12,0.00201448,0.1871,20.8491,664.087,-0.566501,0.0,0.0
5338,1334.25,50.6955,52.6157,124.47,99.4424,105.528,0.00220659,0.188971,20.8487,661.805,-0.529465,0.0,0.0
5495,1373.5,50.8781,52.6206,126.131,99.2721,105.262,0.00197312,0.191557,20.8456,659.583,-0.522237,0.0,0.0
5652,1412.75,50.8162,52.89,125.802,99.0055,106.825,0.00231834,0.195899,20.8377,657.421,-0.677602,0.0,0.0
5809,1452,51.1331,53.31,122.461,98.9386,105.925,0.00184461,0.198291,20.8361,655.129,-0.608198,0.0,0.0
5966,1491.25,51.2978,53.5542,126.205,98.8192,104.838,0.00188739,0.201436,20.8363,652.767,-0.52696,0.0,0.0
6123,1530.5,51.7024,54.1383,128.364,98.6306,105.264,0.00178395,0.205051,20.8301,650.355,-0.580131,0.0,0.0
6280,1569.75,52.2838,54.7483,121.757,98.5622,105.529,0.00151193,0.210969,20.8217,647.962,-0.608786,0.0,0.0
6437,1609,52.5741,55.0498,126.955,98.4086,105.579,0.00172096,0.218571,20.8129,645.5,-0.626911,0.0,0.0
6594,1648.25,53.4453,56.0097,127.084,98.2657,104.581,0.00171265,0.222446,20.8079,642.968,-0.55521,0.0,0.0
6751,1687.5,54.0253,56.3587,124.22,98.1945,105.694,0.00163653,0.226499,20.8038,640.316,-0.655967,0.0,0.0
6908,1726.75,54.4122,56.5741,126.325,98.1834,104.339,0.00144045,0.229509,20.8031,637.633,-0.542034,0.0,0.0
7065,1766,54.5002,57.3432,123.366,98.2216,105.221,0.0019046,0.233632,20.7992,635.001,-0.613583,0.0,0.0
7222,1805.25,55.3049,57.6323,122.172,98.4058,105.387,0.00171838,0.240201,20.7899,632.248,-0.61094,0.0,0.0
7379,1844.5,55.7407,57.985,121.519,98.5709,105.56,0.00173882,0.247245,20.7821,629.406,-0.610597,0.0,0.0
7536,1883.75,56.1724,58.9613,121.963,98.4977,105.504,0.00163539,0.252236,20.777,626.423,-0.612468,0.0,0.0
7693,1923,57.2993,59.6845,123.08,98.4559,106.02,0.00188924,0.257892,20.769,623.49,-0.65975,0.0,0.0
7850,1962.25,57.8579,60.6118,120.39,98.4452,105.257,0.00158979,0.262703,20.7638,620.538,-0.596338,0.0,0.0
8007,2001.5,57.9317,60.3794,121.391,98.4066,105.608,0.00185434,0.270626,20.7577,617.435,-0.629502,0.0,0.0
8164,2040.75,59.1092,61.4245,121.99,98.5061,104.811,0.00175935,0.277713,20.7463,614.242,-0.553012,0.0,0.0
8321,2080,59.4372,62.176,121.787,98.6748,104.944,0.00204319,0.282156,20.7387,611.079,-0.549067,0.0,0.0
8478,2119.25,59.9191,62.5424,118.826,98.7958,105.885,0.00181864,0.278752,20.7434,607.946,-0.617694,0.0,0.0
8635,2158.5,59.9622,62.5885,123.231,98.9123,106.544,0.00186621,0.278089,20.7425,604.844,-0.66245,0.0,0.0
8792,2197.75,60.1539,62.849,120.897,99.0862,107,0.00200935,0.279863,20.7367,601.791,-0.684888,0.0,0.0
8949,2237,60.5635,63.0686,121.218,99.2792,106.929,0.00233154,0.284891,20.7327,598.618,-0.661628,0.0,0.0
9106,2276.25,61.1677,64.0441,122.613,99.323,106.07,0.00220527,0.294171,20.7244,595.495,-0.585837,0.0,0.0
9263,2315.5,62.0845,64.6527,116.479,99.3608,106.871,0.00201075,0.295744,20.7198,592.332,-0.649467,0.0,0.0
9420,2354.75,61.7787,64.6323,118.971,99.4153,106.434,0.00248492,0.297697,20.7146,589.13,-0.608046,0.0,0.0
9577,2394,62.3102,65.9831,122.493,99.3612,106.762,0.002302,0.298627,20.7115,585.947,-0.640378,0.0,0.0
9734,2433.25,62.6076,65.6056,122.19,99.2052,106.531,0.00244356,0.300908,20.7105,582.764,-0.635014,0.0,0.0
9891,2472.5,62.8476,65.5605,120.486,98.9295,105.806,0.00258379,0.299203,20.7126,579.681,-0.598985,0.0,0.0
10048,2511.75,62.883,65.4431,118.7,98.7393,105.213,0.00259816,0.296469,20.7145,576.548,-0.566009,0.0,0.0
10205,2551,62.3073,65.1985,125.925,98.7759,105.136,0.00288976,0.294975,20.7188,573.476,-0.556196,0.0,0.0
10362,2590.25,62.7916,64.9698,121.006,98.9187,104.786,0.00273137,0.29229,20.7228,570.373,-0.513625,0.0,0.0
10519,2629.5,62.1753,64.7273,118.14,99.0715,106.065,0.00229273,0.287691,20.7281,567.37,-0.607947,0.0,0.0
10676,2668.75,62.5553,65.5449,121.274,99.2462,105.809,0.00279686,0.285289,20.7269,564.517,-0.570718,0.0,0.0
10833,2708,62.1931,64.5057,119.778,99.3469,105.026,0.00247884,0.277882,20.7364,561.665,-0.495537,0.0,0.0
10990,2747.25,61.4079,64.3826,124.192,99.3843,105.957,0.00189211,0.273561,20.7414,558.902,-0.570767,0.0,0.0
11147,2786.5,60.724,63.7979,124.03,99.3493,105.833,0.0023288,0.266232,20.7521,556.11,-0.563497,0.0,0.0
11304,2825.75,60.5519,62.9675,123.885,99.3879,105.911,0.00222216,0.261051,20.7537,553.538,-0.566613,0.0,0.0
11461,2865,59.8896,62.4971,118.152,99.4026,105.602,0.00212253,0.253963,20.7581,551.135,-0.539214,0.0,0.0
11618,2904.25,58.69,61.2739,128.612,99.4022,105.576,0.00245987,0.236728,20.7796,548.863,-0.537102,0.0,0.0
11775,2943.5,56.3401,58.5779,123.098,99.3803,105.921,0.0032064,0.172956,20.8452,547.252,-0.568156,0.0,0.0
11932,2982.75,52.5814,54.5938,126.762,99.2967,105.744,0.00391142,0.145915,20.8763,546.381,-0.560725,0.0,0.0
12089,3022,50.3538,52.236,124.669,99.3644,105.831,0.0043444,0.136292,20.8886,545.741,-0.56199,0.0,0.0
12246,3061.25,48.664,50.2495,125.86,99.3938,105.75,0.00435335,0.131877,20.8947,545.16,-0.552541,0.0,0.0
12403,3100.5,48.172,49.1164,125.724,99.3644,104.502,0.00456492,0.129541,20.8996,544.56,-0.44933,0.0,0.0
12560,3139.75,47.2813,48.5185,129.321,99.136,106.083,0.00451152,0.125586,20.9037,543.959,-0.603725,0.0,0.0
12717,3179,46.7105,48.2553,125.633,98.8936,104.966,0.00506755,0.124505,20.9076,543.529,-0.531139,0.0,0.0
12874,3218.25,46.9082,47.8417,121.961,98.8097,104.889,0.0049339,0.122227,20.9132,543.038,-0.532186,0.0,0.0
13031,3257.5,46.1006,47.3183,125.655,98.9398,105.053,0.00543964,0.121381,20.9137,542.608,-0.534408,0.0,0.0
13188,3296.75,45.2062,47.0408,129.367,98.9008,104.579,0.00530087,0.118725,20.9175,542.077,-0.49756,0.0,0.0
13345,3336,44.8901,46.2827,124.346,98.7476,104.463,0.00584435,0.116953,20.9202,541.687,-0.501554,0.0,0.0
13502,3375.25,45.303,45.9688,129.774,98.7046,104.846,0.00594059,0.115989,20.9193,541.347,-0.538024,0.0,0.0
13659,3414.5,44.6171,45.7306,131.635,98.6979,103.599,0.00611979,0.115812,20.9202,540.946,-0.431981,0.0,0.0
13816,3453.75,45.0144,45.9493,125.413,98.7241,104.057,0.00610069,0.115791,20.9183,540.516,-0.468899,0.0,0.0
13973,3493,44.5042,45.9418,127.749,98.949,104.108,0.00651538,0.11391,20.925,540.125,-0.453058,0.0,0.0
14130,3532.25,44.4401,45.5316,129.261,99.0214,103.984,0.00676691,0.11821,20.9176,539.795,-0.435904,0.0,0.0
14287,3571.5,44.1323,45.2017,126.624,98.9581,104.349,0.00724002,0.1126,20.9267,539.505,-0.472816,0.0,0.0
14444,3610.75,42.1135,43.4136,126.327,98.793,104.288,0.00694947,0.1123,20.9264,539.195,-0.482476,0.0,0.0
14601,3650,41.9937,43.2374,128.766,98.7544,104.288,0.00698444,0.111767,20.9231,538.724,-0.485959,0.0,0.0
14758,3689.25,41.7614,43.1882,125.439,98.9,104.336,0.00734723,0.111419,20.9287,538.414,-0.476945,0.0,0.0
14886,3721.25,41.5643,42.9675,130.339,98.8029,104.04,,,,538.224,-0.460373,0.0,0.0