File: 01_Data/Countertop_Plastic_Laminate/Cone/Countertop_Plastic_Laminate_Cone_HF50Scan_220415_R2.csv
Names,Time,Stack TC,Smoke TC,Exh Press,Smoke Comp,Smoke Meas,CO Meter,CO2 Meter,O2 Meter,Sample Mass,Ext Coeff,Start Test,Flame Verif
Chan Gain,,500,500,1,1,1,1,1,1,1,1,1.0,1.0
Offset,,0,0,0.134921,0,0,0,0,0,0,0,0.0,0.0
Gain,,1,1,25.011,13.0391,14.631,1,1,1,1.0009,1.01612,1.0,1.0
Units,sec,C,C,Pa,%,%,%,%,%,g,/m,,
Baseline,,34.7095,35.9152,132.398,98.8062,102.56,0.000589498,0.0587168,21.0073,-477.635,-0.33229,,
157,39,35.6018,36.438,113.497,99.2617,106.927,0.00635998,0.147337,20.7372,724.501,-0.663014,0.0,0.0
314,78.25,45.626,47.5471,126.796,99.1037,103.806,0.00383586,0.206408,20.8758,721.328,-0.413209,0.0,0.0
471,117.5,41.2886,43.8216,131.917,99.0548,103.157,0.00573242,0.134687,20.9282,720.187,-0.361692,0.0,0.0
628,156.75,44.0242,45.3866,126.651,99.0393,100.03,0.00543831,0.203031,20.8156,718.216,-0.0887311,0.0,0.0
785,196,48.856,50.7639,124.209,98.9812,97.327,0.00767968,0.272556,20.7512,715.033,0.150219,0.0,0.0
942,235.25,51.7392,54.7547,125.314,98.7476,99.0545,0.00775607,0.292166,20.7391,711.409,-0.0276597,0.0,0.0
1099,274.5,53.6412,56.3307,124.661,98.2808,102.026,0.00680407,0.279587,20.7577,707.726,-0.333384,0.0,0.0
1256,313.75,53.6024,57.2398,125.23,98.031,102.259,0.00684576,0.269888,20.7673,704.103,-0.376377,0.0,0.0
1413,353,54.2633,57.176,123.455,98.0891,103.957,0.00654442,0.254784,20.7885,700.62,-0.51789,0.0,0.0
1570,392.25,53.6511,56.2715,122.406,98.4138,103.321,0.00652598,0.242814,20.7985,697.157,-0.43371,0.0,0.0
1727,431.5,53.5076,56.1754,121.878,98.6879,103.229,0.00566043,0.234161,20.8051,693.974,-0.400976,0.0,0.0
1884,470.75,53.4005,55.8149,122.888,98.9844,104.713,0.00587462,0.227129,20.814,690.881,-0.50148,0.0,0.0
2041,510,52.3328,55.4688,123.744,99.2243,104.243,0.00486158,0.218778,20.8222,688.149,-0.439788,0.0,0.0
2198,549.25,51.6207,54.5043,125.82,98.873,103.622,0.00439248,0.207789,20.8369,685.556,-0.41818,0.0,0.0
2355,588.5,50.3055,54.336,123.289,98.5685,103.555,0.00421004,0.19912,20.8475,683.124,-0.439902,0.0,0.0
2512,627.75,50.5237,53.052,121.687,98.7958,104.361,0.00440256,0.190154,20.8582,680.722,-0.48848,0.0,0.0
2669,667,49.6608,52.7182,126.257,99.2223,104.769,0.00422924,0.183079,20.863,678.55,-0.484827,0.0,0.0
2826,706.25,49.4527,51.461,125.643,99.2561,105.125,0.00445597,0.17531,20.8733,676.468,-0.512014,0.0,0.0
2983,745.5,48.7116,50.7711,123.791,98.9872,104.386,0.00421509,0.170168,20.8793,674.426,-0.473364,0.0,0.0
3140,784.75,48.1587,50.2249,124.079,98.871,104.172,0.0046468,0.165266,20.8839,672.444,-0.465552,0.0,0.0
3297,824,47.6768,49.7231,127.874,98.9251,103.67,0.00443055,0.161797,20.8874,670.443,-0.417553,0.0,0.0
3454,863.25,47.1636,49.1736,125.92,99.1328,104.16,0.00451752,0.158045,20.8947,668.561,-0.440947,0.0,0.0
3611,902.5,47.224,48.5822,126.095,99.3337,103.516,0.00443867,0.154507,20.8952,666.779,-0.367553,0.0,0.0
3768,941.75,46.9223,48.5431,128.329,99.4285,104.353,0.00457977,0.153288,20.8955,664.948,-0.430856,0.0,0.0
3925,981,45.8535,48.3756,126.453,99.5665,103.858,0.00462868,0.149162,20.9047,663.096,-0.376129,0.0,0.0
4082,1020.25,46.1604,47.7837,127.43,99.6899,104.228,0.00466855,0.147766,20.9024,661.314,-0.396765,0.0,0.0
4239,1059.5,45.7107,47.416,123.598,99.7169,105.109,0.00465297,0.147284,20.9054,659.653,-0.469367,0.0,0.0
4396,1098.75,45.3626,47.2271,128.753,99.5637,104.162,0.00451803,0.146171,20.9053,657.931,-0.402474,0.0,0.0
4553,1138,45.5166,47.5633,124.297,99.2191,103.649,0.00468658,0.147597,20.9004,656.16,-0.38933,0.0,0.0
4710,1177.25,45.5012,47.158,124.389,98.7866,103.601,0.0043819,0.1458,20.9059,654.408,-0.424163,0.0,0.0
4867,1216.5,45.1225,46.6803,125.137,98.4993,102.856,0.00406399,0.145348,20.904,652.807,-0.385816,0.0,0.0
5024,1255.75,44.8639,46.9529,126.195,98.3672,102.359,0.00414379,0.147641,20.9012,651.155,-0.354532,0.0,0.0
5181,1295,44.776,46.9898,126.026,98.1491,102.456,0.00412381,0.145829,20.9065,649.454,-0.382784,0.0,0.0
5338,1334.25,44.8957,47.3094,126.308,98.0747,103.565,0.00371927,0.145075,20.9043,647.732,-0.485476,0.0,0.0
5495,1373.5,45.3292,46.3878,131.055,98.0711,103.655,0.00367748,0.14587,20.905,646.061,-0.493561,0.0,0.0
5652,1412.75,45.0184,46.4795,127.766,98.0898,103.071,0.00361767,0.145837,20.9047,644.479,-0.441499,0.0,0.0
5809,1452,44.8352,46.4079,126.087,98.0906,103.508,0.00368247,0.146236,20.9054,642.858,-0.479186,0.0,0.0
5966,1491.25,44.8446,46.7393,126.305,98.1089,103.081,0.00346965,0.147458,20.9019,641.246,-0.440651,0.0,0.0
6123,1530.5,45.236,47.3633,130.259,98.1957,103.805,0.00321154,0.149044,20.8985,639.555,-0.495139,0.0,0.0
6280,1569.75,45.3754,47.771,128.083,98.4547,102.649,0.00326889,0.150402,20.8962,637.923,-0.371878,0.0,0.0
6437,1609,45.5446,47.2443,126.502,98.5888,103.271,0.00269911,0.153529,20.8937,636.312,-0.413553,0.0,0.0
6594,1648.25,45.5467,47.8796,124.703,98.8208,103.899,0.00289423,0.156421,20.8903,634.64,-0.446662,0.0,0.0
6751,1687.5,46.6402,47.9753,127.718,99.0007,104.044,0.00268756,0.160475,20.8849,632.829,-0.442855,0.0,0.0
6908,1726.75,46.0885,47.8631,127.304,99.0122,103.501,0.00253275,0.16487,20.8808,631.017,-0.395219,0.0,0.0
7065,1766,46.5859,48.9422,125.408,98.8921,103.779,0.00236262,0.169654,20.8772,629.226,-0.429967,0.0,0.0
7222,1805.25,47.2173,49.22,124.46,98.8666,104.016,0.00227561,0.17475,20.8709,627.324,-0.452527,0.0,0.0
7379,1844.5,47.8736,49.7064,127.196,98.9744,104.122,0.00193224,0.179928,20.8653,625.362,-0.45195,0.0,0.0
7536,1883.75,48.1408,49.7186,126.228,99.0934,104.491,0.00177608,0.186224,20.8596,623.18,-0.472758,0.0,0.0
7693,1923,48.8209,51.1495,125.549,99.1973,105.964,0.00224486,0.194141,20.8514,621.008,-0.588194,0.0,0.0
7850,1962.25,49.9709,51.8142,125.35,99.2621,104.378,0.00175665,0.202231,20.8431,618.746,-0.447953,0.0,0.0
8007,2001.5,50.8449,52.999,122.057,99.255,105.96,0.0021317,0.210938,20.8332,616.334,-0.582636,0.0,0.0
8164,2040.75,51.5519,53.7597,126.427,99.1969,105.542,0.00195585,0.221734,20.8229,613.702,-0.552629,0.0,0.0
8321,2080,52.7138,55.0837,122.578,99.2542,104.233,0.00173959,0.232807,20.8066,610.999,-0.436305,0.0,0.0
8478,2119.25,53.7293,55.8855,121.633,99.2999,105.823,0.00163053,0.245888,20.7914,608.187,-0.567136,0.0,0.0
8635,2158.5,54.8533,57.6608,120.966,99.2952,104.371,0.00181954,0.259627,20.7745,605.184,-0.444339,0.0,0.0
8792,2197.75,56.6539,59.3852,123.583,99.2219,105.555,0.00173924,0.27135,20.7582,602.031,-0.55147,0.0,0.0
8949,2237,57.8653,59.9887,119.102,99.126,106.366,0.00175547,0.281256,20.7479,598.708,-0.628298,0.0,0.0
9106,2276.25,58.8596,61.4013,121.232,99.1587,106.502,0.00234474,0.285163,20.742,595.405,-0.63677,0.0,0.0
9263,2315.5,58.5782,61.5644,118.92,99.0942,106.242,0.0022319,0.287885,20.7372,592.132,-0.62079,0.0,0.0
9420,2354.75,58.7627,62.0648,121.645,99.1595,106.038,0.001682,0.283065,20.7411,588.899,-0.597824,0.0,0.0
9577,2394,58.6933,62.0514,119.198,99.2936,106.57,0.00190923,0.269312,20.7572,585.827,-0.63033,0.0,0.0
9734,2433.25,57.3996,60.801,124.79,99.1937,104.82,0.00223733,0.253329,20.7706,583.064,-0.491769,0.0,0.0
9891,2472.5,56.5059,59.308,127.779,98.8061,105.139,0.00235432,0.240475,20.7833,580.652,-0.553694,0.0,0.0
10048,2511.75,55.1835,57.8918,124.345,98.2502,103.593,0.00254494,0.229535,20.801,578.33,-0.472001,0.0,0.0
10205,2551,54.5323,57.1547,121.768,98.1189,104.142,0.00214967,0.222946,20.8079,576.028,-0.531013,0.0,0.0
10362,2590.25,54.385,56.8793,123.244,98.1173,104.183,0.00258322,0.21907,20.8115,573.846,-0.534673,0.0,0.0
10519,2629.5,54.5039,56.1504,125.625,98.1818,104.767,0.00250642,0.215266,20.8209,571.764,-0.578645,0.0,0.0
10676,2668.75,53.978,56.0143,122.674,98.4806,105.283,0.00274399,0.213933,20.8191,569.772,-0.595362,0.0,0.0
10833,2708,53.6744,55.6801,120.383,98.75,104.921,0.0023434,0.214292,20.8209,567.68,-0.540265,0.0,0.0
10990,2747.25,53.6058,55.8934,124.551,98.7822,105.106,0.00228599,0.216251,20.8204,565.488,-0.553085,0.0,0.0
11147,2786.5,54.3513,55.4595,124.38,98.8188,105.282,0.00247706,0.219297,20.8156,563.326,-0.564726,0.0,0.0
11304,2825.75,54.2065,56.0126,122.535,98.9263,105.39,0.00268108,0.221823,20.8141,561.174,-0.564146,0.0,0.0
11461,2865,54.5212,56.4861,123.452,98.9402,106.049,0.00253618,0.230856,20.7985,558.962,-0.618456,0.0,0.0
11618,2904.25,55.2553,57.414,122.606,99.0365,106.176,0.00218662,0.237002,20.7954,556.61,-0.620474,0.0,0.0
11775,2943.5,55.7924,58.0846,124.296,99.2179,105.356,0.00237726,0.246809,20.7831,554.058,-0.534996,0.0,0.0
11932,2982.75,56.8668,59.0635,125.202,99.3027,107.022,0.00237885,0.258675,20.7687,551.416,-0.667258,0.0,0.0
12089,3022,57.8563,60.3596,122.59,99.2772,105.827,0.00228966,0.273903,20.7517,548.673,-0.569473,0.0,0.0
12246,3061.25,59.6586,62.4833,123.449,99.1849,106.315,0.00205323,0.289863,20.7324,545.641,-0.618738,0.0,0.0
12403,3100.5,60.8079,63.324,118.076,98.939,105.753,0.00225631,0.303278,20.7209,542.408,-0.593647,0.0,0.0
12560,3139.75,61.7976,64.6933,119.056,98.5861,105.092,0.00236793,0.3148,20.7042,539.065,-0.569592,0.0,0.0
12717,3179,62.8829,66.0727,121.445,98.7428,105.56,0.00212433,0.326079,20.6904,535.692,-0.595103,0.0,0.0
12874,3218.25,64.1993,67.8267,116.956,99.1085,106.461,0.0024913,0.348191,20.6607,532.068,-0.637839,0.0,0.0
13031,3257.5,66.2554,69.7181,120.704,99.3047,105.415,0.00250901,0.356976,20.6511,528.265,-0.532229,0.0,0.0
13188,3296.75,62.1792,65.737,124.327,99.294,104.915,0.00298147,0.229409,20.7956,525.572,-0.490809,0.0,0.0
13345,3336,55.4433,59.0778,126.022,99.1893,105.471,0.00352434,0.169574,20.8612,524.421,-0.547311,0.0,0.0
13502,3375.25,51.1708,53.9242,128.458,98.9689,103.688,0.00475279,0.145736,20.889,523.621,-0.415183,0.0,0.0
13659,3414.5,48.9779,51.1807,127.333,99.1925,105.081,0.00534317,0.135483,20.9032,522.89,-0.514022,0.0,0.0
13816,3453.75,47.9249,49.5029,127.873,99.253,104.412,0.00539128,0.13202,20.9044,522.219,-0.451634,0.0,0.0
13973,3493,46.6475,48.4006,126.072,99.0994,103.734,0.00609146,0.127211,20.9113,521.599,-0.407389,0.0,0.0
14130,3532.25,46.041,47.0044,132.453,98.9418,103.58,0.00587069,0.12637,20.9105,521.108,-0.408366,0.0,0.0
14287,3571.5,45.5451,46.5163,128.774,98.9776,104.275,0.00607435,0.124928,20.9119,520.578,-0.464726,0.0,0.0
14444,3610.75,43.1369,44.0268,128.839,98.9963,104.438,0.00662099,0.123177,20.9188,520.057,-0.477,0.0,0.0
14601,3650,41.9731,43.1757,128.213,99.0222,103.628,0.00706416,0.122382,20.9156,519.497,-0.405199,0.0,0.0
14758,3689.25,42.2789,43.7876,126.312,99.1344,104.657,0.00709868,0.122333,20.915,519.006,-0.483229,0.0,0.0
14889,3722,41.9121,43.5623,128.158,99.2753,104.79,,,,518.626,-0.481897,0.0,0.0