File: 01_Data/Pine_Siding/STA/N2/10K_min/Pine_Siding_STA_N2_10KData_210806_R1.csv
##Temp./Â°C,Time/min,Mass loss(subtr.2)/mg,DSC(subtr.2)/mW,Sensit./(uV/mW)
49.317,10.01,-0.03926,0.08884085,0.61831
52.317,12.3477,-0.04343974,0.37267,0.6199
55.317,13.03347,-0.04651022,0.50443,0.62145
58.317,13.5833,-0.0469565,0.61254,0.62297
61.317,14.07289,-0.04685117,0.69478,0.62446
64.317,14.52355,-0.0493181,0.76727,0.62592
67.317,14.94506,-0.05197678,0.83198,0.62735
70.317,15.34435,-0.05180016,0.89794,0.62874
73.317,15.727,-0.05450159,0.95774,0.6301
76.317,16.0946,-0.05752835,1.00265,0.63144
79.317,16.44891,-0.05868649,1.03153,0.63274
82.317,16.79571,-0.06258495,1.05848,0.63401
85.317,17.13177,-0.06524276,1.07918,0.63524
88.317,17.4596,-0.06573471,1.07876,0.63645
91.317,17.78054,-0.0663619,1.06048,0.63763
94.317,18.09525,-0.06900018,1.03181,0.63877
97.317,18.4053,-0.06976642,1.00976,0.63988
100.317,18.71051,-0.07911535,0.99367,0.64096
103.317,19.01325,-0.07204847,0.99135,0.64201
106.317,19.3123,-0.07318048,0.98314,0.64302
109.317,19.60944,-0.07195915,0.97017,0.64401
112.317,19.90486,-0.07458987,0.95929,0.64496
115.317,20.19804,-0.07319366,0.97304,0.64588
118.317,20.4893,-0.07260064,0.97319,0.64677
121.317,20.77921,-0.07393001,0.96104,0.64763
124.317,21.06656,-0.0769031,0.97426,0.64846
127.317,21.35267,-0.07414983,0.99544,0.64925
130.317,21.63618,-0.07179637,1.01599,0.65002
133.317,21.91734,-0.07403821,1.01842,0.65075
136.317,22.1976,-0.07584829,1.02125,0.65145
139.317,22.47628,-0.07451563,1.04234,0.65212
142.317,22.753,-0.07458016,1.0408,0.65276
145.317,23.02863,-0.07613588,1.05543,0.65337
148.317,23.3032,-0.07634111,1.07642,0.65395
151.317,23.5767,-0.07766159,1.09482,0.6545
154.317,23.8492,-0.07568,1.09756,0.65501
157.317,24.12142,-0.07568118,1.10375,0.6555
160.317,24.3931,-0.08595757,1.11525,0.65596
163.317,24.66442,-0.07693816,1.12413,0.65638
166.317,24.93584,-0.07755863,1.11912,0.65678
169.317,25.20644,-0.08017917,1.13601,0.65714
172.317,25.4775,-0.08029115,1.15712,0.65748
175.317,25.74803,-0.08117,1.16523,0.65778
178.317,26.01774,-0.07901649,1.17865,0.65806
181.317,26.28674,-0.08149,1.18576,0.6583
184.317,26.55582,-0.08420448,1.20419,0.65852
187.317,26.82385,-0.0861501,1.22003,0.65871
190.317,27.091,-0.08610564,1.24033,0.65887
193.317,27.35835,-0.08672249,1.23277,0.659
196.317,27.62575,-0.08707758,1.26861,0.6591
199.317,27.89231,-0.08927345,1.2931,0.65917
202.317,28.159,-0.09054701,1.32746,0.65921
205.317,28.4257,-0.09221761,1.3302,0.65922
208.317,28.69251,-0.09476985,1.35251,0.65921
211.317,28.9595,-0.09509205,1.35392,0.65917
214.317,29.22608,-0.10156,1.35596,0.6591
217.317,29.493,-0.10311,1.35872,0.659
220.317,29.76013,-0.10727,1.38252,0.65888
223.317,30.027,-0.10859,1.39017,0.65873
226.317,30.29409,-0.11189,1.40755,0.65855
229.317,30.56157,-0.11813,1.4263,0.65834
232.317,30.8287,-0.12139,1.44255,0.65811
235.317,31.0964,-0.12657,1.45104,0.65785
238.317,31.36382,-0.13217,1.47385,0.65757
241.317,31.63147,-0.14068,1.47445,0.65726
244.317,31.8999,-0.14599,1.49468,0.65692
247.317,32.16748,-0.15386,1.49683,0.65656
250.317,32.4354,-0.16266,1.50242,0.65617
253.317,32.70361,-0.17382,1.5091,0.65576
256.317,32.97204,-0.18301,1.50556,0.65532
259.317,33.24058,-0.19383,1.50164,0.65486
262.317,33.50885,-0.20533,1.51424,0.65437
265.317,33.7774,-0.21788,1.50581,0.65386
268.317,34.04603,-0.23088,1.51421,0.65333
271.317,34.31422,-0.24361,1.52198,0.65277
274.317,34.5833,-0.26143,1.53248,0.65219
277.317,34.8519,-0.27819,1.55464,0.65159
280.317,35.12075,-0.29459,1.56667,0.65096
283.317,35.38941,-0.31856,1.58105,0.65031
286.317,35.6593,-0.33962,1.61729,0.64964
289.317,35.92941,-0.36487,1.64077,0.64894
292.317,36.19951,-0.39139,1.67836,0.64822
295.317,36.4698,-0.42172,1.72727,0.64749
298.317,36.7405,-0.45514,1.76162,0.64673
301.317,37.01135,-0.49405,1.8466,0.64595
304.317,37.28313,-0.53139,1.85736,0.64514
307.317,37.55423,-0.57473,1.92471,0.64432
310.317,37.8262,-0.62191,1.99288,0.64348
313.317,38.09865,-0.67537,2.07908,0.64262
316.317,38.3711,-0.72711,2.15036,0.64174
319.317,38.6436,-0.78842,2.21414,0.64084
322.317,38.9165,-0.85151,2.29053,0.63992
325.317,39.1897,-0.91905,2.37593,0.63898
328.317,39.463,-0.98827,2.46151,0.63802
331.317,39.73656,-1.06157,2.52666,0.63704
334.317,40.0097,-1.13506,2.57651,0.63605
337.317,40.28383,-1.2148,2.62998,0.63504
340.317,40.55791,-1.29365,2.69059,0.63401
343.317,40.83282,-1.37675,2.77728,0.63296
346.317,41.10768,-1.46421,2.86254,0.6319
349.317,41.38286,-1.55606,3.01149,0.63082
352.317,41.65883,-1.65005,3.16378,0.62973
355.317,41.93477,-1.74918,3.36273,0.62862
358.317,42.2117,-1.85667,3.55453,0.62749
361.317,42.48818,-1.9717,3.78079,0.62635
364.317,42.76526,-2.09083,3.98939,0.62519
367.317,43.04254,-2.22018,4.14548,0.62402
370.317,43.32031,-2.35365,4.19806,0.62283
373.317,43.5983,-2.4838,4.05954,0.62163
376.317,43.8772,-2.61407,3.7007,0.62042
379.317,44.1557,-2.72602,3.06941,0.61919
382.317,44.43347,-2.82006,2.23476,0.61795
385.317,44.71134,-2.88695,1.36977,0.6167
388.317,44.9891,-2.92559,0.64503,0.61543
391.317,45.2667,-2.95067,0.19287,0.61415
394.317,45.54423,-2.96928,-0.01109412,0.61286
397.317,45.824,-2.98385,-0.10596,0.61156
400.317,46.1034,-2.9969,-0.1611,0.61024
403.317,46.38463,-3.00556,-0.20196,0.60892
406.317,46.6653,-3.01629,-0.2758,0.60758
409.317,46.9458,-3.02624,-0.32147,0.60624
412.317,47.2273,-3.03484,-0.35452,0.60488
415.317,47.50905,-3.04644,-0.39747,0.60352
418.317,47.79107,-3.05464,-0.42755,0.60214
421.317,48.07353,-3.06359,-0.46978,0.60075
424.317,48.3568,-3.07216,-0.5334,0.59936
427.317,48.6407,-3.0809,-0.55131,0.59796
430.317,48.92471,-3.0931,-0.58501,0.59655
433.317,49.20933,-3.10247,-0.62035,0.59513
436.317,49.4936,-3.10967,-0.62381,0.5937
439.317,49.7783,-3.11834,-0.63304,0.59227
442.317,50.06408,-3.12635,-0.61313,0.59082
445.317,50.35049,-3.13506,-0.60422,0.58937
448.317,50.63708,-3.14231,-0.58012,0.58792
451.317,50.92413,-3.15118,-0.55132,0.58646
454.317,51.21025,-3.1572,-0.52687,0.58499
457.317,51.4969,-3.16375,-0.49248,0.58351
460.317,51.78372,-3.17007,-0.46408,0.58204
463.317,52.0706,-3.17708,-0.45076,0.58055
466.317,52.35873,-3.18364,-0.4178,0.57906
469.317,52.64796,-3.18889,-0.40627,0.57757
472.317,52.93554,-3.19188,-0.39298,0.57607
475.317,53.2252,-3.19641,-0.38101,0.57456
478.317,53.51435,-3.20318,-0.37264,0.57306
481.317,53.80421,-3.20558,-0.36193,0.57155
484.317,54.095,-3.20986,-0.35671,0.57003
487.317,54.3852,-3.21505,-0.34997,0.56852
490.317,54.67524,-3.21771,-0.37099,0.567
493.317,54.96516,-3.22257,-0.36324,0.56547
496.317,55.2544,-3.22664,-0.32941,0.56395
499.317,55.5463,-3.229,-0.33274,0.56242
502.317,55.83712,-3.233,-0.32433,0.5609
505.317,56.12961,-3.2361,-0.31236,0.55937
508.317,56.4221,-3.24101,-0.31876,0.55783
511.317,56.71468,-3.2434,-0.29989,0.5563
514.317,57.0068,-3.24441,-0.31379,0.55477
517.317,57.2997,-3.24846,-0.28399,0.55324
520.317,57.5926,-3.2551,-0.26287,0.5517
523.317,57.88616,-3.254,-0.2462,0.55017
526.317,58.1798,-3.25923,-0.24043,0.54863
529.317,58.4738,-3.26086,-0.23196,0.5471
532.317,58.76761,-3.2648,-0.22601,0.54557
535.317,59.06139,-3.26776,-0.24258,0.54404
538.317,59.3568,-3.27109,-0.25408,0.54251
541.317,59.6515,-3.27303,-0.28025,0.54098
544.317,59.9468,-3.27534,-0.29532,0.53945
547.317,60.2425,-3.27597,-0.30661,0.53792
550.317,60.53787,-3.27962,-0.30068,0.5364
553.317,60.8337,-3.2818,-0.27368,0.53488
556.317,61.1288,-3.28444,-0.29206,0.53336
559.317,61.42561,-3.2885,-0.28382,0.53184
562.317,61.72221,-3.28682,-0.28265,0.53032
565.317,62.01924,-3.29218,-0.28296,0.52881
568.317,62.31681,-3.29575,-0.25711,0.5273
571.317,62.61435,-3.29629,-0.26309,0.5258
574.317,62.9121,-3.30043,-0.2415,0.5243
577.317,63.2106,-3.30032,-0.23222,0.5228
580.317,63.5084,-3.30319,-0.21643,0.52131
583.317,63.80641,-3.30486,-0.21834,0.51982
586.317,64.1043,-3.30787,-0.21525,0.51833
589.317,64.4028,-3.3102,-0.17892,0.51685
592.317,64.7028,-3.31111,-0.16117,0.51537
595.317,65.00229,-3.31569,-0.16117,0.5139
598.317,65.30266,-3.3157,-0.11399,0.51243
601.317,65.60301,-3.31834,-0.08133811,0.51097
604.317,65.9029,-3.31767,-0.07229207,0.50951
607.317,66.20249,-3.32075,-0.08504876,0.50806
610.317,66.50256,-3.32217,-0.07474778,0.50662
613.317,66.80336,-3.32569,-0.07025565,0.50518
616.317,67.10471,-3.32673,-0.06651433,0.50374
619.317,67.40605,-3.32513,-0.05219858,0.50231
622.317,67.708,-3.32856,-0.02708073,0.50089
625.317,68.0103,-3.33139,0.0059165,0.49947
628.317,68.3117,-3.33268,0.03909588,0.49806
631.317,68.61414,-3.3311,0.03674623,0.49666
634.317,68.9162,-3.33459,0.06626477,0.49526
637.317,69.21904,-3.33731,0.09172121,0.49387
640.317,69.52084,-3.33732,0.08348825,0.49249
643.317,69.8236,-3.33635,0.09226677,0.49111
646.317,70.12738,-3.33939,0.07053522,0.48974
649.317,70.43027,-3.34071,0.03285757,0.48838
652.317,70.7328,-3.34338,0.03407511,0.48702
655.317,71.03527,-3.34192,0.00233071,0.48568
658.317,71.3386,-3.3442,-0.03863936,0.48433
661.317,71.64259,-3.34249,-0.003839548,0.483
664.317,71.9468,-3.34761,0.01764822,0.48167
667.317,72.25101,-3.34634,0.02774243,0.48036
670.317,72.5548,-3.34762,0.03556372,0.47905
673.317,72.85855,-3.34762,0.04115471,0.47774
676.317,73.16277,-3.34905,0.04762691,0.47645
679.317,73.46778,-3.35031,0.06670579,0.47516
682.317,73.77402,-3.35304,0.10962,0.47388
685.317,74.08001,-3.35168,0.15982,0.47261
688.317,74.38603,-3.35243,0.18165,0.47135
691.317,74.69245,-3.35486,0.20459,0.47009
694.317,74.9991,-3.35468,0.26766,0.46884
697.317,75.307,-3.34798,0.25564,0.46761
700.317,75.61398,-3.3577,0.2561,0.46638
703.317,75.91969,-3.35475,0.25081,0.46515
706.317,76.22638,-3.36013,0.23575,0.46394
709.317,76.53359,-3.36052,0.20593,0.46273
712.317,76.84028,-3.35848,0.18009,0.46154
715.317,77.14784,-3.35782,0.15288,0.46035
718.317,77.45501,-3.36015,0.14496,0.45917
721.317,77.7636,-3.36143,0.18869,0.458
724.317,78.07251,-3.36144,0.17317,0.45683
727.317,78.38113,-3.36173,0.18181,0.45568
730.317,78.68964,-3.36166,0.23812,0.45453
733.317,78.9979,-3.36178,0.28053,0.45339
736.317,79.30625,-3.36291,0.29276,0.45226
739.317,79.61529,-3.36309,0.22173,0.45114
742.317,79.9239,-3.36477,0.20488,0.45003
743.017,79.99655,-3.36473,0.20507,0.44977