File: 01_Data/Pine_Siding/STA/N2/10K_min/Pine_Siding_STA_N2_10KData_211406_R2.csv
##Temp./Â°C,Time/min,Mass loss(subtr.2)/mg,DSC(subtr.2)/mW,Sensit./(uV/mW)
49.313,10.01,-0.04026,-0.001233905,0.61831
52.313,12.34796,-0.0445218,0.4106,0.61989
55.313,13.03575,-0.0463384,0.62096,0.62145
58.313,13.5853,-0.050296,0.76041,0.62297
61.313,14.0735,-0.05036059,0.87106,0.62446
64.313,14.5244,-0.05282884,0.97262,0.62592
67.313,14.94728,-0.05541811,1.06706,0.62734
70.313,15.34741,-0.05671,1.15694,0.62874
73.313,15.73005,-0.05934007,1.23261,0.6301
76.313,16.09845,-0.06263019,1.30231,0.63144
79.313,16.45436,-0.06334161,1.35966,0.63274
82.313,16.7999,-0.06723433,1.39229,0.63401
85.313,17.13649,-0.06854965,1.4243,0.63524
88.313,17.4653,-0.07090415,1.43002,0.63645
91.313,17.787,-0.07525459,1.43228,0.63762
94.313,18.10207,-0.0765599,1.42303,0.63877
97.313,18.41235,-0.07918338,1.4051,0.63988
100.313,18.71852,-0.07929428,1.37582,0.64096
103.313,19.02055,-0.08183547,1.35356,0.642
106.313,19.31975,-0.08183,1.31695,0.64302
109.313,19.61659,-0.08312259,1.30454,0.64401
112.313,19.91057,-0.08314605,1.31062,0.64496
115.313,20.20138,-0.08346828,1.30965,0.64588
118.313,20.49406,-0.08338757,1.29968,0.64677
121.313,20.7831,-0.08596017,1.30946,0.64763
124.313,21.06985,-0.08380002,1.33411,0.64846
127.313,21.35538,-0.08643811,1.34433,0.64925
130.313,21.63821,-0.08775,1.35941,0.65002
133.313,21.91978,-0.08873022,1.37648,0.65075
136.313,22.19973,-0.09006425,1.37368,0.65145
139.313,22.47762,-0.08674768,1.39345,0.65212
142.313,22.7544,-0.08839334,1.407,0.65276
145.313,23.0297,-0.08929,1.42123,0.65337
148.313,23.30367,-0.08929065,1.45628,0.65395
151.313,23.5764,-0.09296086,1.486,0.6545
154.313,23.84797,-0.09158997,1.48609,0.65501
157.313,24.12165,-0.09155985,1.49592,0.6555
160.313,24.39377,-0.09554182,1.51871,0.65596
163.313,24.6648,-0.09565342,1.53497,0.65638
166.313,24.9356,-0.09565,1.54303,0.65678
169.313,25.20636,-0.09695299,1.56402,0.65714
172.313,25.47639,-0.09707434,1.60007,0.65748
175.313,25.7465,-0.09838443,1.62293,0.65778
178.313,26.01652,-0.09786467,1.66064,0.65806
181.313,26.28577,-0.1008,1.69495,0.6583
184.313,26.55438,-0.10322,1.7297,0.65852
187.313,26.82225,-0.10322,1.74725,0.65871
190.313,27.08987,-0.10354,1.77864,0.65887
193.313,27.3573,-0.10618,1.80513,0.65899
196.313,27.6246,-0.1076,1.81919,0.6591
199.313,27.89116,-0.109,1.86118,0.65917
202.313,28.15751,-0.11382,1.8926,0.65921
205.313,28.42507,-0.11254,1.9286,0.65922
208.313,28.6915,-0.11665,1.95021,0.65921
211.313,28.9587,-0.12155,1.96175,0.65917
214.313,29.2255,-0.12258,1.99426,0.6591
217.313,29.4924,-0.12451,2.00414,0.659
220.313,29.7595,-0.13013,2.00103,0.65888
223.313,30.02628,-0.13317,2.01595,0.65873
226.313,30.29358,-0.13974,2.02668,0.65855
229.313,30.5604,-0.14204,2.03743,0.65834
232.313,30.82777,-0.15015,2.06718,0.65811
235.313,31.0953,-0.15625,2.0663,0.65785
238.313,31.36277,-0.15968,2.08795,0.65757
241.313,31.6304,-0.16935,2.09645,0.65726
244.313,31.8977,-0.18148,2.11479,0.65692
247.313,32.1652,-0.18848,2.13421,0.65656
250.313,32.43274,-0.19608,2.13349,0.65617
253.313,32.70025,-0.20809,2.13136,0.65576
256.313,32.96785,-0.22237,2.14546,0.65532
259.313,33.2361,-0.23562,2.14338,0.65486
262.313,33.50423,-0.24858,2.15658,0.65437
265.313,33.77175,-0.26102,2.15809,0.65386
268.313,34.0404,-0.27488,2.17894,0.65333
271.313,34.3087,-0.29187,2.1909,0.65277
274.313,34.5777,-0.31194,2.21437,0.65219
277.313,34.84656,-0.33067,2.21786,0.65159
280.313,35.11608,-0.35165,2.2424,0.65096
283.313,35.38512,-0.37469,2.26565,0.65031
286.313,35.65534,-0.40374,2.28143,0.64964
289.313,35.9246,-0.43172,2.31019,0.64894
292.313,36.1943,-0.46208,2.35232,0.64823
295.313,36.46465,-0.49999,2.3766,0.64749
298.313,36.73526,-0.53593,2.42165,0.64673
301.313,37.0073,-0.57759,2.47797,0.64595
304.313,37.27844,-0.62338,2.54144,0.64515
307.313,37.55016,-0.67228,2.60501,0.64432
310.313,37.82196,-0.7283,2.68191,0.64348
313.313,38.09425,-0.78508,2.77607,0.64262
316.313,38.36667,-0.85065,2.86208,0.64174
319.313,38.6394,-0.91794,2.93812,0.64084
322.313,38.91163,-0.98932,3.03009,0.63992
325.313,39.18439,-1.06646,3.12112,0.63898
328.313,39.457,-1.14509,3.19934,0.63802
331.313,39.73046,-1.2273,3.27328,0.63705
334.313,40.00417,-1.31875,3.35058,0.63605
337.313,40.27885,-1.40712,3.4079,0.63504
340.313,40.55358,-1.50423,3.47422,0.63401
343.313,40.8287,-1.58398,3.5565,0.63297
346.313,41.10341,-1.69649,3.6427,0.6319
349.313,41.37807,-1.80117,3.75527,0.63082
352.313,41.65376,-1.91016,3.92954,0.62973
355.313,41.92965,-2.02773,4.12996,0.62862
358.313,42.20563,-2.14856,4.37137,0.62749
361.313,42.48323,-2.27968,4.62373,0.62635
364.313,42.76073,-2.42186,4.84443,0.62519
367.313,43.0381,-2.57203,5.02379,0.62402
370.313,43.316,-2.72459,5.07035,0.62283
373.313,43.59398,-2.87609,4.91339,0.62163
376.313,43.8722,-3.02579,4.48173,0.62042
379.313,44.15059,-3.15622,3.75761,0.61919
382.313,44.42881,-3.25956,2.83229,0.61795
385.313,44.70644,-3.33266,1.88477,0.6167
388.313,44.98485,-3.38443,1.09638,0.61543
391.313,45.26307,-3.41399,0.60379,0.61415
394.313,45.54172,-3.43327,0.38261,0.61286
397.313,45.82083,-3.44717,0.26084,0.61156
400.313,46.10058,-3.46182,0.20629,0.61025
403.313,46.38065,-3.4736,0.14908,0.60892
406.313,46.66174,-3.48545,0.12031,0.60759
409.313,46.94161,-3.49696,0.05215684,0.60624
412.313,47.22437,-3.50864,-0.0001229936,0.60488
415.313,47.5071,-3.52048,-0.02933348,0.60352
418.313,47.78937,-3.53069,-0.06057019,0.60214
421.313,48.0731,-3.54397,-0.11504,0.60076
424.313,48.3553,-3.55347,-0.1721,0.59936
427.313,48.63787,-3.56538,-0.22081,0.59796
430.313,48.92175,-3.57441,-0.23216,0.59655
433.313,49.20539,-3.58606,-0.25293,0.59513
436.313,49.49007,-3.59826,-0.27374,0.5937
439.313,49.77539,-3.60776,-0.25539,0.59227
442.313,50.0606,-3.61836,-0.24322,0.59083
445.313,50.34656,-3.63078,-0.2108,0.58938
448.313,50.63326,-3.63822,-0.19,0.58792
451.313,50.92008,-3.64597,-0.16252,0.58646
454.313,51.20694,-3.6549,-0.11799,0.58499
457.313,51.49385,-3.66325,-0.09159472,0.58352
460.313,51.7811,-3.67005,-0.07106314,0.58204
463.313,52.069,-3.67757,-0.05231903,0.58055
466.313,52.35727,-3.68414,-0.01739998,0.57906
469.313,52.64635,-3.69266,0.007533707,0.57757
472.313,52.93515,-3.6962,0.03089504,0.57607
475.313,53.225,-3.70607,0.04836903,0.57457
478.313,53.5135,-3.70863,0.08364376,0.57306
481.313,53.8025,-3.71559,0.08394597,0.57155
484.313,54.09251,-3.71989,0.08216776,0.57004
487.313,54.38315,-3.72406,0.08740378,0.56852
490.313,54.67411,-3.7284,0.08158946,0.567
493.313,54.96451,-3.73275,0.09485007,0.56548
496.313,55.2556,-3.73841,0.09612787,0.56395
499.313,55.54671,-3.7438,0.09655993,0.56243
502.313,55.83849,-3.74679,0.08998706,0.5609
505.313,56.12944,-3.75748,0.09547186,0.55937
508.313,56.4212,-3.75658,0.10745,0.55784
511.313,56.71311,-3.75969,0.10331,0.5563
514.313,57.00558,-3.76043,0.10422,0.55477
517.313,57.2988,-3.76597,0.11943,0.55324
520.313,57.59195,-3.76814,0.13845,0.5517
523.313,57.8849,-3.77232,0.13039,0.55017
526.313,58.1779,-3.77627,0.13515,0.54864
529.313,58.4715,-3.77919,0.13523,0.5471
532.313,58.76511,-3.78178,0.13866,0.54557
535.313,59.0599,-3.78472,0.14307,0.54404
538.313,59.3547,-3.78662,0.13182,0.54251
541.313,59.6494,-3.79279,0.12562,0.54098
544.313,59.94537,-3.79435,0.12049,0.53945
547.313,60.24097,-3.80311,0.09231221,0.53792
550.313,60.53735,-3.79864,0.03871329,0.5364
553.313,60.83339,-3.8023,-0.01284282,0.53488
556.313,61.12975,-3.80358,-0.05433138,0.53336
559.313,61.42728,-3.80745,-0.08355064,0.53184
562.313,61.7247,-3.80908,-0.08286555,0.53033
565.313,62.02259,-3.81061,-0.11361,0.52881
568.313,62.31978,-3.81587,-0.09840484,0.52731
571.313,62.6175,-3.81719,-0.04190619,0.5258
574.313,62.9153,-3.82081,-0.008432727,0.5243
577.313,63.2139,-3.82081,-0.009732569,0.5228
580.313,63.5122,-3.82388,-0.01582862,0.52131
583.313,63.8105,-3.82773,-0.002965319,0.51982
586.313,64.10955,-3.82672,-0.009884966,0.51833
589.313,64.40871,-3.83199,0.00605875,0.51685
592.313,64.7082,-3.83505,0.00571431,0.51537
595.313,65.00775,-3.83542,0.02371926,0.5139
598.313,65.3074,-3.83945,0.03668458,0.51244
601.313,65.6075,-3.84072,0.02259054,0.51097
604.313,65.9079,-3.84352,0.0358802,0.50952
607.313,66.20873,-3.84351,0.03859999,0.50806
610.313,66.50954,-3.84614,0.04172461,0.50662
613.313,66.811,-3.84888,0.07447489,0.50518
616.313,67.11187,-3.85001,0.11493,0.50374
619.313,67.41241,-3.85513,0.09131092,0.50232
622.313,67.71334,-3.85637,0.10073,0.50089
625.313,68.01586,-3.85795,0.09083093,0.49948
628.313,68.3185,-3.85931,0.09361036,0.49807
631.313,68.62119,-3.86348,0.10003,0.49666
634.313,68.9225,-3.86347,0.06028053,0.49527
637.313,69.2249,-3.86501,0.10512,0.49387
640.313,69.52844,-3.86632,0.10731,0.49249
643.313,69.83199,-3.86811,0.10854,0.49111
646.313,70.13554,-3.86918,0.07599414,0.48974
649.313,70.4401,-3.87236,0.08589256,0.48838
652.313,70.74407,-3.87217,0.05981153,0.48703
655.313,71.0482,-3.87389,0.08784652,0.48568
658.313,71.3517,-3.87312,0.0490831,0.48434
661.313,71.6554,-3.87525,0.0534045,0.483
664.313,71.95953,-3.87575,0.11104,0.48168
667.313,72.26356,-3.87541,0.08908002,0.48036
670.313,72.56831,-3.87889,0.08997155,0.47905
673.313,72.8733,-3.8795,0.0880607,0.47774
676.313,73.1782,-3.87997,0.14564,0.47645
679.313,73.48323,-3.87841,0.17694,0.47516
682.313,73.7892,-3.88036,0.20928,0.47388
685.313,74.09561,-3.88069,0.25414,0.47261
688.313,74.4024,-3.88447,0.31889,0.47135
691.313,74.709,-3.88596,0.30638,0.47009
694.313,75.01544,-3.88761,0.30453,0.46885
697.313,75.3219,-3.88891,0.26497,0.46761
700.313,75.62899,-3.8876,0.29255,0.46638
703.313,75.93557,-3.88583,0.33638,0.46515
706.313,76.24192,-3.88948,0.40927,0.46394
709.313,76.54849,-3.89836,0.44342,0.46273
712.313,76.85569,-3.89003,0.52117,0.46154
715.313,77.16378,-3.89134,0.53099,0.46035
718.313,77.4713,-3.89132,0.51332,0.45917
721.313,77.77936,-3.89397,0.46833,0.458
724.313,78.08726,-3.89314,0.51645,0.45683
727.313,78.39654,-3.89604,0.52167,0.45568
730.313,78.70605,-3.898,0.47209,0.45453
733.313,79.01518,-3.89659,0.44193,0.45339
736.313,79.32373,-3.89903,0.40378,0.45226
739.313,79.6327,-3.89921,0.39519,0.45114
742.313,79.94175,-3.90024,0.39752,0.45003
742.813,79.99354,-3.90022,0.38715,0.44985