File: 01_Data/Cinder_Block/MCC/Cinder_Block_MCC_30K_min_220223_R2.txt
Sample ID:	C:\MCC\MCC Cal\Test\Cinder_Block_MCC_30K_min_220223_R2.txt
Sample Weight (mg):	4.62
Heating Rate (C/s):	0.5
Combustor Temp (C):	900
N2 Flow Rate (cc/min):	80
O2 Flow Rate (cc/min):	20
Calibration File:	C:\MCC\MCC Cal\Coeff1 JN10440_30_210304.txt.txt
T Correction Coefficients:	0	1.024463	0
Time Shift (s):	14
*
Time (s)	Temperature (C)	N2 flow rate (cc/min)	O2 flow rate (cc/min)	Flow Rate (cc/min)	Oxygen (%)	HRR (W/g)	Heating rate (C/s)
0.000	114.286	80.005	19.993	103.759	19.867	0.030	0.013
8.000	114.251	80.005	19.994	103.752	19.867	0.050	0.007
16.000	114.293	80.003	19.994	103.798	19.857	0.769	0.034
24.000	114.546	80.003	19.993	103.885	19.846	1.546	0.063
32.000	115.232	80.006	19.993	103.925	19.835	2.280	0.138
40.000	116.384	80.004	19.995	103.940	19.834	2.365	0.179
48.000	117.913	80.004	19.993	103.957	19.832	2.549	0.208
56.001	119.850	80.006	19.992	103.950	19.828	2.814	0.261
64.000	122.092	80.005	19.994	103.957	19.825	3.019	0.287
72.000	124.567	80.002	19.995	103.969	19.825	3.029	0.307
80.000	127.294	80.005	19.993	103.963	19.827	2.861	0.405
88.000	130.246	80.004	19.994	103.976	19.824	3.057	0.384
96.000	133.406	80.004	19.993	104.011	19.831	2.611	0.398
104.000	136.824	80.004	19.993	104.004	19.830	2.630	0.437
112.000	140.384	80.005	19.992	103.988	19.828	2.766	0.452
120.000	144.070	80.006	19.993	103.998	19.829	2.741	0.471
128.000	147.827	80.006	19.993	103.995	19.825	3.036	0.447
136.000	151.642	80.006	19.994	103.964	19.827	2.896	0.473
144.000	155.526	80.007	19.992	104.027	19.829	2.739	0.455
152.000	159.512	80.004	19.994	103.994	19.832	2.520	0.486
160.000	163.539	80.004	19.996	103.965	19.833	2.444	0.511
168.000	167.608	80.004	19.994	103.970	19.833	2.427	0.529
176.000	171.658	80.004	19.994	103.979	19.836	2.240	0.511
184.000	175.669	80.004	19.993	103.961	19.840	1.982	0.507
192.000	179.701	80.004	19.993	103.955	19.840	1.982	0.470
200.000	183.699	80.006	19.994	103.953	19.840	1.927	0.471
208.000	187.722	80.005	19.993	103.957	19.843	1.754	0.508
216.000	191.681	80.004	19.993	103.945	19.841	1.848	0.484
224.000	195.653	80.006	19.993	103.925	19.843	1.712	0.478
232.000	199.553	80.004	19.994	103.960	19.843	1.762	0.452
240.000	203.469	80.002	19.993	103.926	19.847	1.474	0.473
248.000	207.453	80.003	19.994	103.942	19.848	1.399	0.498
256.000	211.385	80.003	19.994	103.939	19.848	1.355	0.484
264.000	215.346	80.004	19.994	103.920	19.850	1.256	0.491
272.000	219.324	80.004	19.993	103.923	19.849	1.308	0.483
280.000	223.236	80.007	19.993	103.958	19.850	1.252	0.480
288.000	227.263	80.005	19.993	103.923	19.849	1.307	0.522
296.000	231.268	80.006	19.992	103.928	19.851	1.189	0.499
304.000	235.205	80.007	19.993	103.905	19.850	1.225	0.482
312.000	239.191	80.005	19.994	103.917	19.849	1.336	0.483
320.000	243.214	80.003	19.994	103.950	19.853	1.016	0.498
328.000	247.227	80.004	19.994	103.939	19.859	0.614	0.488
336.000	251.336	80.006	19.993	103.925	19.857	0.777	0.531
344.000	255.322	80.002	19.996	103.905	19.855	0.916	0.484
352.000	259.364	80.003	19.995	103.903	19.856	0.805	0.486
360.000	263.331	80.005	19.993	103.928	19.861	0.462	0.481
368.000	267.378	80.005	19.992	103.911	19.860	0.569	0.512
376.000	271.472	80.004	19.993	103.905	19.859	0.622	0.541
384.000	275.386	80.007	19.994	103.943	19.863	0.342	0.487
392.000	279.401	80.006	19.992	103.899	19.863	0.328	0.503
400.000	283.407	80.005	19.994	103.880	19.862	0.391	0.521
408.000	287.410	80.004	19.993	103.901	19.861	0.468	0.516
416.000	291.376	80.005	19.995	103.885	19.862	0.412	0.510
424.000	295.389	80.003	19.994	103.892	19.859	0.649	0.511
432.000	299.382	80.004	19.995	103.922	19.864	0.296	0.474
440.000	303.382	80.005	19.995	103.877	19.865	0.200	0.531
448.000	307.354	80.006	19.995	103.883	19.868	-0.002	0.519
456.000	311.374	80.005	19.994	103.924	19.867	0.025	0.513
464.000	315.453	80.007	19.994	103.890	19.869	-0.076	0.491
472.000	319.553	80.006	19.993	103.899	19.868	0.000	0.530
480.000	323.604	80.005	19.993	103.871	19.866	0.141	0.526
488.000	327.675	80.004	19.993	103.923	19.869	-0.074	0.498
496.000	331.766	80.006	19.992	103.913	19.871	-0.235	0.534
504.000	335.784	80.003	19.993	103.889	19.872	-0.322	0.497
512.000	339.868	80.005	19.993	103.887	19.874	-0.446	0.521
520.000	343.915	80.006	19.994	103.879	19.872	-0.302	0.494
528.000	348.040	80.006	19.993	103.895	19.874	-0.460	0.508
536.000	352.163	80.004	19.994	103.878	19.874	-0.435	0.509
544.000	356.339	80.005	19.994	103.887	19.875	-0.485	0.526
552.000	360.461	80.006	19.992	103.884	19.874	-0.443	0.505
560.000	364.596	80.005	19.994	103.897	19.882	-1.028	0.536
568.000	368.689	80.004	19.995	103.871	19.880	-0.830	0.519
576.000	372.780	80.005	19.993	103.874	19.884	-1.148	0.484
584.000	376.911	80.006	19.994	103.880	19.882	-0.992	0.538
592.000	380.980	80.005	19.993	103.875	19.880	-0.824	0.515
600.000	384.996	80.004	19.993	103.912	19.883	-1.049	0.492
608.000	389.016	80.005	19.993	103.877	19.884	-1.158	0.508
616.000	393.078	80.005	19.992	103.852	19.885	-1.198	0.504
624.000	397.115	80.005	19.996	103.863	19.884	-1.126	0.479
632.000	401.152	80.007	19.994	103.876	19.886	-1.253	0.507
640.000	405.149	80.005	19.993	103.889	19.887	-1.337	0.518
648.000	409.152	80.006	19.993	103.878	19.883	-1.099	0.489
656.000	413.243	80.006	19.993	103.873	19.885	-1.194	0.518
664.000	417.235	80.005	19.993	103.863	19.885	-1.230	0.504
672.000	421.374	80.004	19.993	103.845	19.887	-1.360	0.559
680.000	425.444	80.007	19.993	103.880	19.890	-1.591	0.529
688.000	429.580	80.005	19.993	103.855	19.890	-1.564	0.494
696.000	433.618	80.007	19.993	103.868	19.890	-1.547	0.502
704.000	437.759	80.005	19.994	103.857	19.891	-1.599	0.506
712.000	441.830	80.007	19.994	103.843	19.887	-1.320	0.520
720.000	445.826	80.005	19.995	103.886	19.889	-1.459	0.493
728.000	449.902	80.006	19.994	103.870	19.885	-1.190	0.509
736.000	453.960	80.004	19.994	103.865	19.887	-1.368	0.512
744.000	457.953	80.005	19.994	103.883	19.888	-1.406	0.493
752.000	462.057	80.004	19.994	103.850	19.888	-1.444	0.493
760.000	466.043	80.005	19.995	103.852	19.891	-1.646	0.510
768.000	470.110	80.006	19.994	103.846	19.888	-1.448	0.485
776.000	474.184	80.005	19.993	103.874	19.900	-2.228	0.517
784.000	478.284	80.006	19.993	103.864	19.899	-2.206	0.531
792.000	482.333	80.007	19.994	103.837	19.895	-1.926	0.504
800.000	486.485	80.006	19.993	103.845	19.897	-2.022	0.500
808.000	490.546	80.004	19.994	103.878	19.895	-1.936	0.506
816.000	494.722	80.003	19.995	103.875	19.899	-2.188	0.507
824.000	498.781	80.005	19.995	103.868	19.898	-2.126	0.501
832.000	502.863	80.005	19.993	103.858	19.897	-2.079	0.498
840.000	506.931	80.006	19.994	103.873	19.891	-1.602	0.494
848.000	510.906	80.007	19.994	103.832	19.893	-1.764	0.490
856.000	515.443	80.007	19.993	103.844	19.897	-2.026	0.487
864.000	519.019	80.007	19.993	103.900	19.897	-2.038	0.531
872.000	523.130	80.007	19.993	103.818	19.898	-2.091	0.519
880.000	527.077	80.007	19.993	103.844	19.899	-2.182	0.520
888.000	531.044	80.005	19.994	103.853	19.894	-1.869	0.470
896.000	535.039	80.006	19.994	103.870	19.901	-2.344	0.475
904.000	539.002	80.007	19.993	103.841	19.898	-2.085	0.547
912.000	542.971	80.005	19.994	103.848	19.896	-1.968	0.508
920.000	546.968	80.005	19.994	103.862	19.895	-1.938	0.487
928.000	551.087	80.006	19.993	103.865	19.895	-1.942	0.537
936.000	555.226	80.007	19.994	103.856	19.899	-2.217	0.550
944.000	559.361	80.005	19.994	103.841	19.895	-1.908	0.515
952.000	563.500	80.008	19.994	103.866	19.897	-2.078	0.493
960.000	567.662	80.007	19.993	103.841	19.899	-2.160	0.542
968.000	571.822	80.007	19.994	103.871	19.895	-1.942	0.505
976.000	576.031	80.005	19.995	103.858	19.900	-2.255	0.536
984.000	580.217	80.005	19.994	103.878	19.902	-2.367	0.536
992.000	584.315	80.004	19.994	103.852	19.897	-2.051	0.503
1000.000	588.374	80.003	19.995	103.881	19.901	-2.327	0.519
1008.000	592.513	80.005	19.995	103.883	19.896	-1.972	0.532
1016.000	596.632	80.006	19.993	103.855	19.894	-1.831	0.485
1024.000	600.742	80.007	19.993	103.853	19.893	-1.772	0.502
1032.001	604.860	80.007	19.993	103.878	19.896	-2.007	0.534
1040.000	608.952	80.008	19.993	103.860	19.896	-1.995	0.502
1048.001	613.063	80.007	19.993	103.842	19.897	-2.075	0.511
1056.000	617.137	80.006	19.995	103.868	19.895	-1.898	0.483
1064.000	621.207	80.005	19.993	103.862	19.897	-2.054	0.497
1072.000	625.287	80.003	19.994	103.883	19.893	-1.732	0.524
1080.000	629.313	80.004	19.994	103.880	19.897	-2.045	0.488
1088.000	633.427	80.004	19.993	103.856	19.896	-1.990	0.508
1096.000	637.564	80.006	19.996	103.876	19.895	-1.919	0.553
1104.001	641.607	80.006	19.993	103.867	19.889	-1.471	0.497
1112.000	645.644	80.006	19.994	103.889	19.895	-1.891	0.516
1120.001	649.614	80.008	19.994	103.898	19.897	-2.062	0.483
1128.000	653.670	80.006	19.994	103.867	19.893	-1.750	0.516
1136.000	657.770	80.005	19.993	103.855	19.890	-1.584	0.493
1144.000	661.877	80.007	19.995	103.901	19.891	-1.653	0.510
1152.000	666.015	80.006	19.993	103.917	19.895	-1.874	0.497
1160.000	670.136	80.005	19.995	103.883	19.891	-1.658	0.464
1168.001	674.114	80.005	19.996	103.902	19.886	-1.308	0.462
1176.000	678.184	80.007	19.994	103.935	19.888	-1.407	0.476
1184.000	682.284	80.004	19.994	103.928	19.888	-1.405	0.516
1192.000	686.319	80.005	19.995	103.937	19.889	-1.521	0.471
1200.001	690.470	80.008	19.995	103.912	19.884	-1.144	0.541
1208.000	694.520	80.006	19.994	103.953	19.882	-1.020	0.532
1216.001	698.569	80.004	19.993	103.955	19.879	-0.813	0.479
1224.000	702.649	80.006	19.995	103.968	19.878	-0.731	0.525
1232.000	706.690	80.004	19.994	103.967	19.875	-0.497	0.499
1240.000	710.775	80.006	19.994	104.008	19.875	-0.523	0.505
1248.000	714.825	80.023	20.000	104.019	19.873	-0.377	0.493
1256.000	718.911	80.025	20.000	104.040	19.872	-0.268	0.511
1264.000	722.919	80.023	20.001	104.055	19.869	-0.073	0.500
1272.000	726.911	80.014	19.998	104.062	19.861	0.453	0.511
1280.000	730.931	80.007	19.994	104.076	19.858	0.696	0.518
1288.000	734.853	80.006	19.996	104.108	19.857	0.782	0.520
1296.000	738.835	80.003	19.994	104.149	19.851	1.165	0.470
1304.000	742.918	80.005	19.994	104.146	19.845	1.598	0.524
1305.500	743.663	80.005	19.994	104.151	19.847	1.450	0.487