File: 01_Data/Oak_HWF/MCC/Oak_HWF_MCC_30K_min_211104_R1.txt
Sample ID:	C:\MCC\MCC Cal\Test\Oak_HWF_MCC_30K_min_211104_R3.txt
Sample Weight (mg):	4.33
Heating Rate (C/s):	0.5
Combustor Temp (C):	900
N2 Flow Rate (cc/min):	80
O2 Flow Rate (cc/min):	20
Calibration File:	C:\MCC\MCC Cal\Coeff1 JN10440_30_210304.txt.txt
T Correction Coefficients:	0	1.024463	0
Time Shift (s):	14
*
Time (s)	Temperature (C)	N2 flow rate (cc/min)	O2 flow rate (cc/min)	Flow Rate (cc/min)	Oxygen (%)	HRR (W/g)	Heating rate (C/s)
0.000	107.548	80.006	19.994	103.082	19.936	0.109	-0.010
8.001	107.524	80.006	19.995	103.062	19.934	0.247	0.001
16.000	107.499	80.004	19.995	103.084	19.935	0.141	-0.036
24.000	107.528	80.005	19.995	103.098	19.935	0.181	-0.014
32.000	107.628	80.005	19.994	103.180	19.917	1.507	0.041
40.000	108.187	80.006	19.994	103.256	19.903	2.554	0.083
48.000	109.205	80.004	19.995	103.260	19.896	3.072	0.150
56.000	110.717	80.006	19.995	103.287	19.889	3.589	0.232
64.000	112.546	80.007	19.995	103.316	19.886	3.779	0.269
72.000	114.739	80.006	19.994	103.330	19.882	4.098	0.300
80.000	117.322	80.005	19.995	103.334	19.884	3.951	0.341
88.000	120.149	80.007	19.994	103.335	19.880	4.240	0.356
96.001	123.327	80.005	19.995	103.328	19.882	4.126	0.426
104.000	126.617	80.004	19.995	103.327	19.880	4.220	0.453
112.000	130.033	80.005	19.996	103.325	19.880	4.248	0.425
120.000	133.592	80.006	19.995	103.332	19.879	4.352	0.445
128.000	137.286	80.006	19.995	103.331	19.878	4.387	0.462
136.000	141.138	80.004	19.994	103.334	19.881	4.178	0.496
144.000	145.060	80.007	19.994	103.327	19.882	4.107	0.474
152.000	149.017	80.005	19.994	103.319	19.882	4.057	0.505
160.000	153.004	80.006	19.994	103.297	19.884	3.916	0.495
168.000	156.941	80.008	19.994	103.315	19.881	4.176	0.484
176.000	160.963	80.008	19.995	103.318	19.882	4.081	0.524
184.000	164.986	80.006	19.995	103.293	19.883	3.991	0.493
192.000	169.006	80.004	19.994	103.291	19.881	4.154	0.498
200.000	173.051	80.004	19.996	103.292	19.886	3.775	0.498
208.000	177.084	80.004	19.996	103.292	19.890	3.485	0.504
216.000	181.150	80.004	19.995	103.282	19.889	3.604	0.492
224.000	185.123	80.005	19.994	103.280	19.888	3.647	0.488
232.000	189.050	80.007	19.994	103.269	19.887	3.693	0.487
240.000	192.970	80.007	19.995	103.278	19.889	3.558	0.503
248.000	196.881	80.007	19.994	103.279	19.886	3.765	0.484
256.000	200.752	80.008	19.993	103.264	19.881	4.134	0.474
264.000	204.617	80.005	19.994	103.277	19.879	4.295	0.458
272.000	208.564	80.005	19.996	103.275	19.872	4.832	0.475
280.000	212.455	80.006	19.996	103.283	19.871	4.922	0.459
288.000	216.356	80.006	19.996	103.273	19.865	5.395	0.462
296.000	220.356	80.005	19.996	103.285	19.861	5.638	0.510
304.000	224.361	80.006	19.995	103.271	19.851	6.370	0.476
312.000	228.330	80.007	19.995	103.282	19.848	6.595	0.484
320.001	232.337	80.006	19.995	103.273	19.838	7.347	0.492
328.000	236.338	80.006	19.995	103.277	19.832	7.832	0.496
336.000	240.304	80.007	19.994	103.284	19.822	8.596	0.483
344.000	244.264	80.007	19.996	103.285	19.815	9.061	0.468
352.000	248.182	80.005	19.995	103.294	19.794	10.650	0.513
360.000	252.195	80.005	19.995	103.288	19.780	11.683	0.499
368.000	256.101	80.005	19.995	103.279	19.762	12.997	0.427
376.000	260.017	80.004	19.997	103.299	19.736	14.947	0.456
384.001	263.982	80.004	19.995	103.323	19.709	16.959	0.500
392.000	267.910	80.005	19.995	103.329	19.681	19.061	0.491
400.000	271.925	80.007	19.997	103.334	19.645	21.727	0.519
408.000	275.944	80.008	19.995	103.362	19.612	24.203	0.492
416.000	279.989	80.006	19.994	103.371	19.573	27.091	0.488
424.000	283.960	80.008	19.994	103.364	19.533	30.092	0.497
432.000	287.952	80.006	19.995	103.373	19.498	32.732	0.481
440.000	291.893	80.005	19.996	103.384	19.462	35.377	0.480
448.000	295.818	80.005	19.995	103.395	19.435	37.397	0.500
456.000	299.811	80.005	19.995	103.406	19.405	39.615	0.512
464.000	303.735	80.005	19.995	103.411	19.378	41.650	0.481
472.000	307.677	80.005	19.995	103.410	19.358	43.178	0.489
480.000	311.593	80.006	19.994	103.413	19.331	45.125	0.496
488.000	315.588	80.004	19.995	103.411	19.311	46.639	0.523
496.000	319.498	80.006	19.995	103.443	19.279	49.027	0.466
504.000	323.485	80.008	19.995	103.443	19.241	51.866	0.456
512.001	327.515	80.006	19.994	103.450	19.199	55.058	0.465
520.000	331.594	80.004	19.994	103.484	19.146	59.014	0.504
528.000	335.658	80.004	19.995	103.488	19.092	63.039	0.490
536.000	339.610	80.006	19.995	103.504	19.031	67.577	0.524
544.000	343.599	80.006	19.994	103.529	18.988	70.769	0.511
552.000	347.564	80.005	19.995	103.526	18.943	74.116	0.499
560.000	351.595	80.008	19.996	103.530	18.931	74.977	0.511
568.000	355.672	80.005	19.994	103.503	18.951	73.467	0.494
576.000	359.759	80.005	19.995	103.447	19.004	69.509	0.528
584.000	363.821	80.008	19.995	103.388	19.108	61.685	0.518
592.000	367.959	80.007	19.996	103.333	19.249	51.206	0.537
600.000	372.104	80.005	19.996	103.263	19.410	39.219	0.510
608.000	376.322	80.005	19.994	103.236	19.565	27.687	0.535
616.000	380.603	80.005	19.994	103.224	19.681	19.033	0.548
624.000	384.881	80.006	19.995	103.212	19.746	14.167	0.559
632.000	389.067	80.006	19.995	103.212	19.781	11.608	0.498
640.000	393.247	80.006	19.994	103.207	19.795	10.524	0.519
648.000	397.397	80.007	19.993	103.207	19.814	9.175	0.539
656.000	401.478	80.007	19.995	103.207	19.813	9.201	0.526
664.000	405.538	80.006	19.994	103.205	19.824	8.378	0.519
672.001	409.559	80.008	19.994	103.182	19.829	8.001	0.528
680.000	413.550	80.007	19.995	103.197	19.835	7.605	0.488
688.000	417.434	80.006	19.997	103.190	19.839	7.253	0.506
696.000	421.346	80.004	19.995	103.174	19.844	6.883	0.486
704.000	425.182	80.007	19.995	103.201	19.849	6.562	0.467
712.000	429.159	80.006	19.994	103.196	19.850	6.496	0.470
720.000	433.257	80.005	19.994	103.199	19.856	6.006	0.517
728.000	437.438	80.009	19.993	103.201	19.863	5.533	0.517
736.000	441.581	80.007	19.994	103.199	19.866	5.274	0.506
744.000	445.797	80.006	19.993	103.212	19.867	5.204	0.541
752.000	449.947	80.008	19.994	103.187	19.871	4.941	0.530
760.000	454.087	80.009	19.996	103.172	19.869	5.083	0.508
768.000	458.174	80.005	19.995	103.174	19.871	4.891	0.537
776.001	462.263	80.006	19.995	103.197	19.877	4.467	0.514
784.000	466.308	80.006	19.996	103.190	19.876	4.527	0.492
792.000	470.435	80.004	19.995	103.191	19.875	4.606	0.518
800.000	474.551	80.004	19.994	103.192	19.876	4.531	0.541
808.000	478.754	80.005	19.993	103.186	19.874	4.682	0.530
816.000	482.955	80.007	19.995	103.199	19.880	4.206	0.529
824.000	487.155	80.007	19.996	103.177	19.880	4.250	0.533
832.000	491.382	80.007	19.994	103.176	19.885	3.857	0.545
840.000	495.553	80.009	19.994	103.176	19.882	4.120	0.492
848.000	499.632	80.008	19.995	103.172	19.884	3.970	0.497
856.000	503.717	80.007	19.995	103.175	19.879	4.323	0.515
864.000	507.697	80.007	19.995	103.174	19.882	4.080	0.476
872.000	511.651	80.006	19.996	103.172	19.884	3.938	0.481
880.000	515.586	80.005	19.996	103.169	19.877	4.439	0.502
888.000	519.539	80.006	19.995	103.169	19.887	3.699	0.513
896.000	523.489	80.007	19.995	103.173	19.888	3.632	0.505
904.000	527.403	80.007	19.994	103.172	19.889	3.568	0.496
912.000	531.455	80.006	19.994	103.170	19.885	3.831	0.514
920.000	535.528	80.008	19.994	103.176	19.885	3.855	0.513
928.000	539.600	80.008	19.993	103.173	19.886	3.815	0.513
936.000	543.845	80.005	19.994	103.176	19.884	3.939	0.513
944.000	548.208	80.006	19.996	103.182	19.883	4.026	0.572
952.000	552.636	80.006	19.996	103.174	19.886	3.779	0.541
960.000	557.132	80.007	19.995	103.172	19.883	4.006	0.564
968.000	561.662	80.006	19.996	103.171	19.878	4.389	0.590
976.000	566.050	80.006	19.997	103.174	19.886	3.801	0.566
984.000	570.498	80.007	19.994	103.168	19.886	3.769	0.596
992.000	574.901	80.006	19.994	103.168	19.885	3.869	0.576
1000.000	579.235	80.009	19.995	103.173	19.883	3.984	0.552
1008.000	583.486	80.008	19.994	103.175	19.881	4.187	0.517
1016.000	587.693	80.006	19.995	103.169	19.885	3.858	0.501
1024.000	591.817	80.006	19.995	103.164	19.885	3.846	0.493
1032.000	595.854	80.005	19.994	103.160	19.885	3.894	0.477
1040.000	599.687	80.007	19.995	103.143	19.885	3.870	0.449
1048.000	603.481	80.005	19.995	103.158	19.880	4.269	0.488
1056.001	607.208	80.006	19.995	103.164	19.887	3.715	0.433
1064.000	610.935	80.007	19.995	103.170	19.883	4.002	0.463
1072.000	614.638	80.006	19.996	103.164	19.887	3.733	0.473
1080.000	618.295	80.007	19.995	103.170	19.892	3.355	0.478
1088.001	622.040	80.009	19.995	103.172	19.879	4.329	0.466
1096.000	626.011	80.008	19.994	103.170	19.882	4.084	0.511
1104.000	630.132	80.006	19.994	103.170	19.881	4.196	0.538
1112.000	634.357	80.006	19.994	103.170	19.884	3.909	0.572
1120.000	638.603	80.006	19.993	103.176	19.881	4.148	0.555
1128.000	642.824	80.007	19.995	103.171	19.881	4.135	0.537
1136.000	646.968	80.004	19.995	103.172	19.884	3.955	0.504
1144.001	651.085	80.010	19.995	103.170	19.878	4.366	0.510
1152.000	655.067	80.009	19.995	103.161	19.883	4.032	0.485
1160.000	659.136	80.006	19.995	103.170	19.878	4.365	0.535
1168.000	663.410	80.009	19.996	103.169	19.882	4.120	0.523
1176.000	667.706	80.009	19.994	103.167	19.878	4.408	0.518
1184.001	671.981	80.005	19.994	103.170	19.884	3.924	0.497
1192.001	676.334	80.006	19.995	103.164	19.885	3.884	0.566
1200.001	680.521	80.005	19.994	103.175	19.879	4.316	0.511
1208.001	684.782	80.006	19.994	103.168	19.885	3.870	0.525
1216.000	688.926	80.007	19.995	103.165	19.880	4.267	0.498
1224.001	693.072	80.007	19.994	103.163	19.878	4.397	0.519
1232.000	697.167	80.007	19.995	103.163	19.877	4.456	0.508
1240.000	701.282	80.006	19.994	103.154	19.878	4.378	0.535
1248.000	705.309	80.006	19.995	103.151	19.875	4.613	0.524
1256.000	709.303	80.008	19.995	103.148	19.877	4.450	0.494
1264.000	713.337	80.006	19.996	103.163	19.874	4.647	0.502
1272.001	717.364	80.006	19.995	103.160	19.873	4.786	0.507
1280.000	721.373	80.006	19.995	103.166	19.874	4.656	0.504
1288.000	725.284	80.005	19.995	103.159	19.874	4.662	0.494
1296.001	729.320	80.006	19.996	103.138	19.876	4.559	0.498
1304.000	733.303	80.006	19.995	103.147	19.872	4.852	0.499
1312.000	737.281	80.008	19.994	103.147	19.879	4.345	0.498
1320.001	741.269	80.008	19.995	103.150	19.876	4.502	0.479
1325.000	743.798	80.007	19.996	103.161	19.875	4.591	0.491