File: 01_Data/PMMA_R05/MCC/PMMA_R05_MCC_30K_min_211013_R1.txt
Sample ID:	C:\MCC\MCC Cal\Test\PMMAR05_MCC_30K_min_211013_R1.txt
Sample Weight (mg):	4.43
Heating Rate (C/s):	0.5
Combustor Temp (C):	900
N2 Flow Rate (cc/min):	80
O2 Flow Rate (cc/min):	20
Calibration File:	C:\MCC\MCC Cal\Coeff1 JN10440_30_210304.txt.txt
T Correction Coefficients:	0	1.024463	0
Time Shift (s):	14
*
Time (s)	Temperature (C)	N2 flow rate (cc/min)	O2 flow rate (cc/min)	Flow Rate (cc/min)	Oxygen (%)	HRR (W/g)	Heating rate (C/s)
0.000	106.569	79.991	19.995	102.798	20.273	-0.203	0.024
8.000	106.548	79.990	19.996	102.818	20.271	-0.050	0.001
16.000	106.567	79.991	19.996	102.872	20.263	0.518	-0.002
24.000	106.852	79.991	19.995	102.932	20.253	1.217	0.086
32.000	107.460	79.990	19.998	102.918	20.255	1.060	0.083
39.999	108.316	79.991	19.996	102.953	20.247	1.694	0.118
48.000	109.399	79.992	19.995	102.961	20.243	1.939	0.124
55.999	110.766	79.991	19.995	102.986	20.238	2.284	0.189
63.999	112.324	79.993	19.996	102.990	20.238	2.326	0.193
71.999	114.121	79.994	19.995	102.998	20.240	2.189	0.217
80.001	116.104	79.991	19.995	103.015	20.233	2.670	0.258
87.999	118.382	79.992	19.997	103.030	20.231	2.851	0.303
95.999	120.840	79.990	19.996	103.046	20.225	3.234	0.310
104.000	123.582	79.989	19.996	103.059	20.224	3.321	0.370
111.999	126.616	79.990	19.996	103.088	20.221	3.521	0.409
119.999	129.906	79.991	19.997	103.082	20.218	3.766	0.411
127.999	133.408	79.993	19.996	103.076	20.216	3.920	0.456
136.000	137.097	79.993	19.997	103.071	20.219	3.692	0.487
144.000	140.973	79.992	19.996	103.082	20.218	3.772	0.499
152.000	144.977	79.996	19.996	103.075	20.216	3.931	0.499
160.000	149.007	79.992	19.995	103.071	20.219	3.728	0.523
168.000	153.105	79.991	19.995	103.073	20.219	3.660	0.512
176.000	157.156	79.991	19.995	103.068	20.222	3.460	0.497
184.000	161.218	79.992	19.996	103.059	20.225	3.227	0.505
192.000	165.349	79.992	19.997	103.039	20.225	3.238	0.533
200.000	169.424	79.993	19.997	103.044	20.221	3.523	0.495
208.000	173.451	79.993	19.997	103.032	20.223	3.414	0.530
216.000	177.343	79.991	19.997	103.027	20.222	3.443	0.480
224.000	181.258	79.994	19.996	103.031	20.224	3.344	0.471
232.000	185.201	79.994	19.995	103.027	20.222	3.503	0.508
240.000	189.106	79.990	19.995	103.031	20.221	3.543	0.478
248.000	192.931	79.992	19.996	103.017	20.217	3.852	0.489
256.000	196.678	79.994	19.995	103.022	20.216	3.935	0.463
264.000	200.435	79.992	19.994	103.012	20.217	3.842	0.437
272.000	204.081	79.991	19.997	103.011	20.222	3.455	0.475
280.000	207.786	79.992	19.996	103.024	20.210	4.362	0.470
288.000	211.601	79.992	19.997	103.031	20.213	4.147	0.470
296.000	215.434	79.992	19.996	103.028	20.209	4.392	0.497
304.000	219.325	79.991	19.996	103.031	20.213	4.119	0.501
312.000	223.258	79.995	19.994	103.022	20.208	4.514	0.491
320.000	227.246	79.992	19.995	103.027	20.203	4.882	0.498
328.000	231.281	79.993	19.994	103.027	20.206	4.608	0.473
336.000	235.285	79.992	19.996	103.019	20.198	5.213	0.530
344.000	239.327	79.991	19.995	103.019	20.194	5.509	0.499
352.000	243.366	79.991	19.996	103.028	20.191	5.758	0.540
360.000	247.401	79.992	19.996	103.031	20.178	6.691	0.492
368.000	251.488	79.992	19.995	103.011	20.159	8.052	0.489
376.000	255.510	79.992	19.995	103.018	20.141	9.364	0.530
384.000	259.510	79.993	19.996	103.017	20.125	10.491	0.515
392.000	263.397	79.993	19.996	103.018	20.096	12.608	0.467
400.000	267.339	79.993	19.997	103.026	20.059	15.275	0.491
408.000	271.268	79.992	19.997	103.027	20.020	18.098	0.489
416.000	275.160	79.991	19.996	103.029	19.986	20.574	0.453
424.000	279.059	79.990	19.994	103.031	19.948	23.385	0.530
432.000	282.942	79.991	19.995	103.044	19.895	27.234	0.496
440.000	286.808	79.991	19.997	103.018	19.868	29.153	0.474
448.000	290.729	79.993	19.995	103.023	19.854	30.163	0.510
456.000	294.706	79.993	19.998	103.018	19.854	30.164	0.528
464.000	298.654	79.993	19.995	103.005	19.864	29.460	0.489
472.000	302.548	79.996	19.997	103.019	19.887	27.815	0.474
480.000	306.554	79.991	19.997	103.012	19.902	26.708	0.512
488.000	310.543	79.991	19.996	103.027	19.906	26.384	0.334
496.000	314.612	79.992	19.995	103.007	19.904	26.550	0.486
504.000	318.684	79.991	19.996	103.020	19.880	28.303	0.479
512.000	322.854	79.991	19.996	103.029	19.843	30.987	0.516
520.000	326.972	79.992	19.995	103.043	19.781	35.508	0.541
528.000	331.101	79.994	19.995	103.031	19.715	40.263	0.508
536.000	335.170	79.992	19.996	103.051	19.642	45.607	0.508
544.000	339.216	79.993	19.996	103.074	19.536	53.167	0.514
552.000	343.166	79.992	19.995	103.084	19.142	81.944	0.510
560.000	347.135	79.991	19.997	103.209	19.064	88.008	0.493
568.000	351.022	79.991	19.996	103.258	18.703	114.169	0.469
576.000	355.032	79.991	19.997	102.724	18.449	132.197	0.514
584.000	359.008	79.992	19.996	103.246	18.045	162.207	0.482
592.000	363.039	79.990	19.995	103.376	17.739	183.837	0.501
600.000	367.022	79.992	19.995	103.017	17.395	208.893	0.514
608.000	371.099	79.993	19.995	103.204	17.369	210.776	0.518
616.000	375.263	79.992	19.995	103.288	17.409	207.951	0.524
624.000	379.392	79.993	19.996	103.278	17.519	199.988	0.542
632.000	383.556	79.993	19.996	103.218	17.642	190.915	0.506
640.000	387.762	79.991	19.996	103.178	17.824	177.632	0.511
648.000	392.012	79.991	19.997	103.142	18.092	158.107	0.534
656.000	396.396	79.990	19.996	103.075	18.432	133.325	0.565
664.000	400.742	79.990	19.997	103.032	18.813	105.701	0.548
672.000	405.030	79.991	19.995	102.994	19.190	78.303	0.531
680.000	409.306	79.992	19.995	102.992	19.509	55.191	0.533
688.000	413.499	79.994	19.996	102.967	19.760	36.966	0.519
696.000	417.646	79.992	19.995	102.955	19.928	24.764	0.499
704.000	421.814	79.993	19.996	102.957	20.047	16.173	0.522
712.000	425.905	79.993	19.994	102.949	20.116	11.129	0.483
720.000	429.979	79.992	19.996	102.948	20.160	7.961	0.529
728.000	434.069	79.991	19.996	102.953	20.191	5.684	0.532
736.000	438.111	79.992	19.995	102.957	20.212	4.220	0.502
744.000	442.151	79.989	19.994	102.955	20.222	3.469	0.500
752.000	446.117	79.991	19.996	102.954	20.222	3.441	0.496
760.000	450.126	79.992	19.996	102.958	20.228	3.030	0.513
768.000	454.128	79.993	19.996	102.953	20.224	3.315	0.506
776.000	458.124	79.992	19.996	102.956	20.226	3.218	0.516
784.000	462.166	79.993	19.996	102.952	20.231	2.807	0.541
792.000	466.142	79.994	19.994	102.952	20.224	3.320	0.506
800.000	470.191	79.992	19.995	102.954	20.233	2.700	0.482
808.000	474.291	79.991	19.996	102.966	20.234	2.624	0.513
816.000	478.348	79.992	19.997	102.956	20.236	2.490	0.484
824.000	482.420	79.990	19.996	102.949	20.239	2.237	0.481
832.000	486.535	79.991	19.996	102.957	20.233	2.654	0.531
840.000	490.556	79.991	19.996	102.950	20.236	2.423	0.480
848.000	494.625	79.992	19.996	102.950	20.234	2.594	0.535
856.000	498.678	79.990	19.994	102.959	20.234	2.574	0.487
864.000	502.748	79.992	19.996	102.961	20.236	2.487	0.489
872.000	506.791	79.994	19.994	102.954	20.232	2.784	0.514
880.000	510.748	79.991	19.995	102.958	20.230	2.927	0.470
888.000	514.782	79.991	19.995	102.961	20.229	2.987	0.512
896.000	518.819	79.992	19.994	102.956	20.227	3.088	0.504
904.000	523.062	79.992	19.996	102.952	20.227	3.140	0.560
912.000	527.307	79.990	19.996	102.950	20.233	2.686	0.530
920.000	531.634	79.991	19.995	102.954	20.229	2.997	0.558
928.000	536.006	79.991	19.996	102.955	20.235	2.520	0.541
936.000	540.284	79.990	19.997	102.958	20.231	2.847	0.518
944.000	544.613	79.993	19.996	102.972	20.233	2.676	0.522
952.000	548.955	79.993	19.995	102.952	20.232	2.749	0.544
960.000	553.193	79.992	19.995	102.953	20.233	2.662	0.530
968.000	557.417	79.993	19.996	102.959	20.231	2.811	0.506
976.000	561.551	79.993	19.994	102.949	20.231	2.803	0.536
984.000	565.668	79.990	19.995	102.955	20.233	2.674	0.542
992.000	569.703	79.989	19.996	102.953	20.227	3.088	0.485
1000.000	573.798	79.990	19.996	102.954	20.227	3.074	0.531
1008.000	577.897	79.995	19.994	102.952	20.230	2.875	0.516
1016.000	581.809	79.994	19.996	102.952	20.230	2.924	0.462
1024.000	585.820	79.992	19.997	102.955	20.230	2.877	0.497
1031.999	589.789	79.996	19.995	102.946	20.228	3.033	0.518
1039.999	593.766	79.991	19.995	102.949	20.232	2.756	0.492
1047.999	597.725	79.990	19.995	102.960	20.227	3.108	0.496
1056.000	601.708	79.991	19.995	102.959	20.225	3.228	0.496
1063.999	605.690	79.991	19.996	102.959	20.229	2.976	0.524
1071.999	609.717	79.989	19.994	102.955	20.227	3.078	0.508
1079.999	613.690	79.993	19.996	102.955	20.227	3.144	0.496
1087.999	617.713	79.995	19.996	102.960	20.226	3.158	0.480
1095.999	621.693	79.992	19.994	102.949	20.227	3.077	0.522
1103.999	625.683	79.993	19.996	102.959	20.224	3.292	0.519
1112.000	629.712	79.993	19.995	102.965	20.221	3.511	0.493
1119.999	633.851	79.991	19.996	102.959	20.223	3.416	0.501
1128.000	638.120	79.992	19.995	102.964	20.221	3.535	0.543
1136.000	642.321	79.991	19.995	102.974	20.217	3.808	0.502
1143.999	646.590	79.993	19.995	102.957	20.216	3.922	0.512
1151.999	650.819	79.990	19.994	102.951	20.219	3.720	0.512
1159.999	655.045	79.992	19.995	102.957	20.216	3.897	0.518
1167.999	659.199	79.994	19.994	102.952	20.216	3.923	0.531
1175.999	663.328	79.994	19.996	102.961	20.216	3.914	0.490
1183.999	667.418	79.993	19.994	102.964	20.213	4.151	0.490
1192.000	671.613	79.995	19.994	102.966	20.216	3.886	0.530
1199.999	675.778	79.992	19.996	102.974	20.213	4.140	0.535
1208.000	679.897	79.989	19.996	102.968	20.216	3.912	0.537
1215.999	683.994	79.992	19.997	102.959	20.211	4.253	0.504
1223.999	687.960	79.994	19.996	102.969	20.213	4.142	0.494
1231.999	691.932	79.994	19.996	102.978	20.216	3.919	0.505
1240.000	695.964	79.992	19.996	102.962	20.208	4.517	0.499
1247.999	699.939	79.996	19.995	102.975	20.208	4.510	0.534
1255.999	703.875	79.993	19.994	102.960	20.211	4.238	0.500
1263.999	707.817	79.993	19.997	102.981	20.207	4.583	0.512
1271.999	711.671	79.995	19.996	102.980	20.209	4.418	0.486
1279.999	715.622	79.995	19.995	102.974	20.211	4.255	0.520
1287.999	719.605	79.993	19.996	102.976	20.208	4.498	0.516
1295.999	723.633	79.993	19.997	102.975	20.208	4.500	0.501
1303.999	727.611	79.993	19.998	102.973	20.207	4.530	0.489
1311.999	731.631	79.991	19.995	102.988	20.204	4.745	0.505
1319.999	735.568	79.991	19.995	102.979	20.206	4.629	0.486
1328.000	739.518	79.993	19.994	102.981	20.202	4.908	0.482
1335.999	743.449	79.993	19.996	102.985	20.204	4.765	0.486
1336.499	743.704	79.992	19.996	102.984	20.204	4.745	0.447