File: 01_Data/PMMA_R05/MCC/PMMA_R05_MCC_30K_min_211013_R2.txt
Sample ID:	C:\MCC\MCC Cal\Test\PMMAR05_MCC_30K_min_211013_R2.txt
Sample Weight (mg):	4.43
Heating Rate (C/s):	0.5
Combustor Temp (C):	900
N2 Flow Rate (cc/min):	80
O2 Flow Rate (cc/min):	20
Calibration File:	C:\MCC\MCC Cal\Coeff1 JN10440_30_210304.txt.txt
T Correction Coefficients:	0	1.024463	0
Time Shift (s):	14
*
Time (s)	Temperature (C)	N2 flow rate (cc/min)	O2 flow rate (cc/min)	Flow Rate (cc/min)	Oxygen (%)	HRR (W/g)	Heating rate (C/s)
0.000	110.172	79.994	19.994	102.907	20.213	0.347	0.002
8.001	110.107	79.993	19.995	102.918	20.216	0.086	-0.016
16.000	110.118	79.993	19.995	102.958	20.211	0.502	-0.009
24.000	110.280	79.996	19.995	102.991	20.203	1.064	0.024
32.000	110.696	79.992	19.995	103.080	20.190	1.968	0.067
40.000	111.606	79.992	19.995	103.105	20.174	3.143	0.155
48.000	112.965	79.994	19.995	103.139	20.174	3.165	0.202
56.000	114.677	79.993	19.995	103.135	20.175	3.101	0.211
64.000	116.736	79.991	19.995	103.158	20.177	2.972	0.285
72.000	119.018	79.992	19.996	103.146	20.171	3.392	0.258
80.000	121.581	79.993	19.994	103.152	20.174	3.150	0.321
88.000	124.364	79.992	19.996	103.171	20.169	3.548	0.367
96.000	127.331	79.994	19.994	103.160	20.172	3.342	0.378
104.000	130.485	79.994	19.994	103.168	20.172	3.326	0.408
112.000	133.762	79.994	19.993	103.172	20.165	3.834	0.413
120.000	137.177	79.993	19.995	103.165	20.170	3.464	0.427
128.000	140.708	79.993	19.997	103.174	20.169	3.540	0.468
136.000	144.434	79.994	19.996	103.182	20.174	3.181	0.459
144.000	148.268	79.991	19.995	103.175	20.166	3.712	0.485
152.000	152.131	79.992	19.996	103.173	20.168	3.635	0.453
160.000	156.077	79.992	19.996	103.172	20.173	3.258	0.499
168.000	160.044	79.992	19.996	103.159	20.173	3.250	0.524
176.000	164.040	79.992	19.995	103.147	20.166	3.742	0.493
184.000	168.092	79.996	19.995	103.146	20.175	3.078	0.524
192.000	172.054	79.993	19.995	103.137	20.174	3.166	0.486
200.001	176.092	79.992	19.995	103.131	20.174	3.156	0.534
208.000	180.081	79.991	19.995	103.132	20.172	3.275	0.494
216.000	184.071	79.989	19.994	103.121	20.175	3.089	0.511
224.000	188.057	79.992	19.996	103.125	20.167	3.648	0.482
232.000	191.966	79.993	19.995	103.108	20.172	3.338	0.474
240.000	195.807	79.993	19.996	103.106	20.159	4.247	0.450
248.000	199.700	79.994	19.996	103.107	20.167	3.659	0.473
256.000	203.588	79.993	19.996	103.126	20.164	3.885	0.531
264.000	207.556	79.996	19.994	103.112	20.166	3.761	0.506
272.000	211.542	79.994	19.995	103.108	20.163	3.931	0.510
280.000	215.527	79.992	19.995	103.108	20.163	3.979	0.499
288.000	219.570	79.992	19.995	103.117	20.161	4.098	0.478
296.000	223.618	79.992	19.994	103.111	20.163	3.975	0.494
304.000	227.677	79.991	19.994	103.103	20.157	4.367	0.527
312.000	231.695	79.992	19.995	103.101	20.164	3.922	0.486
320.000	235.724	79.994	19.996	103.108	20.158	4.314	0.503
328.000	239.677	79.992	19.995	103.098	20.154	4.619	0.478
336.000	243.666	79.994	19.997	103.098	20.153	4.720	0.487
344.000	247.614	79.995	19.995	103.102	20.144	5.351	0.485
352.000	251.626	79.994	19.995	103.099	20.130	6.333	0.463
360.000	255.613	79.992	19.995	103.107	20.118	7.249	0.496
368.000	259.567	79.994	19.995	103.100	20.096	8.805	0.541
376.000	263.418	79.994	19.995	103.102	20.071	10.621	0.472
384.000	267.442	79.993	19.996	103.104	20.047	12.401	0.534
392.000	271.345	79.992	19.996	103.108	20.013	14.865	0.518
400.000	275.300	79.995	19.995	103.116	19.976	17.555	0.478
408.000	279.262	79.995	19.996	103.114	19.938	20.301	0.519
416.000	283.141	79.993	19.995	103.152	19.869	25.342	0.492
424.000	287.144	79.993	19.996	103.133	19.850	26.722	0.515
432.000	291.134	79.994	19.996	103.115	19.819	28.926	0.523
440.000	295.071	79.994	19.996	103.118	19.809	29.698	0.504
448.000	299.076	79.993	19.995	103.106	19.791	31.006	0.501
456.001	302.976	79.994	19.994	103.103	19.803	30.059	0.487
464.000	306.890	79.993	19.996	103.125	19.742	34.506	0.507
472.000	310.819	79.992	19.995	103.109	19.785	31.390	0.464
480.000	314.851	79.992	19.994	103.109	19.805	29.926	0.525
488.000	318.796	79.995	19.995	103.123	19.779	31.852	0.476
496.000	322.765	79.996	19.996	103.135	19.741	34.600	0.521
504.000	326.734	79.994	19.996	103.144	19.692	38.189	0.498
512.000	330.815	79.995	19.996	103.147	19.622	43.237	0.498
520.000	334.817	79.990	19.996	103.161	19.531	49.920	0.501
528.000	338.861	79.991	19.996	103.176	19.414	58.451	0.508
536.000	342.764	79.993	19.995	103.216	19.269	68.960	0.481
544.000	346.764	79.991	19.994	103.225	19.075	83.159	0.484
552.000	350.739	79.992	19.995	103.293	18.783	104.093	0.489
560.000	354.829	79.993	19.995	103.430	18.048	158.972	0.521
568.000	358.853	79.995	19.995	103.319	17.915	167.504	0.537
576.000	362.872	79.994	19.996	103.284	17.037	231.716	0.544
584.000	366.916	79.995	19.996	103.459	16.628	261.158	0.524
592.000	370.975	79.995	19.995	103.436	16.459	273.315	0.500
600.000	375.177	79.993	19.997	103.312	16.736	253.536	0.549
608.000	379.364	79.993	19.995	103.407	17.215	218.403	0.535
616.000	383.575	79.992	19.996	103.313	17.500	197.559	0.530
624.000	387.723	79.993	19.994	103.234	17.764	178.266	0.521
632.000	391.753	79.991	19.994	103.193	18.092	154.389	0.497
640.000	395.827	79.994	19.994	103.149	18.487	125.680	0.512
648.000	399.814	79.995	19.995	103.106	18.895	96.022	0.506
656.001	403.740	79.994	19.996	103.102	19.259	69.585	0.482
664.000	407.699	79.996	19.994	103.073	19.545	48.818	0.493
672.000	411.655	79.994	19.995	103.063	19.755	33.561	0.486
680.000	415.589	79.993	19.996	103.061	19.899	23.109	0.480
688.000	419.642	79.991	19.996	103.056	20.004	15.471	0.517
696.000	423.641	79.994	19.996	103.073	20.069	10.786	0.519
704.000	427.780	79.993	19.997	103.062	20.106	8.075	0.511
712.000	431.986	79.993	19.997	103.067	20.139	5.670	0.531
720.000	436.289	79.993	19.995	103.065	20.160	4.186	0.552
728.000	440.552	79.995	19.994	103.046	20.174	3.169	0.518
736.000	444.859	79.993	19.995	103.060	20.179	2.808	0.607
744.000	449.146	79.994	19.995	103.067	20.179	2.828	0.571
752.000	453.368	79.997	19.995	103.060	20.176	2.994	0.547
760.000	457.617	79.993	19.996	103.065	20.180	2.704	0.486
768.001	461.855	79.993	19.996	103.062	20.186	2.319	0.541
776.000	466.053	79.991	19.996	103.056	20.185	2.369	0.532
784.000	470.267	79.994	19.996	103.057	20.188	2.152	0.513
792.000	474.454	79.991	19.997	103.055	20.183	2.483	0.535
800.000	478.484	79.992	19.996	103.053	20.185	2.379	0.510
808.000	482.471	79.994	19.995	103.056	20.188	2.180	0.499
816.000	486.391	79.994	19.995	103.043	20.184	2.457	0.474
824.000	490.312	79.995	19.994	103.062	20.186	2.311	0.499
832.000	494.153	79.996	19.996	103.059	20.187	2.202	0.510
840.000	497.999	79.992	19.995	103.063	20.187	2.254	0.504
848.000	501.908	79.993	19.996	103.064	20.185	2.335	0.467
856.000	505.846	79.994	19.994	103.066	20.190	1.974	0.468
864.000	509.907	79.992	19.995	103.061	20.187	2.188	0.492
872.000	514.007	79.992	19.996	103.060	20.185	2.371	0.526
880.000	518.126	79.994	19.996	103.054	20.189	2.106	0.533
888.000	522.219	79.993	19.995	103.057	20.196	1.562	0.500
896.000	526.342	79.993	19.995	103.058	20.193	1.803	0.484
904.000	530.520	79.995	19.995	103.056	20.194	1.695	0.494
912.000	534.671	79.994	19.995	103.060	20.190	2.004	0.511
920.000	538.918	79.992	19.996	103.063	20.188	2.176	0.554
928.000	543.059	79.992	19.995	103.059	20.190	2.024	0.491
936.000	547.148	79.993	19.995	103.066	20.186	2.305	0.526
944.000	551.325	79.993	19.996	103.047	20.186	2.258	0.525
952.000	555.417	79.993	19.996	103.060	20.183	2.475	0.517
960.000	559.499	79.992	19.995	103.057	20.187	2.208	0.500
968.000	563.514	79.993	19.995	103.050	20.188	2.124	0.493
976.000	567.562	79.992	19.994	103.058	20.189	2.090	0.490
984.000	571.646	79.994	19.997	103.060	20.190	1.999	0.539
992.000	575.837	79.996	19.994	103.055	20.187	2.210	0.516
1000.000	579.895	79.993	19.995	103.065	20.188	2.146	0.529
1008.000	583.971	79.993	19.996	103.053	20.194	1.697	0.486
1016.000	588.017	79.993	19.996	103.058	20.193	1.773	0.525
1024.001	592.012	79.993	19.996	103.062	20.189	2.098	0.507
1032.000	596.025	79.993	19.995	103.064	20.190	2.036	0.457
1040.000	600.091	79.993	19.995	103.059	20.189	2.092	0.495
1048.000	604.151	79.995	19.995	103.061	20.187	2.228	0.487
1056.000	608.269	79.992	19.996	103.063	20.189	2.076	0.530
1064.001	612.417	79.994	19.998	103.067	20.191	1.937	0.515
1072.000	616.652	79.994	19.997	103.058	20.189	2.098	0.549
1080.000	620.774	79.992	19.996	103.062	20.186	2.284	0.512
1088.000	624.873	79.992	19.995	103.063	20.184	2.439	0.484
1096.000	628.957	79.993	19.995	103.065	20.182	2.617	0.533
1104.000	633.024	79.992	19.996	103.064	20.184	2.465	0.519
1112.000	637.145	79.992	19.993	103.061	20.181	2.645	0.520
1120.000	641.113	79.994	19.993	103.069	20.181	2.635	0.495
1128.000	645.112	79.995	19.994	103.069	20.176	3.010	0.534
1136.000	649.050	79.994	19.995	103.069	20.173	3.247	0.501
1144.000	653.214	79.994	19.994	103.067	20.178	2.884	0.504
1152.000	657.299	79.995	19.996	103.065	20.176	2.982	0.514
1160.000	661.538	79.992	19.995	103.065	20.181	2.625	0.533
1168.000	665.759	79.991	19.995	103.065	20.181	2.621	0.520
1176.000	669.998	79.993	19.995	103.075	20.181	2.669	0.506
1184.000	674.156	79.992	19.994	103.079	20.180	2.763	0.502
1192.000	678.338	79.992	19.995	103.073	20.178	2.886	0.500
1200.001	682.375	79.995	19.995	103.072	20.179	2.818	0.540
1208.000	686.333	79.994	19.994	103.068	20.177	2.974	0.496
1216.000	690.294	79.995	19.995	103.075	20.179	2.830	0.462
1224.000	694.232	79.994	19.996	103.071	20.181	2.667	0.505
1232.000	698.171	79.995	19.995	103.063	20.175	3.094	0.503
1240.000	702.054	79.992	19.996	103.070	20.176	3.014	0.506
1248.000	705.941	79.993	19.998	103.068	20.177	2.964	0.476
1256.000	709.878	79.993	19.996	103.070	20.175	3.090	0.481
1264.000	713.887	79.993	19.996	103.085	20.176	3.028	0.529
1272.000	718.074	79.992	19.995	103.066	20.171	3.379	0.518
1280.000	722.351	79.994	19.994	103.073	20.170	3.477	0.580
1288.000	726.631	79.994	19.994	103.080	20.174	3.176	0.541
1296.000	730.971	79.993	19.994	103.090	20.170	3.421	0.511
1304.000	735.324	79.993	19.994	103.087	20.172	3.286	0.515
1312.000	739.484	79.993	19.995	103.087	20.169	3.506	0.492
1319.500	743.485	79.991	19.995	103.095	20.172	3.295	0.530