File: 01_Data/LatexPillow_C_Foam/MCC/LatexPillow_C_Foam_MCC_30K_min_211213_R3.txt
Sample ID:	C:\MCC\MCC Cal\Test\LatexPillow_C_Foam_MCC_30K_min_211213_R3.txt
Sample Weight (mg):	4.32
Heating Rate (C/s):	0.5
Combustor Temp (C):	900
N2 Flow Rate (cc/min):	80
O2 Flow Rate (cc/min):	20
Calibration File:	C:\MCC\MCC Cal\Coeff1 JN10440_30_210304.txt.txt
T Correction Coefficients:	0	1.024463	0
Time Shift (s):	14
*
Time (s)	Temperature (C)	N2 flow rate (cc/min)	O2 flow rate (cc/min)	Flow Rate (cc/min)	Oxygen (%)	HRR (W/g)	Heating rate (C/s)
0.000	110.360	80.010	19.996	103.014	20.011	-0.142	-0.030
8.000	110.347	80.009	19.995	103.046	20.017	-0.529	-0.012
16.000	110.395	80.012	19.994	103.127	20.009	0.035	0.033
24.000	110.852	80.010	19.995	103.170	20.000	0.724	0.075
32.001	111.521	80.009	19.994	103.207	19.998	0.850	0.108
40.000	112.608	80.008	19.994	103.257	19.985	1.795	0.162
48.001	114.136	80.008	19.994	103.283	19.982	2.025	0.209
56.001	116.057	80.005	19.994	103.290	19.976	2.487	0.245
64.001	118.364	80.005	19.997	103.322	19.974	2.670	0.264
72.000	121.009	80.008	19.995	103.322	19.977	2.426	0.381
80.001	123.911	80.008	19.994	103.324	19.976	2.499	0.409
88.000	127.107	80.007	19.995	103.326	19.979	2.308	0.406
96.000	130.462	80.009	19.994	103.327	19.976	2.473	0.429
104.000	133.983	80.009	19.994	103.327	19.984	1.897	0.443
112.000	137.642	80.009	19.994	103.325	19.981	2.109	0.486
120.000	141.456	80.009	19.994	103.324	19.982	2.054	0.510
128.000	145.310	80.007	19.994	103.322	19.982	2.041	0.459
136.000	149.271	80.008	19.995	103.319	19.982	2.037	0.507
144.000	153.227	80.007	19.994	103.314	19.985	1.797	0.508
152.000	157.178	80.005	19.995	103.320	19.989	1.500	0.483
160.000	161.205	80.008	19.995	103.299	19.989	1.510	0.534
168.000	165.248	80.008	19.995	103.302	19.988	1.634	0.485
176.000	169.269	80.007	19.993	103.287	19.987	1.648	0.506
184.000	173.257	80.008	19.994	103.284	19.990	1.440	0.526
192.000	177.256	80.011	19.994	103.282	19.989	1.540	0.514
200.000	181.211	80.007	19.994	103.276	19.988	1.627	0.503
208.000	185.173	80.007	19.994	103.274	19.985	1.843	0.482
216.000	189.201	80.004	19.995	103.275	19.983	1.989	0.493
224.000	193.124	80.007	19.994	103.254	19.979	2.262	0.502
232.000	196.998	80.007	19.994	103.255	19.979	2.298	0.453
240.000	200.940	80.007	19.994	103.254	19.977	2.404	0.483
248.000	204.893	80.011	19.995	103.249	19.978	2.329	0.475
256.000	208.915	80.008	19.995	103.247	19.973	2.733	0.464
264.000	212.818	80.011	19.995	103.244	19.974	2.670	0.473
272.000	216.804	80.012	19.994	103.243	19.979	2.243	0.471
280.000	220.791	80.010	19.993	103.245	19.984	1.928	0.505
288.000	224.766	80.008	19.994	103.249	19.982	2.026	0.486
296.000	228.766	80.007	19.994	103.249	19.981	2.103	0.512
304.000	232.709	80.008	19.993	103.250	19.987	1.696	0.509
312.000	236.697	80.009	19.993	103.247	19.989	1.544	0.496
320.000	240.689	80.007	19.994	103.240	19.986	1.743	0.522
328.000	244.657	80.008	19.994	103.245	19.985	1.792	0.516
336.000	248.670	80.007	19.994	103.235	19.987	1.708	0.509
344.000	252.742	80.008	19.995	103.235	19.986	1.728	0.485
352.000	256.741	80.007	19.995	103.234	19.985	1.793	0.515
360.000	260.716	80.009	19.993	103.215	19.982	2.078	0.491
368.000	264.703	80.005	19.994	103.213	19.983	1.968	0.498
376.001	268.721	80.007	19.994	103.208	19.981	2.137	0.476
384.000	272.827	80.006	19.994	103.205	19.975	2.580	0.509
392.000	276.831	80.007	19.994	103.203	19.977	2.411	0.493
400.000	280.832	80.007	19.994	103.204	19.974	2.671	0.506
408.000	284.852	80.007	19.994	103.206	19.970	2.972	0.494
416.000	288.876	80.009	19.994	103.198	19.961	3.623	0.500
424.000	292.952	80.008	19.994	103.195	19.953	4.226	0.494
432.000	296.990	80.008	19.994	103.206	19.944	4.915	0.506
440.000	301.078	80.009	19.995	103.198	19.924	6.408	0.495
448.000	305.052	80.007	19.996	103.185	19.901	8.079	0.489
456.000	309.137	80.007	19.994	103.185	19.871	10.340	0.521
464.000	313.234	80.007	19.995	103.196	19.833	13.139	0.525
472.001	317.287	80.007	19.994	103.186	19.785	16.707	0.497
480.000	321.334	80.006	19.995	103.174	19.731	20.787	0.485
488.000	325.411	80.009	19.994	103.173	19.670	25.333	0.540
496.000	329.425	80.006	19.994	103.173	19.597	30.740	0.504
504.000	333.467	80.009	19.995	103.168	19.505	37.611	0.528
512.000	337.479	80.009	19.995	103.163	19.399	45.450	0.518
520.001	341.446	80.010	19.994	103.157	19.259	55.867	0.488
528.000	345.448	80.006	19.995	103.133	19.101	67.628	0.524
536.000	349.436	80.006	19.996	103.131	18.893	83.178	0.520
544.000	353.439	80.006	19.995	103.118	18.647	101.437	0.504
552.000	357.448	80.008	19.994	103.093	18.353	123.328	0.490
560.000	361.442	80.006	19.994	103.088	18.032	147.142	0.480
568.000	365.470	80.007	19.994	103.053	17.699	171.866	0.501
576.000	369.520	80.009	19.993	103.013	17.390	194.829	0.502
584.001	373.591	80.008	19.995	102.992	17.156	212.180	0.526
592.000	377.588	80.009	19.995	102.960	17.045	220.410	0.486
600.000	381.654	80.010	19.994	102.942	17.069	218.657	0.479
608.000	385.665	80.006	19.995	102.947	17.227	206.961	0.501
616.000	389.731	80.007	19.994	102.976	17.451	190.343	0.515
624.000	393.754	80.007	19.995	103.008	17.723	170.091	0.523
632.000	397.731	80.006	19.995	103.013	18.000	149.530	0.474
640.000	401.754	80.008	19.995	103.044	18.239	131.792	0.491
648.000	405.807	80.008	19.994	103.054	18.444	116.505	0.542
656.000	409.774	80.010	19.994	103.078	18.611	104.104	0.507
664.001	413.822	80.008	19.994	103.086	18.735	94.899	0.515
672.000	417.851	80.009	19.993	103.096	18.818	88.695	0.522
680.000	421.953	80.009	19.996	103.094	18.883	83.900	0.503
688.000	425.967	80.008	19.995	103.094	18.933	80.135	0.488
696.000	430.081	80.006	19.995	103.098	18.979	76.722	0.521
704.000	434.133	80.007	19.995	103.108	19.022	73.515	0.531
712.000	438.256	80.007	19.995	103.102	19.073	69.714	0.492
720.000	442.316	80.006	19.995	103.122	19.134	65.213	0.522
728.000	446.430	80.006	19.996	103.129	19.199	60.370	0.541
736.000	450.462	80.009	19.995	103.130	19.277	54.579	0.541
744.000	454.548	80.007	19.995	103.131	19.364	48.112	0.502
752.000	458.212	80.006	19.995	103.134	19.460	40.938	0.217
760.000	462.643	80.009	19.993	103.132	19.560	33.471	0.526
768.000	466.778	80.009	19.993	103.140	19.668	25.436	0.535
776.000	470.950	80.008	19.995	103.147	19.772	17.684	0.565
784.000	475.155	80.008	19.995	103.164	19.870	10.363	0.546
792.000	479.318	80.008	19.995	103.158	19.957	3.922	0.510
800.000	483.467	80.006	19.995	103.165	20.024	-1.081	0.514
808.000	487.606	80.006	19.995	103.164	20.064	-4.034	0.541
816.000	491.741	80.008	19.995	103.159	20.090	-6.011	0.515
824.000	495.860	80.008	19.994	103.166	20.101	-6.788	0.506
832.000	499.998	80.010	19.994	103.157	20.111	-7.562	0.540
840.000	504.090	80.011	19.994	103.166	20.114	-7.787	0.545
848.000	508.091	80.009	19.994	103.164	20.117	-8.001	0.488
856.000	512.139	80.008	19.993	103.160	20.117	-8.033	0.504
864.000	516.250	80.007	19.994	103.161	20.118	-8.114	0.533
872.000	520.285	80.007	19.995	103.165	20.124	-8.554	0.524
880.000	524.367	80.006	19.995	103.164	20.124	-8.498	0.486
888.000	528.563	80.007	19.995	103.159	20.129	-8.887	0.552
896.000	532.686	80.008	19.995	103.163	20.125	-8.570	0.515
904.000	536.862	80.007	19.996	103.154	20.124	-8.559	0.561
912.000	540.984	80.009	19.995	103.162	20.122	-8.406	0.514
920.000	545.105	80.027	19.996	103.173	20.129	-8.932	0.532
928.001	549.317	80.009	19.994	103.164	20.130	-8.944	0.528
936.000	553.507	80.006	19.995	103.159	20.133	-9.187	0.558
944.000	557.678	80.006	19.995	103.155	20.129	-8.881	0.535
952.000	561.824	80.007	19.993	103.163	20.133	-9.195	0.508
960.000	565.960	80.008	19.994	103.159	20.137	-9.523	0.491
968.001	570.111	80.007	19.995	103.147	20.136	-9.448	0.545
976.000	574.306	80.010	19.994	103.154	20.135	-9.358	0.549
984.000	578.457	80.007	19.996	103.165	20.138	-9.583	0.518
992.000	582.572	80.009	19.995	103.148	20.138	-9.599	0.517
1000.000	586.615	80.009	19.996	103.137	20.138	-9.596	0.516
1008.000	590.721	80.008	19.994	103.150	20.141	-9.800	0.531
1016.000	594.779	80.008	19.994	103.154	20.138	-9.573	0.522
1024.000	598.828	80.006	19.995	103.144	20.139	-9.669	0.489
1032.000	602.822	80.008	19.995	103.149	20.137	-9.506	0.510
1040.000	606.872	80.008	19.995	103.161	20.142	-9.861	0.463
1048.000	610.901	80.007	19.994	103.143	20.143	-9.941	0.495
1056.000	615.054	80.009	19.994	103.152	20.143	-9.921	0.502
1064.000	619.211	80.008	19.995	103.138	20.144	-9.982	0.503
1072.000	623.269	80.007	19.994	103.142	20.141	-9.785	0.518
1080.000	627.303	80.010	19.994	103.137	20.140	-9.705	0.514
1088.000	631.369	80.008	19.997	103.133	20.139	-9.647	0.511
1096.000	635.450	80.006	19.994	103.129	20.142	-9.838	0.511
1104.001	639.546	80.008	19.993	103.135	20.143	-9.967	0.514
1112.000	643.558	80.008	19.994	103.138	20.145	-10.065	0.504
1120.000	647.605	80.007	19.993	103.138	20.148	-10.319	0.515
1128.000	651.752	80.006	19.994	103.154	20.147	-10.231	0.545
1136.000	655.850	80.008	19.993	103.137	20.150	-10.457	0.530
1144.000	659.925	80.007	19.994	103.138	20.151	-10.523	0.504
1152.000	663.970	80.007	19.995	103.129	20.146	-10.186	0.497
1160.000	668.096	80.009	19.994	103.132	20.151	-10.513	0.520
1168.000	672.153	80.008	19.994	103.130	20.150	-10.443	0.506
1176.001	676.245	80.007	19.996	103.131	20.152	-10.597	0.522
1184.000	680.276	80.008	19.995	103.133	20.151	-10.542	0.484
1192.000	684.349	80.008	19.994	103.131	20.152	-10.589	0.502
1200.001	688.353	80.007	19.993	103.134	20.149	-10.363	0.514
1208.000	692.395	80.006	19.992	103.131	20.153	-10.720	0.501
1216.001	696.439	80.008	19.993	103.130	20.153	-10.672	0.534
1224.000	700.481	80.008	19.992	103.129	20.149	-10.412	0.494
1232.000	704.503	80.009	19.993	103.130	20.156	-10.920	0.480
1240.000	708.496	80.009	19.995	103.130	20.156	-10.907	0.516
1248.000	712.436	80.007	19.993	103.130	20.152	-10.636	0.493
1256.000	716.519	80.007	19.995	103.134	20.153	-10.715	0.510
1264.000	720.497	80.007	19.994	103.135	20.160	-11.206	0.470
1272.001	724.531	80.008	19.994	103.132	20.156	-10.893	0.488
1280.001	728.641	80.007	19.996	103.129	20.152	-10.586	0.499
1288.000	732.792	80.007	19.997	103.129	20.159	-11.104	0.514
1296.000	736.857	80.007	19.997	103.129	20.159	-11.141	0.526
1304.000	740.984	80.008	19.996	103.129	20.158	-11.093	0.504
1309.001	743.569	80.008	19.993	103.130	20.159	-11.107	0.503