File: 01_Data/LatexPillow_C_Foam/MCC/LatexPillow_C_Foam_MCC_30K_min_211213_R2.txt
Sample ID:	C:\MCC\MCC Cal\Test\LatexPillow_C_Foam_MCC_30K_min_211213_R2.txt
Sample Weight (mg):	4.57
Heating Rate (C/s):	0.5
Combustor Temp (C):	900
N2 Flow Rate (cc/min):	80
O2 Flow Rate (cc/min):	20
Calibration File:	C:\MCC\MCC Cal\Coeff1 JN10440_30_210304.txt.txt
T Correction Coefficients:	0	1.024463	0
Time Shift (s):	14
*
Time (s)	Temperature (C)	N2 flow rate (cc/min)	O2 flow rate (cc/min)	Flow Rate (cc/min)	Oxygen (%)	HRR (W/g)	Heating rate (C/s)
0.000	109.017	80.006	19.997	103.020	20.327	-0.163	0.000
8.000	109.074	80.006	19.996	103.038	20.324	0.017	0.011
16.001	109.211	80.008	19.994	103.116	20.311	0.978	0.050
24.000	109.656	80.007	19.995	103.184	20.298	1.869	0.081
32.000	110.499	80.004	19.994	103.169	20.282	3.030	0.140
40.000	111.815	80.003	19.997	103.249	20.279	3.201	0.190
48.000	113.455	80.005	19.993	103.241	20.280	3.103	0.203
56.000	115.426	80.005	19.994	103.249	20.277	3.342	0.257
64.000	117.609	80.004	19.994	103.252	20.272	3.691	0.281
72.000	120.142	80.005	19.996	103.286	20.264	4.264	0.315
80.000	122.936	80.007	19.995	103.287	20.264	4.239	0.352
88.000	125.988	80.005	19.995	103.288	20.264	4.249	0.398
96.000	129.240	80.005	19.995	103.289	20.266	4.102	0.425
104.000	132.619	80.006	19.994	103.285	20.263	4.328	0.451
112.000	136.135	80.004	19.996	103.290	20.259	4.610	0.450
120.001	139.818	80.004	19.995	103.293	20.261	4.448	0.449
128.000	143.543	80.005	19.996	103.287	20.260	4.529	0.447
136.000	147.450	80.006	19.995	103.284	20.263	4.362	0.511
144.000	151.340	80.005	19.994	103.276	20.263	4.312	0.497
152.001	155.246	80.005	19.995	103.278	20.261	4.450	0.487
160.001	159.200	80.005	19.995	103.270	20.265	4.229	0.473
168.000	163.159	80.005	19.995	103.275	20.263	4.330	0.497
176.000	167.272	80.005	19.994	103.274	20.260	4.567	0.528
184.001	171.201	80.005	19.995	103.251	20.262	4.439	0.482
192.000	175.207	80.003	19.996	103.249	20.257	4.783	0.493
200.000	179.252	80.005	19.995	103.248	20.252	5.143	0.503
208.000	183.217	80.005	19.995	103.249	20.247	5.462	0.496
216.000	187.239	80.004	19.994	103.246	20.246	5.512	0.467
224.000	191.186	80.004	19.995	103.250	20.243	5.737	0.502
232.000	195.138	80.005	19.993	103.245	20.237	6.169	0.493
240.000	199.102	80.006	19.993	103.239	20.237	6.140	0.486
248.000	203.068	80.005	19.994	103.229	20.230	6.654	0.485
256.000	207.041	80.006	19.995	103.242	20.227	6.891	0.475
264.000	211.017	80.008	19.994	103.231	20.223	7.177	0.520
272.000	214.965	80.005	19.995	103.215	20.222	7.230	0.527
280.000	218.872	80.003	19.997	103.224	20.220	7.377	0.484
288.000	222.806	80.003	19.994	103.223	20.220	7.389	0.560
296.000	226.713	80.004	19.995	103.224	20.216	7.617	0.497
304.000	230.731	80.004	19.994	103.217	20.214	7.755	0.516
312.000	234.659	80.005	19.995	103.214	20.215	7.751	0.529
320.000	238.601	80.006	19.996	103.211	20.218	7.502	0.499
328.000	242.535	80.007	19.994	103.220	20.216	7.630	0.464
336.000	246.619	80.006	19.995	103.210	20.215	7.712	0.506
344.000	250.600	80.006	19.994	103.211	20.212	7.914	0.477
352.000	254.631	80.006	19.995	103.210	20.212	7.958	0.534
360.000	258.611	80.005	19.995	103.213	20.206	8.335	0.516
368.000	262.575	80.005	19.994	103.209	20.202	8.628	0.460
376.000	266.596	80.006	19.995	103.202	20.192	9.327	0.502
384.000	270.650	80.005	19.995	103.197	20.189	9.568	0.485
392.000	274.575	80.005	19.994	103.178	20.186	9.759	0.497
400.000	278.643	80.008	19.996	103.185	20.184	9.931	0.507
408.000	282.662	80.006	19.993	103.172	20.178	10.305	0.514
416.000	286.715	80.005	19.996	103.183	20.168	11.011	0.518
424.000	290.726	80.007	19.995	103.187	20.160	11.584	0.499
432.000	294.823	80.007	19.994	103.199	20.148	12.459	0.509
440.000	298.940	80.005	19.995	103.182	20.127	13.912	0.536
448.000	303.016	80.005	19.994	103.179	20.103	15.600	0.521
456.000	307.063	80.006	19.995	103.171	20.073	17.715	0.505
464.000	311.191	80.005	19.996	103.175	20.031	20.678	0.489
472.000	315.347	80.003	19.996	103.168	19.983	24.073	0.511
480.000	319.431	80.005	19.995	103.168	19.923	28.309	0.531
488.000	323.504	80.006	19.995	103.170	19.855	33.086	0.518
496.000	327.571	80.006	19.993	103.167	19.772	38.914	0.506
504.000	331.589	80.005	19.995	103.166	19.679	45.455	0.495
512.000	335.673	80.008	19.994	103.142	19.570	53.138	0.513
520.000	339.728	80.006	19.995	103.134	19.433	62.744	0.518
528.000	343.799	80.007	19.994	103.131	19.268	74.362	0.502
536.000	347.817	80.005	19.995	103.120	19.073	88.099	0.534
544.000	351.845	80.006	19.994	103.116	18.827	105.415	0.511
552.000	355.875	80.004	19.995	103.095	18.530	126.239	0.537
560.001	359.937	80.004	19.994	103.073	18.193	149.888	0.514
568.000	363.908	80.007	19.996	103.034	17.836	174.932	0.499
576.000	367.966	80.007	19.994	103.012	17.495	198.828	0.529
584.000	371.980	80.006	19.995	102.967	17.213	218.599	0.490
592.000	376.027	80.008	19.994	102.926	17.037	230.939	0.481
600.000	380.063	80.007	19.994	102.902	17.015	232.563	0.521
608.000	384.145	80.006	19.994	102.926	17.129	224.596	0.537
616.000	388.166	80.006	19.994	102.948	17.340	209.853	0.507
624.001	392.221	80.007	19.994	102.977	17.608	191.054	0.508
632.000	396.336	80.006	19.995	103.006	17.890	171.258	0.513
640.000	400.431	80.006	19.997	103.015	18.157	152.521	0.482
648.000	404.518	80.007	19.996	103.045	18.390	136.114	0.546
656.000	408.539	80.006	19.995	103.052	18.575	123.118	0.498
664.000	412.642	80.006	19.996	103.057	18.717	113.170	0.506
672.001	416.701	80.008	19.994	103.076	18.821	105.836	0.529
680.000	420.749	80.007	19.993	103.086	18.896	100.571	0.504
688.000	424.810	80.005	19.994	103.094	18.957	96.234	0.481
696.000	428.916	80.004	19.993	103.097	19.007	92.768	0.523
704.000	433.067	80.007	19.994	103.092	19.054	89.397	0.542
712.000	437.105	80.006	19.994	103.094	19.109	85.534	0.495
720.000	441.142	80.004	19.994	103.101	19.169	81.361	0.498
728.000	445.176	80.007	19.994	103.110	19.248	75.811	0.515
736.000	449.195	80.007	19.996	103.100	19.327	70.247	0.528
744.000	453.220	80.006	19.994	103.118	19.415	64.043	0.496
752.001	457.253	80.007	19.995	103.130	19.510	57.377	0.527
760.000	461.286	80.008	19.995	103.126	19.614	50.033	0.487
768.000	465.300	80.006	19.994	103.126	19.720	42.542	0.489
776.000	469.328	80.006	19.994	103.132	19.832	34.649	0.473
784.000	473.419	80.006	19.995	103.137	19.937	27.315	0.523
792.000	477.554	80.005	19.994	103.144	20.031	20.688	0.501
800.000	481.717	80.005	19.995	103.136	20.106	15.387	0.514
808.000	485.852	80.007	19.995	103.151	20.167	11.114	0.531
816.000	489.984	80.007	19.995	103.137	20.185	9.798	0.522
824.000	493.647	80.005	19.996	103.160	20.203	8.581	-0.057
832.000	498.200	80.007	19.995	103.146	20.209	8.117	0.525
840.000	502.428	80.009	19.995	103.205	20.214	7.750	0.568
848.000	506.556	80.005	19.996	103.146	20.215	7.743	0.516
856.000	510.703	80.005	19.995	103.141	20.216	7.664	0.512
864.000	514.962	80.006	19.995	103.151	20.213	7.851	0.523
872.000	519.162	80.005	19.994	103.153	20.214	7.756	0.519
880.000	523.417	80.006	19.996	103.143	20.214	7.762	0.575
888.001	527.658	80.005	19.995	103.144	20.214	7.792	0.535
896.000	531.869	80.009	19.994	103.148	20.215	7.688	0.536
904.000	536.061	80.007	19.995	103.131	20.213	7.860	0.498
912.000	540.344	80.006	19.995	103.134	20.213	7.870	0.522
920.000	544.500	80.008	19.994	103.133	20.214	7.762	0.506
928.000	548.654	80.007	19.994	103.130	20.208	8.175	0.514
936.000	552.816	80.004	19.994	103.132	20.208	8.237	0.511
944.000	556.944	80.004	19.996	103.136	20.208	8.204	0.532
952.000	561.050	80.005	19.995	103.134	20.212	7.943	0.516
960.000	565.190	80.006	19.994	103.133	20.210	8.091	0.531
968.000	569.259	80.006	19.994	103.136	20.209	8.148	0.482
976.000	573.361	80.008	19.994	103.134	20.207	8.296	0.513
984.000	577.451	80.007	19.995	103.129	20.203	8.569	0.486
992.000	581.520	80.006	19.993	103.139	20.199	8.808	0.495
1000.000	585.551	80.008	19.995	103.144	20.196	9.036	0.507
1008.000	589.556	80.007	19.995	103.163	20.197	8.986	0.500
1016.000	593.615	80.005	19.994	103.138	20.193	9.253	0.524
1024.000	597.715	80.005	19.994	103.146	20.196	9.066	0.521
1032.000	601.739	80.006	19.995	103.133	20.194	9.195	0.531
1040.000	605.765	80.006	19.995	103.149	20.191	9.389	0.527
1048.001	609.888	80.006	19.994	103.154	20.189	9.577	0.516
1056.001	614.018	80.007	19.995	103.130	20.188	9.587	0.539
1064.000	618.222	80.007	19.994	103.138	20.182	10.025	0.502
1072.000	622.574	80.007	19.994	103.145	20.180	10.209	0.572
1080.000	626.817	80.008	19.994	103.136	20.178	10.299	0.513
1088.000	631.042	80.009	19.994	103.137	20.176	10.480	0.498
1096.000	635.174	80.008	19.995	103.131	20.179	10.219	0.512
1104.001	639.120	80.006	19.995	103.130	20.180	10.174	0.488
1112.000	643.034	80.006	19.995	103.129	20.178	10.282	0.491
1120.000	646.906	80.007	19.997	103.130	20.176	10.457	0.477
1128.000	650.792	80.005	19.996	103.134	20.175	10.547	0.474
1136.000	654.797	80.006	19.996	103.134	20.174	10.582	0.518
1144.000	658.753	80.008	19.994	103.130	20.173	10.668	0.461
1152.000	662.710	80.005	19.995	103.135	20.167	11.071	0.500
1160.000	666.868	80.007	19.995	103.143	20.169	10.963	0.518
1168.000	671.163	80.009	19.995	103.135	20.166	11.140	0.525
1176.000	675.510	80.007	19.994	103.136	20.162	11.456	0.578
1184.000	680.020	80.006	19.994	103.134	20.160	11.605	0.667
1192.000	684.093	80.006	19.996	103.130	20.157	11.786	0.519
1200.000	688.356	80.007	19.996	103.138	20.159	11.688	0.560
1208.000	692.467	80.006	19.995	103.135	20.153	12.093	0.500
1216.000	696.646	80.006	19.995	103.137	20.153	12.087	0.504
1224.000	700.734	80.008	19.997	103.143	20.150	12.259	0.508
1232.001	704.758	80.008	19.995	103.136	20.154	11.994	0.498
1240.000	708.736	80.009	19.995	103.131	20.149	12.380	0.502
1248.001	712.724	80.010	19.993	103.136	20.146	12.540	0.460
1256.001	716.696	80.011	19.995	103.144	20.147	12.466	0.485
1264.000	720.660	80.008	19.994	103.135	20.147	12.486	0.488
1272.000	724.547	80.006	19.993	103.151	20.144	12.683	0.469
1280.000	728.592	80.007	19.994	103.146	20.143	12.790	0.486
1288.000	732.573	80.007	19.995	103.157	20.138	13.141	0.495
1296.000	736.582	80.006	19.995	103.132	20.137	13.213	0.500
1304.000	740.655	80.007	19.996	103.143	20.133	13.497	0.515
1309.500	743.473	80.008	19.994	103.148	20.134	13.406	0.506