File: 01_Data/Vinyl_Siding/HFM/Vinyl_Siding_Density_Wet_R2.csv
,Vinyl_Siding_WET_2
Sample Mass [g],35.0
Sample Volume [cm3],25.3
Sample Density [kg/m3],1383