File: 01_Data/Vinyl_Siding/HFM/Vinyl_Siding_Density_Wet_R3.csv
,Vinyl_Siding_WET_3
Sample Mass [g],33.8
Sample Volume [cm3],24.5
Sample Density [kg/m3],1382