File: 01_Data/Vinyl_Siding/HFM/Vinyl_Siding_Density_Wet_R1.csv
,Vinyl_Siding_WET_1
Sample Mass [g],32.8
Sample Volume [cm3],24.0
Sample Density [kg/m3],1365