File: 01_Data/Pipe_Heat_Cable/MCC/Pipe_Heat_Cable_MCC_30K_min_220201_R4.txt
Sample ID:	C:\MCC\MCC Cal\Test\Pipe_Heat_Cable\Pipe_Heat_Cable_MCC_30K_min_220201_R4.txt
Sample Weight (mg):	4.73
Heating Rate (C/s):	0.5
Combustor Temp (C):	900
N2 Flow Rate (cc/min):	80
O2 Flow Rate (cc/min):	20
Calibration File:	C:\MCC\MCC Cal\Coeff1 JN10440_30_210304.txt.txt
T Correction Coefficients:	0	1.024463	0
Time Shift (s):	14
*
Time (s)	Temperature (C)	N2 flow rate (cc/min)	O2 flow rate (cc/min)	Flow Rate (cc/min)	Oxygen (%)	HRR (W/g)	Heating rate (C/s)
0.000	114.176	80.011	19.993	103.795	20.042	0.158	0.012
8.000	114.202	80.009	19.994	103.786	20.039	0.319	0.016
16.000	114.222	80.012	19.993	103.824	20.035	0.582	0.022
24.000	114.366	80.009	19.994	103.897	20.018	1.753	0.033
32.000	114.811	80.008	19.995	103.897	20.020	1.657	0.078
40.000	115.512	80.009	19.995	103.959	20.007	2.542	0.104
48.001	116.635	80.008	19.993	103.979	20.003	2.808	0.139
56.000	118.062	80.008	19.994	103.992	19.998	3.178	0.222
64.000	119.799	80.008	19.996	104.024	19.992	3.592	0.241
72.000	122.042	80.009	19.994	104.025	19.994	3.433	0.332
80.000	124.456	80.011	19.994	104.023	19.986	4.007	0.320
88.000	127.161	80.009	19.993	104.004	19.987	3.920	0.330
96.000	130.152	80.011	19.993	104.060	19.987	3.933	0.386
104.000	133.333	80.013	19.995	104.056	19.987	3.922	0.422
112.000	136.758	80.009	19.993	104.056	19.981	4.308	0.470
120.000	140.286	80.008	19.993	104.055	19.982	4.271	0.403
128.000	144.014	80.006	19.994	104.051	19.987	3.882	0.475
136.000	147.741	80.009	19.995	104.040	19.984	4.121	0.452
144.000	151.624	80.010	19.995	104.093	19.982	4.244	0.461
152.000	155.523	80.010	19.995	104.026	19.981	4.290	0.475
160.000	159.470	80.011	19.995	104.026	19.978	4.498	0.480
168.000	163.506	80.010	19.994	104.025	19.976	4.664	0.504
176.000	167.486	80.010	19.995	104.022	19.974	4.777	0.475
184.000	171.562	80.011	19.993	104.022	19.974	4.771	0.532
192.000	175.588	80.010	19.993	104.011	19.974	4.830	0.536
200.000	179.662	80.009	19.994	103.991	19.976	4.638	0.515
208.000	183.619	80.009	19.994	103.982	19.973	4.888	0.509
216.000	187.645	80.009	19.994	103.984	19.971	5.028	0.487
224.000	191.624	80.010	19.994	103.980	19.968	5.220	0.495
232.000	195.558	80.008	19.995	103.979	19.964	5.468	0.496
240.000	199.425	80.009	19.994	103.990	19.962	5.605	0.489
248.000	203.381	80.010	19.993	103.984	19.954	6.189	0.504
256.000	207.379	80.009	19.993	103.982	19.946	6.733	0.524
264.000	211.390	80.012	19.993	103.981	19.939	7.195	0.511
272.000	215.433	80.013	19.994	103.970	19.925	8.185	0.521
280.000	219.440	80.010	19.993	103.975	19.913	8.988	0.506
288.000	223.430	80.011	19.994	103.969	19.899	9.933	0.507
296.000	227.358	80.009	19.993	103.966	19.878	11.355	0.498
304.000	231.330	80.008	19.995	103.967	19.856	12.857	0.484
312.000	235.338	80.009	19.995	103.972	19.834	14.375	0.505
320.000	239.253	80.009	19.992	103.968	19.806	16.311	0.489
328.000	243.199	80.011	19.995	103.960	19.776	18.358	0.496
336.000	247.114	80.011	19.993	103.949	19.738	20.994	0.480
344.000	251.210	80.010	19.994	103.939	19.697	23.795	0.526
352.000	255.145	80.013	19.993	103.943	19.646	27.306	0.499
360.000	259.053	80.014	19.993	103.936	19.586	31.378	0.491
368.000	262.889	80.009	19.994	103.948	19.521	35.888	0.461
376.000	266.786	80.009	19.994	103.948	19.448	40.918	0.467
384.000	270.707	80.009	19.993	103.980	19.356	47.261	0.539
392.000	274.592	80.011	19.992	104.084	19.162	60.539	0.490
400.000	278.514	80.009	19.995	104.167	18.737	89.556	0.335
408.000	282.489	80.009	19.995	103.933	18.341	116.684	0.446
416.000	286.509	80.010	19.993	103.901	18.167	128.626	0.526
424.000	290.606	80.010	19.994	103.925	18.122	131.652	0.501
432.000	294.734	80.010	19.994	103.881	18.106	132.922	0.498
440.000	298.883	80.010	19.995	103.909	18.131	131.084	0.502
448.000	303.049	80.011	19.993	103.959	18.064	135.551	0.531
456.000	307.201	80.010	19.994	103.941	18.168	128.474	0.516
464.000	311.356	80.010	19.994	103.509	19.002	71.397	0.536
472.000	315.512	80.013	19.994	103.966	19.596	30.659	0.490
480.000	319.594	80.011	19.993	103.875	19.818	15.449	0.515
488.000	323.642	80.010	19.993	103.858	19.897	10.060	0.532
496.000	327.699	80.011	19.993	103.869	19.938	7.287	0.479
504.000	331.672	80.013	19.994	103.888	19.953	6.219	0.514
512.000	335.702	80.010	19.994	103.897	19.961	5.667	0.513
520.000	339.619	80.010	19.993	103.902	19.965	5.424	0.466
528.000	343.627	80.012	19.995	103.908	19.969	5.113	0.508
536.000	347.579	80.011	19.996	103.908	19.974	4.783	0.489
544.000	351.596	80.011	19.995	103.905	19.971	5.005	0.474
552.000	355.661	80.011	19.995	103.900	19.971	5.011	0.510
560.000	359.652	80.012	19.996	103.913	19.972	4.940	0.521
568.000	363.677	80.010	19.993	103.921	19.970	5.077	0.520
576.000	367.799	80.011	19.993	103.913	19.966	5.309	0.478
584.000	371.857	80.011	19.993	103.904	19.961	5.683	0.508
592.000	375.944	80.011	19.994	103.906	19.955	6.062	0.502
600.000	380.041	80.013	19.992	103.902	19.943	6.895	0.521
608.000	384.139	80.011	19.996	103.901	19.937	7.308	0.513
616.000	388.254	80.014	19.994	103.903	19.928	7.940	0.503
624.000	392.336	80.010	19.995	103.900	19.915	8.815	0.525
632.000	396.515	80.010	19.993	103.930	19.910	9.167	0.540
640.000	400.528	80.009	19.994	103.906	19.899	9.947	0.522
648.000	404.594	80.010	19.993	103.907	19.868	12.063	0.512
656.000	408.617	80.010	19.994	103.899	19.835	14.352	0.477
664.000	412.590	80.010	19.994	103.895	19.804	16.443	0.471
672.000	416.563	80.013	19.993	103.897	19.765	19.137	0.511
680.000	420.602	80.011	19.993	103.892	19.727	21.718	0.510
688.000	424.662	80.011	19.993	103.894	19.684	24.691	0.520
696.000	428.708	80.014	19.993	103.830	19.633	28.136	0.506
704.000	432.804	80.012	19.994	103.893	19.589	31.201	0.524
712.000	436.815	80.010	19.993	103.900	19.547	34.046	0.481
720.000	440.877	80.010	19.993	103.900	19.509	36.651	0.454
728.000	444.895	80.010	19.993	103.902	19.489	38.002	0.494
736.000	448.905	80.011	19.995	103.895	19.477	38.838	0.526
744.000	452.922	80.009	19.995	103.896	19.476	38.922	0.485
752.000	456.994	80.011	19.994	103.889	19.478	38.774	0.515
760.000	461.113	80.014	19.993	103.897	19.495	37.600	0.541
768.000	465.188	80.012	19.994	103.889	19.516	36.190	0.537
776.000	469.357	80.011	19.994	103.900	19.547	34.074	0.521
784.000	473.441	80.012	19.993	103.882	19.590	31.109	0.508
792.000	477.599	80.013	19.992	103.886	19.631	28.304	0.503
800.000	481.719	80.011	19.995	103.883	19.677	25.114	0.498
808.000	485.806	80.012	19.994	103.889	19.725	21.881	0.520
816.000	489.878	80.010	19.995	103.875	19.767	18.988	0.511
824.000	493.885	80.011	19.994	103.877	19.804	16.423	0.518
832.000	497.891	80.009	19.995	103.882	19.835	14.304	0.505
840.000	501.918	80.010	19.994	103.882	19.863	12.388	0.514
848.000	505.954	80.012	19.992	103.880	19.885	10.906	0.527
856.000	510.003	80.012	19.993	103.879	19.898	9.970	0.488
864.000	514.057	80.011	19.994	103.871	19.914	8.911	0.492
872.000	518.204	80.014	19.993	103.872	19.921	8.419	0.507
880.000	522.291	80.013	19.994	103.877	19.925	8.129	0.522
888.000	526.335	80.013	19.994	103.861	19.934	7.530	0.490
896.000	530.463	80.010	19.993	103.863	19.935	7.446	0.503
904.000	534.523	80.013	19.995	103.861	19.941	7.024	0.495
912.000	538.597	80.011	19.994	103.861	19.945	6.768	0.508
920.000	542.618	80.011	19.993	103.867	19.945	6.747	0.511
928.000	546.559	80.011	19.994	103.862	19.948	6.548	0.495
936.000	550.552	80.010	19.995	103.859	19.949	6.485	0.516
944.000	554.611	80.011	19.995	103.863	19.953	6.262	0.516
952.000	558.727	80.013	19.993	103.862	19.952	6.278	0.521
960.000	562.900	80.014	19.993	103.859	19.955	6.103	0.509
968.000	567.071	80.011	19.994	103.861	19.952	6.292	0.525
976.000	571.219	80.011	19.993	103.861	19.956	6.032	0.517
984.000	575.384	80.012	19.993	103.861	19.953	6.252	0.510
992.000	579.489	80.011	19.993	103.863	19.954	6.155	0.479
1000.000	583.568	80.010	19.994	103.866	19.955	6.127	0.508
1008.000	587.654	80.011	19.995	103.858	19.957	5.942	0.527
1016.000	591.733	80.013	19.994	103.859	19.959	5.814	0.514
1024.000	595.879	80.012	19.995	103.863	19.963	5.562	0.520
1032.000	599.958	80.011	19.994	103.862	19.960	5.724	0.486
1040.000	604.005	80.013	19.996	103.858	19.960	5.776	0.523
1048.000	608.066	80.013	19.995	103.856	19.959	5.853	0.491
1056.000	612.169	80.010	19.994	103.860	19.961	5.699	0.508
1064.000	616.195	80.010	19.994	103.865	19.963	5.512	0.512
1072.000	620.133	80.011	19.993	103.854	19.961	5.674	0.507
1080.000	624.103	80.011	19.993	103.862	19.958	5.917	0.504
1088.000	628.044	80.010	19.992	103.858	19.966	5.359	0.486
1096.000	632.044	80.012	19.994	103.860	19.967	5.247	0.525
1104.000	636.169	80.012	19.995	103.858	19.968	5.229	0.502
1112.000	640.258	80.012	19.994	103.860	19.970	5.080	0.521
1120.000	644.373	80.012	19.993	103.861	19.971	4.978	0.516
1128.000	648.632	80.012	19.994	103.862	19.968	5.208	0.547
1136.000	652.870	80.011	19.994	103.860	19.969	5.129	0.543
1144.000	657.235	80.010	19.993	103.857	19.970	5.057	0.540
1152.001	661.512	80.011	19.994	103.858	19.972	4.918	0.530
1160.000	665.756	80.011	19.994	103.859	19.973	4.843	0.519
1168.000	669.805	80.011	19.995	103.857	19.974	4.772	0.476
1176.000	673.970	80.012	19.994	103.860	19.980	4.398	0.537
1184.000	678.053	80.013	19.994	103.851	19.979	4.479	0.500
1192.000	682.110	80.012	19.993	103.853	19.980	4.367	0.501
1200.000	686.096	80.012	19.995	103.858	19.980	4.401	0.498
1208.000	690.146	80.013	19.993	103.848	19.981	4.321	0.507
1216.000	694.166	80.014	19.993	103.853	19.981	4.298	0.502
1224.000	698.415	80.010	19.993	103.857	19.981	4.294	0.557
1232.001	702.704	80.010	19.995	103.855	19.978	4.512	0.530
1240.000	706.987	80.011	19.995	103.847	19.981	4.314	0.542
1248.000	711.098	80.012	19.994	103.828	19.988	3.850	0.491
1256.001	715.140	80.011	19.993	103.834	19.987	3.902	0.503
1264.000	719.150	80.013	19.995	103.836	19.986	3.977	0.471
1272.000	723.055	80.012	19.994	103.839	19.984	4.111	0.453
1280.000	726.998	80.013	19.993	103.844	19.992	3.576	0.479
1288.000	730.941	80.013	19.992	103.831	19.988	3.842	0.502
1296.000	734.936	80.013	19.994	103.831	19.990	3.682	0.477
1304.000	738.879	80.011	19.995	103.831	19.987	3.896	0.472
1312.001	742.867	80.012	19.995	103.834	19.985	4.008	0.488
1313.501	743.611	80.010	19.994	103.827	19.988	3.809	0.499