File: 01_Data/Pipe_Heat_Cable/MCC/Pipe_Heat_Cable_MCC_30K_min_220126_O1.txt
Sample ID:	C:\MCC\MCC Cal\Test\Pipe_Heat_Cable_MCC_30K_min_220126_R1.txt
Sample Weight (mg):	4.98
Heating Rate (C/s):	0.5
Combustor Temp (C):	900
N2 Flow Rate (cc/min):	80
O2 Flow Rate (cc/min):	20
Calibration File:	C:\MCC\MCC Cal\Coeff1 JN10440_30_210304.txt.txt
T Correction Coefficients:	0	1.024463	0
Time Shift (s):	14
*
Time (s)	Temperature (C)	N2 flow rate (cc/min)	O2 flow rate (cc/min)	Flow Rate (cc/min)	Oxygen (%)	HRR (W/g)	Heating rate (C/s)
0.000	113.143	80.003	19.995	103.675	19.949	0.201	0.016
7.500	113.126	80.003	19.995	103.684	19.948	0.261	0.015
15.000	113.091	80.003	19.995	103.702	19.943	0.592	-0.018
22.501	113.366	80.004	19.994	103.831	19.924	1.794	0.079
30.000	113.974	80.004	19.993	103.869	19.916	2.314	0.107
37.501	114.950	80.003	19.993	103.907	19.909	2.775	0.161
45.001	116.358	80.004	19.995	103.907	19.900	3.405	0.191
52.500	118.090	80.006	19.993	103.911	19.904	3.134	0.231
60.000	120.179	80.007	19.993	103.942	19.896	3.612	0.288
67.500	122.556	80.004	19.993	103.948	19.892	3.880	0.311
75.000	125.209	80.004	19.995	103.982	19.891	3.951	0.359
82.500	128.165	80.004	19.994	103.979	19.887	4.248	0.422
90.000	131.315	80.005	19.993	103.974	19.887	4.197	0.444
97.500	134.623	80.002	19.994	103.977	19.883	4.475	0.437
105.001	138.194	80.004	19.995	103.973	19.889	4.070	0.517
112.500	141.815	80.005	19.994	103.966	19.887	4.226	0.466
120.000	145.648	80.006	19.994	103.950	19.889	4.067	0.525
127.500	149.453	80.004	19.993	103.956	19.887	4.224	0.531
135.000	153.335	80.006	19.994	103.945	19.888	4.133	0.515
142.500	157.174	80.007	19.992	103.938	19.888	4.192	0.543
150.000	161.033	80.003	19.992	103.931	19.893	3.862	0.538
157.500	164.857	80.006	19.994	103.923	19.892	3.883	0.532
165.000	168.652	80.004	19.994	103.910	19.890	4.037	0.499
172.500	172.452	80.003	19.996	103.921	19.886	4.265	0.528
180.000	176.176	80.003	19.994	103.913	19.889	4.118	0.480
187.500	179.843	80.003	19.993	103.913	19.886	4.260	0.485
195.000	183.489	80.006	19.994	103.913	19.885	4.340	0.445
202.500	187.171	80.006	19.995	103.827	19.889	4.110	0.478
210.000	190.633	80.005	19.995	103.903	19.887	4.228	0.481
217.500	194.154	80.005	19.994	103.895	19.875	5.025	0.466
225.001	197.655	80.006	19.994	103.904	19.874	5.049	0.468
232.500	201.167	80.004	19.992	103.883	19.873	5.138	0.422
240.000	204.745	80.004	19.993	103.898	19.862	5.868	0.469
247.500	208.398	80.004	19.994	103.893	19.853	6.422	0.472
255.000	212.060	80.006	19.993	103.884	19.844	7.002	0.477
262.501	215.718	80.003	19.992	103.889	19.834	7.645	0.461
270.000	219.379	80.004	19.994	103.875	19.827	8.149	0.485
277.500	223.064	80.005	19.993	103.903	19.814	8.975	0.485
285.000	226.814	80.006	19.994	103.898	19.801	9.847	0.478
292.500	230.592	80.004	19.994	103.889	19.779	11.258	0.481
300.000	234.325	80.004	19.995	103.883	19.754	12.861	0.515
307.500	238.001	80.006	19.993	103.880	19.730	14.422	0.475
315.001	241.710	80.004	19.991	103.881	19.702	16.270	0.493
322.500	245.427	80.003	19.993	103.871	19.669	18.399	0.521
330.001	249.102	80.004	19.993	103.881	19.631	20.883	0.482
337.500	252.915	80.006	19.993	103.865	19.591	23.488	0.503
345.000	256.637	80.005	19.994	103.868	19.549	26.216	0.482
352.500	260.380	80.003	19.994	103.869	19.489	30.104	0.498
360.000	264.098	80.006	19.995	103.874	19.417	34.794	0.482
367.500	267.886	80.007	19.993	103.874	19.333	40.257	0.498
375.000	271.642	80.024	19.999	103.904	19.243	46.151	0.528
382.500	275.387	80.005	19.993	103.909	19.110	54.906	0.478
390.000	279.108	80.007	19.994	103.952	18.949	65.364	0.486
397.500	282.852	80.004	19.994	104.229	18.440	98.283	0.486
405.000	286.509	80.006	19.995	103.850	17.821	138.527	0.473
412.500	290.096	80.004	19.994	103.765	17.515	158.349	0.447
420.000	293.808	80.005	19.994	103.729	17.467	161.422	0.486
427.500	297.479	80.003	19.993	103.675	17.656	149.559	0.489
435.000	301.254	80.005	19.992	103.761	17.891	133.577	0.505
442.500	305.022	80.005	19.992	103.859	17.998	126.756	0.487
450.000	308.851	80.007	19.992	103.467	18.622	86.542	0.528
457.500	312.701	80.007	19.994	103.767	19.299	42.446	0.520
465.000	316.575	80.007	19.994	103.793	19.610	22.202	0.516
472.500	320.411	80.008	19.992	103.785	19.741	13.697	0.539
480.000	324.235	80.006	19.994	103.786	19.800	9.891	0.509
487.500	328.019	80.006	19.995	103.796	19.829	7.972	0.510
495.000	331.818	80.005	19.995	103.810	19.846	6.911	0.521
502.500	335.673	80.005	19.993	103.819	19.854	6.399	0.498
510.000	339.441	80.006	19.993	103.832	19.865	5.684	0.496
517.500	343.204	80.005	19.993	103.831	19.866	5.580	0.499
525.000	347.038	80.007	19.993	103.830	19.874	5.093	0.494
532.500	350.825	80.008	19.994	103.834	19.875	5.028	0.520
540.000	354.659	80.007	19.993	103.847	19.873	5.120	0.511
547.500	358.482	80.007	19.993	103.848	19.872	5.207	0.515
555.000	362.295	80.009	19.993	103.835	19.877	4.882	0.499
562.500	366.096	80.006	19.993	103.830	19.869	5.378	0.480
570.000	369.925	80.006	19.994	103.843	19.868	5.462	0.492
577.500	373.804	80.006	19.993	103.833	19.861	5.890	0.533
585.000	377.597	80.004	19.995	103.831	19.863	5.799	0.523
592.500	381.362	80.005	19.995	103.826	19.855	6.315	0.501
600.000	385.191	80.004	19.995	103.827	19.848	6.735	0.497
607.500	388.931	80.004	19.994	103.830	19.841	7.197	0.523
615.000	392.682	80.006	19.992	103.822	19.833	7.738	0.508
622.500	396.471	80.005	19.993	103.830	19.816	8.818	0.532
630.000	400.162	80.007	19.992	103.825	19.804	9.633	0.499
637.500	403.839	80.008	19.994	103.827	19.789	10.590	0.452
645.000	407.634	80.006	19.993	103.829	19.772	11.694	0.495
652.500	411.376	80.005	19.993	103.827	19.746	13.387	0.504
660.000	415.106	80.005	19.994	103.819	19.720	15.099	0.485
667.500	418.881	80.006	19.994	103.826	19.689	17.117	0.491
675.000	422.658	80.005	19.996	103.823	19.652	19.540	0.496
682.500	426.440	80.004	19.996	103.824	19.607	22.435	0.506
690.000	430.271	80.005	19.994	103.829	19.564	25.232	0.519
697.500	434.032	80.007	19.994	103.831	19.519	28.151	0.480
705.000	437.840	80.005	19.995	103.831	19.478	30.840	0.526
712.500	441.609	80.006	19.994	103.831	19.435	33.608	0.514
720.001	445.334	80.008	19.995	103.828	19.397	36.125	0.479
727.500	449.168	80.008	19.993	103.824	19.368	37.966	0.513
735.000	452.991	80.006	19.994	103.843	19.356	38.764	0.527
742.500	456.862	80.004	19.994	103.826	19.348	39.247	0.529
750.000	460.766	80.005	19.994	103.799	19.354	38.873	0.539
757.500	464.547	80.007	19.994	103.830	19.368	37.968	0.504
765.000	468.282	80.005	19.994	103.818	19.394	36.306	0.466
772.500	472.053	80.005	19.994	103.822	19.431	33.894	0.506
780.000	475.824	80.007	19.995	103.827	19.472	31.178	0.518
787.500	479.622	80.008	19.992	103.822	19.512	28.624	0.503
795.000	483.413	80.006	19.994	103.815	19.564	25.259	0.497
802.500	487.148	80.007	19.993	103.816	19.610	22.209	0.466
810.000	490.975	80.006	19.993	103.806	19.654	19.398	0.468
817.500	494.863	80.006	19.994	103.799	19.693	16.818	0.506
825.000	498.765	80.005	19.993	103.813	19.727	14.614	0.511
832.500	502.720	80.004	19.994	103.821	19.754	12.859	0.513
840.000	506.585	80.004	19.994	103.813	19.778	11.289	0.517
847.500	510.508	80.005	19.995	103.813	19.793	10.322	0.507
855.000	514.414	80.005	19.993	103.790	19.811	9.158	0.528
862.500	518.269	80.007	19.994	103.799	19.821	8.504	0.517
870.000	522.120	80.004	19.994	103.798	19.829	8.006	0.505
877.500	525.923	80.005	19.993	103.801	19.835	7.610	0.477
885.000	529.801	80.008	19.992	103.810	19.834	7.649	0.500
892.500	533.609	80.008	19.992	103.816	19.849	6.719	0.513
900.000	537.468	80.005	19.993	103.791	19.851	6.549	0.466
907.501	541.290	80.007	19.993	103.814	19.856	6.226	0.474
915.000	545.112	80.005	19.994	103.815	19.854	6.357	0.483
922.500	548.932	80.007	19.993	103.819	19.860	5.978	0.500
930.000	552.868	80.005	19.994	103.808	19.858	6.103	0.583
937.500	556.455	80.005	19.994	103.827	19.861	5.904	0.538
945.000	560.771	80.006	19.995	103.827	19.864	5.735	0.642
952.500	564.482	80.006	19.993	103.825	19.859	6.032	0.572
960.000	568.407	80.006	19.993	103.800	19.860	5.985	0.504
967.500	572.266	80.005	19.995	103.822	19.859	6.024	0.501
975.000	576.288	80.006	19.995	103.808	19.862	5.815	0.498
982.501	580.159	80.003	19.994	103.801	19.858	6.115	0.510
990.000	584.065	80.005	19.994	103.802	19.862	5.827	0.485
997.500	587.924	79.999	19.994	103.822	19.865	5.674	0.510
1005.000	591.811	80.006	19.995	103.811	19.865	5.638	0.510
1012.500	595.618	80.004	19.994	103.796	19.861	5.904	0.501
1020.000	599.403	80.006	19.995	103.813	19.867	5.523	0.510
1027.501	603.212	80.001	19.995	103.822	19.865	5.632	0.525
1035.000	607.030	80.006	19.994	103.829	19.865	5.632	0.481
1042.500	610.836	80.006	19.993	103.813	19.870	5.328	0.489
1050.001	614.668	79.997	19.994	103.807	19.872	5.173	0.512
1057.500	618.541	80.004	19.994	103.816	19.872	5.182	0.541
1065.000	622.484	80.014	19.993	103.823	19.872	5.190	0.568
1072.500	626.283	80.000	19.996	103.824	19.872	5.198	0.512
1080.000	630.091	80.003	19.994	103.798	19.875	4.997	0.508
1087.500	633.946	80.004	19.994	103.825	19.878	4.823	0.503
1095.000	637.701	80.004	19.995	103.795	19.877	4.894	0.510
1102.501	641.444	80.005	19.994	103.814	19.879	4.743	0.479
1110.000	645.201	80.012	19.993	103.825	19.884	4.384	0.488
1117.501	648.957	80.012	19.994	103.792	19.883	4.492	0.454
1125.000	652.774	80.011	19.994	103.811	19.882	4.578	0.490
1132.500	656.693	80.007	19.994	103.810	19.884	4.405	0.543
1140.000	660.800	80.006	19.994	103.812	19.884	4.446	0.546
1147.500	664.897	80.003	19.997	103.803	19.883	4.503	0.576
1155.000	669.268	80.002	19.995	103.797	19.891	3.981	0.607
1162.501	673.256	80.012	19.994	103.790	19.887	4.209	0.576
1170.001	677.310	80.004	19.993	103.812	19.885	4.361	0.505
1177.500	681.273	80.001	19.994	103.810	19.882	4.572	0.513
1185.000	685.144	80.013	19.993	103.815	19.884	4.403	0.480
1192.500	689.142	80.023	19.993	103.790	19.885	4.338	0.471
1200.000	693.089	80.001	19.996	103.795	19.879	4.730	0.518
1207.500	697.028	80.013	19.994	103.816	19.883	4.495	0.560
1215.000	700.879	80.017	19.993	103.792	19.879	4.746	0.503
1222.500	704.732	79.998	19.997	103.803	19.882	4.561	0.464
1230.000	708.581	80.009	19.993	103.796	19.883	4.498	0.530
1237.500	712.379	80.004	19.993	103.761	19.879	4.769	0.507
1245.000	716.099	79.989	19.996	103.788	19.885	4.348	0.516
1252.501	719.710	80.004	19.996	103.789	19.886	4.296	0.455
1260.000	723.274	80.007	19.996	103.791	19.885	4.335	0.449
1267.500	726.750	80.007	19.994	103.791	19.884	4.384	0.456
1275.000	730.197	80.009	19.994	103.803	19.882	4.531	0.457
1282.500	733.895	80.009	19.995	103.801	19.881	4.619	0.500
1290.000	737.641	79.999	19.994	103.806	19.881	4.599	0.472
1297.501	741.542	80.010	19.992	103.796	19.888	4.166	0.538
1301.001	743.336	80.008	19.989	103.813	19.882	4.552	0.509