File: 01_Data/Pipe_Heat_Cable/MCC/Pipe_Heat_Cable_MCC_30K_min_220126_R3.txt
Sample ID:	C:\MCC\MCC Cal\Test\Pipe_Heat_Cable_MCC_30K_min_220126_R3.txt
Sample Weight (mg):	4.82
Heating Rate (C/s):	0.5
Combustor Temp (C):	900
N2 Flow Rate (cc/min):	80
O2 Flow Rate (cc/min):	20
Calibration File:	C:\MCC\MCC Cal\Coeff1 JN10440_30_210304.txt.txt
T Correction Coefficients:	0	1.024463	0
Time Shift (s):	14
*
Time (s)	Temperature (C)	N2 flow rate (cc/min)	O2 flow rate (cc/min)	Flow Rate (cc/min)	Oxygen (%)	HRR (W/g)	Heating rate (C/s)
0.000	112.968	80.009	19.993	103.746	20.128	-0.145	0.013
7.500	112.865	80.008	19.993	103.749	20.127	-0.077	-0.012
15.000	113.030	80.010	19.993	103.793	20.118	0.526	0.029
22.500	113.381	80.008	19.993	103.836	20.110	1.061	0.066
30.000	113.914	80.007	19.994	103.888	20.100	1.755	0.096
37.500	114.834	80.007	19.993	103.941	20.092	2.229	0.137
45.000	116.145	80.007	19.993	103.999	20.083	2.901	0.188
52.500	117.927	80.007	19.995	103.979	20.081	2.986	0.240
60.000	120.069	80.007	19.994	104.019	20.079	3.147	0.292
67.500	122.559	80.007	19.994	104.019	20.081	3.031	0.356
75.000	125.246	80.009	19.994	104.005	20.076	3.325	0.366
82.500	128.135	80.007	19.994	104.021	20.078	3.216	0.392
90.000	131.261	80.010	19.994	104.019	20.076	3.338	0.436
97.500	134.564	80.010	19.993	104.015	20.073	3.509	0.465
105.000	137.963	80.009	19.993	104.017	20.077	3.264	0.476
112.500	141.512	80.007	19.993	104.012	20.078	3.219	0.473
120.000	145.140	80.007	19.994	104.008	20.076	3.332	0.489
127.501	148.850	80.009	19.994	104.000	20.081	2.993	0.473
135.000	152.574	80.007	19.995	103.985	20.085	2.742	0.490
142.501	156.287	80.007	19.993	103.981	20.087	2.586	0.496
150.000	159.941	80.007	19.994	103.981	20.084	2.814	0.456
157.500	163.526	80.009	19.993	103.969	20.087	2.626	0.451
165.000	167.280	80.007	19.995	103.962	20.083	2.861	0.519
172.500	170.831	80.009	19.994	103.961	20.084	2.817	0.481
180.000	174.399	80.010	19.994	103.942	20.086	2.661	0.453
187.500	178.005	80.009	19.993	103.945	20.086	2.674	0.475
195.000	181.578	80.007	19.993	103.950	20.083	2.858	0.518
202.500	185.117	80.007	19.994	103.950	20.081	2.990	0.457
210.000	188.773	80.007	19.994	103.944	20.082	2.966	0.464
217.500	192.400	80.008	19.994	103.948	20.080	3.051	0.495
225.000	196.030	80.006	19.993	103.943	20.080	3.058	0.492
232.500	199.658	80.009	19.993	103.944	20.074	3.472	0.503
240.000	203.349	80.009	19.993	103.941	20.068	3.870	0.492
247.500	207.066	80.010	19.994	103.947	20.060	4.429	0.520
255.000	210.747	80.009	19.993	103.945	20.053	4.889	0.486
262.501	214.513	80.009	19.995	103.941	20.043	5.545	0.493
270.000	218.240	80.009	19.993	103.938	20.032	6.320	0.502
277.500	222.012	80.007	19.994	103.926	20.021	7.011	0.522
285.000	225.752	80.007	19.993	103.923	20.009	7.833	0.513
292.500	229.578	80.008	19.994	103.919	19.993	8.921	0.532
300.000	233.327	80.007	19.993	103.916	19.976	10.092	0.503
307.500	237.137	80.007	19.993	103.903	19.954	11.515	0.501
315.000	240.908	80.008	19.994	103.906	19.924	13.567	0.480
322.500	244.746	80.009	19.994	103.911	19.895	15.511	0.511
330.000	248.542	80.008	19.993	103.907	19.866	17.487	0.483
337.500	252.491	80.010	19.994	103.904	19.828	20.047	0.524
345.000	256.245	80.011	19.994	103.905	19.788	22.724	0.493
352.500	259.904	80.008	19.995	103.895	19.732	26.452	0.468
360.000	263.471	80.007	19.996	103.898	19.674	30.346	0.473
367.500	267.060	80.008	19.996	103.894	19.613	34.445	0.472
375.000	270.677	80.009	19.994	103.897	19.550	38.727	0.494
382.500	274.240	80.009	19.995	103.907	19.474	43.882	0.479
390.000	277.794	80.008	19.994	103.972	19.332	53.515	0.440
397.500	281.421	80.008	19.994	104.162	19.016	74.580	0.479
405.000	285.014	80.008	19.993	103.955	18.500	109.305	0.462
412.500	288.701	80.008	19.994	103.799	18.287	123.643	0.485
420.000	292.423	80.007	19.993	103.876	18.227	127.582	0.502
427.500	296.183	80.009	19.994	103.846	18.195	129.692	0.483
435.000	299.934	80.008	19.994	103.749	18.321	121.309	0.472
442.500	303.796	80.007	19.994	103.822	18.510	108.607	0.499
450.000	307.627	80.008	19.995	103.843	18.701	95.725	0.500
457.500	311.488	80.007	19.995	103.825	18.946	79.264	0.521
465.000	315.314	80.007	19.994	103.824	19.232	60.069	0.501
472.500	319.132	80.007	19.993	103.827	19.517	40.876	0.486
480.000	322.940	80.007	19.995	103.867	19.749	25.307	0.532
487.500	326.749	80.009	19.994	103.830	19.909	14.578	0.512
495.000	330.534	80.008	19.995	103.837	19.989	9.161	0.485
502.500	334.463	80.009	19.993	103.825	20.037	5.930	0.531
510.000	338.323	80.011	19.994	103.848	20.065	4.083	0.535
517.500	342.104	80.009	19.994	103.850	20.078	3.168	0.521
525.000	345.870	80.007	19.996	103.867	20.087	2.598	0.499
532.500	349.731	80.007	19.993	103.889	20.094	2.120	0.546
540.000	353.574	80.007	19.993	103.869	20.100	1.723	0.527
547.500	357.283	80.007	19.995	103.877	20.102	1.556	0.501
555.000	360.999	80.006	19.995	103.891	20.105	1.414	0.475
562.500	364.739	80.009	19.994	103.869	20.099	1.764	0.492
570.000	368.451	80.008	19.994	103.873	20.102	1.581	0.487
577.500	372.198	80.008	19.995	103.864	20.100	1.699	0.490
585.000	375.988	80.009	19.994	103.906	20.097	1.937	0.477
592.500	379.774	80.010	19.992	103.875	20.090	2.383	0.518
600.000	383.533	80.009	19.994	103.903	20.085	2.699	0.531
607.500	387.317	80.007	19.994	103.905	20.074	3.470	0.528
615.000	391.070	80.006	19.995	103.901	20.068	3.877	0.526
622.500	394.856	80.009	19.995	103.896	20.055	4.739	0.508
630.000	398.637	80.008	19.995	103.900	20.044	5.468	0.521
637.500	402.439	80.006	19.995	103.902	20.033	6.229	0.520
645.000	406.267	80.006	19.995	103.900	20.018	7.256	0.500
652.500	410.080	80.007	19.994	103.901	19.993	8.905	0.513
660.000	413.897	80.007	19.993	103.902	19.969	10.553	0.499
667.500	417.691	80.007	19.993	103.892	19.940	12.457	0.523
675.001	421.503	80.008	19.995	103.899	19.907	14.702	0.492
682.500	425.207	80.008	19.993	103.885	19.866	17.472	0.491
690.000	428.908	80.007	19.995	103.893	19.824	20.281	0.523
697.500	432.575	80.008	19.994	103.878	19.777	23.410	0.500
705.000	436.224	80.007	19.996	103.896	19.732	26.456	0.477
712.500	439.861	80.006	19.994	103.878	19.696	28.913	0.489
720.000	443.496	80.006	19.993	103.893	19.658	31.443	0.474
727.500	447.173	80.007	19.996	103.897	19.631	33.236	0.508
735.000	450.935	80.007	19.993	103.896	19.622	33.873	0.502
742.500	454.706	80.008	19.995	103.875	19.624	33.705	0.507
750.000	458.593	80.008	19.995	103.880	19.626	33.590	0.533
757.500	462.529	80.010	19.994	103.877	19.632	33.184	0.529
765.000	466.399	80.009	19.994	103.881	19.643	32.449	0.514
772.500	470.269	80.008	19.994	103.892	19.668	30.797	0.502
780.000	474.188	80.007	19.994	103.893	19.697	28.794	0.535
787.500	478.130	80.008	19.993	103.872	19.734	26.365	0.532
795.000	482.057	80.008	19.993	103.867	19.770	23.888	0.530
802.500	485.912	80.006	19.995	103.870	19.814	20.970	0.493
810.000	489.859	80.007	19.994	103.865	19.858	17.960	0.552
817.500	493.745	80.008	19.994	103.864	19.901	15.124	0.508
825.000	497.648	80.008	19.994	103.865	19.939	12.542	0.484
832.500	501.489	80.007	19.995	103.861	19.976	10.075	0.526
840.000	505.294	80.009	19.995	103.860	19.996	8.744	0.456
847.500	508.913	80.007	19.994	103.859	20.022	6.941	0.371
855.000	512.893	80.007	19.994	103.864	20.041	5.674	0.616
862.500	516.618	80.007	19.994	103.867	20.052	4.916	0.531
870.000	520.530	80.009	19.993	103.865	20.060	4.398	0.511
877.500	524.494	80.007	19.995	103.863	20.068	3.903	0.502
885.000	528.475	80.006	19.995	103.870	20.080	3.074	0.540
892.500	532.428	80.008	19.993	103.863	20.085	2.747	0.536
900.000	536.470	80.008	19.993	103.861	20.088	2.515	0.529
907.500	540.447	80.008	19.994	103.858	20.093	2.195	0.519
915.000	544.334	80.009	19.994	103.868	20.100	1.734	0.489
922.500	548.236	80.010	19.994	103.864	20.106	1.309	0.511
930.001	552.141	80.006	19.994	103.861	20.107	1.263	0.541
937.500	556.081	80.006	19.994	103.858	20.107	1.230	0.536
945.000	559.960	80.008	19.995	103.848	20.105	1.394	0.503
952.500	563.797	80.007	19.993	103.860	20.106	1.298	0.504
960.000	567.600	80.006	19.995	103.861	20.111	1.011	0.512
967.500	571.478	80.008	19.995	103.845	20.109	1.142	0.541
975.000	575.370	80.008	19.994	103.861	20.111	0.967	0.549
982.500	579.198	80.009	19.994	103.863	20.114	0.789	0.542
990.000	583.013	80.008	19.994	103.864	20.116	0.618	0.539
997.500	586.803	80.006	19.994	103.859	20.118	0.483	0.496
1005.000	590.568	80.011	19.994	103.860	20.115	0.706	0.466
1012.500	594.329	80.007	19.993	103.853	20.120	0.395	0.511
1020.000	598.067	80.007	19.994	103.855	20.126	-0.037	0.483
1027.500	601.846	80.006	19.997	103.855	20.123	0.149	0.475
1035.000	605.615	80.007	19.994	103.849	20.124	0.142	0.485
1042.501	609.474	80.007	19.995	103.862	20.124	0.110	0.533
1050.000	613.285	80.007	19.992	103.842	20.125	0.051	0.513
1057.500	617.265	80.008	19.994	103.862	20.126	-0.020	0.516
1065.000	621.120	80.009	19.993	103.854	20.126	-0.039	0.511
1072.500	624.987	80.008	19.993	103.852	20.129	-0.200	0.494
1080.000	628.816	80.009	19.993	103.854	20.129	-0.254	0.502
1087.500	632.665	80.010	19.994	103.845	20.129	-0.197	0.497
1095.000	636.486	80.009	19.994	103.851	20.131	-0.377	0.500
1102.501	640.332	80.006	19.995	103.849	20.137	-0.774	0.504
1110.000	644.101	80.007	19.995	103.856	20.141	-1.018	0.507
1117.500	647.928	80.006	19.995	103.845	20.140	-0.982	0.523
1125.000	651.711	80.007	19.995	103.835	20.143	-1.169	0.473
1132.501	655.578	80.007	19.994	103.830	20.141	-1.062	0.526
1140.000	659.444	80.010	19.994	103.837	20.147	-1.445	0.544
1147.500	663.118	80.009	19.995	103.836	20.143	-1.154	0.488
1155.000	666.809	80.009	19.994	103.826	20.145	-1.281	0.465
1162.500	670.450	80.010	19.995	103.829	20.147	-1.413	0.477
1170.000	674.127	80.010	19.994	103.830	20.151	-1.680	0.502
1177.501	678.160	80.007	19.994	103.845	20.147	-1.414	0.570
1185.000	682.338	80.008	19.995	103.839	20.149	-1.546	0.559
1192.500	686.593	80.008	19.994	103.833	20.147	-1.467	0.569
1200.000	690.673	80.006	19.994	103.826	20.148	-1.520	0.532
1207.500	694.779	80.005	19.994	103.840	20.149	-1.577	0.549
1215.000	699.013	80.008	19.997	103.844	20.149	-1.588	0.581
1222.500	703.184	80.011	19.994	103.846	20.147	-1.452	0.576
1230.001	707.392	80.007	19.993	103.828	20.149	-1.544	0.567
1237.500	711.526	80.008	19.993	103.833	20.144	-1.237	0.556
1245.000	715.700	80.010	19.994	103.836	20.148	-1.494	0.575
1252.501	719.746	80.008	19.993	103.834	20.147	-1.413	0.524
1260.000	723.793	80.008	19.994	103.840	20.150	-1.658	0.541
1267.501	727.797	80.008	19.994	103.825	20.148	-1.516	0.517
1275.000	731.759	80.009	19.995	103.840	20.150	-1.641	0.529
1282.501	735.700	80.008	19.994	103.836	20.152	-1.786	0.543
1290.000	739.571	80.006	19.994	103.828	20.146	-1.402	0.534
1297.500	743.390	80.007	19.995	103.825	20.147	-1.417	0.524
1298.500	743.879	80.007	19.995	103.831	20.149	-1.538	0.503