File: 01_Data/Pipe_Heat_Cable/MCC/Pipe_Heat_Cable_MCC_30K_min_220126_R2.txt
Sample ID:	C:\MCC\MCC Cal\Test\Pipe_Heat_Cable_MCC_30K_min_220126_R2.txt
Sample Weight (mg):	4.21
Heating Rate (C/s):	0.5
Combustor Temp (C):	900
N2 Flow Rate (cc/min):	80
O2 Flow Rate (cc/min):	20
Calibration File:	C:\MCC\MCC Cal\Coeff1 JN10440_30_210304.txt.txt
T Correction Coefficients:	0	1.024463	0
Time Shift (s):	14
*
Time (s)	Temperature (C)	N2 flow rate (cc/min)	O2 flow rate (cc/min)	Flow Rate (cc/min)	Oxygen (%)	HRR (W/g)	Heating rate (C/s)
0.000	113.380	80.008	19.995	103.715	20.048	-0.147	0.035
8.000	113.367	80.014	19.996	103.726	20.045	0.053	0.053
16.000	113.314	80.008	19.996	103.805	20.034	0.892	-0.014
24.000	113.597	80.010	19.996	103.833	20.022	1.881	0.015
32.000	114.285	80.013	19.997	103.914	20.009	2.806	0.066
40.000	115.385	80.000	19.995	103.935	20.007	2.987	0.136
48.001	116.967	80.015	19.998	103.948	20.005	3.137	0.206
56.000	118.818	80.016	19.990	103.945	20.003	3.335	0.233
64.000	120.949	80.007	19.994	103.936	20.001	3.426	0.265
72.001	123.378	80.014	19.989	103.956	20.001	3.444	0.309
80.001	125.995	80.010	19.992	103.959	19.997	3.776	0.312
88.001	128.826	80.008	19.990	103.962	19.996	3.826	0.376
96.000	131.727	79.995	19.998	103.951	19.999	3.634	0.391
104.000	134.717	79.997	19.996	103.963	20.000	3.522	0.374
112.000	137.872	80.006	19.996	103.967	20.000	3.554	0.376
120.001	141.203	79.999	19.997	103.981	19.998	3.682	0.439
128.000	144.529	79.988	19.997	103.987	19.994	4.002	0.402
136.000	147.982	80.001	20.002	103.986	19.995	3.922	0.412
144.001	151.527	80.005	19.994	103.978	19.992	4.177	0.426
152.000	155.174	80.008	19.992	103.984	19.993	4.088	0.462
160.000	158.913	80.007	19.993	103.987	19.993	4.099	0.475
168.000	162.776	79.997	19.992	103.980	19.993	4.097	0.503
176.001	166.729	80.010	19.993	103.988	19.990	4.276	0.527
184.001	170.628	80.008	19.996	103.982	19.990	4.288	0.504
192.000	174.693	79.997	19.996	103.976	19.987	4.538	0.482
200.000	178.692	80.012	19.993	103.967	19.991	4.196	0.536
208.000	182.751	80.010	19.994	103.960	19.991	4.240	0.482
216.000	186.845	80.013	19.994	103.950	19.988	4.487	0.535
224.000	190.838	80.006	19.995	103.944	19.986	4.630	0.488
232.000	194.838	80.004	19.995	103.941	19.985	4.710	0.513
240.000	198.767	80.003	19.995	103.938	19.981	5.035	0.469
248.000	202.791	80.012	19.993	103.945	19.976	5.418	0.509
256.000	206.754	80.008	19.993	103.941	19.968	5.978	0.503
264.000	210.743	80.005	19.995	103.940	19.957	6.825	0.515
272.000	214.659	80.009	19.994	103.939	19.951	7.300	0.484
280.000	218.626	80.004	19.994	103.946	19.939	8.262	0.471
288.000	222.595	80.008	19.994	103.924	19.925	9.348	0.509
296.000	226.586	80.005	19.994	103.908	19.910	10.464	0.488
304.000	230.565	80.009	19.994	103.913	19.891	11.955	0.519
312.000	234.545	80.006	19.995	103.929	19.870	13.532	0.547
320.000	238.524	80.007	19.994	103.915	19.848	15.227	0.506
328.000	242.496	80.005	19.994	103.912	19.816	17.706	0.517
336.000	246.480	80.004	19.994	103.908	19.782	20.346	0.503
344.000	250.484	80.009	19.994	103.908	19.744	23.280	0.511
352.000	254.447	80.006	19.993	103.914	19.702	26.505	0.509
360.000	258.387	80.007	19.994	103.905	19.651	30.442	0.476
368.000	262.389	80.009	19.992	103.903	19.588	35.260	0.516
376.000	266.266	80.009	19.994	103.896	19.523	40.289	0.488
384.000	270.288	80.009	19.995	103.901	19.461	45.029	0.517
392.000	274.274	80.008	19.995	103.906	19.383	51.121	0.496
400.000	278.242	80.008	19.994	103.924	19.270	59.924	0.513
408.000	282.159	80.008	19.995	104.179	18.915	87.050	0.460
416.000	286.165	80.006	19.994	103.944	18.395	127.009	0.463
424.000	290.123	80.006	19.994	103.786	18.209	141.383	0.495
432.000	294.146	80.004	19.994	103.844	18.260	137.393	0.490
440.000	298.205	80.005	19.995	103.825	18.386	127.739	0.494
448.000	302.220	80.007	19.993	103.809	18.599	111.340	0.495
456.000	306.275	80.008	19.993	103.866	18.784	97.147	0.487
464.000	310.289	80.009	19.993	103.818	19.000	80.508	0.536
472.000	314.339	80.008	19.993	103.849	19.247	61.496	0.509
480.000	318.405	80.009	19.995	103.827	19.491	42.694	0.524
488.000	322.399	80.007	19.994	103.826	19.695	27.022	0.510
496.000	326.407	80.006	19.994	103.827	19.834	16.325	0.496
504.000	330.405	80.006	19.994	103.830	19.909	10.538	0.470
512.000	334.564	80.007	19.994	103.836	19.950	7.392	0.535
520.001	338.508	80.007	19.994	103.857	19.969	5.910	0.514
528.000	342.430	80.005	19.994	103.857	19.984	4.776	0.465
536.000	346.411	80.008	19.994	103.862	19.994	3.961	0.478
544.000	350.436	80.008	19.994	103.867	19.997	3.768	0.517
552.000	354.460	80.009	19.993	103.868	20.004	3.265	0.530
560.000	358.458	80.008	19.993	103.864	19.998	3.726	0.514
568.000	362.500	80.007	19.995	103.862	20.000	3.521	0.515
576.000	366.433	80.007	19.995	103.864	20.003	3.294	0.508
584.000	370.440	80.005	19.994	103.865	20.000	3.536	0.472
592.000	374.511	80.006	19.996	103.866	19.998	3.654	0.506
600.000	378.430	80.004	19.995	103.870	19.995	3.958	0.495
608.000	382.447	80.006	19.995	103.884	19.991	4.248	0.519
616.000	386.445	80.008	19.994	103.871	19.987	4.541	0.494
624.000	390.447	80.007	19.993	103.864	19.981	4.982	0.500
632.000	394.493	80.009	19.994	103.864	19.973	5.597	0.511
640.000	398.446	80.009	19.994	103.864	19.964	6.294	0.475
648.001	402.455	80.009	19.994	103.862	19.955	6.986	0.481
656.000	406.508	80.007	19.994	103.866	19.938	8.308	0.504
664.000	410.476	80.007	19.994	103.866	19.926	9.254	0.511
672.000	414.521	80.006	19.994	103.870	19.910	10.477	0.488
680.000	418.550	80.007	19.995	103.873	19.886	12.301	0.511
688.000	422.562	80.006	19.995	103.866	19.853	14.860	0.525
696.000	426.573	80.006	19.995	103.862	19.819	17.450	0.534
704.000	430.531	80.008	19.994	103.868	19.777	20.675	0.494
712.000	434.598	80.009	19.994	103.864	19.732	24.154	0.496
720.000	438.663	80.009	19.994	103.866	19.683	27.923	0.466
728.000	442.733	80.009	19.994	103.866	19.635	31.625	0.493
736.000	446.764	80.007	19.992	103.866	19.594	34.766	0.491
744.000	450.715	80.004	19.994	103.866	19.567	36.896	0.486
752.000	454.652	80.008	19.995	103.868	19.547	38.367	0.464
760.000	458.603	80.008	19.994	103.863	19.540	38.977	0.483
768.000	462.584	80.006	19.994	103.867	19.545	38.592	0.495
776.000	466.637	80.007	19.995	103.864	19.559	37.481	0.532
784.000	470.672	80.007	19.995	103.872	19.573	36.431	0.495
792.000	474.728	80.008	19.994	103.871	19.599	34.389	0.531
800.000	478.756	80.007	19.993	103.863	19.631	31.977	0.502
808.000	482.888	80.010	19.994	103.874	19.670	28.940	0.537
816.000	486.856	80.009	19.994	103.864	19.716	25.389	0.474
824.000	490.903	80.007	19.994	103.864	19.764	21.685	0.710
832.000	495.271	80.007	19.994	103.864	19.811	18.052	0.513
840.000	499.332	80.008	19.996	103.863	19.848	15.216	0.494
848.000	503.383	80.007	19.995	103.864	19.880	12.792	0.484
856.000	507.472	80.008	19.994	103.867	19.905	10.813	0.490
864.000	511.483	80.009	19.995	103.867	19.922	9.546	0.489
872.000	515.599	80.009	19.994	103.869	19.939	8.266	0.498
880.000	519.639	80.008	19.995	103.863	19.951	7.341	0.523
888.000	523.739	80.008	19.994	103.854	19.967	6.113	0.512
896.000	527.852	80.011	19.993	103.863	19.975	5.454	0.530
904.000	532.009	80.007	19.993	103.865	19.972	5.658	0.529
912.000	536.274	80.007	19.993	103.860	19.980	5.052	0.478
920.000	540.574	80.008	19.994	103.867	19.985	4.669	0.554
928.000	544.852	80.008	19.995	103.870	19.989	4.368	0.563
936.000	549.147	80.007	19.993	103.865	19.990	4.284	0.559
944.000	553.446	80.008	19.994	103.868	19.993	4.043	0.538
952.000	557.704	80.009	19.995	103.865	19.999	3.637	0.513
960.000	561.922	80.008	19.996	103.865	20.002	3.408	0.535
968.000	566.104	80.009	19.995	103.868	20.000	3.570	0.522
976.000	570.340	80.009	19.996	103.866	19.999	3.637	0.559
984.000	574.581	80.007	19.996	103.864	20.002	3.357	0.511
992.000	578.707	80.008	19.993	103.858	20.006	3.098	0.515
1000.000	582.745	80.009	19.993	103.866	20.006	3.071	0.489
1008.000	586.698	80.009	19.993	103.851	20.004	3.231	0.494
1016.000	590.568	80.008	19.993	103.855	20.003	3.273	0.474
1024.001	594.430	80.008	19.994	103.861	20.008	2.919	0.482
1032.000	598.259	80.010	19.992	103.845	20.002	3.363	0.463
1040.002	602.156	80.009	19.994	103.854	20.009	2.818	0.507
1048.000	606.114	80.008	19.994	103.859	20.011	2.721	0.500
1056.000	610.092	80.011	19.993	103.859	20.008	2.923	0.494
1064.000	614.138	80.008	19.993	103.862	20.009	2.837	0.535
1072.000	618.227	80.006	19.994	103.846	20.012	2.587	0.495
1080.001	622.294	80.007	19.996	103.864	20.013	2.513	0.502
1088.000	626.473	80.009	19.994	103.862	20.013	2.515	0.523
1096.000	630.630	80.008	19.994	103.867	20.013	2.532	0.497
1104.000	634.783	80.007	19.994	103.862	20.016	2.317	0.537
1112.000	638.896	80.009	19.994	103.863	20.015	2.418	0.518
1120.000	642.944	80.008	19.995	103.858	20.014	2.475	0.519
1128.000	647.005	80.008	19.994	103.850	20.017	2.206	0.560
1136.001	651.108	80.008	19.994	103.860	20.020	1.978	0.525
1144.000	655.176	80.010	19.994	103.856	20.016	2.292	0.490
1152.000	659.305	80.008	19.994	103.840	20.022	1.850	0.502
1160.000	663.585	80.008	19.995	103.854	20.021	1.921	0.560
1168.000	667.747	80.007	19.995	103.837	20.021	1.942	0.490
1176.001	671.871	80.008	19.994	103.830	20.024	1.679	0.487
1184.000	675.959	80.007	19.994	103.839	20.023	1.795	0.511
1192.000	679.867	80.008	19.993	103.834	20.026	1.528	0.456
1200.000	683.810	80.010	19.993	103.850	20.022	1.806	0.491
1208.000	687.723	80.008	19.994	103.840	20.024	1.665	0.476
1216.000	691.846	80.009	19.992	103.859	20.022	1.842	0.567
1224.000	696.147	80.011	19.993	103.852	20.026	1.547	0.525
1232.000	700.452	80.008	19.995	103.834	20.022	1.805	0.539
1240.000	704.678	80.008	19.995	103.849	20.026	1.528	0.545
1248.000	708.905	80.008	19.994	103.848	20.022	1.871	0.536
1256.000	713.208	80.006	19.995	103.843	20.024	1.679	0.552
1264.000	717.512	80.006	19.996	103.850	20.025	1.593	0.528
1272.000	721.662	80.007	19.995	103.830	20.026	1.496	0.508
1280.000	725.653	80.009	19.994	103.841	20.023	1.793	0.479
1288.000	729.655	80.010	19.994	103.830	20.024	1.652	0.506
1296.000	733.673	80.008	19.994	103.831	20.026	1.570	0.512
1304.001	737.647	80.011	19.994	103.832	20.026	1.547	0.486
1312.000	741.705	80.009	19.994	103.847	20.028	1.345	0.507
1315.500	743.473	80.008	19.993	103.835	20.028	1.408	0.494