File: 01_Data/Fiberglass_Insulation_R30_Paper_Faced/Cone/Fiberglass_Insulation_3_Cone_HF75Scan_220509_R3.csv
Names,Time,Stack TC,Smoke TC,Exh Press,Smoke Comp,Smoke Meas,CO Meter,CO2 Meter,O2 Meter,Sample Mass,Ext Coeff,Start Test,Flame Verif
Chan Gain,,500,500,1,1,1,1,1,1,1,1,1.0,1.0
Offset,,0,0,0.134207,0,0,0,0,0,0,0,0.0,0.0
Gain,,1,1,25.011,13.8443,15.4071,1,1,1,1.00079,1.02936,1.0,1.0
Units,sec,C,C,Pa,%,%,%,%,%,g,/m,,
Baseline,,42.6558,44.12,133.367,105.238,107.341,0.000124151,0.0414501,21.0068,-447.96,-0.178598,,
7,1.5,40.2662,41.9343,116.234,104.867,105.031,0.00312415,0.13288,20.8052,438.186,-0.0141377,0.0,1.0
14,3.25,42.8385,42.9337,111.842,104.846,84.2742,0.00469811,0.263857,20.6383,438.016,1.97216,0.0,1.0
21,5,45.9905,45.5198,127.602,104.815,109.149,0.00538806,0.314857,20.5814,437.976,-0.365825,0.0,1.0
28,6.75,45.219,45.5514,126.849,104.803,108.388,0.0057471,0.306468,20.6408,437.935,-0.303725,0.0,1.0
35,8.5,45.6269,46.6205,129.249,104.788,108.35,0.00635127,0.273491,20.7297,437.865,-0.301865,0.0,0.0
42,10.25,45.6616,46.3719,128.474,104.774,107.431,0.00707491,0.236086,20.7912,437.815,-0.226139,0.0,0.0
49,12,45.8678,46.8227,132.465,104.747,107.25,0.00763292,0.204975,20.8324,437.745,-0.213202,0.0,0.0
56,13.75,45.6546,46.6956,129.678,104.727,106.74,0.00767906,0.181307,20.8607,437.695,-0.171861,0.0,0.0
63,15.5,44.969,46.8318,128.272,104.696,107.04,0.00734531,0.160787,20.8846,437.675,-0.199898,0.0,0.0
70,17.25,45.4608,46.7215,130.004,104.692,108.49,0.00687523,0.145769,20.9021,437.635,-0.321763,0.0,0.0
77,19,45.6134,46.724,132.204,104.661,107.287,0.00649248,0.133826,20.9124,437.615,-0.223758,0.0,0.0
84,20.75,44.9698,46.7276,134.243,104.619,106.956,0.00624841,0.124725,20.9182,437.585,-0.199466,0.0,0.0
91,22.5,45.2125,46.8098,130.948,104.589,106.825,0.00611868,0.115002,20.9275,437.565,-0.190977,0.0,0.0
98,24.25,45.0308,46.8536,132.368,104.585,106.994,0.00606081,0.107339,20.935,437.525,-0.205602,0.0,0.0
105,26,44.7951,46.4507,133.776,104.556,107.195,0.00605531,0.100748,20.9418,437.465,-0.225123,0.0,0.0
112,27.75,45.1547,46.2924,129.92,104.522,106.579,0.0060407,0.0953106,20.9483,437.465,-0.176046,0.0,0.0
119,29.5,45.0865,46.5552,133.917,104.497,107.663,0.00596859,0.0900356,20.9546,437.415,-0.269478,0.0,0.0
126,31.25,44.9726,46.6294,130.569,104.479,107.012,0.00581779,0.0856831,20.9586,437.395,-0.216343,0.0,0.0
133,33,44.5259,45.3805,133.411,104.452,107.488,0.00566442,0.0816146,20.9632,437.375,-0.25874,0.0,0.0
140,34.75,43.9476,46.136,129.935,104.42,107.372,0.00549003,0.0780195,20.9667,437.355,-0.251682,0.0,0.0
147,36.5,44.0752,45.5176,134.241,104.398,107.798,0.00523376,0.0749004,20.9691,437.295,-0.289335,0.0,0.0
154,38.25,44.5344,45.7985,133.708,104.37,106.757,0.0049013,0.0719582,20.9718,437.275,-0.2042,0.0,0.0
161,40,43.8559,45.6147,131.138,104.346,106.657,0.00449787,0.0696591,20.9739,437.285,-0.197772,0.0,0.0
168,41.75,43.874,45.5792,133.17,104.296,106.545,0.00421609,0.0676124,20.9762,437.275,-0.192649,0.0,0.0
175,43.5,44.0722,45.6068,130.155,104.281,106.037,0.00401772,0.0656036,20.9784,437.255,-0.15079,0.0,0.0
182,45.25,43.771,45.4156,133.596,104.249,106.586,0.00386999,0.06354,20.9804,437.265,-0.200176,0.0,0.0
189,47,43.5498,45.5611,133.644,104.196,106.58,0.00365982,0.06216,20.9831,437.235,-0.204269,0.0,0.0
196,48.75,43.4856,44.9524,133.619,104.165,106.74,0.00343149,0.0607441,20.9856,437.225,-0.220553,0.0,0.0
203,50.5,43.4304,45.2044,131.319,104.127,106.811,0.00318919,0.0593303,20.9879,437.225,-0.22978,0.0,0.0
210,52.25,43.8704,45.4869,132.87,104.07,106.232,0.00296307,0.0580272,20.9899,437.215,-0.185697,0.0,0.0
217,54,43.944,44.8272,130.758,104.019,106.166,0.00274988,0.0569177,20.9915,437.185,-0.184464,0.0,0.0
224,55.75,43.5761,45.2004,129.43,103.999,106.297,0.00259776,0.0559859,20.9922,437.205,-0.197371,0.0,0.0
231,57.5,43.2127,44.8001,128.777,103.958,106.574,0.00247408,0.0550922,20.993,437.205,-0.224388,0.0,0.0
238,59.25,42.969,45.306,130.205,103.897,106.601,0.00237342,0.0543473,20.9941,437.185,-0.231944,0.0,0.0
245,61,42.9237,45.4155,132.619,103.868,106.353,0.00233511,0.0534818,20.9947,437.145,-0.213469,0.0,0.0
252,62.75,42.6427,44.8571,130.713,103.83,106.726,0.00234183,0.0526696,20.9949,437.165,-0.248376,0.0,0.0
259,64.5,43.1589,44.6217,130.274,103.807,107.08,0.00227525,0.0518901,20.9957,437.145,-0.280298,0.0,0.0
266,66.25,42.5379,44.5419,133.189,103.772,105.853,0.00211862,0.0511619,20.9952,437.215,-0.179309,0.0,0.0
273,68,42.4165,44.2128,129.643,103.725,107.139,0.00189402,0.0505389,20.9949,437.215,-0.292385,0.0,0.0
280,69.75,42.3818,44.8104,132.934,103.695,106.192,0.00177751,0.050221,20.9948,437.185,-0.214834,0.0,0.0
287,71.5,42.6192,44.6736,131.246,103.667,105.877,0.00168485,0.0497045,20.9959,437.175,-0.190436,0.0,0.0
294,73.25,42.0429,44.4128,128.904,103.635,105.942,0.00153515,0.0492542,20.9965,437.205,-0.198769,0.0,0.0
301,75,42.5596,44.8989,133.718,103.601,105.773,0.00132431,0.0488788,20.9967,437.155,-0.187349,0.0,0.0
308,76.75,42.3836,44.7575,128.546,103.587,105.603,0.00116786,0.0483731,20.9975,437.145,-0.174102,0.0,0.0
315,78.5,42.5792,44.9588,130.586,103.565,105.721,0.00105849,0.0479425,20.9984,437.165,-0.186026,0.0,0.0
322,80.25,42.4619,43.9032,130.067,103.546,106.091,0.000968587,0.047501,20.9989,437.165,-0.21927,0.0,0.0
329,82,42.5261,44.1399,131.8,103.521,106.963,0.00093291,0.0471658,20.9991,437.135,-0.295337,0.0,0.0
336,83.75,42.2516,44.6973,134.767,103.514,105.844,0.000954098,0.0468214,20.9992,437.155,-0.200959,0.0,0.0
343,85.5,42.3427,44.1895,131.355,103.514,106.123,0.00102081,0.0462874,20.9992,437.135,-0.224794,0.0,0.0
350,87.25,41.9431,44.1944,133.095,103.499,106,0.00105711,0.045984,20.9997,437.145,-0.215557,0.0,0.0
357,89,42.0571,44.1446,129.544,103.492,105.962,0.000941773,0.0459398,21.0007,437.105,-0.213016,0.0,0.0
364,90.75,42.1464,44.0841,132.189,103.499,106.23,0.000775515,0.0457512,21.0012,437.135,-0.235198,0.0,0.0
371,92.5,42.1436,44.649,130.712,103.502,106.157,0.00064803,0.0453788,21.0014,437.135,-0.228703,0.0,0.0
378,94.25,41.8195,44.0933,129.044,103.515,105.598,0.00061964,0.0452232,21.0015,437.085,-0.179887,0.0,0.0
385,96,41.8793,43.6051,135.922,103.514,106.101,0.000665065,0.0449478,21.0015,437.135,-0.222874,0.0,0.0
392,97.75,42.0706,44.3049,131.526,103.531,106.21,0.000695758,0.0447081,21.0029,437.095,-0.230642,0.0,0.0
399,99.5,42.6424,43.7138,129.638,103.549,105.729,0.000672268,0.0446145,21.0038,437.095,-0.188186,0.0,0.0
406,101.25,42.0394,43.2911,130.304,103.563,106.326,0.000594625,0.044471,21.0043,437.085,-0.237746,0.0,0.0
413,103,42.2484,43.9365,131.903,103.588,106.416,0.000549874,0.0442587,21.0045,437.085,-0.243197,0.0,0.0
420,104.75,42.0657,43.8641,137.38,103.599,105.69,0.000621515,0.0440612,21.0047,437.095,-0.180392,0.0,0.0
427,106.5,42.0395,43.9892,132.653,103.629,105.611,0.00061858,0.0438191,21.0047,437.065,-0.171068,0.0,0.0
434,108.25,42.4099,43.973,132.802,103.663,105.783,0.000478368,0.0436583,21.0059,437.095,-0.182861,0.0,0.0
441,110,42.1375,44.2327,128.645,103.691,106.519,0.000284181,0.0435095,21.0065,437.095,-0.242952,0.0,0.0
448,111.75,42.5195,43.8821,129.388,103.717,105.94,0.00012398,0.0433742,21.0067,437.015,-0.19143,0.0,0.0
455,113.5,42.2345,44.0863,128.555,103.752,105.985,5.94012e-05,0.0431544,21.0068,437.055,-0.19226,0.0,0.0
462,115.25,42.4277,43.9554,136.637,103.773,107.948,5.27213e-05,0.0429271,21.0068,437.105,-0.356137,0.0,0.0
469,117,41.7167,44.3025,132.421,103.817,107.072,0.000126142,0.0429397,21.0068,437.095,-0.278745,0.0,0.0
476,118.75,41.9202,44.3354,131.893,103.838,106.955,0.000249811,0.0429742,21.0055,437.105,-0.267103,0.0,0.0
483,120.5,42.2195,43.765,132.161,103.864,106.761,0.000418076,0.043039,21.0046,437.095,-0.248456,0.0,0.0
490,122.25,42.319,44.3099,131.264,103.893,106.674,0.000522464,0.0429581,21.0041,437.085,-0.238485,0.0,0.0
497,124,41.8158,44.1105,132.716,103.925,106.057,0.0004854,0.0428368,21.0039,437.075,-0.183364,0.0,0.0
504,125.75,42.1922,44.2439,131.677,103.968,106.779,0.000419755,0.0428113,21.0038,437.045,-0.240859,0.0,0.0
511,127.5,42.6025,44.2919,131.74,103.995,106.39,0.00040089,0.0427801,21.0037,437.015,-0.20561,0.0,0.0
518,129.25,41.8543,44.033,134.47,104.018,106.843,0.000407788,0.042777,21.0037,436.985,-0.241973,0.0,0.0
525,131,41.7596,43.7129,130.07,104.058,106.806,0.000429374,0.0428047,21.0037,437.075,-0.235313,0.0,0.0
532,132.75,42.4381,44.5149,130.446,104.101,107.181,0.000459088,0.0427144,21.0037,437.095,-0.26324,0.0,0.0
539,134.5,42.1413,44.0479,131.635,104.129,106.647,0.000457042,0.042664,21.0043,437.105,-0.215711,0.0,0.0
546,136.25,42.2023,43.8934,127.285,104.144,107.018,0.000396247,0.0426312,21.0051,437.035,-0.245784,0.0,0.0
553,138,42.0551,44.3019,131.135,104.18,106.599,0.000320048,0.0426813,21.0055,437.035,-0.207294,0.0,0.0
560,139.75,42.081,43.9463,135.783,104.217,105.921,0.000217924,0.0427808,21.0057,436.995,-0.146381,0.0,0.0
567,141.5,41.9947,44.096,134.282,104.242,106.77,,0.0430243,,437.045,-0.216322,0.0,0.0
574,143.25,42.1096,43.8025,132.828,104.269,107.077,,0.0431849,,437.025,-0.239981,0.0,0.0
581,145,42.132,44.3091,127.949,104.295,107.725,,,,437.045,-0.292149,0.0,0.0
588,146.75,42.0032,44.6765,132.358,104.324,106.654,,,,436.985,-0.199438,0.0,0.0
595,148.5,41.9924,43.6303,129.894,104.362,107.474,,,,436.955,-0.265305,0.0,0.0
602,150.25,42.3399,44.2108,129.798,104.381,107.808,,,,437.005,-0.291736,0.0,0.0
608,151.75,42.8688,43.539,128.441,104.415,107.374,,,,436.975,-0.252279,0.0,0.0