File: 01_Data/Fiberglass_Insulation_R30_Paper_Faced/Cone/Fiberglass_Insulation_R30_Paper_Faced_Cone_HF75Scalar_220509_R1.csv
LABORATORY,FSRI
TEST IDENT,Insulation3_HF75_1
OPERATOR,Dow
MATERIAL,fiberglass insulation 3 (saint gobain)
ORIENTATION,Horizontal
HEAT FLUX,75
SURF AREA,0.01
C FACTOR,0.042088
SPEC HOLDER DIFF,-566
SPECIMEN MASS,9.29
SCAN TIME,0.25
O2 DELAY TIME,11
CO DELAY TIME,11
CO2 DELAY TIME,8
FLOW FACTOR,1
SCAN COUNT,546
TIME TO IGN,1.25
END OF TEST SCAN,66
END OF TEST TIME,16.5
TEST STATUS,1
PRE TEST CMT,Dimensions: 101 x 97 x 50 mm; with frame compressed to about 40 mm