File: 01_Data/Fiberglass_Insulation_R30_Paper_Faced/Cone/Fiberglass_Insulation_R30_Paper_Faced_Cone_HF50Scan_220509_R3.csv
Names,Time,Stack TC,Smoke TC,Exh Press,Smoke Comp,Smoke Meas,CO Meter,CO2 Meter,O2 Meter,Sample Mass,Ext Coeff,Start Test,Flame Verif
Chan Gain,,500,500,1,1,1,1,1,1,1,1,1.0,1.0
Offset,,0,0,0.134207,0,0,0,0,0,0,0,0.0,0.0
Gain,,1,1,25.011,13.8443,15.4071,1,1,1,1.00079,1.02936,1.0,1.0
Units,sec,C,C,Pa,%,%,%,%,%,g,/m,,
Baseline,,31.0505,32.0022,138.056,103.875,104.104,0.000314975,0.041263,21.0076,-445.664,-0.0198737,,
6,1.25,28.9195,29.9716,139.367,104.131,103.749,0.00106472,0.0587279,20.9833,439.006,0.0331351,0.0,0.0
12,2.75,29.6259,30.4097,114.947,104.157,105.381,0.00207939,0.119291,20.8575,438.346,-0.105445,0.0,1.0
18,4.25,30.4729,30.7435,118.36,104.158,84.4491,0.00307164,0.180703,20.7669,438.006,1.894,0.0,1.0
24,5.75,32.9316,32.564,128.095,104.176,106.242,0.00426474,0.220478,20.7188,437.955,-0.177304,0.0,1.0
30,7.25,32.6634,33.3862,135.778,104.21,105.62,0.00514398,0.225072,20.7262,437.875,-0.121355,0.0,0.0
36,8.75,33.4206,33.3037,134.422,104.205,104.859,0.00627681,0.211209,20.7689,437.875,-0.0564803,0.0,0.0
42,10.25,32.9164,33.4516,133.763,104.218,104.971,0.00699651,0.190287,20.8162,437.835,-0.0650169,0.0,0.0
48,11.75,33.7132,33.7701,136.575,104.257,105.025,0.00728871,0.16739,20.8605,437.815,-0.0662556,0.0,0.0
54,13.25,32.3293,32.9365,137.639,104.259,104.736,0.00712023,0.147296,20.8928,437.825,-0.0412224,0.0,0.0
60,14.75,32.8201,33.0749,139.951,104.293,104.958,0.00673911,0.131418,20.9158,437.855,-0.0574043,0.0,0.0
66,16.25,32.3898,33.024,133.751,104.31,104.846,0.00622798,0.118299,20.9304,437.775,-0.0462731,0.0,0.0
72,17.75,32.2595,33.0675,133.439,104.349,105.254,0.00556443,0.107591,20.9439,437.725,-0.077988,0.0,0.0
78,19.25,32.9527,33.1416,137.25,104.345,104.738,0.00489868,0.100483,20.9527,437.775,-0.0339232,0.0,0.0
84,20.75,32.0605,32.8808,138.732,104.377,104.656,0.00423613,0.0936546,20.9595,437.745,-0.0240857,0.0,0.0
90,22.25,32.3917,33.041,135.219,104.381,104.651,0.00367253,0.0878711,20.9664,437.625,-0.0233141,0.0,0.0
96,23.75,31.7654,33.2455,138.082,104.418,104.752,0.00333762,0.0824321,20.9716,437.705,-0.0288126,0.0,0.0
102,25.25,32.0463,32.7211,137.928,104.411,104.882,0.00314776,0.0773684,20.9764,437.755,-0.0406531,0.0,0.0
108,26.75,31.545,32.7254,136.684,104.463,104.925,0.00296374,0.072922,20.9808,437.725,-0.0398839,0.0,0.0
114,28.25,31.6144,33.0018,138.217,104.455,105.32,0.00280823,0.0697393,20.9844,437.695,-0.0744253,0.0,0.0
120,29.75,31.5821,31.9947,136.814,104.479,104.854,0.00265081,0.0663897,20.9874,437.675,-0.0323843,0.0,0.0
126,31.25,31.341,32.721,136.456,104.497,105.511,0.00240679,0.0632738,20.9896,437.705,-0.0871981,0.0,0.0
132,32.75,31.6402,32.4624,136.714,104.528,105.027,0.00209053,0.0607722,20.9911,437.725,-0.0430739,0.0,0.0
138,34.25,31.5651,33.0216,135.828,104.526,104.915,0.00176007,0.0585325,20.9922,437.725,-0.033517,0.0,0.0
144,35.75,31.3448,32.8195,137.399,104.547,105.112,0.00158491,0.0564424,20.9944,437.685,-0.0486726,0.0,0.0
150,37.25,31.7857,32.7082,136.781,104.561,104.894,0.00152205,0.054779,20.9969,437.675,-0.0287434,0.0,0.0
156,38.75,31.2418,32.4946,136.569,104.569,104.829,0.00147445,0.0533018,20.9983,437.685,-0.0224637,0.0,0.0
162,40.25,31.0571,32.6791,137.313,104.58,104.907,0.00140611,0.0520272,20.9993,437.615,-0.0282721,0.0,0.0
168,41.75,31.1621,32.6657,137.111,104.595,104.945,0.00134713,0.0510817,21.0005,437.665,-0.0301959,0.0,0.0
174,43.25,31.5554,32.2906,138.328,104.603,105.32,0.00127631,0.0501657,21.0015,437.655,-0.0617286,0.0,0.0
180,44.75,31.328,32.6078,139.654,104.607,105.399,0.00114898,0.0493749,21.0021,437.685,-0.0680568,0.0,0.0
186,46.25,31.6486,32.7257,136.833,104.624,105.334,0.000969704,0.0487455,21.0024,437.705,-0.061074,0.0,0.0
192,47.75,30.8663,32.5801,134.895,104.63,104.668,0.000757626,0.0481289,21.0025,437.605,-0.00326906,0.0,0.0
198,49.25,31.2226,32.2355,141.253,104.642,104.702,0.000630773,0.0475644,21.0026,437.595,-0.0051364,0.0,0.0
204,50.75,31.0389,32.5351,137.745,104.642,105.277,0.000600859,0.0471665,21.0027,437.595,-0.0545514,0.0,0.0
210,52.25,31.1889,32.6159,135.868,104.654,105,0.000655493,0.0466762,21.0027,437.645,-0.0297461,0.0,0.0
216,53.75,30.8835,31.8667,134.766,104.646,105.136,0.000747121,0.0463034,21.0027,437.615,-0.0421568,0.0,0.0
222,55.25,31.3041,32.1249,137.078,104.66,105.134,0.00091524,0.0461194,21.003,437.605,-0.0408294,0.0,0.0
228,56.75,31.1595,31.6144,139.975,104.657,105.376,0.0010445,0.0458475,21.0032,437.615,-0.0618576,0.0,0.0
234,58.25,31.0645,32.1768,137.629,104.673,104.893,0.00104661,0.0454875,21.0033,437.655,-0.019,0.0,0.0
240,59.75,30.7948,31.8247,136.7,104.678,104.643,0.000983502,0.0451568,21.0033,437.645,0.0029596,0.0,0.0
246,61.25,30.8193,32.2859,139.593,104.672,105.201,0.000870259,0.0448923,21.0033,437.585,-0.0455044,0.0,0.0
252,62.75,30.5916,31.4926,138.32,104.674,105.537,0.000659903,0.0447339,21.0044,437.605,-0.0741676,0.0,0.0
258,64.25,30.9802,32.2333,137.035,104.684,104.966,0.000418794,0.0445471,21.005,437.625,-0.0243237,0.0,0.0
264,65.75,30.6617,31.4711,135.904,104.689,105.142,0.000271661,0.044239,21.0053,437.535,-0.0389606,0.0,0.0
270,67.25,30.4592,31.998,136.501,104.681,104.576,0.000182859,0.0440474,21.0055,437.625,0.00905439,0.0,0.0
276,68.75,30.4892,31.8765,141.053,104.693,105.218,7.3071e-05,0.0440314,21.0056,437.595,-0.0452118,0.0,0.0
282,70.25,30.3037,32.146,138.223,104.696,105.151,1.0088e-05,0.0439107,21.0065,437.565,-0.0391487,0.0,0.0
288,71.75,30.0735,31.9925,136.103,104.697,104.896,7.53247e-05,0.0437888,21.0061,437.625,-0.0170889,0.0,0.0
294,73.25,30.4152,31.723,138.706,104.686,105.475,0.000191961,0.0436882,21.0059,437.575,-0.0677998,0.0,0.0
300,74.75,30.7841,32.1024,137.436,104.699,105.098,0.000241951,0.0435344,21.0058,437.585,-0.0343662,0.0,0.0
306,76.25,30.9524,32.5119,139.528,104.692,105.32,0.000225682,0.0434103,21.0057,437.615,-0.0539965,0.0,0.0
312,77.75,30.4242,31.8387,139.955,104.703,105.189,0.000214323,0.043237,21.0058,437.575,-0.0417588,0.0,0.0
318,79.25,30.4549,31.8921,136.762,104.698,105.827,0.000238159,0.0431543,21.0065,437.575,-0.0968408,0.0,0.0
324,80.75,30.8128,31.7618,136.807,104.708,104.846,0.000262191,0.0432998,21.0069,437.545,-0.0118907,0.0,0.0
330,82.25,30.6412,32.1771,137.423,104.701,105.188,0.000246849,0.0433396,21.0071,437.525,-0.0419005,0.0,0.0
336,83.75,30.1397,31.5905,138.082,104.7,105.321,0.000183194,0.0432327,21.0075,437.505,-0.0533885,0.0,0.0
342,85.25,30.1414,31.8351,137.619,104.693,105.022,0.000183292,0.0431306,21.0078,437.505,-0.0283704,0.0,0.0
348,86.75,30.6827,32.061,136.497,104.691,105.162,0.00032302,0.0430097,21.008,437.585,-0.0405548,0.0,0.0
354,88.25,30.0476,32.3477,139.746,104.678,105.812,0.000419842,0.042846,21.0081,437.525,-0.0973059,0.0,0.0
360,89.75,30.2533,31.5222,141.494,104.684,105.431,0.0005054,0.0428005,21.0081,437.515,-0.0642005,0.0,0.0
366,91.25,30.8694,31.7898,140.584,104.676,104.95,0.000536325,0.0426807,21.0074,437.575,-0.0236411,0.0,0.0
372,92.75,30.1027,31.5344,136.788,104.676,105.412,0.000525697,0.042582,21.0068,437.585,-0.0632422,0.0,0.0
378,94.25,30.1047,31.7613,139.259,104.66,105.157,0.000473735,0.0426302,21.0059,437.555,-0.0427672,0.0,0.0
384,95.75,31.2576,31.9196,139.277,104.678,105.632,0.000388908,0.0426011,21.0055,437.585,-0.0819219,0.0,0.0
390,97.25,30.2771,31.647,136.797,104.654,105.084,0.000244455,0.0425259,21.0062,437.565,-0.0370582,0.0,0.0
396,98.75,30.6167,31.5222,138.232,104.672,104.915,0.000140021,0.04242,21.0069,437.605,-0.0208571,0.0,0.0
402,100.25,30.6596,31.8308,134.459,104.654,105.52,0.000115425,0.0424327,21.0079,437.595,-0.0744329,0.0,0.0
408,101.75,30.5059,32.0645,138.469,104.643,104.828,0.000149819,0.0424572,21.0084,437.565,-0.0159603,0.0,0.0
414,103.25,30.2537,31.7359,138.567,104.637,105.358,0.000223489,0.0424368,21.0077,437.545,-0.0620402,0.0,0.0
420,104.75,31.2295,32.1376,137.186,104.631,105.528,0.000300352,0.0424066,21.0072,437.545,-0.0770852,0.0,0.0
426,106.25,31.1234,31.6577,135.664,104.631,105.246,0.000389177,0.0423572,21.007,437.495,-0.0528379,0.0,0.0
432,107.75,30.4841,31.7843,138.825,104.619,104.88,0.000497731,0.0422584,21.0073,437.505,-0.0224557,0.0,0.0
438,109.25,30.4266,31.5756,135.705,104.621,105.001,0.000598817,0.0421839,21.0081,437.535,-0.0327073,0.0,0.0
444,110.75,30.8176,31.4303,138.385,104.618,105.057,0.000682476,0.0421245,21.0085,437.495,-0.0378537,0.0,0.0
450,112.25,30.2611,31.6156,134.179,104.621,105.03,0.000714894,0.0420858,21.0087,437.535,-0.0352907,0.0,0.0
456,113.75,30.0817,31.5897,137.498,104.604,105.009,0.000731472,0.0420389,21.0088,437.485,-0.0348898,0.0,0.0
462,115.25,30.7454,32.3337,136.687,104.608,105.429,0.000747821,0.0420876,21.0089,437.475,-0.0705614,0.0,0.0
468,116.75,30.2042,31.8053,137.12,104.593,105.225,0.000728041,0.0421045,21.0089,437.555,-0.0543435,0.0,0.0
474,118.25,30.7267,31.1458,142.133,104.595,105.262,0.000665335,0.0419956,21.0085,437.565,-0.0574216,0.0,0.0
480,119.75,30.4307,31.4191,135.842,104.592,105.818,0.000535949,0.0419382,21.0077,437.545,-0.105229,0.0,0.0
486,121.25,30.6636,32.1169,134.411,104.6,105.285,,0.0419592,,437.505,-0.0589605,0.0,0.0
492,122.75,30.8684,31.8369,135.478,104.588,105.455,,0.0419857,,437.475,-0.0745664,0.0,0.0
498,124.25,30.9928,31.8892,140.585,104.586,104.877,,,,437.515,-0.0250987,0.0,0.0
504,125.75,30.2706,31.7709,142.847,104.584,105.628,,,,437.525,-0.0897346,0.0,0.0
510,127.25,30.2919,31.7998,139.552,104.596,105.091,,,,437.535,-0.0426596,0.0,0.0
516,128.75,30.7576,32.1688,138.684,104.575,105.325,,,,437.505,-0.0645431,0.0,0.0
522,130.25,30.7254,32.027,136.582,104.576,105.23,,,,437.505,-0.0562837,0.0,0.0
526,131.25,30.6348,31.7805,135.697,104.579,104.97,,,,437.505,-0.0337298,0.0,0.0