File: 01_Data/Fiberglass_Insulation_R30_Paper_Faced/Cone/Fiberglass_Insulation_3_Cone_HF75Scan_220509_R2.csv
Names,Time,Stack TC,Smoke TC,Exh Press,Smoke Comp,Smoke Meas,CO Meter,CO2 Meter,O2 Meter,Sample Mass,Ext Coeff,Start Test,Flame Verif
Chan Gain,,500,500,1,1,1,1,1,1,1,1,1.0,1.0
Offset,,0,0,0.134207,0,0,0,0,0,0,0,0.0,0.0
Gain,,1,1,25.011,13.8443,15.4071,1,1,1,1.00079,1.02936,1.0,1.0
Units,sec,C,C,Pa,%,%,%,%,%,g,/m,,
Baseline,,42.8775,44.3903,133.206,104.692,106.698,0.000256913,0.0419559,21.005,-447.875,-0.171359,,
6,1.25,40.8077,42.0939,97.7361,104.629,105.098,0.00201515,0.135528,20.9038,440.738,-0.0404212,0.0,1.0
12,2.75,41.8436,42.8829,117.451,104.623,92.0478,0.00301297,0.217383,20.7844,440.548,1.15627,0.0,1.0
18,4.25,45.0124,44.7449,122.907,104.626,107.59,0.00436774,0.269299,20.7038,440.457,-0.252239,0.0,1.0
24,5.75,45.5364,46.0844,129.116,104.621,107.91,0.00567508,0.272803,20.7261,440.508,-0.279543,0.0,1.0
30,7.25,44.1917,44.4709,130.809,104.627,107.512,0.00674732,0.252057,20.763,440.447,-0.245613,0.0,0.0
36,8.75,44.0012,45.5836,126.577,104.635,106.874,0.00754873,0.225224,20.8032,440.357,-0.191175,0.0,0.0
42,10.25,43.7861,44.8773,133.443,104.635,107.738,0.00784318,0.197071,20.839,440.317,-0.263892,0.0,0.0
48,11.75,44.0245,44.8439,129.973,104.637,107.666,0.00768481,0.173394,20.8682,440.297,-0.257642,0.0,0.0
54,13.25,43.7158,45.0326,131.032,104.64,106.786,0.00727777,0.15517,20.8895,440.287,-0.183266,0.0,0.0
60,14.75,43.6437,45.198,129.078,104.639,107.224,0.00666156,0.139084,20.9062,440.217,-0.22039,0.0,0.0
66,16.25,44.0602,44.8054,128.539,104.655,106.833,0.00590556,0.126315,20.9221,440.217,-0.186002,0.0,0.0
72,17.75,43.3029,44.8037,130.48,104.642,106.671,0.00521289,0.114468,20.9365,440.217,-0.173374,0.0,0.0
78,19.25,43.1646,45.0756,134.302,104.66,106.835,0.00473534,0.104848,20.9486,440.177,-0.185723,0.0,0.0
84,20.75,43.6317,44.7661,135.298,104.663,107.203,0.00440537,0.0960776,20.9572,440.187,-0.21653,0.0,0.0
90,22.25,43.6035,44.5226,133.581,104.675,106.797,0.00412754,0.0888805,20.9629,440.137,-0.181194,0.0,0.0
96,23.75,43.1685,44.612,133.706,104.675,107.33,0.00380473,0.0827603,20.9681,440.117,-0.226199,0.0,0.0
102,25.25,42.9556,45.0404,134.422,104.681,106.962,0.00349524,0.0782882,20.9724,440.117,-0.19466,0.0,0.0
108,26.75,43.5497,44.7466,133.326,104.679,106.786,0.00327589,0.0742976,20.977,440.087,-0.179949,0.0,0.0
114,28.25,43.1541,44.813,133.03,104.699,106.924,0.00308961,0.0705064,20.9799,440.117,-0.189917,0.0,0.0
120,29.75,42.5607,44.4178,133.103,104.699,106.526,0.00288384,0.0674202,20.9829,440.057,-0.156187,0.0,0.0
126,31.25,42.4444,45.0067,135.824,104.704,107.024,0.00272144,0.0647251,20.9858,440.097,-0.197934,0.0,0.0
132,32.75,43.4738,44.8162,130.844,104.711,107.347,0.00264564,0.0625563,20.9874,440.077,-0.224562,0.0,0.0
138,34.25,42.9625,44.4879,128.937,104.739,107.021,0.00263147,0.060962,20.9881,440.037,-0.194556,0.0,0.0
144,35.75,42.674,44.5399,132.989,104.724,107.592,0.00262527,0.0596347,20.9886,440.037,-0.243975,0.0,0.0
150,37.25,42.7499,44.7805,136.446,104.733,107.049,0.00258421,0.0586852,20.9889,439.997,-0.197482,0.0,0.0
156,38.75,42.6491,44.1098,133.965,104.754,106.453,0.0025274,0.0576009,20.9894,440.057,-0.145308,0.0,0.0
162,40.25,42.5315,43.8569,128.172,104.77,106.741,0.00249417,0.0566101,20.9904,439.997,-0.168299,0.0,0.0
168,41.75,42.2542,44.4192,132.024,104.761,107.483,0.00246389,0.0557815,20.992,440.047,-0.23165,0.0,0.0
174,43.25,42.5847,44.6023,129.521,104.776,107.308,0.00238569,0.0549965,20.9932,440.007,-0.215631,0.0,0.0
180,44.75,42.2506,43.9907,132.404,104.765,107.134,0.00229997,0.0543466,20.9946,440.037,-0.20193,0.0,0.0
186,46.25,42.4397,44.2436,129.755,104.789,108.045,0.00220203,0.0535371,20.9953,440.057,-0.276326,0.0,0.0
192,47.75,42.289,44.2193,130.355,104.796,107.609,0.00209399,0.0526362,20.9959,440.047,-0.239132,0.0,0.0
198,49.25,42.3486,43.4484,131.974,104.815,107.059,0.00191575,0.0516277,20.997,439.967,-0.191214,0.0,0.0
204,50.75,42.482,44.0378,131.036,104.828,107.12,0.00164409,0.0506738,20.9983,440.027,-0.195353,0.0,0.0
210,52.25,42.0332,44.2803,130.052,104.831,107.709,0.00132146,0.0497583,20.9996,440.007,-0.24455,0.0,0.0
216,53.75,42.3724,43.401,132.519,104.844,107.483,0.00105082,0.0489335,21.0012,440.037,-0.224515,0.0,0.0
222,55.25,42.0023,43.9359,134.752,104.851,107.096,0.00085709,0.0482575,21.002,440.007,-0.191291,0.0,0.0
228,56.75,42.4779,43.762,131.891,104.852,107.837,0.000723634,0.0475925,21.0025,439.967,-0.253482,0.0,0.0
234,58.25,42.018,43.8537,132.668,104.869,107.156,0.000623008,0.0470125,21.0027,440.007,-0.1948,0.0,0.0
240,59.75,42.2499,43.9575,133.18,104.877,106.815,0.000538738,0.046507,21.002,439.967,-0.165301,0.0,0.0
246,61.25,41.5695,43.6701,135.53,104.888,106.288,0.000484658,0.0460056,21.0014,439.957,-0.119766,0.0,0.0
252,62.75,41.9652,43.9228,131.138,104.912,107.882,0.000500818,0.0457622,21.0013,439.957,-0.252096,0.0,0.0
258,64.25,42.3595,44.0492,132.883,104.91,107.484,0.000534781,0.0456083,21.002,439.787,-0.218884,0.0,0.0
264,65.75,41.9444,43.7993,135.23,104.926,107.052,0.000542272,0.0454507,21.0025,440.027,-0.181169,0.0,0.0
270,67.25,42.2259,43.4016,138.449,104.926,107.577,0.000529872,0.045353,21.0027,440.007,-0.225244,0.0,0.0
276,68.75,41.8093,43.4224,133.292,104.953,108.06,0.000544122,0.0452002,21.0028,439.987,-0.263433,0.0,0.0
282,70.25,41.6181,43.4769,133.058,104.949,107.508,0.000573776,0.0449029,21.0029,439.957,-0.217478,0.0,0.0
288,71.75,42.4588,44.0682,133.218,104.971,108.682,0.000605205,0.0446452,21.0029,439.967,-0.313697,0.0,0.0
294,73.25,41.5656,42.3197,130.923,104.971,107.541,0.000621724,0.0445041,21.0038,439.987,-0.218388,0.0,0.0
300,74.75,41.9163,43.8901,131.546,104.974,107.633,0.000586925,0.044444,21.0044,439.977,-0.225868,0.0,0.0
306,76.25,41.7996,43.7189,128.505,104.98,107.57,0.000536939,0.044323,21.0044,439.927,-0.219999,0.0,0.0
312,77.75,42.2373,43.7296,130.489,104.993,108.227,0.000484402,0.0441241,21.0044,440.007,-0.273917,0.0,0.0
318,79.25,42.2275,43.8787,132.258,104.994,107.711,0.000433555,0.0440497,21.0044,439.987,-0.230705,0.0,0.0
324,80.75,41.8682,43.6608,131.891,105.002,107.156,0.000431392,0.0439182,21.0044,439.977,-0.183423,0.0,0.0
330,82.25,41.995,43.636,133.875,105.011,107.46,0.000464548,0.0438619,21.0044,439.987,-0.208145,0.0,0.0
336,83.75,41.9303,43.6442,133.879,105.016,107.844,0.000483942,0.0438028,21.0044,440.037,-0.240004,0.0,0.0
342,85.25,42.0383,44.042,133.725,105.031,107.511,0.000505585,0.0437536,21.0045,439.947,-0.210741,0.0,0.0
348,86.75,42.1045,43.5093,132.087,105.024,107.677,0.000539673,0.0437468,21.0049,439.977,-0.22529,0.0,0.0
354,88.25,42.2095,43.6321,133.18,105.038,106.825,0.000563411,0.0437586,21.0051,439.957,-0.152327,0.0,0.0
360,89.75,41.6701,43.5373,130.269,105.04,106.874,0.000562122,0.0437511,21.0052,439.967,-0.156274,0.0,0.0
366,91.25,41.7326,43.6947,132.521,105.045,107.304,0.000544376,0.0437352,21.0052,439.937,-0.192111,0.0,0.0
372,92.75,41.9714,43.3824,130.646,105.055,107.588,0.000505936,0.0437863,21.0053,439.947,-0.215106,0.0,0.0
378,94.25,41.4886,43.9611,129.965,105.056,107.462,0.000473026,0.0437658,21.0053,439.977,-0.204454,0.0,0.0
384,95.75,41.9426,43.7695,131.476,105.047,107.607,0.000396575,0.0437023,21.0046,439.957,-0.217453,0.0,0.0
390,97.25,42.0157,43.6926,132.059,105.059,107.717,0.000357329,0.0437072,21.0041,439.917,-0.225627,0.0,0.0
396,98.75,42.0264,44.2113,131.121,105.066,107.25,0.000394493,0.0437626,21.0039,439.907,-0.185823,0.0,0.0
402,100.25,42.1972,43.4415,134.976,105.062,107.53,0.000450358,0.0436548,21.0038,439.907,-0.209632,0.0,0.0
408,101.75,41.7034,43.4104,131.667,105.066,108.137,0.000440697,0.0435359,21.0037,439.907,-0.260174,0.0,0.0
414,103.25,41.6585,43.5972,129.533,105.084,107.039,0.000401823,0.0435044,21.0037,439.957,-0.166507,0.0,0.0
420,104.75,42.2575,43.6874,133.983,105.075,107.591,0.000344309,0.0435014,21.0037,439.937,-0.213639,0.0,0.0
426,106.25,41.5355,43.5637,133.003,105.094,107.353,0.000233164,0.043354,21.0036,439.907,-0.192016,0.0,0.0
432,107.75,41.632,43.9331,129.926,105.078,107.568,0.000109277,0.0431669,21.0036,439.907,-0.211526,0.0,0.0
438,109.25,41.9732,43.1627,130.931,105.101,108.036,-9.78707e-06,0.0431479,21.0046,439.937,-0.248716,0.0,0.0
444,110.75,41.7055,43.5536,131.032,105.103,107.894,-6.4877e-05,0.0431299,21.0052,439.917,-0.236695,0.0,0.0
450,112.25,42.0815,43.4744,131.701,105.113,108.136,-2.33116e-05,0.0430144,21.0056,439.957,-0.25603,0.0,0.0
456,113.75,41.8862,43.6362,133.055,105.108,107.332,0.000129681,0.0429275,21.0057,439.947,-0.189114,0.0,0.0
462,115.25,42.3171,43.6905,127.986,105.102,108.17,0.000287777,0.0429017,21.0058,439.857,-0.259797,0.0,0.0
468,116.75,41.8105,44.135,133.509,105.108,107.296,0.000462242,0.042784,21.0059,439.867,-0.186068,0.0,0.0
474,118.25,41.5438,43.4896,130.524,105.115,107.772,,0.04287,,439.887,-0.22537,0.0,0.0
480,119.75,41.7485,43.6113,131.902,105.115,107.776,,0.0429923,,439.917,-0.225721,0.0,0.0
486,121.25,41.8126,43.8521,132.622,105.106,107.606,,,,439.907,-0.212291,0.0,0.0
492,122.75,41.7308,43.7644,132.303,105.127,107.589,,,,439.937,-0.209056,0.0,0.0
498,124.25,41.9033,43.8566,130.642,105.111,108.318,,,,439.887,-0.271429,0.0,0.0
504,125.75,41.2878,43.3307,130.868,105.098,108.609,,,,439.957,-0.296744,0.0,0.0
510,127.25,41.7781,43.5427,131.307,105.096,108.261,,,,439.947,-0.26788,0.0,0.0
515,128.5,41.742,43.8368,130.583,105.103,107.344,,,,439.937,-0.190426,0.0,0.0