File: 01_Data/Luan_Panel/STA/N2/30K_min/Luan_Panel_STA_N2_30KData_221103_R1.csv
##Temp./Â°C,Time/min,Mass loss(subtr.2)/mg,DSC(subtr.2)/(mW/mg),Sensit./(uV/mW)
48.778,10.00917,-0.01513,0.02294641,1.08891
51.978,10.87417,-0.01481109,0.18912,1.08621
55.178,11.1066,-0.01474278,0.30064,1.08353
58.378,11.28543,-0.01610644,0.39298,1.08088
61.578,11.44003,-0.016253,0.47049,1.07823
64.778,11.58053,-0.01634697,0.53792,1.07561
67.978,11.7123,-0.01736339,0.59799,1.073
71.178,11.83822,-0.01688402,0.65277,1.07042
74.378,11.95999,-0.01834298,0.70686,1.06784
77.578,12.07873,-0.01879876,0.75686,1.06529
80.778,12.19505,-0.01860064,0.80307,1.06275
83.978,12.30942,-0.02128026,0.84995,1.06024
87.178,12.42217,-0.02145589,0.89422,1.05774
90.378,12.53333,-0.02452798,0.93531,1.05525
93.578,12.64343,-0.0258428,0.97099,1.05279
96.778,12.75273,-0.02725103,1.00543,1.05034
99.978,12.86138,-0.02846765,1.02681,1.04791
103.178,12.96955,-0.03114996,1.04714,1.04549
106.378,13.07753,-0.03378056,1.05741,1.04309
109.578,13.18486,-0.03510001,1.0586,1.04071
112.778,13.2919,-0.03641904,1.05811,1.03835
115.978,13.399,-0.03903947,1.04941,1.036
119.178,13.5055,-0.04037392,1.04436,1.03367
122.378,13.6116,-0.04167975,1.05378,1.03136
125.578,13.7173,-0.04298998,1.06448,1.02907
128.778,13.82244,-0.04561942,1.05933,1.02679
131.978,13.9268,-0.04562165,1.05158,1.02452
135.178,14.0312,-0.0469398,1.04629,1.02228
138.378,14.13459,-0.04825988,1.04202,1.02004
141.578,14.23765,-0.04912397,1.03789,1.01783
144.778,14.34029,-0.04824877,1.03815,1.01563
147.978,14.4422,-0.04957002,1.04291,1.01345
151.178,14.5443,-0.04988407,1.05361,1.01128
154.378,14.64586,-0.05122,1.0604,1.00913
157.578,14.7471,-0.05173751,1.07735,1.00699
160.778,14.84791,-0.0522254,1.08795,1.00487
163.978,14.9485,-0.05352,1.10583,1.00277
167.178,15.04902,-0.05448797,1.12283,1.00067
170.378,15.149,-0.05580695,1.14256,0.9986
173.578,15.24864,-0.05683775,1.16359,0.99654
176.778,15.3483,-0.05680995,1.18997,0.99449
179.978,15.4474,-0.05576771,1.22006,0.99246
183.178,15.5464,-0.05812686,1.25442,0.99044
186.378,15.645,-0.06080233,1.29416,0.98843
189.578,15.7433,-0.06207024,1.34249,0.98644
192.778,15.84123,-0.06400896,1.39213,0.98447
195.978,15.9392,-0.06668201,1.44516,0.9825
199.178,16.03714,-0.07080853,1.50293,0.98055
202.378,16.13499,-0.07488155,1.5634,0.97861
205.578,16.23265,-0.07962067,1.62406,0.97669
208.778,16.33013,-0.08394255,1.68417,0.97478
211.978,16.42782,-0.09003313,1.74399,0.97288
215.178,16.5255,-0.09731904,1.79496,0.97099
218.378,16.623,-0.10224,1.84651,0.96912
221.578,16.72035,-0.11015,1.89007,0.96725
224.778,16.81782,-0.11921,1.92917,0.9654
227.978,16.91509,-0.12658,1.97117,0.96356
231.178,17.01251,-0.13591,2.01292,0.96173
234.378,17.10971,-0.14319,2.05135,0.95992
237.578,17.207,-0.15361,2.08994,0.95811
240.778,17.30389,-0.1647,2.12117,0.95632
243.978,17.40094,-0.17579,2.14473,0.95453
247.178,17.49792,-0.18907,2.15184,0.95275
250.378,17.59496,-0.20188,2.14201,0.95099
253.578,17.69205,-0.2156,2.12936,0.94923
256.778,17.78882,-0.22973,2.10498,0.94749
259.978,17.88557,-0.24531,2.08708,0.94575
263.178,17.9823,-0.26152,2.0692,0.94402
266.378,18.0788,-0.2779,2.05498,0.9423
269.578,18.17555,-0.29573,2.03907,0.94059
272.778,18.27222,-0.31687,2.02669,0.93889
275.978,18.36879,-0.33843,2.01017,0.9372
279.178,18.46546,-0.36118,1.99204,0.93551
282.378,18.56205,-0.38727,1.9717,0.93383
285.578,18.65868,-0.41655,1.94386,0.93216
288.778,18.75534,-0.4493,1.90896,0.9305
291.978,18.85213,-0.4853,1.86239,0.92884
295.178,18.94877,-0.52303,1.80804,0.92719
298.378,19.04555,-0.564,1.74244,0.92554
301.578,19.1421,-0.60982,1.66184,0.92391
304.778,19.23885,-0.65618,1.57382,0.92227
307.978,19.33558,-0.70565,1.47732,0.92065
311.178,19.43212,-0.75659,1.38318,0.91903
314.378,19.52872,-0.81262,1.29378,0.91741
317.578,19.6256,-0.86515,1.20543,0.9158
320.778,19.72247,-0.92408,1.13523,0.91419
323.978,19.81939,-0.98453,1.07329,0.91259
327.178,19.9164,-1.04598,1.02499,0.91099
330.378,20.01362,-1.11344,0.99057,0.9094
333.578,20.11103,-1.17904,0.97211,0.90781
336.778,20.2084,-1.25025,0.96112,0.90622
339.978,20.30591,-1.32227,0.95297,0.90464
343.178,20.4035,-1.40014,0.95027,0.90305
346.378,20.50119,-1.48125,0.94258,0.90148
349.578,20.59897,-1.56544,0.93942,0.8999
352.778,20.69695,-1.65675,0.92954,0.89832
355.978,20.79509,-1.7483,0.91885,0.89675
359.178,20.89317,-1.85047,0.90155,0.89518
362.378,20.99158,-1.94909,0.8775,0.89361
365.578,21.08996,-2.05294,0.84005,0.89204
368.778,21.18872,-2.15378,0.79409,0.89047
371.978,21.28734,-2.25286,0.73202,0.88891
375.178,21.3858,-2.34438,0.65976,0.88734
378.378,21.48464,-2.43097,0.57471,0.88577
381.578,21.58357,-2.49814,0.48773,0.88421
384.778,21.6825,-2.55248,0.41127,0.88264
387.978,21.78185,-2.59067,0.35706,0.88107
391.178,21.88109,-2.61422,0.32253,0.8795
394.378,21.98046,-2.63361,0.29124,0.87793
397.578,22.08001,-2.64707,0.26921,0.87636
400.778,22.17984,-2.66055,0.2458,0.87478
403.978,22.2796,-2.67167,0.22928,0.87321
407.178,22.37949,-2.68185,0.2082,0.87163
410.378,22.47938,-2.69424,0.19534,0.87005
413.578,22.5795,-2.70313,0.18646,0.86847
416.778,22.6796,-2.71467,0.17365,0.86688
419.978,22.7798,-2.72388,0.16888,0.86529
423.178,22.88014,-2.73228,0.16059,0.8637
426.378,22.98075,-2.74134,0.15697,0.8621
429.578,23.08107,-2.75109,0.15642,0.8605
432.778,23.18178,-2.75981,0.15915,0.8589
435.978,23.2825,-2.76778,0.16326,0.85729
439.178,23.38345,-2.77654,0.17003,0.85568
442.378,23.48423,-2.78337,0.17996,0.85406
445.578,23.58531,-2.79217,0.1895,0.85244
448.778,23.68644,-2.79904,0.20242,0.85081
451.978,23.78772,-2.80615,0.21249,0.84918
455.178,23.8891,-2.81321,0.22592,0.84754
458.378,23.99053,-2.82146,0.23859,0.8459
461.578,24.09206,-2.82718,0.25121,0.84425
464.778,24.19368,-2.8347,0.26355,0.84259
467.978,24.2953,-2.8402,0.27924,0.84093
471.178,24.39696,-2.84511,0.28969,0.83926
474.378,24.49889,-2.85214,0.29833,0.83758
477.578,24.6006,-2.85625,0.31227,0.8359
480.778,24.7026,-2.86338,0.32251,0.83421
483.978,24.8043,-2.86834,0.33196,0.83251
487.178,24.90643,-2.8745,0.33709,0.8308
490.378,25.00827,-2.87884,0.3406,0.82909
493.578,25.11074,-2.88348,0.35019,0.82737
496.778,25.21293,-2.88866,0.35505,0.82564
499.978,25.31535,-2.89339,0.36159,0.8239
503.178,25.41776,-2.89884,0.36582,0.82215
506.378,25.5202,-2.90281,0.3687,0.82039
509.578,25.62291,-2.90714,0.37097,0.81863
512.778,25.72552,-2.91348,0.37567,0.81686
515.978,25.8283,-2.91654,0.37293,0.81507
519.178,25.93104,-2.92076,0.37556,0.81328
522.378,26.03408,-2.92528,0.37472,0.81148
525.578,26.1368,-2.93027,0.3734,0.80967
528.778,26.2401,-2.93475,0.36895,0.80785
531.978,26.34327,-2.93752,0.36611,0.80601
535.178,26.4466,-2.93946,0.3659,0.80417
538.378,26.5499,-2.94455,0.36659,0.80232
541.578,26.65372,-2.94726,0.36724,0.80046
544.778,26.75722,-2.95091,0.37142,0.79858
547.978,26.86119,-2.95396,0.37209,0.7967
551.178,26.9651,-2.95824,0.37635,0.79481
554.378,27.069,-2.96075,0.38244,0.7929
557.578,27.1732,-2.96281,0.38535,0.79098
560.778,27.2773,-2.96597,0.38708,0.78905
563.978,27.38162,-2.96869,0.3915,0.78712
567.178,27.48607,-2.9715,0.39401,0.78516
570.378,27.5902,-2.97413,0.3963,0.7832
573.578,27.69497,-2.97633,0.3996,0.78123
576.778,27.79918,-2.97983,0.39897,0.77924
579.978,27.90428,-2.98202,0.39959,0.77724
583.178,28.009,-2.98443,0.40081,0.77523
586.378,28.11376,-2.98729,0.39997,0.77321
589.578,28.21865,-2.99123,0.39787,0.77118
592.778,28.3236,-2.99253,0.39869,0.76913
595.978,28.4288,-2.99387,0.39692,0.76707
599.178,28.53405,-2.9965,0.39082,0.765
602.378,28.6394,-2.99915,0.38657,0.76291
605.578,28.7447,-3.00182,0.38133,0.76082
608.778,28.85026,-3.00316,0.37768,0.75871
611.978,28.9558,-3.00574,0.37085,0.75659
615.178,29.0615,-3.00702,0.36577,0.75445
618.378,29.1671,-3.00972,0.35894,0.7523
621.578,29.2726,-3.01167,0.35303,0.75014
624.778,29.3784,-3.01323,0.35275,0.74797
627.978,29.48384,-3.01541,0.35043,0.74578
631.178,29.5894,-3.01801,0.34888,0.74358
634.378,29.6947,-3.02041,0.34934,0.74137
637.578,29.8003,-3.02196,0.35391,0.73914
640.778,29.90573,-3.02365,0.35035,0.7369
643.978,30.0113,-3.02558,0.35393,0.73465
647.178,30.11678,-3.02689,0.35793,0.73239
650.378,30.22232,-3.02824,0.36447,0.73011
653.578,30.32791,-3.03008,0.36612,0.72781
656.778,30.4336,-3.03161,0.37082,0.72551
659.978,30.53936,-3.03402,0.37505,0.72319
663.178,30.6452,-3.03397,0.3776,0.72086
666.378,30.75098,-3.03798,0.38238,0.71851
669.578,30.8567,-3.03962,0.38116,0.71615
672.778,30.96247,-3.0406,0.382,0.71378
675.978,31.0684,-3.04192,0.37601,0.7114
679.178,31.1745,-3.04323,0.37337,0.709
682.378,31.28065,-3.04457,0.36354,0.70659
685.578,31.38669,-3.04582,0.35694,0.70416
688.778,31.4928,-3.04853,0.35214,0.70172
691.978,31.599,-3.04949,0.34914,0.69927
695.178,31.70512,-3.05077,0.34061,0.69681
698.378,31.8114,-3.05114,0.33457,0.69433
701.578,31.9178,-3.05377,0.32718,0.69184
704.778,32.02405,-3.05411,0.32228,0.68933
707.978,32.13029,-3.05508,0.31876,0.68682
711.178,32.23682,-3.0564,0.31747,0.68429
714.378,32.34344,-3.05773,0.31431,0.68174
717.578,32.44989,-3.06034,0.31528,0.67919
720.778,32.5565,-3.05937,0.31187,0.67662
723.978,32.66308,-3.05976,0.30819,0.67404
727.178,32.76964,-3.06034,0.30174,0.67144
730.378,32.8765,-3.06298,0.29767,0.66883
733.578,32.98318,-3.06551,0.29516,0.66621
736.778,33.0899,-3.0643,0.29131,0.66358
739.978,33.19681,-3.06561,0.28641,0.66094
743.178,33.3035,-3.06694,0.28199,0.65828
746.378,33.4101,-3.06693,0.28048,0.65561
749.578,33.51686,-3.0709,0.2757,0.65293
752.778,33.62361,-3.06802,0.26851,0.65024
755.978,33.73044,-3.06934,0.26552,0.64753
759.178,33.8375,-3.07223,0.26416,0.64481
762.378,33.94467,-3.07218,0.26193,0.64208
765.578,34.05173,-3.07207,0.26331,0.63934
768.778,34.15902,-3.07208,0.25528,0.63659
771.978,34.26656,-3.07341,0.25662,0.63382
775.178,34.37425,-3.07387,0.2556,0.63105
778.378,34.4818,-3.07472,0.25129,0.62826
781.578,34.58938,-3.07603,0.2495,0.62546
784.778,34.6971,-3.07653,0.25009,0.62265
787.978,34.8049,-3.07775,0.26032,0.61983
791.178,34.91254,-3.07767,0.25547,0.617
793.678,34.99686,-3.07864,0.25615,0.61478