File: 01_Data/Luan_Panel/STA/N2/30K_min/Luan_Panel_STA_N2_30KData_221103_R2.csv
##Temp./Â°C,Time/min,Mass loss(subtr.2)/mg,DSC(subtr.2)/(mW/mg),Sensit./(uV/mW)
48.651,10.01,-0.03949,0.02019232,1.08901
51.851,10.87372,-0.04250598,0.18516,1.08632
55.051,11.10666,-0.04260871,0.29991,1.08364
58.251,11.2852,-0.04363676,0.39085,1.08098
61.451,11.43984,-0.04496218,0.46773,1.07834
64.651,11.5806,-0.04409863,0.53328,1.07571
67.851,11.71213,-0.04452178,0.59121,1.07311
71.051,11.83792,-0.04741272,0.64527,1.07052
74.251,11.9596,-0.04749287,0.69162,1.06795
77.451,12.07846,-0.04803333,0.73762,1.06539
80.651,12.19469,-0.04984236,0.78324,1.06285
83.851,12.30903,-0.05209172,0.82556,1.06034
87.051,12.42168,-0.05331743,0.86601,1.05783
90.251,12.53301,-0.05491723,0.90396,1.05535
93.451,12.6432,-0.05645381,0.93739,1.05288
96.651,12.7525,-0.0587359,0.96838,1.05043
99.851,12.8611,-0.06155671,0.99364,1.048
103.051,12.96924,-0.06416101,1.00856,1.04559
106.251,13.07703,-0.06499533,1.02,1.04319
109.451,13.18464,-0.06547972,1.02578,1.04081
112.651,13.29185,-0.06739129,1.02272,1.03844
115.851,13.39904,-0.0704187,1.018,1.0361
119.051,13.5056,-0.07142079,1.01786,1.03377
122.251,13.61165,-0.07436914,1.03081,1.03145
125.451,13.71708,-0.07569002,1.03574,1.02916
128.651,13.8224,-0.0756899,1.03033,1.02688
131.851,13.92707,-0.07702404,1.02267,1.02461
135.051,14.03113,-0.07966161,1.01689,1.02236
138.251,14.1347,-0.07841912,1.01309,1.02013
141.451,14.2377,-0.08095095,1.01065,1.01792
144.651,14.34027,-0.07876083,1.01018,1.01572
147.851,14.44237,-0.08442815,1.01776,1.01353
151.051,14.5443,-0.08275957,1.02696,1.01137
154.251,14.6458,-0.08180632,1.03567,1.00921
157.451,14.7469,-0.08167462,1.04898,1.00708
160.651,14.8479,-0.08543999,1.06022,1.00496
163.851,14.9485,-0.08677576,1.07413,1.00285
167.051,15.049,-0.08678256,1.09143,1.00076
170.251,15.14921,-0.0880798,1.10765,0.99868
173.451,15.24915,-0.08939014,1.12791,0.99662
176.651,15.34883,-0.08998047,1.14999,0.99457
179.851,15.448,-0.09006061,1.17988,0.99254
183.051,15.54713,-0.09148184,1.21363,0.99052
186.251,15.64564,-0.09311151,1.25317,0.98851
189.451,15.7439,-0.0958077,1.29734,0.98652
192.651,15.842,-0.09941137,1.34473,0.98454
195.851,15.93992,-0.10201,1.39624,0.98258
199.051,16.0378,-0.10468,1.45034,0.98063
202.251,16.13553,-0.10801,1.50837,0.97869
205.451,16.23336,-0.11252,1.57012,0.97677
208.651,16.33086,-0.11843,1.63147,0.97485
211.851,16.42856,-0.12357,1.68598,0.97295
215.051,16.5261,-0.13143,1.73709,0.97107
218.251,16.62343,-0.1385,1.78651,0.96919
221.451,16.72105,-0.14508,1.82884,0.96733
224.651,16.8186,-0.15451,1.86763,0.96548
227.851,16.9159,-0.16221,1.90527,0.96364
231.051,17.01303,-0.17084,1.9468,0.96181
234.251,17.11001,-0.17978,1.98685,0.95999
237.451,17.2071,-0.18933,2.02617,0.95818
240.651,17.30434,-0.20098,2.05806,0.95639
243.851,17.40137,-0.21251,2.07934,0.9546
247.051,17.4978,-0.22449,2.0868,0.95282
250.251,17.59496,-0.23679,2.08037,0.95106
253.451,17.69162,-0.24963,2.06085,0.9493
256.651,17.7883,-0.2653,2.04164,0.94756
259.851,17.885,-0.28077,2.02364,0.94582
263.051,17.98157,-0.29776,2.00668,0.94409
266.251,18.07806,-0.31548,1.99004,0.94237
269.451,18.17468,-0.33228,1.97515,0.94066
272.651,18.27144,-0.35117,1.95996,0.93896
275.851,18.3678,-0.37176,1.94663,0.93726
279.051,18.46451,-0.3954,1.92993,0.93558
282.251,18.5608,-0.42347,1.90798,0.9339
285.451,18.65767,-0.44875,1.88457,0.93223
288.651,18.75433,-0.48178,1.85079,0.93056
291.851,18.85108,-0.51737,1.80935,0.92891
295.051,18.94774,-0.55702,1.75435,0.92725
298.251,19.0446,-0.59765,1.69157,0.92561
301.451,19.14151,-0.64184,1.61516,0.92397
304.651,19.23834,-0.68795,1.52735,0.92234
307.851,19.33511,-0.7382,1.43473,0.92071
311.051,19.4321,-0.79043,1.34096,0.91909
314.251,19.52904,-0.84451,1.2502,0.91747
317.451,19.62604,-0.9025,1.16588,0.91586
320.651,19.72318,-0.95889,1.09458,0.91426
323.851,19.82035,-1.0199,1.03377,0.91265
327.051,19.91757,-1.08219,0.98642,0.91106
330.251,20.015,-1.14563,0.95697,0.90946
333.451,20.11242,-1.21554,0.9404,0.90787
336.651,20.2098,-1.28438,0.92811,0.90628
339.851,20.30753,-1.35772,0.9264,0.9047
343.051,20.40513,-1.43193,0.9235,0.90312
346.251,20.50293,-1.51504,0.92179,0.90154
349.451,20.60068,-1.59951,0.92114,0.89996
352.651,20.69847,-1.6882,0.91842,0.89839
355.851,20.79654,-1.78247,0.91205,0.89681
359.051,20.89472,-1.87871,0.89879,0.89524
362.251,20.99296,-1.98224,0.87698,0.89367
365.451,21.09132,-2.08131,0.84353,0.8921
368.651,21.18974,-2.18511,0.79699,0.89054
371.851,21.28816,-2.28166,0.73541,0.88897
375.051,21.38681,-2.37688,0.65831,0.8874
378.251,21.4856,-2.45857,0.5708,0.88583
381.451,21.58435,-2.53197,0.47331,0.88427
384.651,21.68319,-2.58601,0.38853,0.8827
387.851,21.78215,-2.62483,0.32196,0.88113
391.051,21.88129,-2.65025,0.281,0.87956
394.251,21.98043,-2.66881,0.25184,0.87799
397.451,22.0799,-2.68478,0.22082,0.87642
400.651,22.17938,-2.69676,0.199,0.87485
403.851,22.27871,-2.709,0.18064,0.87327
407.051,22.37866,-2.7197,0.16362,0.87169
410.251,22.47841,-2.73067,0.14816,0.87011
413.451,22.578,-2.74122,0.13143,0.86853
416.651,22.67819,-2.75073,0.12539,0.86694
419.851,22.77822,-2.75943,0.11517,0.86536
423.051,22.87848,-2.76928,0.10814,0.86376
426.251,22.97881,-2.77823,0.10372,0.86217
429.451,23.07902,-2.78705,0.10236,0.86057
432.651,23.17965,-2.79665,0.10392,0.85896
435.851,23.28024,-2.80535,0.10905,0.85736
439.051,23.38083,-2.81295,0.11296,0.85574
442.251,23.48173,-2.82153,0.12256,0.85413
445.451,23.58261,-2.82793,0.13234,0.8525
448.651,23.68357,-2.83531,0.14054,0.85088
451.851,23.78465,-2.8436,0.15389,0.84924
455.051,23.8855,-2.84978,0.16831,0.84761
458.251,23.987,-2.85644,0.1789,0.84596
461.451,24.08845,-2.86521,0.19113,0.84431
464.651,24.18968,-2.87114,0.20308,0.84266
467.851,24.29113,-2.87775,0.21436,0.84099
471.051,24.39273,-2.88354,0.22592,0.83932
474.251,24.49447,-2.88988,0.23513,0.83765
477.451,24.59637,-2.89636,0.24322,0.83596
480.651,24.69825,-2.90003,0.25255,0.83427
483.851,24.8001,-2.9047,0.25975,0.83258
487.051,24.9022,-2.91119,0.26804,0.83087
490.251,25.00432,-2.91729,0.27279,0.82916
493.451,25.10661,-2.92115,0.27415,0.82743
496.651,25.20891,-2.92631,0.28114,0.8257
499.851,25.31148,-2.93104,0.28593,0.82397
503.051,25.41388,-2.93528,0.28958,0.82222
506.251,25.5165,-2.93998,0.29315,0.82046
509.451,25.61917,-2.94463,0.29521,0.8187
512.651,25.72206,-2.94911,0.30348,0.81693
515.851,25.82471,-2.95311,0.30302,0.81514
519.051,25.92756,-2.95833,0.30592,0.81335
522.251,26.03056,-2.96167,0.30378,0.81155
525.451,26.13371,-2.96702,0.2995,0.80974
528.651,26.2369,-2.97165,0.29482,0.80792
531.851,26.34034,-2.97556,0.29802,0.80609
535.051,26.44373,-2.97837,0.29698,0.80425
538.251,26.5473,-2.98095,0.30065,0.80239
541.451,26.6507,-2.98484,0.30516,0.80053
544.651,26.7543,-2.98755,0.31342,0.79866
547.851,26.8581,-2.99194,0.31904,0.79678
551.051,26.9619,-2.9949,0.3253,0.79488
554.251,27.06588,-2.99672,0.32813,0.79298
557.451,27.1696,-3.00068,0.33289,0.79106
560.651,27.274,-3.00327,0.33536,0.78913
563.851,27.37803,-3.00655,0.34,0.78719
567.051,27.48228,-3.01085,0.34454,0.78524
570.251,27.58669,-3.01198,0.3442,0.78328
573.451,27.6911,-3.0147,0.34279,0.78131
576.651,27.79546,-3.01766,0.34525,0.77932
579.851,27.9,-3.02098,0.34118,0.77732
583.051,28.0046,-3.02238,0.33708,0.77531
586.251,28.1094,-3.02591,0.33378,0.77329
589.451,28.2143,-3.02856,0.32675,0.77126
592.651,28.31887,-3.0304,0.32109,0.76921
595.851,28.4242,-3.03248,0.31694,0.76715
599.051,28.52941,-3.037,0.30993,0.76508
602.251,28.6345,-3.03853,0.30028,0.763
605.451,28.7397,-3.04094,0.29658,0.7609
608.651,28.84485,-3.04219,0.28912,0.75879
611.851,28.95011,-3.04555,0.28452,0.75667
615.051,29.0555,-3.04719,0.28046,0.75454
618.251,29.16103,-3.04982,0.27843,0.75239
621.451,29.2664,-3.05214,0.27345,0.75023
624.651,29.37187,-3.05352,0.2693,0.74806
627.851,29.47735,-3.05608,0.26698,0.74587
631.051,29.583,-3.05607,0.26212,0.74367
634.251,29.6887,-3.05739,0.26192,0.74146
637.451,29.79447,-3.05869,0.26165,0.73923
640.651,29.90007,-3.06266,0.2623,0.73699
643.851,30.0058,-3.06267,0.26564,0.73474
647.051,30.11164,-3.06528,0.26554,0.73248
650.251,30.21742,-3.06781,0.26707,0.7302
653.451,30.3232,-3.07042,0.2688,0.72791
656.651,30.4291,-3.07188,0.26667,0.7256
659.851,30.535,-3.0732,0.26332,0.72328
663.051,30.6408,-3.07582,0.26268,0.72095
666.251,30.74655,-3.07714,0.26297,0.71861
669.451,30.8524,-3.07981,0.26224,0.71625
672.651,30.9582,-3.07838,0.25095,0.71388
675.851,31.06434,-3.08207,0.24664,0.71149
679.051,31.17029,-3.08238,0.24239,0.70909
682.251,31.2761,-3.08437,0.23488,0.70668
685.451,31.3821,-3.08603,0.22455,0.70426
688.651,31.4882,-3.08869,0.21703,0.70182
691.851,31.59425,-3.08997,0.21131,0.69937
695.051,31.70038,-3.09224,0.20307,0.69691
698.251,31.8066,-3.09132,0.19675,0.69443
701.451,31.91292,-3.09393,0.1918,0.69194
704.651,32.01914,-3.09557,0.19174,0.68943
707.851,32.1257,-3.09633,0.18134,0.68692
711.051,32.23209,-3.09752,0.17855,0.68439
714.251,32.33853,-3.09886,0.17366,0.68184
717.451,32.44518,-3.09872,0.17053,0.67929
720.651,32.5519,-3.09962,0.16289,0.67672
723.851,32.6585,-3.10093,0.15759,0.67414
727.051,32.76497,-3.10192,0.15015,0.67155
730.251,32.87187,-3.10192,0.13972,0.66894
733.451,32.97858,-3.10228,0.13792,0.66632
736.651,33.08542,-3.10452,0.13176,0.66369
739.851,33.19214,-3.10624,0.12847,0.66104
743.051,33.29899,-3.10652,0.12345,0.65839
746.251,33.406,-3.10752,0.11602,0.65572
749.451,33.51321,-3.10844,0.11362,0.65304
752.651,33.62039,-3.10883,0.10791,0.65034
755.851,33.72743,-3.11004,0.10259,0.64764
759.051,33.8348,-3.11147,0.09627629,0.64492
762.251,33.94235,-3.11015,0.09166826,0.64219
765.451,34.04998,-3.11146,0.08791335,0.63945
768.651,34.15761,-3.11278,0.08998773,0.6367
771.851,34.26536,-3.1141,0.08515229,0.63393
775.051,34.37296,-3.11409,0.08102587,0.63116
778.251,34.48077,-3.11581,0.07760111,0.62837
781.451,34.58848,-3.11673,0.07974456,0.62557
784.651,34.69627,-3.11804,0.07878028,0.62276
787.851,34.8039,-3.11665,0.07522358,0.61994
791.051,34.9118,-3.11886,0.07582923,0.61711
793.651,34.9993,-3.11937,0.07326555,0.6148