File: 01_Data/Oak_Flooring/Cone/Oak_Flooring_Cone_HF25Scan_220913_R1.csv
Names,Time,Stack TC,Smoke TC,Exh Press,Smoke Comp,Smoke Meas,CO Meter,CO2 Meter,O2 Meter,Sample Mass,Ext Coeff,Start Test,Flame Verif
Chan Gain,,500,500,1,1,1,1,1,1,1,1,1.0,1.0
Offset,,0,0,0.139139,0,0,0,0,0,0,0,0.0,0.0
Gain,,1,1,25.011,13.0826,14.7555,1,1,1,1.00088,1.03743,1.0,1.0
Units,sec,C,C,Pa,%,%,%,%,%,g,/m,,
Baseline,,38.4979,39.3572,144.542,98.9967,100.336,0.000404722,0.0477699,20.9781,-449.2,-0.122243,,
65,16,36.854,37.8646,145.986,98.8001,100.475,0.000163425,0.0482497,20.9799,168.228,-0.152951,0.0,0.0
130,32.25,36.902,37.6209,144.752,98.9785,100.387,0.000650363,0.0499227,20.9793,168.048,-0.128571,0.0,0.0
195,48.5,36.7296,37.7039,144.192,99.1686,100.289,0.000636531,0.0479074,20.9845,167.928,-0.102211,0.0,0.0
260,64.75,37.2122,38.0129,147.855,99.3351,100.616,0.000497075,0.0477179,20.9841,167.748,-0.116603,0.0,0.0
325,81,36.9658,37.5464,144.985,99.3814,100.383,0.000564234,0.0487,20.9827,167.508,-0.0912813,0.0,0.0
390,97.25,37.3185,38.3333,142.793,99.2752,100.058,0.000923588,0.0498318,20.9826,167.127,-0.0714485,0.0,0.0
455,113.5,37.5745,38.4479,143.504,99.1338,98.8,0.00106536,0.052048,20.9847,166.927,0.030699,0.0,0.0
520,129.75,37.4922,38.6146,144.071,98.9258,98.1646,0.0016559,0.0533385,20.9831,166.517,0.0702977,0.0,0.0
585,146,38.8582,38.9113,124.804,98.8492,98.3443,0.00338858,0.18717,20.7754,165.746,0.0466024,0.0,1.0
650,162.25,57.7977,52.2509,124.851,98.7809,96.503,0.00577848,0.615701,20.3092,162.753,0.212313,0.0,0.0
715,178.5,64.0849,61.4067,130.153,98.7633,99.733,0.00468505,0.462493,20.5112,160.341,-0.0889125,0.0,0.0
780,194.75,63.3898,63.8895,136.995,98.5933,100.311,0.00359331,0.35223,20.6423,158.359,-0.157162,0.0,0.0
845,211,61.1506,63.3504,134.217,98.3657,101.315,0.00361885,0.298631,20.7052,156.768,-0.268839,0.0,0.0
910,227.25,59.0042,62.8053,133.104,98.0519,101.162,0.00327242,0.27488,20.7334,155.227,-0.284195,0.0,0.0
975,243.5,57.2606,61.4385,135.67,97.6961,100.715,0.00372641,0.258126,20.752,153.775,-0.276916,0.0,0.0
1040,259.75,56.8043,60.5188,131.021,97.4051,99.5727,0.00324499,0.257002,20.753,152.354,-0.200293,0.0,0.0
1105,276,56.1935,59.4605,134.404,97.3791,99.7006,0.00328,0.249731,20.7609,150.983,-0.2144,0.0,0.0
1170,292.25,55.2577,59.2373,133.756,97.5744,100.303,0.00319211,0.238372,20.7746,149.722,-0.250961,0.0,0.0
1235,308.5,54.3307,57.8369,134.529,97.8211,100.271,0.00317823,0.226102,20.7886,148.391,-0.225077,0.0,0.0
1300,324.75,53.8542,57.2502,132.477,98.1209,100.585,0.0034195,0.222507,20.793,147.16,-0.225666,0.0,0.0
1365,341,53.1695,56.6377,139.092,98.3677,100.661,0.00336358,0.217103,20.7981,145.898,-0.209734,0.0,0.0
1430,357.25,53.0632,55.5993,137.322,98.5258,101.721,0.00410137,0.20837,20.8105,144.737,-0.290449,0.0,0.0
1495,373.5,52.3023,55.4419,135.843,98.6128,102.016,0.00401889,0.205172,20.8107,143.546,-0.308722,0.0,0.0
1560,389.75,51.7324,54.8437,141.787,98.6731,100.357,0.004086,0.203092,20.8149,142.385,-0.15396,0.0,0.0
1625,406,51.5899,54.3446,138.549,98.6735,101.787,0.00410973,0.201774,20.8181,141.194,-0.282735,0.0,0.0
1690,422.25,51.7782,53.275,135.241,98.6316,101.008,0.00442561,0.202213,20.8171,140.013,-0.216686,0.0,0.0
1755,438.5,51.3012,53.6798,135.519,98.5134,100.726,0.00381352,0.201187,20.8185,138.832,-0.202123,0.0,0.0
1820,454.75,51.1751,53.1905,138.733,98.4028,101.498,0.0041316,0.198486,20.8191,137.611,-0.281811,0.0,0.0
1885,471,50.9473,53.4927,138.812,98.3082,100.718,0.00422857,0.194266,20.8267,136.46,-0.220408,0.0,0.0
1950,487.25,50.8396,52.6432,138.931,98.2663,100.829,0.00382633,0.193513,20.8265,135.299,-0.234252,0.0,0.0
2015,503.5,50.8881,52.6916,137.518,98.2231,101.553,0.00406642,0.194108,20.8238,134.158,-0.303406,0.0,0.0
2080,519.75,50.7183,52.6598,139.833,98.3545,100.186,0.00415921,0.196255,20.8227,133.007,-0.167861,0.0,0.0
2145,536,50.7592,52.6736,137.924,98.608,101.585,0.00366399,0.196694,20.8209,131.866,-0.270681,0.0,0.0
2210,552.25,51.3296,52.0142,141.086,98.7542,101.037,0.00371698,0.197291,20.821,130.765,-0.207979,0.0,0.0
2275,568.5,51.0768,52.868,135.851,98.9194,101.023,0.00344043,0.197675,20.8204,129.624,-0.191462,0.0,0.0
2340,584.75,50.7102,52.8238,135.251,99.0528,102.211,0.00380133,0.199776,20.8176,128.503,-0.285587,0.0,0.0
2405,601,50.862,52.8766,138.005,99.052,101.953,0.00389531,0.199678,20.8132,127.352,-0.262699,0.0,0.0
2470,617.25,50.5055,53.0654,135.596,98.8819,101.137,0.00397642,0.200535,20.8175,126.221,-0.205173,0.0,0.0
2535,633.5,51.2072,52.3576,134.41,98.5825,101.192,0.00332626,0.201407,20.8177,125.1,-0.237755,0.0,0.0
2600,649.75,51.2802,53.0141,134.543,98.6539,101.35,0.00383269,0.202754,20.8167,124.019,-0.245322,0.0,0.0
2665,666,51.3477,52.7269,135.11,98.8735,101.825,0.00324129,0.202326,20.8178,122.908,-0.267647,0.0,0.0
2730,682.25,51.3634,52.8025,133.827,99.1071,101.678,0.00337753,0.204463,20.812,121.787,-0.233087,0.0,0.0
2795,698.5,51.6888,53.1155,136.591,99.3003,101.872,0.00355088,0.20714,20.81,120.646,-0.232674,0.0,0.0
2860,714.75,51.9682,53.5382,138.379,99.3506,101.938,0.00323794,0.210003,20.8061,119.505,-0.233936,0.0,0.0
2925,731,51.8856,53.6007,135.628,99.3243,101.39,0.00320169,0.217138,20.8002,118.404,-0.187335,0.0,0.0
2990,747.25,52.7469,53.972,134.847,99.24,101.956,0.00286557,0.220942,20.7982,117.243,-0.24572,0.0,0.0
3055,763.5,52.96,53.9919,132.063,99.1211,101.895,0.00277524,0.23041,20.7859,116.032,-0.251168,0.0,0.0
3120,779.75,53.8076,54.6371,133.561,98.9023,101.726,0.0031486,0.241146,20.7733,114.781,-0.256225,0.0,0.0
3185,796,54.7692,55.789,132.913,98.6212,101.47,0.00233326,0.253507,20.7591,113.44,-0.259172,0.0,0.0
3250,812.25,55.6253,57.3213,134.928,98.2327,100.61,0.00227786,0.271065,20.7405,112.109,-0.217626,0.0,0.0
3315,828.5,56.9492,58.3066,131.634,98.065,100.609,0.0030946,0.288618,20.7169,110.597,-0.233092,0.0,0.0
3380,844.75,58.4124,59.5301,131.653,98.0611,100.306,0.00253289,0.30299,20.7029,109.066,-0.206009,0.0,0.0
3445,861,59.4049,60.4682,131.817,97.9772,100.246,0.00272209,0.304581,20.6985,107.505,-0.208358,0.0,0.0
3510,877.25,59.8988,61.3465,135.319,97.7544,99.7312,0.00252127,0.303412,20.7001,105.953,-0.182189,0.0,0.0
3575,893.5,60.3474,62.182,131.996,97.5101,100.991,0.00222761,0.304599,20.6971,104.442,-0.319171,0.0,0.0
3640,909.75,60.6693,62.5762,132.052,97.4119,100.184,0.001859,0.305182,20.6987,102.881,-0.255336,0.0,0.0
3705,926,60.7161,63.4952,129.822,97.3799,100.68,0.00183354,0.313916,20.6892,101.319,-0.303285,0.0,0.0
3770,942.25,62.035,64.2735,133.246,97.4937,99.996,0.00219413,0.322607,20.682,99.6878,-0.23062,0.0,0.0
3835,958.5,62.2738,64.743,132.762,97.7141,100.27,0.0021528,0.336238,20.6651,98.0063,-0.234995,0.0,0.0
3900,974.75,63.3414,65.7005,129.119,97.9557,100.802,0.00254537,0.349317,20.6514,96.2448,-0.260706,0.0,0.0
3965,991,64.816,66.791,128.58,98.1704,101.179,0.00233719,0.362813,20.6374,94.4432,-0.274694,0.0,0.0
4030,1007.25,65.4747,67.9988,130.543,98.4367,101.224,0.00212344,0.373204,20.622,92.5815,-0.254051,0.0,0.0
4095,1023.5,66.8507,69.2292,132.921,98.5457,101.024,0.00205892,0.383836,20.6074,90.7099,-0.226029,0.0,0.0
4160,1039.75,67.4709,70.03,126.078,98.6424,101.462,0.00207156,0.388156,20.6035,88.8182,-0.256494,0.0,0.0
4225,1056,68.2746,70.5536,125.851,98.644,101.115,0.00253572,0.379413,20.6079,87.0567,-0.225113,0.0,0.0
4290,1072.25,67.011,70.6855,133.163,98.5689,101.092,0.00280116,0.354418,20.6371,85.3251,-0.230014,0.0,0.0
4355,1088.5,66.1856,70.1234,131.689,98.4571,100.686,0.00228084,0.331872,20.6631,83.8338,-0.203744,0.0,0.0
4420,1104.75,65.3412,69.0433,131.758,98.3848,100.781,0.00276058,0.334284,20.6572,82.3025,-0.218969,0.0,0.0
4485,1121,64.946,68.6122,129.832,98.3058,100.567,0.00273579,0.328944,20.6617,80.8012,-0.206908,0.0,0.0
4550,1137.25,65.1422,68.1576,125.856,98.2439,101.003,0.00305856,0.329495,20.6573,79.3199,-0.252079,0.0,0.0
4615,1153.5,65.1422,68.1665,130.771,98.1693,99.8231,0.0030022,0.323155,20.6642,77.8586,-0.152032,0.0,0.0
4680,1169.75,64.3054,67.0326,131.704,98.3214,100.44,0.00421682,0.299855,20.6911,76.5674,-0.193968,0.0,0.0
4745,1186,63.3502,66.3962,132.028,98.7074,100.854,0.00423722,0.275212,20.717,75.4064,-0.195763,0.0,0.0
4810,1202.25,60.4305,64.4185,135.365,98.951,102.003,0.004857,0.239184,20.7595,74.4656,-0.276443,0.0,0.0
4875,1218.5,57.8492,61.8602,139.023,99.0352,100.917,0.0066622,0.212329,20.7851,73.6949,-0.171279,0.0,0.0
4940,1234.75,55.9163,59.9144,137.788,98.9326,101.883,0.00669461,0.192729,20.8065,73.0343,-0.26744,0.0,0.0
5005,1251,54.2362,57.7934,134.489,98.6456,101.182,0.00695584,0.176122,20.8215,72.4438,-0.231002,0.0,0.0
5070,1267.25,52.727,55.5995,137.263,98.5749,101.666,0.0108919,0.163083,20.8379,71.9634,-0.280999,0.0,0.0
5135,1283.5,50.9656,54.0893,135.642,98.7086,101.768,0.012324,0.154461,20.8493,71.4829,-0.277804,0.0,0.0
5200,1299.75,49.2031,51.7212,140.976,98.8312,101.318,0.0141503,0.14218,20.8629,71.0826,-0.226154,0.0,0.0
5265,1316,47.3186,50.027,141.48,98.9701,101.301,0.0143605,0.140427,20.8619,70.7223,-0.211793,0.0,0.0
5330,1332.25,46.6055,49.3866,139.674,99.0708,100.964,0.0143899,0.134875,20.8724,70.442,-0.172278,0.0,0.0
5395,1348.5,46.3542,47.4181,139.693,99.2325,101.974,0.0140417,0.133136,20.8749,70.0917,-0.248023,0.0,0.0
5460,1364.75,45.2803,46.5846,140.782,99.2788,102.595,0.0144025,0.136645,20.8723,69.8215,-0.298984,0.0,0.0
5525,1381,44.5995,45.9106,141.268,99.3071,102.324,0.013075,0.130925,20.8778,69.5412,-0.272389,0.0,0.0
5590,1397.25,44.2574,45.4077,137.406,99.3243,101.953,0.0125931,0.129566,20.8791,69.281,-0.237756,0.0,0.0
5655,1413.5,43.7105,44.8011,141.514,99.3267,101.134,0.0124671,0.128798,20.8819,69.0108,-0.164089,0.0,0.0
5720,1429.75,42.2717,42.8797,141.787,99.3215,102.058,0.0127992,0.128758,20.8792,68.7405,-0.247373,0.0,0.0
5785,1446,42.1572,42.3639,138.271,99.3307,101.071,0.0127037,0.126125,20.8853,68.5203,-0.158089,0.0,0.0
5850,1462.25,41.5894,42.2825,136.695,99.3462,102.112,0.0125051,0.124458,20.8865,68.3302,-0.249882,0.0,0.0
5915,1478.5,41.4852,42.4863,143.667,99.3051,101.769,0.0125623,0.123084,20.8873,68.0799,-0.223059,0.0,0.0
5980,1494.75,41.191,42.1093,141.226,99.232,102.274,0.0115647,0.122097,20.8872,67.8898,-0.274784,0.0,0.0
6045,1511,41.3224,41.7725,141.028,99.1702,100.743,0.0117005,0.120741,20.8938,67.6696,-0.14316,0.0,0.0
6110,1527.25,40.8354,41.8702,139.487,99.1179,101.096,0.0116839,0.120051,20.8926,67.4794,-0.179795,0.0,0.0
6168,1541.75,40.697,41.3801,140.423,99.0073,101.206,,,,67.3093,-0.19988,0.0,0.0