File: 01_Data/Oak_Flooring/Cone/Oak_Flooring_Cone_HF75Scan_220914_R3.csv
Names,Time,Stack TC,Smoke TC,Exh Press,Smoke Comp,Smoke Meas,CO Meter,CO2 Meter,O2 Meter,Sample Mass,Ext Coeff,Start Test,Flame Verif
Chan Gain,,500,500,1,1,1,1,1,1,1,1,1.0,1.0
Offset,,0,0,0.139139,0,0,0,0,0,0,0,0.0,0.0
Gain,,1,1,25.011,13.0826,14.7555,1,1,1,1.00088,1.03743,1.0,1.0
Units,sec,C,C,Pa,%,%,%,%,%,g,/m,,
Baseline,,67.3308,68.9847,135.809,100.205,106.796,-0.00123926,0.0473702,20.9933,-451.48,-0.579688,,
43,10.5,64.9935,67.2317,137.069,99.2356,104.575,-0.000654969,0.0516143,20.9879,204.67,-0.476931,0.0,0.0
86,21.25,76.7529,74.5509,106.391,99.7419,92.299,0.00553644,0.633646,20.2339,202.709,0.705755,0.0,0.0
129,32,93.9139,90.4422,106.148,100.156,92.7065,0.00749126,0.899056,19.9737,200.006,0.703396,0.0,0.0
172,42.75,102.989,101.478,114.171,100.197,95.7375,0.00604658,0.804707,20.1144,197.474,0.414289,0.0,0.0
215,53.5,106.563,107.366,116.803,99.813,95.8672,0.00537163,0.694867,20.2476,195.272,0.367056,0.0,0.0
258,64.25,108.001,110.522,109.444,99.4441,96.2026,0.0057088,0.627839,20.3282,193.11,0.30157,0.0,0.0
301,75,108.296,112.31,117.391,99.8333,95.9284,0.00475418,0.597729,20.364,191.308,0.363101,0.0,0.0
344,85.75,107.912,113.349,115.439,99.9739,98.0732,0.00399216,0.574967,20.3893,189.417,0.174677,0.0,0.0
387,96.5,107.573,113.333,118.355,99.7179,98.4582,0.00428982,0.556822,20.4091,187.605,0.115697,0.0,0.0
430,107.25,106.122,113.252,116.64,99.7151,98.6942,0.00402848,0.523318,20.45,185.734,0.0936588,0.0,0.0
473,118,105.481,112.602,119.445,99.7654,100.115,0.00289996,0.496251,20.4811,184.052,-0.0318164,0.0,0.0
516,128.75,104.604,111.982,122.402,99.7639,100.048,0.00283605,0.479808,20.4975,182.501,-0.0259021,0.0,0.0
559,139.5,102.593,110.633,117.659,99.7171,100.062,0.00258052,0.453924,20.528,180.899,-0.0314338,0.0,0.0
602,150.25,101.939,109.568,123.266,99.6161,100.85,0.0021307,0.444224,20.5409,179.368,-0.112004,0.0,0.0
645,161,101.564,109.022,124.718,99.8066,100.536,0.00236812,0.4414,20.5431,177.827,-0.0662985,0.0,0.0
688,171.75,101.284,108.295,116.753,99.9571,100.913,0.0024312,0.44261,20.5411,176.395,-0.0866363,0.0,0.0
731,182.5,101.142,108.285,120.473,99.9256,101.109,0.00239869,0.449415,20.5349,174.904,-0.107156,0.0,0.0
774,193.25,101.017,107.941,121.916,99.7619,100.551,0.00264871,0.440506,20.5458,173.433,-0.0716803,0.0,0.0
817,204,100.901,107.504,117.885,99.4496,100.068,0.00221618,0.442577,20.5393,171.881,-0.056411,0.0,0.0
860,214.75,101.067,107.645,125.957,99.6221,101.166,0.00221018,0.432625,20.5527,170.39,-0.139978,0.0,0.0
903,225.5,100.342,106.79,117.327,99.9918,99.8902,0.00189214,0.430438,20.5578,168.909,0.00925657,0.0,0.0
946,236.25,100.346,107.031,118.452,100.166,101.595,0.00204855,0.425879,20.5631,167.467,-0.128924,0.0,0.0
989,247,100.625,106.751,121.613,99.9723,100.899,0.00205053,0.418115,20.5719,165.996,-0.0839967,0.0,0.0
1032,257.75,99.9268,106.112,119.91,99.5215,101.027,0.00188297,0.412386,20.5786,164.565,-0.136648,0.0,0.0
1075,268.5,99.7854,105.965,122.029,99.1841,101.096,0.001928,0.404912,20.5859,163.154,-0.173753,0.0,0.0
1118,279.25,99.6343,105.128,124.373,98.9913,100.91,0.00147289,0.398927,20.5902,161.772,-0.174708,0.0,0.0
1161,290,99.3389,104.919,119.901,99.1171,99.7659,0.00191382,0.395107,20.5975,160.331,-0.0593756,0.0,0.0
1204,300.75,98.7267,104.469,121.293,99.4868,101.174,0.00184232,0.396929,20.597,158.95,-0.153038,0.0,0.0
1247,311.5,98.6607,104.092,120.164,99.9343,100.849,0.00143678,0.402008,20.5902,157.439,-0.0829002,0.0,0.0
1290,322.25,98.7955,104.368,125.463,100.231,102.47,0.00194642,0.402713,20.5901,156.017,-0.201009,0.0,0.0
1333,333,98.3672,104.014,120.941,100.407,102.646,0.00160649,0.4078,20.5824,154.566,-0.200773,0.0,0.0
1376,343.75,98.6947,104.401,120.072,100.491,102.428,0.00111802,0.399842,20.5955,153.125,-0.173718,0.0,0.0
1419,354.5,99.069,104.014,120.101,100.533,102.838,0.00143823,0.397437,20.5976,151.734,-0.2063,0.0,0.0
1462,365.25,98.9382,104.206,120.79,100.547,103.252,0.00142773,0.397495,20.5973,150.412,-0.241579,0.0,0.0
1505,376,99.085,103.978,122.09,100.556,102.809,0.00142159,0.397415,20.595,149.011,-0.201647,0.0,0.0
1548,386.75,98.9075,104.071,122.1,100.564,102.798,0.00142019,0.401774,20.5889,147.58,-0.199971,0.0,0.0
1591,397.5,99.2413,104.374,122.605,100.572,103.012,0.001197,0.404217,20.5864,146.199,-0.218201,0.0,0.0
1634,408.25,99.609,104.831,118.84,100.549,102.703,0.000945347,0.410336,20.5795,144.798,-0.192893,0.0,0.0
1677,419,100.442,104.747,126.978,100.488,103.414,0.00110615,0.416339,20.5709,143.356,-0.261172,0.0,0.0
1720,429.75,100.212,105.693,124.424,100.368,102.191,0.00148764,0.42394,20.566,141.925,-0.163757,0.0,0.0
1763,440.5,100.995,106.145,122.615,100.18,101.931,0.0015892,0.430869,20.5556,140.524,-0.157732,0.0,0.0
1806,451.25,101.489,106.688,115.192,99.888,101.278,0.00147347,0.43776,20.5464,139.062,-0.12576,0.0,0.0
1849,462,102.113,106.88,122.281,99.5175,100.299,0.00151176,0.4429,20.5415,137.591,-0.0711451,0.0,0.0
1892,472.75,102.043,107.946,120.742,99.1758,100.157,0.00199292,0.447513,20.5365,136.14,-0.0896125,0.0,0.0
1935,483.5,102.815,108.061,114.708,99.0616,100.284,0.00198845,0.452994,20.5302,134.669,-0.111627,0.0,0.0
1978,494.25,103.115,108.231,121.583,99.1997,100.226,0.00203663,0.451667,20.5308,133.237,-0.0936315,0.0,0.0
2021,505,103.576,108.915,117.167,99.561,100.105,0.00189917,0.455251,20.5254,131.756,-0.0496216,0.0,0.0
2064,515.75,103.763,109.026,120.587,99.9846,100.975,0.0016688,0.452566,20.5298,130.315,-0.0897309,0.0,0.0
2107,526.5,103.723,109.374,115.53,100.229,101.264,0.0019326,0.453799,20.5286,128.894,-0.0934188,0.0,0.0
2150,537.25,104.496,109.398,117.767,100.129,100.703,0.00193747,0.456705,20.5252,127.442,-0.05196,0.0,0.0
2193,548,104.166,109.487,117.841,99.704,100.764,0.00201138,0.460073,20.5205,125.961,-0.0962196,0.0,0.0
2236,558.75,104.325,110.418,117.733,99.6804,99.9843,0.00226581,0.47002,20.5075,124.49,-0.027699,0.0,0.0
2279,569.5,104.807,110.27,120.171,100.011,99.8042,0.00237094,0.481315,20.4956,122.978,0.0188762,0.0,0.0
2322,580.25,105.634,111.292,117.244,99.6421,98.1732,0.00219123,0.495664,20.4772,121.447,0.135155,0.0,0.0
2365,591,106.319,111.822,117.48,100.169,98.8909,0.00251545,0.512125,20.4589,119.906,0.116903,0.0,0.0
2408,601.75,107.747,113.029,112.451,100.567,99.0611,0.00311584,0.528115,20.435,118.294,0.137307,0.0,0.0
2451,612.5,107.931,113.885,116.318,100.461,97.8656,0.003295,0.54537,20.4159,116.593,0.238154,0.0,0.0
2494,623.25,109.598,114.976,111.946,99.8904,97.3928,0.0035283,0.561512,20.3978,114.871,0.230435,0.0,0.0
2537,634,110.522,116.117,112.957,99.2065,96.3868,0.00330205,0.581301,20.3749,113.06,0.2624,0.0,0.0
2580,644.75,111.714,117.292,113.824,99.0783,96.1734,0.00361133,0.596204,20.3523,111.328,0.27081,0.0,0.0
2623,655.5,112.929,118.825,118.181,99.3658,95.7645,0.00390004,0.597773,20.3514,109.627,0.335947,0.0,0.0
2666,666.25,112.797,118.767,119.71,99.7467,94.9224,0.00333466,0.593975,20.3541,107.845,0.451137,0.0,0.0
2709,677,112.452,119.037,118.829,100.031,95.9784,0.00355622,0.569672,20.3791,106.123,0.376322,0.0,0.0
2752,687.75,111.468,117.994,117.121,100.208,97.7917,0.00303206,0.526655,20.4296,104.662,0.222102,0.0,0.0
2795,698.5,109.448,116.628,118.549,100.227,99.1877,0.00222027,0.461309,20.5048,103.381,0.0948216,0.0,0.0
2838,709.25,107.393,114.18,121.826,100.233,100.174,0.00199079,0.405483,20.5714,102.18,0.00532826,0.0,0.0
2881,720,104.307,112.772,120.991,100.238,100.821,0.00135257,0.372777,20.6113,101.119,-0.0527554,0.0,0.0
2924,730.75,103.182,109.742,125.652,100.197,101.522,0.00133693,0.359919,20.6223,100.098,-0.119518,0.0,0.0
2967,741.5,101.477,107.771,124.923,100.098,100.926,0.00107953,0.340074,20.6431,99.2174,-0.0749885,0.0,0.0
3010,752.25,100.358,106.58,126.538,99.8673,101.744,0.000959154,0.323197,20.664,98.3766,-0.169394,0.0,0.0
3053,763,98.0662,104.369,124.732,99.48,101.515,0.000662645,0.297019,20.6923,97.616,-0.184268,0.0,0.0
3096,773.75,96.2859,102.454,126.112,99.1494,102.642,0.000314861,0.267237,20.7269,96.9654,-0.315043,0.0,0.0
3139,784.5,93.7962,99.7102,126.095,99.0388,103.825,0.000152558,0.237403,20.7577,96.515,-0.429519,0.0,0.0
3182,795.25,92.0218,97.4669,127.576,99.0991,104.421,-6.31124e-05,0.201116,20.8023,95.9945,-0.476011,0.0,0.0
3225,806,88.8233,94.5662,132.755,99.2608,104.359,-7.14491e-06,0.16526,20.8412,95.6642,-0.455796,0.0,0.0
3268,816.75,86.0563,91.8913,130.986,99.6624,105.687,0.000461324,0.140107,20.8724,95.424,-0.534115,0.0,0.0
3311,827.5,83.7595,89.5581,129.473,100.106,105.758,0.000620586,0.132612,20.8794,95.2439,-0.499827,0.0,0.0
3354,838.25,82.6391,87.2801,129.983,100.411,105.971,0.000331962,0.129124,20.8842,95.0837,-0.490524,0.0,0.0
3397,849,81.1062,85.679,131.19,100.538,106.604,0.000727623,0.12759,20.8862,94.8936,-0.533158,0.0,0.0
3440,859.75,80.1895,84.2261,131.014,100.526,106.302,0.000456819,0.127109,20.8883,94.8135,-0.508338,0.0,0.0
3483,870.5,79.3588,83.0043,130.954,100.374,106.051,0.00111613,0.125552,20.89,94.6734,-0.500657,0.0,0.0
3526,881.25,78.5598,81.9566,132.545,100.145,106.005,0.000768226,0.123889,20.8931,94.5232,-0.517479,0.0,0.0
3569,892,77.933,81.4604,132.349,99.8992,106.248,0.00110457,0.121507,20.8931,94.3631,-0.560745,0.0,0.0
3612,902.75,75.7041,78.6574,129.815,99.688,105.754,0.00108155,0.124601,20.8909,94.283,-0.537519,0.0,0.0
3655,913.5,74.894,77.7585,131.508,99.8705,105.28,0.00106441,0.120841,20.8947,94.1529,-0.480022,0.0,0.0
3698,924.25,74.4292,77.0102,132.785,100.017,106.37,0.00100348,0.120031,20.8978,94.0028,-0.560428,0.0,0.0
3741,935,73.8659,75.9761,137.062,100.029,106.249,0.00113571,0.120527,20.8972,93.8627,-0.548971,0.0,0.0
3784,945.75,73.7759,76.0528,135.722,99.9619,106.281,0.00128216,0.119405,20.8973,93.6925,-0.557814,0.0,0.0
3827,956.5,73.1187,75.5364,132.202,99.8876,105.929,0.00140063,0.118456,20.8985,93.6725,-0.534375,0.0,0.0
3870,967.25,72.8621,75.3495,133.758,99.8441,105.836,0.00150945,0.118193,20.8988,93.5023,-0.530407,0.0,0.0
3913,978,72.3309,75.3395,135.554,99.7698,105.996,0.00120941,0.118534,20.8988,93.3922,-0.550874,0.0,0.0
3956,988.75,72.1767,74.3008,135.244,99.666,105.699,0.00129334,0.118657,20.9012,93.3022,-0.534795,0.0,0.0
3999,999.5,71.9898,74.4593,134.3,99.5858,105.966,0.00174073,0.117864,20.9011,93.2321,-0.565087,0.0,0.0
4042,1010.25,72.1685,74.1451,128.941,99.6381,106.01,,0.118418,,93.112,-0.564137,0.0,0.0
4075,1018.5,71.8531,74.0394,133.148,99.7195,105.997,,,,93.0219,-0.555541,0.0,0.0