File: 01_Data/Oak_Flooring/Cone/Oak_Flooring_Cone_HF75Scalar_220914_R1.csv
LABORATORY,FSRI
TEST IDENT,Oak_Flooring_HF75_1
OPERATOR,Dow
MATERIAL,Oak flooring
ORIENTATION,Horizontal
HEAT FLUX,75
SURF AREA,0.01
C FACTOR,0.0421844
SPEC HOLDER DIFF,-566
SPECIMEN MASS,130.83
SCAN TIME,0.25
O2 DELAY TIME,11
CO DELAY TIME,11
CO2 DELAY TIME,8
FLOW FACTOR,1
SCAN COUNT,4204
TIME TO IGN,10.75
END OF TEST SCAN,3724
END OF TEST TIME,931
TEST STATUS,1
PRE TEST CMT,Dimensions: 101.21 x 101.06 x 18.70 mm; with tie wires; joint between boards centered on sample