File: 01_Data/Oak_Flooring/Cone/Oak_Flooring_Cone_HF75Scan_220914_R1.csv
Names,Time,Stack TC,Smoke TC,Exh Press,Smoke Comp,Smoke Meas,CO Meter,CO2 Meter,O2 Meter,Sample Mass,Ext Coeff,Start Test,Flame Verif
Chan Gain,,500,500,1,1,1,1,1,1,1,1,1.0,1.0
Offset,,0,0,0.139139,0,0,0,0,0,0,0,0.0,0.0
Gain,,1,1,25.011,13.0826,14.7555,1,1,1,1.00088,1.03743,1.0,1.0
Units,sec,C,C,Pa,%,%,%,%,%,g,/m,,
Baseline,,61.1305,63.0982,137.777,99.6041,105.756,-0.00086291,0.0493339,20.9907,-451.294,-0.545403,,
44,10.75,60.3631,62.2986,141.352,99.7064,103.867,-0.000101022,0.0641789,20.9708,206.031,-0.372017,0.0,1.0
88,21.75,76.1014,72.7967,105.383,99.8269,88.9829,0.00553256,0.728923,20.0819,203.659,1.04647,0.0,0.0
132,32.75,91.934,88.227,112.287,99.9395,93.1991,0.00680407,0.861124,20.0339,200.897,0.635447,0.0,0.0
176,43.75,99.6224,97.9842,111.643,99.9775,95.7807,0.00626443,0.780267,20.1546,198.335,0.390253,0.0,0.0
220,54.75,102.543,103.388,124.385,99.8904,96.9353,0.00552768,0.694112,20.2679,196.013,0.273285,0.0,0.0
264,65.75,104.019,106.98,116.44,99.6804,97.8345,0.00501903,0.633913,20.3323,193.901,0.170099,0.0,0.0
308,76.75,103.732,108.585,118.502,99.3973,98.1344,0.00409131,0.584183,20.3903,191.849,0.116366,0.0,0.0
352,87.75,101.897,109.466,117.27,99.3438,98.664,0.00408823,0.55227,20.4238,189.857,0.062492,0.0,0.0
396,98.75,103.47,110.214,116.369,99.7028,99.4691,0.00368939,0.535378,20.44,187.925,0.0213506,0.0,0.0
440,109.75,101.431,110.164,114.262,99.9192,99.1769,0.00351066,0.521691,20.4541,186.054,0.067857,0.0,0.0
484,120.75,101.416,110.258,116.949,99.7123,99.4025,0.00323826,0.517206,20.4575,184.212,0.0283244,0.0,0.0
528,131.75,102.853,110.635,118.797,99.7183,99.9514,0.00330213,0.509394,20.4684,182.381,-0.0212443,0.0,0.0
572,142.75,102.816,110.504,118.671,100.141,100.825,0.00266376,0.495513,20.4849,180.659,-0.0619737,0.0,0.0
616,153.75,102.653,110.383,116.827,100.418,100.798,0.00255698,0.484912,20.4954,178.868,-0.0344257,0.0,0.0
660,164.75,102.046,109.997,120.428,100.332,100.906,0.00243179,0.471589,20.5101,177.136,-0.0519557,0.0,0.0
704,175.75,101.955,109.398,121.741,99.9691,101.691,0.00216382,0.462885,20.5227,175.515,-0.155448,0.0,0.0
748,186.75,101.01,108.514,121.677,99.5283,101.214,0.00215019,0.450799,20.5347,173.793,-0.152805,0.0,0.0
792,197.75,100.496,107.894,120.12,99.4405,101.214,0.00192714,0.447876,20.538,172.192,-0.160839,0.0,0.0
836,208.75,100.221,107.392,121.726,99.242,100.925,0.00203782,0.447069,20.5395,170.6,-0.153067,0.0,0.0
880,219.75,100.263,107.29,118.563,99.1187,100.49,0.00174832,0.440625,20.5476,168.939,-0.125038,0.0,0.0
924,230.75,99.5024,106.783,121.431,99.1027,100.851,0.00136141,0.441895,20.5432,167.327,-0.159152,0.0,0.0
968,241.75,100.282,106.592,117.155,99.1394,99.6317,0.00176413,0.440624,20.5488,165.676,-0.0450737,0.0,0.0
1012,252.75,100.056,106.642,125.768,99.2408,101.171,0.00154259,0.436621,20.5527,164.105,-0.17532,0.0,0.0
1056,263.75,100.081,106.344,118.032,99.4325,100.82,0.00151733,0.431744,20.5568,162.503,-0.126156,0.0,0.0
1100,274.75,99.4588,105.88,116.827,99.6181,101.096,0.00174678,0.434456,20.5561,160.922,-0.133981,0.0,0.0
1144,285.75,99.6351,105.613,120.171,99.8764,102.127,0.00156151,0.431715,20.555,159.38,-0.202808,0.0,0.0
1188,296.75,99.5182,105.7,118.827,100.109,101.868,0.0018515,0.434313,20.5553,157.819,-0.15856,0.0,0.0
1232,307.75,99.684,105.327,127.884,100.224,101.93,0.00194662,0.433581,20.5577,156.228,-0.153546,0.0,0.0
1276,318.75,99.519,105.407,120.451,100.289,101.381,0.00211034,0.433077,20.5542,154.626,-0.0985755,0.0,0.0
1320,329.75,99.5301,106.049,119.615,100.349,101.448,0.00181853,0.43657,20.5518,153.115,-0.0991227,0.0,0.0
1364,340.75,99.9051,105.431,117.712,100.371,101.146,0.00191117,0.440117,20.5474,151.463,-0.0700316,0.0,0.0
1408,351.75,100.4,105.984,121.728,100.318,102.029,0.0015212,0.439095,20.5499,149.852,-0.153908,0.0,0.0
1452,362.75,100.141,105.977,118.636,100.258,101.587,0.00186205,0.448545,20.5379,148.361,-0.119895,0.0,0.0
1496,373.75,100.301,106.169,118.081,100.102,101.731,0.00183044,0.450608,20.5358,146.759,-0.146903,0.0,0.0
1540,384.75,100.526,106.192,118.748,99.9966,100.431,0.0022791,0.453877,20.5304,145.208,-0.0394434,0.0,0.0
1584,395.75,101.163,106.454,119.71,99.9487,100.843,0.00196299,0.471316,20.5104,143.496,-0.0810634,0.0,0.0
1628,406.75,101.278,106.967,120.004,99.9611,100.184,0.00209642,0.478823,20.5002,141.865,-0.0202494,0.0,0.0
1672,417.75,102.527,107.891,117.701,100.023,100.316,0.00235939,0.493954,20.4845,140.183,-0.0265576,0.0,0.0
1716,428.75,103.561,108.593,119.365,100.065,101.265,0.00210306,0.504227,20.472,138.572,-0.108528,0.0,0.0
1760,439.75,103.79,109.497,115.96,100.11,100.5,0.00273828,0.514112,20.4604,136.871,-0.0353715,0.0,0.0
1804,450.75,104.654,109.968,118.813,100.164,100.56,0.00248915,0.522032,20.4515,135.109,-0.0358943,0.0,0.0
1848,461.75,105.854,110.805,118.634,100.226,100.343,0.00238258,0.532633,20.4384,133.347,-0.0106154,0.0,0.0
1892,472.75,106.781,112.254,117.133,100.278,99.7879,0.00243491,0.538287,20.4315,131.616,0.044627,0.0,0.0
1936,483.75,107.404,113.144,115.682,100.346,99.6542,0.0027604,0.542706,20.4269,129.834,0.0629886,0.0,0.0
1980,494.75,108.012,114.014,116.669,100.418,100.202,0.00238862,0.546343,20.4235,128.093,0.0196372,0.0,0.0
2024,505.75,109.329,114.66,116.081,100.432,98.958,0.00243877,0.562523,20.4033,126.351,0.134531,0.0,0.0
2068,516.75,109.407,115.457,115.154,100.357,98.6383,0.00284976,0.570303,20.389,124.49,0.157176,0.0,0.0
2112,527.75,110.404,116.44,117.338,100.145,98.5978,0.00306312,0.577733,20.3802,122.648,0.141706,0.0,0.0
2156,538.75,111.44,117.441,113.708,99.7894,96.5566,0.00307214,0.591607,20.3637,120.746,0.2997,0.0,0.0
2200,549.75,112.324,118.42,115.031,99.3458,95.135,0.00352768,0.596535,20.3572,118.895,0.394139,0.0,0.0
2244,560.75,111.809,118.512,117.763,98.9274,96.2242,0.00284608,0.546061,20.4216,117.243,0.252125,0.0,0.0
2288,571.75,108.61,116.085,119.772,98.8236,100.841,0.0017728,0.427898,20.5572,115.952,-0.183879,0.0,0.0
2332,582.75,105.402,112.49,119.553,99.1219,102.749,0.00107542,0.350789,20.6474,114.891,-0.327029,0.0,0.0
2376,593.75,102.21,109.703,123.103,99.5127,102.995,0.000871378,0.331466,20.6652,113.94,-0.313003,0.0,0.0
2420,604.75,100.271,107.709,124.219,99.9212,103.635,0.000660499,0.326225,20.6696,113.01,-0.332092,0.0,0.0
2464,615.75,98.527,105.646,125.905,99.999,103.374,0.000957449,0.324803,20.6708,112.049,-0.302082,0.0,0.0
2508,626.75,97.3809,103.757,123.812,99.7,103.004,0.0007919,0.32431,20.6708,111.108,-0.296691,0.0,0.0
2552,637.75,96.5361,102.522,125.32,99.2552,102.327,0.00041733,0.32599,20.6664,110.177,-0.277387,0.0,0.0
2596,648.75,95.8312,101.96,117.091,99.7395,102.855,0.000841153,0.329866,20.6625,109.286,-0.279906,0.0,0.0
2640,659.75,95.6203,101.17,120.499,99.8537,102.58,0.0011453,0.331154,20.6624,108.395,-0.245159,0.0,0.0
2684,670.75,95.1771,100.468,123.433,99.7299,102.627,0.00102922,0.331867,20.6607,107.465,-0.260559,0.0,0.0
2728,681.75,95.2042,100.095,122.634,100.137,102.789,0.00127019,0.333782,20.6576,106.594,-0.237915,0.0,0.0
2772,692.75,94.6991,99.5545,119.973,100.436,102.707,0.00121772,0.327356,20.6676,105.633,-0.203484,0.0,0.0
2816,703.75,93.9627,98.3165,125.107,100.38,102.675,0.00115202,0.3166,20.681,104.712,-0.205712,0.0,0.0
2860,714.75,93.8526,98.1462,126.276,100.135,102.624,0.000979217,0.308109,20.6889,104.032,-0.223493,0.0,0.0
2904,725.75,92.6513,97.0241,127.983,99.8397,102.282,0.000914651,0.291559,20.7079,103.131,-0.219908,0.0,0.0
2948,736.75,91.7556,96.3925,126.85,99.5151,102.534,0.000685795,0.274457,20.7277,102.6,-0.271951,0.0,0.0
2992,747.75,90.3651,95.1065,128.954,99.3838,103.046,0.000584786,0.247911,20.7596,101.94,-0.329299,0.0,0.0
3036,758.75,88.8851,93.5466,128.105,99.3099,104.262,0.000608937,0.218132,20.7925,101.419,-0.442809,0.0,0.0
3080,769.75,86.5469,91.9199,133.138,99.3406,104.542,0.000271148,0.187163,20.8273,100.969,-0.464446,0.0,0.0
3124,780.75,84.7008,89.0869,133.09,99.4257,105.184,0.000512926,0.157251,20.8595,100.729,-0.512346,0.0,0.0
3168,791.75,82.4961,87.51,130.306,99.6437,105.55,0.000493503,0.136304,20.8839,100.509,-0.524073,0.0,0.0
3212,802.75,80.8811,84.9167,128.644,99.922,105.318,0.000765437,0.128271,20.8916,100.338,-0.478639,0.0,0.0
3256,813.75,79.202,83.2725,131.901,100.18,105.663,0.000914881,0.126641,20.8914,100.208,-0.4849,0.0,0.0
3300,824.75,78.3534,82.2814,132.376,100.358,106.216,0.00112987,0.127639,20.8907,100.078,-0.516278,0.0,0.0
3344,835.75,76.9951,80.0942,135.404,100.399,106.206,0.00122404,0.122932,20.8974,99.948,-0.511623,0.0,0.0
3388,846.75,76.3729,79.598,127.864,100.2,106.268,0.00106789,0.121609,20.898,99.7278,-0.535061,0.0,0.0
3432,857.75,75.9877,78.847,133.672,99.8892,105.466,0.00130132,0.122736,20.8967,99.6878,-0.494413,0.0,0.0
3476,868.75,75.0938,77.7173,133.203,99.6185,105.422,0.00132068,0.120846,20.9007,99.5276,-0.515299,0.0,0.0
3520,879.75,74.4317,77.3243,131.046,99.7303,105.621,0.00131687,0.119195,20.901,99.4476,-0.522219,0.0,0.0
3564,890.75,74.4333,76.8676,132.025,99.9064,105.631,0.00177958,0.119425,20.9019,99.3375,-0.507059,0.0,0.0
3608,901.75,74.0955,76.6378,131.536,99.916,106.041,0.00205437,0.120582,20.9009,99.1873,-0.541459,0.0,0.0
3652,912.75,73.1763,76.2537,133.357,99.9024,105.695,0.00204116,0.120457,20.8999,99.0172,-0.512891,0.0,0.0
3696,923.75,72.7758,76.2401,133.281,99.8972,106.112,0.00220761,0.118424,20.907,98.9171,-0.549234,0.0,0.0
3740,934.75,71.2656,73.4029,131.141,99.9072,106.067,0.00194954,0.116774,20.907,98.767,-0.5445,0.0,0.0
3784,945.75,71.1559,74.0163,131.985,99.918,106.067,0.0020613,0.117219,20.9051,98.757,-0.54348,0.0,0.0
3828,956.75,70.8952,73.228,132.731,99.9459,105.896,0.00223239,0.117342,20.9073,98.6569,-0.526242,0.0,0.0
3872,967.75,71.2599,73.6451,135.53,99.9591,105.586,0.0027209,0.116689,20.9089,98.5268,-0.498418,0.0,0.0
3916,978.75,70.9375,73.4413,133.225,99.9391,106.215,0.00236982,0.117236,20.9065,98.3466,-0.554216,0.0,0.0
3960,989.75,70.4176,72.3171,133.861,99.8549,105.559,0.00264575,0.116833,20.9086,98.2465,-0.505542,0.0,0.0
4004,1000.75,70.6216,72.4189,133.089,99.6349,105.589,0.00278072,0.116815,20.9102,98.1665,-0.528213,0.0,0.0
4048,1011.75,70.1838,72.2179,134.783,99.6864,105.466,0.00322471,0.117483,20.908,98.0263,-0.512909,0.0,0.0
4092,1022.75,70.5604,72.6354,134.923,99.9259,105.886,0.00325215,0.117382,20.907,97.9663,-0.527208,0.0,0.0
4136,1033.75,70.4012,71.9256,133.856,100.192,106.226,0.00332308,0.118398,20.9067,97.8862,-0.532235,0.0,0.0
4180,1044.75,70.4914,72.4409,130.415,100.406,106.299,,,,97.7761,-0.519028,0.0,0.0
4204,1050.75,70.7198,72.5643,134.675,100.471,106.738,,,,97.676,-0.550641,0.0,0.0