File: 01_Data/Oak_Flooring/Cone/Oak_Flooring_Cone_HF50Scan_220914_R2.csv
Names,Time,Stack TC,Smoke TC,Exh Press,Smoke Comp,Smoke Meas,CO Meter,CO2 Meter,O2 Meter,Sample Mass,Ext Coeff,Start Test,Flame Verif
Chan Gain,,500,500,1,1,1,1,1,1,1,1,1.0,1.0
Offset,,0,0,0.139139,0,0,0,0,0,0,0,0.0,0.0
Gain,,1,1,25.011,13.0826,14.7555,1,1,1,1.00088,1.03743,1.0,1.0
Units,sec,C,C,Pa,%,%,%,%,%,g,/m,,
Baseline,,50.9733,52.2691,140.137,99.6411,103.2,-0.000583954,0.0487682,20.9976,-446.795,-0.319331,,
52,12.75,49.5418,50.8367,138.064,100.322,104,-0.000637096,0.0499934,20.9967,221.815,-0.327594,0.0,0.0
104,25.75,49.3988,51.0167,139.936,100.369,102.221,-0.000302565,0.0511598,20.9949,221.625,-0.166447,0.0,0.0
156,38.75,53.3196,52.3694,123.128,100.047,99.4894,0.00289263,0.343868,20.6202,220.464,0.0508193,0.0,1.0
208,51.75,70.9017,66.8111,119.623,99.5223,96.2319,0.00567599,0.65588,20.2712,217.952,0.30596,0.0,0.0
260,64.75,79.2591,76.7579,119.231,99.248,96.426,0.00493843,0.595136,20.3675,215.43,0.262511,0.0,0.0
312,77.75,82.204,81.6327,118.172,99.0668,98.7554,0.00416493,0.51711,20.4717,213.288,0.0286478,0.0,0.0
364,90.75,82.2779,84.1261,120.644,99.0608,99.6051,0.00334623,0.465854,20.53125,211.186,-0.0498693,0.0,0.0
416,103.75,82.4426,85.3225,125.504,99.1334,100.032,0.00364263,0.434128,20.5661,209.434,-0.0820748,0.0,0.0
468,116.75,82.2425,85.9311,127.002,99.2923,100.43,0.00306386,0.410601,20.5956,207.583,-0.103641,0.0,0.0
520,129.75,80.9652,85.5369,126.18,99.5211,101.201,0.00279483,0.392397,20.6155,205.851,-0.152368,0.0,0.0
572,142.75,80.7748,85.4832,127.314,99.894,101.726,0.00240385,0.383872,20.6244,204.05,-0.165426,0.0,0.0
624,155.75,80.0532,85.1,129.419,100.239,101.875,0.00215622,0.375273,20.6325,202.398,-0.147339,0.0,0.0
676,168.75,80.2883,84.5614,125.844,100.314,102.921,0.00241939,0.364647,20.6456,200.897,-0.233489,0.0,0.0
728,181.75,78.8098,84.3972,128.68,100.088,102.638,0.00243109,0.352658,20.6613,199.255,-0.228937,0.0,0.0
780,194.75,77.8435,83.8743,123.072,99.7818,102.203,0.00240159,0.341792,20.6719,197.764,-0.218212,0.0,0.0
832,207.75,77.6287,82.65,126.655,99.5754,102.873,0.0019453,0.335141,20.6804,196.143,-0.296524,0.0,0.0
884,220.75,76.6955,82.0166,124.838,99.4976,102.796,0.00183993,0.322507,20.692,194.621,-0.296749,0.0,0.0
936,233.75,76.0079,81.7166,128.864,99.4932,102.767,0.00195022,0.315189,20.7026,193.24,-0.294598,0.0,0.0
988,246.75,76.0269,81.1892,125.306,99.494,103.109,0.00151681,0.304911,20.7126,191.869,-0.324781,0.0,0.0
1040,259.75,75.7488,80.4298,128.429,99.488,102.622,0.00138272,0.298604,20.7186,190.508,-0.282225,0.0,0.0
1092,272.75,74.9108,79.4891,126.21,99.5075,103.774,0.00180125,0.292153,20.7255,189.107,-0.382051,0.0,0.0
1144,285.75,74.6329,79.2574,126.626,99.5307,103.141,0.00205384,0.289655,20.7293,187.705,-0.324242,0.0,0.0
1196,298.75,74.4487,78.4016,125.649,99.6081,103.353,0.00154287,0.289777,20.7317,186.324,-0.335858,0.0,0.0
1248,311.75,74.4905,78.1963,126.964,99.7842,103.543,0.00158289,0.29088,20.7287,184.963,-0.336542,0.0,0.0
1300,324.75,74.3474,78.1726,131.111,99.981,103.299,0.00176816,0.29225,20.7293,183.652,-0.297133,0.0,0.0
1352,337.75,74.2845,77.9449,128.063,100.23,103.778,0.00172208,0.287227,20.7346,182.361,-0.316554,0.0,0.0
1404,350.75,74.1553,78.1941,128.152,100.355,104.308,0.00175024,0.286583,20.7367,180.989,-0.351537,0.0,0.0
1456,363.75,73.8225,77.3661,128.761,100.312,104.804,0.00150023,0.288748,20.7313,179.578,-0.398639,0.0,0.0
1508,376.75,74.6213,77.7621,134.351,100.073,103.333,0.00182244,0.286934,20.7308,178.237,-0.291678,0.0,0.0
1560,389.75,74.4576,78.1193,127.176,99.6105,103.166,0.00187044,0.287729,20.7328,176.886,-0.319129,0.0,0.0
1612,402.75,74.2531,77.6489,130.966,99.1043,103.317,0.00152019,0.290338,20.7321,175.595,-0.378835,0.0,0.0
1664,415.75,74.1701,77.2086,130.137,98.7066,102.773,0.00171906,0.291662,20.7267,174.253,-0.367382,0.0,0.0
1716,428.75,74.568,77.6942,129.205,98.6428,102.861,0.00168084,0.296886,20.7198,172.892,-0.381085,0.0,0.0
1768,441.75,75.1814,78.1479,124.905,98.965,102.849,0.00144826,0.301094,20.7143,171.421,-0.350295,0.0,0.0
1820,454.75,74.8133,78.6112,129.25,99.4824,103.792,0.00140934,0.305809,20.7114,170.04,-0.38597,0.0,0.0
1872,467.75,75.3665,78.3637,128.082,99.817,102.795,0.0016086,0.310687,20.7092,168.719,-0.267542,0.0,0.0
1924,480.75,75.5193,78.8177,129.391,99.6505,102.622,0.00123757,0.318084,20.7011,167.287,-0.267373,0.0,0.0
1976,493.75,76.4451,79.4497,130.671,99.2129,102.745,0.00159202,0.326267,20.6924,165.876,-0.318316,0.0,0.0
2028,506.75,77.4519,79.8926,127.716,99.2325,102.995,0.00138134,0.333638,20.6829,164.385,-0.33867,0.0,0.0
2080,519.75,77.8291,80.4531,126.997,99.5099,102.89,0.00142109,0.341771,20.6726,162.883,-0.303944,0.0,0.0
2132,532.75,77.8797,81.1134,129.587,99.6357,102.098,0.00147447,0.3495,20.6633,161.332,-0.222162,0.0,0.0
2184,545.75,78.1801,81.5443,126.842,99.5898,102.216,0.00167575,0.355745,20.6543,159.841,-0.236826,0.0,0.0
2236,558.75,78.9731,82.1043,125.722,99.4109,103.191,0.00180923,0.371161,20.6369,158.279,-0.339609,0.0,0.0
2288,571.75,80.1799,83.1513,126.498,99.141,102.028,0.00159887,0.380046,20.6268,156.668,-0.261192,0.0,0.0
2340,584.75,81.0744,83.7324,122.491,99.1055,102.103,0.00161307,0.391177,20.6133,154.976,-0.271159,0.0,0.0
2392,597.75,81.8876,85.0925,124.983,99.3906,101.439,0.00202645,0.406641,20.5999,153.335,-0.185669,0.0,0.0
2444,610.75,82.5316,86.0002,121.102,99.6748,101.858,0.00228369,0.417308,20.5852,151.573,-0.197211,0.0,0.0
2496,623.75,83.5517,86.8405,121.767,99.7551,101.882,0.00229839,0.434406,20.5652,149.862,-0.191979,0.0,0.0
2548,636.75,84.7945,87.8566,123.069,99.7147,101.824,0.00249671,0.44868,20.553,148.03,-0.190469,0.0,0.0
2600,649.75,85.2968,88.5772,120.527,99.6592,101.478,0.0024261,0.460205,20.5355,146.129,-0.164614,0.0,0.0
2652,662.75,87.1085,90.8486,126.043,99.6648,101.388,0.00290842,0.486117,20.5074,144.147,-0.156023,0.0,0.0
2704,675.75,88.1833,91.659,118.637,99.7127,100.181,0.00350745,0.495391,20.4972,142.125,-0.0426401,0.0,0.0
2756,688.75,89.3576,93.295,122.84,99.7587,100.341,0.00321021,0.512457,20.4769,140.163,-0.0530015,0.0,0.0
2808,701.75,90.6126,94.6671,126.058,99.7786,100.44,0.00357373,0.51837,20.4654,138.112,-0.0601198,0.0,0.0
2860,714.75,91.6045,95.5388,123.441,99.7826,100.2,0.00398804,0.539074,20.4407,135.99,-0.0380243,0.0,0.0
2912,727.75,93.016,97.0415,122.022,99.6952,99.0562,0.00382576,0.547604,20.432,133.708,0.0585154,0.0,0.0
2964,740.75,93.591,97.9994,121.114,99.575,97.7332,0.00405284,0.554656,20.4204,131.576,0.169901,0.0,0.0
3016,753.75,94.3142,99.3405,117.744,99.4473,98.7635,0.00366411,0.555591,20.418,129.424,0.062785,0.0,0.0
3068,766.75,94.4332,99.4347,119.302,99.2712,98.2096,0.00384131,0.551872,20.418,127.352,0.0978368,0.0,0.0
3120,779.75,94.7907,100.096,115.566,99.1622,97.3887,0.00414924,0.544522,20.4265,125.29,0.164227,0.0,0.0
3172,792.75,95.0565,100.289,123.244,99.2472,97.749,0.00381184,0.529579,20.4461,123.269,0.138427,0.0,0.0
3224,805.75,93.9426,99.3017,122.215,99.5503,98.2177,0.0039426,0.503296,20.4685,121.277,0.122633,0.0,0.0
3276,818.75,93.2244,98.8415,126.145,99.8349,98.2907,0.00342236,0.476815,20.498,119.485,0.141863,0.0,0.0
3328,831.75,91.6141,98.3732,126.392,99.8353,101.392,0.00308644,0.424866,20.5574,117.964,-0.140794,0.0,0.0
3380,844.75,90.0372,95.806,125.917,99.5251,100.838,0.00221268,0.383307,20.6065,116.643,-0.119226,0.0,0.0
3432,857.75,87.3251,93.8966,123.406,99.9759,101.829,0.00175586,0.337139,20.6604,115.452,-0.167113,0.0,0.0
3484,870.75,84.7265,90.3201,129.024,100.298,103.767,0.00166512,0.291289,20.7073,114.461,-0.309449,0.0,0.0
3536,883.75,81.6026,87.3623,131.486,100.288,103.456,0.00131768,0.262076,20.7417,113.57,-0.283062,0.0,0.0
3588,896.75,79.2105,84.8756,137.028,99.9024,103.489,0.00167205,0.239381,20.7665,112.819,-0.32102,0.0,0.0
3640,909.75,76.6091,82.6726,133.651,99.2931,103.605,0.00140645,0.215857,20.793,112.229,-0.386859,0.0,0.0
3692,922.75,74.5388,79.7504,132.887,98.8013,103.431,0.00147025,0.192991,20.8183,111.738,-0.416732,0.0,0.0
3744,935.75,72.6972,77.4631,132.51,98.6312,103.006,0.00153119,0.175864,20.8362,111.308,-0.394974,0.0,0.0
3796,948.75,70.715,75.147,130.046,98.7653,103.347,0.00227256,0.158304,20.8573,110.928,-0.412631,0.0,0.0
3848,961.75,68.6402,73.2161,134.654,99.0692,103.698,0.0024965,0.141003,20.8771,110.577,-0.415594,0.0,0.0
3900,974.75,67.096,70.5842,135.283,99.3906,104.517,0.00244916,0.128079,20.8931,110.347,-0.45768,0.0,0.0
3952,987.75,65.5466,69.0412,135.702,99.5275,104.117,0.00266079,0.124313,20.899,110.247,-0.410227,0.0,0.0
4004,1000.75,64.4757,67.5782,132.349,99.5335,104.34,0.00298723,0.12081,20.9024,110.047,-0.429181,0.0,0.0
4056,1013.75,62.9113,65.6368,136.858,99.4956,103.664,0.00331378,0.120406,20.9028,109.907,-0.373506,0.0,0.0
4108,1026.75,62.6616,64.7533,138.414,99.3957,103.917,0.00323978,0.118466,20.9049,109.707,-0.40479,0.0,0.0
4160,1039.75,61.5306,63.8452,135.757,99.2516,104.256,0.00349231,0.116912,20.9099,109.436,-0.447641,0.0,0.0
4212,1052.75,60.8176,62.9182,137.086,98.9869,103.502,0.00357215,0.117206,20.9091,109.246,-0.405906,0.0,0.0
4264,1065.75,60.8615,62.5969,131.349,98.6931,103.993,0.00373344,0.116619,20.9108,109.166,-0.476015,0.0,0.0
4316,1078.75,60.4623,62.0335,136.715,98.5833,103.154,0.00368874,0.114356,20.912,109.036,-0.412475,0.0,0.0
4368,1091.75,59.8864,61.2947,135.586,98.7442,103.732,0.0037769,0.114596,20.9113,108.866,-0.448459,0.0,0.0
4420,1104.75,59.6997,61.3476,136.647,99.0484,103.283,0.00383283,0.115066,20.9111,108.676,-0.380954,0.0,0.0
4472,1117.75,59.2785,59.9736,136.847,99.2332,103.587,0.00409942,0.114038,20.9116,108.476,-0.390729,0.0,0.0
4524,1130.75,57.0861,58.7949,135.296,99.2568,104.19,0.00347876,0.113803,20.9128,108.325,-0.441425,0.0,0.0
4576,1143.75,56.6968,58.0222,137.721,99.1526,104.141,0.00372221,0.110985,20.9176,108.225,-0.446735,0.0,0.0
4628,1156.75,56.1066,57.7126,135.993,98.9881,103.421,0.00439336,0.110754,20.9171,108.125,-0.398627,0.0,0.0
4680,1169.75,56.0139,57.367,135.593,98.8316,103.441,0.00442816,0.111777,20.9158,107.955,-0.414849,0.0,0.0
4732,1182.75,56.3156,57.372,137.232,98.7673,103.101,0.0041969,0.111954,20.9166,107.755,-0.390771,0.0,0.0
4784,1195.75,56.0738,57.6635,137.569,98.7338,103.462,0.00442758,0.11099,20.9178,107.635,-0.425643,0.0,0.0
4836,1208.75,56.1181,57.1642,139.897,98.6995,102.893,0.00466292,0.111789,20.9156,107.495,-0.378685,0.0,0.0
4888,1221.75,55.6015,56.6778,139.268,98.6695,103.123,0.0046182,0.111518,20.9167,107.445,-0.401735,0.0,0.0
4940,1234.75,55.4924,56.9384,136.281,98.6312,102.8,,0.110298,,107.325,-0.376735,0.0,0.0
4977,1244,55.3184,56.8883,136.948,98.5988,102.7,,,,107.114,-0.370826,0.0,0.0