File: 01_Data/Oak_Flooring/Cone/Oak_Flooring_Cone_HF25Scan_220913_R2.csv
Names,Time,Stack TC,Smoke TC,Exh Press,Smoke Comp,Smoke Meas,CO Meter,CO2 Meter,O2 Meter,Sample Mass,Ext Coeff,Start Test,Flame Verif
Chan Gain,,500,500,1,1,1,1,1,1,1,1,1.0,1.0
Offset,,0,0,0.139139,0,0,0,0,0,0,0,0.0,0.0
Gain,,1,1,25.011,13.0826,14.7555,1,1,1,1.00088,1.03743,1.0,1.0
Units,sec,C,C,Pa,%,%,%,%,%,g,/m,,
Baseline,,33.3674,33.4927,154.127,99.8793,103.664,0.000490619,0.0495769,20.996,-445.993,-0.338471,,
79,19.5,32.4886,32.8328,154.999,100.436,104.73,0.000610981,0.0526191,20.9978,234.587,-0.380928,0.0,0.0
158,39.25,32.6199,33.0449,153.772,100.299,104.654,0.000607577,0.0498731,21.0016,234.547,-0.386768,0.0,0.0
237,59,33.1293,33.2511,148.932,100.214,104.222,0.000239019,0.0488004,21.0007,234.426,-0.356858,0.0,0.0
316,78.75,33.0509,32.958,154.947,100.207,104.282,0.0003748,0.0485542,20.9997,234.336,-0.362742,0.0,0.0
395,98.5,33.2778,33.5275,155.269,100.231,103.928,0.000397676,0.0489223,21.0034,234.066,-0.3297,0.0,0.0
474,118.25,33.5244,33.7573,154.058,100.284,103.898,0.000945274,0.0493555,21.0036,233.976,-0.322165,0.0,0.0
553,138,33.6029,34.1113,152.272,100.424,103.203,0.000840023,0.0501068,21.0033,233.686,-0.248353,0.0,0.0
632,157.75,33.9222,33.8553,153.32,100.453,103.165,0.00112127,0.0512316,21.0009,233.366,-0.242447,0.0,0.0
711,177.5,33.6467,34.3438,154.07,100.1,102.541,0.00191868,0.0528476,21.0012,232.915,-0.219256,0.0,0.0
790,197.25,34.2289,34.7538,153.041,99.6085,100.915,0.00200207,0.0544027,21,232.445,-0.118587,0.0,0.0
869,217,34.3368,34.9515,148.513,100.059,101.403,0.00292412,0.0562391,20.9953,231.864,-0.121447,0.0,0.0
948,236.75,45.6255,41.2929,136.555,99.7854,102.264,0.00369528,0.301947,20.5302,229.342,-0.223296,0.0,0.0
1027,256.5,55.2663,52.2545,141.061,99.2919,101.643,0.00382703,0.389172,20.5967,226.61,-0.212985,0.0,0.0
1106,276.25,56.4601,56.4467,138.877,99.2472,101.232,0.00310806,0.364986,20.6634,224.137,-0.1802,0.0,0.0
1185,296,56.1108,57.4645,142.971,99.244,102.61,0.00274616,0.323327,20.7269,221.975,-0.303527,0.0,0.0
1264,315.75,54.5633,57.0857,143.598,99.3375,103.637,0.00243693,0.288964,20.7576,220.014,-0.385606,0.0,0.0
1343,335.5,52.6873,55.9768,141.279,99.5179,103.815,0.00211376,0.263079,20.7829,218.252,-0.384655,0.0,0.0
1422,355.25,51.6013,55.3475,140.041,99.7587,103.974,0.00242609,0.244287,20.8016,216.531,-0.37667,0.0,0.0
1501,375,50.3581,53.8413,142.905,100.062,104.207,0.00251778,0.227938,20.8175,214.909,-0.369421,0.0,0.0
1580,394.75,49.893,52.8666,144.985,100.08,104.091,0.00250166,0.214302,20.83,213.378,-0.35756,0.0,0.0
1659,414.5,48.6186,51.3371,145.143,99.6353,103.907,0.00302725,0.201782,20.8461,211.827,-0.382056,0.0,0.0
1738,434.25,48.0075,51.1556,147.735,99.9775,103.975,0.00262337,0.190997,20.8541,210.415,-0.356772,0.0,0.0
1817,454,46.9066,49.7058,143.706,100.373,105.094,0.00341212,0.181677,20.8635,209.014,-0.418284,0.0,0.0
1896,473.75,46.2003,48.7043,146.355,100.49,105.33,0.0036593,0.174856,20.8695,207.663,-0.428057,0.0,0.0
1975,493.5,46.5517,47.9159,146.572,100.298,104.793,0.00362266,0.169977,20.8747,206.302,-0.398932,0.0,0.0
2054,513.25,45.8542,47.5678,147.647,99.7539,104.311,0.00356502,0.167944,20.8745,205.011,-0.406539,0.0,0.0
2133,533,45.8126,46.9794,145.769,99.034,104.171,0.00378962,0.166391,20.8783,203.699,-0.460221,0.0,0.0
2212,552.75,45.5613,47.0065,147.363,98.6691,103.99,0.00406532,0.16414,20.8794,202.408,-0.477949,0.0,0.0
2291,572.5,45.6204,46.6011,149.648,98.8815,103.658,0.00414293,0.163764,20.8788,201.087,-0.42929,0.0,0.0
2370,592.25,45.4312,46.7292,146.434,99.6073,104.069,0.00394332,0.163424,20.8787,199.796,-0.398796,0.0,0.0
2449,612,45.4096,46.661,147.467,99.8609,104.478,0.00413766,0.162124,20.8796,198.505,-0.411307,0.0,0.0
2528,631.75,45.8016,47.0271,144.447,99.5015,104.486,0.00401276,0.162825,20.8783,197.264,-0.444856,0.0,0.0
2607,651.5,45.6841,47.0511,147.473,99.2408,104.155,0.00401983,0.164391,20.8758,195.953,-0.43986,0.0,0.0
2686,671.25,46.1344,46.6983,145.131,99.4656,103.904,0.00413415,0.16505,20.8737,194.661,-0.397251,0.0,0.0
2765,691,45.7049,47.0239,153.781,99.7802,104.496,0.00396574,0.16599,20.875,193.42,-0.420228,0.0,0.0
2844,710.75,45.6041,47.0495,139.673,99.8537,104.152,0.0038117,0.169711,20.8687,192.099,-0.38356,0.0,0.0
2923,730.5,46.2708,47.1308,141.853,99.8273,104.301,0.0036408,0.171893,20.8702,190.768,-0.398975,0.0,0.0
3002,750.25,46.4939,47.6317,149.067,99.5083,104.939,0.00351205,0.173961,20.8661,189.487,-0.483605,0.0,0.0
3081,770,46.3242,47.3736,145.327,99.2348,103.972,0.00336399,0.175123,20.8662,188.176,-0.424342,0.0,0.0
3160,789.75,46.6165,47.5935,142.117,99.6125,104.421,0.00384866,0.17488,20.8685,186.835,-0.428983,0.0,0.0
3239,809.5,46.4405,48.0725,147.904,99.793,104.42,0.00366206,0.176286,20.8666,185.553,-0.412433,0.0,0.0
3318,829.25,46.6355,47.5719,144.724,99.345,103.527,0.0039715,0.176285,20.8663,184.252,-0.375259,0.0,0.0
3397,849,47.2263,48.1081,145.407,98.6835,102.357,0.00365788,0.180119,20.8575,182.941,-0.332641,0.0,0.0
3476,868.75,46.5408,48.5197,146.613,98.7298,103.449,0.00301738,0.185792,20.8526,181.62,-0.424941,0.0,0.0
3555,888.5,47.5873,48.718,145.057,99.074,103.639,0.00308197,0.192149,20.8459,180.259,-0.409976,0.0,0.0
3634,908.25,48.0569,49.0715,143.225,99.1067,104.126,0.0028491,0.197938,20.8374,178.878,-0.449612,0.0,0.0
3713,928,48.5295,49.7327,143.779,99.0632,103.394,0.00228966,0.204167,20.8328,177.446,-0.389352,0.0,0.0
3792,947.75,49.1232,50.0154,141.502,99.0823,103.239,0.00292241,0.21057,20.8235,175.965,-0.373947,0.0,0.0
3871,967.5,50.0923,50.9329,140.44,99.044,103.811,0.00262994,0.219028,20.8131,174.464,-0.427818,0.0,0.0
3950,987.25,51.0489,52.1775,143.491,98.9526,103.389,0.00254202,0.23053,20.7982,172.862,-0.39916,0.0,0.0
4029,1007,52.3629,53.2541,143.069,98.707,103.656,0.00241627,0.243736,20.7853,171.131,-0.445203,0.0,0.0
4108,1026.75,53.2541,54.476,138.622,98.6408,103.218,0.00239699,0.256344,20.7699,169.359,-0.412808,0.0,0.0
4187,1046.5,54.3176,55.4129,141.254,98.8963,103.424,0.0029158,0.271556,20.7517,167.447,-0.40739,0.0,0.0
4266,1066.25,56.0126,56.8383,141.493,99.4632,103.828,0.0027129,0.288457,20.7321,165.436,-0.390842,0.0,0.0
4345,1086,57.1904,58.8855,139.891,99.8509,103.78,0.0028382,0.308912,20.7083,163.264,-0.351217,0.0,0.0
4424,1105.75,58.9248,60.46,148.396,99.7235,103.981,0.00266583,0.331189,20.6809,160.932,-0.380426,0.0,0.0
4503,1125.5,61.2032,62.6573,134.315,99.3247,103.161,0.0028078,0.353003,20.6568,158.5,-0.344886,0.0,0.0
4582,1145.25,62.8938,64.8035,132.957,99.4445,102.613,0.00285572,0.377584,20.6273,155.897,-0.285407,0.0,0.0
4661,1165,64.9309,66.953,133.729,99.9854,102.21,0.00322434,0.401066,20.5967,153.165,-0.200222,0.0,0.0
4740,1184.75,68.1108,69.3983,130.996,99.8497,100.749,0.00371057,0.438413,20.5446,150.182,-0.0815855,0.0,0.0
4819,1204.5,70.798,72.6186,134.231,99.7511,100.5,0.00430469,0.466133,20.5197,147.08,-0.0680984,0.0,0.0
4898,1224.25,71.8571,74.3718,134.409,100.197,101.27,0.00378654,0.466804,20.5283,143.987,-0.0969591,0.0,0.0
4977,1244,72.3235,75.5409,132.014,100.392,102.229,0.00361203,0.456268,20.5439,141.094,-0.164988,0.0,0.0
5056,1263.75,72.1112,75.8571,134.574,100.284,104.107,0.00295831,0.43179,20.579,138.462,-0.340481,0.0,0.0
5135,1283.5,70.3483,74.972,134.147,100.008,103.82,0.00271636,0.38817,20.6374,136.11,-0.340481,0.0,0.0
5214,1303.25,67.5051,72.1434,141.022,99.8521,103.844,0.00250962,0.335153,20.701,134.168,-0.356753,0.0,0.0
5293,1323,63.9646,68.9149,144.089,99.8605,104.654,0.0022982,0.287883,20.752,132.497,-0.426705,0.0,0.0
5372,1342.75,61.423,65.9337,141.856,99.9271,104.711,0.00263379,0.264447,20.7679,131.035,-0.425564,0.0,0.0
5451,1362.5,60.4235,63.984,139.838,100.021,105.44,0.00274854,0.258901,20.7676,129.414,-0.480089,0.0,0.0
5530,1382.25,59.8171,62.6958,138.527,100.189,105.122,0.00239756,0.259119,20.7622,127.983,-0.437367,0.0,0.0
5609,1402,59.4175,62.2972,142.105,100.342,105.469,0.00299857,0.2624,20.7563,126.441,-0.453528,0.0,0.0
5688,1421.75,59.5319,61.6531,133.919,100.335,105.617,0.00261609,0.265984,20.7532,124.92,-0.466917,0.0,0.0
5767,1441.5,59.0751,61.4509,142.222,100.045,104.99,0.00322543,0.268746,20.7489,123.439,-0.439112,0.0,0.0
5846,1461.25,59.3805,61.4293,140.355,99.6493,104.186,0.00332367,0.271336,20.7456,121.897,-0.405119,0.0,0.0
5925,1481,58.7841,61.1339,137.15,99.5602,104.599,0.00325494,0.270321,20.7492,120.466,-0.449251,0.0,0.0
6004,1500.75,58.3325,60.9224,140.552,99.7283,104.573,0.00327002,0.261593,20.7609,119.035,-0.431666,0.0,0.0
6083,1520.5,57.8504,59.8051,139.103,99.985,105.094,0.00271994,0.249932,20.7763,117.754,-0.453497,0.0,0.0
6162,1540.25,56.3717,58.8185,140.243,100.23,104.653,0.00326437,0.232732,20.7983,116.583,-0.392956,0.0,0.0
6241,1560,55.3022,57.571,141.264,100.376,104.729,0.0032466,0.21085,20.8259,115.612,-0.386316,0.0,0.0
6320,1579.75,53.0898,56.2624,142.709,100.396,104.795,0.00422779,0.188745,20.8472,114.771,-0.390257,0.0,0.0
6399,1599.5,51.6729,53.8715,145.437,100.303,105.253,0.00407527,0.16926,20.8665,114.06,-0.438336,0.0,0.0
6478,1619.25,49.7708,52.1782,146.117,100.171,104.754,0.00500462,0.152346,20.8843,113.5,-0.407167,0.0,0.0
6557,1639,48.2038,50.1052,148.393,99.7898,104.684,0.00591586,0.136227,20.9017,113,-0.435693,0.0,0.0
6636,1658.75,45.9605,48.4306,145.714,99.2213,103.646,0.00635435,0.124312,20.9148,112.669,-0.397046,0.0,0.0
6715,1678.5,44.9834,46.8831,147.932,98.6819,103.656,0.00672148,0.115499,20.9222,112.279,-0.447483,0.0,0.0
6794,1698.25,44.5999,45.8486,150.246,98.7422,103.679,0.00657979,0.109612,20.9304,112.019,-0.443981,0.0,0.0
6873,1718,42.9201,44.4647,147.459,99.2568,104.099,0.00615656,0.105851,20.9332,111.698,-0.433437,0.0,0.0
6952,1737.75,42.6803,43.8197,151.272,99.7291,104.825,0.00637682,0.102591,20.936,111.468,-0.453551,0.0,0.0
7031,1757.5,40.4427,41.0529,148.976,99.8309,105.047,0.00660386,0.0996976,20.9387,111.258,-0.463479,0.0,0.0
7110,1777.25,39.8424,41.2217,151.131,99.5219,104.318,0.00682461,0.0966566,20.9404,111.018,-0.428315,0.0,0.0
7189,1797,39.6125,40.4967,150.573,99.1881,104.498,0.00620077,0.0958377,20.9416,110.808,-0.474547,0.0,0.0
7268,1816.75,39.4715,40.0415,146.172,99.6768,104.628,0.00617044,0.0947545,20.9415,110.617,-0.441147,0.0,0.0
7347,1836.5,39.3895,40.3738,149.016,99.9459,105.129,0.00648408,0.0958742,20.9442,110.457,-0.460101,0.0,0.0
7426,1856.25,39.6694,39.5303,150.023,99.88,105.078,0.00626251,0.0959766,20.9426,110.217,-0.461694,0.0,0.0
7498,1874.25,39.4932,39.9075,150.178,99.69,104.549,,,,109.977,-0.433087,0.0,0.0