File: 01_Data/Cotton_Batting/MCC/Cotton_Batting_MCC_30K_min_220222_R1.txt
Sample ID:	C:\MCC\MCC Cal\Test\Cotton_Batting_DelCo_MCC_30K_min_220222_R1.txt
Sample Weight (mg):	4.51
Heating Rate (C/s):	0.5
Combustor Temp (C):	900
N2 Flow Rate (cc/min):	80
O2 Flow Rate (cc/min):	20
Calibration File:	C:\MCC\MCC Cal\Coeff1 JN10440_30_210304.txt.txt
T Correction Coefficients:	0	1.024463	0
Time Shift (s):	14
*
Time (s)	Temperature (C)	N2 flow rate (cc/min)	O2 flow rate (cc/min)	Flow Rate (cc/min)	Oxygen (%)	HRR (W/g)	Heating rate (C/s)
0.000	113.011	80.003	19.995	103.720	19.967	0.097	-0.016
7.500	113.034	80.005	19.994	103.684	19.964	0.339	0.015
14.999	113.008	80.005	19.994	103.738	19.957	0.826	-0.006
22.499	113.192	80.004	19.993	103.763	19.943	1.834	0.053
29.999	113.670	80.001	19.993	103.915	19.933	2.545	0.081
37.500	114.609	80.001	19.993	103.916	19.927	3.022	0.157
44.999	115.924	80.004	19.994	103.899	19.922	3.364	0.187
52.499	117.547	80.004	19.994	103.896	19.920	3.500	0.226
59.999	119.486	80.001	19.995	103.931	19.916	3.816	0.269
67.499	121.745	80.003	19.994	103.959	19.911	4.127	0.313
74.999	124.282	80.003	19.994	103.959	19.911	4.186	0.356
82.499	127.090	80.003	19.994	103.959	19.910	4.207	0.395
89.999	130.106	80.004	19.996	103.971	19.905	4.569	0.429
97.500	133.328	80.004	19.993	103.969	19.909	4.265	0.438
104.999	136.679	80.004	19.993	103.985	19.904	4.632	0.461
112.499	140.185	80.002	19.993	103.970	19.909	4.326	0.483
119.999	143.877	80.001	19.992	103.965	19.908	4.355	0.525
127.499	147.540	80.002	19.994	103.967	19.904	4.639	0.457
134.999	151.357	80.003	19.994	103.926	19.909	4.314	0.453
142.499	155.168	80.002	19.994	103.942	19.910	4.214	0.507
149.999	159.011	80.004	19.994	103.934	19.912	4.111	0.464
157.499	162.850	80.004	19.995	103.944	19.911	4.135	0.507
164.999	166.674	80.003	19.993	103.909	19.910	4.239	0.510
172.499	170.511	80.003	19.993	103.932	19.911	4.151	0.530
180.000	174.232	80.004	19.995	103.907	19.914	3.951	0.488
187.500	178.013	80.002	19.994	103.921	19.914	3.918	0.537
195.000	181.726	80.003	19.995	103.918	19.910	4.193	0.511
202.499	185.394	80.004	19.994	103.901	19.912	4.084	0.489
209.999	189.156	80.003	19.993	103.909	19.914	3.901	0.544
217.499	192.822	80.003	19.994	103.908	19.917	3.709	0.473
225.000	196.554	80.003	19.994	103.906	19.916	3.813	0.513
232.499	200.211	80.005	19.992	103.894	19.909	4.273	0.488
239.999	203.889	80.004	19.994	103.909	19.917	3.726	0.481
247.499	207.580	80.002	19.995	103.950	19.917	3.723	0.486
255.000	211.277	80.006	19.995	103.864	19.917	3.732	0.454
262.499	214.988	80.004	19.993	103.919	19.909	4.256	0.480
269.999	218.724	80.001	19.996	103.884	19.914	3.916	0.501
277.499	222.478	80.002	19.995	103.907	19.915	3.893	0.499
284.999	226.188	80.003	19.995	103.902	19.914	3.965	0.484
292.499	229.975	80.005	19.994	103.874	19.915	3.841	0.487
299.999	233.696	80.002	19.994	103.883	19.920	3.517	0.514
307.500	237.480	80.003	19.996	103.879	19.919	3.547	0.505
314.999	241.200	80.003	19.994	103.879	19.922	3.330	0.496
322.500	244.915	80.005	19.993	103.854	19.920	3.522	0.488
329.999	248.641	80.002	19.992	103.880	19.912	4.059	0.487
337.499	252.403	80.005	19.995	103.907	19.914	3.937	0.509
344.999	256.135	80.007	19.995	103.871	19.921	3.424	0.485
352.499	259.830	80.003	19.994	103.880	19.917	3.709	0.511
359.999	263.536	80.001	19.993	103.858	19.919	3.564	0.482
367.499	267.232	80.002	19.994	103.871	19.912	4.103	0.479
374.999	270.960	80.003	19.995	103.855	19.915	3.878	0.504
382.499	274.711	80.002	19.994	103.874	19.911	4.110	0.507
390.000	278.468	80.001	19.994	103.901	19.916	3.768	0.518
397.499	282.187	80.005	19.995	103.830	19.908	4.328	0.506
405.000	285.964	80.005	19.995	103.879	19.910	4.227	0.488
412.500	289.709	80.004	19.994	103.844	19.905	4.557	0.478
419.999	293.496	80.005	19.993	103.869	19.901	4.852	0.501
427.499	297.209	80.005	19.993	103.847	19.892	5.494	0.466
434.999	301.037	80.002	19.994	103.920	19.893	5.428	0.537
442.500	304.755	80.002	19.993	103.892	19.889	5.757	0.492
450.000	308.502	80.003	19.995	103.809	19.875	6.737	0.482
457.499	312.343	80.001	19.994	103.863	19.879	6.474	0.541
464.999	316.144	80.001	19.995	103.869	19.862	7.637	0.477
472.499	319.988	80.002	19.994	103.864	19.857	8.014	0.524
479.999	323.722	80.003	19.993	103.908	19.844	8.927	0.494
487.499	327.556	80.003	19.994	103.881	19.827	10.194	0.514
494.999	331.341	80.002	19.993	103.895	19.806	11.688	0.506
502.499	335.189	80.005	19.993	103.895	19.773	14.040	0.522
509.999	339.001	80.006	19.994	103.869	19.745	16.071	0.508
517.499	342.810	80.003	19.994	103.871	19.741	16.363	0.507
524.999	346.569	80.003	19.995	103.932	19.735	16.781	0.509
532.499	350.356	80.001	19.995	103.891	19.692	19.859	0.526
539.999	354.222	80.002	19.995	103.959	19.626	24.665	0.523
547.499	358.022	80.003	19.994	104.018	19.563	29.180	0.480
555.000	361.968	80.002	19.995	103.844	19.524	31.928	0.518
562.499	365.859	80.003	19.994	103.976	19.464	36.357	0.513
569.999	369.632	80.005	19.994	104.041	19.383	42.125	0.514
577.500	373.543	80.004	19.994	103.958	19.193	55.873	0.535
584.999	377.460	80.006	19.994	104.094	19.162	58.130	0.506
592.499	381.304	80.004	19.993	104.061	19.095	62.978	0.516
599.999	385.138	80.003	19.994	104.054	19.010	69.066	0.521
607.499	388.914	80.003	19.993	104.240	18.652	94.979	0.507
614.999	392.742	80.001	19.995	104.031	18.565	101.190	0.535
622.499	396.593	80.002	19.994	104.215	18.526	104.022	0.489
629.999	400.474	80.002	19.994	104.245	18.400	113.121	0.517
637.499	404.277	80.004	19.994	104.253	18.264	122.975	0.499
644.999	408.133	80.005	19.996	104.282	18.131	132.576	0.487
652.499	411.870	80.004	19.995	104.279	18.047	138.662	0.507
659.999	415.560	80.005	19.994	104.295	18.022	140.369	0.493
667.499	419.345	80.005	19.994	104.238	18.094	135.115	0.531
674.999	423.075	80.003	19.994	104.217	18.286	121.135	0.507
682.499	426.844	80.001	19.994	104.130	18.544	102.485	0.510
689.999	430.641	80.003	19.993	104.042	18.823	82.391	0.543
697.500	434.466	80.004	19.993	103.960	19.100	62.464	0.529
704.999	438.252	80.001	19.994	103.933	19.317	46.823	0.501
712.500	442.031	80.002	19.994	103.882	19.461	36.457	0.482
719.999	445.835	80.004	19.995	103.845	19.550	30.082	0.509
727.499	449.638	80.005	19.994	103.845	19.604	26.195	0.523
734.999	453.459	80.004	19.995	103.845	19.640	23.598	0.532
742.499	457.269	80.004	19.994	103.844	19.655	22.546	0.512
750.000	461.116	80.006	19.993	103.842	19.659	22.274	0.513
757.499	464.932	80.003	19.993	103.797	19.654	22.624	0.517
764.999	468.724	80.003	19.994	103.877	19.652	22.756	0.510
772.499	472.554	80.004	19.994	103.808	19.650	22.906	0.485
779.999	476.503	80.004	19.994	103.809	19.643	23.385	0.516
787.499	480.360	80.002	19.993	103.809	19.640	23.575	0.501
794.999	484.170	80.003	19.994	103.828	19.644	23.320	0.481
802.499	488.069	80.002	19.994	103.810	19.659	22.268	0.538
809.999	491.851	80.003	19.994	103.794	19.669	21.507	0.490
817.499	495.718	80.002	19.994	103.805	19.690	20.009	0.508
825.000	499.611	80.004	19.995	103.806	19.713	18.328	0.511
832.499	503.421	80.004	19.995	103.782	19.742	16.304	0.509
839.999	507.306	80.001	19.995	103.784	19.769	14.321	0.520
847.499	511.171	80.003	19.994	103.802	19.799	12.153	0.493
854.999	515.177	80.004	19.995	103.811	19.825	10.354	0.554
862.499	519.061	80.003	19.994	103.815	19.847	8.711	0.525
869.999	522.960	80.001	19.995	103.807	19.860	7.797	0.527
877.500	526.849	80.002	19.994	103.806	19.866	7.403	0.548
884.999	530.709	80.004	19.992	103.813	19.874	6.807	0.504
892.499	534.560	80.004	19.994	103.804	19.879	6.423	0.518
899.999	538.441	80.004	19.995	103.803	19.882	6.224	0.527
907.499	542.266	80.004	19.994	103.789	19.888	5.807	0.538
914.999	546.132	80.004	19.996	103.824	19.891	5.597	0.545
922.499	549.994	80.002	19.995	103.822	19.887	5.836	0.526
929.999	553.859	80.002	19.994	103.838	19.896	5.248	0.532
937.499	557.745	80.004	19.994	103.793	19.896	5.187	0.532
944.999	561.608	80.004	19.993	103.807	19.898	5.112	0.514
952.499	565.405	80.002	19.995	103.804	19.902	4.763	0.499
959.999	569.239	80.005	19.995	103.801	19.904	4.614	0.492
967.499	573.043	80.005	19.994	103.796	19.903	4.736	0.523
974.999	576.878	80.004	19.994	103.792	19.904	4.675	0.530
982.500	580.576	80.003	19.994	103.805	19.903	4.726	0.493
989.999	584.389	80.002	19.995	103.791	19.904	4.649	0.522
997.499	588.110	80.005	19.994	103.782	19.905	4.567	0.488
1005.000	591.902	80.001	19.994	103.812	19.908	4.381	0.532
1012.500	595.751	80.001	19.995	103.818	19.911	4.132	0.521
1019.999	599.551	80.002	19.995	103.787	19.907	4.417	0.520
1027.500	603.374	80.001	19.995	103.808	19.910	4.206	0.509
1034.999	607.253	80.001	19.994	103.799	19.907	4.433	0.500
1042.499	611.119	80.002	19.993	103.795	19.909	4.293	0.496
1049.999	615.046	80.001	19.995	103.795	19.908	4.377	0.539
1057.499	618.955	80.003	19.994	103.815	19.910	4.227	0.528
1064.999	622.741	80.003	19.993	103.784	19.896	5.214	0.517
1072.500	626.455	80.006	19.993	103.805	19.911	4.145	0.437
1079.999	630.419	80.006	19.992	103.794	19.907	4.417	0.891
1087.500	634.241	80.001	19.996	103.801	19.908	4.327	0.505
1094.999	638.061	80.002	19.995	103.799	19.912	4.052	0.485
1102.499	641.900	80.003	19.994	103.783	19.910	4.224	0.502
1109.999	645.758	80.003	19.995	103.802	19.910	4.212	0.508
1117.499	649.579	80.002	19.995	103.806	19.911	4.133	0.517
1124.999	653.378	80.004	19.993	103.798	19.913	4.029	0.503
1132.499	657.216	80.003	19.995	103.794	19.910	4.228	0.429
1139.999	661.005	80.001	19.994	103.778	19.911	4.139	0.523
1147.499	664.854	80.006	19.994	103.787	19.914	3.963	0.504
1155.000	668.672	80.010	19.992	103.817	19.914	3.929	0.489
1162.500	672.474	80.001	19.995	103.810	19.917	3.739	0.573
1169.999	676.253	80.001	19.994	103.789	19.917	3.701	0.480
1177.500	680.039	80.002	19.995	103.779	19.909	4.284	0.493
1184.999	683.850	80.011	19.994	103.805	19.919	3.556	0.518
1192.499	687.637	79.998	19.996	103.785	19.915	3.848	0.257
1200.000	691.412	80.010	19.993	103.804	19.915	3.853	0.522
1207.499	695.280	80.009	19.995	103.815	19.917	3.693	0.527
1214.999	699.096	80.005	19.995	103.782	19.914	3.940	0.530
1222.499	702.899	80.005	19.993	103.793	19.913	4.017	0.511
1229.999	706.682	79.999	19.996	103.797	19.915	3.865	0.522
1237.499	710.446	79.999	19.997	103.771	19.916	3.784	0.506
1244.999	714.220	80.006	19.994	103.802	19.913	4.004	0.508
1252.499	718.055	80.009	19.993	103.798	19.918	3.635	0.495
1260.000	721.856	80.008	19.993	103.770	19.914	3.927	0.497
1267.500	725.633	80.003	19.994	103.806	19.917	3.744	0.461
1274.999	729.372	80.004	19.995	103.808	19.914	3.933	0.499
1282.499	733.201	80.005	19.993	103.787	19.918	3.615	0.492
1289.999	736.967	79.986	19.995	103.762	19.913	4.014	0.516
1297.499	740.831	80.014	19.993	103.775	19.913	4.006	0.522
1302.499	743.358	80.003	19.996	103.802	19.910	4.249	0.508