File: 01_Data/Cotton_Batting/MCC/Cotton_Batting_MCC_30K_min_220223_R3.txt
Sample ID:	C:\MCC\MCC Cal\Test\Cotton_Batting_DelCo_MCC_30K_min_220223_R3.txt
Sample Weight (mg):	4.66
Heating Rate (C/s):	0.5
Combustor Temp (C):	900
N2 Flow Rate (cc/min):	80
O2 Flow Rate (cc/min):	20
Calibration File:	C:\MCC\MCC Cal\Coeff1 JN10440_30_210304.txt.txt
T Correction Coefficients:	0	1.024463	0
Time Shift (s):	14
*
Time (s)	Temperature (C)	N2 flow rate (cc/min)	O2 flow rate (cc/min)	Flow Rate (cc/min)	Oxygen (%)	HRR (W/g)	Heating rate (C/s)
0.000	111.957	80.005	19.995	103.757	20.081	0.305	-0.008
8.000	111.990	80.004	19.994	103.736	20.081	0.294	-0.006
16.000	111.985	80.007	19.995	103.813	20.073	0.884	-0.007
24.000	112.203	80.007	19.993	103.794	20.073	0.875	0.015
32.000	112.638	80.006	19.993	103.836	20.065	1.459	0.041
40.001	113.338	80.006	19.994	103.914	20.055	2.154	0.068
48.000	114.379	80.006	19.994	103.930	20.052	2.315	0.116
56.001	115.811	80.006	19.994	103.935	20.045	2.795	0.196
64.000	117.542	80.004	19.994	103.505	20.091	-0.386	0.233
72.001	119.531	80.004	19.995	103.845	20.076	0.643	0.254
80.000	121.872	80.004	19.994	103.924	20.045	2.845	0.332
88.000	124.380	80.004	19.993	103.993	20.042	3.055	0.350
96.000	127.079	80.006	19.994	103.994	20.036	3.450	0.372
104.000	129.943	80.006	19.992	104.022	20.039	3.249	0.350
112.000	132.987	80.006	19.993	103.993	20.034	3.611	0.394
120.001	136.235	80.008	19.994	104.010	20.032	3.727	0.406
128.000	139.629	80.008	19.994	104.000	20.032	3.702	0.425
136.000	143.231	80.006	19.994	104.005	20.030	3.884	0.451
144.000	146.937	80.005	19.995	104.009	20.031	3.835	0.483
152.000	150.762	80.005	19.995	104.011	20.031	3.826	0.526
160.000	154.605	80.006	19.994	104.018	20.030	3.856	0.486
168.000	158.640	80.005	19.994	104.002	20.029	3.977	0.536
176.000	162.653	80.005	19.995	104.001	20.032	3.763	0.501
184.000	166.778	80.009	19.995	104.004	20.029	3.950	0.514
192.000	170.864	80.007	19.995	103.984	20.032	3.760	0.498
200.000	174.962	80.006	19.994	103.969	20.034	3.607	0.524
208.000	179.036	80.006	19.993	103.958	20.033	3.691	0.509
216.000	183.084	80.008	19.993	103.986	20.033	3.664	0.482
224.000	187.121	80.006	19.991	103.974	20.034	3.585	0.475
232.000	191.140	80.006	19.994	103.968	20.033	3.685	0.474
240.000	195.145	80.007	19.994	103.965	20.038	3.312	0.496
248.000	199.023	80.006	19.995	103.964	20.035	3.495	0.494
256.000	203.025	80.006	19.995	103.961	20.032	3.759	0.527
264.000	206.715	80.006	19.995	103.962	20.036	3.420	0.213
272.000	210.860	80.006	19.995	103.962	20.037	3.397	0.507
280.000	214.821	80.006	19.994	103.969	20.040	3.169	0.506
288.000	218.771	80.008	19.994	103.951	20.040	3.190	0.495
296.000	222.764	80.008	19.993	103.962	20.040	3.199	0.517
304.000	226.685	80.008	19.994	103.945	20.040	3.202	0.503
312.000	230.663	80.007	19.995	103.949	20.034	3.566	0.480
320.000	234.618	80.008	19.994	103.945	20.039	3.247	0.483
328.000	238.568	80.006	19.994	103.942	20.040	3.207	0.504
336.000	242.422	80.006	19.995	103.952	20.037	3.372	0.464
344.000	246.413	80.005	19.993	103.930	20.042	3.069	0.488
352.000	250.391	80.007	19.994	103.939	20.040	3.176	0.495
360.000	254.319	80.007	19.994	103.948	20.042	3.055	0.482
368.000	258.234	80.005	19.994	103.947	20.038	3.309	0.488
376.000	262.186	80.008	19.994	103.935	20.038	3.327	0.494
384.000	266.125	80.007	19.993	103.948	20.035	3.498	0.486
392.000	270.102	80.008	19.994	103.937	20.035	3.519	0.515
400.000	274.129	80.006	19.994	103.939	20.033	3.648	0.494
408.000	278.150	80.006	19.995	103.935	20.026	4.117	0.483
416.000	282.157	80.006	19.994	103.938	20.025	4.191	0.488
424.000	286.237	80.006	19.993	103.926	20.020	4.573	0.527
432.000	290.252	80.008	19.994	103.925	20.019	4.624	0.526
440.000	294.332	80.008	19.995	103.939	20.012	5.140	0.521
448.000	298.372	80.007	19.994	103.906	20.007	5.471	0.532
456.000	302.433	80.010	19.995	103.929	20.003	5.776	0.513
464.000	306.482	80.007	19.993	103.926	19.987	6.865	0.537
472.000	310.493	80.007	19.994	103.991	19.984	7.042	0.474
480.000	314.533	80.007	19.993	103.926	19.972	7.928	0.515
488.000	318.536	80.007	19.994	103.918	19.965	8.421	0.499
496.000	322.537	80.006	19.994	103.955	19.947	9.669	0.522
504.000	326.507	80.004	19.994	103.963	19.911	12.195	0.484
512.000	330.546	80.007	19.994	103.956	19.904	12.625	0.505
520.000	334.572	80.008	19.993	103.969	19.861	15.670	0.523
528.000	338.589	80.007	19.994	103.964	19.832	17.636	0.507
536.000	342.603	80.006	19.993	103.956	19.800	19.887	0.507
544.000	346.591	80.009	19.993	103.945	19.771	21.935	0.500
552.000	350.633	80.006	19.994	104.028	19.699	26.927	0.520
560.000	354.767	80.007	19.995	104.035	19.631	31.697	0.527
568.000	358.932	80.006	19.995	104.104	19.496	41.099	0.509
576.000	363.155	80.007	19.994	103.896	19.526	39.014	0.559
584.000	367.230	80.005	19.993	104.065	19.455	43.951	0.509
592.000	371.402	80.006	19.994	103.954	19.340	51.949	0.495
600.000	375.606	80.009	19.993	104.116	19.255	57.914	0.502
608.000	379.720	80.007	19.994	104.124	19.174	63.583	0.532
616.000	383.766	80.005	19.993	104.149	18.989	76.580	0.532
624.000	387.780	80.008	19.993	104.230	18.837	87.206	0.529
632.000	391.824	80.008	19.995	104.218	18.648	100.413	0.498
640.000	395.920	80.006	19.994	104.410	18.401	117.717	0.484
648.000	399.958	80.007	19.995	104.314	18.265	127.214	0.516
656.000	403.968	80.005	19.994	104.395	18.183	132.969	0.504
664.000	407.974	80.004	19.995	104.379	18.079	140.216	0.497
672.000	412.047	80.005	19.994	104.382	18.014	144.688	0.517
680.000	415.994	80.007	19.993	104.354	18.044	142.502	0.519
688.000	420.018	80.009	19.994	104.305	18.221	130.073	0.514
696.000	424.028	80.008	19.994	104.202	18.487	111.384	0.492
704.000	428.117	80.007	19.993	104.146	18.816	88.413	0.535
712.000	432.162	80.010	19.994	104.046	19.133	66.287	0.476
720.000	436.320	80.007	19.993	103.999	19.388	48.518	0.527
728.000	440.541	80.005	19.992	103.944	19.554	37.007	0.530
736.000	444.669	80.007	19.993	103.923	19.649	30.396	0.504
744.000	448.861	80.005	19.994	103.905	19.714	25.852	0.536
752.000	452.972	80.006	19.995	103.892	19.742	23.933	0.529
760.000	457.045	80.006	19.995	103.899	19.759	22.690	0.504
768.000	461.126	80.007	19.995	103.866	19.763	22.480	0.547
776.000	465.108	80.009	19.994	103.824	19.757	22.839	0.497
784.000	469.103	80.008	19.994	103.881	19.755	23.021	0.500
792.000	473.205	80.010	19.994	103.862	19.742	23.930	0.509
800.000	477.246	80.009	19.992	103.864	19.745	23.684	0.494
808.001	481.267	80.008	19.992	103.852	19.749	23.438	0.510
816.000	485.308	80.007	19.993	103.922	19.759	22.731	0.506
824.000	489.333	80.007	19.993	103.859	19.779	21.351	0.514
832.000	493.351	80.006	19.995	103.848	19.790	20.569	0.500
840.000	497.515	80.005	19.994	103.848	19.823	18.252	0.521
848.000	501.642	80.006	19.994	103.880	19.860	15.667	0.539
856.000	505.804	80.007	19.996	103.844	19.894	13.345	0.539
864.000	509.933	80.007	19.994	103.853	19.925	11.191	0.491
872.000	514.064	80.009	19.993	103.860	19.952	9.267	0.493
880.000	518.226	80.011	19.993	103.872	19.977	7.534	0.507
888.000	522.374	80.007	19.996	103.845	19.990	6.658	0.470
896.000	526.574	80.011	19.993	103.847	20.006	5.534	0.512
904.000	530.705	80.000	19.994	103.840	20.009	5.330	0.531
912.000	534.809	80.009	19.994	103.838	20.020	4.566	0.516
920.000	538.927	80.008	19.994	103.865	20.021	4.530	0.513
928.000	543.086	80.007	19.996	103.849	20.019	4.664	0.529
936.000	547.156	80.009	19.993	103.896	20.027	4.097	0.524
944.000	551.256	80.006	19.993	103.832	20.027	4.106	0.542
952.001	555.303	80.006	19.993	103.849	20.030	3.875	0.479
960.000	559.411	80.009	19.995	103.875	20.030	3.865	0.511
968.000	563.397	80.009	19.993	103.837	20.027	4.048	0.516
976.000	567.402	80.006	19.993	103.857	20.030	3.842	0.494
984.000	571.360	80.007	19.994	103.853	20.032	3.749	0.510
992.000	575.454	80.008	19.995	103.852	20.033	3.645	0.526
1000.000	579.491	80.007	19.994	103.889	20.037	3.350	0.515
1008.000	583.607	80.006	19.994	103.855	20.040	3.200	0.485
1016.000	587.706	80.007	19.994	103.858	20.042	3.000	0.526
1024.001	591.718	80.008	19.993	103.847	20.042	3.068	0.509
1032.000	595.857	80.007	19.995	103.848	20.042	3.066	0.484
1040.000	600.002	80.009	19.994	103.853	20.044	2.916	0.535
1048.000	604.110	80.010	19.994	103.844	20.043	2.937	0.535
1056.000	608.230	80.014	19.992	103.836	20.039	3.244	0.524
1064.000	612.275	80.001	19.994	103.835	20.040	3.143	0.498
1072.000	616.388	80.009	19.994	103.867	20.045	2.845	0.506
1080.000	620.540	80.000	19.995	103.835	20.044	2.927	0.541
1088.001	624.643	79.994	19.995	103.854	20.045	2.808	0.502
1096.000	628.700	80.007	19.994	103.840	20.045	2.801	0.478
1104.001	632.755	80.018	19.993	103.871	20.051	2.415	0.496
1112.000	636.810	80.004	19.994	103.832	20.047	2.665	0.488
1120.000	640.928	80.008	19.994	103.829	20.049	2.519	0.504
1128.000	645.003	80.008	19.995	103.873	20.050	2.479	0.498
1136.000	649.039	80.009	19.994	103.837	20.049	2.525	0.504
1144.000	653.115	80.005	19.993	103.866	20.050	2.505	0.503
1152.000	657.183	80.004	19.996	103.840	20.053	2.264	0.489
1160.000	661.271	80.004	19.994	103.857	20.051	2.404	0.514
1168.000	665.255	80.008	19.994	103.852	20.053	2.289	0.488
1176.001	669.263	80.011	19.995	103.853	20.056	2.033	0.486
1184.001	673.287	80.011	19.993	103.845	20.054	2.227	0.487
1192.000	677.472	80.014	19.994	103.858	20.055	2.151	0.544
1200.000	681.520	80.009	19.995	103.848	20.055	2.118	0.503
1208.001	685.576	80.010	19.994	103.874	20.056	2.064	0.495
1216.000	689.687	80.010	19.994	103.841	20.057	1.970	0.488
1224.001	693.771	80.005	19.995	103.877	20.055	2.152	0.516
1232.001	697.814	80.008	19.994	103.854	20.054	2.212	0.478
1240.000	701.869	80.009	19.995	103.876	20.055	2.162	0.518
1248.001	705.883	80.007	19.994	103.856	20.054	2.172	0.495
1256.001	710.020	80.005	19.995	103.849	20.051	2.427	0.554
1264.000	714.045	80.008	19.994	103.861	20.053	2.303	0.490
1272.000	718.190	80.009	19.993	103.857	20.055	2.145	0.520
1280.000	722.295	80.009	19.994	103.871	20.056	2.081	0.527
1288.000	726.247	80.009	19.994	103.858	20.057	2.014	0.487
1296.000	730.268	80.010	19.993	103.847	20.053	2.258	0.516
1304.000	734.338	80.007	19.993	103.873	20.055	2.120	0.493
1312.001	738.424	80.008	19.994	103.844	20.059	1.876	0.529
1320.000	742.547	80.007	19.995	103.843	20.055	2.094	0.510
1322.000	743.534	80.008	19.995	103.834	20.058	1.908	0.504