File: 01_Data/Bean_Bag_Chair_Outer_Cover/STA/N2/10K_min/Bean_Bag_Cover_STA_N2_10KData_220511_R1.csv
##Temp./Â°C,Time/min,Mass loss(subtr.2)/mg,DSC(subtr.2)/(mW/mg),Sensit./(uV/mW)
49.63,10.01,-0.04051,0.01922832,1.0702
52.93,11.33999,-0.04577933,0.11783,1.06929
56.23,11.8001,-0.04621955,0.16574,1.06837
59.53,12.1943,-0.04740669,0.19329,1.06743
62.83,12.56583,-0.04934041,0.21059,1.06649
66.13,12.92633,-0.05128964,0.22523,1.06553
69.43,13.28064,-0.05402,0.23746,1.06456
72.73,13.62899,-0.05666488,0.248,1.06359
76.03,13.97565,-0.05928047,0.26042,1.0626
79.33,14.31701,-0.06060426,0.27055,1.06159
82.63,14.65506,-0.06290619,0.27723,1.06058
85.93,14.9899,-0.06487892,0.28142,1.05956
89.23,15.32196,-0.07151914,0.28481,1.05852
92.53,15.6521,-0.06825477,0.28444,1.05747
95.83,15.97928,-0.07081978,0.28191,1.05642
99.13,16.30484,-0.07344989,0.27686,1.05534
102.43,16.6285,-0.07476831,0.27296,1.05426
105.73,16.95101,-0.07872746,0.26481,1.05317
109.03,17.2736,-0.07936056,0.26033,1.05206
112.33,17.5963,-0.08138548,0.25664,1.05095
115.63,17.91779,-0.08223,0.25199,1.04982
118.93,18.23862,-0.08223189,0.24826,1.04868
122.23,18.55865,-0.08457951,0.2475,1.04752
125.53,18.87964,-0.08485831,0.2473,1.04636
128.83,19.19931,-0.08519002,0.24814,1.04518
132.13,19.51754,-0.08647343,0.2515,1.044
135.43,19.83587,-0.08618004,0.25266,1.0428
138.73,20.15523,-0.08881813,0.25561,1.04158
142.03,20.47302,-0.08880658,0.25419,1.04036
145.33,20.79019,-0.08882001,0.25557,1.03912
148.63,21.10758,-0.08880993,0.25945,1.03788
151.93,21.42442,-0.09065703,0.26145,1.03662
155.23,21.74155,-0.09144891,0.26408,1.03534
158.53,22.05861,-0.09276223,0.26555,1.03406
161.83,22.37499,-0.09245857,0.26832,1.03276
165.13,22.69139,-0.09099599,0.26843,1.03145
168.43,23.0075,-0.09308291,0.27192,1.03013
171.73,23.324,-0.09156599,0.27174,1.0288
175.03,23.64036,-0.09287988,0.27448,1.02745
178.33,23.95635,-0.09288187,0.27713,1.02609
181.63,24.27153,-0.09321029,0.2784,1.02472
184.93,24.58706,-0.09354178,0.28014,1.02334
188.23,24.9021,-0.0950155,0.28307,1.02194
191.53,25.21602,-0.09583999,0.28502,1.02054
194.83,25.53078,-0.09584051,0.28554,1.01911
198.13,25.84497,-0.0965,0.28825,1.01768
201.43,26.15839,-0.09782,0.28963,1.01624
204.73,26.47188,-0.09781994,0.29131,1.01478
208.03,26.78547,-0.09650008,0.29333,1.01331
211.33,27.0995,-0.09782003,0.2952,1.01182
214.63,27.41335,-0.10007,0.29783,1.01033
217.93,27.72755,-0.09913089,0.29848,1.00882
221.23,28.0416,-0.10045,0.30086,1.00729
224.53,28.35548,-0.10309,0.30342,1.00576
227.83,28.6687,-0.10342,0.30627,1.00421
231.13,28.98235,-0.10539,0.3088,1.00265
234.43,29.29465,-0.10671,0.31104,1.00108
237.73,29.6077,-0.11098,0.31573,0.99949
241.03,29.92056,-0.11034,0.31623,0.99789
244.33,30.23384,-0.1156,0.32005,0.99628
247.63,30.54775,-0.11947,0.31955,0.99465
250.93,30.86099,-0.12351,0.32198,0.99302
254.23,31.1768,-0.12757,0.32491,0.99136
257.53,31.49165,-0.12889,0.32743,0.9897
260.83,31.80645,-0.13284,0.33281,0.98802
264.13,32.12014,-0.13547,0.33677,0.98633
267.43,32.43463,-0.14211,0.33946,0.98463
270.73,32.74881,-0.14734,0.34308,0.98291
274.03,33.06296,-0.15261,0.34302,0.98118
277.33,33.37795,-0.16049,0.33943,0.97944
280.63,33.69308,-0.16766,0.33776,0.97768
283.93,34.0082,-0.17543,0.34162,0.97591
287.23,34.32308,-0.18491,0.34664,0.97413
290.53,34.63909,-0.19487,0.351,0.97233
293.83,34.95427,-0.20566,0.35629,0.97052
297.13,35.26998,-0.22231,0.36493,0.9687
300.43,35.58549,-0.23803,0.37035,0.96687
303.73,35.90099,-0.25479,0.38292,0.96502
307.03,36.21753,-0.27917,0.39388,0.96316
310.33,36.5336,-0.30056,0.40895,0.96128
313.63,36.8493,-0.3282,0.42525,0.95939
316.93,37.16482,-0.36061,0.44982,0.95749
320.23,37.48298,-0.39788,0.48296,0.95557
323.53,37.79983,-0.44295,0.52293,0.95364
326.83,38.11727,-0.49485,0.57085,0.9517
330.13,38.43524,-0.55571,0.6318,0.94975
333.43,38.75331,-0.62719,0.71216,0.94778
336.73,39.07022,-0.71322,0.81082,0.9458
340.03,39.38922,-0.81857,0.9297,0.9438
343.33,39.70817,-0.94341,1.0731,0.94179
346.63,40.0276,-1.09478,1.24166,0.93977
349.93,40.34753,-1.27317,1.42119,0.93774
353.23,40.66785,-1.48258,1.59901,0.93569
356.53,40.98891,-1.71801,1.75135,0.93363
359.83,41.30851,-1.97512,1.84055,0.93155
363.13,41.62975,-2.23934,1.84516,0.92946
366.43,41.94894,-2.49844,1.76271,0.92736
369.73,42.26726,-2.7429,1.60483,0.92525
373.03,42.58467,-2.956,1.36087,0.92312
376.33,42.90149,-3.13125,1.02968,0.92098
379.63,43.218,-3.25431,0.64009,0.91882
382.93,43.53374,-3.31861,0.29879,0.91665
386.23,43.85015,-3.35169,0.08399389,0.91447
389.53,44.1667,-3.36487,-0.001606032,0.91228
392.83,44.48441,-3.37143,-0.02534106,0.91007
396.13,44.80207,-3.37536,-0.03451185,0.90785
399.43,45.12084,-3.38172,-0.03859919,0.90562
402.73,45.44082,-3.38363,-0.03912185,0.90337
406.03,45.76116,-3.38767,-0.03902791,0.90112
409.33,46.08163,-3.39298,-0.04180529,0.89884
412.63,46.40229,-3.39681,-0.04171795,0.89656
415.93,46.72282,-3.40205,-0.03971107,0.89426
419.23,47.04404,-3.40473,-0.04072163,0.89195
422.53,47.36564,-3.40735,-0.04395603,0.88963
425.83,47.687,-3.41085,-0.04158343,0.88729
429.13,48.00904,-3.41532,-0.04101271,0.88494
432.43,48.33088,-3.418,-0.0402345,0.88258
435.73,48.6527,-3.42064,-0.04102418,0.8802
439.03,48.97583,-3.42459,-0.04040846,0.87782
442.33,49.29864,-3.42902,-0.03976834,0.87542
445.63,49.6212,-3.4315,-0.03870481,0.87301
448.93,49.94518,-3.43405,-0.0368284,0.87058
452.23,50.2688,-3.43688,-0.03904997,0.86814
455.53,50.59245,-3.44116,-0.03794897,0.86569
458.83,50.9154,-3.4438,-0.03924563,0.86323
462.13,51.23859,-3.44576,-0.03912143,0.86076
465.43,51.56268,-3.44974,-0.03814391,0.85827
468.73,51.88658,-3.4517,-0.03687647,0.85577
472.03,52.21117,-3.45499,-0.0370424,0.85326
475.33,52.53552,-3.45598,-0.03717331,0.85074
478.63,52.85949,-3.45993,-0.03479405,0.8482
481.93,53.18436,-3.46224,-0.03437302,0.84566
485.23,53.5093,-3.46488,-0.0305368,0.8431
488.53,53.83413,-3.46883,-0.01692699,0.84053
491.83,54.1596,-3.47014,-0.004653514,0.83795
495.13,54.4845,-3.47169,-0.000881026,0.83535
498.43,54.80981,-3.47509,-0.004155513,0.83275
501.73,55.13541,-3.47547,-0.009566949,0.83013
505.03,55.46082,-3.48199,-0.008615049,0.8275
508.33,55.7857,-3.48299,-0.01274881,0.82486
511.63,56.11136,-3.48332,-0.02671083,0.82221
514.93,56.43707,-3.48595,-0.04043212,0.81955
518.23,56.7629,-3.48727,-0.05011748,0.81687
521.53,57.08985,-3.48946,-0.05983478,0.81419
524.83,57.41644,-3.49114,-0.06326165,0.81149
528.13,57.7427,-3.49375,-0.06736416,0.80879
531.43,58.06951,-3.49638,-0.06989057,0.80607
534.73,58.39677,-3.49677,-0.07145215,0.80334
538.03,58.72367,-3.4967,-0.07670123,0.8006
541.33,59.0512,-3.49934,-0.07603493,0.79785
544.63,59.37941,-3.50063,-0.08131925,0.79509
547.93,59.70734,-3.50195,-0.07889418,0.79232
551.23,60.0353,-3.5033,-0.07645175,0.78954
554.53,60.3634,-3.50494,-0.07838423,0.78675
557.83,60.69034,-3.50791,-0.07405406,0.78395
561.13,61.0178,-3.51032,-0.07554163,0.78114
564.43,61.3454,-3.50966,-0.07823691,0.77832
567.73,61.67311,-3.50975,-0.07700209,0.77549
571.03,62.00133,-3.5123,-0.07616588,0.77265
574.33,62.32986,-3.51274,-0.07692571,0.7698
577.63,62.658,-3.51504,-0.07646344,0.76694
580.93,62.9861,-3.51669,-0.07381617,0.76407
584.23,63.3148,-3.51702,-0.07536784,0.7612
587.53,63.64383,-3.51834,-0.07213974,0.75831
590.83,63.97257,-3.52196,-0.07259746,0.75541
594.13,64.30142,-3.51967,-0.07003907,0.75251
597.43,64.6319,-3.5203,-0.0700249,0.7496
600.73,64.96165,-3.5226,-0.0654887,0.74667
604.03,65.2924,-3.5223,-0.06803189,0.74374
607.33,65.62346,-3.52456,-0.06931167,0.7408
610.63,65.95323,-3.52718,-0.06386277,0.73786
613.93,66.28392,-3.52659,-0.06405013,0.7349
617.23,66.6139,-3.5259,-0.06281909,0.73194
620.53,66.9444,-3.5299,-0.06363478,0.72896
623.83,67.2736,-3.52987,-0.06304678,0.72598
627.13,67.60295,-3.52915,-0.06133565,0.723
630.43,67.9334,-3.53338,-0.05027828,0.72
633.73,68.2641,-3.53207,-0.05032749,0.717
637.03,68.59437,-3.53333,-0.04608629,0.71399
640.33,68.92527,-3.53339,-0.04275112,0.71097
643.63,69.256,-3.53412,-0.0444147,0.70795
646.93,69.58787,-3.53223,-0.04296232,0.70492
650.23,69.91922,-3.53615,-0.04040536,0.70188
653.53,70.2508,-3.53547,-0.03949079,0.69883
656.83,70.58139,-3.53683,-0.03515349,0.69578
660.13,70.91163,-3.53646,-0.03380375,0.69272
663.43,71.24299,-3.53546,-0.03461653,0.68966
666.73,71.57361,-3.53544,-0.03078041,0.68659
670.03,71.90527,-3.53678,-0.0286289,0.68351
673.33,72.237,-3.53714,-0.02902452,0.68043
676.63,72.56885,-3.53678,-0.02268311,0.67734
679.93,72.9007,-3.53812,-0.01963489,0.67425
683.23,73.23218,-3.53975,-0.02108103,0.67115
686.53,73.56421,-3.53971,-0.01598961,0.66804
689.83,73.89694,-3.54368,-0.01129069,0.66493
693.13,74.22872,-3.5404,-0.01177587,0.66182
696.43,74.5616,-3.5426,-0.01338757,0.6587
699.73,74.8947,-3.54304,-0.01275102,0.65557
703.03,75.22707,-3.54172,-0.0111045,0.65245
706.33,75.5586,-3.54436,-0.01550928,0.64931
709.63,75.89059,-3.54469,-0.01264761,0.64617
712.93,76.22238,-3.54436,-0.01588702,0.64303
716.23,76.55418,-3.54502,-0.01230281,0.63989
719.53,76.88628,-3.54502,-0.01306501,0.63674
722.83,77.21947,-3.54436,-0.01374955,0.63358
726.13,77.55297,-3.54699,-0.01452237,0.63042
729.43,77.886,-3.54635,-0.01475413,0.62726
732.73,78.2187,-3.54469,-0.01605568,0.6241
736.03,78.55155,-3.54733,-0.01495741,0.62093
739.33,78.88436,-3.547,-0.01616769,0.61776
742.63,79.21774,-3.54699,-0.01743993,0.61459
745.93,79.55131,-3.55062,-0.02409988,0.61141
749.23,79.88503,-3.54798,-0.02936971,0.60823
752.53,80.21928,-3.54952,-0.03697696,0.60505
755.83,80.55291,-3.55037,-0.04878143,0.60187
759.13,80.8875,-3.55061,-0.05447306,0.59869
762.43,81.22149,-3.55061,-0.06293848,0.5955
765.73,81.55527,-3.55047,-0.06625086,0.59231
769.03,81.88849,-3.55194,-0.07020543,0.58912
772.33,82.22111,-3.55119,-0.06001201,0.58593
775.63,82.55362,-3.55358,-0.06180616,0.58273
778.93,82.88733,-3.55254,-0.05772421,0.57954
782.23,83.2221,-3.55444,-0.0593373,0.57635
785.53,83.556,-3.5552,-0.05783976,0.57315
788.83,83.89031,-3.55523,-0.06712784,0.56995
792.13,84.22365,-3.55538,-0.06693196,0.56676
795.43,84.55803,-3.55479,-0.07433334,0.56356
798.73,84.89193,-3.55366,-0.07684913,0.56036
799.73,84.99295,-3.55609,-0.07697727,0.55939