File: 01_Data/Bean_Bag_Chair_Outer_Cover/STA/N2/10K_min/Bean_Bag_Cover_STA_N2_10KData_220511_R2.csv
##Temp./Â°C,Time/min,Mass loss(subtr.2)/mg,DSC(subtr.2)/(mW/mg),Sensit./(uV/mW)
49.748,10.01,-0.01515,0.01747008,1.07017
52.848,11.3063,-0.01493362,0.11964,1.06931
55.948,11.74802,-0.01535525,0.16559,1.06844
59.048,12.1255,-0.01613329,0.19438,1.06757
62.148,12.47771,-0.0158695,0.21107,1.06668
65.248,12.81868,-0.01734006,0.229,1.06579
68.348,13.15399,-0.01875695,0.23968,1.06488
71.448,13.4842,-0.01996627,0.25015,1.06397
74.548,13.8115,-0.02119453,0.26144,1.06304
77.648,14.13451,-0.02128285,0.27127,1.06211
80.748,14.4544,-0.02392817,0.27834,1.06116
83.848,14.7717,-0.02393272,0.29004,1.0602
86.948,15.08486,-0.02526245,0.29089,1.05924
90.048,15.39605,-0.02656005,0.29524,1.05826
93.148,15.7054,-0.02878323,0.29738,1.05728
96.248,16.012,-0.0291999,0.29581,1.05628
99.348,16.3181,-0.03184944,0.29411,1.05527
102.448,16.62292,-0.03184102,0.29244,1.05426
105.548,16.92669,-0.03281312,0.28696,1.05323
108.648,17.2294,-0.03281035,0.2865,1.05219
111.748,17.53148,-0.03545194,0.28158,1.05114
114.848,17.83363,-0.03579001,0.28127,1.05009
117.948,18.13553,-0.0354526,0.27881,1.04902
121.048,18.43705,-0.0368337,0.27871,1.04794
124.148,18.73829,-0.03789279,0.28127,1.04685
127.248,19.0392,-0.03809001,0.28229,1.04575
130.348,19.33905,-0.03808995,0.28574,1.04464
133.448,19.63862,-0.03678,0.28856,1.04352
136.548,19.9382,-0.03710141,0.29143,1.04239
139.648,20.23749,-0.03710047,0.29469,1.04124
142.748,20.53501,-0.03711,0.29668,1.04009
145.848,20.83334,-0.03709998,0.30046,1.03893
148.948,21.13097,-0.03841904,0.30726,1.03775
152.048,21.42746,-0.03811894,0.31202,1.03657
155.148,21.72499,-0.0383922,0.31498,1.03537
158.248,22.02198,-0.03842001,0.319,1.03417
161.348,22.31875,-0.03850574,0.32276,1.03295
164.448,22.6157,-0.03842157,0.32604,1.03172
167.548,22.91215,-0.0397291,0.32922,1.03049
170.648,23.20845,-0.03944235,0.33245,1.02924
173.748,23.50464,-0.03875018,0.33615,1.02798
176.848,23.80105,-0.03874112,0.33902,1.0267
179.948,24.09706,-0.03874583,0.34216,1.02542
183.048,24.39349,-0.04007,0.3461,1.02413
186.148,24.68891,-0.04138599,0.34882,1.02283
189.248,24.98374,-0.03846405,0.34972,1.02151
192.348,25.28011,-0.03974,0.35079,1.02018
195.448,25.57457,-0.03974,0.35266,1.01885
198.548,25.87003,-0.04040042,0.35691,1.0175
201.648,26.1653,-0.04055746,0.36065,1.01614
204.748,26.4599,-0.04138148,0.36531,1.01477
207.848,26.7551,-0.04103623,0.36631,1.01339
210.948,27.0501,-0.04138,0.36817,1.01199
214.048,27.3448,-0.04238001,0.36924,1.01059
217.148,27.6402,-0.04238,0.37109,1.00917
220.248,27.9347,-0.04369,0.37394,1.00775
223.348,28.22938,-0.04369004,0.3776,1.00631
226.448,28.52485,-0.04432598,0.38085,1.00486
229.548,28.81987,-0.04566718,0.38131,1.0034
232.648,29.1147,-0.04863053,0.38263,1.00193
235.748,29.4099,-0.04994118,0.38621,1.00044
238.848,29.70518,-0.04994014,0.39156,0.99895
241.948,30.00051,-0.05125943,0.39213,0.99744
245.048,30.29608,-0.05389945,0.39744,0.99593
248.148,30.59137,-0.05618524,0.39986,0.9944
251.248,30.8869,-0.06015332,0.40425,0.99286
254.348,31.18226,-0.06213,0.41038,0.9913
257.448,31.477,-0.06475975,0.41379,0.98974
260.548,31.77256,-0.06871988,0.41993,0.98817
263.648,32.06754,-0.07233782,0.4237,0.98658
266.748,32.3628,-0.07591908,0.4281,0.98498
269.848,32.65872,-0.07881267,0.43216,0.98337
272.948,32.95447,-0.08311209,0.43455,0.98175
276.048,33.25,-0.08815998,0.44182,0.98012
279.148,33.54598,-0.09633895,0.44796,0.97847
282.248,33.84151,-0.10032,0.45187,0.97682
285.348,34.13759,-0.10891,0.45535,0.97515
288.448,34.43425,-0.11574,0.45489,0.97347
291.548,34.73039,-0.12592,0.45885,0.97178
294.648,35.02735,-0.13515,0.46667,0.97007
297.748,35.3238,-0.14776,0.47332,0.96836
300.848,35.62015,-0.16106,0.48198,0.96663
303.948,35.9166,-0.17677,0.48867,0.96489
307.048,36.21335,-0.19459,0.50366,0.96315
310.148,36.51086,-0.21622,0.51703,0.96138
313.248,36.80805,-0.23875,0.53438,0.95961
316.348,37.10524,-0.26483,0.55369,0.95783
319.448,37.403,-0.29613,0.57585,0.95603
322.548,37.7008,-0.33251,0.60667,0.95422
325.648,37.99888,-0.37269,0.64544,0.9524
328.748,38.29722,-0.42221,0.68895,0.95057
331.848,38.59517,-0.47949,0.74603,0.94872
334.948,38.8938,-0.54771,0.81854,0.94687
338.048,39.193,-0.62948,0.90787,0.945
341.148,39.49174,-0.72836,1.01429,0.94312
344.248,39.79161,-0.84539,1.13942,0.94123
347.348,40.09195,-0.98342,1.28091,0.93933
350.448,40.39245,-1.14793,1.43281,0.93742
353.548,40.69375,-1.33566,1.5886,0.93549
356.648,40.99561,-1.55142,1.7261,0.93355
359.748,41.2978,-1.78622,1.82914,0.9316
362.848,41.59921,-2.03419,1.87122,0.92964
365.948,41.9001,-2.28388,1.85802,0.92767
369.048,42.2001,-2.52639,1.77339,0.92568
372.148,42.49895,-2.75272,1.61516,0.92369
375.248,42.79717,-2.94828,1.36322,0.92168
378.348,43.09363,-3.09892,1.02637,0.91966
381.448,43.38925,-3.19792,0.65271,0.91763
384.548,43.6854,-3.24897,0.36183,0.91559
387.648,43.98304,-3.26869,0.21329,0.91353
390.748,44.28212,-3.27831,0.16094,0.91147
393.848,44.5816,-3.28363,0.14621,0.90939
396.948,44.8815,-3.28889,0.13708,0.9073
400.048,45.18229,-3.29512,0.13475,0.9052
403.148,45.4831,-3.29895,0.13432,0.90309
406.248,45.78439,-3.30172,0.12941,0.90097
409.348,46.08556,-3.30568,0.12904,0.89883
412.448,46.38728,-3.30974,0.12669,0.89668
415.548,46.68882,-3.31237,0.12635,0.89453
418.648,46.99049,-3.31734,0.12129,0.89236
421.748,47.29214,-3.31896,0.12107,0.89018
424.848,47.59406,-3.32423,0.1201,0.88799
427.948,47.89678,-3.32687,0.11992,0.88578
431.048,48.19915,-3.32818,0.12101,0.88357
434.148,48.50246,-3.33205,0.12217,0.88134
437.248,48.80516,-3.33484,0.12111,0.87911
440.348,49.10859,-3.33872,0.11817,0.87686
443.448,49.4118,-3.34143,0.11628,0.8746
446.548,49.71598,-3.3453,0.11793,0.87233
449.648,50.0196,-3.34827,0.11589,0.87005
452.748,50.3241,-3.35091,0.11671,0.86776
455.848,50.62657,-3.35486,0.11606,0.86546
458.948,50.9309,-3.35783,0.11665,0.86314
462.048,51.23526,-3.3596,0.12094,0.86082
465.148,51.53952,-3.36441,0.12039,0.85848
468.248,51.84359,-3.36701,0.1214,0.85614
471.348,52.1481,-3.36902,0.1225,0.85378
474.448,52.4529,-3.37135,0.12037,0.85141
477.548,52.75846,-3.37386,0.12257,0.84904
480.648,53.06378,-3.3766,0.1223,0.84665
483.748,53.36821,-3.38055,0.12214,0.84425
486.848,53.6729,-3.38188,0.13403,0.84184
489.948,53.97838,-3.38451,0.14622,0.83942
493.048,54.2839,-3.38712,0.1507,0.83699
496.148,54.5893,-3.38978,0.14885,0.83455
499.248,54.8957,-3.39111,0.14724,0.8321
502.348,55.20135,-3.39373,0.14427,0.82964
505.448,55.5067,-3.39493,0.14245,0.82717
508.548,55.81235,-3.39736,0.13851,0.82469
511.648,56.11829,-3.399,0.13433,0.82219
514.748,56.425,-3.40168,0.1307,0.81969
517.848,56.73202,-3.40295,0.12642,0.81718
520.948,57.0389,-3.40427,0.11856,0.81466
524.048,57.3455,-3.4046,0.11253,0.81213
527.148,57.6519,-3.40689,0.09846374,0.80959
530.248,57.95802,-3.40855,0.08202009,0.80704
533.348,58.26523,-3.40888,0.07119092,0.80449
536.448,58.57235,-3.4125,0.06318809,0.80192
539.548,58.8799,-3.41382,0.06001076,0.79934
542.648,59.1878,-3.41382,0.05083368,0.79675
545.748,59.49494,-3.41513,0.04780026,0.79416
548.848,59.8025,-3.41612,0.04863569,0.79155
551.948,60.11045,-3.41642,0.04596115,0.78894
555.048,60.418,-3.41777,0.04705493,0.78631
558.148,60.72515,-3.41908,0.04499129,0.78368
561.248,61.03369,-3.42008,0.04681216,0.78104
564.348,61.34135,-3.42107,0.0476144,0.77839
567.448,61.64935,-3.42239,0.05032933,0.77573
570.548,61.9581,-3.42403,0.04686418,0.77307
573.648,62.26665,-3.4247,0.04894638,0.77039
576.748,62.57499,-3.42667,0.05026491,0.76771
579.848,62.88437,-3.42669,0.04755273,0.76502
582.948,63.194,-3.42698,0.04766591,0.76232
586.048,63.50252,-3.42831,0.04274104,0.75961
589.148,63.81185,-3.42806,0.04467713,0.75689
592.248,64.1219,-3.4293,0.03890271,0.75417
595.348,64.43182,-3.43061,0.04510761,0.75144
598.448,64.74119,-3.43193,0.04664778,0.7487
601.548,65.04992,-3.43292,0.04784176,0.74595
604.648,65.3596,-3.43393,0.05000656,0.74319
607.748,65.66966,-3.43489,0.04876598,0.74043
610.848,65.97957,-3.4349,0.05472804,0.73766
613.948,66.28967,-3.43622,0.05057738,0.73488
617.048,66.59942,-3.43556,0.05317158,0.7321
620.148,66.90944,-3.43589,0.05441417,0.72931
623.248,67.2192,-3.43819,0.05552174,0.72651
626.348,67.52937,-3.43753,0.05612862,0.72371
629.448,67.83927,-3.43786,0.05506006,0.72089
632.548,68.14984,-3.43918,0.05892152,0.71808
635.648,68.46046,-3.43753,0.05970079,0.71525
638.748,68.7714,-3.44017,0.05810327,0.71242
641.848,69.0826,-3.44016,0.06441778,0.70958
644.948,69.3929,-3.44149,0.06275955,0.70674
648.048,69.70545,-3.44116,0.06752909,0.70389
651.148,70.01608,-3.44116,0.06955015,0.70103
654.248,70.327,-3.44248,0.0687113,0.69817
657.348,70.63794,-3.44215,0.06991185,0.6953
660.448,70.94887,-3.44313,0.0694654,0.69243
663.548,71.25928,-3.44445,0.07521556,0.68955
666.648,71.5701,-3.44445,0.0778114,0.68666
669.748,71.88178,-3.44445,0.07997704,0.68378
672.848,72.19367,-3.44478,0.07827604,0.68088
675.948,72.50647,-3.44679,0.07789324,0.67798
679.048,72.819,-3.44481,0.08056667,0.67508
682.148,73.13128,-3.44543,0.08298548,0.67217
685.248,73.44364,-3.44543,0.08179142,0.66925
688.348,73.75572,-3.44544,0.0828964,0.66633
691.448,74.06752,-3.44676,0.08427569,0.66341
694.548,74.3796,-3.4461,0.08923011,0.66048
697.648,74.6922,-3.44742,0.09000655,0.65755
700.748,75.00493,-3.44676,0.0914536,0.65461
703.848,75.31784,-3.4481,0.08945395,0.65167
706.948,75.63144,-3.44774,0.09281418,0.64872
710.048,75.94451,-3.44807,0.09349015,0.64578
713.148,76.25704,-3.44874,0.09040155,0.64282
716.248,76.56931,-3.44807,0.09419123,0.63987
719.348,76.8809,-3.44807,0.09519005,0.63691
722.448,77.1934,-3.44938,0.0972352,0.63395
725.548,77.5061,-3.44708,0.09893372,0.63098
728.648,77.8184,-3.44807,0.09994361,0.62801
731.748,78.13043,-3.44872,0.09882944,0.62504
734.848,78.44311,-3.44873,0.09881043,0.62207
737.948,78.75631,-3.45021,0.10243,0.61909
741.048,79.0694,-3.4494,0.09863593,0.61611
744.148,79.38265,-3.44933,0.09041963,0.61313
747.248,79.69646,-3.44873,0.0947804,0.61014
750.148,79.99033,-3.44972,0.09207538,0.60735