File: 01_Data/Pine_Lap_Siding/STA/N2/10K_min/Pine_Lap_Siding_STA_N2_10KData_220322_R2.csv
##Temp./Â°C,Time/min,Mass loss(subtr.2)/mg,DSC(subtr.2)/(mW/mg),Sensit./(uV/mW)
49.701,10.00917,-0.06735,0.0268502,1.07515
53.201,11.36235,-0.07021164,0.14024,1.07333
56.701,11.83968,-0.07332072,0.19428,1.07151
60.201,12.25234,-0.07582007,0.2267,1.06969
63.701,12.64221,-0.07835187,0.25016,1.06787
67.201,13.02218,-0.08089482,0.26891,1.06606
70.701,13.39725,-0.08347029,0.28148,1.06424
74.201,13.7674,-0.08510467,0.29627,1.06243
77.701,14.1338,-0.08874705,0.30873,1.06062
81.201,14.4961,-0.09176068,0.32067,1.05881
84.701,14.85324,-0.09530598,0.324,1.05701
88.201,15.2088,-0.09894,0.32369,1.0552
91.701,15.56015,-0.10158,0.32091,1.0534
95.201,15.9088,-0.10289,0.31767,1.0516
98.701,16.2551,-0.10685,0.31081,1.0498
102.201,16.5993,-0.10684,0.30247,1.048
105.701,16.94349,-0.10947,0.29294,1.04621
109.201,17.28539,-0.1121,0.28736,1.04442
112.701,17.62764,-0.11302,0.28183,1.04263
116.201,17.96966,-0.11342,0.27839,1.04084
119.701,18.311,-0.11362,0.2777,1.03905
123.201,18.65214,-0.11487,0.27993,1.03726
126.701,18.99308,-0.11508,0.28248,1.03548
130.201,19.33324,-0.11463,0.28209,1.0337
133.701,19.67238,-0.11605,0.2894,1.03192
137.201,20.01059,-0.11737,0.2917,1.03014
140.701,20.34918,-0.11868,0.2922,1.02836
144.201,20.68744,-0.11859,0.29355,1.02658
147.701,21.02615,-0.11989,0.29761,1.02481
151.201,21.36451,-0.12054,0.29811,1.02304
154.701,21.7014,-0.12121,0.30421,1.02126
158.201,22.03847,-0.12281,0.30652,1.01949
161.701,22.37495,-0.12148,0.3081,1.01772
165.201,22.71055,-0.12165,0.31241,1.01595
168.701,23.04695,-0.1236,0.31498,1.01419
172.201,23.38316,-0.12515,0.32003,1.01242
175.701,23.7191,-0.12483,0.32386,1.01065
179.201,24.05431,-0.12713,0.32733,1.00889
182.701,24.38928,-0.12582,0.33204,1.00712
186.201,24.72295,-0.12577,0.33134,1.00536
189.701,25.0569,-0.12844,0.33701,1.00359
193.201,25.39184,-0.13042,0.33537,1.00183
196.701,25.72687,-0.13089,0.33869,1.00007
200.201,26.0613,-0.13305,0.34078,0.9983
203.701,26.39658,-0.13502,0.34404,0.99654
207.201,26.73228,-0.13635,0.34736,0.99478
210.701,27.06707,-0.13832,0.35101,0.99301
214.201,27.4009,-0.13996,0.35428,0.99125
217.701,27.7348,-0.14161,0.35863,0.98949
221.201,28.06803,-0.14555,0.36212,0.98772
224.701,28.4019,-0.14717,0.36387,0.98596
228.201,28.73576,-0.15214,0.369,0.98419
231.701,29.0697,-0.15444,0.37241,0.98242
235.201,29.40383,-0.15972,0.37952,0.98066
238.701,29.73808,-0.16553,0.38433,0.97889
242.201,30.0716,-0.17133,0.39012,0.97712
245.701,30.40587,-0.17956,0.39273,0.97535
249.201,30.7393,-0.18812,0.39589,0.97357
252.701,31.0737,-0.19682,0.39845,0.9718
256.201,31.40724,-0.20689,0.39759,0.97002
259.701,31.7405,-0.22024,0.39837,0.96824
263.201,32.0743,-0.23401,0.4022,0.96646
266.701,32.40782,-0.24905,0.40479,0.96468
270.201,32.7419,-0.26738,0.40851,0.9629
273.701,33.07693,-0.2888,0.4154,0.96111
277.201,33.41171,-0.30977,0.4173,0.95932
280.701,33.74628,-0.33512,0.4233,0.95753
284.201,34.08136,-0.3622,0.42827,0.95574
287.701,34.41724,-0.39217,0.43112,0.95394
291.201,34.75322,-0.42759,0.43841,0.95214
294.701,35.08891,-0.46472,0.44909,0.95034
298.201,35.42479,-0.50679,0.45816,0.94853
301.701,35.76128,-0.55042,0.47113,0.94672
305.201,36.0974,-0.60134,0.48752,0.9449
308.701,36.43391,-0.65553,0.50434,0.94309
312.201,36.7694,-0.71467,0.52342,0.94127
315.701,37.1051,-0.77863,0.54524,0.93944
319.201,37.43987,-0.84729,0.56668,0.93761
322.701,37.7757,-0.92158,0.58201,0.93578
326.201,38.11169,-1.0008,0.59658,0.93394
329.701,38.4484,-1.08603,0.61152,0.9321
333.201,38.7856,-1.17233,0.6207,0.93025
336.701,39.12209,-1.26566,0.6356,0.9284
340.201,39.46038,-1.35876,0.64822,0.92654
343.701,39.79875,-1.4573,0.67057,0.92467
347.201,40.13692,-1.55883,0.69922,0.92281
350.701,40.47503,-1.66601,0.73704,0.92093
354.201,40.8135,-1.77961,0.78756,0.91905
357.701,41.1518,-1.90391,0.83344,0.91717
361.201,41.49061,-2.03197,0.87704,0.91528
364.701,41.83041,-2.17021,0.89201,0.91338
368.201,42.17064,-2.30495,0.86551,0.91148
371.701,42.5105,-2.43626,0.78313,0.90957
375.201,42.84892,-2.54555,0.65024,0.90766
378.701,43.1868,-2.63696,0.47785,0.90573
382.201,43.5248,-2.69836,0.31407,0.90381
385.701,43.86352,-2.73875,0.17889,0.90187
389.201,44.20134,-2.76162,0.09870935,0.89993
392.701,44.54094,-2.77951,0.06062569,0.89798
396.201,44.88138,-2.79035,0.04725119,0.89602
399.701,45.2227,-2.80359,0.03652992,0.89406
403.201,45.5651,-2.81455,0.02638101,0.89209
406.701,45.9078,-2.82474,0.0198766,0.89011
410.201,46.25007,-2.83646,0.00908329,0.88812
413.701,46.59151,-2.84528,0.007563635,0.88613
417.201,46.93292,-2.85637,-0.00261874,0.88413
420.701,47.2748,-2.86817,-0.01340305,0.88212
424.201,47.61802,-2.87758,-0.02142581,0.8801
427.701,47.96148,-2.88777,-0.02736815,0.87807
431.201,48.30515,-2.89789,-0.02993229,0.87603
434.701,48.64885,-2.90615,-0.03197856,0.87399
438.201,48.99242,-2.91578,-0.03375866,0.87194
441.701,49.33488,-2.92507,-0.03078798,0.86988
445.201,49.67843,-2.93143,-0.02771029,0.86781
448.701,50.02252,-2.93997,-0.01953581,0.86573
452.201,50.36646,-2.94876,-0.00829918,0.86364
455.701,50.71143,-2.95426,-0.001986657,0.86154
459.201,51.05742,-2.96157,0.002197165,0.85944
462.701,51.403,-2.96943,0.008101895,0.85732
466.201,51.74863,-2.97612,0.01696264,0.85519
469.701,52.0938,-2.9806,0.02313002,0.85306
473.201,52.439,-2.98707,0.02643162,0.85091
476.701,52.7839,-2.99102,0.03169375,0.84876
480.201,53.1291,-2.99629,0.03543754,0.84659
483.701,53.4755,-3.00189,0.03784756,0.84442
487.201,53.823,-3.0055,0.04098879,0.84223
490.701,54.1702,-3.00945,0.03991124,0.84004
494.201,54.51696,-3.01527,0.04048778,0.83783
497.701,54.8636,-3.0189,0.04298216,0.83562
501.201,55.20997,-3.02284,0.04210178,0.83339
504.701,55.55602,-3.0262,0.04405773,0.83116
508.201,55.90197,-3.03107,0.05708237,0.82891
511.701,56.24899,-3.03502,0.06621408,0.82665
515.201,56.59636,-3.03864,0.07955236,0.82439
518.701,56.9443,-3.04291,0.08023882,0.82211
522.201,57.29159,-3.04653,0.08446679,0.81982
525.701,57.63965,-3.0495,0.09087556,0.81752
529.201,57.98706,-3.05327,0.08956247,0.81521
532.701,58.3336,-3.0565,0.09102102,0.81288
536.201,58.68054,-3.05937,0.09338773,0.81055
539.701,59.02819,-3.06333,0.08682397,0.80821
543.201,59.37655,-3.06792,0.06656227,0.80585
546.701,59.72571,-3.07055,0.05561297,0.80349
550.201,60.07583,-3.0722,0.05101323,0.80111
553.701,60.4262,-3.07475,0.04707268,0.79872
557.201,60.77675,-3.07845,0.0446962,0.79632
560.701,61.12715,-3.08207,0.04435692,0.79391
564.201,61.47766,-3.08471,0.0442038,0.79149
567.701,61.827,-3.08598,0.04168007,0.78905
571.201,62.1775,-3.08985,0.04388206,0.78661
574.701,62.52854,-3.09227,0.04048982,0.78415
578.201,62.87927,-3.09622,0.03547764,0.78168
581.701,63.22981,-3.09655,0.0356284,0.7792
585.201,63.5798,-3.1005,0.03843812,0.77671
588.701,63.9303,-3.10182,0.04147038,0.77421
592.201,64.2803,-3.10412,0.04447238,0.7717
595.701,64.63078,-3.10807,0.04735333,0.76917
599.201,64.9819,-3.1107,0.05649639,0.76664
602.701,65.33249,-3.11234,0.06479998,0.76409
606.201,65.6832,-3.11563,0.06857102,0.76153
609.701,66.03613,-3.11794,0.07738046,0.75896
613.201,66.38789,-3.12144,0.08536911,0.75638
616.701,66.74025,-3.12294,0.09887869,0.75378
620.201,67.09231,-3.12814,0.11029,0.75118
623.701,67.4436,-3.1299,0.11952,0.74856
627.201,67.79468,-3.13373,0.13522,0.74594
630.701,68.1459,-3.13807,0.14748,0.7433
634.201,68.49797,-3.14228,0.16487,0.74065
637.701,68.8494,-3.14756,0.18322,0.73799
641.201,69.20221,-3.15282,0.20226,0.73531
644.701,69.5554,-3.15613,0.22099,0.73263
648.201,69.90864,-3.16468,0.24234,0.72994
651.701,70.26139,-3.16765,0.26387,0.72723
655.201,70.6156,-3.17595,0.28362,0.72451
658.701,70.96904,-3.18189,0.30413,0.72179
662.201,71.32391,-3.18871,0.32618,0.71905
665.701,71.67737,-3.1957,0.34001,0.7163
669.201,72.03028,-3.20493,0.34653,0.71354
672.701,72.38211,-3.21414,0.34941,0.71077
676.201,72.73441,-3.22177,0.3348,0.70799
679.701,73.08739,-3.22865,0.30732,0.7052
683.201,73.44023,-3.23527,0.28304,0.70239
686.701,73.7933,-3.24309,0.26308,0.69958
690.201,74.14673,-3.24938,0.20785,0.69676
693.701,74.50064,-3.25198,0.07927849,0.69392
697.201,74.85515,-3.25329,0.04968873,0.69108
700.701,75.20985,-3.2546,0.04673403,0.68823
704.201,75.5638,-3.25521,0.0399753,0.68536
707.701,75.9173,-3.25593,0.03817718,0.68249
711.201,76.27245,-3.25856,0.03531463,0.67961
714.701,76.62697,-3.25966,0.03208462,0.67671
718.201,76.98325,-3.26101,0.0327205,0.67381
721.701,77.3385,-3.26189,0.03094138,0.6709
725.201,77.6938,-3.26228,0.03058694,0.66798
728.701,78.0484,-3.26535,0.02379475,0.66505
732.201,78.40281,-3.26536,0.02204405,0.66211
735.701,78.7577,-3.26535,0.01934699,0.65916
739.201,79.1125,-3.267,0.01136515,0.6562
742.701,79.46821,-3.267,0.0142068,0.65323
746.201,79.8248,-3.26787,0.01513737,0.65025
749.701,80.18129,-3.27128,0.01461913,0.64727
753.201,80.53636,-3.27098,0.01163674,0.64428
756.701,80.89226,-3.27227,0.008318595,0.64128
760.201,81.2472,-3.27095,0.00827854,0.63827
763.701,81.60303,-3.27194,0.01085202,0.63525
767.201,81.95921,-3.27391,0.008891704,0.63222
770.701,82.315,-3.27358,0.00229778,0.62919
774.201,82.66994,-3.27622,-0.0002789892,0.62615
777.701,83.02606,-3.27654,-0.0006126896,0.6231
781.201,83.38145,-3.27753,-0.000266172,0.62004
784.701,83.7362,-3.27729,0.0002828404,0.61698
788.201,84.09302,-3.27719,-0.003444311,0.61391
791.701,84.45062,-3.27984,-0.009317059,0.61083
795.201,84.80696,-3.27918,-0.01127995,0.60775
798.701,85.1636,-3.28082,-0.007240199,0.60466
802.201,85.5202,-3.28082,-0.009684145,0.60156
805.701,85.87589,-3.28148,-0.01641062,0.59845
809.201,86.23314,-3.2828,-0.01453404,0.59534
812.701,86.59048,-3.28412,-0.01700978,0.59223
816.201,86.94842,-3.28311,-0.0212379,0.5891
819.701,87.30587,-3.28378,-0.03203541,0.58598
823.201,87.6636,-3.28675,-0.03283672,0.58284
826.701,88.02094,-3.28673,-0.0346508,0.5797
830.201,88.37768,-3.28641,-0.03938833,0.57656
833.701,88.7346,-3.2851,-0.0433765,0.57341
837.201,89.09082,-3.28773,-0.04198121,0.57026
840.701,89.44669,-3.28773,-0.03665328,0.5671
844.201,89.80373,-3.28773,-0.04177442,0.56393
846.101,89.9974,-3.28905,-0.04048955,0.56222