File: 01_Data/Pine_Lap_Siding/STA/N2/10K_min/Pine_Lap_Siding_STA_N2_10KData_220322_R1.csv
##Temp./Â°C,Time/min,Mass loss(subtr.2)/mg,DSC(subtr.2)/(mW/mg),Sensit./(uV/mW)
49.747,10.00917,-0.00328,0.02001978,1.07513
53.147,11.3396,-0.004810162,0.14047,1.07336
56.547,11.80542,-0.00326886,0.19082,1.07159
59.947,12.20876,-0.005589809,0.22307,1.06982
63.347,12.58924,-0.006912166,0.24256,1.06806
66.747,12.95851,-0.00596479,0.26236,1.06629
70.147,13.32298,-0.007888519,0.27535,1.06453
73.547,13.6825,-0.009540008,0.28836,1.06277
76.947,14.03832,-0.01049771,0.30017,1.06101
80.347,14.39059,-0.01184003,0.31059,1.05925
83.747,14.73976,-0.01446944,0.31725,1.0575
87.147,15.086,-0.01587429,0.31963,1.05574
90.547,15.42965,-0.01678136,0.318,1.05399
93.947,15.7707,-0.01842,0.31491,1.05224
97.347,16.10933,-0.01842005,0.31262,1.0505
100.747,16.44531,-0.01961926,0.30836,1.04875
104.147,16.77985,-0.02105,0.3024,1.04701
107.547,17.11382,-0.02105131,0.29832,1.04526
110.947,17.447,-0.02051388,0.29597,1.04352
114.347,17.77926,-0.02106001,0.29514,1.04178
117.747,18.11151,-0.02072175,0.29072,1.04005
121.147,18.44332,-0.02204047,0.29465,1.03831
124.547,18.77423,-0.02156634,0.29541,1.03658
127.947,19.10493,-0.02203,0.29845,1.03484
131.347,19.43554,-0.02299221,0.30031,1.03311
134.747,19.7654,-0.02140169,0.30432,1.03139
138.147,20.09486,-0.02175431,0.3067,1.02966
141.547,20.42316,-0.0217105,0.31049,1.02793
144.947,20.7509,-0.0233604,0.31291,1.02621
148.347,21.07807,-0.02335087,0.31589,1.02448
151.747,21.4053,-0.02203537,0.31842,1.02276
155.147,21.73222,-0.02335048,0.32506,1.02104
158.547,22.0593,-0.02303097,0.3288,1.01932
161.947,22.38587,-0.02236976,0.33114,1.0176
165.347,22.71172,-0.02319973,0.33666,1.01588
168.747,23.03748,-0.02368003,0.33953,1.01416
172.147,23.3633,-0.02335,0.34289,1.01245
175.547,23.6888,-0.02467,0.34972,1.01073
178.947,24.0136,-0.02467,0.35264,1.00901
182.347,24.33877,-0.02467,0.35749,1.0073
185.747,24.66356,-0.02497793,0.3585,1.00559
189.147,24.98979,-0.02698001,0.36186,1.00387
192.547,25.31515,-0.02698723,0.36359,1.00216
195.947,25.64024,-0.02697712,0.36737,1.00045
199.347,25.96404,-0.02895658,0.37164,0.99873
202.747,26.2886,-0.02961,0.3749,0.99702
206.147,26.612,-0.02963145,0.38033,0.99531
209.547,26.9367,-0.03246,0.38303,0.99359
212.947,27.26155,-0.03249102,0.38381,0.99188
216.347,27.58638,-0.03476,0.3891,0.99017
219.747,27.91034,-0.0350957,0.39124,0.98845
223.147,28.2348,-0.03767575,0.39696,0.98674
226.547,28.55917,-0.04069041,0.40093,0.98502
229.947,28.88389,-0.04562694,0.405,0.98331
233.347,29.2087,-0.04824908,0.40961,0.98159
236.747,29.5338,-0.05220088,0.41708,0.97987
240.147,29.8579,-0.05741242,0.42206,0.97816
243.547,30.1822,-0.0640999,0.42683,0.97644
246.947,30.50628,-0.07171656,0.43113,0.97471
250.347,30.83165,-0.07935813,0.43175,0.97299
253.747,31.15652,-0.08743791,0.4316,0.97127
257.147,31.4814,-0.09841637,0.43091,0.96954
260.547,31.8057,-0.11249,0.43731,0.96781
263.947,32.13001,-0.1236,0.44196,0.96608
267.347,32.4547,-0.1397,0.4443,0.96435
270.747,32.77981,-0.15845,0.44763,0.96262
274.147,33.10565,-0.17683,0.4499,0.96088
277.547,33.43185,-0.19761,0.45566,0.95915
280.947,33.75777,-0.22185,0.46044,0.95741
284.347,34.08385,-0.24739,0.46781,0.95566
287.747,34.4099,-0.27717,0.47083,0.95392
291.147,34.7362,-0.30895,0.48094,0.95217
294.547,35.0634,-0.34234,0.4891,0.95042
297.947,35.39176,-0.3818,0.50049,0.94866
301.347,35.71895,-0.42389,0.51528,0.9469
304.747,36.04625,-0.46915,0.53059,0.94514
308.147,36.3731,-0.52072,0.5483,0.94338
311.547,36.7004,-0.57547,0.566,0.94161
314.947,37.02774,-0.63518,0.58543,0.93983
318.347,37.35508,-0.69891,0.60753,0.93806
321.747,37.68202,-0.7702,0.6279,0.93628
325.147,38.00969,-0.84471,0.64614,0.93449
328.547,38.338,-0.92276,0.66251,0.9327
331.947,38.66578,-1.00413,0.67554,0.93091
335.347,38.99405,-1.08831,0.69002,0.92911
338.747,39.32176,-1.17726,0.70279,0.92731
342.147,39.6501,-1.26623,0.71878,0.9255
345.547,39.97934,-1.36035,0.7463,0.92369
348.947,40.3098,-1.45988,0.77998,0.92187
352.347,40.63982,-1.56405,0.82458,0.92005
355.747,40.96921,-1.67711,0.87925,0.91822
359.147,41.29929,-1.79789,0.92316,0.91639
362.547,41.6288,-1.92431,0.96125,0.91455
365.947,41.9591,-2.05506,0.96646,0.91271
369.347,42.2887,-2.18413,0.92242,0.91086
372.747,42.6181,-2.30223,0.82731,0.909
376.147,42.94829,-2.40261,0.67517,0.90714
379.547,43.2785,-2.481,0.49986,0.90527
382.947,43.60866,-2.53212,0.34007,0.90339
386.347,43.93846,-2.56595,0.22143,0.90151
389.747,44.26838,-2.58522,0.15527,0.89962
393.147,44.59895,-2.59946,0.13128,0.89773
396.547,44.92988,-2.61193,0.11764,0.89583
399.947,45.26125,-2.62141,0.1109,0.89392
403.347,45.59253,-2.6324,0.10232,0.89201
406.747,45.92429,-2.64063,0.09808713,0.89008
410.147,46.25584,-2.65315,0.08812109,0.88815
413.547,46.5874,-2.66192,0.08301789,0.88622
416.947,46.9191,-2.67227,0.07193638,0.88427
420.347,47.25104,-2.68259,0.06885614,0.88232
423.747,47.58296,-2.69192,0.06110265,0.88036
427.147,47.91548,-2.70108,0.05694809,0.87839
430.547,48.24817,-2.70949,0.0534452,0.87642
433.947,48.58253,-2.71857,0.05200638,0.87443
437.347,48.9162,-2.72689,0.05124758,0.87244
440.747,49.25038,-2.73765,0.05582004,0.87044
444.147,49.58528,-2.74334,0.06067269,0.86843
447.547,49.92024,-2.75234,0.06913275,0.86641
450.947,50.2553,-2.75897,0.07630062,0.86439
454.347,50.59033,-2.76691,0.08377643,0.86235
457.747,50.9261,-2.77255,0.09389607,0.86031
461.147,51.26212,-2.77911,0.10289,0.85826
464.547,51.59822,-2.78568,0.10955,0.8562
467.947,51.93442,-2.79095,0.12078,0.85413
471.347,52.27024,-2.79728,0.12978,0.85205
474.747,52.60521,-2.8013,0.13354,0.84996
478.147,52.9397,-2.80646,0.14085,0.84787
481.547,53.2749,-2.8106,0.14307,0.84576
484.947,53.61019,-2.81649,0.1502,0.84364
488.347,53.94602,-2.81832,0.15132,0.84152
491.747,54.2827,-2.82419,0.15363,0.83938
495.147,54.61985,-2.82893,0.1544,0.83724
498.547,54.9572,-2.83154,0.15767,0.83508
501.947,55.29455,-2.83543,0.16209,0.83292
505.347,55.63267,-2.84043,0.16111,0.83074
508.747,55.97054,-2.84175,0.17391,0.82856
512.147,56.308,-2.84756,0.19121,0.82637
515.547,56.64512,-2.84868,0.19789,0.82416
518.947,56.9816,-2.85357,0.20414,0.82195
522.347,57.31796,-2.85621,0.20927,0.81972
525.747,57.65529,-2.86015,0.21553,0.81749
529.147,57.99428,-2.86208,0.21336,0.81524
532.547,58.33379,-2.86418,0.21485,0.81299
535.947,58.67332,-2.86937,0.21591,0.81072
539.347,59.01204,-2.87203,0.21362,0.80844
542.747,59.3506,-2.87466,0.18966,0.80616
546.147,59.68915,-2.8786,0.18289,0.80386
549.547,60.02777,-2.8809,0.18187,0.80155
552.947,60.36747,-2.88242,0.17972,0.79924
556.347,60.70782,-2.88616,0.17796,0.79691
559.747,61.04778,-2.88879,0.17723,0.79457
563.147,61.3876,-2.8911,0.17394,0.79222
566.547,61.72775,-2.89302,0.17564,0.78986
569.947,62.06835,-2.89735,0.17309,0.78748
573.347,62.4093,-2.89867,0.1738,0.7851
576.747,62.7499,-2.90002,0.17238,0.78271
580.147,63.0907,-2.90262,0.17655,0.78031
583.547,63.43023,-2.90393,0.18062,0.77789
586.947,63.7707,-2.90622,0.18392,0.77547
590.347,64.11091,-2.91051,0.18746,0.77303
593.747,64.45229,-2.9138,0.19396,0.77058
597.147,64.7941,-2.91531,0.19749,0.76813
600.547,65.13651,-2.91709,0.20256,0.76566
603.947,65.4795,-2.91974,0.21379,0.76318
607.347,65.82167,-2.92228,0.21472,0.76069
610.747,66.16319,-2.92499,0.23168,0.75819
614.147,66.50487,-2.92828,0.2447,0.75568
617.547,66.84706,-2.93214,0.25378,0.75315
620.947,67.18723,-2.93486,0.26489,0.75062
624.347,67.5281,-2.93914,0.27678,0.74808
627.747,67.86964,-2.94211,0.28972,0.74552
631.147,68.21168,-2.94473,0.30547,0.74296
634.547,68.5531,-2.94897,0.32078,0.74038
637.947,68.89475,-2.95297,0.34113,0.7378
641.347,69.23578,-2.95833,0.36315,0.7352
644.747,69.57839,-2.96229,0.37962,0.73259
648.147,69.92087,-2.96939,0.40478,0.72998
651.547,70.26377,-2.97544,0.42845,0.72735
654.947,70.60579,-2.9811,0.44265,0.72471
658.347,70.94739,-2.9886,0.46617,0.72206
661.747,71.28984,-2.99485,0.48397,0.7194
665.147,71.63384,-3.00155,0.50136,0.71673
668.547,71.97756,-3.01109,0.51152,0.71406
671.947,72.32056,-3.01767,0.51506,0.71137
675.347,72.66363,-3.02443,0.49766,0.70867
678.747,73.0068,-3.03241,0.47613,0.70596
682.147,73.34997,-3.03935,0.45774,0.70324
685.547,73.69318,-3.04422,0.43934,0.70051
688.947,74.03505,-3.05134,0.3951,0.69777
692.347,74.37764,-3.0553,0.27838,0.69502
695.747,74.7207,-3.05727,0.2239,0.69226
699.147,75.06524,-3.05793,0.21924,0.6895
702.547,75.40929,-3.05859,0.21296,0.68672
705.947,75.75367,-3.05991,0.20978,0.68393
709.347,76.09864,-3.06254,0.21176,0.68113
712.747,76.44245,-3.06308,0.20519,0.67833
716.147,76.7864,-3.06297,0.20239,0.67552
719.547,77.13046,-3.06526,0.2036,0.67269
722.947,77.4752,-3.06561,0.20093,0.66986
726.347,77.81952,-3.06814,0.19656,0.66702
729.747,78.16534,-3.06877,0.19759,0.66417
733.147,78.5103,-3.07011,0.19888,0.66131
736.547,78.8557,-3.07011,0.19374,0.65844
739.947,79.2003,-3.07141,0.19087,0.65557
743.347,79.5454,-3.0728,0.18671,0.65268
746.747,79.88942,-3.07273,0.18255,0.64979
750.147,80.23469,-3.07537,0.18144,0.64689
753.547,80.58014,-3.07437,0.18223,0.64398
756.947,80.92621,-3.07326,0.17918,0.64106
760.347,81.271,-3.07491,0.17828,0.63814
763.747,81.61612,-3.07564,0.1807,0.63521
767.147,81.96174,-3.07504,0.17958,0.63227
770.547,82.3077,-3.07735,0.17712,0.62932
773.947,82.65383,-3.07834,0.17665,0.62637
777.347,82.99942,-3.07767,0.17665,0.62341
780.747,83.34504,-3.07899,0.17359,0.62044
784.147,83.69057,-3.07865,0.175,0.61746
787.547,84.03571,-3.07866,0.17482,0.61448
790.947,84.38166,-3.07965,0.17411,0.61149
794.347,84.72726,-3.0803,0.17361,0.6085
797.747,85.07325,-3.08159,0.17457,0.6055
801.147,85.41728,-3.08163,0.17107,0.60249
804.547,85.7616,-3.08294,0.16852,0.59948
807.947,86.10836,-3.08393,0.17221,0.59646
811.347,86.4547,-3.08393,0.16959,0.59343
814.747,86.80077,-3.08405,0.16787,0.5904
818.147,87.1476,-3.08459,0.17333,0.58737
821.547,87.49506,-3.08551,0.17632,0.58433
824.947,87.84219,-3.08656,0.17706,0.58128
828.347,88.19005,-3.08557,0.17513,0.57823
831.747,88.53627,-3.08787,0.17611,0.57517
835.147,88.88283,-3.08891,0.17616,0.57211
838.547,89.2284,-3.08952,0.17559,0.56904
841.947,89.57443,-3.09019,0.17861,0.56597
845.347,89.92103,-3.09052,0.17031,0.5629
846.047,89.99297,-3.09051,0.1678,0.56226