File: 01_Data/FDNY_LDF/STA/N2/30K_min/LDF_STA_N2_30KData_22254_R2.csv
##Temp./Â°C,Time/min,DSC(subtr.)/(mW/mg),Mass loss(subtr.2)/mg,Sensit./(uV/mW)
48.537,10.00667,0.01778663,-0.03664,1.07504
51.837,10.8934,0.1767,-0.0369564,1.07358
55.137,11.13044,0.28203,-0.0370841,1.07211
58.437,11.31235,0.3625,-0.0362655,1.07063
61.737,11.47103,0.43345,-0.03575119,1.06914
65.037,11.61477,0.49209,-0.03820292,1.06763
68.337,11.7497,0.5462,-0.03726033,1.06611
71.637,11.8787,0.59511,-0.03978124,1.06458
74.937,12.00328,0.64216,-0.03924402,1.06304
78.237,12.12487,0.68528,-0.04124021,1.06149
81.537,12.2438,0.72845,-0.04325955,1.05992
84.837,12.36079,0.76372,-0.04353019,1.05835
88.137,12.47608,0.8007,-0.04636456,1.05676
91.437,12.5899,0.83146,-0.04794911,1.05516
94.737,12.7029,0.85529,-0.04915193,1.05355
98.037,12.8149,0.87539,-0.05155707,1.05193
101.337,12.92578,0.88323,-0.0517577,1.0503
104.637,13.03702,0.88833,-0.05440311,1.04866
107.937,13.1468,0.88774,-0.05571,1.04701
111.237,13.25811,0.88058,-0.0557097,1.04535
114.537,13.3685,0.86987,-0.0566999,1.04368
117.837,13.47822,0.85771,-0.05834224,1.042
121.137,13.5874,0.84453,-0.05966,1.0403
124.437,13.6963,0.83297,-0.06097997,1.0386
127.737,13.80424,0.82281,-0.06163653,1.03689
131.037,13.9119,0.81662,-0.06295887,1.03517
134.337,14.01875,0.81753,-0.0623,1.03344
137.637,14.1253,0.81596,-0.06131171,1.03169
140.937,14.2317,0.82144,-0.06263001,1.02994
144.237,14.33681,0.82485,-0.06360517,1.02818
147.537,14.44241,0.83022,-0.06230002,1.02641
150.837,14.54674,0.84127,-0.06362,1.02464
154.137,14.6516,0.84976,-0.06362,1.02285
157.437,14.7553,0.85903,-0.06361928,1.02105
160.737,14.85979,0.87063,-0.06460996,1.01925
164.037,14.96354,0.87873,-0.06625128,1.01744
167.337,15.06683,0.88792,-0.0669022,1.01561
170.637,15.1699,0.90048,-0.06559,1.01378
173.937,15.2729,0.91062,-0.06690201,1.01194
177.237,15.37548,0.92158,-0.06691,1.0101
180.537,15.4777,0.93352,-0.06691,1.00824
183.837,15.57973,0.9464,-0.06691,1.00638
187.137,15.6813,0.95364,-0.06562055,1.00451
190.437,15.78265,0.9692,-0.0669,1.00263
193.737,15.88374,0.98273,-0.06953922,1.00074
197.037,15.9847,0.99562,-0.06954003,0.99884
200.337,16.08557,1.01154,-0.07086,0.99694
203.637,16.1861,1.02505,-0.07083944,0.99503
206.937,16.28676,1.03991,-0.07347997,0.99311
210.237,16.38731,1.05528,-0.07611645,0.99119
213.537,16.48734,1.07138,-0.0761232,0.98925
216.837,16.58775,1.08691,-0.07876373,0.98731
220.137,16.68802,1.10174,-0.08241238,0.98537
223.437,16.78803,1.11472,-0.08371968,0.98341
226.737,16.88805,1.12929,-0.08632571,0.98145
230.037,16.98791,1.14385,-0.08891832,0.97948
233.337,17.0877,1.15737,-0.09233056,0.97751
236.637,17.18761,1.1682,-0.09478321,0.97553
239.937,17.2875,1.17943,-0.09912003,0.97354
243.237,17.38721,1.18643,-0.10498,0.97154
246.537,17.48689,1.19759,-0.10946,0.96954
249.837,17.58664,1.21147,-0.11396,0.96753
253.137,17.68644,1.2233,-0.12162,0.96552
256.437,17.78586,1.23769,-0.1265,0.9635
259.737,17.88549,1.25035,-0.1348,0.96147
263.037,17.98515,1.26124,-0.14288,0.95944
266.337,18.08458,1.27426,-0.15079,0.9574
269.637,18.18402,1.286,-0.16134,0.95535
272.937,18.28343,1.29738,-0.17298,0.9533
276.237,18.383,1.30764,-0.18807,0.95124
279.537,18.4828,1.31934,-0.20156,0.94918
282.837,18.58244,1.33017,-0.21697,0.94711
286.137,18.6821,1.34108,-0.23609,0.94504
289.437,18.78185,1.34967,-0.2555,0.94295
292.737,18.88128,1.35766,-0.27662,0.94087
296.037,18.98133,1.36491,-0.30135,0.93878
299.337,19.08103,1.37123,-0.3276,0.93668
302.637,19.18093,1.38144,-0.35608,0.93458
305.937,19.28079,1.39156,-0.38744,0.93247
309.237,19.38055,1.4038,-0.42072,0.93036
312.537,19.48047,1.42063,-0.45492,0.92824
315.837,19.58045,1.43673,-0.49222,0.92612
319.137,19.68052,1.46227,-0.53582,0.92399
322.437,19.78066,1.49361,-0.58308,0.92185
325.737,19.88096,1.51888,-0.63296,0.91972
329.037,19.98125,1.55088,-0.68887,0.91757
332.337,20.08165,1.58577,-0.74731,0.91542
335.637,20.18216,1.61723,-0.809,0.91327
338.937,20.2831,1.6496,-0.87619,0.91111
342.237,20.38364,1.67727,-0.94707,0.90895
345.537,20.48462,1.70176,-1.0209,0.90678
348.837,20.58559,1.72473,-1.09726,0.90461
352.137,20.68661,1.74912,-1.17633,0.90243
355.437,20.78758,1.77465,-1.25456,0.90025
358.737,20.88898,1.81155,-1.33623,0.89807
362.037,20.99045,1.85884,-1.41723,0.89588
365.337,21.09195,1.9172,-1.50023,0.89368
368.637,21.1936,1.9986,-1.58847,0.89148
371.937,21.29541,2.09121,-1.68154,0.88928
375.237,21.3973,2.19248,-1.77909,0.88707
378.537,21.49942,2.2988,-1.88129,0.88486
381.837,21.60155,2.39347,-1.99019,0.88264
385.137,21.70351,2.45714,-2.10303,0.88042
388.437,21.80624,2.47207,-2.21989,0.8782
391.737,21.9084,2.40548,-2.33444,0.87597
395.037,22.01116,2.23251,-2.4426,0.87374
398.337,22.11334,1.95838,-2.54143,0.8715
401.637,22.21528,1.59312,-2.62027,0.86926
404.937,22.31747,1.18489,-2.68496,0.86702
408.237,22.41969,0.79491,-2.7305,0.86477
411.537,22.5215,0.47586,-2.76227,0.86251
414.837,22.62365,0.26104,-2.78027,0.86026
418.137,22.72575,0.14118,-2.79439,0.858
421.437,22.82858,0.07147713,-2.80836,0.85574
424.737,22.9313,0.02581595,-2.81715,0.85347
428.037,23.03419,-0.009717886,-2.82838,0.8512
431.337,23.1373,-0.03829135,-2.83942,0.84892
434.637,23.2404,-0.0667058,-2.85014,0.84664
437.937,23.3439,-0.091423,-2.86008,0.84436
441.237,23.4475,-0.11573,-2.86718,0.84208
444.537,23.5512,-0.13354,-2.87544,0.83979
447.837,23.65469,-0.14909,-2.88599,0.8375
451.137,23.75881,-0.16542,-2.89494,0.8352
454.437,23.86294,-0.17392,-2.90554,0.8329
457.737,23.9674,-0.17764,-2.91263,0.8306
461.037,24.07154,-0.17071,-2.92187,0.82829
464.337,24.17602,-0.15964,-2.93023,0.82598
467.637,24.28059,-0.14579,-2.93845,0.82367
470.937,24.38508,-0.12387,-2.94573,0.82135
474.237,24.48998,-0.10112,-2.95474,0.81903
477.537,24.59498,-0.07826557,-2.95997,0.81671
480.837,24.69986,-0.06018144,-2.96503,0.81439
484.137,24.8051,-0.03708367,-2.97212,0.81206
487.437,24.91029,-0.01772939,-2.97828,0.80973
490.737,25.01568,-0.00144918,-2.98252,0.80739
494.037,25.12112,0.01396833,-2.98835,0.80505
497.337,25.22661,0.02858808,-2.99454,0.80271
500.637,25.3322,0.04065588,-2.99905,0.80037
503.937,25.43786,0.05178344,-3.00337,0.79802
507.237,25.54359,0.05934503,-3.00826,0.79567
510.537,25.64944,0.06718961,-3.01289,0.79332
513.837,25.75546,0.07189744,-3.01667,0.79096
517.137,25.86139,0.07556194,-3.02086,0.7886
520.437,25.9675,0.080259,-3.0235,0.78624
523.737,26.07348,0.08008249,-3.02515,0.78387
527.037,26.1798,0.08295394,-3.03104,0.78151
530.337,26.2861,0.08093519,-3.03343,0.77914
533.637,26.3925,0.08348524,-3.03786,0.77676
536.937,26.49904,0.08310414,-3.04049,0.77439
540.237,26.60555,0.07943096,-3.04195,0.77201
543.537,26.7121,0.08070029,-3.04619,0.76963
546.837,26.81883,0.08436198,-3.05101,0.76724
550.137,26.9256,0.08505538,-3.05431,0.76486
553.437,27.0324,0.09167365,-3.05695,0.76247
556.737,27.13934,0.10083,-3.05957,0.76007
560.037,27.2462,0.111,-3.06222,0.75768
563.337,27.35347,0.11365,-3.06495,0.75528
566.637,27.46067,0.11755,-3.06809,0.75288
569.937,27.56795,0.12404,-3.07089,0.75048
573.237,27.6752,0.12088,-3.07319,0.74808
576.537,27.78245,0.12249,-3.07569,0.74567
579.837,27.89035,0.11956,-3.07839,0.74326
583.137,27.99803,0.11641,-3.08097,0.74085
586.437,28.10587,0.1147,-3.08361,0.73843
589.737,28.21381,0.11169,-3.08503,0.73602
593.037,28.3219,0.10314,-3.08766,0.7336
596.337,28.43,0.0944136,-3.09029,0.73118
599.637,28.5381,0.08752363,-3.09156,0.72875
602.937,28.64603,0.07958967,-3.09522,0.72633
606.237,28.75433,0.07651125,-3.09696,0.7239
609.537,28.8624,0.07195282,-3.10082,0.72147
612.837,28.9708,0.06944177,-3.10214,0.71904
616.137,29.0793,0.0600155,-3.10543,0.7166
619.437,29.1877,0.06072544,-3.10807,0.71417
622.737,29.2962,0.05441903,-3.10999,0.71173
626.037,29.4047,0.04837245,-3.11267,0.70929
629.337,29.513,0.04192664,-3.11267,0.70685
632.637,29.6218,0.03512901,-3.1153,0.7044
635.937,29.7306,0.02858063,-3.11785,0.70195
639.237,29.83939,0.02642391,-3.11927,0.69951
642.537,29.9481,0.01876633,-3.12057,0.69706
645.837,30.057,0.0156299,-3.12189,0.6946
649.137,30.1659,0.01170305,-3.12377,0.69215
652.437,30.27481,0.00773782,-3.1245,0.68969
655.737,30.38379,0.007710695,-3.12846,0.68724
659.037,30.4928,0.0050022,-3.12848,0.68478
662.337,30.6017,-0.000398647,-3.12933,0.68232
665.637,30.7109,-0.002539046,-3.12846,0.67985
668.937,30.81973,-0.00469228,-3.13241,0.67739
672.237,30.9292,-0.004566458,-3.13374,0.67492
675.537,31.03841,-0.01377455,-3.13735,0.67246
678.837,31.14755,-0.01173377,-3.13868,0.66999
682.137,31.2566,-0.0175344,-3.13997,0.66752
685.437,31.36587,-0.01899733,-3.13892,0.66504
688.737,31.4751,-0.02088878,-3.14264,0.66257
692.037,31.58442,-0.02577913,-3.14393,0.66009
695.337,31.6936,-0.02615726,-3.14525,0.65762
698.637,31.8029,-0.02795271,-3.14525,0.65514
701.937,31.91248,-0.02971124,-3.14656,0.65266
705.237,32.02194,-0.03027591,-3.14661,0.65018
708.537,32.13133,-0.03443541,-3.14787,0.6477
711.837,32.241,-0.03408111,-3.14829,0.64522
715.137,32.35054,-0.03709067,-3.14919,0.64273
718.437,32.46047,-0.03789365,-3.15051,0.64025
721.737,32.57033,-0.03648236,-3.15182,0.63776
725.037,32.6803,-0.04105438,-3.15315,0.63527
728.337,32.7902,-0.04225529,-3.15315,0.63279
731.637,32.90017,-0.04581522,-3.15446,0.6303
734.937,33.01032,-0.04386496,-3.15578,0.62781
738.237,33.1205,-0.04524581,-3.1565,0.62532
741.537,33.23076,-0.04902184,-3.15919,0.62282
744.837,33.34105,-0.05210097,-3.15816,0.62033
748.137,33.45133,-0.05135626,-3.15972,0.61784
751.437,33.56191,-0.0530159,-3.15972,0.61534
754.737,33.6725,-0.05358517,-3.16195,0.61285
758.037,33.78297,-0.05255557,-3.16236,0.61035
761.337,33.89353,-0.0535346,-3.16268,0.60786
764.637,34.0042,-0.05715577,-3.16271,0.60536
767.937,34.1149,-0.0588902,-3.16367,0.60286
771.237,34.22534,-0.05844619,-3.16369,0.60036
774.537,34.33628,-0.06018942,-3.1655,0.59787
777.837,34.44708,-0.05750481,-3.16598,0.59537
781.137,34.55773,-0.05696425,-3.16762,0.59287
784.437,34.66873,-0.05780549,-3.16762,0.59037
787.737,34.77984,-0.05624709,-3.16894,0.58787
791.037,34.8908,-0.05942058,-3.17025,0.58537
794.237,34.9987,-0.05272182,-3.17157,0.58295