File: 01_Data/FDNY_LDF/STA/N2/30K_min/LDF_STA_N2_30KData_22254_R1.csv
##Temp./Â°C,Time/min,DSC(subtr.)/(mW/mg),Mass loss(subtr.2)/mg,Sensit./(uV/mW)
48.509,10.00667,0.03053888,-0.04902,1.07505
51.709,10.88299,0.20794,-0.04838414,1.07364
54.909,11.1176,0.33215,-0.05136949,1.07222
58.109,11.29675,0.43019,-0.05225936,1.07078
61.309,11.45181,0.51458,-0.05328482,1.06933
64.509,11.593,0.59006,-0.0523724,1.06787
67.709,11.72492,0.65316,-0.05230837,1.0664
70.909,11.85087,0.7153,-0.05359874,1.06492
74.109,11.9731,0.77101,-0.05552812,1.06343
77.309,12.0916,0.82377,-0.05681312,1.06193
80.509,12.20785,0.87604,-0.05936698,1.06041
83.709,12.32198,0.92026,-0.0585846,1.05889
86.909,12.43449,0.96558,-0.06016714,1.05735
90.109,12.54529,1.00934,-0.0626983,1.05581
93.309,12.65545,1.0461,-0.06397642,1.05425
96.509,12.7643,1.07805,-0.06469862,1.05269
99.709,12.8729,1.10678,-0.06991756,1.05111
102.909,12.98075,1.12203,-0.07298947,1.04952
106.109,13.08787,1.13601,-0.07195,1.04793
109.309,13.19529,1.13933,-0.07324867,1.04632
112.509,13.3024,1.13891,-0.07582505,1.04471
115.709,13.40915,1.13508,-0.07589567,1.04308
118.909,13.5152,1.12455,-0.07853,1.04145
122.109,13.6208,1.11599,-0.07983941,1.0398
125.309,13.72608,1.10428,-0.08116045,1.03815
128.509,13.8308,1.09479,-0.08379,1.03649
131.709,13.9349,1.08747,-0.08247,1.03481
134.909,14.0386,1.08112,-0.08317056,1.03313
138.109,14.14184,1.08116,-0.08530467,1.03144
141.309,14.2447,1.08361,-0.08577,1.02975
144.509,14.34695,1.08822,-0.08477982,1.02804
147.709,14.4488,1.09802,-0.08557509,1.02632
150.909,14.5505,1.10969,-0.08543959,1.0246
154.109,14.6517,1.12045,-0.08609974,1.02286
157.309,14.75259,1.13364,-0.08743396,1.02112
160.509,14.8534,1.14699,-0.08544,1.01937
163.709,14.9539,1.16168,-0.08676011,1.01762
166.909,15.0541,1.17512,-0.08676,1.01585
170.109,15.15422,1.1897,-0.08682756,1.01408
173.309,15.25375,1.2036,-0.08872942,1.01229
176.509,15.35356,1.21727,-0.09070355,1.0105
179.709,15.4527,1.23288,-0.0907,1.00871
182.909,15.55136,1.24865,-0.0907,1.0069
186.109,15.64989,1.26166,-0.08938879,1.00509
189.309,15.7483,1.27459,-0.08938987,1.00327
192.509,15.8464,1.29068,-0.0920213,1.00144
195.709,15.94435,1.30666,-0.09458958,0.99961
198.909,16.0421,1.32421,-0.09465005,0.99776
202.109,16.13966,1.33973,-0.09596,0.99592
205.309,16.23719,1.35872,-0.09464842,0.99406
208.509,16.33473,1.37576,-0.09596856,0.9922
211.709,16.43208,1.39385,-0.09969808,0.99033
214.909,16.52935,1.41216,-0.10239,0.98845
218.109,16.62647,1.42615,-0.10365,0.98656
221.309,16.7235,1.44515,-0.10365,0.98467
224.509,16.82026,1.46248,-0.10497,0.98278
227.709,16.9174,1.47583,-0.10774,0.98087
230.909,17.0142,1.49295,-0.11151,0.97896
234.109,17.11071,1.50914,-0.11473,0.97704
237.309,17.2074,1.52135,-0.1174,0.97512
240.509,17.30428,1.53187,-0.12184,0.97319
243.709,17.40081,1.54618,-0.12379,0.97126
246.909,17.49794,1.55775,-0.12962,0.96931
250.109,17.59444,1.5781,-0.13513,0.96737
253.309,17.6913,1.59098,-0.14192,0.96541
256.509,17.78797,1.60344,-0.1498,0.96345
259.709,17.8843,1.61881,-0.15538,0.96149
262.909,17.9809,1.63228,-0.16578,0.95951
266.109,18.07731,1.64393,-0.17402,0.95754
269.309,18.17345,1.65308,-0.1833,0.95555
272.509,18.27034,1.66482,-0.19378,0.95357
275.709,18.3668,1.67255,-0.20591,0.95157
278.909,18.46339,1.68158,-0.21992,0.94957
282.109,18.5599,1.68532,-0.2357,0.94757
285.309,18.65568,1.6926,-0.25289,0.94556
288.509,18.75232,1.69553,-0.27053,0.94354
291.709,18.84884,1.70212,-0.28951,0.94152
294.909,18.9455,1.70689,-0.31306,0.93949
298.109,19.04285,1.70717,-0.33758,0.93746
301.309,19.13951,1.7091,-0.36499,0.93542
304.509,19.23626,1.71413,-0.39346,0.93338
307.709,19.33301,1.72213,-0.42536,0.93134
310.909,19.42987,1.73325,-0.46027,0.92928
314.109,19.52665,1.74078,-0.49774,0.92723
317.309,19.62342,1.75429,-0.53938,0.92517
320.509,19.72054,1.77339,-0.58106,0.9231
323.709,19.8176,1.79356,-0.62865,0.92103
326.909,19.91469,1.81783,-0.68186,0.91895
330.109,20.01193,1.84123,-0.73544,0.91687
333.309,20.10904,1.86703,-0.79466,0.91479
336.509,20.20639,1.8867,-0.86095,0.9127
339.709,20.3039,1.91002,-0.92823,0.91061
342.909,20.4016,1.92538,-0.99816,0.90851
346.109,20.49876,1.94,-1.07337,0.90641
349.309,20.59654,1.94819,-1.14802,0.9043
352.509,20.69483,1.95652,-1.22552,0.90219
355.709,20.79265,1.96861,-1.30739,0.90007
358.909,20.89069,1.98599,-1.38662,0.89795
362.109,20.9889,2.01736,-1.47232,0.89583
365.309,21.0872,2.06195,-1.55862,0.8937
368.509,21.18565,2.13022,-1.64249,0.89157
371.709,21.2844,2.21184,-1.73746,0.88943
374.909,21.3831,2.30697,-1.83454,0.88729
378.109,21.48183,2.40827,-1.93724,0.88515
381.309,21.58086,2.50062,-2.04798,0.883
384.509,21.67987,2.55963,-2.15846,0.88085
387.709,21.77901,2.56533,-2.27617,0.87869
390.909,21.87782,2.4916,-2.38637,0.87653
394.109,21.97711,2.33642,-2.49492,0.87437
397.309,22.07607,2.09325,-2.59307,0.8722
400.509,22.17523,1.77395,-2.67365,0.87003
403.709,22.27412,1.41666,-2.74081,0.86785
406.909,22.37281,1.0749,-2.78747,0.86567
410.109,22.47176,0.79712,-2.82105,0.86349
413.309,22.57074,0.60411,-2.84258,0.8613
416.509,22.6698,0.49456,-2.85764,0.85911
419.709,22.7691,0.44977,-2.86998,0.85692
422.909,22.86835,0.42219,-2.88265,0.85472
426.109,22.968,0.40038,-2.89337,0.85252
429.309,23.06781,0.37984,-2.90254,0.85032
432.509,23.16789,0.36453,-2.91313,0.84811
435.709,23.26848,0.34589,-2.92452,0.8459
438.909,23.3688,0.3354,-2.93574,0.84369
442.109,23.46879,0.32532,-2.94655,0.84147
445.309,23.5698,0.3086,-2.95689,0.83925
448.509,23.67045,0.29611,-2.9643,0.83703
451.709,23.77123,0.28329,-2.97392,0.8348
454.909,23.8721,0.27764,-2.98361,0.83257
458.109,23.97327,0.27698,-2.99222,0.83034
461.309,24.07439,0.28394,-3.00082,0.8281
464.509,24.17576,0.29362,-3.00838,0.82586
467.709,24.27723,0.30723,-3.01813,0.82362
470.909,24.37859,0.32725,-3.02689,0.82137
474.109,24.4803,0.35174,-3.03435,0.81912
477.309,24.58205,0.37694,-3.04317,0.81687
480.509,24.68391,0.4004,-3.04862,0.81462
483.709,24.786,0.424,-3.05521,0.81236
486.909,24.88789,0.44776,-3.06189,0.8101
490.109,24.9903,0.46758,-3.06767,0.80783
493.309,25.0924,0.48822,-3.07392,0.80557
496.509,25.1948,0.50415,-3.07904,0.8033
499.709,25.29736,0.51786,-3.08325,0.80103
502.909,25.39988,0.5301,-3.08799,0.79875
506.109,25.50251,0.53562,-3.09247,0.79647
509.309,25.60495,0.54485,-3.09635,0.79419
512.509,25.70792,0.54947,-3.10063,0.79191
515.709,25.8108,0.55387,-3.10658,0.78962
518.909,25.9138,0.55802,-3.11017,0.78733
522.109,26.01683,0.55701,-3.11287,0.78504
525.309,26.11983,0.55806,-3.11486,0.78275
528.509,26.22298,0.55748,-3.12051,0.78045
531.709,26.3262,0.55387,-3.12614,0.77815
534.909,26.4293,0.55497,-3.12741,0.77585
538.109,26.53267,0.55338,-3.13176,0.77354
541.309,26.6363,0.55041,-3.13594,0.77123
544.509,26.73974,0.54703,-3.13954,0.76892
547.709,26.84328,0.54395,-3.14222,0.76661
550.909,26.94688,0.53917,-3.14349,0.7643
554.109,27.0503,0.53413,-3.14742,0.76198
557.309,27.1545,0.53695,-3.15205,0.75966
560.509,27.25832,0.53918,-3.15578,0.75734
563.709,27.3621,0.54062,-3.15966,0.75501
566.909,27.4656,0.54384,-3.15979,0.75269
570.109,27.56982,0.54847,-3.16179,0.75036
573.309,27.67408,0.55152,-3.16647,0.74802
576.509,27.7783,0.54842,-3.16964,0.74569
579.709,27.88268,0.5474,-3.17147,0.74335
582.909,27.9871,0.54055,-3.17375,0.74101
586.109,28.09143,0.53806,-3.17772,0.73867
589.309,28.19598,0.53079,-3.18035,0.73633
592.509,28.3005,0.52409,-3.18035,0.73399
595.709,28.4052,0.51744,-3.18431,0.73164
598.909,28.5097,0.50766,-3.18778,0.72929
602.109,28.61463,0.49608,-3.19021,0.72694
605.309,28.71927,0.48474,-3.19284,0.72458
608.509,28.82408,0.47619,-3.19416,0.72223
611.709,28.92897,0.46803,-3.19678,0.71987
614.909,29.034,0.45778,-3.19811,0.71751
618.109,29.139,0.45043,-3.20074,0.71515
621.309,29.244,0.44234,-3.20337,0.71278
624.509,29.34915,0.4339,-3.20699,0.71042
627.709,29.4543,0.42609,-3.20736,0.70805
630.909,29.5595,0.41507,-3.20763,0.70568
634.109,29.66473,0.41081,-3.2107,0.70331
637.309,29.76985,0.3962,-3.21291,0.70094
640.509,29.87507,0.38948,-3.21555,0.69856
643.709,29.9805,0.38237,-3.2183,0.69619
646.909,30.08581,0.37451,-3.22093,0.69381
650.109,30.1913,0.36284,-3.2238,0.69143
653.309,30.29663,0.35862,-3.22441,0.68904
656.509,30.4022,0.34879,-3.22783,0.68666
659.709,30.5075,0.34569,-3.22783,0.68428
662.909,30.61335,0.33429,-3.22784,0.68189
666.109,30.71893,0.32858,-3.23046,0.6795
669.309,30.8246,0.32337,-3.23151,0.67711
672.509,30.93025,0.3103,-3.23304,0.67472
675.709,31.03578,0.30417,-3.23332,0.67233
678.909,31.14123,0.29222,-3.23599,0.66993
682.109,31.24695,0.28357,-3.23691,0.66754
685.309,31.3528,0.27834,-3.23633,0.66514
688.509,31.45846,0.27135,-3.23859,0.66274
691.709,31.564,0.2649,-3.24137,0.66034
694.909,31.6699,0.25924,-3.2435,0.65794
698.109,31.7756,0.25464,-3.24515,0.65554
701.309,31.88161,0.24661,-3.24648,0.65313
704.509,31.98757,0.23266,-3.2478,0.65073
707.709,32.09325,0.23218,-3.2478,0.64832
710.909,32.1997,0.22273,-3.24912,0.64591
714.109,32.30581,0.21396,-3.25044,0.64351
717.309,32.412,0.20791,-3.25077,0.6411
720.509,32.5184,0.19751,-3.25043,0.63869
723.709,32.62495,0.20008,-3.25175,0.63627
726.909,32.73135,0.18969,-3.25457,0.63386
730.109,32.83778,0.17793,-3.25794,0.63145
733.309,32.94444,0.17388,-3.25701,0.62903
736.509,33.05129,0.16158,-3.25833,0.62662
739.709,33.1582,0.15296,-3.25883,0.6242
742.909,33.2652,0.14205,-3.25964,0.62179
746.109,33.37222,0.13439,-3.26096,0.61937
749.309,33.47932,0.12746,-3.26227,0.61695
752.509,33.58647,0.11623,-3.26359,0.61453
755.709,33.69357,0.11023,-3.2636,0.61211
758.909,33.80057,0.1031,-3.26359,0.60969
762.109,33.9083,0.09535114,-3.26539,0.60727
765.309,34.0156,0.08929943,-3.26755,0.60485
768.509,34.12308,0.08274593,-3.26656,0.60243
771.709,34.23049,0.07723909,-3.26622,0.60001
774.909,34.33802,0.06777963,-3.26875,0.59758
778.109,34.445,0.0706693,-3.27149,0.59516
781.309,34.55301,0.06371173,-3.27281,0.59274
784.509,34.66057,0.05783419,-3.2728,0.59032
787.709,34.76866,0.05638827,-3.27281,0.58789
790.909,34.87642,0.04578374,-3.27281,0.58547
794.109,34.9842,0.03877551,-3.27274,0.58304
794.509,34.9977,0.03766871,-3.27281,0.58274