File: 01_Data/Bean_Bag_Chair_Inner_Lining/STA/N2/10K_min/Bean_Bag_Inner_Liner_STA_N2_10KData_220516_R2.csv
##Temp./Â°C,Time/min,Mass loss(subtr.2)/mg,DSC(subtr.2)/(mW/mg),Sensit./(uV/mW)
49.767,10.01,-0.0201,-0.01926336,1.07016
53.067,11.34025,-0.02206155,0.07786619,1.06925
56.367,11.80205,-0.02318989,0.12228,1.06833
59.667,12.19845,-0.02336258,0.14611,1.06739
62.967,12.57123,-0.02334038,0.16086,1.06645
66.267,12.93171,-0.02470958,0.17154,1.06549
69.567,13.28605,-0.02602753,0.1825,1.06452
72.867,13.63587,-0.0270011,0.1903,1.06354
76.167,13.98065,-0.02734229,0.19016,1.06255
79.467,14.32444,-0.02734721,0.18148,1.06155
82.767,14.66196,-0.02733999,0.17281,1.06054
86.067,14.997,-0.02777398,0.16921,1.05951
89.367,15.3284,-0.0283142,0.16801,1.05848
92.667,15.6581,-0.02866012,0.16711,1.05743
95.967,15.98495,-0.02965549,0.16954,1.05637
99.267,16.31079,-0.03096099,0.17362,1.0553
102.567,16.6347,-0.03096997,0.17964,1.05422
105.867,16.9583,-0.02997759,0.18497,1.05312
109.167,17.28035,-0.03158871,0.19213,1.05202
112.467,17.60284,-0.03247439,0.1994,1.0509
115.767,17.92535,-0.03265655,0.20646,1.04977
119.067,18.24682,-0.03261679,0.21246,1.04863
122.367,18.56793,-0.03375761,0.2197,1.04748
125.667,18.8876,-0.03393,0.22437,1.04631
128.967,19.20665,-0.03393,0.23099,1.04513
132.267,19.52597,-0.0352449,0.23557,1.04395
135.567,19.84394,-0.03458976,0.24317,1.04275
138.867,20.1618,-0.03544152,0.24514,1.04153
142.167,20.47918,-0.03525056,0.24688,1.04031
145.467,20.79674,-0.0368901,0.2495,1.03907
148.767,21.11345,-0.03670398,0.2541,1.03782
152.067,21.43065,-0.03722936,0.25849,1.03656
155.367,21.74731,-0.03674262,0.25947,1.03529
158.667,22.06321,-0.03557969,0.26415,1.034
161.967,22.37884,-0.03656,0.268,1.03271
165.267,22.69439,-0.03586146,0.27147,1.0314
168.567,23.00991,-0.03657,0.27568,1.03008
171.867,23.32536,-0.03685102,0.27663,1.02874
175.167,23.64109,-0.03689,0.27812,1.0274
178.467,23.9571,-0.0367969,0.28015,1.02604
181.767,24.27262,-0.03820981,0.2828,1.02467
185.067,24.5886,-0.03888,0.28399,1.02328
188.367,24.9039,-0.04115738,0.28585,1.02189
191.667,25.2169,-0.04115214,0.28667,1.02048
194.967,25.53258,-0.04084999,0.29093,1.01906
198.267,25.84695,-0.04121203,0.29008,1.01762
201.567,26.1616,-0.04118,0.29526,1.01618
204.867,26.4752,-0.04249,0.29994,1.01472
208.167,26.78983,-0.04281637,0.30175,1.01324
211.467,27.10325,-0.04230357,0.30181,1.01176
214.767,27.4176,-0.04447954,0.307,1.01026
218.067,27.73065,-0.04348705,0.31234,1.00875
221.367,28.0447,-0.04453806,0.31654,1.00723
224.667,28.35796,-0.04512953,0.32367,1.00569
227.967,28.6719,-0.04381069,0.32732,1.00415
231.267,28.98596,-0.04546,0.33505,1.00259
234.567,29.2999,-0.04677452,0.34509,1.00101
237.867,29.61453,-0.04512386,0.36056,0.99942
241.167,29.92835,-0.04645,0.38313,0.99782
244.467,30.2428,-0.04515013,0.42056,0.99621
247.767,30.5574,-0.04611051,0.4977,0.99459
251.067,30.8736,-0.04607227,0.8652,0.99295
254.367,31.1923,-0.04751379,1.24533,0.9913
257.667,31.5102,-0.04611998,1.21082,0.98963
260.967,31.82341,-0.04731917,0.59426,0.98795
264.267,32.13495,-0.04744,0.40315,0.98626
267.567,32.44704,-0.04678,0.36566,0.98456
270.867,32.76025,-0.04710995,0.35479,0.98284
274.167,33.07411,-0.04810033,0.34975,0.98111
277.467,33.38819,-0.04941244,0.34791,0.97937
280.767,33.70214,-0.04842559,0.34944,0.97761
284.067,34.01679,-0.04842443,0.3508,0.97584
287.367,34.33155,-0.05010186,0.34895,0.97406
290.667,34.6472,-0.0504,0.34986,0.97226
293.967,34.9625,-0.0504,0.34972,0.97045
297.267,35.2775,-0.05069813,0.34885,0.96863
300.567,35.59283,-0.04974,0.34821,0.96679
303.867,35.90886,-0.05106,0.3514,0.96494
307.167,36.22397,-0.05105985,0.35047,0.96308
310.467,36.54023,-0.05204999,0.34917,0.9612
313.767,36.8559,-0.05271023,0.34923,0.95931
317.067,37.1728,-0.05271,0.34545,0.95741
320.367,37.48957,-0.05271,0.34622,0.95549
323.667,37.80585,-0.05392283,0.34727,0.95356
326.967,38.12342,-0.0550087,0.34561,0.95162
330.267,38.44088,-0.05434881,0.34744,0.94967
333.567,38.75826,-0.05435138,0.34761,0.9477
336.867,39.0762,-0.05598999,0.3506,0.94571
340.167,39.3942,-0.05566,0.35054,0.94372
343.467,39.71202,-0.05797,0.35008,0.94171
346.767,40.0302,-0.05797085,0.35019,0.93969
350.067,40.34899,-0.05961999,0.35238,0.93765
353.367,40.66724,-0.05961343,0.35521,0.9356
356.667,40.98532,-0.06159122,0.35763,0.93354
359.967,41.30438,-0.06159,0.3607,0.93146
363.267,41.62184,-0.06422461,0.36663,0.92938
366.567,41.9403,-0.06686116,0.3713,0.92727
369.867,42.2592,-0.06983106,0.38114,0.92516
373.167,42.57913,-0.07372317,0.3872,0.92303
376.467,42.899,-0.07640658,0.39717,0.92089
379.767,43.21945,-0.08394133,0.4077,0.91873
383.067,43.53982,-0.09198417,0.41869,0.91656
386.367,43.8605,-0.10363,0.42893,0.91438
389.667,44.18125,-0.11915,0.44051,0.91219
392.967,44.50178,-0.13959,0.45614,0.90998
396.267,44.82201,-0.16564,0.42544,0.90776
399.567,45.1422,-0.19546,0.39954,0.90553
402.867,45.46228,-0.2286,0.35458,0.90328
406.167,45.7823,-0.26783,0.30194,0.90102
409.467,46.10304,-0.30928,0.27809,0.89875
412.767,46.42425,-0.36365,0.31192,0.89646
416.067,46.74672,-0.43204,0.35283,0.89416
419.367,47.0687,-0.52191,0.41559,0.89185
422.667,47.3913,-0.63084,0.46388,0.88953
425.967,47.71335,-0.76565,0.51653,0.88719
429.267,48.0362,-0.92778,0.5734,0.88484
432.567,48.35845,-1.11684,0.62854,0.88248
435.867,48.68166,-1.31019,0.66027,0.88011
439.167,49.00156,-1.42435,0.66552,0.87772
442.467,49.32101,-1.66565,0.67341,0.87532
445.767,49.64111,-1.94341,0.64976,0.8729
449.067,49.96058,-2.20328,0.5917,0.87048
452.367,50.2797,-2.43492,0.50061,0.86804
455.667,50.5991,-2.63252,0.3818,0.86559
458.967,50.91796,-2.79775,0.26761,0.86313
462.267,51.23787,-2.86154,0.18316,0.86065
465.567,51.55842,-2.92637,0.12186,0.85817
468.867,51.87996,-2.97514,0.07565395,0.85567
472.167,52.2013,-3.00889,0.03384484,0.85316
475.467,52.52451,-3.04297,0.002349967,0.85063
478.767,52.84806,-3.10493,-0.01640454,0.8481
482.067,53.17239,-3.12234,-0.03677517,0.84555
485.367,53.4968,-3.08654,-0.05853223,0.84299
488.667,53.8213,-3.10443,-0.07191862,0.84042
491.967,54.14598,-3.12037,-0.0829522,0.83784
495.267,54.4712,-3.13845,-0.0858073,0.83524
498.567,54.79765,-3.17986,-0.09072438,0.83264
501.867,55.125,-3.15155,-0.09780651,0.83002
505.167,55.45146,-3.16454,-0.10049,0.82739
508.467,55.77819,-3.20367,-0.09358139,0.82475
511.767,56.1051,-3.19458,-0.08554463,0.8221
515.067,56.4317,-3.20579,-0.0741401,0.81944
518.367,56.75948,-3.21236,-0.06826643,0.81676
521.667,57.08781,-3.20128,-0.07318643,0.81408
524.967,57.41616,-3.19764,-0.0796914,0.81138
528.267,57.74423,-3.19712,-0.08500149,0.80867
531.567,58.0721,-3.19681,-0.09028649,0.80596
534.867,58.39985,-3.19908,-0.09282794,0.80323
538.167,58.72705,-3.18562,-0.09631269,0.80049
541.467,59.0544,-3.21909,-0.08722963,0.79774
544.767,59.3831,-3.20766,-0.0911799,0.79498
548.067,59.71298,-3.2571,-0.07364473,0.79221
551.367,60.04368,-3.26874,-0.0621796,0.78943
554.667,60.37478,-3.27045,-0.06104084,0.78664
557.967,60.706,-3.2694,-0.05577747,0.78384
561.267,61.03696,-3.25096,-0.06382509,0.78103
564.567,61.3688,-3.28881,-0.05066817,0.7782
567.867,61.69993,-3.26178,-0.05962165,0.77537
571.167,62.0296,-3.24585,-0.06826672,0.77253
574.467,62.3595,-3.23269,-0.07582747,0.76968
577.767,62.689,-3.22874,-0.07755689,0.76682
581.067,63.0191,-3.25959,-0.06626102,0.76396
584.367,63.34905,-3.25498,-0.05580057,0.76108
587.667,63.6784,-3.25102,-0.07700736,0.75819
590.967,64.0081,-3.25069,-0.08355232,0.75529
594.267,64.33838,-3.25379,-0.08338115,0.75239
597.567,64.66872,-3.2485,-0.08894048,0.74948
600.867,64.99903,-3.24324,-0.09362323,0.74655
604.167,65.32925,-3.23993,-0.08909553,0.74362
607.467,65.65941,-3.23729,-0.092564,0.74068
610.767,65.98905,-3.23761,-0.09873195,0.73773
614.067,66.31846,-3.23673,-0.09546116,0.73478
617.367,66.64785,-3.2393,-0.09756594,0.73181
620.667,66.97775,-3.23994,-0.09825221,0.72884
623.967,67.30756,-3.24126,-0.09985881,0.72586
627.267,67.63847,-3.24318,-0.09778256,0.72287
630.567,67.9694,-3.24388,-0.10379,0.71988
633.867,68.30022,-3.24685,-0.09837508,0.71687
637.167,68.631,-3.24882,-0.09916255,0.71386
640.467,68.96149,-3.25015,-0.10812,0.71085
643.767,69.29207,-3.25015,-0.10865,0.70782
647.067,69.62193,-3.25147,-0.11022,0.70479
650.367,69.95224,-3.25245,-0.11494,0.70175
653.667,70.28249,-3.25468,-0.11512,0.69871
656.967,70.6144,-3.25665,-0.12284,0.69565
660.267,70.94582,-3.25772,-0.13126,0.6926
663.567,71.27769,-3.25805,-0.12033,0.68953
666.867,71.60858,-3.26068,-0.12629,0.68646
670.167,71.93946,-3.26168,-0.13231,0.68338
673.467,72.27065,-3.26265,-0.13255,0.6803
676.767,72.60171,-3.28534,-0.13359,0.67721
680.067,72.93347,-3.2798,-0.1395,0.67412
683.367,73.26522,-3.27708,-0.1521,0.67102
686.667,73.5972,-3.27353,-0.15929,0.66791
689.967,73.92922,-3.27128,-0.17008,0.6648
693.267,74.26002,-3.27023,-0.17907,0.66169
696.567,74.59143,-3.26937,-0.18787,0.65857
699.867,74.92224,-3.26892,-0.19965,0.65544
703.167,75.25421,-3.26729,-0.20354,0.65232
706.467,75.58619,-3.27254,-0.21764,0.64918
709.767,75.91786,-3.27249,-0.22734,0.64604
713.067,76.2501,-3.27254,-0.23943,0.6429
716.367,76.58363,-3.27386,-0.25165,0.63975
719.667,76.9167,-3.27418,-0.26216,0.6366
722.967,77.25017,-3.27484,-0.27524,0.63345
726.267,77.58205,-3.27551,-0.28718,0.63029
729.567,77.91453,-3.27485,-0.29867,0.62713
732.867,78.24753,-3.27682,-0.30279,0.62397
736.167,78.5793,-3.27747,-0.3191,0.6208
739.467,78.9119,-3.28014,-0.33041,0.61763
742.767,79.24653,-3.28069,-0.33895,0.61446
746.067,79.57905,-3.27979,-0.34852,0.61128
749.367,79.91168,-3.28046,-0.35142,0.6081
752.667,80.24459,-3.28176,-0.36584,0.60492
755.967,80.57842,-3.28328,-0.36818,0.60174
759.267,80.9115,-3.2844,-0.38406,0.59855
762.567,81.24491,-3.28566,-0.38829,0.59537
765.867,81.57961,-3.28702,-0.3982,0.59218
769.167,81.913,-3.28688,-0.40805,0.58899
772.467,82.24716,-3.28703,-0.40912,0.5858
775.767,82.58144,-3.28572,-0.41446,0.5826
779.067,82.91619,-3.2867,-0.42696,0.57941
782.367,83.25073,-3.2867,-0.43457,0.57621
785.667,83.58565,-3.28871,-0.43207,0.57302
788.967,83.9204,-3.28736,-0.44706,0.56982
792.267,84.25483,-3.28867,-0.45956,0.56662
795.567,84.58976,-3.28868,-0.46167,0.56343
798.867,84.92429,-3.28932,-0.4711,0.56023
799.567,84.995,-3.28835,-0.46963,0.55955