File: 01_Data/Bean_Bag_Chair_Inner_Lining/STA/N2/10K_min/Bean_Bag_Liner_STA_N2_10KData_220513_R1.csv
##Temp./Â°C,Time/min,Mass loss(subtr.2)/mg,DSC(subtr.2)/(mW/mg),Sensit./(uV/mW)
49.746,10.01,-0.00867,0.00285168,1.07017
52.946,11.32355,-0.00793274,0.10392,1.06928
56.146,11.7738,-0.008213785,0.14684,1.06839
59.346,12.15888,-0.009772069,0.17065,1.06748
62.546,12.5207,-0.01054191,0.18182,1.06657
65.746,12.87165,-0.009721852,0.19081,1.06564
68.946,13.21602,-0.01189169,0.20126,1.06471
72.146,13.5558,-0.01130254,0.2086,1.06376
75.346,13.89179,-0.01165834,0.20999,1.0628
78.546,14.22362,-0.01071112,0.20264,1.06183
81.746,14.55277,-0.01184883,0.19358,1.06085
84.946,14.8779,-0.01188254,0.189,1.05986
88.146,15.2009,-0.01317879,0.1863,1.05886
91.346,15.5212,-0.01098155,0.18614,1.05785
94.546,15.8393,-0.01186297,0.18753,1.05683
97.746,16.15621,-0.010859,0.1904,1.0558
100.946,16.4712,-0.01130257,0.19557,1.05475
104.146,16.78494,-0.01320849,0.19955,1.0537
107.346,17.09822,-0.01119781,0.20826,1.05263
110.546,17.4111,-0.01186,0.21301,1.05155
113.746,17.72271,-0.01316993,0.22123,1.05046
116.946,18.0343,-0.01185998,0.22857,1.04936
120.146,18.3466,-0.01186,0.23357,1.04825
123.346,18.65703,-0.01187485,0.24086,1.04713
126.546,18.96786,-0.01251974,0.2447,1.046
129.746,19.27746,-0.01251971,0.24969,1.04486
132.946,19.58697,-0.0138651,0.25472,1.0437
136.146,19.89576,-0.01318,0.2579,1.04253
139.346,20.2041,-0.01251973,0.2648,1.04136
142.546,20.512,-0.01283629,0.26741,1.04017
145.746,20.82033,-0.01252,0.27079,1.03897
148.946,21.12739,-0.01251903,0.27307,1.03776
152.146,21.43475,-0.01379384,0.27545,1.03653
155.346,21.7418,-0.01384026,0.27832,1.0353
158.546,22.04799,-0.0138368,0.28127,1.03405
161.746,22.35537,-0.01395905,0.28426,1.03279
164.946,22.66139,-0.01504401,0.28843,1.03153
168.146,22.9678,-0.01431766,0.29351,1.03025
171.346,23.27451,-0.01419777,0.29579,1.02895
174.546,23.5803,-0.01383966,0.29827,1.02765
177.746,23.88684,-0.01513395,0.30219,1.02633
180.946,24.193,-0.01415819,0.30294,1.02501
184.146,24.49871,-0.01316307,0.30269,1.02367
187.346,24.8035,-0.01346661,0.30528,1.02232
190.546,25.1097,-0.01251898,0.3077,1.02096
193.746,25.41456,-0.01252005,0.31057,1.01958
196.946,25.7194,-0.01377881,0.31263,1.0182
200.146,26.02454,-0.01218846,0.3161,1.0168
203.346,26.3292,-0.01383,0.31833,1.01539
206.546,26.63413,-0.0125197,0.32221,1.01397
209.746,26.93832,-0.01384001,0.32582,1.01254
212.946,27.2433,-0.01383,0.33058,1.01109
216.146,27.5482,-0.01283476,0.33256,1.00963
219.346,27.8522,-0.01411339,0.3378,1.00816
222.546,28.15713,-0.012753,0.34406,1.00668
225.746,28.4619,-0.01391806,0.34858,1.00519
228.946,28.7665,-0.01417,0.35559,1.00368
232.146,29.0715,-0.01515,0.3639,1.00217
235.346,29.3764,-0.01382498,0.37449,1.00064
238.546,29.681,-0.01514573,0.3902,0.9991
241.746,29.98675,-0.01449,0.41405,0.99754
244.946,30.292,-0.01581,0.45179,0.99598
248.146,30.59635,-0.01620176,0.53363,0.9944
251.346,30.90297,-0.01643542,0.86625,0.99281
254.546,31.2108,-0.01738648,1.20004,0.99121
257.746,31.51898,-0.01537095,1.32104,0.98959
260.946,31.8242,-0.01669,0.72941,0.98796
264.146,32.12579,-0.01920196,0.45867,0.98632
267.346,32.4284,-0.01725989,0.40859,0.98467
270.546,32.73234,-0.01767913,0.39577,0.98301
273.746,33.0362,-0.01667776,0.39415,0.98133
276.946,33.34064,-0.01745988,0.39211,0.97964
280.146,33.6453,-0.01778,0.39044,0.97794
283.346,33.9501,-0.01777999,0.39369,0.97623
286.546,34.2553,-0.0187683,0.39205,0.9745
289.746,34.56089,-0.01803628,0.39213,0.97276
292.946,34.86649,-0.01844,0.393,0.97101
296.146,35.17212,-0.01764194,0.39444,0.96925
299.346,35.47762,-0.01737438,0.39655,0.96747
302.546,35.78332,-0.0191,0.39824,0.96568
305.746,36.08919,-0.0191,0.39793,0.96388
308.946,36.3952,-0.0191,0.39752,0.96207
312.146,36.70152,-0.01908975,0.39525,0.96024
315.346,37.00862,-0.02141114,0.39596,0.9584
318.546,37.31469,-0.0200543,0.39666,0.95655
321.746,37.6222,-0.02042,0.3982,0.95469
324.946,37.92908,-0.02141032,0.39804,0.95281
328.146,38.23662,-0.02162403,0.39995,0.95092
331.346,38.54354,-0.02306,0.40208,0.94902
334.546,38.85148,-0.02272995,0.40448,0.94711
337.746,39.15968,-0.02307019,0.40582,0.94518
340.946,39.4675,-0.02436932,0.40613,0.94325
344.146,39.77517,-0.02437,0.41085,0.94129
347.346,40.08399,-0.02552135,0.41247,0.93933
350.546,40.39322,-0.02634952,0.41302,0.93735
353.746,40.70166,-0.0273391,0.41598,0.93537
356.946,41.01105,-0.02699832,0.41937,0.93336
360.146,41.31969,-0.02930923,0.42395,0.93135
363.346,41.6282,-0.03114108,0.43306,0.92933
366.546,41.93731,-0.03491028,0.43859,0.92729
369.746,42.2467,-0.03754066,0.44882,0.92524
372.946,42.55592,-0.03985004,0.45502,0.92317
376.146,42.86561,-0.04410947,0.46977,0.9211
379.346,43.176,-0.0482243,0.48309,0.91901
382.546,43.48652,-0.05790687,0.49958,0.91691
385.746,43.79841,-0.07025786,0.51004,0.91479
388.946,44.1098,-0.08748395,0.51492,0.91267
392.146,44.4213,-0.10408,0.52711,0.91053
395.346,44.73209,-0.12702,0.54589,0.90838
398.546,45.04323,-0.15801,0.55814,0.90622
401.746,45.3539,-0.19726,0.57585,0.90405
404.946,45.6657,-0.24286,0.59711,0.90186
408.146,45.9775,-0.29919,0.62053,0.89966
411.346,46.28934,-0.36968,0.64821,0.89745
414.546,46.60159,-0.45312,0.68964,0.89523
417.746,46.91407,-0.55646,0.7475,0.89299
420.946,47.2265,-0.68141,0.8049,0.89074
424.146,47.53862,-0.82952,0.84606,0.88848
427.346,47.8512,-1.00598,0.96169,0.88621
430.546,48.16385,-1.2111,0.98028,0.88393
433.746,48.4764,-1.43672,0.96488,0.88163
436.946,48.78921,-1.68027,0.97708,0.87933
440.146,49.10187,-1.93694,0.95591,0.87701
443.346,49.41514,-2.18904,0.90708,0.87468
446.546,49.72858,-2.42206,0.82507,0.87233
449.746,50.04123,-2.61924,0.72047,0.86998
452.946,50.3538,-2.76861,0.60753,0.86761
456.146,50.66686,-2.87328,0.50111,0.86523
459.346,50.9799,-2.94514,0.42289,0.86285
462.546,51.2935,-2.99713,0.36273,0.86044
465.746,51.60709,-3.03775,0.30866,0.85803
468.946,51.92049,-3.06737,0.26391,0.85561
472.146,52.23433,-3.08933,0.22589,0.85317
475.346,52.548,-3.10832,0.19496,0.85073
478.546,52.8627,-3.1242,0.1668,0.84827
481.746,53.17664,-3.13821,0.14562,0.8458
484.946,53.49085,-3.14881,0.13209,0.84332
488.146,53.80568,-3.15946,0.12352,0.84083
491.346,54.1219,-3.16528,0.11569,0.83832
494.546,54.43812,-3.17286,0.11137,0.83581
497.746,54.75379,-3.17921,0.1159,0.83329
500.946,55.06867,-3.18344,0.12696,0.83075
504.146,55.38466,-3.18739,0.124,0.82821
507.346,55.7006,-3.19299,0.12217,0.82565
510.546,56.0173,-3.19657,0.11438,0.82308
513.746,56.33376,-3.19959,0.11231,0.8205
516.946,56.6501,-3.20227,0.11403,0.81792
520.146,56.9661,-3.20623,0.11435,0.81532
523.346,57.28253,-3.20886,0.11416,0.81271
526.546,57.60011,-3.21248,0.11584,0.81009
529.746,57.9173,-3.21413,0.11953,0.80746
532.946,58.23497,-3.21544,0.11642,0.80482
536.146,58.553,-3.21705,0.1155,0.80217
539.346,58.86995,-3.21884,0.11475,0.79951
542.546,59.18719,-3.2205,0.11416,0.79684
545.746,59.50455,-3.22313,0.11547,0.79416
548.946,59.82264,-3.22544,0.11398,0.79147
552.146,60.13992,-3.2261,0.11315,0.78877
555.346,60.45776,-3.22873,0.11225,0.78606
558.546,60.77606,-3.23071,0.10904,0.78334
561.746,61.0942,-3.23371,0.1098,0.78062
564.946,61.4128,-3.23466,0.10954,0.77788
568.146,61.7318,-3.23637,0.10858,0.77513
571.346,62.05055,-3.23927,0.10366,0.77238
574.546,62.36923,-3.24091,0.10119,0.76962
577.746,62.68903,-3.24355,0.10861,0.76684
580.946,63.0074,-3.24454,0.10889,0.76406
584.146,63.32676,-3.24584,0.1046,0.76127
587.346,63.6461,-3.24773,0.10493,0.75847
590.546,63.9652,-3.24951,0.10573,0.75566
593.746,64.28517,-3.25442,0.10877,0.75285
596.946,64.60504,-3.25443,0.10705,0.75002
600.146,64.92475,-3.25694,0.10629,0.74719
603.346,65.24426,-3.25943,0.1065,0.74435
606.546,65.56413,-3.26176,0.11017,0.7415
609.746,65.88385,-3.26346,0.11299,0.73865
612.946,66.20263,-3.26629,0.12228,0.73578
616.146,66.5214,-3.26868,0.12766,0.73291
619.346,66.8416,-3.26983,0.12846,0.73003
622.546,67.16213,-3.27284,0.12751,0.72715
625.746,67.48173,-3.27293,0.13074,0.72425
628.946,67.8017,-3.27451,0.13025,0.72135
632.146,68.12213,-3.27714,0.13359,0.71844
635.346,68.44216,-3.27978,0.12991,0.71553
638.546,68.76253,-3.28075,0.12702,0.7126
641.746,69.08312,-3.28139,0.13049,0.70967
644.946,69.40435,-3.2834,0.13148,0.70674
648.146,69.7251,-3.28516,0.12965,0.7038
651.346,70.04619,-3.28735,0.13134,0.70085
654.546,70.36766,-3.28769,0.13106,0.69789
657.746,70.6885,-3.28911,0.13337,0.69493
660.946,71.00978,-3.28944,0.13178,0.69197
664.146,71.331,-3.29076,0.13181,0.68899
667.346,71.65224,-3.28939,0.13183,0.68601
670.546,71.97414,-3.29077,0.13057,0.68303
673.746,72.29525,-3.29232,0.13067,0.68004
676.946,72.6173,-3.29241,0.13717,0.67705
680.146,72.93845,-3.29366,0.12702,0.67404
683.346,73.25962,-3.29537,0.13021,0.67104
686.546,73.58105,-3.29636,0.12887,0.66803
689.746,73.90262,-3.29768,0.13178,0.66501
692.946,74.22377,-3.29845,0.12613,0.66199
696.146,74.5455,-3.29866,0.12565,0.65897
699.346,74.86779,-3.29965,0.11879,0.65594
702.546,75.19027,-3.29998,0.12444,0.6529
705.746,75.51176,-3.30272,0.11673,0.64987
708.946,75.83417,-3.30106,0.11734,0.64682
712.146,76.15665,-3.30283,0.11397,0.64378
715.346,76.47957,-3.3014,0.11423,0.64073
718.546,76.80165,-3.30371,0.11184,0.63767
721.746,77.1242,-3.30401,0.11231,0.63462
724.946,77.44663,-3.3037,0.11258,0.63156
728.146,77.76956,-3.30569,0.11294,0.62849
731.346,78.09221,-3.30452,0.11726,0.62543
734.546,78.41558,-3.307,0.11739,0.62236
737.746,78.7388,-3.30634,0.11185,0.61928
740.946,79.0617,-3.30765,0.10811,0.61621
744.146,79.38444,-3.308,0.10372,0.61313
747.346,79.70769,-3.30821,0.10136,0.61005
750.546,80.03099,-3.30832,0.09946324,0.60697
753.746,80.35592,-3.31095,0.09927651,0.60388
756.946,80.67968,-3.31063,0.0955605,0.60079
760.146,81.00391,-3.31062,0.08804523,0.5977
763.346,81.3272,-3.31194,0.09131858,0.59461
766.546,81.6511,-3.31164,0.08989266,0.59152
769.746,81.97508,-3.31195,0.08574889,0.58843
772.946,82.2987,-3.31195,0.08630092,0.58533
776.146,82.6232,-3.31285,0.08223418,0.58224
779.346,82.9477,-3.31315,0.09007324,0.57914
782.546,83.27206,-3.31315,0.08768082,0.57604
785.746,83.59562,-3.31315,0.09428963,0.57294
788.946,83.91935,-3.31316,0.10112,0.56984
792.146,84.2423,-3.31315,0.10771,0.56674
795.346,84.56582,-3.31381,0.11126,0.56364
798.546,84.8901,-3.31547,0.10513,0.56054
799.546,84.99161,-3.31448,0.10072,0.55957