File: 01_Data/LatexPillow_A_Outer_Fabric/MCC/LatexPillow_A_Outer_Fabric_MCC_30K_min_211210_R1.txt
Sample ID:	C:\MCC\MCC Cal\Test\LatexPillow_A_Outer_Fabric_MCC_30K_min_211210_R1.txt
Sample Weight (mg):	4.62
Heating Rate (C/s):	0.5
Combustor Temp (C):	900
N2 Flow Rate (cc/min):	80
O2 Flow Rate (cc/min):	20
Calibration File:	C:\MCC\MCC Cal\Coeff1 JN10440_30_210304.txt.txt
T Correction Coefficients:	0	1.024463	0
Time Shift (s):	14
*
Time (s)	Temperature (C)	N2 flow rate (cc/min)	O2 flow rate (cc/min)	Flow Rate (cc/min)	Oxygen (%)	HRR (W/g)	Heating rate (C/s)
0.000	109.254	80.009	19.996	103.099	20.164	-0.126	-0.002
7.500	109.265	80.010	19.995	103.115	20.163	-0.090	0.021
15.000	109.328	80.011	19.994	103.145	20.156	0.405	0.003
22.500	109.504	80.009	19.995	103.217	20.146	1.128	0.055
30.000	109.980	80.009	19.995	103.277	20.135	1.891	0.079
37.501	110.848	80.010	19.995	103.301	20.129	2.310	0.126
45.000	112.106	80.008	19.995	103.324	20.121	2.893	0.202
52.501	113.762	80.008	19.996	103.337	20.115	3.262	0.257
60.000	115.761	80.007	19.995	103.372	20.109	3.700	0.291
67.500	118.214	80.008	19.995	103.383	20.108	3.764	0.365
75.000	120.942	80.007	19.994	103.400	20.104	4.039	0.375
82.500	123.956	80.006	19.994	103.402	20.105	3.996	0.425
90.000	127.196	80.007	19.996	103.379	20.108	3.738	0.440
97.501	130.637	80.008	19.995	103.384	20.110	3.639	0.473
105.000	134.224	80.007	19.995	103.401	20.112	3.511	0.482
112.500	137.952	80.008	19.994	103.380	20.113	3.428	0.509
120.001	141.759	80.011	19.994	103.368	20.113	3.440	0.528
127.500	145.623	80.006	19.996	103.364	20.107	3.848	0.533
135.000	149.502	80.007	19.996	103.358	20.113	3.422	0.514
142.500	153.323	80.007	19.995	103.338	20.111	3.565	0.502
150.000	157.155	80.006	19.995	103.334	20.114	3.349	0.532
157.500	160.931	80.004	19.996	103.331	20.111	3.539	0.528
165.000	164.696	80.007	19.995	103.329	20.115	3.293	0.478
172.500	168.489	80.007	19.994	103.318	20.116	3.177	0.510
180.000	172.205	80.008	19.994	103.317	20.117	3.125	0.480
187.500	175.831	80.008	19.995	103.300	20.112	3.507	0.482
195.000	179.484	80.008	19.994	103.315	20.111	3.582	0.457
202.500	183.158	80.010	19.995	103.301	20.112	3.490	0.473
210.000	186.876	80.008	19.995	103.290	20.111	3.539	0.514
217.500	190.571	80.007	19.995	103.295	20.110	3.593	0.509
225.001	194.234	80.005	19.995	103.292	20.114	3.336	0.487
232.500	197.840	80.006	19.995	103.292	20.116	3.217	0.503
240.000	201.540	80.005	19.995	103.291	20.116	3.190	0.497
247.500	205.262	80.005	19.995	103.290	20.119	2.992	0.494
255.000	208.945	80.007	19.995	103.285	20.122	2.794	0.462
262.500	212.632	80.008	19.995	103.284	20.123	2.739	0.483
270.000	216.380	80.007	19.995	103.286	20.125	2.606	0.496
277.500	220.115	80.008	19.995	103.287	20.128	2.345	0.515
285.000	223.956	80.009	19.995	103.288	20.133	2.011	0.528
292.500	227.749	80.008	19.994	103.290	20.134	1.942	0.534
300.001	231.575	80.007	19.994	103.291	20.133	2.000	0.454
307.500	235.388	80.007	19.994	103.291	20.127	2.426	0.477
315.000	239.100	80.007	19.994	103.287	20.138	1.685	0.517
322.501	242.750	80.007	19.995	103.282	20.132	2.082	0.569
330.000	246.615	80.006	19.995	103.284	20.135	1.879	0.443
337.500	250.374	80.006	19.995	103.279	20.136	1.777	0.503
345.001	254.147	80.007	19.995	103.285	20.138	1.697	0.530
352.500	257.812	80.007	19.995	103.275	20.135	1.896	0.488
360.000	261.513	80.008	19.994	103.274	20.134	1.921	0.477
367.500	265.320	80.009	19.994	103.286	20.135	1.861	0.521
375.000	269.042	80.010	19.994	103.285	20.137	1.735	0.480
382.500	272.916	80.006	19.994	103.274	20.140	1.501	0.507
390.001	276.708	80.008	19.994	103.273	20.142	1.370	0.519
397.500	280.495	80.009	19.995	103.257	20.147	1.017	0.497
405.000	284.309	80.007	19.994	103.255	20.140	1.508	0.508
412.500	288.073	80.007	19.995	103.270	20.140	1.514	0.471
420.000	291.885	80.007	19.996	103.262	20.145	1.149	0.502
427.500	295.689	80.008	19.995	103.258	20.140	1.535	0.489
435.000	299.462	80.007	19.994	103.252	20.145	1.207	0.540
442.500	303.184	80.007	19.995	103.253	20.144	1.239	0.505
450.000	306.955	80.008	19.995	103.248	20.149	0.919	0.508
457.500	310.694	80.010	19.993	103.247	20.148	1.005	0.505
465.000	314.512	80.007	19.994	103.247	20.147	1.030	0.492
472.501	318.293	80.007	19.995	103.249	20.142	1.379	0.500
480.001	322.055	80.007	19.994	103.248	20.145	1.213	0.512
487.501	325.823	80.008	19.994	103.249	20.142	1.389	0.510
495.000	329.690	80.007	19.995	103.250	20.144	1.278	0.519
502.500	333.471	80.006	19.995	103.252	20.149	0.909	0.518
510.000	337.299	80.009	19.995	103.251	20.145	1.199	0.511
517.500	341.073	80.011	19.994	103.247	20.142	1.377	0.511
525.000	344.893	80.009	19.996	103.243	20.144	1.272	0.563
532.500	348.658	80.009	19.994	103.245	20.146	1.128	0.506
540.000	352.548	80.010	19.995	103.246	20.141	1.435	0.534
547.500	356.385	80.008	19.996	103.245	20.136	1.798	0.534
555.000	360.172	80.008	19.995	103.243	20.132	2.120	0.496
562.500	363.983	80.008	19.997	103.250	20.130	2.249	0.499
570.000	367.721	80.007	19.994	103.249	20.119	3.004	0.482
577.500	371.561	80.006	19.995	103.250	20.107	3.831	0.534
585.000	375.457	80.008	19.995	103.250	20.087	5.224	0.517
592.500	379.256	80.010	19.994	103.268	20.060	7.090	0.535
600.000	383.135	80.009	19.994	103.284	20.027	9.395	0.513
607.500	386.989	80.008	19.996	103.286	19.993	11.773	0.492
615.000	390.836	80.009	19.995	103.317	19.949	14.892	0.514
622.500	394.711	80.008	19.995	103.326	19.879	19.769	0.503
630.000	398.686	80.007	19.995	103.322	19.827	23.384	0.554
637.500	402.529	80.006	19.995	103.401	19.766	27.626	0.525
645.000	406.385	80.007	19.996	103.425	19.648	35.934	0.537
652.500	410.184	80.007	19.994	103.441	19.522	44.705	0.514
660.000	413.894	80.009	19.995	103.492	19.375	55.053	0.488
667.500	417.681	80.006	19.995	103.586	19.189	68.077	0.489
675.000	421.485	80.009	19.995	103.649	18.956	84.528	0.508
682.500	425.220	80.008	19.994	103.732	18.752	98.877	0.480
690.000	429.071	80.008	19.993	103.802	18.508	116.114	0.488
697.501	432.790	80.009	19.993	103.896	18.238	135.131	0.486
705.000	436.653	80.009	19.995	103.986	17.960	154.752	0.536
712.500	440.392	80.009	19.996	104.059	17.772	168.105	0.491
720.000	444.199	80.009	19.994	104.109	17.686	174.119	0.499
727.500	447.997	80.007	19.997	104.148	17.609	179.459	0.534
735.000	451.778	80.009	19.997	104.108	17.637	177.359	0.505
742.500	455.598	80.007	19.996	104.060	17.864	161.182	0.506
750.000	459.402	80.007	19.993	103.934	18.255	133.546	0.543
757.500	463.216	80.008	19.994	103.797	18.727	100.418	0.507
765.000	467.053	80.010	19.994	103.655	19.224	65.572	0.513
772.500	470.929	80.008	19.993	103.525	19.552	42.600	0.526
780.000	474.791	80.009	19.994	103.425	19.755	28.430	0.499
787.500	478.666	80.010	19.994	103.373	19.882	19.518	0.501
795.000	482.544	80.009	19.994	103.334	19.968	13.546	0.529
802.500	486.325	80.008	19.994	103.302	20.018	10.053	0.497
810.000	490.133	80.008	19.995	103.289	20.049	7.904	0.491
817.500	493.964	80.009	19.995	103.281	20.074	6.134	0.472
825.000	497.861	80.008	19.994	103.253	20.092	4.854	0.493
832.500	501.781	80.006	19.996	103.249	20.101	4.228	0.546
840.000	505.656	80.008	19.996	103.251	20.109	3.705	0.559
847.500	509.541	80.009	19.994	103.238	20.109	3.705	0.488
855.000	513.489	80.009	19.994	103.227	20.112	3.501	0.529
862.500	517.455	80.009	19.994	103.221	20.115	3.283	0.528
870.002	521.355	80.010	19.994	103.211	20.119	2.971	0.532
877.500	525.204	80.010	19.993	103.215	20.114	3.312	0.526
885.000	529.046	80.009	19.994	103.217	20.114	3.360	0.493
892.500	532.847	80.008	19.995	103.214	20.111	3.570	0.532
900.000	536.750	80.009	19.994	103.213	20.121	2.879	0.523
907.500	540.607	80.009	19.994	103.214	20.115	3.243	0.515
915.000	544.428	80.008	19.995	103.215	20.117	3.132	0.522
922.500	548.287	80.009	19.996	103.211	20.122	2.767	0.511
930.001	552.117	80.010	19.996	103.208	20.119	2.971	0.487
937.500	555.980	80.009	19.996	103.212	20.113	3.416	0.511
945.001	559.740	80.010	19.995	103.209	20.117	3.128	0.511
952.500	563.508	80.010	19.995	103.212	20.117	3.136	0.489
960.000	567.264	80.010	19.994	103.216	20.114	3.320	0.494
967.500	571.101	80.008	19.994	103.213	20.114	3.377	0.519
975.000	574.987	80.006	19.996	103.213	20.109	3.688	0.506
982.500	578.897	80.009	19.994	103.211	20.110	3.615	0.527
990.000	582.726	80.010	19.994	103.212	20.106	3.928	0.513
997.500	586.596	80.007	19.994	103.209	20.110	3.592	0.487
1005.000	590.516	80.008	19.995	103.211	20.104	4.012	0.548
1012.500	594.459	80.009	19.996	103.213	20.101	4.281	0.521
1020.000	598.344	80.009	19.995	103.211	20.103	4.133	0.539
1027.500	602.199	80.008	19.996	103.211	20.103	4.112	0.495
1035.000	606.065	80.008	19.996	103.213	20.099	4.397	0.504
1042.500	609.902	80.010	19.996	103.211	20.101	4.271	0.516
1050.000	613.701	80.010	19.996	103.209	20.099	4.405	0.528
1057.500	617.574	80.007	19.995	103.207	20.104	4.056	0.515
1065.001	621.389	80.009	19.995	103.210	20.102	4.192	0.528
1072.500	625.302	80.008	19.994	103.209	20.104	4.012	0.489
1080.000	629.242	80.007	19.995	103.212	20.107	3.834	0.550
1087.500	633.041	80.006	19.995	103.215	20.110	3.592	0.497
1095.001	636.940	80.009	19.994	103.210	20.112	3.481	0.508
1102.501	640.839	80.009	19.995	103.204	20.110	3.655	0.494
1110.000	644.632	80.009	19.995	103.202	20.108	3.736	0.495
1117.500	648.521	80.008	19.994	103.206	20.109	3.659	0.512
1125.000	652.242	80.011	19.996	103.204	20.116	3.203	0.483
1132.501	656.057	80.009	19.996	103.203	20.114	3.367	0.534
1140.000	659.812	80.007	19.995	103.198	20.119	3.015	0.506
1147.500	663.570	80.008	19.995	103.210	20.114	3.325	0.501
1155.001	667.288	80.008	19.996	103.196	20.121	2.888	0.513
1162.500	671.073	80.009	19.995	103.208	20.113	3.396	0.510
1170.000	674.965	80.008	19.995	103.203	20.122	2.775	0.510
1177.500	678.839	80.009	19.995	103.204	20.118	3.064	0.520
1185.000	682.768	80.008	19.993	103.195	20.121	2.857	0.491
1192.500	686.669	80.010	19.995	103.179	20.124	2.652	0.556
1200.001	690.546	80.010	19.995	103.193	20.127	2.460	0.530
1207.500	694.441	80.011	19.994	103.170	20.119	2.964	0.534
1215.000	698.304	80.010	19.995	103.180	20.122	2.803	0.500
1222.500	701.995	80.007	19.996	103.193	20.119	2.962	0.489
1230.000	705.790	80.007	19.995	103.194	20.119	3.001	0.490
1237.500	709.565	80.008	19.994	103.193	20.121	2.880	0.505
1245.001	713.404	80.010	19.994	103.195	20.117	3.115	0.514
1252.500	717.233	80.008	19.995	103.187	20.120	2.912	0.486
1260.000	721.012	80.009	19.995	103.182	20.122	2.765	0.525
1267.500	724.789	80.010	19.994	103.174	20.116	3.186	0.508
1275.000	728.635	80.010	19.995	103.183	20.115	3.240	0.530
1282.500	732.410	80.009	19.995	103.188	20.122	2.757	0.506
1290.000	736.250	80.009	19.995	103.179	20.119	2.972	0.516
1297.500	740.107	80.011	19.994	103.174	20.118	3.033	0.494
1304.500	743.669	80.009	19.995	103.188	20.121	2.885	0.521