File: 01_Data/LatexPillow_A_Outer_Fabric/MCC/LatexPillow_A_Outer_Fabric_MCC_30K_min_211210_R3.txt
Sample ID:	C:\MCC\MCC Cal\Test\LatexPillow_A_Outer_Fabric_MCC_30K_min_211210_R3.txt
Sample Weight (mg):	4.39
Heating Rate (C/s):	0.5
Combustor Temp (C):	900
N2 Flow Rate (cc/min):	80
O2 Flow Rate (cc/min):	20
Calibration File:	C:\MCC\MCC Cal\Coeff1 JN10440_30_210304.txt.txt
T Correction Coefficients:	0	1.024463	0
Time Shift (s):	14
*
Time (s)	Temperature (C)	N2 flow rate (cc/min)	O2 flow rate (cc/min)	Flow Rate (cc/min)	Oxygen (%)	HRR (W/g)	Heating rate (C/s)
0.000	109.056	80.027	20.000	103.126	20.280	-0.355	0.043
8.000	109.087	80.025	19.999	103.156	20.273	0.127	0.022
16.000	109.206	80.007	19.994	103.163	20.264	0.790	0.048
24.000	109.520	80.008	19.993	103.209	20.253	1.594	0.032
32.000	110.287	80.005	19.995	103.327	20.232	3.156	0.139
39.999	111.615	80.006	19.995	103.328	20.228	3.462	0.200
47.999	113.410	80.006	19.996	103.337	20.225	3.652	0.260
55.999	115.578	80.007	19.996	103.337	20.226	3.598	0.299
63.999	118.045	80.006	19.995	103.339	20.223	3.786	0.317
72.000	120.796	80.007	19.995	103.363	20.218	4.184	0.384
79.999	123.777	80.008	19.993	103.362	20.220	4.018	0.381
88.000	126.934	80.009	19.995	103.363	20.220	4.016	0.376
95.999	130.343	80.007	19.996	103.367	20.218	4.172	0.446
103.999	133.923	80.007	19.996	103.369	20.216	4.342	0.460
112.000	137.539	80.007	19.994	103.367	20.215	4.403	0.476
119.999	141.268	80.006	19.993	103.369	20.215	4.401	0.450
127.999	145.148	80.005	19.995	103.370	20.219	4.064	0.500
136.000	149.042	80.005	19.994	103.367	20.214	4.493	0.523
144.000	153.011	80.007	19.994	103.351	20.214	4.440	0.499
152.000	156.931	80.007	19.996	103.353	20.214	4.461	0.467
160.000	160.920	80.006	19.997	103.337	20.214	4.492	0.542
168.000	164.892	80.008	19.995	103.328	20.215	4.369	0.494
176.001	168.886	80.007	19.995	103.330	20.217	4.259	0.502
184.000	172.872	80.005	19.994	103.325	20.215	4.370	0.473
192.000	176.831	80.004	19.994	103.329	20.209	4.823	0.497
200.000	180.809	80.005	19.994	103.316	20.211	4.715	0.506
208.000	184.706	80.007	19.994	103.317	20.214	4.444	0.482
216.000	188.761	80.009	19.996	103.313	20.215	4.382	0.507
224.000	192.690	80.009	19.994	103.296	20.217	4.280	0.469
232.000	196.609	80.008	19.994	103.293	20.220	4.040	0.485
240.000	200.537	80.008	19.996	103.288	20.223	3.800	0.478
248.000	204.411	80.009	19.996	103.293	20.225	3.648	0.428
256.000	208.402	80.006	19.996	103.293	20.222	3.898	0.453
264.000	212.355	80.004	19.997	103.291	20.230	3.292	0.502
272.000	216.329	80.009	19.995	103.292	20.232	3.157	0.510
280.000	220.314	80.007	19.994	103.288	20.233	3.090	0.490
288.000	224.364	80.006	19.995	103.288	20.230	3.284	0.502
296.000	228.439	80.006	19.994	103.286	20.238	2.703	0.527
304.000	232.448	80.009	19.995	103.290	20.243	2.314	0.524
312.000	236.553	80.008	19.995	103.290	20.238	2.682	0.519
320.000	240.481	80.008	19.995	103.340	20.242	2.401	0.481
328.000	244.443	80.010	19.995	103.288	20.241	2.462	0.489
336.000	248.439	80.008	19.996	103.268	20.240	2.567	0.517
344.000	252.461	80.006	19.994	103.284	20.243	2.357	0.508
352.000	256.426	80.005	19.996	103.285	20.242	2.383	0.535
360.000	260.377	80.005	19.996	103.265	20.247	2.076	0.489
368.000	264.308	80.007	19.994	103.275	20.245	2.217	0.508
376.000	268.283	80.005	19.995	103.273	20.249	1.898	0.475
384.000	272.342	80.007	19.995	103.269	20.249	1.866	0.505
392.000	276.337	80.005	19.994	103.260	20.249	1.916	0.522
400.000	280.364	80.006	19.995	103.257	20.248	1.961	0.473
408.000	284.354	80.010	19.995	103.258	20.250	1.832	0.511
416.000	288.383	80.010	19.996	103.276	20.249	1.868	0.470
424.000	292.417	80.008	19.995	103.252	20.247	2.066	0.488
432.000	296.482	80.007	19.995	103.253	20.246	2.134	0.532
440.000	300.490	80.007	19.994	103.259	20.250	1.815	0.501
448.000	304.551	80.005	19.995	103.256	20.248	1.971	0.504
456.000	308.633	80.004	19.996	103.256	20.247	2.023	0.514
464.000	312.694	80.005	19.994	103.252	20.250	1.817	0.518
472.000	316.796	80.009	19.993	103.248	20.252	1.698	0.527
480.000	320.870	80.009	19.995	103.248	20.253	1.623	0.544
488.000	324.920	80.010	19.994	103.247	20.248	1.969	0.528
496.000	328.967	80.012	19.994	103.249	20.251	1.736	0.503
504.000	333.064	80.008	19.995	103.250	20.250	1.819	0.539
512.000	337.154	80.007	19.995	103.247	20.246	2.122	0.516
520.000	341.186	80.006	19.995	103.247	20.249	1.888	0.518
528.000	345.182	80.006	19.996	103.253	20.249	1.902	0.496
536.000	349.272	80.007	19.996	103.243	20.248	1.998	0.518
544.000	353.341	80.007	19.997	103.236	20.253	1.635	0.511
552.000	357.360	80.009	19.995	103.243	20.249	1.915	0.506
560.000	361.366	80.007	19.995	103.241	20.242	2.427	0.497
568.000	365.364	80.006	19.994	103.279	20.234	3.016	0.539
576.000	369.356	80.009	19.995	103.248	20.224	3.760	0.522
584.000	373.387	80.008	19.994	103.252	20.204	5.164	0.529
592.000	377.511	80.008	19.995	103.258	20.177	7.182	0.537
600.000	381.601	80.007	19.995	103.282	20.140	9.879	0.501
608.000	385.750	80.006	19.996	103.283	20.114	11.806	0.558
616.000	389.888	80.006	19.996	103.294	20.080	14.330	0.510
624.000	394.080	80.004	19.996	103.313	20.033	17.747	0.504
632.000	398.307	80.007	19.995	103.340	19.955	23.471	0.496
640.000	402.566	80.007	19.996	103.372	19.898	27.659	0.364
648.000	406.633	80.008	19.994	103.400	19.820	33.414	0.534
656.000	410.573	80.007	19.994	103.464	19.653	45.748	0.497
664.000	414.681	80.006	19.995	103.484	19.513	56.087	0.508
672.000	418.699	80.006	19.995	103.556	19.347	68.342	0.480
680.000	422.741	80.007	19.995	103.639	19.118	85.250	0.486
688.000	426.751	80.009	19.994	103.710	18.878	103.062	0.476
696.000	430.818	80.006	19.996	103.798	18.631	121.447	0.502
704.000	434.862	80.006	19.995	103.921	18.333	143.463	0.543
712.000	438.950	80.007	19.995	103.930	18.084	162.057	0.539
720.000	442.961	80.006	19.995	104.055	17.947	172.170	0.489
728.000	447.068	80.007	19.995	104.069	17.842	179.972	0.488
736.000	451.164	80.009	19.995	104.081	17.813	181.969	0.529
744.000	455.282	80.009	19.993	104.015	17.972	169.998	0.534
752.000	459.344	80.008	19.994	103.931	18.321	144.024	0.520
760.000	463.436	80.007	19.995	103.787	18.789	109.411	0.506
768.000	467.488	80.006	19.993	103.644	19.294	72.097	0.489
776.000	471.583	80.007	19.994	103.509	19.655	45.530	0.508
784.000	475.712	80.006	19.994	103.417	19.867	29.923	0.498
792.000	479.793	80.008	19.994	103.363	20.004	19.854	0.483
800.000	483.859	80.009	19.994	103.310	20.088	13.710	0.542
808.000	487.873	80.009	19.994	103.295	20.138	10.018	0.507
816.000	491.913	80.009	19.996	103.284	20.175	7.307	0.491
824.000	495.944	80.009	19.995	103.247	20.198	5.611	0.501
832.000	499.990	80.007	19.995	103.248	20.211	4.690	0.530
840.000	504.057	80.007	19.993	103.238	20.219	4.083	0.530
848.000	508.039	80.008	19.994	103.225	20.223	3.805	0.509
856.000	512.116	80.007	19.995	103.214	20.225	3.641	0.467
864.000	516.283	80.008	19.996	103.225	20.230	3.270	0.518
872.000	520.435	80.008	19.995	103.217	20.228	3.455	0.542
880.000	524.543	80.009	19.995	103.241	20.233	3.056	0.504
888.000	528.664	80.007	19.994	103.210	20.232	3.157	0.523
896.000	532.804	80.010	19.994	103.212	20.230	3.278	0.553
904.000	536.911	80.010	19.994	103.216	20.235	2.933	0.499
912.000	541.095	80.007	19.994	103.211	20.229	3.326	0.531
920.000	545.078	80.006	19.995	103.213	20.232	3.134	0.498
928.000	549.148	80.005	19.995	103.207	20.233	3.042	0.488
936.000	553.336	80.006	19.995	103.209	20.232	3.148	0.523
944.000	557.493	80.007	19.994	103.209	20.227	3.471	0.518
952.000	561.646	80.006	19.995	103.212	20.228	3.409	0.537
960.000	565.812	80.008	19.995	103.212	20.225	3.621	0.509
968.000	569.903	80.008	19.992	103.214	20.224	3.692	0.514
976.000	574.089	80.007	19.995	103.214	20.226	3.564	0.510
984.000	578.214	80.009	19.993	103.213	20.223	3.774	0.479
992.000	582.301	80.008	19.993	103.207	20.226	3.554	0.497
1000.000	586.380	80.007	19.996	103.206	20.222	3.895	0.491
1008.000	590.465	80.006	19.996	103.210	20.215	4.372	0.479
1016.000	594.565	80.006	19.996	103.206	20.216	4.341	0.470
1024.000	598.687	80.007	19.996	103.212	20.217	4.273	0.516
1031.999	602.876	80.006	19.995	103.215	20.215	4.410	0.520
1039.999	607.006	80.008	19.995	103.204	20.218	4.160	0.546
1048.000	611.069	80.010	19.994	103.212	20.218	4.178	0.502
1055.999	615.168	80.007	19.995	103.204	20.216	4.343	0.503
1063.999	619.200	80.008	19.993	103.207	20.218	4.192	0.492
1071.999	623.267	80.009	19.995	103.209	20.219	4.085	0.507
1079.999	627.290	80.007	19.996	103.207	20.218	4.176	0.493
1087.999	631.390	80.008	19.995	103.209	20.218	4.174	0.490
1095.999	635.547	80.007	19.994	103.211	20.223	3.774	0.523
1103.999	639.680	80.007	19.995	103.207	20.225	3.673	0.507
1111.999	643.891	80.006	19.996	103.200	20.221	3.921	0.527
1120.000	648.053	80.007	19.995	103.196	20.227	3.507	0.536
1127.999	652.234	80.009	19.994	103.183	20.224	3.713	0.524
1135.999	656.462	80.007	19.993	103.197	20.228	3.414	0.518
1144.000	660.576	80.008	19.994	103.186	20.234	2.988	0.507
1152.000	664.656	80.009	19.995	103.181	20.233	3.065	0.486
1160.000	668.625	80.007	19.995	103.216	20.234	3.025	0.512
1167.999	672.606	80.007	19.996	103.183	20.235	2.904	0.484
1175.999	676.627	80.007	19.996	103.194	20.237	2.784	0.559
1183.999	680.653	80.006	19.993	103.180	20.234	2.979	0.540
1192.000	684.682	80.005	19.994	103.179	20.233	3.084	0.518
1200.000	688.747	80.006	19.996	103.182	20.234	2.958	0.512
1208.000	692.940	80.007	19.996	103.173	20.239	2.593	0.525
1216.000	697.207	80.006	19.995	103.191	20.239	2.601	0.540
1223.999	701.413	80.005	19.993	103.186	20.234	3.004	0.522
1231.999	705.544	80.008	19.995	103.184	20.240	2.546	0.513
1239.999	709.649	80.007	19.994	103.179	20.234	2.980	0.532
1247.999	713.710	80.006	19.995	103.175	20.239	2.633	0.475
1255.999	717.849	80.006	19.995	103.171	20.235	2.887	0.527
1263.999	721.924	80.006	19.994	103.173	20.228	3.442	0.513
1272.000	725.947	80.004	19.994	103.171	20.232	3.141	0.495
1279.999	729.900	80.005	19.996	103.173	20.236	2.865	0.495
1288.000	733.872	80.005	19.994	103.174	20.233	3.087	0.486
1295.999	737.871	80.007	19.996	103.171	20.238	2.726	0.487
1303.999	741.763	80.006	19.995	103.172	20.234	2.982	0.495
1308.499	743.922	80.008	19.995	103.174	20.231	3.240	0.490