File: 01_Data/Fiberboard_Pressed_Paper/MCC/Fiberboard_Pressed_Paper_MCC_30K_min_211005_R2.txt
Sample ID:	C:\MCC\MCC Cal\Test\Fiberboard_Pressed_Paper_MCC_30K_min_211005_R2.txt
Sample Weight (mg):	4.6
Heating Rate (C/s):	0.5
Combustor Temp (C):	900
N2 Flow Rate (cc/min):	80
O2 Flow Rate (cc/min):	20
Calibration File:	C:\MCC\MCC Cal\Coeff1 JN10440_30_210304.txt.txt
T Correction Coefficients:	0	1.024463	0
Time Shift (s):	14
*
Time (s)	Temperature (C)	N2 flow rate (cc/min)	O2 flow rate (cc/min)	Flow Rate (cc/min)	Oxygen (%)	HRR (W/g)	Heating rate (C/s)
0.000	109.330	79.996	19.996	100.749	19.995	0.094	-0.006
8.000	109.291	79.994	19.997	100.765	19.994	0.157	-0.025
16.000	109.347	79.996	19.996	100.769	19.993	0.211	0.011
24.000	109.380	79.995	19.995	100.830	19.987	0.639	0.000
32.002	109.780	79.996	19.996	100.900	19.968	1.883	0.069
40.000	110.643	79.997	19.996	100.961	19.957	2.678	0.108
48.000	111.965	79.999	19.995	100.958	19.951	3.061	0.180
56.001	113.599	79.997	19.995	100.948	19.951	3.076	0.219
64.000	115.539	79.997	19.996	100.964	19.951	3.066	0.231
72.000	117.750	79.998	19.996	100.990	19.949	3.211	0.339
80.000	120.097	79.996	19.997	100.991	19.949	3.219	0.285
88.000	122.828	79.995	19.997	100.976	19.949	3.205	0.366
96.000	125.661	79.997	19.996	100.999	19.944	3.588	0.332
104.000	128.765	79.995	19.998	101.057	19.946	3.448	0.410
112.000	131.934	79.994	19.997	100.993	19.945	3.492	0.405
120.000	135.309	79.995	19.995	100.998	19.946	3.418	0.434
128.000	138.814	79.995	19.997	101.023	19.949	3.217	0.458
136.000	142.407	79.996	19.996	101.016	19.942	3.689	0.445
144.000	146.113	79.997	19.996	101.003	19.946	3.436	0.430
152.000	149.930	79.999	19.997	101.006	19.947	3.319	0.487
160.000	153.761	79.996	19.995	101.013	19.948	3.278	0.488
168.000	157.612	79.995	19.997	101.002	19.942	3.665	0.503
176.000	161.523	79.997	19.996	100.988	19.941	3.791	0.502
184.000	165.378	79.996	19.996	100.992	19.947	3.329	0.502
192.000	169.369	79.995	19.997	100.983	19.944	3.526	0.492
200.000	173.353	79.994	19.996	100.987	19.940	3.835	0.503
208.000	177.274	79.998	19.996	100.983	19.941	3.794	0.485
216.000	181.255	79.998	19.996	100.981	19.938	3.932	0.503
224.000	185.273	79.998	19.996	100.980	19.937	4.053	0.526
232.000	189.281	79.999	19.996	100.951	19.935	4.179	0.512
240.000	193.274	79.997	19.996	100.956	19.937	4.019	0.497
248.000	197.165	79.996	19.996	100.952	19.931	4.436	0.504
256.001	200.956	79.996	19.996	100.947	19.929	4.564	0.453
264.000	204.752	79.995	19.995	100.949	19.924	4.925	0.466
272.000	208.563	79.996	19.996	100.951	19.918	5.337	0.480
280.000	212.364	79.996	19.995	100.944	19.910	5.869	0.451
288.000	216.261	79.997	19.997	100.952	19.904	6.265	0.502
296.000	220.147	79.997	19.997	100.943	19.893	7.057	0.484
304.000	224.060	79.995	19.996	100.957	19.890	7.284	0.492
312.000	228.139	80.000	19.996	100.955	19.882	7.773	0.528
320.000	232.193	79.998	19.995	100.944	19.870	8.598	0.496
328.000	236.259	79.995	19.995	100.947	19.864	9.056	0.510
336.000	240.311	79.997	19.996	100.946	19.856	9.572	0.531
344.000	244.385	79.997	19.996	100.940	19.844	10.425	0.498
352.000	248.350	79.997	19.996	100.938	19.834	11.070	0.494
360.000	252.293	79.996	19.997	100.943	19.831	11.257	0.476
368.000	256.261	79.998	19.995	100.939	19.823	11.839	0.519
376.000	260.166	79.997	19.996	100.944	19.820	12.067	0.493
384.000	264.120	79.996	19.997	100.950	19.816	12.312	0.532
392.001	268.064	79.997	19.996	100.965	19.809	12.809	0.494
400.000	272.100	79.999	19.995	100.967	19.801	13.321	0.505
408.000	276.161	79.997	19.996	100.978	19.791	14.044	0.515
416.000	280.170	79.996	19.996	100.983	19.784	14.486	0.478
424.000	284.234	79.998	19.997	100.980	19.769	15.522	0.512
432.000	288.344	79.995	19.995	100.993	19.749	16.919	0.497
440.000	292.400	79.995	19.996	101.021	19.730	18.204	0.499
448.001	296.441	79.998	19.996	101.020	19.707	19.815	0.521
456.001	300.471	79.997	19.997	101.022	19.682	21.502	0.520
464.000	304.388	79.997	19.996	101.026	19.655	23.388	0.509
472.000	308.176	79.998	19.996	101.037	19.625	25.402	0.555
480.000	312.125	79.999	19.997	101.054	19.595	27.482	0.504
488.000	316.021	79.997	19.997	101.062	19.558	30.050	0.483
496.000	319.951	79.997	19.996	101.100	19.518	32.799	0.538
504.000	323.983	79.997	19.996	101.107	19.480	35.418	0.482
512.000	328.137	79.996	19.996	101.135	19.432	38.676	0.510
520.000	332.308	79.993	19.996	101.143	19.382	42.144	0.516
528.000	336.534	79.997	19.995	101.164	19.324	46.142	0.497
536.000	340.771	79.998	19.996	101.178	19.262	50.400	0.496
544.001	344.930	79.998	19.997	101.186	19.205	54.315	0.530
552.000	349.018	79.997	19.997	101.194	19.149	58.143	0.528
560.000	353.154	79.999	19.996	101.206	19.105	61.130	0.512
568.000	357.137	79.995	19.997	101.192	19.073	63.298	0.507
576.000	361.123	79.997	19.997	101.180	19.083	62.625	0.517
584.000	365.038	79.996	19.995	101.141	19.128	59.509	0.499
592.000	369.004	79.995	19.995	101.084	19.220	53.167	0.487
600.000	372.998	79.997	19.997	101.021	19.355	43.878	0.530
608.000	377.017	79.997	19.996	100.943	19.518	32.718	0.492
616.000	381.110	79.999	19.995	100.907	19.672	22.153	0.508
624.000	385.205	79.998	19.997	100.901	19.789	14.144	0.489
632.000	389.181	79.998	19.996	100.904	19.855	9.619	0.456
640.000	393.353	79.998	19.995	100.904	19.883	7.695	0.525
648.000	397.487	79.994	19.996	100.907	19.899	6.620	0.529
656.001	401.617	79.996	19.996	100.911	19.900	6.592	0.505
664.000	405.840	79.997	19.997	100.904	19.901	6.507	0.548
672.000	409.929	79.997	19.997	100.904	19.901	6.481	0.526
680.000	414.011	79.995	19.995	100.905	19.907	6.051	0.471
688.000	418.091	79.997	19.996	100.905	19.907	6.118	0.536
696.000	422.133	79.999	19.996	100.905	19.912	5.774	0.484
704.000	426.122	79.997	19.995	100.901	19.908	5.992	0.489
712.000	430.099	79.999	19.995	100.907	19.915	5.527	0.486
720.000	434.054	79.998	19.996	100.900	19.914	5.588	0.504
728.000	437.961	79.996	19.998	100.896	19.919	5.265	0.472
736.000	441.857	79.997	19.997	100.898	19.919	5.260	0.474
744.000	445.656	79.997	19.996	100.904	19.922	5.084	0.464
752.000	449.482	79.997	19.999	100.900	19.920	5.166	0.477
760.000	453.493	79.995	19.997	100.896	19.924	4.894	0.544
768.000	457.467	79.995	19.996	100.904	19.929	4.607	0.489
776.000	461.603	79.998	19.995	100.906	19.928	4.638	0.529
784.000	465.728	79.998	19.996	100.902	19.935	4.195	0.517
792.000	469.857	79.997	19.996	100.895	19.939	3.917	0.545
800.000	473.998	80.000	19.995	100.899	19.941	3.779	0.565
808.000	478.107	79.997	19.998	100.888	19.950	3.172	0.542
816.000	482.101	79.996	19.997	100.874	19.955	2.767	0.494
824.000	486.114	79.996	19.996	100.897	19.956	2.721	0.508
832.000	490.139	79.997	19.996	100.904	19.957	2.656	0.520
840.000	494.290	79.995	19.997	100.900	19.958	2.623	0.529
848.000	498.455	79.997	19.997	100.899	19.961	2.402	0.508
856.000	502.682	79.998	19.995	100.893	19.966	2.058	0.508
864.000	507.050	79.998	19.996	100.899	19.967	1.969	0.556
872.000	511.377	79.999	19.997	100.901	19.969	1.826	0.543
880.000	515.720	79.998	19.997	100.898	19.971	1.737	0.560
888.000	520.122	79.996	19.995	100.905	19.973	1.569	0.571
896.000	524.447	79.997	19.997	100.905	19.973	1.570	0.577
904.001	528.739	79.996	19.997	100.895	19.971	1.715	0.532
912.000	533.025	79.997	19.997	100.904	19.967	1.961	0.532
920.000	537.275	79.994	19.996	100.901	19.966	2.049	0.521
928.000	541.419	79.995	19.997	100.897	19.970	1.747	0.508
936.000	545.469	79.997	19.997	100.888	19.976	1.376	0.514
944.000	549.471	79.998	19.997	100.896	19.975	1.402	0.485
952.000	553.431	79.997	19.995	100.904	19.973	1.573	0.479
960.000	557.470	79.999	19.995	100.906	19.970	1.806	0.502
968.000	561.551	79.996	19.996	100.904	19.971	1.673	0.514
976.000	565.560	79.997	19.996	100.907	19.973	1.563	0.492
984.000	569.566	79.996	19.996	100.905	19.968	1.917	0.508
992.000	573.541	79.997	19.996	100.902	19.970	1.747	0.494
1000.000	577.564	79.997	19.997	100.902	19.971	1.737	0.515
1008.000	581.463	79.996	19.997	100.903	19.971	1.680	0.500
1016.000	585.411	79.997	19.997	100.904	19.974	1.526	0.503
1024.000	589.413	79.996	19.996	100.903	19.972	1.608	0.475
1032.000	593.522	79.994	19.997	100.907	19.974	1.515	0.495
1040.000	597.682	80.000	19.995	100.904	19.968	1.910	0.500
1048.000	601.689	79.999	19.996	100.902	19.971	1.682	0.490
1056.002	605.716	79.995	19.995	100.907	19.970	1.780	0.496
1064.000	609.903	79.998	19.997	100.901	19.971	1.724	0.539
1072.000	614.051	79.999	19.995	100.903	19.970	1.765	0.533
1080.000	618.183	79.995	19.996	100.906	19.963	2.249	0.512
1088.001	622.191	79.996	19.997	100.904	19.967	1.975	0.499
1096.000	626.110	79.996	19.995	100.907	19.968	1.919	0.505
1104.000	629.934	79.996	19.995	100.908	19.967	1.951	0.494
1112.000	633.797	79.995	19.996	100.915	19.965	2.092	0.489
1120.001	637.862	79.999	19.996	100.906	19.970	1.777	0.485
1128.000	642.095	79.996	19.997	100.940	19.968	1.896	0.524
1136.000	646.600	80.000	19.996	100.940	19.965	2.137	0.565
1144.000	651.305	79.998	19.996	100.942	19.969	1.855	0.616
1152.000	655.957	79.995	19.996	100.944	19.967	1.955	0.626
1160.000	660.636	79.996	19.996	100.951	19.965	2.140	0.575
1168.000	665.212	79.997	19.997	100.950	19.962	2.340	0.575
1176.001	669.792	79.999	19.996	100.949	19.963	2.280	0.606
1184.000	674.229	79.997	19.996	100.961	19.960	2.493	0.568
1192.000	678.678	79.998	19.995	100.959	19.962	2.335	0.588
1200.000	682.872	79.998	19.997	100.972	19.957	2.643	0.527
1208.000	687.117	79.996	19.997	100.954	19.956	2.699	0.537
1216.000	691.220	79.995	19.996	100.970	19.956	2.758	0.518
1224.000	695.325	79.996	19.995	100.974	19.956	2.752	0.525
1232.000	699.388	79.997	19.996	100.977	19.957	2.650	0.505
1240.000	703.358	79.996	19.996	100.971	19.955	2.774	0.479
1248.000	707.413	79.997	19.996	100.959	19.953	2.965	0.504
1256.000	711.451	79.998	19.996	100.949	19.956	2.727	0.509
1264.000	715.456	79.998	19.996	100.935	19.965	2.088	0.530
1272.001	719.546	79.998	19.997	100.918	19.958	2.606	0.522
1280.001	723.496	79.998	19.996	100.906	19.957	2.639	0.499
1288.001	727.470	79.998	19.996	100.905	19.963	2.269	0.469
1296.000	731.411	79.994	19.997	100.908	19.961	2.406	0.485
1304.000	735.396	79.996	19.995	100.901	19.965	2.108	0.498
1312.001	739.359	79.997	19.996	100.908	19.970	1.778	0.493
1320.000	743.327	79.996	19.996	100.903	19.968	1.886	0.529
1321.000	743.812	79.998	19.997	100.905	19.966	2.040	0.488