File: 01_Data/Wood_Stud/STA/N2/10K_min/Wood_Stud_STA_N2_10KData_220126_R1.csv
##Temp./Â°C,Time/min,Mass loss(subtr.2)/mg,DSC(subtr.2)/(mW/mg),Sensit./(uV/mW)
49.219,10.01,-0.0328,0.02875296,1.07448
52.419,11.3179,-0.03537508,0.13185,1.07425
55.619,11.7705,-0.03903174,0.18227,1.07399
58.819,12.15724,-0.03894057,0.20693,1.07372
62.019,12.52088,-0.03917976,0.22663,1.07341
65.219,12.87326,-0.04177463,0.2392,1.07309
68.419,13.2197,-0.0431151,0.24999,1.07274
71.619,13.56165,-0.04324682,0.26288,1.07237
74.819,13.89996,-0.04706036,0.2731,1.07197
78.019,14.23426,-0.04936887,0.28012,1.07155
81.219,14.56431,-0.05045549,0.291,1.0711
84.419,14.8909,-0.04979936,0.2962,1.07064
87.619,15.2151,-0.05243024,0.29894,1.07014
90.819,15.5361,-0.05505999,0.29777,1.06963
94.019,15.8555,-0.05638592,0.29375,1.06909
97.219,16.17321,-0.05664746,0.28759,1.06853
100.419,16.48923,-0.05900995,0.2818,1.06794
103.619,16.8046,-0.05901,0.27907,1.06733
106.819,17.11829,-0.06000002,0.27418,1.0667
110.019,17.43163,-0.06190588,0.27231,1.06604
113.219,17.74448,-0.05922345,0.26928,1.06537
116.419,18.05738,-0.05919728,0.26993,1.06466
119.619,18.36942,-0.05923057,0.2717,1.06394
122.819,18.68122,-0.06092478,0.27285,1.06319
126.019,18.99239,-0.06151323,0.27455,1.06242
129.219,19.30386,-0.06185997,0.27494,1.06163
132.419,19.6143,-0.06318073,0.27604,1.06081
135.619,19.9243,-0.0615295,0.27922,1.05997
138.819,20.23398,-0.0635099,0.28037,1.05911
142.019,20.54251,-0.06553664,0.28378,1.05823
145.219,20.85005,-0.06285028,0.28899,1.05732
148.419,21.1571,-0.06294887,0.29021,1.05639
151.619,21.46392,-0.06414644,0.29446,1.05544
154.819,21.77124,-0.06415999,0.29806,1.05447
158.019,22.07801,-0.06318011,0.29808,1.05347
161.219,22.38563,-0.06575601,0.30286,1.05245
164.419,22.6923,-0.06473516,0.30472,1.05141
167.619,22.99955,-0.06482998,0.30684,1.05035
170.819,23.30615,-0.06478143,0.30997,1.04927
174.019,23.6135,-0.06581,0.31585,1.04816
177.219,23.92012,-0.06613646,0.3172,1.04704
180.419,24.22624,-0.06613995,0.32023,1.04589
183.619,24.53183,-0.06712034,0.32393,1.04472
186.819,24.83776,-0.06613985,0.32928,1.04353
190.019,25.14218,-0.06746,0.33233,1.04231
193.219,25.44888,-0.06901064,0.3373,1.04108
196.419,25.7538,-0.07073994,0.34084,1.03982
199.619,26.05922,-0.06862896,0.34409,1.03855
202.819,26.36463,-0.07034968,0.34997,1.03725
206.019,26.6692,-0.07096998,0.35656,1.03594
209.219,26.9745,-0.07220118,0.36121,1.0346
212.419,27.27954,-0.07622961,0.36608,1.03324
215.619,27.5848,-0.07625461,0.36874,1.03186
218.819,27.8895,-0.07848368,0.37171,1.03046
222.019,28.1939,-0.08122169,0.375,1.02904
225.219,28.49868,-0.08282,0.37947,1.0276
228.419,28.8042,-0.08676157,0.38291,1.02614
231.619,29.1099,-0.09103542,0.38444,1.02466
234.819,29.41613,-0.09533766,0.38936,1.02316
238.019,29.7229,-0.10273,0.39247,1.02164
241.219,30.0304,-0.10764,0.39615,1.0201
244.419,30.33819,-0.11476,0.39905,1.01854
247.619,30.6456,-0.12284,0.40292,1.01697
250.819,30.95253,-0.1371,0.40633,1.01537
254.019,31.2587,-0.14447,0.4109,1.01375
257.219,31.5649,-0.15674,0.41224,1.01212
260.419,31.8709,-0.17225,0.41863,1.01046
263.619,32.17654,-0.18622,0.42022,1.00879
266.819,32.4816,-0.20044,0.42452,1.0071
270.019,32.78737,-0.22256,0.42766,1.00539
273.219,33.09301,-0.24296,0.43062,1.00366
276.419,33.39953,-0.26607,0.43318,1.00191
279.619,33.70599,-0.29155,0.4351,1.00015
282.819,34.01253,-0.31985,0.43984,0.99837
286.019,34.3185,-0.3485,0.44436,0.99657
289.219,34.62487,-0.38271,0.45384,0.99475
292.419,34.93087,-0.4192,0.46333,0.99291
295.619,35.23713,-0.4572,0.47462,0.99106
298.819,35.54435,-0.49914,0.48524,0.98918
302.019,35.8515,-0.54535,0.50207,0.9873
305.219,36.15917,-0.59633,0.51803,0.98539
308.419,36.4668,-0.65286,0.53427,0.98347
311.619,36.77497,-0.71141,0.55395,0.98153
314.819,37.0834,-0.77626,0.5768,0.97957
318.019,37.39145,-0.84682,0.59754,0.9776
321.219,37.69934,-0.92133,0.61889,0.97561
324.419,38.00819,-1.00159,0.63536,0.9736
327.619,38.31601,-1.08453,0.65434,0.97158
330.819,38.62336,-1.16941,0.6677,0.96954
334.019,38.93192,-1.25818,0.67979,0.96748
337.219,39.241,-1.35291,0.69102,0.96541
340.419,39.5501,-1.44701,0.70772,0.96333
343.619,39.85954,-1.54348,0.7362,0.96123
346.819,40.16758,-1.64462,0.76409,0.95911
350.019,40.47712,-1.75133,0.80165,0.95698
353.219,40.7873,-1.86583,0.84363,0.95483
356.419,41.0965,-1.98121,0.88792,0.95267
359.619,41.40664,-2.10846,0.92484,0.95049
362.819,41.71638,-2.23802,0.94875,0.9483
366.019,42.02661,-2.36549,0.93296,0.94609
369.219,42.33657,-2.49343,0.88236,0.94387
372.419,42.64588,-2.60892,0.78798,0.94163
375.619,42.95551,-2.70888,0.65696,0.93939
378.819,43.26466,-2.7869,0.51022,0.93712
382.019,43.5741,-2.84215,0.36362,0.93484
385.219,43.88354,-2.87811,0.24579,0.93255
388.419,44.1928,-2.90265,0.17161,0.93025
391.619,44.50199,-2.91919,0.13551,0.92793
394.819,44.81224,-2.92968,0.11802,0.9256
398.019,45.12212,-2.93964,0.11177,0.92325
401.219,45.43262,-2.95341,0.10639,0.9209
404.419,45.74394,-2.95887,0.10014,0.91853
407.619,46.055,-2.96983,0.09103417,0.91614
410.819,46.36672,-2.98004,0.08624298,0.91375
414.019,46.67903,-2.98939,0.07845494,0.91134
417.219,46.9914,-3.00013,0.07651534,0.90892
420.419,47.30344,-3.00599,0.06934734,0.90648
423.619,47.6167,-3.01686,0.06124715,0.90404
426.819,47.9298,-3.02645,0.05658774,0.90158
430.019,48.24438,-3.03533,0.05090204,0.89911
433.219,48.5591,-3.04349,0.04774382,0.89663
436.419,48.87429,-3.05256,0.04612649,0.89414
439.619,49.18932,-3.06171,0.04899067,0.89164
442.819,49.5046,-3.06845,0.05133875,0.88913
446.019,49.82008,-3.07682,0.05501053,0.8866
449.219,50.13511,-3.08474,0.06377486,0.88407
452.419,50.4506,-3.09156,0.06901972,0.88152
455.619,50.76592,-3.10001,0.07711236,0.87896
458.819,51.08082,-3.10555,0.0885862,0.8764
462.019,51.39548,-3.11213,0.09335182,0.87382
465.219,51.70948,-3.11637,0.09807757,0.87123
468.419,52.02391,-3.12138,0.09786385,0.86864
471.619,52.33858,-3.12878,0.10349,0.86603
474.819,52.65315,-3.13338,0.10376,0.86341
478.019,52.9684,-3.13614,0.10355,0.86079
481.219,53.28431,-3.14186,0.10684,0.85815
484.419,53.6,-3.14667,0.10526,0.85551
487.619,53.91626,-3.15063,0.10659,0.85285
490.819,54.233,-3.15457,0.10864,0.85019
494.019,54.54925,-3.15849,0.11779,0.84752
497.219,54.865,-3.16121,0.12255,0.84484
500.419,55.1809,-3.16543,0.13115,0.84215
503.619,55.4973,-3.16795,0.1348,0.83945
506.819,55.81378,-3.17193,0.14651,0.83675
510.019,56.13072,-3.17431,0.14967,0.83404
513.219,56.4475,-3.17806,0.15445,0.83132
516.419,56.76571,-3.18094,0.1529,0.82859
519.619,57.08314,-3.18354,0.13682,0.82585
522.819,57.4009,-3.18657,0.12981,0.82311
526.019,57.7182,-3.18862,0.12387,0.82036
529.219,58.03624,-3.19205,0.11974,0.8176
532.419,58.3538,-3.19538,0.11596,0.81483
535.619,58.67139,-3.19966,0.11453,0.81206
538.819,58.9898,-3.20097,0.11311,0.80928
542.019,59.3072,-3.2037,0.11505,0.8065
545.219,59.62575,-3.20754,0.11546,0.80371
548.419,59.9443,-3.21018,0.11871,0.80091
551.619,60.26308,-3.21151,0.11486,0.79811
554.819,60.5822,-3.21395,0.11473,0.7953
558.019,60.9018,-3.21688,0.11511,0.79248
561.219,61.222,-3.21773,0.11557,0.78966
564.419,61.54156,-3.2217,0.11513,0.78683
567.619,61.8625,-3.22154,0.11199,0.784
570.819,62.1831,-3.22553,0.11557,0.78116
574.019,62.50305,-3.22816,0.11403,0.77832
577.219,62.82245,-3.22903,0.11449,0.77547
580.419,63.14134,-3.23209,0.11432,0.77262
583.619,63.4604,-3.23211,0.11625,0.76977
586.819,63.7793,-3.23575,0.11823,0.7669
590.019,64.09897,-3.23541,0.11517,0.76404
593.219,64.41825,-3.23934,0.11502,0.76117
596.419,64.738,-3.24002,0.1185,0.75829
599.619,65.05821,-3.24396,0.11415,0.75541
602.819,65.37914,-3.24528,0.11439,0.75253
606.019,65.6998,-3.24659,0.11081,0.74965
609.219,66.01987,-3.24792,0.11405,0.74676
612.419,66.34138,-3.25168,0.1147,0.74386
615.619,66.66271,-3.25409,0.11596,0.74097
618.819,66.9838,-3.25143,0.11,0.73807
622.019,67.30463,-3.25471,0.11707,0.73516
625.219,67.62544,-3.25735,0.11872,0.73226
628.419,67.94717,-3.2592,0.11872,0.72935
631.619,68.26998,-3.26074,0.11981,0.72644
634.819,68.59129,-3.26205,0.12467,0.72353
638.019,68.91213,-3.26338,0.12855,0.72061
641.219,69.2341,-3.26601,0.13264,0.71769
644.419,69.55603,-3.26754,0.14022,0.71477
647.619,69.8785,-3.26875,0.13696,0.71185
650.819,70.20056,-3.2727,0.14097,0.70893
654.019,70.52355,-3.27271,0.1409,0.706
657.219,70.84612,-3.2714,0.14118,0.70307
660.419,71.16825,-3.27566,0.14211,0.70014
663.619,71.49085,-3.2728,0.14636,0.69721
666.819,71.81411,-3.27647,0.14888,0.69428
670.019,72.13684,-3.27643,0.15604,0.69135
673.219,72.4594,-3.28038,0.15822,0.68842
676.419,72.78104,-3.27873,0.15707,0.68548
679.619,73.10311,-3.27939,0.15935,0.68255
682.819,73.42532,-3.28172,0.1592,0.67961
686.019,73.74823,-3.281,0.17168,0.67667
689.219,74.07041,-3.28225,0.17251,0.67374
692.419,74.39364,-3.28229,0.17102,0.6708
695.619,74.71678,-3.28358,0.17596,0.66786
698.819,75.03944,-3.28653,0.18092,0.66493
702.019,75.36278,-3.28548,0.18818,0.66199
705.219,75.68616,-3.28784,0.18949,0.65905
708.419,76.00846,-3.28785,0.18961,0.65612
711.619,76.33134,-3.28867,0.18974,0.65318
714.819,76.65562,-3.28782,0.1924,0.65025
718.019,76.98093,-3.29016,0.19499,0.64731
721.219,77.3057,-3.29091,0.19801,0.64438
724.419,77.63032,-3.29124,0.19816,0.64145
727.619,77.9543,-3.28977,0.20125,0.63852
730.819,78.277,-3.2916,0.20503,0.63559
734.019,78.60045,-3.29585,0.2113,0.63266
737.219,78.92435,-3.29469,0.21611,0.62973
740.419,79.24821,-3.2953,0.21621,0.6268
743.619,79.57204,-3.29431,0.21847,0.62388
746.819,79.89559,-3.29399,0.22132,0.62096
750.019,80.21935,-3.2953,0.2226,0.61804
753.219,80.54422,-3.29463,0.22808,0.61512
756.419,80.8695,-3.29563,0.22748,0.6122
759.619,81.19465,-3.29562,0.23069,0.60929
762.819,81.52049,-3.29519,0.23695,0.60638
766.019,81.84647,-3.29793,0.23181,0.60347
769.219,82.17179,-3.30056,0.23647,0.60056
772.419,82.49509,-3.3001,0.2404,0.59765
775.619,82.81923,-3.2986,0.23585,0.59475
778.819,83.14277,-3.30233,0.24338,0.59185
782.019,83.4659,-3.30258,0.24347,0.58896
785.219,83.7901,-3.30165,0.24045,0.58606
788.419,84.11444,-3.30155,0.24549,0.58317
791.619,84.44044,-3.30265,0.2477,0.58028
794.819,84.76665,-3.30396,0.2467,0.5774
797.019,84.99167,-3.30594,0.24207,0.57542