File: 01_Data/Wood_Stud/STA/N2/10K_min/Wood_Stud_STA_N2_10KData_220126_R2.csv
##Temp./Â°C,Time/min,Mass loss(subtr.2)/mg,DSC(subtr.2)/(mW/mg),Sensit./(uV/mW)
49.365,10.01,-0.02533,0.004156476,1.07447
52.665,11.32795,-0.02915395,0.09328233,1.07423
55.965,11.78999,-0.02927902,0.13601,1.07396
59.265,12.1859,-0.02964149,0.16254,1.07367
62.565,12.55885,-0.02768564,0.17766,1.07336
65.865,12.92003,-0.03048822,0.19162,1.07302
69.165,13.2747,-0.03190259,0.19983,1.07265
72.465,13.627,-0.03443875,0.20753,1.07226
75.765,13.97383,-0.03440294,0.2164,1.07185
79.065,14.31686,-0.03569963,0.22255,1.07141
82.365,14.6566,-0.03839476,0.22712,1.07094
85.665,14.9923,-0.03842846,0.22959,1.07045
88.965,15.32525,-0.04024025,0.22722,1.06993
92.265,15.65499,-0.04103829,0.22308,1.06939
95.565,15.98325,-0.04233064,0.21877,1.06882
98.865,16.30992,-0.04300356,0.21199,1.06823
102.165,16.6351,-0.04280801,0.21119,1.06761
105.465,16.9589,-0.04495897,0.20562,1.06697
108.765,17.28154,-0.04497027,0.20087,1.0663
112.065,17.60461,-0.04759993,0.19805,1.06561
115.365,17.92675,-0.04497119,0.2023,1.0649
118.665,18.24896,-0.04629,0.20098,1.06416
121.965,18.57065,-0.04628,0.20075,1.06339
125.265,18.89185,-0.04759862,0.2019,1.0626
128.565,19.21204,-0.04760279,0.20439,1.06179
131.865,19.53179,-0.04760001,0.20541,1.06095
135.165,19.85079,-0.04761332,0.20817,1.06009
138.465,20.16949,-0.04892013,0.20965,1.05921
141.765,20.48801,-0.04891307,0.21001,1.0583
145.065,20.8066,-0.04827561,0.21438,1.05736
148.365,21.125,-0.04694,0.21627,1.05641
151.665,21.44278,-0.04924177,0.21849,1.05543
154.965,21.76037,-0.04858,0.22181,1.05442
158.265,22.07797,-0.04793071,0.22326,1.05339
161.565,22.39465,-0.04793001,0.2277,1.05234
164.865,22.71098,-0.05056,0.23297,1.05127
168.165,23.0278,-0.04990979,0.23667,1.05017
171.465,23.34421,-0.04925164,0.2384,1.04905
174.765,23.6598,-0.04990023,0.24206,1.0479
178.065,23.97501,-0.05088447,0.24564,1.04673
181.365,24.29053,-0.05121981,0.24912,1.04554
184.665,24.60633,-0.05253813,0.25345,1.04433
187.965,24.92182,-0.0518554,0.25553,1.04309
191.265,25.23713,-0.05253999,0.25767,1.04184
194.565,25.55382,-0.05554693,0.26529,1.04055
197.865,25.86911,-0.05581938,0.26804,1.03925
201.165,26.18429,-0.05579817,0.2689,1.03793
204.465,26.49936,-0.05714,0.27677,1.03658
207.765,26.81499,-0.05888856,0.2809,1.03521
211.065,27.13,-0.06108998,0.28439,1.03382
214.365,27.4448,-0.06273,0.28885,1.0324
217.665,27.75982,-0.06571319,0.29259,1.03097
220.965,28.0746,-0.06832999,0.29611,1.02951
224.265,28.3884,-0.06964529,0.29998,1.02803
227.565,28.7024,-0.07424153,0.30371,1.02653
230.865,29.01647,-0.07830503,0.30887,1.02501
234.165,29.33035,-0.08181423,0.31272,1.02347
237.465,29.64531,-0.08700546,0.31608,1.02191
240.765,29.96005,-0.09400373,0.3219,1.02032
244.065,30.2756,-0.10183,0.32548,1.01872
247.365,30.5913,-0.11122,0.32757,1.01709
250.665,30.907,-0.12119,0.32518,1.01545
253.965,31.22346,-0.13389,0.32771,1.01378
257.265,31.5392,-0.1457,0.33,1.01209
260.565,31.8546,-0.16105,0.33373,1.01039
263.865,32.1693,-0.1809,0.3414,1.00866
267.165,32.48441,-0.19756,0.34669,1.00692
270.465,32.79977,-0.21847,0.34861,1.00515
273.765,33.11553,-0.24281,0.35084,1.00336
277.065,33.43193,-0.26791,0.35627,1.00156
280.365,33.7479,-0.29597,0.36314,0.99974
283.665,34.06344,-0.32631,0.36981,0.99789
286.965,34.3788,-0.35966,0.37512,0.99603
290.265,34.69443,-0.39517,0.38229,0.99415
293.565,35.01024,-0.43702,0.3922,0.99225
296.865,35.32601,-0.48054,0.40374,0.99033
300.165,35.64165,-0.52735,0.41706,0.98839
303.465,35.95752,-0.57785,0.43456,0.98644
306.765,36.27384,-0.63542,0.45323,0.98446
310.065,36.59091,-0.69521,0.47348,0.98247
313.365,36.908,-0.76145,0.49664,0.98046
316.665,37.22613,-0.83613,0.51712,0.97843
319.965,37.5445,-0.91443,0.53719,0.97639
323.265,37.86329,-0.99707,0.55627,0.97433
326.565,38.1813,-1.08598,0.57331,0.97225
329.865,38.49921,-1.17785,0.58598,0.97015
333.165,38.81742,-1.27231,0.59414,0.96803
336.465,39.1345,-1.36911,0.60106,0.9659
339.765,39.4534,-1.46924,0.61438,0.96376
343.065,39.77193,-1.57207,0.62754,0.96159
346.365,40.0905,-1.6766,0.65086,0.95941
349.665,40.4092,-1.78625,0.68362,0.95721
352.965,40.72805,-1.90206,0.72618,0.955
356.265,41.04786,-2.02363,0.7662,0.95277
359.565,41.36744,-2.15411,0.80487,0.95053
362.865,41.6873,-2.28751,0.8276,0.94827
366.165,42.0065,-2.4221,0.82236,0.94599
369.465,42.3257,-2.55399,0.78036,0.9437
372.765,42.64499,-2.67677,0.69233,0.94139
376.065,42.9637,-2.78605,0.56435,0.93907
379.365,43.28174,-2.87025,0.41046,0.93673
382.665,43.59985,-2.93343,0.2508,0.93438
385.965,43.91782,-2.97453,0.11668,0.93202
389.265,44.2367,-2.99859,0.02921767,0.92964
392.565,44.55637,-3.01683,-0.01632756,0.92724
395.865,44.87676,-3.02823,-0.0360314,0.92483
399.165,45.19846,-3.03969,-0.0497512,0.92241
402.465,45.5203,-3.05081,-0.05782497,0.91997
405.765,45.84173,-3.06065,-0.06368969,0.91752
409.065,46.1635,-3.07256,-0.0705266,0.91506
412.365,46.4865,-3.07963,-0.07882494,0.91258
415.665,46.80995,-3.0905,-0.08607674,0.91009
418.965,47.1335,-3.10001,-0.0955119,0.90759
422.265,47.4574,-3.10851,-0.10167,0.90508
425.565,47.78119,-3.118,-0.10695,0.90255
428.865,48.1038,-3.12881,-0.11196,0.90001
432.165,48.42675,-3.13725,-0.11557,0.89745
435.465,48.75022,-3.14735,-0.1129,0.89489
438.765,49.07397,-3.1573,-0.1154,0.89231
442.065,49.3974,-3.16602,-0.11108,0.88972
445.365,49.7211,-3.17142,-0.10289,0.88712
448.665,50.04399,-3.1822,-0.09703867,0.88451
451.965,50.3669,-3.18868,-0.09024237,0.88188
455.265,50.69143,-3.19527,-0.08096637,0.87925
458.565,51.0163,-3.20347,-0.07518509,0.8766
461.865,51.34172,-3.20885,-0.06960348,0.87394
465.165,51.6678,-3.21405,-0.06364247,0.87128
468.465,51.99366,-3.22072,-0.06172676,0.8686
471.765,52.31907,-3.22608,-0.05689099,0.86591
475.065,52.64445,-3.23136,-0.05562289,0.86321
478.365,52.9698,-3.23397,-0.05339472,0.8605
481.665,53.2946,-3.24014,-0.05422928,0.85778
484.965,53.6191,-3.24485,-0.05170179,0.85505
488.265,53.9438,-3.25011,-0.05312114,0.85232
491.565,54.26947,-3.25405,-0.0536371,0.84957
494.865,54.5958,-3.25669,-0.04790435,0.84681
498.165,54.9223,-3.2613,-0.04151513,0.84405
501.465,55.24978,-3.26393,-0.0373397,0.84127
504.765,55.57733,-3.26788,-0.03755552,0.83849
508.065,55.90436,-3.27182,-0.0244426,0.83569
511.365,56.23045,-3.27577,-0.019925,0.83289
514.665,56.5571,-3.27973,-0.01475399,0.83008
517.965,56.88409,-3.28235,-0.01141637,0.82727
521.265,57.2118,-3.28433,-0.009656221,0.82444
524.565,57.5397,-3.29091,-0.02438234,0.82161
527.865,57.86671,-3.29294,-0.02970886,0.81877
531.165,58.1929,-3.29618,-0.03752515,0.81592
534.465,58.5197,-3.29881,-0.04395077,0.81306
537.765,58.8467,-3.30139,-0.05002864,0.8102
541.065,59.175,-3.30538,-0.05513292,0.80733
544.365,59.5042,-3.30835,-0.0596684,0.80445
547.665,59.8338,-3.31065,-0.05555322,0.80157
550.965,60.1632,-3.31329,-0.0528155,0.79868
554.265,60.49155,-3.31487,-0.05690629,0.79578
557.565,60.82005,-3.31723,-0.05609905,0.79288
560.865,61.14917,-3.32085,-0.05857407,0.78997
564.165,61.4787,-3.32415,-0.05951946,0.78706
567.465,61.80698,-3.32576,-0.05744114,0.78414
570.765,62.13607,-3.32875,-0.05906039,0.78121
574.065,62.46481,-3.33008,-0.06412245,0.77828
577.365,62.79479,-3.334,-0.06364893,0.77534
580.665,63.1244,-3.33665,-0.06349317,0.7724
583.965,63.4541,-3.33797,-0.0659878,0.76946
587.265,63.78329,-3.3406,-0.06964826,0.7665
590.565,64.11288,-3.34323,-0.06856564,0.76355
593.865,64.44168,-3.34456,-0.06839841,0.76059
597.165,64.77083,-3.34684,-0.07274746,0.75762
600.465,65.10045,-3.3518,-0.07383929,0.75465
603.765,65.43096,-3.35211,-0.07656204,0.75168
607.065,65.76125,-3.35343,-0.08013779,0.7487
610.365,66.09182,-3.35606,-0.07820442,0.74572
613.665,66.4224,-3.35869,-0.07969005,0.74274
616.965,66.75341,-3.35937,-0.07871861,0.73975
620.265,67.0851,-3.36148,-0.08033316,0.73676
623.565,67.41592,-3.365,-0.08112341,0.73376
626.865,67.7475,-3.36528,-0.08480725,0.73076
630.165,68.07998,-3.36824,-0.08591131,0.72776
633.465,68.41254,-3.36853,-0.08939882,0.72476
636.765,68.74595,-3.36989,-0.08612645,0.72175
640.065,69.07907,-3.3712,-0.08774103,0.71874
643.365,69.41215,-3.37251,-0.08708254,0.71573
646.665,69.74458,-3.37449,-0.08684106,0.71272
649.965,70.07579,-3.3758,-0.08651237,0.70971
653.265,70.40727,-3.37712,-0.08490133,0.70669
656.565,70.73908,-3.37909,-0.09441443,0.70367
659.865,71.07106,-3.38009,-0.09050261,0.70065
663.165,71.40289,-3.37975,-0.09164763,0.69763
666.465,71.73517,-3.38234,-0.09007237,0.69461
669.765,72.06838,-3.38304,-0.0898183,0.69158
673.065,72.40095,-3.38542,-0.09331898,0.68856
676.365,72.73326,-3.38568,-0.09587751,0.68553
679.665,73.06618,-3.38831,-0.09510902,0.6825
682.965,73.39886,-3.38699,-0.09859398,0.67948
686.265,73.7305,-3.38831,-0.09195766,0.67645
689.565,74.06279,-3.39094,-0.08853935,0.67342
692.865,74.3947,-3.39219,-0.08999656,0.67039
696.165,74.7284,-3.39226,-0.0945474,0.66736
699.465,75.06148,-3.39226,-0.09479054,0.66433
702.765,75.39503,-3.3949,-0.09543463,0.66131
706.065,75.72819,-3.39489,-0.09656502,0.65828
709.365,76.06116,-3.39621,-0.09601266,0.65525
712.665,76.39368,-3.39684,-0.09622355,0.65222
715.965,76.72712,-3.39687,-0.09466948,0.6492
719.265,77.06015,-3.39819,-0.09509465,0.64617
722.565,77.39395,-3.40046,-0.09322724,0.64315
725.865,77.7276,-3.40081,-0.10044,0.64012
729.165,78.06174,-3.4028,-0.09806272,0.6371
732.465,78.39599,-3.40158,-0.09609126,0.63408
735.765,78.7298,-3.40345,-0.09549327,0.63106
739.065,79.06515,-3.40246,-0.09682419,0.62804
742.365,79.39926,-3.40406,-0.09725396,0.62503
745.665,79.73268,-3.4044,-0.09663207,0.62201
748.965,80.06551,-3.40576,-0.09439065,0.619
752.265,80.40051,-3.40608,-0.0897361,0.61599
755.565,80.73639,-3.4074,-0.08971864,0.61298
758.865,81.0717,-3.40871,-0.09189828,0.60997
762.165,81.40674,-3.40871,-0.09123556,0.60697
765.465,81.7414,-3.40904,-0.09503998,0.60397
768.765,82.07633,-3.40871,-0.10083,0.60097
772.065,82.41193,-3.41036,-0.10129,0.59797
775.365,82.7466,-3.41003,-0.10211,0.59498
778.665,83.08149,-3.41167,-0.10329,0.59199
781.965,83.4164,-3.41298,-0.10417,0.589
785.265,83.75186,-3.41298,-0.10192,0.58602
788.565,84.0882,-3.41566,-0.0998722,0.58304
791.865,84.42429,-3.41563,-0.10138,0.58006
795.165,84.76031,-3.41496,-0.09984134,0.57709
797.465,84.99374,-3.41631,-0.10237,0.57502