File: 01_Data/Window_Screen/STA/N2/10K_min/Window_Screen_STA_N2_10KData_220811_R1.csv
##Temp./Â°C,Time/min,Mass loss(subtr.2)/mg,DSC(subtr.2)/(mW/mg),Sensit./(uV/mW)
49.807,10.00917,0.02602,-0.01506436,1.07015
52.907,11.30718,0.02695429,0.0760886,1.06929
56.007,11.7495,0.02985465,0.11551,1.06843
59.107,12.1269,0.03000205,0.13568,1.06755
62.207,12.47894,0.02921784,0.14852,1.06667
65.307,12.81953,0.02853813,0.15307,1.06577
68.407,13.15345,0.02985174,0.15737,1.06487
71.507,13.4843,0.0312274,0.15933,1.06395
74.607,13.81112,0.03107492,0.16044,1.06302
77.707,14.1347,0.03143471,0.16209,1.06209
80.807,14.45372,0.03101678,0.1644,1.06114
83.907,14.77108,0.02970845,0.16694,1.06019
87.007,15.0847,0.02974956,0.16817,1.05922
90.107,15.39575,0.03100957,0.17075,1.05824
93.207,15.7047,0.02974251,0.17219,1.05726
96.307,16.01237,0.03304315,0.17452,1.05626
99.407,16.31927,0.03173,0.17994,1.05525
102.507,16.6253,0.03183598,0.18062,1.05424
105.607,16.92974,0.03184008,0.18177,1.05321
108.707,17.23324,0.03316161,0.18287,1.05217
111.807,17.53655,0.03184406,0.18763,1.05112
114.907,17.8376,0.03176242,0.18951,1.05007
118.007,18.1406,0.03381991,0.1909,1.049
121.107,18.4432,0.0338624,0.19291,1.04792
124.207,18.74476,0.03240524,0.19259,1.04683
127.307,19.0465,0.03320426,0.19457,1.04573
130.407,19.34669,0.03414814,0.19359,1.04462
133.507,19.6466,0.03279419,0.19648,1.0435
136.607,19.94635,0.03316,0.1958,1.04236
139.707,20.24561,0.03348,0.19539,1.04122
142.807,20.54419,0.03444599,0.19723,1.04007
145.907,20.84292,0.03318606,0.19876,1.03891
149.007,21.1405,0.03415076,0.19938,1.03773
152.107,21.4387,0.03283254,0.20149,1.03655
155.207,21.73534,0.03348024,0.20019,1.03535
158.307,22.03358,0.03184,0.19985,1.03415
161.407,22.3306,0.03413303,0.20095,1.03293
164.507,22.62722,0.03158783,0.20165,1.0317
167.607,22.92375,0.03220717,0.20018,1.03046
170.707,23.22081,0.03051247,0.20142,1.02921
173.807,23.51647,0.03052,0.20248,1.02795
176.907,23.81426,0.02912013,0.20338,1.02668
180.007,24.10872,0.02920997,0.20477,1.0254
183.107,24.40546,0.02728206,0.20453,1.0241
186.207,24.70015,0.02756009,0.2038,1.0228
189.307,24.9953,0.026577,0.20453,1.02149
192.407,25.2908,0.02426047,0.20408,1.02016
195.507,25.5857,0.02326532,0.20427,1.01882
198.607,25.88278,0.02260974,0.20204,1.01747
201.707,26.1766,0.01966975,0.20306,1.01611
204.807,26.47216,0.01597977,0.20326,1.01474
207.907,26.7687,0.01470273,0.20476,1.01336
211.007,27.0631,0.01109,0.20722,1.01197
214.107,27.3581,0.008171394,0.2064,1.01056
217.207,27.653,0.003205925,0.20771,1.00915
220.307,27.9495,-0.00175071,0.20589,1.00772
223.407,28.2439,-0.007017843,0.20458,1.00628
226.507,28.53922,-0.01503956,0.20707,1.00483
229.607,28.8341,-0.01982872,0.20841,1.00337
232.707,29.12895,-0.03073879,0.2116,1.0019
235.807,29.4235,-0.04006886,0.21753,1.00042
238.907,29.71851,-0.05225941,0.22403,0.99892
242.007,30.0135,-0.06649496,0.2288,0.99742
245.107,30.30847,-0.08233875,0.23041,0.9959
248.207,30.60377,-0.10214,0.23768,0.99437
251.307,30.8996,-0.12497,0.24531,0.99283
254.407,31.1951,-0.15033,0.25511,0.99128
257.507,31.49005,-0.17947,0.26082,0.98971
260.607,31.7852,-0.21509,0.26387,0.98814
263.707,32.08085,-0.25619,0.2664,0.98655
266.807,32.37612,-0.30182,0.28789,0.98495
269.907,32.6716,-0.35405,0.34999,0.98334
273.007,32.96713,-0.41272,0.39983,0.98172
276.107,33.2635,-0.48297,0.46023,0.98009
279.207,33.55965,-0.56585,0.54832,0.97844
282.307,33.85696,-0.66368,0.61856,0.97678
285.407,34.15401,-0.77125,0.6176,0.97512
288.507,34.4507,-0.89886,0.64261,0.97344
291.607,34.74793,-1.02783,0.65279,0.97174
294.707,35.04486,-1.16997,0.70652,0.97004
297.807,35.34219,-1.32531,0.74623,0.96833
300.907,35.63942,-1.46385,0.77299,0.9666
304.007,35.93671,-1.57014,0.68728,0.96486
307.107,36.23191,-1.64704,0.55342,0.96311
310.207,36.5272,-1.70342,0.41928,0.96135
313.307,36.8236,-1.74298,0.31195,0.95958
316.407,37.11984,-1.77359,0.23494,0.95779
319.507,37.4169,-1.79341,0.17973,0.95599
322.607,37.71413,-1.80896,0.1375,0.95419
325.707,38.0117,-1.82144,0.10658,0.95236
328.807,38.30941,-1.83294,0.08440738,0.95053
331.907,38.60794,-1.84037,0.06601347,0.94869
335.007,38.90645,-1.84841,0.05270156,0.94683
338.107,39.20507,-1.85501,0.04521614,0.94497
341.207,39.50428,-1.86035,0.0361941,0.94309
344.307,39.80304,-1.86456,0.02819115,0.9412
347.407,40.10176,-1.86912,0.02449784,0.93929
350.507,40.40198,-1.87313,0.02273968,0.93738
353.607,40.70128,-1.87582,0.01794605,0.93545
356.707,41.0005,-1.87969,0.01635971,0.93351
359.807,41.30076,-1.88166,0.01404032,0.93157
362.907,41.60069,-1.88531,0.01091659,0.9296
366.007,41.90082,-1.88794,0.01066997,0.92763
369.107,42.20139,-1.8895,0.01138154,0.92565
372.207,42.50142,-1.89267,0.01013119,0.92365
375.307,42.80366,-1.89474,0.01087989,0.92164
378.407,43.10436,-1.89576,0.01186604,0.91962
381.507,43.40609,-1.89971,0.01481141,0.91759
384.607,43.70933,-1.90244,0.01639749,0.91555
387.707,44.0109,-1.90507,0.01832209,0.91349
390.807,44.31328,-1.9077,0.01924483,0.91143
393.907,44.6154,-1.91297,0.01951831,0.90935
397.007,44.9165,-1.91561,0.01941967,0.90726
400.107,45.21755,-1.91955,0.01768353,0.90516
403.207,45.5181,-1.92344,0.008154409,0.90305
406.307,45.8215,-1.927,0.00553956,0.90093
409.407,46.12343,-1.93284,0.00337629,0.89879
412.507,46.42573,-1.9364,0.0003660513,0.89664
415.607,46.72801,-1.94067,-0.003812172,0.89449
418.707,47.0306,-1.94801,-0.006223831,0.89232
421.807,47.3337,-1.95405,-0.01252171,0.89014
424.907,47.63686,-1.96161,-0.01608201,0.88794
428.007,47.94038,-1.97007,-0.01697747,0.88574
431.107,48.24405,-1.98088,-0.01835922,0.88353
434.207,48.5477,-1.99057,-0.0160302,0.8813
437.307,48.85092,-2.00223,-0.01395214,0.87907
440.407,49.15498,-2.01657,-0.008589563,0.87682
443.507,49.45909,-2.03342,-0.0004297404,0.87456
446.607,49.76287,-2.04931,0.01243154,0.87229
449.707,50.06705,-2.06738,0.02286224,0.87001
452.807,50.3708,-2.08897,0.03382825,0.86772
455.907,50.67453,-2.10829,0.04431053,0.86541
459.007,50.97899,-2.13,0.0562255,0.8631
462.107,51.28374,-2.15011,0.0696214,0.86077
465.207,51.58886,-2.17291,0.07683137,0.85844
468.307,51.8934,-2.19213,0.08244227,0.85609
471.407,52.19263,-2.20934,0.03071101,0.85374
474.507,52.49865,-2.22646,0.02312054,0.85137
477.607,52.80653,-2.24298,0.02208063,0.84899
480.707,53.1109,-2.25687,0.01919173,0.8466
483.807,53.41418,-2.27028,0.0177536,0.8442
486.907,53.7241,-2.28309,0.01812021,0.84179
490.007,54.0289,-2.29269,0.01789181,0.83937
493.107,54.32903,-2.30049,0.01187368,0.83694
496.207,54.6356,-2.30863,0.00705275,0.8345
499.307,54.94393,-2.31658,0.01164381,0.83205
502.407,55.2513,-2.32049,0.009921836,0.82959
505.507,55.55653,-2.32435,0.0046236,0.82712
508.607,55.8621,-2.32872,0.00576495,0.82464
511.707,56.16647,-2.33399,0.00612219,0.82215
514.807,56.47523,-2.3373,0.004068189,0.81965
517.907,56.78031,-2.33893,0.005596601,0.81714
521.007,57.08359,-2.34157,0.00384327,0.81462
524.107,57.39261,-2.34387,0.01524147,0.81208
527.207,57.70737,-2.34519,0.03551049,0.80955
530.307,58.0102,-2.35046,0.03996036,0.807
533.407,58.3185,-2.35048,0.04451861,0.80444
536.507,58.6278,-2.35112,0.03960496,0.80187
539.607,58.9397,-2.35309,0.03241292,0.79929
542.707,59.24638,-2.35408,0.02629817,0.7967
545.807,59.55379,-2.35473,0.02577733,0.79411
548.907,59.8636,-2.3554,0.01995544,0.7915
552.007,60.1717,-2.3554,0.01400464,0.78889
555.107,60.48115,-2.35672,0.0066922,0.78626
558.207,60.78949,-2.35738,-0.006243076,0.78363
561.307,61.0992,-2.35771,-0.01439533,0.78099
564.407,61.4084,-2.35935,-0.02190463,0.77834
567.507,61.717,-2.36001,-0.02418804,0.77568
570.607,62.02756,-2.36002,-0.03091949,0.77302
573.707,62.3363,-2.35967,-0.03985966,0.77034
576.807,62.64544,-2.36221,-0.04354402,0.76766
579.907,62.95612,-2.36231,-0.04818963,0.76496
583.007,63.26543,-2.36363,-0.05737856,0.76226
586.107,63.57566,-2.36331,-0.06309722,0.75956
589.207,63.8853,-2.36364,-0.06616979,0.75684
592.307,64.19765,-2.36361,-0.05556488,0.75412
595.407,64.508,-2.36359,-0.05647698,0.75138
598.507,64.81496,-2.36462,-0.06829565,0.74864
601.607,65.12557,-2.36495,-0.07018328,0.7459
604.707,65.43627,-2.36627,-0.07086464,0.74314
607.807,65.74705,-2.36726,-0.06898956,0.74038
610.907,66.0572,-2.36726,-0.06777479,0.73761
614.007,66.3675,-2.3666,-0.0672466,0.73483
617.107,66.67727,-2.36724,-0.06524955,0.73205
620.207,66.98736,-2.36791,-0.06833869,0.72926
623.307,67.2975,-2.36923,-0.0656947,0.72646
626.407,67.60879,-2.36858,-0.06169988,0.72365
629.507,67.92,-2.3699,-0.06073859,0.72084
632.607,68.23057,-2.37055,-0.06044847,0.71802
635.707,68.54125,-2.36957,-0.05667189,0.7152
638.807,68.85254,-2.36989,-0.05063239,0.71237
641.907,69.16455,-2.37088,-0.04739079,0.70953
645.007,69.4759,-2.37193,-0.05080225,0.70668
648.107,69.78792,-2.37253,-0.04509662,0.70383
651.207,70.10036,-2.3722,-0.04433699,0.70098
654.307,70.41213,-2.37351,-0.04270434,0.69811
657.407,70.72373,-2.37253,-0.04090324,0.69525
660.507,71.03526,-2.37351,-0.03818847,0.69237
663.607,71.3475,-2.37467,-0.03540682,0.68949
666.707,71.6585,-2.37324,-0.03548417,0.68661
669.807,71.96992,-2.37322,-0.03459254,0.68372
672.907,72.28235,-2.37351,-0.02945957,0.68083
676.007,72.59429,-2.37351,-0.0270345,0.67792
679.107,72.90677,-2.37485,-0.02752933,0.67502
682.207,73.2192,-2.3745,-0.02314806,0.67211
685.307,73.53193,-2.37409,-0.02410778,0.66919
688.407,73.8451,-2.37483,-0.02029157,0.66628
691.507,74.15755,-2.37615,-0.02050504,0.66335
694.607,74.46938,-2.37484,-0.01785786,0.66042
697.707,74.78169,-2.37681,-0.0141031,0.65749
700.807,75.09434,-2.37681,-0.009537164,0.65455
703.907,75.40674,-2.37714,-0.006424,0.65161
707.007,75.71956,-2.37714,-0.004303765,0.64867
710.107,76.03231,-2.38087,0.000165409,0.64572
713.207,76.34489,-2.38825,0.12896,0.64277
716.307,76.65725,-2.38669,0.14049,0.63981
719.407,76.96936,-2.38373,0.14125,0.63685
722.507,77.28134,-2.38179,0.14425,0.63389
725.607,77.59433,-2.38175,0.14217,0.63092
728.707,77.9075,-2.38142,0.14097,0.62796
731.807,78.22058,-2.38042,0.13885,0.62498
734.907,78.5337,-2.38087,0.13502,0.62201
738.007,78.84764,-2.3814,0.13473,0.61903
741.107,79.16149,-2.38043,0.13507,0.61605
744.207,79.47527,-2.38043,0.13506,0.61307
747.307,79.78928,-2.38043,0.1318,0.61009
749.307,79.9915,-2.38053,0.12961,0.60816