File: 01_Data/Window_Screen/STA/N2/10K_min/Window_Screen_STA_N2_10KData_220811_R2.csv
##Temp./Â°C,Time/min,Mass loss(subtr.2)/mg,DSC(subtr.2)/(mW/mg),Sensit./(uV/mW)
49.643,10.00917,-0.00395,0.008512234,1.07019
52.743,11.31105,-0.005172955,0.10878,1.06934
55.843,11.75365,-0.00545072,0.15302,1.06847
58.943,12.13123,-0.003703541,0.1793,1.0676
62.043,12.48425,-0.00426941,0.19366,1.06671
65.143,12.82671,-0.00515877,0.20201,1.06582
68.243,13.16112,-0.006579147,0.20945,1.06491
71.343,13.49204,-0.005269349,0.21177,1.064
74.443,13.81901,-0.00658917,0.21601,1.06307
77.543,14.1397,-0.00526812,0.21758,1.06214
80.643,14.45854,-0.006607723,0.22281,1.06119
83.743,14.7751,-0.005271515,0.22327,1.06024
86.843,15.08862,-0.00659071,0.22736,1.05927
89.943,15.39965,-0.006910085,0.23073,1.0583
93.043,15.70868,-0.007903275,0.23186,1.05731
96.143,16.0171,-0.006766725,0.23142,1.05631
99.243,16.32321,-0.00654619,0.23352,1.05531
102.343,16.62796,-0.00781758,0.23769,1.05429
105.443,16.93246,-0.00592126,0.23998,1.05326
108.543,17.23641,-0.007859537,0.246,1.05223
111.643,17.53939,-0.006571871,0.24915,1.05118
114.743,17.84186,-0.009220021,0.24905,1.05012
117.843,18.14347,-0.007915058,0.25764,1.04905
120.943,18.44479,-0.007906389,0.25841,1.04798
124.043,18.74625,-0.0079,0.25702,1.04689
127.143,19.04707,-0.009209717,0.26133,1.04579
130.243,19.34812,-0.00788355,0.26051,1.04468
133.343,19.64869,-0.009528493,0.25825,1.04356
136.443,19.9488,-0.009220001,0.26287,1.04243
139.543,20.24776,-0.01053952,0.26411,1.04128
142.643,20.54624,-0.01053408,0.26789,1.04013
145.743,20.84378,-0.00919807,0.26644,1.03897
148.843,21.14209,-0.01054,0.26887,1.03779
151.943,21.43981,-0.01186041,0.2691,1.03661
155.043,21.73732,-0.01151995,0.26923,1.03542
158.143,22.0353,-0.01282351,0.26832,1.03421
161.243,22.33217,-0.0118179,0.27088,1.03299
164.343,22.6292,-0.01318,0.27095,1.03177
167.443,22.92622,-0.01318009,0.27125,1.03053
170.543,23.2234,-0.0135,0.27655,1.02928
173.643,23.51993,-0.01482039,0.27414,1.02802
176.743,23.8162,-0.01581,0.27609,1.02675
179.843,24.11192,-0.01646116,0.27776,1.02547
182.943,24.4069,-0.02093305,0.27865,1.02417
186.043,24.70147,-0.01976,0.28007,1.02287
189.143,24.9964,-0.02107896,0.28131,1.02156
192.243,25.29157,-0.02075007,0.28145,1.02023
195.343,25.58646,-0.02303944,0.28085,1.01889
198.443,25.88138,-0.02503,0.28639,1.01754
201.543,26.1768,-0.02636209,0.2787,1.01619
204.643,26.47284,-0.02791904,0.2814,1.01482
207.743,26.7692,-0.03194,0.28166,1.01343
210.843,27.06461,-0.03582326,0.28292,1.01204
213.943,27.36014,-0.03853027,0.28733,1.01064
217.043,27.65503,-0.0425188,0.28683,1.00922
220.143,27.9498,-0.04775996,0.29088,1.0078
223.243,28.24454,-0.05398256,0.29186,1.00636
226.343,28.53942,-0.06038001,0.29123,1.00491
229.443,28.8341,-0.06839786,0.29281,1.00345
232.543,29.12927,-0.07706563,0.29585,1.00198
235.643,29.42407,-0.08798553,0.30949,1.0005
238.743,29.7195,-0.09904068,0.30859,0.999
241.843,30.0147,-0.11472,0.31255,0.9975
244.943,30.30955,-0.1309,0.32245,0.99598
248.043,30.6048,-0.14992,0.34238,0.99445
251.143,30.8998,-0.17232,0.35147,0.99291
254.243,31.19523,-0.19988,0.36245,0.99136
257.343,31.49065,-0.23239,0.37025,0.98979
260.443,31.78642,-0.26813,0.37158,0.98822
263.543,32.08226,-0.30866,0.38288,0.98663
266.643,32.37831,-0.35815,0.42262,0.98504
269.743,32.67311,-0.41169,0.47074,0.98343
272.843,32.96752,-0.471,0.51397,0.98181
275.943,33.26612,-0.53997,0.56384,0.98017
279.043,33.56255,-0.61788,0.62064,0.97853
282.143,33.85872,-0.71314,0.68782,0.97687
285.243,34.15538,-0.82507,0.77837,0.9752
288.343,34.45322,-0.95481,0.80637,0.97353
291.443,34.75016,-1.08768,0.7974,0.97183
294.543,35.0458,-1.22597,0.79009,0.97013
297.643,35.34499,-1.36525,0.85321,0.96842
300.743,35.6422,-1.48234,0.84012,0.96669
303.843,35.93965,-1.57961,0.75294,0.96495
306.943,36.23529,-1.64816,0.63527,0.9632
310.043,36.531,-1.7013,0.50865,0.96144
313.143,36.82689,-1.73684,0.40126,0.95967
316.243,37.12345,-1.76547,0.31634,0.95789
319.343,37.4191,-1.78573,0.25667,0.95609
322.443,37.7164,-1.80129,0.21341,0.95428
325.543,38.01345,-1.8132,0.18024,0.95246
328.643,38.31153,-1.82546,0.15368,0.95063
331.743,38.60933,-1.83371,0.13061,0.94879
334.843,38.9072,-1.84162,0.11433,0.94693
337.943,39.20321,-1.84765,0.10461,0.94506
341.043,39.50221,-1.85191,0.09120221,0.94319
344.143,39.80037,-1.85688,0.08604166,0.9413
347.243,40.09955,-1.86017,0.076547,0.93939
350.343,40.39844,-1.86413,0.06741493,0.93748
353.443,40.7001,-1.86774,0.0613883,0.93555
356.543,40.99885,-1.87038,0.06099004,0.93362
359.643,41.30022,-1.873,0.05879932,0.93167
362.743,41.60025,-1.87532,0.05689344,0.92971
365.843,41.89829,-1.87697,0.05403622,0.92774
368.943,42.20084,-1.87825,0.0536503,0.92575
372.043,42.503,-1.88092,0.05098365,0.92376
375.143,42.8024,-1.8829,0.05149626,0.92175
378.243,43.10366,-1.88461,0.05125162,0.91973
381.343,43.40578,-1.88784,0.05368256,0.9177
384.443,43.70807,-1.88874,0.04643958,0.91566
387.543,44.00887,-1.89113,0.05070788,0.9136
390.643,44.31055,-1.89376,0.04736697,0.91154
393.743,44.6111,-1.89691,0.05003094,0.90946
396.843,44.91381,-1.89917,0.04496357,0.90737
399.943,45.2155,-1.90298,0.04013256,0.90527
403.043,45.5175,-1.90694,0.03745254,0.90316
406.143,45.81969,-1.91092,0.0362106,0.90104
409.243,46.12206,-1.91546,0.03238612,0.8989
412.343,46.42402,-1.92082,0.02866668,0.89676
415.443,46.7269,-1.92537,0.02396453,0.8946
418.543,47.03,-1.9317,0.01903989,0.89243
421.643,47.3307,-1.93625,0.01394602,0.89025
424.743,47.6356,-1.94396,0.006524209,0.88806
427.843,47.9382,-1.95226,0.004334235,0.88586
430.943,48.24058,-1.96312,0.004765437,0.88364
434.043,48.54558,-1.97316,0.00511745,0.88142
437.143,48.84598,-1.98391,0.00893656,0.87918
440.243,49.1504,-1.99901,0.01380646,0.87694
443.343,49.45448,-2.01392,0.017863,0.87468
446.443,49.75786,-2.03048,0.0290352,0.87241
449.543,50.06276,-2.05066,0.039321,0.87013
452.643,50.36808,-2.07081,0.05252515,0.86784
455.743,50.6709,-2.09137,0.06447925,0.86553
458.843,50.9741,-2.11216,0.07354296,0.86322
461.943,51.27792,-2.13329,0.08096537,0.8609
465.043,51.58565,-2.15395,0.0920754,0.85856
468.143,51.89069,-2.17394,0.09569918,0.85622
471.243,52.1952,-2.19129,0.09380458,0.85386
474.343,52.49904,-2.20817,0.09561408,0.85149
477.443,52.80774,-2.22413,0.09093498,0.84912
480.543,53.11325,-2.23776,0.08994898,0.84673
483.643,53.4177,-2.25076,0.08736008,0.84433
486.743,53.7219,-2.26274,0.0897406,0.84192
489.843,54.0292,-2.27274,0.08499367,0.8395
492.943,54.331,-2.28064,0.08307793,0.83707
496.043,54.6424,-2.28866,0.07635209,0.83463
499.143,54.9476,-2.29651,0.07323803,0.83218
502.243,55.25343,-2.29992,0.07455187,0.82972
505.343,55.5591,-2.30578,0.06928912,0.82725
508.443,55.86339,-2.30841,0.07350595,0.82477
511.543,56.17085,-2.31243,0.07174337,0.82228
514.643,56.47744,-2.315,0.06924837,0.81978
517.743,56.7853,-2.31623,0.06963315,0.81727
520.843,57.0919,-2.31886,0.06931432,0.81475
523.943,57.39959,-2.32224,0.08322601,0.81222
527.043,57.70731,-2.32389,0.09570368,0.80968
530.143,58.0143,-2.32516,0.09980911,0.80713
533.243,58.32269,-2.32784,0.09805046,0.80457
536.343,58.6312,-2.3285,0.09566771,0.802
539.443,58.939,-2.32983,0.09068482,0.79943
542.543,59.24631,-2.33118,0.08546212,0.79684
545.643,59.55568,-2.33048,0.0802077,0.79424
548.743,59.86419,-2.33186,0.07153641,0.79164
551.843,60.17292,-2.33509,0.06193023,0.78903
554.943,60.4813,-2.33509,0.05477434,0.7864
558.043,60.78999,-2.33509,0.04661503,0.78377
561.143,61.0988,-2.33641,0.04015751,0.78113
564.243,61.4075,-2.33641,0.03033744,0.77848
567.343,61.7164,-2.33671,0.02178786,0.77582
570.443,62.02616,-2.33739,0.01654579,0.77316
573.543,62.3362,-2.33838,0.005625321,0.77048
576.643,62.64594,-2.33839,-0.001548463,0.7678
579.743,62.9555,-2.33772,-0.008151949,0.76511
582.843,63.2659,-2.33905,-0.01436,0.76241
585.943,63.5756,-2.34036,-0.02319934,0.7597
589.043,63.88579,-2.34003,-0.02801207,0.75698
592.143,64.1952,-2.34135,-0.02933475,0.75426
595.243,64.5048,-2.34265,-0.03323338,0.75153
598.343,64.81395,-2.34269,-0.03734778,0.74879
601.443,65.12415,-2.34234,-0.03841709,0.74604
604.543,65.43465,-2.34232,-0.04020143,0.74329
607.643,65.74445,-2.34473,-0.03761491,0.74052
610.743,66.05465,-2.34331,-0.04011197,0.73776
613.843,66.3654,-2.34464,-0.04204767,0.73498
616.943,66.67563,-2.3454,-0.03978422,0.73219
620.043,66.98688,-2.34497,-0.0414602,0.7294
623.143,67.29834,-2.34431,-0.04347757,0.72661
626.243,67.61013,-2.34392,-0.0451744,0.7238
629.343,67.922,-2.34332,-0.04801315,0.72099
632.443,68.23302,-2.34337,-0.04652311,0.71817
635.543,68.5434,-2.34498,-0.04793462,0.71535
638.643,68.85385,-2.34497,-0.04963349,0.71252
641.743,69.1643,-2.34499,-0.05007485,0.70968
644.843,69.4746,-2.34695,-0.05319379,0.70683
647.943,69.78537,-2.34659,-0.0632568,0.70398
651.043,70.0959,-2.34694,-0.06249486,0.70113
654.143,70.40666,-2.34826,0.03872506,0.69827
657.243,70.71861,-2.34826,0.04009664,0.6954
660.343,71.0304,-2.34925,0.03851944,0.69253
663.443,71.34258,-2.34793,0.03808867,0.68965
666.543,71.6547,-2.34882,0.03595905,0.68676
669.643,71.96685,-2.34893,0.03458153,0.68387
672.743,72.27794,-2.35025,0.03539798,0.68098
675.843,72.59003,-2.35059,0.03580897,0.67808
678.943,72.90186,-2.35084,0.03666818,0.67517
682.043,73.21385,-2.35157,0.03400551,0.67226
685.143,73.5266,-2.35095,0.02980157,0.66935
688.243,73.83938,-2.34959,0.02764744,0.66643
691.343,74.15176,-2.34819,0.0260959,0.66351
694.443,74.46377,-2.3509,0.02807611,0.66058
697.543,74.7753,-2.34959,0.02650854,0.65765
700.643,75.08747,-2.35036,0.02443905,0.65471
703.743,75.3994,-2.35035,0.02476543,0.65177
706.843,75.7119,-2.35199,0.02439922,0.64882
709.943,76.0243,-2.35167,0.02630065,0.64588
713.043,76.3361,-2.35167,0.02404142,0.64292
716.143,76.64823,-2.352,0.02592791,0.63997
719.243,76.96042,-2.352,0.02348607,0.63701
722.343,77.27335,-2.35237,0.02158884,0.63405
725.443,77.58635,-2.35237,0.0175133,0.63108
728.543,77.89936,-2.35232,0.0136214,0.62811
731.643,78.2136,-2.35331,0.0135947,0.62514
734.743,78.52712,-2.35331,0.01215485,0.62217
737.843,78.8412,-2.352,0.0032557,0.61919
740.943,79.15472,-2.35332,-0.00151616,0.61621
744.043,79.46823,-2.35332,-0.005332007,0.61323
747.143,79.78156,-2.35463,-0.007841893,0.61024
749.243,79.9934,-2.35463,-0.01897521,0.60822