File: 01_Data/Cotton_Rug/Cone/Cotton_Rug_Cone_HF75Scalar_220321_R2.csv
LABORATORY,FSRI
TEST IDENT,CottonRug_HF75_2
OPERATOR,Dow
MATERIAL,Cotton Rug
ORIENTATION,Horizontal
HEAT FLUX,75
SURF AREA,0.00884
C FACTOR,0.0392277
SPEC HOLDER DIFF,-566
SPECIMEN MASS,14.11
SCAN TIME,0.25
O2 DELAY TIME,11
CO DELAY TIME,11
CO2 DELAY TIME,8
FLOW FACTOR,1
SCAN COUNT,1001
TIME TO IGN,6.25
END OF TEST SCAN,521
END OF TEST TIME,130.25
TEST STATUS,1
PRE TEST CMT,Dimensions: 100.0 x 100.0 x 5.34 mm; with frame; with calcium silicate substrate