File: 01_Data/Cotton_Rug/Cone/Cotton_Rug_Cone_HF25Scan_220318_R3.csv
Names,Time,Stack TC,Smoke TC,Exh Press,Smoke Comp,Smoke Meas,CO Meter,CO2 Meter,O2 Meter,Sample Mass,Ext Coeff,Start Test,Flame Verif
Chan Gain,,500,500,1,1,1,1,1,1,1,1,1.0,1.0
Offset,,0,0,0.134026,0,0,0,0,0,0,0,0.0,0.0
Gain,,1,1,25.011,13.1637,13.6028,1,1,1,1.00089,1.01066,1.0,1.0
Units,sec,C,C,Pa,%,%,%,%,%,g,/m,,
Baseline,,19.923,20.4391,154.829,98.9815,97.4091,0.000573642,0.0498751,21.014,-833.906,0.142,,
13,3,17.4899,18.3702,153.733,99.2904,97.6282,0.000510211,0.0543917,21.0099,204.952,0.149674,0.0,0.0
26,6.25,17.7755,18.4275,153.598,99.3032,97.6763,0.000350773,0.0532064,21.0099,205.002,0.146451,0.0,0.0
39,9.5,18.4118,18.8585,151.676,99.296,97.9009,0.000378968,0.0527927,21.0117,204.932,0.125445,0.0,0.0
52,12.75,18.4455,18.8193,154.028,99.2936,97.382,0.00037029,0.0518149,21.0121,204.902,0.172344,0.0,0.0
65,16,18.3985,18.985,163.151,99.2683,98.2384,0.000314313,0.0522747,21.0122,204.861,0.0924605,0.0,0.0
78,19.25,18.1166,19.1165,160.375,99.2852,97.4339,7.42412e-05,0.0521051,21.0135,204.811,0.166868,0.0,0.0
91,22.5,18.4822,19.1933,155.839,99.2703,97.7855,-4.84864e-05,0.0505477,21.0143,204.781,0.133606,0.0,0.0
104,25.75,18.7041,18.7375,156.278,99.2611,97.7996,3.0741e-05,0.0503705,21.0145,204.751,0.131501,0.0,0.0
117,29,18.8995,19.6559,153.512,99.2619,97.6082,3.97035e-05,0.0506487,21.0146,204.701,0.148938,0.0,0.0
130,32.25,18.5618,18.77,154.923,99.2667,97.6327,0.000110031,0.0505199,21.0146,204.671,0.147144,0.0,0.0
143,35.5,18.8175,18.895,160.018,99.2462,97.673,0.000232907,0.0509863,21.0141,204.631,0.141658,0.0,0.0
156,38.75,18.6763,19.1488,155.751,99.2333,97.5833,0.000275667,0.0534706,21.0101,204.601,0.148653,0.0,0.0
169,42,18.8912,19.4972,156.127,99.241,97.5078,0.00031834,0.0555151,21.0083,204.561,0.156201,0.0,0.0
182,45.25,18.8959,19.1557,153.951,99.2406,97.262,0.000416532,0.0577756,21.0061,204.511,0.178537,0.0,0.0
195,48.5,18.2033,19.288,155.288,99.2313,97.3455,0.000599769,0.0582272,21.0055,204.491,0.170109,0.0,0.0
208,51.75,18.0043,19.5845,155.596,99.2249,96.7875,0.000816104,0.0571888,21.0068,204.441,0.220493,0.0,0.0
221,55,18.2752,19.3917,156.569,99.2249,96.5787,0.000684065,0.0563045,21.0074,204.391,0.239639,0.0,0.0
234,58.25,18.9332,19.6167,154.004,99.2121,96.1495,0.000432967,0.0558972,21.008,204.361,0.277981,0.0,0.0
247,61.5,19.1024,19.6507,155.031,99.2032,96.4608,0.000489687,0.0551465,21.0095,204.301,0.248531,0.0,0.0
260,64.75,18.9741,19.2931,153.625,99.2221,95.9556,0.000846246,0.0546582,21.0088,204.251,0.296771,0.0,0.0
273,68,19.1903,19.6049,156.312,99.1843,95.0212,0.001093,0.058887,21.0048,204.141,0.380155,0.0,0.0
286,71.25,19.3773,19.8176,143.33,99.1727,95.186,0.00138601,0.145327,20.9151,203.811,0.36375,0.0,1.0
299,74.5,20.862,21.3229,137.321,99.165,94.6629,0.0018959,0.280519,20.744,203.49,0.411919,0.0,1.0
312,77.75,22.8464,22.9402,134.708,99.1526,93.5085,0.00245693,0.366307,20.6516,203.09,0.519589,0.0,0.0
325,81,24.8746,26.2063,131.651,99.1345,93.5794,0.00269259,0.419137,20.5854,202.68,0.511245,0.0,0.0
338,84.25,27.0798,28.371,131.656,99.1305,92.3075,0.00327754,0.458452,20.5383,202.249,0.632213,0.0,0.0
351,87.5,29.3939,30.7544,139.396,99.1285,90.811,0.00416242,0.491347,20.4965,201.749,0.776941,0.0,0.0
364,90.75,31.7834,33,126.796,99.1096,88.4755,0.00493583,0.524466,20.4601,201.258,1.00624,0.0,0.0
377,94,34.3441,35.6056,127.482,99.098,88.1272,0.00565974,0.557954,20.4268,200.738,1.04016,0.0,0.0
390,97.25,36.0719,37.7689,133.375,99.0968,87.8536,0.00620934,0.586794,20.3893,200.217,1.06762,0.0,0.0
403,100.5,38.5152,40.5481,134.056,99.0903,86.7818,0.00661008,0.608795,20.3659,199.717,1.17587,0.0,0.0
416,103.75,40.3999,42.6525,133.107,99.0658,85.2188,0.00710951,0.616058,20.3574,199.176,1.3348,0.0,0.0
429,107,41.8744,43.7739,132.454,99.067,84.7244,0.00763334,0.614639,20.3607,198.696,1.3865,0.0,0.0
442,110.25,43.82,46.5689,131.984,99.0602,84.631,0.00776016,0.604648,20.3723,198.186,1.39566,0.0,0.0
455,113.5,44.5322,47.4019,127.785,99.0441,85.0918,0.00782948,0.588039,20.3941,197.745,1.34609,0.0,0.0
468,116.75,45.7504,49.0702,135.791,99.0317,86.1894,0.00782417,0.564305,20.417,197.305,1.23135,0.0,0.0
481,120,46.6474,50.5378,133.373,99.0269,85.4347,0.00777915,0.538281,20.4469,196.904,1.30889,0.0,0.0
494,123.25,47.2755,50.7001,138.886,99.0265,86.4339,0.00763126,0.510327,20.4829,196.474,1.20577,0.0,0.0
507,126.5,47.6654,51.3168,137.568,99.006,87.9649,0.00751406,0.478916,20.5189,196.124,1.04827,0.0,0.0
520,129.75,47.3781,51.3553,140.107,99.0803,86.7776,0.00716435,0.444712,20.5643,195.813,1.1754,0.0,0.0
533,133,47.5869,50.9889,143.378,99.1775,87.4198,0.00668116,0.407739,20.6064,195.533,1.11873,0.0,0.0
546,136.25,47.1449,51.2645,144.314,99.2442,88.5838,0.00580274,0.368221,20.6575,195.233,1.00742,0.0,0.0
559,139.5,46.6527,50.7307,140.222,99.3069,90.9957,0.00486148,0.327685,20.6971,195.053,0.774862,0.0,0.0
572,142.75,46.1936,50.0691,144.717,99.3639,91.8069,0.0040967,0.291711,20.7343,194.883,0.701276,0.0,0.0
585,146,45.706,49.2441,143.265,99.3832,93.6969,0.00328262,0.259636,20.7775,194.703,0.522332,0.0,0.0
598,149.25,44.1295,48.0195,147.271,99.4181,94.9647,0.00266419,0.231316,20.8105,194.592,0.406297,0.0,0.0
611,152.5,43.1754,46.9898,142.249,99.4483,96.1553,0.00279855,0.205174,20.8375,194.482,0.298528,0.0,0.0
624,155.75,42.1419,45.8407,149.794,99.4607,97.4355,0.00325449,0.181154,20.8658,194.392,0.182379,0.0,0.0
637,159,41.7699,45.1955,154.699,99.4708,96.6294,0.00390554,0.160988,20.8871,194.322,0.256932,0.0,0.0
650,162.25,40.1932,43.9439,150.078,99.4941,96.3031,0.00553746,0.144703,20.9018,194.262,0.288995,0.0,0.0
663,165.5,39.191,43.0356,151.647,99.5362,96.9399,0.00722385,0.132255,20.9143,194.182,0.234323,0.0,0.0
676,168.75,37.8572,41.7002,149.962,99.5636,96.5945,0.00884867,0.121069,20.9262,194.142,0.268398,0.0,0.0
689,172,37.6479,40.6472,150.214,99.5933,96.3637,0.0104063,0.11134,20.9354,194.092,0.292254,0.0,0.0
702,175.25,36.2197,39.6376,153.824,99.6174,97.3114,0.010977,0.105684,20.9404,194.042,0.207635,0.0,0.0
715,178.5,35.2619,38.6655,153.245,99.6371,96.3932,0.0112258,0.103392,20.943,194.002,0.29344,0.0,0.0
728,181.75,34.5415,37.6481,150.485,99.656,97.1059,0.011334,0.102575,20.9442,193.962,0.229806,0.0,0.0
741,185,33.8961,36.6221,152.557,99.6965,97.9901,0.0112699,0.10172,20.9461,193.922,0.153054,0.0,0.0
754,188.25,32.2684,35.7795,154.027,99.7142,97.0092,0.0111794,0.10099,20.9473,193.862,0.243821,0.0,0.0
767,191.5,31.7189,34.7321,148.634,99.7234,97.4584,0.011184,0.100239,20.9484,193.822,0.20369,0.0,0.0
780,194.75,31.1044,33.6042,154.008,99.7496,98.1259,0.0111613,0.09875,20.9493,193.772,0.145495,0.0,0.0
793,198,30.3743,33.0736,147.933,99.7652,97.6717,0.0112344,0.0972409,20.9507,193.762,0.188014,0.0,0.0
806,201.25,29.6439,32.5756,148.638,99.7929,97.438,0.0113577,0.0967753,20.9502,193.722,0.211717,0.0,0.0
819,204.5,29.4709,31.7943,155.699,99.7913,97.5758,0.011415,0.0974251,20.9495,193.682,0.199042,0.0,0.0
832,207.75,29.1339,31.2391,150.161,99.8082,97.2425,0.0114259,0.0973662,20.9497,193.632,0.23088,0.0,0.0
845,211,28.4747,30.6637,156.244,99.817,97.2894,0.011278,0.097022,20.9514,193.592,0.227389,0.0,0.0
858,214.25,27.6651,30.1106,150.328,99.813,97.2309,0.01126,0.0967207,20.9519,193.551,0.232368,0.0,0.0
871,217.5,27.3856,29.5726,149.37,99.8239,97.338,0.0110636,0.0965436,20.952,193.521,0.22357,0.0,0.0
884,220.75,27.3407,29.5577,155.998,99.8255,97.546,0.0108355,0.0960186,20.952,193.471,0.204792,0.0,0.0
897,224,27.2383,29.0104,151.047,99.8331,97.411,0.0107915,0.0956234,20.953,193.441,0.217739,0.0,0.0
910,227.25,26.4671,28.5054,152.268,99.8158,97.164,0.0108755,0.0959152,20.9546,193.411,0.238714,0.0,0.0
923,230.5,26.03,27.9241,153.575,99.8207,97.9519,0.0108192,0.0958055,20.955,193.361,0.167541,0.0,0.0
936,233.75,25.7462,28.0991,157.004,99.8146,97.1512,0.0104887,0.0951965,20.9542,193.311,0.239781,0.0,0.0
949,237,25.5712,27.3506,152.579,99.801,97.9785,0.0102871,0.0945861,20.9533,193.311,0.163389,0.0,0.0
962,240.25,25.7357,27.0206,153.001,99.8042,97.7797,0.0105238,0.0944658,20.953,193.251,0.181685,0.0,0.0
975,243.5,25.1113,27.4326,155.463,99.7917,98.02,0.0104565,0.094023,20.9529,193.231,0.158812,0.0,0.0
988,246.75,24.5159,25.7702,152.384,99.7729,97.7066,0.0102866,0.0940198,20.9539,193.201,0.185527,0.0,0.0
1001,250,24.3628,25.863,149.07,99.7861,97.262,0.0103979,0.0942236,20.9548,193.171,0.227138,0.0,0.0
1014,253.25,24.2655,25.5215,156.982,99.7596,97.6049,0.0105667,0.0941506,20.9537,193.111,0.193583,0.0,0.0
1027,256.5,24.7806,25.9294,149.184,99.7588,97.9138,0.010289,0.0938933,20.9538,193.091,0.165502,0.0,0.0
1040,259.75,24.7162,26.0249,152.058,99.7431,97.3508,0.01012,0.0933163,20.9554,193.041,0.215225,0.0,0.0
1053,263,24.0952,25.6625,153.096,99.7375,97.5962,0.0101717,0.0932712,20.9561,193.011,0.192411,0.0,0.0
1066,266.25,24.0146,25.2623,152.974,99.7359,97.4733,0.010067,0.0931119,20.9565,192.991,0.203437,0.0,0.0
1079,269.5,24.0183,25.6705,154.409,99.7146,97.4322,0.00992092,0.0928263,20.9566,192.961,0.205282,0.0,0.0
1092,272.75,23.8817,25.1658,153.415,99.7319,97.4447,0.00979801,0.0928071,20.9567,192.931,0.205685,0.0,0.0
1105,276,23.3387,25.0554,150.987,99.7291,97.5198,0.00978919,0.0929297,20.9567,192.891,0.198603,0.0,0.0
1118,279.25,23.0138,23.8589,149.629,99.7267,96.8008,0.00971066,0.0936114,20.9567,192.851,0.263993,0.0,0.0
1131,282.5,23.5589,24.0124,151.106,99.7335,97.9283,0.00981314,0.0935639,20.9559,192.801,0.161937,0.0,0.0
1144,285.75,22.8441,23.6544,152.732,99.7419,97.4808,0.00976479,0.0934345,20.9565,192.771,0.203293,0.0,0.0
1157,289,22.8769,24.0907,153.944,99.7484,97.3272,0.0097235,0.0930152,20.9553,192.731,0.217844,0.0,0.0
1170,292.25,23.1134,24.1158,150.765,99.7419,97.7593,0.00965756,0.0930729,20.9563,192.701,0.177996,0.0,0.0
1183,295.5,23.4759,24.2801,152.444,99.7584,97.5015,,0.0930897,,192.651,0.20287,0.0,0.0
1196,298.75,22.7181,24.3527,151.428,99.7721,97.6074,,,,192.611,0.194463,0.0,0.0
1209,302,23.0951,23.9631,156.487,99.7616,97.3803,,,,192.601,0.214184,0.0,0.0
1222,305.25,22.7386,24.337,151.843,99.7889,97.1462,,,,192.551,0.237951,0.0,0.0
1223,305.5,22.6187,23.6125,154.017,99.7733,97.5817,,,,192.561,0.196908,0.0,0.0