File: 01_Data/Cotton_Rug/Cone/Cotton_Rug_Cone_HF25Scan_220318_R2.csv
Names,Time,Stack TC,Smoke TC,Exh Press,Smoke Comp,Smoke Meas,CO Meter,CO2 Meter,O2 Meter,Sample Mass,Ext Coeff,Start Test,Flame Verif
Chan Gain,,500,500,1,1,1,1,1,1,1,1,1.0,1.0
Offset,,0,0,0.134026,0,0,0,0,0,0,0,0.0,0.0
Gain,,1,1,25.011,13.1637,13.6028,1,1,1,1.00089,1.01066,1.0,1.0
Units,sec,C,C,Pa,%,%,%,%,%,g,/m,,
Baseline,,19.3881,19.8282,154.691,99.0961,97.1306,0.000445616,0.0516302,21.0111,-833.818,0.177651,,
13,3,18.518,18.6624,158.661,99.7439,98.018,0.000414163,0.0574755,21.0058,182.011,0.154752,0.0,0.0
26,6.25,17.9767,18.6941,156.178,99.7793,98.6668,0.000520978,0.0563967,21.0057,181.981,0.0994024,0.0,0.0
39,9.5,18.4559,19.0014,157.299,99.8094,98.0997,0.000404175,0.0574586,21.0049,181.931,0.153177,0.0,0.0
52,12.75,18.4526,18.7687,149.843,99.8488,97.6016,0.000326056,0.0595479,21.0023,181.901,0.201807,0.0,0.0
65,16,18.1829,18.7741,152.344,99.8584,97.9432,0.000419342,0.0599557,21.0015,181.871,0.171683,0.0,0.0
78,19.25,18.6966,18.7725,157.143,99.842,97.7141,0.000570552,0.0586582,21.0045,181.831,0.190987,0.0,0.0
91,22.5,18.2038,19.3356,152.788,99.8596,97.4642,0.00064883,0.0565711,21.0069,181.791,0.21526,0.0,0.0
104,25.75,18.4256,19.0789,152.273,99.8616,97.4069,0.000690095,0.0550289,21.0076,181.761,0.220651,0.0,0.0
117,29,18.6297,19.046,152.267,99.8592,97.4243,0.000674495,0.0545053,21.0078,181.731,0.218849,0.0,0.0
130,32.25,18.604,18.8547,150.456,99.856,98.0441,0.000508568,0.0545864,21.0088,181.711,0.162343,0.0,0.0
143,35.5,18.6328,18.97,155.723,99.8681,97.8341,0.000520395,0.0543672,21.0103,181.681,0.182427,0.0,0.0
156,38.75,18.4799,18.8993,156.268,99.8705,97.8843,0.000402422,0.0543128,21.0105,181.641,0.178091,0.0,0.0
169,42,18.396,19.4063,149.965,99.8548,97.5808,0.000219268,0.0538377,21.0106,181.591,0.204227,0.0,0.0
182,45.25,18.7442,19.3943,152.816,99.8777,97.4567,0.000191423,0.0533089,21.0119,181.561,0.217544,0.0,0.0
195,48.5,18.9732,19.0097,147.866,99.8584,97.4488,0.000207409,0.0526224,21.0125,181.521,0.21655,0.0,0.0
208,51.75,18.4387,19.1391,155.191,99.8424,97.5103,0.000391427,0.0519836,21.0134,181.471,0.209535,0.0,0.0
221,55,19.1105,19.5418,154.8,99.8359,97.0204,0.000740296,0.0516371,21.0142,181.421,0.253612,0.0,0.0
234,58.25,18.442,19.2138,150.858,99.799,96.4803,0.00107938,0.0519315,21.0131,181.381,0.299819,0.0,0.0
247,61.5,18.7182,19.5323,156.644,99.7612,95.9527,0.00122978,0.0643882,20.9932,181.261,0.345079,0.0,0.0
260,64.75,19.38,19.7155,142.849,99.7166,96.6381,0.00134833,0.145015,20.8683,180.94,0.278017,0.0,1.0
273,68,20.4567,21.051,141.705,99.6724,95.3022,0.00190916,0.267196,20.7391,180.61,0.397493,0.0,1.0
286,71.25,22.0889,22.8504,138.911,99.6154,93.7347,0.0023431,0.344942,20.6586,180.23,0.539448,0.0,0.0
299,74.5,24.491,25.3128,135.856,99.5447,93.3669,0.00265387,0.396897,20.5992,179.839,0.568008,0.0,0.0
312,77.75,26.6126,27.3905,135.491,99.4712,92.1801,0.00305488,0.429637,20.5726,179.429,0.674874,0.0,0.0
325,81,28.5789,29.9494,132.799,99.3948,91.1921,0.00356988,0.455517,20.5427,179.009,0.763603,0.0,0.0
338,84.25,30.648,32.0878,135.45,99.302,90.8375,0.00407214,0.4793,20.5148,178.558,0.789855,0.0,0.0
351,87.5,32.2227,34.6247,135.038,99.2707,90.1991,0.00449179,0.49833,20.4918,178.098,0.849588,0.0,0.0
364,90.75,34.166,35.9405,137.542,99.3137,88.7831,0.00519195,0.512296,20.4779,177.657,0.993706,0.0,0.0
377,94,36.4736,38.2668,135.778,99.3386,88.5469,0.0058142,0.5225,20.465,177.187,1.01955,0.0,0.0
390,97.25,38.2644,40.2364,132.119,99.3643,87.6469,0.0062001,0.53131,20.4554,176.707,1.11241,0.0,0.0
403,100.5,39.271,41.3927,134.335,99.4017,86.849,0.00664442,0.53514,20.4533,176.236,1.19682,0.0,0.0
416,103.75,41.2398,43.657,135.788,99.4519,87.2824,0.00693858,0.535205,20.453,175.816,1.15716,0.0,0.0
429,107,42.0022,44.3897,135.357,99.4884,85.9806,0.00735284,0.531229,20.4601,175.355,1.29365,0.0,0.0
442,110.25,42.6428,45.6373,135.739,99.5583,85.5381,0.00767475,0.52204,20.4689,174.945,1.34562,0.0,0.0
455,113.5,43.6369,46.8734,134.853,99.6327,86.1807,0.00802938,0.508418,20.486,174.515,1.28588,0.0,0.0
468,116.75,44.3204,47.2724,136,99.6909,84.6783,0.00806334,0.487283,20.5121,174.124,1.44697,0.0,0.0
481,120,45.4072,47.8773,136.542,99.7407,85.5144,0.00809418,0.470127,20.5287,173.744,1.3643,0.0,0.0
494,123.25,45.3962,48.9051,139.593,99.8058,84.7556,0.00801454,0.451473,20.5506,173.394,1.4491,0.0,0.0
507,126.5,45.53,49.1392,143.809,99.8721,84.3081,0.00778099,0.432505,20.5736,173.033,1.50192,0.0,0.0
520,129.75,45.2482,48.8492,143.301,99.9123,85.3023,0.0074552,0.407715,20.6067,172.723,1.40155,0.0,0.0
533,133,45.6514,49.2043,145.718,99.9781,86.1749,0.0069729,0.384813,20.6297,172.433,1.31717,0.0,0.0
546,136.25,44.9042,48.4101,143.563,100.014,87.9831,0.0061906,0.361895,20.6604,172.153,1.13627,0.0,0.0
559,139.5,44.5838,48.1957,141.531,100.034,88.7528,0.00560349,0.34153,20.6837,171.882,1.0608,0.0,0.0
572,142.75,44.3181,47.7101,145.113,100.05,90.439,0.00504353,0.313682,20.7175,171.712,0.8954,0.0,0.0
585,146,43.7879,47.3886,144.088,100.061,93.3764,0.00442411,0.279054,20.7507,171.562,0.612958,0.0,0.0
598,149.25,42.7385,46.7171,148.72,100.011,96.1997,0.00383479,0.240966,20.7967,171.422,0.344501,0.0,0.0
611,152.5,42.0717,45.4118,144.336,99.9621,96.0573,0.0041338,0.20504,20.8374,171.312,0.353251,0.0,0.0
624,155.75,41.2592,44.898,150.295,99.8761,97.0283,0.00517138,0.178351,20.8677,171.252,0.25646,0.0,0.0
637,159,40.0533,43.7195,149.276,99.7905,96.4575,0.00592589,0.154915,20.8934,171.182,0.301168,0.0,0.0
650,162.25,39.0183,42.6596,154.573,99.6688,96.7717,0.00703359,0.136641,20.9115,171.142,0.261512,0.0,0.0
663,165.5,38.0373,41.5059,151.556,99.5447,96.8813,0.00853992,0.121147,20.9294,171.092,0.240428,0.0,0.0
676,168.75,36.9576,40.2509,146.138,99.4205,96.3761,0.00956221,0.110416,20.9385,171.052,0.275718,0.0,0.0
689,172,35.9477,39.1963,152.483,99.3028,96.5164,0.00992745,0.105204,20.9439,171.022,0.252319,0.0,0.0
702,175.25,34.6022,37.5615,153.206,99.1867,97.037,0.00978522,0.102451,20.9455,170.981,0.194259,0.0,0.0
715,178.5,34.0502,37.167,149.931,99.0843,96.1071,0.00969972,0.100326,20.9483,170.931,0.270463,0.0,0.0
728,181.75,32.6526,35.9128,153.037,98.9839,96.2827,0.00997091,0.098447,20.9507,170.901,0.245289,0.0,0.0
741,185,31.9881,34.6294,148.35,98.8943,95.9639,0.0100632,0.0967809,20.9523,170.871,0.266666,0.0,0.0
754,188.25,31.1812,33.9143,152.187,98.8228,95.9623,0.0101192,0.0960107,20.9528,170.841,0.260406,0.0,0.0
767,191.5,30.6651,33.2706,151.748,98.7545,96.3575,0.00997453,0.0958979,20.9529,170.801,0.217843,0.0,0.0
780,194.75,30.1594,32.5877,151.802,98.6782,95.4504,0.00971984,0.0953548,20.9529,170.751,0.294837,0.0,0.0
793,198,29.0154,31.9672,150.149,98.6336,96.0307,0.00980697,0.0947119,20.9541,170.721,0.237091,0.0,0.0
806,201.25,28.9324,31.3967,155.039,98.5942,96.2856,0.00976583,0.094366,20.955,170.671,0.210052,0.0,0.0
819,204.5,28.1979,30.4928,154.615,98.5532,96.1752,0.00968032,0.0942494,20.9552,170.661,0.21654,0.0,0.0
832,207.75,28.0045,30.4169,153.559,98.5026,96.3342,0.00964039,0.0936116,20.9552,170.631,0.197341,0.0,0.0
845,211,27.2949,29.3211,156.079,98.4721,95.966,0.00961163,0.0932262,20.9562,170.601,0.228544,0.0,0.0
858,214.25,26.7193,29.6926,148.842,98.4403,96.2528,0.00961107,0.093215,20.9572,170.561,0.199227,0.0,0.0
871,217.5,26.7678,28.9935,152.361,98.4098,96.1046,0.00940396,0.0928065,20.9575,170.521,0.210137,0.0,0.0
884,220.75,26.3016,28.3357,152.019,98.372,95.5102,0.00950067,0.0924981,20.9575,170.491,0.261742,0.0,0.0
897,224,25.9183,27.6021,153.486,98.3487,95.9523,0.00948077,0.0924666,20.9575,170.461,0.218699,0.0,0.0
910,227.25,25.7003,27.8423,152.453,98.325,95.9934,0.00951881,0.092347,20.9575,170.431,0.212766,0.0,0.0
923,230.5,25.2873,27.3608,153.673,98.2925,95.9191,0.00942461,0.0920779,20.9583,170.391,0.216697,0.0,0.0
936,233.75,25.5401,26.6352,151.333,98.2817,96.0117,0.00943463,0.0913894,20.9595,170.371,0.207167,0.0,0.0
949,237,24.6625,26.6062,150.901,98.2355,95.1142,0.00941364,0.0910444,20.9598,170.331,0.286261,0.0,0.0
962,240.25,24.2227,26.3919,154.454,98.2005,95.8987,0.00921886,0.0907498,20.9598,170.311,0.210276,0.0,0.0
975,243.5,24.4467,26.4753,156.456,98.1752,95.3881,0.00919304,0.0907323,20.9599,170.261,0.25532,0.0,0.0
988,246.75,24.1424,25.7144,153.446,98.1607,95.7505,0.00906495,0.0906799,20.96,170.241,0.220396,0.0,0.0
1001,250,23.9946,25.6,152.932,98.1354,95.8294,0.00902871,0.0898701,20.9605,170.201,0.21081,0.0,0.0
1014,253.25,23.8491,25.7384,152.48,98.1101,95.2366,0.00910768,0.0895933,20.9607,170.171,0.263535,0.0,0.0
1027,256.5,24.2025,25.1843,154.196,98.0973,95.2134,0.00917265,0.0900459,20.9607,170.141,0.264538,0.0,0.0
1040,259.75,23.7909,24.9377,150.086,98.0844,95.4994,0.00904475,0.0892864,20.9609,170.111,0.236784,0.0,0.0
1053,263,23.4162,24.4274,155.113,98.0651,95.6098,0.0088211,0.0885196,20.9623,170.081,0.224796,0.0,0.0
1066,266.25,23.3015,24.772,154.889,98.0358,95.4874,0.00875488,0.0881057,20.9627,170.051,0.233506,0.0,0.0
1079,269.5,23.4861,24.2827,152.992,98.0362,95.5837,0.00888509,0.0882736,20.9628,170.021,0.224606,0.0,0.0
1092,272.75,22.6567,23.6682,157.183,98.0141,95.1353,0.00894481,0.0880427,20.9628,170.001,0.264289,0.0,0.0
1105,276,22.8638,24.5072,151.911,97.9976,95.252,0.00889526,0.0876187,20.9628,169.981,0.251935,0.0,0.0
1118,279.25,22.7424,23.9794,156.727,98.0005,95.4267,0.00891337,0.0875916,20.9633,169.931,0.235939,0.0,0.0
1131,282.5,22.7086,23.9805,153.193,97.9908,95.4147,0.00878057,0.0870997,20.9647,169.901,0.236184,0.0,0.0
1144,285.75,22.5228,23.5137,155.682,97.9711,95.66,0.00874907,0.0869044,20.9655,169.871,0.211637,0.0,0.0
1157,289,22.4423,23.6283,156.898,97.9784,96.2039,0.00884909,0.0867781,20.9657,169.84,0.162035,0.0,0.0
1170,292.25,22.1824,23.5562,151.761,97.9667,95.5525,,,,169.81,0.221207,0.0,0.0
1183,295.5,22.5682,23.633,151.139,97.9731,95.1391,,,,169.78,0.260234,0.0,0.0
1196,298.75,22.2578,23.2927,152.878,97.9623,95.7555,,,,169.76,0.201993,0.0,0.0
1201,300,21.9579,22.2954,155.335,97.9571,95.9701,,,,169.75,0.181672,0.0,0.0