File: 01_Data/Cotton_Rug/Cone/Cotton_Rug_Cone_HF25Scalar_220318_R3.csv
LABORATORY,FSRI
TEST IDENT,CottonRug_HF25_3
OPERATOR,Dow
MATERIAL,Cotton Rug
ORIENTATION,Horizontal
HEAT FLUX,25
SURF AREA,0.00884
C FACTOR,0.0398508
SPEC HOLDER DIFF,-566
SPECIMEN MASS,14.87
SCAN TIME,0.25
O2 DELAY TIME,11
CO DELAY TIME,11
CO2 DELAY TIME,8
FLOW FACTOR,1
SCAN COUNT,1223
TIME TO IGN,69.25
END OF TEST SCAN,743
END OF TEST TIME,185.75
TEST STATUS,1
PRE TEST CMT,Dimensions: 101.5 x 102 x 5.00 mm; with frame; with calcium silicate substrate