File: 01_Data/Cotton_Rug/Cone/Cotton_Rug_Cone_HF50Scan_220321_R3.csv
Names,Time,Stack TC,Smoke TC,Exh Press,Smoke Comp,Smoke Meas,CO Meter,CO2 Meter,O2 Meter,Sample Mass,Ext Coeff,Start Test,Flame Verif
Chan Gain,,500,500,1,1,1,1,1,1,1,1,1.0,1.0
Offset,,0,0,0.134026,0,0,0,0,0,0,0,0.0,0.0
Gain,,1,1,25.011,13.1637,13.6028,1,1,1,1.00089,1.01066,1.0,1.0
Units,sec,C,C,Pa,%,%,%,%,%,g,/m,,
Baseline,,33.7875,34.7397,147.853,99.3417,95.2746,0.000265609,0.0533413,21.0035,-834.895,0.370657,,
15,3.5,31.4012,32.0411,146.81,99.2153,94.5064,0.000331342,0.0614161,20.994,181.891,0.431076,0.0,0.0
30,7.25,31.6023,32.3487,142.108,99.21,94.8605,0.000333392,0.0607411,20.9945,181.811,0.397454,0.0,0.0
45,11,31.2432,32.0694,144.615,99.2036,92.5138,0.000682421,0.0630653,20.9913,181.741,0.618955,0.0,0.0
60,14.75,31.71,32.5133,146.744,99.1964,90.4631,0.00148638,0.0670244,20.991,181.621,0.817037,0.0,0.0
75,18.5,32.02,33.2417,134.341,99.1703,94.2511,0.00184571,0.160676,20.8542,181.181,0.451037,0.0,1.0
90,22.25,33.7685,34.5356,126.669,99.161,92.7301,0.00238713,0.33333,20.6592,180.77,0.594448,0.0,0.0
105,26,37.1256,38.3664,125.364,99.1634,88.3962,0.00411064,0.482393,20.492,180.16,1.019,0.0,0.0
120,29.75,40.7566,42.3995,123.928,99.1735,85.453,0.00616954,0.618245,20.3266,179.379,1.32011,0.0,0.0
135,33.5,45.384,46.8119,124.707,99.1646,84.6074,0.00807855,0.770067,20.1592,178.508,1.40749,0.0,0.0
150,37.25,49.6272,52.1616,109.109,99.1574,82.8468,0.0113153,0.905428,20.0024,177.557,1.59326,0.0,0.0
165,41,54.6816,57.7386,113.448,99.1502,78.7338,0.0139035,1.03541,19.8573,176.586,2.04405,0.0,0.0
180,44.75,59.5724,63.4692,111.015,99.1566,76.9844,0.0152232,1.10771,19.7705,175.596,2.24383,0.0,0.0
195,48.5,63.7939,68.544,109.345,99.1663,77.1521,0.0155046,1.12391,19.7548,174.615,2.2254,0.0,0.0
210,52.25,67.9211,73.1707,114.552,99.1602,77.7881,0.0150274,1.09341,19.8004,173.724,2.15208,0.0,0.0
225,56,70.9867,76.6369,116.26,99.1518,76.4186,0.0146002,1.00576,19.8822,172.923,2.3088,0.0,0.0
240,59.75,72.9821,78.8361,124.675,99.1454,75.314,0.014725,0.892202,20.0158,172.233,2.43731,0.0,0.0
255,63.5,73.4654,79.8681,128.634,99.155,77.6162,0.013507,0.749876,20.1819,171.612,2.17122,0.0,0.0
270,67.25,73.1964,79.4069,137.045,99.1582,84.8037,0.00987927,0.571487,20.4093,171.282,1.38636,0.0,0.0
285,71,71.8464,78.1388,139.656,99.1466,92.3938,0.00608836,0.385174,20.6186,171.092,0.62536,0.0,0.0
300,74.75,69.3126,75.8855,139.445,99.1401,93.9252,0.00444188,0.265892,20.7591,170.971,0.479048,0.0,0.0
315,78.5,67.5007,73.2842,144.481,99.1377,93.6284,0.00453625,0.201939,20.8329,170.851,0.506893,0.0,0.0
330,82.25,64.7278,70.9437,144.684,99.1156,94.7679,0.00535533,0.169075,20.8668,170.801,0.39767,0.0,0.0
345,86,62.4796,68.9568,139.8,99.1136,94.2897,0.00630538,0.154046,20.8837,170.731,0.442341,0.0,0.0
360,89.75,60.2814,66.5336,144.277,99.1108,94.4657,0.00638911,0.150232,20.8883,170.631,0.425555,0.0,0.0
375,93.5,58.3277,65.0201,144.924,99.0947,93.9904,0.00628401,0.148297,20.8907,170.551,0.468838,0.0,0.0
390,97.25,57.3361,63.0526,144.271,99.0807,94.1295,0.0064645,0.144456,20.8935,170.471,0.454473,0.0,0.0
405,101,55.7352,60.875,145.986,99.0714,94.1448,0.00657996,0.141709,20.8987,170.411,0.4522,0.0,0.0
420,104.75,54.5714,59.2816,147.114,99.061,94.4861,0.00657406,0.139915,20.902,170.331,0.41919,0.0,0.0
435,108.5,53.1319,58.1208,142.957,99.0542,93.8003,0.00632918,0.137145,20.9053,170.261,0.483159,0.0,0.0
450,112.25,52.1944,56.545,145.272,99.0313,94.4429,0.00619194,0.136323,20.9076,170.191,0.42058,0.0,0.0
465,116,51.3274,55.7511,148.322,99.0164,93.7887,0.00620189,0.134421,20.9108,170.101,0.480878,0.0,0.0
480,119.75,49.811,54.6265,145.006,99.008,94.0635,0.00602023,0.133288,20.911,170.061,0.454183,0.0,0.0
495,123.5,48.8343,53.5244,145.216,99.0108,94.4728,0.00607567,0.133302,20.9101,169.991,0.415941,0.0,0.0
510,127.25,48.2169,52.435,143.571,98.9883,93.9751,0.00616948,0.133299,20.909,169.911,0.460758,0.0,0.0
525,131,47.4995,51.6544,143.503,98.9734,93.4707,0.00605033,0.132857,20.9081,169.861,0.507138,0.0,0.0
540,134.75,46.9305,50.9703,144.304,98.9513,94.4637,0.00626132,0.131901,20.9091,169.8,0.411473,0.0,0.0
555,138.5,46.3218,50.1253,140.363,98.9566,94.2424,0.00642943,0.131169,20.9101,169.72,0.43273,0.0,0.0
570,142.25,45.4412,49.6319,146.513,98.9425,93.4989,0.00645316,0.130248,20.9111,169.66,0.501689,0.0,0.0
585,146,44.9214,48.9004,146.501,98.9272,94.0099,0.00630434,0.128598,20.9121,169.59,0.451998,0.0,0.0
600,149.75,44.769,48.1594,148.673,98.9011,93.8206,0.00629229,0.127557,20.9136,169.53,0.467527,0.0,0.0
615,153.5,44.4,47.6907,148.606,98.8911,93.8675,0.00629211,0.126117,20.9146,169.46,0.462196,0.0,0.0
630,157.25,44.0073,46.549,143.534,98.8903,93.8381,0.00636345,0.124847,20.9155,169.41,0.464908,0.0,0.0
645,161,43.2134,46.1526,144.155,98.8826,93.9082,0.00661549,0.124616,20.9157,169.34,0.457598,0.0,0.0
660,164.75,42.9127,45.8422,145.434,98.8754,94.1664,0.00647307,0.12382,20.9162,169.3,0.432606,0.0,0.0
675,168.5,42.6629,45.207,147.178,98.865,94.1104,0.00635662,0.121578,20.9194,169.23,0.436948,0.0,0.0
690,172.25,42.2762,44.9428,145.306,98.8549,94.5351,0.0064825,0.120318,20.9202,169.21,0.396132,0.0,0.0
705,176,41.9277,44.5804,147.389,98.8545,93.9821,0.00657194,0.119283,20.9213,169.16,0.448103,0.0,0.0
720,179.75,41.064,44.2294,145.511,98.8766,94.5637,0.00651239,0.119419,20.9228,169.1,0.395391,0.0,0.0
735,183.5,41.4211,44.2399,147.457,98.8646,94.0531,0.00621047,0.117443,20.9246,169.05,0.44231,0.0,0.0
750,187.25,41.2917,43.7915,145.886,98.867,94.0884,0.00606098,0.116125,20.9255,169,0.439201,0.0,0.0
765,191,41.1091,43.3299,148.379,98.8714,94.44,0.00610227,0.114705,20.9273,168.97,0.406529,0.0,0.0
780,194.75,40.3395,43.0047,146.901,98.9011,94.3524,0.00638844,0.113458,20.9281,168.93,0.417419,0.0,0.0
795,198.5,40.928,42.5128,147.926,98.9172,94.2337,0.00656141,0.111898,20.9308,168.86,0.430022,0.0,0.0
810,202.25,39.9277,42.4392,149.032,98.9453,94.3142,0.00644189,0.110404,20.9333,168.82,0.42497,0.0,0.0
825,206,39.9318,41.7619,146.131,98.9477,94.7928,0.00635827,0.109441,20.9343,168.76,0.380307,0.0,0.0
840,209.75,39.6964,41.8885,144.979,98.963,94.9651,0.00642983,0.108232,20.9358,168.76,0.365578,0.0,0.0
855,213.5,39.7422,41.7721,143.604,98.9931,94.1772,0.00663933,0.107078,20.9369,168.699,0.442138,0.0,0.0
870,217.25,39.4053,41.3718,145.883,99.012,94.3893,0.00659174,0.105598,20.9382,168.659,0.423883,0.0,0.0
885,221,39.2312,40.9493,145.79,99.0321,94.2403,0.0060863,0.104111,20.9386,168.609,0.43969,0.0,0.0
900,224.75,38.9389,41.0536,143.351,99.0457,94.5575,0.00599808,0.103157,20.9396,168.579,0.411127,0.0,0.0
915,228.5,38.8782,40.5209,146.07,99.0594,94.6189,0.00598393,0.103019,20.9404,168.539,0.40659,0.0,0.0
930,232.25,38.8043,40.5722,143.722,99.0919,95.017,0.00607178,0.101253,20.9421,168.489,0.37228,0.0,0.0
945,236,38.2759,40.359,145.938,99.1249,95.23,0.00623257,0.099978,20.9423,168.449,0.355379,0.0,0.0
960,239.75,38.3174,39.9743,149.373,99.1622,94.6833,0.00645071,0.0995994,20.9421,168.409,0.409762,0.0,0.0
975,243.5,38.3347,39.7933,147.291,99.1803,95.1063,0.00645123,0.0994095,20.9435,168.389,0.371859,0.0,0.0
990,247.25,38.3807,40.0122,146.895,99.196,94.6542,0.00649912,0.0998285,20.9444,168.329,0.4155,0.0,0.0
1005,251,37.4019,39.2027,143.893,99.2402,94.9149,0.00633486,0.100419,20.9446,168.299,0.395066,0.0,0.0
1020,254.75,37.2333,38.8759,145.548,99.2908,95.2644,0.00610798,0.100937,20.9446,168.239,0.366997,0.0,0.0
1035,258.5,37.1497,38.845,144.828,99.3193,95.1303,0.00611206,0.0985732,20.9466,168.239,0.382031,0.0,0.0
1050,262.25,37.4831,38.8872,143.855,99.3326,94.4471,0.0059745,0.0956167,20.9515,168.169,0.447122,0.0,0.0
1065,266,37.6764,38.7611,142.241,99.3498,95.0328,0.00588003,0.0926925,20.9547,168.129,0.393852,0.0,0.0
1080,269.75,37.1463,38.5996,150.159,99.3723,94.8975,0.0058745,0.0901821,20.9569,168.089,0.408493,0.0,0.0
1095,273.5,37.1725,38.5411,144.392,99.3977,95.2262,0.00585205,0.088264,20.9608,168.059,0.380089,0.0,0.0
1110,277.25,37.0938,38.2446,143.81,99.4302,94.4724,0.0057443,0.086296,20.9619,168.039,0.453454,0.0,0.0
1125,281,37.3434,38.7313,143.095,99.4483,94.5114,0.00544706,0.0846177,20.9634,168.019,0.451404,0.0,0.0
1140,284.75,37.0421,38.3557,147.977,99.4587,95.5534,0.00533433,0.0836052,20.9645,167.969,0.355131,0.0,0.0
1155,288.5,36.2205,38.2918,141.414,99.4832,94.6658,0.00542481,0.0823399,20.967,167.949,0.440046,0.0,0.0
1170,292.25,37.1599,38.4957,145.165,99.5081,95.0336,0.00523839,0.081426,20.9686,167.909,0.407887,0.0,0.0
1185,296,36.339,38.0505,145.31,99.521,95.1602,0.0051565,0.0796784,20.9705,167.889,0.39723,0.0,0.0
1200,299.75,36.5941,37.9948,146.663,99.5262,95.7514,0.0050011,0.078232,20.9726,167.859,0.342792,0.0,0.0
1215,303.5,36.5267,37.5036,148.36,99.5511,95.6115,0.00464873,0.0769523,20.974,167.829,0.357973,0.0,0.0
1230,307.25,36.6732,37.7485,143.313,99.568,95.7061,0.00429157,0.0762339,20.9764,167.819,0.350703,0.0,0.0
1245,311,36.479,38.1366,146.854,99.5736,94.8323,0.00382952,0.0749419,20.9778,167.779,0.432521,0.0,0.0
1260,314.75,36.7661,37.3456,150.283,99.6073,95.2121,0.00379875,0.0737114,20.9788,167.769,0.400087,0.0,0.0
1275,318.5,35.7638,37.7106,147.204,99.6282,95.1328,0.00385905,0.0724345,20.9803,167.739,0.409332,0.0,0.0
1290,322.25,36.7877,37.309,146.06,99.6234,95.7045,0.00361599,0.0717763,20.9809,167.699,0.355792,0.0,0.0
1305,326,36.6189,37.2717,146.486,99.6335,95.5293,0.00354814,0.070905,20.9794,167.669,0.372928,0.0,0.0
1320,329.75,36.0413,37.4502,144.276,99.6692,94.9697,0.00332214,0.0702348,20.9807,167.649,0.428194,0.0,0.0
1335,333.5,36.2122,37.2207,143.114,99.668,95.5791,0.00319346,0.069372,20.9836,167.629,0.37138,0.0,0.0
1350,337.25,36.3556,37.5998,148.134,99.6724,95.4521,0.0031339,0.068451,20.9846,167.588,0.383564,0.0,0.0
1365,341,35.5714,37.066,146.249,99.6592,95.8651,0.00300585,0.0677107,20.9845,167.568,0.344103,0.0,0.0
1380,344.75,35.7798,36.6137,148.402,99.6499,95.3242,0.00292707,0.0670026,20.9846,167.518,0.393446,0.0,0.0
1395,348.5,35.8274,36.485,145.463,99.6688,94.9826,0.00291282,0.0662832,20.986,167.528,0.426957,0.0,0.0
1410,352.25,35.7182,36.6374,146.37,99.6716,94.3607,0.00275682,0.0658354,20.9863,167.478,0.485441,0.0,0.0
1425,356,35.5465,36.6779,143.297,99.658,95.0627,,0.0656052,,167.468,0.418517,0.0,0.0
1440,359.75,35.7915,37.1544,146.949,99.6451,94.677,,,,167.438,0.453412,0.0,0.0
1455,363.5,35.2463,37.3135,143.17,99.6379,94.956,,,,167.428,0.426684,0.0,0.0
1468,366.75,35.7411,36.8965,144.658,99.627,94.8427,,,,167.428,0.436307,0.0,0.0