File: 01_Data/Cotton_Rug/Cone/Cotton_Rug_Cone_HF25Scan_220318_R1.csv
Names,Time,Stack TC,Smoke TC,Exh Press,Smoke Comp,Smoke Meas,CO Meter,CO2 Meter,O2 Meter,Sample Mass,Ext Coeff,Start Test,Flame Verif
Chan Gain,,500,500,1,1,1,1,1,1,1,1,1.0,1.0
Offset,,0,0,0.134026,0,0,0,0,0,0,0,0.0,0.0
Gain,,1,1,25.011,13.1637,13.6028,1,1,1,1.00089,1.01066,1.0,1.0
Units,sec,C,C,Pa,%,%,%,%,%,g,/m,,
Baseline,,20.0366,20.7199,155.568,99.6941,97.9158,0.00060037,0.0521075,21.0078,-833.742,0.1596,,
15,3.5,18.0676,18.7684,155.538,100.002,98.4248,0.000736007,0.0667388,20.9927,184.564,0.140962,0.0,0.0
30,7.25,17.8794,18.8205,151.524,99.9858,98.0445,0.000722976,0.0630987,20.9978,184.554,0.173818,0.0,0.0
45,11,18.0121,18.9881,155.994,99.9749,97.9901,0.000519004,0.0588017,21.0033,184.523,0.177776,0.0,0.0
60,14.75,18.3872,18.7323,152.409,99.9625,97.9739,0.000608736,0.0555015,21.006,184.473,0.178136,0.0,0.0
75,18.5,18.058,18.847,152.51,99.952,98.1562,0.000907036,0.0546908,21.0064,184.423,0.160735,0.0,0.0
90,22.25,18.1198,18.9087,151.071,99.9633,97.7402,0.000602997,0.0543925,21.0065,184.393,0.199381,0.0,0.0
105,26,18.5599,18.9642,156.259,99.9637,98.3297,0.000327973,0.0533626,21.0068,184.353,0.146108,0.0,0.0
120,29.75,18.2462,19.3677,154.749,99.9577,98.1774,0.000110145,0.0528891,21.0063,184.333,0.159322,0.0,0.0
135,33.5,18.5104,19.1593,156.464,99.9589,97.6452,9.23308e-05,0.0523961,21.0076,184.263,0.207615,0.0,0.0
150,37.25,18.3842,18.8843,155.075,99.9605,97.8316,0.000219594,0.0521673,21.0083,184.233,0.190852,0.0,0.0
165,41,18.1728,19.1852,154.676,99.9769,97.5949,0.000197306,0.0521738,21.0122,184.193,0.21378,0.0,0.0
180,44.75,18.8689,19.1637,150.376,99.9741,97.0922,0.000277912,0.0523724,21.0116,184.153,0.259315,0.0,0.0
195,48.5,18.5547,19.1641,153.386,99.9886,96.9959,0.000613526,0.0535957,21.0098,184.103,0.269397,0.0,0.0
210,52.25,18.716,19.0549,159.645,99.9822,96.6219,0.000904797,0.0561406,21.0073,187.136,0.303079,0.0,0.0
225,56,18.9393,19.2204,153.74,99.9838,95.626,0.000967652,0.0608932,21.0013,190.789,0.395073,0.0,0.0
240,59.75,18.5799,19.5038,153.544,99.9946,95.3711,0.00127634,0.0619013,20.9997,191.149,0.419696,0.0,0.0
255,63.5,18.8837,19.572,157.306,100.001,95.2761,0.00121867,0.0615676,20.9983,189.898,0.429107,0.0,0.0
270,67.25,19.0029,19.4997,151.159,100.024,94.3611,0.0013104,0.0596769,20.996,189.478,0.516718,0.0,0.0
285,71,19.7342,19.7964,141.064,100.021,96.5995,0.00155612,0.125799,20.8841,183.453,0.308554,0.0,1.0
300,74.75,20.8654,21.8134,138.64,100.012,94.0996,0.00234992,0.291682,20.6973,183.012,0.54022,0.0,1.0
315,78.5,23.5981,23.8659,133.946,100.026,91.9733,0.00338735,0.420071,20.5595,182.492,0.744052,0.0,1.0
330,82.25,26.8254,27.0668,134.481,100.031,89.6499,0.00478148,0.488349,20.4818,181.931,0.971389,0.0,0.0
345,86,29.2543,30.0683,132.767,100.037,86.4401,0.00611783,0.534372,20.4438,181.311,1.29516,0.0,0.0
360,89.75,31.8913,33.387,133.011,100.029,85.2699,0.0075434,0.571586,20.3982,180.73,1.41529,0.0,0.0
375,93.5,34.3232,36.0608,135.43,100.029,81.3109,0.00946952,0.598589,20.3693,180.1,1.83677,0.0,0.0
390,97.25,36.6615,38.6521,132.93,100.023,80.946,0.0110624,0.608937,20.3591,179.499,1.87611,0.0,0.0
405,101,38.804,41.395,132.642,100.036,79.7504,0.0121923,0.61135,20.3563,178.858,2.00917,0.0,0.0
420,104.75,40.5868,43.1266,132.96,100.026,81.7534,0.0121661,0.611068,20.3587,178.238,1.78836,0.0,0.0
435,108.5,42.3754,45.1326,129.346,100.028,81.0597,0.0117073,0.607402,20.364,177.647,1.86412,0.0,0.0
450,112.25,43.7847,46.6366,131.307,100.024,81.4491,0.01116,0.593734,20.3835,177.107,1.82125,0.0,0.0
465,116,44.537,47.7623,130.693,100.025,82.8128,0.010793,0.573929,20.4091,176.556,1.67411,0.0,0.0
480,119.75,45.2574,48.7695,134.806,100.026,84.5235,0.0103284,0.538309,20.4539,176.066,1.49294,0.0,0.0
495,123.5,46.1696,49.2329,135.807,100.025,84.5808,0.00965445,0.500936,20.4943,175.626,1.48687,0.0,0.0
510,127.25,45.4062,49.0914,140.891,100.017,84.4118,0.00885966,0.463033,20.5371,175.225,1.50385,0.0,0.0
525,131,45.9869,49.5981,141.042,100.005,85.7639,0.00787984,0.425676,20.5872,174.865,1.36194,0.0,0.0
540,134.75,45.9333,49.704,143.574,100.016,86.7224,0.0068623,0.379549,20.6398,174.555,1.2644,0.0,0.0
555,138.5,45.5114,49.4386,143.464,100.028,88.1708,0.00548013,0.341049,20.6914,174.264,1.11863,0.0,0.0
570,142.25,44.5422,47.9126,147.817,100.008,91.7201,0.0042024,0.303281,20.7332,174.064,0.766964,0.0,0.0
585,146,43.5908,47.3399,147.416,99.9978,94.1735,0.00357302,0.269979,20.7726,173.874,0.532015,0.0,0.0
600,149.75,42.8395,46.9507,149.37,99.9822,95.7252,0.00338851,0.237323,20.8083,173.714,0.385735,0.0,0.0
615,153.5,41.9047,45.6394,146.234,99.9982,96.4338,0.00338807,0.210142,20.835,173.594,0.321775,0.0,0.0
630,157.25,40.846,44.67,149.23,99.9898,96.3068,0.00382736,0.187999,20.8548,173.484,0.332713,0.0,0.0
645,161,39.7173,43.0025,146.294,99.993,95.9967,0.00469342,0.170553,20.876,173.394,0.361589,0.0,0.0
660,164.75,38.983,42.5825,153.525,99.9858,97.0308,0.00606242,0.153687,20.8921,173.304,0.265961,0.0,0.0
675,168.5,37.5653,41.1646,154.682,99.9902,96.2566,0.00708326,0.141183,20.9053,173.223,0.337374,0.0,0.0
690,172.25,36.6384,40.3063,159.109,100.003,96.932,0.00804855,0.132014,20.9141,173.153,0.276524,0.0,0.0
705,176,35.6566,38.9444,152.99,100.001,96.712,0.00854627,0.125584,20.9217,173.083,0.296528,0.0,0.0
720,179.75,34.8362,37.8803,152.844,100.004,96.492,0.00869246,0.120733,20.926,173.033,0.316932,0.0,0.0
735,183.5,34.1436,37.2091,154.311,100.001,96.8556,0.00893288,0.116808,20.9306,172.963,0.283299,0.0,0.0
750,187.25,32.8705,36.2415,151.53,99.987,96.6497,0.00912962,0.113724,20.9343,172.923,0.300955,0.0,0.0
765,191,32.1964,35.2375,150.368,100.002,96.7186,0.0090344,0.110942,20.9374,172.853,0.295989,0.0,0.0
780,194.75,31.7545,34.4091,149.248,100.017,96.9191,0.00882993,0.108429,20.941,172.813,0.278947,0.0,0.0
795,198.5,30.9677,33.5883,154.874,99.987,97.5235,0.00917294,0.105818,20.9432,172.763,0.22116,0.0,0.0
810,202.25,30.4504,33.0555,156.323,99.9934,97.0046,0.00916986,0.10437,20.9444,172.703,0.269028,0.0,0.0
825,206,29.4891,32.0384,153.825,99.991,96.9473,0.00911125,0.102451,20.9462,172.663,0.274051,0.0,0.0
840,209.75,28.6799,31.0773,154.75,99.9826,96.6966,0.00922485,0.0999852,20.9476,172.623,0.296261,0.0,0.0
855,213.5,28.1002,30.1563,153.271,99.9777,97.1632,0.00913066,0.0979143,20.9507,172.583,0.253157,0.0,0.0
870,217.25,27.8294,30.4427,156.59,99.9729,97.0071,0.00930591,0.0963452,20.9531,172.543,0.266983,0.0,0.0
885,221,27.9829,30.1225,150.674,99.9577,96.648,0.00939508,0.0954923,20.9537,172.503,0.298507,0.0,0.0
900,224.75,27.2766,29.5184,154.576,99.9432,97.0387,0.00954861,0.0956504,20.9516,172.443,0.261463,0.0,0.0
915,228.5,26.5392,28.4133,153.365,99.94,96.6771,0.00943945,0.0963335,20.949,172.413,0.294274,0.0,0.0
930,232.25,26.1817,27.9782,154.229,99.9327,96.844,0.00929945,0.095355,20.9506,172.393,0.278343,0.0,0.0
945,236,25.4195,27.0023,152.599,99.9307,96.7082,0.00925763,0.0935652,20.9539,172.353,0.2906,0.0,0.0
960,239.75,25.3018,27.0314,152.78,99.8966,97.2147,0.00917528,0.0924375,20.9549,172.333,0.241263,0.0,0.0
975,243.5,24.6184,26.4394,153.063,99.8938,96.9523,0.00903406,0.0918539,20.9551,172.293,0.264971,0.0,0.0
990,247.25,24.5663,26.3939,153.455,99.8665,96.9835,0.00921181,0.0909807,20.9569,172.263,0.2597,0.0,0.0
1005,251,24.2407,25.7022,152.82,99.8383,96.7655,0.0091502,0.0904415,20.9574,172.203,0.277148,0.0,0.0
1020,254.75,23.8825,25.9828,150.05,99.8267,97.037,0.00904177,0.0897653,20.959,172.163,0.251275,0.0,0.0
1035,258.5,23.7562,25.2953,153.738,99.7942,97.3978,0.00927792,0.0902386,20.9586,172.122,0.215489,0.0,0.0
1050,262.25,23.5722,24.9607,151.706,99.7672,97.0623,0.0094109,0.0903673,20.9577,172.102,0.24368,0.0,0.0
1065,266,23.6371,25.2928,154.908,99.7508,96.9361,0.00899425,0.0902561,20.9589,172.062,0.253751,0.0,0.0
1080,269.75,23.3809,24.2349,154.618,99.7251,96.9494,0.00898941,0.0900622,20.9596,172.022,0.250251,0.0,0.0
1095,273.5,23.267,24.5637,152.778,99.6833,97.1889,0.00915661,0.0895962,20.9604,171.972,0.224659,0.0,0.0
1110,277.25,23.2038,24.4809,151.996,99.6411,97.0391,0.00911601,0.0896084,20.9606,171.942,0.234587,0.0,0.0
1125,281,22.6916,23.8032,152.993,99.6194,97.074,0.00902425,0.0896795,20.9606,171.902,0.229471,0.0,0.0
1140,284.75,22.8578,23.7863,152.106,99.5857,97.1906,0.0089668,0.0895667,20.96,171.862,0.215822,0.0,0.0
1155,288.5,22.8974,23.915,153.364,99.5366,97.1188,0.00855895,0.0892672,20.9598,171.842,0.21801,0.0,0.0
1170,292.25,22.5706,23.8092,153.511,99.4917,96.6078,0.00860487,0.0886937,20.9611,171.792,0.260774,0.0,0.0
1185,296,22.6657,23.7697,154.448,99.4382,96.8668,0.00873017,0.087952,20.9628,171.762,0.232272,0.0,0.0
1200,299.75,22.4816,23.368,158.213,99.3993,96.4122,0.00872984,0.0877113,20.9638,171.732,0.270498,0.0,0.0
1215,303.5,22.0945,22.7814,155.511,99.3675,96.9395,0.00863438,0.0877412,20.9642,171.692,0.21932,0.0,0.0
1230,307.25,21.7758,22.6064,155.08,99.3269,96.7099,0.00857981,0.0867418,20.9659,171.652,0.236719,0.0,0.0
1245,311,21.7771,22.6154,151.501,99.2715,96.5443,0.00839986,0.0860092,20.9663,171.612,0.246966,0.0,0.0
1260,314.75,21.4205,22.2786,152.3,99.2036,97.015,0.00837402,0.086108,20.9667,171.582,0.197777,0.0,0.0
1275,318.5,21.6025,22.8361,152.136,99.1422,96.3599,0.00792701,0.0856186,20.967,171.542,0.252348,0.0,0.0
1290,322.25,21.6313,22.6864,157.315,99.1008,97.0789,0.00753307,0.0849812,20.967,171.512,0.182742,0.0,0.0
1305,326,21.7003,22.3861,152.587,99.0184,96.4554,0.00774021,0.0847292,20.9675,171.482,0.232497,0.0,0.0
1320,329.75,21.5624,22.8067,152.651,98.9316,96.0926,0.00761251,0.0842695,20.9689,171.442,0.258134,0.0,0.0
1335,333.5,21.8508,22.3821,155.501,98.8244,96.2794,0.00757945,0.0837068,20.9695,171.412,0.231299,0.0,0.0
1350,337.25,21.8942,22.7024,152.462,98.7432,96.4575,0.00739754,0.0830073,20.9717,171.382,0.207634,0.0,0.0
1365,341,21.8959,22.1306,153.609,98.6617,96.5306,,0.0820895,,171.342,0.193596,0.0,0.0
1380,344.75,21.6027,21.8072,153.454,98.5685,96.3952,,,,171.322,0.197655,0.0,0.0
1395,348.5,21.0677,21.9068,157.141,98.4801,95.6712,,,,171.292,0.256538,0.0,0.0
1407,351.5,21.4025,21.9129,155.053,98.3969,95.8763,,,,171.252,0.230066,0.0,0.0