File: 01_Data/Cotton_Rug/Cone/Cotton_Rug_Cone_HF75Scan_220321_R1.csv
Names,Time,Stack TC,Smoke TC,Exh Press,Smoke Comp,Smoke Meas,CO Meter,CO2 Meter,O2 Meter,Sample Mass,Ext Coeff,Start Test,Flame Verif
Chan Gain,,500,500,1,1,1,1,1,1,1,1,1.0,1.0
Offset,,0,0,0.129198,0,0,0,0,0,0,0,0.0,0.0
Gain,,1,1,25.011,13.1874,13.4895,1,1,1,1.00089,1.01187,1.0,1.0
Units,sec,C,C,Pa,%,%,%,%,%,g,/m,,
Baseline,,40.1427,42.1954,126.491,99.9138,94.3779,0.00105099,0.0697317,20.9922,-835.135,0.505995,,
13,3,39.7356,41.3137,126.916,99.9002,91.2512,0.00127397,0.072922,20.9875,179.29,0.803786,0.0,0.0
26,6.25,39.6639,41.8045,112.951,99.9026,94.7458,0.00228855,0.141189,20.87,178.9,0.470421,0.0,1.0
39,9.5,41.4359,43.2703,111.656,99.9187,91.4965,0.0036945,0.381439,20.5972,178.319,0.781596,0.0,1.0
52,12.75,44.9372,47.1927,104.255,99.9103,83.9062,0.00608337,0.633238,20.2786,177.558,1.54953,0.0,1.0
65,16,49.4873,52.1707,98.0117,99.9059,81.9405,0.00868448,0.859809,20.0123,176.728,1.75955,0.0,0.0
78,19.25,53.9423,57.1709,90.1523,99.9087,80.9196,0.0112114,1.07187,19.779,175.847,1.87109,0.0,0.0
91,22.5,60.2888,64.5974,88.4288,99.9103,78.713,0.0151821,1.33711,19.523,174.756,2.11663,0.0,0.0
104,25.75,66.9826,72.4374,95.6311,99.8998,71.2322,0.0205452,1.5725,19.2287,173.675,3.00209,0.0,0.0
117,29,73.9882,80.7186,83.3492,99.9059,70.8362,0.0241652,1.69702,19.1022,172.484,3.05211,0.0,0.0
130,32.25,80.5946,88.2872,89.6974,99.9179,71.2088,0.0253876,1.69619,19.1054,171.453,3.00662,0.0,0.0
143,35.5,84.8404,93.8398,94.4396,99.9103,70.3056,0.0253016,1.63493,19.1916,170.472,3.11925,0.0,0.0
156,38.75,89.7733,99.0117,89.7394,99.9022,71.7654,0.0241845,1.51138,19.3294,169.561,2.93612,0.0,0.0
169,42,92.0701,101.955,100.969,99.9123,75.5535,0.0213975,1.25204,19.6038,168.921,2.48044,0.0,0.0
182,45.25,92.6728,103.176,112.152,99.9026,79.8941,0.0164236,0.923711,19.9593,168.56,1.98375,0.0,0.0
195,48.5,91.011,101.031,117.6,99.9014,88.6227,0.0105192,0.614993,20.3781,168.35,1.06332,0.0,0.0
208,51.75,88.8849,99.1306,117.719,99.9171,91.3471,0.00654053,0.414967,20.6052,168.2,0.795962,0.0,0.0
221,55,86.6063,95.9863,119.361,99.9087,92.4479,0.00441945,0.304564,20.7379,168.11,0.688888,0.0,0.0
234,58.25,84.3272,93.4129,122.569,99.9079,93.081,0.00349628,0.243925,20.806,168.05,0.628234,0.0,0.0
247,61.5,82.2043,91.0651,122.13,99.8934,93.1444,0.00324033,0.212092,20.8432,167.94,0.620904,0.0,0.0
260,64.75,79.6861,88.4688,123.725,99.9038,93.5927,0.00321094,0.194127,20.8603,167.84,0.579215,0.0,0.0
273,68,77.4012,85.6778,121.576,99.8994,93.5779,0.00335403,0.183982,20.8696,167.76,0.580227,0.0,0.0
286,71.25,75.5986,83.7569,120.978,99.8942,93.2354,0.00362739,0.177695,20.8756,167.72,0.61231,0.0,0.0
299,74.5,73.9197,81.9045,122.037,99.9067,93.689,0.00382871,0.17382,20.8792,167.62,0.570334,0.0,0.0
312,77.75,71.9364,79.7162,122.024,99.899,94.3864,0.00422458,0.171327,20.8834,167.559,0.503832,0.0,0.0
325,81,69.963,78.1782,121.369,99.8894,93.3478,0.00452703,0.168238,20.887,167.479,0.601188,0.0,0.0
338,84.25,68.8743,75.9707,119.26,99.9046,93.8088,0.00474898,0.164896,20.8908,167.409,0.558813,0.0,0.0
351,87.5,67.4085,74.1725,122.264,99.9127,93.6503,0.00482102,0.162953,20.8925,167.349,0.574537,0.0,0.0
364,90.75,66.213,73.5925,122.298,99.8966,94.1517,0.00515228,0.160956,20.8927,167.259,0.525711,0.0,0.0
377,94,65.2269,72.0236,122.121,99.8966,94.3811,0.00539956,0.159493,20.8948,167.199,0.50412,0.0,0.0
390,97.25,63.7597,70.3732,120.319,99.901,93.8344,0.0056926,0.158107,20.8978,167.149,0.556077,0.0,0.0
403,100.5,62.7575,69.3973,122.814,99.899,93.9731,0.00602801,0.156614,20.8998,167.039,0.542785,0.0,0.0
416,103.75,62.1198,68.6372,121.943,99.891,93.8607,0.00640036,0.155405,20.9018,167.019,0.552692,0.0,0.0
429,107,61.1832,67.2958,121.957,99.9038,94.7289,0.00661992,0.154062,20.9019,166.919,0.47211,0.0,0.0
442,110.25,60.2927,66.3613,122.424,99.9143,93.9562,0.00667603,0.152714,20.9037,166.899,0.545739,0.0,0.0
455,113.5,59.3481,65.3918,123.182,99.9034,94.1785,0.00678015,0.151378,20.9067,166.829,0.523796,0.0,0.0
468,116.75,58.9235,64.7449,120.419,99.9022,93.9875,0.00705668,0.150085,20.9077,166.759,0.541711,0.0,0.0
481,120,57.8332,63.6508,122.443,99.9147,93.9295,0.00772466,0.148536,20.9111,166.709,0.548302,0.0,0.0
494,123.25,57.5428,63.0259,120.46,99.8982,94.3045,0.00815872,0.147006,20.9131,166.669,0.511467,0.0,0.0
507,126.5,57.219,62.3246,122.476,99.8998,94.2374,0.00841152,0.145615,20.9145,166.599,0.517928,0.0,0.0
520,129.75,56.0559,61.4265,124.102,99.9071,94.4778,0.0084851,0.144467,20.9149,166.549,0.495957,0.0,0.0
533,133,56.5844,61.1902,123.309,99.9022,93.9455,0.0084994,0.1434,20.9166,166.499,0.545677,0.0,0.0
546,136.25,55.218,60.0707,121.115,99.9055,94.4831,0.00848067,0.14223,20.9171,166.448,0.495311,0.0,0.0
559,139.5,54.8076,59.8724,124.426,99.9038,94.3164,0.00854107,0.140786,20.9185,166.378,0.510845,0.0,0.0
572,142.75,54.3215,58.8523,120.333,99.9143,94.23,0.00869408,0.139253,20.921,166.318,0.519914,0.0,0.0
585,146,53.3119,58.1811,121.804,99.899,94.0464,0.00907836,0.137212,20.923,166.248,0.535866,0.0,0.0
598,149.25,54.1163,57.9725,123.726,99.8966,94.5906,0.00934894,0.135766,20.9236,166.238,0.484435,0.0,0.0
611,152.5,53.1409,57.817,120.802,99.9195,93.7236,0.00952043,0.135264,20.9236,166.168,0.568203,0.0,0.0
624,155.75,53.4553,57.071,121.005,99.9159,94.0748,0.00954132,0.134042,20.9258,166.118,0.534688,0.0,0.0
637,159,52.6673,57.2905,123.258,99.8938,94.1328,0.00981283,0.131502,20.9288,166.088,0.527247,0.0,0.0
650,162.25,52.5844,56.5158,124.197,99.9199,94.2687,0.010141,0.128813,20.9328,166.028,0.51677,0.0,0.0
663,165.5,52.1677,55.8084,123.826,99.9071,94.253,0.010391,0.126072,20.9352,165.978,0.517099,0.0,0.0
676,168.75,51.869,56.101,121.092,99.8974,94.5013,0.0103915,0.124489,20.9369,165.958,0.492895,0.0,0.0
689,172,52.0642,55.5591,121.046,99.903,93.806,0.0105938,0.12293,20.9383,165.918,0.558943,0.0,0.0
702,175.25,51.698,55.0728,119.937,99.9127,94.2818,0.0107877,0.121324,20.9401,165.868,0.514886,0.0,0.0
715,178.5,51.3249,54.4498,122.644,99.9063,94.5774,0.0107426,0.119965,20.9417,165.818,0.48653,0.0,0.0
728,181.75,50.9532,54.1727,125.935,99.895,95.0414,0.010426,0.118979,20.9433,165.758,0.442095,0.0,0.0
741,185,50.0626,53.4025,121.619,99.9195,94.6289,0.0100764,0.117728,20.9456,165.728,0.482882,0.0,0.0
754,188.25,50.3776,53.3668,121.473,99.9095,94.1946,0.00991087,0.116597,20.9462,165.668,0.52282,0.0,0.0
767,191.5,50.7493,53.3504,123.469,99.8934,94.251,0.00972963,0.115707,20.9464,165.618,0.516077,0.0,0.0
780,194.75,49.5436,52.3333,122.816,99.8898,94.2888,0.00974041,0.115015,20.9464,165.608,0.512189,0.0,0.0
793,198,49.1771,52.5707,126.015,99.9059,94.1579,0.00971234,0.113957,20.9475,165.588,0.525951,0.0,0.0
806,201.25,49.2867,52.3658,126.851,99.8938,94.2217,0.00961997,0.113005,20.9496,165.508,0.518865,0.0,0.0
819,204.5,48.7911,51.6896,121.389,99.8934,94.0208,0.0095094,0.111881,20.9504,165.458,0.537775,0.0,0.0
832,207.75,48.7895,51.5582,123.713,99.9163,94.3312,0.00942867,0.110642,20.9511,165.418,0.510559,0.0,0.0
845,211,48.4187,51.8864,123.433,99.899,94.5041,0.00908503,0.109586,20.9524,165.348,0.492767,0.0,0.0
858,214.25,48.7624,51.3306,126.166,99.893,94.4136,0.008978,0.109004,20.9527,165.337,0.500741,0.0,0.0
871,217.5,48.9228,51.2631,121.879,99.8898,94.3658,0.00892381,0.10818,20.9543,165.307,0.504945,0.0,0.0
884,220.75,48.1936,50.7605,123.838,99.9014,93.8241,0.00855813,0.106866,20.9563,165.277,0.557086,0.0,0.0
897,224,47.8226,51.1209,120.829,99.8793,95.1085,0.00836729,0.105525,20.9589,165.217,0.434435,0.0,0.0
910,227.25,48.3465,50.8475,125.874,99.8753,94.388,0.0081517,0.105035,20.9599,165.157,0.501567,0.0,0.0
923,230.5,48.3649,50.9823,122.205,99.891,93.9389,0.00813436,0.104696,20.9603,165.147,0.545298,0.0,0.0
936,233.75,48.0798,50.4748,125.86,99.8741,94.0661,0.0080727,0.104099,20.9618,165.087,0.531784,0.0,0.0
949,237,47.9254,50.4831,120.293,99.8688,94.2905,0.00788826,0.103286,20.9632,165.057,0.510174,0.0,0.0
962,240.25,47.9722,50.5431,120.302,99.8608,94.2526,0.00787147,0.102496,20.9619,164.997,0.513025,0.0,0.0
975,243.5,48.0102,50.3357,120.916,99.868,94.3399,0.00784185,0.101889,20.9609,164.967,0.505454,0.0,0.0
988,246.75,47.5677,50.0785,124.073,99.864,94.006,0.00739585,0.101112,20.9606,164.917,0.536564,0.0,0.0
1001,250,47.7218,50.117,121.382,99.8447,94.9249,0.00686574,0.100208,20.9619,164.887,0.44851,0.0,0.0
1014,253.25,47.3462,49.9403,120.613,99.8568,94.957,0.00650758,0.0991837,20.9635,164.857,0.446582,0.0,0.0
1027,256.5,46.7789,49.3242,121.573,99.829,94.3769,0.00616021,0.0982031,20.9654,164.817,0.498498,0.0,0.0
1040,259.75,47.2172,49.4701,124.393,99.8137,93.8348,0.00591264,0.0976169,20.9663,164.787,0.548275,0.0,0.0
1053,263,47.1259,49.8918,121.591,99.8081,94.3275,0.00598691,0.0968293,20.9657,164.747,0.501285,0.0,0.0
1066,266.25,47.6596,49.937,119.335,99.8036,94.1221,0.00590645,0.0963285,20.9662,164.697,0.520243,0.0,0.0
1079,269.5,47.3773,49.4688,127.287,99.7835,94.2065,0.00560243,0.0960201,20.9654,164.677,0.510497,0.0,0.0
1092,272.75,47.0453,49.6281,126.294,99.7682,94.1448,0.00544432,0.0955644,20.9641,164.627,0.514956,0.0,0.0
1105,276,47.0972,49.3176,123.428,99.7654,94.8989,0.00527038,0.0948952,20.9638,164.587,0.443885,0.0,0.0
1118,279.25,47.1363,49.1854,123.717,99.7485,93.6779,0.00522373,0.0948389,20.9637,164.567,0.557325,0.0,0.0
1131,282.5,47.1074,49.3767,123.932,99.7425,93.645,0.00534257,0.0946886,20.9637,164.517,0.559908,0.0,0.0
1144,285.75,47.1978,49.5882,123.694,99.7461,94.0859,0.00495723,0.0937303,20.9637,164.507,0.518539,0.0,0.0
1157,289,46.6636,49.5618,123.865,99.7203,94.491,0.00448687,0.09313,20.9643,164.457,0.478113,0.0,0.0
1170,292.25,47.0556,49.0354,123.091,99.7046,94.479,0.00439048,0.0923511,20.9654,164.447,0.477837,0.0,0.0
1183,295.5,46.3216,48.9553,124.661,99.7002,93.7125,0.00463678,0.0915974,20.966,164.387,0.549751,0.0,0.0
1196,298.75,47.0295,49.2724,126.354,99.6865,93.7434,0.0047269,0.091283,20.9663,164.387,0.545608,0.0,0.0
1209,302,47.1026,49.2906,124.817,99.6515,94.6585,,0.0909003,,164.327,0.45626,0.0,0.0
1222,305.25,46.979,49.3341,123.879,99.6475,94.1493,,,,164.317,0.503781,0.0,0.0
1235,308.5,47.2154,49.409,122.051,99.6463,94.272,,,,164.257,0.492117,0.0,0.0
1248,311.75,46.544,48.7786,123.435,99.6217,94.309,,,,164.267,0.486442,0.0,0.0