File: 01_Data/Cotton_Rug/Cone/Cotton_Rug_Cone_HF75Scan_220321_R2.csv
Names,Time,Stack TC,Smoke TC,Exh Press,Smoke Comp,Smoke Meas,CO Meter,CO2 Meter,O2 Meter,Sample Mass,Ext Coeff,Start Test,Flame Verif
Chan Gain,,500,500,1,1,1,1,1,1,1,1,1.0,1.0
Offset,,0,0,0.129198,0,0,0,0,0,0,0,0.0,0.0
Gain,,1,1,25.011,13.1874,13.4895,1,1,1,1.00089,1.01187,1.0,1.0
Units,sec,C,C,Pa,%,%,%,%,%,g,/m,,
Baseline,,43.6046,45.3661,125.095,97.9596,92.8384,0.000736154,0.0698688,20.9921,-835.816,0.476673,,
10,2.25,42.5174,44.4696,124.165,99.1823,93.2379,0.000903133,0.0769944,20.9731,175.777,0.548589,0.0,0.0
20,4.75,42.2265,44.4509,127.529,99.1911,88.5992,0.00127798,0.0852279,20.9637,175.627,1.00234,0.0,0.0
30,7.25,42.7033,44.3921,109.446,99.1903,93.9109,0.00201164,0.181398,20.7941,175.306,0.485464,0.0,1.0
40,9.75,44.4289,46.0357,105.922,99.2036,91.5463,0.00329321,0.384727,20.5666,174.826,0.713008,0.0,1.0
50,12.25,46.8908,48.5445,100.906,99.1971,88.5399,0.00504643,0.580465,20.3664,174.275,1.00882,0.0,0.0
60,14.75,49.8983,52.0979,99.8657,99.2088,86.5927,0.00719571,0.747734,20.1732,173.735,1.20725,0.0,0.0
70,17.25,53.9571,56.5433,92.6826,99.1947,81.0962,0.0093535,0.912721,20.0078,173.074,1.78808,0.0,0.0
80,19.75,57.2617,60.1846,91.788,99.1963,80.0892,0.0119878,1.07555,19.79,172.384,1.89912,0.0,0.0
90,22.25,61.5503,65.6096,88.3479,99.1839,75.6659,0.0149574,1.27693,19.552,171.583,2.40229,0.0,0.0
100,24.75,66.7794,71.167,83.1836,99.1971,73.5038,0.0179781,1.47928,19.3306,170.672,2.6608,0.0,0.0
110,27.25,72.3258,77.7472,82.418,99.1879,69.9079,0.0208419,1.66021,19.1227,169.771,3.10518,0.0,0.0
120,29.75,77.8456,84.1223,84.5109,99.1963,69.798,0.023007,1.77577,19.007,168.921,3.11991,0.0,0.0
130,32.25,82.4383,90.2721,91.3255,99.1911,70.3694,0.0243737,1.79546,18.9816,168.02,3.04707,0.0,0.0
140,34.75,87.2301,95.3646,86.842,99.1887,67.1201,0.0249456,1.74633,19.0408,167.189,3.46647,0.0,0.0
150,37.25,90.5275,99.5092,98.9399,99.1963,68.5313,0.024701,1.64911,19.1268,166.438,3.28247,0.0,0.0
160,39.75,93.0772,102.761,92.8986,99.1754,68.2271,0.0232426,1.51563,19.2794,165.848,3.32009,0.0,0.0
170,42.25,95.4688,105.014,102.348,99.1919,74.0011,0.0209687,1.31523,19.5519,165.317,2.60048,0.0,0.0
180,44.75,96.3588,106.294,106.437,99.1839,78.2083,0.0177034,1.07802,19.7901,164.937,2.10895,0.0,0.0
190,47.25,95.5694,105.88,108.588,99.1806,83.0808,0.0138315,0.849699,20.0555,164.707,1.57221,0.0,0.0
200,49.75,94.5493,105.057,113.033,99.1609,84.2594,0.0105096,0.652325,20.3022,164.477,1.44542,0.0,0.0
210,52.25,92.7964,103.385,113.798,99.1758,85.2602,0.00806956,0.527989,20.4478,164.317,1.34195,0.0,0.0
220,54.75,91.4237,100.949,114.863,99.1593,87.9574,0.0065651,0.449418,20.5476,164.156,1.06402,0.0,0.0
230,57.25,89.7873,99.067,113.983,99.1605,88.2884,0.0057575,0.393136,20.6146,163.976,1.03079,0.0,0.0
240,59.75,88.7895,97.8253,118.118,99.1505,89.1875,0.00525085,0.351358,20.6599,163.856,0.939959,0.0,0.0
250,62.25,86.6946,96.2613,120.883,99.142,90.4986,0.00472961,0.318944,20.6949,163.766,0.809664,0.0,0.0
260,64.75,85.4375,94.0882,119.486,99.1392,91.019,0.00436782,0.291325,20.7316,163.666,0.758523,0.0,0.0
270,67.25,83.5027,92.3247,119.535,99.1352,91.6311,0.00430407,0.271082,20.7529,163.616,0.698667,0.0,0.0
280,69.75,82.0465,90.7059,120.278,99.1295,92.2923,0.00450875,0.256414,20.7704,163.526,0.634349,0.0,0.0
290,72.25,80.8825,89.0851,121.613,99.1162,92.8826,0.00454519,0.244249,20.7824,163.426,0.576566,0.0,0.0
300,74.75,79.1484,87.6592,118.791,99.1086,93.4494,0.00468293,0.232733,20.7963,163.336,0.521875,0.0,0.0
310,77.25,78.3137,85.9403,116.318,99.1014,93.2115,0.00508714,0.222066,20.8077,163.286,0.543856,0.0,0.0
320,79.75,76.527,84.4288,119.857,99.1154,93.9439,0.00565559,0.21386,20.8163,163.196,0.475651,0.0,0.0
330,82.25,75.2783,82.664,120.67,99.0941,93.3828,0.00632377,0.206869,20.8247,163.106,0.526914,0.0,0.0
340,84.75,74.0016,81.436,122.229,99.1058,93.7977,0.00689587,0.20004,20.8335,163.075,0.488604,0.0,0.0
350,87.25,72.9489,80.0175,120.256,99.0804,93.5972,0.00750111,0.194273,20.8399,162.955,0.505326,0.0,0.0
360,89.75,71.7761,79.3813,118.528,99.1062,94.0315,0.00823341,0.190182,20.8446,162.955,0.466541,0.0,0.0
370,92.25,70.4736,77.338,118.746,99.0663,93.4017,0.0088785,0.186918,20.8491,162.885,0.522626,0.0,0.0
380,94.75,69.7148,76.7597,118.447,99.0728,94.0089,0.00941414,0.184671,20.8528,162.855,0.465687,0.0,0.0
390,97.25,68.2066,75.9002,120.695,99.0623,93.2074,0.009794,0.181628,20.8551,162.775,0.540751,0.0,0.0
400,99.75,67.4035,74.4201,122.633,99.0651,93.957,0.0100568,0.179959,20.8558,162.745,0.469901,0.0,0.0
410,102.25,66.8927,73.3231,123.062,99.0567,93.3708,0.0103458,0.178208,20.8573,162.685,0.524696,0.0,0.0
420,104.75,65.8667,72.8097,119.707,99.0374,93.7195,0.0105146,0.175006,20.862,162.705,0.489879,0.0,0.0
430,107.25,65.5555,71.795,122.491,99.0406,93.2626,0.0105228,0.171577,20.8657,162.645,0.533551,0.0,0.0
440,109.75,64.6056,70.8636,120.985,99.0341,93.5659,0.0105097,0.168814,20.8694,162.615,0.504146,0.0,0.0
450,112.25,64.0599,70.1617,121.219,99.0386,93.3605,0.01062,0.165578,20.8734,162.485,0.524052,0.0,0.0
460,114.75,63.2371,69.1698,121.247,99.0177,93.7771,0.0108209,0.162508,20.8763,162.485,0.482656,0.0,0.0
470,117.25,62.3175,68.4481,122.03,99.0346,93.0036,0.0112272,0.160854,20.8774,162.435,0.557689,0.0,0.0
480,119.75,61.6855,67.8081,122.006,99.0185,94.2802,0.0118235,0.160328,20.8777,162.375,0.435241,0.0,0.0
490,122.25,61.5915,67.0966,120.617,99.0181,93.7351,0.0122063,0.159186,20.8773,162.365,0.486666,0.0,0.0
500,124.75,60.7934,66.5918,119.226,98.9943,93.5248,0.0123799,0.157262,20.8782,162.335,0.50448,0.0,0.0
510,127.25,60.4111,65.6683,123.483,98.9838,94.139,0.0125971,0.154808,20.8809,162.245,0.445441,0.0,0.0
520,129.75,59.3946,64.7032,118.99,98.9698,92.9933,0.0129599,0.152008,20.883,162.245,0.552861,0.0,0.0
530,132.25,58.5648,64.1992,121.239,98.9838,93.435,0.0132844,0.150027,20.8841,162.195,0.512063,0.0,0.0
540,134.75,58.6962,63.4831,119.507,98.9669,93.3515,0.0135788,0.149204,20.8846,162.185,0.51849,0.0,0.0
550,137.25,57.8328,62.7783,123.545,98.9537,93.1106,0.0138311,0.148491,20.8848,162.125,0.540226,0.0,0.0
560,139.75,57.3137,62.6627,123.344,98.9472,93.2691,0.0138779,0.146948,20.8849,162.105,0.524552,0.0,0.0
570,142.25,56.9928,61.5932,121.835,98.9347,93.3041,0.0138584,0.145795,20.8848,162.055,0.520105,0.0,0.0
580,144.75,56.0717,61.1947,124.366,98.9339,93.4795,0.0140269,0.145391,20.8831,162.025,0.503365,0.0,0.0
590,147.25,56.333,60.8258,122.188,98.9368,93.298,0.0140532,0.145189,20.8822,161.995,0.520872,0.0,0.0
600,149.75,56.0535,60.6792,124.013,98.9259,94.1225,0.0138126,0.144532,20.8819,161.964,0.441796,0.0,0.0
610,152.25,55.7892,59.8347,122.908,98.9174,93.2654,0.0134276,0.143075,20.8832,161.904,0.522234,0.0,0.0
620,154.75,55.1065,59.443,121.664,98.9158,93.7936,0.0130185,0.141019,20.8851,161.864,0.471965,0.0,0.0
630,157.25,54.6357,58.7855,118.374,98.8981,93.1489,0.0126367,0.138556,20.8894,161.864,0.531594,0.0,0.0
640,159.75,54.2454,58.9278,125.567,98.9158,93.6248,0.0122654,0.136513,20.8938,161.804,0.487952,0.0,0.0
650,162.25,54.5782,58.5642,124.422,98.886,93.9542,0.0119763,0.134983,20.8966,161.794,0.454111,0.0,0.0
660,164.75,54.4704,58.2565,125.794,98.8917,93.1584,0.0116642,0.133686,20.8984,161.764,0.530114,0.0,0.0
670,167.25,54.2624,57.9047,121.095,98.8784,92.818,0.0112789,0.13244,20.9012,161.714,0.561419,0.0,0.0
680,169.75,54.0949,57.4167,121.308,98.8696,93.517,0.0109352,0.130736,20.9024,161.714,0.49403,0.0,0.0
690,172.25,53.6634,57.685,119.247,98.8579,93.3922,0.0106324,0.128355,20.9064,161.664,0.504829,0.0,0.0
700,174.75,53.4333,57.0447,119.122,98.8458,94.0793,0.0102882,0.1257,20.9105,161.644,0.438684,0.0,0.0
710,177.25,52.9757,56.7352,120.28,98.8478,93.7829,0.0100312,0.124027,20.9132,161.584,0.466873,0.0,0.0
720,179.75,52.4584,56.5606,121.873,98.8317,93.8895,0.00985225,0.123074,20.9138,161.584,0.455341,0.0,0.0
730,182.25,52.4392,56.0452,121.397,98.8446,93.1535,0.00969981,0.122362,20.914,161.544,0.526357,0.0,0.0
740,184.75,53.0439,55.6502,121.77,98.8261,93.7343,0.00946324,0.121366,20.9151,161.504,0.469521,0.0,0.0
750,187.25,51.6025,54.9334,122.524,98.8293,93.5989,0.00924709,0.120248,20.9169,161.494,0.482644,0.0,0.0
760,189.75,52.0536,55.4968,121.871,98.816,93.4,0.00905167,0.118956,20.9176,161.494,0.500327,0.0,0.0
770,192.25,51.9181,55.4191,125.137,98.8172,92.9517,0.00872961,0.11788,20.9191,161.474,0.543141,0.0,0.0
780,194.75,51.2132,54.7383,123.31,98.7995,93.2062,0.00842397,0.116886,20.9202,161.414,0.517289,0.0,0.0
790,197.25,51.7805,54.8632,120.011,98.8112,94.2242,0.00819086,0.115908,20.9208,161.364,0.421914,0.0,0.0
800,199.75,51.8324,55.0314,120.141,98.7959,93.5301,0.00791436,0.114882,20.9224,161.384,0.486166,0.0,0.0
810,202.25,51.7459,54.6031,123.784,98.7899,93.4634,0.00754097,0.113463,20.9277,161.344,0.491954,0.0,0.0
820,204.75,51.4094,54.6048,121.368,98.777,93.3523,0.00726015,0.111846,20.9316,161.284,0.501359,0.0,0.0
830,207.25,51.1463,54.2479,123.558,98.7875,92.869,0.0071569,0.11088,20.9337,161.254,0.548371,0.0,0.0
840,209.75,50.5136,53.9598,121.914,98.7923,93.6742,0.00713261,0.10968,20.9362,161.244,0.472177,0.0,0.0
850,212.25,51.1083,54.092,122.222,98.7802,93.764,0.00698314,0.108485,20.9384,161.234,0.462592,0.0,0.0
860,214.75,51.2918,53.6102,123.585,98.7746,94.1773,0.00679137,0.107474,20.9399,161.184,0.423046,0.0,0.0
870,217.25,51.332,53.7315,119.306,98.7633,93.2951,0.00674776,0.106771,20.9404,161.184,0.505572,0.0,0.0
880,219.75,49.9359,52.9401,125.789,98.7629,93.2127,0.00679766,0.106398,20.9406,161.154,0.513372,0.0,0.0
890,222.25,50.7146,52.8656,120.757,98.7601,93.7446,0.00667114,0.10616,20.9396,161.124,0.462616,0.0,0.0
900,224.75,50.7036,52.9402,120.831,98.771,93.3367,0.00642732,0.105906,20.9393,161.134,0.502304,0.0,0.0
910,227.25,49.9999,52.3918,124.294,98.7557,93.9702,0.00607758,0.105712,20.9385,161.094,0.440884,0.0,0.0
920,229.75,50.1835,52.9475,123.107,98.7633,93.1728,0.00583047,0.105172,20.938,161.084,0.517211,0.0,0.0
930,232.25,50.2254,52.8256,124.455,98.7492,93.4248,0.00569591,0.104552,20.938,161.054,0.491977,0.0,0.0
940,234.75,49.9548,52.3916,120.125,98.7512,93.6347,0.00566233,0.103884,20.9394,161.024,0.472233,0.0,0.0
950,237.25,50.2259,52.4277,120.569,98.7392,92.8949,0.00567488,0.103157,20.9395,161.024,0.541553,0.0,0.0
960,239.75,49.7574,52.252,122.892,98.7468,92.9213,,0.102234,,161.004,0.539723,0.0,0.0
970,242.25,50.1684,52.4441,119.158,98.7323,94.0632,,,,160.964,0.430001,0.0,0.0
980,244.75,49.3636,52.5733,123.297,98.738,93.927,,,,160.934,0.443377,0.0,0.0
990,247.25,49.621,52.4229,122.95,98.7371,93.2012,,,,160.934,0.512154,0.0,0.0
1000,249.75,49.4533,52.0237,121.778,98.738,93.4075,,,,160.934,0.492606,0.0,0.0
1001,250,49.4443,52.0575,123.161,98.7239,94.2147,,,,160.914,0.414957,0.0,0.0