File: 01_Data/Cotton_Rug/Cone/Cotton_Rug_Cone_HF50Scalar_220321_R3.csv
LABORATORY,FSRI
TEST IDENT,CottonRug_HF50_3
OPERATOR,Dow
MATERIAL,Cotton Rug
ORIENTATION,Horizontal
HEAT FLUX,50
SURF AREA,0.00884
C FACTOR,0.0398508
SPEC HOLDER DIFF,-566
SPECIMEN MASS,14.19
SCAN TIME,0.25
O2 DELAY TIME,11
CO DELAY TIME,11
CO2 DELAY TIME,8
FLOW FACTOR,1
SCAN COUNT,1468
TIME TO IGN,16.75
END OF TEST SCAN,988
END OF TEST TIME,247
TEST STATUS,1
PRE TEST CMT,Dimensions: 102.5 x 102.0 x 5.02 mm; with frame; with calcium silicate substrate