File: 01_Data/Cotton_Rug/Cone/Cotton_Rug_Cone_HF50Scan_220321_R1.csv
Names,Time,Stack TC,Smoke TC,Exh Press,Smoke Comp,Smoke Meas,CO Meter,CO2 Meter,O2 Meter,Sample Mass,Ext Coeff,Start Test,Flame Verif
Chan Gain,,500,500,1,1,1,1,1,1,1,1,1.0,1.0
Offset,,0,0,0.134026,0,0,0,0,0,0,0,0.0,0.0
Gain,,1,1,25.011,13.1637,13.6028,1,1,1,1.00089,1.01066,1.0,1.0
Units,sec,C,C,Pa,%,%,%,%,%,g,/m,,
Baseline,,32.2973,33.2494,148.412,98.1453,94.5162,0.000322624,0.0525501,21.0055,-834.568,0.334087,,
14,3.25,30.9534,31.4268,145.546,98.4785,94.2187,0.000425358,0.0596143,20.9934,183.993,0.392025,0.0,0.0
28,6.75,30.5405,32.1841,150.872,98.493,93.2631,0.000532463,0.0603747,20.9951,183.913,0.483704,0.0,0.0
42,10.25,30.8745,31.3598,146.82,98.5066,89.0276,0.00115719,0.060842,20.994,183.793,0.896984,0.0,0.0
56,13.75,30.405,32.2168,144.806,98.503,87.6141,0.00197097,0.0637897,20.9718,183.603,1.03855,0.0,0.0
70,17.25,31.6572,32.5039,136.91,98.5006,93.5512,0.00250505,0.178344,20.84,183.232,0.457047,0.0,1.0
84,20.75,33.4103,34.447,132.815,98.4881,92.1394,0.0027799,0.322219,20.6667,182.782,0.59074,0.0,0.0
98,24.25,36.2118,37.4982,124.595,98.5026,89.2497,0.00376638,0.439112,20.5442,182.261,0.874535,0.0,0.0
112,27.75,39.0846,40.3109,120.029,98.5042,86.6091,0.00506608,0.532295,20.437,181.621,1.14094,0.0,0.0
126,31.25,42.5999,44.0857,118.151,98.513,86.436,0.0062179,0.632316,20.3242,180.94,1.15947,0.0,0.0
140,34.75,45.5162,48.3714,116.059,98.4946,83.5737,0.00777103,0.72494,20.2046,180.23,1.45635,0.0,0.0
154,38.25,49.9826,52.5103,118.732,98.5219,81.9904,0.00949731,0.821841,20.0959,179.379,1.62838,0.0,0.0
168,41.75,53.3271,56.7734,117.851,98.5106,79.7321,0.0111053,0.911913,19.9926,178.548,1.87497,0.0,0.0
182,45.25,57.4728,61.7295,118.615,98.5195,79.317,0.0125399,0.964235,19.9364,177.687,1.92205,0.0,0.0
196,48.75,60.9562,64.8684,118.629,98.5303,77.0293,0.012899,0.989196,19.9134,176.847,2.18249,0.0,0.0
210,52.25,64.0791,69.3186,116.276,98.5343,77.153,0.012813,0.986408,19.9152,176.056,2.16863,0.0,0.0
224,55.75,66.9644,71.9503,118.413,98.5649,78.4755,0.0126397,0.952906,19.9615,175.305,2.02069,0.0,0.0
238,59.25,68.9641,74.6748,123.859,98.5568,79.498,0.0125638,0.892341,20.0264,174.615,1.9052,0.0,0.0
252,62.75,70.4403,76.3119,126.463,98.595,82.5255,0.0121829,0.818613,20.1194,173.984,1.57728,0.0,0.0
266,66.25,71.7328,78.0736,128.456,98.6151,80.6031,0.0107069,0.70452,20.2546,173.504,1.78805,0.0,0.0
280,69.75,71.4208,77.766,133.418,98.6388,87.1633,0.00837206,0.574745,20.4039,173.123,1.09649,0.0,0.0
294,73.25,70.3164,76.6559,140.012,98.6537,86.825,0.00700143,0.469528,20.5051,172.813,1.13231,0.0,0.0
308,76.75,69.3799,75.7929,139.733,98.6922,88.3862,0.00621155,0.393102,20.6043,172.543,0.977772,0.0,0.0
322,80.25,67.559,74.3938,134.795,98.7147,89.3908,0.005693,0.33247,20.6745,172.343,0.879595,0.0,0.0
336,83.75,66.4527,72.1372,139.297,98.7477,89.0264,0.00532055,0.294298,20.7225,172.173,0.918775,0.0,0.0
350,87.25,64.8942,70.9952,135.714,98.7649,88.6826,0.00516051,0.270142,20.7529,171.992,0.95462,0.0,0.0
364,90.75,63.1477,69.0101,143.311,98.7774,90.564,0.00526829,0.247692,20.7824,171.822,0.76963,0.0,0.0
378,94.25,61.9288,67.341,140.55,98.8284,92.8999,0.00581851,0.221327,20.808,171.732,0.548442,0.0,0.0
392,97.75,60.3812,66.1587,143.556,98.8758,94.2569,0.00676486,0.196679,20.8371,171.622,0.424127,0.0,0.0
406,101.25,58.7479,64.511,143.831,98.9067,93.9024,0.00744216,0.177415,20.8556,171.552,0.460307,0.0,0.0
420,104.75,57.3498,62.8852,141.51,98.9341,93.841,0.00823053,0.167884,20.8673,171.462,0.468559,0.0,0.0
434,108.25,55.9423,61.4501,142.736,98.9863,93.7745,0.00873765,0.159402,20.8774,171.382,0.479513,0.0,0.0
448,111.75,54.5678,59.7202,141.705,99.0156,94.1245,0.00881391,0.153889,20.8839,171.292,0.449117,0.0,0.0
462,115.25,53.3033,58.3411,141.796,99.0586,93.973,0.0090135,0.149401,20.8875,171.232,0.467248,0.0,0.0
476,118.75,52.6009,57.2209,146.778,99.1092,94.3956,0.00927423,0.14569,20.8915,171.152,0.431998,0.0,0.0
490,122.25,51.352,55.819,143.713,99.161,94.0813,0.00966604,0.14326,20.8934,171.102,0.466196,0.0,0.0
504,125.75,50.1828,54.644,144.645,99.1863,93.7513,0.00987422,0.140923,20.8965,171.032,0.499612,0.0,0.0
518,129.25,50.0014,54.0208,143.794,99.2141,94.6783,0.00984121,0.139494,20.8975,170.981,0.414861,0.0,0.0
532,132.75,48.7714,52.7128,146.265,99.2643,94.956,0.00967518,0.137671,20.8989,170.911,0.39338,0.0,0.0
546,136.25,48.1093,52.1646,146.288,99.2639,94.8294,0.00988621,0.136002,20.9002,170.841,0.405173,0.0,0.0
560,139.75,47.2474,50.9312,142.278,99.2996,94.9137,0.00987126,0.134747,20.9037,170.761,0.400491,0.0,0.0
574,143.25,46.7182,50.4507,150.442,99.2908,94.9323,0.00998694,0.132093,20.9058,170.701,0.397957,0.0,0.0
588,146.75,46.0289,49.5562,143.601,99.3221,94.6426,0.0100257,0.129623,20.9088,170.651,0.427855,0.0,0.0
602,150.25,45.2615,49.0184,148.095,99.3145,94.853,0.00998987,0.127234,20.9121,170.611,0.407481,0.0,0.0
616,153.75,44.706,48.1279,146.02,99.3278,94.7953,0.010212,0.12496,20.9153,170.551,0.414059,0.0,0.0
630,157.25,44.163,47.7349,144.689,99.3338,94.4495,0.0100434,0.122233,20.9177,170.481,0.446996,0.0,0.0
644,160.75,43.8507,47.142,141.563,99.3547,95.3167,0.00988901,0.119724,20.9199,170.431,0.367833,0.0,0.0
658,164.25,43.2839,46.3866,144.223,99.3519,94.7679,0.00951837,0.116801,20.9242,170.391,0.418773,0.0,0.0
672,167.75,43.1828,46.258,143.509,99.3506,94.484,0.00944709,0.11487,20.9291,170.321,0.445268,0.0,0.0
686,171.25,42.7393,45.5679,147.067,99.3551,95.4732,0.00925091,0.112921,20.9324,170.281,0.353324,0.0,0.0
700,174.75,42.1535,45.0191,144.821,99.3474,94.8609,0.00898205,0.110308,20.9374,170.231,0.409684,0.0,0.0
714,178.25,42.2029,44.7048,141.709,99.3551,94.7464,0.00898038,0.108622,20.9398,170.191,0.421079,0.0,0.0
728,181.75,41.4483,44.4655,142.921,99.3338,94.814,0.00894008,0.106876,20.9418,170.151,0.41285,0.0,0.0
742,185.25,41.0658,44.0719,145.126,99.3498,94.2553,0.00847623,0.104586,20.943,170.101,0.466685,0.0,0.0
756,188.75,40.7533,43.0694,143.863,99.3213,94.9282,0.00798417,0.103018,20.9446,170.041,0.401071,0.0,0.0
770,192.25,40.6339,42.883,143.977,99.3141,94.6384,0.00758538,0.101073,20.9477,169.991,0.427527,0.0,0.0
784,195.75,40.4775,42.9458,147.649,99.3093,94.9045,0.0073885,0.0992139,20.9495,169.941,0.402204,0.0,0.0
798,199.25,40.2066,42.5031,147.247,99.288,95.0963,0.00733416,0.0977506,20.9517,169.921,0.382407,0.0,0.0
812,202.75,39.3502,41.8031,146.636,99.2884,95.6273,0.00733675,0.0964866,20.954,169.881,0.333082,0.0,0.0
826,206.25,39.4279,41.6634,145.616,99.2643,94.8618,0.00713812,0.0958041,20.9548,169.85,0.402183,0.0,0.0
840,209.75,38.9058,41.2604,146.944,99.2675,94.3246,0.00711539,0.0940633,20.955,169.8,0.452814,0.0,0.0
854,213.25,38.8558,40.9576,145.087,99.2398,94.9855,0.00713979,0.0925807,20.9549,169.76,0.38844,0.0,0.0
868,216.75,38.3594,40.7077,147.577,99.2362,94.9149,0.00692435,0.0928279,20.9543,169.75,0.394706,0.0,0.0
882,220.25,38.3632,39.8597,148.892,99.2024,95.6268,0.00674175,0.0922417,20.9551,169.69,0.325441,0.0,0.0
896,223.75,37.8541,40.1006,147.224,99.2028,94.4678,0.00667785,0.0907001,20.9568,169.63,0.433586,0.0,0.0
910,227.25,37.9804,39.5132,146.506,99.1783,95.3832,0.00676711,0.0890721,20.9595,169.61,0.345907,0.0,0.0
924,230.75,38.1139,39.4454,143.944,99.1807,94.6243,0.00651707,0.0883634,20.9604,169.58,0.416936,0.0,0.0
938,234.25,37.2827,39.1533,146.151,99.1634,95.3308,0.00618052,0.087417,20.9629,169.54,0.349441,0.0,0.0
952,237.75,37.6067,39.0267,144.166,99.1273,95.3827,0.00596011,0.087001,20.9653,169.5,0.341383,0.0,0.0
966,241.25,37.544,39.0969,145.35,99.1233,95.5592,0.00589453,0.0862821,20.9659,169.47,0.324641,0.0,0.0
980,244.75,37.419,38.5172,144.924,99.0935,95.1121,0.00574337,0.0855514,20.9677,169.43,0.363558,0.0,0.0
994,248.25,36.6817,38.2685,146.603,99.0767,95.6617,0.00570309,0.0852103,20.9682,169.39,0.310964,0.0,0.0
1008,251.75,36.7558,38.7079,144.389,99.0453,95.0502,0.00584914,0.0849799,20.9683,169.36,0.365011,0.0,0.0
1022,255.25,36.8564,38.1968,147.608,99.0381,94.9307,0.00576598,0.0846481,20.9683,169.31,0.375522,0.0,0.0
1036,258.75,36.4896,37.6708,149.302,99.0048,94.0481,0.00555814,0.0839786,20.968,169.28,0.455344,0.0,0.0
1050,262.25,36.7981,37.9402,145.277,98.9971,94.8987,0.00567838,0.0839187,20.9678,169.24,0.374839,0.0,0.0
1064,265.75,36.5048,38.1053,146.953,98.9823,94.303,0.00572223,0.0836465,20.9677,169.2,0.429334,0.0,0.0
1078,269.25,36.4491,38.1555,144.252,98.9686,94.7048,0.00560916,0.0830795,20.9694,169.19,0.390414,0.0,0.0
1092,272.75,36.8791,37.6749,149.704,98.9638,95.374,0.00544979,0.0826723,20.9699,169.14,0.327559,0.0,0.0
1106,276.25,36.1679,37.2748,143.489,98.9393,94.6845,0.00537462,0.0821486,20.97,169.09,0.38969,0.0,0.0
1120,279.75,36.5086,37.4644,141.056,98.9405,94.6716,0.00514444,0.081753,20.97,169.03,0.391003,0.0,0.0
1134,283.25,36.3368,37.7645,141.736,98.9204,94.3013,0.00474177,0.0817233,20.9719,169.01,0.423947,0.0,0.0
1148,286.75,36.1538,37.8458,144.155,98.9276,94.7405,0.00450674,0.0810443,20.9722,168.98,0.383401,0.0,0.0
1162,290.25,35.7483,37.2468,147.45,98.9047,94.3786,0.00453272,0.0806931,20.9723,168.94,0.415287,0.0,0.0
1176,293.75,36.5088,37.2839,146.663,98.9252,94.2221,0.00478561,0.0803175,20.9726,168.9,0.431836,0.0,0.0
1190,297.25,35.6571,37.0408,144.031,98.9015,94.7397,0.0046533,0.0794558,20.9742,168.88,0.381138,0.0,0.0
1204,300.75,36.1368,37.5959,146.854,98.9031,94.2025,0.00413451,0.0787545,20.9761,168.85,0.431693,0.0,0.0
1218,304.25,35.6923,37.0371,150.057,98.9031,95.6318,0.00405573,0.078364,20.9768,168.82,0.298192,0.0,0.0
1232,307.75,36.0456,36.833,143.614,98.8855,95.1046,0.00415519,0.0775861,20.9769,168.78,0.345618,0.0,0.0
1246,311.25,35.2521,37.3069,146.74,98.8818,94.8672,0.00441287,0.0766667,20.978,168.75,0.367456,0.0,0.0
1260,314.75,35.4904,37.2238,148.617,98.9268,94.67,0.004249,0.0754502,20.9793,168.709,0.389936,0.0,0.0
1274,318.25,36.0171,36.7434,148.197,99.006,95.0938,,0.0745818,,168.689,0.357422,0.0,0.0
1288,321.75,35.4412,37.0671,143.098,99.0847,95.3504,,,,168.649,0.340584,0.0,0.0
1302,325.25,35.4566,36.2893,148.476,99.1807,95.2902,,,,168.629,0.354769,0.0,0.0
1311,327.5,35.4974,36.3659,147.761,99.2333,95.061,,,,168.599,0.380817,0.0,0.0