File: 01_Data/Cotton_Rug/Cone/Cotton_Rug_Cone_HF75Scalar_220321_R1.csv
LABORATORY,FSRI
TEST IDENT,CottonRug_HF75_1
OPERATOR,Dow
MATERIAL,Cotton Rug
ORIENTATION,Horizontal
HEAT FLUX,75
SURF AREA,0.01
C FACTOR,0.0392277
SPEC HOLDER DIFF,-566
SPECIMEN MASS,14.25
SCAN TIME,0.25
O2 DELAY TIME,11
CO DELAY TIME,11
CO2 DELAY TIME,8
FLOW FACTOR,1
SCAN COUNT,1248
TIME TO IGN,6.5
END OF TEST SCAN,768
END OF TEST TIME,192
TEST STATUS,1
PRE TEST CMT,Dimensions: 101.0 x 103.0 x 5.31 mm; with frame; with calcium silicate substrate