File: 01_Data/Cotton_Rug/Cone/Cotton_Rug_Cone_HF50Scalar_220321_R1.csv
LABORATORY,FSRI
TEST IDENT,CottonRug_HF50_1
OPERATOR,Dow
MATERIAL,Cotton Rug
ORIENTATION,Horizontal
HEAT FLUX,50
SURF AREA,0.00884
C FACTOR,0.0398508
SPEC HOLDER DIFF,-566
SPECIMEN MASS,14.73
SCAN TIME,0.25
O2 DELAY TIME,11
CO DELAY TIME,11
CO2 DELAY TIME,8
FLOW FACTOR,1
SCAN COUNT,1311
TIME TO IGN,15
END OF TEST SCAN,831
END OF TEST TIME,207.75
TEST STATUS,1
PRE TEST CMT,Dimensions: 102.5 x 103.0 x 4.99 mm; with frame; with calcium silicate substrate