File: 01_Data/Cotton_Rug/Cone/Cotton_Rug_Cone_HF25Scalar_220318_R2.csv
LABORATORY,FSRI
TEST IDENT,CottonRug_HF25_2
OPERATOR,Dow
MATERIAL,Cotton Rug
ORIENTATION,Horizontal
HEAT FLUX,25
SURF AREA,0.00884
C FACTOR,0.0398508
SPEC HOLDER DIFF,-566
SPECIMEN MASS,14.88
SCAN TIME,0.25
O2 DELAY TIME,11
CO DELAY TIME,11
CO2 DELAY TIME,8
FLOW FACTOR,1
SCAN COUNT,1201
TIME TO IGN,62.25
END OF TEST SCAN,721
END OF TEST TIME,180.25
TEST STATUS,1
PRE TEST CMT,Dimensions: 100.5 x 104 x 5.32 mm; with frame; with calcium silicate substrate