File: 01_Data/Cotton_Rug/Cone/Cotton_Rug_Cone_HF75Scalar_220321_R3.csv
LABORATORY,FSRI
TEST IDENT,CottonRug_HF75_3
OPERATOR,Dow
MATERIAL,Cotton Rug
ORIENTATION,Horizontal
HEAT FLUX,75
SURF AREA,0.00884
C FACTOR,0.0392277
SPEC HOLDER DIFF,-566
SPECIMEN MASS,38.05
SCAN TIME,0.25
O2 DELAY TIME,11
CO DELAY TIME,11
CO2 DELAY TIME,8
FLOW FACTOR,1
SCAN COUNT,1083
TIME TO IGN,6
END OF TEST SCAN,603
END OF TEST TIME,150.75
TEST STATUS,1
PRE TEST CMT,Dimensions: 99.65 x 101.60 x 16.50 mm; with frame; with calcium silicate substrate