File: 01_Data/Cotton_Rug/Cone/Cotton_Rug_Cone_HF50Scan_220321_R2.csv
Names,Time,Stack TC,Smoke TC,Exh Press,Smoke Comp,Smoke Meas,CO Meter,CO2 Meter,O2 Meter,Sample Mass,Ext Coeff,Start Test,Flame Verif
Chan Gain,,500,500,1,1,1,1,1,1,1,1,1.0,1.0
Offset,,0,0,0.134026,0,0,0,0,0,0,0,0.0,0.0
Gain,,1,1,25.011,13.1637,13.6028,1,1,1,1.00089,1.01066,1.0,1.0
Units,sec,C,C,Pa,%,%,%,%,%,g,/m,,
Baseline,,33.2106,34.4508,147.776,98.6103,94.5673,0.000511667,0.0530962,21.003,-834.873,0.371217,,
13,3,31.1006,32.1596,146.734,98.7525,94.7302,0.00089989,0.063739,20.9896,203.19,0.368662,0.0,0.0
26,6.25,31.0611,32.3288,143.474,98.7469,94.5371,0.000923563,0.0623501,20.991,203.09,0.38624,0.0,0.0
39,9.5,30.6473,32.3869,148.442,98.7376,91.8538,0.00111508,0.0617453,20.9921,203.02,0.640691,0.0,0.0
52,12.75,30.8167,32.7886,150.507,98.7416,89.8147,0.00155416,0.0700289,20.9807,202.81,0.840076,0.0,0.0
65,16,31.9206,33.1273,133.188,98.7529,93.6027,0.00178992,0.184729,20.8486,202.479,0.474848,0.0,1.0
78,19.25,33.3897,34.8487,127.734,98.7392,92.7259,0.00250465,0.32818,20.678,202.049,0.557052,0.0,1.0
91,22.5,36.0274,38.025,123.756,98.7424,89.0301,0.00356072,0.442209,20.5346,201.539,0.917934,0.0,0.0
104,25.75,38.9815,40.5895,124.164,98.724,86.6203,0.00490381,0.544142,20.4098,200.968,1.15954,0.0,0.0
117,29,42.0316,44.3025,123.515,98.7091,86.14,0.00656891,0.654631,20.2837,200.317,1.20751,0.0,0.0
130,32.25,45.938,48.2997,119.958,98.6974,84.7319,0.00813837,0.756642,20.1715,199.607,1.35258,0.0,0.0
143,35.5,49.9457,52.3615,122.197,98.6838,80.1693,0.0100509,0.862988,20.0471,198.806,1.84207,0.0,0.0
156,38.75,53.8734,56.8272,114.182,98.6633,79.9106,0.0119392,0.964118,19.9328,197.965,1.86888,0.0,0.0
169,42,57.4349,61.5568,112.158,98.6408,76.3235,0.0134069,1.04573,19.8373,197.135,2.27402,0.0,0.0
182,45.25,61.8399,65.9699,120.834,98.6259,77.8815,0.0143998,1.08607,19.7984,196.284,2.09354,0.0,0.0
195,48.5,65.1257,69.8611,123.937,98.5962,77.845,0.0150151,1.08724,19.8033,195.493,2.09503,0.0,0.0
208,51.75,66.9824,74.4321,119.203,98.5826,77.0272,0.0151286,1.05056,19.8483,194.773,2.18743,0.0,0.0
221,55,70.4087,75.9665,122.326,98.5922,78.9874,0.0147597,0.963304,19.9589,194.082,1.96551,0.0,0.0
234,58.25,71.7991,77.87,119.45,98.6287,78.434,0.0135916,0.838245,20.0878,193.541,2.03112,0.0,0.0
247,61.5,72.2405,78.3775,126.564,98.6006,80.1917,0.0114128,0.687493,20.2782,193.201,1.83212,0.0,0.0
260,64.75,71.4029,78.0077,135.108,98.5974,84.4492,0.00867868,0.527843,20.4623,192.841,1.37322,0.0,0.0
273,68,70.081,76.8356,138.712,98.6131,91.3614,0.00616535,0.392719,20.6272,192.681,0.677149,0.0,0.0
286,71.25,68.1897,74.7413,145.75,98.6155,93.3378,0.00463404,0.287705,20.7414,192.551,0.487624,0.0,0.0
299,74.5,66.262,72.9205,141.375,98.6159,93.6571,0.00393068,0.22496,20.8104,192.481,0.457391,0.0,0.0
312,77.75,64.5214,70.5659,140.879,98.6062,93.9825,0.00419774,0.186474,20.8535,192.38,0.425771,0.0,0.0
325,81,62.6679,69.0112,141.866,98.6042,93.7907,0.00537895,0.167195,20.872,192.36,0.4437,0.0,0.0
338,84.25,61.0894,67.1006,142.575,98.5978,93.8891,0.00642608,0.154446,20.8866,192.28,0.433828,0.0,0.0
351,87.5,59.4773,65.3302,144.984,98.5769,93.9846,0.00689564,0.144604,20.8959,192.21,0.422938,0.0,0.0
364,90.75,58.1137,63.4128,145.036,98.5657,94.3292,0.00738372,0.140583,20.8991,192.17,0.389484,0.0,0.0
377,94,56.1154,61.908,144.866,98.5641,93.9319,0.00785073,0.13937,20.8999,192.08,0.426757,0.0,0.0
390,97.25,54.818,60.5379,146.288,98.5207,93.6309,0.00806637,0.139637,20.9001,192.05,0.451305,0.0,0.0
403,100.5,53.9496,59.2658,146.58,98.5199,93.9941,0.0083862,0.137337,20.903,192,0.416906,0.0,0.0
416,103.75,52.5308,58.5824,146.091,98.5118,93.3897,0.00861868,0.134226,20.9042,191.94,0.473375,0.0,0.0
429,107,51.759,56.9222,145.171,98.4833,93.2926,0.00847164,0.132742,20.9067,191.86,0.480034,0.0,0.0
442,110.25,51.113,55.5693,143.128,98.4705,93.5516,0.00866282,0.131236,20.9082,191.82,0.454294,0.0,0.0
455,113.5,49.7605,54.5536,144.049,98.4797,93.1776,0.00876717,0.131188,20.9086,191.76,0.490643,0.0,0.0
468,116.75,49.206,53.8725,146.434,98.4552,93.5209,0.00865818,0.131375,20.9087,191.7,0.455833,0.0,0.0
481,120,48.353,52.4463,145.603,98.4319,93.6114,0.00852061,0.130636,20.9118,191.65,0.445159,0.0,0.0
494,123.25,47.6112,51.4904,146.085,98.4391,93.3349,0.00854663,0.129497,20.913,191.62,0.472032,0.0,0.0
507,126.5,47.0368,51.2358,143.321,98.4271,93.1822,0.00860037,0.129818,20.9132,191.56,0.48547,0.0,0.0
520,129.75,46.5726,50.5128,144.706,98.407,93.1556,0.00872213,0.130701,20.9131,191.47,0.486189,0.0,0.0
533,133,45.9308,49.5457,141.307,98.4078,93.2756,0.00857713,0.13011,20.9137,191.44,0.474851,0.0,0.0
546,136.25,45.2203,49.0327,143.914,98.3982,93.0526,0.00849032,0.129141,20.9149,191.36,0.495195,0.0,0.0
559,139.5,44.6045,48.7383,144.412,98.3937,92.9646,0.00853625,0.12902,20.9152,191.289,0.503186,0.0,0.0
572,142.75,44.3374,47.7895,143.324,98.3917,92.9945,0.00860737,0.127791,20.9158,191.229,0.500155,0.0,0.0
585,146,44.0263,47.1399,143.608,98.3853,92.8106,0.00892828,0.126382,20.9181,191.189,0.517125,0.0,0.0
598,149.25,43.7043,46.8794,145.424,98.3793,93.7625,0.00904054,0.124572,20.9186,191.119,0.426119,0.0,0.0
611,152.5,43.5396,45.5882,145.494,98.3676,93.5516,0.00902087,0.123494,20.919,191.069,0.445031,0.0,0.0
624,155.75,42.8545,45.8269,144.342,98.3745,93.1568,0.00871331,0.122234,20.9199,190.999,0.483137,0.0,0.0
637,159,42.2789,45.8864,147.674,98.3789,93.1481,0.00824334,0.121618,20.9218,190.949,0.484366,0.0,0.0
650,162.25,42.2266,44.4628,144.877,98.3704,93.0805,0.00818342,0.120564,20.9223,190.899,0.490048,0.0,0.0
663,165.5,41.4569,44.7366,148.905,98.3604,93.129,0.00815801,0.119158,20.9241,190.839,0.484518,0.0,0.0
676,168.75,41.6348,44.3787,143.945,98.3604,93.3403,0.00790697,0.118471,20.9246,190.789,0.464427,0.0,0.0
689,172,41.5705,44.181,142.201,98.358,93.4441,0.00779974,0.117871,20.9253,190.749,0.454358,0.0,0.0
702,175.25,41.1725,43.4346,147.115,98.3315,93.4246,0.00778943,0.116548,20.9286,190.669,0.453818,0.0,0.0
715,178.5,40.5673,43.3285,143.592,98.3331,93.5064,0.00796151,0.114924,20.9321,190.619,0.446206,0.0,0.0
728,181.75,41.0877,42.5517,146.602,98.3283,93.5848,0.00811874,0.113507,20.9339,190.609,0.438336,0.0,0.0
741,185,40.4326,43.0738,142.765,98.2953,93.2058,0.00811164,0.112217,20.9344,190.549,0.471342,0.0,0.0
754,188.25,39.9497,42.4921,142.515,98.2989,93.3117,0.00828598,0.111406,20.9357,190.499,0.461605,0.0,0.0
767,191.5,40.0604,42.1221,148.659,98.307,93.1162,0.00848382,0.109779,20.9371,190.449,0.480926,0.0,0.0
780,194.75,38.6191,41.6035,145.44,98.276,93.396,0.00848124,0.107545,20.9405,190.399,0.451538,0.0,0.0
793,198,38.7905,40.8534,151.561,98.2656,93.5026,0.00855339,0.10596,20.943,190.339,0.440474,0.0,0.0
806,201.25,38.8995,41.5581,142.489,98.2668,93.4142,0.00871504,0.105299,20.9437,190.299,0.448969,0.0,0.0
819,204.5,38.6698,40.513,141.462,98.2519,93.618,0.00853959,0.104429,20.9441,190.249,0.428307,0.0,0.0
832,207.75,38.1478,40.6711,145.035,98.2391,93.4794,0.00832232,0.103107,20.9458,190.199,0.440286,0.0,0.0
845,211,38.3795,40.1653,144.642,98.2443,93.5421,0.00816817,0.102055,20.9476,190.158,0.434813,0.0,0.0
858,214.25,38.1168,40.1919,148.009,98.2443,93.4213,0.00802457,0.100408,20.9483,190.108,0.446269,0.0,0.0
871,217.5,38.0957,40.0367,148.409,98.233,93.577,0.00798806,0.0994881,20.9503,190.058,0.430495,0.0,0.0
884,220.75,37.8998,39.7726,144.31,98.2182,92.9758,0.00773532,0.098317,20.951,190.038,0.486285,0.0,0.0
897,224,37.7751,39.3844,144.474,98.2451,93.4819,0.00760983,0.0965597,20.9527,189.998,0.440594,0.0,0.0
910,227.25,37.7655,39.2854,143.703,98.2467,93.068,0.00771799,0.0954322,20.9548,189.928,0.480075,0.0,0.0
923,230.5,37.7139,39.3113,142.359,98.2515,93.4209,0.00752754,0.0943715,20.9557,189.908,0.446963,0.0,0.0
936,233.75,37.1723,39.0206,142.293,98.2576,93.6417,0.00718588,0.0937288,20.9571,189.858,0.426572,0.0,0.0
949,237,37.5403,39.0632,142.996,98.2656,93.76,0.00695429,0.0927214,20.9593,189.808,0.416103,0.0,0.0
962,240.25,37.6691,39.0773,142.173,98.2523,92.9256,0.0068109,0.0908906,20.9603,189.778,0.494157,0.0,0.0
975,243.5,37.2808,38.9997,146.58,98.2632,93.5176,0.00662499,0.0898482,20.9615,189.738,0.43884,0.0,0.0
988,246.75,37.4129,38.8274,142.792,98.2941,93.4757,0.00635717,0.0888434,20.9634,189.678,0.445606,0.0,0.0
1001,250,36.9114,38.5518,146.257,98.2849,93.5105,0.00623441,0.0879717,20.9643,189.638,0.441465,0.0,0.0
1014,253.25,37.135,38.4708,148.828,98.2849,93.0776,0.00606788,0.08659,20.965,189.628,0.48261,0.0,0.0
1027,256.5,36.9265,38.4073,147.299,98.3042,94.0672,0.00609727,0.0854154,20.9664,189.598,0.390584,0.0,0.0
1040,259.75,37.0582,38.6432,148.654,98.2957,93.6504,0.00598085,0.0840536,20.9693,189.558,0.42919,0.0,0.0
1053,263,36.7424,38.2861,148.202,98.2969,93.7085,0.00566649,0.082716,20.971,189.488,0.423799,0.0,0.0
1066,266.25,36.9404,38.63,146.06,98.3198,92.9547,0.00552784,0.0820477,20.9718,189.468,0.497473,0.0,0.0
1079,269.5,36.8641,38.0271,146.251,98.3287,93.5819,0.0051348,0.0812342,20.9721,189.438,0.438648,0.0,0.0
1092,272.75,36.4566,37.9362,144.721,98.3383,93.4815,0.004945,0.0804549,20.9733,189.428,0.44904,0.0,0.0
1105,276,36.5994,38.0792,146.621,98.358,93.364,0.00480956,0.0792127,20.9742,189.368,0.461962,0.0,0.0
1118,279.25,36.6344,37.6858,147.488,98.368,94.3213,0.00461387,0.0773511,20.977,189.318,0.372431,0.0,0.0
1131,282.5,36.7677,38.3173,144.042,98.3849,93.4051,0.00436775,0.0763848,20.979,189.308,0.460485,0.0,0.0
1144,285.75,36.2317,38.2028,148.673,98.3961,93.87,0.00410524,0.075443,20.9798,189.288,0.41748,0.0,0.0
1157,289,35.975,37.7929,146.768,98.415,93.8019,0.00384992,0.0747345,20.9805,189.248,0.425612,0.0,0.0
1170,292.25,36.0416,37.5952,144.776,98.4211,94.7675,0.00379066,0.0737674,20.9825,189.218,0.335362,0.0,0.0
1183,295.5,36.2516,37.1374,149.208,98.4215,94.1137,0.00392033,0.0728666,20.9826,189.188,0.396776,0.0,0.0
1196,298.75,36.0763,37.4597,142.846,98.4235,93.9348,0.00389246,0.0720187,20.9832,189.148,0.413826,0.0,0.0
1209,302,36.0263,37.6664,144.775,98.4456,93.863,,0.0710162,,189.138,0.422597,0.0,0.0
1222,305.25,36.2726,37.2959,142.23,98.4648,94.5708,,,,189.098,0.357733,0.0,0.0
1235,308.5,36.1601,37.7077,144.12,98.4484,93.7837,,,,189.068,0.430342,0.0,0.0
1248,311.75,36.1293,37.3096,146.315,98.4524,94.4753,,,,189.088,0.365566,0.0,0.0
1251,312.5,36.038,37.5036,144.947,98.458,94.6691,,,,189.068,0.3479,0.0,0.0