File: 02_Data/Overstuffed_Chair/Cone/Overstuffed_Chair_Cone_HF25Scan_210325_R2.csv
Names,Time,Stack TC,Smoke TC,Exh Press,Smoke Comp,Smoke Meas,CO Meter,CO2 Meter,O2 Meter,Sample Mass,Ext Coeff,Start Test,Flame Verif
Chan Gain,,500,500,1,1,1,1,1,1,1,1,1.0,1.0
Offset,,0,0,0.138348,0,0,0,0,0,0,0,0.0,0.0
Gain,,1,1,25.011,13.5067,16.616,1,1,1,1.00091,1.04608,1.0,1.0
Units,sec,C,C,Pa,%,%,%,%,%,g,/m,,
Baseline,,19.3942,20.4808,169.476,100.746,99.8962,-0.000253511,0.0823985,20.8404,-0.259445,0.0777407,,
15,3.5,17.0608,17.7882,166.775,101.061,100.238,-0.000448848,0.0899287,20.8329,498.884,0.074966,0.0,0.0
30,7.25,17.9204,18.3858,171.244,101.041,100.284,-0.000354764,0.0909068,20.8344,500.786,0.0690303,0.0,0.0
45,11,17.6444,18.797,169.119,101.021,100.092,-0.000299463,0.0903624,20.8352,500.035,0.0847516,0.0,0.0
60,14.75,17.9856,19.1213,164.151,100.996,100.23,-0.000108306,0.0903017,20.8312,499.915,0.0697935,0.0,0.0
75,18.5,18.3043,20.105,168.013,100.958,100.122,-2.35221e-05,0.091812,20.8272,498.063,0.0762418,0.0,0.0
90,22.25,17.0643,19.4745,168.8,100.917,100.079,-0.000267647,0.0930717,20.8269,498.724,0.0765293,0.0,0.0
105,26,17.777,19.999,172.011,100.876,99.9103,-0.000164887,0.0937734,20.8267,498.714,0.0883037,0.0,0.0
120,29.75,18.149,20.1352,170.799,100.817,99.8312,-5.46831e-05,0.0959582,20.824,498.734,0.0901713,0.0,0.0
135,33.5,18.1289,19.9679,169.818,100.761,99.4757,5.08271e-05,0.0973001,20.8234,498.694,0.117798,0.0,0.0
150,37.25,18.114,19.8878,165.676,100.682,98.1426,7.13609e-05,0.0965192,20.8286,498.624,0.234393,0.0,0.0
165,41,18.2882,20.0298,165.067,100.625,97.0245,4.66802e-05,0.0946603,20.8299,498.544,0.334349,0.0,0.0
180,44.75,18.9372,21.0346,163.813,100.567,96.6417,0.000230349,0.0962392,20.8243,498.474,0.365326,0.0,0.0
195,48.5,18.9325,20.9023,169.814,100.501,96.5418,0.000168921,0.0975487,20.8199,498.374,0.368834,0.0,0.0
210,52.25,19.2213,20.8462,172.516,100.465,95.5961,0.00017888,0.0964723,20.8234,498.294,0.455814,0.0,0.0
225,56,19.5197,21.3931,168.257,100.385,95.1032,0.000121263,0.0943652,20.8245,498.234,0.495941,0.0,0.0
240,59.75,19.6107,21.0227,164.736,100.338,95.4039,0.000231144,0.094359,20.8188,498.153,0.462753,0.0,0.0
255,63.5,19.2768,21.3963,169.828,100.302,95.3932,0.000468895,0.095808,20.8134,498.083,0.460422,0.0,0.0
270,67.25,20.4863,23.0475,163.474,100.249,98.3531,0.00147149,0.112731,20.7347,497.633,0.175208,0.0,0.0
285,71,22.6803,26.4134,159.959,100.199,96.9591,0.00241548,0.155679,20.6521,497.443,0.301625,0.0,0.0
300,74.75,24.2409,29.2901,161.706,100.168,98.1837,0.00261496,0.206453,20.5862,497.203,0.183625,0.0,0.0
315,78.5,26.2228,31.8054,164.651,100.132,98.4671,0.00283738,0.246169,20.5589,496.932,0.153885,0.0,1.0
330,82.25,26.1147,33.0314,159.565,100.104,98.3313,0.00286106,0.274383,20.5365,496.632,0.163914,0.0,1.0
345,86,27.7163,34.528,158.77,100.083,97.3729,0.00278333,0.297558,20.5209,496.402,0.251898,0.0,0.0
360,89.75,28.893,36.1346,163.897,100.042,95.9931,0.00294851,0.315239,20.5113,496.112,0.37911,0.0,0.0
375,93.5,29.9121,37.1948,151.297,100.018,94.408,0.0036272,0.328471,20.5019,495.881,0.529708,0.0,0.0
390,97.25,31.2749,39.74,150.179,99.9972,92.6439,0.00474362,0.351684,20.4461,495.561,0.700868,0.0,0.0
405,101,33.4403,42.443,147.313,99.9807,92.5911,0.0052468,0.387615,20.3698,495.081,0.704579,0.0,0.0
420,104.75,34.9969,45.5126,144.175,99.9663,90.8356,0.00541156,0.419099,20.3278,494.75,0.878902,0.0,0.0
435,108.5,38.1667,49.1431,153.687,99.9481,91.8437,0.00579306,0.458496,20.2526,494.35,0.775965,0.0,0.0
450,112.25,40.1207,52.1988,141.178,99.9205,94.7077,0.00581344,0.487667,20.2192,493.88,0.491658,0.0,0.0
465,116,42.2595,55.8415,149.409,99.9193,92.3797,0.00645508,0.530576,20.1392,493.339,0.719921,0.0,0.0
480,119.75,43.4967,58.3971,147.858,99.8999,89.0963,0.0074322,0.565961,20.1114,492.949,1.05021,0.0,0.0
495,123.5,46.1544,61.1087,148.701,99.8876,88.3053,0.00823363,0.587098,20.0947,492.428,1.13091,0.0,0.0
510,127.25,47.6554,63.2644,138.7,99.8797,85.7263,0.00985546,0.608217,20.0723,491.928,1.40218,0.0,0.0
525,131,49.243,65.0435,144.736,99.8723,85.4144,0.0109563,0.628563,20.0618,491.357,1.43494,0.0,0.0
540,134.75,49.6443,65.4505,141.68,99.8801,85.3485,0.0120618,0.640796,20.0562,490.827,1.44274,0.0,0.0
555,138.5,50.8869,66.9177,144.917,99.8591,79.0785,0.0133541,0.654749,20.0493,490.276,2.14097,0.0,0.0
570,142.25,51.8809,67.7551,147.825,99.8566,81.837,0.0150246,0.66221,20.0577,489.706,1.8261,0.0,0.0
585,146,52.5754,67.8642,141.957,99.8393,81.5155,0.0152041,0.667031,20.064,489.125,1.86063,0.0,0.0
600,149.75,52.2158,67.5669,145.661,99.8356,81.2087,0.0143624,0.663013,20.0964,488.645,1.89489,0.0,0.0
615,153.5,52.3998,67.6956,149.433,99.8043,79.9998,0.0147275,0.655151,20.1119,488.114,2.02963,0.0,0.0
630,157.25,52.124,66.35,147.787,99.834,87.9757,0.0137105,0.644133,20.1532,487.584,1.1603,0.0,0.0
645,161,51.543,64.6951,149.054,99.8426,84.1564,0.0119422,0.618042,20.2108,487.163,1.56837,0.0,0.0
660,164.75,50.8595,63.343,149.855,99.8232,80.7432,0.0116857,0.592656,20.2335,486.693,1.9465,0.0,0.0
675,168.5,50.4527,62.7021,149.228,99.8294,83.2857,0.011283,0.582592,20.2418,486.223,1.66259,0.0,0.0
690,172.25,49.5379,61.28,147.702,99.8216,84.1888,0.0101639,0.561952,20.2861,485.832,1.5629,0.0,0.0
705,176,49.542,60.7636,148.815,99.8072,82.6716,0.0102054,0.548452,20.2924,485.382,1.72845,0.0,0.0
720,179.75,49.3476,60.3116,142.737,99.8167,79.7453,0.0125258,0.55336,20.2457,484.931,2.06001,0.0,0.0
735,183.5,50.3584,61.534,144.853,99.8237,81.6747,0.014053,0.582418,20.1981,484.431,1.84129,0.0,0.0
750,187.25,51.2069,61.9574,153.815,99.8191,91.7722,0.0123797,0.601924,20.2054,484.101,0.771258,0.0,0.0
765,191,48.9557,58.6819,153.704,99.843,94.6499,0.00869031,0.561387,20.344,483.891,0.490142,0.0,0.0
780,194.75,47.3999,55.9888,163.589,99.8439,97.3784,0.00628877,0.48376,20.4748,483.78,0.229427,0.0,0.0
795,198.5,44.9182,51.5457,160.674,99.8554,99.8723,0.00427945,0.400349,20.5892,483.84,-0.00154906,0.0,0.0
810,202.25,42.6736,47.8392,165.869,99.8558,99.4813,0.00355067,0.320954,20.6752,483.83,0.0344787,0.0,0.0
825,206,39.9076,44.9941,164.327,99.8628,99.4585,0.00339307,0.256664,20.7267,483.87,0.0372289,0.0,0.0
840,209.75,38.5887,41.0959,160.911,99.8884,99.6233,0.00316525,0.211706,20.753,483.88,0.024384,0.0,0.0
855,213.5,37.0642,38.9096,160.888,99.9086,99.5021,0.00246526,0.179353,20.7774,483.88,0.0374098,0.0,0.0
870,217.25,35.7678,37.0461,166.823,99.93,99.4463,0.00185184,0.154404,20.7953,483.88,0.0445231,0.0,0.0
885,221,34.4868,35.2489,161.602,99.9416,99.6654,0.00135051,0.136699,20.8073,483.88,0.025392,0.0,0.0
900,224.75,33.2436,34.2972,164.365,99.9609,99.5868,0.00110575,0.123944,20.8151,483.88,0.0344101,0.0,0.0
915,228.5,32.4089,32.8906,164.813,99.9968,99.498,0.000897168,0.114369,20.8217,483.941,0.0458816,0.0,0.0
930,232.25,31.9469,32.0249,162.873,100.022,99.6568,0.000667223,0.107545,20.8251,483.91,0.0335622,0.0,0.0
945,236,31.0953,31.4544,166.036,100.035,99.5995,0.000562618,0.102456,20.8291,483.9,0.0400502,0.0,0.0
960,239.75,30.7716,30.8497,163.807,100.052,99.5954,0.00064711,0.0983338,20.8308,483.91,0.0419363,0.0,0.0
975,243.5,30.2322,30.2307,166.078,100.078,99.4651,0.000655709,0.0953472,20.8312,483.9,0.0563321,0.0,0.0
990,247.25,29.4876,29.4229,163.935,100.099,99.604,0.000417974,0.0930594,20.8331,483.88,0.0454887,0.0,0.0
1005,251,29.134,28.9759,166.697,100.137,99.7612,0.000331001,0.0915626,20.8335,483.891,0.0344929,0.0,0.0
1020,254.75,29.0088,28.378,165.453,100.178,99.6644,0.000333117,0.091149,20.8322,483.9,0.0471833,0.0,0.0
1035,258.5,28.1846,28.144,166.392,100.198,99.5878,0.000218541,0.0907214,20.8329,483.88,0.0560853,0.0,0.0
1050,262.25,27.916,27.6132,158.614,100.229,99.7414,-0.000175529,0.0898378,20.8339,483.9,0.0447311,0.0,0.0
1065,266,27.433,27.2069,163.385,100.272,99.7151,-0.000227918,0.0887006,20.8355,483.88,0.0511187,0.0,0.0
1080,269.75,27.3263,27.2449,165.232,100.315,99.6821,-8.91432e-05,0.0875382,20.8358,483.88,0.0580378,0.0,0.0
1095,273.5,27.4929,26.5204,167.474,100.343,99.7612,-0.000229885,0.0866013,20.8373,483.891,0.0533604,0.0,0.0
1110,277.25,27.075,26.2138,165.208,100.381,99.82,-0.000201471,0.0856136,20.838,483.891,0.0513798,0.0,0.0
1125,281,26.376,26.3262,165.566,100.393,99.8058,-5.02187e-05,0.0848938,20.8391,483.88,0.0538541,0.0,0.0
1140,284.75,26.5592,25.9677,166.58,100.442,99.8794,-3.07066e-05,0.0845326,20.8402,483.9,0.0515407,0.0,0.0
1155,288.5,26.2852,26.3139,166.079,100.454,99.8099,0.000210002,0.0843792,20.8405,483.9,0.0590551,0.0,0.0
1170,292.25,25.8844,26.0972,165.349,100.482,99.743,0.000138216,0.0842463,20.8405,483.9,0.0676959,0.0,0.0
1185,296,25.8756,26.0839,162.656,100.512,99.9118,-0.000197089,0.0841276,20.8389,483.9,0.054997,0.0,0.0
1200,299.75,25.8394,25.5087,161.122,100.533,99.8647,-0.000181468,0.083832,20.8402,483.9,0.0612481,0.0,0.0
1215,303.5,25.6281,25.3533,164.914,100.565,99.9793,-0.000102523,0.0837572,20.8401,483.891,0.0535833,0.0,0.0
1230,307.25,24.5627,25.6941,161.06,100.591,100.144,-0.000301756,0.0835844,20.8396,483.921,0.0409225,0.0,0.0
1245,311,24.6633,25.3386,164.776,100.621,99.8388,-0.000457101,0.0838458,20.8395,483.891,0.0716345,0.0,0.0
1260,314.75,25.0302,24.6751,163.686,100.641,100.028,-0.000292882,0.0838021,20.8407,483.91,0.0560255,0.0,0.0
1275,318.5,24.3246,24.1463,169.81,100.657,100.028,-0.000527795,0.0836111,20.8398,483.91,0.0574529,0.0,0.0
1290,322.25,24.8408,24.6777,162.896,100.692,99.9762,-0.000498283,0.0835663,20.8396,483.9,0.0654382,0.0,0.0
1305,326,24.5065,24.712,162.48,100.703,99.9529,-0.000375472,0.0834418,20.8398,483.91,0.0685939,0.0,0.0
1320,329.75,24.4731,24.5456,167.287,100.714,100.059,-0.000197982,0.0833983,20.8397,483.961,0.0599213,0.0,0.0
1335,333.5,23.8361,24.3124,168.56,100.733,100.069,-0.000205665,0.0834251,20.8405,483.921,0.0607657,0.0,0.0
1350,337.25,24.3624,24.7674,166.755,100.754,100.135,-0.000286255,0.0832424,20.841,483.941,0.0565452,0.0,0.0
1365,341,24.0432,24.5798,165.185,100.777,100.136,-0.000434514,0.0832263,20.8411,483.941,0.0585617,0.0,0.0
1380,344.75,23.5151,24.1941,168.266,100.799,100.097,-0.000526223,0.0834243,20.8412,483.91,0.0641294,0.0,0.0
1395,348.5,24.2694,24.2951,166.276,100.826,100.177,-0.000264947,0.0836624,20.8412,483.931,0.0593105,0.0,0.0
1410,352.25,23.3229,24.4085,165.411,100.832,100.13,-0.000199435,0.0838506,20.839,483.941,0.0641011,0.0,0.0
1425,356,23.7157,24.1722,168.667,100.84,100.016,,0.0839043,,483.951,0.0752383,0.0,0.0
1440,359.75,23.3316,24.1634,163.039,100.864,100.226,,,,483.941,0.0582943,0.0,0.0
1455,363.5,23.6643,24.4778,162.701,100.878,100.195,,,,483.891,0.0623651,0.0,0.0
1457,364,23.2393,23.6765,163.583,100.863,100.308,,,,483.88,0.0506183,0.0,0.0