File: 02_Data/Overstuffed_Chair/Cone/Overstuffed_Chair_Cone_HF25Scan_210325_R1.csv
Names,Time,Stack TC,Smoke TC,Exh Press,Smoke Comp,Smoke Meas,CO Meter,CO2 Meter,O2 Meter,Sample Mass,Ext Coeff,Start Test,Flame Verif
Chan Gain,,500,500,1,1,1,1,1,1,1,1,1.0,1.0
Offset,,0,0,0.138348,0,0,0,0,0,0,0,0.0,0.0
Gain,,1,1,25.011,13.5067,16.616,1,1,1,1.00091,1.04608,1.0,1.0
Units,sec,C,C,Pa,%,%,%,%,%,g,/m,,
Baseline,,18.5109,19.7983,169.447,101.462,100.659,-0.000357397,0.0824602,20.8437,-0.192884,0.0729391,,
16,3.75,17.3252,18.177,172.166,101.107,100.291,-0.000274507,0.0966123,20.8234,495.651,0.0743768,0.0,0.0
32,7.75,17.2336,18.1478,170.709,101.05,100.27,-4.48628e-05,0.0984671,20.819,497.103,0.071069,0.0,0.0
48,11.75,17.3115,18.7091,165.063,100.996,100.181,-0.000313533,0.10006,20.8204,495.691,0.0743356,0.0,0.0
64,15.75,17.3501,18.8191,170.301,100.947,100.061,-0.000356351,0.0991337,20.8262,495.231,0.0808458,0.0,0.0
80,19.75,17.549,19.1621,174.251,100.875,100.049,-0.000227521,0.0971486,20.8294,495.461,0.0754857,0.0,0.0
96,23.75,17.2997,19.9339,165.548,100.844,99.9909,-0.000282446,0.0954582,20.8294,495.471,0.0779774,0.0,0.0
112,27.75,18.0254,18.9649,163.268,100.799,100.129,-0.000353199,0.0953151,20.8286,495.501,0.0611547,0.0,0.0
128,31.75,17.5279,19.214,166.188,100.761,99.9559,-0.000228453,0.0956875,20.8249,495.481,0.0736097,0.0,0.0
144,35.75,17.8369,19.404,172.395,100.729,99.211,-0.000280342,0.0977227,20.8184,495.441,0.13932,0.0,0.0
160,39.75,17.7671,19.2219,172.733,100.702,97.5225,-0.00023761,0.100011,20.8164,495.351,0.294438,0.0,0.0
176,43.75,18.0721,19.8014,168.249,100.684,96.7705,-6.08116e-05,0.100477,20.8202,495.271,0.363817,0.0,0.0
192,47.75,17.7988,19.8065,167.513,100.673,96.4556,-0.000116108,0.100021,20.8224,495.221,0.392711,0.0,0.0
208,51.75,17.8285,19.4427,169.102,100.668,96.3374,9.56741e-05,0.100119,20.8213,495.111,0.403469,0.0,0.0
224,55.75,18.2062,20.2496,168.244,100.641,95.4404,0.000372105,0.100384,20.8208,495.051,0.486869,0.0,0.0
240,59.75,18.9311,21.6058,167.14,100.671,99.3677,0.00116898,0.104971,20.7798,494.66,0.119543,0.0,1.0
256,63.75,20.1735,23.9808,157.282,100.641,98.6507,0.00196428,0.14062,20.6801,494.44,0.183252,0.0,1.0
272,67.75,22.4014,27.147,155.717,100.63,97.1594,0.00258161,0.198612,20.5838,494.1,0.322051,0.0,0.0
288,71.75,24.171,29.7951,159.612,100.657,96.3268,0.00320983,0.250925,20.5194,493.83,0.403469,0.0,0.0
304,75.75,26.9738,32.0532,154.309,100.609,94.3811,0.00424119,0.308638,20.4397,493.469,0.586389,0.0,0.0
320,79.75,28.5378,36.4567,154.769,100.607,92.1332,0.00610349,0.359689,20.3821,493.009,0.807394,0.0,0.0
336,83.75,31.3105,39.7995,145.897,100.612,93.2037,0.00760638,0.413511,20.3131,492.488,0.701848,0.0,0.0
352,87.75,32.6546,42.9406,148.582,100.608,92.045,0.00732929,0.448069,20.2934,492.028,0.816298,0.0,0.0
368,91.75,35.7417,45.6323,148.577,100.619,95.2888,0.00714873,0.476838,20.2771,491.708,0.499465,0.0,0.0
384,95.75,36.5143,46.735,160.303,100.623,92.2417,0.00614888,0.480903,20.2997,491.197,0.798021,0.0,0.0
400,99.75,37.5014,48.9188,149.824,100.617,93.2574,0.00564613,0.480532,20.3059,490.877,0.696971,0.0,0.0
416,103.75,38.0979,49.3886,151.475,100.622,90.828,0.005809,0.477638,20.3019,490.446,0.939634,0.0,0.0
432,107.75,39.5094,51.2028,142.151,100.64,93.3685,0.0063989,0.487711,20.2767,490.096,0.688192,0.0,0.0
448,111.75,40.2072,52.3492,144.278,100.653,88.6131,0.00701635,0.498584,20.2641,489.586,1.16899,0.0,0.0
464,115.75,41.1115,53.0684,152.239,100.667,89.2774,0.00744493,0.507149,20.2537,489.125,1.10182,0.0,0.0
480,119.75,42.5361,54.7052,146.097,100.687,87.999,0.00792345,0.521046,20.23,488.695,1.23596,0.0,0.0
496,123.75,43.3883,55.7699,156.571,100.688,89.6886,0.00865131,0.535391,20.2227,488.174,1.06149,0.0,0.0
512,127.75,44.4106,57.2685,148.029,100.698,82.5773,0.0103319,0.54904,20.1982,487.624,1.82045,0.0,0.0
528,131.75,45.679,58.3601,142.842,100.709,87.1826,0.01048,0.56951,20.1869,487.133,1.32352,0.0,0.0
544,135.75,45.8992,59.0662,143.374,100.72,83.5469,0.0101297,0.576159,20.1871,486.613,1.71533,0.0,0.0
560,139.75,46.8397,59.8169,148.994,100.715,88.0979,0.00960193,0.584433,20.1877,486.082,1.22817,0.0,0.0
576,143.75,46.1753,59.5194,149.512,100.743,85.992,0.0097754,0.575955,20.1959,485.642,1.45277,0.0,0.0
592,147.75,48.3408,61.7713,143.238,100.718,83.1468,0.011063,0.595003,20.1415,485.032,1.75919,0.0,0.0
608,151.75,48.246,60.7879,149.208,100.712,88.033,0.0098552,0.598054,20.2161,484.611,1.23463,0.0,0.0
624,155.75,48.1813,59.7648,156.602,100.711,86.5929,0.00897799,0.571206,20.2536,484.151,1.38595,0.0,0.0
640,159.75,47.3306,59.2479,152.566,100.709,88.1045,0.0082484,0.554501,20.2672,483.68,1.227,0.0,0.0
656,163.75,47.0127,57.3838,155.088,100.674,90.3062,0.00751947,0.532576,20.3109,483.31,0.997272,0.0,0.0
672,167.75,46.3683,56.6625,155.023,100.665,87.7384,0.00681688,0.510641,20.3379,482.97,1.26115,0.0,0.0
688,171.75,46.3978,55.6074,144.064,100.652,85.1092,0.0068572,0.493234,20.3437,482.579,1.53917,0.0,0.0
704,175.75,46.296,55.5917,154.274,100.646,88.0796,0.00658999,0.485772,20.3426,482.119,1.22376,0.0,0.0
720,179.75,45.4111,54.3892,149.616,100.645,87.9184,0.00543573,0.470094,20.3913,481.839,1.24054,0.0,0.0
736,183.75,44.4246,52.2871,154.046,100.639,93.4471,0.00467146,0.446315,20.4328,481.568,0.680396,0.0,0.0
752,187.75,43.7058,51.7554,159.996,100.63,96.3227,0.00387425,0.415268,20.4841,481.388,0.401413,0.0,0.0
768,191.75,42.6171,49.8407,154.746,100.612,95.5844,0.00329853,0.381019,20.5251,481.178,0.470401,0.0,0.0
784,195.75,41.6429,48.0029,157.029,100.624,98.7334,0.00318561,0.354695,20.5461,481.048,0.174026,0.0,0.0
800,199.75,40.8836,47.1215,151.168,100.624,97.3014,0.00314032,0.338205,20.5464,480.888,0.308088,0.0,0.0
816,203.75,40.8978,45.9173,161.687,100.607,98.312,0.00328544,0.327098,20.5551,480.738,0.211769,0.0,0.0
832,207.75,39.4262,44.0181,162.023,100.612,99.6137,0.003112,0.305013,20.6,480.597,0.091523,0.0,0.0
848,211.75,38.6266,42.5288,161.565,100.604,99.4331,0.00272742,0.279355,20.6399,480.658,0.107416,0.0,0.0
864,215.75,36.681,41.0559,156.902,100.607,99.6598,0.00254004,0.247983,20.6867,480.638,0.0867857,0.0,0.0
880,219.75,35.6837,38.9311,162.615,100.608,100.164,0.00232907,0.218362,20.7194,480.617,0.0406067,0.0,0.0
896,223.75,35.1036,37.3463,160.183,100.6,100.242,0.00202701,0.193424,20.7409,480.648,0.0326946,0.0,0.0
912,227.75,33.9386,35.9131,165.503,100.597,99.9798,0.00140794,0.172777,20.7602,480.638,0.0564691,0.0,0.0
928,231.75,33.2812,34.2627,163.258,100.585,100.039,0.00116199,0.156168,20.7725,480.567,0.0499819,0.0,0.0
944,235.75,31.8542,33.0726,162.683,100.605,100.001,0.00116557,0.140962,20.7922,480.597,0.0552764,0.0,0.0
960,239.75,30.5729,31.8873,163.929,100.581,100.151,0.00102528,0.128277,20.8039,480.608,0.0392856,0.0,0.0
976,243.75,30.3122,30.8443,164.025,100.581,99.8667,0.00082607,0.119023,20.807,480.608,0.0654252,0.0,0.0
992,247.75,29.5058,29.8036,161.276,100.581,100.202,0.000543456,0.113312,20.8101,480.628,0.0345953,0.0,0.0
1008,251.75,28.7141,29.164,164.431,100.592,100.16,0.000384022,0.108432,20.8162,480.597,0.0395491,0.0,0.0
1024,255.75,27.9293,28.1115,168.586,100.597,100.177,4.8998e-05,0.10493,20.8187,480.638,0.0384675,0.0,0.0
1040,259.75,28.095,27.5963,166.665,100.598,100.155,-6.78141e-05,0.102594,20.8194,480.608,0.0405402,0.0,0.0
1056,263.75,27.5358,27.0671,165.466,100.594,100.028,-2.74849e-05,0.0997352,20.8225,480.628,0.0517017,0.0,0.0
1072,267.75,27.1385,27.0556,169.665,100.596,100.155,-0.0001152,0.0960798,20.8293,480.597,0.0403061,0.0,0.0
1088,271.75,26.684,26.1048,165.962,100.611,100.338,-0.000321117,0.0928265,20.8329,480.608,0.0249121,0.0,0.0
1104,275.75,26.108,26.2876,162.946,100.611,100.191,-0.000396995,0.0900513,20.8342,480.608,0.0383608,0.0,0.0
1120,279.75,25.7997,25.5748,164.992,100.614,100.103,-0.00062559,0.0879226,20.8345,480.628,0.046662,0.0,0.0
1136,283.75,25.5141,25.5956,168.505,100.62,100.274,-0.000319476,0.0866397,20.8345,480.648,0.0315751,0.0,0.0
1152,287.75,25.9572,25.5889,162.535,100.636,100.145,-0.000147997,0.0856893,20.835,480.628,0.0448443,0.0,0.0
1168,291.75,24.8993,25.0942,162.4,100.633,100.027,-0.000287555,0.0849555,20.8353,480.617,0.0554134,0.0,0.0
1184,295.75,25.0899,24.892,166.952,100.642,100.039,-0.000276152,0.0845461,20.8337,480.628,0.0552068,0.0,0.0
1200,299.75,24.8802,24.8047,167.225,100.629,100.069,-0.000243361,0.0843405,20.8345,480.638,0.0512601,0.0,0.0
1216,303.75,24.9471,24.8852,166.712,100.632,100.117,3.17207e-06,0.0843637,20.8349,480.638,0.0470995,0.0,0.0
1232,307.75,24.8069,24.9761,169.128,100.617,100.017,-4.14074e-05,0.0841185,20.8358,480.638,0.0548306,0.0,0.0
1248,311.75,24.2843,25.0791,166.755,100.618,100.085,-0.00018407,0.0842236,20.8371,480.638,0.0486741,0.0,0.0
1264,315.75,24.3636,24.6432,169.257,100.641,100.289,-0.000413114,0.0843573,20.8359,480.638,0.0321834,0.0,0.0
1280,319.75,24.4233,24.5699,164.571,100.635,100.026,-0.000329246,0.0845266,20.8352,480.617,0.055732,0.0,0.0
1296,323.75,24.3763,24.6558,164.875,100.66,99.9554,-0.000220267,0.0845566,20.8346,480.638,0.0644541,0.0,0.0
1312,327.75,24.1361,24.3311,165.089,100.66,99.9955,-0.00036343,0.0843874,20.8344,480.648,0.0608146,0.0,0.0
1328,331.75,23.6954,24.1596,166.5,100.679,100.149,-0.000143722,0.084266,20.8344,480.638,0.0484271,0.0,0.0
1344,335.75,23.5719,23.6702,167.877,100.695,100.002,-0.000202351,0.0840339,20.8361,480.648,0.0633755,0.0,0.0
1360,339.75,23.4459,23.6833,168.062,100.724,100.389,-0.000320397,0.0839222,20.8347,480.628,0.0305525,0.0,0.0
1376,343.75,22.9062,24.3611,168.118,100.732,100.094,-0.000138283,0.0839285,20.8344,480.628,0.0582443,0.0,0.0
1392,347.75,23.2163,24.2189,164.359,100.76,100.201,-0.000120821,0.0838249,20.836,480.648,0.0510404,0.0,0.0
1408,351.75,23.1168,23.5253,165.455,100.782,100.194,-0.000136688,0.0838782,20.8366,480.638,0.0536333,0.0,0.0
1424,355.75,23.3907,24.1029,169.564,100.814,100.192,-0.000321859,0.0837774,20.8355,480.628,0.056792,0.0,0.0
1440,359.75,23.0879,23.7126,163.447,100.83,100.219,-0.000386435,0.0835432,20.8361,480.617,0.055832,0.0,0.0
1456,363.75,22.8413,23.2877,163.603,100.85,100.287,,,,480.658,0.0514135,0.0,0.0
1472,367.75,23.0975,23.0264,164.581,100.84,100.283,,,,480.638,0.0508,0.0,0.0
1486,371.25,22.9469,23.4643,168.01,100.861,100.153,,,,480.628,0.0645986,0.0,0.0