File: 02_Data/Overstuffed_Chair/Cone/Overstuffed_Chair_Cone_HF75Scan_210325_R1.csv
Names,Time,Stack TC,Smoke TC,Exh Press,Smoke Comp,Smoke Meas,CO Meter,CO2 Meter,O2 Meter,Sample Mass,Ext Coeff,Start Test,Flame Verif
Chan Gain,,500,500,1,1,1,1,1,1,1,1,1.0,1.0
Offset,,0,0,0.138348,0,0,0,0,0,0,0,0.0,0.0
Gain,,1,1,25.011,13.5067,16.616,1,1,1,1.00091,1.04608,1.0,1.0
Units,sec,C,C,Pa,%,%,%,%,%,g,/m,,
Baseline,,28.4388,32.225,161.867,101.684,101.375,-0.000507024,0.0881341,20.8504,-3.3558,0.0279208,,
9,2,27.2015,30.6365,161.392,101.594,101.075,-0.000196011,0.0982022,20.8401,494.63,0.0470407,0.0,0.0
18,4.25,27.5852,30.8746,159.388,101.618,101.381,-1.06445e-05,0.0975132,20.8416,490.366,0.0213997,0.0,0.0
27,6.5,27.7122,30.7848,164.253,101.653,100.906,0.000293646,0.0984929,20.838,490.607,0.0676677,0.0,0.0
36,8.75,28.3394,32.0906,159.622,101.699,97.8754,0.000806184,0.110577,20.8016,490.947,0.351663,0.0,1.0
45,11,29.3993,34.5512,157.823,101.731,94.5363,0.00183062,0.164135,20.6871,490.326,0.67308,0.0,1.0
54,13.25,31.2445,38.142,146.913,101.754,86.601,0.00327333,0.245597,20.5551,490.587,1.47958,0.0,1.0
63,15.5,33.3988,40.9664,147.355,101.807,85.171,0.00443226,0.315019,20.4815,490.266,1.63719,0.0,0.0
72,17.75,35.0608,43.5102,152.294,101.839,87.4088,0.00490189,0.361236,20.4452,490.336,1.40208,0.0,0.0
81,20,36.5601,45.4127,149.18,101.852,89.47,0.00491151,0.379675,20.4367,490.587,1.18942,0.0,0.0
90,22.25,37.4944,47.2103,144.896,101.883,90.1272,0.00527306,0.389586,20.4311,489.546,1.12505,0.0,0.0
99,24.5,38.3783,48.6925,145.357,101.925,85.4433,0.00604568,0.401948,20.411,489.305,1.61848,0.0,0.0
108,26.75,40.2834,51.0465,148.231,101.938,84.5037,0.0076053,0.421854,20.3803,488.985,1.72118,0.0,0.0
117,29,41.4552,52.9351,146.281,101.974,78.399,0.0106544,0.45487,20.3248,490.406,2.41247,0.0,0.0
126,31.25,43.5155,56.6779,139.568,102.002,73.4174,0.0153387,0.524605,20.1613,488.274,3.0174,0.0,0.0
135,33.5,47.187,62.5923,125.026,102.02,71.8638,0.0195275,0.646318,19.8778,487.734,3.21527,0.0,0.0
144,35.75,52.7025,72.1065,125.474,102.044,78.4756,0.0222374,0.827753,19.6617,487.073,2.40978,0.0,0.0
153,38,59.9186,84.8919,96.1273,102.065,74.1568,0.0246485,1.01726,19.3295,486.323,2.93109,0.0,0.0
162,40.25,67.0748,98.4216,99.0499,102.08,75.1268,0.0286344,1.32315,18.8133,485.612,2.81325,0.0,0.0
171,42.5,76.409,114.17,93.1979,102.08,72.3713,0.0348109,1.63022,18.4072,484.641,3.15606,0.0,0.0
180,44.75,84.7292,129.402,88.5747,102.089,67.727,0.0420801,1.90234,18.1028,483.62,3.76548,0.0,0.0
189,47,91.8576,140.76,96.051,102.115,60.9088,0.0480431,2.10685,17.9511,482.619,4.74154,0.0,0.0
198,49.25,97.362,147.921,113.117,102.096,63.2059,0.0513092,2.23431,17.9104,481.719,4.40007,0.0,0.0
207,51.5,100.566,153.331,116.931,102.084,62.7962,0.0520954,2.27353,17.9688,480.808,4.45867,0.0,0.0
216,53.75,104.143,157.087,107.545,102.079,63.4985,0.0515007,2.25624,18.0835,479.837,4.35617,0.0,0.0
225,56,106.548,157.72,110.026,102.075,62.6988,0.0495925,2.19206,18.2275,479.026,4.47213,0.0,0.0
234,58.25,106.807,157.277,132.499,102.052,64.5659,0.0466664,2.07263,18.4201,478.345,4.20079,0.0,0.0
243,60.5,106.283,154.175,110.24,102.027,65.1698,0.0425752,1.91025,18.6773,477.715,4.11314,0.0,0.0
252,62.75,104.63,150.096,122.753,101.986,67.4364,0.0372109,1.70526,18.9769,477.224,3.7957,0.0,0.0
261,65,102.191,144.099,121.766,101.97,71.8414,0.0304035,1.47362,19.2997,476.854,3.21359,0.0,0.0
270,67.25,97.6399,135.227,143.493,101.905,83.2284,0.0223157,1.22998,19.6542,476.914,1.85771,0.0,0.0
279,69.5,92.7441,125.918,145.724,101.866,95.4531,0.0152947,0.964279,19.994,476.874,0.596707,0.0,0.0
288,71.75,87.5136,116.477,156.945,101.828,102.095,0.00984175,0.744233,20.2602,476.794,-0.0240794,0.0,0.0
297,74,82.8904,108.075,149.561,101.766,102.202,0.00652186,0.572311,20.4499,476.824,-0.0391815,0.0,0.0
306,76.25,79.1897,100.828,148.41,101.684,102.314,0.00467367,0.448397,20.564,476.794,-0.0566366,0.0,0.0
315,78.5,75.3475,94.5453,152.604,101.606,102.264,0.00364586,0.366779,20.6286,476.794,-0.0591663,0.0,0.0
324,80.75,71.6116,88.0384,155.862,101.527,102.298,0.00310429,0.309282,20.6735,476.774,-0.0694097,0.0,0.0
333,83,68.5253,83.6445,150.406,101.448,102.374,0.00307008,0.266554,20.7057,476.754,-0.0833773,0.0,0.0
342,85.25,65.1871,78.9879,151.209,101.346,102.728,0.00355848,0.236751,20.7265,476.764,-0.124261,0.0,0.0
351,87.5,63.2075,75.1411,154.944,101.271,102.043,0.00407663,0.212362,20.7479,476.734,-0.0696583,0.0,0.0
360,89.75,61.1264,70.94,153.08,101.169,102.37,0.00426531,0.193843,20.7655,476.734,-0.108289,0.0,0.0
369,92,59.657,69.2019,159.304,101.072,102.195,0.00426515,0.177333,20.7778,476.704,-0.10143,0.0,0.0
378,94.25,57.775,65.9692,150.244,100.969,101.972,0.00424097,0.165505,20.7871,476.704,-0.0906978,0.0,0.0
387,96.5,56.5958,63.35,153.374,100.878,101.669,0.00448127,0.155825,20.7932,476.684,-0.0716601,0.0,0.0
396,98.75,55.2375,61.8925,159.069,100.76,101.423,0.00492929,0.148915,20.7959,476.674,-0.060204,0.0,0.0
405,101,54.2294,60.0252,150.569,100.675,102.219,0.00531482,0.144373,20.7977,476.674,-0.139633,0.0,0.0
414,103.25,53.4765,58.5426,147.981,100.578,101.42,0.00554164,0.140288,20.8002,476.654,-0.0765359,0.0,0.0
423,105.5,52.2675,57.3632,153.787,100.509,101.433,0.00561893,0.136612,20.8022,476.654,-0.0839188,0.0,0.0
432,107.75,51.0792,56.4198,155.342,100.402,101.057,0.00553669,0.133853,20.8031,476.634,-0.0596909,0.0,0.0
441,110,51.0404,55.0301,156.046,100.31,100.863,0.00569677,0.13141,20.8039,476.654,-0.0504525,0.0,0.0
450,112.25,50.703,54.4562,154.984,100.246,101.239,0.00604064,0.1297,20.8043,476.614,-0.0904647,0.0,0.0
459,114.5,49.6895,53.1883,156.259,100.169,101.039,0.00623725,0.12863,20.8052,476.624,-0.0793419,0.0,0.0
468,116.75,48.9946,52.838,154.732,100.129,100.833,0.00620884,0.127522,20.8062,476.634,-0.0642981,0.0,0.0
477,119,48.8053,51.7553,155.011,100.089,100.955,0.00587742,0.126617,20.8065,476.574,-0.0790319,0.0,0.0
486,121.25,48.4489,51.8189,159.506,100.077,101.022,0.00548352,0.125565,20.8067,476.594,-0.0862092,0.0,0.0
495,123.5,47.7829,50.9211,156.398,100.055,100.608,0.00530258,0.124693,20.8088,476.584,-0.0505504,0.0,0.0
504,125.75,47.2604,50.7854,153.129,100.074,100.888,0.00535221,0.123722,20.8104,476.564,-0.0743902,0.0,0.0
513,128,46.8465,50.3909,154.895,100.092,100.776,0.00549757,0.122876,20.8106,476.504,-0.0624824,0.0,0.0
522,130.25,47.2194,50.2834,156.064,100.108,100.753,0.00551205,0.122339,20.8095,476.504,-0.0589307,0.0,0.0
531,132.5,47.0364,49.6425,152.706,100.15,100.879,0.00535832,0.122119,20.809,476.544,-0.0666084,0.0,0.0
540,134.75,46.5568,49.1431,153.413,100.224,100.901,0.00522149,0.121866,20.8102,476.514,-0.061712,0.0,0.0
549,137,46.3808,48.7677,153.5,100.284,101.05,0.00517854,0.121561,20.8107,476.464,-0.069752,0.0,0.0
558,139.25,46.2679,48.9789,155.032,100.381,101.051,0.005211,0.12128,20.8097,476.474,-0.0610309,0.0,0.0
567,141.5,45.7264,48.7892,157.231,100.437,101.189,0.00538059,0.121385,20.8091,476.474,-0.0684156,0.0,0.0
576,143.75,45.4106,48.3439,156.112,100.536,100.911,0.00551502,0.12182,20.8089,476.454,-0.0342322,0.0,0.0
585,146,45.682,48.6088,156.882,100.621,101.554,0.00562588,0.122052,20.8088,476.434,-0.0846838,0.0,0.0
594,148.25,45.569,48.0416,152.853,100.716,101.426,0.00576308,0.122348,20.8087,476.414,-0.0645344,0.0,0.0
603,150.5,45.6748,47.8675,155.338,100.808,101.395,0.00583182,0.122616,20.8087,476.454,-0.0532357,0.0,0.0
612,152.75,44.8665,47.7432,153.473,100.928,101.535,0.00580715,0.122877,20.8091,476.414,-0.0550259,0.0,0.0
621,155,44.1984,47.5127,158.344,101.011,101.731,0.00572529,0.122673,20.8095,476.364,-0.0651315,0.0,0.0
630,157.25,44.5074,47.4826,158.153,101.085,101.665,0.00588269,0.122258,20.8096,476.384,-0.0525293,0.0,0.0
639,159.5,44.3014,46.9757,154.586,101.172,101.749,0.00601215,0.121928,20.8111,476.334,-0.0521949,0.0,0.0
648,161.75,43.854,46.8232,153.847,101.244,101.957,0.00584454,0.121509,20.8117,476.344,-0.0644601,0.0,0.0
657,164,44.0748,47.2464,156.928,101.311,101.728,0.00539982,0.121326,20.8132,476.314,-0.0376381,0.0,0.0
666,166.25,44.1582,46.9475,154.725,101.358,101.869,0.00505608,0.121103,20.8138,476.284,-0.0460896,0.0,0.0
675,168.5,43.9393,46.8535,157.013,101.41,102.404,0.00505131,0.120723,20.8141,476.314,-0.0894892,0.0,0.0
684,170.75,43.3328,46.7774,151.979,101.426,101.994,0.0051828,0.120671,20.8143,476.284,-0.051256,0.0,0.0
693,173,43.5792,46.7491,158.337,101.443,102.316,0.00512939,0.12014,20.8156,476.274,-0.0786871,0.0,0.0
702,175.25,43.768,46.933,156.296,101.441,101.961,0.00501719,0.119436,20.8162,476.254,-0.0469851,0.0,0.0
711,177.5,43.0409,45.8089,152.023,101.446,102.206,0.00502424,0.119057,20.8173,476.254,-0.0684327,0.0,0.0
720,179.75,43.2997,46.2199,154.9,101.406,102.441,0.00493085,0.118374,20.8188,476.264,-0.0932235,0.0,0.0
729,182,43.5909,46.0212,156.005,101.367,101.895,0.00485643,0.117679,20.8197,476.264,-0.0476443,0.0,0.0
738,184.25,43.3734,46.4386,154.568,101.346,101.957,0.00498548,0.116739,20.8214,476.264,-0.0551536,0.0,0.0
747,186.5,42.7386,45.5576,158.862,101.275,101.88,0.00526887,0.116019,20.8221,476.264,-0.0545984,0.0,0.0
756,188.75,42.6751,45.7227,154.619,101.211,101.899,0.00551709,0.115463,20.8224,476.274,-0.0621536,0.0,0.0
765,191,42.442,45.6822,160.081,101.168,102.025,0.00568777,0.115123,20.8225,476.254,-0.0774046,0.0,0.0
774,193.25,42.7535,45.7727,158.965,101.141,101.838,,0.114744,,476.224,-0.0629521,0.0,0.0
783,195.5,42.7234,44.9532,154.122,101.077,101.652,,0.114106,,476.163,-0.052042,0.0,0.0
792,197.75,42.3855,45.8519,154.073,101.051,101.343,,,,476.163,-0.0264893,0.0,0.0
801,200,42.5905,45.1058,156.38,101.024,101.551,,,,476.163,-0.0477653,0.0,0.0
810,202.25,42.1215,44.8553,159.673,100.989,101.628,,,,476.153,-0.0579476,0.0,0.0
815,203.5,42.5041,45.4246,153.582,100.991,101.394,,,,476.143,-0.0365453,0.0,0.0