File: 02_Data/Overstuffed_Chair/Cone/Overstuffed_Chair_Cone_HF25Scalar_210325_R1.csv
LABORATORY,FSRI
TEST IDENT,FurnitureStack_H25_1
OPERATOR,Morrissey
MATERIAL,1'' PUF-1.75''PEBat-PEFabric
ORIENTATION,Horizontal
HEAT FLUX,25
SURF AREA,0.01
C FACTOR,0.0386052
SPEC HOLDER DIFF,-87.61
SPECIMEN MASS,20.4
SCAN TIME,0.25
O2 DELAY TIME,11
CO DELAY TIME,11
CO2 DELAY TIME,8
FLOW FACTOR,1
SCAN COUNT,1486
TIME TO IGN,59.5
END OF TEST SCAN,1006
END OF TEST TIME,251.5
TEST STATUS,1
PRE TEST CMT,Test w/o retainer grid or frame
POST TEST CMT,"Fabric folded up but when the sample shrunk, it backed away from the spark igniter"