File: 02_Data/Overstuffed_Chair/Cone/Overstuffed_Chair_Cone_HF75Scan_210325_R2.csv
Names,Time,Stack TC,Smoke TC,Exh Press,Smoke Comp,Smoke Meas,CO Meter,CO2 Meter,O2 Meter,Sample Mass,Ext Coeff,Start Test,Flame Verif
Chan Gain,,500,500,1,1,1,1,1,1,1,1,1.0,1.0
Offset,,0,0,0.138348,0,0,0,0,0,0,0,0.0,0.0
Gain,,1,1,25.011,13.5067,16.616,1,1,1,1.00091,1.04608,1.0,1.0
Units,sec,C,C,Pa,%,%,%,%,%,g,/m,,
Baseline,,35.6659,39.2533,159.016,101.194,101.25,-0.000320744,0.0822352,20.8667,-3.52595,-0.00509504,,
8,1.75,33.6211,36.916,163.225,100.978,101.212,-0.000350002,0.0842344,20.8645,484.161,-0.0212551,0.0,0.0
16,3.75,33.6554,37.3417,158.537,101.041,101.419,-0.000478006,0.0855218,20.8625,482.029,-0.0343096,0.0,0.0
24,5.75,34.0879,37.7055,162.338,101.106,101.12,-0.000424476,0.0861825,20.8615,481.979,-0.00132588,0.0,0.0
32,7.75,34.4743,37.7665,163.205,101.176,101.044,-0.000238525,0.0867102,20.8603,481.929,0.0120576,0.0,0.0
40,9.75,34.741,38.1161,158.208,101.222,95.2857,0.000154674,0.0901607,20.8519,481.809,0.554551,0.0,0.0
48,11.75,35.1794,39.6644,155.702,101.303,98.385,0.00100255,0.122781,20.7579,481.438,0.268235,0.0,1.0
56,13.75,37.3093,43.0608,147.152,101.367,90.8336,0.00194196,0.19492,20.6385,481.128,1.00678,0.0,1.0
64,15.75,37.832,44.889,146.844,101.418,91.7007,0.00272906,0.2594,20.5564,480.848,0.924228,0.0,0.0
72,17.75,39.5726,47.1944,144.412,101.464,87.3499,0.00351143,0.304089,20.5152,480.708,1.37443,0.0,0.0
80,19.75,40.7923,49.7025,146.911,101.5,86.1771,0.00442417,0.341326,20.4733,480.557,1.50172,0.0,0.0
88,21.75,42.3197,52.0055,142.706,101.561,82.7994,0.0052968,0.369816,20.4441,480.307,1.87412,0.0,0.0
96,23.75,43.309,53.2681,148.241,101.602,86.6152,0.00611104,0.395336,20.4181,480.107,1.46442,0.0,0.0
104,25.75,44.7169,54.786,145.557,101.648,89.5689,0.00707575,0.415961,20.3978,479.927,1.16089,0.0,0.0
112,27.75,46.2935,56.8547,146.675,101.688,82.9125,0.00938164,0.444202,20.3605,479.557,1.87302,0.0,0.0
120,29.75,47.7315,59.565,137.394,101.709,72.0514,0.0130936,0.498555,20.2385,479.246,3.16331,0.0,0.0
128,31.75,50.762,64.5462,131.025,101.737,70.4835,0.0171334,0.612862,19.9585,478.786,3.36779,0.0,0.0
136,33.75,55.7052,72.8325,119.925,101.768,72.6756,0.0200183,0.797066,19.6392,478.135,3.08954,0.0,0.0
144,35.75,61.5791,83.5509,103.175,101.786,78.2281,0.0220001,1.02941,19.3076,477.535,2.41556,0.0,0.0
152,37.75,69.1925,96.5447,96.0907,101.797,79.6469,0.0245049,1.28802,18.8901,476.804,2.2516,0.0,0.0
160,39.75,76.9792,111.074,96.0357,101.829,75.6968,0.0285532,1.59325,18.4576,476.053,2.72126,0.0,0.0
168,41.75,85.6056,125.916,101.633,101.823,69.9237,0.0335819,1.91594,18.0981,475.153,3.44866,0.0,0.0
176,43.75,92.745,139.149,93.1735,101.824,64.255,0.0398541,2.18646,17.8208,474.302,4.22459,0.0,0.0
184,45.75,98.9197,151.134,96.6364,101.817,63.4153,0.0471989,2.37254,17.6342,473.421,4.34463,0.0,0.0
192,47.75,105.382,160.072,100.753,101.826,59.1107,0.0544102,2.51792,17.5501,472.38,4.99043,0.0,0.0
200,49.75,110.34,166.928,100.521,101.821,58.522,0.0610418,2.59573,17.5401,471.509,5.08184,0.0,0.0
208,51.75,114.091,171.921,99.5712,101.794,55.7975,0.0651201,2.61686,17.6288,470.518,5.51685,0.0,0.0
216,53.75,115.486,172.274,103.71,101.761,53.8112,0.065827,2.54226,17.8566,469.758,5.84648,0.0,0.0
224,55.75,116.34,172.145,103.919,101.728,57.4029,0.0633361,2.39157,18.102,468.927,5.25065,0.0,0.0
232,57.75,115.174,168.331,110.704,101.687,54.7939,0.0580472,2.19588,18.3701,468.356,5.67379,0.0,0.0
240,59.75,113.436,162.952,133.964,101.642,57.6447,0.050077,1.98017,18.6973,467.816,5.20429,0.0,0.0
248,61.75,111.391,157.754,129.014,101.602,71.5281,0.0412873,1.7078,19.0949,467.466,3.2206,0.0,0.0
256,63.75,106.407,148.398,137.278,101.536,80.3198,0.0310274,1.40331,19.4618,467.365,2.15089,0.0,0.0
264,65.75,103.021,140.727,144.804,101.484,88.9417,0.0232126,1.13462,19.7201,467.255,1.21048,0.0,0.0
272,67.75,97.8881,131.484,141.329,101.396,97.6604,0.0159107,0.906257,20.014,467.365,0.344465,0.0,0.0
280,69.75,93.4002,123.601,153.736,101.333,100.64,0.0109394,0.704641,20.2761,467.325,0.0629431,0.0,0.0
288,71.75,88.6792,115.428,147.663,101.271,101.778,0.00777299,0.531277,20.4725,467.275,-0.0458703,0.0,0.0
296,73.75,84.7198,108.91,149.595,101.31,102.251,0.00612263,0.411193,20.5988,467.325,-0.0848782,0.0,0.0
304,75.75,81.4498,102.188,151.426,101.326,102.125,0.00545438,0.329157,20.6715,467.365,-0.072121,0.0,0.0
312,77.75,77.468,97.0818,149.957,101.368,102.501,0.00538289,0.275791,20.7095,467.335,-0.101977,0.0,0.0
320,79.75,75.4564,91.6134,151.381,101.39,102.23,0.00548598,0.242018,20.7324,467.325,-0.0756888,0.0,0.0
328,81.75,72.6004,87.8749,146.125,101.418,102.448,0.00566138,0.215559,20.7485,467.295,-0.0927782,0.0,0.0
336,83.75,71.174,84.2286,153.184,101.451,102.443,0.00580776,0.197097,20.7582,467.315,-0.0892661,0.0,0.0
344,85.75,68.5626,81.0552,154.322,101.494,102.677,0.00591597,0.183382,20.7665,467.295,-0.106387,0.0,0.0
352,87.75,66.7727,78.1187,147.832,101.527,102.673,0.00609547,0.172534,20.7729,467.315,-0.103007,0.0,0.0
360,89.75,65.6046,75.507,149.089,101.562,103.034,0.00616985,0.164302,20.7787,467.265,-0.132006,0.0,0.0
368,91.75,64.1775,73.0934,153.016,101.606,102.757,0.00606032,0.157639,20.7842,467.215,-0.103331,0.0,0.0
376,93.75,62.9283,71.7624,148.444,101.656,102.869,0.00588889,0.151388,20.79,467.235,-0.10883,0.0,0.0
384,95.75,61.928,69.0875,148.115,101.697,102.919,0.0058549,0.145898,20.7936,467.225,-0.109587,0.0,0.0
392,97.75,60.5917,67.3648,148.258,101.751,102.57,0.00602035,0.141965,20.7952,467.195,-0.0735135,0.0,0.0
400,99.75,59.5055,66.068,151.397,101.792,103.028,0.00630671,0.13929,20.7971,467.225,-0.110707,0.0,0.0
408,101.75,59.0009,64.8951,150.387,101.833,103.316,0.0063964,0.137191,20.798,467.165,-0.132683,0.0,0.0
416,103.75,58.1424,63.6976,153.752,101.867,102.778,0.00627623,0.135602,20.7984,467.185,-0.0816913,0.0,0.0
424,105.75,57.3835,62.8845,154.667,101.911,103.284,0.0061176,0.133869,20.8005,467.135,-0.122799,0.0,0.0
432,107.75,56.9365,61.4393,149.22,101.946,103.092,0.00609673,0.132254,20.8021,467.135,-0.102547,0.0,0.0
440,109.75,56.1875,60.5932,146.199,101.974,103.097,0.00618593,0.131181,20.8028,467.105,-0.100475,0.0,0.0
448,111.75,55.6619,60.0452,150.601,101.991,102.953,0.00628471,0.130396,20.8031,467.115,-0.0861363,0.0,0.0
456,113.75,55.1392,59.3837,150.562,102.026,102.934,0.00620598,0.129708,20.8047,467.095,-0.0813409,0.0,0.0
464,115.75,54.8939,58.8991,149.535,102.044,103.315,0.00619993,0.128995,20.8059,467.125,-0.113603,0.0,0.0
472,117.75,54.2348,57.7434,150.224,102.061,103.443,0.00637659,0.128199,20.8065,467.075,-0.123382,0.0,0.0
480,119.75,54.0636,57.9866,148.277,102.075,103.531,0.00669317,0.128148,20.8067,467.045,-0.129908,0.0,0.0
488,121.75,53.9367,57.6936,153.671,102.074,103.329,0.00694522,0.127968,20.8068,467.085,-0.112152,0.0,0.0
496,123.75,53.3158,57.2962,153.695,102.071,103.258,0.00689292,0.127363,20.8079,467.015,-0.106141,0.0,0.0
504,125.75,53.7464,56.5687,155.432,102.066,102.946,0.00667476,0.126566,20.8086,467.025,-0.0787483,0.0,0.0
512,127.75,53.221,56.5036,151.568,102.049,103.434,0.00650135,0.126157,20.809,467.025,-0.123691,0.0,0.0
520,129.75,52.3471,56.2309,151.359,102.041,103.156,0.00647821,0.125957,20.8091,466.975,-0.0997025,0.0,0.0
528,131.75,52.1878,55.7066,147.142,102.007,103.057,0.00643564,0.12546,20.8104,466.945,-0.0940242,0.0,0.0
536,133.75,52.3192,55.0051,153.416,102,103.296,0.00635842,0.125092,20.811,466.965,-0.115777,0.0,0.0
544,135.75,51.7643,54.6398,148.293,101.938,103.75,0.00627012,0.124484,20.8125,466.945,-0.161651,0.0,0.0
552,137.75,51.1979,54.4459,154.898,101.916,103.053,0.00626406,0.123881,20.8133,466.965,-0.101817,0.0,0.0
560,139.75,51.6065,54.2729,152.552,101.875,102.988,0.00643098,0.123438,20.8136,466.935,-0.0997097,0.0,0.0
568,141.75,51.6418,54.4394,152.684,101.817,102.805,0.00671563,0.123291,20.8137,466.945,-0.0885846,0.0,0.0
576,143.75,51.0976,53.8238,151.778,101.773,102.858,0.00693403,0.12329,20.8138,466.905,-0.0973933,0.0,0.0
584,145.75,51.0936,54.1516,154.951,101.718,102.928,0.00708351,0.123219,20.8136,466.875,-0.108541,0.0,0.0
592,147.75,50.5212,53.3059,155.238,101.661,103.039,0.00714042,0.12315,20.8124,466.885,-0.123561,0.0,0.0
600,149.75,50.7046,54.2751,149.502,101.582,102.479,0.00705317,0.123394,20.8119,466.895,-0.0806352,0.0,0.0
608,151.75,50.5401,53.4192,150.053,101.512,102.28,0.00689959,0.123264,20.8131,466.855,-0.0691133,0.0,0.0
616,153.75,50.2251,53.4352,154.983,101.444,102.385,0.00688979,0.123072,20.8135,466.845,-0.0846756,0.0,0.0
624,155.75,50.0749,52.6946,152.913,101.374,102.587,0.00688855,0.122777,20.8137,466.825,-0.109168,0.0,0.0
632,157.75,49.8062,53.0393,154.685,101.308,102.245,0.00687432,0.122294,20.8138,466.815,-0.0845188,0.0,0.0
640,159.75,49.8172,52.705,153.258,101.221,102.109,0.00684339,0.121598,20.8138,466.825,-0.0801954,0.0,0.0
648,161.75,49.8161,52.4486,152.722,101.145,102.194,0.0067438,0.121193,20.8138,466.805,-0.0946801,0.0,0.0
656,163.75,49.3223,52.5298,152.259,101.074,101.799,0.00664071,0.121216,20.8138,466.785,-0.0656146,0.0,0.0
664,165.75,49.0898,52.407,153.344,100.978,101.933,0.00675529,0.12116,20.8143,466.755,-0.0863593,0.0,0.0
672,167.75,49.42,53.0552,156.495,100.91,101.797,0.00698392,0.12116,20.8153,466.755,-0.0802914,0.0,0.0
680,169.75,49.3143,52.3447,149.99,100.839,101.807,0.00708067,0.120956,20.8158,466.755,-0.0876552,0.0,0.0
688,171.75,49.6726,52.5252,156.215,100.748,101.459,0.00699148,0.120766,20.8166,466.745,-0.0645493,0.0,0.0
696,173.75,48.8978,52.3984,155.538,100.666,101.632,0.00688221,0.120228,20.8176,466.725,-0.0876867,0.0,0.0
704,175.75,49.3629,52.1157,149.973,100.592,101.304,0.00672869,0.119437,20.8181,466.705,-0.0647448,0.0,0.0
712,177.75,49.0273,51.7689,155.925,100.524,101.43,0.00647005,0.118717,20.8183,466.765,-0.082289,0.0,0.0
720,179.75,48.9498,52.1168,149.68,100.463,101.086,0.00624937,0.11825,20.8186,466.655,-0.0567032,0.0,0.0
728,181.75,48.2309,51.1698,154.9,100.395,101.391,0.00620017,0.117599,20.82,466.695,-0.090595,0.0,0.0
736,183.75,48.1629,51.7384,150.465,100.345,100.919,,0.117237,,466.675,-0.0523671,0.0,0.0
744,185.75,48.0521,51.8545,155.37,100.307,101.077,,,,466.695,-0.0702012,0.0,0.0
752,187.75,48.0246,51.1441,151.609,100.267,101.346,,,,466.665,-0.0982711,0.0,0.0
760,189.75,48.2538,51.564,151.757,100.21,101.061,,,,466.675,-0.0775563,0.0,0.0
768,191.75,47.5797,50.9454,152.449,100.181,101.287,,,,466.605,-0.100664,0.0,0.0
774,193.25,48.1979,51.5171,154.625,100.17,100.893,,,,466.595,-0.0660024,0.0,0.0