File: 02_Data/Overstuffed_Chair/Cone/Overstuffed_Chair_Cone_HF50Scan_210326_R1.csv
Names,Time,Stack TC,Smoke TC,Exh Press,Smoke Comp,Smoke Meas,CO Meter,CO2 Meter,O2 Meter,Sample Mass,Ext Coeff,Start Test,Flame Verif
Chan Gain,,500,500,1,1,1,1,1,1,1,1,1.0,1.0
Offset,,0,0,0.138348,0,0,0,0,0,0,0,0.0,0.0
Gain,,1,1,25.011,13.5067,16.616,1,1,1,1.00091,1.04608,1.0,1.0
Units,sec,C,C,Pa,%,%,%,%,%,g,/m,,
Baseline,,32.0121,34.1829,158.822,101.094,97.8943,-0.000461659,0.0750301,20.979,0.000959206,0.295163,,
10,2.25,27.3372,29.4034,158.74,101.307,98.5711,-0.000760018,0.0822683,20.8997,487.404,0.251231,0.0,0.0
20,4.75,28.7688,30.1956,156.41,101.309,97.9662,-0.000752082,0.0860824,20.8954,487.013,0.307868,0.0,0.0
30,7.25,29.0458,30.0476,156.557,101.334,97.9053,-0.000670216,0.0857665,20.8968,485.602,0.31581,0.0,0.0
40,9.75,29.4658,31.4016,161.837,101.335,97.5022,-0.000578609,0.0861359,20.8986,485.662,0.353821,0.0,0.0
50,12.25,29.6324,31.8836,158.346,101.372,97.4844,-0.000473791,0.089722,20.8964,486.103,0.358812,0.0,0.0
60,14.75,29.8361,32.3919,154.177,101.388,94.0997,-0.000254588,0.0964593,20.8881,486.092,0.68457,0.0,1.0
70,17.25,29.7653,32.1641,150.389,101.414,93.5429,0.000307895,0.120565,20.8331,486.113,0.741338,0.0,1.0
80,19.75,31.5137,34.2876,136.48,101.438,94.2341,0.00126301,0.195703,20.7269,485.822,0.675989,0.0,0.0
90,22.25,32.9453,37.7412,144.26,101.451,91.2261,0.00243538,0.268999,20.6319,485.672,0.974791,0.0,0.0
100,24.75,34.3972,40.0679,148.475,101.472,91.7129,0.00333645,0.323271,20.5666,485.402,0.927857,0.0,0.0
110,27.25,36.154,42.5152,136.953,101.49,89.5426,0.00370453,0.353704,20.5402,485.252,1.14929,0.0,0.0
120,29.75,37.3552,44.393,150.313,101.519,92.5774,0.00372298,0.360517,20.5378,485.072,0.846045,0.0,0.0
130,32.25,38.7343,46.4847,153.964,101.551,90.0512,0.0036888,0.356605,20.5454,484.761,1.10279,0.0,0.0
140,34.75,39.1008,46.8105,149.038,101.567,89.786,0.00368341,0.355519,20.5501,484.641,1.13131,0.0,0.0
150,37.25,40.1984,48.8015,145.859,101.577,88.6988,0.00396895,0.368693,20.5335,484.341,1.24399,0.0,0.0
160,39.75,40.972,49.4826,146.304,101.603,88.7906,0.0047981,0.374269,20.5241,484.131,1.23688,0.0,0.0
170,42.25,42.1059,50.4347,147.646,101.606,87.3363,0.00647492,0.390794,20.4912,483.981,1.38872,0.0,0.0
180,44.75,42.9639,53.1688,146.035,101.626,84.4571,0.00889583,0.437511,20.4,483.6,1.69811,0.0,0.0
190,47.25,45.0443,56.3473,140.12,101.657,78.2677,0.0110436,0.523531,20.2788,483.12,2.39925,0.0,0.0
200,49.75,48.715,61.4354,123.056,101.658,80.3472,0.0134554,0.624314,20.062,482.639,2.1587,0.0,0.0
210,52.25,52.9156,68.1169,126.019,101.689,83.0722,0.0148932,0.802562,19.8059,482.009,1.85548,0.0,0.0
220,54.75,58.0408,77.0205,124.263,101.682,84.7365,0.0156706,0.970692,19.6081,481.468,1.67287,0.0,0.0
230,57.25,63.3664,85.9769,117.451,101.702,81.8492,0.0167209,1.12014,19.3981,480.768,1.99273,0.0,0.0
240,59.75,69.4763,95.7936,128.365,101.686,80.4871,0.0182432,1.27901,19.1877,480.127,2.1453,0.0,0.0
250,62.25,73.4239,103.549,114.568,101.706,75.8753,0.0197575,1.38922,19.0484,479.436,2.68858,0.0,0.0
260,64.75,79.1856,110.222,118.222,101.7,76.4244,0.0216437,1.46513,18.9692,478.636,2.62184,0.0,0.0
270,67.25,83.0545,115.315,111.458,101.704,75.0883,0.0238199,1.50702,18.9334,477.905,2.78406,0.0,0.0
280,69.75,86.2368,120.057,121.429,101.686,73.1117,0.0260993,1.54929,18.9006,477.144,3.02725,0.0,0.0
290,72.25,88.3307,125.29,117.781,101.704,70.0575,0.0276221,1.5786,18.8947,476.414,3.42037,0.0,0.0
300,74.75,91.6849,127.4,112.192,101.693,69.7254,0.0285538,1.57166,18.9427,475.653,3.46301,0.0,0.0
310,77.25,92.6901,128.74,111.007,101.683,70.2092,0.0291377,1.51807,19.0179,474.902,3.39871,0.0,0.0
320,79.75,93.1397,128.014,113.995,101.675,69.085,0.0295646,1.4409,19.1488,474.292,3.54604,0.0,0.0
330,82.25,92.8717,126.078,119.413,101.674,66.5409,0.0296449,1.33752,19.3116,473.641,3.89021,0.0,0.0
340,84.75,91.5728,123.585,130.651,101.658,68.3608,0.0292514,1.23496,19.4573,473.011,3.64124,0.0,0.0
350,87.25,89.868,119.956,136.864,101.634,67.6555,0.0283086,1.11634,19.6349,472.51,3.73422,0.0,0.0
360,89.75,87.7057,116.358,134.771,101.625,71.5595,0.0268471,1.00513,19.7675,472.04,3.21861,0.0,0.0
370,92.25,85.6085,112.531,127.941,101.602,71.3506,0.0242998,0.92994,19.8614,471.649,3.24339,0.0,0.0
380,94.75,83.935,108.856,138.988,101.583,77.7271,0.0199587,0.843376,19.9835,471.439,2.45622,0.0,0.0
390,97.25,81.6811,104.553,136.283,101.556,88.7814,0.0151204,0.712254,20.125,471.369,1.23358,0.0,0.0
400,99.75,78.5266,98.5728,148.389,101.544,95.9358,0.00986924,0.547133,20.3241,471.269,0.521336,0.0,0.0
410,102.25,75.1026,92.9097,145.12,101.517,95.8339,0.00643131,0.40759,20.5192,471.299,0.528668,0.0,0.0
420,104.75,71.6548,87.0585,148.793,101.512,99.0467,0.00435854,0.29735,20.6592,471.289,0.22556,0.0,0.0
430,107.25,69.0949,82.6864,151.638,101.486,99.064,0.00343806,0.221122,20.7555,471.319,0.221651,0.0,0.0
440,109.75,65.8105,77.7328,155.576,101.472,98.8672,0.00318135,0.17067,20.8092,471.289,0.238626,0.0,0.0
450,112.25,63.3521,73.5624,152.268,101.452,99.5482,0.0035806,0.138827,20.8415,471.269,0.173811,0.0,0.0
460,114.75,61.1887,70.4297,149.899,101.459,99.4194,0.00445114,0.117637,20.864,471.289,0.186362,0.0,0.0
470,117.25,58.6934,66.9773,153.384,101.425,99.1071,0.00519317,0.103533,20.8751,471.329,0.21218,0.0,0.0
480,119.75,57.2141,64.0515,155.428,101.438,98.8099,0.00557616,0.0937195,20.6718,471.339,0.24089,0.0,0.0
490,122.25,55.8906,61.409,150.502,101.413,99.7262,0.00591326,0.0873334,20.3895,471.309,0.153951,0.0,0.0
500,124.75,54.0389,59.9959,157.443,101.417,98.9651,0.00611892,0.0851045,20.5079,471.289,0.224589,0.0,0.0
510,127.25,53.5146,57.8059,152.424,101.421,99.0148,0.00612194,0.0845506,20.7431,471.309,0.220356,0.0,0.0
520,129.75,52.2565,56.2856,152.661,101.414,99.1466,0.00606033,0.0848327,20.8251,471.309,0.207511,0.0,0.0
530,132.25,51.5518,54.6022,153.893,101.425,98.7197,0.00605365,0.0851911,20.8537,471.309,0.24812,0.0,0.0
540,134.75,50.1267,53.2993,154.027,101.42,98.8682,0.00611607,0.0853645,20.8637,471.319,0.233798,0.0,0.0
550,137.25,49.5021,52.0116,152.689,101.434,98.848,0.00611767,0.0856285,20.8657,471.309,0.236948,0.0,0.0
560,139.75,48.6475,50.9424,157.921,101.423,98.8733,0.00604402,0.0859925,20.8664,471.289,0.233588,0.0,0.0
570,142.25,48.0659,50.26,155.246,101.436,98.5483,0.00602786,0.0863741,20.8671,471.319,0.265034,0.0,0.0
580,144.75,47.2873,49.0402,159.076,101.431,98.6314,0.0060769,0.086841,20.8673,471.269,0.256846,0.0,0.0
590,147.25,46.7288,48.5724,157.27,101.443,98.7536,0.0060744,0.0869497,20.867,471.249,0.246565,0.0,0.0
600,149.75,46.5781,48.138,155.584,101.446,98.7557,0.00610428,0.0871817,20.8659,471.269,0.246675,0.0,0.0
610,152.25,46.2322,47.3955,151.448,101.456,98.7268,0.00610529,0.0875187,20.8668,471.279,0.250255,0.0,0.0
620,154.75,45.4208,47.339,157.921,101.456,98.8627,0.00611178,0.0880127,20.8674,471.219,0.237596,0.0,0.0
630,157.25,45.1729,46.3579,155.399,101.474,98.7389,0.00603332,0.0882515,20.8661,471.199,0.250765,0.0,0.0
640,159.75,44.8399,46.341,154.774,101.476,98.8434,0.00606089,0.0884753,20.8655,471.189,0.241211,0.0,0.0
650,162.25,44.8345,46.2675,152.482,101.483,98.9362,0.00619222,0.0887361,20.865,471.239,0.233197,0.0,0.0
660,164.75,44.2682,46.2074,158.742,101.488,98.7597,0.00615919,0.0889791,20.8646,471.199,0.250062,0.0,0.0
670,167.25,44.1538,45.1543,154.926,101.497,99.2663,0.0061494,0.0893163,20.8645,471.199,0.203899,0.0,0.0
680,169.75,43.3963,44.9095,157.965,101.507,98.6152,0.00627193,0.0896325,20.8644,471.169,0.265214,0.0,0.0
690,172.25,43.6846,44.9332,152.369,101.514,99.3703,0.00636331,0.0897765,20.8639,471.179,0.195859,0.0,0.0
700,174.75,43.4901,44.6084,154.201,101.528,98.8977,0.00638933,0.0901177,20.8637,471.179,0.240909,0.0,0.0
710,177.25,43.3602,44.391,156.995,101.519,98.7288,0.0062918,0.0902851,20.8636,471.169,0.255732,0.0,0.0
720,179.75,43.0951,44.4112,155.925,101.546,98.8246,0.00626859,0.0905291,20.8635,471.159,0.24925,0.0,0.0
730,182.25,42.9771,44.1404,155.538,101.537,98.7623,0.00639103,0.090702,20.8635,471.119,0.254261,0.0,0.0
740,184.75,42.8516,44.6876,155.284,101.558,99.2536,0.00643064,0.0909791,20.8635,471.129,0.210621,0.0,0.0
750,187.25,42.2869,44.2484,153.161,101.555,99.0721,0.00616706,0.0911724,20.8635,471.099,0.227159,0.0,0.0
760,189.75,42.2422,43.9112,150.156,101.579,99.2268,0.00596757,0.0914569,20.8635,471.119,0.214968,0.0,0.0
770,192.25,42.3748,43.5654,153.894,101.58,98.7085,0.00606931,0.0916917,20.862,471.089,0.263093,0.0,0.0
780,194.75,42.1134,43.3726,154.989,101.607,98.6761,0.00607912,0.0918351,20.8619,471.059,0.268568,0.0,0.0
790,197.25,42.1191,43.4809,154.918,101.604,98.8895,0.00602975,0.0920997,20.863,471.079,0.248514,0.0,0.0
800,199.75,41.9262,43.2911,154.502,101.622,99.1598,0.00612365,0.0922948,20.8618,471.069,0.225031,0.0,0.0
810,202.25,41.8109,43.2339,157.901,101.632,99.2197,0.0062243,0.0924374,20.8613,471.079,0.220464,0.0,0.0
820,204.75,41.5771,43.5666,157.26,101.638,98.9058,0.00641491,0.092637,20.8617,471.029,0.250023,0.0,0.0
830,207.25,41.2176,43.279,152.495,101.664,99.0685,0.00642261,0.0928791,20.8619,471.019,0.237278,0.0,0.0
840,209.75,41.2022,42.9112,155.342,101.653,98.635,0.00640345,0.0932292,20.862,471.019,0.276556,0.0,0.0
850,212.25,41.0276,42.6568,155.074,101.686,99.2024,0.00642504,0.0933272,20.862,471.019,0.226932,0.0,0.0
860,214.75,41.3757,42.3056,155.19,101.67,99.028,0.00640076,0.0935354,20.8614,470.999,0.241631,0.0,0.0
870,217.25,41.1621,42.4833,153.039,101.697,98.852,0.00627131,0.0934922,20.8606,470.989,0.260331,0.0,0.0
880,219.75,41.2469,42.6513,157.757,101.688,98.5812,0.00621273,0.0936185,20.86,470.979,0.284757,0.0,0.0
890,222.25,40.4211,42.2772,158.069,101.705,98.9357,0.00628426,0.0937643,20.8587,470.969,0.253311,0.0,0.0
900,224.75,40.7247,42.5506,156.737,101.695,98.8429,0.0063863,0.0939566,20.8585,470.929,0.261067,0.0,0.0
910,227.25,39.7194,41.895,158.414,101.714,99.1816,,0.0940833,,470.919,0.231384,0.0,0.0
920,229.75,40.3215,41.9129,159.159,101.709,98.8104,,,,470.919,0.26527,0.0,0.0
930,232.25,40.2411,41.9918,157.998,101.709,98.7684,,,,470.899,0.269253,0.0,0.0
940,234.75,40.1693,42.5121,158.449,101.714,98.8251,,,,470.899,0.26435,0.0,0.0
948,236.75,40.0368,42.0006,157.501,101.707,99.0538,,,,470.899,0.242545,0.0,0.0