File: 02_Data/Overstuffed_Chair/Cone/Overstuffed_Chair_Cone_HF25Scan_210325_R3.csv
Names,Time,Stack TC,Smoke TC,Exh Press,Smoke Comp,Smoke Meas,CO Meter,CO2 Meter,O2 Meter,Sample Mass,Ext Coeff,Start Test,Flame Verif
Chan Gain,,500,500,1,1,1,1,1,1,1,1,1.0,1.0
Offset,,0,0,0.138348,0,0,0,0,0,0,0,0.0,0.0
Gain,,1,1,25.011,13.5067,16.616,1,1,1,1.00091,1.04608,1.0,1.0
Units,sec,C,C,Pa,%,%,%,%,%,g,/m,,
Baseline,,20.0618,21.172,169.226,99.9473,99.0958,-0.000163427,0.082978,20.8406,-0.340018,0.0785151,,
15,3.5,17.6845,18.261,170.547,99.7334,99.0057,-0.000130238,0.0871799,20.8367,494.901,0.0672008,0.0,0.0
30,7.25,18.1814,18.4643,166.624,99.7429,98.8992,-0.000280296,0.088327,20.8376,495.491,0.0779481,0.0,0.0
45,11,18.2809,19.0381,167.11,99.7433,98.8662,-0.000231282,0.0881305,20.8396,495.811,0.0810442,0.0,0.0
60,14.75,18.1725,19.2413,162.519,99.7606,98.9534,-0.000154325,0.0879197,20.8404,494.87,0.0745461,0.0,0.0
75,18.5,17.9696,19.885,172.034,99.7903,98.8971,1.00573e-05,0.0879398,20.8406,494.77,0.0824959,0.0,0.0
90,22.25,18.8208,20.5269,168.824,99.8043,98.9803,0.000125677,0.0882009,20.8379,494.75,0.0760726,0.0,0.0
105,26,18.7909,19.4642,167.979,99.8216,98.9423,-0.000237777,0.0888773,20.837,494.75,0.0811895,0.0,0.0
120,29.75,18.0232,20.2849,165.439,99.8241,98.8581,-0.000215713,0.089741,20.8315,494.75,0.0892267,0.0,0.0
135,33.5,18.6055,20.236,169.853,99.8447,98.5275,0.000152147,0.0908489,20.8311,494.69,0.121861,0.0,0.0
150,37.25,18.3277,20.156,167.906,99.8711,97.2821,0.000318013,0.0901701,20.8339,494.63,0.24101,0.0,0.0
165,41,18.6792,21.1445,171.639,99.8768,96.9271,0.000184705,0.0885905,20.8359,494.56,0.275084,0.0,0.0
180,44.75,19.0064,20.6167,169.329,99.9007,95.8476,0.000170997,0.0873096,20.8363,494.51,0.380056,0.0,0.0
195,48.5,19.4608,20.7791,166.835,99.9131,96.0803,0.000127911,0.0862782,20.8354,494.43,0.358935,0.0,0.0
210,52.25,19.1645,20.8991,167.169,99.9341,95.484,7.26483e-05,0.0855029,20.8385,494.36,0.417995,0.0,0.0
225,56,18.7326,20.9686,166.823,99.9617,95.195,0.000305391,0.0848092,20.8383,494.29,0.44835,0.0,0.0
240,59.75,20.3159,22.8189,160.607,99.9725,98.1289,0.00144742,0.0958021,20.7708,493.799,0.170792,0.0,0.0
255,63.5,22.0116,26.1269,163.494,99.991,97.8242,0.00205658,0.138491,20.6834,493.609,0.201036,0.0,1.0
270,67.25,22.969,28.0173,155.747,100.007,97.6158,0.00217373,0.188445,20.6202,493.399,0.222119,0.0,1.0
285,71,24.7608,30.2926,159.717,100.016,97.6279,0.00237577,0.226713,20.574,493.149,0.22177,0.0,0.0
300,74.75,26.4949,33.1071,159.607,100.023,97.0417,0.00267829,0.270235,20.5252,492.839,0.277637,0.0,0.0
315,78.5,27.9387,34.744,156.621,100.024,97.3009,0.0026823,0.298497,20.5185,492.588,0.253281,0.0,0.0
330,82.25,28.5163,35.6083,157.042,100.015,95.7381,0.00284581,0.312417,20.5211,492.308,0.400991,0.0,0.0
345,86,30.2862,38.2028,151.279,100.017,96.8759,0.00300804,0.33215,20.4915,492.088,0.292762,0.0,0.0
360,89.75,30.8841,39.4422,153.203,100.033,92.3132,0.00366157,0.345669,20.4706,491.758,0.737001,0.0,0.0
375,93.5,33.3632,42.4987,152.327,100.042,90.7616,0.00419494,0.369596,20.4072,491.397,0.893344,0.0,0.0
390,97.25,34.6038,44.3338,160.136,100.03,95.0332,0.00405837,0.395488,20.3808,491.067,0.470197,0.0,0.0
405,101,35.1915,45.6095,146.437,100.041,92.5637,0.00425773,0.414514,20.3599,490.687,0.712815,0.0,0.0
420,104.75,36.9761,47.5087,146.719,100.028,89.8696,0.00493326,0.431045,20.3305,490.266,0.982644,0.0,0.0
435,108.5,39.0227,50.8543,145.881,100.04,90.9573,0.00536736,0.460612,20.2756,489.916,0.873387,0.0,0.0
450,112.25,40.0927,52.2129,144.797,100.048,91.4147,0.005639,0.482465,20.253,489.476,0.828079,0.0,0.0
465,116,41.7004,53.8697,144.159,100.043,87.963,0.0062556,0.499252,20.2316,489.015,1.18081,0.0,0.0
480,119.75,42.7019,55.0972,145.932,100.038,89.6668,0.00693238,0.517314,20.2183,488.635,1.00436,0.0,0.0
495,123.5,43.4066,56.2298,144.956,100.042,87.7516,0.00741336,0.52398,20.2287,488.214,1.20278,0.0,0.0
510,127.25,44.3361,56.7148,144.93,100.033,88.4559,0.00782477,0.527595,20.2303,487.774,1.12867,0.0,0.0
525,131,44.9871,58.067,147.823,100.024,85.5949,0.00878872,0.537913,20.2037,487.294,1.42953,0.0,0.0
540,134.75,45.7972,59.0187,148.631,100.021,83.736,0.00933478,0.552093,20.1948,486.843,1.63067,0.0,0.0
555,138.5,46.4946,59.7539,143.682,100.007,81.1433,0.00985637,0.558459,20.2026,486.373,1.91807,0.0,0.0
570,142.25,46.8208,59.8627,150.452,99.9939,83.8278,0.00971782,0.558875,20.2249,485.922,1.61816,0.0,0.0
585,146,46.9905,60.0269,144.011,99.9708,81.5469,0.0104519,0.554677,20.241,485.482,1.86917,0.0,0.0
600,149.75,46.9671,58.6486,150.857,99.9378,85.8515,0.0106121,0.551897,20.2603,485.012,1.39412,0.0,0.0
615,153.5,47.0366,58.7749,151.991,99.897,85.2527,0.00973383,0.544179,20.2762,484.561,1.4546,0.0,0.0
630,157.25,46.827,57.7986,148.077,99.8587,85.6583,0.00905838,0.535312,20.2868,484.171,1.40752,0.0,0.0
645,161,47.0561,58.0188,155.401,99.829,85.8064,0.00903821,0.53157,20.2836,483.7,1.38895,0.0,0.0
660,164.75,47.344,58.2194,149.365,99.7952,83.7999,0.00974624,0.534838,20.2621,483.21,1.60296,0.0,0.0
675,168.5,47.193,57.9029,154.006,99.7688,88.0046,0.00865262,0.533396,20.2833,482.85,1.1513,0.0,0.0
690,172.25,46.403,56.4127,154.095,99.7425,88.8129,0.00738252,0.506811,20.3434,482.559,1.06498,0.0,0.0
705,176,46.6382,56.5064,150.233,99.7206,85.6482,0.00764106,0.489475,20.3525,482.129,1.39591,0.0,0.0
720,179.75,46.0918,56.1977,148.328,99.7054,89.1475,0.00725856,0.483968,20.3544,481.789,1.02705,0.0,0.0
735,183.5,46.1377,55.8971,160.39,99.6959,92.7524,0.00621458,0.473081,20.3718,481.498,0.662435,0.0,0.0
750,187.25,45.9423,55.1855,146.953,99.6951,92.6114,0.00562301,0.462252,20.3833,481.218,0.676316,0.0,0.0
765,191,45.7874,53.862,153.528,99.6798,94.6874,0.00465902,0.444556,20.4166,480.878,0.471491,0.0,0.0
780,194.75,44.9813,52.6618,157.543,99.6918,95.9541,0.00436752,0.421016,20.452,480.678,0.350652,0.0,0.0
795,198.5,44.0248,51.3987,154.006,99.6905,97.0717,0.00420965,0.392372,20.4939,480.567,0.244279,0.0,0.0
810,202.25,42.7505,49.4139,152.564,99.7206,96.2928,0.00361087,0.358498,20.5375,480.387,0.320971,0.0,0.0
825,206,42.0958,47.9157,156.041,99.7355,97.4844,0.00297859,0.323652,20.5846,480.257,0.209477,0.0,0.0
840,209.75,40.9567,46.1218,154.876,99.7693,97.4302,0.00269646,0.292532,20.6173,480.247,0.217696,0.0,0.0
855,213.5,39.8598,44.476,159.323,99.7977,97.5625,0.00222096,0.26293,20.6539,480.217,0.207854,0.0,0.0
870,217.25,38.8138,42.1793,159.5,99.836,98.85,0.00201535,0.234139,20.6896,480.167,0.091079,0.0,0.0
885,221,37.3009,40.1076,164.028,99.8933,99.1588,0.00201734,0.206039,20.7301,480.187,0.067722,0.0,0.0
900,224.75,35.538,38.2847,162.199,99.9407,99.5766,0.00194818,0.17841,20.767,480.197,0.0334903,0.0,0.0
915,228.5,34.977,36.4044,166.845,99.9807,99.5351,0.00162923,0.153268,20.7942,480.167,0.0409922,0.0,0.0
930,232.25,33.2042,34.4642,163.278,100.015,99.5396,0.00122491,0.134093,20.8086,480.267,0.0437491,0.0,0.0
945,236,31.9201,32.8653,163.115,100.051,99.5036,0.00104386,0.120116,20.8184,480.267,0.0503583,0.0,0.0
960,239.75,31.3726,31.9311,164.575,100.095,99.6481,0.000612431,0.11179,20.8225,480.297,0.0410477,0.0,0.0
975,243.5,30.4751,31.5582,160.113,100.139,99.6329,8.56023e-05,0.105684,20.8257,480.287,0.0464911,0.0,0.0
990,247.25,29.8411,30.3117,162.801,100.172,99.6238,1.52208e-07,0.100658,20.8295,480.307,0.0503528,0.0,0.0
1005,251,29.3595,29.2813,164.521,100.228,99.6725,-0.000100138,0.0963058,20.8336,480.307,0.0510023,0.0,0.0
1020,254.75,28.8582,29.1487,170.368,100.284,99.8043,-0.000290394,0.0930837,20.8356,480.317,0.0439669,0.0,0.0
1035,258.5,28.4034,28.31,164.193,100.352,99.8028,-5.35975e-05,0.0906013,20.8359,480.307,0.0503648,0.0,0.0
1050,262.25,28.4823,27.8632,162.692,100.451,99.9422,8.52395e-06,0.0888489,20.8379,480.327,0.0466326,0.0,0.0
1065,266,27.5431,27.3231,164.205,100.504,99.9149,-3.10068e-05,0.0871157,20.8399,480.317,0.053965,0.0,0.0
1080,269.75,27.3066,27.3684,163.583,100.559,99.924,3.2701e-05,0.0859013,20.8405,480.317,0.0581682,0.0,0.0
1095,273.5,26.946,27.3576,161.87,100.622,100.033,0.000112787,0.0851993,20.8406,480.337,0.053915,0.0,0.0
1110,277.25,26.5681,26.3629,165.493,100.665,99.9955,3.31309e-05,0.0847861,20.8407,480.357,0.0611916,0.0,0.0
1125,281,26.5938,26.2378,165.84,100.723,100.193,-8.64647e-05,0.0842332,20.8407,480.327,0.0484793,0.0,0.0
1140,284.75,26.3952,26.0451,164.279,100.769,100.051,-6.3074e-05,0.0838468,20.841,480.327,0.065612,0.0,0.0
1155,288.5,26.2574,25.9812,164.316,100.827,100.274,-0.000218325,0.0836361,20.8413,480.337,0.0504725,0.0,0.0
1170,292.25,25.7778,26.4811,169.006,100.865,100.338,-0.000437875,0.0834642,20.8404,480.327,0.0481159,0.0,0.0
1185,296,25.8722,25.5854,162.044,100.894,100.301,-0.000351264,0.0833174,20.8389,480.307,0.0540792,0.0,0.0
1200,299.75,24.9336,26.0193,166.933,100.936,100.206,-0.00025217,0.0832268,20.84,480.337,0.0665438,0.0,0.0
1215,303.5,24.9945,25.2573,164.554,100.951,100.255,-0.000351729,0.0830445,20.8401,480.347,0.0635199,0.0,0.0
1230,307.25,24.981,25.1034,168.215,100.98,100.352,-0.000538383,0.0831395,20.8413,480.337,0.0572355,0.0,0.0
1245,311,24.8364,24.4708,164.991,100.971,100.25,-0.000536116,0.0831748,20.8411,480.357,0.0657825,0.0,0.0
1260,314.75,25.1532,25.3481,166.831,100.996,100.393,-0.000179925,0.0831917,20.8397,480.367,0.0549785,0.0,0.0
1275,318.5,24.6773,25.191,166.189,101.004,100.227,5.62786e-05,0.0832142,20.8401,480.327,0.0708595,0.0,0.0
1290,322.25,24.2436,24.7923,164.363,101.019,100.337,-0.000139162,0.0830692,20.8403,480.317,0.062138,0.0,0.0
1305,326,24.4269,25.0192,166.472,101.046,100.442,-0.000277594,0.082921,20.842,480.317,0.0550144,0.0,0.0
1320,329.75,24.4022,24.9734,167.617,101.033,100.314,-0.000164366,0.0830382,20.8425,480.337,0.0655077,0.0,0.0
1335,333.5,24.4253,25.0056,165.975,101.033,100.312,-0.000135713,0.0829359,20.8417,480.317,0.0657304,0.0,0.0
1350,337.25,24.601,24.4589,161.436,101.03,100.394,-0.000299196,0.0829732,20.8425,480.327,0.0579182,0.0,0.0
1365,341,23.9198,24.2918,165.868,101.04,100.236,,0.0830744,,480.357,0.0733265,0.0,0.0
1380,344.75,23.7494,24.0851,164.135,101.051,100.344,,,,480.357,0.0643716,0.0,0.0
1395,348.5,23.4977,24.4534,160.743,101.019,100.425,,,,480.337,0.0541564,0.0,0.0
1401,350,23.8161,24.1881,165.579,101.033,100.557,,,,480.367,0.0433071,0.0,0.0