File: 02_Data/Overstuffed_Chair/Cone/Overstuffed_Chair_Cone_HF50Scalar_210326_R3.csv
LABORATORY,FSRI
TEST IDENT,Stack_HF50_3
OPERATOR,Morrissey
MATERIAL,"1"" PUF, 1.75"" PE Batting, PE Fabric"
ORIENTATION,Horizontal
HEAT FLUX,50
SURF AREA,0.01
C FACTOR,0.0386052
SPEC HOLDER DIFF,-97
SPECIMEN MASS,15.87
SCAN TIME,0.25
O2 DELAY TIME,11
CO DELAY TIME,11
CO2 DELAY TIME,8
FLOW FACTOR,1
SCAN COUNT,920
TIME TO IGN,13
END OF TEST SCAN,440
END OF TEST TIME,110
TEST STATUS,1
PRE TEST CMT,test w/o grid or frame
POST TEST CMT,foiled folded near end of test. Fabric folded onto spark igniter causing weigh system spike.