File: 01_Data/Particleboard/HFM/Particleboard_Density_Wet_R1.csv
,Particleboard_1_WET
Sample Mass [g],537.0
Sample Volume [cm3],785.2
Sample Density [kg/m3],684