File: 01_Data/Particleboard/HFM/Particleboard_Density_Wet_R3.csv
,Particleboard_3_WET
Sample Mass [g],528.2
Sample Volume [cm3],787.6
Sample Density [kg/m3],671