File: 01_Data/Particleboard/HFM/Particleboard_Ignition_Temp_Properties.csv
Thermal Conductivity (W/m-K),0.134
Heat Capacity (J/kg-K),1578.0
Density (kg/m3),677.0