File: 01_Data/Particleboard/HFM/Particleboard_Density_Dry_R1.csv
,Particleboard_1_DRY
Sample Mass [g],497.5
Sample Volume [cm3],785.2
Sample Density [kg/m3],634