File: 01_Data/Particleboard/HFM/Particleboard_Density_Dry_R3.csv
,Particleboard_3_DRY
Sample Mass [g],488.7
Sample Volume [cm3],787.6
Sample Density [kg/m3],621