File: 01_Data/Particleboard/HFM/Particleboard_Density_Wet_R2.csv
,Particleboard_2_WET
Sample Mass [g],532.9
Sample Volume [cm3],788.0
Sample Density [kg/m3],676