File: 01_Data/Particleboard/HFM/Particleboard_Density_Dry_R2.csv
,Particleboard_2_DRY
Sample Mass [g],493.0
Sample Volume [cm3],788.0
Sample Density [kg/m3],626