File: 01_Data/Nylon/HFM/Nylon_Density_Wet_R1.csv
,Nylon_Carpet_High_Pile_WET_1
Sample Mass [g],109.8
Sample Volume [cm3],572.7
Sample Density [kg/m3],192