File: 01_Data/Nylon/HFM/Nylon_Density_Wet_R2.csv
,Nylon_Carpet_High_Pile_WET_2
Sample Mass [g],110.6
Sample Volume [cm3],579.4
Sample Density [kg/m3],191