File: 01_Data/LatexPillow_A_Outer_Fabric/STA/N2/10K_min/Latex_Pillow_Outer_Fabric_A_STA_N2_10KData_220801_R1.csv
##Temp./Â°C,Time/min,Mass loss(subtr.2)/mg,DSC(subtr.2)/mW,Sensit./(uV/mW)
49.387,10.00917,0.00396, 3.207829e-02,1.07026
52.887,11.37214,0.005242514,      0.29699,1.0693
56.387,11.85126,0.00568637,      0.39254,1.06832
59.887,12.2654,0.00569061,      0.43397,1.06733
63.387,12.6568,0.006238,      0.45001,1.06633
66.887,13.03832,0.005708286,      0.47655,1.06531
70.387,13.4138,0.005710195,      0.49118,1.06428
73.887,13.7852,0.006552255,      0.46895,1.06324
77.387,14.15078,0.007022665,      0.39918,1.06219
80.887,14.512,0.007919111,      0.34357,1.06112
84.387,14.86859,0.00701927,      0.32810,1.06004
87.887,15.22135,0.0083698,      0.31624,1.05894
91.387,15.5707,0.00969837,      0.29742,1.05784
94.887,15.9184,0.008339963,      0.28609,1.05672
98.387,16.2643,0.008343625,      0.28888,1.05559
101.887,16.60816,0.008338966,      0.30335,1.05444
105.387,16.95187,0.00932822,      0.31671,1.05328
108.887,17.29389,0.008881404,      0.33129,1.05211
112.387,17.63597,0.008349985,      0.35611,1.05093
115.887,17.97704,0.008342853,      0.36897,1.04973
119.387,18.318,0.009310686,      0.37532,1.04852
122.887,18.65854,0.009905103,      0.38218,1.04729
126.387,18.99909,0.00857033,      0.40550,1.04606
129.887,19.33801,0.008570939,      0.42402,1.0448
133.387,19.67626,0.009880378,      0.43839,1.04354
136.887,20.01344,0.008569651,      0.44557,1.04226
140.387,20.35088,0.009569736,      0.45226,1.04097
143.887,20.68802,0.00911498,      0.45497,1.03967
147.387,21.02542,0.008245177,      0.46241,1.03835
150.887,21.36129,0.007910001,      0.46671,1.03701
154.387,21.69686,0.00823,      0.46989,1.03567
157.887,22.03205,0.00831441,      0.47044,1.03431
161.387,22.36711,0.00823999,      0.47344,1.03294
164.887,22.70146,0.007144797,      0.47139,1.03155
168.387,23.037,0.00659,      0.46958,1.03015
171.887,23.372,0.0056,      0.47232,1.02873
175.387,23.70682,0.004283058,      0.47324,1.02731
178.887,24.04156,0.00314525,      0.47850,1.02586
182.387,24.3762,0.00195075,      0.47675,1.02441
185.887,24.70955,2.80358e-06,      0.48922,1.02294
189.387,25.04399,0.001037516,      0.49170,1.02145
192.887,25.37695,-0.0022675,      0.49652,1.01995
196.387,25.71045,-0.001969999,      0.49808,1.01844
199.887,26.04393,-0.003845017,      0.49532,1.01691
203.387,26.3767,-0.00428,      0.50461,1.01537
206.887,26.71,-0.0042819,      0.49661,1.01382
210.387,27.0428,-0.005589984,      0.49812,1.01225
213.887,27.37643,-0.00592236,      0.49680,1.01066
217.387,27.70973,-0.00724,      0.49588,1.00907
220.887,28.04242,-0.007580007,      0.52691,1.00745
224.387,28.37554,-0.00856023,      0.52933,1.00583
227.887,28.7084,-0.00856,      0.56153,1.00418
231.387,29.0408,-0.007569989,      0.59556,1.00253
234.887,29.3735,-0.01020827,      0.65844,1.00086
238.387,29.70702,-0.01042831,      0.73795,0.99917
241.887,30.0407,-0.008951854,      0.85818,0.99747
245.387,30.3744,-0.00975765,      1.07847,0.99576
248.887,30.70798,-0.01041235,      1.90981,0.99403
252.387,31.0449,-0.01035078,      4.03102,0.99229
255.887,31.3826,-0.01009953,      4.26079,0.99053
259.387,31.71521,-0.009358732,      1.64550,0.98876
262.887,32.04527,-0.01043,      0.87405,0.98697
266.387,32.3765,-0.01108415,      0.73302,0.98517
269.887,32.7087,-0.00877514,      0.70425,0.98335
273.387,33.04201,-0.00911,      0.68856,0.98152
276.887,33.3748,-0.0107525,      0.68850,0.97967
280.387,33.7087,-0.00977,      0.68106,0.97781
283.887,34.04325,-0.009827542,      0.68361,0.97594
287.387,34.37753,-0.00910851,      0.67513,0.97404
290.887,34.7115,-0.009208143,      0.68855,0.97214
294.387,35.04565,-0.01076,      0.69373,0.97022
297.887,35.38126,-0.01084715,      0.70044,0.96828
301.387,35.71709,-0.01043,      0.69913,0.96633
304.887,36.052,-0.009081808,      0.71531,0.96437
308.387,36.38777,-0.009765948,      0.71175,0.96239
311.887,36.723,-0.01101422,      0.70945,0.96039
315.387,37.05768,-0.009440516,      0.73517,0.95838
318.887,37.39439,-0.01074999,      0.74796,0.95635
322.387,37.7312,-0.01207561,      0.74237,0.95431
325.887,38.06793,-0.01207,      0.74294,0.95226
329.387,38.40461,-0.01206989,      0.74230,0.95019
332.887,38.74103,-0.01141,      0.73288,0.9481
336.387,39.07775,-0.01251793,      0.74211,0.946
339.887,39.4142,-0.01436728,      0.74267,0.94389
343.387,39.7524,-0.01306,      0.75644,0.94176
346.887,40.09044,-0.01341657,      0.75751,0.93961
350.387,40.4281,-0.01404842,      0.78763,0.93745
353.887,40.76594,-0.01537013,      0.79159,0.93528
357.387,41.10365,-0.01822701,      0.81194,0.93309
360.887,41.44169,-0.01942805,      0.82987,0.93088
364.387,41.78,-0.02081953,      0.85701,0.92866
367.887,42.11909,-0.02370853,      0.90012,0.92643
371.387,42.45774,-0.02798232,      0.91254,0.92418
374.887,42.7973,-0.03259848,      0.88933,0.92191
378.387,43.13708,-0.03918707,      0.90260,0.91964
381.887,43.47663,-0.05006475,      0.95470,0.91734
385.387,43.8161,-0.06630689,      0.95623,0.91503
388.887,44.1566,-0.08518632,      0.98840,0.91271
392.387,44.49671,-0.11081,      1.00692,0.91037
395.887,44.8371,-0.14031,      1.07923,0.90802
399.387,45.17797,-0.17816,      1.17548,0.90565
402.887,45.5199,-0.22568,      1.10758,0.90327
406.387,45.86162,-0.28716,      1.27255,0.90087
409.887,46.2041,-0.3642,      1.47219,0.89846
413.387,46.54618,-0.45806,      1.66990,0.89603
416.887,46.88884,-0.57041,      1.86952,0.89359
420.387,47.23168,-0.70566,      2.00437,0.89114
423.887,47.57456,-0.86404,      2.17037,0.88867
427.387,47.9167,-1.05225,      2.52124,0.88618
430.887,48.26013,-1.26942,      2.65578,0.88368
434.387,48.60281,-1.51311,      2.69999,0.88117
437.887,48.94553,-1.78032,      2.69189,0.87865
441.387,49.28952,-2.06449,      2.59044,0.8761
444.887,49.63215,-2.33922,      2.30694,0.87355
448.387,49.97484,-2.58457,      1.85199,0.87098
451.887,50.31668,-2.77405,      1.31399,0.8684
455.387,50.6582,-2.90697,      0.78631,0.8658
458.887,51.00112,-2.99278,      0.39618,0.86319
462.387,51.3435,-3.05287, 8.287695e-02,0.86056
465.887,51.6864,-3.09584,     -0.17178,0.85793
469.387,52.02986,-3.12966,     -0.41765,0.85527
472.887,52.37357,-3.15574,     -0.61402,0.85261
476.387,52.7175,-3.17465,     -0.75546,0.84993
479.887,53.0603,-3.19102,     -0.76749,0.84723
483.387,53.40436,-3.20073,     -0.74473,0.84453
486.887,53.7488,-3.21083,     -0.74503,0.84181
490.387,54.0938,-3.21784,     -0.76904,0.83908
493.887,54.4387,-3.22423,     -0.78988,0.83633
497.387,54.78415,-3.23011,     -0.82510,0.83357
500.887,55.12985,-3.23543,     -0.86416,0.8308
504.387,55.4759,-3.23918,     -0.89216,0.82801
507.887,55.8204,-3.24463,     -0.92907,0.82522
511.387,56.16625,-3.24596,     -0.98555,0.82241
514.887,56.5136,-3.24865,     -1.02771,0.81958
518.387,56.85957,-3.25123,     -1.04733,0.81675
521.887,57.2072,-3.2527,     -1.09644,0.8139
525.387,57.55471,-3.25419,     -1.13213,0.81104
528.887,57.9027,-3.25617,     -1.15374,0.80816
532.387,58.2503,-3.25913,     -1.17193,0.80528
535.887,58.5976,-3.26276,     -1.20246,0.80238
539.387,58.9452,-3.26453,     -1.21943,0.79947
542.887,59.29245,-3.26869,     -1.24095,0.79655
546.387,59.63985,-3.27099,     -1.26338,0.79362
549.887,59.9868,-3.27494,     -1.28742,0.79068
553.387,60.33426,-3.27494,     -1.29324,0.78772
556.887,60.68199,-3.27978,     -1.32471,0.78475
560.387,61.03082,-3.28021,     -1.33359,0.78178
563.887,61.3798,-3.28485,     -1.37063,0.77879
567.387,61.72954,-3.28714,     -1.37508,0.77579
570.887,62.0781,-3.29165,     -1.40608,0.77277
574.387,62.42706,-3.29185,     -1.43759,0.76975
577.887,62.7752,-3.29317,     -1.44734,0.76672
581.387,63.12426,-3.29848,     -1.47578,0.76368
584.887,63.4732,-3.29976,     -1.48679,0.76062
588.387,63.82306,-3.30239,     -1.49738,0.75756
591.887,64.1742,-3.30371,     -1.52438,0.75449
595.387,64.52436,-3.30628,     -1.54485,0.7514
598.887,64.87481,-3.30799,     -1.56137,0.74831
602.387,65.2243,-3.30958,     -1.57038,0.7452
605.887,65.57455,-3.31293,             ,0.74209
609.387,65.9248,-3.31354,             ,0.73897
612.887,66.27532,-3.31721,             ,0.73584
616.387,66.6249,-3.32051,             ,0.73269
619.887,66.97516,-3.3205,             ,0.72954
623.387,67.32536,-3.32457,             ,0.72639
626.887,67.67607,-3.32457,             ,0.72322
630.387,68.02767,-3.3278,             ,0.72004
633.887,68.3789,-3.32951,             ,0.71686
637.387,68.73051,-3.33083,             ,0.71366
640.887,69.08176,-3.33402,             ,0.71046
644.387,69.43242,-3.33313,             ,0.70725
647.887,69.7838,-3.33511,             ,0.70404
651.387,70.13479,-3.33642,             ,0.70081
654.887,70.48571,-3.33838,             ,0.69758
658.387,70.83749,-3.34005,             ,0.69434
661.887,71.18945,-3.3407,             ,0.69109
665.387,71.54044,-3.34069,             ,0.68784
668.887,71.8929,-3.34202,             ,0.68458
672.387,72.2443,-3.34336,             ,0.68131
675.887,72.59613,-3.34399,             ,0.67804
679.387,72.94821,-3.34531,             ,0.67476
682.887,73.3004,-3.34663,             ,0.67147
686.387,73.6528,-3.34794,             ,0.66818
689.887,74.0057,-3.34795,             ,0.66488
693.387,74.35717,-3.34913,             ,0.66158
696.887,74.70934,-3.35026,             ,0.65827
700.387,75.0621,-3.35157,             ,0.65495
703.887,75.41498,-3.35289,             ,0.65163
707.387,75.7675,-3.35289,             ,0.64831
710.887,76.12039,-3.35553,             ,0.64498
714.387,76.47364,-3.35684,             ,0.64164
717.887,76.82722,-3.35552,             ,0.6383
721.387,77.18015,-3.35816,             ,0.63496
724.887,77.53387,-3.35651,             ,0.63161
728.387,77.88707,-3.35914,             ,0.62826
731.887,78.24088,-3.35914,             ,0.62491
735.387,78.5947,-3.36113,             ,0.62155
738.887,78.94879,-3.36215,             ,0.61819
742.387,79.30253,-3.3633,             ,0.61482
745.887,79.6561,-3.36376,             ,0.61145
749.287,79.9987,-3.36508,             ,0.60818