File: 01_Data/LatexPillow_A_Outer_Fabric/STA/N2/10K_min/Latex_Pillow_Outer_Fabric_A_STA_N2_10KData_220802_R3.csv
##Temp./Â°C,Time/min,Mass loss(subtr.2)/mg,DSC(subtr.2)/mW,Sensit./(uV/mW)
49.433,10.01,0.03283,0.02281154,1.07025
51.833,11.19007,0.03490802,0.33741,1.06959
54.233,11.57,0.03687805,0.48964,1.06892
56.633,11.88326,0.03876647,0.58518,1.06825
59.033,12.16997,0.04128025,0.63889,1.06757
61.433,12.44363,0.03997975,0.67916,1.06689
63.833,12.70854,0.03992211,0.70641,1.0662
66.233,12.96932,0.04117158,0.74027,1.0655
68.633,13.2271,0.0411594,0.76612,1.0648
71.033,13.4831,0.04130537,0.77815,1.06409
73.433,13.7358,0.04380786,0.7812,1.06338
75.833,13.9867,0.04529896,0.73769,1.06265
78.233,14.2359,0.0451102,0.69855,1.06193
80.633,14.48375,0.04644037,0.67805,1.0612
83.033,14.72926,0.04617814,0.67342,1.06046
85.433,14.9723,0.04647861,0.66942,1.05971
87.833,15.21442,0.04652901,0.66856,1.05896
90.233,15.45435,0.04638798,0.67463,1.0582
92.633,15.6949,0.04772412,0.67083,1.05744
95.033,15.933,0.04842278,0.66362,1.05667
97.433,16.1696,0.04776014,0.68726,1.0559
99.833,16.4062,0.04907,0.70269,1.05512
102.233,16.64187,0.04783493,0.71999,1.05433
104.633,16.87622,0.05006049,0.73092,1.05353
107.033,17.111,0.05184488,0.74403,1.05273
109.433,17.34662,0.05051252,0.76885,1.05193
111.833,17.5812,0.04984173,0.78723,1.05112
114.233,17.81554,0.05049677,0.7988,1.0503
116.633,18.05,0.05181982,0.82874,1.04947
119.033,18.2839,0.0518186,0.82682,1.04864
121.433,18.51718,0.05182013,0.83485,1.0478
123.833,18.75025,0.05314036,0.85915,1.04696
126.233,18.98366,0.05346992,0.87881,1.04611
128.633,19.21629,0.05435716,0.9044,1.04525
131.033,19.4485,0.05313994,0.9167,1.04439
133.433,19.68036,0.05456,0.92922,1.04352
135.833,19.9124,0.05389997,0.94122,1.04265
138.233,20.14361,0.05456156,0.95265,1.04177
140.633,20.37588,0.05587868,0.96358,1.04088
143.033,20.60626,0.05456222,0.97374,1.03999
145.433,20.83641,0.05456,0.9909,1.03908
147.833,21.0672,0.05489095,0.99739,1.03818
150.233,21.29735,0.05589249,1.00153,1.03726
152.633,21.52797,0.05589005,1.00459,1.03635
155.033,21.75809,0.05576995,1.01628,1.03542
157.433,21.9889,0.05637485,1.02762,1.03449
159.833,22.21955,0.05775461,1.02217,1.03355
162.233,22.44898,0.05709007,1.03529,1.0326
164.633,22.6795,0.05775058,1.05166,1.03165
167.033,22.9091,0.05648685,1.05381,1.03069
169.433,23.1392,0.05643076,1.06173,1.02973
171.833,23.36874,0.05643,1.06522,1.02876
174.233,23.5981,0.05644162,1.08504,1.02778
176.633,23.82706,0.05741986,1.09702,1.02679
179.033,24.056,0.05677865,1.09653,1.0258
181.433,24.28489,0.05771608,1.10843,1.0248
183.833,24.51347,0.05644,1.11387,1.0238
186.233,24.74174,0.05511963,1.12455,1.02279
188.633,24.97034,0.05709036,1.12964,1.02177
191.033,25.19837,0.05609389,1.13504,1.02075
193.433,25.42665,0.0554059,1.14727,1.01972
195.833,25.6559,0.05411765,1.15039,1.01868
198.233,25.8846,0.05412001,1.15342,1.01764
200.633,26.11307,0.05408789,1.16412,1.01659
203.033,26.3425,0.05281168,1.16864,1.01553
205.433,26.5708,0.05281,1.18452,1.01446
207.833,26.79982,0.05379975,1.19623,1.01339
210.233,27.0284,0.05115998,1.20837,1.01232
212.633,27.25807,0.05248,1.21442,1.01123
215.033,27.48573,0.05116,1.21748,1.01014
217.433,27.71329,0.05121155,1.2155,1.00904
219.833,27.94333,0.04977912,1.2535,1.00794
222.233,28.17197,0.05083952,1.25438,1.00683
224.633,28.39913,0.05044252,1.27543,1.00571
227.033,28.62823,0.04981712,1.28903,1.00459
229.433,28.85603,0.05083053,1.31544,1.00345
231.833,29.08431,0.04820001,1.3583,1.00232
234.233,29.313,0.04820114,1.40532,1.00117
236.633,29.54236,0.04819007,1.43975,1.00002
239.033,29.7712,0.04819007,1.49774,0.99886
241.433,29.99969,0.04689834,1.57038,0.9977
243.833,30.22792,0.04687722,1.70456,0.99652
246.233,30.45727,0.04951909,1.91475,0.99534
248.633,30.68497,0.0482,2.40932,0.99416
251.033,30.916,0.04810269,3.88806,0.99296
253.433,31.14817,0.04820533,4.95331,0.99176
255.833,31.3799,0.0482,4.86196,0.99056
258.233,31.6076,0.04687976,3.25498,0.98934
260.633,31.8346,0.04721114,2.05131,0.98812
263.033,32.06116,0.04819997,1.61762,0.9869
265.433,32.28705,0.04654551,1.49294,0.98566
267.833,32.5137,0.04819932,1.45401,0.98442
270.233,32.74244,0.04984,1.44922,0.98317
272.633,32.97181,0.04988034,1.41913,0.98192
275.033,33.202,0.04885,1.41721,0.98065
277.433,33.43011,0.05017003,1.41072,0.97938
279.833,33.65871,0.04906038,1.40174,0.97811
282.233,33.8857,0.04886075,1.40448,0.97682
284.633,34.1167,0.04984308,1.40514,0.97553
287.033,34.3471,0.04853066,1.40737,0.97424
289.433,34.57586,0.04885982,1.40511,0.97293
291.833,34.80422,0.04886184,1.40689,0.97162
294.233,35.03399,0.04886,1.41163,0.9703
296.633,35.26095,0.04911772,1.41811,0.96898
299.033,35.49388,0.05018021,1.42124,0.96765
301.433,35.7231,0.04984567,1.42487,0.96631
303.833,35.95286,0.04919,1.42778,0.96496
306.233,36.18357,0.05114618,1.43411,0.96361
308.633,36.41397,0.0503751,1.43328,0.96225
311.033,36.64452,0.04918,1.41744,0.96088
313.433,36.87523,0.04918,1.42656,0.9595
315.833,37.1055,0.05015787,1.44573,0.95812
318.233,37.33587,0.05016999,1.45877,0.95673
320.633,37.56673,0.04916608,1.45439,0.95534
323.033,37.79759,0.05016208,1.44831,0.95394
325.433,38.02797,0.04885,1.45606,0.95253
327.833,38.2564,0.04885,1.48369,0.95111
330.233,38.48851,0.04885,1.47721,0.94969
332.633,38.7185,0.04885,1.4663,0.94826
335.033,38.95001,0.04885,1.48749,0.94682
337.433,39.18071,0.04884977,1.48866,0.94537
339.833,39.41173,0.04754125,1.4699,0.94392
342.233,39.64291,0.04754079,1.49442,0.94246
344.633,39.8744,0.04755125,1.48631,0.941
347.033,40.10617,0.04621996,1.48461,0.93952
349.433,40.33671,0.04721,1.54215,0.93804
351.833,40.56803,0.04608181,1.53499,0.93656
354.233,40.80186,0.04852,1.53785,0.93506
356.633,41.03354,0.04818995,1.54702,0.93356
359.033,41.26482,0.04552005,1.55971,0.93205
361.433,41.49585,0.04353222,1.55391,0.93054
363.833,41.72675,0.04227,1.57803,0.92902
366.233,41.96157,0.04029,1.56762,0.92749
368.633,42.19359,0.03898,1.58539,0.92595
371.033,42.4251,0.03825455,1.62147,0.92441
373.433,42.65781,0.03639743,1.6664,0.92286
375.833,42.89158,0.03103402,1.67556,0.9213
378.233,43.12377,0.02646015,1.70442,0.91974
380.633,43.35584,0.01978871,1.74104,0.91817
383.033,43.58789,0.01295322,1.75422,0.91659
385.433,43.8188,0.003957482,1.76071,0.915
387.833,44.05393,-0.007274061,1.78286,0.91341
390.233,44.28868,-0.0199606,1.80248,0.91181
392.633,44.523,-0.03629533,1.81816,0.91021
395.033,44.75591,-0.05368157,1.73205,0.90859
397.433,44.9886,-0.07431064,1.69363,0.90697
399.833,45.22228,-0.09787298,1.66495,0.90535
402.233,45.45531,-0.12536,1.65181,0.90371
404.633,45.68915,-0.15565,1.6676,0.90207
407.033,45.92365,-0.19013,1.72978,0.90043
409.433,46.1578,-0.22809,1.76728,0.89877
411.833,46.39213,-0.27227,1.7886,0.89711
414.233,46.6276,-0.3193,1.81498,0.89544
416.633,46.86244,-0.36938,1.7891,0.89377
419.033,47.09619,-0.42711,1.91471,0.89209
421.433,47.33139,-0.49144,2.06893,0.8904
423.833,47.5662,-0.57082,2.22196,0.88871
426.233,47.80134,-0.66223,2.4591,0.887
428.633,48.03665,-0.77171,2.63734,0.8853
431.033,48.27235,-0.89199,2.74324,0.88358
433.433,48.5088,-1.02774,2.92386,0.88186
435.833,48.74504,-1.18242,3.11749,0.88013
438.233,48.9801,-1.35099,3.18589,0.87839
440.633,49.21673,-1.52914,3.19162,0.87665
443.033,49.45247,-1.71825,3.16793,0.8749
445.433,49.68817,-1.90721,3.07597,0.87315
447.833,49.92259,-2.09235,2.91209,0.87139
450.233,50.15679,-2.27111,2.67574,0.86962
452.633,50.39161,-2.42727,2.36617,0.86784
455.033,50.62643,-2.55147,2.00989,0.86606
457.433,50.86105,-2.6458,1.62704,0.86428
459.833,51.09553,-2.7121,1.32457,0.86248
462.233,51.33057,-2.76022,1.10677,0.86068
464.633,51.56563,-2.80074,0.94958,0.85887
467.033,51.8006,-2.82794,0.81248,0.85706
469.433,52.03613,-2.85144,0.65632,0.85524
471.833,52.27228,-2.87166,0.54245,0.85341
474.233,52.5078,-2.88837,0.44755,0.85158
476.633,52.74423,-2.90166,0.38109,0.84974
479.033,52.9795,-2.9132,0.43873,0.84789
481.433,53.21513,-2.92361,0.44647,0.84604
483.833,53.4512,-2.93126,0.416,0.84418
486.233,53.6873,-2.93965,0.35222,0.84232
488.633,53.92329,-2.94734,0.29789,0.84045
491.033,54.15981,-2.95251,0.25391,0.83857
493.433,54.39677,-2.95778,0.20321,0.83669
495.833,54.6343,-2.96321,0.16589,0.8348
498.233,54.87152,-2.96811,0.12689,0.8329
500.633,55.1098,-2.97106,0.08723414,0.831
503.033,55.3479,-2.97608,0.05064735,0.82909
505.433,55.5856,-2.97951,0.03238901,0.82718
507.833,55.82416,-2.98294,0.0162165,0.82526
510.233,56.0619,-2.98556,-0.005362496,0.82333
512.633,56.3003,-2.98819,-0.03529576,0.8214
515.033,56.53815,-2.99083,-0.04599424,0.81946
517.433,56.7763,-2.99474,-0.06284384,0.81752
519.833,57.0138,-2.99777,-0.08888507,0.81557
522.233,57.25173,-3.00012,-0.10791,0.81362
524.633,57.48965,-3.00136,-0.12518,0.81165
527.033,57.7274,-3.00327,-0.13561,0.80969
529.433,57.9659,-3.00531,-0.15608,0.80772
531.833,58.20482,-3.00795,-0.17594,0.80574
534.233,58.44304,-3.00961,-0.16615,0.80375
536.633,58.6815,-3.01224,-0.18853,0.80176
539.033,58.9197,-3.01224,-0.19085,0.79977
541.433,59.1576,-3.01354,-0.19365,0.79777
543.833,59.39615,-3.01487,-0.2061,0.79576
546.233,59.6342,-3.01719,-0.21274,0.79375
548.633,59.8729,-3.01849,-0.21573,0.79173
551.033,60.11147,-3.0211,-0.2283,0.78971
553.433,60.35005,-3.02014,-0.22863,0.78768
555.833,60.5881,-3.02245,-0.22594,0.78565
558.233,60.8268,-3.02376,-0.2249,0.78361
560.633,61.065,-3.02507,-0.22313,0.78157
563.033,61.30372,-3.02607,-0.22767,0.77952
565.433,61.543,-3.0277,-0.21756,0.77746
567.833,61.7819,-3.02903,-0.23068,0.7754
570.233,62.0202,-3.03035,-0.22505,0.77334
572.633,62.2587,-3.03235,-0.22325,0.77127
575.033,62.49765,-3.03364,-0.22751,0.76919
577.433,62.7372,-3.03566,-0.21291,0.76711
579.833,62.9768,-3.03695,-0.21446,0.76503
582.233,63.21617,-3.03895,-0.22824,0.76294
584.633,63.4563,-3.0396,-0.22281,0.76084
587.033,63.6965,-3.04087,-0.223,0.75875
589.433,63.9369,-3.04326,-0.21641,0.75664
591.833,64.17737,-3.04352,-0.22643,0.75453
594.233,64.41842,-3.04746,-0.2321,0.75242
596.633,64.6592,-3.04879,-0.2323,0.7503
599.033,64.8995,-3.04879,-0.22731,0.74818
600.033,64.9997,-3.04977,-0.20321,0.74729