File: 01_Data/Countertop_Plastic_LaminateA/MCC/Countertop_Plastic_LaminateA_MCC_30K_min_211103_R2.txt
Sample ID:	C:\MCC\MCC Cal\Countertop_Plastic_LaminateA_MCC_30K_min_211103_R2.txt
Sample Weight (mg):	4.49
Heating Rate (C/s):	0.5
Combustor Temp (C):	900
N2 Flow Rate (cc/min):	80
O2 Flow Rate (cc/min):	20
Calibration File:	C:\MCC\MCC Cal\Coeff1 JN10440_30_210304.txt.txt
T Correction Coefficients:	0	1.024463	0
Time Shift (s):	14
*
Time (s)	Temperature (C)	N2 flow rate (cc/min)	O2 flow rate (cc/min)	Flow Rate (cc/min)	Oxygen (%)	HRR (W/g)	Heating rate (C/s)
0.000	108.549	80.002	19.994	103.059	20.057	0.023	-0.019
8.000	108.500	79.999	19.994	103.072	20.058	-0.080	-0.003
16.000	108.504	80.007	19.993	103.013	20.063	-0.384	-0.032
24.000	108.462	79.999	19.996	103.020	20.067	-0.681	-0.006
32.000	108.489	80.011	19.993	103.032	20.064	-0.493	0.001
40.001	108.531	79.998	19.996	103.045	20.062	-0.319	0.010
48.001	108.690	80.002	20.001	103.134	20.052	0.373	0.045
56.000	109.190	80.010	19.993	103.134	20.048	0.667	0.057
64.000	109.945	79.994	19.994	103.176	20.039	1.328	0.109
72.000	111.085	80.007	19.992	103.210	20.033	1.712	0.168
80.000	112.544	80.010	19.995	103.228	20.030	1.967	0.204
88.000	114.457	80.005	19.995	103.252	20.019	2.780	0.249
96.001	116.728	80.007	19.992	103.259	20.019	2.737	0.352
104.000	119.252	80.008	19.996	103.265	20.017	2.870	0.336
112.000	122.111	80.006	19.997	103.269	20.019	2.772	0.388
120.001	125.107	80.006	19.995	103.275	20.021	2.605	0.348
128.000	128.270	80.005	19.995	103.271	20.021	2.607	0.402
136.000	131.603	80.003	19.994	103.281	20.023	2.452	0.428
144.000	135.001	80.007	19.995	103.286	20.015	3.012	0.419
152.000	138.580	80.007	19.993	103.276	20.018	2.831	0.465
160.000	142.186	80.008	19.995	103.277	20.020	2.689	0.451
168.000	145.959	80.010	19.994	103.276	20.020	2.704	0.507
176.000	149.796	80.006	19.994	103.279	20.021	2.599	0.509
184.000	153.566	80.006	19.995	103.286	20.023	2.469	0.453
192.000	157.431	80.009	19.995	103.282	20.020	2.683	0.503
200.000	161.277	80.006	19.994	103.275	20.018	2.838	0.482
208.000	165.211	80.005	19.995	103.281	20.019	2.780	0.500
216.000	169.117	80.007	19.993	103.257	20.019	2.772	0.495
224.000	173.103	80.007	19.994	103.256	20.018	2.801	0.516
232.000	177.039	80.006	19.995	103.253	20.018	2.801	0.473
240.000	181.061	80.006	19.996	103.255	20.021	2.607	0.508
248.000	185.102	80.010	19.994	103.257	20.022	2.509	0.489
256.000	189.132	80.008	19.994	103.254	20.020	2.696	0.498
264.000	193.084	80.004	19.994	103.254	20.019	2.750	0.511
272.000	197.044	80.006	19.995	103.241	20.022	2.505	0.460
280.000	201.007	80.007	19.994	103.253	20.019	2.774	0.453
288.000	205.032	80.007	19.993	103.248	20.021	2.589	0.487
296.000	209.014	80.006	19.994	103.238	20.021	2.618	0.492
304.000	212.969	80.007	19.995	103.238	20.022	2.554	0.507
312.000	216.950	80.006	19.994	103.225	20.024	2.381	0.475
320.001	220.913	80.008	19.994	103.225	20.018	2.850	0.466
328.000	224.850	80.006	19.994	103.235	20.021	2.581	0.521
336.000	228.807	80.010	19.995	103.243	20.020	2.707	0.447
344.000	232.753	80.007	19.994	103.236	20.015	3.021	0.498
352.000	236.700	80.005	19.995	103.230	20.014	3.129	0.471
360.000	240.576	80.008	19.994	103.241	20.011	3.300	0.479
368.000	244.539	80.007	19.994	103.245	20.012	3.216	0.468
376.000	248.532	80.007	19.995	103.255	20.009	3.474	0.614
384.000	252.434	80.007	19.994	103.254	19.995	4.466	0.469
392.000	256.453	80.007	19.994	103.259	19.996	4.389	0.429
400.000	260.451	80.006	19.996	103.254	19.987	5.043	0.496
408.000	264.506	80.007	19.994	103.256	19.979	5.612	0.481
416.000	268.545	80.007	19.995	103.276	19.971	6.166	0.504
424.000	272.601	80.008	19.994	103.253	19.962	6.845	0.481
432.000	276.634	80.006	19.995	103.281	19.951	7.663	0.520
440.000	280.687	80.005	19.995	103.268	19.937	8.623	0.501
448.000	284.709	80.007	19.995	103.260	19.921	9.780	0.500
456.000	288.689	80.006	19.994	103.291	19.905	10.922	0.516
464.000	292.669	80.005	19.994	103.273	19.888	12.156	0.494
472.000	296.619	80.008	19.994	103.265	19.871	13.361	0.495
480.000	300.435	80.007	19.994	103.273	19.841	15.501	0.467
488.001	304.335	80.008	19.995	103.323	19.825	16.646	0.458
496.001	308.322	80.007	19.996	103.342	19.789	19.276	0.515
504.000	312.404	80.009	19.994	103.370	19.757	21.538	0.509
512.000	316.474	80.006	19.995	103.378	19.720	24.251	0.506
520.000	320.494	80.006	19.995	103.375	19.677	27.311	0.512
528.000	324.606	80.006	19.995	103.398	19.627	30.902	0.496
536.000	328.655	80.008	19.994	103.418	19.579	34.392	0.523
544.000	332.775	80.007	19.995	103.446	19.538	37.300	0.528
552.000	336.855	80.007	19.995	103.426	19.503	39.835	0.509
560.000	341.000	80.008	19.995	103.417	19.490	40.773	0.534
568.000	345.057	80.008	19.994	103.384	19.496	40.321	0.492
576.001	349.122	80.008	19.994	103.327	19.543	36.933	0.514
584.000	353.156	80.009	19.994	103.282	19.617	31.592	0.515
592.000	357.231	80.006	19.995	103.224	19.703	25.443	0.507
600.000	361.358	80.007	19.994	103.217	19.780	19.883	0.507
608.000	365.459	80.007	19.995	103.199	19.842	15.460	0.531
616.000	369.493	80.007	19.995	103.185	19.889	12.069	0.503
624.000	373.557	80.007	19.996	103.176	19.920	9.865	0.518
632.000	377.617	80.007	19.994	103.177	19.944	8.153	0.537
640.000	381.620	80.009	19.994	103.178	19.952	7.580	0.517
648.000	385.647	80.008	19.995	103.178	19.959	7.023	0.525
656.000	389.663	80.007	19.995	103.178	19.962	6.808	0.525
664.000	393.721	80.008	19.994	103.180	19.955	7.301	0.516
672.000	397.721	80.011	19.994	103.174	19.953	7.511	0.523
680.000	401.752	80.008	19.995	103.185	19.946	7.966	0.526
688.000	405.749	80.008	19.995	103.177	19.944	8.146	0.526
696.000	409.761	80.007	19.995	103.180	19.939	8.457	0.499
704.000	413.833	80.005	19.995	103.166	19.932	8.950	0.513
712.000	417.847	80.004	19.996	103.162	19.927	9.306	0.510
720.000	421.964	80.007	19.995	103.178	19.927	9.355	0.520
728.000	425.994	80.008	19.994	103.155	19.922	9.718	0.510
736.000	430.019	80.008	19.994	103.180	19.919	9.917	0.485
744.000	434.062	80.008	19.994	103.175	19.925	9.465	0.513
752.000	438.256	80.009	19.993	103.163	19.930	9.115	0.462
760.001	442.250	80.007	19.994	103.170	19.930	9.105	0.532
768.000	446.321	80.007	19.994	103.162	19.932	8.991	0.518
776.000	450.336	80.006	19.995	103.150	19.940	8.399	0.512
784.000	454.381	80.007	19.995	103.143	19.942	8.297	0.528
792.000	458.434	80.005	19.995	103.161	19.944	8.137	0.530
800.000	462.511	80.006	19.995	103.157	19.952	7.522	0.516
808.000	466.529	80.008	19.995	103.166	19.962	6.860	0.516
816.000	470.620	80.008	19.996	103.153	19.961	6.920	0.515
824.000	474.686	80.008	19.995	103.152	19.966	6.516	0.499
832.000	478.726	80.010	19.994	103.145	19.971	6.168	0.487
840.000	482.824	80.008	19.994	103.156	19.970	6.270	0.519
848.000	486.852	80.006	19.994	103.174	19.978	5.669	0.487
856.000	490.955	80.005	19.994	103.159	19.981	5.450	0.509
864.000	495.160	80.007	19.994	103.151	19.989	4.910	0.524
872.000	499.280	80.008	19.995	103.173	19.990	4.812	0.507
880.000	503.420	80.006	19.995	103.147	19.994	4.510	0.511
888.000	507.543	80.007	19.995	103.159	19.994	4.514	0.499
896.000	511.608	80.008	19.995	103.140	19.993	4.580	0.508
904.000	515.735	80.007	19.995	103.142	19.998	4.232	0.518
912.000	519.816	80.008	19.994	103.142	19.998	4.262	0.514
920.000	523.959	80.008	19.995	103.141	20.007	3.630	0.513
928.000	528.076	80.006	19.995	103.161	20.011	3.339	0.502
936.000	532.258	80.006	19.995	103.171	20.015	3.024	0.519
944.000	536.410	80.007	19.995	103.144	20.013	3.177	0.535
952.000	540.483	80.007	19.994	103.152	20.014	3.108	0.517
960.000	544.549	80.006	19.994	103.148	20.019	2.746	0.514
968.001	548.670	80.007	19.995	103.157	20.017	2.862	0.494
976.000	552.761	80.008	19.994	103.156	20.021	2.577	0.507
984.000	556.879	80.007	19.995	103.152	20.024	2.359	0.496
992.000	561.021	80.007	19.995	103.148	20.030	1.984	0.539
1000.000	565.068	80.008	19.996	103.138	20.033	1.745	0.487
1008.000	569.159	80.008	19.996	103.146	20.033	1.726	0.512
1016.000	573.336	80.006	19.995	103.137	20.032	1.821	0.550
1024.000	577.419	80.006	19.994	103.163	20.035	1.600	0.489
1032.000	581.622	80.006	19.995	103.171	20.038	1.413	0.524
1040.000	585.767	80.005	19.995	103.152	20.039	1.308	0.497
1048.000	589.949	80.007	19.995	103.165	20.042	1.117	0.523
1056.000	594.158	80.009	19.994	103.156	20.041	1.183	0.548
1064.000	598.331	80.007	19.995	103.152	20.042	1.082	0.556
1072.000	602.434	80.008	19.995	103.151	20.040	1.248	0.469
1080.000	606.522	80.010	19.994	103.156	20.044	0.966	0.500
1088.000	610.586	80.007	19.996	103.145	20.043	1.055	0.497
1096.000	614.638	80.007	19.996	103.150	20.048	0.674	0.501
1104.000	618.651	80.007	19.995	103.139	20.047	0.719	0.498
1112.000	622.767	80.008	19.994	103.165	20.050	0.550	0.558
1120.000	626.784	80.005	19.994	103.148	20.050	0.505	0.505
1128.000	630.784	80.004	19.995	103.165	20.050	0.498	0.490
1136.000	634.975	80.007	19.995	103.151	20.056	0.097	0.528
1144.000	638.952	80.008	19.994	103.158	20.050	0.521	0.466
1152.000	642.968	80.007	19.994	103.145	20.049	0.575	0.502
1160.000	646.939	80.008	19.996	103.149	20.052	0.365	0.498
1168.000	650.987	80.009	19.994	103.154	20.059	-0.111	0.507
1176.000	655.035	80.006	19.994	103.173	20.057	0.006	0.493
1184.000	659.103	80.006	19.995	103.144	20.058	-0.054	0.515
1192.000	663.108	80.005	19.995	103.149	20.057	0.051	0.495
1200.000	667.153	80.006	19.995	103.138	20.053	0.297	0.480
1208.000	671.202	80.006	19.995	103.137	20.056	0.068	0.522
1216.000	675.294	80.008	19.995	103.138	20.056	0.119	0.515
1224.000	679.321	80.009	19.995	103.133	20.057	0.054	0.500
1232.001	683.408	80.007	19.994	103.138	20.056	0.095	0.507
1240.000	687.437	80.008	19.993	103.137	20.060	-0.208	0.472
1248.001	691.480	80.010	19.994	103.140	20.068	-0.754	0.494
1256.000	695.463	80.007	19.995	103.136	20.068	-0.748	0.491
1264.000	699.341	80.008	19.995	103.127	20.070	-0.896	0.446
1272.000	703.204	80.007	19.995	103.118	20.069	-0.820	0.447
1280.000	707.071	80.006	19.995	103.111	20.065	-0.542	0.480
1288.000	710.967	80.007	19.996	103.133	20.070	-0.940	0.475
1296.000	714.983	80.007	19.995	103.122	20.070	-0.921	0.516
1304.000	719.007	80.009	19.994	103.128	20.065	-0.565	0.508
1312.000	723.028	80.008	19.994	103.136	20.065	-0.579	0.496
1320.000	727.027	80.009	19.994	103.094	20.064	-0.447	0.484
1328.000	731.068	80.009	19.994	103.134	20.065	-0.548	0.487
1336.000	735.104	80.007	19.994	103.134	20.062	-0.371	0.492
1344.001	739.234	80.007	19.994	103.127	20.064	-0.470	0.522
1352.000	743.299	80.008	19.996	103.119	20.064	-0.511	0.485
1352.500	743.606	80.008	19.995	103.124	20.064	-0.492	0.517