File: 01_Data/Countertop_Plastic_LaminateA/MCC/Countertop_Plastic_LaminateA_MCC_30K_min_211103_R1.txt
Sample ID:	C:\MCC\MCC Cal\Countertop_Plastic_LaminateA_MCC_30K_min_211103_R1.txt
Sample Weight (mg):	5
Heating Rate (C/s):	0.5
Combustor Temp (C):	900
N2 Flow Rate (cc/min):	80
O2 Flow Rate (cc/min):	20
Calibration File:	C:\MCC\MCC Cal\Coeff1 JN10440_30_210304.txt.txt
T Correction Coefficients:	0	1.024463	0
Time Shift (s):	14
*
Time (s)	Temperature (C)	N2 flow rate (cc/min)	O2 flow rate (cc/min)	Flow Rate (cc/min)	Oxygen (%)	HRR (W/g)	Heating rate (C/s)
-0.001	110.875	80.007	19.994	103.026	20.057	-0.026	0.000
8.000	110.861	80.006	19.995	103.066	20.052	0.328	0.011
16.000	110.955	80.005	19.995	103.127	20.045	0.779	0.032
24.000	111.384	80.004	19.995	103.210	20.027	1.895	0.097
32.000	112.273	80.005	19.995	103.231	20.015	2.708	0.123
40.000	113.738	80.002	19.996	103.252	20.014	2.767	0.215
47.999	115.501	80.003	19.995	103.272	20.010	3.004	0.232
55.999	117.587	80.005	19.994	103.249	20.012	2.858	0.282
63.999	119.810	80.007	19.995	103.237	20.013	2.847	0.290
71.999	122.322	80.004	19.995	103.238	20.015	2.674	0.323
79.999	125.002	80.006	19.996	103.251	20.013	2.827	0.373
88.000	127.773	80.007	19.994	103.252	20.015	2.682	0.336
95.999	130.660	80.004	19.994	103.252	20.013	2.792	0.333
103.999	133.669	80.005	19.995	103.262	20.015	2.706	0.362
111.999	136.793	80.005	19.995	103.263	20.010	3.045	0.392
119.999	139.999	80.004	19.995	103.273	20.006	3.281	0.404
127.999	143.288	80.005	19.996	103.275	20.001	3.589	0.432
136.000	146.669	80.004	19.996	103.281	19.999	3.725	0.426
144.000	150.184	80.006	19.996	103.275	20.005	3.362	0.460
152.000	153.722	80.004	19.993	103.280	20.002	3.552	0.451
160.000	157.491	80.005	19.994	103.277	20.002	3.510	0.469
168.000	161.240	80.007	19.994	103.265	20.006	3.299	0.499
176.000	165.097	80.005	19.995	103.288	20.002	3.526	0.499
184.000	168.975	80.005	19.994	103.267	19.995	3.977	0.524
192.000	172.816	80.004	19.995	103.271	19.999	3.704	0.464
200.000	176.774	80.005	19.995	103.267	19.999	3.695	0.489
208.000	180.742	80.004	19.996	103.259	19.994	4.025	0.462
216.000	184.760	80.005	19.996	103.265	20.000	3.667	0.497
224.000	188.836	80.005	19.995	103.263	19.998	3.817	0.492
232.000	192.887	80.005	19.995	103.258	19.993	4.100	0.464
240.000	196.928	80.005	19.995	103.256	20.001	3.621	0.516
248.000	200.905	80.005	19.995	103.246	19.994	4.040	0.524
256.000	204.905	80.006	19.994	103.239	19.998	3.809	0.475
264.000	208.864	80.006	19.994	103.246	19.998	3.792	0.478
272.000	212.777	80.005	19.995	103.224	19.995	3.964	0.446
280.000	216.628	80.005	19.994	103.228	19.993	4.101	0.478
288.000	220.454	80.004	19.994	103.226	19.991	4.219	0.489
296.000	224.213	80.004	19.995	103.231	19.990	4.272	0.495
304.000	228.015	80.004	19.996	103.224	19.984	4.691	0.469
312.000	231.796	80.005	19.994	103.234	19.985	4.639	0.474
320.000	235.629	80.004	19.996	103.247	19.984	4.704	0.469
328.000	239.452	80.005	19.996	103.240	19.976	5.220	0.465
336.000	243.240	80.008	19.995	103.252	19.972	5.443	0.464
344.000	247.199	80.006	19.995	103.256	19.968	5.730	0.495
352.000	251.275	80.005	19.995	103.261	19.961	6.151	0.533
360.000	255.377	80.004	19.996	103.264	19.955	6.562	0.513
368.000	259.556	80.005	19.995	103.263	19.948	7.014	0.529
376.000	263.711	80.003	19.995	103.263	19.937	7.724	0.524
384.000	267.887	80.004	19.995	103.266	19.927	8.360	0.502
392.000	272.097	80.007	19.995	103.284	19.922	8.690	0.523
400.000	276.189	80.007	19.995	103.258	19.908	9.610	0.499
408.000	280.274	80.006	19.995	103.291	19.893	10.586	0.504
416.000	284.322	80.007	19.995	103.283	19.876	11.676	0.516
424.000	288.371	80.005	19.995	103.297	19.858	12.799	0.501
432.000	292.411	80.005	19.996	103.297	19.838	14.112	0.506
440.000	296.398	80.005	19.995	103.340	19.811	15.832	0.495
448.000	300.376	80.005	19.994	103.344	19.783	17.677	0.479
456.000	304.340	80.005	19.995	103.363	19.759	19.218	0.513
464.000	308.314	80.005	19.995	103.368	19.727	21.300	0.493
472.000	312.326	80.007	19.995	103.383	19.689	23.765	0.508
480.000	316.323	80.007	19.995	103.401	19.649	26.301	0.501
488.000	320.315	80.005	19.995	103.417	19.604	29.240	0.497
496.000	324.352	80.007	19.995	103.455	19.555	32.381	0.493
504.000	328.305	80.006	19.994	103.467	19.510	35.308	0.502
512.000	332.299	80.004	19.995	103.481	19.459	38.575	0.504
520.000	336.299	80.004	19.996	103.481	19.413	41.535	0.489
528.000	340.338	80.007	19.995	103.475	19.387	43.225	0.492
536.000	344.288	80.005	19.994	103.462	19.381	43.576	0.496
544.000	348.266	80.005	19.996	103.415	19.405	41.999	0.487
552.000	352.254	80.006	19.995	103.343	19.465	38.144	0.492
560.000	356.264	80.007	19.995	103.302	19.556	32.282	0.482
568.000	360.271	80.006	19.995	103.272	19.643	26.635	0.486
576.000	364.332	80.006	19.995	103.257	19.717	21.898	0.490
584.000	368.412	80.007	19.995	103.223	19.778	17.969	0.498
592.000	372.504	80.005	19.995	103.216	19.816	15.518	0.515
600.000	376.564	80.004	19.994	103.225	19.843	13.764	0.506
608.000	380.640	80.004	19.995	103.203	19.863	12.513	0.529
616.000	384.652	80.005	19.995	103.211	19.876	11.631	0.555
624.000	388.625	80.006	19.994	103.194	19.876	11.662	0.467
632.000	392.638	80.005	19.994	103.216	19.881	11.327	0.496
640.000	396.692	80.005	19.994	103.191	19.877	11.567	0.532
648.000	400.652	80.006	19.994	103.213	19.871	11.994	0.505
656.000	404.659	80.008	19.994	103.215	19.862	12.555	0.515
664.000	408.618	80.008	19.994	103.189	19.853	13.129	0.494
672.000	412.692	80.008	19.995	103.197	19.849	13.370	0.534
680.000	416.800	80.003	19.996	103.216	19.840	13.955	0.523
688.000	420.830	80.006	19.994	103.207	19.841	13.890	0.481
696.000	424.948	80.005	19.996	103.222	19.836	14.231	0.511
704.000	429.100	80.003	19.996	103.217	19.838	14.121	0.516
712.000	433.192	80.005	19.996	103.208	19.837	14.148	0.549
720.000	437.345	80.007	19.994	103.198	19.838	14.120	0.534
728.000	441.401	80.008	19.995	103.190	19.838	14.088	0.483
736.000	445.447	80.005	19.994	103.188	19.837	14.139	0.519
744.000	449.456	80.007	19.994	103.184	19.839	14.028	0.493
752.000	453.465	80.008	19.994	103.185	19.857	12.894	0.498
760.000	457.517	80.006	19.994	103.184	19.855	12.994	0.510
768.000	461.510	80.004	19.996	103.184	19.860	12.651	0.513
776.000	465.502	80.006	19.994	103.146	19.865	12.333	0.536
784.000	469.530	80.006	19.994	103.184	19.871	11.949	0.504
792.000	473.673	80.004	19.996	103.184	19.874	11.746	0.492
800.000	477.863	80.005	19.995	103.180	19.885	11.088	0.516
808.000	482.101	80.006	19.995	103.190	19.888	10.898	0.533
816.000	486.249	80.006	19.994	103.181	19.890	10.762	0.517
824.000	490.421	80.007	19.994	103.181	19.897	10.318	0.493
832.000	494.617	80.008	19.993	103.182	19.897	10.292	0.534
840.000	498.800	80.005	19.993	103.181	19.909	9.505	0.521
848.000	502.880	80.007	19.994	103.174	19.909	9.546	0.504
856.000	506.963	80.005	19.995	103.179	19.911	9.395	0.502
864.000	510.985	80.006	19.996	103.149	19.915	9.145	0.490
872.000	515.109	80.005	19.995	103.160	19.915	9.130	0.512
880.000	519.226	80.006	19.994	103.178	19.919	8.842	0.497
888.000	523.274	80.008	19.995	103.148	19.923	8.596	0.504
896.000	527.265	80.005	19.995	103.150	19.929	8.229	0.485
904.000	531.423	80.005	19.995	103.163	19.928	8.294	0.520
912.000	535.495	80.008	19.995	103.154	19.939	7.589	0.515
920.000	539.633	80.007	19.995	103.152	19.931	8.066	0.520
928.000	543.644	80.007	19.995	103.142	19.940	7.507	0.502
936.000	547.689	80.008	19.994	103.149	19.938	7.630	0.511
944.000	551.790	80.007	19.994	103.154	19.942	7.403	0.533
952.000	555.811	80.006	19.995	103.148	19.943	7.340	0.501
960.000	559.871	80.005	19.995	103.154	19.947	7.082	0.523
968.000	563.870	80.005	19.995	103.150	19.950	6.885	0.494
976.000	567.854	80.007	19.995	103.147	19.953	6.655	0.518
984.000	571.932	80.007	19.996	103.154	19.956	6.516	0.526
992.000	576.089	80.006	19.997	103.154	19.954	6.613	0.491
1000.000	580.137	80.008	19.994	103.141	19.956	6.494	0.470
1008.000	584.265	80.007	19.995	103.148	19.957	6.438	0.521
1016.000	588.361	80.007	19.995	103.143	19.956	6.486	0.489
1024.000	592.390	80.005	19.995	103.145	19.960	6.200	0.534
1031.999	596.485	80.006	19.995	103.161	19.960	6.260	0.530
1039.999	600.622	80.005	19.995	103.150	19.958	6.331	0.518
1047.999	604.646	80.007	19.995	103.144	19.956	6.491	0.481
1055.999	608.651	80.007	19.995	103.143	19.962	6.080	0.461
1063.999	612.688	80.008	19.996	103.146	19.963	6.010	0.502
1071.999	616.774	80.008	19.995	103.146	19.970	5.609	0.496
1079.999	620.839	80.010	19.995	103.152	19.966	5.821	0.526
1088.000	624.865	80.004	19.996	103.158	19.967	5.789	0.519
1096.000	628.771	80.006	19.995	103.152	19.966	5.871	0.501
1103.999	632.769	80.007	19.994	103.144	19.965	5.884	0.518
1111.999	636.726	80.007	19.995	103.152	19.967	5.752	0.473
1119.999	640.796	80.005	19.995	103.159	19.966	5.841	0.526
1127.999	644.850	80.008	19.994	103.154	19.965	5.902	0.531
1135.999	648.897	80.009	19.994	103.158	19.970	5.589	0.506
1143.999	653.078	80.008	19.995	103.164	19.971	5.540	0.508
1151.999	657.295	80.009	19.994	103.170	19.967	5.806	0.519
1159.999	661.434	80.009	19.995	103.158	19.966	5.865	0.513
1168.000	665.488	80.009	19.995	103.143	19.974	5.321	0.514
1175.999	669.551	80.005	19.995	103.167	19.977	5.164	0.512
1184.000	673.635	80.007	19.996	103.143	19.977	5.158	0.530
1192.000	677.728	80.007	19.995	103.140	19.970	5.580	0.489
1200.000	681.743	80.008	19.994	103.135	19.978	5.103	0.508
1207.999	685.735	80.006	19.994	103.112	19.977	5.144	0.489
1216.000	689.806	80.007	19.994	103.141	19.976	5.181	0.496
1223.999	693.769	80.008	19.994	103.133	19.977	5.165	0.493
1231.999	697.815	80.005	19.992	103.132	19.979	5.013	0.522
1240.000	701.840	80.009	19.995	103.143	19.971	5.536	0.522
1248.000	705.819	80.005	19.994	103.136	19.978	5.068	0.458
1255.999	709.722	80.004	19.996	103.134	19.972	5.427	0.526
1264.000	713.698	80.008	19.994	103.131	19.978	5.104	0.484
1271.999	717.787	80.006	19.997	103.133	19.977	5.106	0.522
1279.999	721.860	80.003	19.999	103.140	19.976	5.178	0.531
1287.999	725.997	80.008	19.997	103.137	19.977	5.118	0.507
1295.999	730.145	80.008	19.994	103.128	19.973	5.363	0.503
1303.999	734.325	80.003	19.995	103.135	19.974	5.303	0.525
1311.999	738.436	80.008	19.996	103.150	19.977	5.142	0.503
1319.999	742.526	79.994	19.996	103.116	19.976	5.198	0.518
1322.499	743.735	80.014	19.994	103.123	19.975	5.271	0.478