File: 01_Data/HDPE/STA/N2/10K_min/HDPE_STA_N2_10KData_2199_R2.csv
##Temp./Â°C,Time/min,DSC(subtr.2)/(mW/mg),Mass loss(subtr.2)/mg,Sensit./(uV/mW)
49.648,10.01,-0.002515,-0.03511,1.03585
52.248,12.37006,0.09326511,-0.03840135,1.03572
54.848,13.07125,0.1372,-0.04271128,1.03555
57.448,13.6292,0.16617,-0.04150428,1.03536
60.048,14.11679,0.18881,-0.04182149,1.03514
62.648,14.55986,0.20804,-0.04343451,1.03489
65.248,14.9701,0.22412,-0.04168417,1.03461
67.848,15.35426,0.23568,-0.04349306,1.0343
70.448,15.7189,0.24663,-0.04469833,1.03396
73.048,16.06781,0.25893,-0.04595514,1.0336
75.648,16.40316,0.26979,-0.04569406,1.03321
78.248,16.72825,0.28467,-0.04684575,1.03278
80.848,17.04335,0.29892,-0.04737588,1.03234
83.448,17.35,0.3082,-0.04738991,1.03186
86.048,17.64915,0.31937,-0.04870579,1.03136
88.648,17.94271,0.32961,-0.04957765,1.03083
91.248,18.2289,0.34112,-0.04708367,1.03027
93.848,18.51018,0.35443,-0.04839113,1.02968
96.448,18.7876,0.36297,-0.04773273,1.02907
99.048,19.0609,0.37846,-0.04903979,1.02843
101.648,19.33031,0.38749,-0.04982887,1.02777
104.248,19.59769,0.40216,-0.04946593,1.02708
106.848,19.86213,0.41783,-0.05068082,1.02636
109.448,20.12461,0.43671,-0.05244009,1.02562
112.048,20.38496,0.45397,-0.05252978,1.02486
114.648,20.64368,0.47971,-0.05101309,1.02406
117.248,20.9006,0.51776,-0.05150556,1.02325
119.848,21.15597,0.56816,-0.05255539,1.0224
122.448,21.41017,0.6455,-0.05386423,1.02154
125.048,21.66212,0.7808,-0.05384432,1.02065
127.648,21.91369,1.0371,-0.05389639,1.01973
130.248,22.16514,1.53379,-0.05271188,1.01879
132.848,22.41692,2.28976,-0.05394913,1.01783
135.448,22.66974,3.04283,-0.05409016,1.01684
138.048,22.9208,3.28671,-0.0517357,1.01583
140.648,23.16475,2.28437,-0.05442053,1.01479
143.248,23.40171,1.04744,-0.05495652,1.01374
145.848,23.63574,0.62862,-0.05660015,1.01266
148.448,23.87114,0.51502,-0.05528904,1.01155
151.048,24.1059,0.4876,-0.05660536,1.01043
153.648,24.34242,0.4807,-0.05671768,1.00928
156.248,24.5777,0.4802,-0.05770015,1.00811
158.848,24.81383,0.48112,-0.05804356,1.00692
161.448,25.04918,0.48498,-0.05672345,1.00571
164.048,25.28461,0.4907,-0.05540012,1.00447
166.648,25.51975,0.49469,-0.05803167,1.00322
169.248,25.7557,0.49884,-0.05899262,1.00194
171.848,25.99061,0.50191,-0.0577,1.00065
174.448,26.2255,0.50283,-0.05806516,0.99933
177.048,26.45975,0.50348,-0.05913101,0.99799
179.648,26.6939,0.5062,-0.05913021,0.99663
182.248,26.9272,0.50865,-0.0591332,0.99526
184.848,27.1603,0.51263,-0.05846929,0.99386
187.448,27.39258,0.51439,-0.05946,0.99244
190.048,27.6249,0.51897,-0.06067465,0.99101
192.648,27.85768,0.52502,-0.0593483,0.98956
195.248,28.0898,0.52379,-0.06097456,0.98808
197.848,28.3215,0.52633,-0.06066054,0.98659
200.448,28.55286,0.52958,-0.06066054,0.98508
203.048,28.7851,0.53279,-0.06206596,0.98356
205.648,29.0169,0.53724,-0.06079596,0.98201
208.248,29.24905,0.53957,-0.06077326,0.98045
210.848,29.48113,0.54181,-0.06280549,0.97887
213.448,29.71322,0.54519,-0.06297,0.97727
216.048,29.9454,0.54824,-0.06302928,0.97566
218.648,30.17737,0.54928,-0.06428004,0.97403
221.248,30.4098,0.55093,-0.06428001,0.97238
223.848,30.6421,0.55382,-0.06428,0.97072
226.448,30.8744,0.55798,-0.06428988,0.96904
229.048,31.10681,0.5596,-0.06494052,0.96735
231.648,31.3396,0.56202,-0.06362046,0.96564
234.248,31.5724,0.56469,-0.06496861,0.96392
236.848,31.80505,0.56776,-0.06457209,0.96218
239.448,32.0382,0.56935,-0.06526998,0.96042
242.048,32.27057,0.57306,-0.06659947,0.95866
244.648,32.50362,0.5744,-0.06641807,0.95687
247.248,32.73697,0.5749,-0.06659356,0.95508
249.848,32.97035,0.57754,-0.0662501,0.95327
252.448,33.20345,0.57972,-0.06555821,0.95144
255.048,33.43705,0.58066,-0.06789969,0.94961
257.648,33.67089,0.58439,-0.06710274,0.94776
260.248,33.90445,0.58898,-0.06761349,0.94589
262.848,34.13817,0.58875,-0.06712719,0.94402
265.448,34.37185,0.59477,-0.07009931,0.94213
268.048,34.60556,0.59593,-0.06785907,0.94023
270.648,34.83948,0.59695,-0.06942626,0.93832
273.248,35.07339,0.59949,-0.06844078,0.93639
275.848,35.3077,0.60021,-0.06992449,0.93446
278.448,35.54201,0.60325,-0.069274,0.93251
281.048,35.77691,0.60549,-0.07083629,0.93056
283.648,36.01212,0.60701,-0.07207,0.92859
286.248,36.24755,0.60819,-0.07122585,0.92661
288.848,36.48302,0.60895,-0.07238625,0.92462
291.448,36.71891,0.61274,-0.0727178,0.92262
294.048,36.95449,0.61191,-0.07376942,0.92062
296.648,37.19103,0.61211,-0.07400917,0.9186
299.248,37.42715,0.61567,-0.07240001,0.91657
301.848,37.66346,0.61665,-0.07305964,0.91453
304.448,37.89949,0.62005,-0.07565794,0.91249
307.048,38.13664,0.61962,-0.07189377,0.91043
309.648,38.3733,0.62241,-0.07473,0.90837
312.248,38.60999,0.61966,-0.07602,0.9063
314.848,38.8475,0.61629,-0.07731706,0.90422
317.448,39.08526,0.61635,-0.07602,0.90214
320.048,39.3233,0.61765,-0.0760238,0.90004
322.648,39.56106,0.61962,-0.07733,0.89794
325.248,39.79968,0.62206,-0.0760247,0.89583
327.848,40.03745,0.62048,-0.07602001,0.89372
330.448,40.27618,0.62249,-0.07734001,0.8916
333.048,40.5144,0.62834,-0.07863446,0.88947
335.648,40.7534,0.63024,-0.07734,0.88733
338.248,40.99256,0.63161,-0.07865961,0.88519
340.848,41.2318,0.63635,-0.07799996,0.88305
343.448,41.4717,0.63437,-0.0779951,0.88089
346.048,41.71141,0.63899,-0.07930685,0.87874
348.648,41.95063,0.64115,-0.07932018,0.87657
351.248,42.19117,0.6408,-0.07997001,0.87441
353.848,42.4306,0.64112,-0.07996966,0.87223
356.448,42.6719,0.64356,-0.08096,0.87006
359.048,42.91317,0.64543,-0.08096001,0.86788
361.648,43.1546,0.65137,-0.08135902,0.86569
364.248,43.3958,0.65533,-0.08194625,0.8635
366.848,43.6378,0.65918,-0.08222092,0.86131
369.448,43.87976,0.66259,-0.08261354,0.85911
372.048,44.12256,0.66387,-0.0826,0.85692
374.648,44.3653,0.66926,-0.08381482,0.85471
377.248,44.6081,0.66778,-0.08391801,0.85251
379.848,44.85091,0.67145,-0.08600014,0.8503
382.448,45.0946,0.6759,-0.08468003,0.84809
385.048,45.33805,0.67988,-0.08797997,0.84588
387.648,45.58153,0.68279,-0.08804577,0.84366
390.248,45.8256,0.68668,-0.08795496,0.84145
392.848,46.06942,0.69326,-0.08929,0.83923
395.448,46.3136,0.69886,-0.08928996,0.83701
398.048,46.55833,0.70175,-0.0919342,0.83479
400.648,46.8035,0.70838,-0.09209473,0.83257
403.248,47.04824,0.71555,-0.09191962,0.83034
405.848,47.29368,0.71948,-0.09471149,0.82812
408.448,47.5392,0.72813,-0.09555003,0.8259
411.048,47.78513,0.73512,-0.09752017,0.82367
413.648,48.0308,0.74377,-0.10017,0.82145
416.248,48.27691,0.75248,-0.10147,0.81922
418.848,48.52385,0.76484,-0.10315,0.817
421.448,48.77067,0.77619,-0.10707,0.81477
424.048,49.01736,0.78788,-0.10958,0.81255
426.648,49.2644,0.78912,-0.11233,0.81033
429.248,49.51141,0.7997,-0.11771,0.80811
431.848,49.75842,0.812,-0.12231,0.80589
434.448,50.00565,0.82896,-0.1275,0.80367
437.048,50.25343,0.89739,-0.13513,0.80145
439.648,50.50141,0.8695,-0.14548,0.79923
442.248,50.7494,0.88453,-0.15539,0.79702
444.848,50.9979,0.9139,-0.17101,0.7948
447.448,51.2454,0.94881,-0.18565,0.79259
450.048,51.4943,0.99493,-0.20791,0.79038
452.648,51.7429,1.04393,-0.2328,0.78818
455.248,51.9921,1.10613,-0.26357,0.78597
457.848,52.24158,1.18044,-0.29934,0.78377
460.448,52.4911,1.2718,-0.34753,0.78158
463.048,52.7402,1.37935,-0.40787,0.77938
465.648,52.98998,1.5096,-0.48295,0.77719
468.248,53.2392,1.65937,-0.57707,0.775
470.848,53.48964,1.83857,-0.6985,0.77282
473.448,53.7398,2.02804,-0.84741,0.77063
476.048,53.98976,2.25539,-1.04291,0.76846
478.648,54.24005,2.48058,-1.27537,0.76628
481.248,54.4904,2.71148,-1.55608,0.76411
483.848,54.7412,2.86557,-1.89199,0.76195
486.448,54.99136,2.97167,-2.27073,0.75979
489.048,55.2429,2.91353,-2.66877,0.75763
491.648,55.4941,2.66426,-3.06733,0.75548
494.248,55.7467,2.23424,-3.43949,0.75333
496.848,55.9998,1.6659,-3.74496,0.75119
499.448,56.25277,1.0689,-3.95843,0.74905
502.048,56.506,0.59226,-4.07354,0.74692
504.648,56.75819,0.29774,-4.12436,0.74479
507.248,57.00982,0.15142,-4.13878,0.74267
509.848,57.26183,0.08807587,-4.1429,0.74055
512.448,57.51365,0.06728177,-4.14186,0.73844
515.048,57.76602,0.04985986,-4.1445,0.73634
517.648,58.01866,0.06279425,-4.14397,0.73424
520.248,58.27166,0.06055875,-4.14449,0.73214
522.848,58.5253,0.06051734,-4.14318,0.73006
525.448,58.779,0.06002708,-4.14712,0.72798
528.048,59.03235,0.0578107,-4.14614,0.7259
530.648,59.2859,0.0551229,-4.1457,0.72383
533.248,59.5395,0.0565636,-4.1457,0.72177
535.848,59.7938,0.05906521,-4.14504,0.71972
538.448,60.04845,0.05812416,-4.14507,0.71767
541.048,60.30344,0.06274619,-4.14498,0.71563
543.648,60.5585,0.06537726,-4.14517,0.71359
546.248,60.81391,0.06399621,-4.14647,0.71156
548.848,61.06916,0.06200717,-4.14647,0.70954
551.448,61.32445,0.06061624,-4.14637,0.70753
554.048,61.5798,0.05986385,-4.14713,0.70552
556.648,61.83563,0.06628629,-4.14628,0.70352
559.248,62.09169,0.06523494,-4.1456,0.70153
561.848,62.34777,0.06533191,-4.14697,0.69955
564.448,62.6036,0.06007779,-4.1461,0.69757
567.048,62.85937,0.06102953,-4.14557,0.6956
569.648,63.11558,0.05784015,-4.14526,0.69364
572.248,63.37195,0.05489588,-4.14485,0.69169
574.848,63.62916,0.04897671,-4.14581,0.68974
577.448,63.88592,0.05045031,-4.14581,0.68781
580.048,64.14379,0.05519937,-4.14614,0.68588
582.648,64.40134,0.08187348,-4.14481,0.68396
585.248,64.65873,0.08066962,-4.14383,0.68204
587.848,64.91597,0.08259583,-4.14516,0.68014
590.448,65.17295,0.08244988,-4.14384,0.67824
593.048,65.43039,0.0813437,-4.14414,0.67636
595.648,65.68828,0.08534064,-4.14316,0.67448
598.248,65.94673,0.09015674,-4.1448,0.67261
600.848,66.20565,0.08963865,-4.14286,0.67074
603.448,66.46378,0.09342477,-4.14286,0.66889
606.048,66.7218,0.09309056,-4.1428,0.66704
608.648,66.97986,0.09064192,-4.14252,0.66521
611.248,67.23876,0.08878025,-4.14296,0.66338
613.848,67.49773,0.08821989,-4.14428,0.66156
616.448,67.75647,0.08368457,-4.14234,0.65975
619.048,68.01554,0.08788466,-4.14299,0.65795
621.648,68.27454,0.08765385,-4.14653,0.65616
624.248,68.53447,0.08730118,-4.14285,0.65438
626.848,68.7941,0.08618492,-4.14252,0.6526
629.448,69.05374,0.08815692,-4.14284,0.65084
632.048,69.3136,0.08908778,-4.14282,0.64908
634.648,69.57372,0.09014157,-4.14199,0.64733
637.248,69.8329,0.09046695,-4.14241,0.6456
638.848,69.99316,0.08841075,-4.14242,0.64453