File: 01_Data/HDPE/STA/N2/10K_min/HDPE_STA_N2_10KData_2199_R1.csv
##Temp./Â°C,Time/min,DSC(subtr.2)/(mW/mg),Mass loss(subtr.2)/mg,Sensit./(uV/mW)
49.608,10.00917,0.02214633,-0.04004,1.03585
52.208,12.37374,0.11503,-0.04711106,1.03572
54.808,13.0768,0.1598,-0.04695499,1.03556
57.408,13.63655,0.19091,-0.04916063,1.03536
60.008,14.12539,0.21392,-0.04933206,1.03514
62.608,14.5675,0.2313,-0.05102354,1.03489
65.208,14.9767,0.24943,-0.05177443,1.03461
67.808,15.36108,0.2621,-0.05332622,1.0343
70.408,15.7266,0.27542,-0.0532788,1.03397
73.008,16.07496,0.28805,-0.05356126,1.0336
75.608,16.41018,0.29953,-0.05365353,1.03321
78.208,16.73528,0.31534,-0.05418061,1.03279
80.808,17.05037,0.32793,-0.05518101,1.03234
83.408,17.3573,0.33732,-0.05606555,1.03187
86.008,17.657,0.35252,-0.05487978,1.03136
88.608,17.9494,0.36033,-0.056397,1.03083
91.208,18.23627,0.37165,-0.0574383,1.03028
93.808,18.51823,0.38381,-0.05769154,1.02969
96.408,18.79485,0.39654,-0.057693,1.02908
99.008,19.06772,0.40787,-0.05861913,1.02844
101.608,19.33726,0.41971,-0.06026942,1.02778
104.208,19.60438,0.43179,-0.05902188,1.02709
106.808,19.86818,0.44972,-0.05902624,1.02638
109.408,20.1312,0.46595,-0.06031508,1.02563
112.008,20.39149,0.48616,-0.06021652,1.02487
114.608,20.65024,0.51134,-0.06211004,1.02408
117.208,20.90699,0.54565,-0.06213904,1.02326
119.808,21.16168,0.59019,-0.06211721,1.02242
122.408,21.41541,0.65815,-0.06220074,1.02155
125.008,21.66775,0.77398,-0.06285964,1.02066
127.608,21.91882,0.9908,-0.06549065,1.01974
130.208,22.1694,1.40089,-0.06405973,1.0188
132.808,22.42047,2.04752,-0.0640603,1.01784
135.408,22.67199,2.68256,-0.06384958,1.01685
138.008,22.92321,3.043,-0.06394802,1.01584
140.608,23.17011,2.75505,-0.06394778,1.01481
143.208,23.41,1.65692,-0.06440638,1.01375
145.808,23.6445,0.8471,-0.06539074,1.01267
148.408,23.87781,0.6092,-0.06593411,1.01157
151.008,24.11226,0.54176,-0.06739271,1.01045
153.608,24.34783,0.52265,-0.06604096,1.0093
156.208,24.58305,0.52257,-0.06614296,1.00813
158.808,24.81776,0.52145,-0.06570837,1.00694
161.408,25.05323,0.52516,-0.06604009,1.00573
164.008,25.28841,0.52766,-0.06603841,1.00449
166.608,25.5231,0.533,-0.06746999,1.00324
169.208,25.7589,0.53422,-0.06757518,1.00196
171.808,25.9929,0.53941,-0.06757996,1.00067
174.408,26.2264,0.5419,-0.06889022,0.99935
177.008,26.4616,0.54427,-0.06802629,0.99801
179.608,26.69572,0.55066,-0.06888275,0.99666
182.208,26.9289,0.55285,-0.07019919,0.99528
184.808,27.1609,0.55504,-0.07088824,0.99388
187.408,27.3945,0.55859,-0.07018657,0.99247
190.008,27.62697,0.56349,-0.07152994,0.99103
192.608,27.85922,0.56497,-0.07054107,0.98958
195.208,28.0909,0.56721,-0.07151877,0.98811
197.808,28.3228,0.57038,-0.07023054,0.98662
200.408,28.55433,0.57122,-0.07251752,0.98511
203.008,28.78619,0.57619,-0.07119,0.98358
205.608,29.01793,0.57661,-0.06988001,0.98204
208.208,29.24989,0.58439,-0.0712,0.98047
210.808,29.48157,0.58427,-0.07005893,0.97889
213.408,29.71353,0.5871,-0.0725754,0.9773
216.008,29.9458,0.58747,-0.0713015,0.97569
218.608,30.1778,0.58796,-0.07262455,0.97406
221.208,30.40987,0.59132,-0.07327995,0.97241
223.808,30.64217,0.5947,-0.0718625,0.97075
226.408,30.87446,0.59898,-0.07294355,0.96907
229.008,31.10653,0.60104,-0.07295851,0.96738
231.608,31.3391,0.60217,-0.07327998,0.96567
234.208,31.57173,0.60366,-0.07438665,0.96394
236.808,31.80433,0.60525,-0.07394254,0.96221
239.408,32.03695,0.60915,-0.07426677,0.96045
242.008,32.2697,0.60959,-0.07356818,0.95868
244.608,32.50309,0.61193,-0.07459996,0.9569
247.208,32.73574,0.61366,-0.07580134,0.95511
249.808,32.96864,0.61581,-0.07459822,0.9533
252.408,33.20151,0.61618,-0.07491998,0.95147
255.008,33.43475,0.6184,-0.07522591,0.94963
257.608,33.66746,0.61957,-0.07492,0.94778
260.208,33.9005,0.62008,-0.07624,0.94592
262.808,34.13328,0.62227,-0.07493001,0.94405
265.408,34.36629,0.6265,-0.07624003,0.94216
268.008,34.59939,0.62735,-0.0749218,0.94026
270.608,34.83293,0.62901,-0.07527457,0.93835
273.208,35.0668,0.62762,-0.07624,0.93642
275.808,35.30072,0.63026,-0.07591131,0.93449
278.408,35.53483,0.63316,-0.07605746,0.93254
281.008,35.76899,0.63536,-0.07788156,0.93059
283.608,36.00322,0.6382,-0.07723257,0.92862
286.208,36.23786,0.64063,-0.07723,0.92664
288.808,36.473,0.64233,-0.07568467,0.92465
291.408,36.7085,0.64563,-0.07689996,0.92265
294.008,36.944,0.64329,-0.07822025,0.92065
296.608,37.18007,0.64732,-0.0769,0.91863
299.208,37.41556,0.6461,-0.07821,0.9166
301.808,37.65182,0.64777,-0.07821053,0.91456
304.408,37.88858,0.64615,-0.07778003,0.91252
307.008,38.12523,0.64661,-0.07906981,0.91047
309.608,38.362,0.64479,-0.07775735,0.9084
312.208,38.59879,0.64505,-0.07777,0.90633
314.808,38.8358,0.64377,-0.08028772,0.90425
317.408,39.07315,0.64395,-0.0784296,0.90217
320.008,39.311,0.64488,-0.0791047,0.90007
322.608,39.5486,0.64558,-0.08073776,0.89797
325.208,39.78689,0.64855,-0.0804,0.89586
327.808,40.025,0.6467,-0.07779271,0.89375
330.408,40.26406,0.64942,-0.0792,0.89163
333.008,40.50258,0.65107,-0.07910306,0.8895
335.608,40.7418,0.65376,-0.08052233,0.88737
338.208,40.98087,0.65372,-0.08036011,0.88522
340.808,41.21935,0.65693,-0.08084433,0.88308
343.408,41.45796,0.65761,-0.07976971,0.88093
346.008,41.6976,0.66033,-0.08184,0.87877
348.608,41.9371,0.6621,-0.08215341,0.87661
351.208,42.17727,0.66616,-0.08150604,0.87444
353.808,42.4176,0.66622,-0.08149234,0.87227
356.408,42.65783,0.66987,-0.08359,0.87009
359.008,42.89882,0.66897,-0.08326013,0.86791
361.608,43.14,0.67556,-0.08326,0.86573
364.208,43.38152,0.67677,-0.08325955,0.86354
366.808,43.62303,0.67929,-0.08456839,0.86134
369.408,43.86485,0.68136,-0.08457,0.85915
372.008,44.10694,0.68791,-0.08556,0.85695
374.608,44.34944,0.6903,-0.08424889,0.85475
377.208,44.592,0.69343,-0.08293103,0.85254
379.808,44.83526,0.6961,-0.08566114,0.85033
382.408,45.0788,0.70189,-0.08820139,0.84812
385.008,45.32249,0.70465,-0.08817367,0.84591
387.608,45.56595,0.71149,-0.09186605,0.8437
390.208,45.81089,0.71636,-0.09193068,0.84148
392.808,46.0552,0.72279,-0.09226365,0.83926
395.408,46.2992,0.72795,-0.09226,0.83704
398.008,46.54354,0.73357,-0.093962,0.83482
400.608,46.7881,0.73824,-0.09489831,0.8326
403.208,47.03289,0.74426,-0.09729998,0.83038
405.808,47.27793,0.75162,-0.09994,0.82815
408.408,47.5227,0.76231,-0.10125,0.82593
411.008,47.76843,0.76955,-0.10454,0.82371
413.608,48.01401,0.77997,-0.10684,0.82148
416.208,48.25993,0.78773,-0.10948,0.81926
418.808,48.50602,0.81865,-0.11338,0.81703
421.408,48.7525,0.80561,-0.11834,0.81481
424.008,48.99868,0.80481,-0.12394,0.81258
426.608,49.2451,0.81658,-0.13313,0.81036
429.208,49.49129,0.82693,-0.14053,0.80814
431.808,49.73822,0.83771,-0.14839,0.80592
434.408,49.98512,0.84954,-0.16134,0.8037
437.008,50.2325,0.8683,-0.17302,0.80148
439.608,50.48003,0.88949,-0.18734,0.79927
442.208,50.72801,0.91464,-0.20369,0.79705
444.808,50.97678,0.9439,-0.22297,0.79484
447.408,51.22571,0.97806,-0.24706,0.79263
450.008,51.4746,1.01709,-0.27208,0.79042
452.608,51.72331,1.06992,-0.3045,0.78821
455.208,51.9724,1.12911,-0.34251,0.78601
457.808,52.22205,1.19947,-0.38887,0.78381
460.408,52.47116,1.28776,-0.44512,0.78161
463.008,52.72076,1.39136,-0.51616,0.77941
465.608,52.9702,1.51774,-0.6013,0.77722
468.208,53.22,1.66571,-0.71303,0.77503
470.808,53.47006,1.85128,-0.84933,0.77285
473.408,53.72002,2.03815,-1.02746,0.77067
476.008,53.96985,2.20673,-1.24366,0.76849
478.608,54.21969,2.33819,-1.50376,0.76632
481.208,54.4698,2.42192,-1.80263,0.76415
483.808,54.7195,2.48975,-2.15492,0.76198
486.408,54.97,2.48544,-2.55383,0.75982
489.008,55.22095,2.40081,-2.9804,0.75766
491.608,55.47274,2.205,-3.39861,0.75551
494.208,55.72518,1.87121,-3.78099,0.75336
496.808,55.97784,1.42388,-4.08989,0.75122
499.408,56.2314,0.9387,-4.2961,0.74908
502.008,56.4851,0.54123,-4.40893,0.74695
504.608,56.73806,0.28165,-4.45821,0.74482
507.208,56.9895,0.14608,-4.4741,0.7427
509.808,57.24253,0.08310942,-4.47765,0.74059
512.408,57.4947,0.06385004,-4.47904,0.73847
515.008,57.7475,0.03776224,-4.47769,0.73637
517.608,58.0001,0.04884841,-4.48036,0.73427
520.208,58.25325,0.0588063,-4.47881,0.73218
522.808,58.50655,0.06077459,-4.48003,0.73009
525.408,58.76014,0.06313973,-4.47904,0.72801
528.008,59.01355,0.06291248,-4.47997,0.72593
530.608,59.2676,0.0619709,-4.47904,0.72387
533.208,59.52171,0.06233812,-4.4797,0.7218
535.808,59.77613,0.06250277,-4.47969,0.71975
538.408,60.031,0.06436747,-4.47904,0.7177
541.008,60.2858,0.06534374,-4.47967,0.71566
543.608,60.54034,0.07038606,-4.48036,0.71362
546.208,60.7959,0.06877845,-4.48102,0.71159
548.808,61.05118,0.0708733,-4.48035,0.70957
551.408,61.3063,0.06756321,-4.48099,0.70756
554.008,61.5618,0.06761045,-4.47959,0.70555
556.608,61.81742,0.07141273,-4.47861,0.70355
559.208,62.0733,0.0691649,-4.47959,0.70156
561.808,62.32904,0.07351138,-4.47959,0.69958
564.408,62.58501,0.07320448,-4.4786,0.6976
567.008,62.841,0.07212972,-4.47992,0.69563
569.608,63.09712,0.0758772,-4.47842,0.69367
572.208,63.35375,0.07760171,-4.48027,0.69172
574.808,63.6102,0.0741759,-4.47959,0.68977
577.408,63.86685,0.0791891,-4.48091,0.68784
580.008,64.12351,0.07830125,-4.47959,0.68591
582.608,64.38041,0.07738855,-4.48094,0.68399
585.208,64.63721,0.07947356,-4.47958,0.68207
587.808,64.89412,0.07807098,-4.48869,0.68017
590.408,65.15164,0.07787694,-4.48178,0.67827
593.008,65.40996,0.07752301,-4.48047,0.67638
595.608,65.6686,0.07584325,-4.4818,0.6745
598.208,65.92693,0.0787455,-4.48277,0.67263
600.808,66.1853,0.07683176,-4.48014,0.67077
603.408,66.44373,0.07719278,-4.47422,0.66892
606.008,66.70177,0.07239244,-4.48024,0.66707
608.608,66.95991,0.07058322,-4.48035,0.66524
611.208,67.2186,0.07175745,-4.48233,0.66341
613.808,67.47743,0.07166734,-4.48364,0.66159
616.408,67.7362,0.07219367,-4.48233,0.65978
619.008,67.99646,0.07321499,-4.481,0.65798
621.608,68.2556,0.07241265,-4.48096,0.65619
624.208,68.5158,0.07391977,-4.48085,0.6544
626.808,68.77524,0.0711301,-4.4815,0.65263
629.408,69.03554,0.07551068,-4.48211,0.65086
632.008,69.29517,0.07695362,-4.48211,0.64911
634.608,69.55502,0.07403721,-4.48211,0.64736
637.208,69.815,0.07042773,-4.48079,0.64562
639.008,69.9948,0.07094992,-4.47948,0.64443