File: 01_Data/Hemp_Sheet/Cone/Hemp_Sheet_Cone_HF75Scan_220524_R2.csv
Names,Time,Stack TC,Smoke TC,Exh Press,Smoke Comp,Smoke Meas,CO Meter,CO2 Meter,O2 Meter,Sample Mass,Ext Coeff,Start Test,Flame Verif
Chan Gain,,500,500,1,1,1,1,1,1,1,1,1.0,1.0
Offset,,0,0,0.139323,0,0,0,0,0,0,0,0.0,0.0
Gain,,1,1,25.011,13.8491,15.2622,1,1,1,1.00087,1.03118,1.0,1.0
Units,sec,C,C,Pa,%,%,%,%,%,g,/m,,
Baseline,,46.7205,48.447,135.337,104.97,108.126,0.000284792,0.0420203,21.0032,-452.737,-0.267832,,
6,1.25,42.4714,44.6224,134.51,104.647,107.005,0.000988024,0.050785,20.9542,575.031,-0.20151,0.0,0.0
12,2.75,43.0081,44.6096,130.29,104.641,109.122,0.00179108,0.122833,20.8267,574.85,-0.379224,0.0,1.0
18,4.25,43.4203,45.1796,91.8294,104.614,109.463,0.00284982,0.331031,20.6106,574.06,-0.409816,0.0,1.0
24,5.75,49.0733,47.2352,96.0045,104.589,105.938,0.0036671,0.561252,20.465,573.78,-0.115862,0.0,1.0
30,7.25,54.6174,51.0886,120.413,104.581,110.086,0.00413421,0.62965,20.4086,573.76,-0.464058,0.0,1.0
36,8.75,54.9433,52.4312,129.89,104.559,109.631,0.00447274,0.559375,20.497,573.659,-0.428416,0.0,0.0
42,10.25,54.8002,53.7637,130.395,104.549,107.893,0.00492342,0.449868,20.599,573.679,-0.284762,0.0,0.0
48,11.75,54.195,53.1611,129.093,104.518,108.519,0.00549918,0.346962,20.6823,573.669,-0.339763,0.0,0.0
54,13.25,54.2885,53.8428,133.539,104.505,107.809,0.00608003,0.263894,20.7571,573.679,-0.281533,0.0,0.0
60,14.75,53.5919,54.0763,136.042,104.501,107.441,0.00658743,0.205266,20.8183,573.659,-0.250974,0.0,0.0
66,16.25,53.3201,53.9926,134.474,104.483,108.127,0.00685047,0.162652,20.8649,573.679,-0.310163,0.0,0.0
72,17.75,52.7155,53.7305,135.483,104.473,107.802,0.00689809,0.134427,20.896,573.659,-0.283767,0.0,0.0
78,19.25,52.096,53.2197,138.008,104.467,107.784,0.00675324,0.115289,20.9185,573.629,-0.282758,0.0,0.0
84,20.75,49.9748,51.0201,133.142,104.447,108.153,0.00651528,0.101377,20.9362,573.649,-0.315455,0.0,0.0
90,22.25,47.3846,49.3349,134.858,104.442,107.664,0.0060715,0.0903891,20.9495,573.639,-0.274899,0.0,0.0
96,23.75,46.7152,48.7982,135.263,104.413,106.795,0.00553237,0.0811535,20.9598,573.609,-0.204073,0.0,0.0
102,25.25,47.0182,48.8206,134.925,104.431,108.435,0.0047865,0.0738649,20.9683,573.589,-0.340345,0.0,0.0
108,26.75,46.2131,48.0091,134.951,104.402,107.978,0.0040503,0.0676963,20.9748,573.589,-0.304639,0.0,0.0
114,28.25,46.1857,48.3631,137.468,104.4,106.709,0.00340615,0.06252,20.9816,573.559,-0.197908,0.0,0.0
120,29.75,45.8883,48.1908,132.072,104.367,108.308,0.00295452,0.0583818,20.9874,573.539,-0.335302,0.0,0.0
126,31.25,45.8136,47.9261,138.757,104.39,106.871,0.00260098,0.0552667,20.9915,573.559,-0.212515,0.0,0.0
132,32.75,45.5719,47.6685,134.554,104.414,107.497,0.00228556,0.0527924,20.9944,573.529,-0.263257,0.0,0.0
138,34.25,44.8779,47.6896,135.686,104.47,107.66,0.00202955,0.0508056,20.9966,573.549,-0.272096,0.0,0.0
144,35.75,44.681,47.1444,136.526,104.509,107.787,0.00181891,0.0492729,20.997,573.549,-0.27937,0.0,0.0
150,37.25,43.9464,47.2367,134.306,104.573,107.567,0.00162885,0.0480203,20.9975,573.539,-0.255341,0.0,0.0
156,38.75,44.5232,47.0968,132.506,104.613,107.606,0.0014392,0.046879,20.998,573.569,-0.255155,0.0,0.0
162,40.25,44.2807,47.1176,135.436,104.65,108.477,0.00122215,0.0459648,20.9985,573.549,-0.324825,0.0,0.0
168,41.75,43.8546,46.8394,137.056,104.67,107.468,0.00106383,0.0453332,20.9996,573.539,-0.23863,0.0,0.0
174,43.25,44.6394,46.8595,133.459,104.71,108.76,0.000959317,0.0446682,21.0002,573.559,-0.343261,0.0,0.0
180,44.75,43.9545,46.755,132.801,104.742,108.003,0.000897136,0.0441194,21.0007,573.529,-0.277279,0.0,0.0
186,46.25,43.7646,46.7231,137.966,104.771,108.803,0.000836277,0.0437288,21.0019,573.519,-0.341529,0.0,0.0
192,47.75,43.7253,45.9976,132.983,104.809,107.946,0.000733916,0.0434048,21.0023,573.479,-0.266791,0.0,0.0
198,49.25,43.7728,46.0837,134.277,104.835,107.971,0.000567901,0.0430563,21.0023,573.489,-0.266634,0.0,0.0
204,50.75,43.1396,46.2928,133.695,104.868,107.927,0.000460024,0.0427775,21.0023,573.539,-0.26001,0.0,0.0
210,52.25,43.587,46.2741,141.186,104.896,109.408,0.000458374,0.0425999,21.0023,573.509,-0.380896,0.0,0.0
216,53.75,43.246,45.8819,136.237,104.926,108.095,0.000480147,0.0424926,21.0023,573.499,-0.269136,0.0,0.0
222,55.25,43.1438,46.0964,139.629,104.945,109.029,0.000440633,0.0423298,21.0023,573.509,-0.345269,0.0,0.0
228,56.75,43.0811,45.9195,139.467,104.976,108.025,0.000382897,0.0422927,21.0023,573.499,-0.258951,0.0,0.0
234,58.25,42.6859,45.7106,135.819,104.988,108.558,0.000350338,0.0421963,21.0023,573.489,-0.302441,0.0,0.0
240,59.75,42.5718,45.8378,136.677,105.021,108.169,0.000448406,0.0421063,21.0019,573.489,-0.267137,0.0,0.0
246,61.25,42.3224,45.4006,133.925,105.018,107.752,0.000559073,0.0421001,21.0016,573.459,-0.232465,0.0,0.0
252,62.75,42.8376,45.4848,136.008,105.033,108.074,0.000589904,0.0421179,21.0014,573.459,-0.258205,0.0,0.0
258,64.25,42.6105,45.2152,132.287,105.031,108.286,0.000542024,0.0421412,21.0013,573.459,-0.276107,0.0,0.0
264,65.75,42.7499,45.2976,130.796,105.048,108.345,0.000490749,0.0421255,21.0013,573.489,-0.279553,0.0,0.0
270,67.25,42.1118,45.4074,136.207,105.055,108.631,0.000492578,0.0421324,21.0013,573.459,-0.302778,0.0,0.0
276,68.75,42.6397,45.289,136.599,105.077,108.663,0.000576552,0.0422076,21.0006,573.489,-0.303601,0.0,0.0
282,70.25,42.3541,45.0589,133.894,105.074,108.399,0.000652973,0.0422603,20.9996,573.469,-0.281808,0.0,0.0
288,71.75,42.4328,45.115,136.818,105.108,107.972,0.000724379,0.0423812,20.9989,573.459,-0.243188,0.0,0.0
294,73.25,42.2339,45.0801,131.591,105.096,108.212,0.000826716,0.0423799,20.9994,573.479,-0.264316,0.0,0.0
300,74.75,42.5042,45.0436,133.921,105.115,108.235,0.000933829,0.0424316,20.9999,573.499,-0.264586,0.0,0.0
306,76.25,42.3225,44.8802,135.284,105.124,109.359,0.00101883,0.0424251,21.0001,573.439,-0.357304,0.0,0.0
312,77.75,42.4027,44.8799,131.899,105.13,107.474,0.00107981,0.0424556,21.0002,573.459,-0.199412,0.0,0.0
318,79.25,41.9779,45.1774,132.708,105.13,108.868,0.00108125,0.0425118,21.0005,573.419,-0.316024,0.0,0.0
324,80.75,42.2304,44.6262,134.616,105.15,110.278,0.000990718,0.0426021,21.0006,573.429,-0.430703,0.0,0.0
330,82.25,41.8128,44.9771,132.659,105.149,107.558,0.000901094,0.0426925,21.0008,573.429,-0.204829,0.0,0.0
336,83.75,42.7219,44.7435,133.751,105.171,108.858,0.000869354,0.0427405,21.0016,573.379,-0.31168,0.0,0.0
342,85.25,42.2175,44.545,134.079,105.183,107.989,0.000855287,0.0429613,21.002,573.399,-0.23812,0.0,0.0
348,86.75,42.406,44.7049,134.712,105.193,108.482,0.00080335,0.0431433,21.0022,573.409,-0.278504,0.0,0.0
354,88.25,42.1728,44.5689,133.703,105.194,108.497,0.000743864,0.0432357,21.0024,573.369,-0.279639,0.0,0.0
360,89.75,41.2907,45.1674,133.919,105.197,108.498,0.000748225,0.0433726,21.001,573.369,-0.2795,0.0,0.0
366,91.25,41.9625,44.9451,132.051,105.206,108.279,0.000862039,0.0435237,21.001,573.349,-0.260429,0.0,0.0
372,92.75,42.2633,44.9478,131.985,105.208,108.822,0.000993703,0.0435593,21.0013,573.329,-0.30554,0.0,0.0
378,94.25,41.2193,44.449,139.4,105.232,108.451,0.00109957,0.0434954,21.0015,573.339,-0.272561,0.0,0.0
384,95.75,42.0421,44.4888,135.663,105.199,108.844,0.00118242,0.0436248,21.0016,573.349,-0.308123,0.0,0.0
390,97.25,42.295,44.5181,131.337,105.221,107.958,0.00125992,0.0436796,21.0016,573.319,-0.232235,0.0,0.0
396,98.75,42.3483,44.7662,133.356,105.228,108.522,0.00127833,0.0437002,21.0017,573.309,-0.278754,0.0,0.0
402,100.25,42.4848,44.9011,134.186,105.232,108.43,0.00125205,0.0437605,21.0019,573.299,-0.270851,0.0,0.0
408,101.75,42.4313,44.4252,135.323,105.237,107.594,0.00122849,0.0438124,21.0031,573.309,-0.200364,0.0,0.0
414,103.25,42.5438,44.8274,135.011,105.251,108.342,0.00121157,0.0438127,21.0039,573.279,-0.261831,0.0,0.0
420,104.75,42.1665,44.5254,138.224,105.232,109.003,0.0012164,0.0438117,21.0043,573.269,-0.318478,0.0,0.0
426,106.25,42.3311,44.7625,131.196,105.253,108.878,0.00124557,0.0437514,21.0036,573.249,-0.306297,0.0,0.0
432,107.75,42.1165,44.3639,134.138,105.245,108.47,0.001267,0.0436923,21.0029,573.289,-0.273028,0.0,0.0
438,109.25,42.4303,44.3797,139.439,105.259,107.843,0.00126087,0.0436353,21.0026,573.269,-0.219358,0.0,0.0
444,110.75,41.953,44.2633,133.275,105.247,109.292,0.00122268,0.043645,21.0021,573.279,-0.341141,0.0,0.0
450,112.25,42.4048,44.8271,134.134,105.265,109.124,0.00114328,0.043619,21.0017,573.249,-0.32565,0.0,0.0
456,113.75,42.1852,44.373,135.76,105.262,109.151,0.00106562,0.0435424,21.0016,573.249,-0.328144,0.0,0.0
462,115.25,42.101,44.6758,132.499,105.278,108.964,0.000956239,0.0434345,21.0015,573.259,-0.311272,0.0,0.0
468,116.75,41.9081,43.6289,133.971,105.28,108.112,0.000884415,0.0432884,21.0014,573.219,-0.24017,0.0,0.0
474,118.25,42.266,44.6426,135.618,105.294,108.139,0.000857765,0.0432233,21.0014,573.219,-0.241159,0.0,0.0
480,119.75,42.4303,44.3707,131.201,105.281,107.854,0.000847669,0.0431641,21.0023,573.169,-0.218371,0.0,0.0
486,121.25,42.0949,44.6786,132.432,105.296,109.209,0.000887185,0.0430564,21.0032,573.209,-0.330062,0.0,0.0
492,122.75,42.0748,44.4102,135.181,105.296,108.331,0.000960146,0.0429863,21.0038,573.199,-0.257051,0.0,0.0
498,124.25,42.2779,44.4329,135.315,105.299,108.664,0.000971147,0.042833,21.0041,573.219,-0.284561,0.0,0.0
504,125.75,42.4176,44.4383,132.592,105.305,107.217,0.000926176,0.042656,21.0034,573.169,-0.162705,0.0,0.0
510,127.25,41.8624,44.6432,132.908,105.327,108.281,0.00089337,0.0425321,21.0038,573.179,-0.250124,0.0,0.0
516,128.75,42.279,44.4609,137.131,105.32,109.429,,0.0424357,,573.189,-0.346185,0.0,0.0
522,130.25,42.0106,44.733,134.369,105.303,109.299,,0.0423634,,573.189,-0.336925,0.0,0.0
528,131.75,41.4029,44.3795,137.047,105.313,108.089,,,,573.199,-0.235278,0.0,0.0
534,133.25,42.4426,44.6656,133.031,105.295,108.701,,,,573.139,-0.287986,0.0,0.0
540,134.75,42.4419,44.1888,131.856,105.308,108.785,,,,573.189,-0.29391,0.0,0.0
546,136.25,42.5797,44.1255,134.68,105.263,108.893,,,,573.149,-0.306662,0.0,0.0
552,137.75,41.8103,44.2593,134.591,105.255,108.085,,,,573.109,-0.239976,0.0,0.0
558,139.25,42.302,44.3215,131.979,105.236,109.124,,,,573.149,-0.328234,0.0,0.0