File: 01_Data/Hemp_Sheet/Cone/Hemp_Sheet_Cone_HF25Scalar_220524_R2.csv
LABORATORY,FSRI
TEST IDENT,Hemp_Sheet_25_2
OPERATOR,Dow
MATERIAL,Hemp Sheet
ORIENTATION,Horizontal
HEAT FLUX,25
SURF AREA,0.00884
C FACTOR,0.0417695
SPEC HOLDER DIFF,-566
SPECIMEN MASS,1.76
SCAN TIME,0.25
O2 DELAY TIME,11
CO DELAY TIME,11
CO2 DELAY TIME,8
FLOW FACTOR,1
SCAN COUNT,637
TIME TO IGN,15.25
END OF TEST SCAN,157
END OF TEST TIME,39.25
TEST STATUS,1
PRE TEST CMT,Dimensions: 102 x 101 x 0.33 mm; with frame; with calcium silicate substrate