File: 01_Data/Hemp_Sheet/Cone/Hemp_Sheet_Cone_HF75Scan_220524_R1.csv
Names,Time,Stack TC,Smoke TC,Exh Press,Smoke Comp,Smoke Meas,CO Meter,CO2 Meter,O2 Meter,Sample Mass,Ext Coeff,Start Test,Flame Verif
Chan Gain,,500,500,1,1,1,1,1,1,1,1,1.0,1.0
Offset,,0,0,0.139323,0,0,0,0,0,0,0,0.0,0.0
Gain,,1,1,25.011,13.8491,15.2622,1,1,1,1.00087,1.03118,1.0,1.0
Units,sec,C,C,Pa,%,%,%,%,%,g,/m,,
Baseline,,44.7635,46.5507,135.83,103.913,107.096,0.000467876,0.041307,21.0005,-452.683,-0.272835,,
6,1.25,40.3211,42.4394,136.299,103.908,105.665,0.000809015,0.0499169,20.999,562.81,-0.151642,0.0,0.0
12,2.75,40.3255,42.4796,121.644,103.874,109.181,0.00140089,0.12719,20.867,562.58,-0.45068,0.0,1.0
18,4.25,41.9432,43.1245,95.419,103.862,108.534,0.00236956,0.389629,20.5472,561.909,-0.398064,0.0,1.0
24,5.75,47.9518,45.7233,102.029,103.829,104.768,0.00309966,0.640162,20.3476,561.499,-0.0814031,0.0,1.0
30,7.25,54.1937,50.7919,124.193,103.839,108.665,0.00366192,0.704195,20.3021,561.449,-0.410954,0.0,1.0
36,8.75,54.347,52.0124,127.494,103.798,108.048,0.00421189,0.622574,20.4243,561.389,-0.362931,0.0,0.0
42,10.25,54.2436,52.9649,134.044,103.79,108.335,0.0047028,0.488315,20.5599,561.399,-0.387695,0.0,0.0
48,11.75,53.4372,53.2729,132.203,103.749,107.029,0.00527482,0.366583,20.6876,561.409,-0.281563,0.0,0.0
54,13.25,53.039,53.3143,132.978,103.748,107.935,0.00582361,0.285515,20.7763,561.429,-0.357877,0.0,0.0
60,14.75,52.2655,53.1274,136.083,103.728,107.21,0.00616684,0.216362,20.8421,561.329,-0.298664,0.0,0.0
66,16.25,51.8465,52.7161,139.531,103.742,107.004,0.00631291,0.17061,20.8877,561.349,-0.280063,0.0,0.0
72,17.75,51.2296,52.2313,133.085,103.692,106.745,0.00634591,0.140487,20.9212,561.359,-0.262495,0.0,0.0
78,19.25,49.6918,51.3727,138.963,103.697,106.727,0.00631499,0.118597,20.9415,561.309,-0.260514,0.0,0.0
84,20.75,48.4479,49.8183,136.139,103.671,107.1,0.00620896,0.103648,20.9539,561.319,-0.294324,0.0,0.0
90,22.25,47.6316,49.7499,133.919,103.69,107.215,0.00593749,0.0933971,20.9558,561.279,-0.302413,0.0,0.0
96,23.75,47.9576,49.7114,133.318,103.666,107.198,0.00551156,0.0854485,20.9589,561.249,-0.302988,0.0,0.0
102,25.25,47.6903,49.7781,134.539,103.686,106.678,0.00488969,0.0779839,20.9663,561.229,-0.257323,0.0,0.0
108,26.75,47.7516,50.0071,131.408,103.669,106.016,0.00428199,0.0715469,20.973,561.219,-0.202467,0.0,0.0
114,28.25,47.2062,49.9506,134.725,103.677,106.134,0.00370486,0.0660345,20.9794,561.189,-0.211928,0.0,0.0
120,29.75,46.4297,49.2293,134.877,103.696,106.637,0.0031723,0.0612333,20.9843,561.208,-0.252963,0.0,0.0
126,31.25,45.995,49.0449,135.509,103.692,106.164,0.00269865,0.0572902,20.9882,561.208,-0.213064,0.0,0.0
132,32.75,46.4624,49.2799,135.413,103.693,106.485,0.00230647,0.0539072,20.9909,561.189,-0.240293,0.0,0.0
138,34.25,45.9138,48.5691,135.365,103.709,107.173,0.00181877,0.0511194,20.9943,561.189,-0.29722,0.0,0.0
144,35.75,45.5859,47.9465,133.649,103.722,106.399,0.00136405,0.0494248,20.9963,561.208,-0.230542,0.0,0.0
150,37.25,45.9976,48.4569,135.02,103.731,106.61,0.0010119,0.0480249,20.998,561.189,-0.247651,0.0,0.0
156,38.75,45.4413,48.3844,136.684,103.728,106.335,0.000796659,0.0467135,20.9994,561.179,-0.224599,0.0,0.0
162,40.25,45.0877,48.0362,135.322,103.759,107.246,0.000713889,0.0456406,21.0001,561.179,-0.299001,0.0,0.0
168,41.75,44.9888,47.7667,132.797,103.782,106.866,0.000756682,0.0448118,21.0005,561.148,-0.264899,0.0,0.0
174,43.25,44.8999,47.2456,134.131,103.786,106.174,0.000857242,0.0440861,21.0007,561.189,-0.205756,0.0,0.0
180,44.75,44.7307,47.6755,137.683,103.835,107.298,0.000855097,0.0435872,21.0008,561.148,-0.296768,0.0,0.0
186,46.25,44.4801,47.6068,132.359,103.838,107.407,0.000752884,0.0432559,21.0013,561.128,-0.305696,0.0,0.0
192,47.75,44.2804,47.1967,132.566,103.867,106.839,0.000622843,0.043001,21.0022,561.128,-0.255135,0.0,0.0
198,49.25,44.1373,46.8413,137.16,103.891,106.236,0.000483886,0.0428372,21.0027,561.179,-0.201941,0.0,0.0
204,50.75,43.8703,47.2827,136.305,103.92,107.151,0.000385615,0.0426829,21.0029,561.179,-0.27688,0.0,0.0
210,52.25,43.5829,46.5884,134.835,103.947,106.546,0.000343924,0.0426545,21.0031,561.199,-0.223382,0.0,0.0
216,53.75,44.0165,46.7756,134.059,103.971,106.693,0.000393395,0.0426194,21.0032,561.208,-0.233734,0.0,0.0
222,55.25,43.4841,46.5317,135.564,103.988,107.413,0.000492338,0.0424506,21.0032,561.189,-0.293106,0.0,0.0
228,56.75,43.6143,46.8101,134.55,104.036,107.249,0.000541836,0.0422758,21.0032,561.128,-0.275099,0.0,0.0
234,58.25,43.4919,47.1312,134.5,104.056,106.818,0.000512999,0.042352,21.004,561.118,-0.236886,0.0,0.0
240,59.75,43.1889,46.9601,135.934,104.099,107.342,0.000489619,0.0423526,21.0038,561.199,-0.277518,0.0,0.0
246,61.25,43.5657,46.2384,133.253,104.132,108.104,0.000498539,0.0422506,21.0042,561.169,-0.338636,0.0,0.0
252,62.75,43.3624,45.8275,132.93,104.172,107.22,0.000514106,0.0420687,21.0037,561.118,-0.260799,0.0,0.0
258,64.25,43.2784,45.8776,135.324,104.181,106.979,0.000538706,0.0419993,21.0031,561.128,-0.239727,0.0,0.0
264,65.75,43.0188,45.8924,135.202,104.233,107.715,0.000593256,0.0419763,21.0028,561.078,-0.297226,0.0,0.0
270,67.25,42.8801,46.1469,138.674,104.266,108.027,0.000644347,0.0419282,21.0026,561.058,-0.320536,0.0,0.0
276,68.75,43.2823,46.1732,135.475,104.313,107.446,0.000706443,0.0419291,21.0027,561.098,-0.267699,0.0,0.0
282,70.25,42.8504,46.3331,134.754,104.353,107.19,0.000792475,0.0419295,21.0034,561.128,-0.242666,0.0,0.0
288,71.75,43.085,45.7117,136.499,104.387,108.149,0.000850248,0.0419434,21.0038,561.108,-0.320229,0.0,0.0
294,73.25,43.1563,45.7575,134.396,104.401,107.167,0.000842481,0.0419414,21.004,561.118,-0.236601,0.0,0.0
300,74.75,42.7194,45.8604,134.474,104.45,107.267,0.00080228,0.0420106,21.0044,561.118,-0.240803,0.0,0.0
306,76.25,42.5361,45.5303,131.268,104.458,107.292,0.000728419,0.0421861,21.0047,561.048,-0.242152,0.0,0.0
312,77.75,42.4798,45.7185,133.864,104.486,107.284,0.000662714,0.0422194,21.0049,561.118,-0.239031,0.0,0.0
318,79.25,42.7519,45.9213,134.583,104.507,108.702,0.000666674,0.0422273,21.005,561.078,-0.356032,0.0,0.0
324,80.75,42.3559,45.8507,133.658,104.543,108.021,0.000695364,0.0423163,21.005,560.998,-0.296042,0.0,0.0
330,82.25,42.6861,45.7144,136.194,104.565,107.274,0.000735953,0.0423624,21.0051,561.048,-0.231289,0.0,0.0
336,83.75,42.9415,45.6357,135.153,104.589,107.914,0.000786519,0.042357,21.0051,561.028,-0.28316,0.0,0.0
342,85.25,43.0684,45.3574,132.955,104.635,107.128,0.000846903,0.0424136,21.0038,561.068,-0.212958,0.0,0.0
348,86.75,42.9905,45.7562,131.422,104.641,108.26,0.000906085,0.0425811,21.0029,561.018,-0.307589,0.0,0.0
354,88.25,42.8021,45.6664,135.418,104.68,107.965,0.000960792,0.0427593,21.0025,561.088,-0.279447,0.0,0.0
360,89.75,41.7743,44.9896,131.865,104.677,108.113,0.00101086,0.0427546,21.0022,561.068,-0.292176,0.0,0.0
366,91.25,42.8784,45.4985,135.349,104.709,108.044,0.00102687,0.0428613,21.002,561.018,-0.283671,0.0,0.0
372,92.75,42.487,45.7601,127.434,104.714,108.469,0.00102564,0.042904,21.0018,561.058,-0.318725,0.0,0.0
378,94.25,42.763,45.2793,134.758,104.726,108.08,0.00102687,0.0430517,21.0017,561.028,-0.285173,0.0,0.0
384,95.75,42.8599,45.2657,132.049,104.725,108.574,0.00101983,0.0431799,21.0019,561.058,-0.326511,0.0,0.0
390,97.25,43.0326,45.8416,135.107,104.764,108.555,0.000967909,0.0432093,21.0021,561.048,-0.321529,0.0,0.0
396,98.75,43.181,45.36,138.816,104.759,108.33,0.000954124,0.0431671,21.0023,561.028,-0.303201,0.0,0.0
402,100.25,43.1386,45.5783,133.841,104.775,107.937,0.000989297,0.0433035,21.0024,561.018,-0.268892,0.0,0.0
408,101.75,42.9407,45.4001,137.65,104.753,107.755,0.00102458,0.0435022,21.0024,560.998,-0.255588,0.0,0.0
414,103.25,43.0343,45.5129,136.938,104.769,108.507,0.00106542,0.0436662,21.0013,560.998,-0.317166,0.0,0.0
420,104.75,42.8066,45.795,132.255,104.779,107.684,0.00114359,0.0437286,21.0008,560.968,-0.247383,0.0,0.0
426,106.25,43.1732,45.5757,133.438,104.803,107.559,0.0012331,0.0437331,21.0002,560.958,-0.234773,0.0,0.0
432,107.75,43.3773,45.1138,133.871,104.792,108.005,0.00132552,0.0436091,21,560.958,-0.273168,0.0,0.0
438,109.25,43.1341,45.9685,135.441,104.799,108.096,0.00135295,0.0434107,21.0007,561.008,-0.280112,0.0,0.0
444,110.75,43.1915,45.4705,133.95,104.808,108.038,0.00129512,0.0432138,21.0011,560.998,-0.274512,0.0,0.0
450,112.25,43.3165,45.4747,130.646,104.822,107.857,0.0012371,0.043022,21.0013,560.968,-0.258165,0.0,0.0
456,113.75,43.0374,45.5088,133.983,104.83,108.214,0.00119419,0.04288,21.0015,560.948,-0.287418,0.0,0.0
462,115.25,42.8656,45.0647,136.813,104.831,107.234,0.00114154,0.0427553,21.0019,560.968,-0.205023,0.0,0.0
468,116.75,42.9419,45.1752,134.409,104.829,106.9,0.00109568,0.0425971,21.002,560.968,-0.176913,0.0,0.0
474,118.25,42.4392,45.5227,134.279,104.833,108.162,0.00108103,0.0424274,21.0021,560.938,-0.282728,0.0,0.0
480,119.75,42.8544,45.3618,135.487,104.847,108.094,0.00109097,0.0424032,21.0022,560.958,-0.275835,0.0,0.0
486,121.25,43.0322,45.0644,134.008,104.836,108.848,0.00107399,0.0424304,21.0022,560.958,-0.339667,0.0,0.0
492,122.75,43.2182,45.3812,134.552,104.848,107.365,0.000995632,0.0424155,21.0022,560.928,-0.214595,0.0,0.0
498,124.25,43.3808,45.7043,134.693,104.841,107.495,0.000901466,0.0423224,21.0022,560.908,-0.22616,0.0,0.0
504,125.75,42.7177,45.0901,134.688,104.857,107.77,0.000842801,0.0423223,21.0022,560.938,-0.247792,0.0,0.0
510,127.25,43.7088,45.2588,131.477,104.86,108.204,0.000820236,0.0422377,21.0026,560.938,-0.283938,0.0,0.0
516,128.75,43.4467,45.2727,134.567,104.862,108.401,,0.0421552,,560.908,-0.300208,0.0,0.0
522,130.25,43.4328,45.5493,132.299,104.849,108.245,,0.0421278,,560.888,-0.288348,0.0,0.0
528,131.75,43.3615,45.4825,133.502,104.879,106.965,,,,560.908,-0.178203,0.0,0.0
534,133.25,42.9024,45.2895,134.006,104.873,108.771,,,,560.898,-0.330068,0.0,0.0
540,134.75,43.0156,45.0882,135.909,104.876,108.612,,,,560.868,-0.316557,0.0,0.0
546,136.25,43.2798,45.62,137.081,104.861,108.457,,,,560.918,-0.30498,0.0,0.0
552,137.75,42.9992,45.3801,136.457,104.87,107.549,,,,560.888,-0.228225,0.0,0.0
554,138.25,42.8486,45.3833,133.949,104.877,108.433,,,,560.888,-0.301614,0.0,0.0