File: 01_Data/Hemp_Sheet/Cone/Hemp_Sheet_Cone_HF50Scan_220524_R2.csv
Names,Time,Stack TC,Smoke TC,Exh Press,Smoke Comp,Smoke Meas,CO Meter,CO2 Meter,O2 Meter,Sample Mass,Ext Coeff,Start Test,Flame Verif
Chan Gain,,500,500,1,1,1,1,1,1,1,1,1.0,1.0
Offset,,0,0,0.139323,0,0,0,0,0,0,0,0.0,0.0
Gain,,1,1,25.011,13.8491,15.2622,1,1,1,1.00087,1.03118,1.0,1.0
Units,sec,C,C,Pa,%,%,%,%,%,g,/m,,
Baseline,,36.0463,37.2926,138.872,104.291,106.066,0.00011547,0.0415405,21.0046,-452.597,-0.152576,,
7,1.5,32.1414,33.5358,138.369,103.694,104.774,0.00036196,0.0453128,20.9938,575.541,-0.0937162,0.0,0.0
14,3.25,31.8683,33.9111,137.143,103.701,105.034,0.000582589,0.0473374,20.9944,575.441,-0.115503,0.0,0.0
21,5,32.4503,33.6637,139.791,103.699,106.431,0.00109535,0.0680115,20.9389,575.231,-0.235148,0.0,1.0
28,6.75,32.9939,34.0577,113.722,103.703,109.387,0.00195639,0.221803,20.6825,574.8,-0.482676,0.0,1.0
35,8.5,37.1754,35.9706,106.821,103.704,109.039,0.00266754,0.423229,20.4991,574.4,-0.453822,0.0,1.0
42,10.25,40.7835,37.3422,116.971,103.718,105.941,0.00332547,0.526961,20.4246,574.14,-0.191866,0.0,0.0
49,12,43.4575,40.2582,133.532,103.726,107.257,0.00401783,0.49989,20.4927,574.13,-0.302782,0.0,0.0
56,13.75,43.4954,41.3469,138.985,103.72,106.244,0.0051441,0.407753,20.6299,574.09,-0.217532,0.0,0.0
63,15.5,43.0988,42.0291,137.027,103.721,106.443,0.0063133,0.308187,20.7377,574.03,-0.234298,0.0,0.0
70,17.25,42.1469,42.1081,136.726,103.742,105.157,0.00745633,0.231567,20.8203,574.09,-0.122548,0.0,0.0
77,19,41.6604,41.8634,141.671,103.756,105.593,0.00808714,0.175619,20.8782,574.09,-0.158715,0.0,0.0
84,20.75,41.0729,41.3089,138.734,103.743,105.873,0.00814968,0.139297,20.915,574.06,-0.183807,0.0,0.0
91,22.5,40.6951,41.693,138.978,103.747,106.03,0.00775098,0.116311,20.9371,574.05,-0.196912,0.0,0.0
98,24.25,40.0296,41.0624,139.691,103.758,106.697,0.00711536,0.100752,20.9516,574.04,-0.252679,0.0,0.0
105,26,40.355,40.8243,136.957,103.773,105.475,0.00647779,0.0896571,20.9602,574.07,-0.147103,0.0,0.0
112,27.75,39.8839,40.8198,139.442,103.775,106.092,0.00558646,0.0805496,20.9671,574.04,-0.19969,0.0,0.0
119,29.5,39.281,40.3101,137.819,103.772,106.066,0.00462464,0.0723787,20.9745,574.05,-0.197838,0.0,0.0
126,31.25,38.0353,39.4584,141.161,103.783,105.975,0.00383684,0.0653092,20.9817,574.08,-0.189055,0.0,0.0
133,33,39.0508,40.6428,138.662,103.8,105.738,0.00299157,0.0598115,20.9863,574.05,-0.167286,0.0,0.0
140,34.75,38.4309,40.4442,139.358,103.8,105.561,0.00229231,0.0557223,20.9918,574.03,-0.152132,0.0,0.0
147,36.5,38.1803,40.1567,141.111,103.798,105.783,0.00173021,0.0519508,20.9956,574.01,-0.171295,0.0,0.0
154,38.25,38.0161,39.8761,139.723,103.791,105.37,0.00124302,0.0493162,20.9974,573.97,-0.136601,0.0,0.0
161,40,37.61,39.2625,138.887,103.807,105.374,0.00083642,0.047367,20.9993,574.02,-0.135526,0.0,0.0
168,41.75,37.8026,39.8097,141.383,103.816,106.372,0.000561506,0.0460662,21.0004,574.01,-0.219953,0.0,0.0
175,43.5,36.7074,39.0997,140.566,103.811,105.474,0.000412385,0.0448186,21.0018,574,-0.143709,0.0,0.0
182,45.25,36.5954,38.7213,138.261,103.802,105.81,0.000350919,0.0438364,21.0027,573.99,-0.173276,0.0,0.0
189,47,36.6413,39.0893,137.66,103.806,105.919,0.00034312,0.0432108,21.0032,573.99,-0.182217,0.0,0.0
196,48.75,36.4994,38.7259,139.72,103.822,105.561,0.000328762,0.0426868,21.0035,574.01,-0.150255,0.0,0.0
203,50.5,36.0566,38.6766,139.67,103.833,105.392,0.000260477,0.0423294,21.0039,573.98,-0.134801,0.0,0.0
210,52.25,35.9741,38.7276,137.614,103.824,105.679,0.000182794,0.041883,21.0041,574.01,-0.160126,0.0,0.0
217,54,36.3685,38.2477,138.837,103.816,105.725,0.000154455,0.0416457,21.0042,574.01,-0.164808,0.0,0.0
224,55.75,36.203,38.5202,139.727,103.851,106.357,0.000162817,0.041445,21.0042,574,-0.215744,0.0,0.0
231,57.5,36.0313,38.6066,139.547,103.863,105.878,0.000142127,0.0413907,21.0043,573.99,-0.173822,0.0,0.0
238,59.25,36.1885,37.7579,138.417,103.87,105.537,7.99843e-05,0.0413829,21.0043,574,-0.144059,0.0,0.0
245,61,35.6379,37.766,139.128,103.875,105.436,6.91709e-05,0.0412824,21.0043,574,-0.134914,0.0,0.0
252,62.75,34.9977,37.7434,142.943,103.89,105.616,0.000144003,0.041303,21.0043,574.01,-0.149,0.0,0.0
259,64.5,35.3029,37.5291,138.067,103.91,105.793,0.000275009,0.0413163,21.0043,574,-0.162453,0.0,0.0
266,66.25,35.499,37.2749,140.127,103.916,105.514,0.000387207,0.0411383,21.0043,573.99,-0.138014,0.0,0.0
273,68,35.1521,37.2343,138.527,103.911,106.383,0.000375821,0.0411405,21.0043,573.99,-0.212735,0.0,0.0
280,69.75,35.254,37.4366,137.764,103.905,105.651,0.000257415,0.0410661,21.0043,573.97,-0.15074,0.0,0.0
287,71.5,34.863,37.3839,136.658,103.934,106.532,0.000168134,0.0410873,21.0043,573.98,-0.223297,0.0,0.0
294,73.25,34.598,37.2499,141.399,103.928,105.447,0.000157563,0.0410274,21.0039,574,-0.131236,0.0,0.0
301,75,34.9306,37.0749,139.915,103.931,105.243,9.30101e-05,0.0409968,21.0041,573.97,-0.113499,0.0,0.0
308,76.75,34.464,36.9631,139.025,103.935,105.186,-3.09583e-05,0.0409416,21.0043,573.94,-0.108283,0.0,0.0
315,78.5,34.3269,36.3897,138.796,103.942,105.928,-7.47034e-05,0.0408983,21.0044,573.94,-0.171276,0.0,0.0
322,80.25,34.7794,36.8578,139.262,103.957,106.257,-3.09342e-05,0.0408193,21.0038,573.96,-0.197947,0.0,0.0
329,82,34.1347,36.8583,138.943,103.955,106.367,6.98133e-05,0.0407347,21.003,573.95,-0.207487,0.0,0.0
336,83.75,34.4562,36.6733,136.507,103.947,106.17,0.000179188,0.0406999,21.0026,573.93,-0.191415,0.0,0.0
343,85.5,33.9741,36.1367,141.896,103.966,105.509,0.000303563,0.0406369,21.0023,573.9,-0.133199,0.0,0.0
350,87.25,33.7598,36.4242,135.484,103.975,106.209,0.000378908,0.0406508,21.0018,573.95,-0.192319,0.0,0.0
357,89,34.6948,36.5303,142.409,103.986,106.15,0.000375169,0.0406687,21.0015,573.96,-0.186289,0.0,0.0
364,90.75,34.1503,36.3051,138.669,103.994,106.156,0.000295083,0.0406534,21.0025,573.98,-0.186141,0.0,0.0
371,92.5,34.6331,36.3021,138.837,104.015,106.424,0.000204032,0.0406461,21.0031,573.96,-0.207058,0.0,0.0
378,94.25,34.8586,36.5063,136.11,104.02,106.293,0.0001981,0.0406955,21.0034,573.97,-0.195526,0.0,0.0
385,96,33.9206,35.8371,138.645,104.021,105.74,0.000312534,0.0407402,21.0037,573.95,-0.148317,0.0,0.0
392,97.75,34.2368,35.6872,137.034,104.024,106.003,0.000408197,0.0407766,21.004,573.95,-0.170471,0.0,0.0
399,99.5,34.3877,36.62,137.192,104.015,105.812,0.000436574,0.0406935,21.0043,573.97,-0.15489,0.0,0.0
406,101.25,34.3107,36.3691,132.385,104.033,106.035,0.000302324,0.0407351,21.0044,573.96,-0.1724,0.0,0.0
413,103,34.4853,36.4787,141.147,104.018,106.686,0.000112329,0.0408234,21.0044,573.95,-0.229024,0.0,0.0
420,104.75,34.7222,35.6704,140.093,104.022,105.837,4.10831e-05,0.0408112,21.0034,573.94,-0.15649,0.0,0.0
427,106.5,34.3002,36.4591,138.915,104.013,106.005,8.28155e-05,0.0406474,21.0038,573.93,-0.171545,0.0,0.0
434,108.25,33.9133,36.2006,138.103,103.987,105.827,0.000125051,0.0406339,21.0042,573.93,-0.158706,0.0,0.0
441,110,33.769,36.1151,137.296,103.978,106.231,0.000155675,0.0407137,21.0043,573.91,-0.193891,0.0,0.0
448,111.75,33.9744,36.0573,138.306,103.966,106.471,0.000158756,0.0406559,21.0044,573.91,-0.215399,0.0,0.0
455,113.5,34.1714,36.0469,141.583,103.947,105.923,0.0001409,0.0407855,21.0044,573.86,-0.170396,0.0,0.0
462,115.25,33.8111,35.7908,134.434,103.928,105.831,0.000136667,0.0409369,21.0037,573.93,-0.164173,0.0,0.0
469,117,34.0985,35.917,135.985,103.9,105.852,0.000121024,0.0409207,21.0041,573.94,-0.168315,0.0,0.0
476,118.75,33.9846,35.7868,138.401,103.898,106.193,5.51858e-05,0.0409623,21.0042,573.95,-0.197666,0.0,0.0
483,120.5,34.4196,36.1655,138.395,103.864,105.933,8.14172e-05,0.0410003,21.0043,573.93,-0.178403,0.0,0.0
490,122.25,34.3687,36.0952,139.23,103.836,105.778,0.000146298,0.0411539,21.0043,573.95,-0.16758,0.0,0.0
497,124,34.2286,35.9402,137.349,103.821,106.56,0.000116014,0.0412027,21.0043,573.96,-0.235496,0.0,0.0
504,125.75,34.359,35.8061,139.489,103.804,105.591,2.93574e-05,0.0413288,21.0043,573.95,-0.154395,0.0,0.0
511,127.5,33.7814,35.9624,143.592,103.792,105.713,-5.05313e-05,0.041282,21.0045,573.94,-0.165874,0.0,0.0
518,129.25,34.1843,35.7068,135.742,103.745,106.362,-5.77951e-05,0.0413098,21.0048,573.95,-0.225384,0.0,0.0
525,131,33.6821,35.9399,138.187,103.738,105.822,4.12782e-05,0.0413168,21.005,573.92,-0.179948,0.0,0.0
532,132.75,33.8736,35.6159,138.175,103.726,106.336,0.000144407,0.0413451,21.0051,573.91,-0.224787,0.0,0.0
539,134.5,34.132,35.991,139.099,103.699,105.466,0.000203728,0.0414398,21.0051,573.93,-0.152871,0.0,0.0
546,136.25,34.2282,36.045,137.176,103.677,105.88,0.000188017,0.0414891,21.0039,573.91,-0.190268,0.0,0.0
553,138,34.1177,35.9873,141.383,103.65,106.384,0.000162796,0.0414101,21.0034,573.93,-0.235503,0.0,0.0
560,139.75,34.2066,35.8027,140.533,103.653,105.828,,0.0414234,,573.9,-0.187799,0.0,0.0
567,141.5,34.3424,35.8872,137.519,103.655,105.559,,,,573.93,-0.164688,0.0,0.0
574,143.25,34.3406,36.0612,134.978,103.653,105.191,,,,573.93,-0.133251,0.0,0.0
581,145,34.2297,35.97,141.057,103.644,105.58,,,,573.91,-0.167367,0.0,0.0
588,146.75,34.3949,35.758,137.747,103.669,105.519,,,,573.89,-0.160001,0.0,0.0
595,148.5,34.4715,35.9351,137.202,103.69,105.452,,,,573.88,-0.152406,0.0,0.0
597,149,34.383,35.8362,137.446,103.683,106.056,,,,573.85,-0.204667,0.0,0.0