File: 01_Data/Hemp_Sheet/Cone/Hemp_Sheet_Cone_HF50Scan_220524_R1.csv
Names,Time,Stack TC,Smoke TC,Exh Press,Smoke Comp,Smoke Meas,CO Meter,CO2 Meter,O2 Meter,Sample Mass,Ext Coeff,Start Test,Flame Verif
Chan Gain,,500,500,1,1,1,1,1,1,1,1,1.0,1.0
Offset,,0,0,0.139323,0,0,0,0,0,0,0,0.0,0.0
Gain,,1,1,25.011,13.8491,15.2622,1,1,1,1.00087,1.03118,1.0,1.0
Units,sec,C,C,Pa,%,%,%,%,%,g,/m,,
Baseline,,35.9197,37.2014,139.422,105.533,107.273,0.000242714,0.0414614,21.0019,-452.562,-0.147843,,
6,1.25,31.3303,32.5834,136.863,105.214,106.561,0.000305945,0.0480262,20.9871,563.01,-0.115093,0.0,0.0
12,2.75,31.4118,32.5109,136.608,105.205,106.083,0.000383865,0.0502504,20.9775,563.04,-0.0751565,0.0,0.0
18,4.25,31.9973,33.0701,138.409,105.227,104.81,0.000699505,0.0711016,20.941,562.86,0.0359267,0.0,0.0
24,5.75,31.8599,33.2464,119.112,105.224,110.361,0.00128348,0.160614,20.8331,562.49,-0.431104,0.0,1.0
30,7.25,34.4084,33.9821,102.25,105.242,110.45,0.00193162,0.317645,20.6441,562.179,-0.436903,0.0,1.0
36,8.75,38.9087,36.3392,109.35,105.242,108.981,0.00249217,0.46746,20.5398,561.789,-0.315754,0.0,1.0
42,10.25,40.9149,37.825,126.415,105.279,107.514,0.00290416,0.519706,20.4964,561.709,-0.190028,0.0,0.0
48,11.75,42.5863,39.6375,127.535,105.264,110.09,0.00336888,0.48597,20.5264,561.619,-0.405408,0.0,0.0
54,13.25,42.9387,40.8208,133.552,105.292,108.304,0.00400315,0.422252,20.5895,561.509,-0.255083,0.0,0.0
60,14.75,42.7141,41.2909,133.833,105.294,107.55,0.00488638,0.352057,20.6643,561.539,-0.191773,0.0,0.0
66,16.25,42.4826,41.8211,135.824,105.328,107.528,0.00590229,0.283782,20.7357,561.509,-0.187031,0.0,0.0
72,17.75,42.4848,41.9726,137.728,105.319,107.199,0.00678191,0.22878,20.7998,561.529,-0.160047,0.0,0.0
78,19.25,41.705,41.7901,136.317,105.381,106.573,0.00738017,0.188682,20.8488,561.469,-0.101776,0.0,0.0
84,20.75,41.2328,41.5033,141.644,105.369,106.607,0.0076373,0.15701,20.8837,561.419,-0.105717,0.0,0.0
90,22.25,40.3187,41.2248,139.678,105.398,107.246,0.00767069,0.132943,20.9101,561.469,-0.157194,0.0,0.0
96,23.75,39.3419,40.1509,138.933,105.411,107.301,0.00746217,0.115492,20.9284,561.359,-0.160704,0.0,0.0
102,25.25,38.4645,39.5501,135.726,105.444,107.079,0.00695426,0.102589,20.9388,561.309,-0.139166,0.0,0.0
108,26.75,36.9611,38.2312,139.127,105.455,107.235,0.00642665,0.0921564,20.9498,561.369,-0.151358,0.0,0.0
114,28.25,36.4281,37.7093,140.095,105.491,107.146,0.005645,0.0838829,20.9589,561.339,-0.14081,0.0,0.0
120,29.75,36.2194,37.9844,136.115,105.507,106.635,0.00478881,0.0776245,20.9684,561.329,-0.0961522,0.0,0.0
126,31.25,36.0077,37.5981,137.223,105.529,106.879,0.00405102,0.0706974,20.976,561.359,-0.114987,0.0,0.0
132,32.75,35.5558,37.4222,138.685,105.54,107.215,0.00332986,0.0646708,20.9823,561.369,-0.142461,0.0,0.0
138,34.25,36.2631,37.3054,135.218,105.579,107.729,0.00264666,0.0596157,20.9881,561.419,-0.182329,0.0,0.0
144,35.75,34.839,37.1065,139.005,105.585,106.971,0.00207269,0.0555321,20.9936,561.389,-0.117969,0.0,0.0
150,37.25,35.3526,36.9739,139.445,105.592,107.926,0.00170649,0.052297,20.9951,561.359,-0.197774,0.0,0.0
156,38.75,34.856,37.155,138.596,105.614,107.531,0.00134221,0.0495653,20.997,561.349,-0.162724,0.0,0.0
162,40.25,34.6153,36.9464,141.323,105.614,107.297,0.00104633,0.0479668,20.9988,561.339,-0.142999,0.0,0.0
168,41.75,34.5483,36.448,141.787,105.633,106.876,0.000843143,0.0465634,21,561.369,-0.105807,0.0,0.0
174,43.25,33.9045,36.2686,137.837,105.635,107.4,0.000762246,0.0454434,21.0006,561.399,-0.149898,0.0,0.0
180,44.75,34.1661,36.3917,140.416,105.66,107.627,0.000715768,0.0447111,21.001,561.379,-0.166775,0.0,0.0
186,46.25,33.7932,35.4814,137.591,105.672,107.013,0.000648903,0.0440839,21.0012,561.369,-0.114059,0.0,0.0
192,47.75,33.6905,35.8752,139.789,105.698,107.317,0.000590586,0.0436057,21.0013,561.349,-0.137489,0.0,0.0
198,49.25,33.9241,35.6632,138.825,105.686,107.106,0.000586481,0.0431484,21.0017,561.409,-0.120737,0.0,0.0
204,50.75,33.5392,35.3943,143.164,105.722,108.307,0.000574109,0.0428074,21.0026,561.399,-0.218466,0.0,0.0
210,52.25,33.409,35.6047,139.41,105.718,107.388,0.000495938,0.0424885,21.0029,561.419,-0.14179,0.0,0.0
216,53.75,33.0787,35.4912,137.039,105.739,107.772,0.000340834,0.042248,21.0026,561.399,-0.172252,0.0,0.0
222,55.25,33.6827,35.4537,140.007,105.722,107.584,0.000219891,0.042081,21.0024,561.399,-0.157928,0.0,0.0
228,56.75,33.5488,34.8085,138.295,105.739,107.571,0.000154945,0.0420122,21.0023,561.409,-0.155313,0.0,0.0
234,58.25,33.3999,34.7917,137.463,105.731,107.568,0.000115736,0.0419684,21.0023,561.439,-0.155803,0.0,0.0
240,59.75,32.214,34.9539,139.128,105.761,107.341,5.9995e-05,0.0418605,21.0026,561.399,-0.134064,0.0,0.0
246,61.25,32.2992,34.9295,138.648,105.745,107.518,-2.12196e-05,0.041753,21.0029,561.389,-0.150379,0.0,0.0
252,62.75,33.1518,34.6897,134.98,105.755,107.295,-0.000106192,0.0416543,21.0031,561.389,-0.130798,0.0,0.0
258,64.25,32.7704,35.0756,140.066,105.755,106.693,-0.000173702,0.0415625,21.0032,561.429,-0.0799207,0.0,0.0
264,65.75,32.74,34.5712,138.743,105.746,106.995,-0.000167494,0.0414701,21.0033,561.379,-0.106192,0.0,0.0
270,67.25,32.617,34.837,139.895,105.74,107.183,-6.99241e-05,0.0414168,21.0033,561.369,-0.122596,0.0,0.0
276,68.75,32.8337,35.1104,138.51,105.739,108.018,5.15621e-05,0.0413004,21.0033,561.329,-0.192908,0.0,0.0
282,70.25,32.4719,34.5347,139.891,105.734,107.437,0.000104281,0.0412474,21.0033,561.409,-0.144535,0.0,0.0
288,71.75,32.3211,34.758,140.114,105.728,107.921,8.41931e-05,0.0411818,21.0033,561.369,-0.185729,0.0,0.0
294,73.25,32.3485,34.464,137.279,105.712,107.349,0.000105951,0.041062,21.0033,561.389,-0.138964,0.0,0.0
300,74.75,32.3439,34.5572,142.472,105.698,106.972,0.00016637,0.0411063,21.0033,561.369,-0.108388,0.0,0.0
306,76.25,31.888,34.2537,137.157,105.704,107.589,0.000198112,0.0411018,21.0033,561.369,-0.159877,0.0,0.0
312,77.75,32.4219,34.3018,138.117,105.687,107.479,0.000117075,0.0409702,21.0033,561.399,-0.152153,0.0,0.0
318,79.25,31.9414,34.0324,137.865,105.699,107.032,5.2974e-05,0.040876,21.0033,561.419,-0.113359,0.0,0.0
324,80.75,31.9843,34.218,139.31,105.665,107.594,7.45619e-05,0.0408659,21.0033,561.379,-0.163672,0.0,0.0
330,82.25,31.4593,33.6232,140.079,105.666,106.81,0.000116698,0.0407725,21.0037,561.389,-0.0973816,0.0,0.0
336,83.75,32.0558,34.1524,138.024,105.641,107.605,0.000106499,0.0408276,21.0044,561.409,-0.166602,0.0,0.0
342,85.25,31.8889,34.1991,135.106,105.64,107.926,9.0307e-05,0.0408984,21.0048,561.399,-0.193683,0.0,0.0
348,86.75,32.3155,34.2961,139.351,105.627,107.323,0.000133674,0.0409187,21.005,561.419,-0.144111,0.0,0.0
354,88.25,31.7819,34.3056,140.197,105.617,108.075,0.000223271,0.0410387,21.0051,561.419,-0.208084,0.0,0.0
360,89.75,31.6023,33.862,135.168,105.599,107.728,0.000310787,0.0410773,21.0052,561.399,-0.180549,0.0,0.0
366,91.25,32.0825,34.2543,139.377,105.612,107.631,0.000350718,0.0409899,21.0056,561.399,-0.171328,0.0,0.0
372,92.75,31.8203,34.1668,142.177,105.557,106.932,0.000344835,0.0411299,21.0059,561.399,-0.11705,0.0,0.0
378,94.25,31.4357,34.082,142.47,105.557,107.629,0.000328688,0.041175,21.006,561.409,-0.175842,0.0,0.0
384,95.75,31.6009,33.9284,137.377,105.544,108.262,0.000303522,0.0412354,21.0061,561.439,-0.229967,0.0,0.0
390,97.25,32.1681,33.9238,134.276,105.54,107.414,0.000272249,0.0413213,21.0061,561.429,-0.159189,0.0,0.0
396,98.75,31.616,33.1291,138.942,105.507,107.721,0.000253255,0.0413575,21.0061,561.429,-0.187825,0.0,0.0
402,100.25,32.1263,33.6431,134.832,105.487,107.022,0.000219036,0.041341,21.006,561.429,-0.130664,0.0,0.0
408,101.75,31.5388,33.892,138.62,105.447,106.84,8.66042e-05,0.0413983,21.0057,561.419,-0.118669,0.0,0.0
414,103.25,32.2265,33.3857,136.361,105.417,107.454,-7.34416e-05,0.0413724,21.0055,561.399,-0.17318,0.0,0.0
420,104.75,31.9502,33.4899,137.482,105.404,107.016,-0.000160571,0.0414299,21.0054,561.449,-0.137299,0.0,0.0
426,106.25,31.7258,33.5949,140.453,105.38,106.448,-6.86065e-05,0.0415226,21.0051,561.399,-0.0912477,0.0,0.0
432,107.75,31.9809,33.7083,138.691,105.351,107.123,7.11074e-05,0.0415119,21.0049,561.399,-0.150884,0.0,0.0
438,109.25,31.4215,33.7611,137.424,105.313,106.722,0.000225467,0.0415309,21.0048,561.409,-0.120221,0.0,0.0
444,110.75,31.7346,33.5722,138.716,105.298,107.343,0.000311467,0.0416674,21.0047,561.419,-0.173965,0.0,0.0
450,112.25,31.7258,33.0328,139.326,105.257,107.403,0.000336774,0.041656,21.0047,561.419,-0.182625,0.0,0.0
456,113.75,31.8004,33.2984,135.007,105.221,107.537,0.000333477,0.0416695,21.0039,561.419,-0.196888,0.0,0.0
462,115.25,31.6828,33.259,136.307,105.186,106.903,0.000318499,0.0416908,21.0031,561.419,-0.146425,0.0,0.0
468,116.75,31.431,33.3682,136.986,105.152,107.297,0.000299152,0.0416949,21.0028,561.389,-0.182724,0.0,0.0
474,118.25,31.661,33.4356,138.047,105.109,106.726,0.00029083,0.0416707,21.0026,561.399,-0.13809,0.0,0.0
480,119.75,31.7884,33.4394,139.779,105.086,107.099,0.000325731,0.0416872,21.0024,561.389,-0.171582,0.0,0.0
486,121.25,31.6926,33.5031,137.883,105.032,106.869,0.000406101,0.0417674,21.0024,561.389,-0.156863,0.0,0.0
492,122.75,31.4858,33.9126,139.187,105.007,107.011,0.000531128,0.0417513,21.0024,561.399,-0.171026,0.0,0.0
498,124.25,31.995,33.3648,135.715,104.958,107.038,0.000556306,0.0416461,21.0023,561.369,-0.177458,0.0,0.0
504,125.75,31.4762,33.287,137.286,104.95,107.175,0.000500248,0.0416284,21.0023,561.379,-0.189827,0.0,0.0
510,127.25,31.8714,33.0188,138.014,104.877,107.522,0.000449484,0.0417026,21.0023,561.359,-0.225333,0.0,0.0
516,128.75,31.8813,33.4692,137.659,104.858,106.501,0.000454608,0.0417448,21.0028,561.369,-0.140598,0.0,0.0
522,130.25,31.776,32.9507,135.75,104.833,107.065,0.000502194,0.0416972,21.0038,561.369,-0.190604,0.0,0.0
528,131.75,31.4281,33.535,141.636,104.79,106.845,0.000503982,0.0415039,21.0043,561.379,-0.175693,0.0,0.0
534,133.25,31.9301,33.1993,138.424,104.743,106.606,,0.0414965,,561.329,-0.159456,0.0,0.0
540,134.75,31.9316,33.273,138.275,104.703,106.923,,0.0416325,,561.359,-0.189797,0.0,0.0
546,136.25,31.9538,34.0133,138.589,104.668,106.206,,,,561.349,-0.131907,0.0,0.0
552,137.75,31.5752,33.4718,140.829,104.634,106.079,,,,561.349,-0.12407,0.0,0.0
558,139.25,31.7745,33.4934,138.413,104.602,106.657,,,,561.319,-0.175961,0.0,0.0
564,140.75,31.7345,33.8877,139.304,104.571,105.744,,,,561.329,-0.10091,0.0,0.0
570,142.25,32.0921,33.9893,140.743,104.546,106.058,,,,561.319,-0.129921,0.0,0.0
572,142.75,31.6984,33.4039,139.91,104.532,106.136,,,,561.349,-0.137723,0.0,0.0