File: 01_Data/Hemp_Sheet/Cone/Hemp_Sheet_Cone_HF50Scan_220524_R3.csv
Names,Time,Stack TC,Smoke TC,Exh Press,Smoke Comp,Smoke Meas,CO Meter,CO2 Meter,O2 Meter,Sample Mass,Ext Coeff,Start Test,Flame Verif
Chan Gain,,500,500,1,1,1,1,1,1,1,1,1.0,1.0
Offset,,0,0,0.139323,0,0,0,0,0,0,0,0.0,0.0
Gain,,1,1,25.011,13.8491,15.2622,1,1,1,1.00087,1.03118,1.0,1.0
Units,sec,C,C,Pa,%,%,%,%,%,g,/m,,
Baseline,,38.1443,39.3242,139.477,104.727,106.729,0.000268304,0.0410222,21.0034,-452.525,-0.171218,,
6,1.25,33.7147,35.8955,136.622,104.722,105.84,0.000597379,0.0440925,20.9933,564.151,-0.0961124,0.0,0.0
12,2.75,33.3996,35.6299,136.874,104.753,105.731,0.000673335,0.0461571,20.9867,564.141,-0.084055,0.0,0.0
18,4.25,33.9099,35.4433,143.358,104.76,105.721,0.000767989,0.0704115,20.9585,564.141,-0.0825548,0.0,0.0
24,5.75,34.6265,34.8466,108.995,104.781,110.826,0.00145183,0.156464,20.8409,564.111,-0.507353,0.0,1.0
30,7.25,36.947,36.5723,103.412,104.789,110.171,0.00213284,0.328488,20.6076,563.25,-0.453089,0.0,1.0
36,8.75,41.702,39.073,107.403,104.819,108.001,0.00266987,0.489032,20.4836,563.01,-0.270517,0.0,1.0
42,10.25,44.1514,40.5909,128.896,104.835,108.134,0.00301481,0.533761,20.4675,562.94,-0.280244,0.0,0.0
48,11.75,45.2398,42.8846,130.146,104.846,108.509,0.00349602,0.487062,20.5307,562.8,-0.310606,0.0,0.0
54,13.25,45.219,43.1791,135.758,104.893,108.165,0.00439261,0.423134,20.6118,562.78,-0.277824,0.0,0.0
60,14.75,45.2853,44.2621,139.288,104.904,107.595,0.00538969,0.340537,20.6941,562.82,-0.22915,0.0,0.0
66,16.25,44.9628,44.2766,138.322,104.911,107.182,0.00637954,0.267402,20.7737,562.79,-0.193656,0.0,0.0
72,17.75,44.2811,44.2199,139.615,104.917,107.57,0.00715599,0.211554,20.8306,562.79,-0.225906,0.0,0.0
78,19.25,43.6392,43.4242,136.059,104.942,107.323,0.00765742,0.170878,20.8701,562.8,-0.202939,0.0,0.0
84,20.75,43.4717,43.5165,137.031,104.954,107.578,0.00784266,0.143283,20.9,562.78,-0.223326,0.0,0.0
90,22.25,43.1391,43.9066,139.045,104.966,106.844,0.00773386,0.123378,20.9216,562.78,-0.160377,0.0,0.0
96,23.75,42.5659,43.2816,137.486,104.969,106.78,0.00733865,0.108726,20.9371,562.74,-0.154679,0.0,0.0
102,25.25,42.1847,42.814,135.016,104.994,107.277,0.00680378,0.0977604,20.9485,562.74,-0.194532,0.0,0.0
108,26.75,40.0009,41.0996,137.304,104.988,106.951,0.00615059,0.0876666,20.9566,562.77,-0.167585,0.0,0.0
114,28.25,40.1572,40.9586,138.762,105.007,107.041,0.00536107,0.0796749,20.9636,562.73,-0.17347,0.0,0.0
120,29.75,39.5063,40.7373,137.822,105.002,106.88,0.00462477,0.0726039,20.9728,562.72,-0.160393,0.0,0.0
126,31.25,39.587,40.5114,138.951,105.018,107.605,0.0039412,0.0661656,20.9804,562.71,-0.220101,0.0,0.0
132,32.75,38.6934,40.341,136.422,105.001,106.761,0.00315666,0.0606501,20.9859,562.74,-0.15037,0.0,0.0
138,34.25,38.9404,40.0733,138.723,105.016,107.152,0.00242046,0.0563724,20.9904,562.73,-0.182108,0.0,0.0
144,35.75,38.4922,40.499,141.387,105.001,107.233,0.00187909,0.0530983,20.9936,562.64,-0.190296,0.0,0.0
150,37.25,38.2323,39.7849,139.801,105.008,107.525,0.00142784,0.0504662,20.9962,562.66,-0.214275,0.0,0.0
156,38.75,37.8783,40.003,140.689,104.995,106.553,0.00109612,0.0483981,20.9989,562.69,-0.133298,0.0,0.0
162,40.25,37.5148,39.528,141.33,104.995,107.368,0.00080841,0.046748,21.0003,562.65,-0.20215,0.0,0.0
168,41.75,37.4094,39.55,141.019,104.985,107.197,0.000575995,0.0455527,21.0029,562.65,-0.188575,0.0,0.0
174,43.25,37.6775,39.1875,137.291,104.971,106.871,0.000471275,0.0447691,21.0046,562.6,-0.162263,0.0,0.0
180,44.75,36.8974,39.0585,138.934,104.954,107.289,0.000476623,0.0441147,21.0055,562.61,-0.199049,0.0,0.0
186,46.25,36.9805,38.806,137.354,104.962,106.983,0.000533109,0.043608,21.006,562.61,-0.172485,0.0,0.0
192,47.75,36.5968,38.8903,137.988,104.929,107.144,0.000567708,0.0431148,21.0062,562.67,-0.188902,0.0,0.0
198,49.25,35.8182,38.4835,139.786,104.925,106.18,0.000559371,0.0426654,21.0061,562.66,-0.107544,0.0,0.0
204,50.75,36.4719,38.4001,139.371,104.911,106.327,0.000517615,0.0422625,21.0049,562.67,-0.12127,0.0,0.0
210,52.25,35.7952,38.5967,142.194,104.903,106.601,0.000493833,0.0419476,21.0052,562.63,-0.145238,0.0,0.0
216,53.75,35.8366,38.2711,140.329,104.878,107.196,0.000456877,0.0418631,21.0055,562.65,-0.19779,0.0,0.0
222,55.25,35.8597,38.1277,142.1,104.86,106.793,0.00040163,0.0416783,21.0057,562.69,-0.165297,0.0,0.0
228,56.75,35.8126,38.2366,134.494,104.848,107.084,0.000330565,0.0414991,21.0058,562.64,-0.190826,0.0,0.0
234,58.25,35.0405,37.8966,140.805,104.815,106.992,0.000269666,0.0414322,21.0058,562.63,-0.185992,0.0,0.0
240,59.75,35.2873,38.0108,139.602,104.79,106.736,0.000266037,0.0415238,21.0059,562.57,-0.166385,0.0,0.0
246,61.25,35.8418,37.5899,133.382,104.755,106.857,0.000274452,0.0413399,21.0059,562.66,-0.17967,0.0,0.0
252,62.75,35.1052,37.489,141.574,104.745,106.602,0.000199553,0.0410622,21.0059,562.67,-0.158994,0.0,0.0
258,64.25,34.975,37.584,139.473,104.723,106.271,0.000108962,0.0409449,21.0059,562.69,-0.132672,0.0,0.0
264,65.75,35.3512,37.6969,137.811,104.727,106.39,4.93549e-05,0.0409272,21.0059,562.72,-0.142524,0.0,0.0
270,67.25,35.0924,37.7342,137.453,104.675,106.662,5.16471e-05,0.0408595,21.0059,562.69,-0.170072,0.0,0.0
276,68.75,35.0394,37.179,141.296,104.665,106.196,0.000130083,0.040869,21.0054,562.63,-0.131327,0.0,0.0
282,70.25,34.936,36.5957,141.242,104.639,106.256,0.000272159,0.0408905,21.0047,562.67,-0.138671,0.0,0.0
288,71.75,34.9417,37.0184,138.238,104.619,106.659,0.000364958,0.040849,21.0042,562.62,-0.174733,0.0,0.0
294,73.25,34.9715,37.3121,140.836,104.575,106.384,0.000403736,0.0408083,21.0048,562.62,-0.155123,0.0,0.0
300,74.75,34.3937,36.8227,137.947,104.57,106.552,0.0003874,0.0407627,21.0053,562.64,-0.169883,0.0,0.0
306,76.25,34.3085,36.6942,137.104,104.531,106.424,0.000416487,0.0407968,21.0056,562.62,-0.162292,0.0,0.0
312,77.75,34.4153,36.9537,138.491,104.524,106.744,0.000503607,0.0408821,21.0057,562.61,-0.190072,0.0,0.0
318,79.25,34.4024,36.6303,138.198,104.499,106.56,0.000598819,0.0409299,21.0058,562.61,-0.1767,0.0,0.0
324,80.75,34.2376,36.3981,140.985,104.49,105.973,0.000629906,0.0407691,21.0058,562.63,-0.127437,0.0,0.0
330,82.25,34.6465,36.7718,139.463,104.483,106.429,0.000580381,0.0406411,21.0059,562.64,-0.166934,0.0,0.0
336,83.75,34.4197,36.6522,133.559,104.447,105.985,0.000467122,0.0407698,21.0052,562.6,-0.132243,0.0,0.0
342,85.25,34.1679,36.5178,140.001,104.432,106.331,0.000368408,0.0408947,21.0055,562.61,-0.163012,0.0,0.0
348,86.75,34.4025,36.5673,139.247,104.444,106.603,0.000264194,0.0408993,21.0057,562.6,-0.18502,0.0,0.0
354,88.25,34.5969,36.6413,139.743,104.459,106.461,0.000154603,0.0408311,21.0062,562.61,-0.171717,0.0,0.0
360,89.75,34.4947,36.3367,137.054,104.558,106.387,0.000103237,0.0407954,21.0064,562.64,-0.156823,0.0,0.0
366,91.25,34.6758,36.519,138.359,104.634,106.655,0.000105032,0.0408407,21.0066,562.71,-0.173066,0.0,0.0
372,92.75,34.1486,36.314,136.481,104.699,106.189,0.000124037,0.0409426,21.0067,562.68,-0.127813,0.0,0.0
378,94.25,34.4467,36.4479,138.975,104.787,107.873,0.000133726,0.0408875,21.0067,562.64,-0.262482,0.0,0.0
384,95.75,34.3008,36.2977,137.648,104.836,106.796,0.000123477,0.0408547,21.0066,562.64,-0.167536,0.0,0.0
390,97.25,34.5033,36.6379,138.072,104.91,106.781,0.000101535,0.0408901,21.0062,562.63,-0.159858,0.0,0.0
396,98.75,34.1931,36.1257,141.459,104.959,107.089,7.14503e-05,0.0409676,21.0061,562.6,-0.181714,0.0,0.0
402,100.25,34.3891,36.3094,139.82,105.031,106.69,4.80974e-05,0.0410509,21.006,562.59,-0.141784,0.0,0.0
408,101.75,34.3963,35.9697,141.223,105.071,107.018,8.40631e-05,0.0410701,21.0059,562.61,-0.166046,0.0,0.0
414,103.25,33.3597,36.195,137.924,105.125,107.611,0.000164551,0.041151,21.0057,562.61,-0.211403,0.0,0.0
420,104.75,33.7444,36.0473,138.288,105.16,107.293,0.000207799,0.0411011,21.0047,562.6,-0.181604,0.0,0.0
426,106.25,33.9218,35.8699,139.17,105.182,107.44,0.000198624,0.0410605,21.0042,562.62,-0.192154,0.0,0.0
432,107.75,33.8501,35.8134,143.839,105.19,106.875,0.000198811,0.0410037,21.0039,562.53,-0.143809,0.0,0.0
438,109.25,34.361,35.8759,137.427,105.232,107.715,0.000266776,0.0409498,21.0037,562.58,-0.210897,0.0,0.0
444,110.75,34.1276,36.1114,141.048,105.229,107.635,0.00038113,0.0408578,21.0045,562.58,-0.204421,0.0,0.0
450,112.25,33.9054,36.4914,137.056,105.259,106.797,0.000468901,0.0408497,21.0051,562.53,-0.131189,0.0,0.0
456,113.75,33.5808,36.1121,140.21,105.271,106.457,0.000491288,0.0408538,21.0055,562.56,-0.101288,0.0,0.0
462,115.25,34.3116,35.8282,135.365,105.297,106.302,0.00047218,0.0408314,21.0057,562.59,-0.0859251,0.0,0.0
468,116.75,33.7044,35.8091,139.671,105.302,107.009,0.000455451,0.0408441,21.0058,562.59,-0.145492,0.0,0.0
474,118.25,33.5815,35.7061,138.881,105.341,107.075,0.000446116,0.0408372,21.005,562.62,-0.147666,0.0,0.0
480,119.75,33.7975,35.3914,138.662,105.318,107.535,0.00041236,0.0408166,21.0053,562.65,-0.188452,0.0,0.0
486,121.25,33.4325,35.6249,138.873,105.35,106.868,0.000341879,0.0407482,21.0056,562.62,-0.129414,0.0,0.0
492,122.75,33.7322,35.9466,140.553,105.355,107.283,0.000284722,0.0406073,21.0057,562.64,-0.164037,0.0,0.0
498,124.25,33.7229,34.9637,136.721,105.353,107.631,0.000275559,0.0405235,21.0058,562.63,-0.193508,0.0,0.0
504,125.75,33.8283,35.7194,140.5,105.367,107.36,0.000281343,0.0404726,21.0058,562.61,-0.169538,0.0,0.0
510,127.25,33.7955,35.3833,139.016,105.367,107.16,0.000253749,0.0405348,21.0059,562.63,-0.152687,0.0,0.0
516,128.75,33.2554,35.1071,137.303,105.362,107.612,0.000223214,0.0406665,21.0059,562.6,-0.191105,0.0,0.0
522,130.25,33.9436,35.1766,141.786,105.363,107.266,0.000197521,0.0407693,21.0055,562.57,-0.161934,0.0,0.0
528,131.75,33.9826,35.465,140.397,105.368,106.914,0.000186892,0.0408182,21.0053,562.6,-0.131756,0.0,0.0
534,133.25,33.7966,35.5332,135.493,105.363,107.345,0.00020154,0.0407612,21.0052,562.59,-0.168568,0.0,0.0
540,134.75,33.7927,35.7066,141.999,105.371,107.138,,0.0407857,,562.56,-0.150439,0.0,0.0
546,136.25,33.6847,36.0133,136.254,105.351,107.781,,0.0408515,,562.61,-0.206286,0.0,0.0
552,137.75,33.5478,35.713,141.512,105.362,107.36,,,,562.58,-0.1699,0.0,0.0
558,139.25,34.0835,35.3344,144.05,105.365,106.981,,,,562.55,-0.137643,0.0,0.0
564,140.75,33.3352,35.2409,139.194,105.37,107.527,,,,562.55,-0.18336,0.0,0.0
570,142.25,33.6298,35.0451,138.365,105.336,107.406,,,,562.5,-0.175995,0.0,0.0
576,143.75,33.9894,35.4853,139.697,105.351,107.262,,,,562.56,-0.162559,0.0,0.0
579,144.5,33.7778,35.525,139.401,105.333,106.52,,,,562.54,-0.101369,0.0,0.0