File: 01_Data/Hemp_Sheet/Cone/Hemp_Sheet_Cone_HF25Scan_220524_R1.csv
Names,Time,Stack TC,Smoke TC,Exh Press,Smoke Comp,Smoke Meas,CO Meter,CO2 Meter,O2 Meter,Sample Mass,Ext Coeff,Start Test,Flame Verif
Chan Gain,,500,500,1,1,1,1,1,1,1,1,1.0,1.0
Offset,,0,0,0.139323,0,0,0,0,0,0,0,0.0,0.0
Gain,,1,1,25.011,13.8491,15.2622,1,1,1,1.00087,1.03118,1.0,1.0
Units,sec,C,C,Pa,%,%,%,%,%,g,/m,,
Baseline,,19.7873,20.3252,146.842,104.215,104.097,0.000402748,0.0431055,20.9984,-452.408,0.0102368,,
7,1.5,18.0471,18.799,144.272,103.814,103.472,0.000433531,0.0534798,20.9864,563.21,0.0298833,0.0,0.0
14,3.25,17.9972,18.5311,146.284,103.817,103.938,0.000334768,0.0519627,20.9896,563.22,-0.0104888,0.0,0.0
21,5,17.3477,18.7726,149.203,103.802,103.506,0.000247837,0.0501297,20.9926,563.22,0.0258811,0.0,0.0
28,6.75,18.4978,18.6397,149.902,103.781,103.526,0.000227836,0.0483061,20.9953,563.2,0.0223257,0.0,0.0
35,8.5,18.2706,18.8867,147.783,103.79,102.946,0.000274386,0.046706,20.9969,563.21,0.0739073,0.0,0.0
42,10.25,18.8693,19.1346,145.472,103.788,103.053,0.000419548,0.0455538,20.9976,563.21,0.064316,0.0,0.0
49,12,18.3139,18.7775,146.375,103.769,102.413,0.000631801,0.0454298,20.9964,563.2,0.119006,0.0,0.0
56,13.75,18.2849,18.6876,140.294,103.773,105.737,0.000859146,0.0669482,20.9681,563.12,-0.169524,0.0,1.0
63,15.5,18.9318,18.9608,130.227,103.754,106.766,0.00118309,0.12442,20.8749,562.93,-0.258853,0.0,1.0
70,17.25,20.2702,19.9168,134.406,103.762,108.427,0.00156896,0.215419,20.7753,562.76,-0.397823,0.0,1.0
77,19,21.2357,19.3731,130.314,103.775,108.088,0.00187784,0.291998,20.7008,562.46,-0.368386,0.0,0.0
84,20.75,23.8356,21.1378,130.265,103.761,107.975,0.0020492,0.34623,20.6586,562.27,-0.36009,0.0,0.0
91,22.5,25.3139,23.556,131.041,103.766,107.345,0.00211974,0.360938,20.6459,562.139,-0.306736,0.0,0.0
98,24.25,26.4547,24.3266,136.498,103.785,105.303,0.00249528,0.330372,20.6796,562.079,-0.131361,0.0,0.0
105,26,28.0295,24.9639,140.926,103.817,104.974,0.0031524,0.282975,20.7282,562.009,-0.100268,0.0,0.0
112,27.75,27.1683,25.2585,146.634,103.821,104.576,0.00423685,0.225676,20.7863,561.979,-0.0655966,0.0,0.0
119,29.5,27.1106,25.3842,146.575,103.832,104.309,0.00533875,0.180844,20.8401,561.969,-0.0414516,0.0,0.0
126,31.25,27.0967,25.3339,145.997,103.878,104.097,0.00613194,0.144841,20.885,561.969,-0.0190354,0.0,0.0
133,33,26.312,25.4842,147.193,103.944,103.957,0.00655761,0.118289,20.9125,561.919,-0.00111396,0.0,0.0
140,34.75,25.919,25.546,147.63,103.985,104.018,0.00665104,0.0997291,20.9322,561.859,-0.0028914,0.0,0.0
147,36.5,25.329,25.6703,151.517,104.059,104.008,0.00663251,0.0869229,20.9464,561.909,0.00443183,0.0,0.0
154,38.25,25.5663,25.0566,145.42,104.123,104.193,0.00659334,0.078203,20.9551,561.909,-0.00612955,0.0,0.0
161,40,25.3254,25.6788,144.667,104.214,104.227,0.00643334,0.0725285,20.9617,561.959,-0.00115009,0.0,0.0
168,41.75,22.8914,23.6789,146.593,104.289,104.766,0.00607823,0.0693299,20.9659,561.939,-0.0412707,0.0,0.0
175,43.5,21.9395,22.9721,148.522,104.374,104.527,0.00546298,0.066424,20.9711,561.909,-0.0132157,0.0,0.0
182,45.25,22.7279,23.6479,148.592,104.468,104.507,0.0046474,0.0628923,20.9762,561.929,-0.00335469,0.0,0.0
189,47,22.9718,23.4608,143.373,104.568,104.936,0.00377492,0.058716,20.9802,561.899,-0.031779,0.0,0.0
196,48.75,22.7358,23.6468,142.223,104.704,104.417,0.00282594,0.0550008,20.9845,561.929,0.0247488,0.0,0.0
203,50.5,22.3326,23.7193,147.335,104.817,104.764,0.00200185,0.0515716,20.9892,561.929,0.00455685,0.0,0.0
210,52.25,22.3464,23.1485,145.334,104.916,105.106,0.00139919,0.049038,20.9931,561.909,-0.0163824,0.0,0.0
217,54,21.4417,23.3503,149.685,105.03,105.184,0.00103529,0.0472536,20.9951,561.849,-0.0132005,0.0,0.0
224,55.75,21.6527,23.1859,146.911,105.168,105.443,0.00086631,0.0459667,20.9967,561.899,-0.0236214,0.0,0.0
231,57.5,21.7399,22.5971,147.28,105.257,105.462,0.000756807,0.0450764,20.998,561.889,-0.0175562,0.0,0.0
238,59.25,22.0424,22.7505,147.043,105.34,105.726,0.000617221,0.044519,20.9987,561.919,-0.0331035,0.0,0.0
245,61,21.3443,22.4526,147.569,105.403,105.392,0.000355719,0.0440889,20.9993,561.929,0.000959641,0.0,0.0
252,62.75,21.3302,22.285,141.642,105.482,105.525,0.000150022,0.0437867,21.0003,561.909,-0.00372254,0.0,0.0
259,64.5,21.9485,22.4166,145.569,105.561,105.911,2.56147e-05,0.0435752,21.0014,561.909,-0.0299482,0.0,0.0
266,66.25,20.5518,22.4055,143.011,105.613,105.443,1.24986e-06,0.0434855,21.0019,561.889,0.0146122,0.0,0.0
273,68,20.9151,22.3626,149.002,105.652,105.723,7.35094e-05,0.0433502,21.0022,561.889,-0.00611983,0.0,0.0
280,69.75,20.649,22.0649,149.522,105.709,105.964,0.000150631,0.0432102,21.003,561.859,-0.0218151,0.0,0.0
287,71.5,20.4913,22.0519,145.631,105.753,105.752,0.00026973,0.0431433,21.0024,561.899,9.38121e-05,0.0,0.0
294,73.25,20.6154,21.9508,148.51,105.772,105.641,0.000400994,0.0430849,21.0009,561.929,0.0112074,0.0,0.0
301,75,20.5715,21.8004,146.062,105.783,105.782,0.00044522,0.0430961,21.0003,561.899,7.5481e-05,0.0,0.0
308,76.75,20.1773,21.7944,144.686,105.786,105.814,0.00043129,0.0431023,20.9999,561.909,-0.00238391,0.0,0.0
315,78.5,20.1197,21.34,147.868,105.777,105.887,0.000414513,0.0431537,20.9998,561.919,-0.009432,0.0,0.0
322,80.25,19.8521,21.649,151.438,105.765,105.752,0.000378185,0.0431148,20.9997,561.889,0.00114185,0.0,0.0
329,82,20.0168,21.5886,148.209,105.724,105.707,0.000332145,0.0429593,20.9996,561.869,0.00145991,0.0,0.0
336,83.75,20.216,21.5609,146.839,105.68,105.765,0.000315642,0.0428541,20.9996,561.899,-0.00728149,0.0,0.0
343,85.5,19.6585,21.0085,148.37,105.641,105.811,0.000345068,0.0428367,20.9996,561.909,-0.0145132,0.0,0.0
350,87.25,20.0479,21.3686,145.204,105.602,105.469,0.0003969,0.0429272,20.9996,561.899,0.0114336,0.0,0.0
357,89,20.3672,21.4459,148.128,105.537,105.68,0.000404657,0.0430119,20.9996,561.849,-0.0122244,0.0,0.0
364,90.75,20.147,21.3886,144.94,105.471,105.799,0.000406395,0.04302,20.9996,561.809,-0.0280735,0.0,0.0
371,92.5,20.1039,21.0976,147.932,105.429,105.392,0.000407821,0.0429392,20.9994,561.859,0.00316858,0.0,0.0
378,94.25,19.784,21.0838,149.436,105.392,105.28,0.000376729,0.0429239,20.9999,561.879,0.00957998,0.0,0.0
385,96,19.8472,20.8426,143.385,105.357,105.565,0.000325361,0.042954,21.0003,561.849,-0.0178533,0.0,0.0
392,97.75,19.1839,21.1795,146.586,105.307,105.134,0.0002576,0.0429384,21.0015,561.859,0.0148199,0.0,0.0
399,99.5,19.6615,20.8609,147.498,105.275,105.136,0.000216765,0.0429931,21.0022,561.819,0.0118999,0.0,0.0
406,101.25,19.4363,21.0103,146.143,105.257,105.134,0.000182163,0.0430178,21.0023,561.849,0.0105343,0.0,0.0
413,103,19.4424,20.9069,149.337,105.237,105.104,0.000189845,0.0430986,21.0019,561.869,0.0113959,0.0,0.0
420,104.75,19.1069,20.7969,144.606,105.21,105.771,0.000227828,0.0431308,21.0017,561.839,-0.0480359,0.0,0.0
427,106.5,18.8749,20.5805,148.241,105.187,105.116,0.000267198,0.0432669,21.0016,561.849,0.00606667,0.0,0.0
434,108.25,19.5238,20.6793,147.481,105.191,105.157,0.000321465,0.0433381,21.0015,561.879,0.00290341,0.0,0.0
441,110,19.535,20.6097,145.545,105.18,105.196,0.000343035,0.0433814,21.0015,561.889,-0.00140622,0.0,0.0
448,111.75,19.2982,20.4889,146.005,105.151,105.019,0.00034288,0.0434004,21.0015,561.859,0.0113571,0.0,0.0
455,113.5,19.6224,20.3502,146.521,105.149,105.083,0.000364197,0.0433382,21.0015,561.869,0.00564101,0.0,0.0
462,115.25,19.6335,20.8513,145.708,105.123,105.277,0.000403118,0.0433862,21.0017,561.819,-0.0132038,0.0,0.0
469,117,19.0902,20.2841,146.9,105.136,104.934,0.000357203,0.0433343,21.0021,561.799,0.017385,0.0,0.0
476,118.75,18.8455,20.5358,147.874,105.124,104.864,0.000243513,0.0432026,21.0019,561.799,0.0224365,0.0,0.0
483,120.5,18.6454,20.1991,146.548,105.126,104.991,0.0002242,0.0429705,21.0021,561.759,0.011579,0.0,0.0
490,122.25,19.0045,20.1162,143.065,105.125,105.101,0.000211579,0.0427669,21.0032,561.719,0.00204531,0.0,0.0
497,124,18.7762,20.7359,145.898,105.131,105.026,0.000170888,0.042612,21.0037,561.729,0.00900691,0.0,0.0
504,125.75,19.33,19.9514,146.599,105.131,105.005,0.000112203,0.0425612,21.0026,561.649,0.010852,0.0,0.0
511,127.5,19.2572,20.1009,148.248,105.138,105.22,9.15396e-05,0.0427573,21.0022,561.739,-0.00700738,0.0,0.0
518,129.25,18.981,20.21,146.599,105.135,104.941,8.32963e-05,0.0428482,21.003,561.729,0.0166779,0.0,0.0
525,131,19.1269,20.199,145.27,105.148,104.742,2.76274e-05,0.0426867,21.0034,561.809,0.0350406,0.0,0.0
532,132.75,19.1299,20.3604,143.951,105.153,105.075,1.09409e-05,0.042479,21.0035,561.839,0.00676276,0.0,0.0
539,134.5,18.964,20.257,146.137,105.163,105.156,8.61895e-05,0.0423198,21.0036,561.799,0.000660977,0.0,0.0
546,136.25,18.9578,20.1899,145.275,105.171,105.136,0.000103643,0.0421556,21.0037,561.759,0.0030015,0.0,0.0
553,138,19.417,19.9226,149.369,105.185,104.826,2.31928e-05,0.0419228,21.0026,561.789,0.0309214,0.0,0.0
560,139.75,19.1557,20.036,149.18,105.213,105.108,-1.74449e-05,0.0418517,21.0023,561.799,0.00904138,0.0,0.0
567,141.5,18.6083,19.9975,145.453,105.22,105.077,3.75725e-05,0.0418178,21.0028,561.819,0.012308,0.0,0.0
574,143.25,18.7896,19.7615,147.336,105.242,105.149,0.000106366,0.041649,21.003,561.779,0.0079447,0.0,0.0
581,145,18.5058,20.5102,144.695,105.252,105.145,9.44353e-05,0.0414754,21.0036,561.789,0.00913726,0.0,0.0
588,146.75,19.0352,19.5165,145.659,105.272,105.192,4.35522e-05,0.0413022,21.0038,561.769,0.00687482,0.0,0.0
595,148.5,18.8289,20.1098,146.826,105.288,105.13,-5.69587e-07,0.0412641,21.0039,561.799,0.0136238,0.0,0.0
602,150.25,18.686,19.9625,146.217,105.292,105.158,,0.0413143,,561.799,0.0115057,0.0,0.0
609,152,18.7603,20.4066,143.64,105.31,105.382,,,,561.839,-0.00614735,0.0,0.0
616,153.75,18.6693,20.2092,145.613,105.321,104.87,,,,561.799,0.0388809,0.0,0.0
623,155.5,18.7175,19.7869,144.964,105.339,105.693,,,,561.799,-0.0303453,0.0,0.0
630,157.25,19.1543,19.8899,145.262,105.35,105.44,,,,561.809,-0.00772774,0.0,0.0
637,159,18.6909,20.5398,144.325,105.348,105.262,,,,561.749,0.00736398,0.0,0.0
640,159.75,18.7488,19.5394,145.503,105.353,105.445,,,,561.759,-0.0079533,0.0,0.0