File: 01_Data/PVC_Pipe/STA/N2/10K_min/PVC_Pipe_STA_N2_10KData_22071_R1.csv
##Temp./Â°C,Time/min,Mass loss(subtr.2)/mg,DSC(subtr.2)/(mW/mg),Sensit./(uV/mW)
49.688,10.00917,-0.03974,0.002138725,1.07018
52.288,11.22222,-0.04377249,0.06432029,1.06947
54.888,11.61923,-0.0432637,0.0933354,1.06874
57.488,11.95004,-0.0455543,0.11195,1.06801
60.088,12.25415,-0.04482193,0.12424,1.06727
62.688,12.54575,-0.04612052,0.13651,1.06653
65.288,12.8309,-0.05088145,0.13563,1.06578
67.888,13.1111,-0.0476445,0.12522,1.06502
70.488,13.38856,-0.04637863,0.12173,1.06425
73.088,13.66295,-0.04759541,0.12366,1.06348
75.688,13.9357,-0.04779752,0.12334,1.0627
78.288,14.20549,-0.0507049,0.12556,1.06191
80.888,14.47205,-0.05000227,0.13091,1.06112
83.488,14.7386,-0.05061072,0.13986,1.06032
86.088,15.00261,-0.05072953,0.15121,1.05951
88.688,15.26433,-0.05323536,0.16111,1.05869
91.288,15.5244,-0.05335679,0.16103,1.05787
93.888,15.78306,-0.05456997,0.15622,1.05704
96.488,16.04124,-0.05491461,0.15351,1.0562
99.088,16.29659,-0.05562392,0.15764,1.05536
101.688,16.55355,-0.05478535,0.16377,1.05451
104.288,16.8084,-0.05562788,0.16982,1.05365
106.888,17.06268,-0.05501099,0.17571,1.05278
109.488,17.31713,-0.05570184,0.18264,1.05191
112.088,17.57067,-0.05830664,0.1882,1.05103
114.688,17.8239,-0.05664982,0.19362,1.05014
117.288,18.07686,-0.05730563,0.19812,1.04925
119.888,18.33023,-0.05830596,0.20058,1.04834
122.488,18.5828,-0.05830007,0.20473,1.04743
125.088,18.83544,-0.05845426,0.20663,1.04652
127.688,19.08747,-0.0607214,0.20825,1.04559
130.288,19.33961,-0.05962009,0.20956,1.04466
132.888,19.59214,-0.05962262,0.21279,1.04372
135.488,19.84386,-0.05961584,0.21611,1.04277
138.088,20.09464,-0.05771673,0.21795,1.04182
140.688,20.34539,-0.06125798,0.2211,1.04086
143.288,20.59593,-0.06159812,0.22224,1.03989
145.888,20.8458,-0.0618252,0.22294,1.03891
148.488,21.09554,-0.06369858,0.22552,1.03793
151.088,21.34464,-0.0629353,0.22754,1.03694
153.688,21.594,-0.0629117,0.2272,1.03594
156.288,21.843,-0.06423,0.23092,1.03493
158.888,22.0922,-0.06554004,0.22946,1.03392
161.488,22.3417,-0.06417274,0.2282,1.0329
164.088,22.59046,-0.06631993,0.22927,1.03187
166.688,22.83987,-0.06554851,0.23155,1.03083
169.288,23.0884,-0.0662,0.23003,1.02979
171.888,23.3379,-0.06553773,0.23215,1.02873
174.488,23.5866,-0.06619982,0.23236,1.02767
177.088,23.83513,-0.0662,0.23278,1.02661
179.688,24.0838,-0.06851732,0.2345,1.02553
182.288,24.3317,-0.06851009,0.23365,1.02445
184.888,24.57974,-0.06753899,0.23576,1.02336
187.488,24.82709,-0.06884,0.23887,1.02226
190.088,25.0752,-0.0695134,0.23698,1.02115
192.688,25.3229,-0.06982989,0.2372,1.02004
195.288,25.56952,-0.06982997,0.23621,1.01892
197.888,25.81618,-0.07212465,0.23687,1.01779
200.488,26.0631,-0.07016148,0.23942,1.01665
203.088,26.3103,-0.07279014,0.23491,1.0155
205.688,26.5573,-0.07543068,0.23765,1.01435
208.288,26.80455,-0.07546424,0.23508,1.01319
210.888,27.05225,-0.0744093,0.23382,1.01202
213.488,27.2998,-0.07707042,0.23562,1.01084
216.088,27.54768,-0.07696076,0.23631,1.00966
218.688,27.79484,-0.0789633,0.23788,1.00847
221.288,28.04216,-0.08106892,0.24112,1.00727
223.888,28.2904,-0.08336162,0.24261,1.00606
226.488,28.53714,-0.08596685,0.24324,1.00484
229.088,28.78458,-0.08860538,0.24429,1.00362
231.688,29.03155,-0.09351565,0.24548,1.00239
234.288,29.27892,-0.09553411,0.2484,1.00115
236.888,29.5273,-0.10013,0.24978,0.9999
239.488,29.7744,-0.10343,0.25295,0.99864
242.088,30.0231,-0.10867,0.25193,0.99738
244.688,30.27096,-0.11396,0.25599,0.9961
247.288,30.51967,-0.11725,0.2588,0.99482
249.888,30.76747,-0.12252,0.26479,0.99353
252.488,31.01533,-0.12652,0.26709,0.99224
255.088,31.2635,-0.13197,0.26946,0.99093
257.688,31.51231,-0.13925,0.27884,0.98962
260.288,31.7603,-0.14481,0.28425,0.9883
262.888,32.00828,-0.15351,0.29192,0.98697
265.488,32.25618,-0.16331,0.30293,0.98563
268.088,32.50528,-0.17168,0.31024,0.98429
270.688,32.75391,-0.18237,0.32106,0.98293
273.288,33.003,-0.19531,0.33686,0.98157
275.888,33.25161,-0.20988,0.34916,0.9802
278.488,33.50042,-0.22877,0.37136,0.97882
281.088,33.74895,-0.24886,0.39354,0.97744
283.688,33.99776,-0.27274,0.41446,0.97604
286.288,34.2463,-0.30313,0.44405,0.97464
288.888,34.4964,-0.33804,0.47743,0.97323
291.488,34.74522,-0.37994,0.51812,0.97181
294.088,34.99491,-0.43311,0.57935,0.97038
296.688,35.2447,-0.51474,0.72466,0.96895
299.288,35.49524,-0.64707,0.90292,0.9675
301.888,35.74553,-0.78704,0.86102,0.96605
304.488,35.9961,-0.89424,0.69532,0.96459
307.088,36.2446,-0.97193,0.58024,0.96312
309.688,36.49313,-1.04234,0.54013,0.96165
312.288,36.74217,-1.1116,0.52565,0.96016
314.888,36.99107,-1.17891,0.51061,0.95867
317.488,37.24049,-1.2438,0.49342,0.95717
320.088,37.49025,-1.30755,0.47445,0.95566
322.688,37.73985,-1.36908,0.45532,0.95414
325.288,37.98958,-1.42659,0.43148,0.95261
327.888,38.23961,-1.48296,0.40684,0.95108
330.488,38.48984,-1.53484,0.37974,0.94953
333.088,38.73965,-1.58341,0.35406,0.94798
335.688,38.99024,-1.62807,0.32639,0.94642
338.288,39.2403,-1.66675,0.29454,0.94486
340.888,39.49153,-1.70408,0.26473,0.94328
343.488,39.74283,-1.73756,0.23342,0.9417
346.088,39.99325,-1.76358,0.20069,0.9401
348.688,40.2446,-1.78846,0.16566,0.9385
351.288,40.4951,-1.81109,0.13611,0.93689
353.888,40.74643,-1.83033,0.1089,0.93528
356.488,40.9964,-1.84487,0.08479658,0.93365
359.088,41.24778,-1.8559,0.06409175,0.93202
361.688,41.49938,-1.8648,0.05082395,0.93038
364.288,41.75077,-1.87081,0.04379614,0.92873
366.888,42.00196,-1.87406,0.0457597,0.92707
369.488,42.25405,-1.87807,0.05306782,0.9254
372.088,42.50517,-1.88017,0.05769535,0.92373
374.688,42.75846,-1.88296,0.06307648,0.92204
377.288,43.01104,-1.88322,0.06697317,0.92035
379.888,43.2632,-1.88465,0.06880659,0.91865
382.488,43.51599,-1.88597,0.0648691,0.91695
385.088,43.76846,-1.88532,0.06149146,0.91523
387.688,44.021,-1.88926,0.05898915,0.91351
390.288,44.27355,-1.8919,0.05254304,0.91177
392.888,44.52667,-1.89321,0.05127375,0.91003
395.488,44.77964,-1.89226,0.04730147,0.90829
398.088,45.0332,-1.89487,0.04068676,0.90653
400.688,45.28613,-1.8995,0.03109736,0.90477
403.288,45.54002,-1.90146,0.02800233,0.90299
405.888,45.79412,-1.9041,0.02163259,0.90121
408.488,46.04741,-1.90804,0.01381321,0.89942
411.088,46.30121,-1.91151,0.006791564,0.89763
413.688,46.5548,-1.91857,0.0001003674,0.89582
416.288,46.8084,-1.92454,-0.004042974,0.89401
418.888,47.06212,-1.92991,-0.00717682,0.89219
421.488,47.3164,-1.93883,-0.00771953,0.89036
424.088,47.5706,-1.9481,-0.01081508,0.88852
426.688,47.82589,-1.95863,-0.008120974,0.88668
429.288,48.07965,-1.97283,-0.002797265,0.88483
431.888,48.33461,-1.98743,0.003623361,0.88297
434.488,48.58914,-2.00378,0.01017295,0.8811
437.088,48.84428,-2.02362,0.02330451,0.87922
439.688,49.09929,-2.04649,0.03631682,0.87734
442.288,49.35365,-2.06975,0.05394667,0.87545
444.888,49.60974,-2.0976,0.06946642,0.87355
447.488,49.86421,-2.12218,0.08508869,0.87164
450.088,50.12086,-2.15065,0.10128,0.86973
452.688,50.37536,-2.1797,0.11352,0.8678
455.288,50.6312,-2.20955,0.12632,0.86587
457.888,50.8868,-2.23786,0.13793,0.86394
460.488,51.14245,-2.2716,0.14769,0.86199
463.088,51.39842,-2.29797,0.14931,0.86004
465.688,51.65488,-2.32749,0.15155,0.85808
468.288,51.9116,-2.35641,0.15351,0.85611
470.888,52.1676,-2.38388,0.15231,0.85413
473.488,52.424,-2.40868,0.14777,0.85215
476.088,52.68031,-2.43533,0.14177,0.85016
478.688,52.9366,-2.45557,0.13728,0.84816
481.288,53.19406,-2.47823,0.13602,0.84615
483.888,53.4501,-2.49539,0.13312,0.84414
486.488,53.7079,-2.51446,0.13003,0.84212
489.088,53.96485,-2.52877,0.1264,0.84009
491.688,54.22165,-2.54408,0.12234,0.83806
494.288,54.479,-2.55478,0.11977,0.83601
496.888,54.73636,-2.56656,0.11561,0.83396
499.488,54.99286,-2.5767,0.11455,0.83191
502.088,55.2499,-2.58624,0.11126,0.82984
504.688,55.50702,-2.59093,0.11332,0.82777
507.288,55.765,-2.59849,0.11349,0.8257
509.888,56.02242,-2.60515,0.11432,0.82361
512.488,56.27975,-2.60785,0.11437,0.82152
515.088,56.5375,-2.61146,0.11679,0.81942
517.688,56.7955,-2.61521,0.11743,0.81731
520.288,57.05418,-2.61934,0.12,0.8152
522.888,57.31325,-2.62122,0.11875,0.81308
525.488,57.5714,-2.62431,0.12298,0.81095
528.088,57.8298,-2.62581,0.12853,0.80882
530.688,58.08797,-2.62736,0.13125,0.80668
533.288,58.34567,-2.62844,0.13467,0.80453
535.888,58.60371,-2.62968,0.13466,0.80238
538.488,58.8615,-2.63237,0.13721,0.80022
541.088,59.11906,-2.63305,0.13765,0.79806
543.688,59.37757,-2.63437,0.13583,0.79588
546.288,59.6356,-2.63601,0.13132,0.7937
548.888,59.8944,-2.63502,0.13022,0.79152
551.488,60.1529,-2.637,0.12429,0.78933
554.088,60.411,-2.63832,0.12057,0.78713
556.688,60.66984,-2.63832,0.11852,0.78492
559.288,60.9285,-2.637,0.11989,0.78271
561.888,61.18781,-2.63962,0.11951,0.7805
564.488,61.44624,-2.64128,0.11462,0.77827
567.088,61.705,-2.64128,0.116,0.77604
569.688,61.96436,-2.64128,0.11425,0.77381
572.288,62.22416,-2.64287,0.11642,0.77157
574.888,62.48412,-2.64326,0.11856,0.76932
577.488,62.74449,-2.64557,0.12208,0.76707
580.088,63.0046,-2.64462,0.12141,0.76481
582.688,63.26505,-2.64589,0.12425,0.76254
585.288,63.52495,-2.64754,0.12821,0.76027
587.888,63.78454,-2.64732,0.13415,0.758
590.488,64.04381,-2.64831,0.13984,0.75572
593.088,64.30383,-2.64864,0.1443,0.75343
595.688,64.56341,-2.65028,0.14972,0.75114
598.288,64.8235,-2.65028,0.1577,0.74884
600.888,65.0834,-2.65292,0.15818,0.74653
603.488,65.34344,-2.6516,0.16185,0.74423
606.088,65.60414,-2.65444,0.16367,0.74191
608.688,65.8643,-2.65358,0.16759,0.73959
611.288,66.12488,-2.65485,0.16721,0.73727
613.888,66.38502,-2.65456,0.16964,0.73494
616.488,66.64525,-2.65394,0.1715,0.7326
619.088,66.9054,-2.65786,0.1801,0.73026
621.688,67.166,-2.65654,0.18129,0.72792
624.288,67.4263,-2.65523,0.18031,0.72557
626.888,67.6872,-2.65687,0.18322,0.72322
629.488,67.94804,-2.65712,0.18502,0.72086
632.088,68.20974,-2.65815,0.19106,0.71849
634.688,68.47108,-2.65819,0.19197,0.71613
637.288,68.73217,-2.65814,0.1948,0.71375
639.888,68.99329,-2.65687,0.1978,0.71138
642.488,69.25417,-2.6595,0.19943,0.70899
645.088,69.51446,-2.6595,0.19982,0.70661
647.688,69.77456,-2.65884,0.20423,0.70422
649.888,69.99347,-2.66016,0.21093,0.70219