File: 01_Data/PVC_Pipe/STA/N2/10K_min/PVC_Pipe_STA_N2_10KData_22075_R2.csv
##Temp./Â°C,Time/min,Mass loss(subtr.2)/mg,DSC(subtr.2)/(mW/mg),Sensit./(uV/mW)
49.724,10.00917,0.02503,0.00788149,1.07017
52.324,11.22113,0.02843393,0.09263861,1.06946
54.924,11.61742,0.02982069,0.13571,1.06873
57.524,11.9484,0.03034061,0.16123,1.068
60.124,12.25295,0.03117905,0.18237,1.06726
62.724,12.54417,0.03024049,0.20259,1.06652
65.324,12.82821,0.03019122,0.2087,1.06577
67.924,13.1091,0.03150151,0.19295,1.06501
70.524,13.38615,0.03287697,0.18906,1.06424
73.124,13.6607,0.03077251,0.19505,1.06347
75.724,13.93225,0.03282027,0.19791,1.06269
78.324,14.2022,0.03270196,0.20524,1.0619
80.924,14.46928,0.03282014,0.21135,1.06111
83.524,14.7336,0.03409587,0.22431,1.06031
86.124,14.99766,0.03446469,0.24308,1.0595
88.724,15.2599,0.03413478,0.25635,1.05868
91.324,15.52006,0.03415338,0.25324,1.05786
93.924,15.77866,0.03281812,0.25063,1.05703
96.524,16.03643,0.03408965,0.25327,1.05619
99.124,16.29305,0.03412804,0.25574,1.05535
101.724,16.54909,0.03545967,0.26286,1.0545
104.324,16.8041,0.03380933,0.26937,1.05364
106.924,17.0585,0.0354097,0.27917,1.05277
109.524,17.31287,0.03683737,0.28791,1.0519
112.124,17.56723,0.03677057,0.29563,1.05102
114.724,17.8205,0.03818083,0.30315,1.05013
117.324,18.07405,0.03676403,0.30562,1.04923
119.924,18.32709,0.03744003,0.31009,1.04833
122.524,18.58025,0.03546135,0.31471,1.04742
125.124,18.8319,0.03731811,0.31991,1.0465
127.724,19.0842,0.03843779,0.3229,1.04558
130.324,19.3364,0.0371,0.3254,1.04465
132.924,19.5884,0.0371108,0.32941,1.04371
135.524,19.83909,0.03863768,0.33623,1.04276
138.124,20.09,0.03868178,0.3409,1.04181
140.724,20.34018,0.03859471,0.34409,1.04085
143.324,20.5907,0.03914862,0.34774,1.03988
145.924,20.84103,0.03864,0.34944,1.0389
148.524,21.09127,0.03732985,0.35276,1.03792
151.124,21.34035,0.03931459,0.35686,1.03692
153.724,21.58993,0.03928203,0.35767,1.03593
156.324,21.8396,0.03931151,0.3599,1.03492
158.924,22.08844,0.03929995,0.36265,1.0339
161.524,22.33768,0.0393,0.36249,1.03288
164.124,22.58661,0.03910006,0.36154,1.03185
166.724,22.8358,0.03928134,0.36346,1.03082
169.324,23.08437,0.03930032,0.36371,1.02977
171.924,23.33306,0.03963703,0.36585,1.02872
174.524,23.5811,0.03962974,0.36741,1.02766
177.124,23.83079,0.03835627,0.36732,1.02659
179.724,24.07903,0.03831001,0.36787,1.02552
182.324,24.32715,0.03700059,0.36986,1.02443
184.924,24.5751,0.03960959,0.36918,1.02334
187.524,24.82299,0.03831089,0.36991,1.02224
190.124,25.0711,0.03732,0.37249,1.02114
192.724,25.31873,0.03698988,0.37338,1.02002
195.324,25.5674,0.03776804,0.37282,1.0189
197.924,25.8153,0.03787715,0.37359,1.01777
200.524,26.06279,0.0367805,0.37256,1.01663
203.124,26.3102,0.0367849,0.37381,1.01549
205.724,26.55736,0.03612,0.37419,1.01434
208.324,26.80382,0.03480006,0.37402,1.01317
210.924,27.0503,0.03414101,0.37544,1.01201
213.524,27.29757,0.03413689,0.37551,1.01083
216.124,27.5453,0.03315,0.37847,1.00964
218.724,27.7921,0.03280677,0.38014,1.00845
221.324,28.0391,0.0292,0.38272,1.00725
223.924,28.28711,0.02902424,0.38905,1.00604
226.524,28.53435,0.02628955,0.38992,1.00483
229.124,28.7821,0.0213035,0.39149,1.0036
231.724,29.02957,0.01854859,0.39319,1.00237
234.324,29.27777,0.01391458,0.39831,1.00113
236.924,29.5252,0.008567079,0.40512,0.99988
239.524,29.77259,0.005783698,0.40826,0.99862
242.124,30.02058,-0.00340472,0.41184,0.99736
244.724,30.2685,-0.00770152,0.41375,0.99609
247.324,30.51655,-0.01403059,0.4175,0.9948
249.924,30.76407,-0.01904011,0.42405,0.99352
252.524,31.0125,-0.02594883,0.43072,0.99222
255.124,31.2607,-0.03337331,0.43556,0.99091
257.724,31.50852,-0.04223562,0.44502,0.9896
260.324,31.75688,-0.05179906,0.45349,0.98828
262.924,32.0049,-0.06008309,0.46162,0.98695
265.524,32.2523,-0.07248347,0.47417,0.98561
268.124,32.50065,-0.08322686,0.48863,0.98427
270.724,32.74848,-0.09782857,0.50143,0.98291
273.324,32.99646,-0.11691,0.51977,0.98155
275.924,33.24569,-0.13684,0.54098,0.98018
278.524,33.49455,-0.16044,0.56627,0.9788
281.124,33.7432,-0.18909,0.59569,0.97742
283.724,33.9923,-0.22258,0.62869,0.97602
286.324,34.24172,-0.26287,0.66682,0.97462
288.924,34.4912,-0.31257,0.71931,0.97321
291.524,34.74139,-0.37767,0.80681,0.97179
294.124,34.99149,-0.4869,1.02414,0.97036
296.724,35.24321,-0.66673,1.25975,0.96893
299.324,35.49422,-0.84897,1.21895,0.96748
301.924,35.744,-0.99613,1.02602,0.96603
304.524,35.9925,-1.10194,0.85917,0.96457
307.124,36.24073,-1.18962,0.78808,0.9631
309.724,36.49013,-1.27594,0.7618,0.96163
312.324,36.7391,-1.35901,0.74251,0.96014
314.924,36.98842,-1.44675,0.7221,0.95865
317.524,37.23796,-1.52994,0.69872,0.95715
320.124,37.48793,-1.60723,0.67003,0.95564
322.724,37.73793,-1.68162,0.64146,0.95412
325.324,37.98709,-1.75414,0.61159,0.95259
327.924,38.23635,-1.82068,0.57994,0.95106
330.524,38.4861,-1.88277,0.54478,0.94951
333.124,38.735,-1.93926,0.51406,0.94796
335.724,38.9855,-1.99274,0.48368,0.9464
338.324,39.23587,-2.04227,0.45076,0.94483
340.924,39.48611,-2.08704,0.41552,0.94326
343.524,39.73729,-2.1259,0.37615,0.94167
346.124,39.98761,-2.15867,0.33528,0.94008
348.724,40.23856,-2.18945,0.29647,0.93848
351.324,40.4899,-2.21504,0.25777,0.93687
353.924,40.73999,-2.23648,0.21786,0.93525
356.524,40.99151,-2.25465,0.18378,0.93363
359.124,41.24196,-2.26737,0.15502,0.932
361.724,41.49388,-2.27532,0.14067,0.93035
364.324,41.74552,-2.28257,0.1373,0.9287
366.924,41.99718,-2.28831,0.13854,0.92705
369.524,42.24967,-2.29096,0.1456,0.92538
372.124,42.50179,-2.29479,0.15488,0.9237
374.724,42.7537,-2.2947,0.163,0.92202
377.324,43.00522,-2.29667,0.1732,0.92033
379.924,43.2566,-2.29933,0.19217,0.91863
382.524,43.50784,-2.30128,0.20575,0.91692
385.124,43.7603,-2.30128,0.21331,0.91521
387.724,44.01277,-2.30487,0.21958,0.91348
390.324,44.26535,-2.30887,0.2189,0.91175
392.924,44.51887,-2.3115,0.21192,0.91001
395.524,44.77276,-2.3128,0.20543,0.90826
398.124,45.0263,-2.31615,0.19784,0.90651
400.724,45.2797,-2.31544,0.18394,0.90474
403.324,45.53433,-2.31959,0.16426,0.90297
405.924,45.78853,-2.32621,0.13947,0.90119
408.524,46.04242,-2.33019,0.11633,0.8994
411.124,46.29517,-2.33651,0.10463,0.8976
413.724,46.5494,-2.34288,0.09950514,0.8958
416.324,46.8029,-2.34719,0.09049283,0.89399
418.924,47.05724,-2.35866,0.07901317,0.89216
421.524,47.31222,-2.36802,0.06673002,0.89034
424.124,47.56661,-2.37829,0.0646799,0.8885
426.724,47.8202,-2.38971,0.06549966,0.88665
429.324,48.0745,-2.40531,0.07027379,0.8848
431.924,48.3289,-2.42411,0.07687752,0.88294
434.524,48.58363,-2.44667,0.08769915,0.88107
437.124,48.8394,-2.46827,0.09811114,0.8792
439.724,49.0938,-2.49645,0.11494,0.87731
442.324,49.34918,-2.52755,0.1362,0.87542
444.924,49.60483,-2.56055,0.1561,0.87352
447.524,49.86,-2.59383,0.17729,0.87161
450.124,50.11568,-2.62889,0.1975,0.8697
452.724,50.37079,-2.6618,0.21527,0.86778
455.324,50.62635,-2.70269,0.22854,0.86585
457.924,50.88272,-2.73954,0.25125,0.86391
460.524,51.1383,-2.78033,0.26304,0.86196
463.124,51.39427,-2.81778,0.26647,0.86001
465.724,51.6501,-2.85445,0.2693,0.85805
468.324,51.9061,-2.89518,0.26942,0.85608
470.924,52.16219,-2.92848,0.26899,0.8541
473.524,52.41859,-2.96262,0.26726,0.85212
476.124,52.67485,-2.99342,0.2632,0.85013
478.724,52.9313,-3.02044,0.25953,0.84813
481.324,53.1875,-3.04948,0.25464,0.84613
483.924,53.4438,-3.07451,0.24694,0.84411
486.524,53.70064,-3.09745,0.24467,0.84209
489.124,53.9578,-3.11853,0.23672,0.84006
491.724,54.21493,-3.1356,0.23355,0.83803
494.324,54.4719,-3.15287,0.22831,0.83599
496.924,54.72919,-3.16769,0.22458,0.83394
499.524,54.98596,-3.17895,0.21999,0.83188
502.124,55.2436,-3.19253,0.21835,0.82982
504.724,55.50056,-3.19983,0.21382,0.82774
507.324,55.7585,-3.20792,0.21244,0.82567
509.924,56.0163,-3.21578,0.2119,0.82358
512.524,56.274,-3.22088,0.21023,0.82149
515.124,56.53171,-3.22664,0.2089,0.81939
517.724,56.78963,-3.23059,0.21092,0.81728
520.324,57.0476,-3.23515,0.20983,0.81517
522.924,57.30565,-3.23849,0.20892,0.81305
525.524,57.5639,-3.24113,0.21573,0.81093
528.124,57.82139,-3.24375,0.2214,0.80879
530.724,58.0799,-3.24678,0.22526,0.80665
533.324,58.3384,-3.24772,0.23318,0.80451
535.924,58.59659,-3.25035,0.24318,0.80235
538.524,58.8547,-3.25168,0.25482,0.80019
541.124,59.11264,-3.25039,0.26127,0.79803
543.724,59.3713,-3.25431,0.26685,0.79585
546.324,59.6305,-3.25528,0.26955,0.79367
548.924,59.8889,-3.25859,0.27248,0.79149
551.524,60.14748,-3.25991,0.28116,0.7893
554.124,60.40555,-3.26106,0.28667,0.7871
556.724,60.66417,-3.25859,0.28614,0.78489
559.324,60.922,-3.26117,0.29138,0.78268
561.924,61.18155,-3.26223,0.29094,0.78046
564.524,61.44066,-3.26222,0.2888,0.77824
567.124,61.701,-3.26391,0.29147,0.77601
569.724,61.96045,-3.26419,0.29063,0.77378
572.324,62.22028,-3.26287,0.28797,0.77154
574.924,62.4791,-3.26649,0.28681,0.76929
577.524,62.7389,-3.26682,0.28843,0.76703
580.124,62.99853,-3.26819,0.28759,0.76478
582.724,63.25813,-3.26792,0.28619,0.76251
585.324,63.51791,-3.27056,0.28217,0.76024
587.924,63.77769,-3.27056,0.27434,0.75797
590.524,64.03729,-3.27056,0.27026,0.75568
593.124,64.2976,-3.27056,0.26516,0.7534
595.724,64.55799,-3.27264,0.25777,0.7511
598.324,64.8182,-3.27417,0.25116,0.74881
600.924,65.07835,-3.2755,0.24761,0.7465
603.524,65.3387,-3.27614,0.2427,0.74419
606.124,65.59945,-3.27352,0.2333,0.74188
608.724,65.86,-3.27479,0.22461,0.73956
611.324,66.1217,-3.27748,0.2185,0.73724
613.924,66.38291,-3.27746,0.21465,0.73491
616.524,66.6433,-3.27823,0.20285,0.73257
619.124,66.90425,-3.2788,0.20516,0.73023
621.724,67.1645,-3.28142,0.20678,0.72789
624.324,67.42493,-3.28011,0.2075,0.72554
626.924,67.68486,-3.28011,0.20411,0.72318
629.524,67.9457,-3.28022,0.20906,0.72082
632.124,68.20524,-3.27774,0.21433,0.71846
634.724,68.46615,-3.27781,0.21744,0.71609
637.324,68.727,-3.27914,0.22212,0.71372
639.924,68.98733,-3.28131,0.22432,0.71134
642.524,69.24937,-3.28098,0.23091,0.70896
645.124,69.50999,-3.28296,0.2404,0.70658
647.724,69.7713,-3.28296,0.24574,0.70419
649.924,69.99329,-3.28434,0.25186,0.70216