File: 01_Data/Overstuffed_Chair_Polyester_Batting/FTIR/ATR/Overstuffed_Chair_Polyester_Batting_ATR_210608_R3.tst
4497.79,-0.00641
4484.29,-0.00624
4470.79,-0.00606
4457.29,-0.00614
4443.79,-0.00581
4430.28,-0.00597
4416.78,-0.00581
4403.28,-0.00549
4389.78,-0.00546
4376.28,-0.00549
4362.78,-0.00542
4349.28,-0.00564
4335.78,-0.00546
4322.28,-0.00514
4308.77,-0.00520
4295.27,-0.00533
4281.77,-0.00525
4268.27,-0.00513
4254.77,-0.00493
4241.27,-0.00503
4227.77,-0.00485
4214.27,-0.00488
4200.77,-0.00479
4187.26,-0.00484
4173.76,-0.00456
4160.26,-0.00447
4146.76,-0.00455
4133.26,-0.00442
4119.76,-0.00439
4106.26,-0.00389
4092.76,-0.00413
4079.26,-0.00379
4065.75,-0.00406
4052.25,-0.00388
4038.75,-0.00392
4025.25,-0.00347
4011.75,-0.00350
3998.25,-0.00352
3984.75,-0.00331
3971.25,-0.00243
3957.75,-0.00225
3944.25,-0.00115
3930.74,0.00000
3917.24,-0.00023
3903.74,0.00442
3890.24,0.00010
3876.74,-0.00072
3863.24,0.00301
3849.74,0.00122
3836.24,0.00358
3822.74,0.00292
3809.23,-0.00084
3795.73,-0.00055
3782.23,-0.00079
3768.73,0.00102
3755.23,0.00324
3741.73,0.00465
3728.23,0.00247
3714.73,0.00138
3701.23,-0.00015
3687.72,0.00233
3674.22,0.00449
3660.72,-0.00093
3647.22,0.00493
3633.72,0.00121
3620.22,0.00393
3606.72,0.00141
3593.22,0.00099
3579.72,-0.00014
3566.21,0.00540
3552.71,0.00038
3539.21,-0.00127
3525.71,0.00230
3512.21,-0.00113
3498.71,-0.00118
3485.21,-0.00115
3471.71,-0.00222
3458.21,-0.00180
3444.7,-0.00092
3431.2,-0.00167
3417.7,-0.00193
3404.2,-0.00242
3390.7,-0.00219
3377.2,-0.00241
3363.7,-0.00196
3350.2,-0.00245
3336.7,-0.00174
3323.2,-0.00213
3309.69,-0.00160
3296.19,-0.00196
3282.69,-0.00164
3269.19,-0.00159
3255.69,-0.00144
3242.19,-0.00135
3228.69,-0.00134
3215.19,-0.00132
3201.69,-0.00113
3188.18,-0.00101
3174.68,-0.00092
3161.18,-0.00105
3147.68,-0.00080
3134.18,-0.00057
3120.68,-0.00004
3107.18,-0.00000
3093.68,0.00001
3080.18,0.00064
3066.67,0.00068
3053.17,0.00063
3039.67,0.00022
3026.17,0.00050
3012.67,0.00127
2999.17,0.00126
2985.67,0.00181
2972.17,0.00323
2958.67,0.00337
2945.16,0.00241
2931.66,0.00234
2918.16,0.00273
2904.66,0.00266
2891.16,0.00223
2877.66,0.00209
2864.16,0.00209
2850.66,0.00238
2837.16,0.00168
2823.66,0.00147
2810.15,0.00157
2796.65,0.00154
2783.15,0.00157
2769.65,0.00158
2756.15,0.00165
2742.65,0.00166
2729.15,0.00173
2715.65,0.00166
2702.15,0.00173
2688.64,0.00183
2675.14,0.00181
2661.64,0.00197
2648.14,0.00183
2634.64,0.00184
2621.14,0.00163
2607.64,0.00162
2594.14,0.00176
2580.64,0.00185
2567.13,0.00189
2553.63,0.00173
2540.13,0.00185
2526.63,0.00187
2513.13,0.00179
2499.63,0.00181
2486.13,0.00189
2472.63,0.00202
2459.13,0.00206
2445.62,0.00194
2432.12,0.00237
2418.62,0.00236
2405.12,0.00246
2391.62,0.00259
2378.12,0.00302
2364.62,-0.00380
2351.12,0.00077
2337.62,-0.00247
2324.12,0.00117
2310.61,0.00368
2297.11,0.00318
2283.61,0.00295
2270.11,0.00240
2256.61,0.00254
2243.11,0.00266
2229.61,0.00235
2216.11,0.00239
2202.61,0.00199
2189.1,0.00150
2175.6,0.00113
2162.1,0.00084
2148.6,0.00218
2135.1,0.00249
2121.6,0.00250
2108.1,0.00237
2094.6,0.00292
2081.1,0.00281
2067.59,0.00330
2054.09,0.00293
2040.59,0.00352
2027.09,0.00295
2013.59,0.00334
2000.09,0.00318
1986.59,0.00400
1973.09,0.00361
1959.59,0.00445
1946.08,0.00545
1932.58,0.00414
1919.08,0.00548
1905.58,0.00416
1892.08,0.00490
1878.58,0.00382
1865.08,0.00532
1851.58,0.00420
1838.08,0.00529
1824.57,0.00664
1811.07,0.00662
1797.57,0.00774
1784.07,0.00618
1770.57,0.00905
1757.07,0.00802
1743.57,0.01839
1730.07,0.04135
1716.57,0.06936
1703.07,0.05825
1689.56,0.03381
1676.06,0.02540
1662.56,0.01821
1649.06,0.01922
1635.56,0.01576
1622.06,0.01360
1608.56,0.01238
1595.06,0.00982
1581.56,0.01061
1568.05,0.01196
1554.55,0.01535
1541.05,0.02235
1527.55,0.01580
1514.05,0.01568
1500.55,0.01613
1487.05,0.01343
1473.55,0.01895
1460.05,0.01541
1446.54,0.01425
1433.04,0.01353
1419.54,0.01464
1406.04,0.02484
1392.54,0.01528
1379.04,0.01413
1365.54,0.01372
1352.04,0.01099
1338.54,0.02840
1325.03,0.01108
1311.53,0.01613
1298.03,0.02201
1284.53,0.03335
1271.03,0.04650
1257.53,0.05755
1244.03,0.06614
1230.53,0.06141
1217.03,0.04939
1203.53,0.03533
1190.02,0.02598
1176.52,0.02321
1163.02,0.01918
1149.52,0.02047
1136.02,0.03286
1122.52,0.05064
1109.02,0.05439
1095.52,0.06676
1082.02,0.06152
1068.51,0.04728
1055.01,0.03837
1041.51,0.03791
1028.01,0.03396
1014.51,0.05178
1001.01,0.03575
987.508,0.03230
974.007,0.03417
960.506,0.03282
947.005,0.02932
933.503,0.02821
920.002,0.02659
906.501,0.02661
893,0.02711
879.499,0.03100
865.998,0.03605
852.497,0.03417
838.996,0.03383
825.495,0.02946
811.994,0.02785
798.493,0.02791
784.992,0.02640
771.49,0.02427
757.989,0.01900
744.488,0.01579
730.987,0.05390
717.486,0.07682
703.985,0.05408
690.484,0.04218
676.983,0.03742
663.482,0.03457
649.981,0.03348
636.48,0.03328
622.979,0.02853
609.477,0.02640
599.834,0.03142