File: 01_Data/Overstuffed_Chair_Polyester_Batting/FTIR/ATR/Overstuffed_Chair_Polyester_Batting_ATR_210608_R2.tst
4497.79,-0.00534
4484.29,-0.00516
4470.79,-0.00492
4457.29,-0.00499
4443.79,-0.00476
4430.28,-0.00505
4416.78,-0.00475
4403.28,-0.00459
4389.78,-0.00438
4376.28,-0.00450
4362.78,-0.00450
4349.28,-0.00441
4335.78,-0.00421
4322.28,-0.00418
4308.77,-0.00429
4295.27,-0.00433
4281.77,-0.00404
4268.27,-0.00384
4254.77,-0.00391
4241.27,-0.00399
4227.77,-0.00396
4214.27,-0.00373
4200.77,-0.00365
4187.26,-0.00374
4173.76,-0.00343
4160.26,-0.00359
4146.76,-0.00358
4133.26,-0.00330
4119.76,-0.00340
4106.26,-0.00294
4092.76,-0.00325
4079.26,-0.00294
4065.75,-0.00309
4052.25,-0.00318
4038.75,-0.00305
4025.25,-0.00264
4011.75,-0.00281
3998.25,-0.00259
3984.75,-0.00244
3971.25,-0.00166
3957.75,-0.00123
3944.25,-0.00026
3930.74,0.00085
3917.24,0.00076
3903.74,0.00508
3890.24,0.00122
3876.74,0.00006
3863.24,0.00393
3849.74,0.00166
3836.24,0.00397
3822.74,0.00357
3809.23,-0.00003
3795.73,0.00051
3782.23,0.00006
3768.73,0.00189
3755.23,0.00413
3741.73,0.00539
3728.23,0.00321
3714.73,0.00227
3701.23,0.00073
3687.72,0.00286
3674.22,0.00488
3660.72,-0.00013
3647.22,0.00545
3633.72,0.00194
3620.22,0.00426
3606.72,0.00215
3593.22,0.00157
3579.72,0.00058
3566.21,0.00620
3552.71,0.00122
3539.21,-0.00044
3525.71,0.00294
3512.21,-0.00030
3498.71,-0.00042
3485.21,-0.00054
3471.71,-0.00150
3458.21,-0.00110
3444.7,-0.00011
3431.2,-0.00096
3417.7,-0.00112
3404.2,-0.00169
3390.7,-0.00138
3377.2,-0.00160
3363.7,-0.00114
3350.2,-0.00171
3336.7,-0.00089
3323.2,-0.00117
3309.69,-0.00076
3296.19,-0.00100
3282.69,-0.00084
3269.19,-0.00082
3255.69,-0.00055
3242.19,-0.00041
3228.69,-0.00038
3215.19,-0.00037
3201.69,-0.00021
3188.18,-0.00034
3174.68,-0.00012
3161.18,-0.00019
3147.68,0.00013
3134.18,0.00045
3120.68,0.00085
3107.18,0.00078
3093.68,0.00088
3080.18,0.00141
3066.67,0.00149
3053.17,0.00148
3039.67,0.00101
3026.17,0.00125
3012.67,0.00215
2999.17,0.00203
2985.67,0.00266
2972.17,0.00393
2958.67,0.00397
2945.16,0.00316
2931.66,0.00300
2918.16,0.00326
2904.66,0.00348
2891.16,0.00296
2877.66,0.00282
2864.16,0.00287
2850.66,0.00312
2837.16,0.00252
2823.66,0.00228
2810.15,0.00239
2796.65,0.00236
2783.15,0.00247
2769.65,0.00254
2756.15,0.00251
2742.65,0.00258
2729.15,0.00255
2715.65,0.00255
2702.15,0.00261
2688.64,0.00266
2675.14,0.00270
2661.64,0.00280
2648.14,0.00264
2634.64,0.00267
2621.14,0.00260
2607.64,0.00248
2594.14,0.00264
2580.64,0.00270
2567.13,0.00266
2553.63,0.00268
2540.13,0.00277
2526.63,0.00265
2513.13,0.00261
2499.63,0.00269
2486.13,0.00283
2472.63,0.00284
2459.13,0.00286
2445.62,0.00272
2432.12,0.00305
2418.62,0.00314
2405.12,0.00322
2391.62,0.00341
2378.12,0.00367
2364.62,-0.00276
2351.12,0.00147
2337.62,-0.00188
2324.12,0.00195
2310.61,0.00438
2297.11,0.00390
2283.61,0.00347
2270.11,0.00302
2256.61,0.00303
2243.11,0.00321
2229.61,0.00307
2216.11,0.00301
2202.61,0.00236
2189.1,0.00204
2175.6,0.00190
2162.1,0.00104
2148.6,0.00292
2135.1,0.00292
2121.6,0.00292
2108.1,0.00264
2094.6,0.00345
2081.1,0.00338
2067.59,0.00393
2054.09,0.00335
2040.59,0.00413
2027.09,0.00302
2013.59,0.00370
2000.09,0.00374
1986.59,0.00433
1973.09,0.00385
1959.59,0.00478
1946.08,0.00556
1932.58,0.00464
1919.08,0.00589
1905.58,0.00479
1892.08,0.00527
1878.58,0.00416
1865.08,0.00573
1851.58,0.00482
1838.08,0.00579
1824.57,0.00695
1811.07,0.00698
1797.57,0.00811
1784.07,0.00650
1770.57,0.00909
1757.07,0.00807
1743.57,0.01767
1730.07,0.03971
1716.57,0.06799
1703.07,0.05835
1689.56,0.03519
1676.06,0.02680
1662.56,0.01970
1649.06,0.02042
1635.56,0.01696
1622.06,0.01467
1608.56,0.01308
1595.06,0.01072
1581.56,0.01153
1568.05,0.01291
1554.55,0.01607
1541.05,0.02297
1527.55,0.01648
1514.05,0.01642
1500.55,0.01707
1487.05,0.01394
1473.55,0.01962
1460.05,0.01610
1446.54,0.01470
1433.04,0.01376
1419.54,0.01516
1406.04,0.02576
1392.54,0.01591
1379.04,0.01467
1365.54,0.01404
1352.04,0.01138
1338.54,0.02938
1325.03,0.01134
1311.53,0.01537
1298.03,0.02121
1284.53,0.03290
1271.03,0.04621
1257.53,0.05779
1244.03,0.06713
1230.53,0.06228
1217.03,0.04939
1203.53,0.03702
1190.02,0.02752
1176.52,0.02433
1163.02,0.01961
1149.52,0.02025
1136.02,0.03270
1122.52,0.05115
1109.02,0.05559
1095.52,0.06778
1082.02,0.06338
1068.51,0.04948
1055.01,0.04060
1041.51,0.03961
1028.01,0.03472
1014.51,0.05426
1001.01,0.03834
987.508,0.03502
974.007,0.03704
960.506,0.03588
947.005,0.03185
933.503,0.03052
920.002,0.02849
906.501,0.02810
893,0.02939
879.499,0.03232
865.998,0.03873
852.497,0.03639
838.996,0.03653
825.495,0.03155
811.994,0.02990
798.493,0.02956
784.992,0.02840
771.49,0.02552
757.989,0.02055
744.488,0.01778
730.987,0.05451
717.486,0.08009
703.985,0.05770
690.484,0.04591
676.983,0.04041
663.482,0.03783
649.981,0.03654
636.48,0.03614
622.979,0.03112
609.477,0.03178
599.834,0.03405