File: 01_Data/Overstuffed_Chair_Polyester_Batting/FTIR/ATR/Overstuffed_Chair_Polyester_Batting_ATR_210608_R1.tst
4497.79,-0.00622
4484.29,-0.00628
4470.79,-0.00607
4457.29,-0.00593
4443.79,-0.00577
4430.28,-0.00552
4416.78,-0.00574
4403.28,-0.00570
4389.78,-0.00537
4376.28,-0.00527
4362.78,-0.00546
4349.28,-0.00543
4335.78,-0.00514
4322.28,-0.00518
4308.77,-0.00528
4295.27,-0.00510
4281.77,-0.00502
4268.27,-0.00512
4254.77,-0.00498
4241.27,-0.00502
4227.77,-0.00480
4214.27,-0.00476
4200.77,-0.00475
4187.26,-0.00469
4173.76,-0.00436
4160.26,-0.00458
4146.76,-0.00471
4133.26,-0.00435
4119.76,-0.00415
4106.26,-0.00390
4092.76,-0.00397
4079.26,-0.00393
4065.75,-0.00426
4052.25,-0.00416
4038.75,-0.00386
4025.25,-0.00348
4011.75,-0.00365
3998.25,-0.00370
3984.75,-0.00337
3971.25,-0.00264
3957.75,-0.00238
3944.25,-0.00122
3930.74,0.00001
3917.24,-0.00039
3903.74,0.00403
3890.24,-0.00001
3876.74,-0.00098
3863.24,0.00267
3849.74,0.00077
3836.24,0.00300
3822.74,0.00253
3809.23,-0.00092
3795.73,-0.00059
3782.23,-0.00083
3768.73,0.00099
3755.23,0.00297
3741.73,0.00387
3728.23,0.00181
3714.73,0.00117
3701.23,-0.00032
3687.72,0.00188
3674.22,0.00380
3660.72,-0.00093
3647.22,0.00414
3633.72,0.00138
3620.22,0.00356
3606.72,0.00111
3593.22,0.00089
3579.72,-0.00022
3566.21,0.00528
3552.71,0.00040
3539.21,-0.00137
3525.71,0.00211
3512.21,-0.00115
3498.71,-0.00116
3485.21,-0.00136
3471.71,-0.00230
3458.21,-0.00201
3444.7,-0.00096
3431.2,-0.00177
3417.7,-0.00200
3404.2,-0.00251
3390.7,-0.00230
3377.2,-0.00258
3363.7,-0.00210
3350.2,-0.00271
3336.7,-0.00194
3323.2,-0.00228
3309.69,-0.00176
3296.19,-0.00205
3282.69,-0.00172
3269.19,-0.00192
3255.69,-0.00157
3242.19,-0.00153
3228.69,-0.00138
3215.19,-0.00133
3201.69,-0.00114
3188.18,-0.00119
3174.68,-0.00107
3161.18,-0.00121
3147.68,-0.00085
3134.18,-0.00052
3120.68,-0.00010
3107.18,-0.00015
3093.68,-0.00004
3080.18,0.00037
3066.67,0.00051
3053.17,0.00049
3039.67,0.00006
3026.17,0.00034
3012.67,0.00113
2999.17,0.00117
2985.67,0.00182
2972.17,0.00338
2958.67,0.00337
2945.16,0.00226
2931.66,0.00204
2918.16,0.00232
2904.66,0.00255
2891.16,0.00211
2877.66,0.00192
2864.16,0.00190
2850.66,0.00201
2837.16,0.00146
2823.66,0.00128
2810.15,0.00131
2796.65,0.00129
2783.15,0.00138
2769.65,0.00137
2756.15,0.00140
2742.65,0.00143
2729.15,0.00144
2715.65,0.00148
2702.15,0.00148
2688.64,0.00150
2675.14,0.00155
2661.64,0.00163
2648.14,0.00161
2634.64,0.00148
2621.14,0.00141
2607.64,0.00132
2594.14,0.00158
2580.64,0.00175
2567.13,0.00162
2553.63,0.00148
2540.13,0.00175
2526.63,0.00156
2513.13,0.00159
2499.63,0.00158
2486.13,0.00178
2472.63,0.00176
2459.13,0.00168
2445.62,0.00159
2432.12,0.00198
2418.62,0.00194
2405.12,0.00211
2391.62,0.00225
2378.12,0.00269
2364.62,-0.00350
2351.12,0.00054
2337.62,-0.00252
2324.12,0.00076
2310.61,0.00339
2297.11,0.00272
2283.61,0.00253
2270.11,0.00190
2256.61,0.00226
2243.11,0.00218
2229.61,0.00203
2216.11,0.00186
2202.61,0.00134
2189.1,0.00115
2175.6,0.00081
2162.1,0.00044
2148.6,0.00155
2135.1,0.00209
2121.6,0.00176
2108.1,0.00174
2094.6,0.00245
2081.1,0.00247
2067.59,0.00287
2054.09,0.00229
2040.59,0.00258
2027.09,0.00241
2013.59,0.00278
2000.09,0.00298
1986.59,0.00359
1973.09,0.00300
1959.59,0.00350
1946.08,0.00474
1932.58,0.00353
1919.08,0.00475
1905.58,0.00369
1892.08,0.00410
1878.58,0.00325
1865.08,0.00478
1851.58,0.00384
1838.08,0.00492
1824.57,0.00624
1811.07,0.00621
1797.57,0.00730
1784.07,0.00589
1770.57,0.00880
1757.07,0.00775
1743.57,0.01819
1730.07,0.04191
1716.57,0.07083
1703.07,0.06028
1689.56,0.03491
1676.06,0.02589
1662.56,0.01828
1649.06,0.01874
1635.56,0.01527
1622.06,0.01318
1608.56,0.01158
1595.06,0.00911
1581.56,0.01025
1568.05,0.01150
1554.55,0.01459
1541.05,0.02124
1527.55,0.01527
1514.05,0.01525
1500.55,0.01601
1487.05,0.01288
1473.55,0.01918
1460.05,0.01545
1446.54,0.01392
1433.04,0.01284
1419.54,0.01463
1406.04,0.02605
1392.54,0.01541
1379.04,0.01421
1365.54,0.01349
1352.04,0.01112
1338.54,0.02975
1325.03,0.01112
1311.53,0.01547
1298.03,0.02199
1284.53,0.03451
1271.03,0.04807
1257.53,0.05975
1244.03,0.06855
1230.53,0.06178
1217.03,0.04738
1203.53,0.03494
1190.02,0.02550
1176.52,0.02291
1163.02,0.01836
1149.52,0.01992
1136.02,0.03353
1122.52,0.05239
1109.02,0.05682
1095.52,0.06867
1082.02,0.06298
1068.51,0.04736
1055.01,0.03856
1041.51,0.03779
1028.01,0.03335
1014.51,0.05270
1001.01,0.03593
987.508,0.03291
974.007,0.03567
960.506,0.03386
947.005,0.02956
933.503,0.02824
920.002,0.02621
906.501,0.02616
893,0.02723
879.499,0.03131
865.998,0.03680
852.497,0.03470
838.996,0.03380
825.495,0.02929
811.994,0.02751
798.493,0.02729
784.992,0.02624
771.49,0.02295
757.989,0.01867
744.488,0.01616
730.987,0.05486
717.486,0.07982
703.985,0.05613
690.484,0.04329
676.983,0.03881
663.482,0.03572
649.981,0.03370
636.48,0.03363
622.979,0.03042
609.477,0.02441
599.834,0.03163