File: 01_Data/Overstuffed_Chair_Polyester_Batting/FTIR/ATR/Overstuffed_Chair_Polyester_Batting_ATR_210608_R4.tst
4497.79,-0.00583
4484.29,-0.00573
4470.79,-0.00561
4457.29,-0.00560
4443.79,-0.00537
4430.28,-0.00546
4416.78,-0.00537
4403.28,-0.00512
4389.78,-0.00517
4376.28,-0.00505
4362.78,-0.00493
4349.28,-0.00497
4335.78,-0.00472
4322.28,-0.00452
4308.77,-0.00493
4295.27,-0.00475
4281.77,-0.00468
4268.27,-0.00464
4254.77,-0.00487
4241.27,-0.00449
4227.77,-0.00445
4214.27,-0.00438
4200.77,-0.00428
4187.26,-0.00436
4173.76,-0.00409
4160.26,-0.00408
4146.76,-0.00406
4133.26,-0.00387
4119.76,-0.00393
4106.26,-0.00357
4092.76,-0.00391
4079.26,-0.00345
4065.75,-0.00373
4052.25,-0.00364
4038.75,-0.00360
4025.25,-0.00332
4011.75,-0.00305
3998.25,-0.00320
3984.75,-0.00292
3971.25,-0.00203
3957.75,-0.00186
3944.25,-0.00058
3930.74,0.00063
3917.24,0.00036
3903.74,0.00502
3890.24,0.00062
3876.74,-0.00049
3863.24,0.00383
3849.74,0.00170
3836.24,0.00397
3822.74,0.00328
3809.23,-0.00033
3795.73,0.00024
3782.23,-0.00026
3768.73,0.00163
3755.23,0.00388
3741.73,0.00544
3728.23,0.00298
3714.73,0.00177
3701.23,0.00043
3687.72,0.00307
3674.22,0.00506
3660.72,-0.00041
3647.22,0.00581
3633.72,0.00168
3620.22,0.00464
3606.72,0.00214
3593.22,0.00154
3579.72,0.00032
3566.21,0.00628
3552.71,0.00101
3539.21,-0.00080
3525.71,0.00275
3512.21,-0.00058
3498.71,-0.00065
3485.21,-0.00081
3471.71,-0.00175
3458.21,-0.00139
3444.7,-0.00048
3431.2,-0.00125
3417.7,-0.00148
3404.2,-0.00210
3390.7,-0.00167
3377.2,-0.00195
3363.7,-0.00149
3350.2,-0.00213
3336.7,-0.00132
3323.2,-0.00168
3309.69,-0.00109
3296.19,-0.00150
3282.69,-0.00121
3269.19,-0.00115
3255.69,-0.00104
3242.19,-0.00094
3228.69,-0.00075
3215.19,-0.00086
3201.69,-0.00058
3188.18,-0.00074
3174.68,-0.00058
3161.18,-0.00070
3147.68,-0.00044
3134.18,-0.00016
3120.68,0.00031
3107.18,0.00023
3093.68,0.00036
3080.18,0.00091
3066.67,0.00101
3053.17,0.00086
3039.67,0.00055
3026.17,0.00084
3012.67,0.00157
2999.17,0.00157
2985.67,0.00207
2972.17,0.00354
2958.67,0.00392
2945.16,0.00297
2931.66,0.00327
2918.16,0.00360
2904.66,0.00340
2891.16,0.00274
2877.66,0.00254
2864.16,0.00271
2850.66,0.00318
2837.16,0.00215
2823.66,0.00178
2810.15,0.00180
2796.65,0.00172
2783.15,0.00185
2769.65,0.00178
2756.15,0.00187
2742.65,0.00190
2729.15,0.00184
2715.65,0.00194
2702.15,0.00196
2688.64,0.00196
2675.14,0.00202
2661.64,0.00214
2648.14,0.00203
2634.64,0.00200
2621.14,0.00192
2607.64,0.00188
2594.14,0.00207
2580.64,0.00208
2567.13,0.00206
2553.63,0.00204
2540.13,0.00221
2526.63,0.00218
2513.13,0.00211
2499.63,0.00215
2486.13,0.00220
2472.63,0.00238
2459.13,0.00231
2445.62,0.00218
2432.12,0.00265
2418.62,0.00258
2405.12,0.00280
2391.62,0.00281
2378.12,0.00345
2364.62,-0.00187
2351.12,0.00155
2337.62,-0.00152
2324.12,0.00213
2310.61,0.00422
2297.11,0.00359
2283.61,0.00333
2270.11,0.00283
2256.61,0.00314
2243.11,0.00337
2229.61,0.00313
2216.11,0.00311
2202.61,0.00325
2189.1,0.00266
2175.6,0.00251
2162.1,0.00268
2148.6,0.00331
2135.1,0.00331
2121.6,0.00289
2108.1,0.00294
2094.6,0.00346
2081.1,0.00353
2067.59,0.00421
2054.09,0.00365
2040.59,0.00450
2027.09,0.00430
2013.59,0.00453
2000.09,0.00447
1986.59,0.00483
1973.09,0.00471
1959.59,0.00492
1946.08,0.00594
1932.58,0.00479
1919.08,0.00619
1905.58,0.00463
1892.08,0.00525
1878.58,0.00422
1865.08,0.00579
1851.58,0.00465
1838.08,0.00563
1824.57,0.00691
1811.07,0.00689
1797.57,0.00815
1784.07,0.00656
1770.57,0.00952
1757.07,0.00835
1743.57,0.01863
1730.07,0.04118
1716.57,0.06976
1703.07,0.05863
1689.56,0.03441
1676.06,0.02601
1662.56,0.01902
1649.06,0.02014
1635.56,0.01653
1622.06,0.01422
1608.56,0.01319
1595.06,0.01038
1581.56,0.01120
1568.05,0.01259
1554.55,0.01598
1541.05,0.02364
1527.55,0.01663
1514.05,0.01646
1500.55,0.01652
1487.05,0.01371
1473.55,0.01933
1460.05,0.01614
1446.54,0.01510
1433.04,0.01426
1419.54,0.01521
1406.04,0.02493
1392.54,0.01566
1379.04,0.01454
1365.54,0.01426
1352.04,0.01117
1338.54,0.02708
1325.03,0.01137
1311.53,0.01711
1298.03,0.02311
1284.53,0.03460
1271.03,0.04781
1257.53,0.05817
1244.03,0.06637
1230.53,0.06265
1217.03,0.05106
1203.53,0.03595
1190.02,0.02612
1176.52,0.02356
1163.02,0.01989
1149.52,0.02129
1136.02,0.03384
1122.52,0.05078
1109.02,0.05481
1095.52,0.06799
1082.02,0.06277
1068.51,0.04862
1055.01,0.03881
1041.51,0.03902
1028.01,0.03535
1014.51,0.05245
1001.01,0.03620
987.508,0.03258
974.007,0.03450
960.506,0.03239
947.005,0.02934
933.503,0.02889
920.002,0.02699
906.501,0.02669
893,0.02799
879.499,0.03146
865.998,0.03690
852.497,0.03430
838.996,0.03397
825.495,0.03037
811.994,0.02890
798.493,0.02846
784.992,0.02728
771.49,0.02479
757.989,0.01963
744.488,0.01694
730.987,0.05573
717.486,0.07949
703.985,0.05687
690.484,0.04449
676.983,0.03975
663.482,0.03667
649.981,0.03529
636.48,0.03551
622.979,0.03589
609.477,0.03659
599.834,0.03604