File: 01_Data/Pine_Lap_Siding_Paint/STA/N2/10K_min/Pine_Lap_Siding_Paint_STA_N2_10KData_220316_R2.csv
##Temp./Â°C,Time/min,Mass loss(subtr.2)/mg,DSC(subtr.2)/(mW/mg),Sensit./(uV/mW)
49.707,10.01,-0.03576,0.01506836,1.07515
53.107,11.34113,-0.03983619,0.09856976,1.07338
56.507,11.80873,-0.04139501,0.13558,1.07161
59.907,12.21228,-0.04119393,0.15276,1.06984
63.307,12.59469,-0.04264728,0.16262,1.06808
66.707,12.96754,-0.04377504,0.17203,1.06631
70.107,13.3334,-0.0445078,0.17826,1.06455
73.507,13.69396,-0.04520108,0.18092,1.06279
76.907,14.05093,-0.04782782,0.18652,1.06103
80.307,14.40342,-0.04779495,0.19162,1.05927
83.707,14.7528,-0.04919383,0.19563,1.05752
87.107,15.0987,-0.04974843,0.1983,1.05576
90.507,15.43997,-0.04946937,0.20089,1.05401
93.907,15.7792,-0.05045759,0.2061,1.05226
97.307,16.11703,-0.05276029,0.20926,1.05052
100.707,16.4528,-0.05275887,0.2106,1.04877
104.107,16.7869,-0.05408576,0.21089,1.04703
107.507,17.12152,-0.05408128,0.21219,1.04528
110.907,17.4543,-0.05538977,0.21741,1.04354
114.307,17.78751,-0.05503641,0.21599,1.0418
117.707,18.1207,-0.05697444,0.22232,1.04007
121.107,18.4524,-0.05800547,0.22096,1.03833
124.507,18.78402,-0.05901184,0.2251,1.0366
127.907,19.11542,-0.05803016,0.22661,1.03487
131.307,19.44644,-0.05836013,0.22846,1.03313
134.707,19.7763,-0.05796878,0.22946,1.03141
138.107,20.1057,-0.05834041,0.22984,1.02968
141.507,20.43446,-0.05935,0.22879,1.02795
144.907,20.76233,-0.06098913,0.2324,1.02623
148.307,21.08996,-0.06099033,0.23445,1.0245
151.707,21.41643,-0.06214991,0.23799,1.02278
155.107,21.7429,-0.06326507,0.2382,1.02106
158.507,22.0694,-0.0619599,0.2401,1.01934
161.907,22.39565,-0.06342737,0.24182,1.01762
165.307,22.72169,-0.0652555,0.23994,1.0159
168.707,23.04797,-0.0652498,0.24543,1.01418
172.107,23.37435,-0.06659,0.24711,1.01247
175.507,23.70065,-0.06790229,0.24872,1.01075
178.907,24.02615,-0.06790079,0.25121,1.00904
182.307,24.35156,-0.06942896,0.25286,1.00732
185.707,24.67578,-0.07020422,0.2542,1.00561
189.107,24.999,-0.06989792,0.25994,1.00389
192.507,25.3222,-0.07216999,0.25953,1.00218
195.907,25.6454,-0.07217816,0.26013,1.00047
199.307,25.96859,-0.07350949,0.26042,0.99875
202.707,26.29242,-0.07340633,0.26149,0.99704
206.107,26.6166,-0.07382002,0.26138,0.99533
209.507,26.94107,-0.07448025,0.26358,0.99361
212.907,27.2646,-0.07678899,0.26604,0.9919
216.307,27.58829,-0.07778947,0.26733,0.99019
219.707,27.912,-0.07942,0.26445,0.98847
223.107,28.2359,-0.07842997,0.26464,0.98676
226.507,28.5605,-0.08072991,0.26734,0.98504
229.907,28.8851,-0.08072996,0.26827,0.98333
233.307,29.20911,-0.08238,0.26866,0.98161
236.707,29.53335,-0.08366616,0.27257,0.97989
240.107,29.8582,-0.08592745,0.27327,0.97818
243.507,30.18201,-0.08665005,0.27643,0.97646
246.907,30.50546,-0.08796999,0.28138,0.97473
250.307,30.8303,-0.09061,0.28567,0.97301
253.707,31.15533,-0.09350537,0.28725,0.97129
257.107,31.4801,-0.09367992,0.29397,0.96956
260.507,31.8051,-0.09761297,0.29882,0.96783
263.907,32.12986,-0.09993,0.30419,0.96611
267.307,32.45545,-0.10395,0.3077,0.96437
270.707,32.7806,-0.10749,0.30579,0.96264
274.107,33.10605,-0.1105,0.30485,0.9609
277.507,33.43212,-0.1144,0.29962,0.95917
280.907,33.75759,-0.11703,0.29643,0.95743
284.307,34.0835,-0.11967,0.29257,0.95568
287.707,34.4094,-0.12449,0.29022,0.95394
291.107,34.73584,-0.12581,0.28878,0.95219
294.507,35.06115,-0.13052,0.28894,0.95044
297.907,35.38695,-0.13218,0.29043,0.94868
301.307,35.71285,-0.13744,0.29443,0.94692
304.707,36.03929,-0.1415,0.29262,0.94516
308.107,36.36614,-0.14414,0.29577,0.9434
311.507,36.6935,-0.14938,0.29964,0.94163
314.907,37.02101,-0.15671,0.30403,0.93985
318.307,37.3487,-0.16267,0.3055,0.93808
321.707,37.67608,-0.16855,0.30991,0.9363
325.107,38.00357,-0.17922,0.31011,0.93451
328.507,38.33124,-0.1858,0.30812,0.93272
331.907,38.6586,-0.19846,0.30539,0.93093
335.307,38.98653,-0.20872,0.29986,0.92913
338.707,39.31504,-0.22093,0.29619,0.92733
342.107,39.64424,-0.2338,0.29053,0.92552
345.507,39.97332,-0.24479,0.28845,0.92371
348.907,40.30295,-0.25521,0.291,0.92189
352.307,40.63197,-0.26461,0.28379,0.92007
355.707,40.96087,-0.27258,0.28331,0.91824
359.107,41.29022,-0.28333,0.27715,0.91641
362.507,41.61984,-0.2899,0.27232,0.91457
365.907,41.94988,-0.29593,0.27286,0.91273
369.307,42.2797,-0.30097,0.27129,0.91088
372.707,42.6094,-0.30653,0.26877,0.90902
376.107,42.9387,-0.31239,0.27443,0.90716
379.507,43.26866,-0.31792,0.27572,0.90529
382.907,43.59823,-0.32579,0.28099,0.90342
386.307,43.92889,-0.33257,0.28382,0.90153
389.707,44.2596,-0.34046,0.2925,0.89965
393.107,44.59044,-0.3511,0.29911,0.89775
396.507,44.9214,-0.36251,0.3109,0.89585
399.907,45.25262,-0.3737,0.31991,0.89394
403.307,45.58433,-0.3883,0.32642,0.89203
406.707,45.91612,-0.40337,0.32992,0.89011
410.107,46.24714,-0.4191,0.32885,0.88818
413.507,46.57862,-0.43128,0.31758,0.88624
416.907,46.91087,-0.44412,0.30115,0.88429
420.307,47.24366,-0.45268,0.28772,0.88234
423.707,47.57611,-0.46167,0.27547,0.88038
427.107,47.90936,-0.46848,0.26631,0.87841
430.507,48.24259,-0.47572,0.26358,0.87644
433.907,48.57655,-0.47999,0.26243,0.87446
437.307,48.9101,-0.48592,0.26038,0.87246
440.707,49.2451,-0.49179,0.25977,0.87046
444.107,49.57934,-0.49546,0.26221,0.86845
447.507,49.91447,-0.50105,0.26298,0.86644
450.907,50.24902,-0.50632,0.26663,0.86441
454.307,50.58365,-0.51026,0.26858,0.86238
457.707,50.91847,-0.5157,0.27007,0.86034
461.107,51.25427,-0.52009,0.27205,0.85828
464.507,51.59137,-0.52496,0.27094,0.85622
467.907,51.92888,-0.53113,0.26648,0.85415
471.307,52.26597,-0.53694,0.26926,0.85208
474.707,52.60256,-0.54108,0.26409,0.84999
478.107,52.9382,-0.54547,0.26531,0.84789
481.507,53.27397,-0.54844,0.26182,0.84578
484.907,53.60983,-0.55304,0.25677,0.84367
488.307,53.9458,-0.55595,0.25715,0.84154
491.707,54.2823,-0.55863,0.25705,0.83941
495.107,54.61919,-0.56027,0.25072,0.83726
498.507,54.95585,-0.56285,0.24875,0.83511
501.907,55.2925,-0.56652,0.26177,0.83294
505.307,55.6295,-0.56785,0.26628,0.83077
508.707,55.96637,-0.56948,0.26558,0.82859
512.107,56.3041,-0.57048,0.27075,0.82639
515.507,56.64164,-0.57444,0.27383,0.82419
518.907,56.9787,-0.57541,0.28525,0.82197
522.307,57.3165,-0.57673,0.28613,0.81975
525.707,57.65413,-0.58006,0.2901,0.81751
529.107,57.9931,-0.58134,0.28384,0.81527
532.507,58.33194,-0.58232,0.26866,0.81301
535.907,58.6709,-0.58628,0.25174,0.81075
539.307,59.0085,-0.58627,0.2416,0.80847
542.707,59.3471,-0.5876,0.2342,0.80619
546.107,59.68566,-0.58956,0.22428,0.80389
549.507,60.02479,-0.5922,0.21762,0.80158
552.907,60.36411,-0.59089,0.21928,0.79926
556.307,60.70395,-0.59352,0.21915,0.79693
559.707,61.043,-0.5959,0.21651,0.79459
563.107,61.38188,-0.59752,0.21889,0.79224
566.507,61.72035,-0.59889,0.21601,0.78988
569.907,62.0603,-0.60051,0.21386,0.78751
573.307,62.4006,-0.60267,0.21273,0.78513
576.707,62.7416,-0.60459,0.20183,0.78274
580.107,63.0824,-0.60493,0.20055,0.78033
583.507,63.4242,-0.59857,0.19488,0.77792
586.907,63.7647,-0.60309,0.19462,0.77549
590.307,64.1049,-0.62058,0.19474,0.77306
593.707,64.44637,-0.61918,0.19821,0.77061
597.107,64.7882,-0.61513,0.19681,0.76815
600.507,65.13038,-0.61482,0.19786,0.76569
603.907,65.47241,-0.61775,0.20444,0.76321
607.307,65.8147,-0.61785,0.211,0.76072
610.707,66.15731,-0.62024,0.22063,0.75822
614.107,66.49893,-0.62195,0.22475,0.75571
617.507,66.83986,-0.62565,0.23586,0.75318
620.907,67.18104,-0.628,0.24635,0.75065
624.307,67.52235,-0.6328,0.26205,0.74811
627.707,67.86391,-0.63464,0.26914,0.74555
631.107,68.20612,-0.639,0.28327,0.74299
634.507,68.54813,-0.64353,0.29799,0.74041
637.907,68.8908,-0.64781,0.30759,0.73783
641.307,69.23358,-0.65309,0.32389,0.73523
644.707,69.57651,-0.65735,0.33978,0.73263
648.107,69.92021,-0.66229,0.35845,0.73001
651.507,70.2629,-0.6697,0.37871,0.72738
654.907,70.60484,-0.68372,0.40753,0.72474
658.307,70.9452,-0.68438,0.42353,0.72209
661.707,71.2873,-0.68637,0.45116,0.71944
665.107,71.62846,-0.69746,0.48218,0.71677
668.507,71.97024,-0.70946,0.52131,0.71409
671.907,72.31254,-0.72041,0.56098,0.7114
675.307,72.65513,-0.73028,0.60262,0.7087
678.707,72.9983,-0.74123,0.64073,0.70599
682.107,73.34196,-0.75512,0.68742,0.70327
685.507,73.686,-0.76738,0.74116,0.70054
688.907,74.03007,-0.78251,0.79912,0.6978
692.307,74.3736,-0.80028,0.86059,0.69505
695.707,74.71789,-0.81621,0.93046,0.6923
699.107,75.06303,-0.83743,1.0072,0.68953
702.507,75.40767,-0.85799,1.08122,0.68675
705.907,75.75234,-0.88233,1.17663,0.68396
709.307,76.09612,-0.90895,1.27117,0.68117
712.707,76.44006,-0.93596,1.37433,0.67836
716.107,76.7833,-0.96384,1.47915,0.67555
719.507,77.1267,-0.99664,1.5947,0.67272
722.907,77.4709,-1.03303,1.71441,0.66989
726.307,77.81614,-1.06962,1.845,0.66705
729.707,78.1614,-1.10976,1.97665,0.6642
733.107,78.5063,-1.15323,2.11133,0.66134
736.507,78.8517,-1.19961,2.24518,0.65848
739.907,79.19807,-1.24846,2.37595,0.6556
743.307,79.54348,-1.29992,2.49941,0.65272
746.707,79.88882,-1.35283,2.60288,0.64982
750.107,80.2337,-1.40907,2.67,0.64692
753.507,80.5773,-1.46642,2.6704,0.64402
756.907,80.9208,-1.52393,2.49812,0.6411
760.307,81.26505,-1.56903,1.88727,0.63817
763.707,81.60882,-1.59123,0.23534,0.63524
767.107,81.95411,-1.59265,-0.01352206,0.6323
770.507,82.30079,-1.59462,-0.02837201,0.62936
773.907,82.6481,-1.59528,-0.03340758,0.6264
777.307,82.99462,-1.59649,-0.03850455,0.62344
780.707,83.34058,-1.59578,-0.04242551,0.62047
784.107,83.68463,-1.59682,-0.04273733,0.6175
787.507,84.02898,-1.59682,-0.04875372,0.61452
790.907,84.37444,-1.5975,-0.05469975,0.61153
794.307,84.71935,-1.58728,-0.05234579,0.60854
797.707,85.06546,-1.59597,-0.05981878,0.60553
801.107,85.41152,-1.60274,-0.05914421,0.60253
804.507,85.7582,-1.59867,-0.06358287,0.59951
807.907,86.1039,-1.59736,-0.06804005,0.59649
811.307,86.45022,-1.60473,-0.06760394,0.59347
814.707,86.7961,-1.60657,-0.0697416,0.59044
818.107,87.14219,-1.60247,-0.08006139,0.5874
821.507,87.4892,-1.60203,-0.08718568,0.58436
824.907,87.83547,-1.60263,-0.08531195,0.58131
828.307,88.1813,-1.60197,-0.09269779,0.57826
831.707,88.52626,-1.60296,-0.09995373,0.57521
835.107,88.872,-1.6018,-0.10451,0.57214
838.507,89.21856,-1.60033,-0.11747,0.56908
841.907,89.56532,-1.60463,-0.12748,0.56601
845.307,89.91187,-1.60394,-0.13477,0.56293
846.107,89.9939,-1.60394,-0.13974,0.56221