File: 01_Data/Pine_Lap_Siding_Paint/STA/N2/10K_min/Pine_Lap_Siding_Paint_STA_N2_10KData_220316_R1.csv
##Temp./Â°C,Time/min,Mass loss(subtr.2)/mg,DSC(subtr.2)/(mW/mg),Sensit./(uV/mW)
49.655,10.00917,0.02929,-0.005792667,1.07518
52.655,11.27137,0.03192092,0.08180893,1.07362
55.655,11.7036,0.03474091,0.11874,1.07205
58.655,12.0697,0.03370338,0.13954,1.07049
61.655,12.41132,0.03568225,0.15256,1.06893
64.655,12.7437,0.03451132,0.16127,1.06738
67.655,13.06878,0.03838456,0.16687,1.06582
70.655,13.3894,0.03706129,0.17282,1.06427
73.655,13.7052,0.03575237,0.18165,1.06271
76.655,14.0192,0.03706997,0.18579,1.06116
79.655,14.32956,0.03708129,0.18965,1.05961
82.655,14.63715,0.03575959,0.19255,1.05806
85.655,14.943,0.0370805,0.19559,1.05651
88.655,15.24665,0.03710625,0.19399,1.05497
91.655,15.548,0.03706717,0.19865,1.05342
94.655,15.8476,0.03575982,0.20131,1.05188
97.655,16.1459,0.0357564,0.20358,1.05034
100.655,16.44266,0.03576,0.20861,1.0488
103.655,16.7377,0.03578494,0.20959,1.04726
106.655,17.03184,0.03571535,0.20962,1.04572
109.655,17.32445,0.03652803,0.21377,1.04418
112.655,17.61756,0.03652971,0.21664,1.04265
115.655,17.9109,0.03639498,0.21509,1.04112
118.655,18.2031,0.03586272,0.21679,1.03958
121.655,18.49529,0.03586994,0.21968,1.03805
124.655,18.78698,0.03587283,0.22396,1.03652
127.655,19.0777,0.03609216,0.22479,1.03499
130.655,19.36842,0.03686957,0.22464,1.03347
133.655,19.65936,0.03553977,0.229,1.03194
136.655,19.9487,0.03620207,0.22944,1.03042
139.655,20.23773,0.03521245,0.23301,1.02889
142.655,20.5264,0.03553998,0.2313,1.02737
145.655,20.81586,0.03554332,0.23561,1.02585
148.655,21.1045,0.03553845,0.23828,1.02433
151.655,21.39347,0.0364014,0.23684,1.02281
154.655,21.68245,0.03488012,0.24125,1.02129
157.655,21.9711,0.03697134,0.23853,1.01977
160.655,22.2602,0.03557441,0.24439,1.01825
163.655,22.5483,0.03620023,0.25007,1.01673
166.655,22.836,0.03685993,0.25076,1.01522
169.655,23.12379,0.03422968,0.25225,1.0137
172.655,23.4113,0.03453462,0.25231,1.01219
175.655,23.6987,0.03488106,0.2537,1.01068
178.655,23.98532,0.03349706,0.25674,1.00916
181.655,24.27273,0.03387433,0.25845,1.00765
184.655,24.56053,0.03355205,0.26131,1.00614
187.655,24.84763,0.03251071,0.2619,1.00462
190.655,25.1353,0.03121978,0.26444,1.00311
193.655,25.42214,0.03257162,0.26404,1.0016
196.655,25.70854,0.03158896,0.26817,1.00009
199.655,25.9946,0.03158901,0.26988,0.99858
202.655,26.28132,0.02996524,0.2713,0.99707
205.655,26.5677,0.03028004,0.27342,0.99556
208.655,26.8536,0.03127267,0.27378,0.99404
211.655,27.13934,0.02994,0.27513,0.99253
214.655,27.42554,0.02863,0.27661,0.99102
217.655,27.71125,0.02732,0.28129,0.98951
220.655,27.997,0.02600079,0.28502,0.988
223.655,28.2823,0.02468,0.28313,0.98648
226.655,28.56815,0.02534,0.2849,0.98497
229.655,28.8542,0.0251216,0.28506,0.98346
232.655,29.14068,0.02337342,0.28931,0.98194
235.655,29.42701,0.02156858,0.29114,0.98043
238.655,29.7131,0.02172542,0.29423,0.97891
241.655,29.9991,0.02106,0.29251,0.97739
244.655,30.2857,0.01985561,0.29608,0.97587
247.655,30.57181,0.01876026,0.29973,0.97436
250.655,30.85817,0.01580034,0.30521,0.97284
253.655,31.1444,0.0148136,0.31004,0.97131
256.655,31.43052,0.01280537,0.31128,0.96979
259.655,31.71664,0.01151,0.31468,0.96827
262.655,32.0029,0.01020464,0.3208,0.96674
265.655,32.28945,0.008549954,0.32347,0.96522
268.655,32.57545,0.005598615,0.32554,0.96369
271.655,32.86188,0.002463431,0.32995,0.96216
274.655,33.14768,-0.0003300037,0.32976,0.96062
277.655,33.43345,-0.002960274,0.32837,0.95909
280.655,33.72017,-0.004940345,0.32642,0.95755
283.655,34.00611,-0.007905,0.3262,0.95602
286.655,34.29312,-0.01072023,0.32382,0.95448
289.655,34.58064,-0.01380751,0.3247,0.95293
292.655,34.86831,-0.01579815,0.3237,0.95139
295.655,35.15552,-0.01869914,0.32463,0.94984
298.655,35.4436,-0.02302295,0.32865,0.94829
301.655,35.7318,-0.02672217,0.32913,0.94674
304.655,36.02065,-0.03028209,0.33484,0.94519
307.655,36.3093,-0.03444004,0.33333,0.94363
310.655,36.59806,-0.03773001,0.3353,0.94207
313.655,36.88698,-0.04202171,0.33825,0.94051
316.655,37.17556,-0.04826033,0.34274,0.93894
319.655,37.46395,-0.05161154,0.34449,0.93737
322.655,37.75186,-0.06060383,0.34668,0.9358
325.655,38.0401,-0.06644306,0.34912,0.93423
328.655,38.3285,-0.07393299,0.34742,0.93265
331.655,38.61699,-0.0818303,0.34889,0.93106
334.655,38.90602,-0.09032712,0.34651,0.92948
337.655,39.19491,-0.0995777,0.34591,0.92789
340.655,39.48449,-0.10905,0.346,0.9263
343.655,39.774,-0.11767,0.34527,0.9247
346.655,40.06345,-0.12586,0.34393,0.9231
349.655,40.3527,-0.13477,0.3448,0.92149
352.655,40.64186,-0.14306,0.34347,0.91989
355.655,40.93158,-0.15001,0.34447,0.91827
358.655,41.22142,-0.15663,0.34045,0.91666
361.655,41.51132,-0.16448,0.34297,0.91503
364.655,41.80097,-0.17108,0.34327,0.91341
367.655,42.09126,-0.17506,0.34166,0.91178
370.655,42.3825,-0.18325,0.34331,0.91014
373.655,42.674,-0.18959,0.34371,0.9085
376.655,42.96647,-0.19714,0.34388,0.90686
379.655,43.25925,-0.20434,0.34444,0.90521
382.655,43.5523,-0.21168,0.34735,0.90356
385.655,43.84499,-0.21943,0.35077,0.9019
388.655,44.1374,-0.22725,0.35758,0.90023
391.655,44.42968,-0.2355,0.36584,0.89856
394.655,44.7215,-0.24566,0.37664,0.89689
397.655,45.01334,-0.25679,0.38623,0.89521
400.655,45.30512,-0.27014,0.39434,0.89352
403.655,45.59686,-0.28171,0.39999,0.89183
406.655,45.89085,-0.29486,0.40092,0.89014
409.655,46.18438,-0.30907,0.395,0.88843
412.655,46.478,-0.32137,0.38799,0.88672
415.655,46.77159,-0.333,0.37739,0.88501
418.655,47.06548,-0.34425,0.36335,0.88329
421.655,47.35995,-0.35315,0.35038,0.88157
424.655,47.6541,-0.3603,0.33958,0.87983
427.655,47.94764,-0.3658,0.33318,0.8781
430.655,48.2414,-0.37082,0.32952,0.87635
433.655,48.53572,-0.37517,0.32531,0.8746
436.655,48.82943,-0.37972,0.32401,0.87285
439.655,49.1235,-0.38434,0.32323,0.87108
442.655,49.4189,-0.38926,0.32084,0.86931
445.655,49.71458,-0.39388,0.32194,0.86754
448.655,50.0117,-0.39816,0.3265,0.86576
451.655,50.31013,-0.40112,0.32391,0.86397
454.655,50.61005,-0.40606,0.32506,0.86217
457.655,50.90902,-0.41165,0.33027,0.86037
460.655,51.20704,-0.41675,0.3331,0.85856
463.655,51.50414,-0.42085,0.33978,0.85674
466.655,51.8005,-0.42524,0.34096,0.85492
469.655,52.0969,-0.42877,0.33662,0.85309
472.655,52.39331,-0.43395,0.33252,0.85125
475.655,52.6895,-0.43875,0.33278,0.8494
478.655,52.98536,-0.44138,0.33129,0.84755
481.655,53.28136,-0.44402,0.32807,0.84569
484.655,53.5781,-0.44795,0.32698,0.84382
487.655,53.8748,-0.45322,0.32529,0.84195
490.655,54.1709,-0.45453,0.32668,0.84007
493.655,54.4678,-0.45717,0.32183,0.83818
496.655,54.76498,-0.45715,0.32154,0.83628
499.655,55.0625,-0.46099,0.33327,0.83438
502.655,55.3594,-0.46178,0.33338,0.83247
505.655,55.6565,-0.46441,0.33768,0.83055
508.655,55.95383,-0.46711,0.33895,0.82862
511.655,56.2517,-0.46847,0.34136,0.82668
514.655,56.5491,-0.47044,0.35917,0.82474
517.655,56.8464,-0.47252,0.36783,0.82279
520.655,57.1445,-0.4734,0.36999,0.82083
523.655,57.4427,-0.47637,0.37374,0.81886
526.655,57.7403,-0.47768,0.37209,0.81689
529.655,58.0383,-0.48031,0.3655,0.81491
532.655,58.336,-0.48029,0.34575,0.81291
535.655,58.63455,-0.48295,0.33354,0.81092
538.655,58.9332,-0.48426,0.32254,0.80891
541.655,59.2318,-0.48689,0.30514,0.80689
544.655,59.5312,-0.48789,0.30066,0.80487
547.655,59.83034,-0.49014,0.30101,0.80284
550.655,60.12904,-0.49248,0.30478,0.8008
553.655,60.4278,-0.49248,0.30366,0.79875
556.655,60.7271,-0.49512,0.30328,0.79669
559.655,61.0271,-0.49709,0.3013,0.79463
562.655,61.3274,-0.49776,0.30591,0.79256
565.655,61.62809,-0.49907,0.29436,0.79048
568.655,61.92875,-0.50039,0.29041,0.78839
571.655,62.22894,-0.50238,0.29133,0.78629
574.655,62.53,-0.50434,0.28452,0.78418
577.655,62.8297,-0.50565,0.28144,0.78207
580.655,63.1296,-0.50697,0.27546,0.77995
583.655,63.42983,-0.50761,0.27024,0.77781
586.655,63.7305,-0.5096,0.26643,0.77567
589.655,64.0308,-0.51091,0.26685,0.77353
592.655,64.33097,-0.51124,0.26302,0.77137
595.655,64.6323,-0.51519,0.26747,0.76921
598.655,64.93327,-0.51325,0.27033,0.76703
601.655,65.23488,-0.51519,0.27437,0.76485
604.655,65.5368,-0.51849,0.27881,0.76266
607.655,65.838,-0.51942,0.2847,0.76046
610.655,66.13869,-0.52111,0.29333,0.75826
613.655,66.43994,-0.52375,0.2985,0.75604
616.655,66.74107,-0.52638,0.30832,0.75382
619.655,67.04212,-0.5277,0.31868,0.75159
622.655,67.34335,-0.53058,0.32796,0.74935
625.655,67.6452,-0.53296,0.34018,0.7471
628.655,67.9472,-0.53559,0.34928,0.74484
631.655,68.24931,-0.53954,0.3612,0.74258
634.655,68.55134,-0.54349,0.37413,0.7403
637.655,68.8544,-0.54877,0.38562,0.73802
640.655,69.15703,-0.55135,0.39704,0.73573
643.655,69.46083,-0.55699,0.40804,0.73343
646.655,69.76399,-0.56027,0.42121,0.73113
649.655,70.06573,-0.56604,0.44158,0.72881
652.655,70.36712,-0.57138,0.46212,0.72649
655.655,70.66826,-0.57829,0.48477,0.72416
658.655,70.97026,-0.58395,0.51103,0.72182
661.655,71.27252,-0.59075,0.5349,0.71948
664.655,71.57506,-0.59757,0.56126,0.71712
667.655,71.87708,-0.60558,0.59432,0.71476
670.655,72.1793,-0.61588,0.62863,0.71239
673.655,72.48191,-0.62431,0.66385,0.71001
676.655,72.78402,-0.63539,0.7012,0.70763
679.655,73.0877,-0.64525,0.74711,0.70523
682.655,73.39097,-0.6579,0.79253,0.70283
685.655,73.69489,-0.66945,0.8403,0.70042
688.655,73.99835,-0.68437,0.88765,0.69801
691.655,74.30142,-0.69914,0.94469,0.69558
694.655,74.60565,-0.71499,1.00543,0.69315
697.655,74.9084,-0.73247,1.0674,0.69071
700.655,75.21065,-0.75029,1.13482,0.68826
703.655,75.51345,-0.76889,1.20519,0.68581
706.655,75.81671,-0.79162,1.28747,0.68335
709.655,76.1207,-0.81372,1.37681,0.68088
712.655,76.42434,-0.83889,1.46083,0.67841
715.655,76.72898,-0.8653,1.55222,0.67592
718.655,77.03308,-0.89435,1.65177,0.67343
721.655,77.3376,-0.92282,1.76251,0.67094
724.655,77.6427,-0.9563,1.86425,0.66843
727.655,77.94704,-0.99035,1.96981,0.66592
730.655,78.2513,-1.02626,2.07621,0.66341
733.655,78.55494,-1.06332,2.19011,0.66088
736.655,78.85934,-1.10412,2.29384,0.65835
739.655,79.16386,-1.14512,2.38605,0.65581
742.655,79.4689,-1.18798,2.46084,0.65327
745.655,79.77311,-1.23324,2.51489,0.65072
747.855,79.99653,-1.26497,2.53028,0.64885