File: 01_Data/Rayon_Bamboo_Pillowcase/STA/N2/10K_min/Rayon_Bamboo_Pillowcase_STA_N2_10KData_220519_R1.csv
##Temp./Â°C,Time/min,Mass loss(subtr.2)/mg,DSC(subtr.2)/(mW/mg),Sensit./(uV/mW)
49.786,10.00917,-0.04424,0.03555822,1.07016
53.086,11.33879,-0.0449844,0.14476,1.06924
56.386,11.7989,-0.04797401,0.1985,1.06832
59.686,12.19392,-0.04818003,0.23181,1.06739
62.986,12.56596,-0.04976086,0.25692,1.06644
66.286,12.92629,-0.0521248,0.27868,1.06549
69.586,13.281,-0.05367873,0.29917,1.06452
72.886,13.6305,-0.05862,0.32523,1.06354
76.186,13.97569,-0.06139612,0.34565,1.06255
79.486,14.3196,-0.06370544,0.36452,1.06155
82.786,14.66189,-0.06796009,0.38101,1.06053
86.086,14.99743,-0.0732264,0.39333,1.05951
89.386,15.33032,-0.07655898,0.40199,1.05847
92.686,15.6602,-0.07981,0.40399,1.05742
95.986,15.9887,-0.08285176,0.40343,1.05636
99.286,16.31381,-0.08883718,0.39928,1.05529
102.586,16.6385,-0.09009401,0.3916,1.05421
105.886,16.9619,-0.09363635,0.38095,1.05312
109.186,17.28487,-0.09699775,0.36748,1.05201
112.486,17.6067,-0.09703314,0.35392,1.05089
115.786,17.92831,-0.10166,0.34104,1.04976
119.086,18.24918,-0.10166,0.33001,1.04862
122.386,18.5703,-0.10297,0.31778,1.04747
125.686,18.8913,-0.10407,0.31012,1.0463
128.986,19.20894,-0.10563,0.30769,1.04513
132.286,19.52865,-0.10732,0.3034,1.04394
135.586,19.8477,-0.10643,0.30251,1.04274
138.886,20.16774,-0.10605,0.3052,1.04153
142.186,20.4859,-0.10572,0.30666,1.0403
145.486,20.80269,-0.10537,0.30825,1.03906
148.786,21.12012,-0.10642,0.30747,1.03782
152.086,21.43734,-0.10802,0.30655,1.03656
155.386,21.75445,-0.10802,0.30739,1.03528
158.686,22.0705,-0.11132,0.30766,1.034
161.986,22.38719,-0.10871,0.30907,1.0327
165.286,22.70317,-0.10889,0.30872,1.03139
168.586,23.02044,-0.11265,0.30922,1.03007
171.886,23.33643,-0.11164,0.30788,1.02873
175.186,23.65179,-0.11312,0.30985,1.02739
178.486,23.96661,-0.11296,0.31047,1.02603
181.786,24.2824,-0.11296,0.31342,1.02466
185.086,24.5968,-0.10967,0.31232,1.02327
188.386,24.91131,-0.11266,0.31688,1.02188
191.686,25.22551,-0.11493,0.31928,1.02047
194.986,25.53988,-0.11493,0.31831,1.01905
198.286,25.85407,-0.11296,0.32068,1.01761
201.586,26.1679,-0.11362,0.32491,1.01617
204.886,26.482,-0.11365,0.32387,1.01471
208.186,26.79689,-0.11494,0.32491,1.01324
211.486,27.1108,-0.11492,0.32608,1.01175
214.786,27.4243,-0.11559,0.32776,1.01025
218.086,27.738,-0.11626,0.3285,1.00874
221.386,28.05054,-0.11889,0.32871,1.00722
224.686,28.36448,-0.11895,0.33174,1.00569
227.986,28.67933,-0.12317,0.33094,1.00414
231.286,28.99258,-0.12458,0.33234,1.00258
234.586,29.30718,-0.12713,0.33261,1.001
237.886,29.62104,-0.12976,0.33061,0.99942
241.186,29.93525,-0.13047,0.33205,0.99782
244.486,30.24952,-0.13944,0.33188,0.9962
247.786,30.564,-0.14603,0.33365,0.99458
251.086,30.87803,-0.15889,0.35546,0.99294
254.386,31.19274,-0.16752,0.3782,0.99129
257.686,31.50753,-0.19131,0.44076,0.98962
260.986,31.82268,-0.21623,0.52823,0.98794
264.286,32.13759,-0.2589,0.60484,0.98625
267.586,32.45306,-0.30388,0.64082,0.98455
270.886,32.7681,-0.35918,0.6524,0.98283
274.186,33.0833,-0.42014,0.65156,0.9811
277.486,33.39836,-0.4862,0.64687,0.97936
280.786,33.71264,-0.55605,0.64569,0.9776
284.086,34.0282,-0.62904,0.64409,0.97583
287.386,34.3438,-0.70707,0.64376,0.97404
290.686,34.659,-0.78664,0.64774,0.97225
293.986,34.9733,-0.87153,0.65442,0.97044
297.286,35.28948,-0.96093,0.65967,0.96862
300.586,35.60507,-1.0574,0.66735,0.96678
303.886,35.921,-1.15887,0.67416,0.96493
307.186,36.23607,-1.268,0.68352,0.96307
310.486,36.55218,-1.38466,0.69208,0.96119
313.786,36.86976,-1.50696,0.69523,0.9593
317.086,37.18622,-1.63627,0.69479,0.9574
320.386,37.50181,-1.77216,0.68904,0.95548
323.686,37.81795,-1.91163,0.67628,0.95355
326.986,38.13405,-2.04521,0.65733,0.95161
330.286,38.45087,-2.18545,0.62803,0.94965
333.586,38.7679,-2.32403,0.58483,0.94769
336.886,39.0854,-2.44844,0.52456,0.9457
340.186,39.40187,-2.56946,0.4406,0.94371
343.486,39.71864,-2.65979,0.33727,0.9417
346.786,40.03485,-2.72824,0.23627,0.93968
350.086,40.35157,-2.77843,0.16271,0.93764
353.386,40.6689,-2.81316,0.11276,0.93559
356.686,40.98673,-2.83883,0.08539687,0.93353
359.986,41.30513,-2.85682,0.07109989,0.93145
363.286,41.62314,-2.87301,0.06273505,0.92936
366.586,41.94251,-2.88376,0.05435909,0.92726
369.886,42.26147,-2.89564,0.05014262,0.92515
373.186,42.58038,-2.90712,0.04755917,0.92302
376.486,42.89952,-2.91781,0.04376754,0.92088
379.786,43.21894,-2.92639,0.04367404,0.91872
383.086,43.5385,-2.9372,0.04445054,0.91655
386.386,43.8587,-2.94581,0.04138493,0.91437
389.686,44.17873,-2.95108,0.04144927,0.91218
392.986,44.4993,-2.96239,0.0413995,0.90997
396.286,44.8198,-2.96766,0.04081999,0.90775
399.586,45.1402,-2.97667,0.04221952,0.90551
402.886,45.46093,-2.98219,0.04285355,0.90327
406.186,45.7818,-2.99077,0.04160531,0.90101
409.486,46.10342,-2.99762,0.03980572,0.89874
412.786,46.42517,-3.00552,0.04027631,0.89645
416.086,46.7468,-3.00965,0.04100461,0.89415
419.386,47.0686,-3.01476,0.03973247,0.89184
422.686,47.39091,-3.02141,0.04195444,0.88952
425.986,47.71197,-3.02815,0.04218777,0.88718
429.286,48.03472,-3.03411,0.04521237,0.88483
432.586,48.35671,-3.04106,0.04468104,0.88247
435.886,48.67957,-3.04868,0.04262417,0.88009
439.186,49.00197,-3.0538,0.04294988,0.8777
442.486,49.32478,-3.05667,0.04273859,0.8753
445.786,49.6468,-3.06363,0.0454742,0.87289
449.086,49.97002,-3.06976,0.04094901,0.87047
452.386,50.29278,-3.07522,0.0434115,0.86803
455.686,50.61675,-3.08101,0.04327276,0.86558
458.986,50.94086,-3.08566,0.04209342,0.86311
462.286,51.265,-3.09032,0.04102324,0.86064
465.586,51.5891,-3.09512,0.04104761,0.85815
468.886,51.91298,-3.10072,0.03932653,0.85565
472.186,52.23697,-3.10574,0.0357444,0.85314
475.486,52.561,-3.10675,0.03588376,0.85062
478.786,52.88533,-3.11433,0.04050595,0.84808
482.086,53.2097,-3.11831,0.04634147,0.84554
485.386,53.53461,-3.12406,0.04992625,0.84298
488.686,53.8598,-3.12652,0.04948661,0.84041
491.986,54.1853,-3.12815,0.05037313,0.83782
495.286,54.5115,-3.13211,0.05152853,0.83523
498.586,54.8373,-3.13606,0.05374307,0.83262
501.886,55.16294,-3.13673,0.0574731,0.83
505.186,55.48875,-3.14331,0.06172145,0.82738
508.486,55.8149,-3.14594,0.06566678,0.82474
511.786,56.14099,-3.1499,0.06384828,0.82208
515.086,56.46696,-3.15188,0.06260478,0.81942
518.386,56.79289,-3.15443,0.05964777,0.81675
521.686,57.11959,-3.15747,0.05345398,0.81406
524.986,57.44608,-3.16011,0.04913232,0.81137
528.286,57.77299,-3.16275,0.04597747,0.80866
531.586,58.0998,-3.16535,0.03964839,0.80594
534.886,58.428,-3.16835,0.03640992,0.80321
538.186,58.75614,-3.17,0.03087084,0.80047
541.486,59.0838,-3.17272,0.0325576,0.79772
544.786,59.41131,-3.17361,0.02755599,0.79496
548.086,59.739,-3.17757,0.02925951,0.79219
551.386,60.06625,-3.17756,0.02677926,0.78941
554.686,60.39465,-3.18152,0.0259307,0.78662
557.986,60.7229,-3.18509,0.02739746,0.78382
561.286,61.0515,-3.18402,0.02566063,0.78101
564.586,61.3797,-3.18767,0.02879789,0.77819
567.886,61.70844,-3.1847,0.03277699,0.77536
571.186,62.03697,-3.18997,0.03524696,0.77252
574.486,62.36597,-3.18978,0.03650339,0.76967
577.786,62.6948,-3.19294,0.04041692,0.76681
581.086,63.02426,-3.19392,0.04263419,0.76394
584.386,63.35219,-3.19623,0.04276134,0.76106
587.686,63.681,-3.19623,0.04761229,0.75817
590.986,64.01046,-3.19887,0.04841562,0.75528
594.286,64.33952,-3.19886,0.0531003,0.75237
597.586,64.66883,-3.19917,0.05077771,0.74946
600.886,64.99962,-3.20281,0.04742258,0.74654
604.186,65.32949,-3.20249,0.0514137,0.7436
607.486,65.65963,-3.20216,0.06049509,0.74066
610.786,65.98993,-3.20282,0.06253677,0.73772
614.086,66.3207,-3.20543,0.06351688,0.73476
617.386,66.65134,-3.20677,0.0654092,0.7318
620.686,66.98116,-3.20775,0.07207521,0.72882
623.986,67.31126,-3.20948,0.06979045,0.72584
627.286,67.6416,-3.21105,0.07184156,0.72286
630.586,67.97188,-3.21236,0.07610343,0.71986
633.886,68.30094,-3.21215,0.07281377,0.71686
637.186,68.63214,-3.21249,0.07259736,0.71385
640.486,68.96313,-3.21439,0.07121117,0.71083
643.786,69.29443,-3.21368,0.0683531,0.7078
647.086,69.62521,-3.21304,0.06373342,0.70477
650.386,69.9559,-3.21632,0.06264048,0.70173
653.686,70.2865,-3.21632,0.05799016,0.69869
656.986,70.61712,-3.21632,0.05686919,0.69564
660.286,70.94835,-3.21691,0.05135157,0.69258
663.586,71.28021,-3.22159,0.05409244,0.68951
666.886,71.61182,-3.21988,0.05571936,0.68644
670.186,71.94372,-3.2206,0.05755521,0.68337
673.486,72.27547,-3.22278,0.05334296,0.68028
676.786,72.60789,-3.22379,0.05043003,0.6772
680.086,72.9392,-3.22324,0.05142428,0.6741
683.386,73.2707,-3.22357,0.04859168,0.671
686.686,73.60242,-3.22455,0.04782,0.6679
689.986,73.93404,-3.22323,0.04857219,0.66479
693.286,74.2666,-3.22664,0.05301414,0.66167
696.586,74.5993,-3.22796,0.04662815,0.65855
699.886,74.93137,-3.22927,0.05005881,0.65543
703.186,75.26353,-3.22598,0.05182586,0.6523
706.486,75.59515,-3.22827,0.04950052,0.64916
709.786,75.92745,-3.22862,0.0493643,0.64603
713.086,76.26035,-3.23256,0.0521683,0.64288
716.386,76.5926,-3.23358,0.05753449,0.63974
719.686,76.92543,-3.22894,0.05403071,0.63659
722.986,77.2581,-3.23026,0.05294601,0.63343
726.286,77.5907,-3.23353,0.05396091,0.63027
729.586,77.92398,-3.23581,0.05274676,0.62711
732.886,78.2577,-3.23586,0.05344025,0.62395
736.186,78.59076,-3.23718,0.05026726,0.62078
739.486,78.92387,-3.23619,0.0421503,0.61761
742.786,79.2567,-3.23946,0.04268014,0.61444
746.086,79.59007,-3.23981,0.04283469,0.61126
749.386,79.92289,-3.23816,0.04371693,0.60808
752.686,80.25631,-3.2407,0.04368094,0.6049
755.986,80.59147,-3.24211,0.04364747,0.60172
759.286,80.926,-3.24112,0.04244669,0.59853
762.586,81.2606,-3.24476,0.04043426,0.59535
765.886,81.59528,-3.24426,0.04093544,0.59216
769.186,81.92967,-3.24694,0.03836189,0.58897
772.486,82.26369,-3.24643,0.03495694,0.58578
775.786,82.5968,-3.24878,0.03827059,0.58258
779.086,82.93056,-3.24958,0.03251073,0.57939
782.386,83.26395,-3.24993,0.02595711,0.57619
785.686,83.59639,-3.25106,0.0298918,0.573
788.986,83.92955,-3.25256,0.02792386,0.5698
792.286,84.26341,-3.25178,0.02465174,0.5666
795.586,84.5989,-3.25518,0.02643452,0.56341
798.886,84.93456,-3.25518,0.01957049,0.56021
799.486,84.99619,-3.2542,0.01847914,0.55963