File: 01_Data/Rayon_Bamboo_Pillowcase/STA/N2/10K_min/Rayon_Bamboo_Pillowcase_STA_N2_10KData_220520_R2.csv
##Temp./Â°C,Time/min,Mass loss(subtr.2)/mg,DSC(subtr.2)/(mW/mg),Sensit./(uV/mW)
49.695,10.01,-0.00341,0.02210022,1.07018
52.895,11.32925,-0.00390312,0.14527,1.0693
56.095,11.78106,-0.00404914,0.2039,1.0684
59.295,12.16681,-0.00440606,0.24136,1.0675
62.495,12.52929,-0.005607266,0.27031,1.06658
65.695,12.87999,-0.005609996,0.29407,1.06566
68.895,13.22608,-0.008530321,0.31495,1.06472
72.095,13.56652,-0.0108922,0.33819,1.06377
75.295,13.9033,-0.01228522,0.36217,1.06282
78.495,14.2369,-0.01449736,0.38659,1.06185
81.695,14.56725,-0.01743532,0.40416,1.06087
84.895,14.89374,-0.02138105,0.42151,1.05988
88.095,15.2176,-0.02470955,0.436,1.05888
91.295,15.53921,-0.02866743,0.44655,1.05787
94.495,15.8574,-0.03381695,0.45231,1.05684
97.695,16.1741,-0.03624,0.45444,1.05581
100.895,16.48919,-0.03920333,0.45262,1.05477
104.095,16.80382,-0.0405198,0.44629,1.05371
107.295,17.11743,-0.04447019,0.4372,1.05265
110.495,17.431,-0.04775893,0.42923,1.05157
113.695,17.74375,-0.04974,0.41747,1.05048
116.895,18.05546,-0.05237596,0.40954,1.04938
120.095,18.36632,-0.05336284,0.39797,1.04827
123.295,18.6763,-0.05468,0.39181,1.04715
126.495,18.9859,-0.05599,0.38673,1.04602
129.695,19.29467,-0.05602571,0.38246,1.04487
132.895,19.6039,-0.05474914,0.38054,1.04372
136.095,19.9134,-0.05743,0.38319,1.04255
139.295,20.2216,-0.05953473,0.38554,1.04138
142.495,20.53067,-0.05874631,0.39056,1.04019
145.695,20.83791,-0.05961826,0.39493,1.03899
148.895,21.14545,-0.06093987,0.39621,1.03777
152.095,21.45198,-0.05953965,0.39927,1.03655
155.295,21.75845,-0.06148,0.40135,1.03532
158.495,22.06484,-0.06111652,0.40378,1.03407
161.695,22.37125,-0.06355374,0.40566,1.03281
164.895,22.6774,-0.0637936,0.40832,1.03155
168.095,22.9826,-0.06379352,0.40777,1.03027
171.295,23.2888,-0.06379,0.41261,1.02897
174.495,23.59459,-0.06247163,0.41296,1.02767
177.695,23.90002,-0.06379001,0.41553,1.02636
180.895,24.20461,-0.06380901,0.41919,1.02503
184.095,24.50948,-0.06380628,0.4218,1.02369
187.295,24.81437,-0.06312983,0.42504,1.02234
190.495,25.11836,-0.06379491,0.42715,1.02098
193.695,25.42216,-0.06303175,0.43153,1.0196
196.895,25.72635,-0.06302,0.43465,1.01822
200.095,26.03134,-0.06423853,0.43682,1.01682
203.295,26.3355,-0.06444341,0.44042,1.01541
206.495,26.64009,-0.06642072,0.44562,1.01399
209.695,26.9437,-0.0667505,0.45025,1.01256
212.895,27.24813,-0.06641998,0.45129,1.01111
216.095,27.5525,-0.06773831,0.45476,1.00966
219.295,27.85626,-0.06773997,0.45874,1.00819
222.495,28.1602,-0.06939,0.46039,1.00671
225.695,28.4646,-0.07071012,0.46535,1.00521
228.895,28.76871,-0.07222614,0.46811,1.00371
232.095,29.0733,-0.07480981,0.47163,1.00219
235.295,29.37777,-0.07810312,0.47348,1.00066
238.495,29.6822,-0.08201594,0.47556,0.99912
241.695,29.98694,-0.08590111,0.47743,0.99757
244.895,30.2913,-0.09189078,0.48178,0.996
248.095,30.596,-0.09982476,0.4876,0.99442
251.295,30.89965,-0.11064,0.51444,0.99283
254.495,31.2045,-0.12265,0.5454,0.99123
257.695,31.50873,-0.14292,0.61424,0.98962
260.895,31.81452,-0.17221,0.70554,0.98799
264.095,32.1205,-0.20879,0.78678,0.98635
267.295,32.42609,-0.25674,0.82757,0.9847
270.495,32.73218,-0.3114,0.83326,0.98303
273.695,33.03752,-0.37225,0.82528,0.98136
276.895,33.3424,-0.43441,0.81107,0.97967
280.095,33.64849,-0.50154,0.80478,0.97797
283.295,33.9533,-0.57283,0.80127,0.97625
286.495,34.2594,-0.64573,0.80184,0.97453
289.695,34.5649,-0.72321,0.80568,0.97279
292.895,34.86805,-0.80468,0.80995,0.97104
296.095,35.17402,-0.89128,0.81708,0.96928
299.295,35.4809,-0.98483,0.83016,0.9675
302.495,35.78694,-1.08183,0.83714,0.96571
305.695,36.09326,-1.18688,0.84468,0.96391
308.895,36.39947,-1.29744,0.856,0.9621
312.095,36.70624,-1.41419,0.85976,0.96027
315.295,37.01375,-1.5398,0.86097,0.95843
318.495,37.3206,-1.66874,0.86329,0.95658
321.695,37.62782,-1.79827,0.8525,0.95472
324.895,37.93469,-1.9326,0.8386,0.95284
328.095,38.2414,-2.06796,0.81334,0.95095
331.295,38.5484,-2.19866,0.77549,0.94905
334.495,38.85537,-2.32335,0.72211,0.94714
337.695,39.1624,-2.43737,0.64734,0.94521
340.895,39.46906,-2.53206,0.55174,0.94328
344.095,39.7759,-2.60745,0.45637,0.94133
347.295,40.08333,-2.65924,0.38049,0.93936
350.495,40.39006,-2.70025,0.33003,0.93739
353.695,40.69832,-2.7294,0.29878,0.9354
356.895,41.00615,-2.75001,0.28024,0.9334
360.095,41.31436,-2.76712,0.27109,0.93138
363.295,41.62278,-2.78192,0.26411,0.92936
366.495,41.93264,-2.79341,0.25663,0.92732
369.695,42.24135,-2.80563,0.24786,0.92527
372.895,42.55057,-2.8159,0.244,0.92321
376.095,42.86085,-2.82527,0.23686,0.92113
379.295,43.17037,-2.83593,0.23243,0.91904
382.495,43.4814,-2.84405,0.22893,0.91694
385.695,43.79159,-2.85332,0.22437,0.91483
388.895,44.10265,-2.86036,0.22378,0.9127
392.095,44.4131,-2.86758,0.22026,0.91057
395.295,44.72336,-2.87687,0.21574,0.90842
398.495,45.03456,-2.8836,0.21586,0.90625
401.695,45.34703,-2.89175,0.21612,0.90408
404.895,45.6583,-2.89975,0.21297,0.90189
408.095,45.96927,-2.9052,0.21411,0.8997
411.295,46.28083,-2.91233,0.21384,0.89748
414.495,46.59259,-2.91876,0.21317,0.89526
417.695,46.90403,-2.9243,0.21336,0.89303
420.895,47.21471,-2.93056,0.21568,0.89078
424.095,47.5267,-2.93682,0.21597,0.88852
427.295,47.83983,-2.94242,0.21629,0.88625
430.495,48.1516,-2.94813,0.21642,0.88397
433.695,48.46434,-2.95341,0.21452,0.88167
436.895,48.77746,-2.96,0.21724,0.87936
440.095,49.09132,-2.96492,0.21437,0.87704
443.295,49.40533,-2.97109,0.21549,0.87471
446.495,49.71863,-2.97679,0.2123,0.87237
449.695,50.0324,-2.97941,0.21288,0.87002
452.895,50.34637,-2.9862,0.2132,0.86765
456.095,50.65983,-2.99281,0.21053,0.86527
459.295,50.9721,-2.9956,0.21069,0.86288
462.495,51.28666,-3.00219,0.20946,0.86048
465.695,51.59968,-3.00609,0.21027,0.85807
468.895,51.9148,-3.01159,0.21163,0.85565
472.095,52.22936,-3.01422,0.20843,0.85321
475.295,52.54388,-3.01937,0.21163,0.85077
478.495,52.85886,-3.02321,0.2085,0.84831
481.695,53.17419,-3.02718,0.21357,0.84584
484.895,53.489,-3.02981,0.2182,0.84336
488.095,53.8046,-3.03474,0.22014,0.84087
491.295,54.11971,-3.03739,0.22545,0.83836
494.495,54.43505,-3.03992,0.22464,0.83585
497.695,54.75108,-3.04397,0.22801,0.83333
500.895,55.06629,-3.04726,0.2316,0.83079
504.095,55.3823,-3.04925,0.23917,0.82825
507.295,55.698,-3.05319,0.24144,0.82569
510.495,56.01381,-3.05584,0.22739,0.82312
513.695,56.3298,-3.0591,0.21434,0.82054
516.895,56.6463,-3.06087,0.21344,0.81796
520.095,56.96295,-3.06285,0.21148,0.81536
523.295,57.2798,-3.06548,0.21027,0.81275
526.495,57.5964,-3.06812,0.21029,0.81013
529.695,57.91291,-3.06944,0.20847,0.8075
532.895,58.2294,-3.07338,0.20628,0.80486
536.095,58.54615,-3.07536,0.20517,0.80221
539.295,58.86354,-3.07669,0.20661,0.79955
542.495,59.1805,-3.07932,0.2098,0.79688
545.695,59.4983,-3.08182,0.20578,0.7942
548.895,59.8159,-3.0848,0.20173,0.79151
552.095,60.13377,-3.08732,0.20369,0.78881
555.295,60.4524,-3.08578,0.20256,0.7861
558.495,60.77159,-3.08832,0.20368,0.78339
561.695,61.09066,-3.08994,0.20132,0.78066
564.895,61.40941,-3.0909,0.20692,0.77792
568.095,61.72825,-3.09526,0.21099,0.77518
571.295,62.04696,-3.09655,0.21459,0.77242
574.495,62.3654,-3.09788,0.21847,0.76966
577.695,62.68427,-3.09919,0.2211,0.76689
580.895,63.00297,-3.09919,0.22589,0.76411
584.095,63.3225,-3.10152,0.22676,0.76131
587.295,63.64135,-3.1015,0.22935,0.75852
590.495,63.96083,-3.10545,0.23424,0.75571
593.695,64.2801,-3.10677,0.23916,0.75289
596.895,64.59897,-3.10544,0.24048,0.75007
600.095,64.9191,-3.10808,0.23941,0.74724
603.295,65.23836,-3.10775,0.24823,0.7444
606.495,65.55844,-3.1094,0.25243,0.74155
609.695,65.87854,-3.11166,0.25743,0.73869
612.895,66.1983,-3.11237,0.26613,0.73583
616.095,66.518,-3.11302,0.27241,0.73296
619.295,66.83825,-3.11335,0.28194,0.73008
622.495,67.15737,-3.11336,0.28595,0.72719
625.695,67.47735,-3.11544,0.28804,0.7243
628.895,67.79735,-3.11543,0.28944,0.7214
632.095,68.11844,-3.11609,0.2933,0.71849
635.295,68.43996,-3.11774,0.29746,0.71557
638.495,68.76179,-3.11873,0.30021,0.71265
641.695,69.08327,-3.11742,0.30097,0.70972
644.895,69.40414,-3.11906,0.30551,0.70679
648.095,69.72484,-3.11848,0.30541,0.70384
651.295,70.04585,-3.12016,0.3045,0.7009
654.495,70.36631,-3.12148,0.30889,0.69794
657.695,70.68706,-3.12279,0.30919,0.69498
660.895,71.00819,-3.12246,0.3157,0.69201
664.095,71.3288,-3.12345,0.31933,0.68904
667.295,71.65024,-3.12543,0.33053,0.68606
670.495,71.9708,-3.12543,0.33193,0.68308
673.695,72.29216,-3.12575,0.33438,0.68009
676.895,72.6138,-3.12707,0.33698,0.67709
680.095,72.9347,-3.12974,0.33747,0.67409
683.295,73.25615,-3.12837,0.34245,0.67109
686.495,73.57845,-3.12938,0.34078,0.66808
689.695,73.90066,-3.13103,0.33759,0.66506
692.895,74.22276,-3.13103,0.34144,0.66204
696.095,74.5441,-3.13074,0.33935,0.65902
699.295,74.86583,-3.13201,0.33925,0.65599
702.495,75.18727,-3.13333,0.34434,0.65295
705.695,75.50928,-3.13498,0.34306,0.64992
708.895,75.83181,-3.13666,0.33971,0.64687
712.095,76.15365,-3.13564,0.34297,0.64383
715.295,76.47598,-3.13663,0.34155,0.64078
718.495,76.7987,-3.13761,0.33607,0.63772
721.695,77.12156,-3.13999,0.3401,0.63467
724.895,77.4443,-3.14025,0.33416,0.63161
728.095,77.76657,-3.13836,0.33454,0.62854
731.295,78.08944,-3.14267,0.33968,0.62548
734.495,78.41242,-3.14267,0.34044,0.62241
737.695,78.7355,-3.14398,0.33614,0.61933
740.895,79.0594,-3.1453,0.33482,0.61626
744.095,79.38237,-3.14563,0.3337,0.61318
747.295,79.70534,-3.14596,0.33465,0.6101
750.495,80.0292,-3.14991,0.33339,0.60701
753.695,80.35356,-3.1483,0.3297,0.60393
756.895,80.67696,-3.1487,0.32798,0.60084
760.095,81.00049,-3.15025,0.32487,0.59775
763.295,81.3244,-3.15123,0.32324,0.59466
766.495,81.6481,-3.15125,0.32236,0.59157
769.695,81.97187,-3.15485,0.3266,0.58848
772.895,82.29475,-3.15485,0.32789,0.58538
776.095,82.61742,-3.15593,0.33055,0.58228
779.295,82.94097,-3.15682,0.33717,0.57919
782.495,83.26515,-3.15782,0.34038,0.57609
785.695,83.59012,-3.15783,0.33853,0.57299
788.895,83.9157,-3.16045,0.3421,0.56989
792.095,84.23944,-3.16177,0.34161,0.56679
795.295,84.56365,-3.16309,0.34168,0.56369
798.495,84.88805,-3.16308,0.33997,0.56059
799.495,84.98979,-3.16308,0.33709,0.55962