File: 01_Data/Basswood_Panel/HFM/Basswood_Panel_Density_Dry_R2.csv
,Basswood_Panel_DRY_2
Sample Mass [g],150.2
Sample Volume [cm3],393.2
Sample Density [kg/m3],382