File: 01_Data/Basswood_Panel/HFM/Basswood_Panel_Density_Wet_R1.csv
,Basswood_Panel_WET_1
Sample Mass [g],156.7
Sample Volume [cm3],393.5
Sample Density [kg/m3],398