File: 01_Data/Basswood_Panel/HFM/Basswood_Panel_Density_Dry_R1.csv
,Basswood_Panel_DRY_1
Sample Mass [g],146.4
Sample Volume [cm3],393.5
Sample Density [kg/m3],372