File: 01_Data/Basswood_Panel/HFM/Basswood_Panel_Density_Dry_R3.csv
,Basswood_Panel_DRY_3
Sample Mass [g],148.6
Sample Volume [cm3],392.1
Sample Density [kg/m3],379