File: 01_Data/Basswood_Panel/HFM/Basswood_Panel_Ignition_Temp_Properties.csv
Thermal Conductivity (W/m-K),0.101
Heat Capacity (J/kg-K),1553.0
Density (kg/m3),404.0