File: 01_Data/Basswood_Panel/HFM/Basswood_Panel_Density_Wet_R2.csv
,Basswood_Panel_WET_2
Sample Mass [g],160.8
Sample Volume [cm3],393.2
Sample Density [kg/m3],409