File: 01_Data/Basswood_Panel/HFM/Basswood_Panel_Density_Wet_R3.csv
,Basswood_Panel_WET_3
Sample Mass [g],158.7
Sample Volume [cm3],392.1
Sample Density [kg/m3],405