File: 01_Data/Polyester_Bed_Skirt/STA/N2/30K_min/Polyester_Bed_Skirt_STA_N2_30KData_220524_R2.csv
##Temp./Â°C,Time/min,Mass loss(subtr.2)/mg,DSC(subtr.2)/(mW/mg),Sensit./(uV/mW)
48.64,10.00583,-0.00242,0.006446605,1.05399
51.44,10.84943,-0.001332555,0.13581,1.05341
54.24,11.06903,-0.002381357,0.22506,1.05283
57.04,11.23702,-0.002487755,0.29708,1.05223
59.84,11.38072,-0.00292566,0.35791,1.05161
62.64,11.51022,-0.002324363,0.40744,1.05098
65.44,11.63067,-0.001549021,0.45185,1.05033
68.24,11.74506,-0.002664182,0.49077,1.04968
71.04,11.85472,-0.002774277,0.53234,1.049
73.84,11.96163,-0.002766,0.56291,1.04832
76.64,12.06588,-0.00285981,0.58021,1.04762
79.44,12.16736,-0.002753416,0.57607,1.0469
82.24,12.26821,-0.00287477,0.56654,1.04617
85.04,12.36714,-0.002795109,0.55804,1.04543
87.84,12.46469,-0.002823323,0.55104,1.04467
90.64,12.56121,-0.003183175,0.54497,1.04391
93.44,12.65691,-0.003303222,0.53815,1.04312
96.24,12.75223,-0.001625734,0.53624,1.04233
99.04,12.84666,-0.001972437,0.53784,1.04151
101.84,12.9409,-0.00179384,0.5423,1.04069
104.64,13.03483,-0.003227667,0.54947,1.03985
107.44,13.1288,-0.001354674,0.56247,1.039
110.24,13.2225,-0.0006420592,0.57881,1.03814
113.04,13.31591,-0.0006414131,0.5945,1.03726
115.84,13.40916,-0.001965783,0.61426,1.03637
118.64,13.5018,-0.00197999,0.6331,1.03547
121.44,13.59455,-0.002709605,0.6498,1.03455
124.24,13.6866,-0.001979942,0.66798,1.03362
127.04,13.77837,-0.002382436,0.6852,1.03268
129.84,13.8697,-0.001979913,0.70652,1.03172
132.64,13.96076,-0.001976537,0.72027,1.03075
135.44,14.05136,-0.0006708652,0.736,1.02977
138.24,14.1416,-0.002959973,0.75457,1.02878
141.04,14.23138,-0.0042861,0.77122,1.02777
143.84,14.3207,-0.00297006,0.78525,1.02675
146.64,14.4101,-0.00297,0.79958,1.02572
149.44,14.4989,-0.002613929,0.81557,1.02467
152.24,14.58745,-0.00297,0.82511,1.02362
155.04,14.67598,-0.002855254,0.83828,1.02255
157.84,14.7641,-0.001848255,0.84686,1.02146
160.64,14.8521,-0.003627718,0.86048,1.02037
163.44,14.93989,-0.002272619,0.86914,1.01926
166.24,15.0277,-0.0023,0.87825,1.01814
169.04,15.11524,-0.003614772,0.88887,1.01701
171.84,15.202,-0.003015709,0.90211,1.01587
174.64,15.2896,-0.002300001,0.90986,1.01471
177.44,15.37662,-0.0009967537,0.92074,1.01355
180.24,15.4634,-0.002993778,0.93123,1.01237
183.04,15.54943,-0.002969763,0.93953,1.01118
185.84,15.63594,-0.00297,0.94983,1.00998
188.64,15.722,-0.00297,0.96044,1.00876
191.44,15.80766,-0.00297,0.96748,1.00754
194.24,15.8927,-0.004293515,0.9817,1.0063
197.04,15.9785,-0.004290009,0.99089,1.00505
199.84,16.064,-0.002969856,1.00172,1.00379
202.64,16.1492,-0.00297,1.01571,1.00252
205.44,16.23378,-0.002999322,1.02625,1.00123
208.24,16.31949,-0.00429,1.03786,0.99994
211.04,16.4043,-0.004289977,1.05153,0.99864
213.84,16.48955,-0.002969916,1.06597,0.99732
216.64,16.57442,-0.004276407,1.08321,0.99599
219.44,16.65908,-0.004619804,1.09786,0.99465
222.24,16.74394,-0.003308029,1.11588,0.9933
225.04,16.82874,-0.0033,1.139,0.99194
227.84,16.91299,-0.0033,1.15992,0.99057
230.64,16.9981,-0.004615762,1.18392,0.98919
233.44,17.08266,-0.00461,1.21613,0.9878
236.24,17.16739,-0.00461,1.26138,0.98639
239.04,17.25194,-0.00461,1.3157,0.98498
241.84,17.33624,-0.004738106,1.39482,0.98356
244.64,17.4211,-0.007253635,1.50634,0.98212
247.44,17.50572,-0.00593,1.66953,0.98068
250.24,17.59025,-0.005155978,1.92952,0.97922
253.04,17.67527,-0.00547306,2.33091,0.97775
255.84,17.76031,-0.0056,2.81691,0.97628
258.64,17.84551,-0.005599511,3.03809,0.97479
261.44,17.93072,-0.00494995,2.71208,0.9733
264.24,18.01555,-0.00359537,2.19461,0.97179
267.04,18.09939,-0.004940056,1.8139,0.97028
269.84,18.1835,-0.00625999,1.57206,0.96875
272.64,18.2675,-0.00758024,1.42559,0.96721
275.44,18.3512,-0.00758002,1.34222,0.96567
278.24,18.43509,-0.00658992,1.2961,0.96411
281.04,18.51911,-0.00659,1.27063,0.96255
283.84,18.60324,-0.00659,1.25718,0.96098
286.64,18.68705,-0.006590001,1.25264,0.95939
289.44,18.77145,-0.006919795,1.24938,0.9578
292.24,18.85575,-0.00692,1.25016,0.9562
295.04,18.93985,-0.00692,1.25023,0.95459
297.84,19.02421,-0.006919392,1.25215,0.95297
300.64,19.10835,-0.006589999,1.25527,0.95134
303.44,19.19298,-0.007619683,1.25736,0.9497
306.24,19.27717,-0.00791,1.26027,0.94805
309.04,19.3617,-0.007910917,1.26321,0.9464
311.84,19.4461,-0.00692,1.26723,0.94473
314.64,19.53079,-0.00692029,1.26816,0.94306
317.44,19.61514,-0.00791,1.27061,0.94137
320.24,19.69973,-0.00856978,1.27281,0.93968
323.04,19.78441,-0.008240021,1.2764,0.93798
325.84,19.86925,-0.00824,1.27713,0.93627
328.64,19.954,-0.008239957,1.27707,0.93456
331.44,20.03884,-0.01021016,1.27805,0.93283
334.24,20.12357,-0.01021,1.28166,0.9311
337.04,20.2083,-0.010095,1.2842,0.92936
339.84,20.29374,-0.00988,1.28875,0.92761
342.64,20.37867,-0.009545315,1.29098,0.92585
345.44,20.4639,-0.00955,1.29322,0.92408
348.24,20.54906,-0.00953286,1.29807,0.92231
351.04,20.63421,-0.01087,1.3018,0.92053
353.84,20.71964,-0.01219132,1.30644,0.91874
356.64,20.80518,-0.01285,1.3062,0.91694
359.44,20.89059,-0.01285,1.3086,0.91513
362.24,20.9761,-0.01286594,1.31387,0.91332
365.04,21.06172,-0.01318864,1.31905,0.9115
367.84,21.14752,-0.0135119,1.3251,0.90967
370.64,21.23329,-0.01614026,1.33091,0.90783
373.44,21.31906,-0.01515001,1.33793,0.90599
376.24,21.40502,-0.01646998,1.34627,0.90414
379.04,21.49098,-0.01906779,1.35749,0.90228
381.84,21.5771,-0.01911897,1.36737,0.90042
384.64,21.66321,-0.02115531,1.38222,0.89855
387.44,21.74932,-0.0229876,1.39645,0.89667
390.24,21.83575,-0.0253164,1.40868,0.89478
393.04,21.9219,-0.02733488,1.42643,0.89289
395.84,22.00848,-0.03000926,1.44919,0.89099
398.64,22.0951,-0.03378788,1.47386,0.88908
401.44,22.1818,-0.04095068,1.49915,0.88717
404.24,22.26844,-0.04705597,1.52782,0.88525
407.04,22.35512,-0.05464582,1.56116,0.88332
409.84,22.44196,-0.06679801,1.60059,0.88139
412.64,22.52872,-0.08081551,1.63709,0.87945
415.44,22.61605,-0.0960722,1.67641,0.8775
418.24,22.70307,-0.11693,1.71724,0.87555
421.04,22.79005,-0.14364,1.73048,0.87359
423.84,22.8774,-0.1745,1.70621,0.87162
426.64,22.96475,-0.21089,1.65804,0.86965
429.44,23.05217,-0.2494,1.62606,0.86767
432.24,23.13956,-0.29531,1.59036,0.86569
435.04,23.22703,-0.343,1.57226,0.8637
437.84,23.31448,-0.39653,1.59537,0.86171
440.64,23.4023,-0.46129,1.67749,0.8597
443.44,23.49002,-0.54196,1.80482,0.8577
446.24,23.57829,-0.64216,1.95488,0.85568
449.04,23.66637,-0.74931,2.11365,0.85367
451.84,23.7547,-0.89264,2.27082,0.85164
454.64,23.84337,-1.05267,2.4066,0.84961
457.44,23.93184,-1.22018,2.49368,0.84758
460.24,24.02044,-1.41665,2.54082,0.84554
463.04,24.10915,-1.62342,2.56092,0.84349
465.84,24.19772,-1.85912,2.52557,0.84144
468.64,24.28634,-2.07934,2.41672,0.83938
471.44,24.37499,-2.29033,2.23328,0.83732
474.24,24.46348,-2.46745,1.98401,0.83525
477.04,24.5517,-2.62252,1.70368,0.83318
479.84,24.64002,-2.74517,1.40946,0.83111
482.64,24.72813,-2.83359,1.14239,0.82902
485.44,24.8162,-2.89995,0.92615,0.82694
488.24,24.9045,-2.94658,0.7464,0.82485
491.04,24.99297,-2.98366,0.59836,0.82275
493.84,25.08135,-3.01363,0.47282,0.82065
496.64,25.17003,-3.03615,0.36626,0.81854
499.44,25.25864,-3.05301,0.27546,0.81643
502.24,25.34746,-3.06924,0.20254,0.81432
505.04,25.43637,-3.08219,0.14473,0.8122
507.84,25.52516,-3.09296,0.10182,0.81008
510.64,25.61439,-3.10167,0.06581631,0.80795
513.44,25.70364,-3.10796,0.04212304,0.80582
516.24,25.7931,-3.11493,0.02643643,0.80368
519.04,25.88267,-3.11848,0.01716096,0.80154
521.84,25.97229,-3.12312,0.01044028,0.7994
524.64,26.0619,-3.12764,0.002939416,0.79725
527.44,26.15152,-3.13341,0.002088376,0.7951
530.24,26.2415,-3.13618,-0.000916054,0.79294
533.04,26.33138,-3.13906,-0.001878795,0.79078
535.84,26.4214,-3.14168,-0.00476048,0.78862
538.64,26.5115,-3.14442,-0.003539328,0.78645
541.44,26.60165,-3.1463,-0.00194976,0.78428
544.24,26.69182,-3.14804,0.0006264146,0.78211
547.04,26.7823,-3.15068,0.00250956,0.77993
549.84,26.8726,-3.15331,0.007994567,0.77775
552.64,26.96305,-3.15535,0.01383397,0.77556
555.44,27.05315,-3.15627,0.01692397,0.77337
558.24,27.1438,-3.15726,0.0173481,0.77118
561.04,27.23436,-3.15995,0.0226959,0.76899
563.84,27.32508,-3.16018,0.02404382,0.76679
566.64,27.41558,-3.16277,0.02721241,0.76459
569.44,27.5063,-3.16385,0.03239397,0.76238
572.24,27.59722,-3.16535,0.03591883,0.76018
575.04,27.68808,-3.1678,0.03564768,0.75797
577.84,27.7788,-3.16912,0.03878323,0.75575
580.64,27.8699,-3.17044,0.04159084,0.75354
583.44,27.961,-3.17044,0.04331929,0.75132
586.24,28.05201,-3.17367,0.0453193,0.7491
589.04,28.1431,-3.17519,0.04618454,0.74687
591.84,28.23433,-3.17618,0.04551231,0.74465
594.64,28.3255,-3.17768,0.0593251,0.74242
597.44,28.4168,-3.18108,0.06220829,0.74019
600.24,28.50808,-3.18164,0.06674256,0.73795
603.04,28.59951,-3.18365,0.06465314,0.73571
605.84,28.691,-3.18559,0.07962073,0.73348
608.64,28.7824,-3.18943,0.08208088,0.73123
611.44,28.87373,-3.19086,0.08108953,0.72899
614.24,28.96538,-3.19118,0.08359288,0.72675
617.04,29.05704,-3.19517,0.08586688,0.7245
619.84,29.1485,-3.19515,0.09044613,0.72225
622.64,29.23997,-3.19646,0.09701946,0.72
625.44,29.3319,-3.19908,0.10025,0.71774
628.24,29.4235,-3.20053,0.10269,0.71549
631.04,29.5151,-3.20315,0.10853,0.71323
633.84,29.60695,-3.20447,0.10546,0.71097
636.64,29.69864,-3.20578,0.09727696,0.70871
639.44,29.7905,-3.20842,0.09611932,0.70645
642.24,29.88215,-3.20962,0.09422118,0.70418
645.04,29.97399,-3.21058,0.09949688,0.70192
647.84,30.0655,-3.21237,0.11185,0.69965
650.64,30.1577,-3.21369,0.11847,0.69738
653.44,30.2496,-3.21501,0.11865,0.69511
656.24,30.3416,-3.21728,0.12895,0.69284
659.04,30.43357,-3.21896,0.1349,0.69056
661.84,30.52562,-3.22028,0.13991,0.68829
664.64,30.6173,-3.22162,0.14479,0.68601
667.44,30.7097,-3.22229,0.15033,0.68374
670.24,30.802,-3.22323,0.15779,0.68146
673.04,30.8943,-3.22456,0.16404,0.67918
675.84,30.98654,-3.22587,0.16735,0.6769
678.64,31.07858,-3.22719,0.17686,0.67462
681.44,31.17137,-3.22715,0.18762,0.67234
684.24,31.2637,-3.22852,0.1879,0.67006
687.04,31.35623,-3.22984,0.18838,0.66777
689.84,31.4488,-3.23081,0.199,0.66549
692.64,31.5413,-3.23076,0.20893,0.66321
695.44,31.63387,-3.23213,0.21366,0.66092
696.34,31.6638,-3.23214,0.2156,0.66019