File: 01_Data/Polyester_Bed_Skirt/STA/N2/30K_min/Polyester_Bed_Skirt_STA_N2_30KData_220524_R1.csv
##Temp./Â°C,Time/min,Mass loss(subtr.2)/mg,DSC(subtr.2)/(mW/mg),Sensit./(uV/mW)
48.569,10.00667,-0.00823,-0.0007184639,1.054
51.369,10.85104,-0.006607114,0.12466,1.05343
54.169,11.0716,-0.00858403,0.2158,1.05284
56.969,11.23915,-0.007439477,0.28287,1.05224
59.769,11.3825,-0.009846657,0.33729,1.05162
62.569,11.512,-0.008405797,0.38586,1.05099
65.369,11.63241,-0.007927736,0.42972,1.05035
68.169,11.74643,-0.006809694,0.46758,1.04969
70.969,11.85642,-0.0083458,0.50678,1.04902
73.769,11.9627,-0.007389929,0.53249,1.04833
76.569,12.0669,-0.006621458,0.54971,1.04763
79.369,12.169,-0.007752796,0.54423,1.04692
82.169,12.2692,-0.007988623,0.53313,1.04619
84.969,12.36796,-0.007677287,0.52146,1.04545
87.769,12.46542,-0.007283647,0.51048,1.04469
90.569,12.56206,-0.006243089,0.50525,1.04393
93.369,12.6572,-0.009594744,0.49799,1.04314
96.169,12.75298,-0.009446134,0.49314,1.04235
98.969,12.84727,-0.009434585,0.492,1.04154
101.769,12.94156,-0.00812006,0.49354,1.04071
104.569,13.03536,-0.00813533,0.50308,1.03987
107.369,13.129,-0.00949126,0.51347,1.03902
110.169,13.22269,-0.009456154,0.52734,1.03816
112.969,13.3159,-0.00943892,0.5432,1.03728
115.769,13.40903,-0.009452496,0.56087,1.03639
118.569,13.5019,-0.008130561,0.57783,1.03549
121.369,13.5946,-0.009440001,0.59212,1.03457
124.169,13.6866,-0.00845444,0.60935,1.03364
126.969,13.7785,-0.009234622,0.62522,1.0327
129.769,13.86995,-0.00844999,0.64323,1.03175
132.569,13.96076,-0.00942063,0.65795,1.03078
135.369,14.0515,-0.01074629,0.67464,1.0298
138.169,14.1419,-0.009454052,0.68951,1.0288
140.969,14.2317,-0.008786599,0.70228,1.0278
143.769,14.3211,-0.0094304,0.71611,1.02678
146.569,14.41061,-0.008120001,0.73095,1.02574
149.369,14.49957,-0.008119531,0.74146,1.0247
152.169,14.58791,-0.00945901,0.75087,1.02364
154.969,14.67663,-0.008133025,0.76399,1.02257
157.769,14.76494,-0.00944,0.77643,1.02149
160.569,14.8529,-0.00944,0.78454,1.0204
163.369,14.94077,-0.01079213,0.79308,1.01929
166.169,15.02844,-0.008448734,0.80257,1.01817
168.969,15.11602,-0.008454002,0.81149,1.01704
171.769,15.20292,-0.009770001,0.82315,1.0159
174.569,15.2904,-0.00977,0.82921,1.01474
177.369,15.3772,-0.009449854,0.84189,1.01358
180.169,15.4639,-0.01043741,0.84936,1.0124
182.969,15.5501,-0.009076109,0.85658,1.01121
185.769,15.6361,-0.00944,0.86397,1.01001
188.569,15.72189,-0.009440041,0.87259,1.00879
191.369,15.80751,-0.01075952,0.88297,1.00757
194.169,15.89298,-0.01142001,0.89187,1.00633
196.969,15.97845,-0.01009987,0.90133,1.00508
199.769,16.06372,-0.01109009,0.91238,1.00382
202.569,16.1489,-0.01139645,0.91923,1.00255
205.369,16.23402,-0.01075343,0.93264,1.00127
208.169,16.3186,-0.01109,0.94362,0.99997
210.969,16.4039,-0.01109,0.95517,0.99867
213.769,16.48884,-0.01109,0.96727,0.99735
216.569,16.57359,-0.01109,0.98025,0.99602
219.369,16.65843,-0.01108385,0.99893,0.99469
222.169,16.74307,-0.01043,1.01724,0.99334
224.969,16.82765,-0.01043143,1.03863,0.99198
227.769,16.91238,-0.01175066,1.05842,0.99061
230.569,16.99699,-0.01306094,1.08266,0.98922
233.369,17.0813,-0.01306992,1.11428,0.98783
236.169,17.16609,-0.01306999,1.15719,0.98643
238.969,17.2505,-0.01438022,1.21143,0.98502
241.769,17.33517,-0.01438,1.28721,0.98359
244.569,17.41951,-0.01438168,1.39856,0.98216
247.369,17.50416,-0.01339,1.55793,0.98071
250.169,17.5889,-0.01339,1.81674,0.97926
252.969,17.67362,-0.01306016,2.20616,0.97779
255.769,17.75844,-0.01306,2.66466,0.97632
258.569,17.84371,-0.01306026,2.92919,0.97483
261.369,17.92882,-0.01174998,2.70195,0.97334
264.169,18.01342,-0.01273014,2.17371,0.97183
266.969,18.09749,-0.01273004,1.75855,0.97031
269.769,18.18157,-0.01338997,1.49689,0.96879
272.569,18.26525,-0.01339,1.33629,0.96725
275.369,18.34891,-0.01339,1.24411,0.96571
278.169,18.43295,-0.01339292,1.19091,0.96415
280.969,18.51672,-0.01505732,1.16208,0.96259
283.769,18.60079,-0.01504,1.14952,0.96102
286.569,18.6848,-0.01504,1.13864,0.95943
289.369,18.76905,-0.0150399,1.1389,0.95784
292.169,18.8533,-0.0157,1.13462,0.95624
294.969,18.9375,-0.0157,1.13435,0.95463
297.769,19.02184,-0.0143621,1.13653,0.95301
300.569,19.10613,-0.01437996,1.13807,0.95138
303.369,19.19063,-0.01569998,1.13784,0.94974
306.169,19.27494,-0.01458712,1.13763,0.94809
308.969,19.35942,-0.01438224,1.14035,0.94644
311.769,19.44398,-0.01564755,1.14421,0.94477
314.569,19.52836,-0.01701,1.14461,0.9431
317.369,19.61335,-0.01701,1.14926,0.94142
320.169,19.69797,-0.01680345,1.14831,0.93973
322.969,19.78269,-0.01768027,1.15062,0.93803
325.769,19.86759,-0.01768,1.1496,0.93632
328.569,19.95252,-0.01705013,1.15049,0.9346
331.369,20.0374,-0.01570007,1.15286,0.93288
334.169,20.12257,-0.01701993,1.15462,0.93114
336.969,20.20748,-0.01701969,1.15498,0.9294
339.769,20.2923,-0.01833026,1.1577,0.92765
342.569,20.3774,-0.01965,1.15916,0.92589
345.369,20.46301,-0.0196488,1.16118,0.92413
348.169,20.5483,-0.02097,1.16351,0.92235
350.969,20.63363,-0.02097,1.16502,0.92057
353.769,20.7189,-0.02097001,1.16721,0.91878
356.569,20.80388,-0.0206451,1.16872,0.91698
359.369,20.8898,-0.02195877,1.16882,0.91518
362.169,20.97543,-0.02328,1.16942,0.91337
364.969,21.06101,-0.02327927,1.17119,0.91154
367.769,21.14688,-0.02361002,1.17493,0.90972
370.569,21.23242,-0.02491999,1.1796,0.90788
373.369,21.31844,-0.02515258,1.18652,0.90604
376.169,21.40425,-0.02692565,1.19809,0.90419
378.969,21.4903,-0.02822008,1.20762,0.90233
381.769,21.57626,-0.02830894,1.22325,0.90047
384.569,21.66251,-0.03084864,1.23752,0.89859
387.369,21.74878,-0.03350863,1.25386,0.89671
390.169,21.83515,-0.0360035,1.2701,0.89483
392.969,21.92141,-0.03775433,1.29056,0.89294
395.769,22.00796,-0.04079396,1.31609,0.89104
398.569,22.0945,-0.04642149,1.34175,0.88913
401.369,22.1811,-0.05151341,1.36815,0.88722
404.169,22.2678,-0.05855977,1.39946,0.8853
406.969,22.35435,-0.06708313,1.43567,0.88337
409.769,22.44146,-0.07874425,1.4714,0.88144
412.569,22.52846,-0.0909514,1.50848,0.8795
415.369,22.61544,-0.10884,1.54787,0.87755
418.169,22.7025,-0.12955,1.58803,0.8756
420.969,22.78971,-0.15706,1.60603,0.87364
423.769,22.87676,-0.18655,1.60622,0.87167
426.569,22.96438,-0.22241,1.64439,0.8697
429.369,23.05167,-0.26626,1.69027,0.86772
432.169,23.13926,-0.31759,1.74122,0.86574
434.969,23.22653,-0.37864,1.81675,0.86375
437.769,23.31439,-0.4507,1.8977,0.86176
440.569,23.40217,-0.53532,2.00223,0.85975
443.369,23.4899,-0.63292,2.11549,0.85775
446.169,23.57793,-0.74813,2.24106,0.85574
448.969,23.66581,-0.87816,2.34964,0.85372
451.769,23.75422,-1.02781,2.44877,0.85169
454.569,23.84242,-1.19829,2.55958,0.84966
457.369,23.93092,-1.38682,2.59869,0.84763
460.169,24.01931,-1.59045,2.62084,0.84559
462.969,24.10752,-1.82103,2.59474,0.84354
465.769,24.19611,-2.04443,2.54625,0.84149
468.569,24.28446,-2.26322,2.43445,0.83943
471.369,24.3728,-2.46375,2.25304,0.83737
474.169,24.46126,-2.63381,2.01046,0.83531
476.969,24.54932,-2.78134,1.72876,0.83324
479.769,24.6375,-2.89012,1.44754,0.83116
482.569,24.72573,-2.96682,1.19933,0.82908
485.369,24.81387,-3.02522,1.00655,0.82699
488.169,24.9023,-3.06617,0.84901,0.8249
490.969,24.9906,-3.0974,0.7207,0.8228
493.769,25.0793,-3.1238,0.60936,0.8207
496.569,25.1675,-3.14494,0.51395,0.8186
499.369,25.25674,-3.15936,0.43171,0.81649
502.169,25.34569,-3.17145,0.35995,0.81437
504.969,25.43477,-3.18192,0.30337,0.81226
507.769,25.5239,-3.19315,0.25775,0.81013
510.569,25.61319,-3.20192,0.22429,0.808
513.369,25.7022,-3.20996,0.20055,0.80587
516.169,25.79212,-3.21643,0.18377,0.80374
518.969,25.88162,-3.21997,0.16875,0.8016
521.769,25.9713,-3.22499,0.1588,0.79945
524.569,26.06105,-3.22856,0.15314,0.79731
527.369,26.15089,-3.23371,0.1486,0.79515
530.169,26.2409,-3.23576,0.14568,0.793
532.969,26.33083,-3.24146,0.14163,0.79084
535.769,26.42098,-3.24291,0.14053,0.78867
538.569,26.5111,-3.24706,0.14908,0.78651
541.369,26.60117,-3.2512,0.15115,0.78434
544.169,26.6915,-3.25272,0.14792,0.78216
546.969,26.78156,-3.25673,0.14648,0.77998
549.769,26.8721,-3.25876,0.14566,0.7778
552.569,26.9625,-3.26089,0.14622,0.77562
555.369,27.053,-3.26221,0.14732,0.77343
558.169,27.1435,-3.2629,0.1458,0.77124
560.969,27.2342,-3.26616,0.15384,0.76904
563.769,27.3247,-3.26753,0.15218,0.76685
566.569,27.4154,-3.26748,0.1523,0.76464
569.369,27.5061,-3.27023,0.15511,0.76244
572.169,27.597,-3.27154,0.15315,0.76023
574.969,27.6878,-3.27394,0.15125,0.75802
577.769,27.77872,-3.27545,0.1494,0.75581
580.569,27.8698,-3.27691,0.15161,0.75359
583.369,27.9608,-3.27708,0.15021,0.75138
586.169,28.0518,-3.27813,0.14806,0.74915
588.969,28.14306,-3.27972,0.14839,0.74693
591.769,28.23443,-3.28077,0.14361,0.7447
594.569,28.32576,-3.28341,0.14221,0.74247
597.369,28.4171,-3.28604,0.14235,0.74024
600.169,28.5086,-3.28867,0.14249,0.73801
602.969,28.5999,-3.2913,0.13765,0.73577
605.769,28.6917,-3.29346,0.1351,0.73353
608.569,28.78343,-3.29521,0.13391,0.73129
611.369,28.87507,-3.29769,0.13334,0.72905
614.169,28.96684,-3.29789,0.13415,0.7268
616.969,29.0586,-3.29983,0.13352,0.72455
619.769,29.15039,-3.30015,0.13371,0.7223
622.569,29.24217,-3.30276,0.13451,0.72005
625.369,29.33405,-3.3039,0.13682,0.7178
628.169,29.4257,-3.30696,0.13431,0.71554
630.969,29.5177,-3.30947,0.13544,0.71329
633.769,29.60949,-3.31095,0.1386,0.71103
636.569,29.70123,-3.31308,0.1405,0.70877
639.369,29.79278,-3.3149,0.13819,0.7065
642.169,29.8849,-3.31622,0.14145,0.70424
644.969,29.97675,-3.31753,0.1443,0.70197
647.769,30.0686,-3.31755,0.14646,0.69971
650.569,30.16038,-3.31888,0.1557,0.69744
653.369,30.2523,-3.32281,0.15773,0.69517
656.169,30.3441,-3.32548,0.16176,0.69289
658.969,30.4359,-3.32744,0.16802,0.69062
661.769,30.5282,-3.32723,0.1731,0.68835
664.569,30.61996,-3.32907,0.17577,0.68607
667.369,30.71195,-3.32988,0.17822,0.6838
670.169,30.8039,-3.32938,0.18212,0.68152
672.969,30.89595,-3.3308,0.18255,0.67924
675.769,30.988,-3.33335,0.1846,0.67696
678.569,31.0801,-3.33467,0.18603,0.67468
681.369,31.1723,-3.33463,0.18799,0.6724
684.169,31.26438,-3.335,0.1882,0.67011
686.969,31.3567,-3.33643,0.19249,0.66783
689.769,31.4489,-3.33763,0.16959,0.66555
692.569,31.5411,-3.3389,0.06685137,0.66326
695.369,31.63335,-3.33862,0.02806252,0.66098
696.369,31.66627,-3.33862,0.02034521,0.66016