File: 01_Data/Homasote/MCC/Homasote_MCC_30K_min_220317_R2.txt
Sample ID:	C:\MCC\MCC Cal\Test\Homasote_MCC_30K_min_220317_R2.txt
Sample Weight (mg):	4.23
Heating Rate (C/s):	0.5
Combustor Temp (C):	900
N2 Flow Rate (cc/min):	80
O2 Flow Rate (cc/min):	20
Calibration File:	C:\MCC\MCC Cal\Coeff1 JN10440_30_210304.txt.txt
T Correction Coefficients:	0	1.024463	0
Time Shift (s):	14
*
Time (s)	Temperature (C)	N2 flow rate (cc/min)	O2 flow rate (cc/min)	Flow Rate (cc/min)	Oxygen (%)	HRR (W/g)	Heating rate (C/s)
0.000	110.201	80.004	19.993	103.610	19.951	-0.464	-0.005
8.000	110.126	80.001	19.993	103.628	19.943	0.113	-0.005
16.000	110.248	80.001	19.995	103.643	19.929	1.225	0.048
24.000	110.646	80.000	19.994	103.787	19.910	2.671	0.059
32.000	111.559	80.003	19.996	103.796	19.908	2.820	0.127
40.001	112.910	80.002	19.994	103.725	19.905	3.050	0.186
48.000	114.588	80.001	19.994	103.832	19.904	3.132	0.221
56.000	116.537	80.003	19.995	103.831	19.901	3.326	0.234
64.000	118.846	80.003	19.992	103.838	19.898	3.541	0.277
72.000	121.313	80.001	19.996	103.854	19.896	3.726	0.293
80.001	124.102	80.004	19.994	103.855	19.894	3.915	0.342
88.000	127.098	80.003	19.995	103.863	19.891	4.112	0.377
96.000	130.269	80.001	19.994	103.862	19.890	4.187	0.381
104.000	133.536	80.003	19.994	103.848	19.892	4.014	0.402
112.000	136.991	80.001	19.998	103.852	19.892	4.015	0.428
120.000	140.549	80.001	19.995	103.851	19.893	3.938	0.407
128.000	144.223	79.999	19.994	103.850	19.893	3.985	0.483
136.000	147.855	80.003	19.994	103.849	19.891	4.089	0.460
144.000	151.634	80.001	19.995	103.848	19.904	3.154	0.487
152.000	155.430	80.003	19.994	103.845	19.892	4.057	0.316
160.000	159.206	80.004	19.994	103.827	19.891	4.106	0.458
168.000	163.115	80.002	19.994	103.843	19.895	3.825	0.464
176.000	167.040	80.002	19.995	103.835	19.888	4.331	0.481
184.000	170.900	80.001	19.992	103.841	19.890	4.216	0.456
192.000	174.817	80.000	19.995	103.840	19.892	4.033	0.485
200.000	178.788	80.000	19.995	103.840	19.891	4.096	0.522
208.000	182.759	80.000	19.996	103.820	19.887	4.395	0.477
216.000	186.769	80.002	19.995	103.814	19.898	3.546	0.521
224.000	190.729	80.003	19.995	103.809	19.887	4.457	0.495
232.000	194.749	80.002	19.996	103.825	19.883	4.705	0.547
240.000	198.721	80.002	19.994	103.823	19.881	4.841	0.472
248.000	202.782	80.004	19.994	103.817	19.875	5.334	0.487
256.000	206.813	80.003	19.994	103.811	19.867	5.945	0.535
264.000	210.759	80.000	19.996	103.734	19.858	6.632	0.518
272.000	214.764	80.000	19.995	103.800	19.856	6.805	0.527
280.000	218.706	80.001	19.996	103.804	19.851	7.184	0.517
288.000	222.608	80.000	19.997	103.800	19.843	7.799	0.485
296.000	226.518	80.001	19.997	103.796	19.837	8.250	0.524
304.000	230.483	80.003	19.995	103.806	19.827	9.038	0.491
312.000	234.372	80.002	19.995	103.788	19.820	9.547	0.483
320.000	238.351	80.001	19.995	103.786	19.812	10.192	0.496
328.000	242.273	80.002	19.994	103.803	19.804	10.743	0.503
336.000	246.240	80.001	19.995	103.790	19.798	11.207	0.507
344.000	250.243	80.001	19.994	103.792	19.791	11.784	0.530
352.000	254.175	80.002	19.995	103.797	19.783	12.352	0.471
360.000	258.064	80.003	19.995	103.782	19.782	12.433	0.480
368.000	262.005	80.000	19.996	103.806	19.773	13.129	0.494
376.000	265.934	80.002	19.995	103.802	19.768	13.559	0.503
384.000	269.976	80.002	19.996	103.811	19.765	13.778	0.550
392.000	274.049	80.001	19.995	103.810	19.755	14.543	0.498
400.000	278.146	80.003	19.994	103.810	19.750	14.903	0.531
408.000	282.176	80.003	19.996	103.814	19.735	16.076	0.491
416.000	286.226	79.999	19.997	103.810	19.729	16.532	0.511
424.000	290.181	80.002	19.995	103.822	19.712	17.802	0.491
432.000	294.101	80.003	19.995	103.846	19.693	19.246	0.494
440.001	298.062	80.002	19.994	103.854	19.676	20.611	0.501
448.000	302.082	80.001	19.995	103.857	19.653	22.317	0.494
456.000	306.090	80.002	19.995	103.880	19.626	24.447	0.527
464.001	310.205	80.004	19.995	103.889	19.597	26.620	0.528
472.000	314.344	80.002	19.997	103.885	19.563	29.219	0.548
480.000	318.437	80.004	19.996	103.889	19.530	31.795	0.511
488.000	322.434	80.005	19.994	103.913	19.491	34.738	0.497
496.000	326.420	80.002	19.996	103.921	19.452	37.786	0.510
504.000	330.341	80.001	19.998	103.929	19.418	40.361	0.460
512.000	334.292	80.002	19.994	103.955	19.371	44.002	0.534
520.000	338.282	80.003	19.994	103.963	19.326	47.487	0.484
528.000	342.165	80.002	19.994	103.970	19.275	51.362	0.454
536.000	346.118	80.001	19.995	103.993	19.225	55.242	0.495
544.000	350.071	80.002	19.995	104.001	19.179	58.715	0.505
552.000	354.052	80.004	19.995	104.012	19.139	61.807	0.474
560.000	358.132	80.004	19.994	104.021	19.105	64.447	0.512
568.000	362.202	80.002	20.000	104.011	19.091	65.505	0.519
576.000	366.327	80.002	19.995	103.984	19.111	63.922	0.545
584.000	370.484	80.001	19.995	103.932	19.171	59.262	0.520
592.000	374.696	80.002	19.995	103.901	19.282	50.769	0.533
600.000	378.810	80.003	19.994	103.827	19.426	39.688	0.518
608.000	382.928	80.001	19.994	103.776	19.575	28.250	0.501
616.000	386.945	80.002	19.996	103.746	19.701	18.617	0.484
624.000	390.963	80.003	19.995	103.736	19.780	12.588	0.519
632.000	395.011	80.001	19.996	103.728	19.821	9.499	0.496
640.000	398.937	80.003	19.995	103.732	19.838	8.179	0.507
648.000	402.939	80.001	19.994	103.748	19.842	7.892	0.486
656.000	407.020	80.002	19.997	103.733	19.842	7.837	0.523
664.000	411.050	80.000	19.996	103.731	19.841	7.941	0.497
672.000	415.071	80.002	19.995	103.728	19.843	7.750	0.492
680.000	419.146	80.002	19.994	103.733	19.849	7.298	0.510
688.000	423.255	80.000	19.995	103.729	19.845	7.659	0.515
696.000	427.307	80.001	19.995	103.731	19.846	7.585	0.521
704.000	431.272	80.004	19.994	103.729	19.851	7.185	0.487
712.000	435.300	80.001	19.996	103.724	19.851	7.158	0.487
720.000	439.206	80.004	19.995	103.719	19.855	6.840	0.493
728.000	443.136	80.004	19.995	103.726	19.859	6.591	0.500
736.000	447.098	80.002	19.995	103.720	19.859	6.549	0.485
744.000	451.125	80.002	19.995	103.719	19.863	6.230	0.510
752.000	455.218	80.001	19.996	103.725	19.867	5.982	0.517
760.001	459.345	80.001	19.995	103.722	19.868	5.868	0.530
768.000	463.404	80.002	19.993	103.728	19.873	5.498	0.518
776.000	467.474	80.001	19.995	103.709	19.870	5.731	0.535
784.000	471.509	80.002	19.994	103.711	19.878	5.110	0.490
792.000	475.518	80.003	19.998	103.701	19.881	4.879	0.506
800.000	479.575	80.004	19.995	103.708	19.884	4.674	0.540
808.000	483.615	80.004	19.994	103.702	19.885	4.583	0.508
816.000	487.621	80.001	19.997	103.701	19.890	4.153	0.490
824.000	491.672	80.002	19.995	103.702	19.893	3.954	0.500
832.000	495.800	80.002	19.995	103.721	19.898	3.597	0.527
840.000	499.822	79.999	19.994	103.699	19.898	3.582	0.496
848.000	503.831	80.000	19.996	103.693	19.897	3.627	0.475
856.000	507.776	80.002	19.994	103.690	19.900	3.400	0.481
864.000	511.711	80.004	19.995	103.691	19.902	3.277	0.490
872.000	515.728	80.002	19.996	103.693	19.904	3.084	0.500
880.000	519.763	80.004	19.995	103.699	19.904	3.101	0.501
888.000	523.776	80.005	19.994	103.697	19.905	3.027	0.532
896.000	527.743	80.001	19.993	103.702	19.903	3.175	0.485
904.000	531.783	80.001	19.994	103.709	19.906	2.959	0.491
912.000	535.827	80.001	19.995	103.693	19.904	3.118	0.500
920.000	539.904	80.001	19.993	103.697	19.906	2.969	0.487
928.000	543.988	80.000	19.994	103.707	19.906	2.994	0.530
936.000	548.086	80.002	19.995	103.683	19.903	3.192	0.514
944.000	552.187	80.004	19.995	103.690	19.906	2.993	0.497
952.000	556.453	80.002	19.996	103.707	19.907	2.850	0.550
960.000	560.598	80.003	19.995	103.697	19.905	3.046	0.519
968.000	564.839	80.004	19.994	103.696	19.907	2.852	0.515
976.000	568.960	80.004	19.994	103.692	19.906	2.980	0.515
984.000	573.055	80.002	19.995	103.697	19.904	3.092	0.499
992.000	577.136	80.003	19.995	103.691	19.907	2.878	0.483
1000.000	581.062	80.002	19.995	103.702	19.906	2.972	0.509
1008.000	585.099	80.001	19.994	103.704	19.906	2.968	0.523
1016.000	589.318	80.002	19.994	103.715	19.906	2.991	0.536
1024.001	593.675	80.004	19.996	103.697	19.905	3.043	0.567
1032.001	598.062	80.002	19.995	103.707	19.905	3.037	0.580
1040.000	602.474	80.003	19.994	103.706	19.909	2.764	0.548
1048.000	606.837	80.006	19.994	103.702	19.907	2.882	0.542
1056.000	611.125	80.001	19.994	103.691	19.906	2.952	0.527
1064.000	615.384	80.001	19.995	103.697	19.903	3.222	0.533
1072.000	619.629	80.003	19.995	103.701	19.901	3.315	0.557
1080.001	623.784	80.003	19.994	103.695	19.903	3.196	0.531
1088.000	627.957	80.002	19.994	103.707	19.904	3.135	0.520
1096.001	632.120	80.002	19.995	103.697	19.907	2.882	0.555
1104.000	636.257	80.003	19.995	103.696	19.901	3.325	0.523
1112.000	640.320	80.001	19.995	103.650	19.901	3.349	0.480
1120.000	644.300	80.003	19.996	103.717	19.905	3.035	0.479
1128.000	648.383	80.004	19.994	103.719	19.900	3.411	0.508
1136.000	652.505	80.003	19.995	103.712	19.902	3.250	0.493
1144.000	656.625	80.001	19.995	103.727	19.898	3.562	0.495
1152.000	660.737	80.001	19.994	103.793	19.900	3.405	0.475
1160.001	664.840	80.001	19.993	103.724	19.900	3.456	0.504
1168.001	668.867	80.001	19.994	103.734	19.897	3.613	0.482
1176.000	672.910	80.003	19.995	103.730	19.895	3.789	0.472
1184.000	676.844	80.003	19.994	103.728	19.891	4.071	0.384
1192.000	681.049	80.002	19.995	103.740	19.895	3.817	0.503
1200.000	685.087	80.002	19.994	103.747	19.892	4.070	0.500
1208.000	689.120	80.004	19.995	103.733	19.889	4.290	0.526
1216.001	693.151	80.000	19.995	103.751	19.889	4.290	0.528
1224.000	697.259	80.001	19.994	103.737	19.892	4.027	0.543
1232.001	701.446	80.003	19.995	103.740	19.895	3.783	0.548
1240.000	705.699	80.002	19.994	103.733	19.894	3.914	0.549
1248.001	709.882	80.001	19.994	103.744	19.899	3.509	0.499
1256.000	714.024	80.004	19.994	103.723	19.895	3.811	0.516
1264.001	718.204	80.004	19.995	103.711	19.897	3.625	0.514
1272.000	722.336	80.003	19.994	103.699	19.899	3.470	0.528
1280.000	726.396	80.002	19.995	103.694	19.899	3.500	0.496
1288.000	730.585	80.004	19.993	103.693	19.901	3.378	0.528
1296.001	734.650	80.003	19.995	103.694	19.901	3.325	0.454
1304.001	738.654	80.003	19.997	103.690	19.899	3.463	0.497
1312.000	742.686	80.002	19.995	103.692	19.897	3.654	0.520
1313.500	743.484	80.000	19.996	103.690	19.898	3.597	0.529