File: 01_Data/Homasote/MCC/Homasote_MCC_30K_min_220317_R1.txt
Sample ID:	C:\MCC\MCC Cal\Test\Homasote_MCC_30K_min_220317_R1.txt
Sample Weight (mg):	4.64
Heating Rate (C/s):	0.5
Combustor Temp (C):	900
N2 Flow Rate (cc/min):	80
O2 Flow Rate (cc/min):	20
Calibration File:	C:\MCC\MCC Cal\Coeff1 JN10440_30_210304.txt.txt
T Correction Coefficients:	0	1.024463	0
Time Shift (s):	14
*
Time (s)	Temperature (C)	N2 flow rate (cc/min)	O2 flow rate (cc/min)	Flow Rate (cc/min)	Oxygen (%)	HRR (W/g)	Heating rate (C/s)
0.000	105.886	80.001	19.996	103.601	19.959	0.272	0.006
8.000	105.834	80.003	19.994	103.596	19.959	0.278	-0.009
16.000	105.898	80.003	19.994	103.679	19.943	1.391	0.024
24.000	106.325	80.001	19.996	103.718	19.934	2.055	0.069
32.000	107.103	80.002	19.994	103.775	19.926	2.563	0.109
40.001	108.336	80.001	19.994	103.802	19.920	2.990	0.160
48.000	110.001	80.002	19.995	103.839	19.917	3.226	0.229
56.000	112.095	80.000	19.994	103.853	19.913	3.521	0.316
64.000	114.536	80.003	19.994	103.875	19.910	3.699	0.366
72.000	117.286	80.003	19.994	103.875	19.908	3.874	0.332
80.000	120.421	80.000	19.993	103.886	19.903	4.230	0.421
88.000	123.789	80.002	19.996	103.878	19.906	3.971	0.442
96.000	127.378	80.002	19.995	103.878	19.906	3.982	0.465
104.001	131.101	80.000	19.995	103.879	19.907	3.924	0.459
112.000	134.965	80.001	19.995	103.880	19.906	3.970	0.502
120.000	138.920	80.001	19.995	103.865	19.912	3.584	0.480
128.000	142.921	80.002	19.994	103.856	19.910	3.714	0.493
136.000	147.010	80.000	19.994	103.856	19.915	3.359	0.505
144.000	151.066	80.002	19.993	103.848	19.918	3.154	0.497
152.000	155.099	80.002	19.995	103.842	19.915	3.376	0.470
160.000	159.122	80.000	19.995	103.834	19.911	3.637	0.530
168.000	163.062	80.001	19.995	103.823	19.913	3.469	0.521
176.000	167.018	80.000	19.995	103.821	19.910	3.736	0.475
184.000	170.895	80.000	19.996	103.813	19.907	3.924	0.484
192.000	174.756	80.000	19.996	103.811	19.907	3.910	0.481
200.000	178.700	80.002	19.996	103.813	19.907	3.954	0.486
208.000	182.603	80.002	19.996	103.756	19.902	4.254	0.519
216.000	186.504	80.002	19.995	103.808	19.903	4.171	0.487
224.000	190.400	80.004	19.995	103.808	19.897	4.581	0.499
232.000	194.284	80.003	19.994	103.803	19.895	4.740	0.470
240.000	198.217	80.000	19.995	103.808	19.892	4.965	0.499
248.000	202.141	80.002	19.995	103.810	19.889	5.205	0.516
256.000	206.107	80.002	19.994	103.810	19.883	5.606	0.490
264.000	210.060	80.000	19.994	103.810	19.884	5.538	0.492
272.000	214.027	80.000	19.995	103.808	19.874	6.205	0.503
280.000	217.978	80.002	19.994	103.803	19.867	6.695	0.471
288.000	221.989	80.002	19.995	103.805	19.861	7.107	0.523
296.000	225.926	80.001	19.994	103.806	19.851	7.811	0.497
304.000	230.002	80.004	19.996	103.795	19.842	8.457	0.497
312.000	233.974	80.002	19.994	103.782	19.826	9.548	0.490
320.000	238.003	80.000	19.995	103.795	19.822	9.864	0.525
328.000	241.965	80.001	19.995	103.785	19.815	10.320	0.507
336.000	245.962	80.001	19.995	103.801	19.803	11.164	0.475
344.000	249.975	80.002	19.995	103.776	19.791	12.038	0.533
352.000	253.928	80.002	19.995	103.773	19.785	12.464	0.488
360.000	257.867	80.002	19.995	103.775	19.779	12.876	0.516
368.000	261.757	80.002	19.996	103.798	19.772	13.320	0.462
376.000	265.648	80.003	19.994	103.805	19.767	13.670	0.473
384.000	269.618	80.002	19.994	103.809	19.763	13.955	0.507
392.000	273.616	80.004	19.996	103.808	19.760	14.165	0.490
400.000	277.559	80.002	19.995	103.810	19.750	14.869	0.467
408.000	281.509	80.001	19.995	103.822	19.742	15.438	0.488
416.000	285.462	80.002	19.994	103.841	19.727	16.505	0.473
424.000	289.445	80.000	19.995	103.835	19.709	17.764	0.475
432.000	293.510	80.002	19.995	103.851	19.692	18.916	0.507
440.000	297.517	80.001	19.996	103.872	19.671	20.431	0.516
448.000	301.525	80.001	19.996	103.870	19.644	22.259	0.491
456.000	305.485	80.003	19.995	103.883	19.621	23.904	0.475
464.000	309.548	80.003	19.995	103.889	19.590	26.100	0.518
472.000	313.638	80.003	19.995	103.911	19.552	28.713	0.526
480.000	317.706	80.001	19.996	103.914	19.521	30.930	0.538
488.000	321.732	80.002	19.997	103.924	19.480	33.745	0.514
496.000	325.764	80.000	19.994	103.931	19.438	36.718	0.514
504.000	329.814	80.000	19.994	103.964	19.390	40.056	0.489
512.000	333.812	80.000	19.995	103.967	19.341	43.495	0.485
520.000	337.790	80.002	19.994	103.996	19.293	46.862	0.478
528.000	341.746	80.002	19.994	104.007	19.235	50.913	0.498
536.000	345.733	80.003	19.996	104.009	19.185	54.445	0.481
544.000	349.729	80.002	19.996	104.043	19.135	57.953	0.522
552.000	353.744	80.002	19.994	104.042	19.083	61.572	0.514
560.000	357.713	80.001	19.996	104.047	19.044	64.290	0.506
568.000	361.692	79.999	19.996	104.057	19.026	65.572	0.515
576.000	365.676	79.999	19.996	104.023	19.037	64.702	0.529
584.000	369.615	80.000	19.994	103.968	19.098	60.459	0.499
592.000	373.597	80.001	19.994	103.922	19.204	52.995	0.486
600.000	377.620	80.002	19.996	103.856	19.352	42.654	0.500
608.000	381.668	80.002	19.995	103.805	19.515	31.245	0.512
616.000	385.706	80.003	19.995	103.769	19.666	20.742	0.502
624.000	389.780	80.004	19.994	103.759	19.760	14.160	0.507
632.000	393.884	80.002	19.995	103.744	19.815	10.358	0.534
640.000	397.959	80.001	19.995	103.735	19.838	8.723	0.536
648.000	402.041	80.001	19.995	103.740	19.847	8.118	0.517
656.000	406.193	80.002	19.995	103.749	19.851	7.812	0.529
664.000	410.276	80.002	19.996	103.731	19.856	7.445	0.555
672.000	414.344	80.002	19.995	103.734	19.858	7.365	0.518
680.000	418.408	80.003	19.995	103.734	19.858	7.365	0.467
688.000	422.481	80.002	19.994	103.734	19.858	7.306	0.504
696.000	426.562	80.003	19.995	103.731	19.861	7.095	0.516
704.000	430.593	80.003	19.994	103.733	19.860	7.209	0.507
712.000	434.650	80.003	19.994	103.732	19.865	6.870	0.513
720.000	438.652	80.001	19.994	103.735	19.871	6.401	0.492
728.000	442.665	80.002	19.996	103.729	19.873	6.278	0.516
736.000	446.572	80.002	19.995	103.717	19.876	6.088	0.475
744.000	450.508	80.002	19.994	103.731	19.874	6.245	0.473
752.000	454.483	79.999	19.997	103.728	19.880	5.808	0.487
760.000	458.492	80.003	19.995	103.729	19.885	5.446	0.507
768.000	462.638	80.005	19.993	103.729	19.885	5.417	0.505
776.000	466.767	80.000	19.994	103.730	19.886	5.369	0.508
784.000	470.867	80.002	19.994	103.727	19.893	4.864	0.553
792.000	475.079	80.003	19.995	103.726	19.896	4.694	0.531
800.000	479.197	80.003	19.994	103.726	19.903	4.201	0.505
808.000	483.322	79.998	19.994	103.722	19.906	3.997	0.500
816.000	487.366	80.000	19.996	103.729	19.907	3.897	0.500
824.000	491.394	80.000	19.994	103.716	19.909	3.762	0.472
832.000	495.482	80.002	19.995	103.702	19.916	3.282	0.514
840.000	499.478	80.000	19.995	103.718	19.917	3.192	0.517
848.000	503.473	80.001	19.996	103.697	19.915	3.335	0.530
856.000	507.388	80.002	19.995	103.703	19.916	3.279	0.488
864.000	511.397	80.003	19.994	103.705	19.916	3.256	0.515
872.000	515.420	80.004	19.995	103.708	19.921	2.945	0.539
880.000	519.515	80.000	19.995	103.706	19.923	2.794	0.523
888.000	523.587	80.001	19.993	103.719	19.923	2.775	0.506
896.000	527.639	80.001	19.995	103.715	19.923	2.773	0.507
904.000	531.757	80.000	19.995	103.698	19.929	2.402	0.542
912.000	535.878	80.000	19.996	103.710	19.925	2.643	0.533
920.000	539.924	80.002	19.995	103.692	19.929	2.404	0.493
928.000	543.998	80.002	19.995	103.696	19.923	2.790	0.531
936.000	548.120	80.003	19.996	103.693	19.925	2.631	0.487
944.000	552.205	80.003	19.996	103.699	19.925	2.659	0.514
952.000	556.322	80.001	19.995	103.704	19.923	2.767	0.510
960.000	560.372	80.000	19.995	103.703	19.924	2.753	0.503
968.000	564.471	80.000	19.994	103.707	19.926	2.587	0.515
976.000	568.524	80.002	19.994	103.696	19.929	2.390	0.519
984.001	572.537	80.001	19.994	103.692	19.929	2.403	0.494
992.001	576.600	80.002	19.995	103.694	19.928	2.419	0.497
1000.000	580.620	80.003	19.995	103.696	19.930	2.305	0.503
1008.000	584.584	80.002	19.995	103.692	19.927	2.515	0.490
1016.000	588.630	80.002	19.997	103.712	19.930	2.283	0.529
1024.000	592.647	80.002	19.995	103.692	19.929	2.347	0.493
1032.000	596.717	80.002	19.995	103.694	19.932	2.148	0.503
1040.000	600.775	80.001	19.994	103.695	19.933	2.109	0.499
1048.000	604.837	80.001	19.994	103.693	19.926	2.614	0.517
1056.001	608.914	80.002	19.994	103.704	19.927	2.535	0.483
1064.000	613.013	80.002	19.995	103.696	19.925	2.636	0.530
1072.001	617.095	80.001	19.994	103.692	19.924	2.750	0.500
1080.000	621.145	80.003	19.994	103.696	19.927	2.549	0.486
1088.000	625.233	80.002	19.994	103.697	19.924	2.752	0.515
1096.000	629.274	80.002	19.996	103.702	19.926	2.608	0.514
1104.001	633.356	80.001	19.994	103.696	19.926	2.605	0.471
1112.001	637.427	80.000	19.995	103.696	19.926	2.622	0.511
1120.000	641.465	80.000	19.995	103.709	19.923	2.812	0.500
1128.000	645.486	80.000	19.994	103.706	19.921	2.955	0.500
1136.000	649.537	80.001	19.995	103.727	19.926	2.609	0.524
1144.000	653.653	79.999	19.994	103.715	19.922	2.874	0.511
1152.001	657.853	80.001	19.994	103.732	19.922	2.847	0.550
1160.000	662.092	80.003	19.994	103.736	19.921	2.917	0.545
1168.001	666.411	80.001	19.993	103.735	19.918	3.168	0.544
1176.000	670.732	80.001	19.994	103.737	19.918	3.153	0.538
1184.000	675.117	80.003	19.995	103.738	19.913	3.486	0.582
1192.000	679.377	80.000	19.994	103.740	19.917	3.198	0.547
1200.000	683.615	80.001	19.996	103.745	19.914	3.407	0.515
1208.000	687.966	80.000	19.996	103.758	19.908	3.837	0.309
1216.001	692.173	79.999	19.994	103.761	19.907	3.893	0.518
1224.000	696.460	79.999	19.994	103.760	19.910	3.724	0.513
1232.000	700.588	80.001	19.996	103.766	19.911	3.612	0.516
1240.000	704.812	80.003	19.995	103.760	19.908	3.814	0.528
1248.000	708.974	80.003	19.994	103.751	19.910	3.723	0.496
1256.000	713.213	80.002	19.995	103.740	19.912	3.575	0.528
1264.000	717.543	80.004	19.993	103.730	19.909	3.759	0.544
1272.001	721.910	80.001	19.995	103.701	19.912	3.563	0.543
1280.000	726.150	80.001	19.994	103.695	19.914	3.397	0.543
1288.000	730.417	80.001	19.993	103.708	19.912	3.581	0.547
1296.000	734.606	80.000	19.996	103.693	19.913	3.522	0.496
1304.000	738.835	79.999	19.997	103.688	19.913	3.469	0.541
1312.000	743.037	80.002	19.994	103.690	19.914	3.408	0.534
1313.000	743.532	80.002	19.994	103.689	19.913	3.478	0.512