File: 01_Data/EPDM_Membrane/MCC/EPDM_Membrane_MCC_30K_min_211203_R1.txt
Sample ID:	C:\MCC\MCC Cal\Test\EPDM_Membrane_MCC_30K_min_211203_R1.txt
Sample Weight (mg):	4.8
Heating Rate (C/s):	0.5
Combustor Temp (C):	900
N2 Flow Rate (cc/min):	80
O2 Flow Rate (cc/min):	20
Calibration File:	C:\MCC\MCC Cal\Coeff1 JN10440_30_210304.txt.txt
T Correction Coefficients:	0	1.024463	0
Time Shift (s):	14
*
Time (s)	Temperature (C)	N2 flow rate (cc/min)	O2 flow rate (cc/min)	Flow Rate (cc/min)	Oxygen (%)	HRR (W/g)	Heating rate (C/s)
0.000	109.369	80.007	19.994	103.121	20.293	-0.078	0.007
8.000	109.329	80.007	19.994	103.127	20.294	-0.158	0.003
16.000	109.383	80.007	19.994	103.200	20.283	0.588	-0.004
24.000	109.808	80.007	19.995	103.321	20.271	1.418	0.071
32.000	110.701	80.004	19.995	103.328	20.258	2.260	0.157
39.999	112.040	80.005	19.995	103.334	20.249	2.865	0.169
47.999	113.724	80.007	19.994	103.345	20.250	2.824	0.193
55.999	115.737	80.005	19.994	103.336	20.256	2.443	0.245
64.000	117.975	80.007	19.995	103.364	20.252	2.669	0.295
72.000	120.519	80.006	19.994	103.367	20.247	3.005	0.305
79.999	123.279	80.009	19.994	103.369	20.252	2.723	0.357
87.999	126.131	80.007	19.994	103.370	20.251	2.780	0.359
95.999	129.235	80.006	19.994	103.380	20.245	3.178	0.415
104.000	132.453	80.009	19.994	103.381	20.242	3.380	0.385
111.999	135.885	80.008	19.994	103.388	20.242	3.343	0.414
119.999	139.436	80.005	19.995	103.384	20.237	3.710	0.436
128.000	143.192	80.007	19.995	103.391	20.238	3.627	0.480
136.000	147.044	80.006	19.996	103.396	20.235	3.816	0.516
144.000	150.973	80.006	19.994	103.389	20.235	3.834	0.493
152.000	154.948	80.005	19.994	103.392	20.232	4.029	0.529
160.000	158.970	80.008	19.994	103.384	20.233	3.967	0.548
168.000	163.073	80.008	19.993	103.368	20.225	4.503	0.528
176.000	167.178	80.008	19.994	103.360	20.223	4.620	0.502
184.000	171.292	80.008	19.994	103.356	20.213	5.318	0.511
192.000	175.315	80.007	19.994	103.348	20.215	5.158	0.482
200.000	179.330	80.005	19.995	103.334	20.211	5.456	0.547
208.000	183.368	80.005	19.995	103.333	20.202	6.033	0.479
216.000	187.414	80.005	19.995	103.331	20.199	6.233	0.466
224.000	191.358	80.005	19.994	103.330	20.193	6.690	0.490
232.000	195.363	80.005	19.993	103.329	20.181	7.446	0.495
240.000	199.212	80.005	19.995	103.332	20.173	8.009	0.475
248.000	203.163	80.007	19.995	103.327	20.165	8.560	0.474
256.000	207.111	80.008	19.994	103.327	20.161	8.812	0.508
264.000	211.104	80.008	19.994	103.328	20.154	9.257	0.499
272.000	215.056	80.008	19.994	103.331	20.146	9.819	0.476
280.000	219.018	80.008	19.993	103.328	20.141	10.151	0.473
288.000	222.958	80.006	19.994	103.327	20.129	10.979	0.512
296.000	226.872	80.007	19.994	103.315	20.118	11.669	0.500
304.000	230.902	80.006	19.994	103.320	20.111	12.145	0.507
312.000	234.923	80.006	19.995	103.319	20.107	12.432	0.514
320.000	238.946	80.005	19.995	103.313	20.102	12.732	0.516
328.000	243.080	80.007	19.994	103.295	20.089	13.660	0.510
336.000	247.064	80.008	19.993	103.302	20.083	14.039	0.486
344.000	251.175	80.006	19.993	103.303	20.076	14.499	0.501
352.000	255.253	80.007	19.994	103.292	20.072	14.795	0.510
360.000	259.238	80.008	19.992	103.312	20.067	15.135	0.499
368.000	263.245	80.006	19.994	103.297	20.063	15.391	0.472
376.000	267.273	80.007	19.994	103.291	20.052	16.140	0.502
384.000	271.357	80.007	19.995	103.295	20.050	16.245	0.497
392.000	275.349	80.008	19.995	103.290	20.042	16.772	0.491
400.000	279.302	80.005	19.994	103.290	20.041	16.868	0.500
408.000	283.265	80.004	19.995	103.295	20.039	17.001	0.527
416.000	287.267	80.007	19.995	103.291	20.039	16.978	0.497
424.000	291.251	80.007	19.994	103.296	20.037	17.131	0.526
432.000	295.279	80.007	19.994	103.296	20.037	17.148	0.493
440.000	299.351	80.009	19.993	103.288	20.033	17.420	0.535
448.000	303.365	80.010	19.994	103.287	20.026	17.843	0.494
456.000	307.402	80.006	19.994	103.344	20.015	18.601	0.493
464.000	311.547	80.008	19.994	103.291	19.998	19.718	0.513
472.000	315.697	80.007	19.994	103.289	19.979	21.021	0.547
480.000	319.708	80.006	19.995	103.291	19.952	22.848	0.508
488.000	323.804	80.005	19.994	103.290	19.921	24.882	0.514
496.000	327.821	80.007	19.995	103.289	19.881	27.623	0.466
504.000	331.919	80.007	19.996	103.313	19.831	30.930	0.503
512.000	336.021	80.006	19.994	103.272	19.764	35.454	0.487
520.000	340.076	80.010	19.994	103.269	19.683	40.871	0.516
528.000	344.114	80.009	19.993	103.257	19.580	47.782	0.492
536.000	348.100	80.008	19.993	103.253	19.458	55.978	0.462
544.000	352.144	80.006	19.995	103.252	19.315	65.551	0.499
552.000	356.270	80.006	19.994	103.240	19.157	76.167	0.517
560.000	360.256	80.006	19.993	103.220	18.984	87.737	0.490
568.000	364.309	80.008	19.995	103.210	18.816	98.998	0.511
576.000	368.314	80.007	19.995	103.182	18.655	109.807	0.506
584.000	372.355	80.009	19.994	103.173	18.540	117.516	0.527
592.000	376.486	80.007	19.994	103.170	18.472	122.048	0.533
600.000	380.546	80.007	19.995	103.164	18.468	122.327	0.542
608.000	384.207	80.008	19.994	103.170	18.522	118.697	0.154
616.000	388.625	80.007	19.993	103.157	18.628	111.582	0.547
624.000	392.678	80.006	19.993	103.175	18.754	103.120	0.512
632.000	396.751	80.008	19.994	103.172	18.901	93.326	0.525
640.000	400.726	80.008	19.994	103.176	19.032	84.539	0.474
648.000	404.834	80.007	19.993	103.186	19.145	76.942	0.494
656.000	408.812	80.007	19.993	103.194	19.235	70.921	0.502
664.000	412.892	80.009	19.994	103.205	19.299	66.593	0.520
672.000	416.860	80.007	19.995	103.203	19.359	62.576	0.526
680.000	420.879	80.008	19.994	103.200	19.402	59.728	0.503
688.000	424.950	80.008	19.995	103.211	19.444	56.880	0.500
696.000	429.012	80.008	19.993	103.210	19.486	54.074	0.504
704.000	433.116	80.006	19.995	103.209	19.539	50.518	0.505
712.000	437.264	80.006	19.994	103.212	19.590	47.116	0.556
720.000	441.344	80.005	19.995	103.211	19.654	42.811	0.496
728.000	445.433	80.007	19.994	103.218	19.711	38.985	0.502
736.000	449.599	80.005	19.994	103.215	19.772	34.884	0.522
744.000	453.713	80.005	19.995	103.235	19.837	30.551	0.502
752.000	457.827	80.010	19.994	103.233	19.896	26.552	0.539
760.000	461.958	80.006	19.995	103.217	19.948	23.065	0.542
768.000	465.957	80.007	19.994	103.216	20.004	19.343	0.523
776.000	470.019	80.008	19.994	103.225	20.042	16.750	0.492
784.000	474.099	80.010	19.994	103.218	20.085	13.864	0.503
792.000	478.168	80.007	19.996	103.225	20.111	12.132	0.503
800.000	482.255	80.006	19.995	103.216	20.143	9.996	0.517
808.000	486.222	80.006	19.994	103.215	20.165	8.499	0.488
816.000	490.268	80.007	19.994	103.226	20.188	6.966	0.497
824.000	494.329	80.005	19.994	103.218	20.206	5.777	0.518
832.000	498.403	80.008	19.994	103.213	20.219	4.890	0.497
840.000	502.421	80.008	19.994	103.221	20.221	4.750	0.486
848.000	506.580	80.008	19.993	103.228	20.227	4.380	0.515
856.000	510.653	80.007	19.994	103.214	20.241	3.443	0.533
864.000	514.816	80.008	19.994	103.216	20.249	2.867	0.554
872.000	518.991	80.006	19.995	103.221	20.254	2.563	0.471
880.000	523.210	80.006	19.994	103.217	20.247	3.019	0.557
888.000	527.342	80.007	19.994	103.226	20.247	3.048	0.532
896.000	531.623	80.005	19.996	103.214	20.243	3.265	0.558
904.000	535.884	80.006	19.995	103.219	20.249	2.910	0.537
912.000	540.076	80.006	19.994	103.211	20.253	2.591	0.523
920.000	544.265	80.007	19.994	103.213	20.248	2.976	0.517
928.000	548.385	80.006	19.994	103.214	20.249	2.912	0.529
936.000	552.573	80.007	19.994	103.214	20.252	2.717	0.502
944.000	556.764	80.009	19.993	103.213	20.256	2.450	0.497
952.000	560.861	80.007	19.993	103.214	20.254	2.563	0.526
960.000	564.906	80.008	19.995	103.209	20.254	2.563	0.488
968.000	569.000	80.006	19.996	103.212	20.249	2.897	0.504
976.000	573.051	80.005	19.994	103.215	20.250	2.819	0.533
984.000	577.149	80.007	19.996	103.217	20.252	2.680	0.478
992.000	581.246	80.005	19.996	103.212	20.249	2.924	0.527
1000.000	585.347	80.007	19.995	103.218	20.254	2.563	0.535
1008.000	589.429	80.007	19.993	103.216	20.250	2.810	0.515
1016.000	593.542	80.006	19.994	103.215	20.247	3.043	0.533
1024.001	597.602	80.008	19.994	103.219	20.250	2.825	0.482
1032.000	601.630	80.008	19.993	103.219	20.246	3.071	0.519
1040.001	605.690	80.007	19.994	103.227	20.245	3.150	0.535
1048.000	609.734	80.006	19.994	103.213	20.247	3.015	0.501
1056.000	613.868	80.005	19.994	103.219	20.246	3.067	0.551
1064.000	617.988	80.006	19.994	103.212	20.241	3.442	0.536
1071.999	622.005	80.005	19.994	103.214	20.251	2.762	0.523
1079.999	626.054	80.005	19.994	103.238	20.251	2.734	0.523
1087.999	630.193	80.008	19.996	103.227	20.249	2.879	0.496
1095.999	634.287	80.006	19.994	103.223	20.241	3.422	0.535
1103.999	638.340	80.007	19.994	103.249	20.250	2.857	0.500
1111.999	642.429	80.006	19.994	103.243	20.246	3.115	0.508
1120.000	646.495	80.008	19.995	103.252	20.241	3.402	0.502
1127.999	650.607	80.005	19.995	103.264	20.243	3.330	0.496
1135.999	654.704	80.007	19.994	103.261	20.241	3.448	0.516
1143.999	658.755	80.007	19.996	103.256	20.238	3.621	0.499
1151.999	662.810	80.005	19.994	103.267	20.235	3.860	0.528
1160.000	666.791	80.005	19.995	103.267	20.240	3.512	0.512
1168.000	670.875	80.006	19.994	103.259	20.237	3.685	0.478
1175.999	674.989	80.006	19.993	103.268	20.238	3.618	0.520
1183.999	679.011	80.006	19.996	103.251	20.237	3.681	0.537
1191.999	683.046	80.008	19.994	103.251	20.236	3.757	0.499
1199.999	687.104	80.009	19.993	103.245	20.244	3.223	0.526
1208.000	691.247	80.007	19.994	103.225	20.245	3.143	0.543
1216.000	695.488	80.007	19.993	103.217	20.245	3.189	0.539
1223.999	699.549	80.008	19.994	103.211	20.249	2.889	0.501
1231.999	703.625	80.007	19.994	103.201	20.250	2.793	0.522
1239.999	707.821	80.007	19.994	103.200	20.249	2.865	0.540
1248.001	711.811	80.006	19.994	103.192	20.241	3.420	0.494
1255.999	715.807	80.010	19.995	103.194	20.242	3.384	0.470
1263.999	719.860	80.007	19.994	103.182	20.244	3.207	0.520
1272.001	723.936	80.008	19.994	103.206	20.250	2.826	0.514
1280.000	728.007	80.010	19.995	103.194	20.247	3.002	0.573
1288.000	731.980	80.006	19.994	103.199	20.245	3.193	0.512
1295.999	735.952	80.007	19.993	103.198	20.246	3.079	0.489
1303.999	739.953	80.009	19.994	103.196	20.246	3.087	0.528
1311.000	743.455	80.007	19.994	103.198	20.246	3.098	0.495