File: 01_Data/EPDM_Membrane/MCC/EPDM_Membrane_MCC_30K_min_211203_R2.txt
Sample ID:	C:\MCC\MCC Cal\Test\EPDM_Membrane_MCC_30K_min_211203_R2.txt
Sample Weight (mg):	4.17
Heating Rate (C/s):	0.5
Combustor Temp (C):	900
N2 Flow Rate (cc/min):	80
O2 Flow Rate (cc/min):	20
Calibration File:	C:\MCC\MCC Cal\Coeff1 JN10440_30_210304.txt.txt
T Correction Coefficients:	0	1.024463	0
Time Shift (s):	14
*
Time (s)	Temperature (C)	N2 flow rate (cc/min)	O2 flow rate (cc/min)	Flow Rate (cc/min)	Oxygen (%)	HRR (W/g)	Heating rate (C/s)
0.000	110.717	80.007	19.993	103.130	20.278	-0.141	0.026
8.001	110.703	80.005	19.994	103.132	20.280	-0.228	-0.021
16.001	110.698	80.006	19.994	103.171	20.273	0.271	0.023
24.000	110.971	80.005	19.995	103.296	20.255	1.651	0.055
32.000	111.698	80.004	19.994	103.310	20.247	2.279	0.098
40.001	112.821	80.005	19.995	103.331	20.242	2.668	0.177
48.001	114.325	80.007	19.993	103.331	20.237	3.063	0.184
56.000	116.164	80.007	19.996	103.336	20.237	3.070	0.218
64.000	118.354	80.006	19.995	103.344	20.234	3.337	0.333
72.001	120.793	80.008	19.995	103.367	20.234	3.312	0.304
80.000	123.554	80.006	19.994	103.373	20.228	3.748	0.358
88.000	126.540	80.005	19.994	103.391	20.225	3.979	0.333
96.000	129.752	80.006	19.994	103.389	20.227	3.869	0.378
104.000	133.219	80.005	19.992	103.391	20.225	4.018	0.450
112.000	136.781	80.005	19.995	103.387	20.226	3.886	0.438
120.000	140.478	80.005	19.993	103.373	20.224	4.059	0.430
128.001	144.350	80.008	19.994	103.369	20.220	4.385	0.494
136.000	148.254	80.007	19.996	103.370	20.224	4.106	0.503
144.000	152.228	80.006	19.994	103.367	20.220	4.358	0.499
152.000	156.133	80.007	19.994	103.359	20.219	4.434	0.450
160.001	160.143	80.009	19.995	103.365	20.218	4.519	0.473
168.000	164.147	80.005	19.996	103.362	20.214	4.848	0.503
176.000	168.258	80.002	19.996	103.356	20.209	5.233	0.508
184.000	172.277	80.006	19.995	103.352	20.205	5.534	0.502
192.000	176.333	80.005	19.995	103.329	20.202	5.792	0.525
200.000	180.326	80.005	19.995	103.331	20.195	6.279	0.482
208.000	184.367	80.006	19.995	103.330	20.189	6.797	0.506
216.000	188.413	80.009	19.995	103.321	20.184	7.163	0.499
224.001	192.370	80.006	19.994	103.329	20.175	7.847	0.510
232.000	196.316	80.006	19.995	103.329	20.170	8.232	0.486
240.000	200.236	80.010	19.994	103.330	20.159	9.080	0.497
248.000	204.191	80.007	19.995	103.326	20.149	9.855	0.497
256.000	208.151	80.005	19.995	103.321	20.146	10.086	0.524
264.000	212.099	80.005	19.994	103.317	20.138	10.685	0.539
272.000	216.033	80.006	19.995	103.307	20.133	11.132	0.463
280.000	219.983	80.005	19.996	103.299	20.128	11.524	0.490
288.000	224.006	80.005	19.994	103.298	20.124	11.771	0.519
296.000	227.963	80.006	19.994	103.314	20.116	12.436	0.529
304.000	231.967	80.007	19.994	103.303	20.114	12.590	0.475
312.000	235.984	80.006	19.995	103.293	20.111	12.771	0.523
320.000	239.950	80.007	19.994	103.290	20.107	13.106	0.481
328.001	243.969	80.007	19.994	103.289	20.102	13.481	0.536
336.000	247.873	80.005	19.994	103.293	20.098	13.769	0.475
344.000	251.958	80.005	19.994	103.288	20.090	14.399	0.479
352.000	255.888	80.003	19.995	103.289	20.083	14.970	0.535
360.001	259.838	80.005	19.994	103.291	20.076	15.500	0.542
368.000	263.779	80.004	19.994	103.302	20.069	16.080	0.491
376.000	267.707	80.003	19.996	103.289	20.069	16.073	0.507
384.000	271.708	80.007	19.993	103.289	20.065	16.322	0.524
392.000	275.768	80.007	19.994	103.289	20.063	16.475	0.530
400.000	279.779	80.006	19.993	103.289	20.065	16.322	0.488
408.000	283.742	80.008	19.994	103.288	20.062	16.620	0.517
416.000	287.788	80.008	19.993	103.284	20.063	16.519	0.504
424.000	291.786	80.006	19.994	103.289	20.059	16.803	0.525
432.000	295.791	80.005	19.994	103.286	20.060	16.711	0.491
440.001	299.871	80.006	19.995	103.292	20.050	17.499	0.538
448.001	303.925	80.006	19.994	103.288	20.048	17.662	0.505
456.000	307.897	80.004	19.994	103.285	20.033	18.850	0.498
464.000	311.980	80.006	19.994	103.268	20.019	19.909	0.528
472.000	316.046	80.008	19.996	103.266	20.000	21.405	0.505
480.000	320.070	80.008	19.995	103.275	19.976	23.220	0.503
488.000	324.143	80.008	19.994	103.260	19.951	25.198	0.499
496.000	328.232	80.007	19.993	103.264	19.905	28.722	0.514
504.000	332.266	80.006	19.993	103.264	19.868	31.539	0.492
512.000	336.295	80.006	19.994	103.253	19.798	37.007	0.490
520.000	340.292	80.007	19.993	103.250	19.721	42.949	0.532
528.000	344.277	80.006	19.993	103.245	19.632	49.817	0.482
536.000	348.339	80.006	19.995	103.239	19.521	58.380	0.504
544.000	352.446	80.004	19.994	103.214	19.394	68.191	0.509
552.000	356.456	80.005	19.992	103.207	19.256	78.829	0.536
560.000	360.504	80.007	19.994	103.192	19.100	90.976	0.472
568.000	364.522	80.005	19.995	103.216	18.966	101.167	0.519
576.000	368.774	80.008	19.993	103.174	18.841	110.787	0.685
584.000	372.619	80.007	19.994	103.160	18.752	117.653	0.533
592.000	376.618	80.005	19.994	103.149	18.714	120.505	0.539
600.000	380.665	80.005	19.993	103.135	18.712	120.732	0.537
608.000	384.752	80.006	19.994	103.144	18.769	116.392	0.496
616.001	388.790	80.005	19.994	103.140	18.871	108.519	0.510
624.000	392.824	80.004	19.994	103.141	18.981	99.987	0.501
632.000	396.972	80.005	19.995	103.173	19.104	90.492	0.490
640.000	401.039	80.007	19.994	103.176	19.214	82.041	0.516
648.000	405.188	80.007	19.994	103.181	19.302	75.216	0.517
656.000	409.239	80.007	19.994	103.177	19.380	69.187	0.518
664.000	413.300	80.008	19.995	103.171	19.438	64.772	0.494
672.000	417.322	80.005	19.994	103.141	19.486	61.004	0.515
680.000	421.301	80.006	19.994	103.140	19.529	57.698	0.462
688.000	425.408	80.005	19.994	103.149	19.567	54.758	0.518
696.001	429.430	80.005	19.993	103.177	19.607	51.660	0.504
704.000	433.543	80.004	19.994	103.178	19.652	48.191	0.537
712.000	437.585	80.005	19.994	103.176	19.701	44.407	0.500
720.000	441.638	80.006	19.994	103.181	19.755	40.277	0.501
728.000	445.678	80.006	19.993	103.187	19.808	36.220	0.481
736.000	449.741	80.006	19.995	103.187	19.861	32.120	0.510
744.000	453.795	80.008	19.994	103.191	19.910	28.278	0.495
752.000	457.832	80.006	19.995	103.190	19.962	24.287	0.495
760.000	461.909	80.004	19.995	103.203	20.008	20.762	0.504
768.000	466.020	80.003	19.994	103.201	20.052	17.328	0.545
776.001	470.078	80.006	19.993	103.204	20.084	14.914	0.526
784.000	474.272	80.006	19.993	103.192	20.115	12.485	0.554
792.000	478.317	80.004	19.993	103.182	20.141	10.448	0.526
800.000	482.395	80.008	19.994	103.180	20.166	8.573	0.500
808.001	486.459	80.007	19.992	103.186	20.180	7.494	0.506
816.000	490.471	80.007	19.994	103.181	20.200	5.880	0.526
824.000	494.557	80.006	19.995	103.187	20.212	5.010	0.511
832.000	498.619	80.007	19.993	103.178	20.221	4.325	0.486
840.000	502.715	80.006	19.994	103.188	20.229	3.666	0.505
848.000	506.827	80.004	19.995	103.193	20.240	2.860	0.510
856.000	510.977	80.005	19.996	103.180	20.243	2.592	0.512
864.000	515.121	80.006	19.994	103.181	20.244	2.511	0.513
872.000	519.193	80.005	19.994	103.175	20.250	2.033	0.523
880.000	523.359	80.006	19.993	103.175	20.253	1.803	0.532
888.000	527.478	80.005	19.994	103.180	20.255	1.709	0.507
896.000	531.622	80.005	19.993	103.182	20.252	1.937	0.525
904.000	535.721	80.006	19.993	103.180	20.256	1.615	0.520
912.000	539.808	80.008	19.995	103.180	20.257	1.551	0.494
920.000	543.854	80.007	19.994	103.174	20.254	1.741	0.511
928.001	547.883	80.006	19.994	103.174	20.257	1.490	0.494
936.000	551.982	80.006	19.995	103.181	20.260	1.258	0.521
944.000	556.141	80.004	19.994	103.186	20.260	1.274	0.521
952.000	560.317	80.004	19.995	103.195	20.256	1.617	0.519
960.000	564.393	80.006	19.993	103.177	20.258	1.419	0.495
968.000	568.442	80.006	19.994	103.186	20.260	1.323	0.528
976.000	572.545	80.005	19.993	103.172	20.258	1.402	0.519
984.000	576.714	80.006	19.994	103.175	20.264	0.950	0.528
992.001	580.834	80.008	19.994	103.175	20.266	0.788	0.519
1000.000	584.949	80.008	19.994	103.172	20.263	1.089	0.528
1008.001	589.115	80.006	19.994	103.183	20.261	1.206	0.503
1016.000	593.150	80.005	19.995	103.175	20.265	0.925	0.516
1024.000	597.338	80.004	19.994	103.182	20.270	0.535	0.534
1032.001	601.465	80.005	19.994	103.177	20.272	0.367	0.534
1040.000	605.619	80.004	19.995	103.179	20.268	0.705	0.526
1048.000	609.772	80.006	19.995	103.180	20.265	0.897	0.521
1056.001	613.843	80.007	19.994	103.184	20.268	0.682	0.512
1064.000	617.969	80.007	19.994	103.183	20.269	0.599	0.523
1072.000	622.005	80.006	19.994	103.186	20.267	0.776	0.485
1080.001	626.045	80.008	19.994	103.198	20.269	0.578	0.489
1088.000	630.183	80.004	19.993	103.200	20.272	0.371	0.554
1096.002	634.303	80.005	19.994	103.200	20.273	0.245	0.539
1104.000	638.417	80.004	19.994	103.208	20.275	0.151	0.471
1112.001	642.499	80.005	19.995	103.212	20.271	0.441	0.483
1120.000	646.512	80.003	19.995	103.211	20.273	0.252	0.496
1128.000	650.612	80.005	19.995	103.212	20.269	0.620	0.544
1136.000	654.699	80.005	19.994	103.212	20.269	0.603	0.507
1144.001	658.846	80.005	19.995	103.220	20.270	0.486	0.599
1152.000	662.881	80.005	19.995	103.222	20.276	0.083	0.534
1160.000	667.025	80.007	19.993	103.216	20.269	0.556	0.511
1168.000	671.057	80.005	19.994	103.218	20.273	0.247	0.508
1176.000	675.212	80.005	19.994	103.216	20.271	0.463	0.526
1184.000	679.365	80.004	19.993	103.213	20.277	-0.009	0.527
1192.000	683.470	80.005	19.994	103.211	20.279	-0.156	0.480
1200.000	687.581	80.003	19.994	103.198	20.282	-0.443	0.490
1208.000	691.712	80.005	19.995	103.179	20.284	-0.565	0.512
1216.000	695.880	80.006	19.995	103.177	20.283	-0.477	0.519
1224.000	699.897	80.005	19.995	103.175	20.283	-0.471	0.500
1232.001	703.974	80.005	19.994	103.169	20.284	-0.580	0.519
1240.000	707.924	80.008	19.993	103.163	20.282	-0.422	0.510
1248.000	711.858	80.006	19.994	103.169	20.285	-0.669	0.473
1256.000	715.917	80.005	19.994	103.169	20.288	-0.848	0.501
1264.000	719.929	80.005	19.995	103.167	20.286	-0.712	0.480
1272.000	723.935	80.004	19.994	103.164	20.292	-1.170	0.503
1280.000	727.903	80.005	19.994	103.173	20.286	-0.718	0.486
1288.001	731.894	80.004	19.994	103.170	20.287	-0.790	0.509
1296.001	735.849	80.007	19.994	103.160	20.288	-0.854	0.513
1304.000	739.789	80.006	19.994	103.169	20.288	-0.861	0.535
1311.501	743.600	80.007	19.995	103.162	20.287	-0.823	0.488