File: 01_Data/Tyvek_Wrap/MCC/Tyvek_Wrap_MCC_30K_min_220211_R3.txt
Sample ID:	C:\MCC\MCC Cal\Test\Tyvek_Wrap_MCC_30K_min_220211_R3.txt
Sample Weight (mg):	4.55
Heating Rate (C/s):	0.5
Combustor Temp (C):	900
N2 Flow Rate (cc/min):	80
O2 Flow Rate (cc/min):	20
Calibration File:	C:\MCC\MCC Cal\Coeff1 JN10440_30_210304.txt.txt
T Correction Coefficients:	0	1.024463	0
Time Shift (s):	14
*
Time (s)	Temperature (C)	N2 flow rate (cc/min)	O2 flow rate (cc/min)	Flow Rate (cc/min)	Oxygen (%)	HRR (W/g)	Heating rate (C/s)
0.000	112.321	80.011	19.994	103.627	19.894	0.193	0.007
8.000	112.290	80.008	19.994	103.656	19.892	0.308	-0.004
16.000	112.401	80.010	19.993	103.748	19.874	1.604	-0.014
24.000	112.923	80.009	19.993	103.748	19.872	1.747	0.046
32.000	113.643	80.008	19.993	103.777	19.869	1.970	0.112
40.000	114.612	80.006	19.995	103.810	19.863	2.367	0.128
48.000	115.924	80.007	19.994	103.857	19.858	2.763	0.196
56.000	117.586	80.010	19.992	103.836	19.852	3.154	0.246
64.000	119.577	80.007	19.994	103.853	19.847	3.522	0.276
72.000	121.945	80.009	19.994	103.877	19.846	3.602	0.331
80.000	124.648	80.011	19.993	103.893	19.844	3.756	0.388
88.000	127.507	80.010	19.993	103.881	19.845	3.688	0.380
96.000	130.530	80.008	19.993	103.891	19.846	3.623	0.396
104.000	133.848	80.008	19.993	103.893	19.846	3.598	0.440
112.001	137.308	80.008	19.994	103.899	19.844	3.730	0.413
120.000	140.892	80.008	19.993	103.897	19.846	3.602	0.451
128.000	144.624	80.008	19.993	103.945	19.844	3.751	0.462
136.000	148.381	80.009	19.995	103.897	19.847	3.539	0.482
144.000	152.253	80.009	19.994	103.888	19.847	3.543	0.459
152.000	156.218	80.009	19.995	103.916	19.848	3.468	0.516
160.000	160.132	80.010	19.994	103.894	19.851	3.224	0.484
168.000	164.113	80.008	19.994	103.869	19.848	3.433	0.512
176.000	168.073	80.008	19.994	103.894	19.852	3.206	0.466
184.000	172.136	80.007	19.993	103.868	19.847	3.516	0.470
192.000	176.120	80.007	19.994	103.856	19.845	3.680	0.471
200.000	180.092	80.009	19.994	103.859	19.847	3.534	0.473
208.000	184.092	80.008	19.994	103.857	19.846	3.613	0.490
216.000	188.112	80.008	19.994	103.847	19.846	3.604	0.519
224.000	192.088	80.010	19.993	103.851	19.848	3.472	0.486
232.000	196.062	80.009	19.995	103.844	19.850	3.296	0.498
240.000	200.034	80.007	19.995	103.849	19.846	3.600	0.486
248.000	204.005	80.009	19.993	103.852	19.850	3.355	0.498
256.000	208.035	80.006	19.994	103.824	19.850	3.290	0.521
264.000	211.990	80.008	19.996	103.836	19.847	3.519	0.522
272.000	215.945	80.007	19.997	103.835	19.857	2.842	0.504
280.000	219.927	80.008	19.994	103.840	19.854	3.006	0.518
288.000	223.942	80.008	19.993	103.824	19.853	3.096	0.483
296.000	227.947	80.008	19.994	103.825	19.852	3.212	0.501
304.000	231.998	80.010	19.993	103.860	19.854	3.031	0.487
312.000	235.977	80.009	19.992	103.791	19.850	3.328	0.487
320.000	239.938	80.007	19.994	103.812	19.852	3.216	0.468
328.000	243.888	80.010	19.993	103.821	19.858	2.783	0.500
336.000	247.884	80.010	19.994	103.814	19.852	3.189	0.479
344.000	251.969	80.008	19.994	103.812	19.854	3.012	0.501
352.000	255.994	80.007	19.995	103.810	19.855	2.959	0.510
360.000	259.971	80.007	19.994	103.820	19.857	2.829	0.495
368.000	264.012	80.006	19.995	103.825	19.856	2.889	0.494
376.000	267.993	80.007	19.994	103.822	19.853	3.124	0.496
384.000	272.068	80.009	19.994	103.796	19.853	3.142	0.511
392.000	276.064	80.011	19.995	103.786	19.854	3.071	0.517
400.000	280.045	80.009	19.994	103.793	19.852	3.161	0.508
408.000	284.056	80.011	19.992	103.786	19.855	3.001	0.516
416.000	288.017	80.010	19.994	103.811	19.856	2.911	0.502
424.000	292.078	80.009	19.993	103.794	19.855	2.960	0.543
432.000	296.059	80.007	19.994	103.788	19.853	3.122	0.502
440.000	300.139	80.010	19.993	103.798	19.856	2.907	0.534
448.000	304.138	80.009	19.994	103.808	19.852	3.198	0.502
456.000	308.127	80.009	19.994	103.784	19.852	3.202	0.509
464.000	312.200	80.007	19.994	103.810	19.857	2.825	0.506
472.000	316.229	80.009	19.994	103.789	19.852	3.178	0.519
480.000	320.274	80.009	19.993	103.786	19.853	3.118	0.495
488.000	324.302	80.010	19.994	103.785	19.852	3.153	0.518
496.000	328.364	80.011	19.992	103.787	19.859	2.706	0.537
504.000	332.337	80.009	19.993	103.785	19.855	2.937	0.476
512.000	336.438	80.007	19.995	103.784	19.857	2.835	0.517
520.001	340.501	80.008	19.995	103.778	19.853	3.085	0.508
528.000	344.516	80.008	19.993	103.783	19.856	2.903	0.527
536.000	348.539	80.007	19.994	103.784	19.860	2.603	0.516
544.001	352.593	80.008	19.995	103.785	19.857	2.851	0.540
552.000	356.642	80.010	19.995	103.773	19.855	2.958	0.539
560.000	360.700	80.009	19.995	103.784	19.852	3.159	0.497
568.000	364.723	80.010	19.993	103.783	19.853	3.137	0.472
576.000	368.785	80.010	19.993	103.784	19.848	3.467	0.497
584.000	372.900	80.010	19.992	103.782	19.848	3.429	0.498
592.000	377.003	80.009	19.993	103.781	19.850	3.335	0.528
600.000	381.125	80.009	19.994	103.764	19.848	3.490	0.554
608.000	385.171	80.009	19.992	103.776	19.843	3.798	0.499
616.000	389.235	80.009	19.994	103.769	19.840	4.065	0.494
624.000	393.362	80.007	19.994	103.765	19.836	4.283	0.518
632.000	397.469	80.008	19.994	103.787	19.827	4.946	0.487
640.000	401.494	80.009	19.995	103.753	19.818	5.579	0.480
648.000	405.658	80.009	19.994	103.751	19.808	6.303	0.560
656.000	409.670	80.008	19.994	103.745	19.799	6.924	0.520
664.000	413.731	80.009	19.994	103.748	19.785	7.917	0.484
672.000	417.968	80.007	19.994	103.766	19.764	9.437	0.555
680.000	422.141	80.009	19.994	103.793	19.746	10.751	0.484
688.000	426.314	80.008	19.995	103.749	19.729	11.956	0.511
696.000	430.463	80.010	19.992	103.734	19.715	12.891	0.540
704.001	434.606	80.007	19.993	103.782	19.671	16.065	0.517
712.000	438.695	80.008	19.994	103.748	19.613	20.208	0.482
720.000	442.714	80.011	19.995	103.739	19.531	26.001	0.486
728.000	446.727	80.009	19.993	103.733	19.422	33.780	0.503
736.001	450.717	80.010	19.995	103.704	19.245	46.298	0.435
744.000	454.985	80.010	19.995	103.665	19.031	61.598	0.213
752.000	458.847	80.008	19.996	103.670	18.710	84.242	0.507
760.000	462.958	80.007	19.994	103.522	18.261	116.079	0.524
768.000	467.004	80.008	19.993	103.670	17.701	155.814	0.539
776.000	471.047	80.010	19.994	103.534	17.043	202.181	0.473
784.000	475.118	80.009	19.995	103.391	16.130	266.194	0.508
792.000	479.128	80.008	19.994	103.114	14.925	350.354	0.530
800.000	483.130	80.009	19.995	102.874	13.461	452.458	0.501
808.000	487.096	80.008	19.994	102.584	11.928	558.834	0.481
816.000	491.088	80.009	19.994	102.364	10.560	654.851	0.515
824.000	495.141	80.010	19.994	102.226	9.822	705.756	0.509
832.000	499.194	80.008	19.993	101.842	10.393	670.051	0.499
840.000	503.338	80.007	19.995	102.638	12.737	507.512	0.509
848.000	507.562	80.009	19.995	103.168	15.803	291.687	0.520
856.000	511.797	80.009	19.994	103.790	18.232	118.592	0.524
864.000	516.064	80.008	19.995	103.962	19.383	36.541	0.542
872.000	520.261	80.009	19.994	103.829	19.729	11.927	0.546
880.000	524.388	80.010	19.993	103.758	19.808	6.326	0.529
888.001	528.543	80.008	19.993	103.743	19.830	4.744	0.523
896.000	532.699	80.009	19.993	103.723	19.836	4.342	0.554
904.000	536.840	80.009	19.994	103.716	19.838	4.168	0.491
912.000	540.929	80.011	19.994	103.544	19.840	4.046	0.506
920.000	545.047	80.009	19.995	103.688	19.838	4.140	0.510
928.000	549.141	80.008	19.994	103.741	19.846	3.588	0.499
936.000	553.268	80.008	19.996	103.744	19.840	4.007	0.503
944.000	557.366	80.008	19.996	103.740	19.842	3.892	0.502
952.000	561.530	80.008	19.992	103.735	19.841	3.954	0.512
960.000	565.596	80.009	19.994	103.729	19.840	4.038	0.499
968.000	569.641	80.009	19.992	103.716	19.841	3.938	0.510
976.000	573.739	80.008	19.994	103.731	19.842	3.915	0.520
984.001	577.832	80.009	19.995	103.717	19.842	3.867	0.493
992.000	581.914	80.011	19.994	103.743	19.844	3.767	0.497
1000.000	585.972	80.008	19.994	103.735	19.842	3.921	0.522
1008.000	590.103	80.007	19.994	103.740	19.839	4.102	0.532
1016.000	594.271	80.008	19.994	103.732	19.846	3.638	0.532
1024.000	598.370	80.007	19.995	103.737	19.844	3.716	0.503
1032.001	602.511	80.006	19.995	103.725	19.842	3.874	0.505
1040.000	606.589	80.007	19.995	103.724	19.839	4.098	0.503
1048.000	610.625	80.010	19.992	103.724	19.842	3.854	0.508
1056.001	614.733	80.011	19.994	103.724	19.851	3.230	0.543
1064.000	618.863	80.008	19.994	103.709	19.845	3.710	0.551
1072.000	622.983	80.010	19.993	103.712	19.848	3.436	0.528
1080.001	627.062	80.011	19.992	103.739	19.847	3.541	0.535
1088.000	631.206	80.008	19.993	103.747	19.846	3.639	0.545
1096.000	635.386	80.008	19.994	103.747	19.845	3.678	0.535
1104.001	639.522	80.009	19.993	103.746	19.848	3.469	0.494
1112.001	643.633	80.007	19.995	103.746	19.848	3.430	0.509
1120.000	647.768	80.008	19.995	103.741	19.847	3.536	0.515
1128.000	651.885	80.009	19.994	103.735	19.846	3.627	0.514
1136.000	656.022	80.009	19.994	103.736	19.843	3.788	0.510
1144.001	660.043	80.009	19.994	103.732	19.841	3.935	0.496
1152.000	664.082	80.010	19.994	103.740	19.842	3.885	0.513
1160.000	668.111	80.012	19.995	103.774	19.850	3.317	0.493
1168.000	672.249	80.007	19.993	103.766	19.848	3.479	0.548
1176.000	676.330	80.008	19.993	103.730	19.846	3.608	0.513
1184.000	680.376	80.010	19.992	103.743	19.842	3.883	0.519
1192.000	684.316	80.008	19.993	103.740	19.839	4.087	0.471
1200.001	688.288	80.008	19.993	103.736	19.842	3.857	0.486
1208.000	692.305	80.007	19.996	103.793	19.843	3.807	0.506
1216.000	696.476	80.010	19.995	103.724	19.837	4.251	0.559
1224.000	700.558	80.009	19.994	103.750	19.838	4.140	0.528
1232.000	704.645	80.009	19.997	103.746	19.837	4.247	0.510
1240.000	708.783	80.011	19.994	103.750	19.839	4.134	0.485
1248.000	712.870	80.009	19.993	103.733	19.841	3.972	0.495
1256.000	717.099	80.007	19.995	103.746	19.840	4.013	0.535
1264.001	721.198	80.009	19.994	103.745	19.836	4.306	0.474
1272.000	725.336	80.009	19.993	103.744	19.839	4.112	0.473
1280.000	729.376	80.008	19.993	103.737	19.840	4.021	0.515
1288.000	733.436	80.008	19.994	103.748	19.841	3.970	0.504
1296.000	737.406	80.009	19.995	103.723	19.839	4.077	0.504
1304.000	741.488	80.008	19.994	103.731	19.838	4.157	0.532
1308.000	743.470	80.010	19.995	103.733	19.840	4.009	0.496