File: 01_Data/Tyvek_Wrap/MCC/Tyvek_Wrap_MCC_30K_min_220210_R1.txt
Sample ID:	C:\MCC\MCC Cal\Test\Tyvek_Wrap_MCC_30K_min_220210_R1.txt
Sample Weight (mg):	4.23
Heating Rate (C/s):	0.5
Combustor Temp (C):	900
N2 Flow Rate (cc/min):	80
O2 Flow Rate (cc/min):	20
Calibration File:	C:\MCC\MCC Cal\Coeff1 JN10440_30_210304.txt.txt
T Correction Coefficients:	0	1.024463	0
Time Shift (s):	14
*
Time (s)	Temperature (C)	N2 flow rate (cc/min)	O2 flow rate (cc/min)	Flow Rate (cc/min)	Oxygen (%)	HRR (W/g)	Heating rate (C/s)
0.000	111.151	80.005	19.993	103.673	20.069	0.111	-0.028
8.000	111.150	80.000	19.996	103.678	20.070	0.000	0.010
16.000	111.122	80.016	19.992	103.684	20.070	0.038	-0.000
24.000	111.180	80.019	19.991	103.704	20.061	0.673	0.015
32.000	111.339	79.998	19.991	103.754	20.050	1.514	0.023
40.000	111.868	80.008	19.993	103.860	20.033	2.810	0.108
48.001	112.770	80.004	19.993	103.863	20.025	3.424	0.152
56.001	114.074	80.006	19.994	103.878	20.022	3.712	0.177
64.000	115.742	80.006	19.993	103.920	20.014	4.313	0.230
72.001	117.767	80.008	19.993	103.941	20.013	4.377	0.278
80.001	120.106	80.010	19.992	103.939	20.008	4.776	0.284
88.000	122.817	79.996	19.994	103.941	20.006	4.898	0.339
96.001	125.760	79.999	19.994	103.949	20.007	4.878	0.373
104.000	129.051	80.010	19.992	103.954	20.007	4.860	0.419
112.000	132.531	80.005	19.994	103.958	20.006	4.932	0.434
120.000	136.232	80.009	19.993	103.960	20.005	4.957	0.480
128.000	140.061	80.007	19.993	103.962	20.004	5.088	0.443
136.000	143.987	80.012	19.991	103.947	20.000	5.380	0.530
144.000	147.976	80.013	19.992	103.950	20.007	4.843	0.486
152.000	152.021	80.007	19.992	103.943	20.007	4.818	0.502
160.000	156.044	80.005	19.996	103.935	20.006	4.925	0.497
168.000	160.141	80.010	19.994	103.919	20.007	4.805	0.515
176.000	164.190	79.994	19.994	103.921	20.008	4.767	0.523
184.000	168.246	80.005	19.995	103.905	20.008	4.786	0.454
192.000	172.231	79.993	19.994	103.910	20.005	5.022	0.484
200.000	176.276	80.008	19.993	103.923	20.008	4.762	0.502
208.000	180.283	80.019	19.993	103.917	20.007	4.841	0.548
216.000	184.225	80.011	19.994	103.908	20.003	5.130	0.471
224.000	188.253	80.003	19.994	103.898	20.000	5.344	0.490
232.000	192.132	80.019	19.994	103.902	20.003	5.141	0.465
240.000	196.057	80.014	19.994	103.902	20.003	5.182	0.486
248.000	200.074	80.012	19.993	103.897	20.003	5.143	0.495
256.000	204.045	80.003	19.993	103.898	20.002	5.256	0.520
264.000	208.020	80.011	19.993	103.899	20.003	5.170	0.491
272.000	212.073	80.011	19.994	103.902	19.998	5.544	0.518
280.000	216.045	80.008	19.993	103.894	20.000	5.401	0.512
288.000	220.027	80.013	19.992	103.885	20.000	5.372	0.493
296.000	223.984	80.003	19.994	103.892	19.996	5.704	0.465
304.000	228.054	80.007	19.994	103.869	19.998	5.511	0.539
312.000	232.089	80.011	19.993	103.865	19.998	5.509	0.507
320.000	236.079	80.001	19.995	103.868	19.996	5.675	0.500
328.000	240.081	80.006	19.994	103.864	19.994	5.846	0.480
336.000	244.046	80.005	19.996	103.868	19.993	5.900	0.524
344.000	247.979	80.003	19.994	103.865	19.990	6.137	0.462
352.000	252.015	80.006	19.995	103.856	19.988	6.258	0.463
360.000	256.027	80.008	19.993	103.858	19.987	6.388	0.495
368.000	259.964	80.008	19.993	103.858	19.983	6.650	0.478
376.000	263.912	80.008	19.993	103.853	19.982	6.786	0.519
384.000	267.876	80.007	19.994	103.862	19.982	6.759	0.484
392.000	271.938	80.009	19.993	103.861	19.982	6.735	0.493
400.000	275.925	80.006	19.993	103.847	19.982	6.753	0.484
408.000	280.014	80.006	19.993	103.864	19.976	7.203	0.496
416.000	284.044	80.006	19.994	103.839	19.977	7.137	0.522
424.000	288.008	80.007	19.993	103.836	19.978	7.083	0.506
432.000	292.027	80.007	19.994	103.842	19.977	7.137	0.481
440.000	296.090	80.007	19.995	103.844	19.976	7.249	0.529
448.000	300.095	80.007	19.995	103.842	19.971	7.567	0.476
456.000	304.150	80.009	19.995	103.853	19.971	7.625	0.508
464.000	308.258	80.010	19.993	103.838	19.970	7.636	0.534
472.000	312.267	80.009	19.993	103.836	19.966	7.938	0.520
480.000	316.314	80.009	19.992	103.829	19.967	7.881	0.493
488.000	320.379	80.008	19.993	103.841	19.967	7.898	0.498
496.000	324.440	80.003	19.993	103.835	19.963	8.207	0.516
504.000	328.552	80.008	19.994	103.830	19.961	8.348	0.505
512.000	332.604	80.006	19.996	103.839	19.964	8.151	0.563
520.000	336.634	80.006	19.993	103.838	19.965	8.049	0.498
528.000	340.719	80.010	19.994	103.827	19.963	8.231	0.504
536.000	344.723	80.006	19.994	103.825	19.957	8.674	0.492
544.000	348.794	80.008	19.993	103.824	19.953	8.998	0.519
552.000	352.764	80.010	19.993	103.823	19.957	8.701	0.506
560.000	356.844	80.011	19.994	103.820	19.953	8.948	0.534
568.000	360.874	80.007	19.993	103.824	19.953	8.984	0.523
576.000	364.852	80.015	19.997	103.822	19.948	9.361	0.512
584.000	368.958	80.008	19.994	103.822	19.943	9.701	0.548
592.000	372.944	80.006	19.994	103.814	19.942	9.816	0.519
600.000	376.983	80.007	19.994	103.828	19.938	10.134	0.497
608.000	381.068	80.008	19.994	103.824	19.937	10.175	0.482
616.000	385.139	80.007	19.993	103.821	19.928	10.882	0.497
624.000	389.311	80.009	19.994	103.821	19.925	11.140	0.499
632.000	393.410	80.008	19.995	103.818	19.916	11.773	0.529
640.000	397.507	80.009	19.996	103.805	19.909	12.349	0.494
648.000	401.567	80.008	19.994	103.820	19.897	13.262	0.522
656.000	405.626	80.007	19.994	103.820	19.887	14.000	0.473
664.000	409.708	80.007	19.993	103.804	19.883	14.340	0.501
672.000	413.742	80.008	19.993	103.800	19.869	15.432	0.496
680.000	417.783	80.008	19.992	103.789	19.850	16.841	0.464
688.000	421.795	80.008	19.994	103.793	19.825	18.751	0.482
696.000	425.815	80.010	19.995	103.808	19.800	20.658	0.493
704.000	429.901	80.009	19.994	103.785	19.765	23.384	0.510
712.000	433.960	80.007	19.993	103.788	19.721	26.733	0.498
720.000	438.079	80.011	19.993	103.784	19.647	32.421	0.530
728.000	442.226	80.009	19.994	103.743	19.594	36.485	0.515
736.000	446.289	80.007	19.994	103.789	19.524	41.772	0.478
744.001	450.337	80.008	19.993	103.757	19.403	51.023	0.505
752.000	454.378	80.008	19.993	103.774	19.192	67.167	0.506
760.000	458.416	80.009	19.993	103.731	18.915	88.390	0.448
768.000	462.435	80.007	19.994	103.730	18.585	113.582	0.495
776.000	466.387	80.009	19.993	103.657	18.142	147.400	0.498
784.000	470.446	80.008	19.992	103.629	17.542	193.095	0.530
792.000	474.503	80.008	19.994	103.584	16.713	255.737	0.504
800.000	478.555	80.009	19.992	103.392	15.620	338.227	0.506
808.000	482.553	80.010	19.993	103.097	14.332	435.596	0.504
816.000	486.534	80.009	19.995	102.951	12.775	551.765	0.527
824.000	490.585	80.008	19.995	102.475	11.300	662.123	0.520
832.000	494.608	80.008	19.994	102.379	10.468	724.674	0.453
840.000	498.914	80.008	19.995	102.228	10.876	696.548	0.369
848.000	502.871	80.008	19.993	102.529	13.072	533.750	0.494
856.000	507.153	80.009	19.993	103.171	16.150	300.274	0.506
864.000	511.304	80.010	19.993	103.747	18.417	126.616	0.539
872.000	515.433	80.009	19.994	103.867	19.457	46.942	0.494
880.000	519.487	80.011	19.994	103.847	19.768	23.097	0.517
888.000	523.620	80.010	19.992	103.812	19.843	17.397	0.526
896.000	527.679	80.007	19.995	103.772	19.856	16.323	0.504
904.000	531.850	80.009	19.994	103.608	19.859	16.166	0.528
912.000	535.916	80.009	19.993	103.725	19.860	16.078	0.484
920.000	540.128	80.008	19.995	103.789	19.861	16.047	0.535
928.000	544.165	80.007	19.994	103.795	19.858	16.247	0.509
936.000	548.288	80.007	19.993	103.813	19.857	16.345	0.516
944.000	552.356	80.010	19.993	103.790	19.852	16.713	0.491
952.000	556.495	80.010	19.991	103.784	19.851	16.793	0.514
960.000	560.574	80.009	19.993	103.775	19.855	16.459	0.523
968.000	564.656	80.010	19.993	103.781	19.853	16.601	0.511
976.000	568.713	80.010	19.992	103.808	19.850	16.881	0.494
984.000	572.886	80.008	19.993	103.794	19.852	16.682	0.532
992.000	577.024	80.008	19.993	103.787	19.849	16.916	0.533
1000.000	581.083	80.007	19.992	103.784	19.848	17.006	0.492
1008.000	585.160	80.009	19.993	103.785	19.849	16.917	0.546
1016.000	589.224	80.007	19.994	103.782	19.843	17.365	0.523
1024.000	593.256	80.007	19.994	103.782	19.845	17.244	0.477
1032.000	597.431	80.011	19.994	103.782	19.845	17.247	0.530
1040.001	601.491	80.011	19.992	103.770	19.841	17.574	0.519
1048.000	605.540	80.010	19.993	103.783	19.840	17.640	0.507
1056.000	609.615	80.009	19.993	103.784	19.839	17.697	0.483
1064.000	613.711	80.009	19.993	103.791	19.843	17.406	0.524
1072.000	617.854	80.007	19.993	103.804	19.838	17.779	0.512
1080.000	621.987	80.008	19.994	103.786	19.837	17.817	0.488
1088.000	626.057	80.010	19.993	103.809	19.835	17.975	0.517
1096.000	630.155	80.008	19.994	103.786	19.832	18.231	0.446
1104.000	634.284	80.009	19.994	103.797	19.828	18.525	0.531
1112.000	638.352	80.009	19.994	103.808	19.823	18.886	0.521
1120.000	642.384	80.009	19.994	103.793	19.823	18.919	0.499
1128.001	646.414	80.009	19.993	103.794	19.821	19.100	0.522
1136.000	650.414	80.009	19.992	103.818	19.822	19.011	0.505
1144.000	654.542	80.010	19.993	103.805	19.820	19.156	0.503
1152.000	658.557	80.009	19.992	103.803	19.818	19.315	0.470
1160.000	662.628	80.009	19.994	103.814	19.818	19.320	0.494
1168.001	666.731	80.009	19.993	103.805	19.814	19.651	0.529
1176.000	670.800	80.011	19.996	103.806	19.810	19.943	0.516
1184.000	674.899	80.007	19.995	103.821	19.808	20.091	0.556
1192.000	678.985	80.008	19.993	103.805	19.808	20.050	0.495
1200.000	683.084	80.010	19.992	103.805	19.804	20.392	0.508
1208.000	687.164	80.009	19.993	103.802	19.803	20.463	0.507
1216.000	691.195	80.010	19.995	103.800	19.807	20.174	0.521
1224.000	695.201	80.012	19.993	103.786	19.799	20.741	0.478
1232.000	699.262	80.010	19.993	103.811	19.796	20.990	0.508
1240.000	703.273	80.008	19.993	103.787	19.796	20.992	0.493
1248.000	707.285	80.009	19.994	103.810	19.794	21.124	0.496
1256.000	711.340	80.010	19.995	103.808	19.793	21.245	0.483
1264.000	715.433	80.007	19.994	103.822	19.790	21.469	0.529
1272.000	719.491	80.007	19.993	103.815	19.785	21.804	0.488
1280.000	723.504	80.009	19.994	103.801	19.783	21.994	0.500
1288.000	727.468	80.010	19.995	103.811	19.779	22.312	0.508
1296.000	731.480	80.010	19.994	103.806	19.782	22.069	0.511
1304.000	735.477	80.009	19.993	103.813	19.781	22.131	0.504
1312.000	739.481	80.011	19.994	103.818	19.783	21.987	0.492
1320.000	743.585	80.009	19.995	103.796	19.777	22.414	0.562
1323.500	745.303	80.010	19.993	103.797	19.777	22.478	0.485