File: 01_Data/Black_PMMA/STA/10K_min/Black_PMMA_STA_N2_10KData_220211_R1.csv
##Temp./Â°C,Time/min,Mass(subtr.2)/%,DSC(subtr.2)/(mW/mg),Sensit./(uV/mW)
49.681,10.00917,100.213,-0.00357484,1.07517
51.781,11.11176,100.265,0.08612412,1.07407
53.881,11.46447,100.247,0.14272,1.07298
55.981,11.75061,100.247,0.17328,1.07188
58.081,12.00964,100.179,0.19588,1.07079
60.181,12.25497,100.257,0.20939,1.0697
62.281,12.49168,100.226,0.22035,1.06861
64.381,12.72498,100.192,0.22974,1.06752
66.481,12.95475,100.243,0.23622,1.06643
68.581,13.1818,100.2263,0.24176,1.06534
70.681,13.40637,100.192,0.24697,1.06425
72.781,13.62919,100.226,0.25433,1.06316
74.881,13.85099,100.2267,0.2599,1.06208
76.981,14.07032,100.227,0.26474,1.06099
79.081,14.2874,100.239,0.26952,1.05991
81.181,14.5049,100.226,0.27083,1.05882
83.281,14.71975,100.226,0.2709,1.05774
85.381,14.9336,100.239,0.26707,1.05665
87.481,15.14635,100.2,0.26899,1.05557
89.581,15.35793,100.226,0.26828,1.05449
91.681,15.5678,100.168,0.27601,1.05341
93.781,15.777,100.226,0.27582,1.05233
95.881,15.9863,100.193,0.28111,1.05125
97.981,16.1944,100.226,0.28348,1.05017
100.081,16.40198,100.218,0.28637,1.04909
102.181,16.60896,100.226,0.2912,1.04801
104.281,16.8151,100.226,0.29495,1.04694
106.381,17.0208,100.183,0.30076,1.04586
108.481,17.22629,100.166,0.30621,1.04478
110.581,17.43154,100.152,0.31262,1.04371
112.681,17.6368,100.132,0.31831,1.04264
114.781,17.84235,100.183,0.32299,1.04156
116.881,18.04721,100.199,0.33133,1.04049
118.981,18.25243,100.1325,0.33864,1.03942
121.081,18.45739,100.132,0.35063,1.03834
123.181,18.6619,100.132,0.35948,1.03727
125.281,18.86619,100.149,0.36922,1.0362
127.381,19.07011,100.133,0.37627,1.03513
129.481,19.2739,100.098,0.38477,1.03406
131.581,19.4776,100.075,0.38582,1.033
133.681,19.68049,100.088,0.38746,1.03193
135.781,19.88542,100.043,0.39149,1.03086
137.881,20.08804,100.033,0.39521,1.02979
139.981,20.29166,100.033,0.39442,1.02873
142.081,20.49527,100.058,0.39627,1.02766
144.181,20.69815,99.99181,0.39999,1.02659
146.281,20.901,99.99369,0.40239,1.02553
148.381,21.10337,99.99651,0.40588,1.02446
150.481,21.30569,99.9612,0.4098,1.0234
152.581,21.50779,99.94773,0.41292,1.02234
154.681,21.70969,99.929,0.41779,1.02127
156.781,21.9112,99.89491,0.42139,1.02021
158.881,22.11299,99.82316,0.42613,1.01915
160.981,22.3156,99.8063,0.43193,1.01809
163.081,22.51727,99.74028,0.43526,1.01703
165.181,22.71914,99.70705,0.44339,1.01596
167.281,22.92117,99.67396,0.44816,1.0149
169.381,23.12288,99.61932,0.4573,1.01384
171.481,23.3244,99.54966,0.46488,1.01278
173.581,23.52589,99.48315,0.47264,1.01172
175.681,23.7277,99.44134,0.48414,1.01066
177.781,23.92894,99.3425,0.48883,1.0096
179.881,24.1307,99.26419,0.49672,1.00854
181.981,24.3328,99.2042,0.5008,1.00748
184.081,24.5339,99.0744,0.50702,1.00643
186.181,24.7344,99.00294,0.51224,1.00537
188.281,24.93542,98.83496,0.51272,1.00431
190.381,25.13591,98.7373,0.50934,1.00325
192.481,25.33716,98.67335,0.5067,1.00219
194.581,25.53825,98.5022,0.50126,1.00113
196.681,25.73933,98.4363,0.49886,1.00008
198.781,25.94046,98.33739,0.49659,0.99902
200.881,26.14069,98.23721,0.49768,0.99796
202.981,26.34197,98.13619,0.50148,0.9969
205.081,26.5426,98.02258,0.50452,0.99584
207.181,26.74359,97.95907,0.50692,0.99479
209.281,26.94473,97.81426,0.51129,0.99373
211.381,27.14576,97.70478,0.51533,0.99267
213.481,27.34668,97.56272,0.5165,0.99161
215.581,27.54695,97.5065,0.51219,0.99055
217.681,27.74752,97.41662,0.50566,0.9895
219.781,27.94785,97.35869,0.49784,0.98844
221.881,28.1483,97.3253,0.48898,0.98738
223.981,28.34817,97.2587,0.47903,0.98632
226.081,28.5479,97.19295,0.47301,0.98526
228.181,28.74775,97.18465,0.47309,0.9842
230.281,28.94768,97.1546,0.46912,0.98314
232.381,29.1482,97.1189,0.46649,0.98208
234.481,29.3488,97.09346,0.46794,0.98102
236.581,29.5497,97.12646,0.46968,0.97996
238.681,29.7498,97.09345,0.47141,0.9789
240.781,29.95065,97.05189,0.47607,0.97783
242.881,30.151,97.02373,0.47614,0.97677
244.981,30.3514,96.95985,0.4845,0.97571
247.081,30.55214,96.96096,0.48778,0.97465
249.181,30.75232,96.96085,0.49208,0.97358
251.281,30.9527,96.94244,0.49583,0.97252
253.381,31.1532,96.88811,0.50136,0.97145
255.481,31.35302,96.80319,0.50599,0.97039
257.581,31.5537,96.80315,0.51143,0.96932
259.681,31.75416,96.77003,0.51475,0.96825
261.781,31.955,96.74595,0.51952,0.96719
263.881,32.1558,96.70607,0.5316,0.96612
265.981,32.35692,96.56851,0.5361,0.96505
268.081,32.55767,96.5022,0.54722,0.96398
270.181,32.75866,96.4688,0.55498,0.96291
272.281,32.95986,96.40094,0.56287,0.96184
274.381,33.16113,96.23507,0.57455,0.96076
276.481,33.36205,96.1622,0.58581,0.95969
278.581,33.56303,96.02813,0.59596,0.95862
280.681,33.76342,95.95148,0.60888,0.95754
282.781,33.96433,95.7964,0.61856,0.95647
284.881,34.16601,95.65879,0.62387,0.95539
286.981,34.36775,95.47195,0.63024,0.95431
289.081,34.56863,95.2883,0.64024,0.95323
291.181,34.77017,95.10061,0.65088,0.95215
293.281,34.97203,94.92529,0.6614,0.95107
295.381,35.17366,94.70668,0.66863,0.94998
297.481,35.375,94.4901,0.67671,0.9489
299.581,35.57587,94.30966,0.68273,0.94782
301.681,35.7783,94.00922,0.68974,0.94673
303.781,35.97968,93.7534,0.69575,0.94564
305.881,36.18079,93.4451,0.6847,0.94455
307.981,36.3817,93.15162,0.6679,0.94346
310.081,36.5824,92.8438,0.67462,0.94237
312.181,36.7832,92.449,0.70471,0.94128
314.281,36.9843,92.15902,0.74789,0.94018
316.381,37.18502,91.78708,0.79943,0.93909
318.481,37.38759,91.2731,0.85547,0.93799
320.581,37.5901,90.71409,0.91216,0.93689
322.681,37.7926,90.12656,0.96793,0.93579
324.781,37.99563,89.47705,1.02673,0.93468
326.881,38.19923,88.67729,1.0937,0.93358
328.981,38.40266,87.8437,1.16471,0.93247
331.081,38.607,86.84599,1.24783,0.93137
333.181,38.81136,85.68505,1.34047,0.93026
335.281,39.01542,84.44941,1.44701,0.92915
337.381,39.21949,83.0225,1.56554,0.92803
339.481,39.424,81.39046,1.69107,0.92692
341.581,39.62904,79.63298,1.82928,0.9258
343.681,39.83339,77.58397,1.96924,0.92469
345.781,40.0383,75.35087,2.11952,0.92357
347.881,40.24393,72.8787,2.26987,0.92244
349.981,40.45109,70.2124,2.41613,0.92132
352.081,40.6575,67.24518,2.55784,0.92019
354.181,40.86264,64.17134,2.68817,0.91907
356.281,41.06796,60.88469,2.80256,0.91794
358.381,41.27361,57.4196,2.89014,0.9168
360.481,41.47945,53.86029,2.94508,0.91567
362.581,41.68513,50.10281,2.96617,0.91453
364.681,41.89074,46.3824,2.94033,0.91339
366.781,42.0959,42.61481,2.8929,0.91225
368.881,42.30035,38.9527,2.85472,0.91111
370.981,42.50345,35.37793,2.79531,0.90996
373.081,42.7074,31.884,2.69619,0.90882
375.181,42.9118,28.48645,2.56819,0.90767
377.281,43.1146,25.31961,2.40633,0.90651
379.381,43.31735,22.3039,2.23995,0.90536
381.481,43.52029,19.5022,2.06865,0.9042
383.581,43.7229,16.97713,1.88815,0.90304
385.681,43.9257,14.6121,1.70473,0.90188
387.781,44.12762,12.57189,1.50584,0.90072
389.881,44.32905,10.68529,1.31313,0.89955
391.981,44.53183,9.08999,1.14978,0.89838
394.081,44.73576,7.67812,0.98761,0.89721
396.181,44.93909,6.4385,0.84872,0.89603
398.281,45.14209,5.48392,0.72217,0.89486
400.381,45.34537,4.65884,0.60481,0.89368
402.481,45.54922,3.8711,0.50619,0.89249
404.581,45.75326,3.29481,0.42008,0.89131
406.681,45.95748,2.87043,0.3457,0.89012
408.781,46.162,2.49633,0.28712,0.88893
410.881,46.36585,2.159,0.24374,0.88774
412.981,46.5691,1.93177,0.22544,0.88654
415.081,46.7731,1.71259,0.20814,0.88534
417.181,46.9778,1.54243,0.20154,0.88414
419.281,47.18205,1.444,0.19799,0.88293
421.381,47.38623,1.37631,0.19678,0.88172
423.481,47.5922,1.24422,0.17413,0.88051
425.581,47.79908,1.21058,0.1375,0.8793
427.681,48.00551,1.17865,0.10857,0.87808
429.781,48.21247,1.14435,0.07504274,0.87686
431.881,48.41985,1.11108,0.02552856,0.87564
433.981,48.6271,1.07815,-0.02827651,0.87441
436.081,48.83487,1.11307,-0.03513368,0.87318
438.181,49.04244,1.14405,0.002753334,0.87195
440.281,49.24991,1.06146,0.02266731,0.87071
442.381,49.45698,1.06135,0.033362,0.86948
444.481,49.66428,1.07788,0.03365748,0.86823
446.581,49.872,0.99529,0.03827038,0.86699
448.681,50.07901,1.01189,0.04086919,0.86574
450.781,50.28625,1.04484,0.04062655,0.86449
452.881,50.49307,1.04501,0.04140076,0.86323
454.981,50.6995,1.08554,0.04167515,0.86197
457.081,50.90639,1.04484,0.04415937,0.86071
459.181,51.11323,1.04499,0.04842007,0.85945
461.281,51.32038,1.07052,0.04641592,0.85818
463.381,51.52779,1.03642,0.0479586,0.85691
465.481,51.73467,1.0033,0.05035752,0.85563
467.581,51.94135,1.00343,0.05001058,0.85435
469.681,52.14844,1.06146,0.0517391,0.85307
471.781,52.3555,1.03261,0.05544081,0.85178
473.881,52.56196,0.99422,0.05430985,0.8505
475.981,52.7693,0.97027,0.05568156,0.8492
478.081,52.97589,1.06949,0.06233359,0.84791
480.181,53.18326,1.03638,0.0621728,0.84661
482.281,53.3902,1.01981,0.06469218,0.8453
484.381,53.59685,1.00327,0.06536764,0.844
486.481,53.8033,1.03897,0.06640643,0.84268
488.581,54.01024,1.03657,0.06749011,0.84137
490.681,54.21799,1.03646,0.07084537,0.84005
492.781,54.42606,0.97834,0.07200482,0.83873
494.881,54.6349,0.97011,0.07458045,0.8374
496.981,54.84245,1.06994,0.07261203,0.83608
499.081,55.0499,1.01233,0.07634536,0.83474
501.181,55.2587,0.97859,0.07867213,0.83341
503.281,55.46722,0.9204,0.08213958,0.83207
505.381,55.67579,0.95365,0.07882873,0.83072
507.481,55.8844,0.98691,0.08149437,0.82937
509.581,56.0924,1.01662,0.08301214,0.82802
511.681,56.30129,1.02069,0.08389375,0.82667
513.781,56.5102,0.95362,0.08924642,0.82531
515.881,56.71917,0.99521,0.09142999,0.82394
517.981,56.927,0.99496,0.09428037,0.82258
520.081,57.1348,0.99494,0.09631182,0.82121
522.181,57.3423,0.99554,0.09700366,0.81983
524.281,57.55106,0.99331,0.1006,0.81845
526.381,57.7596,1.02821,0.1017,0.81707
528.481,57.96722,0.96197,0.10557,0.81568
530.581,58.1754,0.97206,0.10961,0.81429
532.681,58.3837,0.9869,0.10931,0.8129
534.781,58.59199,0.99496,0.10895,0.8115
536.881,58.8002,0.97843,0.10929,0.8101
538.981,59.0092,1.01158,0.11074,0.80869
541.081,59.21833,0.97831,0.11076,0.80728
543.181,59.4279,1.00311,0.11389,0.80587
545.281,59.6381,0.97028,0.11262,0.80445
547.381,59.8485,0.97026,0.11414,0.80302
548.881,59.99886,0.93705,0.11372,0.80201