File: 01_Data/Black_PMMA/STA/10K_min/Black_PMMA_STA_N2_10KData_220214_R3.csv
##Temp./Â°C,Time/min,Mass(subtr.2)/%,DSC(subtr.2)/(mW/mg),Sensit./(uV/mW)
49.857,10.01,98.98934,-0.002161428,1.07507
51.957,11.1204,98.94221,0.08915322,1.07398
54.057,11.4697,98.91768,0.13843,1.07289
56.157,11.75533,98.86795,0.17236,1.07179
58.257,12.01293,98.90501,0.19225,1.0707
60.357,12.25804,98.89456,0.20535,1.06961
62.457,12.4969,98.90134,0.21543,1.06852
64.557,12.7297,98.85518,0.22407,1.06743
66.657,12.9582,98.9021,0.23323,1.06634
68.757,13.18326,98.90169,0.23595,1.06525
70.857,13.4099,98.83909,0.24236,1.06416
72.957,13.6328,98.8428,0.24958,1.06307
75.057,13.8546,98.83096,0.25633,1.06199
77.157,14.07368,98.80354,0.26468,1.0609
79.257,14.2927,98.80504,0.26611,1.05982
81.357,14.51077,98.77928,0.26791,1.05873
83.457,14.7264,98.8083,0.2645,1.05765
85.557,14.94079,98.77226,0.26534,1.05656
87.657,15.15501,98.77232,0.26471,1.05548
89.757,15.36706,98.73909,0.26537,1.0544
91.857,15.57824,98.70572,0.26719,1.05332
93.957,15.788,98.70549,0.26843,1.05224
96.057,15.99744,98.70557,0.27361,1.05116
98.157,16.20588,98.6707,0.27635,1.05008
100.257,16.41349,98.67307,0.28102,1.049
102.357,16.62193,98.63856,0.28421,1.04792
104.457,16.82872,98.63899,0.28633,1.04685
106.557,17.03496,98.61886,0.29354,1.04577
108.657,17.2406,98.6395,0.29667,1.04469
110.757,17.4462,98.63848,0.30212,1.04362
112.857,17.65136,98.57443,0.30658,1.04255
114.957,17.857,98.57183,0.313,1.04147
117.057,18.06221,98.63931,0.3185,1.0404
119.157,18.2671,98.5712,0.32951,1.03933
121.257,18.47168,98.5373,0.33798,1.03826
123.357,18.67584,98.50508,0.34985,1.03718
125.457,18.8808,98.50508,0.35767,1.03611
127.557,19.08598,98.49633,0.36553,1.03504
129.657,19.29006,98.46321,0.37099,1.03397
131.757,19.4943,98.44166,0.37696,1.03291
133.857,19.69855,98.4383,0.37952,1.03184
135.957,19.9026,98.4036,0.38289,1.03077
138.057,20.10574,98.40491,0.38634,1.0297
140.157,20.30861,98.3632,0.39087,1.02864
142.257,20.51153,98.3632,0.39218,1.02757
144.357,20.71438,98.32969,0.39368,1.0265
146.457,20.9159,98.3048,0.39686,1.02544
148.557,21.11828,98.2872,0.39854,1.02438
150.657,21.3218,98.25458,0.40039,1.02331
152.757,21.524,98.22958,0.40527,1.02225
154.857,21.72629,98.1876,0.41017,1.02118
156.957,21.92659,98.14681,0.41783,1.02012
159.057,22.1289,98.09594,0.42267,1.01906
161.157,22.33096,98.0624,0.42882,1.018
163.257,22.53256,98.02409,0.43496,1.01694
165.357,22.73477,97.96243,0.44213,1.01587
167.457,22.93553,97.92031,0.45095,1.01481
169.557,23.13759,97.8871,0.45647,1.01375
171.657,23.33964,97.7871,0.46612,1.01269
173.757,23.5413,97.72036,0.47418,1.01163
175.857,23.7423,97.58445,0.48359,1.01057
177.957,23.94306,97.48669,0.49313,1.00951
180.057,24.1448,97.4383,0.49945,1.00846
182.157,24.34676,97.30234,0.5026,1.0074
184.257,24.5474,97.20158,0.50463,1.00634
186.357,24.749,97.06836,0.50441,1.00528
188.457,24.95059,96.95119,0.50472,1.00422
190.557,25.15117,96.83367,0.50276,1.00316
192.657,25.35182,96.70104,0.49761,1.0021
194.757,25.55211,96.56182,0.49364,1.00105
196.857,25.75244,96.4947,0.48936,0.99999
198.957,25.95222,96.366,0.48458,0.99893
201.057,26.15276,96.23351,0.48302,0.99787
203.157,26.3539,96.1249,0.48439,0.99681
205.257,26.55453,96.02469,0.48579,0.99576
207.357,26.75576,95.95761,0.48622,0.9947
209.457,26.95679,95.8241,0.48966,0.99364
211.557,27.15718,95.72304,0.49259,0.99258
213.657,27.35786,95.58933,0.49009,0.99152
215.757,27.55817,95.51342,0.48911,0.99047
217.857,27.7591,95.42347,0.48504,0.98941
219.957,27.9589,95.38983,0.47692,0.98835
222.057,28.15949,95.32305,0.46734,0.98729
224.157,28.36008,95.28952,0.45728,0.98623
226.257,28.56052,95.23122,0.45653,0.98517
228.357,28.7607,95.23122,0.45259,0.98411
230.457,28.9617,95.16497,0.45314,0.98305
232.557,29.16175,95.1505,0.45109,0.98199
234.657,29.3618,95.14865,0.45289,0.98093
236.757,29.5622,95.15051,0.45463,0.97987
238.857,29.76223,95.11726,0.45384,0.97881
240.957,29.9624,95.10025,0.45673,0.97775
243.057,30.16293,95.0586,0.45887,0.97668
245.157,30.3626,95.0567,0.46096,0.97562
247.257,30.56336,94.99744,0.46399,0.97456
249.357,30.76411,94.96675,0.46316,0.97349
251.457,30.9648,94.9323,0.46513,0.97243
253.557,31.16566,94.9335,0.4691,0.97136
255.657,31.367,94.89693,0.47116,0.9703
257.757,31.5679,94.8665,0.47467,0.96923
259.857,31.76894,94.79947,0.47933,0.96816
261.957,31.97017,94.783,0.48315,0.9671
264.057,32.17138,94.74932,0.48915,0.96603
266.157,32.37358,94.64926,0.49576,0.96496
268.257,32.57509,94.61831,0.50264,0.96389
270.357,32.77637,94.57463,0.50821,0.96282
272.457,32.97786,94.47402,0.51542,0.96175
274.557,33.1802,94.34061,0.52635,0.96067
276.657,33.3815,94.3069,0.53616,0.9596
278.757,33.5832,94.15695,0.54668,0.95853
280.857,33.7847,94.04935,0.55845,0.95745
282.957,33.98601,93.98405,0.56991,0.95637
285.057,34.18727,93.81649,0.57753,0.9553
287.157,34.38842,93.7058,0.58772,0.95422
289.257,34.58925,93.49951,0.59445,0.95314
291.357,34.79047,93.31851,0.60205,0.95206
293.457,34.99208,93.11359,0.60689,0.95098
295.557,35.19327,92.89604,0.61172,0.94989
297.657,35.39533,92.63291,0.61342,0.94881
299.757,35.59703,92.4589,0.61433,0.94772
301.857,35.7985,92.20921,0.61622,0.94664
303.957,35.99982,91.91059,0.62725,0.94555
306.057,36.20146,91.66382,0.63961,0.94446
308.157,36.40317,91.40315,0.65539,0.94337
310.257,36.60552,91.07305,0.67279,0.94228
312.357,36.80784,90.76103,0.69419,0.94118
314.457,37.00997,90.37059,0.7162,0.94009
316.557,37.2125,89.97922,0.7482,0.93899
318.657,37.41434,89.5566,0.78703,0.9379
320.757,37.61593,89.01556,0.82983,0.9368
322.857,37.8187,88.4246,0.87837,0.93569
324.957,38.0212,87.8004,0.93301,0.93459
327.057,38.2237,87.03081,1.00096,0.93349
329.157,38.4264,86.22357,1.07472,0.93238
331.257,38.6289,85.2384,1.15709,0.93127
333.357,38.83171,84.1829,1.25332,0.93017
335.457,39.03492,82.91035,1.35845,0.92905
337.557,39.2386,81.44784,1.47953,0.92794
339.657,39.44311,79.83941,1.60713,0.92683
341.757,39.64768,77.9795,1.74347,0.92571
343.857,39.85269,75.95832,1.89062,0.92459
345.957,40.05807,73.76039,2.04191,0.92347
348.057,40.26368,71.27395,2.19802,0.92235
350.157,40.46967,68.56367,2.34725,0.92123
352.257,40.67584,65.60163,2.4931,0.9201
354.357,40.8826,62.43124,2.6304,0.91897
356.457,41.08876,59.0515,2.74689,0.91784
358.557,41.2949,55.52202,2.84958,0.91671
360.657,41.5009,51.853,2.91217,0.91557
362.757,41.70613,48.10419,2.94978,0.91444
364.857,41.91087,44.27469,2.93258,0.9133
366.957,42.11541,40.47095,2.87247,0.91216
369.057,42.3196,36.6975,2.86755,0.91101
371.157,42.52285,32.97415,2.81347,0.90987
373.257,42.72622,29.37087,2.69565,0.90872
375.357,42.92935,25.90085,2.55844,0.90757
377.457,43.13172,22.63938,2.38779,0.90642
379.557,43.33385,19.6429,2.20376,0.90526
381.657,43.53608,16.84522,2.0099,0.90411
383.757,43.73729,14.2688,1.82107,0.90295
385.857,43.9388,11.94383,1.63476,0.90178
387.957,44.14012,9.90618,1.45012,0.90062
390.057,44.34193,8.07305,1.26098,0.89945
392.157,44.5441,6.45366,1.09674,0.89828
394.257,44.7468,5.11176,0.94047,0.89711
396.357,44.94989,3.86648,0.79906,0.89594
398.457,45.1534,2.83288,0.67072,0.89476
400.557,45.35717,1.97788,0.55699,0.89358
402.657,45.56143,1.28274,0.45731,0.89239
404.757,45.76533,0.65649,0.37478,0.89121
406.857,45.96997,0.22494,0.30287,0.89002
408.957,46.17445,-0.19118,0.24194,0.88883
411.057,46.37941,-0.52565,0.19641,0.88764
413.157,46.5839,-0.77136,0.15516,0.88644
415.257,46.7885,-0.99758,0.11987,0.88524
417.357,46.9931,-1.09895,0.09537085,0.88404
419.457,47.1978,-1.27639,0.08000071,0.88283
421.557,47.40262,-1.41483,0.06143889,0.88162
423.657,47.6077,-1.48156,0.05267375,0.88041
425.757,47.81264,-1.50641,0.04874795,0.8792
427.857,48.01775,-1.58158,0.04531781,0.87798
429.957,48.22306,-1.62144,0.04938001,0.87676
432.057,48.42771,-1.67141,0.04730705,0.87554
434.157,48.63342,-1.64845,0.04088245,0.87431
436.257,48.84018,-1.64068,0.02500726,0.87308
438.357,49.04668,-1.70747,0.001601411,0.87185
440.457,49.25391,-1.74079,-0.03022671,0.87061
442.557,49.4606,-1.75736,-0.03230901,0.86937
444.657,49.66814,-1.70649,-0.01322493,0.86813
446.757,49.87575,-1.72124,0.002001428,0.86688
448.857,50.0829,-1.70736,0.01611656,0.86563
450.957,50.28877,-1.70736,0.02487135,0.86438
453.057,50.49596,-1.78527,0.03080448,0.86313
455.157,50.7025,-1.75162,0.02667677,0.86187
457.257,50.9085,-1.71839,0.02463341,0.86061
459.357,51.11428,-1.71889,0.02785164,0.85934
461.457,51.32131,-1.76025,0.02987601,0.85807
463.557,51.52798,-1.65705,0.03091257,0.8568
465.657,51.73502,-1.72613,0.03373003,0.85552
467.757,51.94168,-1.69047,0.03250193,0.85425
469.857,52.14845,-1.75763,0.03541884,0.85296
471.957,52.35585,-1.75736,0.03625421,0.85168
474.057,52.5633,-1.73187,0.03754407,0.85039
476.157,52.77055,-1.73212,0.03407056,0.84909
478.257,52.9779,-1.73252,0.03646851,0.8478
480.357,53.1862,-1.76526,0.03617391,0.8465
482.457,53.39369,-1.73248,0.03533138,0.84519
484.557,53.6013,-1.73287,0.04033785,0.84389
486.657,53.80895,-1.76579,0.04110871,0.84257
488.757,54.01679,-1.70736,0.04311095,0.84126
490.857,54.22429,-1.699,0.04328504,0.83994
492.957,54.4317,-1.73246,0.04544067,0.83862
495.057,54.6383,-1.69898,0.04509924,0.83729
497.157,54.84632,-1.69898,0.04741477,0.83596
499.257,55.0557,-1.70028,0.04768286,0.83463
501.357,55.26481,-1.66548,0.04735851,0.83329
503.457,55.4739,-1.7156,0.04782461,0.83195
505.557,55.6812,-1.71462,0.04939726,0.83061
507.657,55.8899,-1.72405,0.05484961,0.82926
509.757,56.0989,-1.6822,0.05211631,0.82791
511.857,56.30761,-1.68223,0.05533105,0.82655
513.957,56.51534,-1.70742,0.0575035,0.82519
516.057,56.72311,-1.70736,0.05989353,0.82383
518.157,56.9314,-1.70735,0.06003745,0.82246
520.257,57.13925,-1.68249,0.06358946,0.82109
522.357,57.348,-1.68249,0.06489904,0.81972
524.457,57.5564,-1.70188,0.06509237,0.81834
526.557,57.76505,-1.68751,0.06883441,0.81695
528.657,57.9738,-1.73224,0.06790252,0.81557
530.757,58.18309,-1.71514,0.07027651,0.81418
532.857,58.39176,-1.73634,0.07152813,0.81278
534.957,58.60125,-1.66547,0.07285973,0.81138
537.057,58.8101,-1.68223,0.07147843,0.80998
539.157,59.01888,-1.69899,0.07336553,0.80857
541.257,59.22674,-1.72411,0.07360932,0.80716
543.357,59.43654,-1.69896,0.07452063,0.80575
545.457,59.6464,-1.72331,0.07413481,0.80433
547.557,59.8562,-1.69898,0.07705659,0.80291
548.957,59.99675,-1.69898,0.07306539,0.80195