File: 01_Data/Masonite_Board/STA/N2/30K_min/Masonite_STA_N2_30KData_222706_R2.csv
##Temp./Â°C,Time/min,DSC(subtr.2)/mW,Mass loss(subtr.2)/mg,Sensit./(uV/mW)
48.505,10.01,0.03402055,-0.02437,1.05402
51.105,10.82921,0.53449,-0.02548099,1.05348
53.705,11.0426,0.88061,-0.0262672,1.05294
56.305,11.20454,1.1944,-0.0250317,1.05238
58.905,11.3432,1.43602,-0.02562807,1.05182
61.505,11.46681,1.64962,-0.02692078,1.05124
64.105,11.58155,1.83914,-0.02571744,1.05064
66.705,11.69019,2.00846,-0.02820567,1.05004
69.305,11.79454,2.15996,-0.02730706,1.04942
71.905,11.89517,2.29652,-0.02717912,1.04879
74.505,11.99364,2.43228,-0.02799269,1.04815
77.105,12.08987,2.55266,-0.0304119,1.0475
79.705,12.18418,2.66621,-0.02876945,1.04683
82.305,12.27748,2.76189,-0.02966428,1.04616
84.905,12.36943,2.85217,-0.02982755,1.04547
87.505,12.46038,2.9456,-0.0321545,1.04477
90.105,12.54996,3.01136,-0.03205647,1.04405
92.705,12.63923,3.07957,-0.03282034,1.04333
95.305,12.72805,3.13473,-0.034098,1.04259
97.905,12.8161,3.16064,-0.03545688,1.04184
100.505,12.9038,3.18882,-0.03681404,1.04109
103.105,12.99117,3.20257,-0.03699627,1.04031
105.705,13.0783,3.2042,-0.03830976,1.03953
108.305,13.1654,3.20207,-0.03955507,1.03874
110.905,13.25196,3.19977,-0.03794676,1.03793
113.505,13.33885,3.19831,-0.03965059,1.03711
116.105,13.4253,3.20661,-0.03991525,1.03629
118.705,13.51118,3.21467,-0.0410306,1.03545
121.305,13.5968,3.21673,-0.04227001,1.03459
123.905,13.6822,3.21109,-0.04355822,1.03373
126.505,13.76746,3.21436,-0.04312956,1.03286
129.105,13.8521,3.19549,-0.04362321,1.03197
131.705,13.93679,3.1735,-0.04358,1.03108
134.305,14.0208,3.19348,-0.04357252,1.03017
136.905,14.1044,3.1921,-0.0441541,1.02925
139.505,14.18801,3.19218,-0.04358004,1.02832
142.105,14.27111,3.21055,-0.04358,1.02738
144.705,14.3539,3.21879,-0.04353883,1.02643
147.305,14.436,3.23943,-0.04325648,1.02547
149.905,14.51874,3.25748,-0.04359004,1.0245
152.505,14.60075,3.28492,-0.04358673,1.02351
155.105,14.6828,3.31308,-0.04331071,1.02252
157.705,14.76462,3.33815,-0.04358003,1.02152
160.305,14.8464,3.36661,-0.04357319,1.0205
162.905,14.9277,3.39715,-0.04620417,1.01947
165.505,15.0091,3.43856,-0.04622,1.01844
168.105,15.09027,3.45646,-0.04622,1.01739
170.705,15.1713,3.48785,-0.04621824,1.01633
173.305,15.25196,3.52554,-0.04752992,1.01527
175.905,15.3327,3.56307,-0.04889845,1.01419
178.505,15.4131,3.59875,-0.04885,1.0131
181.105,15.49334,3.62646,-0.04885,1.012
183.705,15.5734,3.66846,-0.04885,1.01089
186.305,15.65324,3.71105,-0.04884998,1.00977
188.905,15.73285,3.73778,-0.05002281,1.00865
191.505,15.81259,3.77456,-0.05015996,1.00751
194.105,15.89166,3.81344,-0.04881307,1.00636
196.705,15.97136,3.84222,-0.05020479,1.0052
199.305,16.05048,3.87733,-0.05051877,1.00403
201.905,16.1296,3.91636,-0.05147994,1.00285
204.505,16.20871,3.9559,-0.05279669,1.00166
207.105,16.28782,3.99955,-0.05279977,1.00047
209.705,16.36659,4.02602,-0.05411004,0.99926
212.305,16.4456,4.06679,-0.05542856,0.99804
214.905,16.52425,4.09859,-0.05675702,0.99681
217.505,16.60316,4.14977,-0.05739821,0.99558
220.105,16.682,4.1908,-0.0592005,0.99433
222.705,16.7607,4.22835,-0.06071892,0.99308
225.305,16.8394,4.27182,-0.06201959,0.99181
227.905,16.91791,4.31301,-0.0646627,0.99054
230.505,16.9965,4.34804,-0.06600113,0.98926
233.105,17.0751,4.38032,-0.06663836,0.98796
235.705,17.1536,4.42741,-0.06810671,0.98666
238.305,17.23201,4.46177,-0.07235576,0.98535
240.905,17.3104,4.51934,-0.07366173,0.98403
243.505,17.38855,4.55239,-0.0764339,0.9827
246.105,17.46732,4.59176,-0.08154338,0.98137
248.705,17.54573,4.63445,-0.08310224,0.98002
251.305,17.62414,4.66458,-0.08587497,0.97866
253.905,17.70253,4.69312,-0.0901128,0.9773
256.505,17.7809,4.72361,-0.0946179,0.97593
259.105,17.859,4.75107,-0.09717305,0.97455
261.705,17.9373,4.78449,-0.10215,0.97315
264.305,18.0155,4.80319,-0.10899,0.97176
266.905,18.09425,4.82988,-0.11415,0.97035
269.505,18.1722,4.85406,-0.12059,0.96893
272.105,18.2504,4.86524,-0.12913,0.96751
274.705,18.32872,4.88574,-0.13822,0.96608
277.305,18.40711,4.90471,-0.14567,0.96464
279.905,18.48541,4.92578,-0.15642,0.96319
282.505,18.56384,4.93055,-0.16649,0.96173
285.105,18.6422,4.95047,-0.17868,0.96026
287.705,18.7206,4.94708,-0.19312,0.95879
290.305,18.7991,4.93764,-0.21045,0.95731
292.905,18.8776,4.93586,-0.22839,0.95582
295.505,18.95598,4.9202,-0.24612,0.95432
298.105,19.03465,4.91104,-0.26805,0.95281
300.705,19.1132,4.86218,-0.2923,0.9513
303.305,19.19163,4.82764,-0.31567,0.94978
305.905,19.2701,4.78317,-0.34344,0.94825
308.505,19.34904,4.72238,-0.37192,0.94671
311.105,19.42762,4.66837,-0.4021,0.94517
313.705,19.50627,4.60763,-0.43135,0.94362
316.305,19.58509,4.55677,-0.4645,0.94206
318.905,19.6635,4.50512,-0.49561,0.94049
321.505,19.74245,4.47649,-0.52825,0.93892
324.105,19.8212,4.46363,-0.5593,0.93733
326.705,19.90016,4.45985,-0.59333,0.93574
329.305,19.97927,4.46998,-0.62676,0.93415
331.905,20.0582,4.51535,-0.65987,0.93254
334.505,20.1373,4.58044,-0.69474,0.93093
337.105,20.21629,4.68079,-0.7284,0.92932
339.705,20.29566,4.79865,-0.76482,0.92769
342.305,20.37508,4.94454,-0.80388,0.92606
344.905,20.45433,5.13745,-0.84155,0.92442
347.505,20.53368,5.35386,-0.88244,0.92277
350.105,20.6133,5.62946,-0.9272,0.92112
352.705,20.69306,5.96014,-0.97488,0.91946
355.305,20.77272,6.3405,-1.02562,0.9178
357.905,20.8525,6.79889,-1.0835,0.91612
360.505,20.93235,7.3263,-1.14554,0.91444
363.105,21.01221,7.91333,-1.21226,0.91276
365.705,21.09246,8.58444,-1.28664,0.91107
368.305,21.17292,9.31462,-1.36886,0.90937
370.905,21.25326,10.0764,-1.45807,0.90766
373.505,21.33365,10.86169,-1.55704,0.90595
376.105,21.41422,11.59928,-1.66445,0.90423
378.705,21.495,12.25045,-1.77937,0.90251
381.305,21.57568,12.72767,-1.90258,0.90078
383.905,21.65665,12.94697,-2.03034,0.89904
386.505,21.7373,12.80728,-2.15867,0.8973
389.105,21.81796,12.24098,-2.28448,0.89555
391.705,21.89858,11.1864,-2.40539,0.89379
394.305,21.97915,9.67768,-2.5118,0.89203
396.905,22.05965,7.83553,-2.60229,0.89026
399.505,22.13961,5.85292,-2.67326,0.88849
402.105,22.21959,3.95734,-2.72734,0.88671
404.705,22.29966,2.38199,-2.76412,0.88493
407.305,22.37966,1.21264,-2.78863,0.88314
409.905,22.45964,0.47425,-2.80416,0.88134
412.505,22.53967,0.01882317,-2.81523,0.87954
415.105,22.62003,-0.22953,-2.82461,0.87773
417.705,22.70072,-0.42442,-2.83456,0.87592
420.305,22.78136,-0.55481,-2.84222,0.8741
422.905,22.86211,-0.65151,-2.84954,0.87228
425.505,22.94312,-0.76038,-2.85801,0.87045
428.105,23.0241,-0.85308,-2.86409,0.86862
430.705,23.10513,-0.94428,-2.87362,0.86678
433.305,23.1862,-1.03207,-2.88039,0.86493
435.905,23.26763,-1.10734,-2.88695,0.86309
438.505,23.34901,-1.17296,-2.89372,0.86123
441.105,23.43056,-1.22639,-2.90314,0.85937
443.705,23.5121,-1.2685,-2.91118,0.85751
446.305,23.59366,-1.29359,-2.9159,0.85564
448.905,23.67548,-1.31025,-2.92356,0.85376
451.505,23.7574,-1.291,-2.92849,0.85188
454.105,23.83923,-1.25753,-2.93468,0.85
456.705,23.92117,-1.21763,-2.94181,0.84811
459.305,24.00346,-1.15418,-2.94797,0.84622
461.905,24.08563,-1.07105,-2.9551,0.84432
464.505,24.16799,-0.98657,-2.96242,0.84242
467.105,24.2504,-0.89667,-2.96932,0.84051
469.705,24.3329,-0.80026,-2.97385,0.8386
472.305,24.41535,-0.70007,-2.97759,0.83668
474.905,24.49804,-0.59172,-2.98271,0.83476
477.505,24.58075,-0.50369,-2.98772,0.83284
480.105,24.6636,-0.42015,-2.99181,0.83091
482.705,24.7466,-0.33351,-2.99543,0.82898
485.305,24.8294,-0.24396,-3.00105,0.82704
487.905,24.91242,-0.18765,-3.00359,0.8251
490.505,24.99541,-0.12303,-3.00752,0.82315
493.105,25.07845,-0.06966253,-3.01165,0.8212
495.705,25.16161,-0.02611784,-3.01452,0.81925
498.305,25.24471,0.01618135,-3.01821,0.81729
500.905,25.328,0.03519716,-3.02144,0.81533
503.505,25.41123,0.07303168,-3.02433,0.81336
506.105,25.49442,0.09674024,-3.02755,0.81139
508.705,25.57767,0.11737,-3.03098,0.80942
511.305,25.66091,0.14227,-3.0351,0.80744
513.905,25.74438,0.14879,-3.03813,0.80546
516.505,25.8278,0.16992,-3.04212,0.80348
519.105,25.91137,0.16933,-3.04279,0.80149
521.705,25.99502,0.17873,-3.04588,0.7995
524.305,26.07872,0.1795,-3.04847,0.79751
526.905,26.16236,0.19016,-3.05131,0.79551
529.505,26.2461,0.1732,-3.05401,0.79351
532.105,26.32998,0.16869,-3.05735,0.7915
534.705,26.414,0.15676,-3.06082,0.7895
537.305,26.49789,0.15049,-3.06219,0.78749
539.905,26.5818,0.14179,-3.06618,0.78547
542.505,26.66583,0.14313,-3.06801,0.78345
545.105,26.74989,0.12793,-3.07009,0.78143
547.705,26.8341,0.11383,-3.07243,0.77941
550.305,26.9183,0.10487,-3.07378,0.77738
552.905,27.0025,0.09206086,-3.07698,0.77536
555.505,27.0868,0.06640459,-3.07941,0.77332
558.105,27.1711,0.05349808,-3.08206,0.77129
560.705,27.2554,0.04607603,-3.08467,0.76925
563.305,27.33983,0.03791715,-3.08623,0.76721
565.905,27.4243,0.006378099,-3.08966,0.76517
568.505,27.50858,-0.0124274,-3.09304,0.76312
571.105,27.59328,-0.02299902,-3.09503,0.76107
573.705,27.6778,-0.02478428,-3.09563,0.75902
576.305,27.76233,-0.04928755,-3.09831,0.75697
578.905,27.84708,-0.04927587,-3.09965,0.75491
581.505,27.9317,-0.05886149,-3.10248,0.75285
584.105,28.01639,-0.07631174,-3.10508,0.75079
586.705,28.10121,-0.07753962,-3.10587,0.74873
589.305,28.1859,-0.07846983,-3.10774,0.74666
591.905,28.27085,-0.10227,-3.1105,0.7446
594.505,28.3557,-0.11483,-3.11181,0.74253
597.105,28.4405,-0.11112,-3.11312,0.74045
599.705,28.5255,-0.13369,-3.1157,0.73838
602.305,28.6104,-0.14198,-3.11733,0.7363
604.905,28.6955,-0.14089,-3.11993,0.73422
607.505,28.78045,-0.14926,-3.12126,0.73214
610.105,28.8653,-0.15056,-3.12395,0.73006
612.705,28.95082,-0.16551,-3.12527,0.72798
615.305,29.0361,-0.15699,-3.12782,0.72589
617.905,29.12118,-0.16512,-3.12918,0.7238
620.505,29.2066,-0.16774,-3.1308,0.72171
623.105,29.29182,-0.15421,-3.1335,0.71962
625.705,29.37702,-0.15537,-3.1347,0.71753
628.305,29.46238,-0.1456,-3.13573,0.71543
630.905,29.54775,-0.15269,-3.13858,0.71334
633.505,29.6332,-0.1423,-3.13991,0.71124
636.105,29.71865,-0.14275,-3.14122,0.70914
638.705,29.80384,-0.14396,-3.14287,0.70704
641.305,29.88937,-0.13999,-3.14517,0.70494
643.905,29.97503,-0.13768,-3.14604,0.70283
644.605,29.998,-0.13972,-3.14648,0.70227