File: 01_Data/Masonite_Board/STA/N2/30K_min/Masonite_STA_N2_30KData_222706_R1.csv
##Temp./Â°C,Time/min,DSC(subtr.2)/mW,Mass loss(subtr.2)/mg,Sensit./(uV/mW)
48.482,10.01,0.05211658,0.01482,1.05402
51.082,10.82897,0.58241,0.01697378,1.05349
53.682,11.043,0.9686,0.01746763,1.05295
56.282,11.20378,1.28623,0.01796224,1.05239
58.882,11.3428,1.55714,0.01705447,1.05182
61.482,11.46688,1.78696,0.01797131,1.05124
64.082,11.58184,2.00239,0.01691652,1.05065
66.682,11.69082,2.19172,0.01761615,1.05004
69.282,11.79457,2.357,0.01862334,1.04943
71.882,11.89557,2.52628,0.01779502,1.0488
74.482,11.99398,2.66606,0.01514314,1.04816
77.082,12.0902,2.8029,0.01713051,1.0475
79.682,12.18475,2.92203,0.01642914,1.04684
82.282,12.27795,3.05377,0.01675642,1.04616
84.882,12.36987,3.15239,0.01603317,1.04547
87.482,12.46064,3.26948,0.01465954,1.04477
90.082,12.5504,3.3472,0.01566785,1.04406
92.682,12.6397,3.42059,0.01305568,1.04334
95.282,12.72783,3.48781,0.01310766,1.0426
97.882,12.81599,3.52916,0.01209112,1.04185
100.482,12.9032,3.56715,0.01162059,1.04109
103.082,12.99087,3.59779,0.01043996,1.04032
105.682,13.07806,3.60397,0.01010785,1.03954
108.282,13.16496,3.62111,0.009177441,1.03874
110.882,13.2518,3.62481,0.007929617,1.03794
113.482,13.33825,3.64032,0.009109999,1.03712
116.082,13.4246,3.66274,0.01052241,1.03629
118.682,13.51053,3.67555,0.009110041,1.03545
121.282,13.59651,3.69048,0.007821537,1.0346
123.882,13.6819,3.69231,0.00779,1.03374
126.482,13.76719,3.7014,0.00793692,1.03287
129.082,13.852,3.70827,0.009190646,1.03198
131.682,13.9366,3.71083,0.00679998,1.03109
134.282,14.02067,3.72791,0.00682275,1.03018
136.882,14.10454,3.74633,0.008142515,1.02926
139.482,14.18801,3.75696,0.009430014,1.02833
142.082,14.2713,3.78377,0.009405223,1.02739
144.682,14.3542,3.81313,0.00907635,1.02644
147.282,14.4365,3.85172,0.009109986,1.02548
149.882,14.51925,3.88415,0.009444735,1.02451
152.482,14.6014,3.91355,0.00944,1.02352
155.082,14.68351,3.95897,0.00944,1.02253
157.682,14.76529,3.99237,0.009443111,1.02152
160.282,14.84665,4.03561,0.009439314,1.02051
162.882,14.9282,4.06816,0.008786462,1.01948
165.482,15.0095,4.09773,0.00878,1.01845
168.082,15.09048,4.14705,0.00878,1.0174
170.682,15.17154,4.19261,0.00878,1.01634
173.282,15.2524,4.23329,0.00878,1.01528
175.882,15.3332,4.28211,0.008779365,1.0142
178.482,15.4132,4.32262,0.00745646,1.01311
181.082,15.493,4.36707,0.00680675,1.01201
183.682,15.57345,4.40681,0.00678214,1.0109
186.282,15.6538,4.44811,0.00745996,1.00978
188.882,15.73339,4.50043,0.007464715,1.00866
191.482,15.81286,4.54554,0.008120137,1.00752
194.082,15.89215,4.58859,0.00717876,1.00637
196.682,15.97158,4.64201,0.0058117,1.00521
199.282,16.05076,4.69626,0.00548959,1.00404
201.882,16.1296,4.7369,0.00549,1.00286
204.482,16.20853,4.79671,0.00555488,1.00167
207.082,16.2877,4.84526,0.00282628,1.00048
209.682,16.36666,4.88671,0.001555271,0.99927
212.282,16.4454,4.93428,0.00249432,0.99805
214.882,16.52441,4.99087,0.001199956,0.99683
217.482,16.60324,5.04084,0.0009335328,0.99559
220.082,16.68178,5.08602,-0.00143285,0.99434
222.682,16.76051,5.13948,-0.00275188,0.99309
225.282,16.83911,5.19742,-0.0040792,0.99182
227.882,16.91775,5.24984,-0.00615166,0.99055
230.482,16.99629,5.29389,-0.00730856,0.98927
233.082,17.07474,5.33363,-0.00933026,0.98798
235.682,17.15342,5.39223,-0.01068119,0.98667
238.282,17.2317,5.43209,-0.01335828,0.98536
240.882,17.31043,5.49106,-0.01529892,0.98404
243.482,17.38907,5.52009,-0.01730526,0.98272
246.082,17.4675,5.56831,-0.02007153,0.98138
248.682,17.54584,5.62233,-0.02261646,0.98003
251.282,17.62432,5.65405,-0.02694111,0.97868
253.882,17.70257,5.69761,-0.03052914,0.97731
256.482,17.78076,5.72888,-0.03455269,0.97594
259.082,17.8596,5.77041,-0.03796055,0.97456
261.682,17.93795,5.81236,-0.04280721,0.97317
264.282,18.01614,5.83982,-0.04861685,0.97177
266.882,18.09444,5.88363,-0.0543747,0.97036
269.482,18.17268,5.90154,-0.06101823,0.96895
272.082,18.25112,5.9368,-0.0681065,0.96752
274.682,18.32949,5.96229,-0.07691449,0.96609
277.282,18.4079,5.9817,-0.08594765,0.96465
279.882,18.48643,6.00317,-0.09588411,0.9632
282.482,18.56483,6.02736,-0.10875,0.96174
285.082,18.64327,6.04077,-0.12073,0.96028
287.682,18.72176,6.04916,-0.13552,0.9588
290.282,18.8004,6.05039,-0.15084,0.95732
292.882,18.87881,6.04447,-0.16916,0.95583
295.482,18.95744,6.04549,-0.18985,0.95433
298.082,19.03596,6.02993,-0.21115,0.95283
300.682,19.11439,6.00484,-0.23442,0.95131
303.282,19.19306,5.96572,-0.25864,0.94979
305.882,19.27177,5.91999,-0.28744,0.94826
308.482,19.3504,5.87875,-0.31665,0.94673
311.082,19.4286,5.8184,-0.3465,0.94518
313.682,19.50747,5.75393,-0.37562,0.94363
316.282,19.58638,5.70539,-0.40814,0.94207
318.882,19.6652,5.66129,-0.4406,0.9405
321.482,19.74411,5.63264,-0.47385,0.93893
324.082,19.82289,5.61976,-0.5058,0.93735
326.682,19.90192,5.62755,-0.53746,0.93576
329.282,19.9809,5.65248,-0.57187,0.93416
331.882,20.06012,5.6917,-0.60541,0.93256
334.482,20.13925,5.77077,-0.64065,0.93095
337.082,20.2185,5.86408,-0.67551,0.92933
339.682,20.2978,5.99085,-0.71245,0.92771
342.282,20.37725,6.14145,-0.74988,0.92607
344.882,20.45669,6.32616,-0.79031,0.92443
347.482,20.53611,6.55484,-0.83161,0.92279
350.082,20.61583,6.83,-0.87632,0.92114
352.682,20.69565,7.16598,-0.92476,0.91948
355.282,20.77523,7.56223,-0.97758,0.91781
357.882,20.85521,8.02454,-1.0343,0.91614
360.482,20.93529,8.55687,-1.09715,0.91446
363.082,21.0153,9.16383,-1.16515,0.91277
365.682,21.09563,9.83444,-1.24149,0.91108
368.282,21.17596,10.5707,-1.32412,0.90938
370.882,21.25611,11.34286,-1.41631,0.90768
373.482,21.33677,12.1387,-1.51556,0.90596
376.082,21.41731,12.88975,-1.62442,0.90425
378.682,21.498,13.5539,-1.74267,0.90252
381.282,21.57873,14.0475,-1.86652,0.90079
383.882,21.65946,14.27067,-1.99616,0.89905
386.482,21.74021,14.14896,-2.12624,0.89731
389.082,21.82089,13.58496,-2.25549,0.89556
391.682,21.90158,12.53632,-2.37594,0.89381
394.282,21.98188,11.03304,-2.48307,0.89205
396.882,22.06222,9.1846,-2.57524,0.89028
399.482,22.14232,7.18101,-2.64727,0.88851
402.082,22.2223,5.27175,-2.70013,0.88673
404.682,22.30183,3.69112,-2.73574,0.88494
407.282,22.38192,2.50701,-2.76006,0.88315
409.882,22.4619,1.74698,-2.77446,0.88136
412.482,22.5419,1.28793,-2.78559,0.87956
415.082,22.62223,1.02114,-2.79641,0.87775
417.682,22.7025,0.84027,-2.80494,0.87594
420.282,22.78322,0.72488,-2.81309,0.87412
422.882,22.8639,0.61358,-2.82095,0.8723
425.482,22.9447,0.51604,-2.82816,0.87047
428.082,23.02536,0.42588,-2.83499,0.86863
430.682,23.1067,0.33304,-2.84248,0.8668
433.282,23.18802,0.25766,-2.85188,0.86495
435.882,23.26925,0.1807,-2.85759,0.8631
438.482,23.3507,0.13168,-2.86503,0.86125
441.082,23.43224,0.07855996,-2.86869,0.85939
443.682,23.51374,0.04766407,-2.87968,0.85752
446.282,23.5955,0.02662592,-2.88634,0.85565
448.882,23.6771,0.02719114,-2.8928,0.85378
451.482,23.75921,0.05975444,-2.90183,0.8519
454.082,23.84105,0.08654597,-2.90768,0.85002
456.682,23.92322,0.14982,-2.91395,0.84813
459.282,24.0053,0.21734,-2.91939,0.84623
461.882,24.0875,0.30447,-2.92598,0.84434
464.482,24.1698,0.3819,-2.93232,0.84243
467.082,24.25216,0.48401,-2.9374,0.84053
469.682,24.33464,0.5862,-2.94256,0.83862
472.282,24.41712,0.69172,-2.94827,0.8367
474.882,24.49984,0.80319,-2.95142,0.83478
477.482,24.58269,0.90921,-2.95667,0.83285
480.082,24.66526,1.00462,-2.95945,0.83093
482.682,24.7481,1.09604,-2.96687,0.82899
485.282,24.83083,1.19076,-2.96963,0.82706
487.882,24.91379,1.26307,-2.97444,0.82511
490.482,24.99681,1.33686,-2.97775,0.82317
493.082,25.0796,1.40496,-2.98039,0.82122
495.682,25.16279,1.45637,-2.9855,0.81927
498.282,25.24575,1.51016,-2.98833,0.81731
500.882,25.32891,1.54465,-2.99095,0.81535
503.482,25.41207,1.58903,-2.99387,0.81338
506.082,25.49539,1.63529,-2.9968,0.81141
508.682,25.5787,1.64916,-2.99976,0.80944
511.282,25.66199,1.67846,-3.00346,0.80746
513.882,25.74515,1.71126,-3.00471,0.80548
516.482,25.82868,1.72544,-3.00973,0.8035
519.082,25.91199,1.7301,-3.01166,0.80151
521.682,25.99544,1.75381,-3.01545,0.79952
524.282,26.07892,1.75108,-3.01816,0.79753
526.882,26.16253,1.76367,-3.02197,0.79553
529.482,26.2461,1.76347,-3.02447,0.79353
532.082,26.3297,1.76023,-3.02583,0.79152
534.682,26.41335,1.76729,-3.02834,0.78951
537.282,26.4974,1.76439,-3.03187,0.7875
539.882,26.58118,1.75156,-3.03427,0.78549
542.482,26.66493,1.75249,-3.03579,0.78347
545.082,26.749,1.7404,-3.0385,0.78145
547.682,26.83282,1.74095,-3.04141,0.77943
550.282,26.91687,1.74372,-3.04408,0.7774
552.882,27.00106,1.73895,-3.0468,0.77537
555.482,27.0851,1.7322,-3.04813,0.77334
558.082,27.16925,1.71666,-3.05074,0.77131
560.682,27.25354,1.71008,-3.05238,0.76927
563.282,27.3377,1.69778,-3.05483,0.76723
565.882,27.4223,1.70299,-3.05742,0.76518
568.482,27.50661,1.68859,-3.06008,0.76314
571.082,27.5911,1.69253,-3.06141,0.76109
573.682,27.6756,1.68572,-3.0633,0.75904
576.282,27.7602,1.68822,-3.06614,0.75699
578.882,27.84481,1.66623,-3.06829,0.75493
581.482,27.9296,1.66314,-3.07009,0.75287
584.082,28.01434,1.65439,-3.07133,0.75081
586.682,28.0991,1.65799,-3.07415,0.74875
589.282,28.18405,1.64413,-3.07646,0.74668
591.882,28.2691,1.63429,-3.07815,0.74461
594.482,28.3541,1.63945,-3.0805,0.74254
597.082,28.439,1.646,-3.08155,0.74047
599.682,28.524,1.64123,-3.08357,0.7384
602.282,28.60918,1.63996,-3.08547,0.73632
604.882,28.6945,1.63436,-3.08784,0.73424
607.482,28.77978,1.63827,-3.08953,0.73216
610.082,28.86491,1.63152,-3.0921,0.73008
612.682,28.95004,1.62124,-3.09425,0.728
615.282,29.0354,1.62149,-3.0953,0.72591
617.882,29.12107,1.61612,-3.09655,0.72382
620.482,29.20672,1.61785,-3.09853,0.72173
623.082,29.29216,1.60987,-3.09985,0.71964
625.682,29.37769,1.61617,-3.10134,0.71755
628.282,29.46327,1.59726,-3.10316,0.71545
630.882,29.54883,1.58946,-3.10408,0.71336
633.482,29.6344,1.59176,-3.10644,0.71126
636.082,29.71987,1.58479,-3.10775,0.70916
638.682,29.8056,1.57308,-3.10897,0.70706
641.282,29.89116,1.59338,-3.11037,0.70496
643.882,29.9767,1.57677,-3.11203,0.70285
644.582,29.9996,1.5808,-3.11203,0.70229