File: 02_Data/OSB/Cone/OSB_Cone_HF75Scalar_210325_R1.csv
LABORATORY,FSRI
TEST IDENT,OSB_HF75_1
OPERATOR,Dow
MATERIAL,5/8 inch OSB
ORIENTATION,Horizontal
HEAT FLUX,75
SURF AREA,0.01
C FACTOR,0.0386052
SPEC HOLDER DIFF,-90.89
SPECIMEN MASS,102.3
SCAN TIME,0.25
O2 DELAY TIME,11
CO DELAY TIME,11
CO2 DELAY TIME,8
FLOW FACTOR,1
SCAN COUNT,3155
TIME TO IGN,10.25
END OF TEST SCAN,2675
END OF TEST TIME,668.75
TEST STATUS,1
PRE TEST CMT,without retainer frame or grid