File: 02_Data/OSB/Cone/OSB_Cone_HF25Scalar_210324_R2.csv
LABORATORY,FSRI
TEST IDENT,OSB-HF25-2
OPERATOR,Morrissey
MATERIAL,5/8 inch OSB
ORIENTATION,Horizontal
HEAT FLUX,25
SURF AREA,0.01
C FACTOR,0.0386052
SPEC HOLDER DIFF,-99.5
SPECIMEN MASS,105
SCAN TIME,0.25
O2 DELAY TIME,11
CO DELAY TIME,11
CO2 DELAY TIME,8
FLOW FACTOR,1
SCAN COUNT,5781
TIME TO IGN,134.5
END OF TEST SCAN,5301
END OF TEST TIME,1325.25
TEST STATUS,1
PRE TEST CMT,test w/o retainer grid or frame