File: 02_Data/OSB/Cone/OSB_Cone_HF75Scalar_210325_R2.csv
LABORATORY,FSRI
TEST IDENT,OSB_HF75_2
OPERATOR,Dow
MATERIAL,5/8 inch OSB
ORIENTATION,Horizontal
HEAT FLUX,75
SURF AREA,0.01
C FACTOR,0.0386052
SPEC HOLDER DIFF,-86.93
SPECIMEN MASS,105.57
SCAN TIME,0.25
O2 DELAY TIME,11
CO DELAY TIME,11
CO2 DELAY TIME,8
FLOW FACTOR,1
SCAN COUNT,3601
TIME TO IGN,7.5
END OF TEST SCAN,3121
END OF TEST TIME,780.25
TEST STATUS,1
PRE TEST CMT,Test w/o frame or grid