File: 01_Data/Cotton_Ball/STA/N2/30K_min/Cotton_Ball_STA_N2_30KData_210714_R2.csv
##Temp./Â°C,Time/min,Mass loss(subtr.2)/mg,DSC(subtr.2)/(mW/mg),Sensit./(uV/mW)
50.664,10.00917,-0.04486,0.04209076,0.6235
53.564,11.55176,-0.04744871,0.15684,0.62347
56.464,11.90011,-0.04796142,0.24178,0.62342
59.364,12.15151,-0.05010673,0.31064,0.62336
62.264,12.3614,-0.05150505,0.36683,0.62328
65.164,12.54814,-0.05211681,0.4164,0.6232
68.064,12.7201,-0.05440528,0.46456,0.6231
70.964,12.88167,-0.05516745,0.50622,0.62299
73.864,13.03593,-0.0552572,0.54642,0.62286
76.764,13.18484,-0.05890863,0.58919,0.62273
79.664,13.3287,-0.05899549,0.62999,0.62258
82.564,13.46936,-0.06042723,0.67103,0.62242
85.464,13.60561,-0.06198059,0.71539,0.62224
88.364,13.73831,-0.0682861,0.75432,0.62206
91.264,13.86713,-0.06750159,0.79152,0.62186
94.164,13.9932,-0.07194755,0.82102,0.62165
97.064,14.1161,-0.0735858,0.8471,0.62143
99.964,14.23661,-0.07780667,0.87565,0.6212
102.864,14.3543,-0.08034306,0.90893,0.62095
105.764,14.46945,-0.08159756,0.93446,0.6207
108.664,14.58284,-0.08504221,0.9655,0.62043
111.564,14.69384,-0.08706552,0.98633,0.62015
114.464,14.8029,-0.09174165,0.99977,0.61986
117.364,14.91001,-0.09335162,1.01596,0.61956
120.264,15.0156,-0.09525434,1.02547,0.61924
123.164,15.1195,-0.09938964,1.03551,0.61892
126.064,15.2218,-0.10057,1.0417,0.61858
128.964,15.3224,-0.10297,1.04502,0.61824
131.864,15.42176,-0.10332,1.05108,0.61788
134.764,15.519,-0.10595,1.05826,0.61751
137.664,15.61672,-0.10728,1.05899,0.61713
140.564,15.71238,-0.10957,1.06375,0.61674
143.464,15.80706,-0.11088,1.05943,0.61634
146.364,15.90055,-0.1102,1.05865,0.61592
149.264,15.9935,-0.11321,1.06249,0.6155
152.164,16.08551,-0.11586,1.06616,0.61507
155.064,16.17676,-0.11583,1.06958,0.61462
157.964,16.2674,-0.11622,1.06984,0.61417
160.864,16.35741,-0.11371,1.05529,0.61371
163.764,16.447,-0.11499,1.06125,0.61323
166.664,16.53588,-0.11626,1.09386,0.61275
169.564,16.62422,-0.11756,1.09541,0.61225
172.464,16.71235,-0.11876,1.10333,0.61175
175.364,16.79972,-0.11757,1.11733,0.61123
178.264,16.88675,-0.11758,1.12945,0.61071
181.164,16.97329,-0.11889,1.14394,0.61018
184.064,17.05903,-0.12119,1.15646,0.60963
186.964,17.14451,-0.12216,1.16639,0.60908
189.864,17.22938,-0.12086,1.19372,0.60852
192.764,17.31396,-0.12141,1.20464,0.60795
195.664,17.39794,-0.12153,1.21889,0.60737
198.564,17.48143,-0.12068,1.23099,0.60678
201.464,17.565,-0.12021,1.24235,0.60618
204.364,17.64793,-0.12021,1.25635,0.60557
207.264,17.73072,-0.12199,1.27011,0.60496
210.164,17.81326,-0.12284,1.28398,0.60433
213.064,17.89545,-0.12425,1.29517,0.6037
215.964,17.9774,-0.12284,1.30383,0.60305
218.864,18.0592,-0.12284,1.31754,0.6024
221.764,18.1407,-0.12413,1.32761,0.60174
224.664,18.22203,-0.12547,1.33538,0.60108
227.564,18.30274,-0.12549,1.34283,0.6004
230.464,18.38391,-0.12679,1.35385,0.59972
233.364,18.46469,-0.12775,1.35888,0.59902
236.264,18.54525,-0.12811,1.37407,0.59832
239.164,18.62566,-0.12784,1.38148,0.59762
242.064,18.7059,-0.13059,1.38915,0.5969
244.964,18.786,-0.13086,1.3948,0.59618
247.864,18.8658,-0.13466,1.39615,0.59545
250.764,18.9456,-0.1362,1.40139,0.59471
253.664,19.02531,-0.13887,1.40185,0.59396
256.564,19.105,-0.13898,1.40755,0.59321
259.464,19.18437,-0.14054,1.40947,0.59245
262.364,19.26391,-0.14584,1.41431,0.59168
265.264,19.3434,-0.14924,1.41351,0.5909
268.164,19.4229,-0.155,1.40429,0.59012
271.064,19.50228,-0.15865,1.40221,0.58933
273.964,19.58166,-0.16582,1.39816,0.58854
276.864,19.66088,-0.17122,1.38911,0.58774
279.764,19.74015,-0.178,1.37111,0.58693
282.664,19.81924,-0.18527,1.3455,0.58611
285.564,19.8985,-0.19615,1.32982,0.58529
288.464,19.97769,-0.205,1.31037,0.58446
291.364,20.05697,-0.21587,1.28864,0.58363
294.264,20.1361,-0.23038,1.26018,0.58279
297.164,20.21519,-0.24263,1.23053,0.58194
300.064,20.29433,-0.26354,1.20528,0.58109
302.964,20.37341,-0.28229,1.17844,0.58023
305.864,20.4526,-0.30676,1.14887,0.57937
308.764,20.5317,-0.33211,1.13767,0.5785
311.664,20.61073,-0.36,1.13372,0.57762
314.564,20.68984,-0.39375,1.13549,0.57674
317.464,20.76887,-0.43342,1.13726,0.57586
320.364,20.8483,-0.47474,1.15932,0.57497
323.264,20.92751,-0.52196,1.1865,0.57407
326.164,21.00662,-0.57365,1.22065,0.57317
329.064,21.08621,-0.63733,1.26092,0.57226
331.964,21.16546,-0.70341,1.31408,0.57135
334.864,21.2447,-0.78106,1.37762,0.57043
337.764,21.32439,-0.86922,1.44747,0.56951
340.664,21.40375,-0.97061,1.53393,0.56858
343.564,21.48316,-1.08381,1.62458,0.56765
346.464,21.5627,-1.20841,1.74013,0.56672
349.364,21.6421,-1.37218,1.8589,0.56578
352.264,21.72165,-1.52185,1.97855,0.56484
355.164,21.80142,-1.6894,2.08146,0.56389
358.064,21.88131,-1.8624,2.14386,0.56294
360.964,21.96142,-2.03415,2.15712,0.56198
363.864,22.04187,-2.20176,2.10278,0.56102
366.764,22.12267,-2.35636,1.98022,0.56006
369.664,22.2038,-2.49853,1.79617,0.55909
372.564,22.2852,-2.61857,1.56902,0.55812
375.464,22.36657,-2.71586,1.31876,0.55714
378.364,22.4485,-2.79363,1.0665,0.55616
381.264,22.53036,-2.85178,0.83803,0.55518
384.164,22.61225,-2.89472,0.63485,0.55419
387.064,22.69427,-2.92513,0.47499,0.55321
389.964,22.7763,-2.94461,0.36093,0.55221
392.864,22.85848,-2.95453,0.28096,0.55122
395.764,22.94061,-2.96718,0.24013,0.55022
398.664,23.02305,-2.97728,0.2093,0.54922
401.564,23.10543,-2.98085,0.19071,0.54822
404.464,23.188,-2.99494,0.17532,0.54721
407.364,23.27088,-2.9993,0.1594,0.5462
410.264,23.35369,-3.00522,0.15336,0.54519
413.164,23.43656,-3.01211,0.14114,0.54418
416.064,23.51972,-3.0172,0.12615,0.54316
418.964,23.60302,-3.02515,0.12119,0.54214
421.864,23.6865,-3.02977,0.10401,0.54112
424.764,23.77,-3.03563,0.09683788,0.5401
427.664,23.85377,-3.04436,0.08361002,0.53907
430.564,23.93756,-3.04823,0.07393638,0.53804
433.464,24.02159,-3.0552,0.06417942,0.53701
436.364,24.10551,-3.05823,0.0608449,0.53598
439.264,24.18986,-3.05883,0.04383904,0.53495
442.164,24.27412,-3.07471,0.0431447,0.53392
445.064,24.35849,-3.07744,0.02928583,0.53288
447.964,24.44352,-3.08417,0.02431498,0.53184
450.864,24.52832,-3.08992,0.01371082,0.5308
453.764,24.61349,-3.09329,0.005473973,0.52976
456.664,24.6987,-3.09806,-0.001424746,0.52872
459.564,24.78381,-3.10772,-0.004514,0.52768
462.464,24.86947,-3.11235,-0.01034053,0.52663
465.364,24.9553,-3.11775,-0.006582141,0.52559
468.264,25.0411,-3.1221,-0.01158472,0.52454
471.164,25.12715,-3.12913,-0.01710922,0.52349
474.064,25.21323,-3.1335,-0.0212001,0.52245
476.964,25.29945,-3.1367,-0.02590654,0.5214
479.864,25.38598,-3.14121,-0.03633094,0.52035
482.764,25.47245,-3.14648,-0.03346862,0.5193
485.664,25.55914,-3.15161,-0.03579675,0.51825
488.564,25.64593,-3.1579,-0.03681052,0.51719
491.464,25.73317,-3.16145,-0.04114519,0.51614
494.364,25.8204,-3.16546,-0.0434559,0.51509
497.264,25.90755,-3.16962,-0.04672755,0.51404
500.164,25.99491,-3.17129,-0.05008498,0.51299
503.064,26.08256,-3.1773,-0.05015256,0.51193
505.964,26.1703,-3.17932,-0.04775156,0.51088
508.864,26.25822,-3.18273,-0.04668338,0.50983
511.764,26.34634,-3.18777,-0.05165804,0.50878
514.664,26.43455,-3.18978,-0.05380741,0.50772
517.564,26.5228,-3.19344,-0.05724922,0.50667
520.464,26.6113,-3.1975,-0.05672862,0.50562
523.364,26.70007,-3.19915,-0.05766616,0.50457
526.264,26.78847,-3.20355,-0.06302257,0.50351
529.164,26.87743,-3.20633,-0.06251347,0.50246
532.064,26.96663,-3.20832,-0.06223665,0.50141
534.964,27.0557,-3.21181,-0.06155903,0.50036
537.864,27.1449,-3.21762,-0.06285024,0.49931
540.764,27.23436,-3.21908,-0.07083598,0.49826
543.664,27.3238,-3.21904,-0.07325514,0.49722
546.564,27.4134,-3.22336,-0.07511263,0.49617
549.464,27.50286,-3.22844,-0.07453284,0.49512
552.364,27.5932,-3.22881,-0.07467773,0.49408
555.264,27.68305,-3.23253,-0.07710358,0.49303
558.164,27.77324,-3.23248,-0.08435885,0.49199
561.064,27.86363,-3.2353,-0.08907305,0.49094
563.964,27.9541,-3.23662,-0.09300899,0.4899
566.864,28.04468,-3.23762,-0.09603692,0.48886
569.764,28.13543,-3.23892,-0.10525,0.48782
572.664,28.22632,-3.24317,-0.11575,0.48679
575.564,28.3172,-3.24349,-0.1203,0.48575
578.464,28.40823,-3.24713,-0.1257,0.48471
581.364,28.4993,-3.25032,-0.13374,0.48368
584.264,28.5906,-3.24925,-0.13688,0.48265
587.164,28.6819,-3.25193,-0.1441,0.48162
590.064,28.77342,-3.25344,-0.14857,0.48059
592.964,28.865,-3.25605,-0.15047,0.47956
595.864,28.9567,-3.25609,-0.15824,0.47854
598.764,29.04857,-3.25935,-0.16796,0.47751
601.664,29.14043,-3.26138,-0.1763,0.47649
604.564,29.2323,-3.26278,-0.17695,0.47547
607.464,29.32452,-3.26282,-0.1798,0.47445
610.364,29.4169,-3.26533,-0.18573,0.47343
613.264,29.5092,-3.26404,-0.19205,0.47242
616.164,29.60176,-3.26677,-0.19063,0.47141
619.064,29.69412,-3.26797,-0.19985,0.47039
621.964,29.78701,-3.26919,-0.20141,0.46939
624.864,29.8799,-3.26998,-0.20602,0.46838
627.764,29.97271,-3.27053,-0.21326,0.46737
630.664,30.06563,-3.27349,-0.22254,0.46637
633.564,30.1587,-3.27478,-0.23615,0.46537
636.464,30.25173,-3.27478,-0.24048,0.46437
639.364,30.34515,-3.27524,-0.23531,0.46338
642.264,30.43848,-3.2754,-0.2348,0.46238
645.164,30.53197,-3.2761,-0.23114,0.46139
648.064,30.62541,-3.2793,-0.22701,0.4604
650.964,30.7188,-3.28005,-0.20811,0.45942
653.864,30.8126,-3.28006,-0.20661,0.45843
656.764,30.9064,-3.28137,-0.21303,0.45745
659.664,31.0003,-3.28141,-0.20547,0.45647
662.564,31.0941,-3.28294,-0.2054,0.4555
665.464,31.1882,-3.28426,-0.19869,0.45452
668.364,31.28262,-3.28532,-0.20006,0.45355
671.264,31.3768,-3.28532,-0.20441,0.45258
674.164,31.4712,-3.28671,-0.20804,0.45162
677.064,31.56581,-3.2784,-0.19538,0.45066
679.964,31.6603,-3.29255,-0.19828,0.4497
682.864,31.755,-3.28839,-0.20541,0.44874
685.764,31.84962,-3.29007,-0.20741,0.44778
688.664,31.94469,-3.29102,-0.21046,0.44683
691.564,32.03947,-3.29235,-0.20482,0.44588
694.464,32.13458,-3.29366,-0.20812,0.44493
697.364,32.2297,-3.29299,-0.21456,0.44399
700.264,32.32483,-3.29158,-0.22439,0.44305
703.164,32.41989,-3.29299,-0.2233,0.44211
706.064,32.51481,-3.29376,-0.21568,0.44118
708.964,32.61009,-3.29244,-0.21232,0.44024
711.864,32.7053,-3.29247,-0.20198,0.43932
714.764,32.80059,-3.29483,-0.20264,0.43839
717.664,32.89617,-3.2964,-0.21185,0.43747
720.564,32.9916,-3.29773,-0.22048,0.43655
723.464,33.08724,-3.29437,-0.22286,0.43563
726.364,33.1828,-3.29933,-0.22216,0.43471
729.264,33.27858,-3.30001,-0.22993,0.4338
730.864,33.33195,-3.30001,-0.22504,0.4333