File: 01_Data/Cotton_Ball/STA/N2/30K_min/Cotton_Ball_STA_N2_30KData_210714_R1.csv
##Temp./Â°C,Time/min,Mass loss(subtr.2)/mg,DSC(subtr.2)/(mW/mg),Sensit./(uV/mW)
50.575,10.00917,-0.01492,-0.04413119,0.6235
53.575,11.56615,-0.01913396,0.06561666,0.62347
56.575,11.91685,-0.01829896,0.15283,0.62342
59.575,12.17218,-0.02002229,0.21857,0.62335
62.575,12.386,-0.02063523,0.27599,0.62327
65.575,12.57698,-0.02207352,0.32069,0.62318
68.575,12.75244,-0.02291548,0.36671,0.62308
71.575,12.91793,-0.0239719,0.40506,0.62296
74.575,13.07615,-0.02530898,0.44639,0.62283
77.575,13.22841,-0.02731171,0.47593,0.62269
80.575,13.37635,-0.02569605,0.51307,0.62253
83.575,13.5197,-0.02873995,0.53997,0.62236
86.575,13.6593,-0.03048995,0.57327,0.62217
89.575,13.7946,-0.0311312,0.60972,0.62198
92.575,13.9263,-0.03346332,0.6344,0.62177
95.575,14.05539,-0.03735737,0.66211,0.62155
98.575,14.18079,-0.04025435,0.70048,0.62131
101.575,14.30362,-0.04177452,0.73471,0.62107
104.575,14.4237,-0.04311178,0.76693,0.62081
107.575,14.54141,-0.04482069,0.80236,0.62053
110.575,14.6569,-0.04728042,0.82493,0.62025
113.575,14.77055,-0.05005318,0.85555,0.61995
116.575,14.88202,-0.05146057,0.87187,0.61964
119.575,14.9917,-0.05547062,0.88804,0.61932
122.575,15.09959,-0.05784009,0.90629,0.61899
125.575,15.2058,-0.05959583,0.92535,0.61864
128.575,15.31025,-0.06116683,0.93157,0.61828
131.575,15.413,-0.06677071,0.93977,0.61791
134.575,15.51474,-0.07154068,0.95222,0.61753
137.575,15.6149,-0.07432828,0.95989,0.61714
140.575,15.71415,-0.06878358,0.9611,0.61674
143.575,15.81204,-0.07015652,0.96454,0.61632
146.575,15.90889,-0.06878406,0.96454,0.61589
149.575,16.0049,-0.07009016,0.97147,0.61546
152.575,16.10011,-0.07240263,0.97697,0.61501
155.575,16.19458,-0.07378765,0.98328,0.61454
158.575,16.28839,-0.07536486,0.98289,0.61407
161.575,16.3813,-0.07552152,0.98941,0.61359
164.575,16.47395,-0.07929991,0.99158,0.6131
167.575,16.56586,-0.07925203,0.98927,0.61259
170.575,16.65704,-0.08070029,1.00079,0.61208
173.575,16.74791,-0.08142732,0.99782,0.61155
176.575,16.8382,-0.081957,1.00141,0.61102
179.575,16.9277,-0.08325727,1.01465,0.61047
182.575,17.0169,-0.08325,1.01549,0.60991
185.575,17.10545,-0.08380555,1.04358,0.60935
188.575,17.19341,-0.08665848,1.05018,0.60877
191.575,17.2809,-0.08721704,1.06083,0.60818
194.575,17.36797,-0.08716587,1.05983,0.60759
197.575,17.4546,-0.08721,1.0734,0.60698
200.575,17.54074,-0.08721,1.07949,0.60636
203.575,17.62663,-0.08721089,1.08831,0.60574
206.575,17.7122,-0.08851903,1.10005,0.6051
209.575,17.7976,-0.08985797,1.10708,0.60446
212.575,17.88268,-0.08976142,1.11219,0.6038
215.575,17.9674,-0.09115037,1.12658,0.60314
218.575,18.0519,-0.08983685,1.12843,0.60247
221.575,18.13627,-0.09103971,1.1372,0.60179
224.575,18.22029,-0.09103999,1.14744,0.6011
227.575,18.30423,-0.09229612,1.15408,0.6004
230.575,18.38779,-0.0936842,1.1535,0.59969
233.575,18.4712,-0.09653546,1.16092,0.59897
236.575,18.55464,-0.09523285,1.16841,0.59825
239.575,18.63776,-0.09521009,1.17555,0.59752
242.575,18.72071,-0.09658858,1.17155,0.59677
245.575,18.8034,-0.09915937,1.18128,0.59602
248.575,18.88624,-0.09842137,1.19101,0.59527
251.575,18.9688,-0.10125,1.20095,0.5945
254.575,19.05123,-0.1023,1.20986,0.59373
257.575,19.13363,-0.10397,1.20807,0.59294
260.575,19.21584,-0.10672,1.21009,0.59215
263.575,19.29789,-0.10949,1.20511,0.59136
266.575,19.38006,-0.11209,1.20328,0.59055
269.575,19.46196,-0.11684,1.20273,0.58974
272.575,19.54404,-0.12073,1.19513,0.58892
275.575,19.626,-0.12628,1.18075,0.58809
278.575,19.7079,-0.13252,1.16875,0.58726
281.575,19.78976,-0.13849,1.13752,0.58642
284.575,19.87169,-0.14582,1.11267,0.58557
287.575,19.9535,-0.15661,1.08815,0.58472
290.575,20.0354,-0.16352,1.05053,0.58386
293.575,20.11703,-0.17742,1.01047,0.58299
296.575,20.19877,-0.191,0.96594,0.58211
299.575,20.28081,-0.20327,0.92673,0.58123
302.575,20.3624,-0.22298,0.88143,0.58035
305.575,20.44426,-0.24546,0.84164,0.57945
308.575,20.52603,-0.26904,0.80501,0.57856
311.575,20.60776,-0.29641,0.78763,0.57765
314.575,20.6896,-0.32687,0.77295,0.57674
317.575,20.77136,-0.36111,0.77189,0.57582
320.575,20.85306,-0.40325,0.76874,0.5749
323.575,20.93479,-0.44817,0.77422,0.57397
326.575,21.01665,-0.50079,0.77735,0.57304
329.575,21.09858,-0.55918,0.7907,0.5721
332.575,21.18048,-0.62602,0.80424,0.57116
335.575,21.26245,-0.70582,0.82907,0.57021
338.575,21.34424,-0.7947,0.85309,0.56925
341.575,21.42625,-0.89932,0.89217,0.56829
344.575,21.50822,-1.01618,0.94337,0.56733
347.575,21.59015,-1.14875,1.00785,0.56636
350.575,21.6722,-1.28248,1.07731,0.56539
353.575,21.75413,-1.45898,1.1501,0.56441
356.575,21.83667,-1.61705,1.2079,0.56342
359.575,21.91949,-1.77324,1.23573,0.56244
362.575,22.00265,-1.92329,1.21677,0.56145
365.575,22.08592,-2.06081,1.15466,0.56045
368.575,22.16926,-2.1818,1.04946,0.55945
371.575,22.25385,-2.28434,0.9166,0.55845
374.575,22.33793,-2.36654,0.76988,0.55744
377.575,22.42259,-2.43013,0.61336,0.55643
380.575,22.5071,-2.4801,0.46491,0.55541
383.575,22.59178,-2.51366,0.31887,0.5544
386.575,22.67675,-2.53903,0.2005,0.55337
389.575,22.76141,-2.55716,0.10254,0.55235
392.575,22.8464,-2.56127,0.04332695,0.55132
395.575,22.9314,-2.58079,0.00146406,0.55029
398.575,23.0165,-2.58599,-0.02024756,0.54925
401.575,23.1017,-2.59372,-0.03666262,0.54821
404.575,23.18713,-2.59995,-0.0527114,0.54717
407.575,23.2728,-2.60819,-0.07134251,0.54613
410.575,23.35845,-2.61418,-0.08346723,0.54508
413.575,23.44428,-2.6207,-0.09198296,0.54403
416.575,23.53023,-2.62682,-0.10753,0.54298
419.575,23.61629,-2.63535,-0.11921,0.54193
422.575,23.70261,-2.64006,-0.12868,0.54087
425.575,23.78885,-2.64637,-0.14256,0.53981
428.575,23.87546,-2.65137,-0.15012,0.53875
431.575,23.9621,-2.65686,-0.16528,0.53768
434.575,24.0489,-2.666,-0.17181,0.53662
437.575,24.13588,-2.67285,-0.1814,0.53555
440.575,24.22295,-2.67916,-0.19197,0.53448
443.575,24.3103,-2.67386,-0.19842,0.53341
446.575,24.39775,-2.69741,-0.19308,0.53234
449.575,24.4853,-2.69358,-0.20169,0.53126
452.575,24.57305,-2.70055,-0.21152,0.53019
455.575,24.66113,-2.70731,-0.21271,0.52911
458.575,24.74899,-2.71253,-0.21827,0.52803
461.575,24.83764,-2.71861,-0.2165,0.52695
464.575,24.92609,-2.72246,-0.22046,0.52587
467.575,25.0149,-2.73052,-0.22263,0.52479
470.575,25.10364,-2.73659,-0.22033,0.52371
473.575,25.1927,-2.74018,-0.22175,0.52262
476.575,25.28182,-2.74476,-0.22263,0.52154
479.575,25.37114,-2.75173,-0.21643,0.52045
482.575,25.4607,-2.75609,-0.21568,0.51937
485.575,25.55046,-2.76138,-0.21058,0.51828
488.575,25.64037,-2.76563,-0.1967,0.51719
491.575,25.73027,-2.77093,-0.19485,0.5161
494.575,25.8206,-2.77417,-0.18904,0.51501
497.575,25.91101,-2.77944,-0.19254,0.51393
500.575,26.00166,-2.78246,-0.18938,0.51284
503.575,26.09208,-2.78603,-0.19274,0.51175
506.575,26.1831,-2.79075,-0.1896,0.51066
509.575,26.27412,-2.79487,-0.18437,0.50957
512.575,26.36528,-2.79786,-0.17934,0.50848
515.575,26.4564,-2.80141,-0.17066,0.50739
518.575,26.54785,-2.80447,-0.17343,0.5063
521.575,26.63937,-2.80699,-0.17113,0.50521
524.575,26.73105,-2.81083,-0.17107,0.50413
527.575,26.8228,-2.81387,-0.17124,0.50304
530.575,26.91483,-2.81812,-0.15978,0.50195
533.575,27.0068,-2.8208,-0.15712,0.50086
536.575,27.09889,-2.82377,-0.14721,0.49978
539.575,27.1913,-2.82619,-0.13885,0.49869
542.575,27.28383,-2.82818,-0.13176,0.49761
545.575,27.3766,-2.83089,-0.13675,0.49653
548.575,27.4694,-2.83465,-0.14405,0.49544
551.575,27.56261,-2.8379,-0.14035,0.49436
554.575,27.6558,-2.83856,-0.14008,0.49328
557.575,27.7492,-2.84054,-0.1478,0.4922
560.575,27.84246,-2.84458,-0.14401,0.49112
563.575,27.93595,-2.84627,-0.1404,0.49004
566.575,28.0296,-2.84877,-0.14193,0.48897
569.575,28.1234,-2.85019,-0.15562,0.48789
572.575,28.2173,-2.85264,-0.1532,0.48682
575.575,28.3113,-2.85535,-0.15613,0.48575
578.575,28.4055,-2.85703,-0.16284,0.48468
581.575,28.49952,-2.85798,-0.16473,0.48361
584.575,28.59382,-2.86165,-0.17552,0.48254
587.575,28.68828,-2.86321,-0.1788,0.48147
590.575,28.7827,-2.86457,-0.18023,0.48041
593.575,28.8775,-2.86613,-0.19737,0.47935
596.575,28.9722,-2.86819,-0.19325,0.47828
599.575,29.06728,-2.86948,-0.20359,0.47723
602.575,29.16217,-2.87081,-0.2141,0.47617
605.575,29.25747,-2.87254,-0.21597,0.47511
608.575,29.3527,-2.87389,-0.22966,0.47406
611.575,29.4482,-2.87618,-0.23743,0.47301
614.575,29.54385,-2.87751,-0.23512,0.47196
617.575,29.6396,-2.87951,-0.24001,0.47091
620.575,29.73517,-2.87883,-0.2448,0.46987
623.575,29.83087,-2.88011,-0.23356,0.46883
626.575,29.9268,-2.88268,-0.23886,0.46779
629.575,30.0229,-2.88344,-0.24822,0.46675
632.575,30.1183,-2.88607,-0.25317,0.46571
635.575,30.215,-2.88606,-0.25749,0.46468
638.575,30.3114,-2.88738,-0.25796,0.46365
641.575,30.4078,-2.88875,-0.26752,0.46262
644.575,30.5042,-2.88874,-0.27928,0.46159
647.575,30.60095,-2.89113,-0.28014,0.46057
650.575,30.6978,-2.89133,-0.2763,0.45955
653.575,30.7946,-2.89133,-0.28911,0.45853
656.575,30.8915,-2.89135,-0.29584,0.45752
659.575,30.98878,-2.89527,-0.29071,0.4565
662.575,31.08594,-2.89526,-0.3061,0.45549
665.575,31.18327,-2.89659,-0.29549,0.45449
668.575,31.2805,-2.89802,-0.30185,0.45348
671.575,31.3781,-2.89802,-0.31891,0.45248
674.575,31.4757,-2.89944,-0.32647,0.45148
677.575,31.5733,-2.90076,-0.32404,0.45049
680.575,31.6711,-2.90084,-0.33,0.44949
683.575,31.76875,-2.90208,-0.33793,0.4485
686.575,31.8665,-2.90207,-0.33975,0.44752
689.575,31.96466,-2.90339,-0.34723,0.44653
692.575,32.0627,-2.90471,-0.36452,0.44555
695.575,32.16081,-2.9034,-0.37181,0.44457
698.575,32.2589,-2.90471,-0.36192,0.4436
701.575,32.35731,-2.90473,-0.3621,0.44263
704.575,32.45554,-2.90634,-0.37156,0.44166
707.575,32.55404,-2.90609,-0.38124,0.44069
710.575,32.6524,-2.90735,-0.39175,0.43973
713.575,32.7511,-2.90723,-0.405,0.43877
716.575,32.8498,-2.908,-0.43583,0.43781
719.575,32.94846,-2.90931,-0.41514,0.43686
722.575,33.0472,-2.90931,-0.41349,0.43591
725.575,33.14602,-2.90929,-0.40152,0.43496
728.575,33.24481,-2.91327,-0.41553,0.43402
731.175,33.3316,-2.91195,-0.42955,0.4332