File: 01_Data/PETG/STA/N2/30K_min/PETG_STA_N2_30KData_210902_R3.csv
##Temp./Â°C,Time/min,DSC(subtr.2)/(mW/mg),Mass loss(subtr.2)/mg,Sensit./(uV/mW)
49.377,10.01,-0.007547204,-0.00208,1.05401
51.877,11.54388,0.07882067,-0.00841227,1.05405
54.377,11.89281,0.13538,-0.01052891,1.05406
56.877,12.14745,0.18113,-0.01287558,1.05404
59.377,12.36097,0.21927,-0.006686295,1.05399
61.877,12.55057,0.24878,-0.01602111,1.05391
64.377,12.72545,0.2789,-0.004138315,1.0538
66.877,12.88843,0.30346,-0.007509516,1.05366
69.377,13.04532,0.32897,-0.009350419,1.05349
71.877,13.19479,0.35147,-0.01002489,1.0533
74.377,13.3386,0.36906,-0.00362717,1.05307
76.877,13.47824,0.37776,-0.00755516,1.05281
79.377,13.61325,0.38024,-0.00916734,1.05252
81.877,13.74446,0.37675,-0.01722634,1.0522
84.377,13.871,0.37638,-0.01872404,1.05186
86.877,13.99431,0.37908,-0.01249414,1.05148
89.377,14.1135,0.38543,-0.01096408,1.05108
91.877,14.22974,0.39194,-0.00911133,1.05065
94.377,14.343,0.39689,-0.009402338,1.05019
96.877,14.4533,0.40342,-0.01097183,1.0497
99.377,14.56175,0.41217,-0.01281333,1.04919
101.877,14.6674,0.42301,-0.01238534,1.04864
104.377,14.7705,0.43633,-0.01455342,1.04807
106.877,14.87285,0.45259,-0.01356779,1.04748
109.377,14.9725,0.47308,-0.01270858,1.04685
111.877,15.0714,0.49392,-0.01141728,1.0462
114.377,15.16823,0.51563,-0.008386457,1.04552
116.877,15.2641,0.53768,-0.0102478,1.04481
119.377,15.3577,0.55702,-0.01356347,1.04408
121.877,15.4514,0.57815,-0.01314922,1.04332
124.377,15.5431,0.59912,-0.01291027,1.04254
126.877,15.6336,0.61984,-0.01194668,1.04173
129.377,15.723,0.63726,-0.01170349,1.0409
131.877,15.81149,0.656,-0.01029579,1.04004
134.377,15.8988,0.67464,-0.01186969,1.03915
136.877,15.9851,0.69064,-0.01110151,1.03824
139.377,16.07057,0.70556,-0.01194992,1.0373
141.877,16.15527,0.72262,-0.01070643,1.03634
144.377,16.2389,0.7373,-0.009532612,1.03536
146.877,16.322,0.75274,-0.01072737,1.03435
149.377,16.40446,0.76562,-0.0145189,1.03332
151.877,16.48616,0.77766,-0.0170426,1.03226
154.377,16.5673,0.79301,-0.01481128,1.03118
156.877,16.64775,0.80761,-0.01273067,1.03008
159.377,16.72777,0.82005,-0.01316922,1.02895
161.877,16.80722,0.83242,-0.01535545,1.0278
164.377,16.88625,0.84747,-0.01210337,1.02663
166.877,16.96483,0.86152,-0.01289723,1.02544
169.377,17.04279,0.87369,-0.01337999,1.02422
171.877,17.12043,0.88604,-0.01338028,1.02298
174.377,17.19748,0.89885,-0.01194802,1.02172
176.877,17.27405,0.91218,-0.00924889,1.02044
179.377,17.3504,0.92517,-0.00686447,1.01914
181.877,17.4259,0.94052,-0.006389781,1.01781
184.377,17.5011,0.94956,-0.01589191,1.01647
186.877,17.5758,0.96202,-0.00954128,1.0151
189.377,17.6502,0.97664,-0.01097089,1.01372
191.877,17.72416,0.98826,-0.01572006,1.01231
194.377,17.7976,1.00292,-0.01710718,1.01089
196.877,17.87112,1.01636,-0.01710601,1.00944
199.377,17.944,1.03044,-0.01296042,1.00798
201.877,18.01671,1.04354,-0.01359177,1.00649
204.377,18.08905,1.06148,-0.01247891,1.00499
206.877,18.1613,1.07655,-0.01193483,1.00347
209.377,18.2332,1.0941,-0.01477314,1.00193
211.877,18.30491,1.11146,-0.01609417,1.00037
214.377,18.37634,1.1324,-0.01377788,0.99879
216.877,18.44783,1.1536,-0.0121695,0.9972
219.377,18.51904,1.17958,-0.01215414,0.99559
221.877,18.58979,1.20511,-0.01120929,0.99396
224.377,18.6607,1.23852,-0.01088219,0.99231
226.877,18.73135,1.2734,-0.0143077,0.99065
229.377,18.80177,1.31746,-0.01847986,0.98897
231.877,18.87207,1.37276,-0.01849168,0.98727
234.377,18.94216,1.4407,-0.01391905,0.98556
236.877,19.01226,1.52797,-0.01525359,0.98383
239.377,19.0821,1.64144,-0.01964563,0.98209
241.877,19.152,1.77977,-0.01987926,0.98033
244.377,19.2216,1.95272,-0.01904704,0.97855
246.877,19.2912,2.15388,-0.02009345,0.97676
249.377,19.3609,2.34132,-0.01698104,0.97496
251.877,19.43025,2.42882,-0.01403149,0.97314
254.377,19.49985,2.2996,-0.01271999,0.97131
256.877,19.5688,2.05553,-0.01405263,0.96946
259.377,19.63778,1.82805,-0.01567203,0.9676
261.877,19.70639,1.64928,-0.016981,0.96573
264.377,19.77479,1.51782,-0.01695011,0.96385
266.877,19.84326,1.43472,-0.01415501,0.96195
269.377,19.91152,1.37984,-0.01432689,0.96003
271.877,19.97985,1.34736,-0.01557797,0.95811
274.377,20.04813,1.32665,-0.01955801,0.95617
276.877,20.11634,1.31812,-0.01954624,0.95422
279.377,20.18453,1.31474,-0.02185751,0.95226
281.877,20.2528,1.31365,-0.02111193,0.95029
284.377,20.32089,1.31517,-0.02142596,0.94831
286.877,20.38909,1.31496,-0.01884808,0.94632
289.377,20.4573,1.31882,-0.01357564,0.94431
291.877,20.52552,1.3202,-0.01426407,0.9423
294.377,20.59376,1.32214,-0.01490074,0.94027
296.877,20.66188,1.32598,-0.0149963,0.93823
299.377,20.72999,1.33036,-0.01239026,0.93619
301.877,20.79809,1.33077,-0.01518891,0.93414
304.377,20.86607,1.33252,-0.01840997,0.93207
306.877,20.93419,1.33888,-0.01877662,0.93
309.377,21.0023,1.34203,-0.01876331,0.92792
311.877,21.0703,1.3447,-0.01743974,0.92583
314.377,21.1384,1.35024,-0.01986555,0.92373
316.877,21.20652,1.35189,-0.01938245,0.92162
319.377,21.27455,1.35578,-0.02051046,0.9195
321.877,21.3427,1.35656,-0.02051098,0.91738
324.377,21.41023,1.3568,-0.0214651,0.91525
326.877,21.47824,1.36176,-0.01385139,0.91312
329.377,21.54648,1.36359,-0.01844488,0.91097
331.877,21.6147,1.36248,-0.0117715,0.90882
334.377,21.683,1.37256,-0.0213679,0.90666
336.877,21.7513,1.3716,-0.02039661,0.9045
339.377,21.81962,1.37669,-0.02040021,0.90233
341.877,21.88803,1.37555,-0.02174657,0.90016
344.377,21.95656,1.37855,-0.01885939,0.89798
346.877,22.02494,1.37991,-0.01877086,0.89579
349.377,22.09355,1.38543,-0.02017006,0.8936
351.877,22.16218,1.386,-0.02002004,0.8914
354.377,22.2309,1.39017,-0.02017998,0.8892
356.877,22.29978,1.39155,-0.0187671,0.887
359.377,22.36855,1.39362,-0.01622606,0.88479
361.877,22.43743,1.39467,-0.01753694,0.88258
364.377,22.50676,1.40193,-0.01885484,0.88036
366.877,22.576,1.40345,-0.02018904,0.87814
369.377,22.64518,1.4072,-0.01886434,0.87591
371.877,22.71438,1.41433,-0.01955992,0.87369
374.377,22.78355,1.42253,-0.02424392,0.87146
376.877,22.85281,1.42774,-0.02444034,0.86922
379.377,22.92219,1.43983,-0.03124188,0.86699
381.877,22.99171,1.44228,-0.03123617,0.86475
384.377,23.0614,1.44929,-0.03306419,0.86251
386.877,23.13121,1.45218,-0.02959266,0.86027
389.377,23.20102,1.46101,-0.02385417,0.85803
391.877,23.2711,1.47788,-0.02524668,0.85579
394.377,23.3409,1.50554,-0.02804466,0.85354
396.877,23.41081,1.54317,-0.03469044,0.85129
399.377,23.48048,1.5682,-0.03706153,0.84905
401.877,23.55097,1.5975,-0.04253137,0.8468
404.377,23.6213,1.62984,-0.04710486,0.84455
406.877,23.69174,1.66244,-0.05247739,0.8423
409.377,23.7622,1.68123,-0.06237593,0.84005
411.877,23.83294,1.71166,-0.07545467,0.83781
414.377,23.90386,1.73713,-0.08333479,0.83556
416.877,23.9747,1.79426,-0.09584983,0.83331
419.377,24.04561,1.84108,-0.11416,0.83106
421.877,24.11657,1.90782,-0.13773,0.82882
424.377,24.18766,1.9462,-0.16105,0.82657
426.877,24.25881,2.00278,-0.19177,0.82433
429.377,24.33,2.06086,-0.22575,0.82209
431.877,24.4014,2.14062,-0.26668,0.81985
434.377,24.47287,2.23142,-0.3137,0.81761
436.877,24.5443,2.34823,-0.37293,0.81537
439.377,24.6162,2.47252,-0.43706,0.81314
441.877,24.6881,2.60451,-0.50932,0.81091
444.377,24.76035,2.74759,-0.5923,0.80868
446.877,24.83249,2.88224,-0.68719,0.80645
449.377,24.90493,3.01395,-0.79492,0.80423
451.877,24.97755,3.13873,-0.92181,0.80201
454.377,25.0502,3.27996,-1.0671,0.79979
456.877,25.12294,3.35373,-1.22324,0.79758
459.377,25.1957,3.3613,-1.38415,0.79537
461.877,25.26851,3.37824,-1.56146,0.79316
464.377,25.34173,3.41092,-1.77407,0.79096
466.877,25.41486,3.43089,-1.97328,0.78876
469.377,25.4882,3.3771,-2.18308,0.78657
471.877,25.56176,3.24141,-2.39327,0.78438
474.377,25.63516,3.01069,-2.58712,0.78219
476.877,25.70853,2.69913,-2.76109,0.78001
479.377,25.7819,2.32481,-2.89351,0.77783
481.877,25.85526,1.93871,-3.00293,0.77566
484.377,25.92876,1.5909,-3.07211,0.77349
486.877,26.00248,1.29889,-3.13472,0.77133
489.377,26.0762,1.05691,-3.1804,0.76918
491.877,26.15007,0.85922,-3.21416,0.76703
494.377,26.22366,0.69747,-3.23862,0.76488
496.877,26.2978,0.56196,-3.25812,0.76274
499.377,26.37227,0.44724,-3.26911,0.76061
501.877,26.4465,0.35667,-3.28409,0.75848
504.377,26.5211,0.28354,-3.30059,0.75636
506.877,26.59569,0.23017,-3.31521,0.75425
509.377,26.67029,0.18278,-3.33108,0.75214
511.877,26.7453,0.14713,-3.33867,0.75004
514.377,26.82031,0.12133,-3.34225,0.74794
516.877,26.8954,0.10255,-3.34586,0.74585
519.377,26.97059,0.08564352,-3.3511,0.74377
521.877,27.0458,0.07647741,-3.35708,0.7417
524.377,27.1213,0.06744314,-3.36071,0.73963
526.877,27.1967,0.06214689,-3.36208,0.73757
529.377,27.2721,0.06246471,-3.3691,0.73551
531.877,27.3477,0.05763931,-3.37361,0.73347
534.377,27.42369,0.05484889,-3.37903,0.73143
536.877,27.4992,0.05299643,-3.38107,0.7294
539.377,27.5756,0.05162642,-3.38269,0.72738
541.877,27.6513,0.04873431,-3.38164,0.72536
544.377,27.7279,0.05017082,-3.38596,0.72335
546.877,27.804,0.04862737,-3.39116,0.72135
549.377,27.8801,0.04876,-3.39314,0.71936
551.877,27.9565,0.04758533,-3.39713,0.71738
554.377,28.03333,0.04921387,-3.40063,0.7154
556.877,28.10997,0.04358731,-3.39905,0.71344
559.377,28.1867,0.04760312,-3.39478,0.71148
561.877,28.26377,0.04596487,-3.40225,0.70953
564.377,28.3406,0.04333854,-3.40968,0.70759
566.877,28.4177,0.04355423,-3.40607,0.70565
569.377,28.49489,0.03929625,-3.40121,0.70373
571.877,28.57201,0.03675545,-3.40488,0.70182
574.377,28.64892,0.03838882,-3.41233,0.69991
576.877,28.7261,0.03841803,-3.41607,0.69801
579.377,28.80358,0.03657509,-3.41473,0.69612
581.877,28.881,0.03564835,-3.42088,0.69424
584.377,28.95845,0.03916498,-3.42604,0.69237
586.877,29.0359,0.03815045,-3.42197,0.69051
589.377,29.1136,0.03192488,-3.42242,0.68866
591.877,29.1913,0.02879655,-3.42262,0.68682
594.377,29.269,0.02459892,-3.42656,0.68499
596.877,29.3469,0.02028299,-3.42249,0.68316
599.377,29.4249,0.01813294,-3.42793,0.68135
601.877,29.50295,0.01610376,-3.43442,0.67954
604.377,29.58087,0.01314351,-3.43554,0.67775
606.877,29.65918,0.01283637,-3.43471,0.67596
609.377,29.7374,0.007913045,-3.43544,0.67418
611.877,29.81574,0.00685296,-3.43852,0.67242
614.377,29.89405,0.001681599,-3.43678,0.67066
616.877,29.9726,0.003629498,-3.43912,0.66891
617.677,29.9977,0.003062945,-3.4406,0.66836