File: 01_Data/PETG/STA/N2/30K_min/PETG_STA_N2_30KData_210902_R2.csv
##Temp./Â°C,Time/min,DSC(subtr.2)/(mW/mg),Mass loss(subtr.2)/mg,Sensit./(uV/mW)
48.95,10.01,0.01680914,-0.00165,1.054
51.35,11.5059,0.08955902,0.00367132,1.05404
53.75,11.85154,0.14306,0.00925799,1.05406
56.15,12.10372,0.1857,0.006288694,1.05405
58.55,12.3131,0.22413,0.006196337,1.05401
60.95,12.4986,0.25381,0.006292842,1.05395
63.35,12.6684,0.28224,0.01006005,1.05385
65.75,12.8286,0.3065,0.01022453,1.05373
68.15,12.98097,0.33124,0.009943767,1.05358
70.55,13.1263,0.35311,-0.002108324,1.0534
72.95,13.2666,0.37398,0.008945847,1.0532
75.35,13.40254,0.38515,0.00858368,1.05297
77.75,13.5343,0.39084,0.007722532,1.05271
80.15,13.66174,0.38938,0.00737778,1.05243
82.55,13.7858,0.39045,0.00758465,1.05211
84.95,13.9063,0.39106,0.009699206,1.05177
87.35,14.02316,0.39406,0.01124604,1.05141
89.75,14.1371,0.39714,0.01176465,1.05102
92.15,14.2482,0.40208,0.009246967,1.0506
94.55,14.35636,0.4066,0.01221326,1.05016
96.95,14.4618,0.4131,0.009546552,1.04969
99.35,14.56575,0.41909,0.01150413,1.04919
101.75,14.6668,0.42918,0.008611752,1.04867
104.15,14.76661,0.44142,0.01171827,1.04813
106.55,14.86465,0.45541,0.01140054,1.04756
108.95,14.9607,0.47444,0.01335509,1.04696
111.35,15.0555,0.49121,0.01377267,1.04634
113.75,15.14904,0.51115,0.01752984,1.04569
116.15,15.2414,0.52791,0.01608031,1.04502
118.55,15.33206,0.54639,0.01418959,1.04433
120.95,15.42179,0.56538,0.01279733,1.04361
123.35,15.5106,0.58187,0.01424056,1.04287
125.75,15.59799,0.59814,0.01397459,1.0421
128.15,15.68431,0.61667,0.01417292,1.04131
130.55,15.7698,0.63182,0.01444914,1.0405
132.95,15.8542,0.64958,0.01471775,1.03966
135.35,15.9378,0.66273,0.01505294,1.0388
137.75,16.02069,0.67548,0.01377153,1.03791
140.15,16.10249,0.69227,0.01559279,1.03701
142.55,16.18336,0.70419,0.01492665,1.03608
144.95,16.2639,0.71703,0.01525463,1.03513
147.35,16.34386,0.7296,0.01524892,1.03416
149.75,16.42291,0.74058,0.01621687,1.03316
152.15,16.50142,0.75313,0.01611106,1.03214
154.55,16.57937,0.76644,0.01616043,1.03111
156.95,16.65662,0.7777,0.01875043,1.03005
159.35,16.73382,0.79021,0.02102856,1.02896
161.75,16.8102,0.79895,0.01983196,1.02786
164.15,16.8861,0.81035,0.01975946,1.02674
166.55,16.9616,0.82128,0.01638844,1.02559
168.95,17.0367,0.83256,0.01508403,1.02443
171.35,17.11133,0.84347,0.01637201,1.02325
173.75,17.18546,0.85019,0.01582403,1.02204
176.15,17.25927,0.86506,0.01499888,1.02082
178.55,17.33259,0.87449,0.01503716,1.01957
180.95,17.4055,0.88564,0.01563107,1.01831
183.35,17.47808,0.89578,0.01943245,1.01702
185.75,17.55014,0.90561,0.02049743,1.01572
188.15,17.62184,0.91774,0.01943526,1.0144
190.55,17.69325,0.92652,0.01665505,1.01306
192.95,17.76393,0.93608,0.01750536,1.0117
195.35,17.8346,0.94811,0.01633473,1.01033
197.75,17.9053,0.95997,0.01907585,1.00893
200.15,17.97537,0.97019,0.01997991,1.00752
202.55,18.04526,0.98313,0.01935017,1.00609
204.95,18.11496,0.99626,0.02039582,1.00464
207.35,18.18423,1.00919,0.02053648,1.00318
209.75,18.25355,1.02299,0.01897904,1.0017
212.15,18.32271,1.03927,0.02029051,1.0002
214.55,18.39145,1.0574,0.01922062,0.99868
216.95,18.4601,1.07614,0.02029002,0.99715
219.35,18.5285,1.09698,0.02029009,0.9956
221.75,18.5965,1.12227,0.02156674,0.99404
224.15,18.66467,1.14886,0.02160017,0.99246
226.55,18.7327,1.18338,0.02125914,0.99086
228.95,18.80044,1.22308,0.02160999,0.98925
231.35,18.86796,1.27095,0.02044285,0.98763
233.75,18.93551,1.33284,0.02028996,0.98599
236.15,19.0029,1.4069,0.02037559,0.98433
238.55,19.07001,1.50571,0.02160058,0.98267
240.95,19.1369,1.62363,0.02291994,0.98098
243.35,19.2039,1.76926,0.02292078,0.97928
245.75,19.2711,1.94817,0.02422728,0.97757
248.15,19.33814,2.13888,0.02291445,0.97585
250.55,19.405,2.2748,0.02424054,0.97411
252.95,19.4719,2.29037,0.02504247,0.97236
255.35,19.53846,2.11529,0.02686934,0.97059
257.75,19.6049,1.87808,0.02558354,0.96882
260.15,19.6709,1.67331,0.02654118,0.96703
262.55,19.73701,1.51457,0.02719357,0.96523
264.95,19.8029,1.40358,0.02635794,0.96341
267.35,19.8686,1.32587,0.0262038,0.96159
269.75,19.93461,1.27519,0.02725061,0.95975
272.15,20.00028,1.24192,0.02587893,0.9579
274.55,20.06598,1.22321,0.02590662,0.95604
276.95,20.1315,1.21069,0.02559064,0.95417
279.35,20.1969,1.20144,0.02587997,0.95229
281.75,20.2625,1.19986,0.02587815,0.95039
284.15,20.32795,1.19606,0.02521433,0.94849
286.55,20.39335,1.19297,0.02521563,0.94658
288.95,20.45897,1.18973,0.02653971,0.94465
291.35,20.52445,1.18848,0.02783459,0.94272
293.75,20.58983,1.18729,0.02786,0.94078
296.15,20.6552,1.18707,0.0277889,0.93883
298.55,20.72063,1.18666,0.02789214,0.93687
300.95,20.7861,1.18778,0.02786003,0.9349
303.35,20.85141,1.18789,0.02784652,0.93292
305.75,20.91674,1.18761,0.02916934,0.93093
308.15,20.9821,1.18617,0.02919171,0.92894
310.55,21.04755,1.1876,0.0278506,0.92694
312.95,21.11287,1.18829,0.02904845,0.92493
315.35,21.17812,1.18843,0.03049057,0.92291
317.75,21.2435,1.18843,0.02916308,0.92088
320.15,21.3089,1.18647,0.02917,0.91885
322.55,21.37428,1.18703,0.02917,0.91681
324.95,21.43969,1.18822,0.02917,0.91476
327.35,21.50512,1.18812,0.02930362,0.91271
329.75,21.57066,1.18862,0.03014976,0.91065
332.15,21.6361,1.18882,0.03015,0.90859
334.55,21.7017,1.18994,0.03015001,0.90651
336.95,21.76701,1.18814,0.03019935,0.90444
339.35,21.83259,1.18894,0.02882996,0.90235
341.75,21.89849,1.18754,0.02817868,0.90027
344.15,21.96406,1.18833,0.02850629,0.89817
346.55,22.02984,1.18682,0.03124052,0.89608
348.95,22.09556,1.18814,0.0312772,0.89397
351.35,22.1614,1.18672,0.03388878,0.89187
353.75,22.2274,1.1868,0.03388994,0.88975
356.15,22.29322,1.18667,0.03292582,0.88764
358.55,22.35932,1.18927,0.03092947,0.88552
360.95,22.42549,1.1894,0.02956419,0.8834
363.35,22.49162,1.18744,0.03096648,0.88127
365.75,22.5578,1.19082,0.03093374,0.87914
368.15,22.62408,1.19397,0.02993881,0.87701
370.55,22.69045,1.1963,0.02994,0.87487
372.95,22.75699,1.19942,0.02994048,0.87273
375.35,22.82341,1.20244,0.02861313,0.87059
377.75,22.88999,1.20896,0.02862,0.86844
380.15,22.95658,1.21327,0.02857609,0.8663
382.55,23.0232,1.21887,0.03026036,0.86415
384.95,23.08997,1.22024,0.03771685,0.862
387.35,23.1568,1.22186,0.03491688,0.85985
389.75,23.22354,1.22996,0.02850933,0.8577
392.15,23.2907,1.24236,0.02719836,0.85554
394.55,23.35797,1.25499,0.02588104,0.85339
396.95,23.42519,1.27407,0.02587908,0.85123
399.35,23.4923,1.29842,0.02457235,0.84907
401.75,23.55944,1.3335,0.02325234,0.84691
404.15,23.62654,1.36713,0.01838256,0.84476
406.55,23.694,1.40302,0.01071982,0.8426
408.95,23.76183,1.42907,-0.0006180157,0.84044
411.35,23.8297,1.44379,-0.0117817,0.83828
413.75,23.89761,1.4938,-0.02230151,0.83612
416.15,23.96554,1.53629,-0.03461587,0.83396
418.55,24.0336,1.5655,-0.04887124,0.83181
420.95,24.10153,1.59125,-0.07108387,0.82965
423.35,24.1695,1.62264,-0.09600935,0.8275
425.75,24.2375,1.68427,-0.12419,0.82534
428.15,24.30564,1.76057,-0.15983,0.82319
430.55,24.37363,1.86389,-0.19982,0.82104
432.95,24.44191,1.94785,-0.24014,0.81889
435.35,24.5104,2.05699,-0.28228,0.81674
437.75,24.5789,2.17304,-0.33261,0.81459
440.15,24.64752,2.30347,-0.39315,0.81245
442.55,24.71636,2.45379,-0.45783,0.81031
444.95,24.78525,2.60495,-0.5385,0.80817
447.35,24.85414,2.74141,-0.63952,0.80603
449.75,24.92308,2.87686,-0.74917,0.8039
452.15,24.9924,3.0236,-0.87343,0.80177
454.55,25.0617,3.15022,-1.02147,0.79964
456.95,25.13101,3.25209,-1.18671,0.79751
459.35,25.20038,3.30502,-1.36264,0.79539
461.75,25.26974,3.26947,-1.56516,0.79327
464.15,25.33925,3.28573,-1.7711,0.79116
466.55,25.40876,3.28792,-1.98574,0.78905
468.95,25.47815,3.28393,-2.21749,0.78694
471.35,25.54792,3.23371,-2.44445,0.78484
473.75,25.61779,3.08897,-2.66828,0.78274
476.15,25.6878,2.84836,-2.87729,0.78064
478.55,25.75789,2.52343,-3.0596,0.77855
480.95,25.82799,2.14163,-3.19618,0.77647
483.35,25.899,1.74734,-3.30835,0.77438
485.75,25.971,1.34842,-3.39123,0.77231
488.15,26.04339,0.95543,-3.45024,0.77023
490.55,26.11572,0.6025,-3.49847,0.76817
492.95,26.1875,0.31306,-3.53534,0.76611
495.35,26.25883,0.0887591,-3.56737,0.76405
497.75,26.33,-0.08894132,-3.5932,0.762
500.15,26.401,-0.22619,-3.61386,0.75995
502.55,26.47188,-0.33373,-3.63379,0.75791
504.95,26.54283,-0.41682,-3.65157,0.75588
507.35,26.61382,-0.47959,-3.65708,0.75385
509.75,26.6851,-0.52435,-3.66149,0.75182
512.15,26.7565,-0.55826,-3.67645,0.74981
514.55,26.8279,-0.58158,-3.68615,0.7478
516.95,26.8994,-0.59772,-3.69164,0.74579
519.35,26.97124,-0.60479,-3.70439,0.74379
521.75,27.0432,-0.61071,-3.71076,0.7418
524.15,27.1153,-0.61654,-3.71436,0.73982
526.55,27.1873,-0.61517,-3.71869,0.73784
528.95,27.25937,-0.61419,-3.72284,0.73586
531.35,27.33203,-0.60752,-3.72993,0.7339
533.75,27.4046,-0.60253,-3.73863,0.73194
536.15,27.47718,-0.5993,-3.7419,0.72999
538.55,27.5501,-0.5939,-3.74403,0.72804
540.95,27.6228,-0.59314,-3.74887,0.72611
543.35,27.69592,-0.5897,-3.75127,0.72418
545.75,27.769,-0.5855,-3.75138,0.72225
548.15,27.8421,-0.58495,-3.75444,0.72034
550.55,27.9154,-0.57838,-3.75707,0.71843
552.95,27.98889,-0.57582,-3.75861,0.71653
555.35,28.06255,-0.57101,-3.76051,0.71464
557.75,28.1362,-0.5677,-3.76357,0.71275
560.15,28.2099,-0.56514,-3.76278,0.71087
562.55,28.2838,-0.56001,-3.7674,0.70901
564.95,28.35782,-0.55822,-3.77132,0.70714
567.35,28.43184,-0.55461,-3.77359,0.70529
569.75,28.50562,-0.5548,-3.77657,0.70344
572.15,28.5796,-0.55306,-3.78089,0.70161
574.55,28.6538,-0.55449,-3.78339,0.69978
576.95,28.7283,-0.55615,-3.78356,0.69796
579.35,28.80276,-0.56023,-3.78423,0.69614
581.75,28.87715,-0.5621,-3.78497,0.69434
584.15,28.9513,-0.56823,-3.78207,0.69254
586.55,29.02601,-0.57157,-3.78521,0.69076
588.95,29.10077,-0.57493,-3.79132,0.68898
591.35,29.17551,-0.5787,-3.79761,0.68721
593.75,29.25025,-0.58147,-3.7991,0.68544
596.15,29.32505,-0.58788,-3.80085,0.68369
598.55,29.4,-0.59402,-3.80183,0.68195
600.95,29.47513,-0.60407,-3.80415,0.68021
603.35,29.55012,-0.60907,-3.80854,0.67848
605.75,29.62521,-0.61993,-3.8113,0.67676
608.15,29.70022,-0.62471,-3.81116,0.67505
610.55,29.7755,-0.62318,-3.81268,0.67335
612.95,29.85088,-0.62016,-3.81666,0.67166
615.35,29.9262,-0.60937,-3.82065,0.66998
617.65,29.9985,-0.59801,-3.8236,0.66838