File: 01_Data/Memory_Foam_Carpet_Pad/HFM/Memory_Foam_Carpet_Pad_Density_Dry_R2.csv
,Memory_Foam_Carpet_Pad_DRY_2
Sample Mass [g],71.3
Sample Volume [cm3],523.0
Sample Density [kg/m3],136