File: 01_Data/Memory_Foam_Carpet_Pad/HFM/Memory_Foam_Carpet_Pad_Density_Wet_R1.csv
,Memory_Foam_Carpet_Pad_WET_1
Sample Mass [g],73.1
Sample Volume [cm3],535.6
Sample Density [kg/m3],136