File: 01_Data/Memory_Foam_Carpet_Pad/HFM/Memory_Foam_Carpet_Pad_Density_Wet_R2.csv
,Memory_Foam_Carpet_Pad_WET_2
Sample Mass [g],71.4
Sample Volume [cm3],523.0
Sample Density [kg/m3],137