File: 01_Data/Memory_Foam_Carpet_Pad/HFM/Memory_Foam_Carpet_Pad_Density_Wet_R3.csv
,Memory_Foam_Carpet_Pad_WET_3
Sample Mass [g],71.1
Sample Volume [cm3],546.7
Sample Density [kg/m3],130