File: 01_Data/Memory_Foam_Carpet_Pad/HFM/Memory_Foam_Carpet_Pad_Density_Dry_R3.csv
,Memory_Foam_Carpet_Pad_DRY_3
Sample Mass [g],70.9
Sample Volume [cm3],546.7
Sample Density [kg/m3],130