File: 01_Data/Engineered_Wood_Furniture/STA/N2/10K_min/Engineered_Wood_Furniture_STA_N2_10KData_2284_R2.csv
##Temp./Â°C,Time/min,Mass loss(subtr.2)/mg,DSC(subtr.2)/(mW/mg),Sensit./(uV/mW)
49.739,10.01,-0.0273,0.012866,1.06051
52.939,11.32312,-0.02836371,0.13693,1.05985
56.139,11.77397,-0.03021844,0.20044,1.05916
59.339,12.16027,-0.03026739,0.23316,1.05846
62.539,12.52249,-0.03026764,0.2562,1.05773
65.739,12.87369,-0.03177414,0.27632,1.05699
68.939,13.2188,-0.03432316,0.29126,1.05623
72.139,13.5591,-0.03575203,0.30352,1.05545
75.339,13.89594,-0.03704559,0.31354,1.05466
78.539,14.23029,-0.0377175,0.32698,1.05384
81.739,14.55975,-0.0397022,0.33819,1.05301
84.939,14.8868,-0.04233034,0.33879,1.05215
88.139,15.21103,-0.04463011,0.34185,1.05128
91.339,15.532,-0.04496001,0.33927,1.05039
94.539,15.8513,-0.04626999,0.33776,1.04948
97.739,16.16795,-0.04891001,0.33368,1.04856
100.939,16.484,-0.05012446,0.34352,1.04761
104.139,16.799,-0.05143881,0.34707,1.04665
107.339,17.11373,-0.05201814,0.34559,1.04567
110.539,17.42744,-0.05472186,0.3398,1.04467
113.739,17.73987,-0.05604971,0.34048,1.04365
116.939,18.05226,-0.05603904,0.33567,1.04262
120.139,18.3636,-0.05713034,0.33848,1.04157
123.339,18.6754,-0.05538086,0.33932,1.0405
126.539,18.98682,-0.05768322,0.34008,1.03941
129.739,19.29699,-0.05866984,0.3403,1.03831
132.939,19.60716,-0.05868196,0.34228,1.03719
136.139,19.9166,-0.05999017,0.3497,1.03605
139.339,20.2264,-0.06064185,0.35366,1.0349
142.539,20.53506,-0.06199381,0.35684,1.03373
145.739,20.84362,-0.06363054,0.36076,1.03254
148.939,21.15237,-0.06464543,0.36667,1.03133
152.139,21.4599,-0.06328996,0.372,1.03011
155.339,21.7675,-0.06525,0.38236,1.02887
158.539,22.07463,-0.06785529,0.39339,1.02761
161.739,22.38171,-0.06984982,0.40304,1.02634
164.939,22.68835,-0.06854309,0.41379,1.02505
168.139,22.99468,-0.07076372,0.42815,1.02375
171.339,23.30157,-0.07458776,0.44165,1.02243
174.539,23.60801,-0.07611,0.46071,1.02109
177.739,23.91385,-0.07896008,0.48289,1.01974
180.939,24.2208,-0.08236023,0.50309,1.01837
184.139,24.5268,-0.09051714,0.52388,1.01699
187.339,24.83245,-0.09334596,0.54441,1.01559
190.539,25.1392,-0.09992036,0.5651,1.01417
193.739,25.4452,-0.10757,0.58792,1.01274
196.939,25.75011,-0.11439,0.6121,1.01129
200.139,26.05655,-0.12103,0.63624,1.00983
203.339,26.3624,-0.13315,0.65436,1.00835
206.539,26.66814,-0.1401,0.67115,1.00686
209.739,26.9731,-0.15169,0.68328,1.00535
212.939,27.2783,-0.16373,0.69257,1.00383
216.139,27.5839,-0.17373,0.69292,1.00229
219.339,27.8887,-0.18364,0.6909,1.00074
222.539,28.19412,-0.19456,0.68349,0.99917
225.739,28.49878,-0.20696,0.6759,0.99759
228.939,28.80398,-0.22016,0.66617,0.996
232.139,29.1088,-0.23519,0.65637,0.99439
235.339,29.4139,-0.24682,0.64638,0.99276
238.539,29.71837,-0.2606,0.63488,0.99112
241.739,30.0236,-0.27499,0.62506,0.98947
244.939,30.32791,-0.29049,0.61261,0.98781
248.139,30.6331,-0.30667,0.60377,0.98613
251.339,30.93753,-0.32587,0.59272,0.98443
254.539,31.24222,-0.34468,0.57663,0.98272
257.739,31.54709,-0.3634,0.56537,0.981
260.939,31.8508,-0.38513,0.54915,0.97927
264.139,32.15579,-0.41085,0.5313,0.97752
267.339,32.4604,-0.43713,0.51144,0.97576
270.539,32.76551,-0.46891,0.49632,0.97398
273.739,33.07152,-0.49923,0.47855,0.97219
276.939,33.3772,-0.53306,0.45926,0.97039
280.139,33.68309,-0.57154,0.44311,0.96858
283.339,33.98921,-0.61102,0.42874,0.96675
286.539,34.2952,-0.65353,0.41232,0.96491
289.739,34.60145,-0.69696,0.39414,0.96306
292.939,34.90759,-0.74644,0.3753,0.9612
296.139,35.21445,-0.79677,0.36259,0.95932
299.339,35.5221,-0.84978,0.3524,0.95743
302.539,35.82868,-0.90246,0.34571,0.95553
305.739,36.1356,-0.95892,0.34303,0.95362
308.939,36.44298,-1.01674,0.3451,0.95169
312.139,36.75049,-1.07753,0.34989,0.94975
315.339,37.058,-1.14152,0.35411,0.9478
318.539,37.36546,-1.20521,0.36826,0.94584
321.739,37.67295,-1.27512,0.37527,0.94387
324.939,37.98053,-1.34498,0.38609,0.94189
328.139,38.28841,-1.41595,0.3949,0.93989
331.339,38.59662,-1.49981,0.41324,0.93788
334.539,38.9057,-1.58513,0.42607,0.93586
337.739,39.2146,-1.67532,0.44171,0.93384
340.939,39.52435,-1.77299,0.4528,0.9318
344.139,39.83393,-1.87314,0.46484,0.92974
347.339,40.14419,-1.97828,0.47012,0.92768
350.539,40.45316,-2.08947,0.47239,0.92561
353.739,40.76338,-2.20054,0.46156,0.92353
356.939,41.07286,-2.30675,0.42724,0.92143
360.139,41.38235,-2.40577,0.37962,0.91933
363.339,41.69242,-2.49048,0.31729,0.91721
366.539,42.00249,-2.55159,0.25052,0.91509
369.739,42.3117,-2.593,0.2009,0.91295
372.939,42.62174,-2.62001,0.17382,0.91081
376.139,42.9319,-2.63642,0.15385,0.90865
379.339,43.24283,-2.65318,0.13912,0.90649
382.539,43.5542,-2.66646,0.13154,0.90431
385.739,43.86586,-2.67919,0.12746,0.90213
388.939,44.17752,-2.69108,0.11885,0.89994
392.139,44.4896,-2.70339,0.11681,0.89773
395.339,44.80167,-2.71407,0.11177,0.89552
398.539,45.11411,-2.72514,0.11019,0.8933
401.739,45.42609,-2.73511,0.10914,0.89107
404.939,45.73811,-2.74676,0.10887,0.88883
408.139,46.05024,-2.75632,0.11059,0.88658
411.339,46.3622,-2.76562,0.11217,0.88432
414.539,46.67453,-2.77571,0.114,0.88206
417.739,46.9875,-2.78727,0.11788,0.87978
420.939,47.3005,-2.79523,0.12374,0.8775
424.139,47.61403,-2.80442,0.12668,0.8752
427.339,47.92832,-2.81313,0.13321,0.8729
430.539,48.24146,-2.82197,0.1394,0.87059
433.739,48.55473,-2.83208,0.14706,0.86828
436.939,48.8688,-2.8392,0.15148,0.86595
440.139,49.1823,-2.84687,0.15859,0.86362
443.339,49.49678,-2.85452,0.1612,0.86128
446.539,49.81159,-2.86412,0.16698,0.85893
449.739,50.12678,-2.8688,0.17426,0.85657
452.939,50.44191,-2.87533,0.17276,0.85421
456.139,50.75654,-2.88068,0.17804,0.85183
459.339,51.07162,-2.88868,0.18237,0.84946
462.539,51.38617,-2.89771,0.18534,0.84707
465.739,51.70115,-2.90315,0.18166,0.84467
468.939,52.01675,-2.91115,0.18634,0.84227
472.139,52.3324,-2.9152,0.19099,0.83987
475.339,52.64799,-2.92045,0.19299,0.83745
478.539,52.96337,-2.92465,0.19717,0.83503
481.739,53.27929,-2.92771,0.20738,0.8326
484.939,53.59352,-2.93732,0.22302,0.83016
488.139,53.9098,-2.94122,0.22983,0.82772
491.339,54.22591,-2.94517,0.23875,0.82527
494.539,54.5417,-2.94972,0.24414,0.82282
497.739,54.8583,-2.95434,0.24689,0.82036
500.939,55.1745,-2.95867,0.24928,0.81789
504.139,55.49114,-2.9636,0.24656,0.81542
507.339,55.80769,-2.96955,0.24381,0.81294
510.539,56.12478,-2.97368,0.24302,0.81045
513.739,56.44271,-2.97573,0.22778,0.80796
516.939,56.7612,-2.97904,0.21905,0.80546
520.139,57.07812,-2.98422,0.21473,0.80296
523.339,57.3972,-2.98719,0.20894,0.80045
526.539,57.7176,-2.98947,0.20363,0.79794
529.739,58.03493,-2.99383,0.20269,0.79542
532.939,58.3527,-2.99738,0.19819,0.79289
536.139,58.6713,-3.0013,0.1956,0.79036
539.339,58.98969,-3.00266,0.19424,0.78783
542.539,59.30797,-3.00664,0.19447,0.78529
545.739,59.6269,-3.00988,0.19321,0.78274
548.939,59.9459,-3.01286,0.19395,0.78019
552.139,60.2646,-3.01517,0.19409,0.77764
555.339,60.5837,-3.01878,0.19109,0.77508
558.539,60.9026,-3.01976,0.18715,0.77251
561.739,61.22124,-3.02239,0.18181,0.76995
564.939,61.5399,-3.02502,0.18156,0.76737
568.139,61.859,-3.02958,0.18401,0.7648
571.339,62.17853,-3.03358,0.18176,0.76221
574.539,62.4978,-3.03489,0.18409,0.75963
577.739,62.81689,-3.03817,0.19325,0.75704
580.939,63.1356,-3.04093,0.20493,0.75445
584.139,63.4561,-3.0429,0.20016,0.75185
587.339,63.777,-3.04422,0.19934,0.74925
590.539,64.09809,-3.04554,0.19527,0.74664
593.739,64.41905,-3.04986,0.19755,0.74403
596.939,64.74054,-3.04981,0.19274,0.74142
600.139,65.0611,-3.0521,0.1951,0.73881
603.339,65.38184,-3.05377,0.19373,0.73619
606.539,65.70257,-3.05705,0.20095,0.73356
609.739,66.02277,-3.05968,0.19976,0.73094
612.939,66.34349,-3.06232,0.21152,0.72831
616.139,66.6647,-3.06362,0.21365,0.72568
619.339,66.98594,-3.06496,0.21306,0.72304
622.539,67.30741,-3.06876,0.21975,0.72041
625.739,67.62872,-3.07143,0.22261,0.71777
628.939,67.94951,-3.07176,0.22429,0.71512
632.139,68.26909,-3.07714,0.22317,0.71248
635.339,68.59087,-3.07712,0.21875,0.70983
638.539,68.9117,-3.07944,0.21625,0.70718
641.739,69.2346,-3.08335,0.22113,0.70453
644.939,69.55637,-3.08514,0.22653,0.70187
648.139,69.87793,-3.08777,0.2261,0.69921
651.339,70.19931,-3.08908,0.21663,0.69655
654.539,70.52093,-3.09171,0.21403,0.69389
657.739,70.84346,-3.09435,0.20576,0.69123
660.939,71.16589,-3.09439,0.19951,0.68857
664.139,71.48813,-3.09611,0.20272,0.6859
667.339,71.8112,-3.09841,0.20015,0.68323
670.539,72.13351,-3.10287,0.20211,0.68056
673.739,72.45576,-3.10251,0.20142,0.67789
676.939,72.77785,-3.10378,0.20168,0.67522
680.139,73.10007,-3.10378,0.20831,0.67254
683.339,73.423,-3.10641,0.20947,0.66987
686.539,73.74596,-3.1051,0.21028,0.66719
689.739,74.06867,-3.10773,0.21276,0.66451
692.939,74.39287,-3.10643,0.20959,0.66183
696.139,74.7157,-3.10894,0.21428,0.65915
699.339,75.03954,-3.11036,0.21321,0.65647
702.539,75.36304,-3.11036,0.21595,0.65379
705.739,75.68645,-3.11069,0.21511,0.65111
708.939,76.01099,-3.1133,0.21187,0.64842
712.139,76.33489,-3.11137,0.21168,0.64574
715.339,76.65811,-3.11972,0.21447,0.64306
718.539,76.9809,-3.11782,0.21058,0.64037
721.739,77.30402,-3.11914,0.20961,0.63769
724.939,77.6277,-3.11911,0.2109,0.635
728.139,77.9513,-3.12045,0.21536,0.63232
731.339,78.2758,-3.12363,0.21196,0.62963
734.539,78.6001,-3.12099,0.21732,0.62695
737.739,78.92438,-3.12326,0.2208,0.62426
740.939,79.2497,-3.12462,0.2263,0.62158
744.139,79.5758,-3.12527,0.22495,0.61889
747.339,79.90154,-3.12659,0.22525,0.61621
750.539,80.22674,-3.12687,0.22618,0.61352
753.739,80.5518,-3.12969,0.2279,0.61084
756.939,80.87569,-3.13132,0.22952,0.60816
760.139,81.19954,-3.13032,0.22609,0.60548
763.339,81.52329,-3.13032,0.23081,0.60279
766.539,81.8478,-3.1323,0.2379,0.60011
769.739,82.1729,-3.13559,0.23455,0.59743
772.939,82.49756,-3.13559,0.2405,0.59475
776.139,82.82281,-3.1356,0.24575,0.59208
779.339,83.14769,-3.13822,0.24654,0.5894
782.539,83.47261,-3.13953,0.24408,0.58672
785.739,83.79728,-3.1397,0.24085,0.58405
788.939,84.12245,-3.13877,0.23951,0.58138
792.139,84.44767,-3.1424,0.24183,0.5787
795.339,84.7727,-3.14164,0.24474,0.57603
797.539,84.99591,-3.14426,0.24888,0.5742