File: 01_Data/Engineered_Wood_Furniture/STA/N2/10K_min/Engineered_Wood_Furniture_STA_N2_10KData_2284_R1.csv
##Temp./Â°C,Time/min,Mass loss(subtr.2)/mg,DSC(subtr.2)/(mW/mg),Sensit./(uV/mW)
49.776,10.01,-0.01514,0.02106476,1.0605
52.976,11.32405,-0.01573757,0.13866,1.05984
56.176,11.77619,-0.01502136,0.19082,1.05915
59.376,12.16353,-0.01808086,0.22373,1.05845
62.576,12.52694,-0.01755225,0.24519,1.05773
65.776,12.87885,-0.01876715,0.25962,1.05698
68.976,13.22422,-0.02084435,0.27802,1.05622
72.176,13.565,-0.02092235,0.29425,1.05545
75.376,13.9031,-0.02240906,0.30601,1.05465
78.576,14.23596,-0.02719976,0.31878,1.05383
81.776,14.56642,-0.027212,0.32609,1.053
84.976,14.8934,-0.03098697,0.33114,1.05214
88.176,15.21732,-0.03114992,0.33155,1.05127
91.376,15.5392,-0.0337941,0.33251,1.05038
94.576,15.8587,-0.0351,0.32775,1.04947
97.776,16.17667,-0.03510006,0.32387,1.04855
100.976,16.49229,-0.03681611,0.31836,1.0476
104.176,16.8074,-0.03839,0.32679,1.04664
107.376,17.12187,-0.0384,0.33195,1.04566
110.576,17.4354,-0.04101739,0.33182,1.04466
113.776,17.74783,-0.04102,0.32413,1.04364
116.976,18.0607,-0.04233671,0.3201,1.04261
120.176,18.3725,-0.04367503,0.31548,1.04156
123.376,18.68457,-0.04364626,0.31596,1.04049
126.576,18.99602,-0.0446414,0.31899,1.0394
129.776,19.30633,-0.04366186,0.32184,1.0383
132.976,19.61823,-0.04497996,0.32289,1.03718
136.176,19.92836,-0.04629,0.32597,1.03604
139.376,20.23731,-0.04629026,0.3307,1.03488
142.576,20.54692,-0.04662,0.33222,1.03371
145.776,20.85538,-0.04758738,0.34008,1.03252
148.976,21.16244,-0.04766271,0.34385,1.03132
152.176,21.47017,-0.04926005,0.35213,1.03009
155.376,21.7774,-0.04825155,0.35783,1.02885
158.576,22.08502,-0.05030748,0.36691,1.0276
161.776,22.39197,-0.05124516,0.37586,1.02633
164.976,22.69843,-0.05253998,0.38704,1.02504
168.176,23.00507,-0.05485,0.40387,1.02373
171.376,23.31261,-0.05679583,0.41676,1.02241
174.576,23.61919,-0.05945039,0.43314,1.02108
177.776,23.92557,-0.06141789,0.44882,1.01972
180.976,24.23271,-0.06423982,0.46717,1.01835
184.176,24.5397,-0.06933015,0.48676,1.01697
187.376,24.84581,-0.0746021,0.50665,1.01557
190.576,25.1521,-0.07944924,0.528,1.01415
193.776,25.45786,-0.08569845,0.55145,1.01272
196.976,25.76438,-0.09241015,0.57305,1.01127
200.176,26.07023,-0.10126,0.59504,1.00981
203.376,26.3765,-0.10928,0.61403,1.00834
206.576,26.68181,-0.11979,0.63412,1.00684
209.776,26.98723,-0.12817,0.64597,1.00534
212.976,27.29249,-0.13653,0.6513,1.00381
216.176,27.59757,-0.14873,0.65472,1.00228
219.376,27.90297,-0.15877,0.65005,1.00072
222.576,28.20812,-0.1658,0.64635,0.99916
225.776,28.51274,-0.18062,0.63885,0.99757
228.976,28.81796,-0.19294,0.62951,0.99598
232.176,29.1237,-0.20512,0.61953,0.99437
235.376,29.4292,-0.2174,0.61162,0.99274
238.576,29.7349,-0.22906,0.60318,0.99111
241.776,30.0404,-0.24404,0.59004,0.98945
244.976,30.34542,-0.2563,0.5838,0.98779
248.176,30.65042,-0.27323,0.5789,0.98611
251.376,30.9548,-0.28934,0.56964,0.98441
254.576,31.2593,-0.30693,0.55625,0.9827
257.776,31.5652,-0.32728,0.54485,0.98098
260.976,31.87012,-0.35025,0.5297,0.97925
264.176,32.17532,-0.37149,0.51363,0.9775
267.376,32.48022,-0.39906,0.49612,0.97574
270.576,32.78595,-0.42549,0.48008,0.97396
273.776,33.09178,-0.45538,0.46055,0.97217
276.976,33.39744,-0.48913,0.44301,0.97037
280.176,33.70384,-0.52337,0.42504,0.96856
283.376,34.00974,-0.56179,0.40657,0.96673
286.576,34.3155,-0.60254,0.39249,0.96489
289.776,34.62105,-0.64632,0.37594,0.96304
292.976,34.92742,-0.69152,0.36017,0.96117
296.176,35.23284,-0.73796,0.34552,0.9593
299.376,35.5407,-0.78841,0.33745,0.95741
302.576,35.84708,-0.84108,0.33453,0.95551
305.776,36.15398,-0.89732,0.33634,0.95359
308.976,36.46087,-0.95202,0.3382,0.95167
312.176,36.76801,-1.00724,0.34379,0.94973
315.376,37.07543,-1.06673,0.35374,0.94778
318.576,37.3833,-1.12893,0.36149,0.94582
321.776,37.69148,-1.19332,0.37182,0.94385
324.976,37.9997,-1.26143,0.3865,0.94186
328.176,38.30689,-1.33387,0.40101,0.93987
331.376,38.61446,-1.41005,0.41407,0.93786
334.576,38.92317,-1.48969,0.42887,0.93584
337.776,39.23355,-1.57474,0.44717,0.93381
340.976,39.54274,-1.66833,0.45677,0.93177
344.176,39.85222,-1.76225,0.47092,0.92972
347.376,40.16202,-1.86388,0.47591,0.92766
350.576,40.4711,-1.96919,0.47426,0.92559
353.776,40.78105,-2.07234,0.46425,0.9235
356.976,41.09048,-2.17427,0.44051,0.92141
360.176,41.39935,-2.26505,0.4036,0.9193
363.376,41.70881,-2.34063,0.35784,0.91719
366.576,42.01847,-2.39849,0.31322,0.91506
369.776,42.32959,-2.43654,0.28075,0.91293
372.976,42.63955,-2.46232,0.26159,0.91078
376.176,42.94964,-2.48143,0.24896,0.90863
379.376,43.26056,-2.49689,0.24251,0.90646
382.576,43.57091,-2.50676,0.23646,0.90429
385.776,43.88171,-2.52111,0.23158,0.90211
388.976,44.19225,-2.53317,0.22767,0.89991
392.176,44.50346,-2.54442,0.2229,0.89771
395.376,44.81499,-2.5544,0.22006,0.8955
398.576,45.1272,-2.56697,0.21809,0.89327
401.776,45.43942,-2.57681,0.21444,0.89104
404.976,45.75217,-2.58827,0.21628,0.8888
408.176,46.064,-2.59741,0.21838,0.88655
411.376,46.3757,-2.60593,0.22168,0.8843
414.576,46.6873,-2.61613,0.22036,0.88203
417.776,46.99886,-2.62657,0.22389,0.87975
420.976,47.31071,-2.63526,0.23017,0.87747
424.176,47.62267,-2.64594,0.23108,0.87518
427.376,47.93541,-2.65339,0.23775,0.87288
430.576,48.2487,-2.66277,0.24578,0.87057
433.776,48.56214,-2.67056,0.24939,0.86825
436.976,48.8763,-2.67777,0.254,0.86592
440.176,49.19036,-2.68403,0.25668,0.86359
443.376,49.50396,-2.69446,0.26416,0.86125
446.576,49.8174,-2.70174,0.26964,0.8589
449.776,50.131,-2.70851,0.27396,0.85654
452.976,50.44542,-2.71387,0.27874,0.85418
456.176,50.75999,-2.72175,0.28115,0.85181
459.376,51.0745,-2.72836,0.28872,0.84943
462.576,51.3902,-2.73383,0.29411,0.84704
465.776,51.7057,-2.74046,0.2967,0.84465
468.976,52.02337,-2.74568,0.30036,0.84225
472.176,52.3401,-2.75302,0.30275,0.83984
475.376,52.6569,-2.75699,0.30565,0.83742
478.576,52.973,-2.76355,0.30794,0.835
481.776,53.2883,-2.7662,0.31057,0.83257
484.976,53.6036,-2.77294,0.31791,0.83014
488.176,53.9171,-2.77946,0.32378,0.82769
491.376,54.2318,-2.7834,0.33096,0.82524
494.576,54.5493,-2.78867,0.33634,0.82279
497.776,54.8665,-2.79226,0.33903,0.82033
500.976,55.1852,-2.79688,0.34681,0.81786
504.176,55.5028,-2.80218,0.35038,0.81539
507.376,55.8217,-2.80706,0.35391,0.81291
510.576,56.14133,-2.81004,0.36005,0.81042
513.776,56.45997,-2.814,0.36507,0.80793
516.976,56.7773,-2.8179,0.36434,0.80543
520.176,57.09483,-2.8219,0.35236,0.80293
523.376,57.41231,-2.82627,0.34745,0.80042
526.576,57.73007,-2.83012,0.3445,0.79791
529.776,58.0483,-2.83407,0.34013,0.79539
532.976,58.36685,-2.83661,0.34131,0.79286
536.176,58.6856,-2.83963,0.34018,0.79033
539.376,59.00399,-2.84328,0.33844,0.7878
542.576,59.32266,-2.846,0.33747,0.78526
545.776,59.6411,-2.84986,0.34023,0.78271
548.976,59.95975,-2.85382,0.34005,0.78016
552.176,60.27865,-2.85512,0.33883,0.77761
555.376,60.5986,-2.85645,0.34018,0.77505
558.576,60.91862,-2.86303,0.34411,0.77248
561.776,61.23901,-2.86456,0.34156,0.76992
564.976,61.5594,-2.8672,0.34187,0.76734
568.176,61.87896,-2.86983,0.34396,0.76477
571.376,62.1982,-2.87336,0.34621,0.76218
574.576,62.517,-2.87367,0.34672,0.7596
577.776,62.83614,-2.87796,0.34533,0.75701
580.976,63.15591,-2.87903,0.34565,0.75442
584.176,63.4758,-2.87986,0.34407,0.75182
587.376,63.7956,-2.88516,0.34563,0.74922
590.576,64.11586,-2.88738,0.34725,0.74661
593.776,64.4354,-2.88869,0.34546,0.744
596.976,64.75702,-2.89132,0.34721,0.74139
600.176,65.07755,-2.89559,0.34747,0.73877
603.376,65.3981,-2.89658,0.35032,0.73616
606.576,65.71911,-2.89922,0.3531,0.73353
609.776,66.04081,-2.90122,0.35083,0.73091
612.976,66.3622,-2.90383,0.35581,0.72828
616.176,66.68342,-2.90515,0.36145,0.72565
619.376,67.00491,-2.90911,0.36733,0.72301
622.576,67.32605,-2.90909,0.37331,0.72038
625.776,67.648,-2.91042,0.3754,0.71774
628.976,67.96904,-2.91303,0.37462,0.71509
632.176,68.29127,-2.91535,0.37639,0.71245
635.376,68.613,-2.91773,0.37921,0.7098
638.576,68.9345,-2.92127,0.37269,0.70715
641.776,69.25654,-2.92391,0.37068,0.7045
644.976,69.57814,-2.92621,0.36725,0.70184
648.176,69.8994,-2.92656,0.36553,0.69918
651.376,70.22193,-2.92909,0.36674,0.69652
654.576,70.5441,-2.93316,0.3656,0.69386
657.776,70.86567,-2.93312,0.35842,0.6912
660.976,71.18738,-2.93575,0.34826,0.68853
664.176,71.509,-2.93575,0.34965,0.68587
667.376,71.8306,-2.93806,0.34904,0.6832
670.576,72.15345,-2.94013,0.34999,0.68053
673.776,72.4761,-2.94233,0.35151,0.67786
676.976,72.7993,-2.94234,0.35219,0.67518
680.176,73.12217,-2.94397,0.35178,0.67251
683.376,73.44545,-2.9466,0.3533,0.66983
686.576,73.76899,-2.94628,0.36163,0.66716
689.776,74.0924,-2.94765,0.36364,0.66448
692.976,74.41617,-2.94964,0.36645,0.6618
696.176,74.73962,-2.94957,0.37121,0.65912
699.376,75.06339,-2.95203,0.37799,0.65644
702.576,75.38661,-2.95389,0.3805,0.65376
705.776,75.71105,-2.95385,0.37933,0.65108
708.976,76.03474,-2.95616,0.38369,0.64839
712.176,76.35848,-2.95648,0.38668,0.64571
715.376,76.68179,-2.95787,0.39316,0.64302
718.576,77.00505,-2.95779,0.39534,0.64034
721.776,77.32814,-2.96094,0.4005,0.63766
724.976,77.65119,-2.96305,0.40076,0.63497
728.176,77.97529,-2.96109,0.40763,0.63229
731.376,78.2993,-2.96372,0.40675,0.6296
734.576,78.62261,-2.96502,0.41266,0.62692
737.776,78.9457,-2.96437,0.41278,0.62423
740.976,79.26873,-2.96602,0.41297,0.62155
744.176,79.5925,-2.96865,0.41901,0.61886
747.376,79.91598,-2.9697,0.41873,0.61618
750.576,80.2405,-2.97063,0.42677,0.61349
753.776,80.5656,-2.96997,0.42395,0.61081
756.976,80.89056,-2.97261,0.42505,0.60813
760.176,81.21512,-2.97392,0.41994,0.60544
763.376,81.5394,-2.97521,0.42321,0.60276
766.576,81.86358,-2.97523,0.42452,0.60008
769.776,82.1883,-2.97656,0.42753,0.5974
772.976,82.51236,-2.97721,0.43158,0.59472
776.176,82.83582,-2.97886,0.43159,0.59205
779.376,83.15916,-2.97886,0.43591,0.58937
782.576,83.48348,-2.97919,0.44259,0.58669
785.776,83.8082,-2.98181,0.44954,0.58402
788.976,84.13327,-2.98056,0.45277,0.58134
792.176,84.45841,-2.98314,0.45445,0.57867
795.376,84.78331,-2.98412,0.46188,0.576
797.476,84.99669,-2.98544,0.46449,0.57425