File: 01_Data/Polyester_Fabric/FTIR/IS/Polyester_Fabric_IS_REFLECT_REF_210623_R1.dpt
4497.79,0.99889
4484.29,0.99807
4470.79,0.99642
4457.29,0.99807
4443.79,1.00015
4430.28,0.99738
4416.78,0.99805
4403.28,0.99806
4389.78,0.99711
4376.28,0.99653
4362.78,0.99827
4349.28,1.00056
4335.78,0.99715
4322.28,0.99798
4308.77,0.99665
4295.27,0.99890
4281.77,0.99774
4268.27,0.99842
4254.77,0.99773
4241.27,0.99912
4227.77,0.99687
4214.27,0.99725
4200.77,0.99782
4187.26,0.99951
4173.76,0.99683
4160.26,0.99861
4146.76,0.99718
4133.26,0.99786
4119.76,0.99785
4106.26,0.99931
4092.76,0.99747
4079.26,0.99770
4065.75,0.99833
4052.25,0.99849
4038.75,0.99707
4025.25,0.99794
4011.75,0.99856
3998.25,0.99833
3984.75,0.99771
3971.25,0.99808
3957.75,0.99598
3944.25,0.99706
3930.74,0.99680
3917.24,0.99774
3903.74,0.99594
3890.24,0.99662
3876.74,0.99513
3863.24,0.99797
3849.74,0.99174
3836.24,0.99797
3822.74,0.99702
3809.23,0.99541
3795.73,0.99652
3782.23,0.99571
3768.73,0.99618
3755.23,0.99337
3741.73,0.99027
3728.23,0.99172
3714.73,0.99380
3701.23,0.99649
3687.72,0.99738
3674.22,0.99528
3660.72,0.99625
3647.22,0.99699
3633.72,0.99345
3620.22,0.99551
3606.72,0.99529
3593.22,0.99454
3579.72,0.99378
3566.21,0.99807
3552.71,0.99492
3539.21,0.99458
3525.71,0.99349
3512.21,0.99399
3498.71,0.99342
3485.21,0.99331
3471.71,0.99368
3458.21,0.99543
3444.7,0.99639
3431.2,0.99574
3417.7,0.99522
3404.2,0.99566
3390.7,0.99571
3377.2,0.99539
3363.7,0.99524
3350.2,0.99643
3336.7,0.99582
3323.2,0.99758
3309.69,0.99607
3296.19,0.99601
3282.69,0.99618
3269.19,0.99552
3255.69,0.99691
3242.19,0.99609
3228.69,0.99714
3215.19,0.99562
3201.69,0.99574
3188.18,0.99636
3174.68,0.99733
3161.18,0.99836
3147.68,0.99751
3134.18,0.99783
3120.68,0.99721
3107.18,0.99742
3093.68,0.99695
3080.18,0.99769
3066.67,0.99756
3053.17,0.99732
3039.67,0.99771
3026.17,0.99739
3012.67,0.99676
2999.17,0.99725
2985.67,0.99758
2972.17,0.99770
2958.67,0.99821
2945.16,0.99758
2931.66,0.99688
2918.16,0.99810
2904.66,0.99892
2891.16,0.99823
2877.66,0.99844
2864.16,0.99856
2850.66,0.99809
2837.16,0.99829
2823.66,0.99782
2810.15,0.99843
2796.65,0.99823
2783.15,0.99762
2769.65,0.99856
2756.15,0.99861
2742.65,0.99766
2729.15,0.99781
2715.65,0.99852
2702.15,0.99812
2688.64,0.99830
2675.14,0.99892
2661.64,0.99786
2648.14,0.99847
2634.64,0.99768
2621.14,0.99824
2607.64,0.99769
2594.14,0.99843
2580.64,0.99838
2567.13,0.99857
2553.63,0.99801
2540.13,0.99759
2526.63,0.99842
2513.13,0.99839
2499.63,0.99847
2486.13,0.99849
2472.63,0.99823
2459.13,0.99853
2445.62,0.99872
2432.12,0.99831
2418.62,0.99845
2405.12,0.99837
2391.62,0.99822
2378.12,0.99747
2364.62,0.99739
2351.12,0.99788
2337.62,1.00064
2324.12,0.99690
2310.61,0.99685
2297.11,0.99818
2283.61,0.99856
2270.11,0.99856
2256.61,0.99796
2243.11,0.99784
2229.61,0.99833
2216.11,0.99813
2202.61,0.99810
2189.1,0.99829
2175.6,0.99858
2162.1,0.99776
2148.6,0.99836
2135.1,0.99802
2121.6,0.99780
2108.1,0.99783
2094.6,0.99807
2081.1,0.99760
2067.59,0.99760
2054.09,0.99821
2040.59,0.99812
2027.09,0.99783
2013.59,0.99802
2000.09,0.99803
1986.59,0.99725
1973.09,0.99762
1959.59,0.99882
1946.08,0.99837
1932.58,0.99776
1919.08,0.99744
1905.58,0.99742
1892.08,0.99792
1878.58,0.99814
1865.08,0.99693
1851.58,0.99789
1838.08,0.99745
1824.57,0.99714
1811.07,0.99782
1797.57,0.99558
1784.07,0.99652
1770.57,0.99736
1757.07,0.99600
1743.57,0.99493
1730.07,0.99489
1716.57,0.99825
1703.07,0.99306
1689.56,0.99182
1676.06,0.99537
1662.56,0.99664
1649.06,0.98942
1635.56,1.00058
1622.06,0.99539
1608.56,0.99820
1595.06,0.99855
1581.56,0.99594
1568.05,0.99584
1554.55,0.98885
1541.05,1.00061
1527.55,0.99348
1514.05,0.99227
1500.55,0.99125
1487.05,0.99737
1473.55,0.99983
1460.05,0.99508
1446.54,0.99716
1433.04,0.99518
1419.54,0.99722
1406.04,0.99809
1392.54,0.99604
1379.04,0.99728
1365.54,0.99782
1352.04,0.99871
1338.54,0.99818
1325.03,0.99791
1311.53,0.99851
1298.03,0.99768
1284.53,0.99847
1271.03,0.99796
1257.53,0.99898
1244.03,0.99675
1230.53,0.99752
1217.03,0.99703
1203.53,0.99866
1190.02,0.99773
1176.52,0.99757
1163.02,0.99835
1149.52,0.99831
1136.02,0.99915
1122.52,0.99765
1109.02,0.99768
1095.52,0.99871
1082.02,0.99772
1068.51,0.99679
1055.01,0.99962
1041.51,0.99952
1028.01,0.99837
1014.51,0.99855
1001.01,0.99667
987.508,0.99848
974.007,0.99859
960.506,0.99886
947.005,0.99682
933.503,1.00033
920.002,0.99781
906.501,0.99676
893,0.99948
879.499,0.99757
865.998,0.99535
852.497,0.99923
838.996,0.99842
825.495,0.99709
811.994,0.99694
798.493,0.99856
784.992,0.99518
771.49,0.99457
757.989,0.99858
744.488,0.99885
730.987,0.99822
717.486,0.99698
703.985,0.99967
690.484,0.99774
676.983,0.99870
663.482,1.00316
649.981,0.99399
636.48,0.99717
622.979,0.99672
609.477,0.99682
599.834,0.99457