File: 01_Data/Polyester_Fabric/FTIR/IS/Polyester_Fabric_IS_T_221019_R1.dpt
7497.03,0.01837
7473.88,0.01714
7450.74,0.02258
7427.59,0.01796
7404.45,0.02219
7381.31,0.03217
7358.16,0.02105
7335.02,0.02419
7311.87,0.02154
7288.73,0.01989
7265.58,0.02758
7242.44,0.02670
7219.29,0.02117
7196.15,0.03099
7173,0.02161
7149.86,0.02427
7126.71,0.01839
7103.57,0.02720
7080.42,0.02319
7057.28,0.01892
7034.13,0.01998
7010.99,0.02673
6987.84,0.02191
6964.7,0.02485
6941.55,0.02613
6918.41,0.01871
6895.26,0.02421
6872.12,0.02710
6848.97,0.02252
6825.83,0.02305
6802.68,0.02276
6779.54,0.02295
6756.39,0.02147
6733.25,0.02692
6710.1,0.01788
6686.96,0.02336
6663.81,0.01940
6640.67,0.02144
6617.52,0.02239
6594.38,0.01938
6571.23,0.02418
6548.09,0.02299
6524.94,0.02481
6501.8,0.02215
6478.65,0.02187
6455.51,0.02367
6432.36,0.02154
6409.22,0.02027
6386.07,0.01976
6362.93,0.02263
6339.78,0.02570
6316.64,0.02320
6293.49,0.02053
6270.35,0.01970
6247.2,0.02265
6224.06,0.02135
6200.91,0.02237
6177.77,0.02144
6154.62,0.02139
6131.48,0.02234
6108.33,0.02481
6085.19,0.02192
6062.04,0.02007
6038.9,0.02272
6015.75,0.02222
5992.61,0.02235
5969.46,0.02214
5946.32,0.02004
5923.17,0.02366
5900.03,0.02387
5876.88,0.02227
5853.74,0.02250
5830.59,0.02371
5807.45,0.02139
5784.3,0.02042
5761.16,0.02103
5738.01,0.01971
5714.87,0.02140
5691.72,0.02303
5668.58,0.02176
5645.44,0.02268
5622.29,0.02321
5599.15,0.02227
5576,0.02189
5552.86,0.02191
5529.71,0.02106
5506.57,0.02351
5483.42,0.02257
5460.28,0.02314
5437.13,0.02349
5413.99,0.02419
5390.84,0.02364
5367.7,0.02209
5344.55,0.02004
5321.41,0.02219
5298.26,0.02145
5275.12,0.02215
5251.97,0.02200
5228.83,0.02353
5205.68,0.02131
5182.54,0.02107
5159.39,0.02094
5136.25,0.02163
5113.1,0.02192
5089.96,0.02251
5066.81,0.02234
5043.67,0.02187
5020.52,0.02166
4997.38,0.02303
4974.23,0.02124
4951.09,0.02253
4927.94,0.02250
4904.8,0.02170
4881.65,0.02226
4858.51,0.02247
4835.36,0.02208
4812.22,0.02216
4789.07,0.02184
4765.93,0.02281
4742.78,0.02281
4719.64,0.02163
4696.49,0.02224
4673.35,0.02207
4650.2,0.02227
4627.06,0.02232
4603.91,0.02206
4580.77,0.02217
4557.62,0.02183
4534.48,0.02285
4511.33,0.02281
4488.19,0.02369
4465.04,0.02275
4441.9,0.02200
4418.75,0.02248
4395.61,0.02304
4372.46,0.02226
4349.32,0.02290
4326.17,0.02294
4303.03,0.02230
4279.88,0.02279
4256.74,0.02242
4233.59,0.02257
4210.45,0.02267
4187.3,0.02239
4164.16,0.02220
4141.01,0.02308
4117.87,0.02220
4094.72,0.02285
4071.58,0.02264
4048.43,0.02231
4025.29,0.02258
4002.14,0.02272
3979,0.02245
3955.85,0.02243
3932.71,0.02306
3909.57,0.02316
3886.42,0.02308
3863.28,0.02303
3840.13,0.02306
3816.99,0.02330
3793.84,0.02319
3770.7,0.02277
3747.55,0.02245
3724.41,0.02252
3701.26,0.02286
3678.12,0.02224
3654.97,0.02245
3631.83,0.02186
3608.68,0.02198
3585.54,0.02237
3562.39,0.02117
3539.25,0.02162
3516.1,0.02054
3492.96,0.02144
3469.81,0.02132
3446.67,0.02153
3423.52,0.02116
3400.38,0.02064
3377.23,0.02065
3354.09,0.02073
3330.94,0.02114
3307.8,0.02045
3284.65,0.02106
3261.51,0.02105
3238.36,0.02126
3215.22,0.02088
3192.07,0.02099
3168.93,0.02026
3145.78,0.02114
3122.64,0.02064
3099.49,0.02118
3076.35,0.02028
3053.2,0.02077
3030.06,0.02050
3006.91,0.02069
2983.77,0.02076
2960.62,0.02020
2937.48,0.02011
2914.33,0.02038
2891.19,0.02052
2868.04,0.02067
2844.9,0.02150
2821.75,0.02179
2798.61,0.02119
2775.46,0.02174
2752.32,0.02206
2729.17,0.02155
2706.03,0.02157
2682.88,0.02132
2659.74,0.02190
2636.59,0.02156
2613.45,0.02152
2590.3,0.02154
2567.16,0.02162
2544.01,0.02141
2520.87,0.02130
2497.72,0.02157
2474.58,0.02154
2451.43,0.02110
2428.29,0.02160
2405.14,0.02105
2382,0.02167
2358.85,0.02172
2335.71,0.02178
2312.56,0.02159
2289.42,0.02119
2266.27,0.02122
2243.13,0.02151
2219.98,0.02141
2196.84,0.02144
2173.7,0.02148
2150.55,0.02123
2127.41,0.02158
2104.26,0.02135
2081.12,0.02145
2057.97,0.02136
2034.83,0.02169
2011.68,0.02136
1988.54,0.02134
1965.39,0.02120
1942.25,0.02101
1919.1,0.02128
1895.96,0.02099
1872.81,0.02078
1849.67,0.02092
1826.52,0.02058
1803.38,0.02013
1780.23,0.01937
1757.09,0.01795
1733.94,0.01945
1710.8,0.02093
1687.65,0.01938
1664.51,0.01839
1641.36,0.01845
1618.22,0.01901
1595.07,0.01882
1571.93,0.01848
1548.78,0.01859
1525.64,0.01869
1502.49,0.01850
1479.35,0.01890
1456.2,0.01850
1433.06,0.01843
1409.91,0.01880
1386.77,0.01812
1363.62,0.01828
1340.48,0.01774
1317.33,0.01723
1294.19,0.01784
1271.04,0.01974
1247.9,0.02038
1224.75,0.01982
1201.61,0.01818
1178.46,0.01803
1155.32,0.01752
1132.17,0.01791
1109.03,0.01883
1085.88,0.01819
1062.74,0.01956
1039.59,0.01937
1016.45,0.01917
993.303,0.02165
970.158,0.02093
947.014,0.02005
923.869,0.01941
900.724,0.01954
877.579,0.01968
854.434,0.01935
831.289,0.01929
808.144,0.01893
784.999,0.01835
761.854,0.01856
738.709,0.01774
715.564,0.01787
692.419,0.01815
669.274,0.01778
646.129,0.01623
622.984,0.01535
599.84,0.01337