File: 01_Data/Polyester_Fabric/FTIR/IS/Polyester_Fabric_IS_REFLECT_BL_210623_R3.dpt
5996.41,0.02069
5977.12,0.02359
5957.84,0.01226
5938.55,0.01620
5919.26,0.02299
5899.97,0.02043
5880.69,0.01979
5861.4,0.01802
5842.11,0.01704
5822.82,0.01288
5803.54,0.01644
5784.25,0.01884
5764.96,0.01496
5745.68,0.01674
5726.39,0.01648
5707.1,0.01477
5687.81,0.01514
5668.53,0.01593
5649.24,0.01493
5629.95,0.01585
5610.66,0.02073
5591.38,0.01524
5572.09,0.01916
5552.8,0.01314
5533.52,0.01522
5514.23,0.02200
5494.94,0.01517
5475.65,0.01613
5456.37,0.01593
5437.08,0.01255
5417.79,0.01419
5398.5,0.02067
5379.22,0.01363
5359.93,0.01401
5340.64,0.01861
5321.36,0.01877
5302.07,0.01879
5282.78,0.01526
5263.49,0.01097
5244.21,0.01611
5224.92,0.01638
5205.63,0.01597
5186.34,0.01437
5167.06,0.01587
5147.77,0.01266
5128.48,0.01657
5109.2,0.01751
5089.91,0.01502
5070.62,0.01688
5051.33,0.01846
5032.05,0.01577
5012.76,0.01326
4993.47,0.01481
4974.18,0.01662
4954.9,0.01488
4935.61,0.01498
4916.32,0.01695
4897.04,0.01467
4877.75,0.01777
4858.46,0.01437
4839.17,0.01471
4819.89,0.01272
4800.6,0.01533
4781.31,0.01443
4762.02,0.01332
4742.74,0.01410
4723.45,0.01686
4704.16,0.01570
4684.88,0.01452
4665.59,0.01659
4646.3,0.01492
4627.01,0.01522
4607.73,0.01517
4588.44,0.01494
4569.15,0.01543
4549.87,0.01417
4530.58,0.01507
4511.29,0.01582
4492,0.01536
4472.72,0.01440
4453.43,0.01521
4434.14,0.01418
4414.85,0.01512
4395.57,0.01425
4376.28,0.01396
4356.99,0.01448
4337.71,0.01415
4318.42,0.01423
4299.13,0.01441
4279.84,0.01469
4260.56,0.01423
4241.27,0.01467
4221.98,0.01416
4202.69,0.01312
4183.41,0.01384
4164.12,0.01465
4144.83,0.01451
4125.55,0.01360
4106.26,0.01298
4086.97,0.01482
4067.68,0.01413
4048.4,0.01427
4029.11,0.01501
4009.82,0.01415
3990.53,0.01423
3971.25,0.01442
3951.96,0.01407
3932.67,0.01740
3913.39,0.01397
3894.1,0.01407
3874.81,0.01369
3855.52,0.01321
3836.24,0.01318
3816.95,0.01039
3797.66,0.01331
3778.37,0.02161
3759.09,0.01235
3739.8,0.01053
3720.51,0.01612
3701.23,0.01713
3681.94,0.03095
3662.65,0.01780
3643.36,0.01410
3624.08,0.01124
3604.79,0.00770
3585.5,0.00954
3566.21,0.01159
3546.93,0.01161
3527.64,0.01265
3508.35,0.01291
3489.07,0.01312
3469.78,0.01259
3450.49,0.01301
3431.2,0.01302
3411.92,0.01232
3392.63,0.01305
3373.34,0.01228
3354.05,0.01218
3334.77,0.01182
3315.48,0.01189
3296.19,0.01227
3276.91,0.01328
3257.62,0.01270
3238.33,0.01249
3219.04,0.01215
3199.76,0.01283
3180.47,0.01328
3161.18,0.01343
3141.89,0.01273
3122.61,0.01311
3103.32,0.01266
3084.03,0.01305
3064.75,0.01169
3045.46,0.00690
3026.17,0.00620
3006.88,0.00522
2987.6,0.00445
2968.31,0.00715
2949.02,0.01108
2929.74,0.01197
2910.45,0.01179
2891.16,0.01300
2871.87,0.01269
2852.59,0.01325
2833.3,0.01291
2814.01,0.01307
2794.72,0.01290
2775.44,0.01287
2756.15,0.01219
2736.86,0.01258
2717.58,0.01310
2698.29,0.01230
2679,0.01327
2659.71,0.01306
2640.43,0.01335
2621.14,0.01344
2601.85,0.01340
2582.56,0.01327
2563.28,0.01268
2543.99,0.01314
2524.7,0.01318
2505.42,0.01328
2486.13,0.01274
2466.84,0.01317
2447.55,0.01289
2428.27,0.01318
2408.98,0.01334
2389.69,0.04332
2370.4,0.00554
2351.12,0.01008
2331.83,0.00815
2312.54,0.01158
2293.26,0.01261
2273.97,0.01184
2254.68,0.01264
2235.39,0.01284
2216.11,0.01264
2196.82,0.01243
2177.53,0.01260
2158.24,0.01264
2138.96,0.01196
2119.67,0.01247
2100.38,0.01212
2081.1,0.01227
2061.81,0.01231
2042.52,0.01240
2023.23,0.01294
2003.95,0.01134
1984.66,0.01364
1965.37,0.01289
1946.08,0.01299
1926.8,0.01156
1907.51,0.01378
1888.22,0.01466
1868.94,0.01225
1849.65,0.01170
1830.36,0.01169
1811.07,0.01208
1791.79,0.01292
1772.5,0.01133
1753.21,0.01022
1733.92,0.02087
1714.64,0.01900
1695.35,0.00982
1676.06,0.00893
1656.78,0.00750
1637.49,0.01344
1618.2,0.01154
1598.91,0.01107
1579.63,0.01052
1560.34,0.01063
1541.05,0.01029
1521.76,0.01874
1502.48,0.01374
1483.19,0.00935
1463.9,0.00432
1444.62,0.00609
1425.33,0.00137
1406.04,0.00147
1386.75,0.00751
1367.47,0.00507
1348.18,0.00857
1328.89,0.01125
1309.61,0.01011
1290.32,0.01073
1271.03,0.01192
1251.74,0.01197
1232.46,0.01256
1213.17,0.01267
1193.88,0.00946
1174.59,0.00570
1155.31,0.00115
1136.02,0.00122
1116.73,0.00360
1097.45,0.00989
1078.16,0.01052
1058.87,0.01214
1039.58,0.01131
1020.3,0.01251
1001.01,0.01266
981.722,0.00927
962.434,0.00207
943.147,0.00196
923.86,0.00501
904.573,0.01040
885.285,0.00792
865.998,0.00986
846.711,0.01065
827.424,0.01157
808.136,0.01164
788.849,0.00970
769.562,0.01070
750.274,0.00895
730.987,0.01042
711.7,0.00966
692.413,0.01075
673.125,0.01140
653.838,0.01009
634.551,0.01237
615.264,0.01017
595.976,0.00911
576.689,0.01074
557.402,0.01053
538.115,0.01025
518.827,0.01332
499.54,0.00570
480.253,0.01199
460.966,0.00683
441.678,0.01577
422.391,0.01595
403.104,0.00524
399.246,0.03805