File: 01_Data/Polyester_Fabric/FTIR/IS/Polyester_Fabric_IS_T_221019_R4.dpt
7497.03,0.02104
7473.88,0.01791
7450.74,0.03044
7427.59,0.01436
7404.45,0.02234
7381.31,0.02208
7358.16,0.02024
7335.02,0.01367
7311.87,0.03165
7288.73,0.02172
7265.58,0.02521
7242.44,0.02153
7219.29,0.01977
7196.15,0.01955
7173,0.02344
7149.86,0.02321
7126.71,0.02320
7103.57,0.02595
7080.42,0.02141
7057.28,0.02151
7034.13,0.02366
7010.99,0.02246
6987.84,0.02115
6964.7,0.02828
6941.55,0.02118
6918.41,0.01935
6895.26,0.02412
6872.12,0.02301
6848.97,0.02699
6825.83,0.01865
6802.68,0.02030
6779.54,0.02381
6756.39,0.02320
6733.25,0.02461
6710.1,0.02531
6686.96,0.01893
6663.81,0.02335
6640.67,0.02181
6617.52,0.02192
6594.38,0.02374
6571.23,0.02705
6548.09,0.01980
6524.94,0.02595
6501.8,0.02112
6478.65,0.02545
6455.51,0.02550
6432.36,0.02515
6409.22,0.02375
6386.07,0.02137
6362.93,0.02189
6339.78,0.02194
6316.64,0.02354
6293.49,0.02347
6270.35,0.02253
6247.2,0.02337
6224.06,0.02114
6200.91,0.02342
6177.77,0.02383
6154.62,0.02020
6131.48,0.02367
6108.33,0.02230
6085.19,0.02562
6062.04,0.02106
6038.9,0.02115
6015.75,0.02141
5992.61,0.02085
5969.46,0.02259
5946.32,0.02100
5923.17,0.02350
5900.03,0.02131
5876.88,0.02160
5853.74,0.02142
5830.59,0.02150
5807.45,0.01967
5784.3,0.02284
5761.16,0.02188
5738.01,0.02091
5714.87,0.02240
5691.72,0.01980
5668.58,0.02240
5645.44,0.02061
5622.29,0.02145
5599.15,0.02057
5576,0.02254
5552.86,0.02171
5529.71,0.02035
5506.57,0.02180
5483.42,0.02203
5460.28,0.02229
5437.13,0.02100
5413.99,0.02241
5390.84,0.02319
5367.7,0.02286
5344.55,0.02283
5321.41,0.02078
5298.26,0.02251
5275.12,0.02137
5251.97,0.02089
5228.83,0.01992
5205.68,0.02128
5182.54,0.02229
5159.39,0.02064
5136.25,0.02063
5113.1,0.02325
5089.96,0.02112
5066.81,0.02264
5043.67,0.02131
5020.52,0.02228
4997.38,0.02166
4974.23,0.02262
4951.09,0.02304
4927.94,0.02307
4904.8,0.02185
4881.65,0.02156
4858.51,0.02222
4835.36,0.02120
4812.22,0.02285
4789.07,0.02279
4765.93,0.02266
4742.78,0.02160
4719.64,0.02194
4696.49,0.02166
4673.35,0.02232
4650.2,0.02277
4627.06,0.02273
4603.91,0.02148
4580.77,0.02278
4557.62,0.02297
4534.48,0.02162
4511.33,0.02239
4488.19,0.02353
4465.04,0.02194
4441.9,0.02151
4418.75,0.02277
4395.61,0.02294
4372.46,0.02285
4349.32,0.02260
4326.17,0.02257
4303.03,0.02263
4279.88,0.02280
4256.74,0.02319
4233.59,0.02241
4210.45,0.02293
4187.3,0.02281
4164.16,0.02361
4141.01,0.02276
4117.87,0.02320
4094.72,0.02251
4071.58,0.02232
4048.43,0.02306
4025.29,0.02233
4002.14,0.02267
3979,0.02299
3955.85,0.02290
3932.71,0.02323
3909.57,0.02292
3886.42,0.02285
3863.28,0.02274
3840.13,0.02341
3816.99,0.02355
3793.84,0.02307
3770.7,0.02310
3747.55,0.02273
3724.41,0.02311
3701.26,0.02271
3678.12,0.02231
3654.97,0.02271
3631.83,0.02282
3608.68,0.02233
3585.54,0.02220
3562.39,0.02133
3539.25,0.02103
3516.1,0.02076
3492.96,0.02104
3469.81,0.02105
3446.67,0.02089
3423.52,0.02074
3400.38,0.02035
3377.23,0.02066
3354.09,0.02022
3330.94,0.02036
3307.8,0.02020
3284.65,0.02057
3261.51,0.02060
3238.36,0.02065
3215.22,0.02114
3192.07,0.02117
3168.93,0.02172
3145.78,0.02171
3122.64,0.02065
3099.49,0.02118
3076.35,0.02115
3053.2,0.02102
3030.06,0.02081
3006.91,0.02143
2983.77,0.02095
2960.62,0.02031
2937.48,0.01957
2914.33,0.02074
2891.19,0.02104
2868.04,0.02081
2844.9,0.02126
2821.75,0.02151
2798.61,0.02187
2775.46,0.02200
2752.32,0.02171
2729.17,0.02182
2706.03,0.02177
2682.88,0.02201
2659.74,0.02163
2636.59,0.02179
2613.45,0.02185
2590.3,0.02169
2567.16,0.02227
2544.01,0.02233
2520.87,0.02200
2497.72,0.02180
2474.58,0.02182
2451.43,0.02169
2428.29,0.02176
2405.14,0.02220
2382,0.02142
2358.85,0.02155
2335.71,0.02179
2312.56,0.02169
2289.42,0.02205
2266.27,0.02130
2243.13,0.02173
2219.98,0.02163
2196.84,0.02162
2173.7,0.02145
2150.55,0.02179
2127.41,0.02166
2104.26,0.02144
2081.12,0.02142
2057.97,0.02147
2034.83,0.02160
2011.68,0.02135
1988.54,0.02131
1965.39,0.02128
1942.25,0.02131
1919.1,0.02150
1895.96,0.02097
1872.81,0.02139
1849.67,0.02074
1826.52,0.02085
1803.38,0.01992
1780.23,0.01974
1757.09,0.01811
1733.94,0.02005
1710.8,0.02107
1687.65,0.01946
1664.51,0.01874
1641.36,0.01879
1618.22,0.01922
1595.07,0.01901
1571.93,0.01883
1548.78,0.01856
1525.64,0.01885
1502.49,0.01914
1479.35,0.01870
1456.2,0.01894
1433.06,0.01928
1409.91,0.01835
1386.77,0.01855
1363.62,0.01876
1340.48,0.01816
1317.33,0.01725
1294.19,0.01805
1271.04,0.01947
1247.9,0.02027
1224.75,0.01927
1201.61,0.01866
1178.46,0.01800
1155.32,0.01763
1132.17,0.01812
1109.03,0.01909
1085.88,0.01811
1062.74,0.01984
1039.59,0.01940
1016.45,0.01969
993.303,0.02087
970.158,0.02035
947.014,0.02023
923.869,0.01957
900.724,0.01918
877.579,0.01926
854.434,0.01876
831.289,0.01833
808.144,0.01892
784.999,0.01903
761.854,0.01798
738.709,0.01889
715.564,0.01754
692.419,0.01872
669.274,0.01664
646.129,0.01755
622.984,0.01407
599.84,0.01796