File: 01_Data/Polyester_Fabric/FTIR/IS/Polyester_Fabric_IS_REFLECT_BL_210623_R4.dpt
5996.41,0.02384
5977.12,0.01401
5957.84,0.02259
5938.55,0.02089
5919.26,0.01247
5899.97,0.02014
5880.69,0.02232
5861.4,0.01152
5842.11,0.01355
5822.82,0.01816
5803.54,0.01579
5784.25,0.01870
5764.96,0.02166
5745.68,0.01732
5726.39,0.02031
5707.1,0.01747
5687.81,0.01139
5668.53,0.02022
5649.24,0.01772
5629.95,0.02050
5610.66,0.01731
5591.38,0.01906
5572.09,0.01596
5552.8,0.01454
5533.52,0.01899
5514.23,0.01689
5494.94,0.02222
5475.65,0.01832
5456.37,0.01415
5437.08,0.01643
5417.79,0.01701
5398.5,0.01550
5379.22,0.01469
5359.93,0.01569
5340.64,0.01981
5321.36,0.01567
5302.07,0.01425
5282.78,0.01386
5263.49,0.01520
5244.21,0.01661
5224.92,0.01417
5205.63,0.01918
5186.34,0.01677
5167.06,0.01465
5147.77,0.01686
5128.48,0.01477
5109.2,0.01715
5089.91,0.01894
5070.62,0.01731
5051.33,0.01286
5032.05,0.01433
5012.76,0.01852
4993.47,0.01768
4974.18,0.01615
4954.9,0.01780
4935.61,0.01673
4916.32,0.01431
4897.04,0.01469
4877.75,0.01547
4858.46,0.01396
4839.17,0.01695
4819.89,0.01531
4800.6,0.01431
4781.31,0.01505
4762.02,0.01736
4742.74,0.01605
4723.45,0.01436
4704.16,0.01732
4684.88,0.01484
4665.59,0.01564
4646.3,0.01604
4627.01,0.01532
4607.73,0.01580
4588.44,0.01379
4569.15,0.01539
4549.87,0.01569
4530.58,0.01524
4511.29,0.01349
4492,0.01521
4472.72,0.01481
4453.43,0.01431
4434.14,0.01507
4414.85,0.01380
4395.57,0.01380
4376.28,0.01517
4356.99,0.01417
4337.71,0.01402
4318.42,0.01467
4299.13,0.01482
4279.84,0.01384
4260.56,0.01502
4241.27,0.01535
4221.98,0.01408
4202.69,0.01442
4183.41,0.01401
4164.12,0.01508
4144.83,0.01411
4125.55,0.01465
4106.26,0.01288
4086.97,0.01353
4067.68,0.01433
4048.4,0.01270
4029.11,0.01520
4009.82,0.01496
3990.53,0.01444
3971.25,0.01438
3951.96,0.01513
3932.67,0.01718
3913.39,0.01408
3894.1,0.01305
3874.81,0.01352
3855.52,0.01480
3836.24,0.01424
3816.95,0.01031
3797.66,0.01460
3778.37,0.02180
3759.09,0.01106
3739.8,0.01157
3720.51,0.01578
3701.23,0.01711
3681.94,0.03258
3662.65,0.01891
3643.36,0.01361
3624.08,0.01192
3604.79,0.01071
3585.5,0.00930
3566.21,0.01324
3546.93,0.01225
3527.64,0.01313
3508.35,0.01329
3489.07,0.01299
3469.78,0.01333
3450.49,0.01363
3431.2,0.01311
3411.92,0.01255
3392.63,0.01277
3373.34,0.01296
3354.05,0.01248
3334.77,0.01290
3315.48,0.01185
3296.19,0.01263
3276.91,0.01301
3257.62,0.01333
3238.33,0.01260
3219.04,0.01337
3199.76,0.01240
3180.47,0.01354
3161.18,0.01272
3141.89,0.01362
3122.61,0.01292
3103.32,0.01296
3084.03,0.01306
3064.75,0.01280
3045.46,0.00783
3026.17,0.00639
3006.88,0.00585
2987.6,0.00404
2968.31,0.00710
2949.02,0.01189
2929.74,0.01246
2910.45,0.01311
2891.16,0.01267
2871.87,0.01213
2852.59,0.01277
2833.3,0.01285
2814.01,0.01267
2794.72,0.01297
2775.44,0.01277
2756.15,0.01273
2736.86,0.01317
2717.58,0.01275
2698.29,0.01219
2679,0.01313
2659.71,0.01321
2640.43,0.01320
2621.14,0.01325
2601.85,0.01319
2582.56,0.01389
2563.28,0.01315
2543.99,0.01265
2524.7,0.01287
2505.42,0.01341
2486.13,0.01301
2466.84,0.01310
2447.55,0.01314
2428.27,0.01369
2408.98,0.01345
2389.69,0.03407
2370.4,0.00422
2351.12,0.01156
2331.83,0.00755
2312.54,0.01035
2293.26,0.01253
2273.97,0.01213
2254.68,0.01249
2235.39,0.01299
2216.11,0.01253
2196.82,0.01258
2177.53,0.01209
2158.24,0.01239
2138.96,0.01185
2119.67,0.01197
2100.38,0.01205
2081.1,0.01289
2061.81,0.01248
2042.52,0.01301
2023.23,0.01300
2003.95,0.01184
1984.66,0.01323
1965.37,0.01292
1946.08,0.01305
1926.8,0.01185
1907.51,0.01349
1888.22,0.01463
1868.94,0.01203
1849.65,0.01268
1830.36,0.01161
1811.07,0.01257
1791.79,0.01256
1772.5,0.01098
1753.21,0.00954
1733.92,0.01953
1714.64,0.01973
1695.35,0.01048
1676.06,0.00908
1656.78,0.00713
1637.49,0.01263
1618.2,0.01135
1598.91,0.01108
1579.63,0.01048
1560.34,0.01054
1541.05,0.01045
1521.76,0.02021
1502.48,0.01310
1483.19,0.00946
1463.9,0.00519
1444.62,0.00567
1425.33,0.00222
1406.04,0.00246
1386.75,0.00783
1367.47,0.00479
1348.18,0.00938
1328.89,0.01020
1309.61,0.00995
1290.32,0.01073
1271.03,0.01200
1251.74,0.01274
1232.46,0.01118
1213.17,0.01183
1193.88,0.01013
1174.59,0.00452
1155.31,0.00059
1136.02,0.00039
1116.73,0.00535
1097.45,0.00898
1078.16,0.01012
1058.87,0.01228
1039.58,0.01172
1020.3,0.01226
1001.01,0.01333
981.722,0.01087
962.434,0.00348
943.147,0.00245
923.86,0.00430
904.573,0.01078
885.285,0.00959
865.998,0.00852
846.711,0.00920
827.424,0.00925
808.136,0.01167
788.849,0.01142
769.562,0.01173
750.274,0.01194
730.987,0.01021
711.7,0.00825
692.413,0.01198
673.125,0.01149
653.838,0.00859
634.551,0.00980
615.264,0.00892
595.976,0.01199
576.689,0.01003
557.402,0.00731
538.115,0.01127
518.827,0.00933
499.54,0.01169
480.253,0.00685
460.966,0.00001
441.678,0.01230
422.391,0.01802
403.104,0.01839
399.246,0.00658