File: 01_Data/Polyester_Fabric/FTIR/IS/Polyester_Fabric_IS_S_221019_R1.dpt
7497.03,0.84268
7473.88,0.83160
7450.74,0.82583
7427.59,0.83656
7404.45,0.82315
7381.31,0.82666
7358.16,0.81893
7335.02,0.81608
7311.87,0.81243
7288.73,0.81766
7265.58,0.81871
7242.44,0.81967
7219.29,0.81548
7196.15,0.81548
7173,0.81212
7149.86,0.80381
7126.71,0.81039
7103.57,0.80600
7080.42,0.80900
7057.28,0.80881
7034.13,0.79350
7010.99,0.80802
6987.84,0.80186
6964.7,0.80580
6941.55,0.80550
6918.41,0.80494
6895.26,0.81307
6872.12,0.80882
6848.97,0.80345
6825.83,0.81140
6802.68,0.80672
6779.54,0.80710
6756.39,0.81204
6733.25,0.81504
6710.1,0.81451
6686.96,0.81147
6663.81,0.81567
6640.67,0.81005
6617.52,0.81770
6594.38,0.81602
6571.23,0.81777
6548.09,0.81485
6524.94,0.82193
6501.8,0.81663
6478.65,0.81667
6455.51,0.81547
6432.36,0.81199
6409.22,0.81596
6386.07,0.82289
6362.93,0.82005
6339.78,0.81869
6316.64,0.81572
6293.49,0.81286
6270.35,0.81486
6247.2,0.81141
6224.06,0.81584
6200.91,0.80599
6177.77,0.80426
6154.62,0.79974
6131.48,0.79537
6108.33,0.77896
6085.19,0.74987
6062.04,0.72275
6038.9,0.69175
6015.75,0.67738
5992.61,0.70787
5969.46,0.71809
5946.32,0.72910
5923.17,0.74613
5900.03,0.75899
5876.88,0.74894
5853.74,0.74496
5830.59,0.75238
5807.45,0.74797
5784.3,0.75103
5761.16,0.75906
5738.01,0.76804
5714.87,0.77268
5691.72,0.77574
5668.58,0.77742
5645.44,0.77949
5622.29,0.78544
5599.15,0.78847
5576,0.78211
5552.86,0.78055
5529.71,0.78124
5506.57,0.78516
5483.42,0.78222
5460.28,0.78335
5437.13,0.79056
5413.99,0.79540
5390.84,0.79460
5367.7,0.79387
5344.55,0.79346
5321.41,0.79648
5298.26,0.79231
5275.12,0.78534
5251.97,0.77701
5228.83,0.77772
5205.68,0.77741
5182.54,0.77848
5159.39,0.77194
5136.25,0.76560
5113.1,0.75941
5089.96,0.77756
5066.81,0.78247
5043.67,0.78313
5020.52,0.78316
4997.38,0.78366
4974.23,0.78401
4951.09,0.78072
4927.94,0.77474
4904.8,0.77128
4881.65,0.76776
4858.51,0.76668
4835.36,0.75562
4812.22,0.74335
4789.07,0.73712
4765.93,0.74268
4742.78,0.72359
4719.64,0.68803
4696.49,0.65878
4673.35,0.68197
4650.2,0.69086
4627.06,0.67906
4603.91,0.71467
4580.77,0.68924
4557.62,0.72506
4534.48,0.72379
4511.33,0.70856
4488.19,0.66122
4465.04,0.61611
4441.9,0.59293
4418.75,0.60380
4395.61,0.61778
4372.46,0.62809
4349.32,0.62206
4326.17,0.61532
4303.03,0.59963
4279.88,0.59641
4256.74,0.60505
4233.59,0.60425
4210.45,0.61472
4187.3,0.61426
4164.16,0.61868
4141.01,0.61968
4117.87,0.60479
4094.72,0.54750
4071.58,0.59253
4048.43,0.61631
4025.29,0.63056
4002.14,0.63132
3979,0.63730
3955.85,0.64546
3932.71,0.65198
3909.57,0.65661
3886.42,0.67290
3863.28,0.68099
3840.13,0.68318
3816.99,0.67705
3793.84,0.67524
3770.7,0.67037
3747.55,0.67869
3724.41,0.67957
3701.26,0.66109
3678.12,0.62769
3654.97,0.61072
3631.83,0.57332
3608.68,0.55041
3585.54,0.51236
3562.39,0.46002
3539.25,0.44203
3516.1,0.44804
3492.96,0.44630
3469.81,0.42594
3446.67,0.37447
3423.52,0.35426
3400.38,0.41949
3377.23,0.42808
3354.09,0.41585
3330.94,0.40279
3307.8,0.41135
3284.65,0.41869
3261.51,0.42638
3238.36,0.42940
3215.22,0.44001
3192.07,0.44145
3168.93,0.44534
3145.78,0.43979
3122.64,0.42429
3099.49,0.39884
3076.35,0.38459
3053.2,0.36769
3030.06,0.41154
3006.91,0.33412
2983.77,0.28400
2960.62,0.24058
2937.48,0.32216
2914.33,0.28285
2891.19,0.32395
2868.04,0.35360
2844.9,0.40170
2821.75,0.46721
2798.61,0.47442
2775.46,0.50623
2752.32,0.51295
2729.17,0.53088
2706.03,0.55027
2682.88,0.56001
2659.74,0.56258
2636.59,0.53501
2613.45,0.53402
2590.3,0.51842
2567.16,0.51471
2544.01,0.51025
2520.87,0.51885
2497.72,0.52873
2474.58,0.55443
2451.43,0.55788
2428.29,0.52802
2405.14,0.49314
2382,0.48431
2358.85,0.51720
2335.71,0.53995
2312.56,0.55150
2289.42,0.50194
2266.27,0.49270
2243.13,0.50491
2219.98,0.52065
2196.84,0.53650
2173.7,0.51479
2150.55,0.46065
2127.41,0.42532
2104.26,0.40646
2081.12,0.43153
2057.97,0.48815
2034.83,0.50769
2011.68,0.46541
1988.54,0.41349
1965.39,0.33598
1942.25,0.36984
1919.1,0.42904
1895.96,0.45244
1872.81,0.44072
1849.67,0.36798
1826.52,0.29782
1803.38,0.28547
1780.23,0.24922
1757.09,0.14504
1733.94,0.03327
1710.8,0.08115
1687.65,0.17563
1664.51,0.23421
1641.36,0.27351
1618.22,0.26939
1595.07,0.29295
1571.93,0.25206
1548.78,0.28459
1525.64,0.25927
1502.49,0.16330
1479.35,0.20296
1456.2,0.15018
1433.06,0.16876
1409.91,0.05909
1386.77,0.10712
1363.62,0.10112
1340.48,0.05805
1317.33,0.06757
1294.19,0.03719
1271.04,0.06053
1247.9,0.06266
1224.75,0.14658
1201.61,0.24647
1178.46,0.19902
1155.32,0.10343
1132.17,0.05434
1109.03,0.06093
1085.88,0.12542
1062.74,0.26907
1039.59,0.20805
1016.45,0.14085
993.303,0.30522
970.158,0.18985
947.014,0.35257
923.869,0.35487
900.724,0.25943
877.579,0.18816
854.434,0.18927
831.289,0.26448
808.144,0.26671
784.999,0.26284
761.854,0.28768
738.709,0.09947
715.564,0.23651
692.419,0.30095
669.274,0.29090
646.129,0.29896
622.984,0.29068
599.84,0.28254