File: 01_Data/Polyester_Fabric/FTIR/IS/Polyester_Fabric_IS_S_221019_R7.dpt
7497.03,0.84655
7473.88,0.82936
7450.74,0.82814
7427.59,0.82461
7404.45,0.82438
7381.31,0.83625
7358.16,0.82341
7335.02,0.82334
7311.87,0.82267
7288.73,0.81528
7265.58,0.82260
7242.44,0.82532
7219.29,0.82116
7196.15,0.81515
7173,0.81005
7149.86,0.81554
7126.71,0.80906
7103.57,0.81233
7080.42,0.81469
7057.28,0.80581
7034.13,0.80233
7010.99,0.80242
6987.84,0.80419
6964.7,0.80300
6941.55,0.80553
6918.41,0.80846
6895.26,0.81156
6872.12,0.81096
6848.97,0.81098
6825.83,0.80866
6802.68,0.80790
6779.54,0.81225
6756.39,0.81225
6733.25,0.81501
6710.1,0.81416
6686.96,0.80633
6663.81,0.81399
6640.67,0.81245
6617.52,0.82082
6594.38,0.82088
6571.23,0.81695
6548.09,0.81331
6524.94,0.81429
6501.8,0.82169
6478.65,0.81927
6455.51,0.81766
6432.36,0.81453
6409.22,0.82053
6386.07,0.81985
6362.93,0.82131
6339.78,0.81809
6316.64,0.81125
6293.49,0.81661
6270.35,0.81327
6247.2,0.81814
6224.06,0.81505
6200.91,0.80505
6177.77,0.80800
6154.62,0.80235
6131.48,0.79693
6108.33,0.77930
6085.19,0.75365
6062.04,0.71984
6038.9,0.69400
6015.75,0.67423
5992.61,0.70441
5969.46,0.71479
5946.32,0.73055
5923.17,0.74737
5900.03,0.76130
5876.88,0.75127
5853.74,0.74681
5830.59,0.75144
5807.45,0.75036
5784.3,0.75170
5761.16,0.75798
5738.01,0.76918
5714.87,0.77345
5691.72,0.77739
5668.58,0.77899
5645.44,0.78232
5622.29,0.78769
5599.15,0.78962
5576,0.78508
5552.86,0.78145
5529.71,0.78227
5506.57,0.78467
5483.42,0.78129
5460.28,0.78763
5437.13,0.79223
5413.99,0.79585
5390.84,0.79587
5367.7,0.79676
5344.55,0.79299
5321.41,0.79876
5298.26,0.79623
5275.12,0.79021
5251.97,0.78386
5228.83,0.78355
5205.68,0.78380
5182.54,0.78098
5159.39,0.77910
5136.25,0.77095
5113.1,0.76289
5089.96,0.78015
5066.81,0.78556
5043.67,0.78787
5020.52,0.78607
4997.38,0.78618
4974.23,0.78623
4951.09,0.78313
4927.94,0.77673
4904.8,0.77175
4881.65,0.76868
4858.51,0.76586
4835.36,0.75710
4812.22,0.74400
4789.07,0.73774
4765.93,0.74373
4742.78,0.72500
4719.64,0.68889
4696.49,0.65850
4673.35,0.68349
4650.2,0.69192
4627.06,0.67992
4603.91,0.71657
4580.77,0.69110
4557.62,0.72652
4534.48,0.72433
4511.33,0.71086
4488.19,0.66261
4465.04,0.61835
4441.9,0.59410
4418.75,0.60460
4395.61,0.61992
4372.46,0.62884
4349.32,0.62376
4326.17,0.61643
4303.03,0.60016
4279.88,0.59614
4256.74,0.60628
4233.59,0.60514
4210.45,0.61658
4187.3,0.61499
4164.16,0.61891
4141.01,0.62090
4117.87,0.60564
4094.72,0.54885
4071.58,0.59379
4048.43,0.61705
4025.29,0.63207
4002.14,0.63286
3979,0.63889
3955.85,0.64729
3932.71,0.65372
3909.57,0.65802
3886.42,0.67540
3863.28,0.68293
3840.13,0.68478
3816.99,0.67862
3793.84,0.67730
3770.7,0.67338
3747.55,0.68172
3724.41,0.68242
3701.26,0.66658
3678.12,0.64088
3654.97,0.64361
3631.83,0.60805
3608.68,0.57588
3585.54,0.52850
3562.39,0.47447
3539.25,0.45424
3516.1,0.45799
3492.96,0.45530
3469.81,0.43307
3446.67,0.37827
3423.52,0.35776
3400.38,0.42504
3377.23,0.43306
3354.09,0.42019
3330.94,0.40529
3307.8,0.41508
3284.65,0.42141
3261.51,0.43042
3238.36,0.43391
3215.22,0.44481
3192.07,0.44667
3168.93,0.44962
3145.78,0.44427
3122.64,0.42829
3099.49,0.40270
3076.35,0.38714
3053.2,0.37032
3030.06,0.41396
3006.91,0.33637
2983.77,0.28522
2960.62,0.24081
2937.48,0.32357
2914.33,0.28385
2891.19,0.32464
2868.04,0.35445
2844.9,0.40346
2821.75,0.46952
2798.61,0.47775
2775.46,0.50919
2752.32,0.51489
2729.17,0.53396
2706.03,0.55347
2682.88,0.56281
2659.74,0.56581
2636.59,0.53789
2613.45,0.53620
2590.3,0.52009
2567.16,0.51707
2544.01,0.51203
2520.87,0.52048
2497.72,0.53051
2474.58,0.55634
2451.43,0.55920
2428.29,0.52987
2405.14,0.49398
2382,0.48572
2358.85,0.51773
2335.71,0.54120
2312.56,0.55306
2289.42,0.50304
2266.27,0.49371
2243.13,0.50635
2219.98,0.52239
2196.84,0.53820
2173.7,0.51659
2150.55,0.46227
2127.41,0.42609
2104.26,0.40756
2081.12,0.43275
2057.97,0.48968
2034.83,0.50998
2011.68,0.46702
1988.54,0.41480
1965.39,0.33733
1942.25,0.37074
1919.1,0.43006
1895.96,0.45397
1872.81,0.44186
1849.67,0.36858
1826.52,0.29837
1803.38,0.28590
1780.23,0.24907
1757.09,0.14469
1733.94,0.03305
1710.8,0.08159
1687.65,0.17571
1664.51,0.23545
1641.36,0.27699
1618.22,0.27238
1595.07,0.29524
1571.93,0.25319
1548.78,0.28564
1525.64,0.25898
1502.49,0.16339
1479.35,0.20319
1456.2,0.15052
1433.06,0.16899
1409.91,0.05903
1386.77,0.10682
1363.62,0.10112
1340.48,0.05840
1317.33,0.06788
1294.19,0.03701
1271.04,0.06042
1247.9,0.06233
1224.75,0.14646
1201.61,0.24650
1178.46,0.19952
1155.32,0.10373
1132.17,0.05420
1109.03,0.06074
1085.88,0.12585
1062.74,0.26925
1039.59,0.20782
1016.45,0.14051
993.303,0.30648
970.158,0.19097
947.014,0.35272
923.869,0.35555
900.724,0.26020
877.579,0.18855
854.434,0.18935
831.289,0.26590
808.144,0.26766
784.999,0.26407
761.854,0.28941
738.709,0.10110
715.564,0.23909
692.419,0.30291
669.274,0.29288
646.129,0.30063
622.984,0.29413
599.84,0.28304