File: 01_Data/Polyester_Fabric/FTIR/IS/Polyester_Fabric_IS_REFLECT_MEAS_210623_R3.dpt
5996.41,0.64150
5977.12,0.64353
5957.84,0.65395
5938.55,0.66002
5919.26,0.67767
5899.97,0.68450
5880.69,0.68506
5861.4,0.68331
5842.11,0.68571
5822.82,0.69041
5803.54,0.69762
5784.25,0.68758
5764.96,0.69839
5745.68,0.70811
5726.39,0.71104
5707.1,0.71116
5687.81,0.70582
5668.53,0.71063
5649.24,0.70539
5629.95,0.72177
5610.66,0.71282
5591.38,0.71893
5572.09,0.72750
5552.8,0.72143
5533.52,0.71509
5514.23,0.71503
5494.94,0.71151
5475.65,0.70480
5456.37,0.72094
5437.08,0.72815
5417.79,0.72532
5398.5,0.72306
5379.22,0.71967
5359.93,0.73139
5340.64,0.71406
5321.36,0.72204
5302.07,0.72195
5282.78,0.70991
5263.49,0.68419
5244.21,0.68209
5224.92,0.68692
5205.63,0.69324
5186.34,0.70684
5167.06,0.70465
5147.77,0.70811
5128.48,0.71040
5109.2,0.70150
5089.91,0.71361
5070.62,0.72273
5051.33,0.72487
5032.05,0.72258
5012.76,0.71933
4993.47,0.71866
4974.18,0.71905
4954.9,0.72438
4935.61,0.71610
4916.32,0.71239
4897.04,0.71077
4877.75,0.71271
4858.46,0.71307
4839.17,0.70877
4819.89,0.69106
4800.6,0.68649
4781.31,0.68501
4762.02,0.68816
4742.74,0.66724
4723.45,0.63372
4704.16,0.61720
4684.88,0.59735
4665.59,0.63586
4646.3,0.62361
4627.01,0.62301
4607.73,0.65929
4588.44,0.63749
4569.15,0.64962
4549.87,0.66674
4530.58,0.66593
4511.29,0.65250
4492,0.61064
4472.72,0.58200
4453.43,0.53470
4434.14,0.52632
4414.85,0.54974
4395.57,0.56268
4376.28,0.57037
4356.99,0.56891
4337.71,0.55753
4318.42,0.55644
4299.13,0.53705
4279.84,0.53835
4260.56,0.54864
4241.27,0.54653
4221.98,0.54802
4202.69,0.56125
4183.41,0.54931
4164.12,0.55969
4144.83,0.56438
4125.55,0.54822
4106.26,0.52710
4086.97,0.48057
4067.68,0.54113
4048.4,0.55923
4029.11,0.57198
4009.82,0.57043
3990.53,0.57882
3971.25,0.57921
3951.96,0.58823
3932.67,0.59037
3913.39,0.59509
3894.1,0.60519
3874.81,0.61088
3855.52,0.60483
3836.24,0.61591
3816.95,0.60692
3797.66,0.60620
3778.37,0.60748
3759.09,0.58833
3739.8,0.59214
3720.51,0.59847
3701.23,0.57010
3681.94,0.51087
3662.65,0.48171
3643.36,0.44169
3624.08,0.42572
3604.79,0.43372
3585.5,0.43106
3566.21,0.40267
3546.93,0.38445
3527.64,0.39803
3508.35,0.41489
3489.07,0.42011
3469.78,0.40980
3450.49,0.37519
3431.2,0.32238
3411.92,0.38809
3392.63,0.41858
3373.34,0.43080
3354.05,0.42291
3334.77,0.40750
3315.48,0.42185
3296.19,0.42105
3276.91,0.43007
3257.62,0.43581
3238.33,0.43241
3219.04,0.43882
3199.76,0.44179
3180.47,0.44105
3161.18,0.44008
3141.89,0.42731
3122.61,0.41051
3103.32,0.37875
3084.03,0.37124
3064.75,0.35844
3045.46,0.38783
3026.17,0.37812
3006.88,0.31118
2987.6,0.27735
2968.31,0.20524
2949.02,0.27559
2929.74,0.33858
2910.45,0.26812
2891.16,0.32147
2871.87,0.34822
2852.59,0.37678
2833.3,0.43868
2814.01,0.44893
2794.72,0.46193
2775.44,0.48456
2756.15,0.48968
2736.86,0.49741
2717.58,0.51783
2698.29,0.53143
2679,0.53459
2659.71,0.53463
2640.43,0.51115
2621.14,0.49937
2601.85,0.49289
2582.56,0.47521
2563.28,0.47315
2543.99,0.46857
2524.7,0.47369
2505.42,0.48495
2486.13,0.49846
2466.84,0.51512
2447.55,0.51099
2428.27,0.47960
2408.98,0.44623
2389.69,0.42470
2370.4,0.39763
2351.12,0.41272
2331.83,0.43081
2312.54,0.46322
2293.26,0.44335
2273.97,0.43841
2254.68,0.43363
2235.39,0.45691
2216.11,0.46630
2196.82,0.48145
2177.53,0.46674
2158.24,0.42389
2138.96,0.38807
2119.67,0.35689
2100.38,0.35456
2081.1,0.37800
2061.81,0.42463
2042.52,0.45563
2023.23,0.43458
2003.95,0.39298
1984.66,0.34956
1965.37,0.28506
1946.08,0.30637
1926.8,0.35808
1907.51,0.39032
1888.22,0.39913
1868.94,0.38646
1849.65,0.31441
1830.36,0.25912
1811.07,0.24330
1791.79,0.23224
1772.5,0.19212
1753.21,0.09529
1733.92,0.02610
1714.64,0.04977
1695.35,0.14258
1676.06,0.17396
1656.78,0.23186
1637.49,0.25297
1618.2,0.24170
1598.91,0.26239
1579.63,0.18642
1560.34,0.26254
1541.05,0.26920
1521.76,0.23424
1502.48,0.14401
1483.19,0.19666
1463.9,0.14461
1444.62,0.13540
1425.33,0.14009
1406.04,0.06344
1386.75,0.09197
1367.47,0.08177
1348.18,0.04776
1328.89,0.09071
1309.61,0.03580
1290.32,0.03150
1271.03,0.04809
1251.74,0.05176
1232.46,0.08446
1213.17,0.18363
1193.88,0.22890
1174.59,0.15552
1155.31,0.08286
1136.02,0.03755
1116.73,0.04771
1097.45,0.06312
1078.16,0.17973
1058.87,0.25735
1039.58,0.19506
1020.3,0.08553
1001.01,0.30548
981.722,0.23073
962.434,0.24777
943.147,0.33608
923.86,0.32857
904.573,0.24640
885.285,0.21137
865.998,0.19549
846.711,0.15653
827.424,0.24130
808.136,0.23736
788.849,0.21262
769.562,0.25455
750.274,0.20805
730.987,0.05172
711.7,0.21173
692.413,0.26329
673.125,0.23424
653.838,0.25696
634.551,0.23640
615.264,0.24494
595.976,0.23617
576.689,0.23117
557.402,0.20407
538.115,0.15370
518.827,0.12232
499.54,0.10071
480.253,0.12457
460.966,0.11576
441.678,0.05201
422.391,0.08940
403.104,0.05522
399.246,0.05123