File: 01_Data/Polyester_Fabric/FTIR/IS/Polyester_Fabric_IS_REFLECT_MEAS_210623_R2.dpt
5996.41,0.68640
5977.12,0.68071
5957.84,0.69338
5938.55,0.69801
5919.26,0.70650
5899.97,0.71644
5880.69,0.71562
5861.4,0.72588
5842.11,0.72714
5822.82,0.72506
5803.54,0.73091
5784.25,0.72660
5764.96,0.72830
5745.68,0.73867
5726.39,0.74862
5707.1,0.74744
5687.81,0.74047
5668.53,0.74189
5649.24,0.74220
5629.95,0.75577
5610.66,0.75209
5591.38,0.74820
5572.09,0.75236
5552.8,0.74995
5533.52,0.74466
5514.23,0.74854
5494.94,0.74375
5475.65,0.73930
5456.37,0.75662
5437.08,0.76323
5417.79,0.76205
5398.5,0.75403
5379.22,0.75279
5359.93,0.76327
5340.64,0.74532
5321.36,0.75175
5302.07,0.75679
5282.78,0.74062
5263.49,0.71552
5244.21,0.71914
5224.92,0.72061
5205.63,0.72805
5186.34,0.74139
5167.06,0.73740
5147.77,0.73799
5128.48,0.74152
5109.2,0.73198
5089.91,0.74771
5070.62,0.75447
5051.33,0.75561
5032.05,0.75449
5012.76,0.74963
4993.47,0.74678
4974.18,0.74768
4954.9,0.75220
4935.61,0.74846
4916.32,0.74275
4897.04,0.74275
4877.75,0.74159
4858.46,0.74249
4839.17,0.73540
4819.89,0.72113
4800.6,0.71799
4781.31,0.71525
4762.02,0.71753
4742.74,0.69945
4723.45,0.66460
4704.16,0.64760
4684.88,0.62730
4665.59,0.66568
4646.3,0.65477
4627.01,0.65301
4607.73,0.68909
4588.44,0.66660
4569.15,0.67979
4549.87,0.69550
4530.58,0.69492
4511.29,0.68023
4492,0.64049
4472.72,0.60942
4453.43,0.56514
4434.14,0.55611
4414.85,0.57739
4395.57,0.58990
4376.28,0.59993
4356.99,0.59865
4337.71,0.58761
4318.42,0.58492
4299.13,0.56401
4279.84,0.56634
4260.56,0.57797
4241.27,0.57344
4221.98,0.57493
4202.69,0.58963
4183.41,0.57765
4164.12,0.58742
4144.83,0.59346
4125.55,0.57677
4106.26,0.55712
4086.97,0.50958
4067.68,0.56990
4048.4,0.58686
4029.11,0.60172
4009.82,0.60079
3990.53,0.60774
3971.25,0.60902
3951.96,0.61749
3932.67,0.61934
3913.39,0.62450
3894.1,0.63585
3874.81,0.64144
3855.52,0.63627
3836.24,0.64662
3816.95,0.63613
3797.66,0.63630
3778.37,0.63703
3759.09,0.61709
3739.8,0.62499
3720.51,0.62720
3701.23,0.60192
3681.94,0.54448
3662.65,0.51495
3643.36,0.47772
3624.08,0.46149
3604.79,0.47126
3585.5,0.46626
3566.21,0.43789
3546.93,0.41895
3527.64,0.43314
3508.35,0.44846
3489.07,0.45373
3469.78,0.44202
3450.49,0.40590
3431.2,0.34866
3411.92,0.42187
3392.63,0.45488
3373.34,0.46227
3354.05,0.45281
3334.77,0.43635
3315.48,0.44906
3296.19,0.44538
3276.91,0.45476
3257.62,0.46070
3238.33,0.45762
3219.04,0.46347
3199.76,0.46484
3180.47,0.46556
3161.18,0.46341
3141.89,0.45087
3122.61,0.43320
3103.32,0.40041
3084.03,0.39108
3064.75,0.37842
3045.46,0.40811
3026.17,0.39829
3006.88,0.32887
2987.6,0.29321
2968.31,0.21644
2949.02,0.28825
2929.74,0.35060
2910.45,0.27984
2891.16,0.33803
2871.87,0.36663
2852.59,0.39165
2833.3,0.46154
2814.01,0.47073
2794.72,0.48436
2775.44,0.50708
2756.15,0.51294
2736.86,0.51946
2717.58,0.54125
2698.29,0.55528
2679,0.55816
2659.71,0.55795
2640.43,0.53429
2621.14,0.52344
2601.85,0.51852
2582.56,0.50005
2563.28,0.49784
2543.99,0.49428
2524.7,0.49872
2505.42,0.51040
2486.13,0.52336
2466.84,0.54033
2447.55,0.53560
2428.27,0.50510
2408.98,0.47195
2389.69,0.44935
2370.4,0.42169
2351.12,0.43718
2331.83,0.45683
2312.54,0.48892
2293.26,0.46972
2273.97,0.46482
2254.68,0.45977
2235.39,0.48234
2216.11,0.49159
2196.82,0.50630
2177.53,0.49074
2158.24,0.44753
2138.96,0.41117
2119.67,0.37863
2100.38,0.37524
2081.1,0.39981
2061.81,0.44676
2042.52,0.47679
2023.23,0.45593
2003.95,0.41441
1984.66,0.36953
1965.37,0.30398
1946.08,0.32419
1926.8,0.37822
1907.51,0.40965
1888.22,0.41882
1868.94,0.40578
1849.65,0.33185
1830.36,0.27444
1811.07,0.25892
1791.79,0.24625
1772.5,0.20564
1753.21,0.10297
1733.92,0.02583
1714.64,0.05072
1695.35,0.14824
1676.06,0.18358
1656.78,0.24112
1637.49,0.26436
1618.2,0.25418
1598.91,0.27470
1579.63,0.19526
1560.34,0.27492
1541.05,0.28544
1521.76,0.24718
1502.48,0.15178
1483.19,0.21177
1463.9,0.15413
1444.62,0.14474
1425.33,0.14940
1406.04,0.06585
1386.75,0.09587
1367.47,0.08659
1348.18,0.04858
1328.89,0.09670
1309.61,0.03752
1290.32,0.03159
1271.03,0.04904
1251.74,0.05357
1232.46,0.08773
1213.17,0.19317
1193.88,0.25199
1174.59,0.17261
1155.31,0.09290
1136.02,0.03917
1116.73,0.04779
1097.45,0.06344
1078.16,0.18625
1058.87,0.27210
1039.58,0.20606
1020.3,0.08990
1001.01,0.32335
981.722,0.24341
962.434,0.26117
943.147,0.35408
923.86,0.35020
904.573,0.26389
885.285,0.22525
865.998,0.20876
846.711,0.16351
827.424,0.25724
808.136,0.25027
788.849,0.22609
769.562,0.26786
750.274,0.22366
730.987,0.05467
711.7,0.22586
692.413,0.28161
673.125,0.26166
653.838,0.27414
634.551,0.25045
615.264,0.26546
595.976,0.25567
576.689,0.23936
557.402,0.20957
538.115,0.15859
518.827,0.12899
499.54,0.09809
480.253,0.12808
460.966,0.11716
441.678,0.05482
422.391,0.09686
403.104,0.07335
399.246,0.04124