File: 01_Data/Polyester_Fabric/FTIR/IS/Polyester_Fabric_IS_T_221019_R6.dpt
7497.03,0.02289
7473.88,0.02335
7450.74,0.01889
7427.59,0.02931
7404.45,0.02457
7381.31,0.02028
7358.16,0.03077
7335.02,0.02618
7311.87,0.02046
7288.73,0.02133
7265.58,0.02062
7242.44,0.02730
7219.29,0.02415
7196.15,0.02150
7173,0.02613
7149.86,0.02481
7126.71,0.02839
7103.57,0.02453
7080.42,0.02212
7057.28,0.02890
7034.13,0.02549
7010.99,0.01873
6987.84,0.02298
6964.7,0.02566
6941.55,0.02037
6918.41,0.02136
6895.26,0.02352
6872.12,0.01939
6848.97,0.02379
6825.83,0.01725
6802.68,0.02501
6779.54,0.02207
6756.39,0.02354
6733.25,0.02337
6710.1,0.02538
6686.96,0.02425
6663.81,0.02429
6640.67,0.02181
6617.52,0.01975
6594.38,0.02189
6571.23,0.02562
6548.09,0.02461
6524.94,0.01988
6501.8,0.02561
6478.65,0.01884
6455.51,0.02211
6432.36,0.02170
6409.22,0.02451
6386.07,0.02304
6362.93,0.02120
6339.78,0.02137
6316.64,0.02441
6293.49,0.02146
6270.35,0.02197
6247.2,0.02120
6224.06,0.02079
6200.91,0.02372
6177.77,0.02195
6154.62,0.02567
6131.48,0.02331
6108.33,0.02289
6085.19,0.02231
6062.04,0.02176
6038.9,0.02270
6015.75,0.02377
5992.61,0.01929
5969.46,0.01800
5946.32,0.02167
5923.17,0.02124
5900.03,0.02307
5876.88,0.02069
5853.74,0.02219
5830.59,0.01843
5807.45,0.02531
5784.3,0.02468
5761.16,0.02153
5738.01,0.02097
5714.87,0.02281
5691.72,0.02200
5668.58,0.02170
5645.44,0.02163
5622.29,0.02386
5599.15,0.02302
5576,0.02148
5552.86,0.02336
5529.71,0.02185
5506.57,0.02179
5483.42,0.02126
5460.28,0.02239
5437.13,0.02322
5413.99,0.02410
5390.84,0.02186
5367.7,0.02236
5344.55,0.02147
5321.41,0.02328
5298.26,0.02272
5275.12,0.02316
5251.97,0.02238
5228.83,0.02202
5205.68,0.02268
5182.54,0.02300
5159.39,0.02237
5136.25,0.02216
5113.1,0.02236
5089.96,0.02330
5066.81,0.02241
5043.67,0.02243
5020.52,0.02130
4997.38,0.02142
4974.23,0.02151
4951.09,0.02205
4927.94,0.02330
4904.8,0.02099
4881.65,0.02213
4858.51,0.02181
4835.36,0.02274
4812.22,0.02195
4789.07,0.02170
4765.93,0.02274
4742.78,0.02253
4719.64,0.02221
4696.49,0.02285
4673.35,0.02216
4650.2,0.02241
4627.06,0.02283
4603.91,0.02275
4580.77,0.02275
4557.62,0.02308
4534.48,0.02254
4511.33,0.02259
4488.19,0.02261
4465.04,0.02259
4441.9,0.02306
4418.75,0.02292
4395.61,0.02239
4372.46,0.02262
4349.32,0.02250
4326.17,0.02202
4303.03,0.02238
4279.88,0.02331
4256.74,0.02292
4233.59,0.02403
4210.45,0.02375
4187.3,0.02301
4164.16,0.02330
4141.01,0.02291
4117.87,0.02326
4094.72,0.02312
4071.58,0.02295
4048.43,0.02315
4025.29,0.02332
4002.14,0.02321
3979,0.02287
3955.85,0.02303
3932.71,0.02248
3909.57,0.02343
3886.42,0.02288
3863.28,0.02364
3840.13,0.02406
3816.99,0.02276
3793.84,0.02312
3770.7,0.02349
3747.55,0.02404
3724.41,0.02408
3701.26,0.02272
3678.12,0.02288
3654.97,0.02264
3631.83,0.02220
3608.68,0.02197
3585.54,0.02270
3562.39,0.02206
3539.25,0.02164
3516.1,0.02156
3492.96,0.02148
3469.81,0.02129
3446.67,0.02107
3423.52,0.02117
3400.38,0.02056
3377.23,0.02091
3354.09,0.02092
3330.94,0.02094
3307.8,0.02072
3284.65,0.02056
3261.51,0.02093
3238.36,0.02127
3215.22,0.02140
3192.07,0.02057
3168.93,0.02094
3145.78,0.02196
3122.64,0.02132
3099.49,0.02160
3076.35,0.02116
3053.2,0.02105
3030.06,0.02075
3006.91,0.02074
2983.77,0.02058
2960.62,0.02059
2937.48,0.02020
2914.33,0.02094
2891.19,0.02130
2868.04,0.02139
2844.9,0.02184
2821.75,0.02192
2798.61,0.02202
2775.46,0.02219
2752.32,0.02170
2729.17,0.02158
2706.03,0.02186
2682.88,0.02231
2659.74,0.02172
2636.59,0.02179
2613.45,0.02211
2590.3,0.02210
2567.16,0.02220
2544.01,0.02235
2520.87,0.02209
2497.72,0.02220
2474.58,0.02182
2451.43,0.02187
2428.29,0.02204
2405.14,0.02208
2382,0.02214
2358.85,0.02185
2335.71,0.02178
2312.56,0.02196
2289.42,0.02181
2266.27,0.02164
2243.13,0.02179
2219.98,0.02166
2196.84,0.02200
2173.7,0.02189
2150.55,0.02204
2127.41,0.02199
2104.26,0.02224
2081.12,0.02175
2057.97,0.02160
2034.83,0.02189
2011.68,0.02159
1988.54,0.02190
1965.39,0.02148
1942.25,0.02211
1919.1,0.02156
1895.96,0.02078
1872.81,0.02151
1849.67,0.02154
1826.52,0.02103
1803.38,0.02095
1780.23,0.01982
1757.09,0.01820
1733.94,0.02024
1710.8,0.02092
1687.65,0.01970
1664.51,0.01899
1641.36,0.01886
1618.22,0.01910
1595.07,0.01938
1571.93,0.01870
1548.78,0.01830
1525.64,0.01894
1502.49,0.01917
1479.35,0.01873
1456.2,0.01921
1433.06,0.01888
1409.91,0.01902
1386.77,0.01862
1363.62,0.01855
1340.48,0.01846
1317.33,0.01734
1294.19,0.01825
1271.04,0.01967
1247.9,0.02082
1224.75,0.02008
1201.61,0.01898
1178.46,0.01814
1155.32,0.01776
1132.17,0.01873
1109.03,0.01920
1085.88,0.01915
1062.74,0.02072
1039.59,0.02004
1016.45,0.01966
993.303,0.02159
970.158,0.02031
947.014,0.02011
923.869,0.01966
900.724,0.01948
877.579,0.01943
854.434,0.01832
831.289,0.01949
808.144,0.01885
784.999,0.01848
761.854,0.01800
738.709,0.01912
715.564,0.01857
692.419,0.01736
669.274,0.01795
646.129,0.01765
622.984,0.01460
599.84,0.01564