File: 01_Data/Polyester_Fabric/FTIR/IS/Polyester_Fabric_IS_S_221019_R4.dpt
7497.03,0.84490
7473.88,0.83530
7450.74,0.83317
7427.59,0.83460
7404.45,0.81819
7381.31,0.82099
7358.16,0.81824
7335.02,0.82054
7311.87,0.81145
7288.73,0.82355
7265.58,0.81573
7242.44,0.82278
7219.29,0.82176
7196.15,0.81514
7173,0.80869
7149.86,0.81431
7126.71,0.80855
7103.57,0.81795
7080.42,0.80396
7057.28,0.80193
7034.13,0.80532
7010.99,0.80975
6987.84,0.80332
6964.7,0.80046
6941.55,0.81087
6918.41,0.80977
6895.26,0.80927
6872.12,0.80862
6848.97,0.81477
6825.83,0.81099
6802.68,0.81475
6779.54,0.81093
6756.39,0.81172
6733.25,0.80693
6710.1,0.81051
6686.96,0.81584
6663.81,0.80980
6640.67,0.81530
6617.52,0.81608
6594.38,0.81282
6571.23,0.81369
6548.09,0.81896
6524.94,0.81638
6501.8,0.81829
6478.65,0.81653
6455.51,0.82040
6432.36,0.81904
6409.22,0.82093
6386.07,0.81967
6362.93,0.81799
6339.78,0.81714
6316.64,0.81832
6293.49,0.81701
6270.35,0.81807
6247.2,0.82041
6224.06,0.81296
6200.91,0.80489
6177.77,0.80919
6154.62,0.79943
6131.48,0.79241
6108.33,0.78226
6085.19,0.75238
6062.04,0.71907
6038.9,0.69054
6015.75,0.67697
5992.61,0.70900
5969.46,0.71936
5946.32,0.72920
5923.17,0.74536
5900.03,0.75906
5876.88,0.75150
5853.74,0.74759
5830.59,0.75128
5807.45,0.75067
5784.3,0.75249
5761.16,0.75856
5738.01,0.76964
5714.87,0.77854
5691.72,0.77753
5668.58,0.77943
5645.44,0.77926
5622.29,0.78828
5599.15,0.78806
5576,0.78565
5552.86,0.78132
5529.71,0.78421
5506.57,0.78553
5483.42,0.78227
5460.28,0.78614
5437.13,0.79177
5413.99,0.79537
5390.84,0.79635
5367.7,0.79517
5344.55,0.79512
5321.41,0.79656
5298.26,0.79572
5275.12,0.78709
5251.97,0.78229
5228.83,0.78021
5205.68,0.78122
5182.54,0.78106
5159.39,0.77643
5136.25,0.76824
5113.1,0.76416
5089.96,0.77839
5066.81,0.78478
5043.67,0.78540
5020.52,0.78652
4997.38,0.78649
4974.23,0.78695
4951.09,0.78291
4927.94,0.77713
4904.8,0.77116
4881.65,0.76940
4858.51,0.76551
4835.36,0.75609
4812.22,0.74507
4789.07,0.73822
4765.93,0.74431
4742.78,0.72484
4719.64,0.68926
4696.49,0.65834
4673.35,0.68241
4650.2,0.69188
4627.06,0.68044
4603.91,0.71559
4580.77,0.69062
4557.62,0.72576
4534.48,0.72509
4511.33,0.71106
4488.19,0.66305
4465.04,0.61816
4441.9,0.59438
4418.75,0.60533
4395.61,0.61820
4372.46,0.62911
4349.32,0.62296
4326.17,0.61647
4303.03,0.60059
4279.88,0.59640
4256.74,0.60597
4233.59,0.60542
4210.45,0.61610
4187.3,0.61423
4164.16,0.61939
4141.01,0.62083
4117.87,0.60595
4094.72,0.54813
4071.58,0.59339
4048.43,0.61673
4025.29,0.63202
4002.14,0.63359
3979,0.63909
3955.85,0.64722
3932.71,0.65407
3909.57,0.65770
3886.42,0.67500
3863.28,0.68245
3840.13,0.68453
3816.99,0.67823
3793.84,0.67659
3770.7,0.67315
3747.55,0.68057
3724.41,0.68221
3701.26,0.66480
3678.12,0.63688
3654.97,0.63154
3631.83,0.59599
3608.68,0.56644
3585.54,0.52342
3562.39,0.47043
3539.25,0.45057
3516.1,0.45422
3492.96,0.45220
3469.81,0.43118
3446.67,0.37831
3423.52,0.35686
3400.38,0.42269
3377.23,0.43163
3354.09,0.41944
3330.94,0.40546
3307.8,0.41454
3284.65,0.42071
3261.51,0.42967
3238.36,0.43291
3215.22,0.44388
3192.07,0.44517
3168.93,0.44850
3145.78,0.44282
3122.64,0.42728
3099.49,0.40161
3076.35,0.38640
3053.2,0.37006
3030.06,0.41354
3006.91,0.33573
2983.77,0.28523
2960.62,0.24065
2937.48,0.32259
2914.33,0.28388
2891.19,0.32429
2868.04,0.35414
2844.9,0.40294
2821.75,0.46951
2798.61,0.47682
2775.46,0.50836
2752.32,0.51494
2729.17,0.53291
2706.03,0.55268
2682.88,0.56296
2659.74,0.56493
2636.59,0.53700
2613.45,0.53561
2590.3,0.52020
2567.16,0.51684
2544.01,0.51180
2520.87,0.52037
2497.72,0.53012
2474.58,0.55610
2451.43,0.55905
2428.29,0.52996
2405.14,0.49449
2382,0.48567
2358.85,0.51740
2335.71,0.54135
2312.56,0.55309
2289.42,0.50268
2266.27,0.49349
2243.13,0.50614
2219.98,0.52221
2196.84,0.53790
2173.7,0.51671
2150.55,0.46175
2127.41,0.42638
2104.26,0.40706
2081.12,0.43271
2057.97,0.49005
2034.83,0.50955
2011.68,0.46682
1988.54,0.41466
1965.39,0.33708
1942.25,0.37069
1919.1,0.42998
1895.96,0.45372
1872.81,0.44191
1849.67,0.36887
1826.52,0.29851
1803.38,0.28586
1780.23,0.24946
1757.09,0.14498
1733.94,0.03325
1710.8,0.08104
1687.65,0.17593
1664.51,0.23535
1641.36,0.27562
1618.22,0.27161
1595.07,0.29455
1571.93,0.25301
1548.78,0.28557
1525.64,0.25952
1502.49,0.16351
1479.35,0.20298
1456.2,0.15037
1433.06,0.16912
1409.91,0.05895
1386.77,0.10666
1363.62,0.10101
1340.48,0.05818
1317.33,0.06772
1294.19,0.03683
1271.04,0.06029
1247.9,0.06239
1224.75,0.14630
1201.61,0.24681
1178.46,0.19949
1155.32,0.10338
1132.17,0.05319
1109.03,0.06051
1085.88,0.12610
1062.74,0.26883
1039.59,0.20754
1016.45,0.14083
993.303,0.30614
970.158,0.19017
947.014,0.35269
923.869,0.35582
900.724,0.26013
877.579,0.18777
854.434,0.18991
831.289,0.26589
808.144,0.26700
784.999,0.26429
761.854,0.28895
738.709,0.10097
715.564,0.23818
692.419,0.30234
669.274,0.29075
646.129,0.30057
622.984,0.29073
599.84,0.28305