File: 01_Data/Polyester_Fabric/FTIR/IS/Polyester_Fabric_IS_T_221019_R8.dpt
7497.03,0.02876
7473.88,0.02418
7450.74,0.02793
7427.59,0.02228
7404.45,0.02351
7381.31,0.02563
7358.16,0.01898
7335.02,0.01847
7311.87,0.02476
7288.73,0.01971
7265.58,0.02005
7242.44,0.02025
7219.29,0.02217
7196.15,0.02540
7173,0.02781
7149.86,0.02390
7126.71,0.02747
7103.57,0.02416
7080.42,0.01750
7057.28,0.02260
7034.13,0.02381
7010.99,0.02913
6987.84,0.02682
6964.7,0.01906
6941.55,0.01991
6918.41,0.01970
6895.26,0.02930
6872.12,0.02574
6848.97,0.02289
6825.83,0.01991
6802.68,0.01657
6779.54,0.02551
6756.39,0.02536
6733.25,0.02373
6710.1,0.02583
6686.96,0.02371
6663.81,0.02118
6640.67,0.02541
6617.52,0.02036
6594.38,0.02346
6571.23,0.02239
6548.09,0.02379
6524.94,0.02417
6501.8,0.01939
6478.65,0.02116
6455.51,0.02029
6432.36,0.02231
6409.22,0.01883
6386.07,0.02086
6362.93,0.02123
6339.78,0.02699
6316.64,0.02477
6293.49,0.02541
6270.35,0.02312
6247.2,0.02348
6224.06,0.02291
6200.91,0.02167
6177.77,0.02074
6154.62,0.02468
6131.48,0.02177
6108.33,0.02138
6085.19,0.02374
6062.04,0.01978
6038.9,0.02253
6015.75,0.02056
5992.61,0.02182
5969.46,0.02166
5946.32,0.02358
5923.17,0.02186
5900.03,0.02117
5876.88,0.02299
5853.74,0.02243
5830.59,0.02336
5807.45,0.02322
5784.3,0.02209
5761.16,0.02235
5738.01,0.02376
5714.87,0.02189
5691.72,0.02288
5668.58,0.02117
5645.44,0.02213
5622.29,0.02127
5599.15,0.02294
5576,0.02575
5552.86,0.02148
5529.71,0.02256
5506.57,0.02176
5483.42,0.02159
5460.28,0.02162
5437.13,0.02284
5413.99,0.02098
5390.84,0.01989
5367.7,0.02164
5344.55,0.02172
5321.41,0.02111
5298.26,0.02114
5275.12,0.02151
5251.97,0.02212
5228.83,0.02309
5205.68,0.02352
5182.54,0.02237
5159.39,0.02271
5136.25,0.02261
5113.1,0.02216
5089.96,0.02213
5066.81,0.02202
5043.67,0.02179
5020.52,0.02292
4997.38,0.02270
4974.23,0.02310
4951.09,0.02268
4927.94,0.02239
4904.8,0.02089
4881.65,0.02087
4858.51,0.02293
4835.36,0.02179
4812.22,0.02243
4789.07,0.02273
4765.93,0.02215
4742.78,0.02147
4719.64,0.02250
4696.49,0.02205
4673.35,0.02197
4650.2,0.02284
4627.06,0.02306
4603.91,0.02278
4580.77,0.02247
4557.62,0.02273
4534.48,0.02373
4511.33,0.02297
4488.19,0.02217
4465.04,0.02350
4441.9,0.02207
4418.75,0.02320
4395.61,0.02203
4372.46,0.02308
4349.32,0.02248
4326.17,0.02277
4303.03,0.02272
4279.88,0.02278
4256.74,0.02262
4233.59,0.02265
4210.45,0.02221
4187.3,0.02341
4164.16,0.02302
4141.01,0.02221
4117.87,0.02222
4094.72,0.02344
4071.58,0.02241
4048.43,0.02280
4025.29,0.02290
4002.14,0.02350
3979,0.02291
3955.85,0.02282
3932.71,0.02278
3909.57,0.02296
3886.42,0.02277
3863.28,0.02263
3840.13,0.02335
3816.99,0.02304
3793.84,0.02355
3770.7,0.02322
3747.55,0.02314
3724.41,0.02366
3701.26,0.02249
3678.12,0.02238
3654.97,0.02300
3631.83,0.02249
3608.68,0.02256
3585.54,0.02153
3562.39,0.02131
3539.25,0.02138
3516.1,0.02181
3492.96,0.02178
3469.81,0.02139
3446.67,0.02101
3423.52,0.02159
3400.38,0.02069
3377.23,0.02083
3354.09,0.02080
3330.94,0.02033
3307.8,0.02100
3284.65,0.02038
3261.51,0.02100
3238.36,0.02170
3215.22,0.02149
3192.07,0.02141
3168.93,0.02125
3145.78,0.02143
3122.64,0.02074
3099.49,0.02130
3076.35,0.02174
3053.2,0.02107
3030.06,0.02102
3006.91,0.02057
2983.77,0.01988
2960.62,0.02026
2937.48,0.01993
2914.33,0.02074
2891.19,0.02070
2868.04,0.02079
2844.9,0.02150
2821.75,0.02133
2798.61,0.02172
2775.46,0.02185
2752.32,0.02145
2729.17,0.02198
2706.03,0.02158
2682.88,0.02154
2659.74,0.02200
2636.59,0.02176
2613.45,0.02205
2590.3,0.02162
2567.16,0.02182
2544.01,0.02164
2520.87,0.02176
2497.72,0.02190
2474.58,0.02195
2451.43,0.02208
2428.29,0.02200
2405.14,0.02179
2382,0.02176
2358.85,0.02228
2335.71,0.02152
2312.56,0.02131
2289.42,0.02208
2266.27,0.02198
2243.13,0.02133
2219.98,0.02176
2196.84,0.02173
2173.7,0.02161
2150.55,0.02163
2127.41,0.02137
2104.26,0.02178
2081.12,0.02140
2057.97,0.02143
2034.83,0.02148
2011.68,0.02187
1988.54,0.02183
1965.39,0.02144
1942.25,0.02141
1919.1,0.02153
1895.96,0.02132
1872.81,0.02111
1849.67,0.02085
1826.52,0.02098
1803.38,0.02055
1780.23,0.01980
1757.09,0.01818
1733.94,0.01953
1710.8,0.02104
1687.65,0.01944
1664.51,0.01872
1641.36,0.01904
1618.22,0.01936
1595.07,0.01886
1571.93,0.01824
1548.78,0.01857
1525.64,0.01882
1502.49,0.01897
1479.35,0.01886
1456.2,0.01857
1433.06,0.01884
1409.91,0.01851
1386.77,0.01835
1363.62,0.01800
1340.48,0.01823
1317.33,0.01752
1294.19,0.01793
1271.04,0.01952
1247.9,0.02068
1224.75,0.01926
1201.61,0.01895
1178.46,0.01828
1155.32,0.01825
1132.17,0.01822
1109.03,0.01923
1085.88,0.01832
1062.74,0.01947
1039.59,0.01963
1016.45,0.01967
993.303,0.02171
970.158,0.02049
947.014,0.01992
923.869,0.01970
900.724,0.01984
877.579,0.01964
854.434,0.01872
831.289,0.01841
808.144,0.01883
784.999,0.01842
761.854,0.01872
738.709,0.01964
715.564,0.01811
692.419,0.01780
669.274,0.01828
646.129,0.01670
622.984,0.01645
599.84,0.01824