File: 01_Data/Polyester_Fabric/FTIR/IS/Polyester_Fabric_IS_T_221019_R7.dpt
7497.03,0.03251
7473.88,0.03521
7450.74,0.02611
7427.59,0.02856
7404.45,0.03245
7381.31,0.02620
7358.16,0.01943
7335.02,0.03158
7311.87,0.01926
7288.73,0.02577
7265.58,0.02388
7242.44,0.02386
7219.29,0.02207
7196.15,0.03139
7173,0.02646
7149.86,0.02567
7126.71,0.01970
7103.57,0.02272
7080.42,0.02155
7057.28,0.02562
7034.13,0.02082
7010.99,0.02583
6987.84,0.02548
6964.7,0.02179
6941.55,0.02767
6918.41,0.02210
6895.26,0.02442
6872.12,0.02263
6848.97,0.02756
6825.83,0.02334
6802.68,0.02722
6779.54,0.02600
6756.39,0.02705
6733.25,0.02699
6710.1,0.02289
6686.96,0.02129
6663.81,0.02736
6640.67,0.01929
6617.52,0.02698
6594.38,0.02157
6571.23,0.02449
6548.09,0.01927
6524.94,0.02273
6501.8,0.01975
6478.65,0.02541
6455.51,0.02343
6432.36,0.02402
6409.22,0.01895
6386.07,0.02527
6362.93,0.02469
6339.78,0.02070
6316.64,0.02550
6293.49,0.02173
6270.35,0.01972
6247.2,0.02252
6224.06,0.02133
6200.91,0.02076
6177.77,0.02335
6154.62,0.02153
6131.48,0.02334
6108.33,0.01974
6085.19,0.02315
6062.04,0.02275
6038.9,0.02127
6015.75,0.02091
5992.61,0.02314
5969.46,0.02228
5946.32,0.02156
5923.17,0.02226
5900.03,0.01906
5876.88,0.02240
5853.74,0.02369
5830.59,0.02257
5807.45,0.02207
5784.3,0.02063
5761.16,0.02125
5738.01,0.02274
5714.87,0.02199
5691.72,0.02298
5668.58,0.02271
5645.44,0.02095
5622.29,0.02183
5599.15,0.02167
5576,0.02162
5552.86,0.02177
5529.71,0.02290
5506.57,0.02377
5483.42,0.02129
5460.28,0.02007
5437.13,0.02028
5413.99,0.02065
5390.84,0.02220
5367.7,0.02079
5344.55,0.02209
5321.41,0.02265
5298.26,0.02209
5275.12,0.02202
5251.97,0.02052
5228.83,0.02218
5205.68,0.02149
5182.54,0.02227
5159.39,0.02078
5136.25,0.02159
5113.1,0.02157
5089.96,0.02044
5066.81,0.02288
5043.67,0.02173
5020.52,0.02101
4997.38,0.02213
4974.23,0.02196
4951.09,0.02265
4927.94,0.02092
4904.8,0.02267
4881.65,0.02227
4858.51,0.02102
4835.36,0.02220
4812.22,0.02127
4789.07,0.02257
4765.93,0.02177
4742.78,0.02285
4719.64,0.02207
4696.49,0.02147
4673.35,0.02324
4650.2,0.02231
4627.06,0.02272
4603.91,0.02181
4580.77,0.02200
4557.62,0.02188
4534.48,0.02236
4511.33,0.02145
4488.19,0.02251
4465.04,0.02187
4441.9,0.02222
4418.75,0.02246
4395.61,0.02230
4372.46,0.02240
4349.32,0.02233
4326.17,0.02259
4303.03,0.02311
4279.88,0.02227
4256.74,0.02245
4233.59,0.02168
4210.45,0.02166
4187.3,0.02252
4164.16,0.02256
4141.01,0.02335
4117.87,0.02305
4094.72,0.02219
4071.58,0.02238
4048.43,0.02192
4025.29,0.02199
4002.14,0.02267
3979,0.02233
3955.85,0.02224
3932.71,0.02234
3909.57,0.02260
3886.42,0.02256
3863.28,0.02269
3840.13,0.02329
3816.99,0.02334
3793.84,0.02278
3770.7,0.02214
3747.55,0.02215
3724.41,0.02244
3701.26,0.02284
3678.12,0.02207
3654.97,0.02183
3631.83,0.02204
3608.68,0.02163
3585.54,0.02124
3562.39,0.02090
3539.25,0.02168
3516.1,0.02115
3492.96,0.02076
3469.81,0.02060
3446.67,0.01958
3423.52,0.02099
3400.38,0.01992
3377.23,0.02032
3354.09,0.01985
3330.94,0.02108
3307.8,0.02031
3284.65,0.02054
3261.51,0.02046
3238.36,0.02048
3215.22,0.02086
3192.07,0.02065
3168.93,0.02022
3145.78,0.02033
3122.64,0.02069
3099.49,0.02104
3076.35,0.02060
3053.2,0.02055
3030.06,0.02059
3006.91,0.02087
2983.77,0.02032
2960.62,0.02006
2937.48,0.01993
2914.33,0.02061
2891.19,0.02057
2868.04,0.02078
2844.9,0.02121
2821.75,0.02164
2798.61,0.02143
2775.46,0.02179
2752.32,0.02138
2729.17,0.02174
2706.03,0.02100
2682.88,0.02109
2659.74,0.02110
2636.59,0.02150
2613.45,0.02122
2590.3,0.02163
2567.16,0.02113
2544.01,0.02153
2520.87,0.02127
2497.72,0.02120
2474.58,0.02118
2451.43,0.02141
2428.29,0.02116
2405.14,0.02109
2382,0.02104
2358.85,0.02172
2335.71,0.02140
2312.56,0.02141
2289.42,0.02148
2266.27,0.02114
2243.13,0.02110
2219.98,0.02112
2196.84,0.02099
2173.7,0.02108
2150.55,0.02107
2127.41,0.02084
2104.26,0.02106
2081.12,0.02109
2057.97,0.02097
2034.83,0.02126
2011.68,0.02109
1988.54,0.02079
1965.39,0.02099
1942.25,0.02094
1919.1,0.02084
1895.96,0.02070
1872.81,0.02085
1849.67,0.02060
1826.52,0.02034
1803.38,0.01993
1780.23,0.01926
1757.09,0.01787
1733.94,0.01994
1710.8,0.01993
1687.65,0.01917
1664.51,0.01839
1641.36,0.01823
1618.22,0.01869
1595.07,0.01872
1571.93,0.01829
1548.78,0.01831
1525.64,0.01834
1502.49,0.01834
1479.35,0.01819
1456.2,0.01875
1433.06,0.01877
1409.91,0.01812
1386.77,0.01821
1363.62,0.01818
1340.48,0.01771
1317.33,0.01670
1294.19,0.01747
1271.04,0.01909
1247.9,0.02038
1224.75,0.01920
1201.61,0.01837
1178.46,0.01796
1155.32,0.01746
1132.17,0.01841
1109.03,0.01883
1085.88,0.01848
1062.74,0.01951
1039.59,0.01967
1016.45,0.01944
993.303,0.02157
970.158,0.02083
947.014,0.01960
923.869,0.01953
900.724,0.01910
877.579,0.01885
854.434,0.01857
831.289,0.01864
808.144,0.01833
784.999,0.01850
761.854,0.01808
738.709,0.01864
715.564,0.01769
692.419,0.01781
669.274,0.01803
646.129,0.01708
622.984,0.01817
599.84,0.01469