File: 01_Data/Polyester_Fabric/FTIR/IS/Polyester_Fabric_IS_T_221019_R5.dpt
7497.03,0.02615
7473.88,0.01917
7450.74,0.02334
7427.59,0.03437
7404.45,0.02127
7381.31,0.02964
7358.16,0.02361
7335.02,0.01813
7311.87,0.01461
7288.73,0.02155
7265.58,0.02109
7242.44,0.02574
7219.29,0.01897
7196.15,0.02470
7173,0.02526
7149.86,0.02215
7126.71,0.02311
7103.57,0.02358
7080.42,0.02514
7057.28,0.02493
7034.13,0.01882
7010.99,0.02261
6987.84,0.02129
6964.7,0.02344
6941.55,0.02935
6918.41,0.02445
6895.26,0.02307
6872.12,0.02453
6848.97,0.02623
6825.83,0.02296
6802.68,0.02582
6779.54,0.02426
6756.39,0.02636
6733.25,0.02458
6710.1,0.02398
6686.96,0.01809
6663.81,0.02058
6640.67,0.01802
6617.52,0.02307
6594.38,0.01969
6571.23,0.02142
6548.09,0.02543
6524.94,0.02381
6501.8,0.02432
6478.65,0.02424
6455.51,0.02508
6432.36,0.01759
6409.22,0.02863
6386.07,0.02145
6362.93,0.02528
6339.78,0.02374
6316.64,0.02290
6293.49,0.02089
6270.35,0.02074
6247.2,0.02109
6224.06,0.02251
6200.91,0.02215
6177.77,0.02153
6154.62,0.02156
6131.48,0.02060
6108.33,0.02011
6085.19,0.02024
6062.04,0.02279
6038.9,0.02176
6015.75,0.02291
5992.61,0.02165
5969.46,0.01960
5946.32,0.02029
5923.17,0.02436
5900.03,0.02265
5876.88,0.02434
5853.74,0.02296
5830.59,0.02158
5807.45,0.02188
5784.3,0.02108
5761.16,0.02148
5738.01,0.02105
5714.87,0.02214
5691.72,0.02257
5668.58,0.02246
5645.44,0.02158
5622.29,0.02179
5599.15,0.02221
5576,0.02104
5552.86,0.02251
5529.71,0.02054
5506.57,0.02287
5483.42,0.02365
5460.28,0.02108
5437.13,0.02245
5413.99,0.02233
5390.84,0.02431
5367.7,0.02129
5344.55,0.02153
5321.41,0.02186
5298.26,0.02324
5275.12,0.02069
5251.97,0.02186
5228.83,0.02168
5205.68,0.02157
5182.54,0.02175
5159.39,0.02034
5136.25,0.02226
5113.1,0.02230
5089.96,0.02140
5066.81,0.02327
5043.67,0.02184
5020.52,0.02157
4997.38,0.02236
4974.23,0.02191
4951.09,0.02132
4927.94,0.02201
4904.8,0.02289
4881.65,0.02314
4858.51,0.02241
4835.36,0.02306
4812.22,0.02213
4789.07,0.02240
4765.93,0.02200
4742.78,0.02205
4719.64,0.02190
4696.49,0.02047
4673.35,0.02204
4650.2,0.02225
4627.06,0.02205
4603.91,0.02215
4580.77,0.02273
4557.62,0.02203
4534.48,0.02194
4511.33,0.02249
4488.19,0.02284
4465.04,0.02239
4441.9,0.02209
4418.75,0.02192
4395.61,0.02225
4372.46,0.02234
4349.32,0.02115
4326.17,0.02217
4303.03,0.02264
4279.88,0.02272
4256.74,0.02180
4233.59,0.02261
4210.45,0.02171
4187.3,0.02268
4164.16,0.02323
4141.01,0.02188
4117.87,0.02254
4094.72,0.02305
4071.58,0.02308
4048.43,0.02262
4025.29,0.02208
4002.14,0.02251
3979,0.02203
3955.85,0.02253
3932.71,0.02279
3909.57,0.02232
3886.42,0.02268
3863.28,0.02299
3840.13,0.02328
3816.99,0.02291
3793.84,0.02207
3770.7,0.02231
3747.55,0.02270
3724.41,0.02233
3701.26,0.02263
3678.12,0.02181
3654.97,0.02210
3631.83,0.02236
3608.68,0.02201
3585.54,0.02166
3562.39,0.02069
3539.25,0.02108
3516.1,0.02131
3492.96,0.02060
3469.81,0.02082
3446.67,0.02074
3423.52,0.02087
3400.38,0.02025
3377.23,0.02012
3354.09,0.02035
3330.94,0.02025
3307.8,0.01960
3284.65,0.02117
3261.51,0.02105
3238.36,0.02137
3215.22,0.02093
3192.07,0.02068
3168.93,0.02071
3145.78,0.02090
3122.64,0.02036
3099.49,0.02099
3076.35,0.02109
3053.2,0.02043
3030.06,0.02057
3006.91,0.02082
2983.77,0.02016
2960.62,0.01968
2937.48,0.02031
2914.33,0.01988
2891.19,0.02061
2868.04,0.02017
2844.9,0.02105
2821.75,0.02114
2798.61,0.02165
2775.46,0.02114
2752.32,0.02146
2729.17,0.02105
2706.03,0.02099
2682.88,0.02149
2659.74,0.02115
2636.59,0.02154
2613.45,0.02164
2590.3,0.02157
2567.16,0.02144
2544.01,0.02123
2520.87,0.02156
2497.72,0.02127
2474.58,0.02120
2451.43,0.02149
2428.29,0.02149
2405.14,0.02141
2382,0.02111
2358.85,0.02125
2335.71,0.02150
2312.56,0.02145
2289.42,0.02160
2266.27,0.02144
2243.13,0.02119
2219.98,0.02151
2196.84,0.02095
2173.7,0.02124
2150.55,0.02137
2127.41,0.02112
2104.26,0.02138
2081.12,0.02099
2057.97,0.02132
2034.83,0.02108
2011.68,0.02091
1988.54,0.02129
1965.39,0.02099
1942.25,0.02086
1919.1,0.02140
1895.96,0.02109
1872.81,0.02049
1849.67,0.02073
1826.52,0.02037
1803.38,0.02000
1780.23,0.01929
1757.09,0.01803
1733.94,0.01987
1710.8,0.02062
1687.65,0.01920
1664.51,0.01839
1641.36,0.01827
1618.22,0.01865
1595.07,0.01843
1571.93,0.01863
1548.78,0.01815
1525.64,0.01851
1502.49,0.01876
1479.35,0.01834
1456.2,0.01916
1433.06,0.01862
1409.91,0.01818
1386.77,0.01791
1363.62,0.01839
1340.48,0.01783
1317.33,0.01714
1294.19,0.01762
1271.04,0.01927
1247.9,0.02014
1224.75,0.01914
1201.61,0.01854
1178.46,0.01820
1155.32,0.01761
1132.17,0.01839
1109.03,0.01848
1085.88,0.01860
1062.74,0.01947
1039.59,0.01968
1016.45,0.01933
993.303,0.02071
970.158,0.02046
947.014,0.02031
923.869,0.01957
900.724,0.01969
877.579,0.01864
854.434,0.01911
831.289,0.01854
808.144,0.01802
784.999,0.01862
761.854,0.01878
738.709,0.01847
715.564,0.01741
692.419,0.01802
669.274,0.01771
646.129,0.01870
622.984,0.01700
599.84,0.01400