File: 01_Data/Polyester_Fabric/FTIR/IS/Polyester_Fabric_IS_S_221019_R2.dpt
7497.03,0.83227
7473.88,0.83595
7450.74,0.83101
7427.59,0.83484
7404.45,0.83001
7381.31,0.82594
7358.16,0.81871
7335.02,0.81949
7311.87,0.82151
7288.73,0.82681
7265.58,0.81803
7242.44,0.80925
7219.29,0.81090
7196.15,0.81163
7173,0.80494
7149.86,0.81779
7126.71,0.80620
7103.57,0.80794
7080.42,0.80478
7057.28,0.80420
7034.13,0.81001
7010.99,0.80325
6987.84,0.80819
6964.7,0.80386
6941.55,0.81176
6918.41,0.80876
6895.26,0.80433
6872.12,0.80884
6848.97,0.80798
6825.83,0.80748
6802.68,0.80557
6779.54,0.81079
6756.39,0.80872
6733.25,0.80707
6710.1,0.81088
6686.96,0.81137
6663.81,0.81241
6640.67,0.81359
6617.52,0.81531
6594.38,0.81667
6571.23,0.81338
6548.09,0.81177
6524.94,0.81919
6501.8,0.81584
6478.65,0.81670
6455.51,0.81771
6432.36,0.81804
6409.22,0.81474
6386.07,0.81773
6362.93,0.81945
6339.78,0.82009
6316.64,0.81766
6293.49,0.81801
6270.35,0.81342
6247.2,0.81484
6224.06,0.81450
6200.91,0.80764
6177.77,0.80756
6154.62,0.80276
6131.48,0.79561
6108.33,0.78188
6085.19,0.74927
6062.04,0.71953
6038.9,0.69139
6015.75,0.67725
5992.61,0.70463
5969.46,0.71408
5946.32,0.73200
5923.17,0.74998
5900.03,0.75864
5876.88,0.75192
5853.74,0.74811
5830.59,0.74989
5807.45,0.74882
5784.3,0.75097
5761.16,0.75656
5738.01,0.76665
5714.87,0.77232
5691.72,0.77805
5668.58,0.77984
5645.44,0.77973
5622.29,0.78699
5599.15,0.78695
5576,0.78393
5552.86,0.78061
5529.71,0.78207
5506.57,0.78459
5483.42,0.78122
5460.28,0.78573
5437.13,0.79129
5413.99,0.79533
5390.84,0.79645
5367.7,0.79610
5344.55,0.79477
5321.41,0.79392
5298.26,0.79288
5275.12,0.78739
5251.97,0.78001
5228.83,0.77708
5205.68,0.77782
5182.54,0.78066
5159.39,0.77570
5136.25,0.76715
5113.1,0.76164
5089.96,0.77692
5066.81,0.78362
5043.67,0.78480
5020.52,0.78461
4997.38,0.78422
4974.23,0.78534
4951.09,0.77959
4927.94,0.77673
4904.8,0.77001
4881.65,0.76845
4858.51,0.76627
4835.36,0.75679
4812.22,0.74339
4789.07,0.73751
4765.93,0.74442
4742.78,0.72382
4719.64,0.68905
4696.49,0.65990
4673.35,0.68262
4650.2,0.69148
4627.06,0.67901
4603.91,0.71611
4580.77,0.69128
4557.62,0.72490
4534.48,0.72466
4511.33,0.71063
4488.19,0.66239
4465.04,0.61694
4441.9,0.59366
4418.75,0.60466
4395.61,0.61900
4372.46,0.62828
4349.32,0.62255
4326.17,0.61586
4303.03,0.60066
4279.88,0.59664
4256.74,0.60563
4233.59,0.60472
4210.45,0.61554
4187.3,0.61497
4164.16,0.61830
4141.01,0.62073
4117.87,0.60626
4094.72,0.54832
4071.58,0.59297
4048.43,0.61713
4025.29,0.63124
4002.14,0.63201
3979,0.63866
3955.85,0.64657
3932.71,0.65313
3909.57,0.65772
3886.42,0.67388
3863.28,0.68051
3840.13,0.68409
3816.99,0.67783
3793.84,0.67567
3770.7,0.67174
3747.55,0.67927
3724.41,0.67998
3701.26,0.66283
3678.12,0.63079
3654.97,0.62002
3631.83,0.58307
3608.68,0.55788
3585.54,0.51718
3562.39,0.46462
3539.25,0.44584
3516.1,0.45078
3492.96,0.44971
3469.81,0.42842
3446.67,0.37632
3423.52,0.35597
3400.38,0.42116
3377.23,0.42968
3354.09,0.41744
3330.94,0.40375
3307.8,0.41306
3284.65,0.41934
3261.51,0.42854
3238.36,0.43161
3215.22,0.44128
3192.07,0.44316
3168.93,0.44675
3145.78,0.44141
3122.64,0.42567
3099.49,0.39987
3076.35,0.38499
3053.2,0.36887
3030.06,0.41264
3006.91,0.33543
2983.77,0.28402
2960.62,0.24042
2937.48,0.32237
2914.33,0.28316
2891.19,0.32405
2868.04,0.35381
2844.9,0.40255
2821.75,0.46822
2798.61,0.47558
2775.46,0.50692
2752.32,0.51365
2729.17,0.53190
2706.03,0.55188
2682.88,0.56125
2659.74,0.56327
2636.59,0.53629
2613.45,0.53496
2590.3,0.51920
2567.16,0.51614
2544.01,0.51077
2520.87,0.51968
2497.72,0.52923
2474.58,0.55558
2451.43,0.55853
2428.29,0.52926
2405.14,0.49367
2382,0.48506
2358.85,0.51755
2335.71,0.54068
2312.56,0.55212
2289.42,0.50225
2266.27,0.49344
2243.13,0.50536
2219.98,0.52193
2196.84,0.53761
2173.7,0.51587
2150.55,0.46127
2127.41,0.42578
2104.26,0.40695
2081.12,0.43240
2057.97,0.48882
2034.83,0.50861
2011.68,0.46619
1988.54,0.41423
1965.39,0.33662
1942.25,0.37046
1919.1,0.42940
1895.96,0.45304
1872.81,0.44136
1849.67,0.36850
1826.52,0.29822
1803.38,0.28576
1780.23,0.24936
1757.09,0.14511
1733.94,0.03309
1710.8,0.08125
1687.65,0.17561
1664.51,0.23514
1641.36,0.27412
1618.22,0.27019
1595.07,0.29410
1571.93,0.25262
1548.78,0.28507
1525.64,0.25899
1502.49,0.16319
1479.35,0.20302
1456.2,0.14999
1433.06,0.16879
1409.91,0.05889
1386.77,0.10688
1363.62,0.10122
1340.48,0.05806
1317.33,0.06795
1294.19,0.03704
1271.04,0.06081
1247.9,0.06255
1224.75,0.14630
1201.61,0.24709
1178.46,0.19976
1155.32,0.10346
1132.17,0.05427
1109.03,0.06073
1085.88,0.12563
1062.74,0.26881
1039.59,0.20830
1016.45,0.14118
993.303,0.30575
970.158,0.19015
947.014,0.35231
923.869,0.35518
900.724,0.25940
877.579,0.18835
854.434,0.18902
831.289,0.26538
808.144,0.26671
784.999,0.26391
761.854,0.28813
738.709,0.10028
715.564,0.23727
692.419,0.30081
669.274,0.29053
646.129,0.29969
622.984,0.29003
599.84,0.28205