File: 01_Data/PUF_Mattress_Pad/STA/N2/10K_min/PUF_Mattress_Pad_STA_N2_10KData_22091_R2.csv
##Temp./Â°C,Time/min,Mass loss(subtr.2)/mg,DSC(subtr.2)/(mW/mg),Sensit./(uV/mW)
50.329,10.01,0.00604,0.003443205,1.02683
52.329,11.23431,0.007925406,0.07741711,1.02665
54.329,11.63239,0.00799587,0.11306,1.02648
56.329,11.95739,0.006325936,0.13672,1.0263
58.329,12.24895,0.007787243,0.15409,1.02612
60.329,12.5216,0.007529708,0.16394,1.02594
62.329,12.78122,0.005832977,0.17195,1.02575
64.329,13.03187,0.007109645,0.17916,1.02557
66.329,13.27653,0.006564382,0.18535,1.02538
68.329,13.51416,0.00810203,0.19101,1.02518
70.329,13.747,0.006192385,0.19433,1.02499
72.329,13.97545,0.007254205,0.1992,1.02479
74.329,14.20129,0.00724963,0.20169,1.02459
76.329,14.424,0.00733889,0.20429,1.02438
78.329,14.64189,0.00737935,0.20439,1.02417
80.329,14.8601,0.00724899,0.20443,1.02396
82.329,15.07363,0.00730613,0.20711,1.02375
84.329,15.2863,0.00640429,0.20768,1.02354
86.329,15.4956,0.009064223,0.2077,1.02332
88.329,15.70331,0.00707169,0.21097,1.0231
90.329,15.90971,0.00735983,0.21006,1.02287
92.329,16.11372,0.007150639,0.20989,1.02264
94.329,16.31759,0.005916415,0.21175,1.02241
96.329,16.51866,0.005854115,0.21085,1.02218
98.329,16.71935,0.00581941,0.21161,1.02194
100.329,16.91866,0.00713151,0.21159,1.0217
102.329,17.11757,0.00708365,0.21243,1.02146
104.329,17.3155,0.00604924,0.21307,1.02121
106.329,17.51234,0.007118995,0.21364,1.02096
108.329,17.70937,0.00715167,0.21404,1.02071
110.329,17.9059,0.00622793,0.21546,1.02045
112.329,18.10203,0.004492296,0.21448,1.02019
114.329,18.29786,0.00450098,0.21372,1.01992
116.329,18.49315,0.004266893,0.2132,1.01966
118.329,18.68797,0.004645176,0.21338,1.01939
120.329,18.88336,0.004499734,0.21345,1.01911
122.329,19.078,0.00581296,0.21164,1.01883
124.329,19.27219,0.005778195,0.21068,1.01855
126.329,19.46612,0.00581751,0.20886,1.01827
128.329,19.65934,0.004500215,0.20584,1.01798
130.329,19.85289,0.00539323,0.20864,1.01769
132.329,20.0463,0.00578839,0.20943,1.01739
134.329,20.2389,0.005822852,0.2057,1.01709
136.329,20.43062,0.00582,0.20496,1.01679
138.329,20.62324,0.00713002,0.20492,1.01648
140.329,20.81503,0.004170043,0.20432,1.01617
142.329,21.0065,0.004169996,0.20745,1.01585
144.329,21.19729,0.00551822,0.20763,1.01553
146.329,21.38842,0.005437809,0.2067,1.01521
148.329,21.57931,0.003883812,0.20684,1.01488
150.329,21.76975,0.006800223,0.20762,1.01455
152.329,21.96019,0.00779,0.20329,1.01422
154.329,22.1508,0.006480314,0.20294,1.01388
156.329,22.3403,0.003159398,0.2038,1.01353
158.329,22.53194,0.002853675,0.20535,1.01318
160.329,22.72253,0.004169995,0.20558,1.01283
162.329,22.9127,0.00417611,0.20553,1.01248
164.329,23.10264,0.004598675,0.20593,1.01212
166.329,23.29307,0.00416886,0.206,1.01175
168.329,23.48385,0.0041699,0.20726,1.01138
170.329,23.6736,0.004168149,0.20538,1.01101
172.329,23.86438,0.004983432,0.20521,1.01063
174.329,24.05487,0.004170001,0.20297,1.01025
176.329,24.2453,0.005464869,0.20525,1.00986
178.329,24.43586,0.004171101,0.20111,1.00947
180.329,24.6261,0.001565971,0.2004,1.00907
182.329,24.81707,0.001554945,0.19921,1.00867
184.329,25.00639,0.001503939,0.19762,1.00826
186.329,25.19616,0.00284895,0.19718,1.00785
188.329,25.38697,0.00319008,0.19533,1.00744
190.329,25.57689,0.001868971,0.195,1.00702
192.329,25.76681,0.00055,0.19544,1.00659
194.329,25.9561,0.00055,0.19541,1.00617
196.329,26.1461,0.00183995,0.19627,1.00573
198.329,26.33693,0.000540967,0.19817,1.00529
200.329,26.52658,0.001209869,0.20054,1.00485
202.329,26.7166,-0.000756529,0.20054,1.0044
204.329,26.90635,-0.002089501,0.20131,1.00394
206.329,27.09635,-0.00274863,0.2027,1.00349
208.329,27.2865,-0.000103121,0.20345,1.00302
210.329,27.4768,-0.00275,0.20486,1.00255
212.329,27.667,-0.003739986,0.20591,1.00208
214.329,27.85707,-0.00448386,0.20868,1.0016
216.329,28.0475,-0.0080275,0.21145,1.00111
218.329,28.238,-0.00866996,0.21519,1.00062
220.329,28.42802,-0.01000113,0.21877,1.00013
222.329,28.6181,-0.01264309,0.22152,0.99963
224.329,28.80808,-0.01291919,0.22478,0.99912
226.329,28.99826,-0.0182093,0.2298,0.99861
228.329,29.1887,-0.01953998,0.23291,0.99809
230.329,29.37915,-0.02349634,0.23969,0.99757
232.329,29.569,-0.02612531,0.24678,0.99704
234.329,29.7598,-0.03006784,0.2519,0.99651
236.329,29.94977,-0.03466753,0.25932,0.99597
238.329,30.14077,-0.04034039,0.26924,0.99542
240.329,30.3313,-0.04334027,0.28085,0.99487
242.329,30.52155,-0.0499863,0.28919,0.99432
244.329,30.7117,-0.05545331,0.30267,0.99376
246.329,30.9022,-0.06234573,0.31564,0.99319
248.329,31.0926,-0.06898654,0.33006,0.99262
250.329,31.2831,-0.0777409,0.34429,0.99204
252.329,31.47395,-0.08507118,0.36419,0.99145
254.329,31.6641,-0.09259161,0.38482,0.99086
256.329,31.8549,-0.10405,0.40358,0.99027
258.329,32.0458,-0.11528,0.42478,0.98966
260.329,32.23679,-0.12584,0.44702,0.98906
262.329,32.4268,-0.14138,0.47352,0.98844
264.329,32.6181,-0.1527,0.49987,0.98782
266.329,32.80925,-0.16701,0.52988,0.9872
268.329,32.99998,-0.18213,0.56189,0.98656
270.329,33.19072,-0.19846,0.59711,0.98592
272.329,33.38234,-0.2157,0.63552,0.98528
274.329,33.57377,-0.23543,0.67846,0.98463
276.329,33.76515,-0.25529,0.7212,0.98397
278.329,33.95648,-0.27955,0.76408,0.98331
280.329,34.1482,-0.30476,0.81281,0.98264
282.329,34.34025,-0.33235,0.86324,0.98196
284.329,34.53187,-0.36344,0.91376,0.98128
286.329,34.72396,-0.39223,0.96178,0.98059
288.329,34.91604,-0.4309,1.02272,0.9799
290.329,35.10798,-0.46743,1.08655,0.9792
292.329,35.29998,-0.50775,1.14922,0.97849
294.329,35.4929,-0.55144,1.21479,0.97778
296.329,35.6857,-0.59741,1.27794,0.97706
298.329,35.87843,-0.64739,1.34365,0.97633
300.329,36.07115,-0.70223,1.39939,0.97559
302.329,36.26378,-0.75774,1.44111,0.97485
304.329,36.45661,-0.81564,1.45186,0.97411
306.329,36.6494,-0.87348,1.4183,0.97335
308.329,36.84152,-0.92815,1.34133,0.97259
310.329,37.03318,-0.97745,1.19482,0.97183
312.329,37.2245,-1.02569,1.05553,0.97105
314.329,37.4154,-1.06703,0.88851,0.97027
316.329,37.60675,-1.10332,0.71938,0.96949
318.329,37.79685,-1.13416,0.56901,0.96869
320.329,37.98836,-1.16031,0.45146,0.96789
322.329,38.17965,-1.18365,0.37741,0.96709
324.329,38.3713,-1.20228,0.31889,0.96627
326.329,38.56361,-1.22198,0.2832,0.96545
328.329,38.75544,-1.23994,0.25017,0.96462
330.329,38.9477,-1.25364,0.2278,0.96379
332.329,39.13917,-1.2696,0.20941,0.96295
334.329,39.33198,-1.28384,0.19322,0.9621
336.329,39.52412,-1.29884,0.18239,0.96124
338.329,39.71676,-1.31381,0.173,0.96038
340.329,39.90975,-1.32869,0.16971,0.95951
342.329,40.10255,-1.34595,0.17266,0.95863
344.329,40.29533,-1.36433,0.17937,0.95775
346.329,40.48834,-1.38314,0.18883,0.95686
348.329,40.6815,-1.40667,0.20366,0.95596
350.329,40.87502,-1.42969,0.22426,0.95505
352.329,41.06834,-1.45817,0.24833,0.95414
354.329,41.26252,-1.49007,0.27235,0.95322
356.329,41.45559,-1.5269,0.30111,0.95229
358.329,41.64952,-1.57032,0.33595,0.95136
360.329,41.8435,-1.61981,0.3737,0.95042
362.329,42.03755,-1.67294,0.40941,0.94947
364.329,42.23214,-1.73671,0.4544,0.94851
366.329,42.42622,-1.80676,0.50216,0.94755
368.329,42.62065,-1.88555,0.54675,0.94658
370.329,42.815,-1.97285,0.58708,0.9456
372.329,43.00972,-2.07212,0.62675,0.94462
374.329,43.20452,-2.17623,0.66217,0.94363
376.329,43.39921,-2.28736,0.69063,0.94263
378.329,43.59406,-2.40559,0.70458,0.94162
380.329,43.78909,-2.52948,0.71097,0.9406
382.329,43.98377,-2.65377,0.70197,0.93958
384.329,44.1785,-2.78241,0.67614,0.93855
386.329,44.3728,-2.9076,0.64181,0.93752
388.329,44.56715,-3.02607,0.59209,0.93647
390.329,44.76163,-3.13626,0.53398,0.93542
392.329,44.9557,-3.23939,0.47424,0.93436
394.329,45.15012,-3.33011,0.4123,0.93329
396.329,45.3433,-3.41072,0.35389,0.93222
398.329,45.53752,-3.4856,0.30232,0.93114
400.329,45.73149,-3.54644,0.25605,0.93005
402.329,45.92572,-3.59873,0.21782,0.92895
404.329,46.12018,-3.64482,0.18125,0.92785
406.329,46.31462,-3.68197,0.14921,0.92674
408.329,46.50857,-3.71474,0.12346,0.92562
410.329,46.70312,-3.73918,0.1039,0.92449
412.329,46.8979,-3.75988,0.08403711,0.92336
414.329,47.09245,-3.77832,0.06968226,0.92221
416.329,47.28718,-3.7914,0.05754166,0.92106
418.329,47.48225,-3.80225,0.05021738,0.91991
420.329,47.6775,-3.81159,0.03779442,0.91874
422.329,47.87254,-3.81864,0.03660787,0.91757
424.329,48.06777,-3.82435,0.02921804,0.91639
426.329,48.26285,-3.82616,0.02737207,0.9152
428.329,48.45847,-3.8322,0.02434952,0.91401
430.329,48.6532,-3.83493,0.0209378,0.9128
432.329,48.84881,-3.83845,0.02246796,0.91159
434.329,49.0445,-3.83977,0.02516376,0.91037
436.329,49.24007,-3.84142,0.0235385,0.90915
438.329,49.43554,-3.84142,0.02434963,0.90791
440.329,49.6314,-3.84272,0.02468288,0.90667
442.329,49.82715,-3.84439,0.02575703,0.90542
444.329,50.02353,-3.84834,0.0230783,0.90417
446.329,50.21967,-3.84702,0.02221965,0.9029
448.329,50.41572,-3.84702,0.01920013,0.90163
450.329,50.61215,-3.84832,0.01903871,0.90035
452.329,50.80843,-3.84866,0.01919503,0.89907
454.329,51.00499,-3.84998,0.01984361,0.89777
456.329,51.20105,-3.85063,0.01928126,0.89647
458.329,51.3977,-3.85097,0.01770196,0.89516
460.329,51.59415,-3.85228,0.01765639,0.89384
462.329,51.7911,-3.85196,0.01845191,0.89252
464.329,51.98794,-3.85163,0.01803185,0.89118
466.329,52.18461,-3.85162,0.01696373,0.88984
468.329,52.38172,-3.85426,0.01646481,0.88849
470.329,52.578,-3.85682,0.01766523,0.88714
472.329,52.7756,-3.85622,0.01844639,0.88577
474.329,52.97277,-3.85756,0.01848425,0.8844
476.329,53.16953,-3.85689,0.02148148,0.88302
478.329,53.36665,-3.85953,0.02007759,0.88164
480.329,53.5634,-3.85821,0.01994764,0.88024
482.329,53.76002,-3.85822,0.02075152,0.87884
484.329,53.9572,-3.85954,0.01943805,0.87743
486.329,54.15425,-3.86086,0.02082265,0.87602
488.329,54.35134,-3.86215,0.01996993,0.87459
490.329,54.54845,-3.86351,0.01892482,0.87316
492.329,54.74578,-3.8621,0.02169303,0.87172
494.329,54.9426,-3.86448,0.02001846,0.87028
494.829,54.99171,-3.86448,0.01929549,0.86991