File: 01_Data/PUF_Mattress_Pad/STA/N2/10K_min/PUF_Mattress_Pad_STA_N2_10KData_22091_R1.csv
##Temp./Â°C,Time/min,Mass loss(subtr.2)/mg,DSC(subtr.2)/(mW/mg),Sensit./(uV/mW)
50.448,10.00917,0.00834,0.00262682,1.02682
53.048,11.3657,0.007530156,0.09684551,1.02659
55.648,11.83113,0.009728598,0.14199,1.02636
58.248,12.21826,0.009044075,0.16766,1.02613
60.848,12.57305,0.009314265,0.18389,1.02589
63.448,12.90623,0.01097839,0.19642,1.02565
66.048,13.22644,0.008741622,0.20568,1.0254
68.648,13.53525,0.009649709,0.21554,1.02515
71.248,13.83658,0.009386845,0.22258,1.0249
73.848,14.1315,0.00955013,0.22773,1.02463
76.448,14.4206,0.00994927,0.23329,1.02437
79.048,14.7034,0.00843318,0.23725,1.0241
81.648,14.98479,0.009594025,0.24143,1.02382
84.248,15.2609,0.01087631,0.24214,1.02354
86.848,15.53326,0.00945262,0.24446,1.02326
89.448,15.8026,0.01023422,0.24701,1.02297
92.048,16.06964,0.01086835,0.25038,1.02267
94.648,16.33286,0.00913868,0.25144,1.02237
97.248,16.59441,0.00954998,0.25221,1.02207
99.848,16.85374,0.009550096,0.25408,1.02176
102.448,17.11214,0.00954999,0.25482,1.02144
105.048,17.36904,0.009549502,0.25378,1.02112
107.648,17.62535,0.009493098,0.25714,1.02079
110.248,17.8813,0.008230187,0.25983,1.02046
112.848,18.1364,0.01064583,0.26004,1.02012
115.448,18.3905,0.009549406,0.26256,1.01977
118.048,18.64411,0.01202358,0.261,1.01942
120.648,18.8971,0.009699038,0.26197,1.01907
123.248,19.1509,0.009668902,0.26027,1.01871
125.848,19.40314,0.01100997,0.26106,1.01834
128.448,19.6549,0.009668606,0.26122,1.01796
131.048,19.9063,0.009663541,0.26137,1.01758
133.648,20.15744,0.008355269,0.26195,1.01719
136.248,20.40738,0.008541193,0.26224,1.0168
138.848,20.65755,0.009660148,0.26332,1.0164
141.448,20.90696,0.009262638,0.26211,1.01599
144.048,21.15624,0.00965989,0.26323,1.01558
146.648,21.4051,0.009765908,0.26368,1.01516
149.248,21.65305,0.009665918,0.26494,1.01473
151.848,21.9016,0.009717241,0.26725,1.0143
154.448,22.14945,0.009660659,0.26868,1.01386
157.048,22.39666,0.00891579,0.26917,1.01341
159.648,22.64506,0.00839183,0.27042,1.01295
162.248,22.89247,0.009076222,0.26973,1.01249
164.848,23.1405,0.008340023,0.27092,1.01202
167.448,23.38792,0.008340001,0.27105,1.01154
170.048,23.63547,0.008349674,0.27264,1.01106
172.648,23.88268,0.008340001,0.27166,1.01057
175.248,24.13007,0.008669779,0.27189,1.01007
177.848,24.37758,0.008340016,0.27164,1.00956
180.448,24.62441,0.007029548,0.27367,1.00905
183.048,24.87167,0.008323178,0.27103,1.00852
185.648,25.1186,0.007360246,0.27263,1.00799
188.248,25.36516,0.00765177,0.27181,1.00746
190.848,25.61185,0.004717973,0.27168,1.00691
193.448,25.85887,0.004509511,0.27342,1.00635
196.048,26.1057,0.00656489,0.27542,1.00579
198.648,26.35261,0.004600649,0.27585,1.00522
201.248,26.59935,0.00362,0.27768,1.00464
203.848,26.84615,0.00329688,0.28259,1.00405
206.448,27.09308,0.001994915,0.28259,1.00346
209.048,27.34044,0.00132,0.28405,1.00285
211.648,27.58795,-0.0002178117,0.28724,1.00224
214.248,27.8346,-0.001615095,0.28683,1.00162
216.848,28.0815,-0.00396,0.29095,1.00099
219.448,28.32838,-0.003957237,0.29768,1.00035
222.048,28.57579,-0.008890002,0.29864,0.9997
224.648,28.8229,-0.0126061,0.3048,0.99904
227.248,29.0698,-0.01525537,0.31084,0.99837
229.848,29.3167,-0.01795341,0.31638,0.9977
232.448,29.5634,-0.02044395,0.32591,0.99701
235.048,29.81028,-0.02734538,0.33726,0.99632
237.648,30.05728,-0.03285489,0.34794,0.99561
240.248,30.3048,-0.03873861,0.36089,0.9949
242.848,30.5516,-0.04497319,0.37449,0.99417
245.448,30.79921,-0.05302994,0.39232,0.99344
248.048,31.0463,-0.06312846,0.41229,0.9927
250.648,31.29395,-0.07139034,0.4338,0.99195
253.248,31.54188,-0.08167022,0.4571,0.99118
255.848,31.78993,-0.09432493,0.48176,0.99041
258.448,32.03767,-0.10698,0.50888,0.98963
261.048,32.28585,-0.1212,0.54075,0.98884
263.648,32.5334,-0.13787,0.57551,0.98803
266.248,32.78156,-0.15494,0.61468,0.98722
268.848,33.02991,-0.17306,0.65753,0.9864
271.448,33.2785,-0.19491,0.70544,0.98556
274.048,33.5269,-0.21846,0.75645,0.98472
276.648,33.77579,-0.24451,0.81201,0.98387
279.248,34.0248,-0.27446,0.86851,0.983
281.848,34.27431,-0.30665,0.92622,0.98213
284.448,34.5237,-0.34225,0.99571,0.98124
287.048,34.77347,-0.38236,1.07479,0.98034
289.648,35.0233,-0.42741,1.15752,0.97944
292.248,35.2729,-0.47771,1.24006,0.97852
294.848,35.52348,-0.53249,1.32048,0.97759
297.448,35.77463,-0.59397,1.41491,0.97665
300.048,36.0249,-0.65924,1.49968,0.9757
302.648,36.27532,-0.72973,1.5658,0.97474
305.248,36.52628,-0.8016,1.58265,0.97376
307.848,36.7759,-0.87365,1.49242,0.97278
310.448,37.0248,-0.93976,1.26268,0.97178
313.048,37.2731,-0.99546,1.00501,0.97077
315.648,37.52101,-1.03993,0.76017,0.96976
318.248,37.7691,-1.07838,0.57342,0.96873
320.848,38.01715,-1.1088,0.46648,0.96768
323.448,38.2658,-1.1342,0.39868,0.96663
326.048,38.51511,-1.1603,0.34816,0.96557
328.648,38.76467,-1.18093,0.3097,0.96449
331.248,39.01475,-1.20348,0.28057,0.9634
333.848,39.26509,-1.22057,0.25952,0.9623
336.448,39.5164,-1.24025,0.24316,0.96119
339.048,39.7667,-1.26035,0.23351,0.96007
341.648,40.0181,-1.28065,0.2327,0.95893
344.248,40.26897,-1.301,0.23816,0.95778
346.848,40.51967,-1.326,0.24898,0.95662
349.448,40.77084,-1.35363,0.2647,0.95545
352.048,41.0222,-1.38728,0.28968,0.95427
354.648,41.27432,-1.42783,0.32397,0.95307
357.248,41.52588,-1.47407,0.36188,0.95187
359.848,41.77793,-1.52931,0.40434,0.95065
362.448,42.0299,-1.59574,0.45462,0.94941
365.048,42.28233,-1.67469,0.50892,0.94817
367.648,42.5351,-1.76558,0.56129,0.94691
370.248,42.7869,-1.86914,0.61086,0.94564
372.848,43.04031,-1.99029,0.65815,0.94436
375.448,43.29288,-2.12197,0.6971,0.94307
378.048,43.54603,-2.26329,0.71729,0.94176
380.648,43.79888,-2.41483,0.725,0.94044
383.248,44.05196,-2.56818,0.70913,0.93911
385.848,44.30467,-2.72085,0.67471,0.93777
388.448,44.55704,-2.87024,0.62177,0.93641
391.048,44.81067,-3.00829,0.5566,0.93504
393.648,45.06305,-3.13238,0.48716,0.93366
396.248,45.3161,-3.2444,0.41684,0.93226
398.848,45.56968,-3.33689,0.34785,0.93086
401.448,45.82248,-3.4137,0.29045,0.92944
404.048,46.07595,-3.4777,0.23918,0.928
406.648,46.32925,-3.52713,0.20292,0.92656
409.248,46.58231,-3.56423,0.16973,0.9251
411.848,46.83548,-3.59567,0.14644,0.92363
414.448,47.08882,-3.61665,0.1279,0.92214
417.048,47.3416,-3.63478,0.11005,0.92065
419.648,47.59478,-3.6468,0.09973396,0.91914
422.248,47.84858,-3.65694,0.08994704,0.91762
424.848,48.10219,-3.66401,0.08581028,0.91608
427.448,48.356,-3.66894,0.0807897,0.91453
430.048,48.60985,-3.67158,0.07889247,0.91297
432.648,48.8632,-3.67554,0.08086213,0.9114
435.248,49.11764,-3.67849,0.07886153,0.90981
437.848,49.37117,-3.6798,0.08055943,0.90821
440.448,49.6256,-3.68246,0.08118618,0.9066
443.048,49.87981,-3.68276,0.07893476,0.90497
445.648,50.13378,-3.6841,0.07744711,0.90333
448.248,50.38896,-3.68443,0.07777495,0.90168
450.848,50.64375,-3.68603,0.07581368,0.90002
453.448,50.89833,-3.68838,0.0759601,0.89834
456.048,51.15423,-3.68838,0.07331473,0.89665
458.648,51.4095,-3.6897,0.07383745,0.89495
461.248,51.66495,-3.69068,0.0731095,0.89323
463.848,51.92119,-3.692,0.07372166,0.8915
466.448,52.177,-3.69267,0.07228247,0.88976
469.048,52.4332,-3.69432,0.07172997,0.88801
471.648,52.68916,-3.69431,0.0719566,0.88624
474.248,52.94535,-3.6944,0.0722974,0.88446
476.848,53.20143,-3.69574,0.07225362,0.88267
479.448,53.45802,-3.69705,0.07052604,0.88086
482.048,53.7144,-3.6963,0.07102054,0.87904
484.648,53.97099,-3.69771,0.07497765,0.87721
487.248,54.22749,-3.70002,0.07709077,0.87536
489.848,54.4838,-3.7006,0.07652696,0.87351
492.448,54.7406,-3.70067,0.07785333,0.87164
495.048,54.9967,-3.70199,0.07894126,0.86975
497.648,55.2536,-3.70463,0.07893247,0.86786
500.248,55.51,-3.7043,0.07861337,0.86595
502.848,55.7667,-3.70299,0.07582915,0.86403
505.448,56.0232,-3.70561,0.07903007,0.8621
508.048,56.27959,-3.70562,0.0779448,0.86015
510.648,56.536,-3.70629,0.07875932,0.85819
513.248,56.79376,-3.7076,0.07934806,0.85622
515.848,57.0512,-3.70825,0.08220251,0.85424
518.448,57.3085,-3.70825,0.08189796,0.85224
521.048,57.56573,-3.70957,0.08404066,0.85023
523.648,57.82345,-3.7099,0.08571459,0.84821
526.248,58.0815,-3.71066,0.08665108,0.84618
528.848,58.3395,-3.7122,0.08471891,0.84413
531.448,58.5972,-3.71042,0.08240039,0.84207
534.048,58.855,-3.71121,0.08064008,0.84
536.648,59.11189,-3.71137,0.07735481,0.83792
539.248,59.3696,-3.71252,0.0760326,0.83582
541.848,59.62669,-3.71186,0.07094429,0.83372
544.448,59.8839,-3.71361,0.06761217,0.8316
547.048,60.14125,-3.71352,0.06127426,0.82947
549.648,60.39935,-3.71286,0.05962162,0.82732
552.248,60.6568,-3.71484,0.05550703,0.82517
554.848,60.91499,-3.71484,0.05101187,0.823
557.448,61.1729,-3.71352,0.0484582,0.82082
560.048,61.42937,-3.7135,0.0453953,0.81863
562.648,61.6877,-3.71439,0.04225103,0.81643
565.248,61.9454,-3.7155,0.03707123,0.81422
567.848,62.2035,-3.71549,0.0343924,0.81199
570.448,62.4619,-3.71682,0.03233608,0.80975
573.048,62.7205,-3.7155,0.02367723,0.8075
575.648,62.9785,-3.71457,0.02005846,0.80524
578.248,63.2378,-3.71484,0.01492966,0.80297
580.848,63.49686,-3.71616,0.00978298,0.80069
583.448,63.75651,-3.71682,0.003325419,0.7984
586.048,64.0159,-3.71682,-0.002254241,0.79609
588.648,64.27467,-3.71714,-0.00148192,0.79378
591.248,64.534,-3.71714,-0.008508794,0.79145
593.848,64.79292,-3.71654,-0.01240698,0.78911
596.448,65.05199,-3.71877,-0.01552443,0.78676
599.048,65.3106,-3.71715,-0.0204299,0.7844
601.648,65.56917,-3.71781,-0.02512907,0.78203
604.248,65.82777,-3.71649,-0.02609352,0.77965
606.848,66.08752,-3.71649,-0.02810968,0.77726
609.448,66.34716,-3.71649,-0.03224314,0.77485
612.048,66.60614,-3.71648,-0.03236577,0.77244
614.648,66.86572,-3.71912,-0.0362877,0.77002
617.248,67.12493,-3.71682,-0.03364825,0.76758
619.848,67.38458,-3.71817,-0.04228798,0.76514
622.448,67.64483,-3.71768,-0.05760761,0.76268
625.048,67.90474,-3.71829,-0.05540391,0.76022
627.648,68.16424,-3.71835,-0.05883432,0.75775
630.248,68.42341,-3.71901,-0.06625466,0.75526
632.848,68.68394,-3.71879,-0.07289503,0.75277
635.448,68.94351,-3.71835,-0.07503439,0.75026
638.048,69.2033,-3.71972,-0.07979983,0.74775
640.648,69.46234,-3.71934,-0.0815632,0.74523
643.248,69.7217,-3.71967,-0.08251622,0.7427
645.848,69.9811,-3.7184,-0.08710708,0.74015
645.948,69.99126,-3.71871,-0.08770329,0.74006