File: 01_Data/Cotton_Shirt/MCC/Cotton_Shirt_MCC_30K_min_210709_R2.txt
Sample ID:	C:\MCC\MCC Cal\Test\Cotton_Shirt\Cotton_Shirt_MCC_30K_min_210709_R2.txt
Sample Weight (mg):	4.89
Heating Rate (C/s):	1
Combustor Temp (C):	900
N2 Flow Rate (cc/min):	80
O2 Flow Rate (cc/min):	20
Calibration File:	C:\MCC\MCC Cal\Coeff1 JN10440_30_210304.txt.txt
T Correction Coefficients:	0	1.024463	0
Time Shift (s):	14
*
Time (s)	Temperature (C)	N2 flow rate (cc/min)	O2 flow rate (cc/min)	Flow Rate (cc/min)	Oxygen (%)	HRR (W/g)	Heating rate (C/s)
0.000	110.904	79.995	19.995	99.926	20.018	0.049	0.004
4.000	110.828	79.999	19.996	99.926	20.013	0.379	-0.025
8.000	110.842	79.999	19.995	99.934	20.017	0.090	-0.021
12.001	110.761	79.998	19.995	99.955	20.013	0.366	-0.031
16.000	110.819	79.996	19.995	100.065	19.991	1.785	0.005
20.000	111.020	80.000	19.996	100.191	19.977	2.676	0.086
24.000	111.400	79.998	19.995	100.206	19.967	3.315	0.075
28.000	112.016	79.997	19.996	100.237	19.957	3.963	0.195
32.000	112.876	80.000	19.995	100.281	19.952	4.230	0.221
36.000	113.954	80.001	19.995	100.291	19.943	4.822	0.276
40.000	115.257	79.999	19.994	100.322	19.934	5.414	0.358
44.000	116.733	79.996	19.995	100.351	19.935	5.342	0.369
48.000	118.490	79.997	19.996	100.360	19.935	5.370	0.433
52.000	120.361	79.998	19.995	100.363	19.929	5.743	0.472
56.000	122.495	79.997	19.997	100.357	19.927	5.835	0.544
60.000	124.759	79.995	19.996	100.358	19.931	5.579	0.580
64.000	127.138	79.995	19.995	100.351	19.935	5.368	0.608
68.000	129.633	79.995	19.995	100.358	19.926	5.895	0.632
72.000	132.327	79.996	19.995	100.363	19.925	5.954	0.698
76.000	135.079	79.995	19.995	100.368	19.925	5.989	0.704
80.000	137.942	79.994	19.997	100.411	19.928	5.769	0.730
84.000	140.946	79.997	19.997	100.367	19.930	5.693	0.770
88.000	144.085	79.998	19.998	100.402	19.921	6.267	0.819
92.000	147.294	79.998	19.995	100.393	19.921	6.243	0.803
96.000	150.632	79.997	19.996	100.391	19.929	5.707	0.845
100.000	154.000	79.997	19.995	100.379	19.928	5.822	0.855
104.000	157.477	79.996	19.995	100.387	19.928	5.816	0.875
108.000	161.023	79.996	19.994	100.367	19.925	5.981	0.910
112.000	164.704	79.998	19.994	100.364	19.928	5.781	0.928
116.000	168.481	80.000	19.995	100.363	19.931	5.631	0.951
120.000	172.217	79.999	19.994	100.364	19.933	5.490	0.947
124.000	176.031	79.998	19.992	100.358	19.927	5.868	0.982
128.000	179.906	79.997	19.995	100.359	19.923	6.119	0.973
132.000	183.853	79.996	19.995	100.355	19.927	5.829	0.996
136.000	187.894	79.998	19.997	100.354	19.929	5.751	1.015
140.000	191.856	79.997	19.996	100.348	19.930	5.641	1.011
144.000	195.904	79.997	19.997	100.335	19.928	5.772	1.003
148.000	200.047	79.997	19.996	100.328	19.929	5.742	1.056
152.000	204.142	79.998	19.996	100.317	19.926	5.901	1.065
156.000	208.261	79.995	19.997	100.319	19.928	5.763	1.044
160.000	212.372	79.996	19.996	100.322	19.932	5.556	1.009
164.000	216.526	79.998	19.997	100.320	19.924	6.018	1.003
168.000	220.660	79.998	19.996	100.302	19.926	5.924	1.007
172.000	224.827	79.996	19.995	100.286	19.927	5.850	1.040
176.000	229.020	79.996	19.996	100.286	19.928	5.810	1.037
180.000	233.154	79.997	19.996	100.287	19.925	5.967	1.030
184.000	237.319	79.997	19.994	100.289	19.921	6.266	1.040
188.000	241.436	79.997	19.994	100.287	19.918	6.421	1.031
192.000	245.496	79.998	19.995	100.277	19.908	7.090	1.034
196.000	249.599	79.999	19.996	100.286	19.900	7.557	1.020
200.000	253.693	80.000	19.995	100.281	19.892	8.082	1.002
204.000	257.714	79.996	19.996	100.279	19.887	8.406	0.983
208.000	261.755	79.996	19.996	100.295	19.874	9.272	0.984
212.000	265.781	79.995	19.995	100.285	19.862	10.019	0.992
216.000	269.814	79.996	19.995	100.299	19.854	10.523	0.995
220.000	273.834	79.996	19.994	100.302	19.833	11.873	0.946
224.000	277.854	79.998	19.994	100.320	19.816	12.969	0.978
228.000	281.764	79.996	19.996	100.322	19.792	14.473	0.963
232.000	285.809	79.996	19.995	100.322	19.778	15.383	0.993
236.000	289.703	79.996	19.997	100.328	19.752	17.077	0.964
240.000	293.670	79.994	19.995	100.346	19.726	18.746	0.967
244.000	297.643	79.997	19.995	100.359	19.690	21.018	0.974
248.001	301.556	79.999	19.999	100.375	19.662	22.870	0.979
252.000	305.493	80.014	20.006	100.432	19.617	25.747	0.969
256.000	309.438	80.015	20.004	100.456	19.571	28.686	0.988
260.000	313.429	79.997	19.999	100.432	19.506	32.876	0.990
264.000	317.374	79.995	19.996	100.471	19.440	37.151	0.961
268.000	321.352	79.998	19.997	100.510	19.361	42.228	0.963
272.000	325.312	79.999	19.994	100.543	19.271	48.039	1.008
276.000	329.289	79.998	19.995	100.589	19.156	55.487	0.994
280.000	333.322	79.997	19.996	100.652	19.027	63.846	0.998
284.000	337.301	79.997	19.995	100.718	18.877	73.577	0.981
288.000	341.278	79.997	19.995	100.800	18.679	86.413	1.007
292.000	345.231	79.997	19.996	100.851	18.456	100.897	0.954
296.000	349.248	79.997	19.995	101.067	18.188	118.308	1.006
300.000	353.253	79.996	19.996	101.117	17.890	137.629	0.982
304.000	357.269	79.995	19.995	101.224	17.570	158.382	1.024
308.000	361.259	79.999	19.996	101.313	17.231	180.226	1.018
312.000	365.242	79.998	19.996	101.373	16.928	199.599	0.986
316.000	369.266	79.995	19.996	101.376	16.669	215.917	1.019
320.000	373.266	79.997	19.995	101.325	16.517	225.203	0.990
324.000	377.303	79.997	19.996	101.186	16.517	224.536	1.025
328.000	381.335	79.998	19.996	100.987	16.699	212.386	1.040
332.000	385.390	80.000	19.996	100.721	17.079	187.856	1.033
336.000	389.488	80.000	19.996	100.444	17.615	153.542	0.999
340.000	393.622	79.999	19.997	100.231	18.241	113.600	1.051
344.001	397.744	79.999	19.997	100.140	18.829	76.030	1.010
348.000	401.852	79.996	19.998	100.159	19.276	47.436	0.998
352.000	406.016	79.999	19.997	100.187	19.565	29.005	1.009
356.000	410.187	80.000	19.995	100.196	19.730	18.459	1.037
360.000	414.245	79.998	19.995	100.176	19.817	12.885	1.009
364.000	418.334	79.998	19.994	100.174	19.856	10.403	1.034
368.000	422.356	79.997	19.995	100.165	19.874	9.225	0.995
372.001	426.434	79.996	19.994	100.163	19.888	8.358	1.016
376.000	430.451	79.999	19.997	100.153	19.892	8.104	0.997
380.000	434.524	79.996	19.995	100.162	19.899	7.662	0.997
384.000	438.604	79.998	19.996	100.160	19.902	7.432	1.045
388.000	442.581	79.997	19.995	100.160	19.895	7.873	0.992
392.000	446.643	79.996	19.995	100.144	19.914	6.672	1.011
396.000	450.659	79.997	19.996	100.148	19.906	7.154	0.995
400.000	454.662	79.996	19.995	100.158	19.917	6.487	1.014
404.000	458.482	79.999	19.995	100.142	19.911	6.857	0.890
408.000	462.491	79.996	19.996	100.144	19.917	6.509	0.907
412.000	466.674	79.997	19.995	100.141	19.910	6.958	1.006
416.000	470.725	79.997	19.996	100.160	19.917	6.484	0.971
420.000	474.722	79.997	19.996	100.145	19.918	6.447	1.037
424.001	478.757	79.998	19.996	100.132	19.921	6.208	1.008
428.000	482.710	79.997	19.995	100.150	19.920	6.309	1.022
432.000	486.748	79.996	19.997	100.140	19.929	5.719	1.030
436.000	490.808	79.999	19.997	100.123	19.932	5.534	1.007
440.000	494.844	79.995	19.995	100.125	19.928	5.761	1.035
444.000	498.946	79.995	19.995	100.128	19.929	5.702	1.046
448.000	502.980	79.996	19.996	100.122	19.936	5.244	1.008
452.000	507.043	79.998	19.996	100.123	19.939	5.058	1.018
456.000	511.128	79.998	19.996	100.131	19.943	4.842	1.017
460.000	515.187	79.996	19.995	100.120	19.951	4.308	1.028
464.000	519.295	79.996	19.996	100.121	19.952	4.254	1.025
468.000	523.363	79.994	19.995	100.114	19.954	4.110	0.995
472.000	527.473	79.997	19.996	100.117	19.952	4.263	1.028
476.000	531.565	79.996	19.996	100.125	19.954	4.117	1.012
480.000	535.750	79.996	19.995	100.110	19.958	3.861	1.044
484.000	539.809	79.998	19.995	100.122	19.951	4.312	0.997
488.000	543.910	79.997	19.994	100.118	19.960	3.706	0.996
492.000	548.000	79.996	19.996	100.125	19.955	4.021	0.993
496.000	552.144	79.996	19.998	100.116	19.965	3.400	1.048
500.000	556.275	79.997	19.996	100.122	19.958	3.851	1.048
504.000	560.339	79.997	19.995	100.116	19.961	3.645	1.003
508.000	564.437	79.998	19.996	100.113	19.963	3.539	1.058
512.000	568.498	80.000	19.996	100.111	19.967	3.259	1.022
516.000	572.601	79.997	19.996	100.107	19.967	3.304	1.039
520.000	576.780	79.995	19.995	100.106	19.968	3.229	1.052
524.000	580.813	79.994	19.996	100.114	19.966	3.382	1.013
528.001	584.883	79.996	19.997	100.102	19.962	3.582	0.998
532.000	588.900	79.998	19.996	100.066	19.962	3.605	0.981
536.000	592.968	79.996	19.996	100.178	19.970	3.101	0.976
540.000	597.098	79.997	19.995	100.100	19.973	2.883	0.999
544.000	601.151	79.996	19.995	100.102	19.969	3.142	1.012
548.000	605.171	79.997	19.995	100.114	19.972	2.993	0.997
552.000	609.268	79.995	19.995	100.101	19.970	3.123	1.006
556.000	613.104	79.994	19.995	100.106	19.970	3.065	1.014
560.000	617.411	79.996	19.996	100.106	19.975	2.768	1.057
564.000	621.414	79.997	19.996	100.087	19.964	3.453	1.018
568.000	625.440	79.998	19.995	100.083	19.971	3.050	1.012
572.000	629.497	79.998	19.996	100.093	19.973	2.931	1.022
576.000	633.544	79.997	19.996	100.090	19.974	2.850	0.985
580.000	637.654	79.996	19.994	100.086	19.972	2.972	1.003
584.000	641.687	79.999	19.996	100.084	19.972	2.952	1.026
588.000	645.716	79.999	19.996	100.086	19.980	2.445	1.028
592.000	649.732	79.999	19.995	100.089	19.971	3.036	1.005
596.000	653.853	79.998	19.997	100.082	19.971	3.058	1.037
600.000	657.940	79.996	19.995	100.085	19.978	2.571	1.026
604.000	661.949	79.997	19.996	100.094	19.976	2.679	1.013
608.000	665.991	79.995	19.997	100.084	19.973	2.897	1.036
612.000	669.970	79.995	19.998	100.085	19.982	2.302	1.006
616.000	674.097	79.996	19.995	100.086	19.979	2.547	1.017
620.000	678.166	79.996	19.995	100.088	19.978	2.575	1.030
624.000	682.197	79.996	19.995	100.087	19.977	2.622	1.013
628.000	686.252	79.995	19.996	100.082	19.981	2.418	1.000
632.000	690.280	79.995	19.995	100.086	19.982	2.345	1.000
636.000	694.320	79.996	19.996	100.086	19.981	2.410	0.992
640.000	698.404	79.997	19.995	100.082	19.980	2.432	1.033
644.000	702.491	79.998	19.995	100.079	19.976	2.737	1.043
648.000	706.529	79.998	19.996	100.082	19.979	2.535	0.998
652.000	710.533	79.997	19.995	100.083	19.982	2.302	0.975
656.000	714.538	79.998	19.995	100.083	19.978	2.580	1.019
660.000	718.566	79.997	19.996	100.084	19.976	2.681	1.005
664.000	722.582	79.998	19.996	100.079	19.980	2.485	0.977
668.000	726.604	80.000	19.996	100.084	19.981	2.408	0.998
672.000	730.622	79.999	19.996	100.083	19.979	2.531	0.982
676.000	734.654	79.995	19.996	100.084	19.981	2.406	1.028
678.500	737.074	79.998	19.996	100.085	19.985	2.159	0.966