File: 01_Data/Cotton_Shirt/MCC/Cotton_Shirt_MCC_30K_min_210709_R1.txt
Sample ID:	C:\MCC\MCC Cal\Test\Cotton_Shirt\Cotton_Shirt_MCC_30K_min_210709_R1.txt
Sample Weight (mg):	5.35
Heating Rate (C/s):	1
Combustor Temp (C):	900
N2 Flow Rate (cc/min):	80
O2 Flow Rate (cc/min):	20
Calibration File:	C:\MCC\MCC Cal\Coeff1 JN10440_30_210304.txt.txt
T Correction Coefficients:	0	1.024463	0
Time Shift (s):	14
*
Time (s)	Temperature (C)	N2 flow rate (cc/min)	O2 flow rate (cc/min)	Flow Rate (cc/min)	Oxygen (%)	HRR (W/g)	Heating rate (C/s)
0.000	110.503	79.994	19.995	99.944	20.069	-0.063	-0.019
4.000	110.493	79.992	19.995	99.951	20.067	0.051	-0.021
8.000	110.446	79.993	19.995	99.968	20.069	-0.051	-0.027
12.000	110.429	79.993	19.995	100.008	20.057	0.670	0.023
16.000	110.514	79.994	19.995	100.154	20.036	1.895	0.048
20.000	110.830	79.992	19.996	100.230	20.025	2.513	0.096
24.000	111.345	79.994	19.994	100.287	20.011	3.333	0.118
28.000	112.055	79.994	19.995	100.314	20.002	3.879	0.188
32.001	113.034	79.993	19.995	100.340	19.997	4.129	0.283
36.000	114.325	79.992	19.996	100.343	19.990	4.543	0.338
40.000	115.718	79.993	19.997	100.339	19.987	4.727	0.350
44.000	117.391	79.995	19.996	100.358	19.986	4.782	0.428
48.000	119.206	79.997	19.995	100.377	19.981	5.120	0.477
52.000	121.190	79.995	19.995	100.384	19.982	5.047	0.522
56.000	123.339	79.995	19.995	100.398	19.974	5.504	0.550
60.001	125.686	79.993	19.996	100.411	19.974	5.511	0.618
64.001	128.170	79.995	19.995	100.416	19.971	5.666	0.665
68.000	130.791	79.995	19.995	100.419	19.971	5.671	0.686
72.000	133.539	79.997	19.994	100.406	19.968	5.864	0.684
76.000	136.454	79.996	19.995	100.409	19.968	5.864	0.716
80.001	139.545	79.990	19.996	100.405	19.971	5.668	0.802
84.001	142.623	79.994	19.994	100.408	19.968	5.871	0.798
88.000	145.864	79.994	19.994	100.410	19.969	5.804	0.828
92.001	149.184	79.993	19.996	100.404	19.968	5.884	0.846
96.000	152.545	79.994	19.995	100.397	19.966	5.975	0.847
100.000	155.925	79.991	19.998	100.391	19.968	5.839	0.878
104.001	159.427	79.999	19.991	100.392	19.968	5.869	0.907
108.000	163.007	79.994	19.997	100.392	19.966	5.958	0.926
112.000	166.690	79.992	19.996	100.394	19.967	5.893	0.918
116.000	170.346	79.988	19.999	100.396	19.971	5.660	0.914
120.000	174.125	79.993	19.993	100.392	19.969	5.818	0.956
124.001	177.860	79.989	20.000	100.375	19.966	5.970	0.943
128.000	181.778	79.994	19.999	100.386	19.966	5.976	0.981
132.000	185.693	79.994	19.996	100.388	19.970	5.762	0.992
136.000	189.654	79.995	19.990	100.367	19.968	5.837	0.977
140.000	193.686	79.996	19.996	100.360	19.968	5.847	1.031
144.000	197.687	79.993	20.001	100.360	19.967	5.910	1.008
148.000	201.735	79.992	19.997	100.361	19.968	5.860	1.013
152.000	205.813	79.996	19.995	100.286	19.966	5.968	1.002
156.000	209.946	79.995	19.999	100.419	19.969	5.797	1.007
160.000	214.036	79.997	19.996	100.340	19.968	5.840	1.021
164.000	218.141	79.994	19.999	100.336	19.964	6.079	1.024
168.000	222.333	79.995	19.995	100.330	19.965	6.036	1.072
172.000	226.459	79.995	19.994	100.323	19.964	6.109	1.050
176.000	230.597	79.988	19.996	100.321	19.965	6.007	1.024
180.000	234.733	80.001	19.993	100.320	19.961	6.280	1.060
184.000	238.871	79.995	19.995	100.314	19.956	6.558	1.064
188.000	242.999	79.993	20.000	100.326	19.951	6.834	1.055
192.000	247.051	79.998	19.994	100.320	19.942	7.388	1.023
196.000	251.149	79.993	19.998	100.323	19.937	7.682	1.046
200.000	255.187	79.990	19.996	100.330	19.924	8.409	1.004
204.000	259.260	79.998	19.992	100.322	19.912	9.109	1.022
208.000	263.246	79.995	19.998	100.324	19.901	9.778	1.026
212.000	267.259	79.993	20.000	100.331	19.886	10.630	1.009
216.000	271.272	79.994	19.997	100.339	19.868	11.697	1.009
220.000	275.273	79.997	19.995	100.341	19.850	12.748	1.009
224.000	279.253	79.999	19.994	100.353	19.833	13.776	0.973
228.000	283.206	79.995	20.000	100.346	19.808	15.192	1.010
232.000	287.165	80.001	19.992	100.357	19.783	16.668	0.986
236.000	291.139	79.998	19.993	100.371	19.757	18.220	1.008
240.000	295.043	79.997	19.994	100.383	19.725	20.065	0.970
244.000	298.960	79.995	19.995	100.396	19.688	22.262	0.985
248.000	302.928	79.996	19.996	100.413	19.647	24.650	0.980
252.000	306.899	79.995	19.998	100.441	19.600	27.434	0.984
256.000	310.857	79.997	19.995	100.468	19.541	30.888	0.998
260.000	314.832	79.995	19.996	100.501	19.477	34.655	1.010
264.000	318.788	79.995	19.997	100.525	19.400	39.238	0.996
268.000	322.794	79.996	19.996	100.583	19.310	44.544	0.988
272.000	326.737	79.996	19.996	100.627	19.199	51.106	0.995
276.000	330.768	79.994	19.996	100.686	19.073	58.552	1.031
280.000	334.757	79.995	19.995	100.757	18.923	67.461	1.044
284.000	338.720	79.998	19.995	100.833	18.734	78.703	1.022
288.000	342.671	79.998	19.995	100.935	18.508	92.142	0.978
292.000	346.639	79.997	19.996	101.044	18.234	108.450	1.012
296.000	350.600	79.995	19.996	101.162	17.926	126.743	0.991
300.000	354.623	79.995	19.996	101.286	17.575	147.591	1.005
304.000	358.604	79.994	19.997	101.397	17.202	169.688	0.966
308.000	362.551	79.996	19.997	101.486	16.833	191.381	0.975
312.000	366.538	79.999	19.996	101.528	16.497	211.000	0.993
316.001	370.517	79.997	19.997	101.516	16.242	225.532	0.991
320.000	374.548	79.997	19.995	101.439	16.118	232.223	1.012
324.000	378.577	79.996	19.996	101.270	16.175	228.197	1.020
328.000	382.598	79.995	19.995	101.015	16.450	211.481	1.006
332.000	386.685	79.995	19.995	100.749	16.955	181.870	1.031
336.000	390.791	79.995	19.995	100.411	17.614	143.380	1.015
340.000	394.980	79.994	19.996	100.216	18.311	102.730	1.022
344.000	399.180	79.996	19.995	100.188	18.916	67.316	1.043
348.000	403.374	79.996	19.996	100.217	19.347	42.115	1.071
352.001	407.523	79.996	19.996	100.230	19.618	26.300	1.014
356.000	411.664	79.996	19.995	100.217	19.763	17.827	1.041
360.000	415.751	79.997	19.996	100.221	19.838	13.456	1.031
364.000	419.877	79.996	19.996	100.197	19.876	11.220	1.037
368.000	423.955	79.996	19.996	100.200	19.890	10.397	1.031
372.000	428.073	79.999	19.996	100.198	19.903	9.616	1.020
376.000	432.198	79.998	19.995	100.191	19.906	9.492	1.022
380.001	436.250	79.997	19.996	100.193	19.913	9.084	1.098
384.000	439.982	79.997	19.996	100.190	19.917	8.817	0.458
388.000	444.168	79.995	19.996	100.186	19.916	8.878	1.081
392.000	448.291	79.998	19.996	100.199	19.919	8.683	1.061
396.000	452.262	79.997	19.996	100.178	19.918	8.745	0.984
400.000	456.293	79.997	19.996	100.192	19.917	8.848	1.021
404.000	460.276	79.995	19.996	100.178	19.920	8.641	0.982
408.000	464.226	79.995	19.996	100.252	19.922	8.501	0.956
412.000	468.189	79.997	19.994	100.178	19.924	8.399	0.960
416.000	472.190	79.996	19.996	100.168	19.929	8.146	0.985
420.000	476.233	79.995	19.995	100.166	19.927	8.220	1.022
424.001	480.204	79.995	19.996	100.171	19.931	7.997	0.983
428.000	484.242	79.998	19.996	100.164	19.933	7.882	1.020
432.000	488.201	79.996	19.996	100.163	19.941	7.415	0.995
436.000	492.277	79.996	19.996	100.162	19.940	7.459	0.995
440.000	496.315	79.995	19.995	100.167	19.940	7.448	0.995
444.000	500.356	79.996	19.996	100.166	19.943	7.322	0.994
448.000	504.423	79.997	19.994	100.164	19.946	7.149	0.986
452.000	508.449	79.997	19.995	100.165	19.952	6.778	1.023
456.000	512.454	79.997	19.997	100.162	19.951	6.814	0.970
460.001	516.612	79.995	19.996	100.162	19.948	7.004	1.007
464.000	520.680	79.996	19.996	100.164	19.957	6.510	1.024
468.000	524.791	79.996	19.995	100.165	19.958	6.397	1.023
472.000	528.887	79.995	19.995	100.165	19.961	6.260	1.017
476.000	533.012	79.998	19.996	100.163	19.957	6.489	1.047
480.000	537.144	79.997	19.997	100.160	19.964	6.073	1.027
484.000	541.261	79.996	19.996	100.159	19.962	6.198	1.029
488.000	545.380	79.995	19.996	100.161	19.961	6.241	0.995
492.000	549.516	79.996	19.996	100.158	19.959	6.373	1.025
496.000	553.608	79.996	19.996	100.156	19.966	5.970	1.080
500.000	557.683	79.998	19.996	100.157	19.967	5.878	1.032
504.000	561.785	79.997	19.996	100.160	19.971	5.685	1.021
508.000	565.773	79.996	19.995	100.161	19.971	5.661	0.977
512.000	569.833	79.995	19.995	100.154	19.966	5.962	1.022
516.000	573.928	79.993	19.995	100.158	19.966	5.943	1.014
520.000	578.032	79.995	19.996	100.137	19.969	5.784	1.018
524.000	582.070	79.996	19.996	100.144	19.964	6.101	1.009
528.000	586.072	79.998	19.995	100.151	19.965	6.029	1.009
532.000	590.097	79.997	19.995	100.162	19.968	5.828	1.001
536.000	594.153	79.998	19.995	100.160	19.967	5.903	1.031
540.000	598.202	79.997	19.995	100.159	19.968	5.863	0.987
544.000	602.244	79.995	19.996	100.149	19.969	5.753	1.008
548.000	606.243	79.996	19.995	100.145	19.971	5.664	0.978
552.000	610.269	79.996	19.996	100.151	19.967	5.915	0.999
556.000	614.287	79.996	19.996	100.142	19.968	5.863	0.995
560.000	618.366	79.998	19.996	100.144	19.971	5.678	1.041
564.000	622.381	79.998	19.996	100.138	19.971	5.669	0.986
568.001	626.417	79.996	19.995	100.135	19.969	5.757	1.024
572.000	630.430	79.995	19.996	100.140	19.970	5.718	1.032
576.000	634.496	79.995	19.997	100.151	19.966	5.930	1.022
580.000	638.514	79.995	19.997	100.143	19.968	5.860	1.005
584.000	642.549	79.994	19.996	100.140	19.970	5.709	1.006
588.000	646.515	79.995	19.996	100.132	19.970	5.711	0.991
592.000	650.527	79.994	19.994	100.152	19.969	5.762	0.981
596.000	654.676	79.994	19.995	100.141	19.971	5.686	1.053
600.000	658.675	79.995	19.995	100.130	19.971	5.679	1.012
604.000	662.731	79.996	19.996	100.133	19.970	5.729	0.983
608.000	666.759	79.997	19.995	100.133	19.970	5.713	1.009
612.000	670.813	79.997	19.995	100.126	19.973	5.526	1.014
616.000	674.875	79.998	19.995	100.135	19.973	5.531	1.046
620.000	678.939	79.998	19.995	100.123	19.970	5.747	1.038
624.000	683.036	79.997	19.995	100.125	19.968	5.863	1.062
628.000	687.037	79.997	19.995	100.120	19.973	5.526	1.015
632.000	691.096	79.996	19.996	100.122	19.972	5.631	1.042
636.000	695.168	79.996	19.995	100.123	19.971	5.672	1.018
640.000	699.248	79.997	19.995	100.122	19.969	5.763	1.003
644.000	703.248	79.998	19.995	100.124	19.973	5.572	1.008
648.000	707.267	79.995	19.995	100.128	19.968	5.851	0.995
652.000	711.318	79.995	19.995	100.125	19.970	5.714	0.991
656.000	715.370	79.995	19.995	100.125	19.970	5.749	1.030
660.000	719.437	79.993	19.996	100.126	19.969	5.775	1.016
664.000	723.445	79.995	19.997	100.124	19.970	5.742	1.034
668.000	727.411	79.996	19.996	100.123	19.971	5.673	0.976
672.000	731.425	79.996	19.997	100.114	19.970	5.729	1.016
676.000	735.390	79.995	19.996	100.106	19.968	5.818	0.994
678.000	737.398	79.995	19.996	100.104	19.967	5.920	1.024