File: 01_Data/Cotton_Sheets/Cone/Cotton_Sheet_Cone_HF25Scan_220429_R2.csv
Names,Time,Stack TC,Smoke TC,Exh Press,Smoke Comp,Smoke Meas,CO Meter,CO2 Meter,O2 Meter,Sample Mass,Ext Coeff,Start Test,Flame Verif
Chan Gain,,500,500,1,1,1,1,1,1,1,1,1.0,1.0
Offset,,0,0,0.138979,0,0,0,0,0,0,0,0.0,0.0
Gain,,1,1,25.011,14.099,15.1965,1,1,1,1.00087,0.986176,1.0,1.0
Units,sec,C,C,Pa,%,%,%,%,%,g,/m,,
Baseline,,18.4103,18.9511,157.204,105.214,101.25,0.00087714,0.054708,21.0145,-833.86,0.332198,,
7,1.5,16.6319,17.4504,154.258,105.523,101.582,0.000811884,0.0580478,21.0094,190.385,0.329242,0.0,0.0
14,3.25,16.9149,17.5279,158.85,105.524,101.3,0.000850203,0.0575348,21.0098,190.385,0.353389,0.0,0.0
21,5,17.1457,17.3176,158.69,105.537,101.234,0.000806047,0.0567927,21.0089,190.375,0.360151,0.0,0.0
28,6.75,16.9959,18.0572,156.78,105.532,101.103,0.000739066,0.0560403,21.0083,190.365,0.370876,0.0,0.0
35,8.5,16.4271,17.4614,153.111,105.52,100.443,0.000811758,0.0568186,21.0071,190.345,0.426571,0.0,0.0
42,10.25,16.8572,18.1861,156.109,105.542,101.197,0.00109625,0.0758037,20.9911,190.245,0.363667,0.0,0.0
49,12,17.1051,17.3119,138.921,105.543,104.465,0.00140694,0.151802,20.9072,189.995,0.088822,0.0,1.0
56,13.75,18.2717,18.9279,132.94,105.536,106.223,0.00166584,0.242946,20.8012,189.815,-0.056116,0.0,1.0
63,15.5,19.7096,19.8401,137.116,105.52,105.01,0.00194035,0.302177,20.744,189.695,0.0418761,0.0,1.0
70,17.25,20.6225,21.0637,146.176,105.525,103.381,0.00236624,0.305204,20.7348,189.585,0.177598,0.0,0.0
77,19,21.5875,22.0707,150.874,105.501,102.281,0.00306393,0.262137,20.7652,189.535,0.26813,0.0,0.0
84,20.75,21.7177,22.2674,153.711,105.5,101.665,0.0041084,0.206345,20.8261,189.525,0.320306,0.0,0.0
91,22.5,21.9988,22.5075,155.729,105.489,101.682,0.00495949,0.160722,20.8798,189.525,0.318039,0.0,0.0
98,24.25,21.5816,22.5764,154.929,105.458,101.53,0.00576843,0.123874,20.9278,189.505,0.328409,0.0,0.0
105,26,21.8635,22.2648,153.273,105.454,101.497,0.00624792,0.100872,20.9552,189.505,0.330788,0.0,0.0
112,27.75,21.5575,22.3314,156.121,105.443,101.544,0.00647873,0.0870415,20.9759,189.495,0.325989,0.0,0.0
119,29.5,21.3904,21.3041,161.069,105.435,101.542,0.00630883,0.0792208,20.9866,189.505,0.325436,0.0,0.0
126,31.25,20.9089,21.38,161.676,105.417,101.482,0.00580707,0.0730126,20.9953,189.485,0.329091,0.0,0.0
133,33,20.5754,21.3163,154.446,105.432,101.484,0.00502517,0.0678376,21.0026,189.485,0.330134,0.0,0.0
140,34.75,20.2361,21.1726,156.302,105.413,101.577,0.00420731,0.0632766,21.0094,189.505,0.320638,0.0,0.0
147,36.5,20.2094,20.9323,163.222,105.397,101.393,0.00327377,0.0598898,21.0134,189.515,0.335061,0.0,0.0
154,38.25,20.1366,21.0596,157.818,105.393,101.489,0.00255896,0.0576171,21.0161,189.505,0.326561,0.0,0.0
161,40,20.0432,20.5571,155.339,105.38,101.337,0.00194535,0.0559627,21.0179,189.505,0.338397,0.0,0.0
168,41.75,19.3439,20.1717,155.551,105.367,101.444,0.00145293,0.0548202,21.0193,189.505,0.328242,0.0,0.0
175,43.5,19.9968,20.2,162.205,105.35,101.433,0.00112224,0.0539479,21.0208,189.495,0.327777,0.0,0.0
182,45.25,19.9303,20.2699,158.593,105.356,101.485,0.000941702,0.053267,21.0216,189.475,0.323839,0.0,0.0
189,47,19.4278,20.3059,160.283,105.322,101.442,0.000908071,0.0526328,21.022,189.485,0.324721,0.0,0.0
196,48.75,19.0732,19.9982,157.254,105.324,101.39,0.00094086,0.0518764,21.0231,189.475,0.329332,0.0,0.0
203,50.5,19.7552,20.0388,155.321,105.324,101.497,0.000992041,0.0512599,21.0239,189.475,0.320236,0.0,0.0
210,52.25,18.3952,19.7999,155.705,105.307,101.402,0.000997885,0.0508677,21.0255,189.475,0.32689,0.0,0.0
217,54,19.7131,19.9087,158.318,105.301,101.38,0.000916831,0.0504898,21.0263,189.485,0.328219,0.0,0.0
224,55.75,19.1325,20.1064,154.654,105.298,101.376,0.000847064,0.0502354,21.0257,189.465,0.328328,0.0,0.0
231,57.5,19.2896,19.7569,155.316,105.313,101.37,0.000835915,0.0500774,21.0252,189.465,0.330039,0.0,0.0
238,59.25,18.6481,20.0759,157.387,105.284,101.428,0.000853241,0.0501236,21.0249,189.485,0.322801,0.0,0.0
245,61,18.4989,19.757,159.018,105.267,101.391,0.000856408,0.0501965,21.0248,189.485,0.324476,0.0,0.0
252,62.75,18.7731,19.2876,153.04,105.261,101.454,0.00082374,0.0501729,21.0244,189.465,0.318712,0.0,0.0
259,64.5,19.1026,19.2407,156.49,105.263,101.346,0.000822206,0.0501243,21.0241,189.485,0.328037,0.0,0.0
266,66.25,18.8125,19.0219,157.135,105.244,101.432,0.000885075,0.0499954,21.0244,189.475,0.31912,0.0,0.0
273,68,18.7508,18.9178,157.863,105.238,101.421,0.000936468,0.0498429,21.0254,189.465,0.31961,0.0,0.0
280,69.75,18.9425,19.5494,156.066,105.214,101.339,0.000874333,0.049705,21.0259,189.465,0.324629,0.0,0.0
287,71.5,18.2852,19.8696,157.117,105.221,101.356,0.000773497,0.0497315,21.0261,189.435,0.32381,0.0,0.0
294,73.25,18.6591,18.8823,154.633,105.214,101.292,0.000722004,0.0498817,21.0266,189.405,0.328558,0.0,0.0
301,75,18.1946,19.1268,155.012,105.202,101.323,0.000641473,0.0500351,21.0269,189.405,0.325025,0.0,0.0
308,76.75,17.7003,19.0411,158.697,105.177,101.228,0.000533958,0.0504385,21.0262,189.395,0.331133,0.0,0.0
315,78.5,18.3624,19.0456,156.414,105.184,101.327,0.000446493,0.0508684,21.0255,189.435,0.323147,0.0,0.0
322,80.25,18.6083,18.7555,158.005,105.171,101.266,0.00046622,0.0513086,21.0242,189.405,0.327348,0.0,0.0
329,82,17.933,18.8501,156.959,105.15,101.35,0.000513148,0.0516568,21.0233,189.415,0.318407,0.0,0.0
336,83.75,17.6309,18.4645,155.583,105.151,101.331,0.000560877,0.0519567,21.0229,189.375,0.3201,0.0,0.0
343,85.5,17.6731,18.8729,155.394,105.132,101.327,0.000648156,0.052184,21.0223,189.405,0.318864,0.0,0.0
350,87.25,18.0169,18.4632,157.361,105.139,101.287,0.000738,0.0524404,21.0212,189.405,0.322872,0.0,0.0
357,89,18.1226,18.7254,155.03,105.128,101.192,0.000779665,0.0525042,21.0206,189.405,0.330038,0.0,0.0
364,90.75,18.0387,18.2574,161.514,105.119,101.271,0.000766649,0.0524978,21.0201,189.425,0.322629,0.0,0.0
371,92.5,18.0564,18.1505,155.547,105.105,101.344,0.000743589,0.0524868,21.0199,189.405,0.315168,0.0,0.0
378,94.25,17.9023,18.6297,155.208,105.106,101.248,0.000762704,0.0525306,21.0198,189.425,0.323508,0.0,0.0
385,96,17.8542,18.5392,156.786,105.125,101.174,0.000788555,0.0525555,21.0198,189.435,0.331413,0.0,0.0
392,97.75,18.3491,18.3339,157.003,105.188,101.402,0.000791995,0.0525158,21.0197,189.405,0.317128,0.0,0.0
399,99.5,17.8667,18.3725,157.277,105.252,101.298,0.000781102,0.0525505,21.0197,189.395,0.33127,0.0,0.0
406,101.25,17.4568,18.5277,157.074,105.325,101.591,0.000732595,0.0526077,21.0197,189.415,0.312211,0.0,0.0
413,103,17.9802,18.5466,156.634,105.396,101.505,0.000641314,0.0526869,21.0197,189.445,0.325389,0.0,0.0
420,104.75,17.8521,18.3563,157.746,105.444,101.586,0.000596388,0.0526958,21.0193,189.455,0.322469,0.0,0.0
427,106.5,17.8303,18.4318,157.23,105.495,101.497,0.000664777,0.0527039,21.0191,189.435,0.33418,0.0,0.0
434,108.25,17.7472,17.9447,157.395,105.526,101.675,0.000720238,0.0526951,21.019,189.445,0.321594,0.0,0.0
441,110,17.6106,18.279,158.621,105.57,101.67,0.000716017,0.0527475,21.0189,189.445,0.32566,0.0,0.0
448,111.75,18.0032,18.1247,155.958,105.619,101.82,0.00071575,0.0528098,21.0189,189.455,0.316904,0.0,0.0
455,113.5,17.8576,18.1933,160.879,105.649,101.765,0.000763848,0.0528241,21.0192,189.445,0.32406,0.0,0.0
462,115.25,16.5754,18.0066,158.028,105.686,101.857,0.00075113,0.0527936,21.0196,189.455,0.319248,0.0,0.0
469,117,17.8093,18.3288,160.522,105.712,101.715,0.000635126,0.0528417,21.0199,189.455,0.333418,0.0,0.0
476,118.75,17.6946,18.5862,159.805,105.748,101.849,0.000553656,0.0528607,21.0201,189.445,0.325027,0.0,0.0
483,120.5,17.0362,18.434,157.084,105.783,101.922,0.000530739,0.0528547,21.0202,189.435,0.321617,0.0,0.0
490,122.25,17.6707,17.935,154.991,105.801,101.99,0.000528523,0.0528946,21.0202,189.435,0.317424,0.0,0.0
497,124,18.0006,18.1571,158.128,105.816,102.036,0.000578606,0.0528568,21.0204,189.435,0.314652,0.0,0.0
504,125.75,17.5755,18.3594,156.913,105.865,101.919,0.000631213,0.0528835,21.021,189.425,0.328649,0.0,0.0
511,127.5,17.9812,18.4338,160.784,105.876,102.044,0.000701869,0.0528633,21.0214,189.415,0.318907,0.0,0.0
518,129.25,17.7802,18.6566,153.988,105.893,102.184,0.000831977,0.0528222,21.0215,189.425,0.308443,0.0,0.0
525,131,17.6084,18.3056,159.392,105.892,102.124,0.000951112,0.0528847,21.0216,189.415,0.313482,0.0,0.0
532,132.75,17.6666,18.1831,153.139,105.909,102.098,0.000950701,0.0528871,21.0216,189.425,0.317049,0.0,0.0
539,134.5,17.7515,17.8959,155.538,105.911,102.192,0.000772784,0.0527812,21.021,189.425,0.309217,0.0,0.0
546,136.25,17.9811,18.5172,155.475,105.922,102.098,0.000521997,0.0526363,21.0199,189.425,0.318143,0.0,0.0
553,138,17.5446,18.286,157.23,105.917,102.059,,0.0525351,,189.425,0.321023,0.0,0.0
560,139.75,17.7544,17.8957,162.726,105.918,101.968,,0.0524867,,189.425,0.328766,0.0,0.0
567,141.5,16.8483,17.8008,158.646,105.932,102.131,,,,189.425,0.316088,0.0,0.0
574,143.25,17.2338,17.9465,161.757,105.922,102.099,,,,189.425,0.31799,0.0,0.0
581,145,17.2036,17.6061,158.473,105.914,102.079,,,,189.425,0.318972,0.0,0.0
588,146.75,17.5382,18.6788,157.596,105.9,102.056,,,,189.415,0.319888,0.0,0.0
595,148.5,17.6032,17.746,156.894,105.901,102.145,,,,189.415,0.312414,0.0,0.0