File: 01_Data/Cotton_Sheets/Cone/Cotton_Sheet_Cone_HF25Scan_220429_R1.csv
Names,Time,Stack TC,Smoke TC,Exh Press,Smoke Comp,Smoke Meas,CO Meter,CO2 Meter,O2 Meter,Sample Mass,Ext Coeff,Start Test,Flame Verif
Chan Gain,,500,500,1,1,1,1,1,1,1,1,1.0,1.0
Offset,,0,0,0.138979,0,0,0,0,0,0,0,0.0,0.0
Gain,,1,1,25.011,14.099,15.1965,1,1,1,1.00087,0.986176,1.0,1.0
Units,sec,C,C,Pa,%,%,%,%,%,g,/m,,
Baseline,,16.7992,17.2332,158.386,105.871,101.981,0.000911645,0.0482146,21.0306,-833.698,0.323797,,
6,1.25,15.4459,15.1017,159.688,105.368,101.508,0.000718897,0.0521396,21.0261,187.263,0.322891,0.0,0.0
12,2.75,15.2158,15.0574,153.234,105.386,101.246,0.000826575,0.0520991,21.0264,187.233,0.346699,0.0,0.0
18,4.25,15.0463,15.2778,162.338,105.408,101.393,0.000949251,0.0520734,21.0265,187.223,0.335983,0.0,0.0
24,5.75,15.3407,15.595,155.223,105.428,101.266,0.00103414,0.0520106,21.0253,187.203,0.348455,0.0,0.0
30,7.25,15.2854,15.4529,156.964,105.435,100.807,0.00109456,0.0543487,21.0194,187.213,0.388286,0.0,0.0
36,8.75,15.5712,15.8423,153.134,105.449,101.667,0.00116886,0.0750881,21.0002,187.133,0.315944,0.0,1.0
42,10.25,15.7038,16.0524,146.313,105.458,103.41,0.00132934,0.134645,20.9542,187.023,0.169649,0.0,1.0
48,11.75,16.3213,16.8782,141.987,105.481,104.06,0.00156314,0.194852,20.8723,186.842,0.117338,0.0,1.0
54,13.25,17.4797,17.5223,144.141,105.481,104.56,0.00177536,0.263538,20.7946,186.622,0.0758769,0.0,1.0
60,14.75,18.4626,18.0859,140.891,105.477,104.115,0.00195562,0.305077,20.7533,186.512,0.112429,0.0,0.0
66,16.25,19.6546,19.0111,144.929,105.492,103.177,0.0022632,0.306345,20.7408,186.392,0.191935,0.0,0.0
72,17.75,20.5187,20.085,151.69,105.483,102.091,0.00277612,0.274848,20.77,186.402,0.282705,0.0,0.0
78,19.25,20.6683,21.2169,155.601,105.489,101.731,0.00350839,0.227523,20.8226,186.372,0.313858,0.0,0.0
84,20.75,20.6327,21.1329,155.897,105.489,101.582,0.00433911,0.179031,20.8816,186.372,0.32649,0.0,0.0
90,22.25,20.6863,20.85,156.415,105.496,101.803,0.00488943,0.140042,20.9158,186.362,0.308312,0.0,0.0
96,23.75,20.7015,20.6939,156.994,105.486,101.748,0.00538704,0.113607,20.9441,186.372,0.312081,0.0,0.0
102,25.25,20.1417,20.6436,161.266,105.506,101.736,0.00567569,0.0991316,20.9638,186.362,0.3148,0.0,0.0
108,26.75,20.1381,20.6855,157.251,105.506,101.712,0.00582259,0.088365,20.9765,186.362,0.316815,0.0,0.0
114,28.25,19.2897,19.8403,158.709,105.523,101.639,0.00584483,0.0823396,20.9842,186.352,0.324346,0.0,0.0
120,29.75,19.287,20.0651,159.33,105.505,101.762,0.00573843,0.0781709,20.9893,186.352,0.312486,0.0,0.0
126,31.25,19.3995,19.8014,157.364,105.532,101.67,0.005432,0.07462,20.9933,186.342,0.322442,0.0,0.0
132,32.75,18.0906,19.3272,157.154,105.499,101.73,0.00498251,0.071179,20.9977,186.332,0.314708,0.0,0.0
138,34.25,19.716,19.6038,161.195,105.514,101.848,0.00450645,0.0682995,21.0013,186.322,0.305897,0.0,0.0
144,35.75,18.6886,19.7931,155.169,105.495,101.731,0.00395246,0.0661624,21.0032,186.352,0.314317,0.0,0.0
150,37.25,18.9404,19.3865,156.591,105.49,101.766,0.00319622,0.0643252,21.0055,186.342,0.310856,0.0,0.0
156,38.75,18.8407,19.2838,155.009,105.473,101.695,0.00254102,0.0625827,21.0076,186.332,0.315514,0.0,0.0
162,40.25,18.2437,18.6899,159.998,105.474,101.682,0.0020191,0.0606908,21.0096,186.342,0.316694,0.0,0.0
168,41.75,19.0842,19.2329,156.885,105.452,101.617,0.00163146,0.0588836,21.0124,186.312,0.320459,0.0,0.0
174,43.25,18.5669,18.4379,159.406,105.429,101.581,0.00134986,0.0573358,21.0145,186.342,0.321663,0.0,0.0
180,44.75,18.7431,19.3471,161.781,105.421,101.727,0.00110855,0.056182,21.0156,186.332,0.308522,0.0,0.0
186,46.25,18.6153,19.2239,157.931,105.394,101.567,0.000876411,0.0553144,21.0162,186.332,0.319914,0.0,0.0
192,47.75,18.3346,18.998,163.856,105.361,101.719,0.000695952,0.054834,21.017,186.332,0.304287,0.0,0.0
198,49.25,18.0336,18.9446,156.569,105.338,101.718,0.000596522,0.0545353,21.0182,186.342,0.302494,0.0,0.0
204,50.75,17.9189,19.0667,153.425,105.297,101.629,0.000643559,0.0544308,21.0188,186.342,0.306716,0.0,0.0
210,52.25,18.4097,19.1049,154.591,105.264,101.539,0.000777358,0.0548094,21.0191,186.332,0.311651,0.0,0.0
216,53.75,17.6762,18.9775,157.305,105.234,101.415,0.000902283,0.0552215,21.0193,186.332,0.31977,0.0,0.0
222,55.25,18.2797,18.6334,156.565,105.196,101.452,0.000961283,0.0553667,21.0194,186.332,0.313569,0.0,0.0
228,56.75,17.347,18.6259,159.782,105.172,101.45,0.000979024,0.0552088,21.0194,186.332,0.311706,0.0,0.0
234,58.25,18.0768,18.458,161.426,105.126,101.424,0.000952859,0.0550289,21.0194,186.322,0.310097,0.0,0.0
240,59.75,17.3845,18.3962,153.527,105.109,101.348,0.000861436,0.0546144,21.0202,186.332,0.315245,0.0,0.0
246,61.25,17.7693,18.4315,158.973,105.064,101.297,0.000729065,0.0541254,21.0213,186.332,0.315917,0.0,0.0
252,62.75,17.7553,18.6603,156.192,105.043,101.391,0.000616317,0.0537473,21.0219,186.332,0.30607,0.0,0.0
258,64.25,17.7302,18.198,159.459,105.014,101.403,0.000540764,0.0534092,21.0223,186.312,0.302707,0.0,0.0
264,65.75,17.1934,17.912,160.213,104.99,101.368,0.000503902,0.0531145,21.0224,186.312,0.303729,0.0,0.0
270,67.25,17.4334,18.1003,159.269,104.949,101.25,0.000529692,0.0528705,21.0225,186.322,0.310454,0.0,0.0
276,68.75,17.1059,17.8715,155.778,104.914,101.116,0.000596021,0.0528005,21.0226,186.302,0.318968,0.0,0.0
282,70.25,17.7808,18.4141,162.52,104.872,101.034,0.000718163,0.0527277,21.0226,186.322,0.322548,0.0,0.0
288,71.75,16.8841,17.3187,158.225,104.845,101.215,0.000840497,0.0525977,21.0226,186.312,0.304879,0.0,0.0
294,73.25,17.4687,17.9578,156.951,104.826,101.186,0.000895843,0.0524665,21.0225,186.302,0.305699,0.0,0.0
300,74.75,16.882,18.2465,159.925,104.794,101.151,0.000912038,0.052369,21.0225,186.302,0.30605,0.0,0.0
306,76.25,17.3926,17.701,155.578,104.762,100.98,0.000953181,0.0523366,21.0224,186.302,0.318029,0.0,0.0
312,77.75,17.3501,18.2084,158.48,104.728,100.953,0.00100056,0.0522593,21.0224,186.312,0.317562,0.0,0.0
318,79.25,16.4232,16.9658,162.007,104.719,101.073,0.00104771,0.0523148,21.0224,186.322,0.306533,0.0,0.0
324,80.75,17.1488,18.314,158.21,104.669,100.999,0.00109512,0.052418,21.0224,186.312,0.308762,0.0,0.0
330,82.25,17.1679,17.838,156.39,104.644,101.113,0.00109475,0.0524708,21.0224,186.312,0.296898,0.0,0.0
336,83.75,17.4255,18.1425,157.505,104.609,100.876,0.00100286,0.0525774,21.0224,186.312,0.31435,0.0,0.0
342,85.25,16.6082,17.979,156.826,104.579,100.787,0.000869524,0.0526914,21.0224,186.312,0.319495,0.0,0.0
348,86.75,16.9033,17.6951,157.724,104.554,100.795,0.000769358,0.0527683,21.0224,186.322,0.316722,0.0,0.0
354,88.25,16.9802,17.2158,157.09,104.532,100.816,0.000703641,0.0527302,21.0224,186.312,0.313151,0.0,0.0
360,89.75,16.7078,17.3508,157.752,104.489,100.793,0.000647723,0.0527685,21.0224,186.322,0.311499,0.0,0.0
366,91.25,16.8534,17.5009,156.622,104.455,100.816,0.000627646,0.0527502,21.0224,186.322,0.3067,0.0,0.0
372,92.75,17.3277,18.1663,158.261,104.415,100.704,0.000626748,0.0526469,21.0224,186.322,0.313016,0.0,0.0
378,94.25,17.0371,17.5113,157.529,104.4,100.622,0.000592168,0.0524916,21.0224,186.312,0.318826,0.0,0.0
384,95.75,16.8213,17.8395,155.587,104.369,100.715,0.000499966,0.0525578,21.0221,186.332,0.30836,0.0,0.0
390,97.25,17.0707,17.9079,155.99,104.351,100.651,0.000441572,0.0526429,21.0219,186.352,0.312286,0.0,0.0
396,98.75,16.7934,17.6065,155.483,104.303,100.659,0.000455424,0.0527242,21.0219,186.372,0.307647,0.0,0.0
402,100.25,16.7675,17.3618,159.281,104.286,100.491,0.00054361,0.0528072,21.0218,186.322,0.3207,0.0,0.0
408,101.75,16.9422,17.6777,152.542,104.237,100.635,0.000677024,0.0528662,21.0218,186.282,0.304183,0.0,0.0
414,103.25,17.0063,17.4729,160.579,104.229,100.619,0.00078115,0.052822,21.0213,186.322,0.304936,0.0,0.0
420,104.75,16.2712,17.2595,159.104,104.185,100.611,0.000823117,0.0527833,21.0205,186.302,0.301934,0.0,0.0
426,106.25,16.1248,16.9046,154.419,104.168,100.334,0.000739094,0.0528009,21.02,186.282,0.324419,0.0,0.0
432,107.75,16.7402,17.4759,155.71,104.142,100.491,0.000603907,0.0528887,21.0198,186.292,0.308731,0.0,0.0
438,109.25,16.3772,17.3471,158.754,104.122,100.631,0.000488598,0.0529756,21.0196,186.312,0.295039,0.0,0.0
444,110.75,17.4402,18.262,159.183,104.111,100.404,0.000423018,0.0530537,21.0195,186.322,0.313626,0.0,0.0
450,112.25,16.8836,17.5007,156.739,104.09,100.548,0.000410952,0.0532646,21.0195,186.322,0.299501,0.0,0.0
456,113.75,16.8351,17.9217,156.95,104.099,100.453,0.000461111,0.0535698,21.0195,186.322,0.308395,0.0,0.0
462,115.25,17.0126,17.5096,156.403,104.068,100.293,0.00051102,0.0537002,21.0195,186.312,0.319685,0.0,0.0
468,116.75,16.7516,17.0526,154.848,104.046,100.434,0.000521592,0.0536583,21.0195,186.322,0.30567,0.0,0.0
474,118.25,16.1087,17.1514,161.662,104.036,100.399,0.000498237,0.0536583,21.0205,186.312,0.307772,0.0,0.0
480,119.75,17.1323,17.8495,160.692,104.035,100.484,0.000522282,0.0536791,21.0211,186.322,0.300466,0.0,0.0
486,121.25,16.7986,17.1528,155.512,104.029,100.391,0.000579912,0.0537253,21.0206,186.312,0.307877,0.0,0.0
492,122.75,16.5886,17.2758,157.931,104.025,100.35,0.000665448,0.0536824,21.0201,186.312,0.311154,0.0,0.0
498,124.25,16.84,17.4161,157.901,104.021,100.336,0.000752449,0.0537987,21.0198,186.302,0.31199,0.0,0.0
504,125.75,16.9549,17.2908,158.146,104.019,100.303,0.000835725,0.0538223,21.0197,186.322,0.314687,0.0,0.0
510,127.25,16.5476,17.2925,158.621,104.024,100.376,0.000902236,0.0537716,21.0196,186.322,0.308843,0.0,0.0
516,128.75,16.5626,17.271,160.659,104.024,100.435,0.000940967,0.0536443,21.02,186.332,0.303724,0.0,0.0
522,130.25,16.5324,17.2925,155.037,104.018,100.331,0.000918976,0.0534389,21.0208,186.332,0.312256,0.0,0.0
528,131.75,16.5474,17.075,154.13,104.039,100.466,0.000877606,0.0532874,21.0212,186.342,0.302345,0.0,0.0
534,133.25,16.4456,16.938,159.111,104.035,100.414,0.000819628,0.0531488,21.0212,186.322,0.306461,0.0,0.0
540,134.75,16.8605,17.3697,162.723,104.055,100.459,0.000746198,0.0530475,21.0204,186.312,0.304268,0.0,0.0
546,136.25,16.5202,17.5143,155.013,104.065,100.346,,0.0530375,,186.312,0.314796,0.0,0.0
552,137.75,16.1446,16.7997,154.774,104.086,100.351,,0.0531267,,186.322,0.316152,0.0,0.0
558,139.25,16.4877,17.2569,157.113,104.09,100.396,,,,186.302,0.312633,0.0,0.0
564,140.75,16.8648,17.1308,158.188,104.12,100.576,,,,186.302,0.299565,0.0,0.0
570,142.25,16.6067,17.3273,159.135,104.122,100.58,,,,186.312,0.299425,0.0,0.0
576,143.75,16.1535,16.602,156.087,104.15,100.475,,,,186.312,0.310768,0.0,0.0
582,145.25,16.3488,16.9859,157.056,104.172,100.485,,,,186.312,0.311752,0.0,0.0
587,146.5,16.6482,16.9052,157.986,104.193,100.632,,,,186.292,0.300895,0.0,0.0