File: 01_Data/Cotton_Sheets/Cone/Cotton_Sheet_Cone_HF75Scan_220429_R1.csv
Names,Time,Stack TC,Smoke TC,Exh Press,Smoke Comp,Smoke Meas,CO Meter,CO2 Meter,O2 Meter,Sample Mass,Ext Coeff,Start Test,Flame Verif
Chan Gain,,500,500,1,1,1,1,1,1,1,1,1.0,1.0
Offset,,0,0,0.138979,0,0,0,0,0,0,0,0.0,0.0
Gain,,1,1,25.011,14.099,15.1965,1,1,1,1.00087,0.986176,1.0,1.0
Units,sec,C,C,Pa,%,%,%,%,%,g,/m,,
Baseline,,38.0124,39.5413,145.226,106.182,103.594,0.000670199,0.0495671,21.0269,-836.031,0.213468,,
6,1.25,35.7771,37.057,147.832,105.788,101.295,0.00143259,0.0911823,20.9499,184.701,0.375385,0.0,0.0
12,2.75,35.6142,36.6041,105.158,105.745,108.225,0.00219355,0.237376,20.7598,184.63,-0.200556,0.0,1.0
18,4.25,38.5033,38.8971,117.404,105.72,105.266,0.00304584,0.395612,20.6588,184.11,0.0371972,0.0,1.0
24,5.75,41.4006,41.5063,140.523,105.715,104.484,0.00403703,0.435121,20.637,183.98,0.101346,0.0,1.0
30,7.25,42.0041,43.1307,143.704,105.721,103.538,0.00499049,0.391842,20.6893,183.93,0.180449,0.0,0.0
36,8.75,41.8203,43.277,142.234,105.733,103.527,0.0058996,0.30281,20.7876,183.96,0.182403,0.0,0.0
42,10.25,41.7738,43.8855,145.373,105.747,103.457,0.00640874,0.239015,20.8589,183.96,0.189344,0.0,0.0
48,11.75,41.6011,43.6017,143.783,105.745,103.108,0.00635935,0.183042,20.9082,183.95,0.218417,0.0,0.0
54,13.25,40.9678,43.5033,146.004,105.755,103.18,0.0058542,0.143531,20.9447,183.99,0.213233,0.0,0.0
60,14.75,41.0587,42.8174,144.817,105.76,103.49,0.00504818,0.114592,20.9726,183.99,0.187647,0.0,0.0
66,16.25,40.5217,42.7343,144.239,105.778,103.115,0.00415862,0.0938869,20.9905,183.96,0.220543,0.0,0.0
72,17.75,40.3859,42.6418,144.41,105.804,103.051,0.00345216,0.0791984,21.0013,183.96,0.228025,0.0,0.0
78,19.25,40.698,42.9385,146.005,105.794,103.106,0.00269937,0.0700829,21.0103,183.97,0.222658,0.0,0.0
84,20.75,40.2223,42.8232,147.701,105.791,103.146,0.0021447,0.0645115,21.0169,183.94,0.218992,0.0,0.0
90,22.25,40.6864,41.8912,146.753,105.802,102.863,0.00175523,0.0597028,21.0216,183.95,0.243704,0.0,0.0
96,23.75,40.2056,41.677,148.816,105.816,102.978,0.00140737,0.0565036,21.0246,183.97,0.235198,0.0,0.0
102,25.25,40.0362,41.9375,141.326,105.823,103.357,0.00114519,0.0543092,21.0262,183.95,0.203987,0.0,0.0
108,26.75,39.7893,42.0777,144.904,105.841,103.223,0.000949901,0.0528678,21.0277,183.96,0.216654,0.0,0.0
114,28.25,39.6235,41.9462,142.576,105.829,103.431,0.000837343,0.0519926,21.0289,183.93,0.19831,0.0,0.0
120,29.75,40.1055,41.7079,138.939,105.854,103.263,0.00075934,0.0513442,21.0289,183.93,0.21444,0.0,0.0
126,31.25,39.6497,40.7778,145.837,105.848,103.078,0.000684793,0.0509399,21.0296,183.94,0.229351,0.0,0.0
132,32.75,39.8735,41.6383,145.557,105.859,103.303,0.000613286,0.0506666,21.0299,183.93,0.211374,0.0,0.0
138,34.25,39.6291,41.3141,140.34,105.851,103.308,0.000568438,0.0504246,21.0292,183.93,0.210388,0.0,0.0
144,35.75,38.9934,40.8228,148.388,105.874,103.539,0.000556027,0.0501493,21.0286,183.92,0.192898,0.0,0.0
150,37.25,39.4391,41.1376,144.677,105.855,103.476,0.0005307,0.0498791,21.0284,183.94,0.196619,0.0,0.0
156,38.75,38.7862,40.799,145.445,105.88,103.214,0.000504881,0.0497266,21.0282,183.95,0.220596,0.0,0.0
162,40.25,39.3977,41.3284,147.769,105.86,103.457,0.000480264,0.0496701,21.0282,183.92,0.19867,0.0,0.0
168,41.75,39.2139,41.2743,142.289,105.869,103.282,0.000502169,0.0495999,21.0285,183.92,0.21404,0.0,0.0
174,43.25,38.9787,41.0485,142.329,105.856,103.399,0.000588674,0.0494481,21.0286,183.92,0.203133,0.0,0.0
180,44.75,38.7785,40.9974,145.451,105.862,103.281,0.000695363,0.049297,21.0286,183.87,0.213559,0.0,0.0
186,46.25,38.4468,40.7884,145.608,105.863,103.426,0.000739761,0.0492167,21.0286,183.86,0.201475,0.0,0.0
192,47.75,39.2094,40.9113,144.009,105.875,103.229,0.000719048,0.049174,21.0287,183.88,0.218962,0.0,0.0
198,49.25,38.7946,40.7517,147.474,105.871,103.297,0.000698824,0.0491268,21.0287,183.87,0.212864,0.0,0.0
204,50.75,38.7794,40.3554,145.36,105.865,103.302,0.00067884,0.0490344,21.0284,183.88,0.212054,0.0,0.0
210,52.25,38.4418,40.6972,145.75,105.86,103.222,0.000683741,0.0489761,21.0282,183.89,0.218317,0.0,0.0
216,53.75,38.4744,40.2637,148.15,105.859,103.314,0.000723895,0.0489195,21.0287,183.86,0.210555,0.0,0.0
222,55.25,38.7665,40.3425,145.808,105.881,103.321,0.000805515,0.048914,21.0283,183.9,0.211653,0.0,0.0
228,56.75,38.7789,40.3341,148.524,105.856,103.423,0.00085958,0.0489182,21.0281,183.88,0.201075,0.0,0.0
234,58.25,38.2369,40.4732,145.051,105.873,103.232,0.000836743,0.0489712,21.028,183.87,0.218518,0.0,0.0
240,59.75,38.4577,40.4437,145.947,105.883,103.698,0.000769431,0.0489478,21.0279,183.87,0.180431,0.0,0.0
246,61.25,38.2106,40.3844,142.982,105.907,103.278,0.000655913,0.0489692,21.0282,183.87,0.217448,0.0,0.0
252,62.75,38.062,40.135,144.608,105.901,103.148,0.000575662,0.0490072,21.0284,183.86,0.227836,0.0,0.0
258,64.25,38.2767,39.9368,146.866,105.912,103.608,0.00054971,0.0490582,21.0285,183.86,0.190329,0.0,0.0
264,65.75,38.2669,40.2904,143.264,105.918,103.397,0.000545953,0.0491566,21.0294,183.84,0.20838,0.0,0.0
270,67.25,38.2302,40.1167,146.326,105.918,103.448,0.000558776,0.0491421,21.0298,183.85,0.204081,0.0,0.0
276,68.75,37.9903,40.0916,145.096,105.925,103.116,0.000608146,0.0491589,21.0301,183.83,0.23253,0.0,0.0
282,70.25,38.216,39.1757,145.105,105.929,103.539,0.000587711,0.0491475,21.0291,183.84,0.197359,0.0,0.0
288,71.75,38.3707,40.3477,142.875,105.93,103.685,0.000526128,0.0490824,21.0286,183.84,0.185272,0.0,0.0
294,73.25,38.2869,40.6988,149.105,105.944,103.225,0.000480279,0.0490269,21.0283,183.82,0.224899,0.0,0.0
300,74.75,37.9856,39.4907,145.432,105.949,103.604,0.000445617,0.0490611,21.0276,183.85,0.193553,0.0,0.0
306,76.25,38.0439,40.4341,145.202,105.962,103.696,0.000422077,0.0491724,21.0275,183.82,0.187017,0.0,0.0
312,77.75,38.3656,39.9452,145.34,105.955,103.359,0.000414961,0.049277,21.0267,183.84,0.214553,0.0,0.0
318,79.25,37.834,39.9998,143.498,105.973,103.522,0.000431115,0.0493063,21.0262,183.84,0.202447,0.0,0.0
324,80.75,38.2276,39.435,145.034,105.979,103.662,0.000471974,0.0493511,21.026,183.81,0.191242,0.0,0.0
330,82.25,38.3952,39.5354,144.393,105.986,103.255,0.000559996,0.0492716,21.0259,183.8,0.225855,0.0,0.0
336,83.75,37.7544,39.2991,145.582,105.991,103.73,0.000639722,0.0491833,21.0258,183.82,0.186469,0.0,0.0
342,85.25,38.1299,40.0509,143.599,106,103.576,0.000682431,0.0490983,21.0258,183.79,0.200056,0.0,0.0
348,86.75,38.0282,39.9941,145.05,105.986,103.73,0.000712055,0.0489958,21.0262,183.77,0.186194,0.0,0.0
354,88.25,37.764,40.186,148.583,105.998,103.231,0.000756538,0.0489898,21.0266,183.78,0.228854,0.0,0.0
360,89.75,37.9526,39.4046,144.563,106.011,103.367,0.000779043,0.0488519,21.0274,183.74,0.218493,0.0,0.0
366,91.25,38.2484,39.5332,150.883,106.011,103.387,0.000751926,0.0487529,21.0283,183.76,0.216825,0.0,0.0
372,92.75,38.3318,39.2441,141.744,106.004,103.405,0.00072369,0.0487413,21.0284,183.78,0.214785,0.0,0.0
378,94.25,38.3057,39.9077,142.954,106.001,103.535,0.000713881,0.0487327,21.0284,183.76,0.203574,0.0,0.0
384,95.75,38.2434,39.7562,144.191,106.005,103.862,0.00072507,0.0487742,21.0285,183.74,0.176689,0.0,0.0
390,97.25,38.3057,39.297,147.129,105.991,103.532,0.000713435,0.0489156,21.0285,183.75,0.203111,0.0,0.0
396,98.75,38.0691,39.6133,141.791,105.996,103.583,0.000658628,0.0489526,21.0285,183.74,0.199193,0.0,0.0
402,100.25,37.8982,39.6512,148.236,105.98,103.686,0.000542514,0.0491545,21.0285,183.74,0.189303,0.0,0.0
408,101.75,37.8387,39.4453,144.858,105.995,103.343,0.000447096,0.0493397,21.0278,183.73,0.219213,0.0,0.0
414,103.25,38.0367,40.0934,145.876,105.97,103.397,0.000404659,0.049389,21.0274,183.71,0.212561,0.0,0.0
420,104.75,38.2542,39.3677,143.251,105.976,103.396,0.000421906,0.0493484,21.0272,183.71,0.213243,0.0,0.0
426,106.25,37.8165,39.6755,142.219,105.969,103.367,0.000475663,0.0495223,21.0265,183.73,0.215052,0.0,0.0
432,107.75,37.8873,40.044,145.725,105.98,103.259,0.000560456,0.0496436,21.0257,183.71,0.22501,0.0,0.0
438,109.25,37.9826,39.67,141.736,105.941,103.291,0.000681563,0.0496683,21.0254,183.71,0.219133,0.0,0.0
444,110.75,38.0323,39.3428,142.107,105.944,103.409,0.000831375,0.0497691,21.0254,183.72,0.209483,0.0,0.0
450,112.25,38.1975,39.3766,146.481,105.918,103.263,0.000969508,0.0497476,21.0254,183.71,0.219609,0.0,0.0
456,113.75,38.2097,40.4046,148.054,105.928,103.724,0.00109998,0.0497507,21.0254,183.72,0.181842,0.0,0.0
462,115.25,38.0487,39.812,146.875,105.899,102.921,0.00116765,0.0497379,21.0265,183.73,0.246774,0.0,0.0
468,116.75,37.603,39.8095,145.759,105.896,103.308,0.00115013,0.0495418,21.027,183.76,0.214041,0.0,0.0
474,118.25,37.6715,39.8182,144.516,105.884,103.91,0.00105973,0.0494542,21.0273,183.75,0.1628,0.0,0.0
480,119.75,38.2586,39.5807,142.436,105.889,103.461,0.000954058,0.0494746,21.0275,183.71,0.200603,0.0,0.0
486,121.25,37.5874,39.9592,145.771,105.876,103.212,0.000905793,0.0494714,21.0276,183.7,0.220396,0.0,0.0
492,122.75,37.4674,40.1997,148.51,105.876,103.6,,0.0493762,,183.69,0.188,0.0,0.0
498,124.25,38.1104,39.6963,141.862,105.871,103.491,,0.0493011,,183.71,0.196679,0.0,0.0
504,125.75,38.3616,39.3782,143.895,105.867,103.374,,,,183.67,0.206141,0.0,0.0
510,127.25,38.3189,39.4622,144.935,105.848,103.519,,,,183.66,0.192456,0.0,0.0
516,128.75,38.0036,39.7148,145.531,105.85,103.372,,,,183.65,0.204925,0.0,0.0
522,130.25,38.1786,39.5231,146.617,105.839,103.119,,,,183.65,0.225224,0.0,0.0
528,131.75,38.3625,39.7038,147.116,105.838,103.402,,,,183.64,0.201493,0.0,0.0
530,132.25,38.2395,39.6048,145.552,105.842,103.141,,,,183.65,0.223567,0.0,0.0