File: 01_Data/LW_GypBoard_Unpainted_Paper/MCC/LW_GypBoard_Unpainted_Paper_MCC_30K_min_211130_R3.txt
Sample ID:	C:\MCC\MCC Cal\Test\LW_GypBoard_Unpainted_Paper_MCC_30K_min_211130_R3.txt
Sample Weight (mg):	4.82
Heating Rate (C/s):	0.5
Combustor Temp (C):	900
N2 Flow Rate (cc/min):	80
O2 Flow Rate (cc/min):	20
Calibration File:	C:\MCC\MCC Cal\Coeff1 JN10440_30_210304.txt.txt
T Correction Coefficients:	0	1.024463	0
Time Shift (s):	14
*
Time (s)	Temperature (C)	N2 flow rate (cc/min)	O2 flow rate (cc/min)	Flow Rate (cc/min)	Oxygen (%)	HRR (W/g)	Heating rate (C/s)
-0.001	112.221	80.006	19.996	103.115	20.147	-0.293	-0.029
8.000	112.208	80.008	19.994	103.098	20.146	-0.278	0.015
16.000	112.251	80.006	19.994	103.169	20.136	0.380	0.011
24.000	112.525	80.005	19.994	103.177	20.123	1.303	0.066
32.000	113.231	80.006	19.994	103.299	20.113	1.980	0.144
39.999	114.474	80.005	19.995	103.327	20.108	2.259	0.168
47.999	116.084	80.004	19.994	103.339	20.110	2.129	0.207
56.000	118.137	80.005	19.995	103.337	20.105	2.513	0.257
64.000	120.519	80.005	19.995	103.361	20.106	2.441	0.327
71.999	123.196	80.006	19.995	103.365	20.104	2.540	0.370
80.000	126.141	80.007	19.993	103.365	20.105	2.456	0.373
87.999	129.246	80.009	19.994	103.365	20.104	2.529	0.371
96.000	132.588	80.008	19.994	103.364	20.103	2.637	0.415
103.999	136.048	80.003	19.995	103.366	20.107	2.338	0.429
111.999	139.715	80.006	19.994	103.366	20.108	2.268	0.502
119.999	143.463	80.005	19.995	103.365	20.106	2.384	0.458
127.999	147.306	80.005	19.995	103.358	20.110	2.146	0.472
136.000	151.249	80.006	19.995	103.354	20.108	2.279	0.501
144.000	155.213	80.007	19.995	103.353	20.112	2.042	0.522
152.000	159.196	80.007	19.997	103.342	20.112	2.037	0.537
160.000	163.198	80.006	19.995	103.336	20.115	1.844	0.508
168.000	167.220	80.007	19.995	103.324	20.116	1.726	0.494
176.000	171.301	80.006	19.995	103.328	20.116	1.715	0.515
184.000	175.351	80.004	19.994	103.329	20.120	1.451	0.524
192.000	179.282	80.005	19.995	103.317	20.121	1.389	0.511
200.000	183.305	80.007	19.994	103.329	20.121	1.416	0.497
208.000	187.379	80.005	19.995	103.307	20.124	1.222	0.544
216.000	191.292	80.005	19.995	103.296	20.123	1.245	0.496
224.000	195.224	80.007	19.994	103.301	20.129	0.880	0.499
232.000	199.202	80.007	19.994	103.290	20.125	1.146	0.503
240.000	203.156	80.007	19.995	103.293	20.128	0.957	0.494
248.000	207.100	80.006	19.996	103.289	20.128	0.957	0.493
256.000	211.082	80.004	19.996	103.289	20.128	0.913	0.500
264.000	215.011	80.003	19.996	103.293	20.124	1.234	0.496
272.000	218.901	80.006	19.994	103.289	20.125	1.170	0.451
280.000	222.905	80.004	19.994	103.288	20.118	1.585	0.500
288.000	226.833	80.005	19.995	103.288	20.122	1.317	0.494
296.000	230.857	80.004	19.996	103.289	20.115	1.799	0.506
304.000	234.871	80.005	19.993	103.292	20.112	1.981	0.472
312.000	238.872	80.006	19.995	103.291	20.108	2.265	0.500
320.000	242.854	80.005	19.995	103.290	20.100	2.790	0.498
328.000	246.859	80.008	19.994	103.291	20.096	3.066	0.499
336.000	250.895	80.005	19.994	103.286	20.085	3.811	0.510
344.000	254.958	80.004	19.995	103.290	20.074	4.549	0.516
352.000	258.961	80.005	19.996	103.293	20.059	5.576	0.516
360.000	262.951	80.005	19.994	103.300	20.046	6.402	0.501
368.000	266.940	80.005	19.995	103.304	20.025	7.820	0.487
376.000	270.967	80.005	19.994	103.326	20.003	9.308	0.487
384.000	274.962	80.006	19.995	103.330	19.982	10.728	0.493
392.000	278.954	80.008	19.993	103.332	19.956	12.467	0.492
400.000	282.943	80.005	19.995	103.336	19.925	14.536	0.484
408.000	286.992	80.009	19.995	103.364	19.896	16.444	0.529
416.000	290.944	80.004	19.994	103.368	19.859	18.924	0.468
424.000	294.967	80.005	19.995	103.386	19.819	21.638	0.461
432.000	298.985	80.005	19.996	103.407	19.779	24.310	0.545
440.000	303.016	80.003	19.997	103.410	19.738	27.063	0.510
448.000	307.046	80.004	19.994	103.415	19.702	29.459	0.501
456.000	311.061	80.005	19.995	103.435	19.659	32.338	0.494
464.000	315.168	80.007	19.996	103.444	19.618	35.073	0.495
472.000	319.229	80.004	19.995	103.467	19.576	37.891	0.506
480.000	323.311	80.006	19.995	103.485	19.528	41.116	0.511
488.000	327.399	80.006	19.994	103.500	19.475	44.705	0.526
496.000	331.458	80.007	19.994	103.524	19.407	49.249	0.527
504.000	335.572	80.004	19.995	103.555	19.334	54.168	0.507
512.000	339.626	80.004	19.995	103.576	19.252	59.697	0.505
520.000	343.628	80.004	19.995	103.604	19.174	64.953	0.499
528.000	347.660	80.004	19.997	103.610	19.096	70.139	0.495
536.000	351.656	80.006	19.995	103.612	19.049	73.271	0.458
544.000	355.798	80.008	19.996	103.599	19.042	73.705	0.497
552.000	359.922	80.006	19.994	103.548	19.092	70.337	0.495
560.000	364.021	80.005	19.994	103.479	19.216	61.925	0.504
568.000	368.128	80.006	19.994	103.384	19.398	49.769	0.498
576.000	372.247	80.005	19.994	103.303	19.606	35.824	0.475
584.000	376.399	80.004	19.996	103.253	19.800	22.838	0.530
592.000	380.494	80.005	19.995	103.224	19.945	13.197	0.517
600.000	384.613	80.004	19.994	103.220	20.028	7.646	0.515
608.000	388.648	80.005	19.996	103.215	20.068	4.954	0.489
616.000	392.691	80.003	19.996	103.212	20.085	3.821	0.509
624.000	396.777	80.005	19.994	103.218	20.096	3.108	0.470
632.000	400.821	80.005	19.994	103.216	20.097	3.009	0.488
640.000	404.897	80.006	19.994	103.215	20.097	3.024	0.511
648.000	408.880	80.008	19.994	103.213	20.100	2.815	0.516
656.000	412.850	80.005	19.994	103.210	20.101	2.778	0.504
664.000	416.807	80.007	19.994	103.216	20.104	2.564	0.504
672.000	420.851	80.004	19.994	103.213	20.109	2.194	0.509
680.000	424.903	80.005	19.995	103.233	20.117	1.688	0.483
688.000	429.020	80.004	19.994	103.214	20.118	1.622	0.536
696.000	433.117	80.002	19.995	103.214	20.122	1.363	0.510
704.000	437.192	80.007	19.994	103.213	20.124	1.233	0.545
712.000	441.267	80.005	19.997	103.209	20.130	0.797	0.496
720.000	445.345	80.005	19.995	103.205	20.136	0.442	0.555
728.000	449.364	80.005	19.994	103.209	20.140	0.130	0.476
736.000	453.436	80.004	19.994	103.201	20.140	0.114	0.489
744.000	457.577	80.006	19.995	103.209	20.144	-0.136	0.534
752.000	461.598	80.003	19.994	103.213	20.148	-0.423	0.510
760.000	465.634	80.003	19.995	103.206	20.154	-0.764	0.488
768.000	469.780	80.003	19.995	103.211	20.156	-0.922	0.512
776.000	473.879	80.007	19.995	103.200	20.158	-1.043	0.520
784.000	478.020	80.007	19.994	103.190	20.162	-1.327	0.509
792.000	482.101	80.005	19.995	103.189	20.166	-1.614	0.480
800.000	486.272	80.005	19.995	103.198	20.166	-1.599	0.525
808.000	490.372	80.010	19.994	103.181	20.170	-1.852	0.515
816.000	494.498	80.004	19.995	103.200	20.169	-1.805	0.499
824.000	498.626	80.004	19.994	103.200	20.173	-2.087	0.511
832.000	502.720	80.005	19.995	103.193	20.179	-2.466	0.524
840.000	506.806	80.005	19.996	103.190	20.175	-2.215	0.513
848.000	510.777	80.003	19.995	103.178	20.178	-2.411	0.449
856.000	514.834	80.001	19.995	103.179	20.181	-2.622	0.495
864.000	518.962	80.006	19.995	103.174	20.183	-2.717	0.512
872.000	523.055	80.005	19.995	103.175	20.181	-2.567	0.472
880.000	526.926	80.005	19.994	103.174	20.185	-2.874	0.436
888.000	531.263	80.006	19.996	103.177	20.185	-2.857	0.306
896.000	535.432	80.004	19.996	103.193	20.188	-3.038	0.406
904.000	539.566	80.005	19.995	103.182	20.183	-2.726	0.553
912.000	543.784	80.004	19.996	103.179	20.188	-3.036	0.561
920.000	548.025	80.005	19.995	103.184	20.187	-3.028	0.534
928.000	552.254	80.004	19.995	103.175	20.187	-3.006	0.503
936.000	556.528	80.004	19.995	103.177	20.188	-3.054	0.532
944.000	560.655	80.005	19.995	103.181	20.186	-2.938	0.516
952.000	564.821	80.005	19.994	103.175	20.189	-3.162	0.523
960.000	568.837	80.006	19.994	103.177	20.192	-3.362	0.506
968.000	572.823	80.006	19.995	103.175	20.194	-3.450	0.504
976.000	576.888	80.004	19.995	103.177	20.193	-3.402	0.501
984.000	581.027	80.004	19.996	103.173	20.192	-3.351	0.532
992.000	585.152	80.004	19.995	103.172	20.194	-3.452	0.481
1000.000	589.411	80.004	19.993	103.175	20.193	-3.389	0.539
1008.000	593.688	80.002	19.995	103.176	20.194	-3.464	0.526
1016.000	597.936	80.005	19.995	103.178	20.194	-3.492	0.516
1024.000	602.096	80.007	19.995	103.177	20.196	-3.627	0.533
1031.999	606.188	80.006	19.994	103.170	20.194	-3.484	0.527
1039.999	610.160	80.007	19.996	103.171	20.196	-3.596	0.484
1047.999	614.207	80.007	19.996	103.174	20.194	-3.495	0.494
1055.999	618.331	80.004	19.995	103.173	20.192	-3.351	0.532
1064.000	622.487	80.003	19.995	103.175	20.197	-3.644	0.529
1071.999	626.580	80.003	19.995	103.179	20.193	-3.369	0.531
1079.999	630.760	80.002	19.995	103.177	20.193	-3.418	0.532
1087.999	634.968	80.002	19.995	103.177	20.197	-3.653	0.564
1095.999	639.016	80.006	19.995	103.173	20.195	-3.538	0.497
1103.999	643.122	80.006	19.995	103.173	20.195	-3.554	0.493
1111.999	647.118	80.003	19.995	103.171	20.195	-3.517	0.514
1120.000	651.200	80.004	19.994	103.180	20.192	-3.352	0.489
1127.999	655.286	80.004	19.993	103.173	20.194	-3.485	0.496
1135.999	659.316	80.003	19.998	103.186	20.193	-3.426	0.512
1143.999	663.330	80.003	19.995	103.182	20.193	-3.373	0.496
1151.999	667.296	80.003	19.995	103.177	20.198	-3.739	0.480
1159.999	671.424	80.004	19.998	103.194	20.204	-4.130	0.285
1167.999	675.446	80.005	19.995	103.189	20.196	-3.575	0.483
1175.999	679.479	80.006	19.995	103.194	20.196	-3.628	0.350
1183.999	683.478	80.004	19.994	103.193	20.200	-3.857	0.495
1191.999	687.543	80.004	19.994	103.187	20.197	-3.695	0.492
1199.999	691.567	80.006	19.994	103.200	20.197	-3.657	0.505
1208.000	695.617	80.005	19.994	103.178	20.195	-3.558	0.501
1216.000	699.599	80.003	19.995	103.173	20.199	-3.827	0.512
1223.999	703.588	80.006	19.995	103.173	20.198	-3.748	0.475
1231.999	707.639	80.005	19.995	103.172	20.201	-3.933	0.517
1239.999	711.694	80.003	19.995	103.171	20.200	-3.845	0.502
1247.999	715.767	80.002	19.995	103.173	20.198	-3.735	0.563
1255.999	719.735	80.005	19.997	103.173	20.203	-4.080	0.504
1264.000	723.728	80.005	19.995	103.174	20.198	-3.708	0.495
1271.999	727.737	80.004	19.994	103.169	20.199	-3.771	0.506
1280.000	731.733	80.006	19.996	103.167	20.198	-3.713	0.511
1287.999	735.651	80.004	19.993	103.165	20.198	-3.737	0.468
1295.999	739.693	80.004	19.994	103.164	20.194	-3.475	0.502
1303.499	743.490	80.005	19.995	103.170	20.195	-3.524	0.503