File: 01_Data/LW_GypBoard_Unpainted_Paper/MCC/LW_GypBoard_Unpainted_Paper_MCC_30K_min_211130_R2.txt
Sample ID:	C:\MCC\MCC Cal\Test\LW_GypBoard_Unpainted_Paper_MCC_30K_min_211130_R2.txt
Sample Weight (mg):	4.81
Heating Rate (C/s):	0.5
Combustor Temp (C):	900
N2 Flow Rate (cc/min):	80
O2 Flow Rate (cc/min):	20
Calibration File:	C:\MCC\MCC Cal\Coeff1 JN10440_30_210304.txt.txt
T Correction Coefficients:	0	1.024463	0
Time Shift (s):	14
*
Time (s)	Temperature (C)	N2 flow rate (cc/min)	O2 flow rate (cc/min)	Flow Rate (cc/min)	Oxygen (%)	HRR (W/g)	Heating rate (C/s)
-0.001	109.419	80.008	19.993	103.122	20.074	0.092	0.009
8.000	109.411	80.007	19.994	103.158	20.067	0.551	0.007
16.000	109.497	80.009	19.994	103.235	20.053	1.528	0.001
24.000	110.024	80.007	19.995	103.293	20.041	2.324	0.101
32.000	111.014	80.007	19.995	103.319	20.038	2.511	0.158
39.999	112.399	80.008	19.994	103.327	20.037	2.555	0.161
47.999	114.179	80.008	19.995	103.325	20.030	3.017	0.225
55.999	116.167	80.007	19.996	103.357	20.031	2.988	0.256
63.999	118.473	80.007	19.995	103.359	20.031	2.964	0.324
71.999	121.036	80.006	19.994	103.348	20.030	3.048	0.336
79.999	123.800	80.007	19.994	103.357	20.029	3.114	0.330
88.000	126.636	80.004	19.995	103.369	20.028	3.189	0.361
95.999	129.690	80.005	19.993	103.368	20.025	3.414	0.391
103.999	132.905	80.009	19.993	103.364	20.028	3.151	0.395
111.999	136.187	80.008	19.994	103.367	20.033	2.847	0.419
120.000	139.705	80.008	19.996	103.369	20.027	3.219	0.476
127.999	143.326	80.010	19.994	103.372	20.025	3.369	0.458
136.000	146.955	80.010	19.995	103.367	20.028	3.182	0.462
144.000	150.726	80.006	19.994	103.370	20.027	3.245	0.456
152.001	154.547	80.007	19.995	103.374	20.033	2.864	0.459
160.000	158.430	80.006	19.994	103.369	20.028	3.178	0.460
168.000	162.374	80.006	19.996	103.372	20.034	2.808	0.472
176.000	166.455	80.007	19.996	103.364	20.033	2.865	0.525
184.000	170.485	80.008	19.994	103.367	20.037	2.587	0.500
192.000	174.519	80.007	19.994	103.358	20.038	2.512	0.476
200.000	178.584	80.006	19.994	103.353	20.034	2.795	0.505
208.000	182.645	80.007	19.992	103.359	20.036	2.626	0.527
216.000	186.718	80.010	19.994	103.345	20.037	2.591	0.520
224.000	190.810	80.006	19.993	103.335	20.038	2.476	0.537
232.000	194.763	80.007	19.994	103.330	20.035	2.734	0.489
240.000	198.739	80.007	19.994	103.331	20.040	2.405	0.461
248.000	202.668	80.005	19.994	103.324	20.035	2.682	0.478
256.000	206.641	80.006	19.995	103.327	20.031	2.954	0.478
264.000	210.632	80.006	19.994	103.326	20.030	3.072	0.476
272.000	214.514	80.006	19.994	103.328	20.022	3.563	0.481
280.000	218.471	80.006	19.994	103.329	20.030	3.059	0.495
288.000	222.397	80.007	19.994	103.330	20.026	3.300	0.516
296.000	226.342	80.009	19.994	103.330	20.024	3.466	0.513
304.000	230.342	80.007	19.995	103.324	20.022	3.598	0.484
312.000	234.348	80.007	19.995	103.326	20.016	3.966	0.549
320.000	238.303	80.007	19.996	103.328	20.010	4.363	0.520
328.000	242.234	80.006	19.995	103.333	20.002	4.889	0.478
336.000	246.268	80.004	19.995	103.328	20.001	5.008	0.491
344.000	250.233	80.005	19.995	103.331	19.985	6.034	0.512
352.000	254.226	80.008	19.993	103.329	19.973	6.868	0.502
360.000	258.232	80.007	19.995	103.335	19.970	7.079	0.488
368.000	262.208	80.007	19.994	103.341	19.948	8.546	0.525
376.000	266.218	80.009	19.995	103.342	19.937	9.297	0.476
384.000	270.236	80.011	19.993	103.362	19.912	10.977	0.534
392.000	274.287	80.006	19.994	103.366	19.884	12.866	0.472
400.000	278.304	80.007	19.994	103.370	19.859	14.496	0.491
408.000	282.278	80.007	19.996	103.387	19.828	16.622	0.469
416.000	286.370	80.007	19.995	103.408	19.792	18.999	0.511
424.000	290.373	80.006	19.994	103.411	19.759	21.243	0.545
432.000	294.406	80.007	19.995	103.425	19.722	23.686	0.513
440.000	298.364	80.007	19.995	103.442	19.678	26.674	0.652
448.000	302.427	80.007	19.995	103.450	19.637	29.414	0.556
456.000	306.469	80.009	19.994	103.461	19.590	32.566	0.517
464.000	310.586	80.010	19.994	103.480	19.552	35.175	0.480
472.000	314.661	80.009	19.994	103.488	19.506	38.232	0.502
480.000	318.772	80.005	19.995	103.525	19.458	41.467	0.508
488.000	322.882	80.007	19.994	103.537	19.413	44.527	0.512
496.000	326.950	80.005	19.995	103.559	19.353	48.510	0.500
504.000	330.984	80.005	19.996	103.570	19.292	52.636	0.494
512.000	335.082	80.007	19.995	103.599	19.212	58.059	0.493
520.000	339.109	80.009	19.995	103.635	19.133	63.346	0.503
528.000	343.078	80.007	19.994	103.656	19.049	69.020	0.498
536.000	347.167	80.008	19.996	103.663	18.976	73.956	0.535
544.000	351.182	80.009	19.993	103.675	18.919	77.710	0.494
552.000	355.186	80.009	19.995	103.641	18.917	77.796	0.473
560.000	359.224	80.007	19.994	103.591	18.976	73.794	0.498
568.000	363.246	80.006	19.996	103.521	19.109	64.838	0.510
576.000	367.349	80.006	19.994	103.415	19.294	52.348	0.528
584.000	371.462	80.007	19.993	103.345	19.515	37.540	0.537
592.000	375.625	80.006	19.995	103.291	19.703	24.923	0.543
600.000	379.703	80.009	19.994	103.288	19.839	15.840	0.503
608.000	383.815	80.009	19.995	103.280	19.918	10.575	0.512
616.000	387.925	80.008	19.995	103.272	19.951	8.325	0.535
624.000	391.984	80.008	19.995	103.285	19.965	7.422	0.538
632.000	396.044	80.009	19.996	103.279	19.971	6.970	0.496
640.000	400.132	80.006	19.995	103.282	19.968	7.183	0.498
648.000	404.153	80.006	19.994	103.263	19.976	6.653	0.504
656.000	408.140	80.008	19.995	103.277	19.978	6.554	0.495
664.000	412.181	80.007	19.995	103.265	19.977	6.571	0.482
672.000	416.095	80.007	19.995	103.281	19.981	6.312	0.490
680.000	420.148	80.008	19.994	103.268	19.985	6.029	0.505
688.000	424.129	80.009	19.994	103.263	19.989	5.793	0.490
696.000	428.154	80.008	19.996	103.254	19.987	5.941	0.515
704.000	432.225	80.009	19.996	103.251	19.995	5.405	0.506
712.000	436.344	80.009	19.996	103.250	19.997	5.227	0.527
720.000	440.357	80.005	19.995	103.250	19.998	5.164	0.510
728.000	444.374	80.007	19.996	103.255	20.004	4.773	0.494
736.000	448.409	80.008	19.994	103.254	20.010	4.371	0.496
744.000	452.445	80.007	19.994	103.252	20.014	4.101	0.520
752.000	456.517	80.006	19.994	103.255	20.018	3.878	0.498
760.000	460.570	80.007	19.995	103.258	20.020	3.737	0.491
768.000	464.604	80.009	19.995	103.251	20.026	3.307	0.489
776.000	468.660	80.007	19.994	103.250	20.030	3.029	0.535
784.000	472.759	80.007	19.996	103.246	20.029	3.084	0.524
792.000	476.889	80.012	19.994	103.249	20.033	2.842	0.496
800.000	481.068	80.008	19.995	103.250	20.033	2.824	0.557
808.000	485.212	80.007	19.994	103.250	20.036	2.653	0.506
816.000	489.393	80.006	19.995	103.250	20.033	2.869	0.516
824.000	493.500	80.007	19.995	103.241	20.036	2.618	0.526
832.000	497.657	80.006	19.995	103.245	20.040	2.355	0.511
840.000	501.894	80.007	19.995	103.249	20.044	2.111	0.556
848.000	506.145	80.010	19.994	103.244	20.044	2.103	0.529
856.000	510.451	80.009	19.995	103.242	20.043	2.175	0.561
864.000	514.702	80.008	19.994	103.242	20.047	1.886	0.547
872.000	518.963	80.010	19.994	103.232	20.050	1.712	0.555
880.000	523.207	80.009	19.994	103.223	20.044	2.081	0.551
888.000	527.335	80.006	19.996	103.218	20.046	1.941	0.526
896.000	531.522	80.007	19.994	103.217	20.048	1.851	0.525
904.000	535.716	80.006	19.996	103.230	20.053	1.506	0.522
912.000	539.837	80.007	19.996	103.216	20.052	1.583	0.555
920.000	543.899	80.005	19.996	103.225	20.049	1.778	0.540
928.000	547.994	80.007	19.996	103.232	20.053	1.470	0.536
936.000	552.048	80.009	19.995	103.224	20.054	1.464	0.516
944.000	556.110	80.009	19.995	103.235	20.055	1.401	0.517
952.000	560.102	80.009	19.995	103.220	20.053	1.515	0.494
960.000	564.135	80.010	19.994	103.222	20.058	1.135	0.492
968.000	568.134	80.008	19.995	103.221	20.059	1.111	0.516
976.000	572.225	80.008	19.994	103.227	20.060	1.021	0.523
984.000	576.315	80.007	19.996	103.240	20.058	1.135	0.514
992.000	580.445	80.006	19.995	103.237	20.060	1.027	0.555
1000.000	584.575	80.007	19.995	103.221	20.060	1.062	0.494
1008.000	588.765	80.007	19.995	103.215	20.057	1.225	0.534
1016.000	592.925	80.008	19.997	103.215	20.058	1.181	0.502
1024.000	597.066	80.007	19.995	103.212	20.056	1.313	0.479
1031.999	601.122	80.007	19.994	103.214	20.058	1.135	0.498
1040.000	605.104	80.010	19.994	103.212	20.059	1.067	0.485
1047.999	609.206	80.008	19.994	103.212	20.064	0.762	0.537
1055.999	613.236	80.008	19.994	103.219	20.057	1.242	0.527
1064.001	617.238	80.007	19.995	103.226	20.062	0.882	0.500
1072.000	621.177	80.007	19.995	103.222	20.061	0.935	0.490
1080.000	625.249	80.006	19.996	103.239	20.056	1.293	0.504
1088.000	629.427	80.007	19.996	103.228	20.055	1.348	0.527
1096.000	633.614	80.007	19.995	103.211	20.062	0.922	0.555
1104.000	637.783	80.008	19.995	103.228	20.062	0.911	0.496
1112.000	642.020	80.008	19.995	103.210	20.058	1.190	0.524
1120.000	646.113	80.010	19.995	103.221	20.060	1.058	0.530
1128.000	650.155	80.011	19.994	103.227	20.059	1.067	0.473
1136.000	654.261	80.007	19.993	103.215	20.061	0.942	0.514
1144.000	658.354	80.006	19.994	103.227	20.058	1.198	0.509
1152.000	662.278	80.009	19.994	103.229	20.060	1.021	0.469
1160.000	666.166	80.007	19.994	103.210	20.061	0.994	0.514
1168.000	669.818	80.006	19.996	103.230	20.067	0.566	0.475
1176.000	673.341	80.009	19.996	103.235	20.063	0.834	0.460
1184.000	676.898	80.010	19.994	103.235	20.061	0.975	0.450
1192.000	680.604	80.007	19.995	103.246	20.059	1.122	0.472
1200.000	684.531	80.007	19.994	103.229	20.058	1.156	0.511
1208.000	688.602	80.008	19.995	103.244	20.059	1.128	0.519
1216.000	692.744	80.007	19.994	103.246	20.061	0.946	0.526
1224.000	696.944	80.005	19.994	103.239	20.061	0.938	0.526
1232.000	701.110	80.008	19.995	103.228	20.060	1.034	0.501
1240.000	705.347	80.008	19.995	103.212	20.063	0.808	0.572
1248.000	709.476	80.008	19.994	103.219	20.060	1.056	0.539
1256.000	713.544	80.007	19.994	103.218	20.064	0.764	0.494
1264.000	717.718	80.009	19.995	103.213	20.063	0.823	0.508
1272.000	721.712	80.006	19.996	103.211	20.064	0.762	0.493
1280.000	725.694	80.008	19.994	103.212	20.064	0.793	0.494
1288.000	729.606	80.010	19.996	103.208	20.061	0.948	0.468
1296.000	733.535	80.005	19.995	103.207	20.060	1.043	0.484
1304.001	737.403	80.006	19.994	103.210	20.059	1.111	0.466
1312.000	741.255	80.008	19.994	103.206	20.065	0.685	0.492
1318.000	744.050	80.008	19.996	103.209	20.058	1.173	0.477