File: 01_Data/Pressure_Treated_Deck/STA/N2/30K_min/Pressure_Treated_Deck_STA_N2_30KData_211806_R1.csv
##Temp./Â°C,Time/min,Mass loss(subtr.2)/mg,DSC(subtr.2)/mW,Sensit./(uV/mW)
50.632,10.01,-0.03992,0.07097098,0.6235
53.532,11.54367,-0.03103935,0.45946,0.62347
56.432,11.89125,-0.03197927,0.74341,0.62342
59.332,12.14183,-0.03166595,0.98963,0.62336
62.232,12.35159,-0.0364802,1.18643,0.62328
65.132,12.53711,-0.03552722,1.36694,0.6232
68.032,12.70765,-0.0351429,1.52911,0.6231
70.932,12.8698,-0.03741707,1.68119,0.62299
73.832,13.02334,-0.03830201,1.81617,0.62286
76.732,13.17159,-0.03793084,1.94718,0.62273
79.632,13.3154,-0.0399757,2.0581,0.62258
82.532,13.4549,-0.03949576,2.17564,0.62242
85.432,13.59087,-0.04115716,2.28625,0.62225
88.332,13.72326,-0.04538947,2.37774,0.62206
91.232,13.85196,-0.04684047,2.46891,0.62186
94.132,13.97746,-0.04923716,2.55792,0.62166
97.032,14.10043,-0.04946107,2.64202,0.62143
99.932,14.21991,-0.050441,2.70929,0.6212
102.832,14.33784,-0.05077419,2.74738,0.62096
105.732,14.4527,-0.05362515,2.79198,0.6207
108.632,14.5655,-0.05748612,2.82145,0.62043
111.532,14.67636,-0.05590086,2.84488,0.62015
114.432,14.7853,-0.0558899,2.85134,0.61986
117.332,14.8924,-0.05759011,2.85264,0.61956
120.232,14.9978,-0.05722709,2.87269,0.61925
123.132,15.1014,-0.05725025,2.89372,0.61892
126.032,15.2035,-0.05840195,2.89721,0.61859
128.932,15.3041,-0.0596539,2.91155,0.61824
131.832,15.4031,-0.06216032,2.9535,0.61788
134.732,15.501,-0.06078303,3.02421,0.61751
137.632,15.5978,-0.06173182,3.06509,0.61713
140.532,15.69311,-0.06123028,3.09071,0.61674
143.432,15.7877,-0.0607599,3.11116,0.61634
146.332,15.88127,-0.06207881,3.16102,0.61593
149.232,15.97381,-0.0620768,3.22699,0.61551
152.132,16.06564,-0.0609724,3.27665,0.61507
155.032,16.15689,-0.06157814,3.35517,0.61463
157.932,16.24756,-0.06208002,3.40467,0.61418
160.832,16.33749,-0.06147784,3.46896,0.61371
163.732,16.42693,-0.06340082,3.51705,0.61324
166.632,16.51585,-0.06208142,3.58421,0.61275
169.532,16.60432,-0.06339085,3.63496,0.61226
172.432,16.69219,-0.06354005,3.68611,0.61175
175.332,16.77955,-0.06436493,3.74303,0.61124
178.232,16.86645,-0.0643616,3.80542,0.61072
181.132,16.95283,-0.0653543,3.83736,0.61018
184.032,17.03835,-0.06534471,3.91234,0.60964
186.932,17.124,-0.06832632,3.94432,0.60909
189.832,17.2087,-0.06833,4.01521,0.60853
192.732,17.29307,-0.06833,4.06593,0.60795
195.632,17.37694,-0.06846476,4.13811,0.60737
198.532,17.46049,-0.06965001,4.20363,0.60679
201.432,17.5437,-0.07102199,4.26317,0.60619
204.332,17.62651,-0.07198232,4.33447,0.60558
207.232,17.70925,-0.07200866,4.3976,0.60496
210.132,17.7916,-0.07209503,4.46384,0.60434
213.032,17.87377,-0.07649872,4.53728,0.6037
215.932,17.95559,-0.07905308,4.61269,0.60306
218.832,18.03744,-0.07776448,4.67731,0.60241
221.732,18.11867,-0.0807546,4.77752,0.60175
224.632,18.19985,-0.0811463,4.85227,0.60108
227.532,18.28081,-0.08244122,4.89977,0.60041
230.432,18.3617,-0.08670424,4.96481,0.59972
233.332,18.4424,-0.09009928,5.02184,0.59903
236.232,18.5229,-0.09316528,5.05589,0.59833
239.132,18.60322,-0.0984494,5.08958,0.59762
242.032,18.68344,-0.10557,5.07407,0.59691
244.932,18.76335,-0.1092,5.08273,0.59618
247.832,18.84335,-0.11689,5.05402,0.59545
250.732,18.92297,-0.12494,5.03116,0.59472
253.632,19.00246,-0.13242,4.99566,0.59397
256.532,19.08204,-0.14,4.95651,0.59322
259.432,19.16156,-0.13893,4.90966,0.59246
262.332,19.24085,-0.16608,4.89735,0.59169
265.232,19.32005,-0.16277,4.86227,0.59091
268.132,19.39919,-0.17498,4.86694,0.59013
271.032,19.47832,-0.18527,4.89655,0.58934
273.932,19.55734,-0.1958,4.92571,0.58855
276.832,19.6364,-0.20919,4.95402,0.58775
279.732,19.71561,-0.22233,4.95324,0.58694
282.632,19.7946,-0.23388,4.97228,0.58612
285.532,19.87368,-0.2497,4.97865,0.5853
288.432,19.9528,-0.26826,4.98875,0.58447
291.332,20.03183,-0.28845,4.94493,0.58364
294.232,20.11092,-0.31,4.93957,0.5828
297.132,20.19008,-0.33501,4.87693,0.58195
300.032,20.269,-0.35959,4.84913,0.5811
302.932,20.34805,-0.3844,4.78651,0.58024
305.832,20.42708,-0.4162,4.74734,0.57938
308.732,20.50613,-0.44979,4.71598,0.57851
311.632,20.5852,-0.48304,4.68881,0.57763
314.532,20.66406,-0.51847,4.72538,0.57675
317.432,20.74316,-0.55745,4.70383,0.57587
320.332,20.82215,-0.59925,4.73799,0.57498
323.232,20.90116,-0.64516,4.74009,0.57408
326.132,20.9805,-0.69199,4.81775,0.57318
329.032,21.05986,-0.73928,4.86997,0.57227
331.932,21.13918,-0.79031,4.93978,0.57136
334.832,21.2185,-0.84436,4.99109,0.57044
337.732,21.29812,-0.89904,5.07387,0.56952
340.632,21.37764,-0.96001,5.14151,0.56859
343.532,21.45741,-1.01926,5.22451,0.56766
346.432,21.53731,-1.08322,5.30994,0.56673
349.332,21.6172,-1.14696,5.40202,0.56579
352.232,21.6972,-1.21548,5.50156,0.56485
355.132,21.77735,-1.2868,5.60871,0.5639
358.032,21.85754,-1.35964,5.7419,0.56295
360.932,21.9379,-1.43473,5.91374,0.56199
363.832,22.01839,-1.51162,6.08539,0.56103
366.732,22.09902,-1.5917,6.29699,0.56007
369.632,22.17991,-1.67459,6.51023,0.5591
372.532,22.2608,-1.76636,6.70606,0.55813
375.432,22.34176,-1.85569,6.86812,0.55715
378.332,22.42282,-1.95062,6.97025,0.55617
381.232,22.504,-2.04646,6.91428,0.55519
384.132,22.58539,-2.1452,6.6529,0.55421
387.032,22.66704,-2.23638,6.14956,0.55322
389.932,22.7487,-2.32269,5.34457,0.55223
392.832,22.8308,-2.39417,4.24461,0.55123
395.732,22.913,-2.44973,3.04865,0.55023
398.632,22.99535,-2.49065,1.9954,0.54923
401.532,23.07765,-2.51673,1.23038,0.54823
404.432,23.16007,-2.53551,0.71346,0.54722
407.332,23.2425,-2.54991,0.43332,0.54621
410.232,23.32505,-2.56442,0.23563,0.5452
413.132,23.40783,-2.5745,0.10879,0.54419
416.032,23.4907,-2.58503,-0.01246936,0.54317
418.932,23.57376,-2.59572,-0.13615,0.54215
421.832,23.65695,-2.60717,-0.24336,0.54113
424.732,23.74026,-2.61748,-0.35487,0.54011
427.632,23.8238,-2.62764,-0.45603,0.53908
430.532,23.90737,-2.63744,-0.59429,0.53805
433.432,23.99113,-2.64794,-0.68652,0.53703
436.332,24.07508,-2.65796,-0.81044,0.53599
439.232,24.15918,-2.66369,-0.90108,0.53496
442.132,24.2434,-2.67166,-0.99416,0.53393
445.032,24.32784,-2.67811,-1.04739,0.53289
447.932,24.41242,-2.68763,-1.08595,0.53185
450.832,24.4973,-2.69381,-1.13145,0.53081
453.732,24.58207,-2.703,-1.14173,0.52977
456.632,24.6671,-2.70955,-1.12196,0.52873
459.532,24.7525,-2.71694,-1.08931,0.52769
462.432,24.83768,-2.72194,-1.05394,0.52664
465.332,24.92343,-2.72852,-1.01865,0.5256
468.232,25.00914,-2.73572,-0.9357,0.52455
471.132,25.09496,-2.74214,-0.87333,0.52351
474.032,25.18096,-2.7495,-0.80698,0.52246
476.932,25.2673,-2.75719,-0.73632,0.52141
479.832,25.3538,-2.75951,-0.66959,0.52036
482.732,25.44042,-2.76488,-0.63642,0.51931
485.632,25.52712,-2.76912,-0.5998,0.51826
488.532,25.61403,-2.77548,-0.56147,0.51721
491.432,25.70112,-2.77902,-0.53995,0.51615
494.332,25.78833,-2.78284,-0.51263,0.5151
497.232,25.87552,-2.7846,-0.50945,0.51405
500.132,25.96301,-2.79037,-0.51211,0.513
503.032,26.0506,-2.79296,-0.49771,0.51195
505.932,26.13851,-2.79957,-0.51457,0.51089
508.832,26.2263,-2.80471,-0.5171,0.50984
511.732,26.3143,-2.8075,-0.55839,0.50879
514.632,26.4024,-2.81072,-0.56121,0.50773
517.532,26.49067,-2.81152,-0.57411,0.50668
520.432,26.5792,-2.81614,-0.61438,0.50563
523.332,26.66793,-2.8175,-0.63936,0.50458
526.232,26.7566,-2.82017,-0.67664,0.50353
529.132,26.8456,-2.82309,-0.70315,0.50247
532.032,26.93455,-2.8259,-0.7394,0.50142
534.932,27.0236,-2.83449,-0.77724,0.50037
537.832,27.113,-2.83467,-0.81525,0.49932
540.732,27.20259,-2.83725,-0.86773,0.49828
543.632,27.29205,-2.83726,-0.93776,0.49723
546.532,27.38177,-2.83989,-0.96874,0.49618
549.432,27.4716,-2.84446,-0.99999,0.49513
552.332,27.56154,-2.84602,-1.05256,0.49409
555.232,27.6517,-2.8482,-1.09924,0.49304
558.132,27.74186,-2.84874,-1.13557,0.492
561.032,27.83202,-2.85225,-1.17783,0.49096
563.932,27.9225,-2.85641,-1.23894,0.48991
566.832,28.0131,-2.85985,-1.29207,0.48887
569.732,28.1038,-2.86428,-1.31869,0.48784
572.632,28.1945,-2.86764,-1.35404,0.4868
575.532,28.28537,-2.86884,-1.39835,0.48576
578.432,28.3764,-2.87015,-1.45702,0.48473
581.332,28.4675,-2.87356,-1.49236,0.48369
584.232,28.5588,-2.87595,-1.54645,0.48266
587.132,28.65015,-2.87927,-1.56669,0.48163
590.032,28.74132,-2.88409,-1.59565,0.4806
592.932,28.8331,-2.88373,-1.63335,0.47957
595.832,28.92493,-2.8842,-1.65879,0.47855
598.732,29.0167,-2.88551,-1.72571,0.47752
601.632,29.1087,-2.8883,-1.76179,0.4765
604.532,29.20068,-2.89035,-1.81918,0.47548
607.432,29.29284,-2.89203,-1.8618,0.47446
610.332,29.38505,-2.89516,-1.88183,0.47344
613.232,29.47751,-2.89813,-1.89143,0.47243
616.132,29.57003,-2.89944,-1.91779,0.47142
619.032,29.66265,-2.90191,-1.94327,0.47041
621.932,29.75527,-2.90325,-1.98504,0.4694
624.832,29.84794,-2.90608,-1.99391,0.46839
627.732,29.941,-2.90768,-2.01264,0.46739
630.632,30.0339,-2.91051,-2.10188,0.46638
633.532,30.1267,-2.91051,-2.09035,0.46538
636.432,30.22,-2.91195,-2.11113,0.46438
639.332,30.3132,-2.91326,-2.13921,0.46339
642.232,30.4063,-2.91458,-2.16814,0.4624
645.132,30.5,-2.91589,-2.2273,0.4614
648.032,30.5937,-2.91592,-2.23451,0.46042
650.932,30.68732,-2.91753,-2.20491,0.45943
653.832,30.781,-2.9196,-2.20593,0.45845
656.732,30.875,-2.92293,-2.22497,0.45746
659.632,30.9689,-2.92356,-2.20816,0.45649
662.532,31.063,-2.92579,-2.19955,0.45551
665.432,31.1571,-2.9262,-2.22726,0.45454
668.332,31.25106,-2.92763,-2.19516,0.45356
671.232,31.3454,-2.92915,-2.22161,0.4526
674.132,31.43995,-2.93015,-2.20288,0.45163
677.032,31.53438,-2.93245,-2.19269,0.45067
679.932,31.62908,-2.93245,-2.17868,0.44971
682.832,31.72376,-2.93295,-2.15322,0.44875
685.732,31.81857,-2.93443,-2.16237,0.44779
688.632,31.9134,-2.93509,-2.1081,0.44684
691.532,32.0081,-2.9387,-2.09913,0.44589
694.432,32.1033,-2.9401,-2.09038,0.44494
697.332,32.19839,-2.94127,-2.11138,0.444
700.232,32.29335,-2.94155,-1.99713,0.44306
703.132,32.38857,-2.94156,-1.98872,0.44212
706.032,32.48382,-2.94351,-1.87246,0.44119
708.932,32.57926,-2.94387,-1.90922,0.44026
711.832,32.6748,-2.9447,-1.83022,0.43933
714.732,32.77025,-2.94364,-1.7383,0.4384
717.632,32.86575,-2.9455,-1.68026,0.43748
720.532,32.9612,-2.94735,-1.66394,0.43656
723.432,33.05687,-2.94628,-1.65329,0.43564
726.332,33.15273,-2.94898,-1.64237,0.43472
729.232,33.24841,-2.95026,-1.66211,0.43381
731.732,33.33222,-2.95023,-1.62346,0.43303