File: 01_Data/Pressure_Treated_Deck/STA/N2/30K_min/Pressure_Treated_Deck_STA_N2_30KData_212106_R2.csv
##Temp./Â°C,Time/min,Mass loss(subtr.2)/mg,DSC(subtr.2)/mW,Sensit./(uV/mW)
50.645,10.01,-0.01568,-0.01590729,0.6235
53.645,11.55979,-0.0168863,0.2888,0.62346
56.645,11.9105,-0.01684034,0.53888,0.62341
59.645,12.1665,-0.01773168,0.73714,0.62335
62.645,12.37997,-0.0185406,0.89967,0.62327
65.645,12.57,-0.01645957,1.05898,0.62318
68.645,12.7455,-0.01573965,1.19232,0.62308
71.645,12.911,-0.02000552,1.31815,0.62296
74.645,13.06845,-0.01766935,1.43514,0.62283
77.645,13.221,-0.01999145,1.55106,0.62268
80.645,13.36846,-0.0227685,1.66259,0.62253
83.645,13.5119,-0.02431829,1.76098,0.62235
86.645,13.65086,-0.02693364,1.86783,0.62217
89.645,13.7864,-0.03024057,1.95637,0.62197
92.645,13.918,-0.03148148,2.03531,0.62176
95.645,14.0466,-0.03122557,2.08849,0.62154
98.645,14.17206,-0.03403052,2.14727,0.62131
101.645,14.29454,-0.03407798,2.17719,0.62106
104.645,14.4143,-0.03565114,2.18329,0.6208
107.645,14.5321,-0.03717991,2.19136,0.62053
110.645,14.6474,-0.03850496,2.18402,0.62024
113.645,14.76058,-0.0388308,2.16472,0.61994
116.645,14.8718,-0.03846077,2.15372,0.61963
119.645,14.98099,-0.03921803,2.1266,0.61931
122.645,15.0885,-0.04034251,2.1253,0.61898
125.645,15.19444,-0.04046398,2.12129,0.61863
128.645,15.2987,-0.04316763,2.13539,0.61827
131.645,15.40122,-0.04135875,2.15938,0.61791
134.645,15.50259,-0.04194858,2.14919,0.61752
137.645,15.6027,-0.04201012,2.1786,0.61713
140.645,15.7016,-0.04070841,2.20151,0.61673
143.645,15.79921,-0.04211627,2.19865,0.61631
146.645,15.89581,-0.04212,2.23165,0.61588
149.645,15.9918,-0.04211887,2.27095,0.61544
152.645,16.08664,-0.04211984,2.32575,0.61499
155.645,16.1811,-0.04211958,2.37401,0.61453
158.645,16.27456,-0.0421575,2.40318,0.61406
161.645,16.36768,-0.04365994,2.47743,0.61358
164.645,16.46,-0.04222996,2.50254,0.61309
167.645,16.55177,-0.04245672,2.54862,0.61258
170.645,16.643,-0.04145998,2.62733,0.61207
173.645,16.73374,-0.04277367,2.67969,0.61154
176.645,16.82367,-0.04489396,2.73246,0.611
179.645,16.91325,-0.04475135,2.78921,0.61046
182.645,17.00242,-0.04474992,2.85459,0.6099
185.645,17.09082,-0.04475179,2.94105,0.60933
188.645,17.1787,-0.04332399,2.9894,0.60876
191.645,17.26601,-0.04596005,3.0437,0.60817
194.645,17.35281,-0.04726671,3.12609,0.60757
197.645,17.43928,-0.04727733,3.19883,0.60697
200.645,17.52551,-0.04860599,3.23213,0.60635
203.645,17.6112,-0.04857872,3.3012,0.60572
206.645,17.69667,-0.0512502,3.38658,0.60509
209.645,17.7819,-0.05125827,3.48735,0.60444
212.645,17.86692,-0.05385128,3.56377,0.60379
215.645,17.95157,-0.05516054,3.64548,0.60313
218.645,18.03598,-0.05518007,3.71678,0.60245
221.645,18.12002,-0.05780091,3.81358,0.60177
224.645,18.2042,-0.0609458,3.90006,0.60108
227.645,18.28794,-0.06199255,3.99916,0.60038
230.645,18.37164,-0.063843,4.08548,0.59967
233.645,18.45496,-0.06689745,4.15212,0.59896
236.645,18.53833,-0.07142237,4.18996,0.59823
239.645,18.62131,-0.07699026,4.23984,0.5975
242.645,18.70407,-0.08022124,4.25844,0.59676
245.645,18.78689,-0.08545094,4.29689,0.59601
248.645,18.8694,-0.09213745,4.31326,0.59525
251.645,18.95172,-0.09897661,4.27467,0.59448
254.645,19.03416,-0.10739,4.24231,0.59371
257.645,19.1164,-0.11516,4.18806,0.59293
260.645,19.1984,-0.12165,4.16126,0.59214
263.645,19.28042,-0.13165,4.13475,0.59134
266.645,19.36243,-0.14179,4.1568,0.59053
269.645,19.44424,-0.14976,4.16663,0.58972
272.645,19.52599,-0.16094,4.17746,0.5889
275.645,19.60775,-0.17156,4.21707,0.58807
278.645,19.6894,-0.1843,4.24165,0.58724
281.645,19.77114,-0.1971,4.26394,0.5864
284.645,19.85272,-0.2132,4.30042,0.58555
287.645,19.93446,-0.22822,4.32074,0.5847
290.645,20.01644,-0.24455,4.33658,0.58384
293.645,20.0981,-0.26753,4.30154,0.58297
296.645,20.17987,-0.28965,4.2977,0.58209
299.645,20.26136,-0.31353,4.29308,0.58121
302.645,20.34308,-0.34089,4.26835,0.58033
305.645,20.42482,-0.37229,4.26085,0.57943
308.645,20.50659,-0.4027,4.27109,0.57853
311.645,20.58831,-0.43736,4.26712,0.57763
314.645,20.67002,-0.47297,4.27957,0.57672
317.645,20.7517,-0.51,4.30857,0.5758
320.645,20.83357,-0.55245,4.33959,0.57488
323.645,20.91542,-0.59342,4.39588,0.57395
326.645,20.9973,-0.64014,4.47517,0.57302
329.645,21.07931,-0.68957,4.54627,0.57208
332.645,21.16125,-0.74037,4.63585,0.57113
335.645,21.2436,-0.79396,4.72022,0.57018
338.645,21.32583,-0.84985,4.83608,0.56923
341.645,21.4084,-0.90875,4.93125,0.56827
344.645,21.49089,-0.96874,5.03699,0.56731
347.645,21.57315,-1.03379,5.15876,0.56634
350.645,21.65626,-1.09801,5.28396,0.56536
353.645,21.73869,-1.16289,5.40864,0.56438
356.645,21.82199,-1.23302,5.54495,0.5634
359.645,21.90501,-1.30427,5.73796,0.56241
362.645,21.98824,-1.38023,5.93835,0.56142
365.645,22.07156,-1.4582,6.1528,0.56043
368.645,22.15501,-1.5378,6.39916,0.55943
371.645,22.23856,-1.62555,6.63152,0.55842
374.645,22.32218,-1.71565,6.84233,0.55742
377.645,22.4062,-1.80913,7.02318,0.55641
380.645,22.49023,-1.90354,7.02079,0.55539
383.645,22.57433,-1.99716,6.83647,0.55437
386.645,22.65879,-2.08838,6.40829,0.55335
389.645,22.74315,-2.17106,5.65311,0.55232
392.645,22.82807,-2.24216,4.56921,0.55129
395.645,22.9131,-2.2999,3.35744,0.55026
398.645,22.99819,-2.34021,2.25928,0.54923
401.645,23.08342,-2.3662,1.4656,0.54819
404.645,23.16872,-2.38586,0.96552,0.54715
407.645,23.25406,-2.40007,0.67944,0.5461
410.645,23.33951,-2.41304,0.51464,0.54506
413.645,23.425,-2.42544,0.37956,0.54401
416.645,23.51074,-2.43556,0.25009,0.54296
419.645,23.59669,-2.44531,0.1405,0.5419
422.645,23.6826,-2.45536,0.05037383,0.54084
425.645,23.76885,-2.46169,-0.04023859,0.53978
428.645,23.85519,-2.47398,-0.16187,0.53872
431.645,23.94184,-2.48283,-0.26722,0.53766
434.645,24.02863,-2.49064,-0.36157,0.53659
437.645,24.11559,-2.49988,-0.44716,0.53553
440.645,24.20262,-2.50844,-0.51824,0.53446
443.645,24.29005,-2.51401,-0.59222,0.53339
446.645,24.37738,-2.52265,-0.66002,0.53231
449.645,24.46497,-2.5315,-0.70056,0.53124
452.645,24.55278,-2.53776,-0.69932,0.53016
455.645,24.64075,-2.54477,-0.72847,0.52909
458.645,24.72886,-2.55331,-0.71375,0.52801
461.645,24.81721,-2.56018,-0.70253,0.52693
464.645,24.90563,-2.56451,-0.66949,0.52585
467.645,24.99435,-2.57206,-0.61356,0.52476
470.645,25.08319,-2.57653,-0.55372,0.52368
473.645,25.17214,-2.58258,-0.48298,0.5226
476.645,25.26142,-2.5884,-0.41485,0.52151
479.645,25.35074,-2.59331,-0.34294,0.52043
482.645,25.44024,-2.59638,-0.28602,0.51934
485.645,25.53001,-2.60417,-0.22965,0.51825
488.645,25.61985,-2.60757,-0.18439,0.51717
491.645,25.70984,-2.61216,-0.1466,0.51608
494.645,25.80003,-2.61634,-0.1244,0.51499
497.645,25.89039,-2.61776,-0.08893086,0.5139
500.645,25.9807,-2.62235,-0.04577988,0.51281
503.645,26.07145,-2.62533,-0.0301742,0.51172
506.645,26.1622,-2.62856,-0.01988881,0.51063
509.645,26.25337,-2.63598,-0.03016929,0.50954
512.645,26.3445,-2.63683,-0.02200307,0.50846
515.645,26.43569,-2.64059,-0.03663762,0.50737
518.645,26.52712,-2.64329,-0.04815051,0.50628
521.645,26.6188,-2.64637,-0.04878157,0.50519
524.645,26.7105,-2.6507,-0.07279886,0.5041
527.645,26.80227,-2.65339,-0.07859695,0.50301
530.645,26.8943,-2.65551,-0.11067,0.50193
533.645,26.98647,-2.65759,-0.15535,0.50084
536.645,27.0786,-2.66033,-0.16614,0.49975
539.645,27.17103,-2.66479,-0.17335,0.49867
542.645,27.2635,-2.6667,-0.19564,0.49758
545.645,27.3563,-2.66857,-0.26029,0.4965
548.645,27.44915,-2.66994,-0.27911,0.49542
551.645,27.54226,-2.67278,-0.32377,0.49434
554.645,27.63546,-2.67615,-0.34002,0.49325
557.645,27.7286,-2.67921,-0.39302,0.49217
560.645,27.82193,-2.68191,-0.40237,0.4911
563.645,27.91545,-2.68304,-0.43908,0.49002
566.645,28.0092,-2.68882,-0.4603,0.48894
569.645,28.10285,-2.69026,-0.4836,0.48787
572.645,28.19675,-2.6916,-0.52008,0.48679
575.645,28.2908,-2.69554,-0.52981,0.48572
578.645,28.3848,-2.69839,-0.55604,0.48465
581.645,28.479,-2.6997,-0.59052,0.48358
584.645,28.5734,-2.70096,-0.60812,0.48251
587.645,28.66783,-2.70375,-0.62437,0.48145
590.645,28.76245,-2.7065,-0.66223,0.48038
593.645,28.8571,-2.70654,-0.6778,0.47932
596.645,28.9519,-2.7104,-0.68908,0.47826
599.645,29.04676,-2.71089,-0.73375,0.4772
602.645,29.1418,-2.71298,-0.76718,0.47614
605.645,29.2369,-2.71546,-0.81911,0.47509
608.645,29.33215,-2.71843,-0.85716,0.47404
611.645,29.4277,-2.71198,-0.89466,0.47298
614.645,29.52298,-2.7278,-0.95923,0.47194
617.645,29.6187,-2.72315,-0.98442,0.47089
620.645,29.71432,-2.72451,-1.03166,0.46984
623.645,29.81039,-2.72768,-1.07246,0.4688
626.645,29.90642,-2.729,-1.11752,0.46776
629.645,30.0027,-2.7256,-1.16575,0.46672
632.645,30.0989,-2.73774,-1.25133,0.46569
635.645,30.19531,-2.73433,-1.34112,0.46466
638.645,30.29168,-2.73559,-1.38007,0.46362
641.645,30.38816,-2.73688,-1.37894,0.4626
644.645,30.4847,-2.73952,-1.41724,0.46157
647.645,30.5814,-2.73952,-1.42963,0.46055
650.645,30.67843,-2.74099,-1.48174,0.45953
653.645,30.7752,-2.74356,-1.52182,0.45851
656.645,30.87223,-2.74367,-1.57964,0.45749
659.645,30.96937,-2.74617,-1.63044,0.45648
662.645,31.0663,-2.74757,-1.68287,0.45547
665.645,31.1638,-2.74853,-1.72422,0.45446
668.645,31.26107,-2.75016,-1.79191,0.45346
671.645,31.3588,-2.7515,-1.82836,0.45246
674.645,31.45638,-2.75027,-1.85767,0.45146
677.645,31.5541,-2.75402,-1.9184,0.45046
680.645,31.6518,-2.75267,-1.98793,0.44947
683.645,31.74965,-2.75529,-2.03643,0.44848
686.645,31.84765,-2.75663,-2.06643,0.44749
689.645,31.94568,-2.75524,-2.02144,0.44651
692.645,32.04371,-2.75662,-2.06637,0.44553
695.645,32.14185,-2.75928,-2.10302,0.44455
698.645,32.24021,-2.75927,-2.15171,0.44357
701.645,32.3384,-2.76137,-2.17138,0.4426
704.645,32.43685,-2.76156,-2.2012,0.44163
707.645,32.53513,-2.76325,-2.22311,0.44067
710.645,32.6339,-2.76209,-2.26389,0.43971
713.645,32.7325,-2.76321,-2.29044,0.43875
716.645,32.83141,-2.76453,-2.32504,0.43779
719.645,32.93031,-2.76585,-2.32977,0.43684
722.645,33.02926,-2.76624,-2.39141,0.43589
725.645,33.12835,-2.76716,-2.43348,0.43494
728.645,33.22746,-2.76717,-2.44295,0.434
731.645,33.32882,-2.76847,-2.4469,0.43306
731.845,33.33319,-2.76847,-2.44392,0.433