File: 01_Data/Gypsum_Wallboard_Gypsum_Core/MCC/Gypsum_Wallboard_Gypsum_Core_MCC_30K_min_211004_R3.txt
Sample ID:	C:\MCC\MCC Cal\Test\Gypsum_Wallboard_GypsumCore_MCC_30K_min_211004_R3.txt
Sample Weight (mg):	4.5
Heating Rate (C/s):	0.5
Combustor Temp (C):	900
N2 Flow Rate (cc/min):	80
O2 Flow Rate (cc/min):	20
Calibration File:	C:\MCC\MCC Cal\Coeff1 JN10440_30_210304.txt.txt
T Correction Coefficients:	0	1.024463	0
Time Shift (s):	14
*
Time (s)	Temperature (C)	N2 flow rate (cc/min)	O2 flow rate (cc/min)	Flow Rate (cc/min)	Oxygen (%)	HRR (W/g)	Heating rate (C/s)
0.000	108.340	79.995	19.997	100.583	20.085	0.325	0.015
8.000	108.345	79.997	19.995	100.604	20.088	0.133	-0.010
16.000	108.387	79.996	19.994	100.659	20.077	0.884	0.035
24.000	108.678	79.993	19.996	100.738	20.064	1.789	0.054
32.000	109.479	79.994	19.996	100.742	20.058	2.257	0.133
39.999	110.478	79.997	19.996	100.740	20.057	2.271	0.122
47.999	111.793	79.995	19.995	100.782	20.049	2.833	0.213
55.999	113.460	79.994	19.996	100.806	20.048	2.938	0.217
63.999	115.434	79.996	19.995	100.828	20.042	3.366	0.268
71.999	117.757	79.995	19.996	100.838	20.046	3.056	0.300
80.000	120.389	79.994	19.996	100.838	20.042	3.351	0.364
87.999	123.277	79.995	19.995	100.855	20.042	3.363	0.394
95.999	126.328	79.994	19.997	100.849	20.040	3.502	0.422
103.999	129.595	79.994	19.996	100.891	20.040	3.477	0.444
111.999	133.030	79.993	19.996	100.856	20.040	3.477	0.438
120.000	136.742	79.995	19.997	100.855	20.038	3.627	0.481
127.999	140.455	79.994	19.996	100.857	20.038	3.629	0.468
136.000	144.314	79.995	19.996	100.860	20.041	3.437	0.477
144.000	148.276	79.995	19.996	100.850	20.038	3.646	0.513
152.000	152.206	79.997	19.995	100.849	20.043	3.261	0.511
160.000	156.059	79.997	19.996	100.833	20.045	3.155	0.471
168.000	160.067	79.996	19.995	100.845	20.043	3.255	0.529
176.000	164.082	79.995	19.996	100.831	20.047	3.004	0.522
184.000	168.113	79.995	19.996	100.828	20.049	2.886	0.525
192.000	172.103	79.995	19.996	100.821	20.046	3.097	0.504
200.000	176.122	79.994	19.995	100.820	20.049	2.873	0.518
208.000	180.102	79.993	19.997	100.821	20.052	2.618	0.488
216.000	184.189	79.993	19.996	100.822	20.051	2.720	0.528
224.000	188.247	79.996	19.995	100.818	20.054	2.524	0.518
232.000	192.281	79.996	19.995	100.813	20.053	2.604	0.484
240.000	196.287	79.995	19.996	100.806	20.055	2.452	0.457
248.000	200.232	79.997	19.996	100.785	20.057	2.330	0.476
256.000	204.144	79.996	19.995	100.793	20.053	2.591	0.458
264.000	208.061	79.995	19.996	100.793	20.051	2.693	0.518
272.000	211.927	79.996	19.996	100.799	20.058	2.222	0.497
280.000	215.732	79.996	19.996	100.795	20.058	2.224	0.472
288.000	219.688	79.995	19.997	100.757	20.061	2.044	0.521
296.000	223.625	79.996	19.998	100.782	20.056	2.368	0.492
304.000	227.469	79.998	19.997	100.779	20.062	1.961	0.496
312.000	231.351	79.997	19.996	100.780	20.059	2.172	0.454
320.000	235.225	79.995	19.995	100.782	20.059	2.174	0.465
328.000	239.064	79.997	19.996	100.795	20.057	2.267	0.487
336.000	243.058	79.996	19.996	100.802	20.062	1.980	0.536
344.000	247.096	79.995	19.994	100.807	20.057	2.301	0.500
352.000	251.297	79.995	19.995	100.788	20.054	2.474	0.531
360.000	255.475	79.995	19.997	100.794	20.055	2.411	0.504
368.000	259.660	79.995	19.996	100.785	20.064	1.839	0.543
376.000	263.830	79.994	19.998	100.780	20.056	2.358	0.513
384.000	267.891	79.996	19.995	100.781	20.057	2.320	0.496
392.000	271.981	79.995	19.997	100.779	20.053	2.579	0.527
400.000	275.941	79.995	19.996	100.779	20.051	2.727	0.478
408.000	279.927	79.996	19.995	100.762	20.059	2.141	0.473
416.000	283.751	79.996	19.996	100.765	20.054	2.497	0.465
424.000	287.584	79.995	19.997	100.764	20.056	2.362	0.436
432.000	291.440	79.996	19.996	100.775	20.051	2.710	0.458
440.000	295.426	79.995	19.995	100.774	20.054	2.503	0.503
448.000	299.426	79.995	19.996	100.781	20.054	2.533	0.489
456.000	303.411	79.995	19.998	100.781	20.049	2.847	0.526
464.000	307.441	79.996	19.996	100.781	20.050	2.794	0.493
472.000	311.463	79.995	19.995	100.776	20.052	2.637	0.546
480.000	315.536	79.994	19.996	100.768	20.057	2.297	0.504
488.000	319.613	79.996	19.994	100.770	20.054	2.504	0.514
496.000	323.670	79.996	19.995	100.769	20.059	2.158	0.477
504.000	327.694	79.995	19.996	100.758	20.056	2.354	0.511
512.000	331.657	79.995	19.995	100.762	20.059	2.135	0.502
520.000	335.635	79.995	19.995	100.757	20.052	2.631	0.497
528.000	339.502	79.996	19.995	100.762	20.061	2.036	0.450
536.000	343.440	79.995	19.995	100.756	20.060	2.103	0.476
544.000	347.431	79.995	19.996	100.764	20.055	2.413	0.487
552.000	351.383	79.997	19.995	100.758	20.054	2.524	0.497
560.000	355.453	79.997	19.997	100.697	20.060	2.101	0.496
568.000	359.509	79.995	19.997	100.761	20.050	2.764	0.535
576.000	363.798	79.996	19.997	100.770	20.053	2.597	0.598
584.000	367.763	79.995	19.996	100.762	20.056	2.361	0.545
592.000	371.928	79.995	19.995	100.758	20.058	2.200	0.529
600.000	376.159	79.995	19.995	100.750	20.053	2.583	0.517
608.000	380.229	79.994	19.996	100.745	20.055	2.418	0.480
616.000	384.203	79.995	19.995	100.744	20.059	2.156	0.487
624.000	388.132	79.996	19.995	100.741	20.055	2.411	0.501
632.000	392.117	79.996	19.996	100.741	20.055	2.439	0.503
640.000	396.077	79.995	19.996	100.741	20.056	2.358	0.521
648.000	400.046	79.996	19.996	100.748	20.053	2.571	0.490
656.000	404.227	79.997	19.996	100.769	20.055	2.445	0.554
664.000	408.453	79.994	19.997	100.769	20.053	2.559	0.562
672.000	412.732	79.996	19.996	100.756	20.054	2.502	0.573
680.000	417.021	79.996	19.996	100.757	20.053	2.606	0.566
688.000	421.382	79.995	19.997	100.748	20.052	2.620	0.529
696.000	425.714	79.995	19.995	100.745	20.054	2.536	0.545
704.000	430.026	79.997	19.995	100.746	20.050	2.798	0.522
712.000	434.332	79.996	19.995	100.742	20.051	2.684	0.540
720.000	438.534	79.996	19.995	100.743	20.054	2.481	0.508
728.000	442.669	79.996	19.997	100.748	20.053	2.599	0.518
736.000	446.869	79.998	19.995	100.740	20.052	2.646	0.512
744.000	450.914	79.995	19.997	100.734	20.051	2.716	0.469
752.000	455.037	79.993	19.997	100.739	20.048	2.945	0.521
760.000	459.092	79.995	19.995	100.738	20.048	2.907	0.472
768.000	463.097	79.995	19.995	100.739	20.051	2.735	0.471
776.000	467.148	79.995	19.996	100.742	20.049	2.853	0.518
784.000	471.238	79.996	19.997	100.743	20.053	2.593	0.498
792.000	475.355	79.996	19.994	100.737	20.049	2.855	0.531
800.000	479.414	79.997	19.996	100.743	20.053	2.589	0.493
808.000	483.513	79.998	19.995	100.740	20.053	2.593	0.509
816.000	487.673	79.998	19.995	100.707	20.052	2.627	0.515
824.000	491.713	79.996	19.996	100.738	20.051	2.707	0.499
832.000	495.850	79.996	19.996	100.735	20.050	2.755	0.482
840.000	499.920	79.995	19.995	100.742	20.053	2.589	0.498
848.000	503.975	79.994	19.996	100.740	20.050	2.800	0.479
856.000	508.103	79.993	19.996	100.733	20.050	2.806	0.525
864.000	512.137	79.997	19.996	100.738	20.051	2.697	0.476
872.000	516.270	79.997	19.996	100.740	20.045	3.165	0.510
880.000	520.401	79.997	19.995	100.727	20.050	2.794	0.519
888.000	524.497	79.997	19.995	100.739	20.051	2.711	0.505
896.000	528.576	79.998	19.995	100.734	20.050	2.802	0.510
904.000	532.643	79.996	19.995	100.732	20.044	3.171	0.486
912.000	536.758	79.995	19.996	100.736	20.049	2.855	0.526
920.000	540.793	79.995	19.995	100.730	20.050	2.788	0.507
928.000	544.830	79.997	19.997	100.743	20.050	2.771	0.523
936.000	548.879	79.993	19.996	100.738	20.047	3.007	0.516
944.000	552.920	79.996	19.995	100.737	20.043	3.254	0.528
952.000	557.001	79.997	19.994	100.737	20.045	3.123	0.510
960.000	561.031	79.996	19.997	100.736	20.044	3.171	0.488
968.000	565.090	79.996	19.994	100.734	20.043	3.270	0.512
976.000	569.198	79.997	19.994	100.729	20.046	3.083	0.495
984.000	573.216	79.996	19.995	100.741	20.047	2.977	0.495
992.000	577.349	79.997	19.995	100.738	20.042	3.332	0.494
1000.000	581.428	79.994	19.996	100.739	20.043	3.304	0.508
1008.000	585.416	79.995	19.995	100.729	20.042	3.378	0.495
1016.000	589.464	79.994	19.997	100.736	20.040	3.488	0.512
1024.000	593.445	79.995	19.996	100.739	20.045	3.114	0.477
1031.999	597.528	79.996	19.997	100.738	20.041	3.424	0.488
1039.999	601.611	79.995	19.995	100.738	20.041	3.395	0.495
1047.999	605.678	79.996	19.995	100.744	20.039	3.532	0.504
1055.999	609.781	79.997	19.995	100.740	20.034	3.878	0.520
1063.999	613.803	79.996	19.996	100.737	20.034	3.914	0.486
1072.000	617.844	79.995	19.995	100.736	20.038	3.652	0.499
1080.000	621.930	79.996	19.996	100.741	20.039	3.568	0.517
1088.000	626.028	79.995	19.997	100.739	20.040	3.477	0.520
1096.000	630.097	79.994	19.998	100.743	20.039	3.572	0.488
1104.000	634.142	79.995	19.997	100.735	20.039	3.536	0.523
1112.000	638.244	79.996	19.995	100.742	20.037	3.726	0.532
1120.000	642.310	79.995	19.995	100.742	20.034	3.870	0.518
1128.000	646.306	79.996	19.997	100.744	20.040	3.483	0.540
1136.000	650.361	79.998	19.995	100.740	20.037	3.720	0.501
1144.000	654.462	79.997	19.997	100.742	20.034	3.937	0.515
1152.000	658.507	79.995	19.996	100.747	20.035	3.857	0.514
1160.000	662.443	79.996	19.996	100.748	20.037	3.709	0.506
1168.000	666.247	79.997	19.994	100.747	20.037	3.667	0.462
1176.000	669.944	79.996	19.995	100.745	20.031	4.099	0.431
1184.000	673.592	79.994	19.996	100.752	20.028	4.314	0.454
1192.000	677.354	79.996	19.995	100.749	20.034	3.906	0.438
1200.000	681.145	79.997	19.995	100.747	20.028	4.289	0.496
1208.001	685.000	79.998	19.996	100.742	20.026	4.494	0.469
1216.000	688.902	79.998	19.997	100.748	20.030	4.188	0.503
1224.000	692.939	79.996	19.996	100.755	20.030	4.171	0.504
1232.000	697.096	79.997	19.995	100.754	20.026	4.466	0.525
1240.000	701.281	79.996	19.995	100.747	20.025	4.500	0.552
1248.000	705.432	79.995	19.996	100.749	20.028	4.340	0.501
1256.000	709.568	79.994	19.995	100.742	20.025	4.548	0.560
1264.001	713.681	79.996	19.995	100.748	20.021	4.796	0.527
1272.000	717.863	79.997	19.996	100.743	20.024	4.570	0.503
1280.000	722.099	79.997	19.996	100.744	20.019	4.971	0.513
1288.000	726.334	79.996	19.996	100.742	20.026	4.445	0.529
1296.000	730.570	79.997	19.996	100.744	20.023	4.642	0.516
1304.000	734.743	79.996	19.996	100.743	20.024	4.606	0.510
1312.000	738.827	79.994	19.996	100.741	20.023	4.638	0.484
1320.000	742.879	79.995	19.997	100.742	20.022	4.749	0.515
1321.500	743.648	79.997	19.996	100.742	20.023	4.669	0.497