File: 01_Data/Eucalyptus_Flooring/STA/N2/30K_min/EUC_STA_N2_30KData_211312_R2.csv
##Temp./Â°C,Time/min,Mass loss(subtr.2)/mg,DSC(subtr.2)/(mW/mg),Sensit./(uV/mW)
48.563,10.00917,-0.04321,0.01942007,1.06963
51.563,10.86255,-0.045798,0.17888,1.06936
54.563,11.09068,-0.04737342,0.28901,1.06906
57.563,11.26505,-0.04619717,0.37436,1.06874
60.563,11.41536,-0.0468409,0.44894,1.06839
63.563,11.55105,-0.04886285,0.51138,1.06802
66.563,11.67802,-0.04930585,0.56676,1.06762
69.563,11.7989,-0.04771286,0.61605,1.0672
72.563,11.91548,-0.04941153,0.65887,1.06675
75.563,12.0289,-0.05143877,0.7,1.06628
78.563,12.1397,-0.0531755,0.73578,1.06578
81.563,12.24842,-0.05227189,0.76981,1.06526
84.563,12.3561,-0.05372299,0.79908,1.06472
87.563,12.4618,-0.05391474,0.82653,1.06415
90.563,12.5661,-0.05534488,0.85182,1.06356
93.563,12.66992,-0.05540866,0.87175,1.06294
96.563,12.77272,-0.05625845,0.89225,1.0623
99.563,12.8749,-0.05890877,0.90489,1.06164
102.563,12.97665,-0.06010341,0.91617,1.06095
105.563,13.07797,-0.06109046,0.92151,1.06024
108.563,13.1791,-0.06152598,0.92421,1.0595
111.563,13.2797,-0.06284115,0.92528,1.05875
114.563,13.3804,-0.06481871,0.92382,1.05797
117.563,13.48091,-0.06415998,0.92367,1.05716
120.563,13.581,-0.06546851,0.92283,1.05634
123.563,13.6805,-0.06547246,0.9225,1.05549
126.563,13.77929,-0.06648057,0.9272,1.05462
129.563,13.8781,-0.06811786,0.93749,1.05372
132.563,13.9761,-0.06813605,0.94484,1.05281
135.563,14.07381,-0.06951236,0.95542,1.05187
138.563,14.17111,-0.06811154,0.96684,1.05091
141.563,14.2681,-0.06997922,0.98191,1.04992
144.563,14.3645,-0.07032331,0.99543,1.04892
147.563,14.46064,-0.07204943,1.00883,1.04789
150.563,14.5565,-0.07219557,1.02424,1.04685
153.563,14.6517,-0.07479912,1.03994,1.04578
156.563,14.74726,-0.0748,1.05533,1.04469
159.563,14.84232,-0.07480839,1.07147,1.04358
162.563,14.93701,-0.07737261,1.08774,1.04245
165.563,15.03191,-0.07803306,1.1017,1.04129
168.563,15.1265,-0.08007377,1.11794,1.04012
171.563,15.2207,-0.08007778,1.13251,1.03893
174.563,15.3147,-0.08365149,1.14936,1.03771
177.563,15.4086,-0.0840098,1.16403,1.03648
180.563,15.5019,-0.08398175,1.17728,1.03522
183.563,15.59505,-0.08643542,1.1917,1.03395
186.563,15.6877,-0.08927772,1.2068,1.03265
189.563,15.7806,-0.09069103,1.21877,1.03134
192.563,15.87294,-0.09321697,1.23264,1.03001
195.563,15.96514,-0.09597963,1.24009,1.02865
198.563,16.05746,-0.09759847,1.24814,1.02728
201.563,16.1497,-0.10221,1.25592,1.02589
204.563,16.24146,-0.10498,1.26461,1.02448
207.563,16.33313,-0.10818,1.26944,1.02305
210.563,16.42484,-0.1127,1.27224,1.02161
213.563,16.5167,-0.11692,1.27824,1.02014
216.563,16.6081,-0.1224,1.28159,1.01866
219.563,16.6996,-0.12818,1.28294,1.01716
222.563,16.79094,-0.13362,1.28357,1.01564
225.563,16.8823,-0.13842,1.28216,1.0141
228.563,16.9737,-0.14532,1.27898,1.01255
231.563,17.06475,-0.15172,1.27316,1.01098
234.563,17.15597,-0.15962,1.26641,1.00939
237.563,17.24708,-0.16752,1.25996,1.00778
240.563,17.3383,-0.17519,1.25041,1.00616
243.563,17.4291,-0.18447,1.24421,1.00452
246.563,17.5202,-0.19455,1.23205,1.00286
249.563,17.61126,-0.20458,1.22278,1.00119
252.563,17.70206,-0.21542,1.20759,0.9995
255.563,17.79295,-0.22732,1.19344,0.9978
258.563,17.8838,-0.23889,1.18066,0.99608
261.563,17.97464,-0.25054,1.16743,0.99434
264.563,18.06561,-0.26434,1.15215,0.99259
267.563,18.15644,-0.27918,1.13721,0.99082
270.563,18.24716,-0.29486,1.12467,0.98904
273.563,18.33792,-0.31141,1.11072,0.98724
276.563,18.4286,-0.32839,1.09674,0.98543
279.563,18.51957,-0.3481,1.08618,0.9836
282.563,18.61036,-0.36761,1.07086,0.98176
285.563,18.70131,-0.39133,1.05266,0.9799
288.563,18.7923,-0.41468,1.03553,0.97803
291.563,18.88314,-0.4403,1.01744,0.97615
294.563,18.97421,-0.4696,0.99575,0.97425
297.563,19.0653,-0.50047,0.97027,0.97234
300.563,19.15602,-0.5326,0.94418,0.97041
303.563,19.2471,-0.56952,0.92175,0.96847
306.563,19.33827,-0.60968,0.90105,0.96652
309.563,19.4291,-0.65292,0.88961,0.96455
312.563,19.52026,-0.70028,0.88121,0.96258
315.563,19.61127,-0.75049,0.88558,0.96058
318.563,19.70233,-0.80617,0.89873,0.95858
321.563,19.7937,-0.86378,0.9183,0.95657
324.563,19.8849,-0.92465,0.94149,0.95454
327.563,19.97635,-0.99126,0.96686,0.9525
330.563,20.06784,-1.06477,0.98814,0.95045
333.563,20.15942,-1.13838,1.0051,0.94838
336.563,20.25098,-1.21837,1.01272,0.94631
339.563,20.34272,-1.3076,1.01217,0.94422
342.563,20.43423,-1.39956,1.00101,0.94212
345.563,20.5263,-1.49124,0.97461,0.94002
348.563,20.61804,-1.58962,0.93015,0.9379
351.563,20.7101,-1.69045,0.86626,0.93577
354.563,20.80206,-1.78464,0.79123,0.93363
357.563,20.89404,-1.87329,0.71288,0.93148
360.563,20.98637,-1.95998,0.63088,0.92931
363.563,21.07861,-2.02963,0.56321,0.92714
366.563,21.1709,-2.08849,0.51348,0.92496
369.563,21.26335,-2.13674,0.47791,0.92277
372.563,21.35588,-2.17563,0.45455,0.92057
375.563,21.4485,-2.20559,0.431,0.91836
378.563,21.54121,-2.2306,0.41428,0.91614
381.563,21.63429,-2.25199,0.39177,0.91392
384.563,21.72719,-2.27153,0.36765,0.91168
387.563,21.8202,-2.28685,0.34239,0.90943
390.563,21.91341,-2.30327,0.31973,0.90718
393.563,22.00662,-2.31676,0.29087,0.90492
396.563,22.09995,-2.33004,0.26576,0.90265
399.563,22.1933,-2.34254,0.24141,0.90037
402.563,22.2868,-2.35464,0.21982,0.89808
405.563,22.38025,-2.36843,0.2002,0.89579
408.563,22.47374,-2.37741,0.1876,0.89349
411.563,22.56738,-2.38944,0.1758,0.89118
414.563,22.6611,-2.40145,0.17025,0.88886
417.563,22.75485,-2.41287,0.16588,0.88654
420.563,22.84889,-2.42403,0.16248,0.88421
423.563,22.94282,-2.43341,0.16532,0.88187
426.563,23.03708,-2.44445,0.175,0.87953
429.563,23.13129,-2.454,0.18361,0.87718
432.563,23.22568,-2.46535,0.19472,0.87482
435.563,23.32018,-2.47593,0.20644,0.87246
438.563,23.41435,-2.48561,0.22521,0.87009
441.563,23.50921,-2.4947,0.24118,0.86771
444.563,23.60369,-2.50376,0.2556,0.86533
447.563,23.6986,-2.51287,0.27534,0.86295
450.563,23.79329,-2.52089,0.28901,0.86055
453.563,23.88831,-2.53105,0.30526,0.85816
456.563,23.98347,-2.53977,0.3188,0.85575
459.563,24.07841,-2.54698,0.33019,0.85335
462.563,24.17354,-2.55589,0.34314,0.85093
465.563,24.26876,-2.56314,0.35424,0.84852
468.563,24.364,-2.57109,0.35988,0.84609
471.563,24.4592,-2.57948,0.36931,0.84367
474.563,24.55469,-2.58708,0.37321,0.84124
477.563,24.65008,-2.59235,0.37728,0.8388
480.563,24.74571,-2.59913,0.38191,0.83636
483.563,24.84129,-2.60601,0.38322,0.83392
486.563,24.9371,-2.61367,0.38669,0.83147
489.563,25.0329,-2.62023,0.38776,0.82902
492.563,25.12872,-2.62582,0.38582,0.82657
495.563,25.22476,-2.63113,0.38764,0.82411
498.563,25.32084,-2.63646,0.38809,0.82165
501.563,25.41692,-2.6434,0.38649,0.81919
504.563,25.51314,-2.64847,0.38592,0.81672
507.563,25.6095,-2.65323,0.38665,0.81425
510.563,25.7058,-2.65902,0.38441,0.81178
513.563,25.80228,-2.6642,0.38514,0.8093
516.563,25.8988,-2.67028,0.38226,0.80683
519.563,25.99536,-2.67465,0.37665,0.80434
522.563,26.09214,-2.67852,0.37627,0.80186
525.563,26.18875,-2.68388,0.37673,0.79938
528.563,26.2857,-2.68859,0.37474,0.79689
531.563,26.38277,-2.69285,0.36765,0.7944
534.563,26.47968,-2.69787,0.36461,0.79191
537.563,26.57685,-2.7032,0.36439,0.78942
540.563,26.6739,-2.70672,0.36371,0.78693
543.563,26.77099,-2.7108,0.3595,0.78443
546.563,26.8684,-2.71426,0.35841,0.78193
549.563,26.9658,-2.71837,0.35644,0.77944
552.563,27.0632,-2.72228,0.35191,0.77694
555.563,27.16055,-2.72579,0.35068,0.77444
558.563,27.2577,-2.73258,0.34944,0.77194
561.563,27.3555,-2.73595,0.34826,0.76944
564.563,27.45332,-2.73876,0.34761,0.76693
567.563,27.55092,-2.74324,0.34638,0.76443
570.563,27.64845,-2.74566,0.34821,0.76193
573.563,27.7461,-2.74841,0.34476,0.75942
576.563,27.84403,-2.75282,0.35239,0.75692
579.563,27.942,-2.75523,0.35375,0.75441
582.563,28.04,-2.75915,0.35807,0.75191
585.563,28.1379,-2.76311,0.36507,0.74941
588.563,28.23612,-2.76607,0.36936,0.7469
591.563,28.3343,-2.76905,0.37133,0.7444
594.563,28.4327,-2.77338,0.3802,0.74189
597.563,28.53107,-2.77453,0.38467,0.73939
600.563,28.62957,-2.77702,0.38576,0.73689
603.563,28.728,-2.78133,0.38964,0.73438
606.563,28.827,-2.78333,0.38863,0.73188
609.563,28.92564,-2.7866,0.39298,0.72938
612.563,29.0243,-2.7893,0.39309,0.72688
615.563,29.12323,-2.79194,0.40155,0.72438
618.563,29.22213,-2.79459,0.40764,0.72188
621.563,29.321,-2.79604,0.41612,0.71939
624.563,29.41988,-2.79819,0.4225,0.71689
627.563,29.5188,-2.80083,0.43235,0.7144
630.563,29.6179,-2.80348,0.44157,0.7119
633.563,29.71674,-2.80508,0.44784,0.70941
636.563,29.81584,-2.80655,0.45968,0.70692
639.563,29.9149,-2.81035,0.46822,0.70443
642.563,30.01375,-2.81313,0.47855,0.70194
645.563,30.1128,-2.81429,0.48701,0.69946
648.563,30.21179,-2.81563,0.50025,0.69697
651.563,30.31082,-2.81825,0.50773,0.69449
654.563,30.41,-2.81957,0.52046,0.69201
657.563,30.50903,-2.82221,0.52646,0.68953
660.563,30.60806,-2.82442,0.53337,0.68706
663.563,30.7073,-2.82486,0.53954,0.68458
666.563,30.80625,-2.8275,0.54733,0.68211
669.563,30.90555,-2.83026,0.55253,0.67964
672.563,31.0049,-2.83171,0.55219,0.67717
675.563,31.1042,-2.83416,0.55552,0.67471
678.563,31.2034,-2.83363,0.55603,0.67225
681.563,31.3029,-2.83695,0.55461,0.66979
684.563,31.4021,-2.83823,0.55555,0.66733
687.563,31.50163,-2.83955,0.55367,0.66488
690.563,31.6012,-2.83975,0.54944,0.66242
693.563,31.70083,-2.84161,0.54484,0.65997
696.563,31.8003,-2.84358,0.53781,0.65753
699.563,31.90008,-2.84483,0.52656,0.65508
702.563,31.99983,-2.84612,0.5182,0.65264
705.563,32.09977,-2.84779,0.50886,0.65021
708.563,32.1993,-2.85041,0.50257,0.64777
711.563,32.29959,-2.85041,0.49181,0.64534
714.563,32.39962,-2.8511,0.48667,0.64291
717.563,32.4993,-2.85172,0.4852,0.64049
720.563,32.59949,-2.85369,0.47125,0.63806
723.563,32.6997,-2.85503,0.46221,0.63565
726.563,32.7998,-2.85506,0.45858,0.63323
729.563,32.8999,-2.85633,0.45248,0.63082
732.563,33.00016,-2.85765,0.44009,0.62841
735.563,33.10052,-2.85897,0.43237,0.626
738.563,33.2006,-2.85928,0.42284,0.6236
741.563,33.30171,-2.85929,0.41877,0.6212
742.463,33.33166,-2.86088,0.41347,0.62049