File: 01_Data/Eucalyptus_Flooring/STA/N2/30K_min/Eucalyptus_Flooring_STA_N2_30KData_211312_R1.csv
##Temp./Â°C,Time/min,Mass loss(subtr.2)/mg,DSC(subtr.2)/(mW/mg),Sensit./(uV/mW)
48.541,10.01,-0.00757,0.00945088,1.06963
51.541,10.86347,-0.00748576,0.17475,1.06936
54.541,11.0912,-0.009663192,0.28524,1.06906
57.541,11.26544,-0.00696027,0.37332,1.06874
60.541,11.4148,-0.008431356,0.44521,1.06839
63.541,11.55159,-0.009207115,0.50847,1.06802
66.541,11.67859,-0.0088965,0.56128,1.06762
69.541,11.79957,-0.00911593,0.61025,1.0672
72.541,11.91605,-0.01012038,0.65495,1.06675
75.541,12.02966,-0.00970214,0.69388,1.06628
78.541,12.14045,-0.01192274,0.73085,1.06579
81.541,12.24929,-0.01144082,0.76492,1.06527
84.541,12.3565,-0.01106845,0.79639,1.06472
87.541,12.46223,-0.01340734,0.8239,1.06415
90.541,12.56692,-0.01379306,0.85007,1.06356
93.541,12.67015,-0.01403999,0.87388,1.06294
96.541,12.77305,-0.01669659,0.89306,1.0623
99.541,12.87543,-0.01667954,0.90647,1.06164
102.541,12.97717,-0.01701176,0.91524,1.06095
105.541,13.07846,-0.01820785,0.92132,1.06024
108.541,13.1798,-0.01930982,0.92425,1.05951
111.541,13.28025,-0.01930786,0.92467,1.05875
114.541,13.38158,-0.02050791,0.92326,1.05797
117.541,13.48195,-0.02070598,0.92057,1.05717
120.541,13.58194,-0.02330091,0.91927,1.05634
123.541,13.68157,-0.02326005,0.92155,1.05549
126.541,13.7805,-0.02391878,0.92428,1.05462
129.541,13.8792,-0.02326241,0.92908,1.05373
132.541,13.9773,-0.02456993,0.93543,1.05281
135.541,14.07514,-0.0252124,0.94697,1.05187
138.541,14.17242,-0.02523,0.95752,1.05091
141.541,14.2693,-0.02523049,0.96834,1.04993
144.541,14.3659,-0.0258862,0.98213,1.04893
147.541,14.462,-0.0272085,0.99752,1.0479
150.541,14.55771,-0.02852012,1.01275,1.04685
153.541,14.6534,-0.02850605,1.02784,1.04579
156.541,14.74876,-0.02852002,1.0398,1.0447
159.541,14.8438,-0.02885401,1.05846,1.04359
162.541,14.93878,-0.03148155,1.07392,1.04245
165.541,15.0334,-0.03148007,1.08888,1.0413
168.541,15.1282,-0.03344225,1.10504,1.04013
171.541,15.22225,-0.03474136,1.12122,1.03893
174.541,15.3161,-0.03674458,1.13661,1.03772
177.541,15.41024,-0.03676387,1.14961,1.03649
180.541,15.5036,-0.03947712,1.16391,1.03523
183.541,15.59675,-0.04139567,1.17906,1.03396
186.541,15.6897,-0.04332862,1.19257,1.03266
189.541,15.78236,-0.04575887,1.20471,1.03135
192.541,15.87475,-0.04726753,1.21484,1.03002
195.541,15.96713,-0.04999249,1.22531,1.02866
198.541,16.05939,-0.05286757,1.23256,1.02729
201.541,16.15129,-0.05527661,1.23736,1.0259
204.541,16.24332,-0.05704612,1.24479,1.02449
207.541,16.33525,-0.06142872,1.24828,1.02307
210.541,16.42698,-0.06600187,1.25216,1.02162
213.541,16.51867,-0.0703038,1.25573,1.02015
216.541,16.61032,-0.07439696,1.25871,1.01867
219.541,16.70195,-0.08004919,1.25989,1.01717
222.541,16.7933,-0.08586454,1.26047,1.01565
225.541,16.88465,-0.09127219,1.25546,1.01411
228.541,16.97596,-0.09840629,1.24916,1.01256
231.541,17.06709,-0.10526,1.24467,1.01099
234.541,17.1583,-0.11075,1.2359,1.0094
237.541,17.2494,-0.11972,1.23087,1.00779
240.541,17.34027,-0.12912,1.22474,1.00617
243.541,17.4314,-0.13765,1.21308,1.00453
246.541,17.5223,-0.14767,1.20009,1.00288
249.541,17.613,-0.15748,1.18632,1.0012
252.541,17.70382,-0.16711,1.17387,0.99951
255.541,17.79467,-0.17908,1.15924,0.99781
258.541,17.88525,-0.19114,1.14313,0.99609
261.541,17.97589,-0.20283,1.12755,0.99435
264.541,18.06653,-0.21751,1.11346,0.9926
267.541,18.15705,-0.23258,1.09704,0.99083
270.541,18.2476,-0.24783,1.0831,0.98905
273.541,18.33833,-0.26382,1.0709,0.98725
276.541,18.42882,-0.28223,1.05512,0.98544
279.541,18.51943,-0.29963,1.04371,0.98361
282.541,18.61008,-0.32184,1.02926,0.98177
285.541,18.70064,-0.34374,1.00873,0.97992
288.541,18.79133,-0.36854,0.98969,0.97804
291.541,18.8821,-0.39253,0.96506,0.97616
294.541,18.97295,-0.42136,0.94509,0.97426
297.541,19.06371,-0.45107,0.91624,0.97235
300.541,19.1544,-0.48589,0.8851,0.97042
303.541,19.24554,-0.52224,0.85792,0.96849
306.541,19.3365,-0.56252,0.83696,0.96653
309.541,19.42732,-0.60812,0.82025,0.96457
312.541,19.51835,-0.65375,0.81222,0.96259
315.541,19.60934,-0.7047,0.81113,0.9606
318.541,19.70049,-0.75809,0.82329,0.9586
321.541,19.79185,-0.81919,0.8437,0.95658
324.541,19.88322,-0.8778,0.86384,0.95455
327.541,19.97458,-0.94417,0.88812,0.95251
330.541,20.06604,-1.0187,0.90668,0.95046
333.541,20.15762,-1.09378,0.92145,0.9484
336.541,20.2494,-1.17486,0.92771,0.94632
339.541,20.34111,-1.26145,0.92362,0.94424
342.541,20.43282,-1.3553,0.90616,0.94214
345.541,20.52441,-1.44698,0.874,0.94003
348.541,20.61659,-1.54885,0.82811,0.93791
351.541,20.70851,-1.65016,0.76207,0.93578
354.541,20.80046,-1.74637,0.68646,0.93364
357.541,20.89268,-1.83701,0.60306,0.93149
360.541,20.985,-1.92336,0.52687,0.92933
363.541,21.07724,-1.99561,0.46371,0.92716
366.541,21.16965,-2.05466,0.42387,0.92498
369.541,21.26203,-2.10436,0.40102,0.92279
372.541,21.35456,-2.1423,0.38368,0.92059
375.541,21.44748,-2.17267,0.37067,0.91838
378.541,21.5406,-2.19619,0.35534,0.91616
381.541,21.63344,-2.21702,0.33812,0.91393
384.541,21.7265,-2.23898,0.31885,0.9117
387.541,21.81953,-2.25475,0.29472,0.90945
390.541,21.91302,-2.26958,0.27242,0.9072
393.541,22.00646,-2.28567,0.24728,0.90494
396.541,22.09971,-2.30019,0.22259,0.90267
399.541,22.19301,-2.31017,0.20109,0.90039
402.541,22.2867,-2.32394,0.18117,0.8981
405.541,22.38029,-2.33743,0.16011,0.89581
408.541,22.47397,-2.34855,0.14681,0.89351
411.541,22.56778,-2.36026,0.13537,0.8912
414.541,22.6617,-2.37183,0.12862,0.88888
417.541,22.7553,-2.38315,0.12992,0.88656
420.541,22.8496,-2.3955,0.13051,0.88423
423.541,22.9438,-2.40598,0.13509,0.88189
426.541,23.03809,-2.41739,0.14489,0.87954
429.541,23.13243,-2.42626,0.15552,0.87719
432.541,23.22684,-2.43702,0.16874,0.87484
435.541,23.3214,-2.44742,0.18368,0.87247
438.541,23.41613,-2.4579,0.20398,0.87011
441.541,23.51086,-2.46902,0.22234,0.86773
444.541,23.6056,-2.47901,0.24503,0.86535
447.541,23.70062,-2.48839,0.26179,0.86296
450.541,23.79565,-2.49734,0.2802,0.86057
453.541,23.8907,-2.50738,0.30069,0.85817
456.541,23.98586,-2.5165,0.3146,0.85577
459.541,24.08126,-2.52346,0.32983,0.85336
462.541,24.17667,-2.53317,0.34091,0.85095
465.541,24.2722,-2.541,0.35528,0.84853
468.541,24.36765,-2.5493,0.36428,0.84611
471.541,24.46294,-2.55697,0.37329,0.84369
474.541,24.5589,-2.56416,0.38019,0.84126
477.541,24.65464,-2.5711,0.38942,0.83882
480.541,24.75061,-2.57787,0.3945,0.83638
483.541,24.84637,-2.58557,0.40003,0.83394
486.541,24.94228,-2.59125,0.40363,0.83149
489.541,25.03823,-2.59816,0.40888,0.82904
492.541,25.13423,-2.60331,0.41302,0.82659
495.541,25.23043,-2.6086,0.41468,0.82413
498.541,25.32649,-2.6149,0.41286,0.82167
501.541,25.4227,-2.62137,0.41504,0.81921
504.541,25.51899,-2.62778,0.41405,0.81674
507.541,25.61526,-2.63247,0.41587,0.81427
510.541,25.7117,-2.63725,0.41396,0.8118
513.541,25.80821,-2.64302,0.41261,0.80932
516.541,25.90483,-2.64895,0.4139,0.80684
519.541,26.00113,-2.65417,0.41168,0.80436
522.541,26.09797,-2.65919,0.41065,0.80188
525.541,26.19492,-2.66228,0.4066,0.7994
528.541,26.29164,-2.66785,0.40715,0.79691
531.541,26.3884,-2.67321,0.40448,0.79442
534.541,26.48538,-2.67748,0.40366,0.79193
537.541,26.5824,-2.68244,0.40169,0.78944
540.541,26.67955,-2.68639,0.398,0.78694
543.541,26.77658,-2.6894,0.40056,0.78445
546.541,26.87373,-2.69493,0.39782,0.78195
549.541,26.97095,-2.6984,0.39689,0.77946
552.541,27.06826,-2.70392,0.39683,0.77696
555.541,27.16542,-2.70852,0.3955,0.77446
558.541,27.26292,-2.71168,0.39409,0.77196
561.541,27.36032,-2.71717,0.39632,0.76945
564.541,27.45781,-2.72022,0.39774,0.76695
567.541,27.5552,-2.72314,0.3943,0.76445
570.541,27.65271,-2.72811,0.39768,0.76195
573.541,27.7503,-2.73031,0.39336,0.75944
576.541,27.84797,-2.73451,0.3978,0.75694
579.541,27.9454,-2.73812,0.40244,0.75443
582.541,28.0431,-2.74083,0.40872,0.75193
585.541,28.14085,-2.74431,0.41293,0.74942
588.541,28.2389,-2.74766,0.42137,0.74692
591.541,28.33673,-2.75051,0.42994,0.74442
594.541,28.435,-2.75347,0.43714,0.74191
597.541,28.5331,-2.75713,0.44162,0.73941
600.541,28.63141,-2.75987,0.45338,0.73691
603.541,28.7298,-2.76308,0.45855,0.7344
606.541,28.82827,-2.76648,0.47075,0.7319
609.541,28.9267,-2.76925,0.48051,0.7294
612.541,29.02539,-2.77188,0.48676,0.7269
615.541,29.1243,-2.77341,0.49697,0.7244
618.541,29.2231,-2.77676,0.50471,0.7219
621.541,29.322,-2.778,0.50957,0.71941
624.541,29.4208,-2.78065,0.51647,0.71691
627.541,29.51988,-2.78339,0.52299,0.71441
630.541,29.61873,-2.78602,0.52879,0.71192
633.541,29.71803,-2.78753,0.53765,0.70943
636.541,29.8173,-2.79012,0.54487,0.70694
639.541,29.9164,-2.79261,0.55652,0.70445
642.541,30.01544,-2.79519,0.56866,0.70196
645.541,30.11454,-2.79654,0.57181,0.69948
648.541,30.214,-2.79916,0.58224,0.69699
651.541,30.31338,-2.80052,0.59169,0.69451
654.541,30.4128,-2.80177,0.60273,0.69203
657.541,30.51205,-2.80456,0.60779,0.68955
660.541,30.6114,-2.80717,0.61526,0.68708
663.541,30.7108,-2.80854,0.62028,0.6846
666.541,30.81012,-2.8105,0.63054,0.68213
669.541,30.90965,-2.81309,0.6336,0.67966
672.541,31.0091,-2.81378,0.6369,0.67719
675.541,31.1086,-2.81631,0.64097,0.67473
678.541,31.2082,-2.8164,0.63871,0.67227
681.541,31.3077,-2.81916,0.64136,0.66981
684.541,31.4074,-2.82047,0.63763,0.66735
687.541,31.5069,-2.82182,0.63531,0.66489
690.541,31.60665,-2.82307,0.631,0.66244
693.541,31.70637,-2.82511,0.62344,0.65999
696.541,31.80615,-2.82836,0.61698,0.65755
699.541,31.9059,-2.82978,0.60312,0.6551
702.541,32.00562,-2.83233,0.59504,0.65266
705.541,32.10556,-2.83365,0.58877,0.65022
708.541,32.20552,-2.83495,0.58114,0.64779
711.541,32.30553,-2.83561,0.56743,0.64536
714.541,32.4056,-2.83692,0.56029,0.64293
717.541,32.5056,-2.83822,0.55118,0.6405
720.541,32.60565,-2.83893,0.53903,0.63808
723.541,32.70578,-2.83891,0.52869,0.63566
726.541,32.80581,-2.84016,0.5168,0.63325
729.541,32.90595,-2.84288,0.50786,0.63084
732.541,33.0062,-2.84451,0.5014,0.62843
735.541,33.1064,-2.84405,0.48902,0.62602
738.541,33.2068,-2.8455,0.47416,0.62362
741.541,33.30823,-2.8481,0.47184,0.62122
742.241,33.332,-2.84811,0.46837,0.62066