File: 01_Data/Alpha_OSB/MCC/Alpha_OSB_MCC_30K_min_211206_R1.txt
Sample ID:	C:\MCC\MCC Cal\Test\Alpha_OSB_MCC_30K_min_211206_R1.txt
Sample Weight (mg):	4.29
Heating Rate (C/s):	0.5
Combustor Temp (C):	900
N2 Flow Rate (cc/min):	80
O2 Flow Rate (cc/min):	20
Calibration File:	C:\MCC\MCC Cal\Coeff1 JN10440_30_210304.txt.txt
T Correction Coefficients:	0	1.024463	0
Time Shift (s):	14
*
Time (s)	Temperature (C)	N2 flow rate (cc/min)	O2 flow rate (cc/min)	Flow Rate (cc/min)	Oxygen (%)	HRR (W/g)	Heating rate (C/s)
0.000	109.425	79.998	19.995	103.056	20.050	0.109	0.021
8.000	109.421	80.000	19.995	103.079	20.054	-0.190	-0.006
16.000	109.506	79.999	19.996	103.106	20.041	0.794	0.040
24.001	109.705	80.001	19.995	103.140	20.037	1.112	0.033
32.001	110.153	80.001	19.994	103.209	20.025	1.997	0.072
40.000	111.084	80.000	19.995	103.263	20.014	2.811	0.151
48.001	112.347	79.999	19.994	103.299	20.006	3.433	0.173
56.000	114.255	79.997	19.994	103.303	20.003	3.638	0.258
64.000	116.473	80.001	19.993	103.339	19.997	4.117	0.292
72.000	119.110	80.002	19.994	103.323	19.996	4.141	0.333
80.000	121.927	79.997	19.996	103.311	20.000	3.850	0.335
88.000	125.087	80.000	19.995	103.337	20.000	3.864	0.409
96.000	128.399	80.000	19.996	103.322	20.005	3.473	0.442
104.000	131.918	80.000	19.996	103.330	20.003	3.630	0.447
112.000	135.631	79.999	19.995	103.318	20.006	3.434	0.464
120.000	139.399	79.999	19.994	103.336	20.004	3.591	0.461
128.000	143.242	80.002	19.994	103.318	20.003	3.668	0.487
136.000	147.239	79.998	19.995	103.332	20.007	3.324	0.547
144.000	151.214	79.998	19.994	103.306	20.006	3.378	0.489
152.000	155.269	80.001	19.995	103.308	20.001	3.815	0.507
160.000	159.219	79.999	19.994	103.308	20.002	3.721	0.482
168.000	163.273	79.999	19.995	103.305	20.000	3.874	0.514
176.000	167.385	80.002	19.994	103.301	20.002	3.706	0.527
184.000	171.369	80.005	19.994	103.283	19.998	4.013	0.463
192.000	175.363	79.996	19.995	103.280	19.998	3.988	0.485
200.000	179.404	79.999	19.994	103.291	19.996	4.185	0.520
208.000	183.355	79.999	19.995	103.278	19.993	4.358	0.472
216.000	187.355	79.995	19.995	103.274	19.993	4.369	0.556
224.000	191.364	79.999	19.994	103.268	19.990	4.629	0.524
232.000	195.327	80.000	19.995	103.264	19.985	4.971	0.498
240.000	199.234	80.003	19.996	103.268	19.984	5.081	0.497
248.000	203.154	79.999	19.995	103.290	19.983	5.146	0.516
256.000	207.114	80.000	19.993	103.288	19.982	5.240	0.492
264.000	211.151	79.992	19.995	103.267	19.972	5.974	0.509
272.000	215.110	79.999	19.995	103.264	19.972	5.949	0.508
280.000	219.089	80.000	19.996	103.265	19.968	6.231	0.490
288.000	223.080	80.001	19.995	103.273	19.966	6.417	0.482
296.000	227.066	80.000	19.994	103.262	19.957	7.116	0.469
304.000	231.091	80.005	19.993	103.263	19.957	7.086	0.475
312.000	235.080	80.018	19.992	103.285	19.943	8.128	0.493
320.000	239.036	80.004	19.993	103.275	19.933	8.883	0.492
328.000	242.981	79.992	19.994	103.274	19.927	9.371	0.482
336.000	246.993	80.007	19.993	103.298	19.919	9.907	0.512
344.000	251.071	80.002	19.993	103.274	19.907	10.879	0.515
352.000	255.117	79.991	19.994	103.288	19.898	11.484	0.541
360.000	259.113	79.994	19.996	103.280	19.885	12.513	0.543
368.000	263.148	80.002	19.994	103.292	19.864	14.065	0.505
376.000	267.218	79.994	19.994	103.299	19.846	15.405	0.506
384.000	271.220	79.999	19.996	103.299	19.824	17.105	0.501
392.000	275.250	80.002	19.996	103.305	19.803	18.640	0.522
400.000	279.276	80.001	19.995	103.322	19.775	20.792	0.542
408.000	283.265	79.993	19.997	103.344	19.748	22.791	0.513
416.000	287.305	79.999	19.995	103.342	19.719	24.991	0.496
424.000	291.313	80.002	19.995	103.347	19.684	27.623	0.494
432.000	295.402	80.006	19.995	103.355	19.653	29.973	0.523
440.000	299.371	79.994	19.996	103.377	19.620	32.456	0.489
448.000	303.375	79.999	19.993	103.385	19.582	35.292	0.508
456.000	307.405	80.009	19.993	103.395	19.542	38.318	0.494
464.000	311.384	80.003	19.993	103.404	19.504	41.150	0.480
472.000	315.505	80.005	19.994	103.417	19.464	44.190	0.497
480.000	319.495	80.006	19.994	103.418	19.421	47.455	0.483
488.000	323.513	79.999	19.996	103.435	19.375	50.893	0.477
496.000	327.621	79.997	19.994	103.453	19.329	54.391	0.518
504.000	331.658	79.999	19.996	103.459	19.279	58.124	0.525
512.000	335.744	79.988	19.996	103.485	19.237	61.270	0.472
520.000	339.731	80.006	19.994	103.496	19.199	64.160	0.481
528.000	343.797	80.001	19.995	103.497	19.178	65.740	0.492
536.000	347.856	80.010	19.993	103.465	19.167	66.574	0.515
544.000	351.905	80.008	19.993	103.472	19.173	66.032	0.492
552.000	355.992	80.000	19.994	103.446	19.202	63.838	0.515
560.000	359.966	79.999	19.995	103.416	19.259	59.555	0.489
568.000	364.049	80.008	19.996	103.382	19.346	52.990	0.514
576.000	368.055	79.997	19.995	103.331	19.447	45.410	0.499
584.000	372.165	79.990	19.996	103.299	19.561	36.833	0.504
592.000	376.208	80.002	19.995	103.268	19.673	28.422	0.511
600.000	380.302	80.001	19.995	103.225	19.768	21.262	0.550
608.000	384.343	80.000	19.995	103.217	19.841	15.759	0.536
616.000	388.375	80.002	19.994	103.195	19.888	12.243	0.497
624.000	392.467	80.002	19.994	103.191	19.919	9.970	0.546
632.000	396.534	80.016	19.993	103.189	19.935	8.761	0.494
640.000	400.582	79.996	19.997	103.193	19.943	8.103	0.526
648.000	404.604	79.994	19.995	103.194	19.950	7.578	0.482
656.000	408.633	79.996	19.996	103.194	19.955	7.225	0.505
664.000	412.631	79.999	19.997	103.177	19.954	7.338	0.488
672.000	416.633	80.002	19.996	103.194	19.961	6.816	0.529
680.000	420.629	79.997	19.997	103.184	19.966	6.381	0.535
688.000	424.637	79.999	19.995	103.186	19.968	6.239	0.532
696.000	428.698	79.998	19.995	103.185	19.969	6.160	0.515
704.000	432.775	80.001	19.995	103.197	19.975	5.742	0.536
712.000	436.860	79.998	19.995	103.190	19.973	5.866	0.517
720.000	440.910	79.999	19.995	103.189	19.983	5.098	0.518
728.000	444.937	79.999	19.996	103.182	19.981	5.301	0.493
736.000	448.912	80.000	19.996	103.182	19.985	4.960	0.487
744.000	452.857	80.000	19.994	103.187	19.989	4.651	0.475
752.000	456.839	80.000	19.997	103.183	19.991	4.524	0.472
760.000	460.825	79.998	19.995	103.184	19.992	4.459	0.517
768.000	464.768	79.999	19.995	103.189	19.992	4.471	0.512
776.000	468.706	80.002	19.993	103.187	19.990	4.595	0.477
784.000	472.690	80.000	19.994	103.185	19.995	4.264	0.482
792.000	476.748	79.999	19.994	103.183	19.998	3.983	0.479
800.000	480.808	80.001	19.995	103.185	20.000	3.844	0.492
808.000	484.928	79.999	19.994	103.185	20.005	3.477	0.519
816.000	489.102	80.000	19.995	103.177	20.005	3.498	0.537
824.000	493.294	80.000	19.995	103.179	20.006	3.412	0.514
832.000	497.464	80.005	19.996	103.187	20.004	3.525	0.501
840.000	501.692	80.001	19.993	103.179	20.006	3.408	0.531
848.000	505.841	80.002	19.995	103.178	20.005	3.449	0.532
856.000	509.995	80.003	19.995	103.180	20.014	2.793	0.520
864.000	514.183	80.001	19.995	103.160	20.015	2.697	0.530
872.000	518.427	80.001	19.995	103.183	20.012	2.926	0.563
880.000	522.541	80.000	19.996	103.176	20.017	2.605	0.538
888.000	526.569	80.000	19.995	103.159	20.015	2.728	0.499
896.000	530.671	80.000	19.995	103.163	20.016	2.653	0.503
904.000	534.782	79.999	19.995	103.159	20.014	2.810	0.503
912.000	538.847	80.000	19.995	103.171	20.016	2.665	0.549
920.000	542.848	80.001	19.995	103.175	20.015	2.732	0.505
928.000	546.864	79.998	19.994	103.147	20.016	2.663	0.504
936.000	550.923	79.999	19.994	103.174	20.022	2.196	0.533
944.000	555.016	80.000	19.995	103.153	20.015	2.699	0.444
952.000	559.413	80.000	19.997	103.145	20.014	2.837	1.377
960.000	563.222	79.998	19.995	103.174	20.012	2.979	0.638
968.000	567.286	80.000	19.993	103.148	20.014	2.796	0.477
976.000	571.334	79.998	19.994	103.164	20.014	2.787	0.471
984.000	575.528	79.999	19.994	103.184	20.018	2.513	0.548
992.000	579.574	80.002	19.995	103.179	20.020	2.342	0.528
1000.001	583.731	80.002	19.994	103.157	20.020	2.329	0.556
1008.000	587.747	79.999	19.994	103.156	20.018	2.477	0.508
1016.000	591.793	80.000	19.996	103.146	20.015	2.691	0.504
1024.001	595.930	80.002	19.995	103.152	20.014	2.768	0.516
1032.000	600.015	79.998	19.996	103.180	20.016	2.688	0.503
1040.000	604.196	79.998	19.995	103.169	20.017	2.559	0.499
1048.000	608.350	80.000	19.995	103.170	20.017	2.561	0.523
1056.000	612.621	79.999	19.994	103.165	20.019	2.400	0.548
1064.000	616.818	80.000	19.994	103.170	20.022	2.231	0.530
1072.000	621.011	80.000	19.995	103.150	20.020	2.333	0.544
1080.000	625.153	80.003	19.994	103.153	20.020	2.342	0.512
1088.000	629.243	80.000	19.994	103.162	20.020	2.377	0.487
1096.000	633.388	80.001	19.993	103.154	20.019	2.463	0.555
1104.000	637.512	80.002	19.993	103.151	20.018	2.540	0.516
1112.000	641.552	79.999	19.993	103.152	20.019	2.437	0.504
1120.000	645.589	80.001	19.994	103.147	20.019	2.418	0.485
1128.000	649.644	80.001	19.995	103.145	20.021	2.289	0.522
1136.000	653.774	79.999	19.996	103.151	20.020	2.331	0.528
1144.000	657.903	80.000	19.995	103.150	20.012	2.953	0.509
1152.001	662.034	80.001	19.995	103.153	20.020	2.327	0.513
1160.000	665.479	80.001	19.994	103.146	20.016	2.622	0.158
1168.000	670.195	80.001	19.995	103.146	20.016	2.616	0.512
1176.001	674.375	80.009	19.988	103.162	20.017	2.558	0.543
1184.001	678.425	80.001	19.992	103.148	20.019	2.400	0.446
1192.000	682.555	79.997	19.993	103.142	20.014	2.774	0.530
1200.000	686.535	79.997	19.999	103.147	20.015	2.747	0.468
1208.001	690.527	79.999	19.996	103.146	20.015	2.701	0.530
1216.000	694.470	80.002	19.999	103.161	20.014	2.832	0.461
1224.000	698.580	79.999	19.999	103.145	20.015	2.759	0.488
1232.000	702.700	80.005	19.993	103.143	20.012	2.924	0.519
1240.000	706.761	80.004	19.988	103.154	20.015	2.709	0.530
1248.001	710.883	80.002	19.996	103.150	20.015	2.757	0.514
1256.000	714.939	80.000	19.995	103.144	20.012	2.983	0.523
1264.000	718.960	80.001	19.992	103.143	20.013	2.843	0.490
1272.000	723.021	80.006	19.988	103.142	20.012	2.935	0.505
1280.000	727.032	79.999	19.993	103.149	20.012	2.972	0.507
1288.000	731.045	79.999	19.994	103.150	20.011	3.052	0.506
1296.000	734.971	80.001	19.998	103.142	20.010	3.126	0.462
1304.001	739.036	80.003	19.991	103.145	20.009	3.169	0.549
1312.000	743.004	79.999	19.997	103.137	20.011	3.045	0.505
1313.000	743.497	80.003	19.998	103.136	20.013	2.884	0.479