File: 01_Data/Alpha_OSB/MCC/Alpha_OSB_MCC_30K_min_211206_R2.txt
Sample ID:	C:\MCC\MCC Cal\Test\Alpha_OSB_MCC_30K_min_211206_R2.txt
Sample Weight (mg):	4.4
Heating Rate (C/s):	0.5
Combustor Temp (C):	900
N2 Flow Rate (cc/min):	80
O2 Flow Rate (cc/min):	20
Calibration File:	C:\MCC\MCC Cal\Coeff1 JN10440_30_210304.txt.txt
T Correction Coefficients:	0	1.024463	0
Time Shift (s):	14
*
Time (s)	Temperature (C)	N2 flow rate (cc/min)	O2 flow rate (cc/min)	Flow Rate (cc/min)	Oxygen (%)	HRR (W/g)	Heating rate (C/s)
0.000	110.403	79.999	19.994	103.069	20.074	-0.114	-0.014
8.000	110.430	80.000	19.995	103.068	20.076	-0.271	-0.009
16.000	110.447	80.001	19.995	103.154	20.059	0.996	0.012
24.000	110.843	80.002	19.994	103.186	20.049	1.673	0.062
32.000	111.550	80.002	19.995	103.213	20.043	2.134	0.118
40.000	112.591	80.002	19.996	103.237	20.037	2.577	0.187
48.000	114.037	79.996	19.996	103.265	20.035	2.747	0.181
56.001	115.808	80.000	19.994	103.268	20.031	3.050	0.241
64.001	117.860	80.000	19.995	103.308	20.025	3.498	0.274
72.000	120.391	79.995	19.998	103.330	20.020	3.817	0.361
80.000	123.198	79.998	19.996	103.322	20.018	3.999	0.360
88.000	126.182	79.999	19.994	103.335	20.013	4.309	0.394
96.000	129.576	80.001	19.994	103.332	20.016	4.087	0.426
104.000	133.003	80.001	19.995	103.340	20.018	3.950	0.449
112.000	136.775	80.002	19.995	103.340	20.018	3.974	0.472
120.000	140.608	80.002	19.994	103.338	20.019	3.887	0.481
128.000	144.578	80.000	19.993	103.336	20.017	4.078	0.485
136.000	148.656	80.000	19.992	103.331	20.020	3.855	0.518
144.000	152.711	79.998	19.994	103.314	20.020	3.844	0.509
152.000	156.809	79.996	19.996	103.306	20.017	4.067	0.510
160.000	160.867	79.997	19.999	103.301	20.020	3.810	0.487
168.000	164.961	79.999	19.998	103.300	20.020	3.808	0.511
176.000	169.018	80.002	19.996	103.295	20.021	3.750	0.490
184.000	173.055	80.004	19.994	103.301	20.019	3.903	0.497
192.000	176.993	79.999	19.993	103.284	20.020	3.819	0.453
200.000	180.989	80.001	19.994	103.282	20.021	3.727	0.468
208.000	184.920	80.000	19.995	103.274	20.020	3.813	0.445
216.000	188.962	80.000	19.994	103.282	20.016	4.151	0.496
224.000	192.940	80.002	19.994	103.277	20.015	4.204	0.509
232.000	196.863	79.999	19.996	103.270	20.009	4.623	0.504
240.000	200.725	79.999	19.996	103.277	20.007	4.757	0.487
248.000	204.619	80.000	19.995	103.271	20.003	5.096	0.477
256.000	208.645	79.998	19.993	103.270	20.002	5.150	0.543
264.000	212.629	79.999	19.996	103.285	19.998	5.429	0.508
272.000	216.637	80.001	19.993	103.271	19.993	5.813	0.516
280.001	220.635	80.001	19.995	103.279	19.988	6.160	0.505
288.000	224.659	80.000	19.995	103.274	19.983	6.541	0.516
296.000	228.657	80.003	19.994	103.275	19.979	6.807	0.492
304.000	232.746	80.000	19.996	103.276	19.970	7.478	0.485
312.000	236.688	79.998	19.996	103.270	19.964	7.925	0.443
320.000	240.647	80.004	19.995	103.274	19.957	8.434	0.504
328.000	244.651	79.999	19.995	103.281	19.946	9.257	0.499
336.000	248.623	80.000	19.996	103.271	19.934	10.156	0.488
344.000	252.653	80.000	19.995	103.284	19.921	11.048	0.454
352.000	256.609	80.001	19.998	103.285	19.909	11.975	0.489
360.000	260.616	80.006	19.992	103.290	19.892	13.214	0.514
368.001	264.553	79.999	19.997	103.288	19.875	14.462	0.474
376.000	268.594	80.001	19.995	103.307	19.851	16.221	0.513
384.000	272.618	80.001	19.997	103.308	19.830	17.742	0.501
392.000	276.632	79.998	19.996	103.327	19.805	19.601	0.491
400.000	280.647	79.998	19.994	103.340	19.777	21.643	0.490
408.000	284.618	79.998	19.995	103.335	19.741	24.240	0.485
416.000	288.587	79.999	19.997	103.349	19.713	26.311	0.500
424.000	292.566	80.002	19.994	103.343	19.677	28.944	0.475
432.000	296.557	80.001	19.994	103.374	19.642	31.508	0.490
440.000	300.494	80.003	19.995	103.383	19.611	33.803	0.492
448.001	304.419	80.000	19.997	103.403	19.574	36.519	0.493
456.000	308.446	80.000	19.996	103.414	19.536	39.305	0.511
464.001	312.505	80.000	19.994	103.421	19.496	42.239	0.494
472.000	316.547	79.998	19.996	103.420	19.456	45.181	0.502
480.000	320.565	79.999	19.996	103.450	19.407	48.835	0.498
488.000	324.553	79.999	19.992	103.455	19.358	52.434	0.484
496.000	328.616	80.004	19.987	103.461	19.307	56.151	0.535
504.000	332.679	79.995	19.998	103.483	19.266	59.176	0.539
512.000	336.774	80.000	19.996	103.493	19.225	62.176	0.487
520.000	340.847	80.002	19.996	103.497	19.193	64.529	0.494
528.000	344.829	80.002	19.993	103.485	19.170	66.216	0.472
536.000	348.905	79.999	19.994	103.482	19.169	66.269	0.502
544.000	352.994	80.002	19.997	103.461	19.186	64.964	0.531
552.000	357.043	80.000	19.998	103.438	19.225	62.108	0.493
560.000	361.045	79.998	20.002	103.413	19.294	57.029	0.487
568.000	365.040	80.000	19.996	103.359	19.383	50.453	0.475
576.000	369.087	80.001	19.995	103.326	19.491	42.556	0.510
584.000	373.140	80.000	19.997	103.277	19.602	34.408	0.519
592.001	377.217	80.000	19.996	103.234	19.715	26.136	0.524
600.000	381.263	80.002	19.996	103.223	19.804	19.606	0.506
608.000	385.296	79.999	19.997	103.202	19.869	14.892	0.499
616.000	389.384	79.997	19.994	103.210	19.911	11.833	0.502
624.000	393.526	79.999	19.997	103.194	19.932	10.299	0.512
632.000	397.661	80.004	19.995	103.193	19.947	9.195	0.477
640.000	401.751	79.999	19.996	103.196	19.954	8.624	0.539
648.000	405.872	80.009	19.987	103.203	19.962	8.065	0.527
656.000	409.919	80.004	19.992	103.202	19.962	8.070	0.483
664.000	414.006	79.997	19.995	103.185	19.968	7.601	0.507
672.000	418.011	80.000	19.993	103.193	19.972	7.367	0.483
680.000	422.057	80.005	19.989	103.193	19.975	7.112	0.510
688.000	425.996	80.004	19.994	103.187	19.974	7.222	0.468
696.000	430.016	80.002	19.994	103.187	19.975	7.092	0.487
704.000	434.037	79.998	19.997	103.192	19.980	6.766	0.539
712.000	438.102	79.996	19.994	103.189	19.983	6.508	0.505
720.000	442.177	80.001	19.994	103.197	19.986	6.334	0.502
728.000	446.358	80.000	19.999	103.187	19.988	6.197	0.556
736.000	450.521	80.003	19.996	103.185	19.989	6.073	0.552
744.000	454.634	80.001	19.997	103.183	19.995	5.649	0.507
752.000	458.801	79.998	20.000	103.184	19.997	5.474	0.531
760.000	462.973	80.002	19.994	103.187	20.003	5.081	0.499
768.000	467.094	80.004	19.995	103.180	20.001	5.229	0.531
776.000	471.206	80.004	19.988	103.186	20.007	4.748	0.541
784.000	475.328	79.997	19.996	103.181	20.015	4.172	0.515
792.000	479.382	79.999	19.992	103.176	20.016	4.149	0.529
800.000	483.394	79.999	19.993	103.166	20.019	3.893	0.519
808.000	487.339	80.001	19.995	103.183	20.018	3.950	0.502
816.000	491.278	80.000	19.991	103.174	20.018	4.001	0.501
824.000	495.290	79.997	19.998	103.175	20.021	3.761	0.517
832.000	499.277	80.000	19.994	103.186	20.022	3.683	0.494
840.000	503.286	80.000	19.996	103.185	20.028	3.251	0.482
848.000	507.349	80.001	19.995	103.186	20.027	3.312	0.517
856.000	511.452	80.003	19.994	103.171	20.021	3.740	0.529
864.000	515.474	80.000	19.995	103.181	20.025	3.469	0.498
872.000	519.625	80.001	19.995	103.181	20.024	3.508	0.525
880.000	523.856	79.998	19.994	103.173	20.030	3.086	0.525
888.000	528.151	80.000	19.995	103.174	20.028	3.202	0.583
896.000	532.362	79.993	20.002	103.171	20.031	3.031	0.499
904.000	536.556	80.002	19.995	103.181	20.030	3.126	0.503
912.000	540.744	80.002	19.992	103.178	20.029	3.139	0.483
920.000	544.876	80.005	19.996	103.174	20.031	3.005	0.559
928.000	548.640	80.006	19.993	103.172	20.032	2.921	0.174
936.000	553.258	80.004	19.992	103.177	20.037	2.587	0.620
944.000	557.248	80.000	19.992	103.182	20.034	2.831	0.526
952.000	561.349	80.000	19.998	103.163	20.033	2.869	0.488
960.000	565.371	80.001	19.998	103.153	20.036	2.650	0.543
968.000	569.407	80.002	19.995	103.167	20.036	2.664	0.516
976.000	573.558	79.995	19.998	103.167	20.036	2.649	0.522
984.000	577.633	80.003	19.994	103.158	20.036	2.636	0.480
992.000	581.748	80.003	19.996	103.168	20.032	2.935	0.505
1000.000	585.806	80.000	19.997	103.175	20.034	2.778	0.530
1008.000	589.882	79.998	19.998	103.145	20.035	2.746	0.546
1016.000	593.966	80.003	19.996	103.158	20.034	2.795	0.536
1024.000	598.124	80.002	19.992	103.167	20.031	3.013	0.520
1032.000	602.401	80.000	19.995	103.173	20.034	2.790	0.534
1040.000	606.623	80.000	19.996	103.161	20.037	2.595	0.537
1048.000	610.889	80.001	19.996	103.161	20.035	2.711	0.513
1056.000	615.115	80.001	19.993	103.155	20.033	2.878	0.507
1064.000	619.350	80.000	19.994	103.163	20.037	2.615	0.520
1072.000	623.501	80.006	19.993	103.150	20.037	2.611	0.518
1080.000	627.678	80.001	19.989	103.151	20.035	2.713	0.504
1088.000	631.803	80.001	19.994	103.156	20.035	2.717	0.515
1096.000	635.920	80.000	19.995	103.145	20.033	2.890	0.505
1104.001	640.025	80.000	19.995	103.151	20.033	2.843	0.505
1112.000	644.081	80.000	19.997	103.150	20.035	2.696	0.504
1120.000	648.151	80.002	19.994	103.147	20.040	2.379	0.491
1128.001	652.213	79.999	19.995	103.145	20.037	2.584	0.484
1136.001	656.233	79.999	19.995	103.147	20.038	2.519	0.493
1144.000	660.245	80.001	19.995	103.152	20.035	2.727	0.485
1152.000	664.190	80.000	19.992	103.157	20.037	2.607	0.477
1160.000	668.142	80.000	19.995	103.155	20.038	2.493	0.509
1168.001	672.214	79.997	19.997	103.150	20.034	2.820	0.506
1176.000	676.299	80.004	19.994	103.147	20.035	2.700	0.579
1184.000	680.439	80.002	19.995	103.152	20.038	2.511	0.512
1192.001	684.428	80.000	19.997	103.148	20.033	2.900	0.517
1200.000	688.469	80.002	19.997	103.147	20.033	2.894	0.522
1208.000	692.415	80.001	19.994	103.144	20.032	2.912	0.473
1216.001	696.452	80.000	19.995	103.147	20.033	2.859	0.513
1224.001	700.444	80.001	19.995	103.148	20.031	3.028	0.500
1232.000	704.471	80.002	19.995	103.147	20.036	2.647	0.524
1240.000	708.446	80.002	19.994	103.154	20.034	2.835	0.525
1248.001	712.563	80.002	19.994	103.151	20.037	2.547	0.487
1256.001	716.674	80.003	19.996	103.147	20.033	2.847	0.502
1264.000	720.716	80.002	19.994	103.142	20.034	2.790	0.509
1272.000	724.728	80.001	19.996	103.145	20.037	2.586	0.517
1280.000	728.699	80.000	19.996	103.147	20.034	2.806	0.488
1288.000	732.779	79.999	19.997	103.147	20.034	2.818	0.498
1296.000	736.813	80.000	19.996	103.148	20.034	2.823	0.504
1304.000	740.792	80.000	19.995	103.148	20.035	2.727	0.490
1309.501	743.584	80.001	19.993	103.145	20.030	3.087	0.496