File: 01_Data/Basswood_Panel/STA/N2/10K_min/Basswood_STA_N2_10KData_220314_R1.csv
##Temp./Â°C,Time/min,Mass loss(subtr.)/mg,DSC(subtr.)/(mW/mg),Sensit./(uV/mW)
49.758,10.01,0.00943,0.01574995,1.07513
52.758,11.28072,0.00971934,0.13233,1.07356
55.758,11.71393,0.01053216,0.18704,1.072
58.758,12.0824,0.0119634,0.22096,1.07044
61.758,12.42489,0.0109716,0.24359,1.06888
64.758,12.75715,0.01046314,0.25926,1.06732
67.758,13.08169,0.01051938,0.27152,1.06577
70.758,13.4042,0.010508,0.28556,1.06421
73.758,13.72124,0.009230383,0.29408,1.06266
76.758,14.035,0.01006111,0.30632,1.06111
79.758,14.3462,0.009210611,0.3123,1.05956
82.758,14.655,0.009257638,0.32108,1.05801
85.758,14.96055,0.007888695,0.32231,1.05646
88.758,15.26418,0.00657083,0.32462,1.05491
91.758,15.56424,0.00525625,0.32596,1.05337
94.758,15.8631,0.00539944,0.32655,1.05183
97.758,16.1605,0.00527629,0.3227,1.05028
100.758,16.45606,0.006620781,0.32211,1.04874
103.758,16.7506,0.00525159,0.32298,1.0472
106.758,17.04464,0.005975355,0.32225,1.04567
109.758,17.3379,0.00525429,0.32273,1.04413
112.758,17.6313,0.004530488,0.32501,1.0426
115.758,17.92442,0.005203773,0.32714,1.04106
118.758,18.21671,0.005277049,0.3318,1.03953
121.758,18.50972,0.005250325,0.3336,1.038
124.758,18.80152,0.004914936,0.33918,1.03647
127.758,19.093,0.00622034,0.34247,1.03494
130.758,19.38334,0.004926376,0.34878,1.03341
133.758,19.67374,0.004271179,0.34913,1.03189
136.758,19.96487,0.00360315,0.35456,1.03036
139.758,20.25562,0.003603549,0.35652,1.02884
142.758,20.54573,0.004583983,0.36079,1.02732
145.758,20.83496,0.00492999,0.36474,1.02579
148.758,21.12472,0.00362167,0.36828,1.02427
151.758,21.4137,0.00295964,0.37173,1.02275
154.758,21.70228,0.00222629,0.37686,1.02123
157.758,21.99061,0.00196999,0.383,1.01972
160.758,22.27838,0.002587175,0.38806,1.0182
163.758,22.56588,0.000333436,0.39083,1.01668
166.758,22.8533,0.0006500004,0.39511,1.01517
169.758,23.1414,0.0003113482,0.39573,1.01365
172.758,23.42945,0.0003200066,0.39939,1.01214
175.758,23.7175,-0.000839515,0.40553,1.01062
178.758,24.00584,-0.00231,0.40582,1.00911
181.758,24.29395,-0.004943766,0.41408,1.0076
184.758,24.5811,-0.005929961,0.41518,1.00608
187.758,24.86769,-0.005883895,0.4227,1.00457
190.758,25.155,-0.00859416,0.42667,1.00306
193.758,25.44153,-0.01125663,0.4298,1.00155
196.758,25.72835,-0.0128306,0.43567,1.00004
199.758,26.01549,-0.01413468,0.44241,0.99853
202.758,26.3024,-0.01743814,0.45075,0.99701
205.758,26.5886,-0.02073092,0.45861,0.9955
208.758,26.8746,-0.02468823,0.46611,0.99399
211.758,27.16033,-0.02698844,0.47121,0.99248
214.758,27.44642,-0.03357519,0.47574,0.99097
217.758,27.7324,-0.03752616,0.47472,0.98946
220.758,28.01817,-0.04146206,0.47468,0.98794
223.758,28.305,-0.0480583,0.47696,0.98643
226.758,28.5914,-0.05469067,0.4726,0.98492
229.758,28.8781,-0.06118098,0.47542,0.9834
232.758,29.16443,-0.0689191,0.47617,0.98189
235.758,29.45086,-0.07592162,0.47375,0.98037
238.758,29.737,-0.08403343,0.47443,0.97886
241.758,30.0234,-0.09337235,0.47574,0.97734
244.758,30.3093,-0.10203,0.47546,0.97582
247.758,30.59553,-0.11288,0.47733,0.9743
250.758,30.8821,-0.12369,0.47855,0.97278
253.758,31.16808,-0.1353,0.4833,0.97126
256.758,31.45332,-0.14762,0.48792,0.96974
259.758,31.73818,-0.16228,0.49373,0.96822
262.758,32.02375,-0.17726,0.49454,0.96669
265.758,32.3099,-0.1969,0.49398,0.96516
268.758,32.59629,-0.21671,0.49313,0.96363
271.758,32.8832,-0.23953,0.49298,0.9621
274.758,33.16968,-0.26783,0.49142,0.96057
277.758,33.45657,-0.29729,0.49245,0.95904
280.758,33.74326,-0.33177,0.48962,0.9575
283.758,34.0299,-0.36832,0.48679,0.95596
286.758,34.31695,-0.41061,0.48191,0.95442
289.758,34.60338,-0.45557,0.48066,0.95288
292.758,34.89036,-0.50661,0.47296,0.95134
295.758,35.17755,-0.55793,0.46662,0.94979
298.758,35.46522,-0.61291,0.46812,0.94824
301.758,35.75277,-0.66935,0.46522,0.94669
304.758,36.04045,-0.72698,0.46361,0.94513
307.758,36.3279,-0.78319,0.46527,0.94358
310.758,36.61572,-0.84128,0.47108,0.94202
313.758,36.90466,-0.89913,0.4776,0.94045
316.758,37.19314,-0.95849,0.49409,0.93889
319.758,37.48175,-1.01763,0.50619,0.93732
322.758,37.7706,-1.07854,0.52164,0.93575
325.758,38.0596,-1.14266,0.5427,0.93417
328.758,38.34901,-1.20827,0.56362,0.93259
331.758,38.63892,-1.27881,0.58702,0.93101
334.758,38.92904,-1.35183,0.60935,0.92942
337.758,39.21934,-1.43207,0.63867,0.92783
340.758,39.50985,-1.51672,0.66879,0.92624
343.758,39.80085,-1.61057,0.69627,0.92464
346.758,40.09135,-1.71113,0.72553,0.92304
349.758,40.38207,-1.81952,0.75619,0.92144
352.758,40.67268,-1.93577,0.78081,0.91983
355.758,40.9642,-2.06104,0.7933,0.91822
358.758,41.2546,-2.19032,0.79434,0.9166
361.758,41.546,-2.32016,0.77174,0.91498
364.758,41.83747,-2.44704,0.72304,0.91335
367.758,42.1286,-2.56534,0.64185,0.91172
370.758,42.42029,-2.66821,0.53276,0.91009
373.758,42.71203,-2.74638,0.41072,0.90845
376.758,43.0028,-2.80168,0.29862,0.9068
379.758,43.2939,-2.83602,0.21961,0.90515
382.758,43.5839,-2.85491,0.18171,0.9035
385.758,43.87526,-2.87181,0.16185,0.90184
388.758,44.1662,-2.88515,0.15223,0.90017
391.758,44.45782,-2.89728,0.14321,0.89851
394.758,44.74948,-2.90656,0.13503,0.89683
397.758,45.0413,-2.9165,0.1221,0.89515
400.758,45.33354,-2.92776,0.1195,0.89346
403.758,45.62587,-2.93642,0.11387,0.89177
406.758,45.9185,-2.94618,0.10765,0.89008
409.758,46.2119,-2.95488,0.10562,0.88837
412.758,46.50528,-2.96429,0.09983008,0.88667
415.758,46.7984,-2.97257,0.10204,0.88495
418.758,47.09193,-2.98173,0.10041,0.88323
421.758,47.3857,-2.99013,0.10134,0.88151
424.758,47.6798,-2.99882,0.10185,0.87977
427.758,47.97422,-3.00705,0.1055,0.87804
430.758,48.26882,-3.01556,0.10921,0.87629
433.758,48.56216,-3.0213,0.11672,0.87454
436.758,48.85609,-3.03019,0.11946,0.87279
439.758,49.1507,-3.03636,0.1219,0.87102
442.758,49.44493,-3.0431,0.1255,0.86925
445.758,49.73987,-3.04928,0.12964,0.86748
448.758,50.0342,-3.05598,0.13417,0.86569
451.758,50.32835,-3.06272,0.13965,0.8639
454.758,50.623,-3.06727,0.1477,0.86211
457.758,50.91836,-3.07242,0.14997,0.86031
460.758,51.2141,-3.07645,0.1558,0.8585
463.758,51.51032,-3.08175,0.15884,0.85668
466.758,51.80601,-3.08608,0.16402,0.85485
469.758,52.103,-3.09129,0.16725,0.85302
472.758,52.39968,-3.09425,0.1683,0.85119
475.758,52.697,-3.10016,0.16588,0.84934
478.758,52.9944,-3.10413,0.16795,0.84749
481.758,53.29176,-3.10812,0.17189,0.84563
484.758,53.5884,-3.10974,0.17304,0.84376
487.758,53.88417,-3.11367,0.17346,0.84189
490.758,54.1808,-3.11761,0.17663,0.84
493.758,54.47761,-3.12071,0.18033,0.83811
496.758,54.7743,-3.12387,0.18005,0.83622
499.758,55.07099,-3.12584,0.19928,0.83431
502.758,55.3677,-3.13045,0.20624,0.8324
505.758,55.66401,-3.13245,0.21062,0.83048
508.758,55.96068,-3.13738,0.21801,0.82855
511.758,56.2573,-3.13736,0.22213,0.82662
514.758,56.5542,-3.14064,0.22691,0.82467
517.758,56.85165,-3.14194,0.22437,0.82272
520.758,57.1496,-3.14591,0.2285,0.82076
523.758,57.44798,-3.14854,0.23068,0.8188
526.758,57.74631,-3.15217,0.23295,0.81682
529.758,58.0444,-3.15282,0.22873,0.81484
532.758,58.34339,-3.15596,0.21027,0.81285
535.758,58.6421,-3.15776,0.19619,0.81085
538.758,58.9408,-3.16039,0.18772,0.80884
541.758,59.2399,-3.16171,0.18365,0.80682
544.758,59.53859,-3.16246,0.1796,0.8048
547.758,59.837,-3.1633,0.17083,0.80277
550.758,60.13576,-3.16595,0.17086,0.80073
553.758,60.43414,-3.16862,0.16368,0.79868
556.758,60.7325,-3.17134,0.1531,0.79662
559.758,61.0323,-3.17388,0.14995,0.79456
562.758,61.33175,-3.17388,0.14058,0.79249
565.758,61.6324,-3.17653,0.13712,0.7904
568.758,61.9333,-3.1775,0.13545,0.78831
571.758,62.23336,-3.17886,0.13459,0.78622
574.758,62.53355,-3.18274,0.12948,0.78411
577.758,62.833,-3.1827,0.12849,0.782
580.758,63.1324,-3.18408,0.13268,0.77987
583.758,63.43251,-3.1854,0.13183,0.77774
586.758,63.7328,-3.18903,0.13351,0.7756
589.758,64.03279,-3.18929,0.12891,0.77345
592.758,64.3331,-3.19198,0.12989,0.7713
595.758,64.63356,-3.19198,0.13039,0.76913
598.758,64.9341,-3.19395,0.13485,0.76696
601.758,65.2351,-3.1966,0.13618,0.76478
604.758,65.53679,-3.19757,0.13753,0.76259
607.758,65.83762,-3.19794,0.14204,0.76039
610.758,66.1393,-3.19857,0.14685,0.75818
613.758,66.44117,-3.20087,0.15136,0.75596
616.758,66.74294,-3.20252,0.15726,0.75374
619.758,67.04429,-3.2035,0.16271,0.75151
622.758,67.34591,-3.2035,0.16504,0.74927
625.758,67.6472,-3.2058,0.16791,0.74702
628.758,67.94821,-3.20613,0.17263,0.74476
631.758,68.24893,-3.20614,0.17878,0.7425
634.758,68.551,-3.20942,0.17439,0.74022
637.758,68.85327,-3.2089,0.17685,0.73794
640.758,69.15608,-3.21151,0.17134,0.73565
643.758,69.45886,-3.2125,0.17154,0.73335
646.758,69.76,-3.21162,0.17099,0.73105
649.758,70.0611,-3.21392,0.16924,0.72873
652.758,70.36239,-3.21359,0.17084,0.72641
655.758,70.6652,-3.21394,0.16892,0.72408
658.758,70.9678,-3.21524,0.16772,0.72174
661.758,71.27016,-3.21557,0.16591,0.7194
664.758,71.57324,-3.2159,0.17305,0.71704
667.758,71.8763,-3.21721,0.17402,0.71468
670.758,72.17987,-3.21754,0.17125,0.71231
673.758,72.4833,-3.21886,0.17701,0.70993
676.758,72.78614,-3.21885,0.18071,0.70754
679.758,73.08841,-3.22127,0.17791,0.70515
682.758,73.39007,-3.21996,0.18139,0.70275
685.758,73.69291,-3.22225,0.17915,0.70034
688.758,73.9953,-3.22226,0.17953,0.69792
691.758,74.29823,-3.22101,0.17713,0.6955
694.758,74.60157,-3.22423,0.17889,0.69307
697.758,74.90513,-3.22357,0.18189,0.69063
700.758,75.2089,-3.22621,0.17787,0.68818
703.758,75.51258,-3.2239,0.179,0.68573
706.758,75.81588,-3.22514,0.18122,0.68326
709.758,76.11928,-3.2272,0.18443,0.6808
712.758,76.42348,-3.22752,0.17601,0.67832
715.758,76.7276,-3.22885,0.1783,0.67584
718.758,77.0321,-3.23048,0.17206,0.67335
721.758,77.33578,-3.22917,0.17277,0.67085
724.758,77.64094,-3.2295,0.17419,0.66835
727.758,77.94385,-3.23213,0.17072,0.66584
730.758,78.24729,-3.23311,0.17212,0.66332
733.758,78.5508,-3.2331,0.16666,0.66079
736.758,78.85348,-3.23476,0.16252,0.65826
739.758,79.15698,-3.23608,0.16515,0.65573
742.758,79.46079,-3.2374,0.16138,0.65318
745.758,79.76522,-3.23771,0.15994,0.65063
748.058,79.99874,-3.23805,0.16332,0.64867