File: 01_Data/Fiber_Cement_Board/STA/N2/30K_min/Fiber_Cement_Board_STA_N2_30KData_210624_R2.csv
##Temp./Â°C,Time/min,Mass loss(subtr.2)/mg,DSC(subtr.2)/mW,Sensit./(uV/mW)
50.728,10.01,-0.02994,0.08565479,0.6235
53.228,11.4824,-0.03252521,0.33392,0.62347
55.728,11.81167,-0.03368421,0.5085,0.62343
58.228,12.04679,-0.03328333,0.65662,0.62338
60.728,12.24175,-0.03534054,0.79242,0.62332
63.228,12.41413,-0.0367573,0.90153,0.62326
65.728,12.57072,-0.03612671,1.01297,0.62318
68.228,12.71768,-0.03712109,1.13342,0.62309
70.728,12.85705,-0.03503785,1.23813,0.623
73.228,12.99057,-0.03988967,1.36644,0.62289
75.728,13.12004,-0.03938258,1.49462,0.62278
78.228,13.2445,-0.04273074,1.61398,0.62265
80.728,13.36785,-0.04435256,1.77456,0.62252
83.228,13.4881,-0.04689835,1.92841,0.62238
85.728,13.60503,-0.0499999,2.09436,0.62223
88.228,13.7192,-0.05378528,2.26787,0.62207
90.728,13.8306,-0.05571939,2.4384,0.6219
93.228,13.94006,-0.05803013,2.62621,0.62172
95.728,14.04713,-0.05971401,2.81327,0.62154
98.228,14.15194,-0.06610987,2.97803,0.62134
100.728,14.25494,-0.07007153,3.12887,0.62114
103.228,14.356,-0.07411856,3.27133,0.62092
105.728,14.4554,-0.07403269,3.42736,0.6207
108.228,14.5534,-0.07827306,3.56204,0.62047
110.728,14.6496,-0.08419921,3.70656,0.62023
113.228,14.74445,-0.09011336,3.81929,0.61999
115.728,14.838,-0.09527452,3.94195,0.61973
118.228,14.92964,-0.09949214,4.02783,0.61947
120.728,15.0209,-0.1037,4.13719,0.61919
123.228,15.1105,-0.10913,4.22573,0.61891
125.728,15.1991,-0.11312,4.28392,0.61862
128.228,15.2864,-0.11856,4.35075,0.61833
130.728,15.37253,-0.12137,4.40973,0.61802
133.228,15.45771,-0.12547,4.46692,0.61771
135.728,15.542,-0.1298,4.50721,0.61738
138.228,15.62527,-0.13412,4.54571,0.61705
140.728,15.7074,-0.1381,4.5819,0.61672
143.228,15.78925,-0.14224,4.61779,0.61637
145.728,15.8703,-0.14635,4.67029,0.61602
148.228,15.9506,-0.15054,4.69124,0.61565
150.728,16.03053,-0.15427,4.69959,0.61528
153.228,16.1097,-0.15795,4.69633,0.61491
155.728,16.18843,-0.16137,4.70937,0.61452
158.228,16.26667,-0.16499,4.72606,0.61413
160.728,16.34427,-0.17046,4.74453,0.61373
163.228,16.42154,-0.17371,4.75349,0.61332
165.728,16.49854,-0.17745,4.75462,0.6129
168.228,16.57488,-0.18031,4.78492,0.61248
170.728,16.65116,-0.18483,4.79186,0.61205
173.228,16.72666,-0.18766,4.80776,0.61161
175.728,16.8021,-0.19081,4.78858,0.61117
178.228,16.8769,-0.19466,4.79814,0.61072
180.728,16.95158,-0.19924,4.79651,0.61026
183.228,17.02575,-0.20292,4.78891,0.60979
185.728,17.0996,-0.20654,4.78663,0.60932
188.228,17.17309,-0.21071,4.7766,0.60884
190.728,17.24595,-0.21309,4.75713,0.60835
193.228,17.31864,-0.218,4.75103,0.60786
195.728,17.3912,-0.22112,4.70411,0.60736
198.228,17.4633,-0.22392,4.68732,0.60685
200.728,17.53506,-0.22588,4.66449,0.60633
203.228,17.60662,-0.22864,4.62566,0.60581
205.728,17.67804,-0.23227,4.57824,0.60528
208.228,17.74918,-0.23604,4.52371,0.60475
210.728,17.82015,-0.23803,4.48761,0.60421
213.228,17.8909,-0.24118,4.42462,0.60366
215.728,17.9616,-0.24328,4.39799,0.60311
218.228,18.03181,-0.24469,4.36007,0.60255
220.728,18.10216,-0.24686,4.30071,0.60198
223.228,18.17226,-0.24918,4.24634,0.60141
225.728,18.2421,-0.25181,4.21171,0.60083
228.228,18.31182,-0.25561,4.14061,0.60024
230.728,18.38137,-0.2575,4.07537,0.59965
233.228,18.45101,-0.25931,4.0248,0.59906
235.728,18.52025,-0.26162,3.96469,0.59845
238.228,18.58953,-0.26266,3.90559,0.59785
240.728,18.65845,-0.26612,3.86501,0.59723
243.228,18.72755,-0.26872,3.84073,0.59661
245.728,18.7966,-0.27076,3.79052,0.59599
248.228,18.86536,-0.27316,3.76298,0.59535
250.728,18.934,-0.27439,3.74416,0.59472
253.228,19.0027,-0.27691,3.7603,0.59407
255.728,19.0713,-0.2787,3.73543,0.59343
258.228,19.13972,-0.28164,3.74414,0.59277
260.728,19.20811,-0.28212,3.7222,0.59211
263.228,19.27634,-0.2863,3.74637,0.59145
265.728,19.34461,-0.28788,3.73908,0.59078
268.228,19.41283,-0.29174,3.74209,0.59011
270.728,19.48091,-0.29372,3.74959,0.58943
273.228,19.54915,-0.29652,3.77567,0.58874
275.728,19.6174,-0.29831,3.78966,0.58805
278.228,19.6856,-0.30023,3.83893,0.58736
280.728,19.75376,-0.30276,3.8851,0.58666
283.228,19.82188,-0.30644,3.9237,0.58595
285.728,19.89007,-0.30932,3.94473,0.58524
288.228,19.95833,-0.31324,4.0248,0.58453
290.728,20.02634,-0.3152,4.07801,0.58381
293.228,20.09431,-0.31806,4.13507,0.58309
295.728,20.16241,-0.32104,4.20759,0.58236
298.228,20.2308,-0.32663,4.23865,0.58163
300.728,20.29896,-0.33017,4.32593,0.58089
303.228,20.3672,-0.33413,4.37563,0.58015
305.728,20.43544,-0.33874,4.44668,0.57941
308.228,20.504,-0.34266,4.49081,0.57866
310.728,20.57241,-0.34823,4.54143,0.57791
313.228,20.64069,-0.35195,4.56841,0.57715
315.728,20.70897,-0.3554,4.61491,0.57639
318.228,20.7773,-0.3611,4.64382,0.57562
320.728,20.8456,-0.36651,4.64258,0.57485
323.228,20.91402,-0.37132,4.65289,0.57408
325.728,20.9826,-0.37762,4.68863,0.5733
328.228,21.05104,-0.38187,4.69448,0.57252
330.728,21.11955,-0.38629,4.69274,0.57174
333.228,21.1882,-0.393,4.65888,0.57095
335.728,21.25701,-0.39735,4.64204,0.57016
338.228,21.32566,-0.40362,4.62992,0.56936
340.728,21.3943,-0.40916,4.62134,0.56856
343.228,21.46317,-0.4144,4.62069,0.56776
345.728,21.53229,-0.42072,4.57627,0.56696
348.228,21.60114,-0.42674,4.54868,0.56615
350.728,21.67023,-0.43372,4.52865,0.56534
353.228,21.73943,-0.43824,4.50486,0.56452
355.728,21.80859,-0.44731,4.47645,0.5637
358.228,21.8777,-0.45642,4.44946,0.56288
360.728,21.94724,-0.4632,4.42981,0.56206
363.228,22.01683,-0.47216,4.41922,0.56123
365.728,22.08623,-0.47929,4.40717,0.5604
368.228,22.15578,-0.48839,4.37903,0.55957
370.728,22.22532,-0.49564,4.35797,0.55873
373.228,22.29526,-0.50266,4.34311,0.55789
375.728,22.36519,-0.51018,4.31684,0.55705
378.228,22.43521,-0.52134,4.27471,0.55621
380.728,22.50516,-0.5303,4.28249,0.55536
383.228,22.57519,-0.53984,4.2612,0.55451
385.728,22.64544,-0.54864,4.22081,0.55366
388.228,22.7155,-0.56099,4.18526,0.55281
390.728,22.78613,-0.56984,4.14355,0.55195
393.228,22.85661,-0.57679,4.07335,0.55109
395.728,22.927,-0.58515,4.02092,0.55023
398.228,22.99798,-0.59137,3.89249,0.54937
400.728,23.06874,-0.60104,3.83718,0.54851
403.228,23.13974,-0.60458,3.7396,0.54764
405.728,23.21078,-0.60754,3.68475,0.54677
408.228,23.28185,-0.61068,3.61727,0.5459
410.728,23.35323,-0.61384,3.56403,0.54503
413.228,23.42461,-0.61746,3.50569,0.54415
415.728,23.49607,-0.61976,3.46959,0.54328
418.228,23.56775,-0.62171,3.43529,0.5424
420.728,23.63935,-0.62581,3.41168,0.54152
423.228,23.71109,-0.6278,3.38061,0.54064
425.728,23.78305,-0.62972,3.35305,0.53976
428.228,23.8551,-0.63054,3.32676,0.53887
430.728,23.92719,-0.63332,3.30298,0.53799
433.228,23.9994,-0.63553,3.28415,0.5371
435.728,24.07177,-0.63691,3.24806,0.53621
438.228,24.14424,-0.64138,3.23768,0.53532
440.728,24.2167,-0.64459,3.19042,0.53443
443.228,24.28947,-0.64694,3.17475,0.53354
445.728,24.36228,-0.64842,3.15657,0.53264
448.228,24.43512,-0.6521,3.13825,0.53175
450.728,24.50809,-0.65038,3.10757,0.53085
453.228,24.58126,-0.6588,3.09809,0.52995
455.728,24.65446,-0.6591,3.06674,0.52906
458.228,24.7276,-0.66044,3.0617,0.52816
460.728,24.80115,-0.66315,3.01932,0.52726
463.228,24.8747,-0.66439,3.01158,0.52636
465.728,24.94845,-0.66714,2.99159,0.52546
468.228,25.0223,-0.67098,2.97081,0.52455
470.728,25.09615,-0.67283,2.95533,0.52365
473.228,25.17015,-0.67294,2.94081,0.52275
475.728,25.2443,-0.67455,2.91827,0.52184
478.228,25.31852,-0.67757,2.91475,0.52094
480.728,25.39292,-0.67908,2.8888,0.52003
483.228,25.46742,-0.68187,2.8818,0.51913
485.728,25.54198,-0.68529,2.87056,0.51822
488.228,25.61669,-0.68664,2.86725,0.51732
490.728,25.69173,-0.68797,2.86117,0.51641
493.228,25.76664,-0.68939,2.84165,0.5155
495.728,25.84168,-0.69262,2.82191,0.5146
498.228,25.91695,-0.69397,2.81328,0.51369
500.728,25.9923,-0.69644,2.77551,0.51278
503.228,26.06767,-0.69945,2.78278,0.51187
505.728,26.14315,-0.70086,2.76457,0.51097
508.228,26.2187,-0.7036,2.73612,0.51006
510.728,26.29451,-0.70311,2.72726,0.50915
513.228,26.37035,-0.70889,2.71409,0.50824
515.728,26.4462,-0.70929,2.70476,0.50734
518.228,26.5223,-0.71088,2.68446,0.50643
520.728,26.5985,-0.71345,2.64273,0.50552
523.228,26.67431,-0.71605,2.61795,0.50461
525.728,26.7512,-0.71744,2.60477,0.50371
528.228,26.8278,-0.71901,2.58818,0.5028
530.728,26.90451,-0.72022,2.55988,0.5019
533.228,26.9812,-0.72296,2.54624,0.50099
535.728,27.058,-0.726,2.52507,0.50009
538.228,27.1351,-0.72732,2.50093,0.49918
540.728,27.21182,-0.72865,2.47081,0.49828
543.228,27.2893,-0.72994,2.44185,0.49737
545.728,27.3666,-0.73128,2.44002,0.49647
548.228,27.4439,-0.73363,2.42364,0.49557
550.728,27.52133,-0.7365,2.38549,0.49467
553.228,27.59895,-0.73775,2.36315,0.49376
555.728,27.67643,-0.73878,2.34826,0.49286
558.228,27.75406,-0.74109,2.34062,0.49196
560.728,27.8321,-0.7436,2.32349,0.49107
563.228,27.91,-0.7451,2.31605,0.49017
565.728,27.98805,-0.74642,2.31269,0.48927
568.228,28.06605,-0.74875,2.32344,0.48837
570.728,28.1444,-0.75014,2.43788,0.48748
573.228,28.22281,-0.7528,2.75175,0.48658
575.728,28.3012,-0.75311,2.62083,0.48569
578.228,28.37977,-0.75705,2.43994,0.4848
580.728,28.4583,-0.75749,2.29854,0.48391
583.228,28.53707,-0.75881,2.21271,0.48302
585.728,28.6156,-0.76013,2.17136,0.48213
588.228,28.69445,-0.76155,2.08638,0.48124
590.728,28.77344,-0.76286,2.06917,0.48035
593.228,28.85248,-0.7644,2.04627,0.47947
595.728,28.93147,-0.76705,2.00968,0.47858
598.228,29.0107,-0.76803,2.00715,0.4777
600.728,29.09,-0.76868,1.98563,0.47682
603.228,29.16928,-0.77099,2.01383,0.47594
605.728,29.24887,-0.7723,2.04276,0.47506
608.228,29.32852,-0.77447,2.07596,0.47418
610.728,29.4082,-0.77625,2.06678,0.47331
613.228,29.4878,-0.77769,2.05269,0.47243
615.728,29.5676,-0.78032,2.05604,0.47156
618.228,29.6475,-0.78208,2.05205,0.47069
620.728,29.72731,-0.78178,2.10603,0.46982
623.228,29.80718,-0.78552,2.12469,0.46895
625.728,29.8873,-0.78695,2.10817,0.46808
628.228,29.9673,-0.78875,2.12031,0.46721
629.228,29.9992,-0.78963,2.11904,0.46687