File: 01_Data/Fiber_Cement_Board/STA/N2/30K_min/Fiber_Cement_Board_STA_N2_30KData_210624_R1.csv
##Temp./Â°C,Time/min,Mass loss(subtr.2)/mg,DSC(subtr.2)/mW,Sensit./(uV/mW)
50.646,10.01,-0.00461,-0.12481,0.6235
53.146,11.48295,-0.007905578,0.12037,0.62347
55.646,11.80965,-0.005813786,0.29948,0.62343
58.146,12.04552,-0.00657645,0.4409,0.62338
60.646,12.24005,-0.007244115,0.57288,0.62333
63.146,12.41221,-0.009547765,0.69422,0.62326
65.646,12.5684,-0.00946882,0.80878,0.62318
68.146,12.71568,-0.009985394,0.92998,0.62309
70.646,12.85515,-0.011561,1.01897,0.623
73.146,12.98898,-0.01271986,1.13663,0.62289
75.646,13.11832,-0.01260679,1.23917,0.62278
78.146,13.24429,-0.01503732,1.36815,0.62266
80.646,13.3665,-0.01637456,1.50217,0.62252
83.146,13.4862,-0.01778654,1.65658,0.62238
85.646,13.6031,-0.02063311,1.79646,0.62223
88.146,13.7171,-0.02380631,1.9518,0.62207
90.646,13.8288,-0.02471675,2.11279,0.62191
93.146,13.9379,-0.02791075,2.25863,0.62173
95.646,14.0452,-0.03076718,2.40765,0.62154
98.146,14.1499,-0.03313002,2.55143,0.62135
100.646,14.2531,-0.03711961,2.69411,0.62114
103.146,14.3544,-0.03905996,2.83089,0.62093
105.646,14.4538,-0.04338028,2.95514,0.62071
108.146,14.55141,-0.04708535,3.06816,0.62048
110.646,14.648,-0.04917609,3.18426,0.62024
113.146,14.7425,-0.05318252,3.29527,0.61999
115.646,14.83589,-0.05727963,3.39836,0.61974
118.146,14.92799,-0.06057157,3.48124,0.61947
120.646,15.0186,-0.06515738,3.55155,0.6192
123.146,15.1082,-0.06923068,3.62931,0.61892
125.646,15.19656,-0.07182512,3.71918,0.61863
128.146,15.2837,-0.07593182,3.79591,0.61834
130.646,15.37001,-0.07952081,3.83797,0.61803
133.146,15.4551,-0.08343397,3.90741,0.61772
135.646,15.5392,-0.0876815,3.93644,0.61739
138.146,15.6224,-0.09078902,3.99655,0.61706
140.646,15.705,-0.09503299,4.0205,0.61673
143.146,15.78669,-0.09785715,4.04848,0.61638
145.646,15.86705,-0.10177,4.0554,0.61603
148.146,15.94709,-0.10478,4.09427,0.61567
150.646,16.02743,-0.10892,4.11113,0.6153
153.146,16.1064,-0.1108,4.14398,0.61492
155.646,16.18488,-0.11546,4.16187,0.61453
158.146,16.26312,-0.11872,4.17552,0.61414
160.646,16.34071,-0.12142,4.17066,0.61374
163.146,16.4181,-0.12418,4.18861,0.61333
165.646,16.49492,-0.12722,4.20119,0.61292
168.146,16.57139,-0.13142,4.20244,0.6125
170.646,16.64751,-0.13418,4.23722,0.61207
173.146,16.7233,-0.13671,4.20482,0.61163
175.646,16.7986,-0.13964,4.2229,0.61118
178.146,16.87354,-0.14239,4.24108,0.61073
180.646,16.94811,-0.14636,4.25754,0.61027
183.146,17.02199,-0.1489,4.24817,0.60981
185.646,17.09581,-0.15157,4.23412,0.60933
188.146,17.16876,-0.15486,4.21782,0.60885
190.646,17.24186,-0.15883,4.2173,0.60837
193.146,17.31459,-0.16064,4.2161,0.60787
195.646,17.38693,-0.16214,4.16577,0.60737
198.146,17.45911,-0.16672,4.13782,0.60686
200.646,17.5308,-0.16804,4.12155,0.60635
203.146,17.6023,-0.17066,4.09863,0.60583
205.646,17.67351,-0.17409,4.05052,0.6053
208.146,17.7446,-0.17676,4.02777,0.60477
210.646,17.8155,-0.17904,3.98561,0.60423
213.146,17.8861,-0.18043,3.94594,0.60368
215.646,17.95671,-0.1832,3.89696,0.60313
218.146,18.02724,-0.18609,3.84393,0.60257
220.646,18.09735,-0.18736,3.79958,0.602
223.146,18.1673,-0.18872,3.72839,0.60143
225.646,18.23722,-0.19144,3.69948,0.60085
228.146,18.30704,-0.1939,3.64403,0.60026
230.646,18.3765,-0.19486,3.61082,0.59967
233.146,18.44602,-0.1978,3.56357,0.59908
235.646,18.51547,-0.19897,3.52466,0.59847
238.146,18.58471,-0.20272,3.48826,0.59787
240.646,18.65389,-0.20403,3.45035,0.59725
243.146,18.7228,-0.20546,3.41009,0.59663
245.646,18.7917,-0.20672,3.38082,0.59601
248.146,18.86056,-0.20945,3.36558,0.59537
250.646,18.92921,-0.21167,3.34267,0.59474
253.146,18.99788,-0.21171,3.33343,0.59409
255.646,19.06653,-0.21452,3.33115,0.59345
258.146,19.135,-0.21698,3.31426,0.59279
260.646,19.20349,-0.21839,3.31382,0.59214
263.146,19.27198,-0.21992,3.2874,0.59147
265.646,19.3401,-0.22289,3.29304,0.5908
268.146,19.4083,-0.22472,3.28628,0.59013
270.646,19.4766,-0.2268,3.30971,0.58945
273.146,19.54479,-0.22806,3.3027,0.58876
275.646,19.613,-0.23065,3.33875,0.58807
278.146,19.68109,-0.23214,3.34815,0.58738
280.646,19.74925,-0.23495,3.41021,0.58668
283.146,19.81746,-0.23792,3.44234,0.58598
285.646,19.8855,-0.24071,3.43787,0.58527
288.146,19.95368,-0.24321,3.48019,0.58455
290.646,20.02186,-0.24697,3.49677,0.58384
293.146,20.09001,-0.24986,3.54182,0.58311
295.646,20.15811,-0.25239,3.59057,0.58239
298.146,20.22635,-0.25597,3.63675,0.58165
300.646,20.2946,-0.25824,3.66715,0.58092
303.146,20.36275,-0.26381,3.70561,0.58018
305.646,20.4311,-0.26575,3.73889,0.57943
308.146,20.49941,-0.26884,3.76909,0.57868
310.646,20.5676,-0.27166,3.79824,0.57793
313.146,20.63583,-0.27638,3.82168,0.57717
315.646,20.7039,-0.28072,3.87515,0.57641
318.146,20.7723,-0.2844,3.88936,0.57565
320.646,20.84078,-0.28637,3.87186,0.57488
323.146,20.9091,-0.29145,3.86644,0.57411
325.646,20.97745,-0.29734,3.89221,0.57333
328.146,21.04597,-0.30066,3.88416,0.57255
330.646,21.11459,-0.30752,3.87824,0.57176
333.146,21.1832,-0.30896,3.81214,0.57098
335.646,21.2518,-0.31446,3.8229,0.57018
338.146,21.32059,-0.32121,3.81129,0.56939
340.646,21.3894,-0.32484,3.783,0.56859
343.146,21.45824,-0.32948,3.77459,0.56779
345.646,21.52711,-0.33637,3.74389,0.56698
348.146,21.59619,-0.33189,3.72003,0.56617
350.646,21.66516,-0.35785,3.72493,0.56536
353.146,21.7343,-0.35267,3.69194,0.56455
355.646,21.8035,-0.35955,3.67002,0.56373
358.146,21.8727,-0.36588,3.63362,0.56291
360.646,21.9421,-0.37151,3.60732,0.56208
363.146,22.01165,-0.37931,3.59497,0.56126
365.646,22.08105,-0.38892,3.57377,0.56043
368.146,22.15074,-0.39312,3.54826,0.55959
370.646,22.2203,-0.41064,3.56668,0.55876
373.146,22.29,-0.41846,3.52396,0.55792
375.646,22.35998,-0.41933,3.51014,0.55708
378.146,22.4298,-0.42459,3.45786,0.55624
380.646,22.4998,-0.43038,3.43311,0.55539
383.146,22.57,-0.43907,3.42164,0.55454
385.646,22.6402,-0.44514,3.37142,0.55369
388.146,22.71045,-0.45163,3.33141,0.55284
390.646,22.78076,-0.46185,3.27846,0.55198
393.146,22.85118,-0.46801,3.21662,0.55112
395.646,22.92182,-0.47665,3.13832,0.55026
398.146,22.99246,-0.48359,3.0438,0.5494
400.646,23.06316,-0.48872,2.95143,0.54854
403.146,23.13394,-0.49892,2.86663,0.54767
405.646,23.2047,-0.50697,2.83134,0.5468
408.146,23.27571,-0.51494,2.78734,0.54593
410.646,23.34671,-0.52006,2.73486,0.54506
413.146,23.41816,-0.52002,2.70099,0.54418
415.646,23.4898,-0.51348,2.6039,0.54331
418.146,23.5615,-0.50217,2.50845,0.54243
420.646,23.63338,-0.50114,2.4563,0.54155
423.146,23.7053,-0.49992,2.40639,0.54067
425.646,23.77733,-0.49589,2.34695,0.53978
428.146,23.84931,-0.49659,2.31019,0.5389
430.646,23.92119,-0.51046,2.31294,0.53801
433.146,23.99315,-0.52041,2.30255,0.53713
435.646,24.06559,-0.52361,2.31412,0.53624
438.146,24.1378,-0.52676,2.3055,0.53535
440.646,24.21032,-0.52795,2.27673,0.53446
443.146,24.28286,-0.52986,2.25319,0.53356
445.646,24.35556,-0.53259,2.22642,0.53267
448.146,24.4285,-0.53549,2.21244,0.53178
450.646,24.5015,-0.5379,2.17771,0.53088
453.146,24.5746,-0.53926,2.14499,0.52998
455.646,24.64795,-0.53922,2.136,0.52909
458.146,24.72121,-0.54186,2.11222,0.52819
460.646,24.79468,-0.54454,2.09386,0.52729
463.146,24.86819,-0.54581,2.06631,0.52639
465.646,24.94192,-0.54778,2.04452,0.52549
468.146,25.01575,-0.54962,2.02907,0.52458
470.646,25.0898,-0.55258,2.00324,0.52368
473.146,25.16389,-0.55455,1.96121,0.52278
475.646,25.23819,-0.55671,1.95839,0.52187
478.146,25.31245,-0.55851,1.95946,0.52097
480.646,25.3869,-0.5609,1.92916,0.52006
483.146,25.46135,-0.56253,1.9254,0.51916
485.646,25.53559,-0.5638,1.90652,0.51825
488.146,25.61024,-0.56576,1.90382,0.51735
490.646,25.6851,-0.56735,1.89979,0.51644
493.146,25.76011,-0.5697,1.88987,0.51553
495.646,25.83527,-0.57004,1.8868,0.51463
498.146,25.91039,-0.57135,1.90137,0.51372
500.646,25.98635,-0.57394,1.87793,0.51281
503.146,26.06186,-0.57581,1.8894,0.5119
505.646,26.1374,-0.57704,1.87039,0.511
508.146,26.21309,-0.57858,1.85934,0.51009
510.646,26.28898,-0.58058,1.84911,0.50918
513.146,26.365,-0.58274,1.85801,0.50827
515.646,26.4411,-0.58451,1.85505,0.50737
518.146,26.51704,-0.58682,1.83746,0.50646
520.646,26.59327,-0.58955,1.82723,0.50555
523.146,26.6696,-0.59078,1.78542,0.50464
525.646,26.7462,-0.59209,1.78175,0.50374
528.146,26.8227,-0.59374,1.77417,0.50283
530.646,26.8993,-0.59505,1.77644,0.50193
533.146,26.9762,-0.59626,1.78789,0.50102
535.646,27.05305,-0.6004,1.79188,0.50012
538.146,27.12991,-0.60163,1.76974,0.49921
540.646,27.20706,-0.60294,1.7557,0.49831
543.146,27.28415,-0.60563,1.75342,0.4974
545.646,27.36138,-0.60689,1.75116,0.4965
548.146,27.43883,-0.60826,1.72488,0.4956
550.646,27.51625,-0.60898,1.73025,0.4947
553.146,27.5938,-0.61029,1.72809,0.49379
555.646,27.67132,-0.61162,1.71937,0.49289
558.146,27.74905,-0.61482,1.70029,0.49199
560.646,27.82698,-0.61698,1.66234,0.4911
563.146,27.905,-0.6183,1.64786,0.4902
565.646,27.98279,-0.61968,1.64857,0.4893
568.146,28.061,-0.62239,1.6512,0.4884
570.646,28.13948,-0.62335,1.72444,0.48751
573.146,28.2178,-0.62446,1.96097,0.48661
575.646,28.2963,-0.62535,1.84333,0.48572
578.146,28.3748,-0.62862,1.66128,0.48483
580.646,28.4534,-0.62993,1.50851,0.48394
583.146,28.53208,-0.63047,1.41275,0.48305
585.646,28.61065,-0.63259,1.32411,0.48216
588.146,28.6895,-0.63254,1.27153,0.48127
590.646,28.7683,-0.63518,1.25756,0.48038
593.146,28.8472,-0.63518,1.27115,0.4795
595.646,28.92629,-0.63652,1.26603,0.47861
598.146,29.00538,-0.63964,1.25688,0.47773
600.646,29.0846,-0.64052,1.26099,0.47685
603.146,29.16395,-0.64315,1.22847,0.47597
605.646,29.24322,-0.64441,1.18805,0.47509
608.146,29.32279,-0.64573,1.17024,0.47421
610.646,29.4022,-0.64638,1.13585,0.47333
613.146,29.48178,-0.64767,1.12802,0.47246
615.646,29.56151,-0.65138,1.12502,0.47159
618.146,29.64133,-0.65263,1.15557,0.47071
620.646,29.72128,-0.65262,1.1508,0.46984
623.146,29.80129,-0.65504,1.16261,0.46898
625.646,29.8814,-0.65659,1.15112,0.46811
628.146,29.9615,-0.6579,1.12794,0.46724
629.246,29.9969,-0.6579,1.13444,0.46686