File: 01_Data/Fiberglass_Insulation_3/Cone/Fiberglass_Insulation_3_Cone_HF25Scan_220506_R1.csv
Names,Time,Stack TC,Smoke TC,Exh Press,Smoke Comp,Smoke Meas,CO Meter,CO2 Meter,O2 Meter,Sample Mass,Ext Coeff,Start Test,Flame Verif
Chan Gain,,500,500,1,1,1,1,1,1,1,1,1.0,1.0
Offset,,0,0,0.134207,0,0,0,0,0,0,0,0.0,0.0
Gain,,1,1,25.011,13.8443,15.4071,1,1,1,1.00079,1.02936,1.0,1.0
Units,sec,C,C,Pa,%,%,%,%,%,g,/m,,
Baseline,,19.6128,20.1146,143.656,104.912,105.752,0.000620791,0.0425445,21.0031,-444.122,-0.0720075,,
6,1.25,17.687,19.2041,142.213,104.616,106.098,0.000482716,0.0511179,20.9891,440.808,-0.127027,0.0,0.0
12,2.75,18.2029,18.5965,146.928,104.531,105.623,0.000348757,0.0506808,20.9896,440.788,-0.0938536,0.0,0.0
18,4.25,17.7566,18.348,143.579,104.478,105.369,0.000394863,0.0501636,20.9899,440.708,-0.0766847,0.0,0.0
24,5.75,18.2403,18.7966,142.217,104.394,104.423,0.000705391,0.0499319,20.9888,440.638,-0.00248412,0.0,0.0
30,7.25,18.099,18.6689,143.405,104.604,103.251,0.00126783,0.0540116,20.971,440.678,0.117632,0.0,0.0
36,8.75,18.7402,19.0608,135.05,104.854,108.649,0.00205984,0.0744664,20.8984,440.538,-0.321034,0.0,1.0
42,10.25,18.9334,19.4665,124.693,105.04,98.4824,0.00293621,0.1191,20.8081,440.097,0.582039,0.0,1.0
48,11.75,20.8673,20.5169,135.5,105.178,100.036,0.00364582,0.152851,20.7605,440.137,0.452543,0.0,1.0
54,13.25,21.3274,21.1758,139.211,105.272,107.591,0.00436189,0.1671,20.7616,440.187,-0.196811,0.0,1.0
60,14.75,21.851,21.9495,142.426,105.315,106.693,0.00493399,0.165478,20.8024,440.117,-0.117355,0.0,0.0
66,16.25,21.4296,21.369,140.015,105.316,106.279,0.00532561,0.154186,20.8482,440.117,-0.0821978,0.0,0.0
72,17.75,20.9312,21.1161,139.635,105.278,106.665,0.00544219,0.141494,20.8837,439.917,-0.118155,0.0,0.0
78,19.25,21.2453,21.059,147.77,105.195,106.545,0.00536434,0.128714,20.9119,439.937,-0.115104,0.0,0.0
84,20.75,21.4731,21.2094,140.031,105.071,106.562,0.00522234,0.117937,20.933,440.027,-0.127171,0.0,0.0
90,22.25,21.1146,21.1055,142.221,104.909,106.789,0.00504528,0.10813,20.9476,440.077,-0.160384,0.0,0.0
96,23.75,20.7456,20.9153,141.462,104.807,106.62,0.00472219,0.100379,20.9572,439.917,-0.154868,0.0,0.0
102,25.25,20.1749,20.5676,142.719,104.88,106.563,0.00432039,0.0935718,20.9653,439.947,-0.14375,0.0,0.0
108,26.75,20.381,20.7206,142.041,104.964,106.302,0.00384948,0.087303,20.9721,440.027,-0.114379,0.0,0.0
114,28.25,20.7193,21.0528,141.44,105.058,107.238,0.00331547,0.0821336,20.9778,439.897,-0.185484,0.0,0.0
120,29.75,20.231,20.3735,144.49,105.128,106.532,0.00286261,0.0775436,20.9814,439.837,-0.119833,0.0,0.0
126,31.25,20.1824,20.6934,142.686,105.217,106.563,0.00252735,0.0735763,20.9844,439.987,-0.114697,0.0,0.0
132,32.75,20.3225,20.1708,140.623,105.302,108.125,0.00234425,0.0702599,20.9866,439.967,-0.238883,0.0,0.0
138,34.25,19.8057,20.47,143.581,105.389,106.919,0.00223574,0.0674665,20.9882,439.977,-0.130102,0.0,0.0
144,35.75,19.9214,20.5037,143.952,105.472,107.072,0.00215397,0.0647976,20.9908,440.007,-0.135981,0.0,0.0
150,37.25,19.5677,20.2124,141.82,105.525,107.174,0.00206555,0.0627795,20.9927,439.997,-0.139989,0.0,0.0
156,38.75,20.1793,20.7161,141.253,105.592,107.143,0.00189231,0.0608137,20.9938,440.017,-0.131625,0.0,0.0
162,40.25,19.7648,20.596,142.972,105.632,107.69,0.00169546,0.0591086,20.995,439.947,-0.174232,0.0,0.0
168,41.75,19.2825,20.4187,140.452,105.664,107.152,0.00152085,0.0577411,20.996,439.977,-0.126241,0.0,0.0
174,43.25,20.2688,20.4432,147.23,105.669,106.888,0.00141208,0.05639,20.9966,439.797,-0.103589,0.0,0.0
180,44.75,19.7121,20.2475,139.798,105.679,107.265,0.00135427,0.0552847,20.9975,440.047,-0.134558,0.0,0.0
186,46.25,19.4498,20.0489,147.072,105.657,106.663,0.00130674,0.0543153,20.9985,439.857,-0.0855544,0.0,0.0
192,47.75,19.7143,20.3832,143.475,105.64,107.021,0.00123405,0.0533614,20.999,439.927,-0.117311,0.0,0.0
198,49.25,19.5566,20.4,141.176,105.596,106.953,0.00114185,0.0524794,20.9993,439.987,-0.115313,0.0,0.0
204,50.75,19.9302,20.1653,142.836,105.578,107.093,0.00105252,0.0517067,20.9994,439.977,-0.128616,0.0,0.0
210,52.25,19.7166,19.9685,140.515,105.499,107.078,0.000975565,0.0507556,21.0006,439.907,-0.134143,0.0,0.0
216,53.75,19.4272,20.2222,142.775,105.452,106.942,0.00093276,0.0499745,21.0012,439.897,-0.126688,0.0,0.0
222,55.25,19.9132,20.1347,143.646,105.376,106.851,0.000956475,0.0493271,21.0015,439.787,-0.12554,0.0,0.0
228,56.75,19.9326,20.5847,142.251,105.302,106.721,0.00099543,0.0488083,21.0017,439.967,-0.120869,0.0,0.0
234,58.25,19.8729,20.1642,141.36,105.216,106.96,0.00102121,0.0483056,21.0018,439.837,-0.148449,0.0,0.0
240,59.75,18.7854,19.7265,144.614,105.146,106.087,0.00102106,0.0478679,21.0027,439.907,-0.0804942,0.0,0.0
246,61.25,19.3155,20.1971,145.426,105.049,106.41,0.00094679,0.047471,21.0032,439.847,-0.116218,0.0,0.0
252,62.75,19.0668,19.5601,141.368,104.964,105.803,0.00080902,0.0469804,21.0039,440.057,-0.0719409,0.0,0.0
258,64.25,19.8543,19.9089,141.398,104.895,106.582,0.000646559,0.0465298,21.005,439.897,-0.144037,0.0,0.0
264,65.75,19.0452,19.7965,144.513,104.789,106.256,0.00054259,0.046171,21.0055,439.807,-0.12556,0.0,0.0
270,67.25,19.2612,19.7422,144.172,104.695,105.742,0.00051999,0.0459111,21.0058,439.817,-0.0898324,0.0,0.0
276,68.75,18.9037,19.8189,141.07,104.603,106.134,0.00053708,0.0456143,21.0059,439.907,-0.131198,0.0,0.0
282,70.25,18.8693,20.1136,144.583,104.512,106.114,0.000569906,0.0453781,21.006,439.877,-0.137363,0.0,0.0
288,71.75,19.2514,20.3075,141.614,104.438,105.941,0.000620472,0.0451367,21.0061,439.857,-0.129094,0.0,0.0
294,73.25,19.0182,19.7332,144.188,104.365,105.559,0.000623934,0.0450093,21.0061,439.717,-0.102703,0.0,0.0
300,74.75,18.9188,19.8265,145.387,104.278,105.405,0.000593625,0.0448841,21.0055,439.867,-0.0971111,0.0,0.0
306,76.25,18.6733,19.719,143.825,104.212,106.029,0.000622065,0.044712,21.0047,439.887,-0.156072,0.0,0.0
312,77.75,18.8732,19.2314,146.054,104.142,105.348,0.000698316,0.0445016,21.0054,439.897,-0.103984,0.0,0.0
318,79.25,19.0607,19.6557,145.668,104.077,105.402,0.000756741,0.0442903,21.0057,439.917,-0.11426,0.0,0.0
324,80.75,18.473,18.9861,147.684,104.024,105.478,0.000722818,0.0441781,21.0059,439.927,-0.125325,0.0,0.0
330,82.25,19.2764,19.5769,145.393,103.977,105.453,0.000581768,0.0441135,21.0062,439.907,-0.127341,0.0,0.0
336,83.75,19.3186,19.6039,145.112,103.929,105.19,0.000430987,0.0441844,21.0043,439.887,-0.108914,0.0,0.0
342,85.25,18.8972,19.6895,141.354,103.883,104.94,0.000405299,0.0445909,21.0025,439.837,-0.0914182,0.0,0.0
348,86.75,19.2007,19.7698,145.522,103.84,104.862,0.000520334,0.0450811,21.0013,439.907,-0.0884871,0.0,0.0
354,88.25,19.1745,19.6784,145.667,103.816,105.277,0.000647082,0.045563,21.0004,439.947,-0.126183,0.0,0.0
360,89.75,18.7526,20.0835,145.906,103.781,104.592,0.000691287,0.0461076,20.9991,439.957,-0.0702853,0.0,0.0
366,91.25,18.9833,19.5465,139.77,103.761,104.693,0.000687793,0.0467388,20.9981,439.927,-0.0807326,0.0,0.0
372,92.75,19.3716,19.4339,144.603,103.743,104.629,0.000636873,0.04726,20.9968,439.977,-0.0768372,0.0,0.0
378,94.25,18.806,19.4345,143.304,103.724,104.993,0.000509286,0.0477441,20.9961,439.907,-0.109844,0.0,0.0
384,95.75,19.0412,19.6893,146.854,103.712,104.977,0.000345532,0.048172,20.9957,439.957,-0.109499,0.0,0.0
390,97.25,18.7268,19.4797,143.282,103.714,105.289,0.000242623,0.048531,20.9955,439.927,-0.136089,0.0,0.0
396,98.75,19.132,20.0909,143.622,103.705,104.813,0.000211284,0.0487551,20.9954,439.927,-0.0959253,0.0,0.0
402,100.25,18.9321,19.7002,142.997,103.705,104.688,0.000236808,0.0487138,20.9953,439.947,-0.0851811,0.0,0.0
408,101.75,19.2669,20.0257,141.847,103.716,104.631,0.000287187,0.0488255,20.9953,439.967,-0.0793523,0.0,0.0
414,103.25,18.7988,19.5076,140.733,103.695,105.252,0.000359376,0.0488483,20.9953,440.017,-0.134562,0.0,0.0
420,104.75,19.5102,19.7773,144.482,103.705,105.074,0.000449512,0.0487511,20.9962,439.987,-0.118377,0.0,0.0
426,106.25,18.5149,19.2482,139.574,103.71,105.074,0.000559466,0.0486235,20.9973,439.967,-0.117977,0.0,0.0
432,107.75,18.9543,19.5949,142.317,103.716,105.063,0.000668086,0.0483611,20.9988,439.977,-0.116525,0.0,0.0
438,109.25,19.0807,20.0489,142.721,103.719,105.411,0.000747246,0.0481431,20.9997,439.987,-0.146048,0.0,0.0
444,110.75,19.4856,19.6905,142.982,103.741,104.609,0.000815759,0.0479409,21.0008,439.987,-0.0752426,0.0,0.0
450,112.25,19.1546,19.8892,145.168,103.724,105.312,0.000872632,0.0475434,21.0019,439.977,-0.137144,0.0,0.0
456,113.75,18.996,19.8853,144.269,103.739,104.977,0.000872885,0.0470999,21.0025,439.987,-0.107104,0.0,0.0
462,115.25,19.2762,19.6858,141.193,103.746,105.23,0.000788269,0.0466747,21.0028,439.957,-0.128215,0.0,0.0
468,116.75,19.4406,19.8215,144.546,103.748,104.537,0.000659932,0.04641,21.0029,439.957,-0.0684061,0.0,0.0
474,118.25,19.137,19.5103,143.935,103.752,105.04,0.000553981,0.0460365,21.0039,439.957,-0.111423,0.0,0.0
480,119.75,18.7515,19.4603,144.23,103.773,104.751,0.000478473,0.0455869,21.0035,439.947,-0.084696,0.0,0.0
486,121.25,19.7021,19.6126,144.093,103.768,104.978,0.000418329,0.0451948,21.0033,439.947,-0.104729,0.0,0.0
492,122.75,18.9854,19.8445,142.627,103.779,104.869,0.00035557,0.044872,21.0032,439.957,-0.0943082,0.0,0.0
498,124.25,18.8169,20.1995,146.061,103.753,105.046,,0.0445518,,439.957,-0.111798,0.0,0.0
504,125.75,18.8386,19.5899,142.734,103.77,104.486,,0.0442773,,439.947,-0.0621399,0.0,0.0
510,127.25,18.8273,19.3435,144.473,103.756,104.721,,,,439.947,-0.0835693,0.0,0.0
516,128.75,18.9391,19.6116,145.538,103.759,105.116,,,,439.937,-0.117306,0.0,0.0
522,130.25,19.1601,19.6594,139.434,103.751,104.836,,,,439.947,-0.0940151,0.0,0.0
528,131.75,19.06,19.7187,140.198,103.744,104.707,,,,439.937,-0.0834596,0.0,0.0
534,133.25,19.2644,19.4374,143.239,103.746,104.537,,,,439.927,-0.0685899,0.0,0.0
540,134.75,19.1515,18.6262,154.269,103.739,104.946,,,,439.927,-0.104438,0.0,0.0
541,135,19.4273,19.9462,144.77,103.735,105.029,,,,439.927,-0.111924,0.0,0.0