File: 01_Data/Fiberglass_Insulation_3/Cone/Fiberglass_Insulation_3_Cone_HF25Scan_220506_R2.csv
Names,Time,Stack TC,Smoke TC,Exh Press,Smoke Comp,Smoke Meas,CO Meter,CO2 Meter,O2 Meter,Sample Mass,Ext Coeff,Start Test,Flame Verif
Chan Gain,,500,500,1,1,1,1,1,1,1,1,1.0,1.0
Offset,,0,0,0.134207,0,0,0,0,0,0,0,0.0,0.0
Gain,,1,1,25.011,13.8443,15.4071,1,1,1,1.00079,1.02936,1.0,1.0
Units,sec,C,C,Pa,%,%,%,%,%,g,/m,,
Baseline,,19.0844,19.5815,144.07,104.905,104.934,0.000516916,0.0410834,21.0086,-444.227,-0.00252202,,
6,1.25,17.5112,17.9811,144.598,104.935,104.772,0.000410962,0.0457436,21.0031,446.052,0.0140532,0.0,0.0
12,2.75,17.3471,18.2809,145.5,104.906,104.654,0.000426351,0.0463302,21.002,446.192,0.0217213,0.0,0.0
18,4.25,17.3489,17.8523,141.804,104.878,104.136,0.000562606,0.0464548,21.0019,446.162,0.0640599,0.0,0.0
24,5.75,17.6568,18.0309,141.064,104.837,103.742,0.000896855,0.0487236,20.9914,446.082,0.0948013,0.0,0.0
30,7.25,17.8463,17.8874,136.991,104.812,106.509,0.00142796,0.0678029,20.9323,445.832,-0.144992,0.0,1.0
36,8.75,17.9821,18.432,127.958,104.833,105.212,0.00223331,0.103535,20.847,445.622,-0.0325609,0.0,1.0
42,10.25,19.1169,19.7912,130.329,104.912,97.1329,0.00299685,0.138611,20.7965,445.552,0.695609,0.0,1.0
48,11.75,20.5265,19.806,140.32,104.966,102.029,0.00363867,0.162803,20.7964,445.431,0.25626,0.0,1.0
54,13.25,21.1641,20.3939,139.103,105.045,105.501,0.00434738,0.166896,20.8192,445.431,-0.0391676,0.0,0.0
60,14.75,20.8541,20.6297,139.081,105.095,104.916,0.00501262,0.160495,20.843,445.381,0.0153578,0.0,0.0
66,16.25,20.5031,20.5061,144.046,105.134,104.916,0.00560965,0.149931,20.8735,445.371,0.0187689,0.0,0.0
72,17.75,20.5341,20.4264,144.62,105.199,105.875,0.00577892,0.139556,20.9021,445.371,-0.0578208,0.0,0.0
78,19.25,20.5402,20.3173,142.085,105.228,105.457,0.00558147,0.12602,20.9248,445.271,-0.0196316,0.0,0.0
84,20.75,19.9889,20.2483,144.597,105.249,105.239,0.00523005,0.114484,20.9415,445.251,0.000798649,0.0,0.0
90,22.25,19.6259,20.6907,142.065,105.299,105.316,0.00478793,0.1046,20.9554,445.321,-0.00138489,0.0,0.0
96,23.75,20.1033,20.3611,142.852,105.291,105.702,0.00436961,0.0959275,20.9666,445.381,-0.0351091,0.0,0.0
102,25.25,19.7261,20.5406,141.145,105.326,105.345,0.00395307,0.0885879,20.9747,445.261,-0.00167879,0.0,0.0
108,26.75,20.4515,20.5819,143.323,105.326,105.467,0.00346699,0.0824897,20.9793,445.291,-0.012034,0.0,0.0
114,28.25,19.037,19.7776,146.931,105.329,105.617,0.00299503,0.0771189,20.9826,445.221,-0.0245768,0.0,0.0
120,29.75,19.639,19.7073,143.272,105.318,105.285,0.00253026,0.0724132,20.987,445.291,0.00286491,0.0,0.0
126,31.25,19.7211,19.8288,145.296,105.31,105.091,0.00220251,0.068566,20.991,445.261,0.0188065,0.0,0.0
132,32.75,19.4286,19.8716,140.987,105.288,105.397,0.00199067,0.0650809,20.9939,445.301,-0.00933447,0.0,0.0
138,34.25,20.0123,19.2247,142.668,105.283,105.278,0.00184023,0.0620766,20.9962,445.321,0.000462838,0.0,0.0
144,35.75,19.4531,19.9493,143.847,105.238,104.88,0.00169959,0.0594864,20.9977,445.371,0.0307711,0.0,0.0
150,37.25,19.249,19.3871,143.582,105.208,105.139,0.00155289,0.0574857,21.0003,445.261,0.005915,0.0,0.0
156,38.75,18.9406,19.6296,142.262,105.171,104.956,0.00133394,0.0556209,21.0022,445.091,0.0184864,0.0,0.0
162,40.25,19.6951,19.8225,144.009,105.132,104.985,0.00109156,0.0540843,21.004,445.211,0.0126452,0.0,0.0
168,41.75,19.2028,19.5777,144.742,105.078,105.049,0.00091067,0.0528468,21.0053,445.281,0.00249259,0.0,0.0
174,43.25,19.6762,19.7338,143.891,105.023,104.546,0.000832544,0.0517247,21.0048,445.331,0.0411235,0.0,0.0
180,44.75,18.6888,19.8181,146.896,104.985,104.893,0.000812191,0.0508005,21.0046,445.231,0.00789298,0.0,0.0
186,46.25,18.4526,18.4587,141.101,104.939,104.557,0.000823362,0.0499822,21.0045,445.251,0.0329174,0.0,0.0
192,47.75,18.7017,19.2422,143.262,104.897,104.699,0.00083558,0.0493649,21.004,445.301,0.0171038,0.0,0.0
198,49.25,18.9931,19.9614,144.328,104.86,104.922,0.000786771,0.0488179,21.0051,445.111,-0.00537388,0.0,0.0
204,50.75,18.6478,19.0107,146.836,104.82,104.391,0.000735532,0.048356,21.0058,445.201,0.0370091,0.0,0.0
210,52.25,18.58,19.3542,140.051,104.792,104.687,0.000776673,0.0479389,21.0062,445.281,0.00902106,0.0,0.0
216,53.75,18.024,19.527,144.684,104.745,104.657,0.00085271,0.0474949,21.0064,445.291,0.00753485,0.0,0.0
222,55.25,19.0043,19.2154,143.216,104.707,104.513,0.00090966,0.0470207,21.0066,445.201,0.0167955,0.0,0.0
228,56.75,18.8373,19.5099,143.798,104.658,104.671,0.000885969,0.0465634,21.0068,445.181,-0.0011066,0.0,0.0
234,58.25,18.827,19.6392,142.887,104.6,104.391,0.000775966,0.0461817,21.0078,445.061,0.0180643,0.0,0.0
240,59.75,18.4656,19.4783,140.131,104.588,104.392,0.000558836,0.0458944,21.0084,445.071,0.0169986,0.0,0.0
246,61.25,18.4992,19.0337,140.012,104.538,104.295,0.000328716,0.0456703,21.0076,445.251,0.020961,0.0,0.0
252,62.75,18.9152,18.9486,141.818,104.508,104.145,0.000159335,0.0453661,21.0072,445.211,0.0314416,0.0,0.0
258,64.25,18.3968,19.0877,143.007,104.46,104.427,0.000203712,0.0451458,21.0069,445.141,0.00284984,0.0,0.0
264,65.75,19.1033,19.3431,141.995,104.444,104.235,0.000386077,0.0448694,21.0068,445.121,0.018104,0.0,0.0
270,67.25,18.8449,19.5417,141.992,104.4,104.193,0.000605818,0.0445563,21.0072,445.291,0.0179311,0.0,0.0
276,68.75,18.6263,18.9315,142.087,104.391,104.138,0.000769269,0.0442902,21.008,445.181,0.0218588,0.0,0.0
282,70.25,18.9681,18.6081,144.696,104.391,104.273,0.000861232,0.0440861,21.0085,445.101,0.0102028,0.0,0.0
288,71.75,18.5675,19.0291,142.861,104.397,104.41,0.000821179,0.0438618,21.0085,445.211,-0.00108938,0.0,0.0
294,73.25,17.8189,18.7865,145.764,104.397,104.393,0.000709045,0.0436949,21.0095,445.271,0.000337981,0.0,0.0
300,74.75,18.3702,18.8076,144.828,104.398,104.1,0.0005988,0.043473,21.01,445.151,0.0258599,0.0,0.0
306,76.25,18.2098,18.9053,139.475,104.394,104.171,0.000554317,0.0432266,21.0097,445.281,0.0193758,0.0,0.0
312,77.75,18.3543,19.402,143.405,104.408,104.059,0.000590046,0.043023,21.009,445.251,0.0302862,0.0,0.0
318,79.25,18.6487,19.256,140.645,104.413,104.147,0.000646788,0.0428288,21.0087,445.181,0.022984,0.0,0.0
324,80.75,18.8796,18.9631,144.097,104.424,104.3,0.000706606,0.0426993,21.0085,445.201,0.0107285,0.0,0.0
330,82.25,18.8243,18.9443,141.332,104.416,104.306,0.000785449,0.0427041,21.0084,445.271,0.00951354,0.0,0.0
336,83.75,19.1566,19.2826,142.04,104.42,104.594,0.000870933,0.0426243,21.0084,445.301,-0.0150783,0.0,0.0
342,85.25,18.3585,18.7368,143.755,104.427,104.181,0.000932206,0.0425039,21.0084,445.311,0.0212564,0.0,0.0
348,86.75,18.5326,19.2159,142.632,104.424,104.193,0.000944129,0.0424844,21.0083,445.231,0.0199805,0.0,0.0
354,88.25,18.1908,19.7275,145.72,104.433,104.255,0.00089696,0.0424465,21.0083,445.111,0.0153675,0.0,0.0
360,89.75,18.5386,19.231,142.156,104.443,104.288,0.000837868,0.0424152,21.0083,445.231,0.0133579,0.0,0.0
366,91.25,18.6573,19.2251,143.602,104.447,104.133,0.000771834,0.0423391,21.0083,445.201,0.0272025,0.0,0.0
372,92.75,18.1595,19.1344,143.011,104.449,104.314,0.000708074,0.0422052,21.0083,445.121,0.0117025,0.0,0.0
378,94.25,18.7983,19.2128,143.771,104.468,104.385,0.000686426,0.0420943,21.0078,445.131,0.00720251,0.0,0.0
384,95.75,18.3496,18.9858,144.839,104.471,104.158,0.000731652,0.0420505,21.0088,445.181,0.0270512,0.0,0.0
390,97.25,18.6442,19.0648,145.935,104.492,104.092,0.000768591,0.0419939,21.0093,445.171,0.0346622,0.0,0.0
396,98.75,18.4487,19.3188,141.15,104.495,104.205,0.00071443,0.0419762,21.0096,445.181,0.0250935,0.0,0.0
402,100.25,18.495,18.5755,142.766,104.512,104.179,0.000629747,0.0420728,21.0102,445.051,0.0287992,0.0,0.0
408,101.75,18.1533,18.3295,142.662,104.509,104.018,0.00054527,0.0420876,21.0105,445.101,0.0424874,0.0,0.0
414,103.25,18.1042,18.9791,146.846,104.531,104.235,0.000454258,0.0419815,21.0106,445.161,0.0255529,0.0,0.0
420,104.75,17.5288,18.2292,146.67,104.539,104.103,0.000370215,0.0418833,21.0107,445.181,0.0377358,0.0,0.0
426,106.25,18.3644,19.0448,142.446,104.561,104.367,0.000386925,0.0418117,21.0107,445.111,0.0167461,0.0,0.0
432,107.75,18.1186,18.708,142.92,104.574,104.301,0.000503421,0.0417106,21.0118,445.111,0.0235745,0.0,0.0
438,109.25,18.2361,18.6477,140.162,104.595,104.217,0.000605545,0.0416056,21.0124,445.151,0.0326472,0.0,0.0
444,110.75,18.0237,18.7573,143.357,104.6,104.308,0.000637802,0.0415744,21.0125,445.201,0.0251848,0.0,0.0
450,112.25,17.6771,17.905,149.092,104.634,104.204,0.000593517,0.0415573,21.0124,445.211,0.0372149,0.0,0.0
456,113.75,17.6388,18.5853,143.183,104.641,104.259,0.000504821,0.0416226,21.0123,445.281,0.0329968,0.0,0.0
462,115.25,17.7548,18.1545,147.777,104.659,104.455,0.000410424,0.0416302,21.0123,445.201,0.0176356,0.0,0.0
468,116.75,17.8227,18.4986,142.837,104.701,104.411,0.000333522,0.0415945,21.0123,445.241,0.0250238,0.0,0.0
474,118.25,18.4349,18.3939,143.301,104.719,104.321,0.000238161,0.0415756,21.0116,445.191,0.0343694,0.0,0.0
480,119.75,18.1805,19.0189,142.513,104.731,104.512,0.000192223,0.0415512,21.011,445.201,0.0188764,0.0,0.0
486,121.25,18.0523,19.0608,142.313,104.754,104.553,0.000203721,0.0414858,21.0102,445.221,0.0173466,0.0,0.0
492,122.75,17.693,18.9494,141.818,104.772,104.371,0.000252689,0.0414755,21.0092,445.201,0.0345635,0.0,0.0
498,124.25,18.1036,18.5184,143.123,104.792,104.307,,0.0414569,,445.211,0.0418896,0.0,0.0
504,125.75,17.8843,18.7229,142.694,104.828,104.335,,0.0414497,,444.991,0.0425785,0.0,0.0
510,127.25,18.007,18.3018,140.72,104.847,104.355,,,,445.061,0.0425431,0.0,0.0
516,128.75,18.7224,19.0124,142.675,104.877,104.494,,,,445.101,0.033015,0.0,0.0
522,130.25,17.675,18.7021,143.042,104.892,104.418,,,,445.151,0.0408717,0.0,0.0
528,131.75,18.3999,18.4302,145.621,104.921,104.664,,,,445.191,0.0221788,0.0,0.0
534,133.25,18.1702,19.3441,144.761,104.918,104.723,,,,445.131,0.0168138,0.0,0.0
540,134.75,17.7384,18.2809,140.398,104.959,104.745,,,,445.121,0.0183994,0.0,0.0
541,135,18.1275,18.6986,142.743,104.956,104.562,,,,445.141,0.033962,0.0,0.0