File: 01_Data/Coaxial_Cable/MCC/Coaxial_Cable_MCC_30K_min_220113_O1.txt
Sample ID:	C:\MCC\MCC Cal\Test\Coaxial_Cable_MCC_30K_min_220113_R1.txt
Sample Weight (mg):	4.65
Heating Rate (C/s):	0.5
Combustor Temp (C):	900
N2 Flow Rate (cc/min):	80
O2 Flow Rate (cc/min):	20
Calibration File:	C:\MCC\MCC Cal\Coeff1 JN10440_30_210304.txt.txt
T Correction Coefficients:	0	1.024463	0
Time Shift (s):	14
*
Time (s)	Temperature (C)	N2 flow rate (cc/min)	O2 flow rate (cc/min)	Flow Rate (cc/min)	Oxygen (%)	HRR (W/g)	Heating rate (C/s)
-0.001	113.848	80.009	19.993	104.491	20.071	-0.175	0.003
7.999	113.763	80.010	19.994	104.480	20.069	-0.093	-0.021
15.999	113.818	80.011	19.993	104.527	20.067	0.109	0.028
24.000	114.099	80.010	19.994	104.586	20.056	0.825	0.051
32.000	114.559	80.010	19.994	104.645	20.044	1.679	0.077
39.999	115.481	80.012	19.994	104.648	20.040	2.005	0.146
47.999	116.840	80.009	19.996	104.698	20.031	2.575	0.206
56.000	118.625	80.009	19.994	104.718	20.028	2.784	0.278
63.999	120.723	80.010	19.995	104.725	20.026	2.953	0.304
72.000	123.131	80.010	19.993	104.722	20.028	2.824	0.308
80.001	125.818	80.009	19.995	104.732	20.024	3.081	0.361
88.001	128.703	80.009	19.994	104.718	20.030	2.702	0.350
96.000	131.803	80.011	19.993	104.723	20.025	3.023	0.392
104.001	134.972	80.011	19.994	104.723	20.028	2.792	0.368
112.000	138.342	80.011	19.993	104.728	20.023	3.189	0.442
120.000	141.866	80.011	19.994	104.726	20.024	3.099	0.429
128.000	145.494	80.010	19.993	104.736	20.025	3.023	0.459
136.000	149.215	80.009	19.994	104.724	20.022	3.249	0.474
144.000	153.022	80.010	19.996	104.721	20.018	3.486	0.479
152.000	156.830	80.010	19.994	104.720	20.020	3.387	0.458
160.000	160.767	80.012	19.994	104.716	20.019	3.446	0.507
168.000	164.765	80.010	19.995	104.719	20.020	3.346	0.518
176.000	168.746	80.010	19.994	104.721	20.015	3.751	0.469
184.000	172.836	80.012	19.993	104.713	20.012	3.951	0.540
192.000	176.815	80.010	19.993	104.711	20.013	3.886	0.514
200.000	180.913	80.011	19.994	104.699	20.006	4.375	0.557
208.000	184.989	80.014	19.993	104.682	20.006	4.392	0.509
216.000	189.084	80.011	19.994	104.684	20.001	4.739	0.522
224.000	193.034	80.009	19.994	104.671	19.995	5.120	0.482
232.000	197.029	80.010	19.994	104.697	19.984	5.908	0.498
240.000	201.010	80.008	19.993	104.682	19.975	6.573	0.500
248.000	204.993	80.009	19.994	104.685	19.961	7.500	0.524
256.000	209.039	80.009	19.994	104.686	19.952	8.149	0.517
264.000	213.106	80.011	19.993	104.636	19.933	9.466	0.511
272.000	217.168	80.011	19.993	104.677	19.915	10.761	0.473
280.000	221.185	80.011	19.994	104.676	19.893	12.278	0.510
288.000	225.161	80.013	19.993	104.683	19.871	13.844	0.491
296.000	229.255	80.014	19.992	104.662	19.844	15.706	0.497
304.000	233.241	80.010	19.995	104.668	19.811	18.022	0.482
312.000	237.258	80.010	19.994	104.666	19.782	20.121	0.516
320.000	241.318	80.011	19.995	104.671	19.744	22.782	0.522
328.000	245.361	80.009	19.994	104.668	19.702	25.697	0.488
336.000	249.373	80.009	19.995	104.648	19.659	28.740	0.514
344.000	253.446	80.011	19.996	104.648	19.611	32.120	0.461
352.000	257.474	80.012	19.994	104.630	19.566	35.274	0.504
360.000	261.489	80.013	19.994	104.652	19.517	38.729	0.492
368.000	265.513	80.013	19.993	104.661	19.471	41.927	0.528
376.000	269.518	80.014	19.994	104.667	19.416	45.787	0.520
384.000	273.569	80.011	19.992	104.677	19.365	49.397	0.506
392.000	277.547	80.010	19.993	104.671	19.335	51.504	0.475
400.000	281.521	80.010	19.994	104.680	19.323	52.354	0.505
408.000	285.513	80.009	19.993	104.684	19.322	52.432	0.468
416.000	289.536	80.011	19.996	104.683	19.349	50.499	0.475
424.000	293.574	80.009	19.995	104.689	19.410	46.212	0.492
432.000	297.625	80.012	19.995	104.718	19.498	40.092	0.532
440.000	301.625	80.009	19.995	104.744	19.596	33.162	0.488
448.000	305.670	80.012	19.993	104.732	19.709	25.205	0.504
456.000	309.687	80.014	19.993	104.730	19.803	18.630	0.516
464.000	313.760	80.011	19.993	104.701	19.882	13.096	0.499
472.000	317.808	80.009	19.993	104.683	19.934	9.446	0.495
480.000	321.859	80.010	19.992	104.646	19.966	7.144	0.483
488.000	325.905	80.011	19.993	104.607	19.992	5.330	0.509
496.000	329.890	80.011	19.994	104.567	20.010	4.091	0.521
504.000	333.986	80.010	19.995	104.538	20.025	3.010	0.508
512.000	338.024	80.012	19.994	104.543	20.032	2.548	0.518
520.000	342.028	80.011	19.995	104.558	20.043	1.782	0.469
528.000	346.060	80.010	19.993	104.560	20.049	1.349	0.521
536.000	350.172	80.013	19.994	104.565	20.052	1.108	0.540
544.000	354.146	80.013	19.993	104.560	20.057	0.758	0.484
552.000	358.241	80.011	19.993	104.566	20.062	0.445	0.492
560.000	362.269	80.011	19.993	104.568	20.060	0.554	0.480
568.000	366.379	80.010	19.994	104.564	20.061	0.521	0.519
576.000	370.407	80.010	19.993	104.566	20.062	0.433	0.502
584.000	374.459	80.010	19.994	104.563	20.062	0.428	0.491
592.000	378.568	80.011	19.993	104.562	20.061	0.482	0.516
600.000	382.576	80.013	19.994	104.554	20.059	0.628	0.504
608.000	386.629	80.012	19.994	104.562	20.059	0.651	0.480
616.000	390.637	80.012	19.994	104.557	20.058	0.682	0.474
624.000	394.686	80.014	19.995	104.554	20.047	1.467	0.492
632.000	398.976	80.010	19.994	104.542	20.045	1.652	0.957
640.000	402.686	80.010	19.993	104.552	20.029	2.752	0.519
648.000	406.801	80.011	19.993	104.549	20.037	2.204	0.508
656.000	411.028	80.010	19.992	104.549	20.009	4.126	0.476
664.000	415.027	80.010	19.994	104.542	19.988	5.602	0.494
672.000	419.216	80.011	19.994	104.533	19.963	7.349	0.529
680.000	423.332	80.012	19.994	104.546	19.934	9.433	0.509
688.000	427.506	80.012	19.994	104.529	19.896	12.086	0.530
696.000	431.614	80.011	19.993	104.534	19.867	14.089	0.495
704.000	435.772	80.014	19.993	104.533	19.796	19.068	0.526
712.000	439.802	80.011	19.995	104.530	19.740	23.034	0.514
720.000	443.933	80.008	19.995	104.531	19.678	27.363	0.529
728.000	447.980	80.011	19.995	104.522	19.614	31.869	0.534
736.000	452.048	80.012	19.994	104.519	19.546	36.583	0.507
744.000	456.115	80.010	19.993	104.520	19.470	41.944	0.487
752.000	460.213	80.010	19.993	104.512	19.391	47.439	0.534
760.000	464.252	80.013	19.993	104.492	19.290	54.544	0.480
768.000	468.328	80.012	19.992	104.491	19.175	62.581	0.506
776.000	472.452	80.010	19.994	104.465	19.041	71.999	0.492
784.000	476.586	80.012	19.993	104.453	18.886	82.804	0.517
792.000	480.689	80.013	19.994	104.431	18.740	93.035	0.528
800.000	484.806	80.011	19.995	104.406	18.632	100.548	0.529
808.000	488.955	80.010	19.994	104.380	18.619	101.445	0.537
816.000	493.087	80.011	19.995	104.369	18.724	94.147	0.516
824.000	497.238	80.011	19.995	104.367	18.985	75.909	0.521
832.000	501.310	80.012	19.993	104.412	19.332	51.575	0.515
840.000	505.426	80.010	19.993	104.454	19.660	28.621	0.516
848.000	509.466	80.010	19.992	104.492	19.875	13.566	0.488
856.000	513.588	80.012	19.994	104.498	19.980	6.195	0.534
864.000	517.655	80.012	19.992	104.509	20.028	2.817	0.490
872.000	521.799	80.013	19.993	104.501	20.052	1.123	0.532
880.000	525.935	80.012	19.994	104.517	20.066	0.171	0.520
888.000	530.020	80.011	19.995	104.523	20.074	-0.387	0.534
896.000	534.143	80.009	19.993	104.508	20.075	-0.460	0.516
904.000	538.270	80.009	19.995	104.517	20.085	-1.181	0.514
912.000	542.344	80.009	19.995	104.527	20.090	-1.552	0.518
920.000	546.446	80.010	19.994	104.532	20.092	-1.648	0.490
928.000	550.598	80.012	19.994	104.527	20.097	-2.007	0.518
936.000	554.791	80.010	19.994	104.525	20.098	-2.128	0.546
944.000	558.916	80.012	19.994	104.528	20.099	-2.145	0.548
952.000	563.019	80.014	19.992	104.528	20.103	-2.449	0.491
960.000	567.093	80.010	19.993	104.535	20.102	-2.375	0.510
968.000	571.161	80.010	19.993	104.546	20.101	-2.323	0.507
976.000	575.346	80.009	19.994	104.564	20.100	-2.218	0.521
984.000	579.384	80.010	19.994	104.558	20.104	-2.495	0.533
992.000	583.427	80.010	19.993	104.565	20.105	-2.590	0.482
1000.000	587.556	80.011	19.995	104.528	20.108	-2.802	0.494
1008.000	591.605	80.012	19.994	104.525	20.105	-2.606	0.545
1016.000	595.709	80.011	19.993	104.521	20.114	-3.212	0.504
1024.000	599.854	80.011	19.994	104.511	20.115	-3.291	0.569
1032.001	603.888	80.013	19.993	104.513	20.117	-3.402	0.517
1040.000	607.952	80.011	19.993	104.525	20.119	-3.548	0.537
1048.000	612.021	80.010	19.994	104.527	20.120	-3.612	0.508
1056.000	616.169	80.010	19.994	104.518	20.119	-3.600	0.522
1063.999	620.319	80.011	19.995	104.527	20.122	-3.775	0.537
1072.000	624.407	80.009	19.995	104.523	20.121	-3.719	0.512
1080.001	628.458	80.010	19.995	104.523	20.120	-3.659	0.480
1088.001	632.587	80.011	19.993	104.526	20.124	-3.909	0.522
1095.999	636.639	80.011	19.995	104.530	20.123	-3.816	0.483
1104.001	640.636	80.009	19.995	104.529	20.123	-3.820	0.453
1112.000	644.562	80.012	19.992	104.533	20.118	-3.469	0.506
1120.000	648.477	80.013	19.994	104.538	20.115	-3.296	0.489
1128.001	652.503	80.011	19.993	104.558	20.119	-3.580	0.513
1136.001	656.559	80.010	19.993	104.549	20.126	-4.051	0.528
1143.999	660.662	80.011	19.994	104.564	20.119	-3.575	0.501
1151.999	664.712	80.010	19.993	104.568	20.120	-3.633	0.483
1160.000	668.770	80.010	19.996	104.573	20.121	-3.742	0.461
1167.999	672.869	80.011	19.994	104.567	20.120	-3.607	0.476
1176.000	677.029	80.011	19.995	104.566	20.120	-3.670	0.513
1183.999	681.176	80.009	19.993	104.551	20.126	-4.086	0.542
1192.000	685.284	80.010	19.994	104.512	20.131	-4.384	0.482
1199.999	689.412	80.012	19.994	104.516	20.134	-4.642	0.487
1208.001	693.489	80.010	19.994	104.487	20.137	-4.817	0.484
1216.000	697.595	80.009	19.993	104.502	20.137	-4.846	0.490
1224.000	701.619	80.010	19.995	104.482	20.134	-4.629	0.488
1232.000	705.539	80.010	19.993	104.490	20.135	-4.666	0.493
1240.000	709.352	80.009	19.993	104.492	20.134	-4.632	0.478
1248.000	713.045	80.011	19.993	104.492	20.136	-4.790	0.473
1256.000	716.936	80.013	19.992	104.492	20.135	-4.677	0.528
1264.001	721.081	80.011	19.995	104.492	20.133	-4.545	0.544
1272.000	725.235	80.012	19.994	104.488	20.135	-4.694	0.499
1280.001	729.228	80.012	19.995	104.488	20.135	-4.663	0.495
1288.001	733.106	80.011	19.995	104.482	20.134	-4.607	0.484
1296.000	736.916	80.009	19.995	104.488	20.135	-4.656	0.500
1304.000	740.891	80.011	19.994	104.495	20.134	-4.596	0.507
1308.501	743.296	80.010	19.994	104.495	20.131	-4.392	0.535