File: 01_Data/Coaxial_Cable/MCC/Coaxial_Cable_MCC_30K_min_220201_R4.txt
Sample ID:	C:\MCC\MCC Cal\Test\Coaxial_Cable\Coaxial_Cable_MCC_30K_min_220201_R4.txt
Sample Weight (mg):	4.39
Heating Rate (C/s):	0.5
Combustor Temp (C):	900
N2 Flow Rate (cc/min):	80
O2 Flow Rate (cc/min):	20
Calibration File:	C:\MCC\MCC Cal\Coeff1 JN10440_30_210304.txt.txt
T Correction Coefficients:	0	1.024463	0
Time Shift (s):	14
*
Time (s)	Temperature (C)	N2 flow rate (cc/min)	O2 flow rate (cc/min)	Flow Rate (cc/min)	Oxygen (%)	HRR (W/g)	Heating rate (C/s)
0.000	115.580	80.008	19.994	103.786	20.049	0.058	0.008
8.000	115.522	80.009	19.994	103.786	20.053	-0.191	-0.017
16.000	115.508	80.007	19.995	103.787	20.050	0.026	0.004
24.000	115.636	80.010	19.993	103.916	20.035	1.148	0.053
32.000	116.176	80.010	19.993	103.978	20.020	2.216	0.074
40.001	117.379	80.008	19.995	103.984	20.020	2.241	0.178
48.001	119.008	80.007	19.993	104.009	20.020	2.230	0.249
56.000	120.971	80.008	19.994	104.007	20.019	2.266	0.249
64.001	123.236	80.007	19.992	104.000	20.018	2.410	0.271
72.001	125.687	80.006	19.995	104.010	20.019	2.291	0.302
80.000	128.458	80.008	19.995	104.013	20.018	2.383	0.363
88.000	131.425	80.010	19.995	104.017	20.018	2.358	0.355
96.000	134.559	80.009	19.995	104.028	20.017	2.486	0.422
104.000	137.969	80.008	19.994	104.026	20.016	2.527	0.417
112.000	141.511	80.010	19.995	104.030	20.018	2.366	0.473
120.000	145.265	80.008	19.994	104.042	20.019	2.285	0.490
128.000	149.119	80.008	19.994	104.018	20.022	2.114	0.497
136.000	153.012	80.007	19.993	104.023	20.021	2.150	0.481
144.000	156.973	80.006	19.994	104.021	20.022	2.094	0.526
152.000	161.049	80.007	19.993	104.014	20.021	2.136	0.508
160.000	165.136	80.008	19.994	104.015	20.019	2.315	0.519
168.000	169.207	80.008	19.994	104.002	20.016	2.512	0.505
176.000	173.284	80.009	19.995	103.981	20.019	2.310	0.508
184.000	177.327	80.009	19.994	103.984	20.019	2.304	0.506
192.000	181.356	80.009	19.994	103.985	20.017	2.479	0.547
200.000	185.277	80.008	19.996	103.970	20.012	2.782	0.469
208.000	189.222	80.006	19.995	103.966	20.010	2.961	0.474
216.000	193.060	80.008	19.994	103.965	20.007	3.160	0.517
224.000	196.793	80.008	19.994	103.951	20.002	3.570	0.459
232.000	200.580	80.008	19.994	103.953	19.992	4.326	0.484
240.000	204.345	80.007	19.994	103.954	19.987	4.666	0.486
248.000	208.164	80.008	19.994	103.962	19.976	5.494	0.467
256.000	211.999	80.007	19.994	103.975	19.968	6.063	0.482
264.000	215.816	80.007	19.993	103.948	19.954	7.073	0.474
272.000	219.693	80.010	19.995	103.946	19.944	7.873	0.481
280.000	223.542	80.009	19.995	103.943	19.929	8.964	0.476
288.000	227.418	80.007	19.995	103.939	19.906	10.615	0.459
296.000	231.412	80.006	19.995	103.950	19.880	12.579	0.480
304.000	235.304	80.007	19.994	103.964	19.853	14.541	0.463
312.000	239.338	80.008	19.993	103.948	19.826	16.528	0.463
320.000	243.366	80.007	19.994	103.950	19.793	18.991	0.515
328.000	247.417	80.009	19.993	103.946	19.761	21.356	0.526
336.000	251.502	80.008	19.993	103.945	19.725	24.045	0.492
344.000	255.507	80.009	19.993	103.942	19.687	26.815	0.508
352.000	259.472	80.010	19.993	103.940	19.643	30.070	0.496
360.000	263.506	80.008	19.995	103.940	19.601	33.191	0.507
368.000	267.508	80.008	19.994	103.943	19.558	36.349	0.487
376.000	271.574	80.006	19.993	103.948	19.507	40.115	0.497
384.000	275.658	80.007	19.994	103.952	19.464	43.278	0.521
392.000	279.725	80.005	19.995	103.965	19.434	45.556	0.484
400.000	283.785	80.006	19.994	103.957	19.427	46.075	0.525
408.000	287.789	80.008	19.994	103.976	19.422	46.453	0.496
416.000	291.855	80.010	19.993	103.977	19.436	45.410	0.513
424.000	295.892	80.009	19.995	103.980	19.481	42.031	0.568
432.000	299.897	80.010	19.993	103.984	19.545	37.308	0.503
440.000	303.853	80.010	19.993	104.009	19.631	30.983	0.502
448.000	307.841	80.007	19.994	104.013	19.722	24.276	0.516
456.000	311.870	80.007	19.994	103.983	19.815	17.366	0.505
464.000	315.817	80.007	19.993	103.977	19.890	11.828	0.491
472.000	319.839	80.007	19.996	103.940	19.950	7.386	0.496
480.000	323.708	80.005	19.995	103.910	19.988	4.596	0.443
488.000	327.768	80.008	19.996	103.881	20.010	2.958	0.476
496.000	331.680	80.008	19.994	103.865	20.030	1.510	0.491
504.000	335.673	80.007	19.993	103.865	20.039	0.815	0.460
512.000	339.687	80.008	19.994	103.867	20.053	-0.223	0.527
520.000	343.612	80.009	19.992	103.878	20.060	-0.711	0.488
528.000	347.560	80.009	19.992	103.880	20.061	-0.767	0.522
536.000	351.501	80.008	19.993	103.872	20.070	-1.457	0.474
544.000	355.484	80.008	19.994	103.899	20.074	-1.788	0.473
552.000	359.429	80.007	19.994	103.901	20.076	-1.937	0.495
560.000	363.478	80.007	19.995	103.903	20.077	-1.977	0.499
568.000	367.518	80.008	19.994	103.904	20.079	-2.126	0.514
576.000	371.563	80.009	19.994	103.901	20.077	-1.947	0.510
584.000	375.668	80.006	19.995	103.903	20.079	-2.148	0.544
592.000	379.702	80.009	19.994	103.903	20.076	-1.889	0.544
600.000	383.815	80.011	19.993	103.897	20.074	-1.738	0.506
608.000	387.937	80.006	19.994	103.897	20.070	-1.489	0.513
616.000	392.067	80.008	19.992	103.890	20.066	-1.197	0.513
624.000	396.231	80.008	19.994	103.875	20.066	-1.171	0.534
632.000	400.315	80.009	19.993	103.891	20.056	-0.422	0.496
640.000	404.428	80.007	19.995	103.887	20.050	0.042	0.506
648.000	408.494	80.008	19.994	103.885	20.037	0.944	0.514
656.000	412.608	80.009	19.993	103.882	20.024	1.963	0.530
664.000	416.706	80.008	19.997	103.886	20.008	3.089	0.524
672.000	420.940	80.009	19.995	103.876	19.991	4.349	0.540
680.000	425.242	80.011	19.995	103.879	19.960	6.645	0.554
688.000	429.595	80.008	19.995	103.884	19.929	8.920	0.533
696.000	433.954	80.007	19.995	103.880	19.890	11.856	0.557
704.000	438.234	80.008	19.993	103.869	19.835	15.860	0.527
712.000	442.390	80.008	19.994	103.866	19.780	19.956	0.515
720.000	446.508	80.007	19.995	103.866	19.713	24.854	0.520
728.000	450.526	80.008	19.995	103.863	19.646	29.829	0.461
736.000	454.578	80.009	19.995	103.845	19.575	35.054	0.505
744.000	458.548	80.008	19.994	103.863	19.499	40.660	0.509
752.000	462.550	80.008	19.995	103.851	19.406	47.509	0.526
760.000	466.582	80.010	19.995	103.826	19.298	55.477	0.526
768.000	470.529	80.007	19.995	103.822	19.165	65.324	0.500
776.000	474.604	80.007	19.993	103.797	19.006	77.025	0.529
784.000	478.593	80.008	19.994	103.780	18.820	90.685	0.476
792.000	482.599	80.007	19.996	103.746	18.627	104.864	0.470
800.000	486.634	80.006	19.995	103.708	18.434	119.057	0.515
808.000	490.678	80.008	19.993	103.670	18.311	128.050	0.463
816.000	494.778	80.009	19.995	103.633	18.352	125.092	0.523
824.000	498.835	80.008	19.994	103.635	18.606	106.442	0.476
832.000	502.896	80.009	19.994	103.680	19.040	74.530	0.532
840.000	506.926	80.010	19.994	103.751	19.494	41.018	0.526
848.000	510.981	80.007	19.995	103.812	19.813	17.525	0.513
856.000	515.102	80.008	19.995	103.825	19.968	6.098	0.513
864.000	519.257	80.008	19.993	103.826	20.032	1.337	0.528
872.000	523.309	80.008	19.995	103.837	20.061	-0.797	0.502
880.000	527.376	80.008	19.994	103.837	20.075	-1.860	0.507
888.000	531.504	80.007	19.994	103.854	20.085	-2.551	0.534
896.000	535.601	80.008	19.993	103.866	20.091	-3.035	0.542
904.000	539.681	80.007	19.993	103.863	20.096	-3.370	0.515
912.000	543.834	80.008	19.994	103.864	20.095	-3.302	0.536
920.000	547.974	80.009	19.995	103.857	20.101	-3.778	0.522
928.000	552.014	80.006	19.996	103.859	20.105	-4.041	0.447
936.000	556.303	80.007	19.996	103.863	20.108	-4.284	0.560
944.000	560.960	80.007	19.996	103.863	20.109	-4.314	0.539
952.000	564.507	80.006	19.995	103.866	20.108	-4.287	0.457
960.000	568.685	80.007	19.995	103.892	20.108	-4.295	0.543
968.000	572.899	80.007	19.995	103.887	20.114	-4.685	0.546
976.000	577.111	80.008	19.994	103.897	20.112	-4.602	0.518
984.000	581.369	80.008	19.996	103.881	20.113	-4.618	0.536
992.000	585.487	80.009	19.994	103.866	20.115	-4.764	0.469
1000.000	589.633	80.010	19.995	103.870	20.119	-5.101	0.540
1008.000	593.678	80.007	19.996	103.857	20.120	-5.188	0.501
1016.000	597.786	80.007	19.995	103.854	20.126	-5.580	0.489
1024.000	601.754	80.006	19.996	103.834	20.124	-5.462	0.522
1032.000	605.594	80.007	19.995	103.843	20.118	-5.040	0.487
1040.000	609.512	80.005	19.995	103.860	20.124	-5.455	0.489
1048.000	613.393	80.006	19.995	103.854	20.123	-5.360	0.518
1056.000	617.297	80.008	19.995	103.844	20.127	-5.706	0.494
1064.000	621.197	80.007	19.995	103.847	20.125	-5.494	0.496
1072.000	625.162	80.009	19.994	103.836	20.124	-5.447	0.525
1080.000	629.118	80.010	19.995	103.856	20.125	-5.545	0.514
1088.000	633.166	80.008	19.994	103.866	20.125	-5.560	0.498
1096.000	637.367	80.007	19.996	103.867	20.124	-5.459	0.534
1104.000	641.609	80.007	19.994	103.868	20.124	-5.457	0.547
1112.000	645.818	80.007	19.995	103.864	20.122	-5.289	0.493
1120.000	650.036	80.007	19.995	103.868	20.126	-5.621	0.523
1128.000	654.203	80.007	19.995	103.870	20.126	-5.603	0.372
1136.000	658.323	80.008	19.997	103.892	20.124	-5.462	0.510
1144.000	662.462	80.008	19.995	103.892	20.119	-5.065	0.498
1152.001	666.593	80.008	19.994	103.895	20.122	-5.272	0.509
1160.000	670.776	80.009	19.994	103.902	20.119	-5.063	0.553
1168.000	674.720	80.008	19.994	103.894	20.122	-5.338	0.500
1176.000	678.818	80.007	19.995	103.895	20.125	-5.525	0.516
1184.000	682.904	80.007	19.994	103.869	20.128	-5.780	0.489
1192.000	686.989	80.008	19.995	103.864	20.131	-5.943	0.515
1200.000	691.024	80.006	19.995	103.841	20.133	-6.096	0.517
1208.000	695.021	80.008	19.995	103.829	20.135	-6.264	0.522
1216.000	698.898	80.008	19.994	103.842	20.134	-6.218	0.482
1224.000	702.850	80.007	19.994	103.841	20.137	-6.403	0.513
1232.000	706.778	80.007	19.995	103.846	20.137	-6.397	0.472
1240.000	710.811	80.010	19.994	103.823	20.134	-6.216	0.528
1248.000	714.873	80.009	19.994	103.825	20.131	-5.993	0.513
1256.000	718.923	80.006	19.995	103.824	20.131	-5.939	0.504
1264.000	722.975	80.007	19.995	103.825	20.130	-5.929	0.505
1272.000	727.072	80.007	19.994	103.828	20.129	-5.808	0.516
1280.000	731.076	80.007	19.995	103.828	20.131	-5.977	0.510
1288.000	735.087	80.007	19.995	103.828	20.132	-6.027	0.490
1296.000	738.987	80.007	19.994	103.828	20.132	-6.005	0.490
1304.000	742.949	80.009	19.994	103.825	20.132	-6.069	0.498