File: 01_Data/Excelsior/MCC/Excelsior_MCC_30K_min_220216_R2.txt
Sample ID:	C:\MCC\MCC Cal\Test\Excelsior_MCC_30K_min_220216_R2.txt
Sample Weight (mg):	4.38
Heating Rate (C/s):	0.5
Combustor Temp (C):	900
N2 Flow Rate (cc/min):	80
O2 Flow Rate (cc/min):	20
Calibration File:	C:\MCC\MCC Cal\Coeff1 JN10440_30_210304.txt.txt
T Correction Coefficients:	0	1.024463	0
Time Shift (s):	14
*
Time (s)	Temperature (C)	N2 flow rate (cc/min)	O2 flow rate (cc/min)	Flow Rate (cc/min)	Oxygen (%)	HRR (W/g)	Heating rate (C/s)
0.001	113.092	80.011	19.993	103.727	19.970	-0.106	-0.024
8.000	113.089	80.012	19.993	103.727	19.970	-0.076	-0.017
15.999	113.039	80.013	19.993	103.709	19.969	-0.014	-0.030
24.000	113.020	80.013	19.995	103.742	19.966	0.200	0.004
32.001	113.045	80.011	19.992	103.743	19.963	0.456	0.011
40.000	113.142	80.014	19.993	103.807	19.955	1.040	0.048
48.001	113.603	80.012	19.993	103.872	19.938	2.307	0.094
56.000	114.555	80.011	19.994	103.892	19.931	2.840	0.155
64.000	115.819	80.012	19.994	103.934	19.923	3.395	0.178
71.999	117.573	80.010	19.994	103.971	19.920	3.592	0.228
79.999	119.725	80.011	19.994	103.975	19.918	3.804	0.303
88.001	122.282	80.011	19.993	104.008	19.916	3.936	0.366
95.999	125.186	80.011	19.992	104.014	19.912	4.205	0.363
104.001	128.400	80.015	19.993	104.008	19.911	4.324	0.425
112.001	131.859	80.013	19.993	104.012	19.913	4.154	0.442
120.001	135.515	80.013	19.993	104.006	19.909	4.428	0.480
128.000	139.390	80.014	19.992	104.008	19.908	4.516	0.503
136.000	143.366	80.012	19.993	103.981	19.907	4.574	0.523
143.999	147.371	80.011	19.993	103.994	19.910	4.395	0.477
151.999	151.547	80.013	19.993	103.978	19.914	4.049	0.495
160.000	155.656	80.010	19.993	103.980	19.914	4.049	0.520
168.000	159.760	80.010	19.994	103.975	19.914	4.081	0.508
175.999	163.886	80.012	19.994	103.968	19.913	4.109	0.538
183.999	168.017	80.013	19.993	103.967	19.911	4.280	0.493
192.001	172.090	80.013	19.992	103.958	19.917	3.864	0.515
200.000	176.060	80.013	19.994	103.938	19.917	3.860	0.480
208.000	180.053	80.014	19.993	103.936	19.917	3.818	0.495
216.000	184.011	80.012	19.992	103.938	19.917	3.862	0.489
223.999	187.999	80.011	19.992	103.934	19.917	3.840	0.510
232.001	191.885	80.010	19.993	103.936	19.918	3.782	0.494
240.000	195.748	80.012	19.994	103.936	19.917	3.856	0.489
248.000	199.648	80.011	19.992	103.938	19.915	3.985	0.497
256.000	203.521	80.011	19.994	103.936	19.911	4.271	0.491
263.999	207.459	80.012	19.994	103.935	19.908	4.495	0.496
271.999	211.406	80.012	19.993	103.928	19.903	4.898	0.510
280.000	215.349	80.011	19.993	103.936	19.902	4.926	0.532
288.000	219.330	80.012	19.993	103.937	19.895	5.472	0.503
296.000	223.333	80.014	19.993	103.937	19.892	5.723	0.452
304.000	227.342	80.012	19.995	103.938	19.879	6.629	0.489
312.000	231.320	80.012	19.993	103.936	19.875	6.955	0.495
319.999	235.365	80.013	19.993	103.941	19.867	7.548	0.480
328.000	239.361	80.014	19.994	103.936	19.857	8.258	0.521
336.000	243.329	80.011	19.994	103.939	19.840	9.523	0.480
344.000	247.320	80.010	19.994	103.944	19.827	10.489	0.480
352.001	251.349	80.013	19.994	103.957	19.810	11.799	0.507
359.999	255.412	80.012	19.994	103.972	19.787	13.462	0.494
368.000	259.429	80.013	19.995	103.973	19.762	15.341	0.474
376.000	263.463	80.014	19.992	103.975	19.732	17.530	0.514
383.999	267.418	80.015	19.994	103.997	19.699	20.006	0.491
391.999	271.465	80.011	19.993	104.003	19.663	22.632	0.512
399.999	275.507	80.012	19.994	104.014	19.624	25.555	0.549
408.000	279.460	80.011	19.994	104.017	19.590	28.093	0.506
416.000	283.436	80.012	19.992	104.025	19.557	30.511	0.511
424.000	287.438	80.012	19.993	104.038	19.527	32.778	0.553
431.999	291.414	80.012	19.993	104.048	19.504	34.473	0.514
440.000	295.416	80.014	19.994	104.046	19.478	36.423	0.518
448.001	299.422	80.013	19.993	104.051	19.456	38.034	0.502
456.000	303.452	80.015	19.995	104.051	19.432	39.826	0.513
464.001	307.441	80.014	19.994	104.053	19.413	41.200	0.499
472.001	311.446	80.013	19.993	104.062	19.391	42.828	0.498
480.000	315.508	80.011	19.992	104.088	19.366	44.703	0.504
488.000	319.518	80.011	19.994	104.068	19.343	46.429	0.518
495.999	323.503	80.010	19.993	104.087	19.323	47.917	0.488
504.001	327.556	80.012	19.994	104.094	19.291	50.309	0.519
512.000	331.585	80.012	19.994	104.095	19.255	52.933	0.484
520.000	335.633	80.014	19.993	104.122	19.213	56.061	0.482
528.001	339.695	80.013	19.994	104.131	19.162	59.866	0.509
535.999	343.662	80.013	19.993	104.164	19.101	64.413	0.502
543.999	347.637	80.012	19.992	104.173	19.038	69.150	0.487
552.001	351.669	80.012	19.993	104.209	18.982	73.235	0.525
560.000	355.659	80.010	19.993	104.208	18.926	77.437	0.522
568.000	359.647	80.012	19.995	104.214	18.891	79.965	0.488
576.000	363.725	80.012	19.993	104.204	18.885	80.413	0.526
583.999	367.736	80.013	19.994	104.165	18.927	77.282	0.473
592.000	371.918	80.013	19.993	104.117	19.023	70.077	0.534
600.001	376.165	80.012	19.994	104.030	19.181	58.324	0.524
607.999	380.435	80.013	19.992	103.963	19.369	44.411	0.527
616.000	384.621	80.012	19.992	103.899	19.560	30.245	0.536
624.000	388.797	80.014	19.995	103.878	19.710	19.131	0.524
632.000	392.938	80.012	19.993	103.858	19.802	12.317	0.522
640.000	397.065	80.012	19.994	103.840	19.846	9.081	0.513
648.000	401.146	80.011	19.994	103.840	19.858	8.185	0.524
655.999	405.159	80.011	19.995	103.837	19.870	7.348	0.484
663.999	409.135	80.012	19.995	103.847	19.876	6.872	0.486
672.001	413.041	80.011	19.993	103.854	19.881	6.538	0.491
680.000	416.952	80.013	19.993	103.853	19.881	6.473	0.479
688.000	420.927	80.011	19.992	103.854	19.883	6.337	0.504
696.000	424.909	80.013	19.993	103.859	19.892	5.708	0.497
704.001	428.932	80.014	19.994	103.850	19.895	5.443	0.529
711.999	432.996	80.014	19.994	103.850	19.901	5.051	0.512
720.000	437.069	80.012	19.994	103.857	19.903	4.879	0.510
728.000	441.199	80.011	19.993	103.841	19.902	4.967	0.543
736.000	445.212	80.012	19.993	103.851	19.904	4.797	0.502
744.000	449.188	80.011	19.994	103.848	19.909	4.444	0.479
752.000	453.298	80.009	19.995	103.850	19.908	4.538	0.546
760.001	457.288	80.010	19.994	103.853	19.909	4.450	0.499
768.000	461.311	80.015	19.993	103.849	19.911	4.318	0.500
776.000	465.356	80.013	19.994	103.850	19.916	3.944	0.500
784.001	469.462	80.013	19.993	103.849	19.912	4.190	0.541
792.001	473.577	80.014	19.993	103.850	19.915	3.962	0.493
799.999	477.747	80.012	19.993	103.851	19.919	3.711	0.486
808.000	482.026	80.012	19.992	103.855	19.911	4.256	0.523
815.999	486.277	80.011	19.992	103.852	19.914	4.082	0.535
824.000	490.610	80.012	19.994	103.849	19.920	3.626	0.547
832.000	494.952	80.012	19.995	103.844	19.917	3.832	0.510
839.999	499.068	80.012	19.994	103.837	19.924	3.329	0.454
847.999	503.188	80.011	19.994	103.842	19.928	3.063	0.550
856.000	507.187	80.030	20.000	103.841	19.925	3.261	0.489
863.999	511.127	80.031	19.998	103.853	19.929	2.983	0.496
872.000	515.190	80.033	19.997	103.850	19.928	2.995	0.524
880.000	519.184	80.033	19.997	103.859	19.923	3.415	0.509
888.000	523.224	80.030	19.997	103.852	19.927	3.105	0.525
896.000	527.247	80.031	19.996	103.863	19.927	3.101	0.515
904.000	531.347	80.032	19.997	103.846	19.928	3.057	0.504
912.000	535.466	80.031	19.998	103.853	19.928	3.041	0.533
919.999	539.583	80.011	19.995	103.837	19.921	3.516	0.529
928.000	543.718	80.029	19.995	103.850	19.927	3.083	0.509
936.000	547.775	80.014	19.995	103.831	19.926	3.215	0.490
943.999	551.894	80.011	19.996	103.830	19.930	2.865	0.516
952.000	556.044	80.032	19.998	103.840	19.932	2.743	0.544
959.999	560.161	80.032	19.997	103.841	19.925	3.223	0.522
968.000	564.356	80.031	19.999	103.845	19.929	2.945	0.529
976.000	568.448	80.031	19.997	103.841	19.937	2.330	0.540
984.000	572.474	80.033	19.997	103.837	19.931	2.799	0.480
991.999	576.661	80.031	19.997	103.823	19.931	2.841	0.515
1000.000	580.704	80.033	19.996	103.850	19.932	2.724	0.500
1008.000	584.772	80.031	19.997	103.858	19.932	2.756	0.525
1016.000	588.851	80.032	20.001	103.858	19.936	2.458	0.524
1024.000	592.976	80.032	19.998	103.839	19.941	2.046	0.530
1032.000	597.112	80.033	20.001	103.858	19.933	2.647	0.531
1040.000	601.197	80.014	19.994	103.839	19.932	2.737	0.524
1047.999	605.157	80.013	19.995	103.827	19.927	3.096	0.483
1055.999	609.131	80.012	19.995	103.829	19.933	2.681	0.490
1063.999	613.127	80.012	19.994	103.832	19.933	2.685	0.513
1071.999	617.122	80.013	19.993	103.829	19.927	3.121	0.506
1080.001	621.183	80.011	19.995	103.834	19.928	2.999	0.500
1087.999	625.222	80.011	19.993	103.832	19.932	2.733	0.490
1095.999	629.500	80.014	19.993	103.838	19.927	3.070	0.542
1104.000	633.688	80.012	19.993	103.821	19.926	3.166	0.514
1111.999	637.882	80.013	19.994	103.818	19.923	3.384	0.514
1120.000	642.063	80.015	19.994	103.821	19.923	3.432	0.515
1128.000	646.278	80.013	19.994	103.829	19.929	2.987	0.522
1136.000	650.456	80.012	19.994	103.839	19.925	3.246	0.505
1144.001	654.664	80.012	19.995	103.830	19.930	2.859	0.510
1151.999	658.856	80.011	19.993	103.827	19.937	2.369	0.499
1159.999	663.054	80.016	19.995	103.836	19.933	2.695	0.515
1168.000	667.165	80.012	19.993	103.825	19.930	2.873	0.517
1175.999	671.252	80.012	19.994	103.821	19.932	2.701	0.516
1184.000	675.339	80.012	19.993	103.825	19.933	2.635	0.526
1191.999	679.351	80.013	19.994	103.822	19.928	3.022	0.510
1199.999	683.283	80.014	19.993	103.821	19.937	2.399	0.436
1208.000	687.224	80.014	19.994	103.819	19.930	2.906	0.499
1216.000	691.243	80.011	19.994	103.827	19.930	2.851	0.508
1224.000	695.397	80.014	19.994	103.840	19.929	2.934	0.542
1231.999	699.604	80.013	19.994	103.828	19.928	3.010	0.527
1240.000	703.816	80.011	19.995	103.822	19.930	2.871	0.551
1247.999	707.920	80.015	19.992	103.824	19.928	3.018	0.509
1255.999	712.171	80.015	19.993	103.821	19.930	2.919	0.559
1264.000	716.357	80.014	19.994	103.821	19.932	2.735	0.534
1271.999	720.313	80.013	19.994	103.821	19.933	2.643	0.481
1280.000	724.246	80.010	19.994	103.823	19.931	2.839	0.421
1288.000	728.142	80.015	19.992	103.825	19.928	3.016	0.514
1296.000	732.102	80.015	19.993	103.826	19.927	3.082	0.492
1304.001	736.200	80.010	19.995	103.823	19.931	2.773	0.495
1312.000	740.388	80.012	19.993	103.822	19.928	3.014	0.537
1317.500	743.269	80.012	19.993	103.825	19.929	2.960	0.543