File: 01_Data/Excelsior/MCC/Excelsior_MCC_30K_min_220216_R1.txt
Sample ID:	C:\MCC\MCC Cal\Test\Excelsior_MCC_30K_min_220216_R1.txt
Sample Weight (mg):	4.53
Heating Rate (C/s):	0.5
Combustor Temp (C):	900
N2 Flow Rate (cc/min):	80
O2 Flow Rate (cc/min):	20
Calibration File:	C:\MCC\MCC Cal\Coeff1 JN10440_30_210304.txt.txt
T Correction Coefficients:	0	1.024463	0
Time Shift (s):	14
*
Time (s)	Temperature (C)	N2 flow rate (cc/min)	O2 flow rate (cc/min)	Flow Rate (cc/min)	Oxygen (%)	HRR (W/g)	Heating rate (C/s)
0.000	113.473	80.013	19.993	103.748	19.980	0.191	0.003
7.501	113.438	80.011	19.994	103.744	19.982	0.091	-0.025
15.000	113.404	80.010	19.994	103.763	19.976	0.501	-0.023
22.499	113.513	80.010	19.992	103.871	19.967	1.133	0.002
30.001	113.929	80.009	19.992	103.927	19.953	2.157	0.081
37.500	114.829	80.010	19.994	103.952	19.944	2.805	0.141
45.000	116.080	80.008	19.994	103.978	19.937	3.295	0.210
52.499	117.810	80.010	19.994	104.015	19.932	3.638	0.254
59.999	119.881	80.014	19.993	104.005	19.932	3.659	0.302
67.501	122.297	80.011	19.993	104.015	19.933	3.555	0.340
74.999	124.920	80.012	19.992	104.018	19.932	3.682	0.314
82.501	127.884	80.011	19.991	104.017	19.933	3.551	0.395
89.999	130.924	80.013	19.992	104.014	19.933	3.621	0.399
97.499	134.120	80.010	19.993	104.018	19.932	3.624	0.435
105.001	137.498	80.009	19.993	104.015	19.932	3.626	0.441
112.501	140.865	80.012	19.993	104.011	19.934	3.535	0.453
119.999	144.472	80.010	19.993	104.009	19.934	3.479	0.501
127.501	148.131	80.011	19.992	104.015	19.934	3.543	0.511
135.000	151.714	80.009	19.994	104.011	19.932	3.628	0.458
142.500	155.409	80.010	19.991	104.012	19.931	3.697	0.469
150.000	159.172	80.012	19.994	104.006	19.929	3.893	0.512
157.499	162.872	80.011	19.992	104.005	19.933	3.614	0.485
165.001	166.690	80.014	19.992	103.982	19.931	3.739	0.500
172.500	170.415	80.013	19.992	103.975	19.935	3.439	0.495
179.999	174.234	80.012	19.993	103.982	19.940	3.110	0.494
187.500	178.010	80.012	19.992	103.976	19.934	3.484	0.519
195.000	181.805	80.012	19.993	103.970	19.932	3.642	0.545
202.500	185.465	80.010	19.991	103.977	19.931	3.739	0.460
209.999	189.245	80.011	19.994	103.971	19.931	3.746	0.485
217.500	192.895	80.010	19.993	103.975	19.930	3.802	0.484
224.999	196.595	80.012	19.992	103.963	19.928	3.965	0.467
232.499	200.229	80.013	19.994	104.019	19.928	3.959	0.477
240.000	203.936	80.011	19.995	103.954	19.927	4.022	0.461
247.501	207.700	80.013	19.995	103.964	19.924	4.256	0.495
255.001	211.418	80.014	19.992	103.947	19.925	4.168	0.519
262.500	215.119	80.010	19.992	103.948	19.917	4.694	0.490
270.000	218.848	80.011	19.994	103.960	19.914	4.908	0.483
277.501	222.557	80.011	19.992	103.958	19.910	5.232	0.505
285.000	226.248	80.012	19.992	103.973	19.902	5.794	0.518
292.500	230.012	80.010	19.992	103.962	19.895	6.321	0.476
300.000	233.778	80.011	19.993	103.968	19.884	7.079	0.501
307.500	237.529	80.012	19.994	103.971	19.876	7.634	0.517
314.999	241.260	80.012	19.993	103.971	19.864	8.489	0.493
322.501	244.991	80.010	19.991	103.974	19.852	9.401	0.490
330.001	248.775	80.013	19.994	103.974	19.836	10.498	0.512
337.501	252.538	80.012	19.994	103.977	19.822	11.548	0.464
344.999	256.282	80.012	19.993	103.991	19.802	12.954	0.501
352.499	260.080	80.012	19.993	103.990	19.773	15.035	0.510
360.000	263.788	80.012	19.993	103.951	19.743	17.203	0.503
367.501	267.558	80.011	19.994	104.017	19.712	19.411	0.486
374.999	271.289	80.011	19.993	104.032	19.680	21.725	0.504
382.500	275.082	80.010	19.992	104.036	19.648	23.981	0.515
390.001	278.854	80.013	19.993	104.051	19.613	26.509	0.503
397.499	282.636	80.013	19.993	104.052	19.578	29.048	0.511
405.000	286.362	80.012	19.993	104.057	19.550	31.012	0.503
412.500	290.117	80.013	19.992	104.074	19.521	33.087	0.496
419.999	293.881	80.013	19.993	104.083	19.492	35.172	0.500
427.500	297.649	80.011	19.994	104.073	19.473	36.537	0.529
435.000	301.394	80.009	19.994	104.087	19.455	37.878	0.492
442.501	305.120	80.011	19.992	104.070	19.436	39.235	0.512
450.000	308.927	80.012	19.994	104.093	19.420	40.373	0.498
457.500	312.770	80.010	19.994	104.095	19.396	42.055	0.502
465.000	316.566	80.011	19.993	104.096	19.376	43.542	0.498
472.500	320.348	80.012	19.994	104.118	19.353	45.210	0.511
480.001	324.136	80.013	19.993	104.115	19.326	47.127	0.513
487.500	327.920	80.012	19.993	104.133	19.292	49.593	0.512
495.001	331.668	80.011	19.994	104.135	19.259	51.936	0.480
502.500	335.471	80.013	19.992	104.161	19.215	55.091	0.499
510.000	339.239	80.013	19.993	104.168	19.165	58.702	0.509
517.500	342.914	80.011	19.993	104.185	19.112	62.532	0.489
525.000	346.684	80.012	19.995	104.207	19.046	67.263	0.519
532.499	350.491	80.011	19.995	104.221	18.979	72.098	0.526
540.001	354.304	80.010	19.993	104.258	18.910	77.071	0.509
547.499	358.024	80.011	19.993	104.276	18.862	80.508	0.511
555.000	361.763	80.011	19.992	104.261	18.830	82.753	0.519
562.499	365.428	80.012	19.993	104.248	18.844	81.696	0.337
570.000	369.373	80.013	19.993	104.178	18.911	76.863	0.551
577.499	373.126	80.014	19.992	104.110	19.047	67.031	0.521
584.999	376.980	80.013	19.994	104.025	19.237	53.406	0.493
592.501	380.830	80.014	19.993	103.963	19.438	38.980	0.566
600.000	384.651	80.010	19.993	103.922	19.619	26.073	0.501
607.500	388.517	80.010	19.994	103.893	19.745	17.004	0.530
614.999	392.364	80.012	19.993	103.883	19.824	11.351	0.494
622.500	396.183	80.009	19.993	103.867	19.863	8.583	0.517
630.001	400.005	80.009	19.995	103.875	19.880	7.381	0.513
637.500	403.879	80.012	19.993	103.889	19.886	6.927	0.545
645.000	407.617	80.014	19.992	103.890	19.893	6.424	0.518
652.500	411.431	80.013	19.993	103.878	19.899	6.016	0.528
660.001	415.200	80.014	19.994	103.919	19.904	5.654	0.466
667.499	419.006	80.013	19.993	103.863	19.906	5.513	0.514
675.000	422.783	80.013	19.992	103.869	19.910	5.195	0.487
682.501	426.604	80.010	19.992	103.884	19.914	4.934	0.502
690.000	430.375	80.012	19.993	103.884	19.920	4.535	0.499
697.501	434.204	80.012	19.994	103.859	19.918	4.630	0.523
705.000	437.983	80.012	19.994	103.865	19.924	4.251	0.499
712.499	441.710	80.012	19.994	103.865	19.927	4.009	0.507
719.999	445.425	80.011	19.995	103.867	19.931	3.700	0.480
727.500	449.217	80.014	19.994	103.867	19.931	3.697	0.519
735.001	453.027	80.012	19.993	103.868	19.934	3.539	0.507
742.501	456.855	80.014	19.992	103.862	19.934	3.509	0.498
750.001	460.770	80.014	19.993	103.864	19.938	3.188	0.513
757.501	464.686	80.014	19.993	103.861	19.941	2.997	0.525
765.000	468.588	80.011	19.994	103.878	19.941	3.032	0.533
772.500	472.535	80.011	19.994	103.868	19.940	3.111	0.545
780.000	476.438	80.012	19.993	103.858	19.942	2.902	0.525
787.500	480.300	80.012	19.994	103.857	19.939	3.132	0.515
795.000	484.196	80.010	19.994	103.863	19.942	2.964	0.521
802.500	488.058	80.010	19.992	103.862	19.942	2.943	0.519
810.000	491.896	80.013	19.994	103.860	19.942	2.960	0.535
817.499	495.820	80.012	19.994	103.855	19.943	2.896	0.527
825.001	499.618	80.012	19.994	103.857	19.942	2.958	0.510
832.499	503.443	80.012	19.993	103.856	19.943	2.887	0.485
840.000	507.218	80.010	19.992	103.856	19.943	2.848	0.504
847.501	510.985	80.012	19.993	103.857	19.947	2.589	0.508
854.999	514.825	80.010	19.994	103.851	19.947	2.589	0.519
862.499	518.671	80.010	19.991	103.851	19.945	2.724	0.491
870.001	522.469	80.012	19.993	103.862	19.948	2.502	0.536
877.500	526.296	80.011	19.993	103.869	19.947	2.605	0.493
885.000	530.162	80.011	19.994	103.866	19.951	2.293	0.502
892.500	534.047	80.012	19.993	103.856	19.949	2.419	0.522
900.001	537.910	80.013	19.993	103.857	19.947	2.585	0.529
907.500	541.752	80.012	19.993	103.856	19.949	2.444	0.512
914.999	545.586	80.014	19.995	103.856	19.946	2.626	0.498
922.500	549.453	80.012	19.993	103.854	19.947	2.554	0.522
929.999	553.285	80.013	19.994	103.839	19.949	2.427	0.508
937.499	557.152	80.011	19.994	103.860	19.947	2.547	0.507
945.001	561.028	80.012	19.993	103.860	19.946	2.645	0.526
952.500	564.895	80.011	19.993	103.858	19.946	2.635	0.498
960.001	568.751	80.011	19.993	103.857	19.945	2.745	0.521
967.501	572.596	80.011	19.993	103.858	19.947	2.612	0.512
975.001	576.459	80.015	19.993	103.860	19.943	2.836	0.487
982.500	580.277	80.012	19.993	103.846	19.941	3.003	0.513
989.999	584.096	80.015	19.994	103.851	19.946	2.632	0.507
997.501	588.006	80.013	19.993	103.863	19.942	2.956	0.561
1005.000	591.943	80.014	19.993	103.854	19.938	3.200	0.497
1012.500	595.972	80.012	19.994	103.856	19.941	2.983	0.543
1020.001	600.007	80.015	19.994	103.855	19.944	2.778	0.540
1027.500	603.966	80.013	19.993	103.852	19.943	2.882	0.535
1035.000	607.831	80.013	19.993	103.846	19.949	2.419	0.516
1042.500	611.580	80.012	19.992	103.853	19.947	2.548	0.496
1050.000	615.460	80.012	19.992	103.841	19.945	2.740	0.522
1057.500	619.351	80.012	19.993	103.852	19.944	2.798	0.522
1065.001	623.224	80.013	19.992	103.836	19.947	2.593	0.507
1072.500	627.147	80.012	19.993	103.839	19.946	2.676	0.498
1080.000	631.090	80.012	19.994	103.829	19.946	2.679	0.522
1087.500	635.003	80.014	19.994	103.843	19.948	2.538	0.535
1094.999	638.876	80.011	19.993	103.834	19.947	2.556	0.505
1102.499	642.746	80.011	19.993	103.829	19.946	2.645	0.489
1110.001	646.539	80.011	19.995	103.837	19.947	2.566	0.483
1117.499	650.301	80.009	19.994	103.825	19.942	2.958	0.499
1124.999	654.073	80.012	19.992	103.835	19.942	2.944	0.486
1132.500	657.838	80.011	19.993	103.841	19.948	2.532	0.483
1140.001	661.587	80.012	19.993	103.828	19.948	2.500	0.501
1147.500	665.364	80.014	19.994	103.846	19.947	2.561	0.502
1155.001	669.104	80.012	19.992	103.832	19.946	2.625	0.484
1162.500	672.908	80.013	19.991	103.836	19.940	3.093	0.493
1170.000	676.777	80.015	19.993	103.845	19.940	3.075	0.519
1177.499	680.613	80.012	19.995	103.835	19.943	2.896	0.502
1184.999	684.463	80.011	19.993	103.840	19.944	2.785	0.506
1192.501	688.390	80.012	19.993	103.839	19.948	2.511	0.527
1199.999	692.280	80.012	19.994	103.831	19.947	2.548	0.521
1207.499	696.088	80.008	19.994	103.823	19.944	2.814	0.479
1215.000	699.847	80.011	19.994	103.833	19.946	2.640	0.506
1222.499	703.572	80.011	19.992	103.830	19.942	2.915	0.481
1230.000	707.264	80.013	19.993	103.824	19.944	2.801	0.486
1237.499	710.862	80.013	19.993	103.833	19.939	3.141	0.495
1245.000	714.563	80.014	19.993	103.828	19.940	3.075	0.505
1252.500	718.284	80.017	19.993	103.826	19.938	3.241	0.515
1259.999	721.982	80.012	19.993	103.829	19.940	3.081	0.483
1267.501	725.803	80.011	19.993	103.844	19.943	2.897	0.525
1275.000	729.614	80.011	19.993	103.826	19.943	2.880	0.515
1282.501	733.440	80.010	19.992	103.825	19.943	2.865	0.530
1289.999	737.239	80.011	19.994	103.821	19.939	3.147	0.482
1297.499	741.081	80.011	19.993	103.828	19.939	3.158	0.500
1302.500	743.648	80.011	19.994	103.842	19.941	3.030	0.517