File: 01_Data/Vinyl_Plan_Flooring/MCC/Vinyl_Plan_Flooring_MCC_30K_min_211111_R3.txt
Sample ID:	C:\MCC\MCC Cal\Test\Vinyl_Plan_Flooring_MCC_30K_min_211111_R3.txt
Sample Weight (mg):	4.68
Heating Rate (C/s):	0.5
Combustor Temp (C):	900
N2 Flow Rate (cc/min):	80
O2 Flow Rate (cc/min):	20
Calibration File:	C:\MCC\MCC Cal\Coeff1 JN10440_30_210304.txt.txt
T Correction Coefficients:	0	1.024463	0
Time Shift (s):	14
*
Time (s)	Temperature (C)	N2 flow rate (cc/min)	O2 flow rate (cc/min)	Flow Rate (cc/min)	Oxygen (%)	HRR (W/g)	Heating rate (C/s)
-0.001	106.980	80.002	19.998	103.010	20.092	-0.084	0.019
8.000	106.959	80.001	19.996	103.003	20.091	0.009	0.004
16.000	107.027	80.001	19.995	103.027	20.087	0.249	0.045
24.000	107.121	80.003	19.994	103.065	20.083	0.574	0.021
32.000	107.359	80.001	19.994	103.088	20.079	0.826	0.043
40.000	107.874	80.001	19.996	103.190	20.057	2.378	0.129
48.000	108.797	80.001	19.994	103.228	20.047	3.003	0.146
55.999	110.181	80.004	19.996	103.248	20.046	3.083	0.189
63.999	112.026	80.003	19.995	103.260	20.041	3.445	0.266
71.999	114.224	80.003	19.995	103.260	20.041	3.427	0.271
79.999	116.731	80.004	19.995	103.264	20.037	3.743	0.310
87.999	119.557	80.001	19.996	103.286	20.039	3.599	0.359
96.000	122.611	80.002	19.996	103.274	20.037	3.757	0.413
103.999	125.897	80.002	19.996	103.236	20.037	3.747	0.426
111.999	129.328	80.001	19.994	103.270	20.034	3.914	0.441
119.999	132.853	80.001	19.994	103.297	20.034	3.904	0.473
127.999	136.448	80.002	19.995	103.273	20.031	4.168	0.444
136.000	140.145	80.002	19.995	103.278	20.026	4.509	0.473
144.000	143.927	80.002	19.994	103.269	20.026	4.478	0.485
152.000	147.771	80.002	19.996	103.263	20.024	4.645	0.501
160.000	151.611	80.003	19.994	103.265	20.023	4.690	0.481
168.000	155.424	80.001	19.996	103.264	20.019	4.934	0.462
176.000	159.265	79.998	19.996	103.264	20.012	5.443	0.517
184.000	163.170	80.000	19.997	103.258	20.003	6.091	0.474
192.000	167.096	80.001	19.997	103.260	20.000	6.280	0.496
200.000	171.064	80.000	19.995	103.251	19.991	6.862	0.494
208.000	175.031	80.001	19.995	103.252	19.988	7.127	0.521
216.000	179.025	80.001	19.995	103.229	19.974	8.044	0.501
224.000	182.986	80.002	19.995	103.232	19.964	8.749	0.479
232.000	186.948	80.002	19.994	103.230	19.951	9.670	0.515
240.000	190.877	80.003	19.993	103.234	19.935	10.717	0.513
248.000	194.791	80.002	19.996	103.230	19.920	11.764	0.472
256.000	198.738	80.001	19.995	103.226	19.905	12.788	0.521
264.000	202.676	80.001	19.995	103.226	19.887	14.079	0.515
272.000	206.666	80.002	19.995	103.225	19.858	16.069	0.520
280.000	210.657	80.001	19.996	103.225	19.837	17.494	0.500
288.000	214.605	79.999	19.997	103.228	19.812	19.209	0.492
296.000	218.570	80.004	19.995	103.226	19.784	21.122	0.466
304.000	222.530	80.000	19.996	103.226	19.757	22.994	0.494
312.000	226.529	80.003	19.996	103.225	19.729	24.933	0.520
320.000	230.530	80.004	19.994	103.221	19.700	26.917	0.510
328.000	234.511	80.004	19.995	103.220	19.670	28.952	0.478
336.000	238.516	80.003	19.995	103.223	19.638	31.154	0.521
344.000	242.372	80.002	19.994	103.221	19.604	33.522	0.466
352.000	246.385	80.003	19.996	103.226	19.574	35.600	0.517
360.000	250.376	80.003	19.994	103.236	19.536	38.171	0.496
368.000	254.323	80.002	19.995	103.232	19.494	41.123	0.499
376.000	258.352	80.001	19.996	103.225	19.447	44.327	0.506
384.000	262.274	80.002	19.996	103.242	19.404	47.309	0.494
392.000	266.295	80.001	19.994	103.261	19.351	50.975	0.552
400.000	270.251	80.003	19.995	103.267	19.308	53.892	0.498
408.000	274.291	80.004	19.995	103.287	19.275	56.224	0.523
416.000	278.274	80.003	19.995	103.298	19.270	56.523	0.538
424.000	282.220	80.002	19.994	103.283	19.302	54.349	0.525
432.000	286.219	80.001	19.994	103.282	19.384	48.690	0.489
440.000	290.207	80.001	19.994	103.266	19.516	39.569	0.463
448.000	294.223	80.002	19.995	103.228	19.673	28.778	0.464
456.000	298.289	80.002	19.995	103.220	19.811	19.246	0.496
464.000	302.309	80.004	19.996	103.186	19.900	13.139	0.494
472.000	306.323	80.002	19.996	103.160	19.950	9.737	0.477
480.000	310.399	80.002	19.995	103.142	19.975	7.963	0.492
488.000	314.503	80.003	19.996	103.143	19.990	6.986	0.541
496.000	318.526	80.003	19.994	103.150	20.000	6.289	0.516
504.000	322.573	80.002	19.994	103.151	20.005	5.918	0.513
512.000	326.562	80.003	19.995	103.146	20.013	5.346	0.488
520.000	330.519	80.003	19.995	103.149	20.016	5.136	0.491
528.000	334.550	80.001	19.995	103.147	20.021	4.811	0.517
536.000	338.484	80.002	19.995	103.156	20.024	4.627	0.503
544.000	342.471	80.003	19.995	103.149	20.026	4.457	0.479
552.000	346.386	80.001	19.995	103.152	20.027	4.423	0.504
560.000	350.396	80.001	19.995	103.151	20.031	4.120	0.531
568.000	354.448	80.003	19.995	103.150	20.026	4.467	0.458
576.000	358.544	80.003	19.993	103.152	20.032	4.087	0.485
584.000	362.660	80.001	19.995	103.159	20.033	3.999	0.515
592.000	366.770	80.000	19.996	103.160	20.036	3.781	0.519
600.000	370.951	80.000	19.995	103.152	20.034	3.903	0.569
608.000	375.070	80.002	19.996	103.147	20.028	4.364	0.491
616.000	379.199	80.003	19.995	103.155	20.026	4.504	0.509
624.000	383.263	80.003	19.994	103.153	20.022	4.726	0.493
632.000	387.258	80.002	19.996	103.151	20.025	4.550	0.490
640.000	391.310	80.002	19.995	103.147	20.019	4.992	0.520
648.000	395.386	80.004	19.996	103.147	20.017	5.078	0.491
656.000	399.317	80.003	19.996	103.144	20.011	5.478	0.502
664.000	403.242	80.003	19.997	103.148	20.007	5.785	0.507
672.000	407.261	80.002	19.995	103.152	20.000	6.250	0.504
680.000	411.356	80.002	19.994	103.146	19.987	7.156	0.519
688.000	415.379	80.003	19.995	103.149	19.976	7.922	0.496
696.000	419.450	80.001	19.994	103.119	19.964	8.713	0.496
704.000	423.530	80.002	19.995	103.168	19.946	9.988	0.502
712.000	427.537	80.004	19.995	103.147	19.926	11.342	0.475
720.000	431.507	80.003	19.997	103.147	19.897	13.354	0.506
728.000	435.530	80.004	19.996	103.150	19.862	15.758	0.501
736.000	439.578	80.004	19.995	103.148	19.819	18.679	0.492
744.000	443.636	80.000	19.996	103.150	19.773	21.889	0.494
752.000	447.608	80.001	19.996	103.149	19.714	25.955	0.506
760.000	451.755	80.002	19.996	103.157	19.655	30.012	0.527
768.000	455.877	80.001	19.995	103.149	19.603	33.536	0.525
776.000	460.087	80.001	19.996	103.153	19.569	35.925	0.544
784.000	464.260	80.001	19.995	103.148	19.550	37.238	0.538
792.000	468.436	80.003	19.995	103.145	19.558	36.657	0.510
800.000	472.461	80.000	19.995	103.149	19.581	35.053	0.502
808.000	476.494	80.001	19.994	103.151	19.621	32.327	0.502
816.000	480.417	80.004	19.995	103.144	19.654	30.089	0.481
824.000	484.423	80.002	19.994	103.150	19.691	27.503	0.517
832.000	488.408	80.000	19.996	103.147	19.735	24.473	0.497
840.000	492.490	80.000	19.996	103.148	19.777	21.581	0.538
848.000	496.631	80.000	19.995	103.143	19.809	19.406	0.516
856.000	500.895	80.001	19.996	103.146	19.847	16.820	0.537
864.000	505.234	80.000	19.995	103.142	19.881	14.450	0.547
872.000	509.613	80.003	19.995	103.151	19.909	12.526	0.534
880.000	513.989	80.001	19.994	103.145	19.932	10.913	0.560
888.000	518.418	80.001	19.995	103.150	19.956	9.303	0.543
896.000	522.833	80.004	19.993	103.141	19.971	8.288	0.575
904.000	527.186	80.002	19.996	103.135	19.981	7.585	0.546
912.000	531.480	80.000	19.995	103.143	19.989	7.001	0.539
920.000	535.701	80.002	19.995	103.118	19.994	6.710	0.546
928.000	539.865	80.002	19.996	103.148	19.998	6.410	0.537
936.000	543.974	80.001	19.996	103.137	20.003	6.064	0.506
944.000	548.082	80.001	19.996	103.118	20.008	5.732	0.541
952.000	552.110	80.002	19.995	103.131	20.009	5.662	0.507
960.000	556.181	80.002	19.995	103.137	20.013	5.398	0.473
968.000	560.278	80.003	19.994	103.142	20.015	5.231	0.512
976.000	564.282	80.004	19.995	103.142	20.016	5.164	0.490
984.000	568.327	80.005	19.995	103.143	20.019	4.926	0.527
992.000	572.367	80.001	19.994	103.151	20.020	4.903	0.496
1000.000	576.477	80.003	19.994	103.162	20.025	4.526	0.480
1008.000	580.515	80.002	19.995	103.150	20.027	4.410	0.520
1016.000	584.531	80.001	19.996	103.147	20.030	4.232	0.506
1024.000	588.509	80.001	19.995	103.150	20.027	4.433	0.483
1031.999	592.426	80.002	19.996	103.138	20.026	4.490	0.497
1039.999	596.326	80.004	19.996	103.144	20.031	4.134	0.461
1047.999	600.262	80.003	19.996	103.127	20.026	4.495	0.463
1055.999	604.234	80.004	19.995	103.138	20.028	4.366	0.460
1063.999	608.271	80.004	19.994	103.117	20.027	4.402	0.569
1072.000	612.272	80.001	19.995	103.138	20.029	4.247	0.499
1079.999	616.381	80.002	19.994	103.152	20.028	4.310	0.535
1087.999	620.438	80.001	19.995	103.132	20.028	4.320	0.524
1095.999	624.485	80.001	19.997	103.147	20.026	4.489	0.508
1103.999	628.599	80.002	19.996	103.147	20.026	4.474	0.510
1111.999	632.692	80.004	19.995	103.145	20.025	4.562	0.517
1119.999	636.806	80.002	19.995	103.147	20.026	4.467	0.526
1127.999	640.848	80.001	19.995	103.154	20.023	4.674	0.519
1135.999	644.905	80.004	19.996	103.173	20.022	4.781	0.505
1143.999	649.018	80.002	19.994	103.186	20.019	4.944	0.538
1151.999	653.111	80.001	19.995	103.178	20.023	4.712	0.524
1159.999	657.197	80.002	19.995	103.198	20.019	4.978	0.516
1168.000	661.286	80.002	19.994	103.193	20.016	5.177	0.547
1175.999	665.287	80.002	19.994	103.221	20.013	5.395	0.492
1183.999	669.244	80.001	19.996	103.227	20.010	5.591	0.497
1191.999	673.255	80.002	19.996	103.234	20.005	5.918	0.506
1199.999	677.230	80.003	19.995	103.266	20.003	6.073	0.481
1207.999	681.244	80.002	19.994	103.282	20.004	5.979	0.498
1216.000	685.236	80.002	19.996	103.273	20.001	6.187	0.502
1223.999	689.293	80.005	19.995	103.265	19.998	6.425	0.488
1232.001	693.382	80.001	19.995	103.264	20.001	6.236	0.509
1239.999	697.408	80.002	19.994	103.241	20.004	6.011	0.505
1247.999	701.518	80.003	19.995	103.224	20.010	5.578	0.545
1255.999	705.583	80.003	19.995	103.191	20.014	5.318	0.515
1263.999	709.727	80.001	19.994	103.163	20.020	4.891	0.503
1272.000	713.853	80.003	19.995	103.134	20.022	4.743	0.531
1279.999	717.937	80.003	19.996	103.116	20.022	4.730	0.465
1287.999	722.004	80.003	19.995	103.107	20.022	4.751	0.469
1295.999	726.063	80.003	19.995	103.102	20.025	4.569	0.508
1303.999	730.170	80.004	19.995	103.107	20.024	4.585	0.507
1311.999	734.185	80.001	19.996	103.097	20.023	4.695	0.455
1320.000	738.145	80.001	19.994	103.111	20.023	4.682	0.496
1327.999	742.215	80.000	19.994	103.112	20.025	4.573	0.491
1330.499	743.507	80.001	19.995	103.112	20.022	4.747	0.519