File: 01_Data/Vinyl_Plan_Flooring/MCC/Vinyl_Plan_Flooring_MCC_30K_min_211111_R1.txt
Sample ID:	C:\MCC\MCC Cal\Test\Vinyl_Plan_Flooring_MCC_30K_min_211111_R1.txt
Sample Weight (mg):	4.7
Heating Rate (C/s):	0.5
Combustor Temp (C):	900
N2 Flow Rate (cc/min):	80
O2 Flow Rate (cc/min):	20
Calibration File:	C:\MCC\MCC Cal\Coeff1 JN10440_30_210304.txt.txt
T Correction Coefficients:	0	1.024463	0
Time Shift (s):	14
*
Time (s)	Temperature (C)	N2 flow rate (cc/min)	O2 flow rate (cc/min)	Flow Rate (cc/min)	Oxygen (%)	HRR (W/g)	Heating rate (C/s)
0.000	106.867	80.003	19.994	103.010	20.025	-0.119	-0.003
8.000	106.838	80.002	19.995	103.012	20.023	-0.043	-0.012
16.001	106.812	80.001	19.996	103.025	20.025	-0.166	0.027
24.000	106.870	80.002	19.995	103.064	20.015	0.529	0.007
32.001	107.251	80.001	19.996	103.141	20.005	1.243	0.075
40.001	107.889	80.000	19.996	103.152	20.001	1.471	0.137
48.000	108.892	80.001	19.996	103.174	19.997	1.801	0.161
56.001	110.154	80.003	19.995	103.193	19.988	2.387	0.192
64.000	111.730	80.000	19.995	103.231	19.983	2.760	0.217
72.001	113.650	80.002	19.994	103.238	19.984	2.660	0.252
80.001	115.890	80.003	19.994	103.257	19.981	2.893	0.285
88.000	118.430	80.001	19.994	103.264	19.979	2.977	0.342
96.001	121.137	80.001	19.995	103.263	19.980	2.914	0.344
104.001	124.141	80.001	19.993	103.266	19.979	3.026	0.375
112.000	127.231	79.999	19.994	103.271	19.980	2.944	0.391
120.000	130.522	80.001	19.995	103.280	19.979	3.026	0.414
128.000	133.935	80.001	19.994	103.280	19.976	3.210	0.451
136.000	137.439	80.001	19.994	103.278	19.972	3.473	0.426
144.000	141.064	80.000	19.995	103.266	19.972	3.505	0.468
152.000	144.833	80.003	19.995	103.268	19.973	3.445	0.475
160.000	148.588	80.004	19.995	103.266	19.971	3.544	0.462
168.000	152.432	80.000	19.995	103.265	19.965	3.938	0.519
176.000	156.240	80.000	19.993	103.269	19.962	4.163	0.496
184.000	160.070	80.000	19.994	103.270	19.958	4.429	0.502
192.000	163.983	80.001	19.994	103.259	19.953	4.786	0.511
200.000	167.901	80.000	19.996	103.265	19.946	5.250	0.486
208.000	171.877	80.000	19.995	103.260	19.938	5.788	0.513
216.000	175.837	80.002	19.996	103.264	19.929	6.441	0.496
224.000	179.832	80.002	19.993	103.235	19.915	7.408	0.500
232.000	183.796	80.000	19.996	103.240	19.902	8.300	0.500
240.000	187.866	80.002	19.994	103.235	19.891	9.053	0.510
248.000	191.828	80.000	19.994	103.236	19.880	9.791	0.466
256.000	195.884	80.001	19.994	103.242	19.864	10.887	0.480
264.000	199.915	80.001	19.994	103.232	19.848	11.958	0.483
272.000	203.954	80.000	19.995	103.231	19.826	13.459	0.543
280.000	207.945	80.001	19.996	103.228	19.808	14.726	0.501
288.000	211.893	80.000	19.994	103.224	19.784	16.387	0.491
296.000	215.905	80.001	19.996	103.226	19.758	18.134	0.489
304.000	219.806	80.000	19.995	103.226	19.734	19.785	0.487
312.000	223.758	80.001	19.996	103.222	19.705	21.804	0.490
320.000	227.707	80.002	19.995	103.228	19.670	24.181	0.490
328.000	231.689	80.001	19.996	103.227	19.644	25.961	0.492
336.000	235.641	80.001	19.994	103.213	19.615	27.970	0.539
344.000	239.613	80.000	19.996	103.231	19.587	29.877	0.471
352.000	243.624	80.000	19.995	103.226	19.550	32.402	0.481
360.000	247.657	80.000	19.995	103.226	19.515	34.784	0.488
368.000	251.751	80.000	19.994	103.219	19.477	37.400	0.526
376.000	255.700	80.002	19.996	103.230	19.438	40.115	0.496
384.000	259.690	80.001	19.993	103.238	19.390	43.402	0.511
392.000	263.591	80.001	19.995	103.262	19.352	45.964	0.465
400.000	267.620	80.001	19.995	103.266	19.304	49.305	0.488
408.000	271.674	80.002	19.995	103.275	19.259	52.354	0.530
416.000	275.634	79.999	19.995	103.302	19.232	54.249	0.505
424.000	279.663	80.000	19.995	103.308	19.233	54.161	0.500
432.000	283.689	80.001	19.995	103.306	19.272	51.490	0.513
440.000	287.733	80.001	19.993	103.284	19.357	45.624	0.481
448.000	291.756	79.999	19.993	103.260	19.487	36.736	0.516
456.000	295.794	80.001	19.995	103.217	19.646	25.786	0.478
464.000	299.811	80.003	19.995	103.177	19.775	16.939	0.509
472.000	303.850	80.001	19.994	103.151	19.863	10.959	0.512
480.000	307.939	80.001	19.995	103.145	19.903	8.182	0.517
488.000	312.025	80.002	19.994	103.129	19.929	6.437	0.526
496.000	316.079	80.001	19.995	103.122	19.943	5.469	0.504
504.000	320.092	80.001	19.996	103.125	19.953	4.771	0.493
512.000	324.129	80.001	19.995	103.120	19.960	4.306	0.530
520.000	328.153	80.000	19.994	103.144	19.967	3.804	0.494
528.000	332.241	80.000	19.994	103.133	19.966	3.877	0.491
536.000	336.248	80.001	19.995	103.148	19.975	3.292	0.487
544.000	340.302	80.004	19.994	103.146	19.977	3.147	0.523
552.000	344.383	80.002	19.994	103.148	19.977	3.165	0.511
560.000	348.440	80.003	19.994	103.149	19.982	2.787	0.520
568.000	352.474	80.003	19.993	103.149	19.982	2.806	0.537
576.000	356.552	80.001	19.996	103.150	19.985	2.560	0.485
584.000	360.566	80.000	19.995	103.151	19.984	2.689	0.501
592.000	364.525	80.001	19.995	103.158	19.982	2.780	0.503
600.000	368.495	80.001	19.995	103.149	19.984	2.636	0.495
608.000	372.470	80.001	19.995	103.163	19.984	2.681	0.502
616.000	376.489	79.999	19.995	103.142	19.982	2.806	0.473
624.000	380.533	80.003	19.994	103.149	19.980	2.905	0.506
632.000	384.546	80.002	19.995	103.148	19.976	3.193	0.491
640.000	388.667	80.001	19.993	103.150	19.979	3.030	0.521
648.000	392.759	80.003	19.995	103.151	19.973	3.432	0.520
656.000	396.848	80.000	19.994	103.133	19.966	3.900	0.496
664.000	400.962	80.000	19.995	103.147	19.960	4.322	0.521
672.000	405.026	80.001	19.996	103.145	19.953	4.754	0.476
680.000	409.067	79.998	19.995	103.147	19.946	5.271	0.495
688.000	413.087	80.000	19.995	103.146	19.936	5.930	0.503
696.000	417.032	80.000	19.996	103.149	19.930	6.362	0.485
704.000	420.920	80.002	19.997	103.151	19.912	7.611	0.476
712.000	424.943	80.001	19.995	103.151	19.892	8.930	0.519
720.000	428.876	80.002	19.994	103.148	19.870	10.487	0.498
728.000	432.953	80.004	19.994	103.138	19.839	12.614	0.489
736.000	437.098	80.004	19.994	103.143	19.804	14.968	0.540
744.000	441.199	80.001	19.994	103.146	19.761	17.949	0.526
752.000	445.335	80.002	19.995	103.145	19.708	21.533	0.491
760.000	449.488	80.000	19.995	103.135	19.651	25.428	0.534
768.000	453.625	80.001	19.995	103.150	19.597	29.182	0.514
776.000	457.776	79.999	19.995	103.137	19.549	32.422	0.537
784.000	461.969	80.002	19.995	103.140	19.525	34.086	0.526
792.000	466.033	80.001	19.995	103.145	19.521	34.385	0.515
800.000	470.130	80.002	19.996	103.139	19.534	33.484	0.534
808.000	474.241	80.003	19.996	103.148	19.561	31.593	0.533
816.000	478.297	80.003	19.995	103.141	19.590	29.636	0.520
824.000	482.379	80.000	19.995	103.125	19.628	27.025	0.510
832.000	486.468	80.001	19.996	103.125	19.672	24.041	0.503
840.000	490.523	80.001	19.994	103.129	19.711	21.355	0.510
848.000	494.578	80.000	19.995	103.133	19.750	18.681	0.519
856.000	498.722	80.000	19.995	103.119	19.788	16.096	0.520
864.000	502.728	80.001	19.995	103.138	19.821	13.808	0.495
872.000	506.774	80.003	19.995	103.112	19.853	11.618	0.540
880.000	510.850	80.002	19.997	103.117	19.883	9.591	0.499
888.000	514.913	80.001	19.997	103.127	19.900	8.421	0.526
896.000	518.902	80.003	19.994	103.121	19.919	7.122	0.448
904.000	522.916	80.001	19.994	103.111	19.928	6.514	0.486
912.000	526.992	80.001	19.995	103.122	19.937	5.905	0.528
920.000	530.986	80.003	19.996	103.119	19.944	5.388	0.522
928.000	534.998	80.001	19.994	103.119	19.950	4.975	0.484
936.000	539.132	80.003	19.995	103.119	19.954	4.736	0.512
944.000	543.326	80.002	19.995	103.111	19.956	4.551	0.533
952.000	547.655	80.002	19.995	103.135	19.961	4.244	0.569
960.000	551.950	80.001	19.995	103.150	19.962	4.138	0.524
968.000	556.279	80.002	19.994	103.152	19.964	4.013	0.555
976.000	560.537	80.004	19.995	103.140	19.963	4.086	0.519
984.000	564.791	80.001	19.995	103.150	19.966	3.861	0.541
992.000	569.031	80.001	19.994	103.147	19.966	3.911	0.516
1000.000	573.335	80.000	19.994	103.156	19.971	3.573	0.568
1008.000	577.610	80.001	19.994	103.141	19.970	3.583	0.525
1016.000	581.865	80.001	19.995	103.152	19.972	3.469	0.538
1024.000	585.992	80.002	19.996	103.145	19.976	3.210	0.515
1032.001	590.022	80.002	19.995	103.146	19.978	3.044	0.504
1040.001	594.131	80.001	19.995	103.141	19.982	2.780	0.508
1048.001	598.187	80.001	19.995	103.123	19.984	2.658	0.517
1056.000	602.220	80.003	19.994	103.133	19.986	2.520	0.479
1064.000	606.283	80.001	19.994	103.135	19.983	2.718	0.535
1072.001	610.292	80.001	19.997	103.120	19.982	2.811	0.505
1080.000	614.369	80.001	19.996	103.119	19.979	2.964	0.537
1088.000	618.398	80.001	19.994	103.119	19.981	2.851	0.494
1096.000	622.446	80.001	19.995	103.127	19.976	3.229	0.468
1104.000	626.476	80.001	19.995	103.151	19.977	3.158	0.472
1112.001	630.541	80.002	19.994	103.151	19.979	2.992	0.522
1120.000	634.667	80.003	19.995	103.151	19.977	3.115	0.501
1128.000	638.818	80.003	19.994	103.151	19.974	3.358	0.518
1136.000	642.920	80.005	19.995	103.158	19.975	3.284	0.529
1144.000	646.980	80.004	19.995	103.176	19.971	3.560	0.488
1152.000	651.090	80.002	19.995	103.189	19.968	3.781	0.507
1160.000	655.259	80.000	19.995	103.189	19.964	4.041	0.523
1168.000	659.331	80.001	19.996	103.208	19.959	4.388	0.499
1176.001	663.394	80.001	19.994	103.230	19.963	4.084	0.509
1184.000	667.430	80.001	19.996	103.254	19.957	4.486	0.519
1192.000	671.552	80.004	19.995	103.256	19.958	4.468	0.564
1200.001	675.577	80.002	19.995	103.264	19.952	4.865	0.513
1208.000	679.539	80.003	19.994	103.289	19.946	5.256	0.461
1216.001	683.527	80.004	19.993	103.301	19.943	5.477	0.483
1224.000	687.548	80.003	19.994	103.299	19.951	4.891	0.521
1232.000	691.627	80.001	19.996	103.297	19.946	5.233	0.515
1240.000	695.712	80.003	19.994	103.274	19.948	5.106	0.537
1248.001	699.712	80.001	19.995	103.262	19.951	4.906	0.538
1256.000	703.761	80.001	19.996	103.223	19.955	4.676	0.482
1264.000	707.856	80.002	19.996	103.198	19.959	4.350	0.506
1272.000	711.969	80.004	19.995	103.156	19.966	3.891	0.494
1280.000	716.042	80.003	19.995	103.125	19.970	3.630	0.492
1288.000	720.117	80.003	19.994	103.117	19.973	3.412	0.504
1296.001	724.122	80.003	19.994	103.113	19.973	3.420	0.505
1304.001	728.155	80.003	19.994	103.118	19.974	3.365	0.512
1312.001	732.159	80.003	19.994	103.112	19.968	3.771	0.483
1320.000	736.122	80.003	19.995	103.108	19.976	3.220	0.502
1328.000	740.117	80.002	19.996	103.110	19.969	3.704	0.481
1335.000	743.661	80.003	19.994	103.108	19.973	3.440	0.501