File: 01_Data/PVC/STA/N2/30K_min/PVC_STA_N2_30KData_210710_R1.csv
##Temp./Â°C,Time/min,Mass loss(subtr.2)/mg,DSC(subtr.2)/mW,DTG(subtr.2)/(mg/min),Sensit./(uV/mW)
49.367,10.01,-0.00679,-0.03981153,-0.01265136,1.05401
52.467,11.63359,-0.008023185,0.1667,-0.006311427,1.05406
55.567,12.01348,-0.008475678,0.27843,0.002688126,1.05406
58.667,12.2944,-0.007023141,0.37555,-0.002329569,1.05401
61.767,12.534,-0.00904621,0.4822,0.001856689,1.05392
64.867,12.74875,-0.006930915,0.53609,0.000702214,1.05378
67.967,12.94903,-0.00863177,0.45028,-0.002940535,1.05359
71.067,13.1383,-0.00765757,0.47332,-0.004230286,1.05336
74.167,13.3187,-0.008288631,0.53321,0.000718974,1.05309
77.267,13.49205,-0.008622301,0.60777,-0.003398417,1.05276
80.367,13.65826,-0.00788829,0.71848,0.004813215,1.0524
83.467,13.81851,-0.009110982,0.83663,-0.00213859,1.05199
86.567,13.97303,-0.00769988,0.86582,0.002286805,1.05153
89.667,14.1217,-0.007760953,0.85553,-0.001322645,1.05103
92.767,14.2653,-0.009473747,0.8727,-0.000859828,1.05049
95.867,14.40431,-0.007599039,0.93086,0.003019323,1.0499
98.967,14.53926,-0.0061297,0.99492,-0.001993477,1.04927
102.067,14.67107,-0.007874699,1.07346,-0.0005837417,1.0486
105.167,14.7994,-0.00752116,1.15086,0.000307349,1.04789
108.267,14.92503,-0.0075315,1.22502,0.000893449,1.04713
111.367,15.0478,-0.006592194,1.28917,0.0002958304,1.04633
114.467,15.16845,-0.007560533,1.35218,-0.00638619,1.04549
117.567,15.2871,-0.00875186,1.42262,-0.005155437,1.04462
120.667,15.40325,-0.01052535,1.46467,-0.00780633,1.04369
123.767,15.5182,-0.01043785,1.51152,0.000300684,1.04273
126.867,15.63066,-0.00926956,1.55514,0.004031194,1.04173
129.967,15.74136,-0.008929507,1.5989,0.003600617,1.0407
133.067,15.8512,-0.008253623,1.62114,0.0006070053,1.03962
136.167,15.95921,-0.009619725,1.67624,-0.002235346,1.0385
139.267,16.06579,-0.009064169,1.69261,0.0005061769,1.03734
142.367,16.1708,-0.00877239,1.72958,-0.002990649,1.03615
145.467,16.27467,-0.009711,1.77808,-0.005055662,1.03492
148.567,16.37744,-0.01009009,1.80238,-0.003667198,1.03365
151.667,16.47934,-0.01013134,1.82718,-0.00304326,1.03235
154.767,16.57988,-0.01139987,1.83958,-0.00213102,1.03101
157.867,16.67999,-0.01140001,1.85393,-0.002147337,1.02963
160.967,16.7791,-0.01141002,1.87588,-0.0003032331,1.02822
164.067,16.8774,-0.01132638,1.90346,-0.0007282455,1.02678
167.167,16.97508,-0.01224841,1.93438,-0.002949752,1.0253
170.267,17.07179,-0.01137125,1.95959,-0.00545198,1.02378
173.367,17.1678,-0.01263825,1.9683,-0.005218027,1.02223
176.467,17.2633,-0.01254564,1.96338,-0.00178334,1.02065
179.567,17.35775,-0.01261099,1.9684,0.004162092,1.01904
182.667,17.4516,-0.01195739,1.97088,-4.316487e-05,1.01739
185.767,17.5447,-0.01298889,1.97173,-0.0109728,1.01571
188.867,17.63731,-0.01425992,1.95464,-0.0118076,1.014
191.967,17.72907,-0.01557543,1.94791,-0.001822384,1.01226
195.067,17.8203,-0.01393034,1.92486,0.002783628,1.01049
198.167,17.91124,-0.0150023,1.92008,0.000280384,1.00869
201.267,18.00149,-0.01393733,1.9107,-8.96043e-05,1.00686
204.367,18.0915,-0.01398627,1.91497,-0.00806174,1.00499
207.467,18.18111,-0.01524948,1.92424,-0.01320822,1.00311
210.567,18.27025,-0.017874,1.92342,-0.00483066,1.00119
213.667,18.35913,-0.01655,1.92825,-0.000355317,0.99924
216.767,18.4476,-0.01654669,1.92811,-0.00475045,0.99727
219.867,18.53565,-0.01787021,1.94035,-0.004819992,0.99527
222.967,18.6237,-0.01693377,1.93136,-0.00399958,0.99324
226.067,18.71134,-0.0182,1.93323,-0.00493766,0.99119
229.167,18.7987,-0.01954409,1.92456,-0.00208654,0.98911
232.267,18.8859,-0.0181996,1.90699,-0.001503582,0.987
235.367,18.97267,-0.01831657,1.8987,-0.009855145,0.98488
238.467,19.0593,-0.02044841,1.8861,-0.01444051,0.98272
241.567,19.14574,-0.02215841,1.88172,-0.007738568,0.98055
244.667,19.23188,-0.02108752,1.86786,-0.00120925,0.97835
247.767,19.31792,-0.02116958,1.85146,-0.007873224,0.97612
250.867,19.40369,-0.02248675,1.85488,-0.01757238,0.97388
253.967,19.48925,-0.02511006,1.8365,-0.01943545,0.97161
257.067,19.5748,-0.02640575,1.80441,-0.01868531,0.96932
260.167,19.66,-0.02796,1.67419,-0.02116587,0.96701
263.267,19.7452,-0.02918913,1.41817,-0.03299412,0.96468
266.367,19.8302,-0.03225996,1.59178,-0.06453912,0.96233
269.467,19.91471,-0.04090484,1.86911,-0.10595,0.95997
272.567,19.9998,-0.05030385,2.12678,-0.13678,0.95758
275.667,20.08448,-0.0632967,2.35221,-0.16119,0.95517
278.767,20.16907,-0.07857792,2.58681,-0.18365,0.95274
281.867,20.25362,-0.09538722,2.8354,-0.20719,0.9503
284.967,20.33835,-0.11169,3.10106,-0.23782,0.94784
288.067,20.42289,-0.1359,3.36688,-0.25991,0.94536
291.167,20.5075,-0.15722,3.6532,-0.28061,0.94287
294.267,20.5921,-0.18111,3.92982,-0.31587,0.94036
297.367,20.67667,-0.21034,4.21596,-0.35869,0.93783
300.467,20.76134,-0.24241,4.53787,-0.4031,0.9353
303.567,20.84582,-0.27765,4.89035,-0.45579,0.93274
306.667,20.9302,-0.31887,5.26466,-0.5191,0.93017
309.767,21.0148,-0.36548,5.68207,-0.59017,0.92759
312.867,21.09921,-0.41714,6.1446,-0.6748,0.925
315.967,21.18368,-0.47899,6.62801,-0.76745,0.92239
319.067,21.26819,-0.54855,7.13289,-0.86295,0.91977
322.167,21.35277,-0.62556,7.64495,-0.95912,0.91714
325.267,21.43731,-0.7093,8.1254,-1.05712,0.91449
328.367,21.52201,-0.80383,8.51765,-1.15141,0.91184
331.467,21.60664,-0.90436,8.71126,-1.22704,0.90917
334.567,21.69128,-1.01173,8.84042,-1.28043,0.9065
337.667,21.77585,-1.12069,8.89712,-1.32296,0.90382
340.767,21.8607,-1.23828,8.86103,-1.35393,0.90112
343.867,21.94549,-1.35499,8.70173,-1.35123,0.89842
346.967,22.03051,-1.4698,8.40541,-1.32221,0.89571
350.067,22.1155,-1.58076,8.019,-1.27774,0.89299
353.167,22.20052,-1.68553,7.47075,-1.21876,0.89027
356.267,22.2855,-1.78676,6.79265,-1.1389,0.88754
359.367,22.37055,-1.87868,5.98021,-1.04464,0.8848
362.467,22.45583,-1.96608,5.00072,-0.93337,0.88205
365.567,22.5413,-2.04143,3.87909,-0.80018,0.8793
368.667,22.62673,-2.10444,2.53355,-0.65752,0.87655
371.767,22.71221,-2.15432,1.20658,-0.50753,0.87379
374.867,22.7977,-2.19069,0.06725678,-0.37243,0.87102
377.967,22.88339,-2.21529,-0.76088,-0.27075,0.86825
381.067,22.9691,-2.23501,-1.28441,-0.19832,0.86548
384.167,23.05501,-2.24903,-1.5335,-0.14999,0.8627
387.267,23.14122,-2.25953,-1.60433,-0.12329,0.85992
390.367,23.22745,-2.26821,-1.60682,-0.10767,0.85714
393.467,23.31397,-2.27825,-1.58868,-0.09134023,0.85436
396.567,23.40053,-2.28461,-1.57432,-0.08278437,0.85157
399.667,23.4875,-2.29062,-1.58209,-0.08716164,0.84879
402.767,23.57425,-2.30031,-1.59034,-0.09075252,0.846
405.867,23.66159,-2.30716,-1.60372,-0.08709485,0.84321
408.967,23.7488,-2.31534,-1.60733,-0.08400174,0.84042
412.067,23.8363,-2.32213,-1.63107,-0.08733248,0.83764
415.167,23.92377,-2.33088,-1.67503,-0.09387726,0.83485
418.267,24.01139,-2.3392,-1.71327,-0.09489102,0.83206
421.367,24.09938,-2.34709,-1.76952,-0.10419,0.82928
424.467,24.1874,-2.35718,-1.82585,-0.11502,0.82649
427.567,24.27555,-2.36785,-1.88717,-0.1215,0.82371
430.667,24.36394,-2.37805,-1.9738,-0.1338,0.82093
433.767,24.4525,-2.39118,-2.03974,-0.14482,0.81816
436.867,24.54114,-2.4029,-2.12242,-0.1531,0.81538
439.967,24.63,-2.41748,-2.17818,-0.16867,0.81261
443.067,24.7191,-2.43251,-2.23643,-0.19146,0.80985
446.167,24.8081,-2.45258,-2.25595,-0.21222,0.80709
449.267,24.89728,-2.47089,-2.21839,-0.23526,0.80433
452.367,24.98677,-2.49497,-2.12646,-0.26624,0.80157
455.467,25.0765,-2.5183,-1.97227,-0.30578,0.79883
458.567,25.16631,-2.5484,-1.76076,-0.34362,0.79608
461.667,25.25635,-2.58044,-1.48361,-0.37668,0.79335
464.767,25.34652,-2.61603,-1.17467,-0.39075,0.79062
467.867,25.43713,-2.64755,-0.83712,-0.40133,0.78789
470.967,25.5277,-2.69113,-0.50649,-0.43682,0.78517
474.067,25.61846,-2.7308,-0.2314,-0.44366,0.78246
477.167,25.70955,-2.77211,-0.04885057,-0.44095,0.77976
480.267,25.8008,-2.81168,0.22725,-0.44855,0.77706
483.367,25.8921,-2.85103,0.37393,-0.44878,0.77437
486.467,25.98358,-2.90122,0.37668,-0.41423,0.77169
489.567,26.07541,-2.92972,0.2079,-0.40418,0.76901
492.667,26.16724,-2.96718,0.0969481,-0.40355,0.76635
495.767,26.2594,-3.00316,-0.02121495,-0.38214,0.76369
498.867,26.35169,-3.03884,-0.12404,-0.35674,0.76104
501.967,26.44414,-3.06952,-0.23536,-0.32746,0.75841
505.067,26.53665,-3.09861,-0.42321,-0.29776,0.75578
508.167,26.6293,-3.12564,-0.63531,-0.26903,0.75316
511.267,26.7222,-3.14863,-0.79257,-0.23866,0.75055
514.367,26.8152,-3.17043,-1.00437,-0.21269,0.74795
517.467,26.9083,-3.18813,-1.2004,-0.19851,0.74536
520.567,27.00163,-3.20669,-1.37732,-0.17696,0.74278
523.667,27.09507,-3.22079,-1.56075,-0.14648,0.74021
526.767,27.1887,-3.2338,-1.71278,-0.1301,0.73766
529.867,27.28227,-3.24525,-1.87972,-0.10974,0.73511
532.967,27.37623,-3.26212,-1.99327,-0.07068308,0.73258
536.067,27.47007,-3.25692,-2.11311,-0.06955283,0.73006
539.167,27.564,-3.26716,-2.22519,-0.07605563,0.72755
542.267,27.6584,-3.27276,-2.32365,-0.06264784,0.72505
545.367,27.7527,-3.27842,-2.3786,-0.04757212,0.72256
548.467,27.84713,-3.28219,-2.4452,-0.03847196,0.72009
551.567,27.9417,-3.2862,-2.52383,-0.03162454,0.71762
554.667,28.03652,-3.28752,-2.85221,-0.02659231,0.71518
557.767,28.13141,-3.29055,-2.99852,-0.02441522,0.71274
560.867,28.2264,-3.29303,-3.07076,-0.02127485,0.71032
563.967,28.3217,-3.29435,-3.12099,-0.02608137,0.70791
567.067,28.41661,-3.29777,-3.17368,-0.02016097,0.70551
570.167,28.51227,-3.2978,-3.1986,-0.008655329,0.70312
573.267,28.6077,-3.29913,-3.23132,-0.01086867,0.70075
576.367,28.70337,-3.30038,-3.2812,-0.01724984,0.6984
579.467,28.79908,-3.3031,-3.31135,-0.01737293,0.69606
582.567,28.89507,-3.30438,-3.32954,-0.01556719,0.69373
585.667,28.99077,-3.30571,-3.35539,-0.01453429,0.69141
588.767,29.0869,-3.30703,-3.21317,-0.01378932,0.68911
591.867,29.18314,-3.30834,-2.99902,-0.01191599,0.68683
594.967,29.27958,-3.30966,-2.91206,-0.00882814,0.68455
598.067,29.3759,-3.31031,-2.88759,-0.007235002,0.6823
601.167,29.47263,-3.31095,-2.85815,-0.00900429,0.68005
604.267,29.56945,-3.3123,-2.81892,-0.01518289,0.67783
607.367,29.66628,-3.31364,-2.83154,-0.01060304,0.67561
610.467,29.76316,-3.31432,-2.96358,-0.007625759,0.67341
613.567,29.86022,-3.31428,-3.21737,-0.008619111,0.67123
616.667,29.9576,-3.31559,-3.44551,-0.0005896209,0.66906
617.967,29.9983,-3.31559,-3.52821,5.78906e-05,0.66815