File: 01_Data/PVC/STA/N2/30K_min/PVC_STA_N2_30KData_210810_R2.csv
##Temp./Â°C,Time/min,Mass loss(subtr.2)/mg,DSC(subtr.2)/mW,DTG(subtr.2)/(mg/min),Sensit./(uV/mW)
49.364,10.00917,-0.00701,-0.04487844,0.0,1.05401
52.464,11.62998,-0.008228896,0.4685,0.001430504,1.05406
55.564,12.01153,-0.00781266,0.80007,-0.000823465,1.05406
58.664,12.29149,-0.006511153,1.0813,0.000569492,1.05401
61.764,12.53151,-0.008089965,1.31383,-0.001166818,1.05392
64.864,12.7475,-0.007827298,1.49886,-0.0005769371,1.05378
67.964,12.94716,-0.007220235,1.53111,-0.004479074,1.05359
71.064,13.1362,-0.008927256,1.63181,-0.00183372,1.05336
74.164,13.31625,-0.0104363,1.77544,-0.00510299,1.05309
77.264,13.48995,-0.00957169,1.93023,0.001585536,1.05277
80.364,13.65598,-0.01061154,2.10856,0.0005326368,1.0524
83.464,13.8157,-0.01076118,2.26612,-0.00078624,1.05199
86.564,13.96996,-0.008128115,2.38234,0.006346409,1.05153
89.664,14.1183,-0.01092193,2.47278,-0.007664122,1.05103
92.764,14.26179,-0.008724753,2.57053,0.01073876,1.05049
95.864,14.40068,-0.00764329,2.70887,-0.002078685,1.0499
98.964,14.53573,-0.00994364,2.85738,-0.00370089,1.04927
102.064,14.66746,-0.00890319,3.02186,-0.001082075,1.0486
105.164,14.79549,-0.008567837,3.17825,-0.002433064,1.04789
108.264,14.92087,-0.008922537,3.34059,-0.003285444,1.04713
111.364,15.04394,-0.01078122,3.4871,0.00197649,1.04633
114.464,15.1645,-0.009325813,3.62649,-0.0004481673,1.0455
117.564,15.28319,-0.009737654,3.76501,-0.004304725,1.04462
120.664,15.39969,-0.01086939,3.90952,0.00259495,1.0437
123.764,15.51418,-0.00918914,4.03336,0.00324593,1.04274
126.864,15.62667,-0.009245191,4.13969,-0.005086065,1.04174
129.964,15.7374,-0.01143414,4.25575,-0.000861994,1.0407
133.064,15.84704,-0.01024928,4.37076,0.0001129579,1.03962
136.164,15.9549,-0.01097888,4.48607,-0.001147016,1.0385
139.264,16.06154,-0.01092382,4.58412,-0.001404748,1.03735
142.364,16.16656,-0.009994473,4.67927,-0.00281173,1.03615
145.464,16.27039,-0.0104279,4.77772,-0.0007729049,1.03492
148.564,16.3732,-0.01021338,4.87668,-0.004248862,1.03366
151.664,16.47515,-0.01144765,4.97048,-0.009143959,1.03235
154.764,16.5759,-0.0127462,5.06872,-0.003535558,1.03101
157.864,16.67569,-0.01250867,5.14274,-3.902885e-06,1.02964
160.964,16.77485,-0.01253102,5.22528,-0.00805703,1.02823
164.064,16.87315,-0.01382098,5.30622,-0.0075756,1.02678
167.164,16.9705,-0.01383834,5.37662,-0.000124669,1.0253
170.264,17.0674,-0.01381002,5.44625,-0.0009570178,1.02378
173.364,17.16347,-0.01534539,5.51836,-0.004388647,1.02224
176.464,17.25879,-0.01524332,5.57533,-0.002505906,1.02065
179.564,17.35343,-0.01387464,5.63574,-0.001770551,1.01904
182.664,17.44724,-0.01523957,5.68838,-0.00294903,1.01739
185.764,17.54028,-0.01512759,5.7292,-0.00488153,1.01571
188.864,17.63283,-0.01642063,5.78299,-0.007913889,1.014
191.964,17.72474,-0.01736136,5.83013,-0.00487298,1.01226
195.064,17.81602,-0.01647433,5.85529,0.0005944062,1.01049
198.164,17.90663,-0.01643809,5.8984,-0.000915795,1.00869
201.264,17.99697,-0.01780194,5.95147,-0.003633818,1.00686
204.364,18.08697,-0.01773847,6.00205,0.0002677244,1.005
207.464,18.17643,-0.01742937,6.04382,0.003191625,1.00311
210.564,18.26555,-0.01741254,6.09514,-0.004259751,1.00119
213.664,18.35442,-0.02028748,6.13099,-0.01460951,0.99924
216.764,18.44279,-0.01970207,6.17535,-0.006851981,0.99727
219.864,18.53107,-0.01882638,6.22107,-0.004424218,0.99527
222.964,18.61898,-0.02007,6.24484,-0.003230962,0.99324
226.064,18.70663,-0.02007,6.26504,0.000129691,0.99119
229.164,18.79409,-0.01990824,6.29553,0.00133238,0.98911
232.264,18.88124,-0.01974183,6.3155,-0.00185292,0.98701
235.364,18.96806,-0.02007122,6.33665,-0.008885967,0.98488
238.464,19.05465,-0.02139045,6.35756,-0.01490693,0.98273
241.564,19.14105,-0.02372915,6.36565,-0.01462123,0.98055
244.664,19.22709,-0.02401001,6.38531,-0.00729551,0.97835
247.764,19.31321,-0.02401,6.38926,-0.004905813,0.97613
250.864,19.3989,-0.02400135,6.3959,-0.00794395,0.97388
253.964,19.4844,-0.02605469,6.39385,-0.005308524,0.97161
257.064,19.57009,-0.02599066,6.3725,-0.005874447,0.96933
260.164,19.65534,-0.02269606,6.28125,-0.02470618,0.96702
263.264,19.74054,-0.03047983,5.97191,-0.03531362,0.96469
266.364,19.82584,-0.03172382,6.06747,-0.05175301,0.96234
269.464,19.91076,-0.03648584,6.35779,-0.09163466,0.95997
272.564,19.9954,-0.04852203,6.63885,-0.12664,0.95758
275.664,20.08042,-0.05818645,6.89716,-0.15654,0.95517
278.764,20.16496,-0.07508362,7.14183,-0.1861,0.95275
281.864,20.2497,-0.09083541,7.39153,-0.20756,0.9503
284.964,20.33411,-0.10967,7.64907,-0.23018,0.94784
288.064,20.41884,-0.12921,7.95077,-0.26259,0.94537
291.164,20.50346,-0.15354,8.25527,-0.29511,0.94287
294.264,20.58791,-0.18005,8.55905,-0.32636,0.94036
297.364,20.67239,-0.20786,8.84553,-0.36685,0.93784
300.464,20.75704,-0.24112,9.14993,-0.41472,0.9353
303.564,20.84167,-0.27848,9.47843,-0.46571,0.93274
306.664,20.92613,-0.31905,9.83096,-0.5227,0.93017
309.764,21.01052,-0.366,10.2262,-0.58988,0.92759
312.864,21.09504,-0.41829,10.66039,-0.66696,0.925
315.964,21.17946,-0.47815,11.0959,-0.76524,0.92239
319.064,21.26399,-0.54964,11.56296,-0.87515,0.91977
322.164,21.34848,-0.62619,12.05258,-0.95484,0.91714
325.264,21.433,-0.70997,12.50822,-1.04403,0.9145
328.364,21.51766,-0.80238,12.87684,-1.14149,0.91184
331.464,21.60233,-0.90291,13.145,-1.22345,0.90918
334.564,21.687,-1.01047,13.3283,-1.28305,0.9065
337.664,21.7717,-1.11936,13.42355,-1.32104,0.90382
340.764,21.85661,-1.23542,13.39209,-1.33708,0.90113
343.864,21.94151,-1.34946,13.21389,-1.33951,0.89842
346.964,22.0265,-1.46645,12.91136,-1.32352,0.89571
350.064,22.11167,-1.57664,12.46247,-1.28768,0.893
353.164,22.19664,-1.68431,11.91339,-1.23522,0.89027
356.264,22.28193,-1.78608,11.21147,-1.15807,0.88754
359.364,22.3671,-1.88208,10.36497,-1.06128,0.8848
362.464,22.45231,-1.96842,9.3149,-0.94209,0.88205
365.564,22.5377,-2.04409,8.0506,-0.80606,0.8793
368.664,22.62301,-2.10724,6.59574,-0.66307,0.87655
371.764,22.7085,-2.1583,5.1454,-0.51535,0.87379
374.864,22.79393,-2.1959,3.91965,-0.36774,0.87102
377.964,22.87954,-2.21869,3.05472,-0.25135,0.86825
381.064,22.9653,-2.23647,2.55786,-0.1779,0.86548
384.164,23.05115,-2.24792,2.37158,-0.1346,0.8627
387.264,23.13705,-2.2575,2.35437,-0.11591,0.85993
390.364,23.2236,-2.26823,2.38427,-0.10176,0.85714
393.464,23.3099,-2.27516,2.39631,-0.0877597,0.85436
396.564,23.3965,-2.28317,2.40332,-0.07861202,0.85158
399.664,23.48351,-2.28899,2.37451,-0.0746224,0.84879
402.764,23.57049,-2.29488,2.34409,-0.0710712,0.846
405.864,23.65757,-2.30129,2.30808,-0.07369109,0.84321
408.964,23.74481,-2.30774,2.27579,-0.08565197,0.84043
412.064,23.83214,-2.31719,2.22657,-0.09410653,0.83764
415.164,23.9198,-2.32441,2.17174,-0.09580409,0.83485
418.264,24.00737,-2.3329,2.11542,-0.10351,0.83206
421.364,24.09526,-2.34289,2.03649,-0.1099,0.82928
424.464,24.1832,-2.35212,1.96062,-0.11431,0.8265
427.564,24.27139,-2.36255,1.88865,-0.11532,0.82371
430.664,24.35967,-2.37269,1.79762,-0.11824,0.82094
433.764,24.44815,-2.38291,1.70163,-0.13165,0.81816
436.864,24.53679,-2.39782,1.62215,-0.14797,0.81539
439.964,24.62558,-2.4094,1.55209,-0.16165,0.81262
443.064,24.71446,-2.42319,1.49708,-0.18403,0.80985
446.164,24.80351,-2.44237,1.48301,-0.21074,0.80709
449.264,24.89284,-2.46218,1.49512,-0.2363,0.80433
452.364,24.98235,-2.48281,1.56185,-0.26358,0.80158
455.464,25.07199,-2.51013,1.68864,-0.29499,0.79883
458.564,25.1619,-2.53655,1.90294,-0.32505,0.79609
461.664,25.2519,-2.568,2.18922,-0.35732,0.79335
464.764,25.3421,-2.60092,2.49509,-0.38994,0.79062
467.864,25.43252,-2.63963,2.85648,-0.41518,0.78789
470.964,25.52329,-2.67758,3.21127,-0.43168,0.78517
474.064,25.6141,-2.71809,3.52668,-0.43799,0.78246
477.164,25.70521,-2.75703,3.7338,-0.43342,0.77976
480.264,25.79659,-2.7955,4.04116,-0.43747,0.77706
483.364,25.88799,-2.8366,4.22375,-0.44794,0.77437
486.464,25.9796,-2.87887,4.28468,-0.44335,0.77169
489.564,26.07143,-2.91962,4.21912,-0.42258,0.76902
492.664,26.16346,-2.95575,4.07752,-0.40147,0.76635
495.764,26.2557,-2.9934,4.00068,-0.38351,0.76369
498.864,26.3479,-3.02826,3.89738,-0.359,0.76105
501.964,26.44036,-3.05966,3.77988,-0.32631,0.75841
505.064,26.533,-3.0867,3.64572,-0.30152,0.75578
508.164,26.6257,-3.1144,3.53051,-0.28046,0.75316
511.264,26.71875,-3.13965,3.3572,-0.25979,0.75055
514.364,26.81188,-3.16373,3.20819,-0.22979,0.74795
517.464,26.905,-3.18322,3.07379,-0.19207,0.74536
520.564,26.99847,-3.19987,2.93443,-0.16021,0.74278
523.664,27.09208,-3.21312,2.79724,-0.14106,0.74022
526.764,27.1857,-3.22567,2.67179,-0.13319,0.73766
529.864,27.27948,-3.23862,2.58184,-0.1136,0.73511
532.964,27.3735,-3.24726,2.49667,-0.08985118,0.73258
536.064,27.46752,-3.25443,2.42824,-0.07084471,0.73006
539.164,27.56145,-3.25952,2.37669,-0.06728206,0.72755
542.264,27.65578,-3.26818,2.34597,-0.06734481,0.72505
545.364,27.75024,-3.27297,2.29974,-0.05004012,0.72256
548.464,27.84485,-3.27605,2.29296,-0.03864905,0.72009
551.564,27.9393,-3.2795,2.28467,-0.0379912,0.71763
554.664,28.03391,-3.28455,2.28051,-0.03595774,0.71518
557.764,28.1287,-3.28726,2.29694,-0.02820967,0.71274
560.864,28.2238,-3.28852,2.30571,-0.02139126,0.71032
563.964,28.3191,-3.28991,2.31605,-0.01974558,0.70791
567.064,28.41429,-3.29295,2.3295,-0.02052208,0.70551
570.164,28.5098,-3.29452,2.3414,-0.02043999,0.70313
573.264,28.6053,-3.29704,2.35638,-0.02103807,0.70076
576.364,28.70093,-3.2987,2.37342,-0.01514647,0.6984
579.464,28.79665,-3.30011,2.38995,-0.00660315,0.69606
582.564,28.8923,-3.29882,2.40267,-0.0057489,0.69373
585.664,28.98831,-3.30071,2.43616,-0.007882893,0.69141
588.764,29.0843,-3.30011,2.45233,-0.009866468,0.68911
591.864,29.1803,-3.30144,2.46957,-0.02175625,0.68683
594.964,29.27655,-3.3056,2.50212,-0.01998503,0.68456
598.064,29.37343,-3.3069,2.54288,-0.0103051,0.6823
601.164,29.46995,-3.30732,2.58849,-0.008965409,0.68006
604.264,29.5666,-3.30826,2.64877,-0.01066438,0.67783
607.364,29.6634,-3.30898,2.65783,-0.009814839,0.67561
610.464,29.7605,-3.31043,2.58247,-0.01214085,0.67341
613.564,29.85738,-3.31076,2.36557,-0.01698321,0.67123
616.664,29.9547,-3.31372,2.17349,-0.01072551,0.66906
618.064,29.9985,-3.31372,2.12354,0.00105423,0.66809