File: 01_Data/Vinyl_Chair_Vinyl_Covering/MCC/Vinyl_Chair_Vinyl_Covering_MCC_30K_min_220302_R2.txt
Sample ID:	C:\MCC\MCC Cal\Test\Vinyl_Covering_81A_MCC_30K_min_220302_R2.txt
Sample Weight (mg):	4.79
Heating Rate (C/s):	0.5
Combustor Temp (C):	900
N2 Flow Rate (cc/min):	80
O2 Flow Rate (cc/min):	20
Calibration File:	C:\MCC\MCC Cal\Coeff1 JN10440_30_210304.txt.txt
T Correction Coefficients:	0	1.024463	0
Time Shift (s):	14
*
Time (s)	Temperature (C)	N2 flow rate (cc/min)	O2 flow rate (cc/min)	Flow Rate (cc/min)	Oxygen (%)	HRR (W/g)	Heating rate (C/s)
0.000	115.783	80.008	19.992	103.742	19.968	-0.127	0.022
7.500	115.832	80.007	19.994	103.721	19.963	0.178	0.013
15.000	115.859	80.008	19.992	103.809	19.952	0.903	0.023
22.500	116.229	80.009	19.993	103.917	19.935	2.081	0.117
30.000	117.165	80.007	19.993	103.943	19.927	2.609	0.138
37.500	118.583	80.009	19.994	103.979	19.917	3.295	0.204
45.000	120.433	80.009	19.994	103.983	19.911	3.728	0.291
52.500	122.512	80.009	19.995	103.973	19.913	3.598	0.318
60.000	124.995	80.006	19.994	103.982	19.909	3.835	0.317
67.501	127.793	80.008	19.995	103.982	19.909	3.825	0.394
75.001	130.720	80.008	19.993	103.982	19.912	3.635	0.379
82.500	133.853	80.008	19.992	103.980	19.905	4.128	0.436
90.000	137.175	80.007	19.994	103.979	19.905	4.145	0.453
97.500	140.594	80.008	19.995	103.985	19.901	4.377	0.481
105.000	144.143	80.009	19.992	103.976	19.895	4.789	0.466
112.500	147.792	80.009	19.992	103.979	19.892	5.014	0.483
120.000	151.538	80.007	19.992	103.974	19.886	5.372	0.487
127.500	155.168	80.008	19.993	103.959	19.876	6.080	0.466
135.000	158.949	80.011	19.994	103.952	19.872	6.378	0.485
142.500	162.703	80.008	19.993	103.946	19.866	6.746	0.500
150.000	166.537	80.007	19.992	103.946	19.859	7.238	0.534
157.500	170.321	80.008	19.995	103.953	19.849	7.924	0.505
165.000	174.056	80.008	19.995	103.945	19.843	8.337	0.457
172.500	177.833	80.007	19.993	103.943	19.838	8.675	0.520
180.000	181.563	80.007	19.993	103.936	19.826	9.495	0.484
187.500	185.268	80.008	19.994	103.939	19.814	10.250	0.460
195.000	189.000	80.009	19.992	103.975	19.804	10.971	0.492
202.500	192.693	80.009	19.993	103.938	19.784	12.318	0.549
210.000	196.312	80.010	19.994	103.911	19.769	13.334	0.480
217.500	199.929	80.010	19.994	103.914	19.757	14.139	0.485
225.001	203.581	80.011	19.994	103.912	19.737	15.461	0.478
232.500	207.247	80.007	19.995	103.906	19.712	17.151	0.489
240.001	210.953	80.007	19.994	103.905	19.687	18.898	0.519
247.500	214.527	80.008	19.994	103.908	19.661	20.629	0.491
255.000	218.210	80.007	19.994	103.906	19.634	22.453	0.477
262.500	221.871	80.008	19.995	103.908	19.608	24.234	0.507
270.000	225.587	80.007	19.993	103.908	19.568	26.944	0.507
277.500	229.345	80.009	19.994	103.906	19.531	29.424	0.528
285.000	233.031	80.011	19.992	103.904	19.491	32.118	0.493
292.500	236.703	80.009	19.994	103.904	19.444	35.302	0.498
300.000	240.419	80.010	19.993	103.908	19.396	38.594	0.495
307.500	244.137	80.010	19.994	103.924	19.339	42.428	0.521
315.000	247.879	80.009	19.993	103.958	19.295	45.429	0.515
322.500	251.701	80.007	19.993	103.939	19.225	50.202	0.509
330.000	255.429	80.008	19.994	103.981	19.144	55.691	0.485
337.500	259.245	80.007	19.995	104.000	19.078	60.100	0.494
345.001	263.029	80.007	19.993	103.986	19.016	64.353	0.533
352.500	266.800	80.008	19.994	103.983	18.949	68.948	0.472
360.000	270.600	80.007	19.995	103.975	18.887	73.090	0.505
367.500	274.371	80.009	19.995	104.014	18.828	77.099	0.504
375.000	278.155	80.009	19.993	103.996	18.762	81.555	0.501
382.500	281.834	80.008	19.994	104.015	18.718	84.493	0.467
390.000	285.593	80.011	19.993	103.986	18.698	85.862	0.488
397.500	289.320	80.010	19.996	103.994	18.713	84.893	0.498
405.000	293.055	80.006	19.993	104.058	18.695	85.978	0.484
412.500	296.824	80.008	19.994	103.851	18.814	77.992	0.430
420.000	300.427	80.009	19.997	103.907	19.087	59.474	0.359
427.500	304.314	80.009	19.994	103.912	19.308	44.550	0.500
435.000	308.136	80.008	19.994	103.902	19.478	33.010	0.534
442.500	311.819	80.008	19.993	103.846	19.604	24.465	0.504
450.000	315.620	80.009	19.994	103.894	19.698	18.113	0.479
457.500	319.362	80.009	19.994	103.880	19.755	14.288	0.517
465.000	323.076	80.007	19.995	103.873	19.785	12.223	0.476
472.500	326.814	80.009	19.993	103.871	19.812	10.436	0.497
480.000	330.541	80.010	19.993	103.868	19.826	9.432	0.517
487.500	334.323	80.009	19.993	103.869	19.836	8.790	0.505
495.000	338.110	80.009	19.993	103.868	19.837	8.730	0.495
502.500	341.931	80.009	19.993	103.867	19.841	8.412	0.504
510.000	345.667	80.008	19.992	103.866	19.842	8.386	0.505
517.500	349.552	80.008	19.995	103.871	19.840	8.481	0.548
525.000	353.370	80.009	19.993	103.871	19.837	8.697	0.547
532.500	357.191	80.008	19.993	103.872	19.840	8.543	0.528
540.000	361.001	80.009	19.993	103.869	19.832	9.027	0.534
547.500	364.838	80.010	19.993	103.866	19.824	9.597	0.538
555.000	368.648	80.009	19.994	103.862	19.827	9.387	0.493
562.500	372.416	80.011	19.993	103.865	19.818	10.023	0.498
570.000	376.304	80.012	19.995	103.863	19.807	10.729	0.538
577.500	380.138	80.009	19.995	103.865	19.797	11.434	0.541
585.000	383.906	80.008	19.993	103.873	19.780	12.566	0.485
592.500	387.769	80.011	19.994	103.873	19.770	13.269	0.531
600.000	391.585	80.009	19.993	103.880	19.757	14.144	0.526
607.500	395.488	80.008	19.993	103.883	19.741	15.211	0.513
615.000	399.371	80.007	19.993	103.874	19.729	16.029	0.512
622.500	403.277	80.010	19.992	103.879	19.719	16.705	0.527
630.000	407.113	80.010	19.993	103.874	19.698	18.146	0.490
637.500	411.012	80.008	19.996	103.881	19.688	18.828	0.513
645.001	414.758	80.010	19.994	103.874	19.673	19.844	0.492
652.500	418.577	80.012	19.993	103.870	19.664	20.428	0.524
660.000	422.358	80.008	19.995	103.868	19.647	21.563	0.478
667.500	426.217	80.009	19.994	103.868	19.630	22.734	0.499
675.000	430.006	80.009	19.993	103.819	19.612	23.932	0.500
682.500	433.797	80.008	19.993	103.867	19.596	24.988	0.517
690.000	437.524	80.008	19.992	103.866	19.581	26.003	0.503
697.500	441.305	80.008	19.995	103.863	19.569	26.846	0.507
705.000	445.022	80.010	19.994	103.857	19.559	27.549	0.468
712.500	448.739	80.010	19.993	103.858	19.560	27.446	0.478
720.000	452.528	80.008	19.992	103.852	19.561	27.406	0.485
727.500	456.382	80.011	19.993	103.787	19.562	27.307	0.515
735.000	460.196	80.009	19.993	103.832	19.572	26.644	0.517
742.500	464.026	80.008	19.994	103.832	19.585	25.772	0.493
750.000	467.851	80.009	19.994	103.834	19.603	24.562	0.512
757.500	471.741	80.008	19.994	103.837	19.636	22.318	0.530
765.000	475.569	80.009	19.995	103.830	19.664	20.388	0.525
772.500	479.381	80.009	19.994	103.833	19.693	18.427	0.479
780.000	483.268	80.008	19.992	103.829	19.726	16.205	0.535
787.500	486.996	80.009	19.993	103.832	19.754	14.292	0.528
795.000	490.798	80.010	19.993	103.827	19.774	12.963	0.518
802.500	494.605	80.010	19.994	103.831	19.794	11.605	0.526
810.000	498.392	80.010	19.993	103.831	19.808	10.682	0.523
817.500	502.181	80.011	19.993	103.831	19.825	9.515	0.471
825.000	505.995	80.011	19.993	103.826	19.832	9.055	0.527
832.500	509.832	80.009	19.995	103.827	19.843	8.305	0.512
840.000	513.633	80.008	19.993	103.826	19.851	7.757	0.524
847.500	517.596	80.009	19.993	103.827	19.858	7.294	0.520
855.000	521.465	80.010	19.994	103.830	19.862	7.050	0.519
862.500	525.405	80.008	19.994	103.825	19.866	6.724	0.547
870.000	529.246	80.009	19.994	103.827	19.873	6.266	0.493
877.500	533.148	80.012	19.994	103.833	19.873	6.262	0.520
885.000	537.032	80.009	19.994	103.828	19.879	5.889	0.528
892.500	540.869	80.010	19.993	103.827	19.877	5.996	0.485
900.000	544.728	80.010	19.992	103.827	19.880	5.774	0.474
907.500	548.612	80.013	19.993	103.826	19.879	5.893	0.521
915.000	552.453	80.010	19.991	103.827	19.879	5.849	0.480
922.500	556.323	80.009	19.992	103.773	19.871	6.407	0.493
930.000	560.188	80.010	19.993	103.831	19.867	6.657	0.526
937.500	563.980	80.008	19.995	103.836	19.866	6.740	0.474
945.000	567.710	80.009	19.994	103.843	19.863	6.934	0.492
952.500	571.556	80.010	19.994	103.850	19.861	7.114	0.522
960.000	575.408	80.011	19.994	103.847	19.853	7.647	0.522
967.500	579.218	80.010	19.994	103.843	19.854	7.530	0.510
975.000	583.067	80.011	19.993	103.848	19.856	7.429	0.515
982.500	586.874	80.011	19.993	103.838	19.867	6.688	0.506
990.000	590.761	80.011	19.992	103.858	19.873	6.299	0.540
997.500	594.547	80.010	19.994	103.845	19.884	5.543	0.472
1005.000	598.455	80.010	19.993	103.840	19.889	5.193	0.524
1012.500	602.252	80.009	19.991	103.833	19.896	4.752	0.530
1020.000	606.062	80.009	19.993	103.835	19.898	4.553	0.505
1027.501	609.909	80.010	19.993	103.830	19.903	4.259	0.511
1035.000	613.850	80.010	19.994	103.832	19.903	4.215	0.530
1042.500	617.724	80.010	19.994	103.839	19.904	4.182	0.504
1050.000	621.561	80.010	19.994	103.837	19.906	4.062	0.491
1057.500	625.514	80.010	19.996	103.833	19.906	4.024	0.543
1065.000	629.357	80.010	19.994	103.825	19.907	3.987	0.504
1072.500	633.311	80.012	19.993	103.839	19.909	3.846	0.539
1080.001	637.261	80.011	19.992	103.838	19.908	3.910	0.522
1087.500	641.212	80.009	19.993	103.837	19.910	3.754	0.509
1095.001	645.044	80.010	19.994	103.776	19.910	3.776	0.480
1102.501	648.980	80.010	19.993	103.828	19.912	3.628	0.514
1110.000	652.912	80.011	19.993	103.828	19.912	3.660	0.520
1117.500	656.805	80.009	19.993	103.832	19.906	4.065	0.516
1125.000	660.652	80.009	19.993	103.838	19.908	3.915	0.514
1132.500	664.514	80.012	19.992	103.834	19.910	3.771	0.515
1140.000	668.385	80.012	19.993	103.834	19.911	3.694	0.520
1147.500	672.176	80.010	19.994	103.842	19.912	3.621	0.484
1155.000	676.112	80.013	19.994	103.826	19.914	3.471	0.529
1162.501	679.930	80.013	19.994	103.828	19.920	3.125	0.513
1170.000	683.724	80.011	19.993	103.830	19.910	3.782	0.503
1177.500	687.520	80.011	19.994	103.832	19.919	3.195	0.469
1185.001	691.204	80.010	19.993	103.837	19.915	3.454	0.518
1192.500	694.986	80.009	19.993	103.831	19.918	3.217	0.523
1200.000	698.739	80.012	19.993	103.830	19.915	3.441	0.502
1207.500	702.515	80.008	19.993	103.833	19.912	3.621	0.539
1215.000	706.221	80.010	19.993	103.827	19.916	3.339	0.478
1222.500	710.020	80.011	19.994	103.826	19.916	3.364	0.473
1230.000	713.831	80.012	19.993	103.826	19.916	3.365	0.518
1237.500	717.704	80.013	19.994	103.829	19.919	3.133	0.515
1245.001	721.575	80.011	19.994	103.825	19.925	2.748	0.542
1252.501	725.397	80.010	19.993	103.827	19.924	2.814	0.519
1260.000	729.298	80.007	19.995	103.824	19.927	2.600	0.520
1267.501	733.095	80.007	19.995	103.826	19.917	3.281	0.511
1275.000	736.900	80.007	19.994	103.827	19.924	2.829	0.496
1282.501	740.687	80.008	19.994	103.821	19.920	3.125	0.485
1290.000	744.458	80.009	19.994	103.821	19.920	3.080	0.479
1291.501	745.268	80.010	19.994	103.820	19.918	3.211	0.520