File: 01_Data/Rayon_Bamboo_Pillowcase/MCC/Rayon_Bamboo_Pillowcase_MCC_30K_min_220112_R2.txt
Sample ID:	C:\MCC\MCC Cal\Test\Rayon_Bamboo_Pillowcase_MCC_30K_min_220112_R2.txt
Sample Weight (mg):	4.39
Heating Rate (C/s):	0.5
Combustor Temp (C):	900
N2 Flow Rate (cc/min):	80
O2 Flow Rate (cc/min):	20
Calibration File:	C:\MCC\MCC Cal\Coeff1 JN10440_30_210304.txt.txt
T Correction Coefficients:	0	1.024463	0
Time Shift (s):	14
*
Time (s)	Temperature (C)	N2 flow rate (cc/min)	O2 flow rate (cc/min)	Flow Rate (cc/min)	Oxygen (%)	HRR (W/g)	Heating rate (C/s)
0.000	113.940	80.009	19.995	104.058	20.048	-0.140	0.025
8.000	113.883	80.011	19.994	104.079	20.044	0.151	-0.005
16.001	113.952	80.011	19.994	104.095	20.039	0.501	0.027
24.001	114.115	80.008	19.995	104.138	20.030	1.149	0.019
32.000	114.587	80.009	19.995	104.220	20.018	2.084	0.118
40.001	115.458	80.008	19.995	104.216	20.019	1.948	0.119
48.001	116.682	80.008	19.993	104.246	20.013	2.399	0.160
56.000	118.272	80.007	19.996	104.280	20.012	2.487	0.233
64.000	120.232	80.009	19.996	104.306	20.001	3.282	0.302
72.000	122.584	80.012	19.993	104.318	19.995	3.753	0.330
80.000	125.242	80.010	19.995	104.325	19.994	3.796	0.312
88.000	128.203	80.011	19.994	104.311	19.997	3.576	0.380
96.000	131.344	80.012	19.995	104.329	19.996	3.678	0.389
104.001	134.755	80.008	19.996	104.327	19.996	3.668	0.422
112.000	138.328	80.010	19.994	104.334	19.997	3.623	0.464
119.999	142.092	80.008	19.995	104.331	19.999	3.444	0.449
128.000	146.032	80.008	19.997	104.325	19.998	3.572	0.496
135.999	149.992	80.007	19.994	104.329	19.996	3.700	0.495
144.000	154.012	80.009	19.994	104.331	19.996	3.670	0.499
152.000	158.099	80.010	19.994	104.316	19.999	3.448	0.511
159.999	162.220	80.010	19.995	104.299	19.998	3.506	0.505
168.000	166.333	80.009	19.993	104.293	20.002	3.204	0.518
176.000	170.453	80.011	19.993	104.294	20.007	2.839	0.513
184.000	174.511	80.011	19.995	104.291	20.010	2.610	0.515
192.000	178.581	80.009	19.995	104.285	20.011	2.608	0.493
200.000	182.579	80.009	19.994	104.272	20.009	2.714	0.506
208.000	186.596	80.010	19.995	104.270	20.013	2.396	0.495
215.999	190.537	80.007	19.994	104.277	20.011	2.551	0.476
224.001	194.454	80.008	19.995	104.260	20.015	2.309	0.485
232.000	198.342	80.010	19.995	104.272	20.016	2.179	0.473
240.000	202.265	80.012	19.993	104.293	20.006	2.931	0.481
248.000	206.239	80.011	19.993	104.268	20.005	2.983	0.504
256.000	210.294	80.010	19.994	104.284	20.007	2.897	0.495
264.000	214.369	80.011	19.993	104.269	20.011	2.563	0.516
272.000	218.474	80.010	19.994	104.268	20.007	2.869	0.489
280.000	222.596	80.010	19.994	104.263	20.007	2.887	0.523
288.000	226.725	80.009	19.994	104.258	20.001	3.285	0.486
296.000	230.829	80.008	19.994	104.255	19.996	3.658	0.515
304.000	234.860	80.008	19.994	104.265	19.992	3.979	0.512
312.000	238.805	80.008	19.995	104.259	19.985	4.467	0.489
320.000	242.730	80.008	19.996	104.259	19.973	5.377	0.511
328.000	246.587	80.009	19.995	104.279	19.956	6.624	0.485
336.000	250.559	80.011	19.993	104.289	19.935	8.237	0.539
344.000	254.359	80.013	19.994	104.302	19.902	10.637	0.503
352.000	258.188	80.007	19.993	104.335	19.858	13.960	0.475
360.001	262.044	80.009	19.993	104.370	19.800	18.247	0.478
367.999	265.953	80.009	19.993	104.374	19.729	23.507	0.504
376.000	269.892	80.010	19.994	104.411	19.661	28.515	0.526
383.999	273.935	80.009	19.995	104.413	19.599	33.121	0.511
392.000	277.890	80.010	19.994	104.426	19.545	37.163	0.516
400.000	281.911	80.011	19.995	104.440	19.500	40.492	0.518
408.000	285.905	80.011	19.995	104.452	19.467	42.978	0.534
416.000	289.944	80.010	19.995	104.466	19.426	46.003	0.514
424.000	294.032	80.011	19.994	104.490	19.382	49.327	0.504
432.000	298.094	80.010	19.993	104.523	19.337	52.670	0.491
440.000	302.142	80.008	19.994	104.546	19.278	57.028	0.518
448.000	306.165	80.010	19.993	104.566	19.216	61.683	0.499
456.000	310.197	80.010	19.993	104.581	19.157	66.040	0.503
464.000	314.295	80.008	19.993	104.599	19.102	70.191	0.513
472.000	318.328	80.007	19.994	104.608	19.053	73.771	0.484
480.000	322.313	80.010	19.993	104.609	19.013	76.748	0.481
488.000	326.292	80.010	19.995	104.610	18.994	78.195	0.479
496.001	330.280	80.009	19.994	104.586	18.998	77.853	0.518
504.000	334.194	80.011	19.995	104.556	19.046	74.195	0.487
512.000	338.089	80.010	19.994	104.488	19.140	67.211	0.490
520.000	341.973	80.009	19.994	104.423	19.274	57.250	0.481
528.000	345.854	80.009	19.994	104.374	19.439	44.970	0.480
536.000	349.854	80.009	19.995	104.301	19.600	33.004	0.502
544.000	353.942	80.009	19.994	104.259	19.743	22.437	0.542
552.000	357.971	80.009	19.994	104.257	19.850	14.533	0.502
560.000	362.162	80.011	19.993	104.247	19.912	9.938	0.501
568.000	366.297	80.011	19.994	104.249	19.944	7.506	0.502
576.000	370.463	80.009	19.994	104.238	19.961	6.257	0.524
584.000	374.639	80.012	19.994	104.232	19.974	5.339	0.512
592.000	378.801	80.013	19.993	104.224	19.978	5.034	0.524
599.999	382.919	80.009	19.995	104.228	19.985	4.500	0.516
608.000	386.975	80.009	19.995	104.218	19.988	4.300	0.531
616.000	391.054	80.010	19.994	104.223	19.989	4.184	0.487
623.999	395.181	80.010	19.994	104.225	19.993	3.868	0.519
631.999	399.293	80.008	19.994	104.226	19.994	3.794	0.496
640.001	403.384	80.010	19.994	104.217	19.997	3.621	0.525
647.999	407.451	80.010	19.994	104.220	20.000	3.403	0.515
656.000	411.597	80.009	19.993	104.165	19.999	3.480	0.544
664.000	415.598	80.011	19.994	104.214	19.998	3.515	0.530
672.000	419.667	80.011	19.995	104.211	19.998	3.520	0.511
680.001	423.736	80.010	19.995	104.215	19.998	3.513	0.525
688.000	427.765	80.009	19.995	104.212	19.999	3.426	0.520
696.000	431.785	80.009	19.994	104.215	20.000	3.388	0.473
704.000	435.890	80.011	19.996	104.212	19.999	3.431	0.513
711.999	439.916	80.009	19.994	104.191	20.004	3.114	0.503
720.000	443.840	80.009	19.995	104.192	20.000	3.376	0.479
728.001	447.738	80.011	19.994	104.193	20.003	3.199	0.517
736.001	451.620	80.011	19.994	104.188	20.005	3.014	0.515
744.000	455.556	80.010	19.994	104.198	20.003	3.185	0.481
752.000	459.535	80.011	19.994	104.198	20.004	3.081	0.475
760.000	463.537	80.008	19.994	104.181	20.005	3.038	0.476
768.000	467.583	80.009	19.995	104.207	20.009	2.716	0.548
776.000	471.772	80.008	19.996	104.207	20.018	2.086	0.505
784.000	475.930	80.010	19.995	104.150	20.016	2.165	0.722
792.000	480.089	80.009	19.996	104.200	20.022	1.747	0.488
800.000	484.313	80.011	19.996	104.191	20.022	1.722	0.520
808.000	488.503	80.011	19.994	104.193	20.023	1.651	0.504
815.999	492.608	80.010	19.994	104.197	20.024	1.590	0.518
824.001	496.800	80.011	19.994	104.182	20.024	1.609	0.499
832.000	500.827	80.013	19.994	104.194	20.027	1.415	0.509
840.000	504.820	80.012	19.995	104.190	20.031	1.079	0.505
848.000	508.850	80.010	19.996	104.185	20.031	1.075	0.493
856.000	512.839	80.010	19.994	104.179	20.032	0.996	0.500
864.000	516.906	80.009	19.995	104.179	20.033	0.937	0.493
871.999	521.004	80.009	19.995	104.194	20.037	0.633	0.530
880.000	525.058	80.008	19.996	104.188	20.036	0.749	0.481
888.000	529.156	80.011	19.996	104.183	20.034	0.849	0.519
896.000	533.239	80.011	19.994	104.187	20.036	0.733	0.520
903.999	537.339	80.011	19.995	104.184	20.036	0.692	0.509
912.000	541.405	80.012	19.993	104.175	20.037	0.633	0.475
920.000	545.407	80.011	19.994	104.201	20.037	0.629	0.504
928.000	549.517	80.011	19.994	104.185	20.038	0.548	0.503
936.000	553.639	80.010	19.995	104.183	20.037	0.615	0.540
944.000	557.686	80.009	19.994	104.188	20.037	0.637	0.514
952.000	561.653	80.008	19.995	104.184	20.043	0.200	0.480
960.000	565.545	80.009	19.995	104.202	20.040	0.405	0.511
967.999	569.495	80.009	19.996	104.187	20.040	0.413	0.473
976.000	573.463	80.009	19.997	104.185	20.040	0.391	0.470
984.000	577.546	80.009	19.996	104.200	20.039	0.501	0.535
991.999	581.671	80.012	19.993	104.187	20.039	0.529	0.533
999.999	585.781	80.013	19.993	104.178	20.041	0.385	0.489
1008.000	589.912	80.009	19.993	104.179	20.042	0.305	0.480
1016.000	594.111	80.010	19.994	104.179	20.045	0.065	0.512
1024.000	598.265	80.009	19.993	104.186	20.040	0.399	0.510
1032.000	602.412	80.010	19.994	104.182	20.044	0.104	0.493
1040.000	606.507	80.009	19.996	104.184	20.044	0.110	0.526
1048.000	610.631	80.010	19.994	104.179	20.045	0.061	0.521
1056.000	614.727	80.012	19.994	104.175	20.046	0.006	0.487
1064.000	618.852	80.010	19.995	104.176	20.044	0.096	0.547
1071.999	622.870	80.009	19.995	104.179	20.045	0.067	0.490
1080.000	626.894	80.012	19.994	104.178	20.040	0.411	0.492
1087.999	630.936	80.009	19.994	104.178	20.043	0.228	0.510
1096.000	635.007	80.008	19.994	104.178	20.045	0.079	0.532
1104.000	639.061	80.010	19.996	104.174	20.046	0.014	0.499
1111.999	643.089	80.009	19.993	104.175	20.045	0.029	0.520
1120.000	647.143	80.009	19.994	104.179	20.045	0.039	0.529
1128.000	651.308	80.012	19.994	104.177	20.044	0.106	0.499
1136.000	655.528	80.011	19.994	104.181	20.043	0.216	0.539
1143.999	659.675	80.010	19.994	104.173	20.048	-0.157	0.530
1152.000	663.841	80.010	19.995	104.177	20.049	-0.234	0.518
1159.999	667.972	80.013	19.994	104.174	20.052	-0.438	0.522
1168.000	672.140	80.008	19.994	104.172	20.047	-0.061	0.535
1175.999	676.436	80.009	19.995	104.169	20.045	0.045	0.547
1184.000	680.652	80.010	19.993	104.172	20.049	-0.261	0.526
1192.001	684.807	80.010	19.993	104.172	20.041	0.334	0.497
1199.999	688.851	80.007	19.993	104.177	20.049	-0.279	0.477
1208.000	692.783	80.009	19.995	104.179	20.044	0.118	0.461
1215.999	696.809	80.011	19.994	104.171	20.044	0.130	0.500
1224.001	700.635	80.010	19.994	104.169	20.048	-0.183	0.476
1232.001	704.427	80.009	19.995	104.174	20.046	-0.033	0.494
1240.001	708.270	80.011	19.994	104.172	20.047	-0.073	0.476
1248.001	712.182	80.010	19.994	104.174	20.046	-0.016	0.490
1256.000	716.182	80.009	19.996	104.175	20.047	-0.071	0.515
1264.000	720.284	80.008	19.995	104.163	20.049	-0.275	0.524
1272.000	724.477	80.009	19.995	104.175	20.045	0.049	0.552
1280.000	728.780	80.010	19.993	104.186	20.042	0.273	0.547
1288.000	733.025	80.008	19.994	104.179	20.046	0.004	0.520
1296.000	737.328	80.011	19.995	104.177	20.049	-0.214	0.545
1304.000	741.609	80.010	19.993	104.178	20.045	0.037	0.560
1307.500	743.455	80.010	19.994	104.175	20.048	-0.204	0.525