File: 01_Data/Rayon_Bamboo_Pillowcase/MCC/Rayon_Bamboo_Pillowcase_MCC_30K_min_220110_R1.txt
Sample ID:	C:\MCC\MCC Cal\Test\Rayon_Bamboo_Pillowcase_MCC_30K_min_220110_R1.txt
Sample Weight (mg):	4.93
Heating Rate (C/s):	0.5
Combustor Temp (C):	900
N2 Flow Rate (cc/min):	80
O2 Flow Rate (cc/min):	20
Calibration File:	C:\MCC\MCC Cal\Coeff1 JN10440_30_210304.txt.txt
T Correction Coefficients:	0	1.024463	0
Time Shift (s):	14
*
Time (s)	Temperature (C)	N2 flow rate (cc/min)	O2 flow rate (cc/min)	Flow Rate (cc/min)	Oxygen (%)	HRR (W/g)	Heating rate (C/s)
0.000	111.446	80.001	19.993	103.990	20.213	-0.096	0.006
8.000	111.422	80.004	19.992	104.001	20.214	-0.141	-0.010
16.000	111.444	80.002	19.993	103.993	20.211	0.058	-0.014
24.000	111.591	80.001	19.995	104.132	20.188	1.584	0.053
32.000	112.163	80.002	19.993	104.214	20.174	2.487	0.099
40.000	113.348	80.003	19.994	104.223	20.166	3.024	0.169
48.000	115.049	80.001	19.995	104.224	20.165	3.052	0.206
56.000	117.113	80.001	19.995	104.244	20.166	3.018	0.273
64.001	119.502	80.003	19.993	104.265	20.160	3.428	0.332
72.001	122.246	80.003	19.994	104.258	20.161	3.371	0.321
80.001	125.205	80.001	19.993	104.260	20.157	3.597	0.377
88.001	128.389	80.002	19.993	104.263	20.157	3.640	0.411
96.001	131.734	80.003	19.994	104.263	20.157	3.606	0.434
104.001	135.228	80.002	19.994	104.263	20.157	3.617	0.448
112.001	138.889	80.002	19.994	104.250	20.155	3.752	0.447
120.001	142.645	80.002	19.993	104.260	20.157	3.608	0.442
128.000	146.587	80.000	19.993	104.263	20.155	3.747	0.498
136.000	150.527	80.000	19.995	104.266	20.153	3.904	0.458
144.000	154.462	80.003	19.995	104.255	20.156	3.691	0.459
152.000	158.487	80.003	19.994	104.261	20.157	3.632	0.500
160.000	162.518	80.002	19.995	104.254	20.158	3.527	0.488
168.000	166.595	80.005	19.994	104.226	20.154	3.831	0.488
176.001	170.661	80.005	19.993	104.225	20.157	3.582	0.498
184.000	174.693	80.003	19.993	104.253	20.159	3.479	0.547
192.000	178.686	80.002	19.994	104.225	20.163	3.180	0.505
200.001	182.697	80.001	19.995	104.203	20.160	3.427	0.503
208.000	186.688	80.000	19.994	104.228	20.157	3.573	0.504
216.000	190.633	80.001	19.993	104.233	20.160	3.393	0.490
224.000	194.627	80.002	19.994	104.200	20.160	3.418	0.508
232.000	198.506	80.003	19.994	104.210	20.159	3.474	0.496
240.000	202.446	80.002	19.994	104.200	20.160	3.411	0.478
248.000	206.402	80.003	19.993	104.211	20.158	3.572	0.489
256.000	210.313	80.004	19.993	104.208	20.160	3.412	0.482
264.000	214.302	80.001	19.994	104.201	20.157	3.628	0.478
272.000	218.290	80.002	19.994	104.216	20.155	3.767	0.515
280.000	222.228	80.003	19.993	104.217	20.154	3.776	0.492
288.000	226.226	80.001	19.993	104.222	20.147	4.253	0.495
296.001	230.221	80.001	19.996	104.213	20.142	4.625	0.490
304.000	234.249	80.001	19.995	104.215	20.132	5.258	0.516
312.000	238.294	80.002	19.994	104.213	20.126	5.640	0.521
320.000	242.264	80.001	19.995	104.223	20.113	6.529	0.496
328.001	246.325	80.002	19.994	104.237	20.097	7.540	0.505
336.000	250.409	80.003	19.994	104.237	20.072	9.207	0.522
344.000	254.460	80.001	19.995	104.261	20.035	11.668	0.507
352.000	258.450	80.001	19.994	104.279	19.987	14.800	0.462
360.001	262.421	80.003	19.995	104.291	19.921	19.196	0.475
368.000	266.414	80.003	19.992	104.339	19.840	24.555	0.492
376.000	270.390	80.002	19.995	104.341	19.760	29.852	0.508
384.000	274.385	80.002	19.994	104.362	19.692	34.324	0.473
392.001	278.357	80.002	19.995	104.379	19.636	38.016	0.492
400.000	282.358	80.002	19.996	104.392	19.586	41.374	0.524
408.000	286.341	80.002	19.994	104.428	19.545	44.069	0.474
416.000	290.398	80.004	19.996	104.414	19.502	46.940	0.517
424.000	294.441	80.001	19.996	104.464	19.456	49.973	0.504
432.000	298.508	80.001	19.995	104.462	19.403	53.465	0.529
440.000	302.496	80.003	19.993	104.484	19.340	57.637	0.498
448.000	306.501	80.002	19.993	104.517	19.278	61.748	0.504
456.001	310.476	80.001	19.993	104.524	19.217	65.846	0.477
464.001	314.511	80.000	19.994	104.557	19.164	69.361	0.462
472.001	318.492	80.002	19.993	104.587	19.115	72.593	0.490
480.001	322.495	80.002	19.994	104.573	19.071	75.499	0.505
488.001	326.516	80.004	19.993	104.572	19.043	77.286	0.507
496.000	330.505	80.004	19.996	104.552	19.035	77.867	0.470
504.000	334.543	80.001	19.995	104.525	19.065	75.776	0.502
512.001	338.560	80.001	19.996	104.470	19.143	70.556	0.497
520.001	342.611	80.003	19.994	104.396	19.274	61.913	0.537
528.000	346.641	80.003	19.994	104.326	19.445	50.600	0.494
536.001	350.681	80.001	19.995	104.244	19.634	38.104	0.502
544.000	354.781	80.002	19.993	104.202	19.800	27.110	0.547
552.001	358.846	80.005	19.994	104.198	19.930	18.593	0.476
560.000	362.894	80.003	19.993	104.155	20.009	13.369	0.512
568.001	366.962	80.002	19.993	104.171	20.053	10.486	0.508
576.000	371.016	80.003	19.995	104.160	20.078	8.781	0.510
584.000	375.045	80.002	19.994	104.157	20.092	7.899	0.488
592.001	379.093	80.000	19.995	104.156	20.094	7.731	0.498
600.000	383.081	80.002	19.994	104.164	20.101	7.300	0.509
608.001	387.061	80.000	19.994	104.155	20.104	7.123	0.465
616.000	391.128	80.001	19.994	104.147	20.111	6.654	0.511
624.000	395.139	80.002	19.993	104.126	20.110	6.683	0.467
632.000	399.154	80.003	19.994	104.146	20.115	6.346	0.502
640.001	403.155	80.001	19.994	104.146	20.116	6.297	0.496
648.000	407.125	80.002	19.993	104.135	20.118	6.143	0.507
656.000	411.174	80.005	19.993	104.146	20.119	6.138	0.518
664.000	415.181	80.002	19.995	104.143	20.121	5.975	0.506
672.000	419.270	80.000	19.995	104.148	20.123	5.862	0.487
680.001	423.332	80.002	19.992	104.144	20.122	5.913	0.488
688.000	427.403	80.001	19.995	104.116	20.116	6.284	0.480
696.000	431.509	80.002	19.996	104.153	20.125	5.742	0.518
704.000	435.644	80.002	19.995	104.141	20.118	6.176	0.532
712.000	439.719	80.004	19.993	104.126	20.123	5.844	0.487
720.000	443.794	80.003	19.993	104.139	20.125	5.705	0.515
728.000	447.785	80.003	19.994	104.124	20.125	5.745	0.486
736.000	451.826	80.005	19.994	104.113	20.124	5.778	0.512
744.001	455.774	80.002	19.993	104.128	20.125	5.681	0.512
752.000	459.804	80.002	19.994	104.112	20.128	5.493	0.512
760.000	463.768	80.002	19.993	104.150	20.131	5.320	0.502
768.000	467.825	80.001	19.995	104.115	20.137	4.921	0.514
776.000	471.837	80.002	19.996	104.130	20.135	5.025	0.473
784.000	475.964	80.000	19.994	104.144	20.140	4.743	0.487
792.000	479.988	80.004	19.995	104.134	20.143	4.540	0.528
800.000	484.006	80.002	19.993	104.127	20.139	4.797	0.495
808.000	488.044	80.003	19.994	104.110	20.141	4.646	0.503
816.001	492.037	80.006	19.994	104.106	20.143	4.556	0.484
824.000	496.112	80.002	19.995	104.124	20.141	4.666	0.497
832.000	500.185	80.002	19.993	104.108	20.148	4.211	0.516
840.001	504.216	80.001	19.993	104.116	20.146	4.343	0.507
848.000	508.330	80.000	19.994	104.114	20.146	4.327	0.527
856.000	512.370	80.002	19.995	104.113	20.150	4.077	0.493
864.000	516.538	80.001	19.996	104.116	20.154	3.772	0.541
872.000	520.637	80.003	19.995	104.103	20.152	3.913	0.523
880.000	524.721	80.003	19.994	104.101	20.151	4.014	0.505
888.000	528.810	80.003	19.994	104.105	20.151	3.972	0.513
896.000	532.884	80.004	19.993	104.107	20.152	3.916	0.468
904.000	536.978	80.003	19.994	104.099	20.149	4.099	0.513
912.000	540.956	80.001	19.995	104.110	20.152	3.920	0.495
920.000	544.896	80.003	19.995	104.122	20.155	3.707	0.499
928.000	548.921	80.003	19.995	104.092	20.151	4.028	0.480
936.000	552.904	80.004	19.995	104.102	20.155	3.718	0.472
944.000	556.892	80.003	19.994	104.099	20.151	3.985	0.514
952.000	560.887	80.004	19.994	104.087	20.152	3.940	0.502
960.000	564.818	80.004	19.994	104.104	20.153	3.850	0.500
968.000	568.905	79.999	19.995	104.102	20.149	4.103	0.537
976.001	573.049	80.003	19.994	104.128	20.149	4.149	0.501
984.000	577.287	80.005	19.994	104.090	20.149	4.135	0.524
992.000	581.553	80.003	19.995	104.125	20.152	3.958	0.544
1000.000	585.841	80.002	19.994	104.127	20.152	3.908	0.541
1008.000	590.062	80.003	19.994	104.105	20.152	3.927	0.521
1016.000	594.340	80.000	19.994	104.101	20.150	4.071	0.540
1024.001	598.625	80.002	19.994	104.094	20.150	4.043	0.518
1032.000	602.774	80.001	19.995	104.084	20.146	4.332	0.478
1040.000	606.981	80.005	19.994	104.105	20.150	4.084	0.488
1048.000	611.251	80.003	19.994	104.102	20.146	4.348	0.547
1056.001	615.550	80.003	19.994	104.102	20.147	4.234	0.549
1064.001	619.792	80.004	19.995	104.099	20.151	3.981	0.551
1072.001	624.011	80.003	19.994	104.098	20.148	4.188	0.538
1080.000	628.082	80.002	19.993	104.091	20.153	3.853	0.505
1088.001	632.158	80.003	19.993	104.071	20.149	4.129	0.492
1096.000	636.226	80.001	19.994	104.091	20.146	4.355	0.498
1104.001	640.203	80.001	19.995	104.101	20.150	4.047	0.521
1112.001	644.232	80.003	19.995	104.078	20.147	4.239	0.506
1120.000	648.340	80.002	19.994	104.095	20.150	4.091	0.528
1128.000	652.421	80.005	19.994	104.099	20.149	4.135	0.500
1136.000	656.492	80.004	19.994	104.071	20.148	4.201	0.497
1144.001	660.506	80.005	19.994	104.078	20.147	4.286	0.508
1152.001	664.533	80.003	19.995	104.091	20.145	4.376	0.522
1160.000	668.477	80.002	19.994	104.085	20.141	4.672	0.504
1168.000	672.350	80.003	19.993	104.100	20.147	4.229	0.498
1176.001	676.314	80.001	19.994	104.065	20.146	4.319	0.500
1184.001	680.220	80.001	19.993	104.092	20.148	4.186	0.497
1192.001	684.169	80.004	19.993	104.063	20.137	4.903	0.496
1200.001	688.407	80.003	19.993	104.104	20.151	4.030	0.573
1208.001	692.591	80.004	19.994	104.098	20.143	4.542	0.539
1216.001	696.859	80.004	19.994	104.101	20.142	4.568	0.554
1224.001	701.036	80.005	19.993	104.079	20.138	4.855	0.530
1232.001	705.203	80.003	19.995	104.095	20.141	4.624	0.510
1240.001	709.295	80.001	19.996	104.063	20.149	4.101	0.498
1248.001	713.237	80.003	19.994	104.066	20.145	4.392	0.489
1256.000	717.254	80.004	19.994	104.071	20.144	4.457	0.482
1264.000	721.199	80.004	19.996	104.085	20.148	4.219	0.496
1272.000	725.031	80.004	19.996	104.077	20.149	4.137	0.496
1280.001	728.940	80.003	19.996	104.078	20.147	4.285	0.498
1288.001	732.887	80.002	19.994	104.078	20.145	4.410	0.489
1296.000	736.776	80.005	19.994	104.080	20.139	4.784	0.504
1304.001	740.742	80.004	19.994	104.072	20.137	4.952	0.492
1309.001	743.338	80.001	19.994	104.076	20.143	4.511	0.515