File: 01_Data/Particleboard/STA/N2/10K_min/Particleboard_STA_N2_10KData_220419_R2.csv
##Temp./Â°C,Time/min,Mass loss(subtr.2)/mg,DSC(subtr.2)/(mW/mg),Sensit./(uV/mW)
49.692,10.00917,0.01272,-0.003956713,1.06052
52.992,11.3401,0.01893535,0.10623,1.05983
56.292,11.80078,0.01624948,0.15887,1.05913
59.592,12.1956,0.01980762,0.18902,1.0584
62.892,12.56846,0.01619367,0.20885,1.05765
66.192,12.93014,0.01602729,0.22441,1.05689
69.492,13.2848,0.01760171,0.23649,1.0561
72.792,13.6349,0.01453283,0.24818,1.05529
76.092,13.981,0.01667569,0.26052,1.05447
79.392,14.3226,0.01435984,0.27099,1.05362
82.692,14.6626,0.01254628,0.27958,1.05275
85.992,14.99802,0.01282992,0.28091,1.05187
89.292,15.3306,0.01239001,0.28112,1.05096
92.592,15.66,0.01106993,0.27954,1.05004
95.892,15.98744,0.009868515,0.27785,1.04909
99.192,16.31361,0.00624183,0.2754,1.04813
102.492,16.63791,0.0098546,0.27186,1.04715
105.792,16.96235,0.005392565,0.27085,1.04614
109.092,17.28531,0.01073905,0.26944,1.04512
112.392,17.608,0.006179483,0.27206,1.04408
115.692,17.9302,0.006801435,0.27361,1.04303
118.992,18.25264,0.00551176,0.27369,1.04195
122.292,18.57311,0.00417,0.28018,1.04085
125.592,18.89272,0.005479943,0.28305,1.03974
128.892,19.2137,0.00581371,0.28551,1.0386
132.192,19.53286,0.008057836,0.28608,1.03745
135.492,19.85117,0.006082645,0.29018,1.03628
138.792,20.1706,0.006537586,0.29334,1.0351
142.092,20.489,0.007133254,0.29571,1.03389
145.392,20.8075,0.007245572,0.29895,1.03267
148.692,21.1254,0.005700099,0.30547,1.03142
151.992,21.44249,0.00569991,0.31286,1.03016
155.292,21.7593,-0.00219454,0.32222,1.02889
158.592,22.07636,0.0004156443,0.32874,1.02759
161.892,22.39239,0.00178873,0.34231,1.02628
165.192,22.7086,-0.004363288,0.35585,1.02495
168.492,23.02445,-0.00340164,0.36766,1.0236
171.792,23.34023,-0.007336111,0.38645,1.02224
175.092,23.65429,-0.00735,0.39984,1.02086
178.392,23.97041,-0.00845829,0.41374,1.01946
181.692,24.28677,-0.01392328,0.43592,1.01805
184.992,24.60163,-0.01586212,0.45256,1.01661
188.292,24.91715,-0.02159587,0.46936,1.01517
191.592,25.23206,-0.02923293,0.48807,1.0137
194.892,25.54672,-0.03502485,0.50424,1.01222
198.192,25.8616,-0.0412744,0.5145,1.01072
201.492,26.17705,-0.04727879,0.52581,1.00921
204.792,26.49291,-0.05247192,0.5312,1.00768
208.092,26.80813,-0.06194521,0.53681,1.00613
211.392,27.1228,-0.0688708,0.53976,1.00457
214.692,27.438,-0.07522933,0.53638,1.00299
217.992,27.75188,-0.08710025,0.53431,1.0014
221.292,28.06672,-0.09632977,0.53297,0.99979
224.592,28.38072,-0.10443,0.53286,0.99816
227.892,28.69397,-0.11264,0.53283,0.99652
231.192,29.0098,-0.13323,0.53417,0.99487
234.492,29.32408,-0.13941,0.53168,0.99319
237.792,29.6384,-0.15128,0.53187,0.99151
241.092,29.95435,-0.16455,0.52604,0.98981
244.392,30.26973,-0.18141,0.52451,0.98809
247.692,30.5846,-0.1981,0.52179,0.98636
250.992,30.89948,-0.21401,0.52201,0.98462
254.292,31.21401,-0.23051,0.52077,0.98286
257.592,31.5289,-0.24896,0.52085,0.98108
260.892,31.843,-0.27023,0.52062,0.97929
264.192,32.15837,-0.29371,0.51882,0.97749
267.492,32.47267,-0.32297,0.51265,0.97567
270.792,32.78782,-0.35099,0.50727,0.97384
274.092,33.1017,-0.38519,0.49629,0.972
277.392,33.41706,-0.41945,0.48024,0.97014
280.692,33.73215,-0.45367,0.45774,0.96826
283.992,34.04926,-0.49755,0.43478,0.96638
287.292,34.36452,-0.53433,0.41039,0.96448
290.592,34.68027,-0.58544,0.39315,0.96256
293.892,34.99532,-0.63158,0.38077,0.96064
297.192,35.3112,-0.68236,0.37352,0.9587
300.492,35.6265,-0.73867,0.36601,0.95675
303.792,35.94311,-0.7994,0.36549,0.95478
307.092,36.2593,-0.86414,0.36534,0.9528
310.392,36.5762,-0.92906,0.36827,0.95081
313.692,36.8928,-0.99816,0.37203,0.94881
316.992,37.2093,-1.07923,0.37471,0.94679
320.292,37.52621,-1.16458,0.37976,0.94476
323.592,37.84325,-1.25086,0.38467,0.94272
326.892,38.16072,-1.34466,0.39059,0.94067
330.192,38.4777,-1.44405,0.39206,0.9386
333.492,38.79465,-1.55946,0.39152,0.93653
336.792,39.11208,-1.66661,0.38106,0.93444
340.092,39.4303,-1.77208,0.36242,0.93234
343.392,39.7492,-1.88442,0.3377,0.93022
346.692,40.06642,-1.99178,0.30081,0.9281
349.992,40.38615,-2.08639,0.25187,0.92596
353.292,40.70489,-2.17624,0.19977,0.92382
356.592,41.02412,-2.24852,0.14714,0.92166
359.892,41.34373,-2.30972,0.09952214,0.91949
363.192,41.66328,-2.35498,0.05995495,0.91731
366.492,41.98292,-2.39474,0.02859568,0.91512
369.792,42.30166,-2.41886,0.0040786,0.91292
373.092,42.6218,-2.44348,-0.01414778,0.91071
376.392,42.94186,-2.45599,-0.02681743,0.90848
379.692,43.26215,-2.47003,-0.03399095,0.90625
382.992,43.58276,-2.48297,-0.03421256,0.90401
386.292,43.903,-2.49545,-0.0376673,0.90175
389.592,44.22298,-2.50949,-0.0401559,0.89949
392.892,44.5437,-2.51611,-0.04085052,0.89721
396.192,44.86488,-2.53212,-0.04509598,0.89493
399.492,45.18615,-2.5409,-0.05252405,0.89264
402.792,45.50716,-2.55027,-0.050408,0.89033
406.092,45.8294,-2.56108,-0.04448962,0.88802
409.392,46.1516,-2.56854,-0.04032722,0.8857
412.692,46.47412,-2.57877,-0.03573622,0.88336
415.992,46.79585,-2.58914,-0.03293241,0.88102
419.292,47.11758,-2.60275,-0.02834057,0.87867
422.592,47.4384,-2.60922,-0.02895851,0.87631
425.892,47.76189,-2.62567,-0.02388847,0.87394
429.192,48.0877,-2.62886,-0.02064847,0.87157
432.492,48.411,-2.63869,-0.0156652,0.86918
435.792,48.735,-2.65104,-0.01137096,0.86679
439.092,49.0589,-2.65486,-0.006901959,0.86438
442.392,49.3825,-2.66101,-0.00489107,0.86197
445.692,49.70633,-2.67084,0.0004440214,0.85955
448.992,50.02864,-2.67629,0.003750547,0.85712
452.292,50.35314,-2.68523,0.00635082,0.85469
455.592,50.6783,-2.69223,0.006489744,0.85224
458.892,51.00293,-2.69762,0.008578945,0.84979
462.192,51.3266,-2.70179,0.008681314,0.84733
465.492,51.65125,-2.70781,0.008756732,0.84486
468.792,51.97575,-2.71435,0.006693959,0.84238
472.092,52.30118,-2.72395,0.01039922,0.8399
475.392,52.6259,-2.72524,0.004384527,0.83741
478.692,52.9505,-2.73054,0.004906219,0.83491
481.992,53.2769,-2.7336,0.0003169117,0.83241
485.292,53.6038,-2.74241,0.00169777,0.82989
488.592,53.93036,-2.74271,-0.004011789,0.82738
491.892,54.2555,-2.74766,-0.00602844,0.82485
495.192,54.58256,-2.75752,-0.00782967,0.82232
498.492,54.90897,-2.75619,-0.008611075,0.81978
501.792,55.23571,-2.75833,-0.01402483,0.81723
505.092,55.56345,-2.76658,-0.01222375,0.81468
508.392,55.8901,-2.77098,-0.002832402,0.81212
511.692,56.21545,-2.77265,0.000430128,0.80955
514.992,56.54156,-2.77539,0.004266182,0.80698
518.292,56.86821,-2.77868,0.0044286,0.8044
521.592,57.1941,-2.78236,0.00499648,0.80182
524.892,57.52299,-2.78098,0.003165755,0.79923
528.192,57.85069,-2.78824,-0.001110789,0.79664
531.492,58.17841,-2.79164,-0.00208968,0.79403
534.792,58.50575,-2.7898,-0.005317803,0.79143
538.092,58.83282,-2.79467,-0.009602336,0.78882
541.392,59.16075,-2.80149,-0.008943811,0.7862
544.692,59.48916,-2.80412,-0.02239502,0.78358
547.992,59.81743,-2.80555,-0.02602839,0.78095
551.292,60.146,-2.80514,-0.03113228,0.77831
554.592,60.4748,-2.81299,-0.03443181,0.77568
557.892,60.80424,-2.81301,-0.04015137,0.77303
561.192,61.133,-2.81633,-0.04055324,0.77038
564.492,61.4633,-2.81771,-0.0443739,0.76773
567.792,61.7931,-2.82411,-0.04901056,0.76508
571.092,62.12185,-2.82136,-0.0471571,0.76241
574.392,62.4505,-2.82414,-0.04990419,0.75975
577.692,62.7812,-2.83386,-0.05352752,0.75708
580.992,63.1109,-2.82845,-0.05404047,0.7544
584.292,63.44149,-2.8298,-0.05577341,0.75172
587.592,63.77175,-2.83542,-0.05713786,0.74904
590.892,64.103,-2.83212,-0.05733237,0.74635
594.192,64.43326,-2.84053,-0.05843546,0.74366
597.492,64.76355,-2.84017,-0.06030895,0.74097
600.792,65.09323,-2.8412,-0.05799136,0.73827
604.092,65.42405,-2.84958,-0.05516957,0.73557
607.392,65.75564,-2.84717,-0.05593776,0.73286
610.692,66.0873,-2.84598,-0.05962777,0.73016
613.992,66.41892,-2.84711,-0.06159509,0.72744
617.292,66.75013,-2.84965,-0.0609591,0.72473
620.592,67.08195,-2.8524,-0.06026703,0.72201
623.892,67.4128,-2.85675,-0.05726599,0.71929
627.192,67.74391,-2.85741,-0.05795153,0.71657
630.492,68.07477,-2.85891,-0.05161076,0.71384
633.792,68.40524,-2.85272,-0.05450198,0.71111
637.092,68.7359,-2.86058,-0.04848971,0.70838
640.392,69.0673,-2.85952,-0.04557447,0.70564
643.692,69.39796,-2.87181,-0.03890532,0.70291
646.992,69.7299,-2.86456,-0.03901407,0.70017
650.292,70.06155,-2.86587,-0.03809189,0.69743
653.592,70.3934,-2.87291,-0.03418363,0.69468
656.892,70.7256,-2.87088,-0.03288288,0.69194
660.192,71.05815,-2.87147,-0.0292777,0.68919
663.492,71.38993,-2.86517,-0.02544827,0.68644
666.792,71.7218,-2.86694,-0.01729622,0.68369
670.092,72.0531,-2.87517,-0.01126678,0.68093
673.392,72.3844,-2.87348,-0.001978282,0.67818
676.692,72.71728,-2.88035,-0.003378835,0.67542
679.992,73.04785,-2.8768,0.0008543598,0.67266
683.292,73.38067,-2.88236,0.01049742,0.6699
686.592,73.71432,-2.87625,0.009290264,0.66714
689.892,74.04781,-2.88192,0.01001732,0.66438
693.192,74.37992,-2.88535,0.01339581,0.66162
696.492,74.71382,-2.88413,0.01654016,0.65886
699.792,75.04725,-2.88957,0.02334218,0.65609
703.092,75.38064,-2.88399,0.02370306,0.65333
706.392,75.7141,-2.89083,0.02405878,0.65056
709.692,76.04813,-2.89023,0.03056157,0.64779
712.992,76.38256,-2.89003,0.02982913,0.64502
716.292,76.71646,-2.88858,0.03090917,0.64226
719.592,77.0508,-2.88968,0.03364007,0.63949
722.892,77.38549,-2.89462,0.03603252,0.63672
726.192,77.7199,-2.8978,0.03668622,0.63395
729.492,78.0526,-2.89085,0.03456278,0.63118
732.792,78.38605,-2.89703,0.03873876,0.62841
736.092,78.7208,-2.89889,0.03769933,0.62564
739.392,79.05496,-2.89472,0.04194075,0.62287
742.692,79.3887,-2.89806,0.04605223,0.62011
745.992,79.7231,-2.89867,0.04680935,0.61734
749.292,80.05656,-2.8999,0.04256774,0.61457
752.592,80.39233,-2.90417,0.04586959,0.6118
755.892,80.72731,-2.90739,0.0461839,0.60904
759.192,81.06219,-2.90405,0.04215917,0.60627
762.492,81.39639,-2.90927,0.04975499,0.6035
765.792,81.72963,-2.90515,0.04902201,0.60074
769.092,82.06406,-2.90778,0.04242087,0.59798
772.392,82.39825,-2.9079,0.04653736,0.59521
775.692,82.73226,-2.90778,0.04206621,0.59245
778.992,83.06863,-2.90767,0.04151358,0.58969
782.292,83.40409,-2.91228,0.04202679,0.58693
785.592,83.7379,-2.90997,0.04744045,0.58417
788.892,84.07305,-2.90907,0.0439975,0.58142
792.192,84.408,-2.91584,0.04868631,0.57866
795.492,84.74378,-2.9144,0.04650896,0.57591
797.992,84.99767,-2.91557,0.04964946,0.57382