File: 01_Data/Particleboard/STA/N2/10K_min/Particleboard_STA_N2_10KData_220418_R1.csv
##Temp./Â°C,Time/min,Mass loss(subtr.2)/mg,DSC(subtr.2)/(mW/mg),Sensit./(uV/mW)
49.624,10.00917,-0.0204,0.0159866,1.06053
52.924,11.33597,-0.02139594,0.12518,1.05985
56.224,11.79677,-0.02171211,0.1776,1.05914
59.524,12.1927,-0.02295416,0.20719,1.05842
62.824,12.5642,-0.02391457,0.22827,1.05767
66.124,12.92567,-0.02230972,0.24569,1.0569
69.424,13.28062,-0.02643052,0.25996,1.05612
72.724,13.6308,-0.02763005,0.27071,1.05531
76.024,13.9776,-0.02774033,0.28489,1.05448
79.324,14.31975,-0.03041632,0.29635,1.05364
82.624,14.65901,-0.03036741,0.30232,1.05277
85.924,14.9951,-0.03267811,0.30748,1.05189
89.224,15.32814,-0.03400093,0.30825,1.05098
92.524,15.6577,-0.03663973,0.30759,1.05006
95.824,15.98676,-0.03794988,0.30183,1.04911
99.124,16.31277,-0.03894,0.2946,1.04815
102.424,16.63715,-0.04025021,0.28659,1.04717
105.724,16.96085,-0.04092,0.28241,1.04617
109.024,17.28499,-0.04191475,0.27599,1.04514
112.324,17.6072,-0.04321323,0.27117,1.04411
115.624,17.92933,-0.04157037,0.27021,1.04305
118.924,18.25089,-0.04200066,0.2716,1.04197
122.224,18.5714,-0.04447403,0.2722,1.04087
125.524,18.89191,-0.04332,0.27145,1.03976
128.824,19.21203,-0.04331953,0.27529,1.03863
132.124,19.53165,-0.04464002,0.27703,1.03748
135.424,19.85112,-0.04381937,0.27824,1.03631
138.724,20.16984,-0.04595003,0.27802,1.03512
142.024,20.48817,-0.04562515,0.28318,1.03391
145.324,20.80657,-0.04451701,0.28776,1.03269
148.624,21.1245,-0.04694001,0.29396,1.03145
151.924,21.44153,-0.04541,0.30193,1.03019
155.224,21.7581,-0.04932198,0.30764,1.02891
158.524,22.07473,-0.04804184,0.31556,1.02762
161.824,22.3908,-0.05068,0.32809,1.02631
165.124,22.70779,-0.05068869,0.34076,1.02498
168.424,23.02477,-0.05145588,0.35728,1.02363
171.724,23.34082,-0.05546261,0.37042,1.02227
175.024,23.65695,-0.0555,0.38911,1.02089
178.324,23.97221,-0.06093043,0.40143,1.01949
181.624,24.28872,-0.06494053,0.41918,1.01808
184.924,24.60369,-0.06625226,0.43947,1.01664
188.224,24.91915,-0.07283002,0.45926,1.0152
191.524,25.233,-0.07808967,0.47602,1.01373
194.824,25.54864,-0.08332717,0.49471,1.01225
198.124,25.8636,-0.08752192,0.5059,1.01075
201.424,26.17836,-0.09520952,0.51778,1.00924
204.724,26.49398,-0.09917426,0.52375,1.00771
208.024,26.80912,-0.10771,0.53192,1.00616
211.324,27.1237,-0.11717,0.53136,1.0046
214.624,27.4381,-0.12571,0.53262,1.00302
217.924,27.7523,-0.13242,0.52809,1.00143
221.224,28.06695,-0.14198,0.52517,0.99982
224.524,28.3807,-0.15362,0.52315,0.9982
227.824,28.69523,-0.16202,0.52674,0.99656
231.124,29.0088,-0.17206,0.526,0.9949
234.424,29.3228,-0.18683,0.52468,0.99323
237.724,29.6372,-0.19814,0.52083,0.99154
241.024,29.95157,-0.21335,0.51618,0.98984
244.324,30.2656,-0.22792,0.51338,0.98813
247.624,30.5805,-0.24261,0.50971,0.9864
250.924,30.89504,-0.25971,0.51183,0.98465
254.224,31.20989,-0.2795,0.50996,0.98289
257.524,31.52491,-0.29594,0.50729,0.98112
260.824,31.8393,-0.31962,0.50163,0.97933
264.124,32.15396,-0.34121,0.49997,0.97753
267.424,32.4692,-0.36812,0.48731,0.97571
270.724,32.7847,-0.39896,0.47839,0.97388
274.024,33.0992,-0.43041,0.46519,0.97203
277.324,33.4144,-0.46604,0.44652,0.97018
280.624,33.72945,-0.5028,0.42395,0.9683
283.924,34.0449,-0.54019,0.39863,0.96642
287.224,34.36012,-0.58248,0.37025,0.96452
290.524,34.67575,-0.62895,0.34751,0.9626
293.824,34.99137,-0.67741,0.33426,0.96068
297.124,35.30708,-0.73181,0.32095,0.95874
300.424,35.62276,-0.78624,0.31353,0.95679
303.724,35.93804,-0.8455,0.31073,0.95482
307.024,36.25463,-0.90624,0.30752,0.95284
310.324,36.5707,-0.97483,0.30664,0.95085
313.624,36.88755,-1.04707,0.30706,0.94885
316.924,37.20479,-1.12543,0.30726,0.94683
320.224,37.52169,-1.20802,0.31081,0.9448
323.524,37.83939,-1.29755,0.31081,0.94276
326.824,38.15728,-1.39132,0.31194,0.94071
330.124,38.47503,-1.49014,0.31337,0.93865
333.424,38.79383,-1.59512,0.3082,0.93657
336.724,39.11157,-1.70325,0.30548,0.93448
340.024,39.43051,-1.81597,0.29345,0.93238
343.324,39.74893,-1.926,0.27627,0.93027
346.624,40.06732,-2.03467,0.25325,0.92814
349.924,40.38597,-2.13614,0.22144,0.92601
353.224,40.7046,-2.22884,0.18419,0.92386
356.524,41.02364,-2.306,0.14843,0.9217
359.824,41.34253,-2.37431,0.11514,0.91954
363.124,41.66225,-2.42726,0.08358178,0.91736
366.424,41.98165,-2.46508,0.05638979,0.91517
369.724,42.30115,-2.49776,0.03507611,0.91296
373.024,42.62102,-2.52312,0.01648512,0.91075
376.324,42.94061,-2.54228,0.003076522,0.90853
379.624,43.26122,-2.55748,-0.00832242,0.9063
382.924,43.58171,-2.5729,-0.01854129,0.90405
386.224,43.90159,-2.58463,-0.02916833,0.9018
389.524,44.2213,-2.59771,-0.03494559,0.89953
392.824,44.54205,-2.60967,-0.04041249,0.89726
396.124,44.86221,-2.62084,-0.04847511,0.89498
399.424,45.1835,-2.63207,-0.05400261,0.89268
402.724,45.50542,-2.64586,-0.05764315,0.89038
406.024,45.82747,-2.65711,-0.06092456,0.88807
409.324,46.14966,-2.66882,-0.06119875,0.88574
412.624,46.47207,-2.68304,-0.05566247,0.88341
415.924,46.79448,-2.69232,-0.05404441,0.88107
419.224,47.11712,-2.70362,-0.04912383,0.87872
422.524,47.44004,-2.71473,-0.04344126,0.87636
425.824,47.76236,-2.7232,-0.03795724,0.87399
429.124,48.08446,-2.73559,-0.02925594,0.87162
432.424,48.4062,-2.74302,-0.01887549,0.86923
435.724,48.72801,-2.75563,-0.01184147,0.86684
439.024,49.05022,-2.76271,-0.00355229,0.86443
442.324,49.372,-2.77178,0.00375091,0.86202
445.624,49.6957,-2.77839,0.008993615,0.8596
448.924,50.01952,-2.78909,0.01263656,0.85717
452.224,50.34362,-2.79442,0.01945763,0.85474
455.524,50.66733,-2.80044,0.02103849,0.85229
458.824,50.9918,-2.80993,0.02836418,0.84984
462.124,51.31664,-2.81312,0.0306099,0.84738
465.424,51.6413,-2.82073,0.02951657,0.84491
468.724,51.96581,-2.82769,0.03378757,0.84243
472.024,52.29156,-2.83427,0.0326284,0.83995
475.324,52.61564,-2.83825,0.0329994,0.83746
478.624,52.94248,-2.84508,0.03304737,0.83496
481.924,53.2672,-2.84937,0.0374254,0.83246
485.224,53.59255,-2.85566,0.03300657,0.82995
488.524,53.9173,-2.86032,0.03139705,0.82743
491.824,54.24318,-2.86429,0.03547529,0.8249
495.124,54.5687,-2.87004,0.03613879,0.82237
498.424,54.8958,-2.87558,0.03803867,0.81983
501.724,55.22299,-2.87752,0.04174855,0.81728
505.024,55.5499,-2.88358,0.0472846,0.81473
508.324,55.8765,-2.88639,0.05549809,0.81217
511.624,56.2036,-2.89029,0.0577695,0.80961
514.924,56.53055,-2.89283,0.0604355,0.80703
518.224,56.85795,-2.89939,0.06107849,0.80446
521.524,57.18496,-2.90239,0.06243776,0.80187
524.824,57.51339,-2.906,0.06157518,0.79928
528.124,57.84105,-2.90997,0.06204089,0.79669
531.424,58.16881,-2.91393,0.05967107,0.79409
534.724,58.4971,-2.91502,0.05761299,0.79148
538.024,58.8259,-2.92046,0.05421428,0.78887
541.324,59.15421,-2.92439,0.05339417,0.78625
544.624,59.4833,-2.92607,0.04110879,0.78363
547.924,59.81233,-2.92752,0.03349742,0.781
551.224,60.14043,-2.93146,0.02685165,0.77837
554.524,60.46875,-2.93541,0.02688194,0.77573
557.824,60.79665,-2.93689,0.02647001,0.77309
561.124,61.12387,-2.93961,0.02086937,0.77044
564.424,61.45411,-2.94324,0.02157071,0.76779
567.724,61.78365,-2.94463,0.02082623,0.76513
571.024,62.1128,-2.94858,0.01730535,0.76247
574.324,62.44206,-2.95042,0.01650184,0.7598
577.624,62.77191,-2.95417,0.01976074,0.75713
580.924,63.1021,-2.95615,0.01198423,0.75446
584.224,63.43189,-2.95807,0.01599943,0.75178
587.524,63.76243,-2.96174,0.0174053,0.7491
590.824,64.093,-2.96303,0.01853547,0.74641
594.124,64.42367,-2.96273,0.0147614,0.74372
597.424,64.75421,-2.96576,0.01022108,0.74102
600.724,65.0843,-2.96964,0.007896063,0.73833
604.024,65.41525,-2.97226,0.0061019,0.73562
607.324,65.7455,-2.97395,0.003187706,0.73292
610.624,66.07676,-2.97224,0.001025955,0.73021
613.924,66.40681,-2.97481,-0.002166452,0.7275
617.224,66.73835,-2.97787,-0.00220127,0.72478
620.524,67.0692,-2.97885,-0.001056861,0.72207
623.824,67.4012,-2.9828,-0.007358467,0.71935
627.124,67.73286,-2.98379,-0.01056926,0.71662
630.424,68.06339,-2.98544,-0.009009704,0.7139
633.724,68.3939,-2.98557,-0.01081145,0.71117
637.024,68.724,-2.98826,-0.009937007,0.70843
640.324,69.05475,-2.9895,-0.01287443,0.7057
643.624,69.3866,-2.99223,-0.01041212,0.70296
646.924,69.71776,-2.99288,-0.01116801,0.70022
650.224,70.04997,-2.99377,-0.0159502,0.69748
653.524,70.3819,-2.9964,-0.01621797,0.69474
656.824,70.71374,-2.99644,-0.01758512,0.69199
660.124,71.04528,-2.99885,-0.01315433,0.68924
663.424,71.37846,-2.99903,-0.02228248,0.68649
666.724,71.71076,-3.00037,-0.02854678,0.68374
670.024,72.04252,-3.002,-0.02731928,0.68099
673.324,72.3759,-3.00134,-0.02725748,0.67823
676.624,72.7085,-3.00331,-0.0258254,0.67548
679.924,73.04052,-3.00704,-0.02437262,0.67272
683.224,73.3728,-3.00784,-0.03020089,0.66996
686.524,73.70437,-3.00727,-0.03331856,0.6672
689.824,74.03766,-3.01058,-0.03862633,0.66444
693.124,74.36991,-3.00923,-0.03798668,0.66168
696.424,74.70167,-3.01303,-0.0383105,0.65891
699.724,75.0356,-3.01487,-0.03918056,0.65615
703.024,75.369,-3.01647,-0.04069787,0.65338
706.324,75.70211,-3.01648,-0.0440847,0.65062
709.624,76.03515,-3.01737,-0.04420854,0.64785
712.924,76.36855,-3.019,-0.0424538,0.64508
716.224,76.7029,-3.02162,-0.04803423,0.64231
719.524,77.0379,-3.02169,-0.04735089,0.63955
722.824,77.3727,-3.02167,-0.04831178,0.63678
726.124,77.70575,-3.02361,-0.04676828,0.63401
729.424,78.0406,-3.02522,-0.05170165,0.63124
732.724,78.376,-3.02334,-0.05662226,0.62847
736.024,78.71059,-3.02459,-0.0616283,0.6257
739.324,79.0441,-3.02657,-0.05859505,0.62293
742.624,79.37762,-3.0269,-0.05149612,0.62016
745.924,79.71135,-3.02881,-0.05633948,0.61739
749.224,80.0449,-3.03151,-0.05678378,0.61463
752.524,80.37912,-3.03128,-0.06580783,0.61186
755.824,80.71366,-3.03224,-0.06815122,0.60909
759.124,81.0484,-3.03261,-0.06539544,0.60633
762.424,81.38261,-3.03392,-0.07260131,0.60356
765.724,81.71733,-3.03574,-0.06940486,0.6008
769.024,82.05168,-3.03391,-0.06823142,0.59803
772.324,82.38558,-3.03655,-0.06666153,0.59527
775.624,82.72097,-3.03609,-0.06583235,0.59251
778.924,83.05547,-3.03839,-0.06962313,0.58975
782.224,83.39,-3.03651,-0.06532712,0.58699
785.524,83.7247,-3.03688,-0.06335663,0.58423
788.824,84.05943,-3.04051,-0.06433985,0.58147
792.124,84.39536,-3.03921,-0.06796941,0.57872
795.424,84.73043,-3.03392,-0.06776467,0.57596
798.024,84.99396,-3.03918,-0.07422098,0.57379