File: 01_Data/MDF/FTIR/ATR/MDF_ATR_210608_R1.tst
4497.79,-0.00469
4484.29,-0.00463
4470.79,-0.00443
4457.29,-0.00442
4443.79,-0.00430
4430.28,-0.00456
4416.78,-0.00436
4403.28,-0.00433
4389.78,-0.00402
4376.28,-0.00391
4362.78,-0.00409
4349.28,-0.00409
4335.78,-0.00413
4322.28,-0.00373
4308.77,-0.00381
4295.27,-0.00391
4281.77,-0.00398
4268.27,-0.00380
4254.77,-0.00383
4241.27,-0.00371
4227.77,-0.00373
4214.27,-0.00361
4200.77,-0.00351
4187.26,-0.00357
4173.76,-0.00351
4160.26,-0.00352
4146.76,-0.00337
4133.26,-0.00332
4119.76,-0.00337
4106.26,-0.00306
4092.76,-0.00341
4079.26,-0.00294
4065.75,-0.00316
4052.25,-0.00297
4038.75,-0.00294
4025.25,-0.00279
4011.75,-0.00267
3998.25,-0.00266
3984.75,-0.00243
3971.25,-0.00191
3957.75,-0.00165
3944.25,-0.00054
3930.74,0.00046
3917.24,0.00011
3903.74,0.00367
3890.24,0.00054
3876.74,-0.00033
3863.24,0.00318
3849.74,0.00124
3836.24,0.00280
3822.74,0.00296
3809.23,-0.00058
3795.73,-0.00019
3782.23,-0.00043
3768.73,0.00102
3755.23,0.00268
3741.73,0.00393
3728.23,0.00194
3714.73,0.00130
3701.23,-0.00004
3687.72,0.00153
3674.22,0.00404
3660.72,-0.00090
3647.22,0.00371
3633.72,0.00091
3620.22,0.00360
3606.72,0.00154
3593.22,0.00130
3579.72,0.00061
3566.21,0.00554
3552.71,0.00151
3539.21,0.00037
3525.71,0.00354
3512.21,0.00100
3498.71,0.00116
3485.21,0.00123
3471.71,0.00062
3458.21,0.00124
3444.7,0.00226
3431.2,0.00157
3417.7,0.00191
3404.2,0.00198
3390.7,0.00230
3377.2,0.00219
3363.7,0.00289
3350.2,0.00255
3336.7,0.00325
3323.2,0.00275
3309.69,0.00313
3296.19,0.00296
3282.69,0.00298
3269.19,0.00289
3255.69,0.00288
3242.19,0.00274
3228.69,0.00259
3215.19,0.00238
3201.69,0.00242
3188.18,0.00208
3174.68,0.00209
3161.18,0.00174
3147.68,0.00170
3134.18,0.00178
3120.68,0.00181
3107.18,0.00157
3093.68,0.00147
3080.18,0.00165
3066.67,0.00161
3053.17,0.00151
3039.67,0.00123
3026.17,0.00125
3012.67,0.00144
2999.17,0.00121
2985.67,0.00133
2972.17,0.00252
2958.67,0.00366
2945.16,0.00260
2931.66,0.00300
2918.16,0.00340
2904.66,0.00333
2891.16,0.00307
2877.66,0.00293
2864.16,0.00291
2850.66,0.00316
2837.16,0.00259
2823.66,0.00221
2810.15,0.00212
2796.65,0.00205
2783.15,0.00203
2769.65,0.00194
2756.15,0.00200
2742.65,0.00201
2729.15,0.00202
2715.65,0.00200
2702.15,0.00201
2688.64,0.00212
2675.14,0.00204
2661.64,0.00204
2648.14,0.00179
2634.64,0.00180
2621.14,0.00170
2607.64,0.00152
2594.14,0.00169
2580.64,0.00187
2567.13,0.00179
2553.63,0.00178
2540.13,0.00175
2526.63,0.00169
2513.13,0.00175
2499.63,0.00175
2486.13,0.00184
2472.63,0.00202
2459.13,0.00178
2445.62,0.00166
2432.12,0.00202
2418.62,0.00200
2405.12,0.00189
2391.62,0.00198
2378.12,0.00232
2364.62,-0.00324
2351.12,0.00032
2337.62,-0.00259
2324.12,0.00030
2310.61,0.00272
2297.11,0.00236
2283.61,0.00200
2270.11,0.00162
2256.61,0.00191
2243.11,0.00205
2229.61,0.00188
2216.11,0.00194
2202.61,0.00151
2189.1,0.00113
2175.6,0.00104
2162.1,0.00072
2148.6,0.00195
2135.1,0.00221
2121.6,0.00135
2108.1,0.00154
2094.6,0.00191
2081.1,0.00197
2067.59,0.00243
2054.09,0.00221
2040.59,0.00279
2027.09,0.00256
2013.59,0.00299
2000.09,0.00234
1986.59,0.00282
1973.09,0.00273
1959.59,0.00279
1946.08,0.00384
1932.58,0.00321
1919.08,0.00422
1905.58,0.00340
1892.08,0.00377
1878.58,0.00308
1865.08,0.00426
1851.58,0.00330
1838.08,0.00408
1824.57,0.00496
1811.07,0.00511
1797.57,0.00625
1784.07,0.00506
1770.57,0.00769
1757.07,0.00689
1743.57,0.01055
1730.07,0.00986
1716.57,0.01415
1703.07,0.01147
1689.56,0.00917
1676.06,0.00888
1662.56,0.00835
1649.06,0.01205
1635.56,0.01055
1622.06,0.00944
1608.56,0.00817
1595.06,0.00800
1581.56,0.00679
1568.05,0.00813
1554.55,0.01164
1541.05,0.01790
1527.55,0.01263
1514.05,0.01445
1500.55,0.01285
1487.05,0.01173
1473.55,0.01478
1460.05,0.01410
1446.54,0.01288
1433.04,0.01431
1419.54,0.01636
1406.04,0.01258
1392.54,0.01211
1379.04,0.01234
1365.54,0.01252
1352.04,0.01071
1338.54,0.01436
1325.03,0.01147
1311.53,0.01244
1298.03,0.01024
1284.53,0.01052
1271.03,0.01372
1257.53,0.01951
1244.03,0.01455
1230.53,0.01429
1217.03,0.01281
1203.53,0.01159
1190.02,0.01055
1176.52,0.01180
1163.02,0.01636
1149.52,0.01698
1136.02,0.01763
1122.52,0.02292
1109.02,0.02855
1095.52,0.03127
1082.02,0.03174
1068.51,0.03465
1055.01,0.04068
1041.51,0.04258
1028.01,0.04682
1014.51,0.04474
1001.01,0.03623
987.508,0.03194
974.007,0.02625
960.506,0.02242
947.005,0.01863
933.503,0.01699
920.002,0.01600
906.501,0.01599
893,0.01759
879.499,0.01777
865.998,0.01684
852.497,0.01578
838.996,0.01644
825.495,0.01905
811.994,0.02283
798.493,0.02749
784.992,0.02022
771.49,0.01952
757.989,0.01782
744.488,0.01822
730.987,0.01922
717.486,0.02130
703.985,0.02293
690.484,0.02361
676.983,0.02466
663.482,0.02826
649.981,0.02793
636.48,0.02988
622.979,0.02979
609.477,0.03176
599.834,0.03766