File: 01_Data/MDF/FTIR/ATR/MDF_ATR_210608_R2.tst
4497.79,-0.00646
4484.29,-0.00610
4470.79,-0.00617
4457.29,-0.00592
4443.79,-0.00600
4430.28,-0.00603
4416.78,-0.00589
4403.28,-0.00573
4389.78,-0.00551
4376.28,-0.00569
4362.78,-0.00559
4349.28,-0.00548
4335.78,-0.00533
4322.28,-0.00535
4308.77,-0.00510
4295.27,-0.00526
4281.77,-0.00536
4268.27,-0.00518
4254.77,-0.00514
4241.27,-0.00520
4227.77,-0.00508
4214.27,-0.00525
4200.77,-0.00497
4187.26,-0.00518
4173.76,-0.00496
4160.26,-0.00483
4146.76,-0.00494
4133.26,-0.00457
4119.76,-0.00472
4106.26,-0.00459
4092.76,-0.00488
4079.26,-0.00447
4065.75,-0.00464
4052.25,-0.00463
4038.75,-0.00448
4025.25,-0.00399
4011.75,-0.00415
3998.25,-0.00419
3984.75,-0.00400
3971.25,-0.00340
3957.75,-0.00322
3944.25,-0.00212
3930.74,-0.00139
3917.24,-0.00145
3903.74,0.00201
3890.24,-0.00118
3876.74,-0.00215
3863.24,0.00111
3849.74,-0.00050
3836.24,0.00104
3822.74,0.00050
3809.23,-0.00220
3795.73,-0.00190
3782.23,-0.00210
3768.73,-0.00076
3755.23,0.00085
3741.73,0.00203
3728.23,0.00034
3714.73,-0.00024
3701.23,-0.00177
3687.72,0.00017
3674.22,0.00161
3660.72,-0.00237
3647.22,0.00219
3633.72,-0.00074
3620.22,0.00130
3606.72,-0.00021
3593.22,-0.00070
3579.72,-0.00132
3566.21,0.00312
3552.71,-0.00057
3539.21,-0.00191
3525.71,0.00117
3512.21,-0.00129
3498.71,-0.00118
3485.21,-0.00122
3471.71,-0.00196
3458.21,-0.00140
3444.7,-0.00063
3431.2,-0.00134
3417.7,-0.00110
3404.2,-0.00105
3390.7,-0.00071
3377.2,-0.00082
3363.7,-0.00028
3350.2,-0.00069
3336.7,0.00010
3323.2,-0.00038
3309.69,-0.00005
3296.19,-0.00021
3282.69,-0.00005
3269.19,-0.00021
3255.69,0.00002
3242.19,-0.00017
3228.69,-0.00017
3215.19,-0.00029
3201.69,-0.00036
3188.18,-0.00056
3174.68,-0.00056
3161.18,-0.00078
3147.68,-0.00066
3134.18,-0.00060
3120.68,-0.00039
3107.18,-0.00072
3093.68,-0.00073
3080.18,-0.00046
3066.67,-0.00052
3053.17,-0.00076
3039.67,-0.00084
3026.17,-0.00080
3012.67,-0.00060
2999.17,-0.00085
2985.67,-0.00072
2972.17,0.00005
2958.67,0.00075
2945.16,0.00019
2931.66,0.00064
2918.16,0.00108
2904.66,0.00080
2891.16,0.00064
2877.66,0.00050
2864.16,0.00056
2850.66,0.00096
2837.16,0.00037
2823.66,-0.00001
2810.15,0.00001
2796.65,-0.00009
2783.15,0.00001
2769.65,-0.00002
2756.15,-0.00004
2742.65,0.00008
2729.15,0.00001
2715.65,0.00001
2702.15,0.00007
2688.64,0.00007
2675.14,0.00006
2661.64,0.00011
2648.14,-0.00002
2634.64,-0.00020
2621.14,-0.00023
2607.64,-0.00023
2594.14,-0.00007
2580.64,-0.00015
2567.13,-0.00018
2553.63,-0.00020
2540.13,-0.00011
2526.63,-0.00004
2513.13,-0.00013
2499.63,-0.00019
2486.13,-0.00013
2472.63,-0.00001
2459.13,-0.00014
2445.62,-0.00023
2432.12,0.00010
2418.62,0.00009
2405.12,0.00012
2391.62,0.00014
2378.12,0.00039
2364.62,-0.00674
2351.12,-0.00212
2337.62,-0.00547
2324.12,-0.00179
2310.61,0.00080
2297.11,0.00030
2283.61,0.00001
2270.11,-0.00042
2256.61,-0.00042
2243.11,-0.00021
2229.61,-0.00059
2216.11,-0.00090
2202.61,-0.00080
2189.1,-0.00124
2175.6,-0.00152
2162.1,-0.00244
2148.6,-0.00049
2135.1,-0.00034
2121.6,-0.00059
2108.1,-0.00082
2094.6,-0.00016
2081.1,-0.00002
2067.59,0.00046
2054.09,-0.00016
2040.59,0.00021
2027.09,0.00018
2013.59,0.00008
2000.09,0.00025
1986.59,0.00070
1973.09,-0.00004
1959.59,0.00064
1946.08,0.00187
1932.58,0.00111
1919.08,0.00213
1905.58,0.00140
1892.08,0.00205
1878.58,0.00121
1865.08,0.00260
1851.58,0.00159
1838.08,0.00235
1824.57,0.00326
1811.07,0.00339
1797.57,0.00451
1784.07,0.00332
1770.57,0.00571
1757.07,0.00477
1743.57,0.00762
1730.07,0.00684
1716.57,0.01102
1703.07,0.00887
1689.56,0.00683
1676.06,0.00660
1662.56,0.00614
1649.06,0.00981
1635.56,0.00815
1622.06,0.00694
1608.56,0.00565
1595.06,0.00528
1581.56,0.00429
1568.05,0.00587
1554.55,0.00944
1541.05,0.01527
1527.55,0.01042
1514.05,0.01149
1500.55,0.00947
1487.05,0.00811
1473.55,0.01059
1460.05,0.00910
1446.54,0.00769
1433.04,0.00880
1419.54,0.01066
1406.04,0.00745
1392.54,0.00749
1379.04,0.00763
1365.54,0.00793
1352.04,0.00646
1338.54,0.01017
1325.03,0.00709
1311.53,0.00807
1298.03,0.00639
1284.53,0.00655
1271.03,0.00866
1257.53,0.01171
1244.03,0.00905
1230.53,0.00898
1217.03,0.00806
1203.53,0.00715
1190.02,0.00634
1176.52,0.00696
1163.02,0.00971
1149.52,0.00994
1136.02,0.01019
1122.52,0.01358
1109.02,0.01690
1095.52,0.01832
1082.02,0.01855
1068.51,0.02049
1055.01,0.02425
1041.51,0.02515
1028.01,0.02797
1014.51,0.02646
1001.01,0.02168
987.508,0.01907
974.007,0.01569
960.506,0.01346
947.005,0.01108
933.503,0.01021
920.002,0.00976
906.501,0.00973
893,0.01050
879.499,0.01022
865.998,0.00956
852.497,0.00976
838.996,0.01013
825.495,0.01143
811.994,0.01378
798.493,0.01622
784.992,0.01171
771.49,0.01069
757.989,0.01075
744.488,0.01130
730.987,0.01170
717.486,0.01325
703.985,0.01471
690.484,0.01491
676.983,0.01530
663.482,0.01799
649.981,0.01730
636.48,0.01910
622.979,0.01713
609.477,0.01422
599.834,0.02035