File: 01_Data/MDF/FTIR/ATR/MDF_ATR_210608_R5.tst
4497.79,-0.00346
4484.29,-0.00332
4470.79,-0.00321
4457.29,-0.00327
4443.79,-0.00320
4430.28,-0.00311
4416.78,-0.00300
4403.28,-0.00292
4389.78,-0.00280
4376.28,-0.00287
4362.78,-0.00276
4349.28,-0.00279
4335.78,-0.00270
4322.28,-0.00245
4308.77,-0.00284
4295.27,-0.00250
4281.77,-0.00252
4268.27,-0.00256
4254.77,-0.00227
4241.27,-0.00241
4227.77,-0.00256
4214.27,-0.00241
4200.77,-0.00217
4187.26,-0.00226
4173.76,-0.00206
4160.26,-0.00215
4146.76,-0.00218
4133.26,-0.00201
4119.76,-0.00186
4106.26,-0.00172
4092.76,-0.00192
4079.26,-0.00172
4065.75,-0.00204
4052.25,-0.00184
4038.75,-0.00165
4025.25,-0.00139
4011.75,-0.00117
3998.25,-0.00140
3984.75,-0.00122
3971.25,-0.00044
3957.75,-0.00021
3944.25,0.00061
3930.74,0.00170
3917.24,0.00153
3903.74,0.00541
3890.24,0.00170
3876.74,0.00075
3863.24,0.00364
3849.74,0.00246
3836.24,0.00437
3822.74,0.00397
3809.23,0.00076
3795.73,0.00091
3782.23,0.00076
3768.73,0.00229
3755.23,0.00406
3741.73,0.00535
3728.23,0.00301
3714.73,0.00273
3701.23,0.00112
3687.72,0.00315
3674.22,0.00460
3660.72,0.00062
3647.22,0.00565
3633.72,0.00232
3620.22,0.00492
3606.72,0.00343
3593.22,0.00344
3579.72,0.00285
3566.21,0.00829
3552.71,0.00414
3539.21,0.00309
3525.71,0.00679
3512.21,0.00430
3498.71,0.00475
3485.21,0.00509
3471.71,0.00484
3458.21,0.00567
3444.7,0.00685
3431.2,0.00642
3417.7,0.00693
3404.2,0.00724
3390.7,0.00773
3377.2,0.00789
3363.7,0.00852
3350.2,0.00829
3336.7,0.00932
3323.2,0.00874
3309.69,0.00919
3296.19,0.00886
3282.69,0.00905
3269.19,0.00869
3255.69,0.00864
3242.19,0.00821
3228.69,0.00795
3215.19,0.00754
3201.69,0.00755
3188.18,0.00701
3174.68,0.00667
3161.18,0.00609
3147.68,0.00609
3134.18,0.00597
3120.68,0.00578
3107.18,0.00534
3093.68,0.00514
3080.18,0.00522
3066.67,0.00500
3053.17,0.00473
3039.67,0.00433
3026.17,0.00430
3012.67,0.00452
2999.17,0.00415
2985.67,0.00432
2972.17,0.00508
2958.67,0.00598
2945.16,0.00653
2931.66,0.00827
2918.16,0.00930
2904.66,0.00792
2891.16,0.00728
2877.66,0.00693
2864.16,0.00717
2850.66,0.00805
2837.16,0.00621
2823.66,0.00538
2810.15,0.00506
2796.65,0.00487
2783.15,0.00475
2769.65,0.00471
2756.15,0.00461
2742.65,0.00459
2729.15,0.00458
2715.65,0.00454
2702.15,0.00455
2688.64,0.00457
2675.14,0.00442
2661.64,0.00444
2648.14,0.00422
2634.64,0.00397
2621.14,0.00382
2607.64,0.00365
2594.14,0.00382
2580.64,0.00382
2567.13,0.00376
2553.63,0.00363
2540.13,0.00384
2526.63,0.00368
2513.13,0.00365
2499.63,0.00360
2486.13,0.00383
2472.63,0.00378
2459.13,0.00365
2445.62,0.00365
2432.12,0.00380
2418.62,0.00374
2405.12,0.00385
2391.62,0.00386
2378.12,0.00420
2364.62,-0.00203
2351.12,0.00201
2337.62,-0.00090
2324.12,0.00213
2310.61,0.00455
2297.11,0.00417
2283.61,0.00395
2270.11,0.00352
2256.61,0.00361
2243.11,0.00385
2229.61,0.00359
2216.11,0.00359
2202.61,0.00333
2189.1,0.00296
2175.6,0.00289
2162.1,0.00200
2148.6,0.00373
2135.1,0.00391
2121.6,0.00367
2108.1,0.00312
2094.6,0.00371
2081.1,0.00356
2067.59,0.00429
2054.09,0.00364
2040.59,0.00420
2027.09,0.00446
2013.59,0.00431
2000.09,0.00428
1986.59,0.00433
1973.09,0.00406
1959.59,0.00438
1946.08,0.00570
1932.58,0.00472
1919.08,0.00588
1905.58,0.00509
1892.08,0.00543
1878.58,0.00460
1865.08,0.00595
1851.58,0.00492
1838.08,0.00566
1824.57,0.00652
1811.07,0.00663
1797.57,0.00786
1784.07,0.00678
1770.57,0.00945
1757.07,0.00921
1743.57,0.01398
1730.07,0.01371
1716.57,0.01746
1703.07,0.01464
1689.56,0.01269
1676.06,0.01328
1662.56,0.01387
1649.06,0.01798
1635.56,0.01652
1622.06,0.01568
1608.56,0.01474
1595.06,0.01536
1581.56,0.01363
1568.05,0.01368
1554.55,0.01661
1541.05,0.02268
1527.55,0.01745
1514.05,0.01995
1500.55,0.01786
1487.05,0.01559
1473.55,0.01904
1460.05,0.01964
1446.54,0.01777
1433.04,0.01920
1419.54,0.02179
1406.04,0.01749
1392.54,0.01699
1379.04,0.01813
1365.54,0.01874
1352.04,0.01645
1338.54,0.02026
1325.03,0.01772
1311.53,0.01887
1298.03,0.01599
1284.53,0.01613
1271.03,0.01878
1257.53,0.02112
1244.03,0.02174
1230.53,0.02195
1217.03,0.01993
1203.53,0.01800
1190.02,0.01647
1176.52,0.01798
1163.02,0.02459
1149.52,0.02588
1136.02,0.02574
1122.52,0.03261
1109.02,0.03667
1095.52,0.03734
1082.02,0.03858
1068.51,0.04331
1055.01,0.05205
1041.51,0.05416
1028.01,0.05838
1014.51,0.05535
1001.01,0.04976
987.508,0.04697
974.007,0.03936
960.506,0.03365
947.005,0.02835
933.503,0.02616
920.002,0.02441
906.501,0.02448
893,0.02554
879.499,0.02403
865.998,0.02300
852.497,0.02275
838.996,0.02339
825.495,0.02391
811.994,0.02465
798.493,0.02630
784.992,0.02439
771.49,0.02568
757.989,0.02597
744.488,0.02769
730.987,0.02856
717.486,0.03129
703.985,0.03322
690.484,0.03429
676.983,0.03589
663.482,0.04072
649.981,0.04066
636.48,0.04371
622.979,0.04477
609.477,0.04492
599.834,0.05116