File: 01_Data/MDF/FTIR/ATR/MDF_ATR_210608_R4.tst
4497.79,-0.00362
4484.29,-0.00370
4470.79,-0.00350
4457.29,-0.00350
4443.79,-0.00320
4430.28,-0.00336
4416.78,-0.00301
4403.28,-0.00299
4389.78,-0.00288
4376.28,-0.00293
4362.78,-0.00282
4349.28,-0.00299
4335.78,-0.00267
4322.28,-0.00255
4308.77,-0.00280
4295.27,-0.00277
4281.77,-0.00253
4268.27,-0.00242
4254.77,-0.00246
4241.27,-0.00244
4227.77,-0.00252
4214.27,-0.00233
4200.77,-0.00227
4187.26,-0.00239
4173.76,-0.00214
4160.26,-0.00230
4146.76,-0.00212
4133.26,-0.00203
4119.76,-0.00211
4106.26,-0.00169
4092.76,-0.00189
4079.26,-0.00194
4065.75,-0.00200
4052.25,-0.00169
4038.75,-0.00180
4025.25,-0.00140
4011.75,-0.00127
3998.25,-0.00130
3984.75,-0.00120
3971.25,-0.00053
3957.75,-0.00034
3944.25,0.00059
3930.74,0.00172
3917.24,0.00130
3903.74,0.00487
3890.24,0.00146
3876.74,0.00074
3863.24,0.00401
3849.74,0.00212
3836.24,0.00426
3822.74,0.00370
3809.23,0.00057
3795.73,0.00076
3782.23,0.00075
3768.73,0.00229
3755.23,0.00388
3741.73,0.00517
3728.23,0.00275
3714.73,0.00227
3701.23,0.00093
3687.72,0.00304
3674.22,0.00435
3660.72,0.00044
3647.22,0.00543
3633.72,0.00224
3620.22,0.00478
3606.72,0.00311
3593.22,0.00320
3579.72,0.00256
3566.21,0.00760
3552.71,0.00403
3539.21,0.00282
3525.71,0.00624
3512.21,0.00391
3498.71,0.00417
3485.21,0.00453
3471.71,0.00422
3458.21,0.00493
3444.7,0.00611
3431.2,0.00567
3417.7,0.00630
3404.2,0.00656
3390.7,0.00698
3377.2,0.00698
3363.7,0.00780
3350.2,0.00755
3336.7,0.00842
3323.2,0.00804
3309.69,0.00828
3296.19,0.00809
3282.69,0.00835
3269.19,0.00803
3255.69,0.00790
3242.19,0.00762
3228.69,0.00733
3215.19,0.00696
3201.69,0.00691
3188.18,0.00655
3174.68,0.00622
3161.18,0.00570
3147.68,0.00566
3134.18,0.00553
3120.68,0.00555
3107.18,0.00500
3093.68,0.00491
3080.18,0.00491
3066.67,0.00482
3053.17,0.00451
3039.67,0.00427
3026.17,0.00418
3012.67,0.00424
2999.17,0.00398
2985.67,0.00409
2972.17,0.00487
2958.67,0.00595
2945.16,0.00627
2931.66,0.00795
2918.16,0.00880
2904.66,0.00759
2891.16,0.00696
2877.66,0.00672
2864.16,0.00692
2850.66,0.00765
2837.16,0.00587
2823.66,0.00517
2810.15,0.00492
2796.65,0.00477
2783.15,0.00463
2769.65,0.00457
2756.15,0.00451
2742.65,0.00451
2729.15,0.00449
2715.65,0.00445
2702.15,0.00446
2688.64,0.00443
2675.14,0.00438
2661.64,0.00436
2648.14,0.00415
2634.64,0.00383
2621.14,0.00370
2607.64,0.00358
2594.14,0.00373
2580.64,0.00368
2567.13,0.00372
2553.63,0.00345
2540.13,0.00361
2526.63,0.00366
2513.13,0.00349
2499.63,0.00362
2486.13,0.00355
2472.63,0.00360
2459.13,0.00356
2445.62,0.00336
2432.12,0.00365
2418.62,0.00364
2405.12,0.00374
2391.62,0.00378
2378.12,0.00394
2364.62,-0.00263
2351.12,0.00168
2337.62,-0.00110
2324.12,0.00177
2310.61,0.00444
2297.11,0.00388
2283.61,0.00346
2270.11,0.00320
2256.61,0.00329
2243.11,0.00358
2229.61,0.00335
2216.11,0.00313
2202.61,0.00276
2189.1,0.00236
2175.6,0.00257
2162.1,0.00196
2148.6,0.00305
2135.1,0.00356
2121.6,0.00295
2108.1,0.00287
2094.6,0.00348
2081.1,0.00340
2067.59,0.00387
2054.09,0.00352
2040.59,0.00394
2027.09,0.00389
2013.59,0.00396
2000.09,0.00376
1986.59,0.00416
1973.09,0.00391
1959.59,0.00398
1946.08,0.00525
1932.58,0.00444
1919.08,0.00563
1905.58,0.00467
1892.08,0.00527
1878.58,0.00440
1865.08,0.00572
1851.58,0.00473
1838.08,0.00550
1824.57,0.00637
1811.07,0.00659
1797.57,0.00783
1784.07,0.00669
1770.57,0.00930
1757.07,0.00921
1743.57,0.01419
1730.07,0.01394
1716.57,0.01786
1703.07,0.01469
1689.56,0.01281
1676.06,0.01344
1662.56,0.01407
1649.06,0.01832
1635.56,0.01682
1622.06,0.01589
1608.56,0.01492
1595.06,0.01528
1581.56,0.01357
1568.05,0.01370
1554.55,0.01676
1541.05,0.02341
1527.55,0.01773
1514.05,0.02061
1500.55,0.01873
1487.05,0.01672
1473.55,0.02049
1460.05,0.02139
1446.54,0.01997
1433.04,0.02153
1419.54,0.02423
1406.04,0.01987
1392.54,0.01894
1379.04,0.01970
1365.54,0.01998
1352.04,0.01739
1338.54,0.02111
1325.03,0.01850
1311.53,0.01957
1298.03,0.01683
1284.53,0.01704
1271.03,0.01994
1257.53,0.02301
1244.03,0.02303
1230.53,0.02302
1217.03,0.02097
1203.53,0.01925
1190.02,0.01815
1176.52,0.01996
1163.02,0.02672
1149.52,0.02811
1136.02,0.02826
1122.52,0.03506
1109.02,0.03958
1095.52,0.04146
1082.02,0.04322
1068.51,0.04792
1055.01,0.05586
1041.51,0.05807
1028.01,0.06251
1014.51,0.05970
1001.01,0.05325
987.508,0.04974
974.007,0.04166
960.506,0.03586
947.005,0.02978
933.503,0.02712
920.002,0.02566
906.501,0.02583
893,0.02659
879.499,0.02679
865.998,0.02507
852.497,0.02411
838.996,0.02454
825.495,0.02566
811.994,0.02693
798.493,0.02920
784.992,0.02656
771.49,0.02818
757.989,0.02763
744.488,0.02924
730.987,0.02964
717.486,0.03310
703.985,0.03513
690.484,0.03599
676.983,0.03799
663.482,0.04341
649.981,0.04322
636.48,0.04593
622.979,0.04669
609.477,0.05059
599.834,0.05662