File: 01_Data/MDF/FTIR/ATR/MDF_ATR_210608_R3.tst
4497.79,-0.00456
4484.29,-0.00444
4470.79,-0.00458
4457.29,-0.00438
4443.79,-0.00443
4430.28,-0.00435
4416.78,-0.00404
4403.28,-0.00387
4389.78,-0.00398
4376.28,-0.00410
4362.78,-0.00403
4349.28,-0.00379
4335.78,-0.00385
4322.28,-0.00367
4308.77,-0.00381
4295.27,-0.00377
4281.77,-0.00367
4268.27,-0.00361
4254.77,-0.00361
4241.27,-0.00343
4227.77,-0.00347
4214.27,-0.00351
4200.77,-0.00344
4187.26,-0.00337
4173.76,-0.00317
4160.26,-0.00337
4146.76,-0.00315
4133.26,-0.00321
4119.76,-0.00316
4106.26,-0.00291
4092.76,-0.00333
4079.26,-0.00298
4065.75,-0.00303
4052.25,-0.00292
4038.75,-0.00287
4025.25,-0.00255
4011.75,-0.00242
3998.25,-0.00268
3984.75,-0.00235
3971.25,-0.00166
3957.75,-0.00150
3944.25,-0.00053
3930.74,0.00021
3917.24,0.00024
3903.74,0.00378
3890.24,0.00033
3876.74,-0.00053
3863.24,0.00252
3849.74,0.00096
3836.24,0.00247
3822.74,0.00227
3809.23,-0.00069
3795.73,-0.00031
3782.23,-0.00053
3768.73,0.00100
3755.23,0.00287
3741.73,0.00375
3728.23,0.00165
3714.73,0.00126
3701.23,-0.00033
3687.72,0.00161
3674.22,0.00338
3660.72,-0.00071
3647.22,0.00396
3633.72,0.00104
3620.22,0.00347
3606.72,0.00171
3593.22,0.00181
3579.72,0.00105
3566.21,0.00620
3552.71,0.00249
3539.21,0.00145
3525.71,0.00472
3512.21,0.00228
3498.71,0.00266
3485.21,0.00309
3471.71,0.00251
3458.21,0.00305
3444.7,0.00432
3431.2,0.00380
3417.7,0.00426
3404.2,0.00440
3390.7,0.00489
3377.2,0.00489
3363.7,0.00545
3350.2,0.00524
3336.7,0.00601
3323.2,0.00564
3309.69,0.00584
3296.19,0.00550
3282.69,0.00571
3269.19,0.00540
3255.69,0.00524
3242.19,0.00500
3228.69,0.00469
3215.19,0.00441
3201.69,0.00428
3188.18,0.00384
3174.68,0.00376
3161.18,0.00321
3147.68,0.00318
3134.18,0.00318
3120.68,0.00317
3107.18,0.00277
3093.68,0.00251
3080.18,0.00268
3066.67,0.00252
3053.17,0.00223
3039.67,0.00196
3026.17,0.00211
3012.67,0.00219
2999.17,0.00194
2985.67,0.00209
2972.17,0.00276
2958.67,0.00348
2945.16,0.00372
2931.66,0.00491
2918.16,0.00569
2904.66,0.00477
2891.16,0.00444
2877.66,0.00427
2864.16,0.00433
2850.66,0.00496
2837.16,0.00370
2823.66,0.00311
2810.15,0.00284
2796.65,0.00271
2783.15,0.00268
2769.65,0.00258
2756.15,0.00255
2742.65,0.00257
2729.15,0.00252
2715.65,0.00259
2702.15,0.00253
2688.64,0.00255
2675.14,0.00254
2661.64,0.00252
2648.14,0.00233
2634.64,0.00215
2621.14,0.00208
2607.64,0.00192
2594.14,0.00211
2580.64,0.00209
2567.13,0.00202
2553.63,0.00198
2540.13,0.00215
2526.63,0.00197
2513.13,0.00206
2499.63,0.00204
2486.13,0.00200
2472.63,0.00213
2459.13,0.00205
2445.62,0.00185
2432.12,0.00216
2418.62,0.00219
2405.12,0.00223
2391.62,0.00211
2378.12,0.00239
2364.62,-0.00390
2351.12,0.00006
2337.62,-0.00285
2324.12,0.00032
2310.61,0.00289
2297.11,0.00246
2283.61,0.00203
2270.11,0.00170
2256.61,0.00192
2243.11,0.00188
2229.61,0.00177
2216.11,0.00144
2202.61,0.00154
2189.1,0.00088
2175.6,0.00047
2162.1,-0.00002
2148.6,0.00191
2135.1,0.00211
2121.6,0.00158
2108.1,0.00134
2094.6,0.00194
2081.1,0.00179
2067.59,0.00245
2054.09,0.00204
2040.59,0.00258
2027.09,0.00234
2013.59,0.00239
2000.09,0.00233
1986.59,0.00231
1973.09,0.00236
1959.59,0.00260
1946.08,0.00390
1932.58,0.00296
1919.08,0.00421
1905.58,0.00313
1892.08,0.00360
1878.58,0.00303
1865.08,0.00431
1851.58,0.00341
1838.08,0.00406
1824.57,0.00492
1811.07,0.00512
1797.57,0.00612
1784.07,0.00514
1770.57,0.00775
1757.07,0.00741
1743.57,0.01174
1730.07,0.01114
1716.57,0.01528
1703.07,0.01217
1689.56,0.00984
1676.06,0.00983
1662.56,0.00958
1649.06,0.01334
1635.56,0.01187
1622.06,0.01090
1608.56,0.00978
1595.06,0.00996
1581.56,0.00819
1568.05,0.00880
1554.55,0.01203
1541.05,0.01790
1527.55,0.01297
1514.05,0.01522
1500.55,0.01355
1487.05,0.01144
1473.55,0.01463
1460.05,0.01464
1446.54,0.01272
1433.04,0.01413
1419.54,0.01657
1406.04,0.01240
1392.54,0.01231
1379.04,0.01361
1365.54,0.01423
1352.04,0.01209
1338.54,0.01608
1325.03,0.01347
1311.53,0.01420
1298.03,0.01154
1284.53,0.01188
1271.03,0.01464
1257.53,0.01722
1244.03,0.01704
1230.53,0.01741
1217.03,0.01562
1203.53,0.01342
1190.02,0.01169
1176.52,0.01291
1163.02,0.01896
1149.52,0.01975
1136.02,0.01978
1122.52,0.02577
1109.02,0.02968
1095.52,0.03020
1082.02,0.03132
1068.51,0.03576
1055.01,0.04396
1041.51,0.04584
1028.01,0.04971
1014.51,0.04679
1001.01,0.04098
987.508,0.03822
974.007,0.03097
960.506,0.02593
947.005,0.02102
933.503,0.01906
920.002,0.01795
906.501,0.01798
893,0.01917
879.499,0.01784
865.998,0.01673
852.497,0.01656
838.996,0.01712
825.495,0.01800
811.994,0.01900
798.493,0.02055
784.992,0.01812
771.49,0.01977
757.989,0.01923
744.488,0.02028
730.987,0.02101
717.486,0.02372
703.985,0.02545
690.484,0.02603
676.983,0.02753
663.482,0.03135
649.981,0.03136
636.48,0.03375
622.979,0.03299
609.477,0.03454
599.834,0.04007