File: 01_Data/Polyester_Microfiber_Sheet/MCC/Polyester_Microfiber_Sheet_MCC_30K_min_211209_R1.txt
Sample ID:	C:\MCC\MCC Cal\Test\Polyester_Microfiber_Sheet_MCC_30K_min_211209_R1.txt
Sample Weight (mg):	4.19
Heating Rate (C/s):	0.5
Combustor Temp (C):	900
N2 Flow Rate (cc/min):	80
O2 Flow Rate (cc/min):	20
Calibration File:	C:\MCC\MCC Cal\Coeff1 JN10440_30_210304.txt.txt
T Correction Coefficients:	0	1.024463	0
Time Shift (s):	14
*
Time (s)	Temperature (C)	N2 flow rate (cc/min)	O2 flow rate (cc/min)	Flow Rate (cc/min)	Oxygen (%)	HRR (W/g)	Heating rate (C/s)
0.000	108.610	80.009	19.994	103.070	20.145	-0.101	0.019
8.000	108.585	80.006	19.996	103.069	20.139	0.368	-0.041
16.000	108.587	80.007	19.995	103.091	20.135	0.682	0.010
24.000	108.693	80.008	19.995	103.168	20.126	1.372	0.051
32.001	109.029	80.008	19.993	103.260	20.109	2.696	0.069
40.000	109.975	80.009	19.993	103.321	20.092	3.951	0.134
48.000	111.505	80.008	19.994	103.342	20.083	4.665	0.227
56.000	113.540	80.007	19.995	103.333	20.081	4.805	0.281
64.000	115.983	80.007	19.994	103.330	20.079	4.944	0.328
72.000	118.706	80.008	19.994	103.332	20.082	4.717	0.341
80.000	121.688	80.006	19.995	103.339	20.086	4.437	0.391
88.000	124.961	80.006	19.994	103.354	20.085	4.544	0.404
96.001	128.392	80.007	19.994	103.357	20.086	4.428	0.438
104.001	132.016	80.009	19.994	103.353	20.087	4.405	0.453
112.000	135.795	80.007	19.995	103.352	20.085	4.506	0.481
120.001	139.701	80.010	19.994	103.338	20.087	4.368	0.484
128.000	143.715	80.010	19.994	103.342	20.083	4.687	0.518
136.000	147.712	80.010	19.994	103.323	20.085	4.541	0.485
144.000	151.806	80.005	19.994	103.327	20.090	4.126	0.514
152.000	155.868	80.006	19.994	103.326	20.086	4.441	0.501
160.001	159.919	80.006	19.993	103.323	20.089	4.243	0.508
168.000	163.953	80.008	19.995	103.311	20.094	3.855	0.514
176.001	168.041	80.006	19.994	103.297	20.091	4.093	0.495
184.001	172.074	80.010	19.995	103.288	20.093	3.909	0.489
192.000	176.051	80.006	19.994	103.287	20.092	3.952	0.487
200.001	179.946	80.008	19.995	103.287	20.094	3.863	0.467
208.000	183.931	80.008	19.995	103.290	20.096	3.694	0.500
216.000	187.944	80.010	19.996	103.284	20.091	4.033	0.544
224.001	191.807	80.007	19.994	103.287	20.093	3.936	0.502
232.000	195.737	80.007	19.994	103.286	20.094	3.820	0.499
240.000	199.590	80.008	19.995	103.279	20.096	3.641	0.475
248.001	203.498	80.008	19.994	103.280	20.098	3.537	0.480
256.000	207.405	80.005	19.994	103.281	20.096	3.692	0.507
264.000	211.246	80.007	19.994	103.278	20.095	3.744	0.443
272.000	215.080	80.005	19.995	103.274	20.092	3.945	0.483
280.000	218.962	80.008	19.995	103.277	20.097	3.612	0.467
288.000	222.887	80.007	19.994	103.278	20.097	3.569	0.494
296.001	226.814	80.010	19.996	103.273	20.100	3.384	0.497
304.000	230.834	80.006	19.996	103.278	20.104	3.042	0.528
312.001	234.879	80.006	19.995	103.269	20.100	3.354	0.515
320.000	238.970	80.008	19.995	103.261	20.101	3.310	0.521
328.000	242.948	80.007	19.994	103.263	20.100	3.359	0.497
336.001	246.999	80.007	19.995	103.259	20.098	3.481	0.500
344.000	251.039	80.009	19.994	103.258	20.100	3.381	0.459
352.000	255.083	80.009	19.994	103.254	20.099	3.430	0.529
360.000	259.077	80.009	19.994	103.261	20.101	3.284	0.498
368.001	262.973	80.009	19.994	103.251	20.098	3.493	0.441
376.000	266.996	80.009	19.994	103.252	20.097	3.583	0.501
384.000	270.936	80.008	19.996	103.250	20.095	3.710	0.452
392.000	274.945	80.006	19.995	103.245	20.096	3.668	0.493
400.000	278.942	80.007	19.995	103.245	20.095	3.769	0.511
408.000	282.986	80.008	19.993	103.249	20.095	3.731	0.504
416.000	287.031	80.008	19.994	103.247	20.096	3.705	0.500
424.000	291.067	80.005	19.994	103.249	20.096	3.638	0.530
432.000	295.136	80.009	19.994	103.247	20.091	4.026	0.523
440.000	299.157	80.008	19.995	103.243	20.094	3.808	0.507
448.000	303.183	80.010	19.993	103.242	20.093	3.867	0.517
456.000	307.222	80.010	19.994	103.233	20.091	4.061	0.500
464.000	311.233	80.011	19.995	103.237	20.094	3.815	0.518
472.001	315.332	80.008	19.994	103.231	20.095	3.745	0.534
480.000	319.434	80.007	19.994	103.232	20.094	3.806	0.544
488.000	323.471	80.006	19.994	103.230	20.092	3.993	0.505
496.000	327.474	80.007	19.995	103.209	20.091	4.092	0.495
504.000	331.560	80.008	19.995	103.224	20.087	4.349	0.531
512.000	335.663	80.009	19.995	103.215	20.085	4.499	0.480
520.000	339.523	80.010	19.993	103.208	20.087	4.370	0.400
528.000	343.783	80.009	19.994	103.208	20.080	4.869	0.472
536.000	347.865	80.010	19.994	103.212	20.079	5.004	0.513
544.000	351.939	80.010	19.993	103.220	20.079	4.965	0.547
552.000	356.018	80.007	19.994	103.210	20.080	4.892	0.513
560.000	360.158	80.009	19.995	103.213	20.066	5.949	0.507
568.000	364.262	80.009	19.995	103.212	20.062	6.305	0.493
576.000	368.348	80.008	19.995	103.210	20.046	7.531	0.528
584.000	372.476	80.007	19.995	103.217	20.031	8.685	0.527
592.000	376.690	80.008	19.996	103.216	20.011	10.233	0.536
600.000	380.779	80.029	19.997	103.242	19.984	12.309	0.510
608.000	384.893	80.009	19.995	103.247	19.950	14.886	0.491
616.000	388.970	80.009	19.994	103.255	19.910	17.953	0.497
624.000	393.097	80.009	19.994	103.286	19.856	22.099	0.559
632.000	397.267	80.009	19.994	103.280	19.808	25.860	0.542
640.000	401.404	80.008	19.994	103.322	19.730	31.831	0.513
648.000	405.530	80.009	19.994	103.356	19.638	38.955	0.501
656.001	409.617	80.007	19.996	103.400	19.506	49.126	0.502
664.000	413.677	80.008	19.995	103.474	19.364	60.172	0.521
672.000	417.647	80.007	19.994	103.519	19.181	74.248	0.528
680.000	421.635	80.008	19.994	103.576	18.943	92.702	0.508
688.000	425.604	80.008	19.995	103.770	18.661	114.601	0.512
696.000	429.552	80.008	19.995	103.754	18.413	133.830	0.520
704.000	433.580	80.011	19.994	103.835	18.246	146.885	0.510
712.000	437.623	80.011	19.993	103.942	18.066	160.857	0.503
720.000	441.603	80.008	19.994	103.953	17.910	172.970	0.498
728.000	445.674	80.008	19.993	103.988	17.841	178.205	0.499
736.000	449.669	80.009	19.994	103.979	17.915	172.366	0.499
744.000	453.666	80.008	19.994	103.901	18.168	152.615	0.479
752.000	457.730	80.005	19.995	103.771	18.546	123.277	0.513
760.000	461.822	80.008	19.996	103.625	19.005	87.714	0.500
768.000	465.949	80.008	19.993	103.520	19.384	58.495	0.542
776.001	470.074	80.008	19.996	103.405	19.625	39.906	0.530
784.001	474.177	80.007	19.995	103.356	19.777	28.177	0.537
792.000	478.330	80.010	19.994	103.315	19.873	20.805	0.541
800.000	482.470	80.008	19.994	103.283	19.940	15.645	0.523
808.000	486.510	80.004	19.994	103.270	19.982	12.473	0.530
816.000	490.637	80.007	19.993	103.247	20.011	10.199	0.519
824.000	494.782	80.008	19.994	103.236	20.019	9.587	0.517
832.000	498.879	80.007	19.993	103.215	20.027	8.956	0.526
840.000	502.920	80.006	19.994	103.208	20.038	8.130	0.526
848.000	506.971	80.010	19.994	103.206	20.039	8.071	0.483
856.000	511.103	80.010	19.995	103.205	20.043	7.713	0.508
864.000	515.211	80.008	19.995	103.208	20.045	7.616	0.507
872.000	519.382	80.011	19.995	103.200	20.048	7.331	0.527
880.000	523.531	80.010	19.994	103.197	20.044	7.673	0.526
888.000	527.642	80.007	19.993	103.200	20.043	7.761	0.522
896.000	531.703	80.010	19.994	103.180	20.051	7.093	0.496
904.000	535.836	80.009	19.994	103.196	20.045	7.571	0.549
912.000	539.975	80.008	19.993	103.183	20.048	7.331	0.524
920.000	544.121	80.008	19.995	103.199	20.042	7.792	0.513
928.000	548.334	80.010	19.994	103.187	20.042	7.840	0.521
936.000	552.475	80.009	19.994	103.191	20.037	8.196	0.475
944.000	556.723	80.008	19.994	103.190	20.037	8.228	0.494
952.000	560.892	80.010	19.994	103.182	20.039	8.034	0.528
960.000	565.017	80.010	19.993	103.184	20.040	7.989	0.489
968.000	569.181	80.007	19.994	103.176	20.038	8.113	0.513
976.000	573.372	80.007	19.995	103.167	20.036	8.271	0.525
984.001	577.557	80.009	19.995	103.168	20.036	8.300	0.503
992.000	581.652	80.008	19.995	103.176	20.035	8.322	0.496
1000.000	585.690	80.006	19.995	103.176	20.033	8.534	0.502
1008.000	589.852	80.007	19.994	103.179	20.027	8.938	0.507
1016.000	593.957	80.009	19.993	103.172	20.024	9.213	0.512
1024.000	597.966	80.009	19.993	103.175	20.024	9.203	0.481
1032.000	601.964	80.009	19.994	103.169	20.025	9.150	0.502
1040.000	606.037	80.012	19.994	103.169	20.022	9.342	0.491
1048.000	610.112	80.009	19.994	103.165	20.024	9.173	0.489
1056.001	614.211	80.009	19.995	103.166	20.023	9.266	0.536
1064.000	618.293	80.008	19.995	103.168	20.029	8.839	0.497
1072.000	622.330	80.007	19.996	103.169	20.031	8.628	0.459
1080.000	626.373	80.007	19.994	103.170	20.031	8.658	0.460
1088.000	630.487	80.008	19.994	103.171	20.035	8.343	0.509
1096.000	634.617	80.009	19.995	103.167	20.034	8.451	0.495
1104.000	638.710	80.008	19.995	103.165	20.038	8.117	0.522
1112.001	642.813	80.010	19.992	103.171	20.045	7.554	0.519
1120.000	646.932	80.009	19.994	103.166	20.048	7.369	0.504
1128.000	651.063	80.010	19.992	103.166	20.047	7.416	0.499
1136.000	655.269	80.007	19.994	103.165	20.046	7.521	0.540
1144.000	659.263	80.007	19.994	103.163	20.050	7.233	0.511
1152.000	663.299	80.006	19.993	103.164	20.046	7.527	0.494
1160.000	667.322	80.007	19.995	103.166	20.051	7.105	0.527
1168.001	671.356	80.006	19.995	103.163	20.052	7.079	0.503
1176.001	675.422	80.007	19.996	103.162	20.046	7.500	0.511
1184.000	679.599	80.009	19.996	103.156	20.050	7.228	0.520
1192.000	683.601	80.010	19.995	103.156	20.049	7.255	0.500
1200.000	687.699	80.009	19.995	103.157	20.046	7.470	0.456
1208.000	691.772	80.012	19.994	103.162	20.054	6.929	0.489
1216.000	695.865	80.008	19.993	103.162	20.048	7.321	0.536
1224.000	699.867	80.008	19.995	103.166	20.049	7.242	0.493
1232.000	703.901	80.008	19.996	103.147	20.045	7.549	0.531
1240.000	707.860	80.007	19.995	103.143	20.052	7.008	0.466
1248.000	711.834	80.008	19.994	103.151	20.050	7.222	0.487
1256.000	715.940	80.008	19.994	103.150	20.048	7.367	0.505
1264.000	719.944	80.009	19.996	103.146	20.049	7.252	0.517
1272.000	723.926	80.009	19.995	103.156	20.049	7.249	0.500
1280.000	728.048	80.008	19.994	103.146	20.051	7.097	0.493
1288.000	732.154	80.010	19.995	103.157	20.055	6.809	0.492
1296.000	736.222	80.010	19.994	103.142	20.050	7.165	0.522
1304.000	740.243	80.008	19.994	103.151	20.052	7.072	0.465
1310.501	743.524	80.010	19.994	103.149	20.049	7.247	0.507