File: 01_Data/Gypsum_Wallboard_Gypsum_Core/STA/N2/30K_min/Gypsum_Wallboard_Gypsum_Core_STA_N2_30KData_220221_R1.csv
##Temp./Â°C,Time/min,Mass loss(subtr.2)/mg,DSC(subtr.2)/(mW/mg),Sensit./(uV/mW)
48.902,10.00917,-0.00165,0.00583937,1.0888
52.502,10.90735,-0.000190572,0.15706,1.08577
56.102,11.15431,0.00179087,0.25303,1.08277
59.702,11.3447,-0.000950436,0.32715,1.07978
63.302,11.51118,-0.0006426595,0.38598,1.07682
66.902,11.66363,-0.0008225624,0.43877,1.07388
70.502,11.80737,-0.000723939,0.4822,1.07096
74.102,11.94546,-0.000775033,0.52767,1.06807
77.702,12.0791,-0.00175948,0.56594,1.06519
81.302,12.2097,-0.00380423,0.60961,1.06234
84.902,12.3382,-0.003856728,0.65698,1.05951
88.502,12.464,-0.006344568,0.71487,1.05671
92.102,12.58879,-0.006689397,0.78854,1.05392
95.702,12.71214,-0.009333361,0.88443,1.05116
99.302,12.83479,-0.01149207,1.01333,1.04842
102.902,12.95685,-0.01700426,1.18073,1.0457
106.502,13.07864,-0.02289321,1.3864,1.043
110.102,13.20041,-0.03368751,1.61926,1.04033
113.702,13.32196,-0.04519537,1.85998,1.03767
117.302,13.44299,-0.06116362,2.17111,1.03504
120.902,13.56405,-0.08070959,3.00564,1.03243
124.502,13.68539,-0.11562,4.12447,1.02984
128.102,13.8072,-0.16126,5.44585,1.02727
131.702,13.9293,-0.22075,6.89204,1.02472
135.302,14.0519,-0.29142,8.19251,1.02219
138.902,14.1736,-0.3712,8.72764,1.01968
142.502,14.29376,-0.43752,7.82685,1.01719
146.102,14.4116,-0.48646,7.2124,1.01473
149.702,14.52806,-0.5354,7.49134,1.01228
153.302,14.6441,-0.59133,7.57957,1.00985
156.902,14.75835,-0.63047,4.96993,1.00744
160.502,14.87045,-0.63707,3.07818,1.00505
164.102,14.9804,-0.64192,2.03511,1.00268
167.702,15.09002,-0.6473,1.45902,1.00033
171.302,15.19935,-0.64858,1.14115,0.998
174.902,15.3093,-0.64991,0.95625,0.99569
178.502,15.4191,-0.65121,0.84816,0.99339
182.102,15.5283,-0.65382,0.7817,0.99112
185.702,15.6383,-0.65516,0.74245,0.98886
189.302,15.74779,-0.65648,0.71306,0.98661
192.902,15.85709,-0.65648,0.68928,0.98439
196.502,15.96691,-0.6578,0.67219,0.98218
200.102,16.0762,-0.66042,0.66301,0.97999
203.702,16.18583,-0.66042,0.64965,0.97782
207.302,16.2956,-0.66174,0.64009,0.97566
210.902,16.40511,-0.66313,0.63126,0.97352
214.502,16.51444,-0.66305,0.62484,0.97139
218.102,16.6237,-0.66305,0.61571,0.96928
221.702,16.7331,-0.66437,0.61564,0.96718
225.302,16.84214,-0.6657,0.61005,0.9651
228.902,16.95097,-0.66569,0.60446,0.96303
232.502,17.06009,-0.66569,0.6021,0.96098
236.102,17.1689,-0.66569,0.59878,0.95894
239.702,17.2776,-0.66569,0.60063,0.95692
243.302,17.38663,-0.66569,0.59281,0.95491
246.902,17.49532,-0.66635,0.59101,0.95291
250.502,17.60398,-0.66635,0.58863,0.95092
254.102,17.71265,-0.66734,0.58748,0.94895
257.702,17.82134,-0.66865,0.58665,0.94698
261.302,17.92987,-0.66865,0.57729,0.94503
264.902,18.03856,-0.66898,0.57885,0.9431
268.502,18.14743,-0.6703,0.5717,0.94117
272.102,18.25599,-0.6703,0.56494,0.93925
275.702,18.36477,-0.6703,0.5622,0.93734
279.302,18.47371,-0.6703,0.56092,0.93545
282.902,18.58259,-0.6703,0.55435,0.93356
286.502,18.69152,-0.6703,0.55259,0.93168
290.102,18.80029,-0.67161,0.53974,0.92981
293.702,18.90926,-0.67161,0.53338,0.92795
297.302,19.01824,-0.67161,0.5311,0.9261
300.902,19.12734,-0.67293,0.52695,0.92425
304.502,19.23643,-0.67194,0.52228,0.92242
308.102,19.3456,-0.67425,0.51804,0.92059
311.702,19.45465,-0.67293,0.51753,0.91876
315.302,19.5642,-0.67327,0.5157,0.91694
318.902,19.67377,-0.67255,0.50988,0.91513
322.502,19.78334,-0.67392,0.50595,0.91333
326.102,19.89285,-0.67392,0.50419,0.91153
329.702,20.00284,-0.67589,0.49856,0.90973
333.302,20.11284,-0.67589,0.49936,0.90794
336.902,20.22308,-0.67589,0.49589,0.90616
340.502,20.33322,-0.67589,0.48627,0.90438
344.102,20.44349,-0.67589,0.47818,0.9026
347.702,20.554,-0.67688,0.47883,0.90082
351.302,20.6645,-0.67688,0.46952,0.89905
354.902,20.77498,-0.67589,0.46241,0.89728
358.502,20.8858,-0.67721,0.44535,0.89551
362.102,20.99652,-0.67655,0.43576,0.89375
365.702,21.10745,-0.67595,0.41577,0.89198
369.302,21.21837,-0.67776,0.39871,0.89022
372.902,21.32956,-0.68039,0.36901,0.88845
376.502,21.44078,-0.67972,0.34216,0.88669
380.102,21.55189,-0.68104,0.29702,0.88493
383.702,21.66324,-0.68238,0.25374,0.88316
387.302,21.77457,-0.68096,0.20385,0.8814
390.902,21.88606,-0.67962,0.13848,0.87964
394.502,21.99769,-0.68236,0.07318037,0.87787
398.102,22.10949,-0.6817,0.01869599,0.8761
401.702,22.2214,-0.68319,-0.01651771,0.87433
405.302,22.3335,-0.68169,-0.0136613,0.87256
408.902,22.44575,-0.68071,0.02292576,0.87078
412.502,22.55838,-0.68337,0.07664232,0.869
416.102,22.6712,-0.68203,0.14238,0.86722
419.702,22.78406,-0.68336,0.20588,0.86543
423.302,22.89697,-0.68335,0.25915,0.86364
426.902,23.00995,-0.68335,0.30455,0.86184
430.502,23.12323,-0.68335,0.34157,0.86004
434.102,23.2365,-0.68335,0.36735,0.85824
437.702,23.34999,-0.68334,0.39102,0.85642
441.302,23.46343,-0.68467,0.40542,0.85461
444.902,23.57712,-0.68401,0.42174,0.85278
448.502,23.69054,-0.68401,0.43338,0.85095
452.102,23.80455,-0.68467,0.43982,0.84912
455.702,23.91834,-0.68467,0.44641,0.84727
459.302,24.03246,-0.68598,0.45556,0.84542
462.902,24.1467,-0.68607,0.46153,0.84356
466.502,24.26093,-0.68467,0.46995,0.84169
470.102,24.37521,-0.68598,0.47223,0.83982
473.702,24.48978,-0.68598,0.47323,0.83794
477.302,24.60455,-0.68631,0.47633,0.83604
480.902,24.7191,-0.68763,0.48017,0.83414
484.502,24.83387,-0.68763,0.4836,0.83223
488.102,24.94869,-0.68763,0.48197,0.83031
491.702,25.0639,-0.68631,0.48216,0.82838
495.302,25.17892,-0.68631,0.48458,0.82643
498.902,25.29413,-0.68863,0.48943,0.82448
502.502,25.40952,-0.6876,0.48413,0.82252
506.102,25.52486,-0.6873,0.48865,0.82055
509.702,25.64034,-0.6873,0.4776,0.81856
513.302,25.75587,-0.6873,0.48663,0.81657
516.902,25.87128,-0.68533,0.4793,0.81456
520.502,25.98704,-0.68665,0.48164,0.81254
524.102,26.10289,-0.689,0.48079,0.8105
527.702,26.21878,-0.68894,0.47983,0.80846
531.302,26.33472,-0.6876,0.48473,0.8064
534.902,26.4507,-0.68763,0.48279,0.80433
538.502,26.5668,-0.68762,0.48594,0.80225
542.102,26.68303,-0.68894,0.48484,0.80015
545.702,26.79932,-0.68763,0.4819,0.79804
549.302,26.91566,-0.68957,0.48345,0.79592
552.902,27.03195,-0.68939,0.4865,0.79378
556.502,27.14886,-0.68938,0.48503,0.79163
560.102,27.2657,-0.6907,0.48395,0.78946
563.702,27.3823,-0.6907,0.48315,0.78728
567.302,27.499,-0.68939,0.48179,0.78509
570.902,27.6162,-0.68939,0.4893,0.78288
574.502,27.7332,-0.68939,0.49707,0.78065
578.102,27.85036,-0.6884,0.49968,0.77842
581.702,27.96756,-0.6907,0.50037,0.77616
585.302,28.08482,-0.68965,0.50325,0.77389
588.902,28.2022,-0.69067,0.50475,0.77161
592.502,28.3198,-0.69202,0.51126,0.76931
596.102,28.4375,-0.69269,0.51976,0.76699
599.702,28.55515,-0.69334,0.51966,0.76466
603.302,28.67312,-0.69465,0.53157,0.76231
606.902,28.79113,-0.69464,0.53637,0.75995
610.502,28.9093,-0.69597,0.53583,0.75757
614.102,29.02735,-0.69564,0.54001,0.75517
617.702,29.14548,-0.69598,0.54729,0.75276
621.302,29.2637,-0.69728,0.55194,0.75033
624.902,29.3821,-0.6973,0.55595,0.74788
628.502,29.5006,-0.69906,0.56194,0.74542
632.102,29.619,-0.69991,0.57307,0.74294
635.702,29.73746,-0.70081,0.58901,0.74045
639.302,29.8559,-0.70163,0.59285,0.73794
642.902,29.9747,-0.70287,0.60226,0.73541
646.502,30.0934,-0.70289,0.61498,0.73287
650.102,30.2123,-0.7055,0.63479,0.7303
653.702,30.3311,-0.70822,0.64782,0.72773
657.302,30.45018,-0.70781,0.66788,0.72513
660.902,30.56908,-0.71122,0.68341,0.72252
664.502,30.6881,-0.71253,0.7033,0.71989
668.102,30.80712,-0.71404,0.71675,0.71724
671.702,30.92629,-0.71757,0.74206,0.71458
675.302,31.04556,-0.71839,0.76395,0.7119
678.902,31.16487,-0.72172,0.78577,0.70921
682.502,31.28408,-0.7238,0.80971,0.70649
686.102,31.4032,-0.72634,0.83319,0.70376
689.702,31.52242,-0.72994,0.86005,0.70102
693.302,31.64187,-0.73326,0.88584,0.69825
696.902,31.7613,-0.73726,0.9067,0.69547
700.502,31.8808,-0.74263,0.92759,0.69268
704.102,32.00036,-0.74761,0.94825,0.68986
707.702,32.12008,-0.75188,0.96319,0.68703
711.302,32.23972,-0.75427,0.97031,0.68419
714.902,32.35962,-0.76319,0.96632,0.68133
718.502,32.47965,-0.76741,0.95928,0.67845
722.102,32.5998,-0.77115,0.94397,0.67555
725.702,32.71987,-0.77678,0.92086,0.67264
729.302,32.8401,-0.77934,0.89391,0.66971
732.902,32.96021,-0.78512,0.85728,0.66677
736.502,33.08056,-0.78934,0.81252,0.66381
740.102,33.20078,-0.79278,0.756,0.66084
743.702,33.3209,-0.79525,0.69524,0.65784
747.302,33.44121,-0.79597,0.64499,0.65484
750.902,33.56154,-0.79894,0.60774,0.65182
754.502,33.68186,-0.80208,0.58165,0.64878
758.102,33.80231,-0.80248,0.56243,0.64573
761.702,33.92273,-0.80319,0.54749,0.64266
765.302,34.04325,-0.80426,0.5465,0.63958
768.902,34.16383,-0.80706,0.54117,0.63648
772.502,34.28463,-0.8073,0.54495,0.63337
776.102,34.40567,-0.80861,0.54786,0.63024
779.702,34.52697,-0.80993,0.55135,0.6271
783.302,34.64824,-0.81125,0.55447,0.62395
786.902,34.7693,-0.81388,0.55862,0.62078
790.502,34.89062,-0.81355,0.56215,0.6176
794.102,35.0117,-0.81619,0.5715,0.6144
797.702,35.13292,-0.81755,0.5795,0.61119
801.302,35.2543,-0.81882,0.58579,0.60797
804.902,35.3754,-0.82016,0.60146,0.60473
808.502,35.49667,-0.82146,0.61077,0.60149
812.102,35.61781,-0.82278,0.61838,0.59822
815.702,35.73908,-0.82639,0.63437,0.59495
819.302,35.86043,-0.82637,0.65193,0.59166
822.902,35.98162,-0.82803,0.66248,0.58837
826.502,36.10298,-0.83067,0.6823,0.58506
830.102,36.2242,-0.83283,0.69567,0.58173
833.702,36.3457,-0.83562,0.70901,0.5784
837.302,36.46707,-0.83824,0.72309,0.57506
840.902,36.58851,-0.84093,0.73146,0.5717
844.502,36.71013,-0.8436,0.74913,0.56834
848.102,36.83185,-0.84637,0.77118,0.56496
851.702,36.9534,-0.84762,0.78481,0.56157
855.302,37.07495,-0.8519,0.80234,0.55818
858.902,37.1967,-0.85445,0.81779,0.55477
862.502,37.31819,-0.85861,0.83304,0.55135
866.102,37.4398,-0.86044,0.83619,0.54793
869.702,37.56143,-0.86506,0.84212,0.54449
873.302,37.68294,-0.86718,0.85588,0.54105
876.902,37.80435,-0.87087,0.86765,0.53759
880.502,37.9263,-0.87354,0.89886,0.53413
884.102,38.04777,-0.87763,0.93764,0.53066
887.702,38.16918,-0.88254,0.96771,0.52719
891.302,38.29087,-0.88705,0.94922,0.5237
892.502,38.33191,-0.88738,0.92719,0.52254