File: 01_Data/Gypsum_Wallboard_Gypsum_Core/STA/N2/30K_min/Gypsum_Wallboard_Gypsum_Core_STA_N2_30KData_220221_R2.csv
##Temp./Â°C,Time/min,Mass loss(subtr.2)/mg,DSC(subtr.2)/(mW/mg),Sensit./(uV/mW)
48.721,10.00917,-0.00548,-0.002409997,1.08895
52.321,10.90962,-0.004489037,0.12924,1.08592
55.921,11.156,-0.006175806,0.2213,1.08292
59.521,11.3466,-0.003977551,0.29417,1.07993
63.121,11.512,-0.004779816,0.35162,1.07697
66.721,11.66371,-0.00374242,0.3991,1.07403
70.321,11.80671,-0.005100665,0.43836,1.07111
73.921,11.94397,-0.004880782,0.47509,1.06821
77.521,12.07751,-0.0056247,0.5128,1.06534
81.121,12.20769,-0.006970211,0.55131,1.06248
84.721,12.3355,-0.008109003,0.59042,1.05965
88.321,12.46167,-0.008524309,0.64016,1.05685
91.921,12.58608,-0.01129184,0.70292,1.05406
95.521,12.7095,-0.01261148,0.78084,1.0513
99.121,12.83197,-0.0152466,0.88119,1.04855
102.721,12.95385,-0.01885479,1.01554,1.04583
106.321,13.07578,-0.02557385,1.17608,1.04314
109.921,13.19749,-0.03269649,1.35798,1.04046
113.521,13.31895,-0.04363364,1.55082,1.0378
117.121,13.44036,-0.05531765,1.80331,1.03517
120.721,13.56119,-0.07220707,2.53061,1.03256
124.321,13.68259,-0.10164,3.49089,1.02997
127.921,13.80395,-0.1408,4.64361,1.02739
131.521,13.92574,-0.19336,5.97855,1.02484
135.121,14.0481,-0.25843,7.33373,1.02232
138.721,14.17022,-0.33346,8.33,1.01981
142.321,14.29146,-0.40922,8.41642,1.01732
145.921,14.41049,-0.47128,7.3754,1.01485
149.521,14.5274,-0.51625,6.87312,1.0124
153.121,14.643,-0.56431,6.89812,1.00997
156.721,14.75815,-0.60907,6.59964,1.00756
160.321,14.87221,-0.64888,5.57753,1.00517
163.921,14.98449,-0.66879,3.57803,1.0028
167.521,15.0945,-0.67682,2.31589,1.00045
171.121,15.20434,-0.68004,1.5916,0.99812
174.721,15.31369,-0.68269,1.1849,0.9958
178.321,15.423,-0.68396,0.95505,0.99351
181.921,15.5324,-0.6869,0.81615,0.99123
185.521,15.64156,-0.69165,0.73156,0.98897
189.121,15.7509,-0.69066,0.6794,0.98673
192.721,15.86014,-0.69201,0.64279,0.9845
196.321,15.9695,-0.69332,0.61403,0.98229
199.921,16.07884,-0.69431,0.59508,0.9801
203.521,16.1882,-0.69465,0.58245,0.97793
207.121,16.2974,-0.69762,0.5716,0.97577
210.721,16.40692,-0.6976,0.55945,0.97362
214.321,16.5161,-0.6976,0.55022,0.9715
217.921,16.62539,-0.6976,0.54316,0.96938
221.521,16.7346,-0.69943,0.54053,0.96729
225.121,16.8435,-0.70135,0.5369,0.96521
228.721,16.9527,-0.7033,0.5296,0.96314
232.321,17.0619,-0.70185,0.52313,0.96108
235.921,17.17064,-0.70295,0.52095,0.95905
239.521,17.2793,-0.70429,0.51689,0.95702
243.121,17.3883,-0.7043,0.51508,0.95501
246.721,17.49706,-0.7056,0.50887,0.95301
250.321,17.6058,-0.70429,0.50399,0.95102
253.921,17.71446,-0.70526,0.50162,0.94905
257.521,17.8231,-0.70594,0.49756,0.94708
261.121,17.93147,-0.70692,0.49193,0.94513
264.721,18.0401,-0.70826,0.48834,0.94319
268.321,18.1482,-0.7095,0.48303,0.94126
271.921,18.2573,-0.70831,0.47749,0.93935
275.521,18.36603,-0.70692,0.47275,0.93744
279.121,18.47455,-0.70691,0.4686,0.93554
282.721,18.58332,-0.70956,0.46181,0.93365
286.321,18.6921,-0.70826,0.45729,0.93177
289.921,18.80076,-0.70924,0.45372,0.9299
293.521,18.90995,-0.70927,0.45032,0.92804
297.121,19.0189,-0.70923,0.44425,0.92619
300.721,19.12803,-0.71055,0.44141,0.92435
304.321,19.23733,-0.70855,0.44013,0.92251
307.921,19.3466,-0.70857,0.43937,0.92068
311.521,19.45573,-0.70958,0.43437,0.91885
315.121,19.5652,-0.7111,0.43437,0.91704
318.721,19.6746,-0.71186,0.4366,0.91523
322.321,19.78416,-0.7112,0.42876,0.91342
325.921,19.8938,-0.7112,0.42874,0.91162
329.521,20.00349,-0.71118,0.4227,0.90982
333.121,20.11317,-0.7112,0.42203,0.90803
336.721,20.22312,-0.71252,0.41966,0.90625
340.321,20.33297,-0.7127,0.41635,0.90447
343.921,20.44308,-0.71384,0.41389,0.90269
347.521,20.55326,-0.71515,0.41214,0.90091
351.121,20.6635,-0.71515,0.40626,0.89914
354.721,20.7738,-0.71515,0.40167,0.89737
358.321,20.88395,-0.71543,0.39274,0.8956
361.921,20.9944,-0.71649,0.38108,0.89384
365.521,21.105,-0.71646,0.36854,0.89207
369.121,21.21559,-0.71603,0.35324,0.89031
372.721,21.32643,-0.71842,0.33422,0.88854
376.321,21.43739,-0.71613,0.30944,0.88678
379.921,21.54832,-0.71613,0.27965,0.88502
383.521,21.65939,-0.71679,0.2389,0.88325
387.121,21.77071,-0.71679,0.18826,0.88149
390.721,21.8821,-0.7191,0.12889,0.87972
394.321,21.99344,-0.7191,0.05846897,0.87796
397.921,22.10495,-0.71912,-0.01612349,0.87619
401.521,22.21666,-0.72009,-0.08385346,0.87442
405.121,22.3285,-0.71981,-0.12603,0.87264
408.721,22.44032,-0.7191,-0.13183,0.87087
412.321,22.55256,-0.72042,-0.0978798,0.86909
415.921,22.6649,-0.72042,-0.03688039,0.86731
419.521,22.77722,-0.72042,0.03202316,0.86552
423.121,22.88992,-0.72041,0.09766112,0.86373
426.721,23.00253,-0.72108,0.15781,0.86193
430.321,23.11545,-0.72235,0.20404,0.86013
433.921,23.22866,-0.72108,0.24031,0.85833
437.521,23.3417,-0.72108,0.27063,0.85652
441.121,23.45509,-0.72108,0.29102,0.8547
444.721,23.5685,-0.72173,0.3058,0.85287
448.321,23.6819,-0.72173,0.32049,0.85105
451.921,23.79571,-0.72173,0.33239,0.84921
455.521,23.9093,-0.72173,0.33916,0.84737
459.121,24.02325,-0.72186,0.3489,0.84551
462.721,24.13738,-0.72206,0.35455,0.84366
466.321,24.25142,-0.72208,0.35899,0.84179
469.921,24.36574,-0.72348,0.36467,0.83991
473.521,24.4802,-0.72348,0.36746,0.83803
477.121,24.5948,-0.72381,0.37144,0.83614
480.721,24.70956,-0.72425,0.37663,0.83424
484.321,24.8243,-0.72385,0.37626,0.83233
487.921,24.93915,-0.72227,0.37856,0.8304
491.521,25.05394,-0.72326,0.37939,0.82847
495.121,25.16891,-0.72326,0.38286,0.82653
498.721,25.28406,-0.7246,0.38496,0.82458
502.321,25.3991,-0.72458,0.38284,0.82262
505.921,25.51459,-0.72317,0.38496,0.82065
509.521,25.62987,-0.72293,0.38287,0.81866
513.121,25.74537,-0.72475,0.38392,0.81667
516.721,25.86111,-0.72392,0.38003,0.81466
520.321,25.977,-0.72525,0.38246,0.81264
523.921,26.09286,-0.72656,0.3824,0.81061
527.521,26.2089,-0.72845,0.3802,0.80856
531.121,26.32481,-0.72524,0.37567,0.80651
534.721,26.4411,-0.72524,0.37768,0.80444
538.321,26.5575,-0.72656,0.37414,0.80235
541.921,26.67404,-0.72789,0.3726,0.80026
545.521,26.7905,-0.72658,0.37178,0.79815
549.121,26.90715,-0.72787,0.37373,0.79603
552.721,27.0239,-0.72892,0.37277,0.79389
556.321,27.141,-0.72886,0.36965,0.79174
559.921,27.2578,-0.72886,0.37394,0.78957
563.521,27.375,-0.72886,0.37366,0.78739
567.121,27.49209,-0.72886,0.37556,0.7852
570.721,27.6094,-0.72886,0.37754,0.78299
574.321,27.7267,-0.7301,0.38274,0.78077
577.921,27.8441,-0.72972,0.38635,0.77853
581.521,27.9616,-0.72974,0.3854,0.77627
585.121,28.07902,-0.72941,0.39424,0.77401
588.721,28.1966,-0.72842,0.39993,0.77172
592.321,28.3141,-0.72965,0.40439,0.76942
595.921,28.43208,-0.73105,0.41044,0.76711
599.521,28.54993,-0.73233,0.41923,0.76478
603.121,28.66788,-0.73171,0.42312,0.76243
606.721,28.7858,-0.73171,0.42932,0.76007
610.321,28.9042,-0.73303,0.43529,0.75769
613.921,29.02257,-0.73331,0.44586,0.75529
617.521,29.141,-0.73434,0.45072,0.75288
621.121,29.2596,-0.73566,0.45533,0.75045
624.721,29.37817,-0.73566,0.46195,0.74801
628.321,29.4967,-0.73703,0.46879,0.74555
631.921,29.61538,-0.73829,0.47853,0.74307
635.521,29.734,-0.73829,0.48419,0.74058
639.121,29.8528,-0.73951,0.49538,0.73807
642.721,29.9718,-0.74092,0.50561,0.73554
646.321,30.0907,-0.74321,0.51495,0.73299
649.921,30.20952,-0.74225,0.52663,0.73043
653.521,30.32848,-0.74356,0.54075,0.72786
657.121,30.44738,-0.74487,0.55214,0.72526
660.721,30.5666,-0.7473,0.56742,0.72265
664.321,30.6856,-0.74883,0.58486,0.72002
667.921,30.80445,-0.75074,0.60401,0.71738
671.521,30.92365,-0.75305,0.6211,0.71472
675.121,31.0427,-0.7534,0.63977,0.71204
678.721,31.1617,-0.75738,0.65988,0.70934
682.321,31.2807,-0.75987,0.68085,0.70663
685.921,31.3998,-0.76302,0.6987,0.7039
689.521,31.51892,-0.76537,0.72244,0.70116
693.121,31.6381,-0.77087,0.73801,0.69839
696.721,31.75736,-0.77478,0.76556,0.69561
700.321,31.8767,-0.77614,0.78309,0.69282
703.921,31.9963,-0.77974,0.8023,0.69001
707.521,32.1158,-0.7861,0.8224,0.68718
711.121,32.23538,-0.79104,0.8432,0.68433
714.721,32.35538,-0.79515,0.86412,0.68147
718.321,32.47535,-0.80005,0.87317,0.67859
721.921,32.5953,-0.80559,0.88413,0.6757
725.521,32.71548,-0.81164,0.87637,0.67279
729.121,32.8357,-0.81714,0.87427,0.66986
732.721,32.9559,-0.81945,0.86237,0.66692
736.321,33.07634,-0.8256,0.84927,0.66396
739.921,33.19664,-0.83109,0.81552,0.66098
743.521,33.3169,-0.83429,0.77549,0.658
747.121,33.43737,-0.83841,0.72454,0.65499
750.721,33.55795,-0.84126,0.66921,0.65197
754.321,33.67866,-0.8452,0.61192,0.64893
757.921,33.79918,-0.84787,0.56653,0.64588
761.521,33.91977,-0.84933,0.52945,0.64281
765.121,34.04033,-0.8506,0.50534,0.63973
768.721,34.1611,-0.85123,0.48197,0.63664
772.321,34.28153,-0.8539,0.47559,0.63353
775.921,34.40214,-0.85455,0.47675,0.6304
779.521,34.52281,-0.85682,0.47568,0.62726
783.121,34.6434,-0.8572,0.47999,0.62411
786.721,34.76389,-0.85745,0.48834,0.62094
790.321,34.88435,-0.85983,0.49303,0.61776
793.921,35.00472,-0.85965,0.49533,0.61456
797.521,35.12518,-0.86244,0.50067,0.61135
801.121,35.2459,-0.86378,0.50822,0.60813
804.721,35.36647,-0.86423,0.51977,0.6049
808.321,35.48729,-0.86633,0.53476,0.60165
811.921,35.60817,-0.86773,0.54013,0.59839
815.521,35.72887,-0.86904,0.55025,0.59512
819.121,35.8499,-0.8704,0.55546,0.59183
822.721,35.97097,-0.87303,0.57247,0.58853
826.321,36.09215,-0.87411,0.58891,0.58522
829.921,36.21312,-0.87693,0.60551,0.5819
833.521,36.3343,-0.87904,0.61623,0.57857
837.121,36.45562,-0.88071,0.62925,0.57523
840.721,36.57667,-0.88354,0.64156,0.57187
844.321,36.69791,-0.88549,0.65529,0.56851
847.921,36.81905,-0.88813,0.66938,0.56513
851.521,36.94092,-0.89039,0.68866,0.56174
855.121,37.06248,-0.89137,0.70197,0.55835
858.721,37.18373,-0.8955,0.72075,0.55494
862.321,37.3054,-0.89818,0.74081,0.55152
865.921,37.4272,-0.90388,0.75243,0.5481
869.521,37.54896,-0.90468,0.77368,0.54466
873.121,37.67075,-0.90799,0.78727,0.54122
876.721,37.7924,-0.91097,0.79676,0.53777
880.321,37.9138,-0.91499,0.806,0.53431
883.921,38.0353,-0.91677,0.81586,0.53084
887.521,38.1569,-0.92246,0.82323,0.52736
891.121,38.27837,-0.92436,0.83564,0.52388
892.721,38.3324,-0.92695,0.85103,0.52233