File: 01_Data/PETG/HFM/PETG_Density_Wet_R1.csv
,PETG_WET_1
Sample Mass [g],141.4
Sample Volume [cm3],107.2
Sample Density [kg/m3],1319