File: 01_Data/PETG/HFM/PETG_Density_Wet_R3.csv
,PETG_WET_3
Sample Mass [g],140.6
Sample Volume [cm3],107.3
Sample Density [kg/m3],1311