File: 01_Data/Fiber_Cement_Board/STA/N2/10K_min/Fiber_Cement_Board_STA_N2_10KData_210622_R1.csv
##Temp./Â°C,Time/min,Mass loss(subtr.2)/mg,DSC(subtr.2)/mW,Sensit./(uV/mW)
49.326,10.01,-0.00275,0.02344381,0.61832
51.826,12.20738,-0.00399784,0.18215,0.61964
54.326,12.83141,-0.004993369,0.27605,0.62094
56.826,13.3209,-0.0066051,0.34216,0.62222
59.326,13.7538,-0.00656842,0.40997,0.62347
61.826,14.1526,-0.007631698,0.46142,0.62471
64.326,14.5251,-0.008026958,0.51959,0.62592
66.826,14.87861,-0.01163033,0.56996,0.62711
69.326,15.21587,-0.0131536,0.62825,0.62828
71.826,15.53987,-0.01381173,0.68239,0.62943
74.326,15.8525,-0.0179774,0.76188,0.63056
76.826,16.15708,-0.01850287,0.81157,0.63166
79.326,16.4523,-0.03012785,0.87679,0.63274
81.826,16.74083,-0.02534001,0.93617,0.6338
84.326,17.02354,-0.02799502,0.99607,0.63484
86.826,17.29995,-0.02927995,1.05466,0.63586
89.326,17.57027,-0.03125856,1.08161,0.63685
91.826,17.8368,-0.03423369,1.14271,0.63782
94.326,18.0995,-0.03975209,1.15628,0.63877
96.826,18.35847,-0.04321901,1.18961,0.6397
99.326,18.61441,-0.04399348,1.19733,0.64061
101.826,18.8676,-0.0483955,1.22124,0.64149
104.326,19.1185,-0.0524249,1.23495,0.64235
106.826,19.36744,-0.05440955,1.25551,0.64319
109.326,19.6148,-0.05967781,1.25812,0.64401
111.826,19.86104,-0.06116496,1.2728,0.64481
114.326,20.1057,-0.06513818,1.28534,0.64558
116.826,20.34875,-0.06768001,1.30791,0.64633
119.326,20.59,-0.07163,1.29699,0.64706
121.826,20.8304,-0.07425811,1.30258,0.64777
124.326,21.06941,-0.07198798,1.31304,0.64846
126.826,21.30769,-0.08058334,1.31273,0.64912
129.326,21.5439,-0.08392672,1.31079,0.64977
131.826,21.77919,-0.08531847,1.3034,0.65039
134.326,22.01282,-0.08928999,1.2924,0.65099
136.826,22.24509,-0.09201996,1.28794,0.65157
139.326,22.47743,-0.0947101,1.27062,0.65213
141.826,22.70843,-0.09993015,1.27886,0.65266
144.326,22.93794,-0.10122,1.27377,0.65317
146.826,23.1668,-0.10268,1.26961,0.65367
149.326,23.3952,-0.10619,1.25802,0.65414
151.826,23.6231,-0.10894,1.25211,0.65459
154.326,23.85032,-0.11089,1.26595,0.65502
156.826,24.07695,-0.112,1.24726,0.65542
159.326,24.30333,-0.11482,1.22716,0.65581
161.826,24.53004,-0.11627,1.23593,0.65617
164.326,24.75611,-0.11891,1.21218,0.65652
166.826,24.9819,-0.12022,1.20237,0.65684
169.326,25.20767,-0.12416,1.18703,0.65714
171.826,25.4329,-0.12548,1.15409,0.65742
174.326,25.65774,-0.12811,1.15626,0.65769
176.826,25.88264,-0.12943,1.1512,0.65793
179.326,26.10698,-0.13239,1.13535,0.65814
181.826,26.3312,-0.13575,1.11815,0.65834
184.326,26.55469,-0.13512,1.1121,0.65852
186.826,26.7782,-0.13787,1.09963,0.65868
189.326,27.00137,-0.1393,1.09606,0.65882
191.826,27.2236,-0.14382,1.0779,0.65893
194.326,27.44697,-0.14381,1.05529,0.65903
196.826,27.6696,-0.14775,1.04544,0.65911
199.326,27.89122,-0.14907,1.02762,0.65917
201.826,28.1139,-0.14907,1.01672,0.6592
204.326,28.3365,-0.15001,1.00256,0.65922
206.826,28.55868,-0.15302,0.99323,0.65922
209.326,28.78102,-0.15335,0.97862,0.6592
211.826,29.00321,-0.15492,0.97622,0.65916
214.326,29.2258,-0.15837,0.95423,0.6591
216.826,29.4481,-0.15839,0.93915,0.65902
219.326,29.6704,-0.16102,0.92749,0.65892
221.826,29.89283,-0.16174,0.93425,0.65881
224.326,30.11532,-0.16229,0.91729,0.65867
226.826,30.3378,-0.16357,0.91996,0.65852
229.326,30.56033,-0.16629,0.9237,0.65834
231.826,30.7839,-0.16761,0.92256,0.65815
234.326,31.00628,-0.16892,0.93496,0.65794
236.826,31.22927,-0.16953,0.94975,0.65771
239.326,31.4522,-0.17301,0.95485,0.65747
241.826,31.67493,-0.17561,0.96454,0.6572
244.326,31.89769,-0.17646,0.96858,0.65692
246.826,32.1207,-0.17692,0.97058,0.65662
249.326,32.34364,-0.17986,0.96881,0.6563
251.826,32.56695,-0.18099,0.96589,0.65597
254.326,32.79016,-0.18362,0.96823,0.65562
256.826,33.01328,-0.18373,0.98394,0.65525
259.326,33.23673,-0.18884,0.98307,0.65486
261.826,33.45975,-0.18764,0.99321,0.65446
264.326,33.68381,-0.19052,1.00978,0.65403
266.826,33.9075,-0.19425,1.02752,0.6536
269.326,34.1319,-0.197,1.02702,0.65314
271.826,34.35613,-0.19831,1.04802,0.65267
274.326,34.58028,-0.19963,1.06348,0.65219
276.826,34.8044,-0.20226,1.06252,0.65169
279.326,35.0289,-0.20486,1.08025,0.65117
281.826,35.2537,-0.20983,1.09604,0.65063
284.326,35.47841,-0.2128,1.08676,0.65008
286.826,35.70301,-0.21405,1.09187,0.64952
289.326,35.9283,-0.21674,1.10211,0.64894
291.826,36.15311,-0.22074,1.11226,0.64834
294.326,36.37914,-0.22619,1.12715,0.64773
296.826,36.60457,-0.22853,1.13159,0.64711
299.326,36.82985,-0.23,1.14006,0.64647
301.826,37.05573,-0.23438,1.14015,0.64581
304.326,37.2826,-0.23769,1.14295,0.64514
306.826,37.50848,-0.24428,1.14028,0.64446
309.326,37.7352,-0.24554,1.15117,0.64376
311.826,37.96199,-0.25215,1.13477,0.64305
314.326,38.18853,-0.25491,1.1323,0.64232
316.826,38.41539,-0.25976,1.11302,0.64159
319.326,38.64245,-0.26239,1.10725,0.64083
321.826,38.86997,-0.26994,1.10734,0.64007
324.326,39.09729,-0.27168,1.09262,0.63929
326.826,39.32546,-0.27825,1.09073,0.6385
329.326,39.55336,-0.28354,1.07863,0.63769
331.826,39.7812,-0.28804,1.07769,0.63688
334.326,40.00979,-0.29197,1.05299,0.63605
336.826,40.2382,-0.29795,1.05188,0.63521
339.326,40.46712,-0.30328,1.03546,0.63435
341.826,40.6959,-0.30792,1.02818,0.63349
344.326,40.92542,-0.31411,1.03129,0.63261
346.826,41.15445,-0.31806,1.0273,0.63172
349.326,41.38388,-0.32579,1.02133,0.63082
351.826,41.6136,-0.33445,1.03775,0.62991
354.326,41.84316,-0.34008,1.03234,0.62899
356.826,42.07322,-0.3484,1.02338,0.62805
359.326,42.30358,-0.35567,1.01008,0.62711
361.826,42.53457,-0.36271,1.01342,0.62615
364.326,42.76501,-0.36672,1.0059,0.62519
366.826,42.99623,-0.37371,0.98058,0.62421
369.326,43.2277,-0.38219,0.95789,0.62323
371.826,43.45945,-0.38746,0.94177,0.62223
374.326,43.6911,-0.39497,0.92205,0.62123
376.826,43.92324,-0.39069,0.88595,0.62021
379.326,44.15547,-0.40088,0.85496,0.61919
381.826,44.38819,-0.40545,0.82892,0.61815
384.326,44.6212,-0.40871,0.83351,0.61711
386.826,44.8547,-0.41035,0.82676,0.61606
389.326,45.08824,-0.41362,0.8058,0.615
391.826,45.32192,-0.41378,0.79394,0.61393
394.326,45.55587,-0.41648,0.79453,0.61286
396.826,45.78998,-0.41626,0.78193,0.61177
399.326,46.02456,-0.42154,0.78693,0.61068
401.826,46.25918,-0.42315,0.77357,0.60958
404.326,46.49411,-0.41771,0.77034,0.60847
406.826,46.72899,-0.42153,0.76253,0.60736
409.326,46.9642,-0.42878,0.75901,0.60623
411.826,47.19947,-0.42591,0.7548,0.6051
414.326,47.43503,-0.42986,0.76202,0.60397
416.826,47.6715,-0.42986,0.7619,0.60282
419.326,47.90785,-0.43249,0.77072,0.60168
421.826,48.1441,-0.43383,0.78249,0.60052
424.326,48.38132,-0.43411,0.77969,0.59936
426.826,48.6182,-0.43679,0.77086,0.59819
429.326,48.85515,-0.43932,0.77489,0.59701
431.826,49.09247,-0.44091,0.79175,0.59583
434.326,49.33023,-0.44402,0.78008,0.59465
436.826,49.56832,-0.44369,0.77787,0.59346
439.326,49.8067,-0.44431,0.78125,0.59226
441.826,50.04468,-0.44932,0.77359,0.59106
444.326,50.2833,-0.44952,0.77807,0.58985
446.826,50.52203,-0.45089,0.77502,0.58864
449.326,50.76096,-0.45213,0.78588,0.58743
451.826,51.00005,-0.45191,0.77697,0.58621
454.326,51.23964,-0.45587,0.77455,0.58498
456.826,51.47886,-0.45728,0.77216,0.58376
459.326,51.71895,-0.4593,0.75163,0.58252
461.826,51.95864,-0.45969,0.75108,0.58129
464.326,52.19865,-0.46227,0.75682,0.58005
466.826,52.4387,-0.46364,0.7526,0.57881
469.326,52.6791,-0.46734,0.75048,0.57756
471.826,52.92009,-0.46573,0.76783,0.57631
474.326,53.1614,-0.46737,0.75485,0.57506
476.826,53.4025,-0.47274,0.75281,0.57381
479.326,53.64402,-0.47182,0.78727,0.57255
481.826,53.8857,-0.47397,0.81949,0.57129
484.326,54.1274,-0.4768,0.81856,0.57003
486.826,54.36996,-0.47824,0.8491,0.56877
489.326,54.61257,-0.47559,0.84985,0.5675
491.826,54.8545,-0.47943,0.86926,0.56623
494.326,55.0973,-0.48196,0.85003,0.56496
496.826,55.33955,-0.48198,0.85139,0.56369
499.326,55.58211,-0.4846,0.83122,0.56242
501.826,55.8253,-0.48524,0.84288,0.56115
504.326,56.0693,-0.4868,0.84441,0.55987
506.826,56.3136,-0.48831,0.84335,0.5586
509.326,56.5579,-0.49063,0.82452,0.55732
511.826,56.8018,-0.49107,0.83693,0.55604
514.326,57.0452,-0.49258,0.84643,0.55476
516.826,57.2902,-0.49392,0.85465,0.55349
519.326,57.53415,-0.49495,0.86433,0.55221
521.826,57.7791,-0.49722,0.87106,0.55093
524.326,58.02391,-0.49885,0.87414,0.54965
526.826,58.2687,-0.50028,0.86385,0.54837
529.326,58.51461,-0.51027,0.85784,0.5471
531.826,58.7606,-0.50203,0.86214,0.54582
534.326,59.0062,-0.5037,0.85858,0.54454
536.826,59.2526,-0.505,0.88689,0.54327
539.326,59.49896,-0.50495,0.88115,0.54199
541.826,59.7451,-0.50895,0.87606,0.54072
544.326,59.99176,-0.50612,0.90573,0.53944
546.826,60.2387,-0.51404,0.90742,0.53817
549.326,60.4862,-0.51369,0.90855,0.5369
551.826,60.73333,-0.51169,0.9408,0.53563
554.326,60.9813,-0.51719,0.93641,0.53436
556.826,61.22908,-0.51983,0.93767,0.5331
559.326,61.4767,-0.52181,0.94148,0.53183
561.826,61.72484,-0.5208,0.95057,0.53057
564.326,61.973,-0.52191,0.95743,0.52931
566.826,62.2217,-0.52184,0.94875,0.52805
569.326,62.47009,-0.52551,0.95872,0.5268
571.826,62.71906,-0.52551,0.99103,0.52554
574.326,62.968,-0.53583,1.1476,0.52429
576.826,63.21689,-0.52486,1.04961,0.52304
579.326,63.46655,-0.53029,0.98336,0.5218
581.826,63.71525,-0.53246,0.96319,0.52056
584.326,63.964,-0.53231,0.96357,0.51932
586.826,64.2132,-0.535,0.97741,0.51808
589.326,64.46254,-0.53373,0.95857,0.51684
591.826,64.7123,-0.53782,0.98559,0.51561
594.326,64.96248,-0.5515,0.93953,0.51439
596.826,65.2133,-0.53721,0.95861,0.51316
599.326,65.46404,-0.54131,0.92872,0.51194
601.826,65.71459,-0.54372,0.93195,0.51072
604.326,65.96519,-0.54679,0.90144,0.50951
606.826,66.21588,-0.54646,0.90407,0.5083
609.326,66.46776,-0.54402,0.88836,0.50709
611.826,66.71928,-0.54545,0.8911,0.50589
614.326,66.97091,-0.54404,0.85993,0.50469
616.826,67.22322,-0.54927,0.84569,0.5035
619.326,67.47507,-0.54657,0.82525,0.50231
621.826,67.727,-0.54611,0.80857,0.50112
624.326,67.97907,-0.54823,0.79514,0.49994
626.826,68.23135,-0.54997,0.78133,0.49876
629.326,68.48394,-0.5536,0.79574,0.49759
631.826,68.73666,-0.55363,0.81331,0.49642
634.326,68.9893,-0.55117,0.80945,0.49526
636.826,69.24214,-0.54629,0.80549,0.4941
639.326,69.49494,-0.55283,0.7531,0.49295
641.826,69.7475,-0.55973,0.75502,0.4918
644.226,69.99051,-0.55337,0.73397,0.4907