File: 01_Data/Fiber_Cement_Board/STA/N2/10K_min/Fiber_Cement_Board_STA_N2_10KData_210622_R2.csv
##Temp./Â°C,Time/min,Mass loss(subtr.2)/mg,DSC(subtr.2)/mW,Sensit./(uV/mW)
49.342,10.01,-0.02973,0.10488,0.61833
51.842,12.21074,-0.03472416,0.3436,0.61965
54.342,12.83302,-0.03931293,0.46716,0.62095
56.842,13.3246,-0.04023028,0.56987,0.62223
59.342,13.75862,-0.04299549,0.66539,0.62348
61.842,14.1569,-0.04146885,0.73212,0.62472
64.342,14.5298,-0.04673172,0.79596,0.62593
66.842,14.88369,-0.04508956,0.88738,0.62712
69.342,15.22199,-0.04745146,0.95598,0.62829
71.842,15.54635,-0.04993085,1.04618,0.62944
74.342,15.859,-0.05377321,1.13439,0.63056
76.842,16.16437,-0.05642113,1.2202,0.63167
79.342,16.45949,-0.05626999,1.30109,0.63275
81.842,16.74836,-0.05842018,1.38512,0.63381
84.342,17.02939,-0.06242079,1.44702,0.63485
86.842,17.3059,-0.06886461,1.5213,0.63586
89.342,17.57678,-0.07111696,1.56958,0.63686
91.842,17.84296,-0.07405631,1.61439,0.63783
94.342,18.10549,-0.07800373,1.66466,0.63878
96.842,18.36443,-0.0805391,1.68702,0.63971
99.342,18.6201,-0.08721642,1.72692,0.64061
101.842,18.87349,-0.08993238,1.7741,0.64149
104.342,19.12492,-0.09523087,1.78276,0.64236
106.842,19.374,-0.09729975,1.81699,0.6432
109.342,19.62185,-0.10543,1.82314,0.64401
111.842,19.86863,-0.10936,1.84551,0.64481
114.342,20.113,-0.11503,1.87394,0.64559
116.842,20.35598,-0.11943,1.86644,0.64634
119.342,20.5989,-0.12073,1.88443,0.64707
121.842,20.83951,-0.12473,1.89042,0.64778
124.342,21.07868,-0.13316,1.87249,0.64846
126.842,21.31641,-0.13524,1.87659,0.64913
129.342,21.55227,-0.13811,1.8887,0.64977
131.842,21.78734,-0.14625,1.89221,0.65039
134.342,22.0213,-0.1459,1.88802,0.65099
136.842,22.25395,-0.14711,1.88721,0.65157
139.342,22.48529,-0.15154,1.89448,0.65213
141.842,22.7159,-0.15236,1.88584,0.65266
144.342,22.94603,-0.15562,1.89263,0.65318
146.842,23.17493,-0.15855,1.88192,0.65367
149.342,23.40336,-0.16243,1.87996,0.65414
151.842,23.63123,-0.16968,1.88791,0.65459
154.342,23.8584,-0.1745,1.87459,0.65502
156.842,24.08509,-0.17935,1.87131,0.65543
159.342,24.31188,-0.183,1.84396,0.65581
161.842,24.53749,-0.18562,1.8335,0.65618
164.342,24.76342,-0.18992,1.83288,0.65652
166.842,24.9889,-0.19382,1.81854,0.65684
169.342,25.21433,-0.19832,1.82101,0.65715
171.842,25.44024,-0.19845,1.81383,0.65743
174.342,25.6644,-0.20207,1.81312,0.65769
176.842,25.88942,-0.20336,1.79286,0.65793
179.342,26.11392,-0.20837,1.77348,0.65815
181.842,26.3379,-0.20769,1.7547,0.65834
184.342,26.5612,-0.20907,1.75969,0.65852
186.842,26.7845,-0.21321,1.74441,0.65868
189.342,27.00743,-0.21676,1.70628,0.65882
191.842,27.23007,-0.21652,1.70083,0.65894
194.342,27.4524,-0.21618,1.6667,0.65903
196.842,27.67472,-0.21767,1.65161,0.65911
199.342,27.8967,-0.22201,1.62471,0.65917
201.842,28.11921,-0.22168,1.60555,0.6592
204.342,28.3416,-0.22562,1.59743,0.65922
206.842,28.56413,-0.22596,1.58216,0.65922
209.342,28.78657,-0.22857,1.56202,0.6592
211.842,29.0085,-0.2557,1.55836,0.65916
214.342,29.23061,-0.234,1.53964,0.6591
216.842,29.45301,-0.22255,1.49762,0.65902
219.342,29.67581,-0.24039,1.50024,0.65892
221.842,29.89773,-0.24667,1.49012,0.65881
224.342,30.1203,-0.24535,1.47346,0.65867
226.842,30.34341,-0.23751,1.45533,0.65851
229.342,30.5665,-0.2293,1.43594,0.65834
231.842,30.7892,-0.24976,1.43857,0.65815
234.342,31.0114,-0.25305,1.43873,0.65794
236.842,31.23465,-0.25665,1.43825,0.65771
239.342,31.45679,-0.25624,1.44841,0.65746
241.842,31.68015,-0.25864,1.43139,0.6572
244.342,31.90277,-0.26029,1.42352,0.65692
246.842,32.1258,-0.26029,1.42532,0.65662
249.342,32.3491,-0.26292,1.43207,0.6563
251.842,32.57165,-0.26391,1.41977,0.65597
254.342,32.79537,-0.26489,1.41657,0.65561
256.842,33.0186,-0.26676,1.42659,0.65524
259.342,33.24224,-0.26808,1.4123,0.65486
261.842,33.4656,-0.26916,1.4153,0.65445
264.342,33.6891,-0.27334,1.43596,0.65403
266.842,33.9126,-0.27335,1.45024,0.65359
269.342,34.13629,-0.27893,1.46101,0.65314
271.842,34.36,-0.28157,1.46469,0.65267
274.342,34.58446,-0.28189,1.46932,0.65218
276.842,34.80899,-0.28716,1.48941,0.65168
279.342,35.0328,-0.28981,1.50159,0.65116
281.842,35.2573,-0.29374,1.51458,0.65063
284.342,35.48211,-0.29769,1.52412,0.65008
286.842,35.70617,-0.30031,1.524,0.64952
289.342,35.93195,-0.3056,1.54457,0.64893
291.842,36.1571,-0.30987,1.55795,0.64834
294.342,36.38203,-0.31269,1.56248,0.64773
296.842,36.6081,-0.31621,1.5765,0.6471
299.342,36.83396,-0.31941,1.56741,0.64646
301.842,37.05988,-0.32335,1.56651,0.64581
304.342,37.28573,-0.32862,1.55528,0.64514
306.842,37.51171,-0.33126,1.56194,0.64445
309.342,37.738,-0.33522,1.5448,0.64376
311.842,37.96403,-0.33951,1.53665,0.64305
314.342,38.19055,-0.34314,1.52889,0.64232
316.842,38.41749,-0.34729,1.52033,0.64158
319.342,38.6443,-0.35264,1.5033,0.64083
321.842,38.8718,-0.35759,1.47592,0.64006
324.342,39.09942,-0.36317,1.47061,0.63928
326.842,39.3264,-0.36942,1.44484,0.63849
329.342,39.55426,-0.37437,1.45078,0.63769
331.842,39.78236,-0.38194,1.43656,0.63687
334.342,40.01078,-0.3873,1.42156,0.63604
336.842,40.23912,-0.39422,1.40861,0.6352
339.342,40.46775,-0.40137,1.40439,0.63435
341.842,40.69701,-0.40653,1.39973,0.63348
344.342,40.92592,-0.41674,1.38816,0.6326
346.842,41.15579,-0.41965,1.37123,0.63171
349.342,41.3845,-0.42653,1.35817,0.63081
351.842,41.61497,-0.4328,1.35179,0.6299
354.342,41.8449,-0.44061,1.34726,0.62898
356.842,42.07605,-0.44539,1.3272,0.62805
359.342,42.3067,-0.45601,1.32857,0.6271
361.842,42.5374,-0.46507,1.31038,0.62615
364.342,42.76852,-0.46903,1.30018,0.62518
366.842,42.9992,-0.47856,1.28107,0.62421
369.342,43.2303,-0.48668,1.25613,0.62322
371.842,43.46147,-0.4908,1.22322,0.62222
374.342,43.6934,-0.49776,1.19375,0.62122
376.842,43.9259,-0.50399,1.16351,0.6202
379.342,44.1582,-0.50876,1.11481,0.61918
381.842,44.391,-0.51082,1.07932,0.61815
384.342,44.6236,-0.5174,1.08118,0.61711
386.842,44.85706,-0.52004,1.07199,0.61605
389.342,45.09029,-0.52397,1.07298,0.61499
391.842,45.32396,-0.5266,1.04797,0.61393
394.342,45.55778,-0.52924,1.04078,0.61285
396.842,45.79116,-0.53324,1.02532,0.61177
399.342,46.02512,-0.53581,1.01182,0.61067
401.842,46.25949,-0.53713,1.00623,0.60957
404.342,46.49373,-0.53911,0.9911,0.60846
406.842,46.7291,-0.53977,0.99062,0.60735
409.342,46.96515,-0.53978,0.99111,0.60623
411.842,47.20066,-0.53977,0.97079,0.6051
414.342,47.43676,-0.54106,0.9543,0.60396
416.842,47.673,-0.54076,0.94076,0.60282
419.342,47.90914,-0.54042,0.9399,0.60167
421.842,48.14546,-0.54176,0.92672,0.60051
424.342,48.38214,-0.54647,0.92919,0.59935
426.842,48.61909,-0.5499,0.92715,0.59818
429.342,48.85629,-0.55018,0.90354,0.59701
431.842,49.09345,-0.54891,0.90186,0.59583
434.342,49.3314,-0.55085,0.87854,0.59464
436.842,49.5691,-0.55557,0.87529,0.59345
439.342,49.80588,-0.56075,0.86324,0.59225
441.842,50.0443,-0.56626,0.84867,0.59105
444.342,50.28225,-0.562,0.86475,0.58985
446.842,50.5205,-0.56303,0.83864,0.58864
449.342,50.7595,-0.56434,0.84407,0.58742
451.842,50.9987,-0.56792,0.83362,0.5862
454.342,51.23832,-0.57125,0.82166,0.58498
456.842,51.47814,-0.57191,0.81863,0.58375
459.342,51.718,-0.57753,0.81799,0.58252
461.842,51.95769,-0.58025,0.80109,0.58128
464.342,52.1982,-0.58156,0.79958,0.58004
466.842,52.439,-0.58548,0.7923,0.5788
469.342,52.6801,-0.58683,0.79,0.57755
471.842,52.92125,-0.59053,0.79374,0.57631
474.342,53.16209,-0.59077,0.78515,0.57505
476.842,53.4031,-0.59279,0.75762,0.5738
479.342,53.6441,-0.59185,0.7688,0.57254
481.842,53.88581,-0.59269,0.76458,0.57128
484.342,54.1273,-0.59396,0.74114,0.57002
486.842,54.3698,-0.59659,0.71902,0.56876
489.342,54.61232,-0.59527,0.72343,0.56749
491.842,54.85475,-0.59834,0.71374,0.56622
494.342,55.0973,-0.60129,0.70695,0.56495
496.842,55.3402,-0.60262,0.72145,0.56368
499.342,55.58341,-0.60685,0.72161,0.56241
501.842,55.82663,-0.60986,0.70488,0.56114
504.342,56.0705,-0.61019,0.70872,0.55986
506.842,56.31419,-0.61555,0.67605,0.55859
509.342,56.55819,-0.61801,0.6896,0.55731
511.842,56.8027,-0.61908,0.67646,0.55603
514.342,57.04694,-0.62038,0.65638,0.55476
516.842,57.2916,-0.62105,0.64178,0.55348
519.342,57.53623,-0.62105,0.6672,0.5522
521.842,57.7809,-0.61973,0.65348,0.55092
524.342,58.02579,-0.62032,0.654,0.54964
526.842,58.27013,-0.62543,0.6372,0.54837
529.342,58.51591,-0.61731,0.62697,0.54709
531.842,58.7615,-0.62204,0.62422,0.54581
534.342,59.00724,-0.62521,0.62468,0.54453
536.842,59.2534,-0.62384,0.61935,0.54326
539.342,59.50026,-0.62607,0.56822,0.54198
541.842,59.7467,-0.62308,0.55935,0.54071
544.342,59.9934,-0.62734,0.53097,0.53944
546.842,60.24066,-0.62839,0.52452,0.53816
549.342,60.48799,-0.62928,0.50711,0.53689
551.842,60.7359,-0.6319,0.49718,0.53562
554.342,60.9838,-0.64226,0.49373,0.53436
556.842,61.23169,-0.63761,0.49025,0.53309
559.342,61.47889,-0.6409,0.49725,0.53183
561.842,61.72662,-0.64359,0.4824,0.53056
564.342,61.97498,-0.6457,0.48563,0.5293
566.842,62.2244,-0.64745,0.48057,0.52805
569.342,62.4741,-0.64696,0.48722,0.52679
571.842,62.7232,-0.64952,0.52845,0.52554
574.342,62.97269,-0.6511,0.64286,0.52429
576.842,63.2222,-0.65119,0.54122,0.52304
579.342,63.4718,-0.65503,0.46842,0.52179
581.842,63.7214,-0.65722,0.42819,0.52055
584.342,63.97129,-0.65538,0.38609,0.51931
586.842,64.22113,-0.65956,0.3459,0.51807
589.342,64.47085,-0.66128,0.30791,0.51684
591.842,64.7197,-0.66362,0.30061,0.51561
594.342,64.96924,-0.66636,0.28481,0.51438
596.842,65.21932,-0.66867,0.27172,0.51315
599.342,65.46919,-0.66767,0.24224,0.51193
601.842,65.71996,-0.67435,0.22561,0.51072
604.342,65.97049,-0.6711,0.20635,0.5095
606.842,66.2218,-0.67253,0.20985,0.50829
609.342,66.47325,-0.67172,0.197,0.50709
611.842,66.72487,-0.67459,0.16495,0.50588
614.342,66.9774,-0.67272,0.13796,0.50469
616.842,67.22872,-0.67545,0.15756,0.50349
619.342,67.48052,-0.67354,0.12452,0.5023
621.842,67.73257,-0.6713,0.10439,0.50112
624.342,67.98482,-0.67087,0.07091197,0.49993
626.842,68.2369,-0.67502,0.04831772,0.49876
629.342,68.4897,-0.67205,0.009398321,0.49758
631.842,68.7418,-0.67469,-0.009912734,0.49642
634.342,68.9943,-0.67929,-0.03189539,0.49525
636.842,69.24704,-0.68087,-0.06899267,0.49409
639.342,69.5005,-0.68477,-0.08215847,0.49294
641.842,69.7543,-0.68609,-0.10457,0.49179
644.242,69.99814,-0.69004,-0.11541,0.49069