File: 01_Data/Polyurethane_Foam/MCC/Polyurethane_Foam_MCC_30K_min_210308_R1.txt
Sample ID:	C:\MCC\MCC Cal\Test\PUF_30_1.txt.txt
Sample Weight (mg):	3.67
Heating Rate (C/s):	0.5
Combustor Temp (C):	900
N2 Flow Rate (cc/min):	80
O2 Flow Rate (cc/min):	20
Calibration File:	C:\MCC\MCC Cal\Coeff1 JN10440_30_210304.txt.txt
T Correction Coefficients:	0	1.024463	0
Time Shift (s):	14
*
Time (s)	Temperature (C)	N2 flow rate (cc/min)	O2 flow rate (cc/min)	Flow Rate (cc/min)	Oxygen (%)	HRR (W/g)	Heating rate (C/s)
0.000	106.147	80.006	19.995	99.580	20.126	-0.123	0.007
7.000	106.173	80.006	19.996	99.605	20.126	-0.107	0.018
14.000	106.133	80.008	19.995	99.637	20.120	0.429	0.000
21.000	106.297	80.004	19.995	99.690	20.107	1.526	0.044
28.000	106.712	80.004	19.996	99.831	20.093	2.658	0.097
34.999	107.416	80.005	19.995	99.773	20.088	3.142	0.123
41.999	108.461	80.005	19.995	99.805	20.082	3.627	0.201
49.001	109.842	80.005	19.997	99.845	20.077	4.083	0.221
55.999	111.534	80.004	19.995	99.840	20.078	3.958	0.234
62.999	113.424	80.006	19.994	99.837	20.068	4.777	0.272
69.999	115.526	80.006	19.995	99.847	20.068	4.795	0.284
76.999	117.851	80.006	19.995	99.848	20.071	4.529	0.314
83.999	120.437	80.005	19.994	99.851	20.072	4.518	0.359
90.999	123.171	80.008	19.994	99.879	20.073	4.419	0.396
97.999	126.032	80.006	19.994	99.867	20.068	4.857	0.399
104.999	128.962	80.004	19.996	99.858	20.070	4.608	0.429
111.999	131.954	80.005	19.996	99.886	20.070	4.657	0.454
118.999	135.049	80.004	19.997	99.881	20.071	4.533	0.457
126.000	138.250	80.004	19.998	99.871	20.074	4.344	0.479
133.000	141.436	80.005	19.997	99.859	20.070	4.661	0.459
140.000	144.813	80.004	19.998	99.856	20.074	4.336	0.462
147.000	148.166	79.988	19.995	99.856	20.071	4.602	0.483
154.000	151.586	80.005	19.996	99.901	20.070	4.683	0.467
161.000	155.054	80.004	19.995	99.885	20.069	4.717	0.475
168.000	158.486	80.008	19.994	99.886	20.068	4.815	0.495
175.000	162.000	80.005	19.993	99.877	20.072	4.515	0.505
182.000	165.505	80.004	19.995	99.874	20.073	4.410	0.520
189.000	169.023	80.004	19.996	99.852	20.072	4.476	0.531
196.000	172.534	80.004	19.997	99.843	20.074	4.278	0.499
203.000	176.014	80.005	19.995	99.843	20.074	4.293	0.509
210.000	179.554	80.006	19.996	99.846	20.074	4.298	0.490
217.000	183.030	80.003	19.997	99.849	20.078	3.947	0.484
224.000	186.592	80.006	19.997	99.857	20.077	4.032	0.487
231.000	190.103	80.004	19.994	99.860	20.076	4.096	0.505
238.000	193.601	80.006	19.997	99.845	20.078	3.997	0.510
245.000	197.051	80.008	19.996	99.845	20.077	4.081	0.472
252.000	200.523	80.008	19.995	99.843	20.075	4.180	0.483
259.000	203.971	80.005	19.995	99.829	20.068	4.792	0.504
266.000	207.452	80.004	19.996	99.908	20.068	4.797	0.536
273.000	210.952	80.005	19.995	99.846	20.061	5.420	0.499
280.000	214.411	80.005	19.996	99.841	20.056	5.836	0.494
287.000	217.845	80.004	19.996	99.842	20.048	6.501	0.475
294.000	221.340	80.001	19.994	99.846	20.044	6.812	0.472
301.000	224.835	79.986	19.996	99.838	20.028	8.229	0.510
308.000	228.364	79.986	19.996	99.839	20.017	9.159	0.532
315.000	231.849	79.987	19.995	99.839	20.003	10.341	0.494
322.000	235.336	79.988	19.995	99.842	19.986	11.794	0.519
329.000	238.812	79.988	19.995	99.864	19.965	13.551	0.493
336.000	242.287	79.987	19.995	99.873	19.941	15.560	0.518
343.000	245.784	79.999	19.995	99.877	19.913	17.991	0.499
350.000	249.313	80.003	19.995	99.862	19.880	20.789	0.499
357.000	252.841	80.007	19.995	99.889	19.835	24.607	0.508
364.000	256.345	80.004	19.996	99.885	19.791	28.313	0.496
371.000	259.786	80.004	19.997	99.906	19.735	33.117	0.505
378.000	263.307	80.006	19.996	99.914	19.680	37.739	0.488
385.000	266.800	80.008	19.997	99.914	19.616	43.251	0.528
392.000	270.361	80.005	19.997	99.921	19.539	49.801	0.504
399.000	273.891	80.004	19.995	99.952	19.469	55.749	0.510
406.000	277.310	80.008	19.994	99.961	19.398	61.769	0.494
413.000	280.843	80.006	19.997	99.978	19.335	67.122	0.486
420.000	284.356	80.005	19.996	99.984	19.283	71.562	0.513
427.000	287.940	80.005	19.996	99.978	19.256	73.830	0.504
434.000	291.480	80.005	19.996	99.963	19.286	71.229	0.494
441.000	295.047	80.006	19.997	99.940	19.402	61.426	0.507
448.000	298.605	80.004	19.995	99.947	19.544	49.371	0.513
455.000	302.113	80.006	19.996	99.941	19.607	44.009	0.507
462.000	305.715	80.006	19.996	99.920	19.616	43.186	0.533
469.000	309.291	80.004	19.997	99.908	19.643	40.938	0.515
476.000	312.894	80.005	19.995	99.902	19.709	35.255	0.485
483.000	316.505	80.007	19.994	99.884	19.793	28.166	0.517
490.000	320.034	80.007	19.995	99.908	19.868	21.752	0.496
497.000	323.622	80.005	19.996	99.788	19.916	17.724	0.508
504.000	327.122	80.004	19.996	99.830	19.943	15.393	0.502
511.000	330.626	80.005	19.997	99.821	19.950	14.841	0.488
518.000	334.179	80.004	19.995	99.832	19.946	15.168	0.502
525.000	337.709	80.004	19.996	99.822	19.941	15.615	0.514
532.000	341.187	80.003	19.996	99.819	19.921	17.272	0.494
539.000	344.726	80.004	19.995	99.844	19.899	19.148	0.542
546.000	348.225	80.005	19.994	99.816	19.855	22.855	0.521
553.000	351.794	80.003	19.996	99.810	19.797	27.786	0.525
560.000	355.325	80.008	19.997	99.837	19.715	34.774	0.495
567.000	358.841	80.007	19.994	99.833	19.608	43.894	0.519
574.000	362.416	80.005	19.994	99.834	19.461	56.359	0.522
581.000	365.940	80.005	19.995	99.866	19.274	72.223	0.518
588.000	369.440	80.003	19.995	99.882	19.029	93.040	0.479
595.000	373.023	80.006	20.001	99.899	18.729	118.502	0.516
602.000	376.574	80.002	19.996	99.893	18.357	150.083	0.513
609.000	380.056	80.004	19.996	99.924	17.927	186.467	0.492
616.000	383.599	80.007	19.996	99.933	17.423	229.171	0.520
623.000	387.130	80.007	19.996	99.751	17.052	260.330	0.505
630.000	390.653	80.006	19.995	99.673	16.938	269.928	0.479
637.000	394.212	80.006	19.996	99.667	17.068	258.744	0.516
644.000	397.750	80.006	19.996	99.647	17.386	232.062	0.509
651.000	401.249	80.005	19.995	99.574	17.914	187.315	0.498
658.000	404.831	80.004	19.995	99.638	18.433	143.316	0.512
665.000	408.404	80.003	19.996	99.661	18.895	104.286	0.520
672.000	411.957	80.004	19.994	99.763	19.255	73.704	0.496
679.000	415.494	80.006	19.995	99.723	19.529	50.557	0.507
686.000	419.022	80.004	19.994	99.739	19.730	33.476	0.479
693.000	422.620	80.005	19.994	99.766	19.861	22.396	0.514
700.000	426.139	80.007	19.997	99.799	19.940	15.646	0.513
707.000	429.760	80.005	19.997	99.766	19.994	11.078	0.505
714.000	433.311	80.006	19.996	99.790	20.028	8.237	0.481
721.000	436.962	80.007	19.996	99.819	20.056	5.814	0.493
728.000	440.624	80.005	19.998	99.799	20.076	4.143	0.502
735.000	444.190	80.005	19.995	99.776	20.080	3.809	0.500
742.000	447.784	80.004	19.996	99.798	20.086	3.294	0.497
749.000	451.368	79.995	19.995	99.771	20.085	3.357	0.503
756.000	454.922	80.002	19.997	99.763	20.084	3.417	0.515
763.000	458.464	80.003	19.995	99.785	20.088	3.118	0.530
770.000	462.029	80.001	19.996	99.804	20.093	2.676	0.491
777.000	465.571	80.006	19.997	99.772	20.091	2.833	0.541
784.000	469.221	80.005	19.996	99.798	20.095	2.499	0.514
791.000	472.877	80.005	19.994	99.777	20.096	2.455	0.539
798.000	476.447	80.008	19.995	99.778	20.094	2.582	0.495
805.000	480.062	80.006	19.995	99.763	20.099	2.183	0.511
812.000	483.637	80.003	19.997	99.775	20.094	2.648	0.520
819.000	487.231	80.005	19.995	99.762	20.095	2.506	0.511
826.000	490.742	79.995	19.997	99.786	20.096	2.469	0.500
833.000	494.381	79.986	19.996	99.766	20.099	2.151	0.545
840.000	497.947	79.984	19.995	99.761	20.095	2.553	0.472
847.000	501.483	79.986	19.997	99.770	20.099	2.176	0.519
854.000	505.064	79.988	19.996	99.780	20.101	1.981	0.524
861.000	508.738	80.000	19.996	99.783	20.098	2.248	0.546
868.000	512.305	79.991	19.997	99.771	20.098	2.260	0.477
875.000	515.962	79.993	19.997	99.800	20.100	2.083	0.487
882.000	519.664	79.991	19.996	99.783	20.097	2.329	0.519
889.000	523.303	79.993	19.998	99.781	20.100	2.121	0.493
896.000	526.967	79.990	19.995	99.777	20.099	2.174	0.513
903.000	530.643	80.003	19.996	99.780	20.102	1.904	0.530
910.000	534.306	80.004	19.996	99.788	20.098	2.239	0.522
917.000	537.967	80.004	19.996	99.773	20.099	2.169	0.528
924.000	541.559	80.006	19.997	99.778	20.097	2.380	0.518
931.000	545.066	80.005	19.996	99.765	20.099	2.185	0.479
938.000	548.723	80.008	19.995	99.764	20.093	2.664	0.528
945.000	552.320	80.006	19.997	99.774	20.096	2.459	0.489
952.000	555.961	80.008	19.997	99.765	20.097	2.366	0.523
959.000	559.558	80.008	19.995	99.773	20.102	1.902	0.505
966.000	563.214	80.003	19.994	99.776	20.106	1.621	0.501
973.000	566.741	80.003	19.995	99.767	20.096	2.455	0.464
980.000	570.341	80.006	19.997	99.764	20.097	2.371	0.498
987.000	573.895	80.006	19.995	99.789	20.096	2.460	0.519
994.000	577.451	80.003	19.994	99.786	20.097	2.329	0.505
1001.000	581.048	80.004	19.994	99.772	20.099	2.176	0.485
1008.000	584.641	80.007	19.995	99.773	20.098	2.225	0.522
1015.000	588.210	80.008	19.994	99.765	20.098	2.255	0.502
1022.000	591.801	80.006	19.995	99.788	20.100	2.107	0.514
1028.999	595.438	80.006	19.996	99.787	20.097	2.311	0.523
1035.999	599.013	80.007	19.995	99.762	20.099	2.167	0.498
1042.999	602.540	80.005	19.994	99.759	20.100	2.058	0.483
1049.999	606.202	80.005	19.995	99.752	20.095	2.550	0.536
1056.999	609.739	80.005	19.998	99.790	20.094	2.603	0.524
1063.999	613.347	80.005	19.996	99.771	20.102	1.960	0.502
1070.999	616.950	80.005	19.994	99.770	20.101	1.979	0.528
1077.999	620.553	80.002	19.996	99.768	20.096	2.452	0.497
1084.999	624.247	80.007	19.996	99.766	20.096	2.448	0.528
1091.999	627.856	80.006	19.995	99.767	20.100	2.116	0.541
1098.999	631.407	80.006	19.995	99.769	20.100	2.116	0.527
1106.001	635.060	80.007	19.994	99.765	20.099	2.178	0.548
1113.000	638.649	80.006	19.994	99.737	20.098	2.267	0.520
1120.000	642.207	80.003	19.999	99.762	20.095	2.527	0.503
1127.000	645.719	80.004	19.996	99.768	20.102	1.907	0.498
1134.000	649.298	80.005	19.997	99.763	20.100	2.092	0.508
1141.000	652.968	80.001	19.996	99.765	20.100	2.081	0.529
1148.000	656.588	80.002	19.999	99.767	20.096	2.466	0.503
1155.000	660.238	80.006	19.996	99.769	20.106	1.575	0.512
1162.000	663.863	80.006	19.995	99.768	20.104	1.719	0.509
1169.000	667.498	80.007	19.995	99.762	20.101	2.011	0.525
1176.000	671.097	80.006	19.996	99.765	20.095	2.529	0.515
1183.000	674.721	80.007	19.994	99.767	20.100	2.071	0.496
1190.000	678.329	80.008	19.995	99.756	20.100	2.088	0.496
1197.000	681.984	79.998	19.995	99.772	20.100	2.099	0.530
1204.000	685.682	79.985	19.995	99.767	20.104	1.779	0.505
1211.000	689.176	80.002	19.996	99.759	20.105	1.647	0.492
1218.000	692.751	79.986	19.994	99.766	20.107	1.514	0.482
1219.500	693.499	79.990	19.996	99.759	20.108	1.407	0.493