File: 01_Data/Polyurethane_Foam/MCC/Polyurethane_Foam_MCC_30K_min_210308_R3.txt
Sample ID:	C:\MCC\MCC Cal\Test\PUF_30_3.txt
Sample Weight (mg):	5
Heating Rate (C/s):	0.5
Combustor Temp (C):	900
N2 Flow Rate (cc/min):	80
O2 Flow Rate (cc/min):	20
Calibration File:	C:\MCC\MCC Cal\Coeff1 JN10440_30_210304.txt.txt
T Correction Coefficients:	0	1.024463	0
Time Shift (s):	14
*
Time (s)	Temperature (C)	N2 flow rate (cc/min)	O2 flow rate (cc/min)	Flow Rate (cc/min)	Oxygen (%)	HRR (W/g)	Heating rate (C/s)
0.000	107.944	79.987	19.995	99.717	20.109	-0.232	-0.028
5.500	107.991	79.987	19.994	99.646	20.115	-0.574	-0.001
11.000	107.954	79.988	19.993	99.644	20.110	-0.281	0.021
16.500	107.926	79.988	19.994	99.652	20.107	-0.111	0.007
22.000	107.966	79.988	19.994	99.686	20.100	0.343	-0.010
27.500	108.085	79.989	19.994	99.788	20.092	0.852	0.038
33.000	108.444	79.991	19.995	99.850	20.076	1.831	0.076
38.500	109.046	79.990	19.993	99.892	20.071	2.124	0.120
44.000	109.930	79.990	19.996	99.879	20.063	2.649	0.152
49.501	111.017	79.990	19.993	99.913	20.060	2.832	0.192
55.001	112.289	79.989	19.994	99.907	20.054	3.182	0.279
60.501	113.738	79.988	19.993	99.919	20.051	3.408	0.262
66.000	115.417	79.986	19.992	99.951	20.049	3.528	0.299
71.500	117.256	79.987	19.992	99.942	20.046	3.692	0.348
77.000	119.247	79.988	19.994	99.934	20.052	3.316	0.346
82.500	121.408	79.992	19.995	99.949	20.049	3.503	0.367
88.000	123.625	79.996	19.994	99.928	20.045	3.752	0.401
93.500	125.979	80.006	19.994	99.956	20.051	3.388	0.428
99.001	128.358	80.007	19.992	99.948	20.048	3.544	0.444
104.500	130.843	80.000	19.993	99.957	20.050	3.478	0.457
110.000	133.417	79.997	19.995	99.909	20.048	3.602	0.460
115.500	136.031	80.009	19.993	99.925	20.050	3.436	0.485
121.000	138.737	79.998	19.993	99.923	20.045	3.760	0.503
126.500	141.441	79.988	19.992	99.963	20.047	3.655	0.504
132.000	144.182	79.989	19.992	99.933	20.050	3.479	0.497
137.500	146.906	79.990	19.993	99.959	20.053	3.255	0.501
143.000	149.749	79.985	19.992	99.920	20.046	3.689	0.507
148.500	152.577	79.987	19.994	99.962	20.049	3.540	0.501
154.000	155.353	79.987	19.993	99.923	20.053	3.275	0.515
159.500	158.140	79.988	19.993	99.944	20.050	3.423	0.521
165.000	160.927	79.988	19.993	99.889	20.052	3.328	0.515
170.500	163.708	79.988	19.996	99.979	20.053	3.266	0.516
176.000	166.517	79.986	19.996	99.944	20.059	2.885	0.514
181.500	169.312	79.987	19.992	99.886	20.059	2.903	0.525
187.000	172.013	79.988	19.992	99.901	20.060	2.833	0.487
192.500	174.814	79.989	19.992	99.881	20.057	3.010	0.535
198.000	177.540	79.988	19.991	99.897	20.058	2.966	0.502
203.500	180.218	79.986	19.994	99.927	20.054	3.200	0.490
209.000	182.910	79.989	19.994	99.867	20.053	3.243	0.424
214.500	185.645	79.992	19.994	99.876	20.056	3.043	0.500
220.000	188.302	79.990	19.992	99.896	20.054	3.176	0.511
225.500	191.051	79.989	19.993	99.877	20.053	3.251	0.516
231.000	193.763	79.986	19.993	99.887	20.053	3.246	0.483
236.500	196.450	79.987	19.994	99.882	20.048	3.563	0.480
242.000	199.206	79.988	19.993	99.882	20.052	3.312	0.508
247.500	201.910	79.987	19.992	99.882	20.044	3.827	0.477
253.000	204.643	79.987	19.994	99.863	20.042	3.966	0.487
258.500	207.364	79.986	19.995	99.896	20.039	4.103	0.492
264.000	210.059	79.989	19.995	99.878	20.029	4.743	0.473
269.500	212.801	79.991	19.992	99.882	20.029	4.747	0.489
275.000	215.510	79.989	19.993	99.883	20.028	4.790	0.507
280.500	218.221	79.988	19.993	99.879	20.021	5.228	0.492
286.000	220.923	79.988	19.993	99.874	20.006	6.186	0.489
291.500	223.706	79.991	19.992	99.891	19.995	6.891	0.445
297.000	226.436	79.992	19.994	99.884	19.989	7.258	0.530
302.500	229.193	79.988	19.993	99.879	19.974	8.166	0.535
308.000	231.878	79.987	19.994	99.910	19.961	9.004	0.503
313.500	234.622	79.986	19.992	99.898	19.945	9.987	0.475
319.000	237.412	79.989	19.993	99.868	19.928	11.045	0.546
324.500	240.089	79.989	19.992	99.915	19.900	12.771	0.470
330.000	242.837	79.986	19.992	99.926	19.879	14.110	0.489
335.500	245.574	79.986	19.993	99.925	19.842	16.425	0.491
341.000	248.329	79.987	19.994	99.896	19.812	18.260	0.492
346.500	251.140	79.990	19.992	99.911	19.770	20.929	0.523
352.000	253.856	79.989	19.994	99.844	19.735	23.097	0.493
357.500	256.662	79.988	19.993	99.954	19.681	26.464	0.478
363.000	259.458	79.992	19.994	99.898	19.626	29.907	0.513
368.500	262.283	79.991	19.993	99.942	19.573	33.223	0.504
374.000	265.092	79.990	19.991	100.001	19.506	37.420	0.504
379.500	267.921	79.990	19.993	100.004	19.436	41.749	0.512
385.000	270.723	79.988	19.992	100.006	19.362	46.424	0.514
390.500	273.540	79.987	19.993	100.024	19.285	51.199	0.523
396.000	276.368	79.988	19.993	100.066	19.210	55.924	0.476
401.500	279.180	79.993	19.994	100.046	19.136	60.528	0.500
407.001	281.982	79.988	19.993	100.094	19.067	64.815	0.496
412.500	284.792	79.987	19.992	100.076	19.012	68.261	0.517
418.000	287.613	79.987	19.993	100.000	18.978	70.364	0.531
423.500	290.417	79.987	19.994	100.075	18.968	71.009	0.505
429.000	293.229	79.990	19.995	100.059	19.014	68.084	0.515
434.500	296.007	79.989	19.993	100.038	19.128	61.023	0.519
440.000	298.835	79.988	19.993	100.008	19.278	51.649	0.501
445.500	301.615	79.988	19.992	100.093	19.388	44.762	0.498
451.000	304.465	79.990	19.994	100.015	19.439	41.585	0.542
456.500	307.309	79.992	19.993	99.998	19.470	39.676	0.508
462.000	310.099	79.987	19.992	100.029	19.504	37.511	0.485
467.500	312.937	79.988	19.993	100.021	19.551	34.550	0.497
473.000	315.787	79.989	19.992	99.958	19.614	30.633	0.487
478.500	318.592	79.988	19.994	99.958	19.676	26.756	0.536
484.000	321.407	79.989	19.995	99.926	19.743	22.560	0.521
489.500	324.169	79.989	19.992	99.917	19.799	19.120	0.502
495.000	326.937	79.986	19.995	99.887	19.838	16.670	0.520
500.500	329.700	79.988	19.993	99.882	19.864	15.049	0.500
506.000	332.480	79.988	19.992	99.924	19.884	13.814	0.518
511.500	335.235	79.989	19.994	99.820	19.888	13.570	0.509
517.000	337.947	79.988	19.992	99.879	19.897	12.990	0.496
522.500	340.669	79.989	19.993	99.902	19.895	13.112	0.499
528.000	343.424	79.991	19.994	99.882	19.885	13.717	0.508
533.500	346.189	79.991	19.993	99.876	19.869	14.706	0.522
539.000	348.945	79.990	19.990	99.879	19.846	16.132	0.508
544.500	351.726	79.988	19.993	99.898	19.805	18.700	0.554
550.000	354.489	79.989	19.993	99.884	19.745	22.435	0.502
555.500	357.256	79.988	19.993	99.842	19.666	27.390	0.481
561.000	360.028	80.005	19.994	99.914	19.560	33.994	0.514
566.500	362.788	79.998	19.994	99.926	19.411	43.291	0.501
572.000	365.533	80.003	19.993	99.945	19.209	55.958	0.516
577.500	368.329	79.999	19.995	99.968	18.941	72.683	0.514
583.000	371.087	79.996	19.993	100.007	18.592	94.499	0.500
588.500	373.877	79.996	19.994	100.033	18.159	121.532	0.520
594.000	376.644	79.995	19.995	100.059	17.631	154.352	0.517
599.500	379.373	79.992	19.995	100.081	17.017	192.582	0.512
605.000	382.153	79.987	19.993	99.984	16.406	230.288	0.524
610.500	384.846	79.991	19.992	99.946	15.856	264.384	0.439
616.000	387.610	79.992	19.993	99.769	15.491	286.789	0.449
621.500	390.398	79.992	19.991	99.707	15.348	295.731	0.507
627.000	393.280	79.989	19.993	99.596	15.469	288.174	0.493
632.500	396.055	79.989	19.993	99.613	15.844	265.047	0.505
638.000	398.896	79.991	19.994	99.616	16.375	231.365	0.527
643.501	401.714	80.001	19.994	99.668	17.014	192.273	0.524
649.000	404.528	79.991	19.992	99.409	17.663	151.924	0.496
654.500	407.333	79.988	19.993	99.669	18.217	117.508	0.497
660.000	410.097	79.987	19.994	99.706	18.670	89.269	0.500
665.500	412.908	79.988	19.994	99.713	19.024	67.275	0.508
671.000	415.646	79.993	19.995	99.696	19.295	50.468	0.522
676.500	418.336	79.995	19.994	99.729	19.510	37.060	0.476
682.000	421.143	79.999	19.994	99.757	19.669	27.175	0.511
687.500	423.898	80.006	19.995	99.795	19.784	19.989	0.502
693.000	426.665	80.002	19.994	99.807	19.865	14.966	0.490
698.500	429.524	80.009	19.995	99.813	19.916	11.804	0.520
704.000	432.287	80.005	19.995	99.835	19.954	9.428	0.515
709.500	435.092	79.994	19.994	99.824	19.982	7.700	0.520
715.000	437.974	79.993	19.994	99.825	20.011	5.872	0.499
720.500	440.747	80.000	19.993	99.813	20.030	4.675	0.511
726.000	443.575	80.009	19.993	99.825	20.037	4.231	0.489
731.500	446.432	80.009	19.992	99.829	20.042	3.945	0.521
737.000	449.278	80.010	19.993	99.806	20.048	3.599	0.536
742.500	452.095	80.010	19.994	99.770	20.051	3.362	0.534
748.000	454.856	80.009	19.993	99.831	20.053	3.246	0.496
753.500	457.690	80.010	19.995	99.835	20.049	3.507	0.530
759.000	460.448	80.011	19.994	99.833	20.050	3.437	0.495
764.500	463.178	80.009	19.993	99.831	20.048	3.561	0.480
770.000	465.954	80.009	19.994	99.835	20.050	3.432	0.529
775.500	468.755	80.011	19.994	99.829	20.051	3.377	0.511
781.000	471.546	80.008	19.995	99.838	20.058	2.953	0.494
786.500	474.374	80.008	19.994	99.830	20.050	3.457	0.474
792.000	477.221	80.009	19.993	99.835	20.051	3.371	0.488
797.500	480.001	80.009	19.994	99.824	20.057	3.014	0.466
803.000	482.850	80.008	19.993	99.809	20.054	3.171	0.521
808.500	485.657	80.008	19.993	99.833	20.055	3.115	0.546
814.000	488.521	80.007	19.992	99.901	20.060	2.850	0.524
819.500	491.351	80.009	19.993	99.835	20.061	2.786	0.525
825.000	494.226	80.007	19.991	99.823	20.057	2.996	0.541
830.500	497.113	80.010	19.993	99.838	20.060	2.802	0.521
836.000	499.958	80.007	19.993	99.803	20.058	2.973	0.512
841.500	502.731	80.005	19.994	99.821	20.058	2.969	0.508
847.000	505.548	80.009	19.993	99.832	20.056	3.049	0.539
852.500	508.362	80.011	19.995	99.827	20.062	2.695	0.479
858.000	511.211	80.010	19.993	99.808	20.056	3.099	0.497
863.500	514.039	80.009	19.995	99.826	20.055	3.140	0.528
869.000	516.879	80.007	19.994	99.832	20.056	3.076	0.507
874.500	519.698	80.001	19.994	99.838	20.053	3.246	0.507
880.000	522.516	79.998	19.993	99.838	20.058	2.939	0.505
885.500	525.359	80.000	19.993	99.843	20.061	2.788	0.514
891.000	528.245	79.989	19.993	99.833	20.061	2.777	0.521
896.500	531.124	79.987	19.993	99.815	20.059	2.891	0.523
902.000	533.970	79.989	19.993	99.835	20.058	2.956	0.534
907.500	536.822	79.998	19.992	99.835	20.059	2.862	0.509
913.000	539.666	79.997	19.993	99.838	20.056	3.061	0.530
918.500	542.446	79.999	19.992	99.827	20.059	2.889	0.487
920.500	543.458	79.997	19.994	99.832	20.054	3.201	0.481