File: 01_Data/FRP_Panel/Cone/FRP_Panel_Cone_HF25Scan_220919_R1.csv
Names,Time,Stack TC,Smoke TC,Exh Press,Smoke Comp,Smoke Meas,CO Meter,CO2 Meter,O2 Meter,Sample Mass,Ext Coeff,Start Test,Flame Verif
Chan Gain,,500,500,1,1,1,1,1,1,1,1,1.0,1.0
Offset,,0,0,0.143022,0,0,0,0,0,0,0,0.0,0.0
Gain,,1,1,25.011,14.5176,16.5692,1,1,1,1.00088,1.03055,1.0,1.0
Units,sec,C,C,Pa,%,%,%,%,%,g,/m,,
Baseline,,34.9507,35.8513,149.159,109.242,110.387,0.000484467,0.0463551,20.944,-445.306,-0.09422,,
13,3,33.3194,34.4489,149.36,108.718,110.04,0.000483177,0.0547238,20.9361,86.8566,-0.109265,0.0,0.0
26,6.25,33.1084,33.9082,148.157,108.689,109.833,0.000507754,0.0545621,20.9373,86.8465,-0.09465,0.0,0.0
39,9.5,33.5031,34.558,150.5,108.667,109.342,0.000500511,0.053544,20.9404,86.8165,-0.0559906,0.0,0.0
52,12.75,33.1415,33.9519,150.782,108.671,109.559,0.000318297,0.0516107,20.9409,86.8065,-0.0736168,0.0,0.0
65,16,33.0144,34.3264,148.158,108.692,109.81,0.000360382,0.0493932,20.9422,86.7365,-0.0924821,0.0,0.0
78,19.25,33.2978,34.2129,148.934,108.695,109.196,0.000429772,0.0484621,20.942,86.7765,-0.0416204,0.0,0.0
91,22.5,33.3526,34.0914,150.515,108.718,109.617,0.000387069,0.0479367,20.9431,86.7565,-0.0743872,0.0,0.0
104,25.75,32.8177,34.1086,149.322,108.743,109.412,0.000319783,0.047273,20.944,86.7264,-0.0554994,0.0,0.0
117,29,32.873,34.7263,147.27,108.762,109.412,7.05055e-05,0.0468169,20.9451,86.7665,-0.0539159,0.0,0.0
130,32.25,33.4365,34.6798,146.945,108.797,109.688,-7.78358e-05,0.0466323,20.9462,86.7665,-0.0736739,0.0,0.0
143,35.5,33.4716,33.724,148.194,108.829,109.583,0.000123144,0.0466448,20.9465,86.7465,-0.0623519,0.0,0.0
156,38.75,33.4444,34.247,146.888,108.883,109.501,0.000163409,0.0465031,20.9468,86.7465,-0.051218,0.0,0.0
169,42,33.4817,33.9941,144.084,108.937,109.722,1.79001e-05,0.0464604,20.9459,86.7465,-0.0649191,0.0,0.0
182,45.25,33.5337,34.1251,151.43,108.98,109.552,-4.07997e-05,0.0465993,20.9454,86.7264,-0.0473081,0.0,0.0
195,48.5,33.3008,34.2328,147.18,109.035,109.697,0.000188893,0.0471978,20.9453,86.7264,-0.0546775,0.0,0.0
208,51.75,33.086,34.2491,150.859,109.085,109.776,0.000283848,0.0476178,20.9453,86.7064,-0.0571042,0.0,0.0
221,55,33.1601,34.5888,151.681,109.144,110.488,0.000161456,0.0474651,20.9453,86.6664,-0.110657,0.0,0.0
234,58.25,33.2862,34.2272,151.667,109.15,109.434,0.000192288,0.0472318,20.946,86.6864,-0.0234745,0.0,0.0
247,61.5,33.4754,34.4482,150.745,109.177,109.921,0.000179339,0.0471252,20.9469,86.5763,-0.061409,0.0,0.0
260,64.75,33.3322,34.0269,147.756,109.208,109.43,0.000201739,0.0469305,20.9472,86.6163,-0.018372,0.0,0.0
273,68,33.683,34.2226,150.686,109.2,110.051,0.000360057,0.046704,20.9472,86.5863,-0.070187,0.0,0.0
286,71.25,33.45,34.4882,147.952,109.218,109.653,0.000374304,0.0467187,20.9472,86.5263,-0.0359352,0.0,0.0
299,74.5,33.9382,34.4154,149.362,109.235,110.004,0.00036338,0.0468131,20.9472,86.4962,-0.063385,0.0,0.0
312,77.75,33.4635,35.1716,147.612,109.228,109.421,0.000355456,0.046953,20.9464,86.5563,-0.015933,0.0,0.0
325,81,33.9261,34.7329,145.718,109.213,109.884,0.000747933,0.0520089,20.9385,86.5163,-0.0554067,0.0,1.0
338,84.25,34.3695,35.3446,145.193,109.211,108.726,0.00192014,0.0827957,20.8938,86.3761,0.0402604,0.0,1.0
351,87.5,33.9626,33.8032,142.919,109.203,101.592,0.003737,0.15676,20.763,86.1659,0.653118,0.0,1.0
364,90.75,35.9819,35.3269,135.986,109.181,86.7732,0.00752923,0.258175,20.6188,85.9257,2.07653,0.0,0.0
377,94,39.0035,37.2082,131.513,109.184,79.3786,0.0161598,0.394484,20.3853,85.4653,2.882,0.0,0.0
390,97.25,42.1571,39.8158,120.48,109.193,66.3166,0.0260088,0.572123,20.128,84.9048,4.508,0.0,0.0
403,100.5,46.5791,43.0691,126.232,109.196,54.134,0.0407182,0.776694,19.8013,84.1041,6.34313,0.0,0.0
416,103.75,52.2391,47.8755,115.746,109.204,52.2696,0.0530675,0.98524,19.5538,83.2434,6.66064,0.0,0.0
429,107,57.5736,52.4179,111.962,109.214,55.1589,0.0572436,1.13474,19.3564,82.3526,6.17504,0.0,0.0
442,110.25,64.5847,58.861,100.95,109.232,58.3157,0.0549762,1.2374,19.2583,81.5219,5.67345,0.0,0.0
455,113.5,70.736,65.3323,109.427,109.25,55.8587,0.0518128,1.2607,19.2581,80.7512,6.06408,0.0,0.0
468,116.75,75.6217,70.9341,110.762,109.277,55.6474,0.0501534,1.25483,19.2762,79.9805,6.10058,0.0,0.0
481,120,80.5765,75.9252,109.538,109.305,54.1709,0.0482652,1.25092,19.2853,79.1898,6.34602,0.0,0.0
494,123.25,84.7737,80.8344,111.429,109.343,55.9508,0.0468672,1.25041,19.2888,78.4291,6.05689,0.0,0.0
507,126.5,88.4704,85.4422,108.696,109.384,57.1775,0.0457194,1.25329,19.2897,77.6885,5.86424,0.0,0.0
520,129.75,91.9475,89.3299,119.564,109.43,61.4578,0.0447352,1.23103,19.3297,76.9478,5.21545,0.0,0.0
533,133,94.219,92.6159,113.152,109.451,60.4521,0.0427384,1.17409,19.4105,76.2672,5.36633,0.0,0.0
546,136.25,95.8566,95.7906,119.322,109.502,63.6311,0.0403974,1.11538,19.4947,75.6267,4.90726,0.0,0.0
559,139.5,96.7083,97.5198,120.605,109.525,65.5182,0.0383322,1.05423,19.5825,74.9761,4.64497,0.0,0.0
572,142.75,97.4061,98.9106,119.434,109.569,68.2517,0.0359927,0.976026,19.6985,74.4056,4.27908,0.0,0.0
585,146,97.3808,99.4637,122.565,109.571,70.0979,0.0334786,0.896668,19.7926,73.8651,4.03796,0.0,0.0
598,149.25,96.2824,99.6891,117.155,109.587,70.8867,0.0304262,0.819984,19.9033,73.4047,3.93811,0.0,0.0
611,152.5,94.4493,99.6458,128.039,109.603,73.2486,0.0267764,0.736466,20.0017,72.9643,3.6431,0.0,0.0
624,155.75,92.684,98.482,124.629,109.6,78.8795,0.0232851,0.650511,20.1389,72.594,2.97336,0.0,0.0
637,159,90.7409,97.6412,128.63,109.61,77.2933,0.0198265,0.571323,20.2477,72.2937,3.15788,0.0,0.0
650,162.25,87.8848,95.6137,135.523,109.595,82.6213,0.0162486,0.496916,20.3527,72.0035,2.55403,0.0,0.0
663,165.5,85.3357,93.7063,134.681,109.592,88.3235,0.0129937,0.427756,20.4457,71.7532,1.95046,0.0,0.0
676,168.75,82.7558,91.7355,134.968,109.579,94.4874,0.00975916,0.371501,20.5216,71.523,1.33956,0.0,0.0
689,172,79.6623,89.5156,139.817,109.581,101.089,0.00728451,0.313991,20.6056,71.3929,0.729184,0.0,0.0
702,175.25,76.8941,87.1948,143.088,109.585,108.228,0.00556406,0.260231,20.6711,71.3028,0.112624,0.0,0.0
715,178.5,73.8538,84.5022,144.65,109.572,111.476,0.00482463,0.208271,20.7528,71.3028,-0.155764,0.0,0.0
728,181.75,70.8983,81.9264,145.525,109.568,110.966,0.00485221,0.161503,20.8128,71.2828,-0.114624,0.0,0.0
741,185,66.4164,77.9344,146.418,109.547,110.858,0.00522046,0.130076,20.8523,71.2228,-0.107564,0.0,0.0
754,188.25,63.0669,75.171,144.351,109.539,111.095,0.00593673,0.11338,20.8692,71.2428,-0.127498,0.0,0.0
767,191.5,60.8927,72.584,149.614,109.513,111.593,0.00655882,0.10674,20.8745,71.1727,-0.170089,0.0,0.0
780,194.75,58.6465,70.1037,147.198,109.506,111.834,0.00674491,0.10371,20.8766,71.1627,-0.190197,0.0,0.0
793,198,57.2245,67.9288,146.79,109.477,111.891,0.00671119,0.102029,20.8779,71.1027,-0.197192,0.0,0.0
806,201.25,55.1614,66.1782,144.797,109.411,112.406,0.00667063,0.10088,20.8802,71.1127,-0.244096,0.0,0.0
819,204.5,53.8407,64.9901,145.636,109.391,111.177,0.00664755,0.0998799,20.8825,71.0526,-0.146423,0.0,0.0
832,207.75,52.561,63.1019,146.238,109.338,110.86,0.00659377,0.099746,20.8837,71.0126,-0.125002,0.0,0.0
845,211,50.853,61.2526,145.545,109.298,111.418,0.00609499,0.0989397,20.884,71.0126,-0.173665,0.0,0.0
858,214.25,50.012,59.8067,144.308,109.262,111.075,0.00599189,0.0981302,20.8841,70.9625,-0.148774,0.0,0.0
871,217.5,49.1904,58.0393,146.706,109.202,111.129,0.00629108,0.0974692,20.8848,70.9525,-0.1582,0.0,0.0
884,220.75,47.7013,57.1562,147.795,109.17,110.878,0.00634588,0.0966345,20.8848,70.9225,-0.140338,0.0,0.0
897,224,46.6354,55.3573,148.076,109.128,111.091,0.00595868,0.0960981,20.8852,70.8725,-0.161126,0.0,0.0
910,227.25,46.0316,54.5635,146.931,109.122,111.159,0.00592029,0.0954666,20.8868,70.8524,-0.167152,0.0,0.0
923,230.5,45.7003,53.6304,147.364,109.082,111.35,0.00592752,0.0950567,20.8878,70.8224,-0.186029,0.0,0.0
936,233.75,44.5393,52.3639,143.444,109.054,111.678,0.00596657,0.094324,20.8893,70.8124,-0.214936,0.0,0.0
949,237,44.1627,51.5605,147.738,109.032,110.734,0.00593929,0.0932837,20.8904,70.7924,-0.139998,0.0,0.0
962,240.25,43.8697,50.646,144.368,109.019,110.7,0.00591741,0.0920883,20.8905,70.8024,-0.138293,0.0,0.0
975,243.5,43.3617,49.7015,143.612,108.946,111.128,0.00582663,0.0914215,20.8915,70.7624,-0.179304,0.0,0.0
988,246.75,42.6298,49.1221,145.184,108.883,111.502,0.00552275,0.0904942,20.8936,70.6923,-0.214794,0.0,0.0
1001,250,42.2415,48.2896,145.786,108.879,110.475,0.00534668,0.0898339,20.8946,70.6623,-0.131515,0.0,0.0
1014,253.25,42.0495,47.9719,147.499,108.845,110.526,0.00541291,0.0890485,20.8964,70.6823,-0.138526,0.0,0.0
1027,256.5,41.3082,47.2248,146.719,108.807,110.793,0.00561874,0.0884976,20.897,70.6623,-0.163464,0.0,0.0
1040,259.75,40.9909,46.4572,150.109,108.743,109.763,0.005551,0.0880735,20.8978,70.6222,-0.0844471,0.0,0.0
1053,263,40.6258,45.885,146.508,108.689,110.655,0.0054434,0.0870688,20.8991,70.6022,-0.162105,0.0,0.0
1066,266.25,40.9759,44.9939,145.229,108.638,110.589,0.00548757,0.0862603,20.8993,70.6323,-0.160972,0.0,0.0
1079,269.5,40.2326,44.9272,152.065,108.585,110.573,0.00529433,0.0858291,20.899,70.5322,-0.163959,0.0,0.0
1092,272.75,40.1509,44.0444,150.652,108.541,110.31,0.0048603,0.0848482,20.9008,70.5422,-0.146205,0.0,0.0
1105,276,39.7244,43.9892,148.667,108.476,110.751,0.00486867,0.084121,20.9029,70.5222,-0.187619,0.0,0.0
1118,279.25,39.5888,43.5086,147.176,108.398,110.372,0.00476148,0.0837909,20.9034,70.5222,-0.163153,0.0,0.0
1131,282.5,39.7645,43.1227,145.356,108.366,109.807,0.00440267,0.0827354,20.9035,70.4821,-0.119387,0.0,0.0
1144,285.75,38.7354,43.0042,147.511,108.313,110.22,0.00423418,0.082133,20.9035,70.4921,-0.157812,0.0,0.0
1157,289,39.0017,42.379,148.044,108.269,110.09,0.00406221,0.0813518,20.9049,70.4821,-0.150767,0.0,0.0
1170,292.25,38.6234,41.9667,146.251,108.21,110.285,0.00390379,0.0807859,20.9039,70.4221,-0.171701,0.0,0.0
1183,295.5,38.5338,41.3434,145.425,108.143,110.065,,,,70.4221,-0.159245,0.0,0.0
1196,298.75,38.2245,41.3845,144.615,108.111,109.64,,,,70.4521,-0.126916,0.0,0.0
1209,302,38.4293,41.0162,145.276,108.038,110.147,,,,70.372,-0.17483,0.0,0.0
1214,303.25,38.5314,41.2685,150.037,108.035,110.035,,,,70.372,-0.165872,0.0,0.0