File: 01_Data/FRP_Panel/Cone/FRP_Panel_Cone_HF50Scan_220915_R1.csv
Names,Time,Stack TC,Smoke TC,Exh Press,Smoke Comp,Smoke Meas,CO Meter,CO2 Meter,O2 Meter,Sample Mass,Ext Coeff,Start Test,Flame Verif
Chan Gain,,500,500,1,1,1,1,1,1,1,1,1.0,1.0
Offset,,0,0,0.139139,0,0,0,0,0,0,0,0.0,0.0
Gain,,1,1,25.011,13.0826,14.7555,1,1,1,1.00088,1.03743,1.0,1.0
Units,sec,C,C,Pa,%,%,%,%,%,g,/m,,
Baseline,,53.5662,54.8722,140.076,99.5024,104.534,-0.000587638,0.0505188,20.992,-447.372,-0.448891,,
10,2.25,50.9965,52.858,141.333,99.8221,104.33,-0.000427557,0.0522125,20.9911,151.804,-0.401923,0.0,0.0
20,4.75,51.108,51.9497,135.868,99.817,104.897,-0.000584651,0.0517918,20.9925,151.724,-0.451753,0.0,0.0
30,7.25,51.4608,52.2511,138.274,99.8205,105.163,-0.000748819,0.0513353,20.993,151.684,-0.474484,0.0,0.0
40,9.75,51.6659,52.9859,136.84,99.8273,105.134,-0.000832844,0.0511478,20.9932,151.684,-0.471372,0.0,0.0
50,12.25,51.3131,52.141,141.655,99.8345,104.78,-0.000907144,0.0509932,20.9945,151.694,-0.440028,0.0,0.0
60,14.75,51.6342,52.8162,139.268,99.8361,104.239,-0.00073731,0.0507294,20.9952,151.704,-0.392712,0.0,0.0
70,17.25,51.0853,52.6283,140.665,99.8257,104.645,-0.000449796,0.0505336,20.9941,151.674,-0.429049,0.0,0.0
80,19.75,51.6128,52.7708,141.15,99.8385,104.727,-0.000252555,0.0505181,20.9936,151.664,-0.435048,0.0,0.0
90,22.25,51.6228,53.5477,140.549,99.8261,104.263,-0.000125895,0.0504741,20.9934,151.624,-0.395744,0.0,0.0
100,24.75,51.5232,52.6814,142.421,99.8305,104.581,-0.000183903,0.0503871,20.9934,151.624,-0.423089,0.0,0.0
110,27.25,51.5817,52.8343,136.147,99.8194,104.587,-0.000305913,0.0503459,20.9929,151.604,-0.424578,0.0,0.0
120,29.75,51.2241,52.6769,136.448,99.8289,104.089,2.95974e-05,0.0511541,20.9823,151.543,-0.380306,0.0,1.0
130,32.25,52.0041,53.4693,138.469,99.8142,99.2692,0.00126125,0.0676098,20.9304,151.453,0.0498213,0.0,1.0
140,34.75,52.1583,52.5588,131.682,99.8189,85.5107,0.00486226,0.124333,20.7954,151.253,1.40797,0.0,1.0
150,37.25,55.1194,54.1152,126.226,99.8006,72.5969,0.011372,0.229432,20.5655,150.903,2.89619,0.0,0.0
160,39.75,58.7937,56.1858,114.01,99.7982,60.5346,0.0216402,0.35422,20.3272,150.463,4.54955,0.0,0.0
170,42.25,63.731,60.0162,105.604,99.7806,60.5031,0.032819,0.518586,20.0022,149.892,4.55269,0.0,0.0
180,44.75,69.7916,64.2016,107.432,99.781,52.6876,0.0413783,0.698606,19.6996,149.311,5.81142,0.0,0.0
190,47.25,75.6117,69.5286,105.03,99.7694,51.6988,0.0461994,0.860931,19.5001,148.661,5.98279,0.0,0.0
200,49.75,81.7229,74.7449,102.741,99.7551,51.724,0.0492409,0.98183,19.3759,148.03,5.97704,0.0,0.0
210,52.25,86.5365,79.7033,105.299,99.7351,47.9604,0.0512088,1.07502,19.3086,147.37,6.66272,0.0,0.0
220,54.75,90.781,84.7169,103.628,99.7255,47.8928,0.0531312,1.14558,19.2532,146.709,6.67467,0.0,0.0
230,57.25,95.8656,89.042,103.491,99.712,47.1422,0.0549794,1.21183,19.1863,146.069,6.81719,0.0,0.0
240,59.75,100.392,94.2145,101.721,99.682,46.6072,0.0561049,1.28289,19.1169,145.388,6.91832,0.0,0.0
250,62.25,104.651,98.4458,98.1341,99.6596,48.1504,0.0565107,1.33804,19.0556,144.687,6.61984,0.0,0.0
260,64.75,109.236,103.219,98.7332,99.6261,46.111,0.0569294,1.38239,19.0342,144.017,7.01063,0.0,0.0
270,67.25,112.659,107.074,97.0334,99.6197,47.2016,0.0574875,1.40985,19.0307,143.386,6.79731,0.0,0.0
280,69.75,116.127,111.216,105.292,99.5738,45.4387,0.057478,1.42722,19.0352,142.696,7.13951,0.0,0.0
290,72.25,119.104,114.735,104.093,99.5582,47.3444,0.0567406,1.43225,19.0606,142.015,6.76421,0.0,0.0
300,74.75,121.217,117.826,103.51,99.5239,48.9006,0.0550006,1.4261,19.0894,141.385,6.46675,0.0,0.0
310,77.25,123.75,119.793,104.362,99.484,49.3986,0.0526881,1.40885,19.1374,140.764,6.37088,0.0,0.0
320,79.75,124.197,122.913,97.6402,99.4337,49.6486,0.0504919,1.37372,19.2171,140.163,6.32035,0.0,0.0
330,82.25,125.25,124.586,102.24,99.4025,51.5939,0.0485374,1.33504,19.2749,139.603,5.96775,0.0,0.0
340,84.75,126.183,126.192,112.155,99.3247,48.0004,0.0461544,1.28921,19.3629,139.022,6.61759,0.0,0.0
350,87.25,125.483,127.216,108.267,99.274,52.4071,0.0436135,1.22294,19.4868,138.512,5.81365,0.0,0.0
360,89.75,124.963,126.975,111.394,99.2153,54.4537,0.040546,1.14713,19.6147,138.042,5.45964,0.0,0.0
370,92.25,123.296,127.583,115.292,99.1654,54.1714,0.0368283,1.0647,19.775,137.621,5.50237,0.0,0.0
380,94.75,121.562,127.019,118.776,99.1466,57.3748,0.0331271,0.975351,19.8881,137.231,4.97781,0.0,0.0
390,97.25,119.401,125.93,119.436,99.1099,62.6074,0.0285907,0.891505,20.001,136.901,4.18019,0.0,0.0
400,99.75,117.407,124.429,121.071,99.2344,65.75,0.0243532,0.810806,20.1255,136.59,3.74591,0.0,0.0
410,102.25,114.996,123.081,122.294,99.3299,69.2246,0.019876,0.737567,20.2293,136.33,3.28603,0.0,0.0
420,104.75,112.18,121.431,126.968,99.4245,74.1801,0.0165012,0.664232,20.3231,136.08,2.6655,0.0,0.0
430,107.25,109.414,119.785,127.093,99.5051,77.9546,0.0131266,0.600616,20.4012,135.91,2.22123,0.0,0.0
440,109.75,106.978,117.795,127.937,99.6397,85.018,0.00979008,0.532433,20.4931,135.75,1.44419,0.0,0.0
450,112.25,104.295,115.376,130.377,99.7251,91.3848,0.007526,0.475505,20.5917,135.649,0.794803,0.0,0.0
460,114.75,101.327,113.597,132.993,99.8078,99.1562,0.00622376,0.414473,20.6673,135.579,0.0596073,0.0,0.0
470,117.25,98.6513,111.081,133.309,99.8501,101.749,0.00556236,0.361712,20.7255,135.539,-0.171482,0.0,0.0
480,119.75,95.7565,109.232,135.876,99.8828,103.431,0.00563417,0.316118,20.7871,135.509,-0.317693,0.0,0.0
490,122.25,93.1658,106.705,132.225,99.8569,105.148,0.00621313,0.276069,20.8251,135.479,-0.469847,0.0,0.0
500,124.75,90.6693,104.352,143.767,99.8154,105.599,0.00727962,0.244235,20.8521,135.449,-0.5126,0.0,0.0
510,127.25,86.5795,100.385,133.772,99.7507,104.712,0.00841379,0.219712,20.87,135.449,-0.441688,0.0,0.0
520,129.75,84.1247,98.1496,136.979,99.6688,105.353,0.00909514,0.200436,20.8819,135.409,-0.504755,0.0,0.0
530,132.25,82.4193,96.3416,137.848,99.583,105.355,0.0092516,0.185247,20.8921,135.429,-0.512791,0.0,0.0
540,134.75,80.5988,94.4846,133.607,99.4624,104.519,0.00920804,0.172469,20.8987,135.399,-0.451259,0.0,0.0
550,137.25,78.6528,93.027,138.233,99.4572,105.511,0.00911843,0.16293,20.9031,135.349,-0.537739,0.0,0.0
560,139.75,77.5759,91.132,136.146,99.4908,105.469,0.00891193,0.15526,20.9075,135.289,-0.531019,0.0,0.0
570,142.25,75.3968,89.5735,140.336,99.5479,105.007,0.00873353,0.148749,20.9094,135.239,-0.485847,0.0,0.0
580,144.75,73.9963,87.4309,135.567,99.5838,105.034,0.00864996,0.143345,20.9116,135.239,-0.484903,0.0,0.0
590,147.25,72.8952,86.1207,138.571,99.6345,104.969,0.00859717,0.138643,20.9138,135.139,-0.474651,0.0,0.0
600,149.75,71.9041,85.0274,136.392,99.6549,105.31,0.00854291,0.134839,20.9141,135.159,-0.502257,0.0,0.0
610,152.25,71.2348,83.5749,137.525,99.6752,105.04,0.00849151,0.13172,20.9152,135.119,-0.47706,0.0,0.0
620,154.75,70.4149,82.2086,140.948,99.6844,104.977,0.0084408,0.129192,20.9168,135.079,-0.470797,0.0,0.0
630,157.25,69.2369,80.6608,135.755,99.7108,104.885,0.00843352,0.126399,20.918,135.029,-0.460386,0.0,0.0
640,159.75,68.2132,79.9545,137.727,99.7235,105.421,0.00846278,0.124291,20.9187,134.979,-0.505595,0.0,0.0
650,162.25,67.8925,78.9201,138.679,99.7579,105.141,0.00849824,0.122329,20.9193,134.969,-0.478251,0.0,0.0
660,164.75,66.8497,77.9247,137.658,99.7543,104.848,0.0084282,0.120674,20.921,134.959,-0.453171,0.0,0.0
670,167.25,66.5421,76.92,137.273,99.7591,105.212,0.00830141,0.118692,20.9222,134.959,-0.484337,0.0,0.0
680,169.75,65.4452,75.8801,138.057,99.7674,104.563,0.00827059,0.116888,20.9235,134.859,-0.427274,0.0,0.0
690,172.25,64.9367,74.9817,139.199,99.7555,104.617,0.00813734,0.115654,20.924,134.909,-0.433068,0.0,0.0
700,174.75,64.5135,74.1115,139.584,99.7535,104.828,0.00779879,0.11467,20.9229,134.869,-0.451564,0.0,0.0
710,177.25,63.7705,73.0983,135.59,99.7295,105.804,0.00751788,0.113128,20.9238,134.799,-0.538069,0.0,0.0
720,179.75,63.246,72.5112,139.072,99.7175,104.56,0.0074622,0.11138,20.9263,134.679,-0.431553,0.0,0.0
730,182.25,63.3827,71.9289,137.679,99.6804,105.032,0.00753059,0.110185,20.9272,134.619,-0.475883,0.0,0.0
740,184.75,63.0085,71.0035,134.993,99.6636,105.346,0.00760116,0.109576,20.9275,134.719,-0.504645,0.0,0.0
750,187.25,62.7974,70.2459,137.94,99.6077,105.138,0.00745047,0.108712,20.9276,134.709,-0.491684,0.0,0.0
760,189.75,62.1108,69.3134,137.683,99.583,104.191,0.00720809,0.107544,20.929,134.639,-0.411647,0.0,0.0
770,192.25,61.9738,69.3353,138.827,99.5455,104.159,0.00686265,0.106026,20.9306,134.609,-0.412283,0.0,0.0
780,194.75,61.6089,68.5363,138.512,99.5367,105.211,0.0064986,0.104684,20.9311,134.559,-0.504569,0.0,0.0
790,197.25,60.9065,67.9723,134.303,99.5083,104.588,0.00641462,0.103775,20.9323,134.559,-0.453095,0.0,0.0
800,199.75,60.676,67.756,137.278,99.5075,104.34,0.00639422,0.103488,20.9336,134.548,-0.431553,0.0,0.0
810,202.25,61.0102,66.8591,136.285,99.482,104.761,0.00619551,0.102791,20.9346,134.579,-0.470499,0.0,0.0
820,204.75,60.3811,66.2451,138.936,99.4708,105.043,0.00592386,0.101827,20.936,134.488,-0.495976,0.0,0.0
830,207.25,60.1111,66.2796,139.811,99.4492,104.557,0.00546596,0.100878,20.9369,134.468,-0.455757,0.0,0.0
840,209.75,59.9461,65.6314,137.839,99.4093,104.386,0.00506972,0.0998354,20.9386,134.478,-0.444584,0.0,0.0
850,212.25,59.4061,64.9869,137.49,99.3925,104.496,0.00482497,0.0989394,20.9405,134.448,-0.455654,0.0,0.0
860,214.75,59.8292,64.7103,139.229,99.3913,104.945,0.0046781,0.098019,20.9415,134.388,-0.494778,0.0,0.0
870,217.25,59.2853,64.5347,138.376,99.4624,104.943,0.00467856,0.0969581,20.9418,134.368,-0.488156,0.0,0.0
880,219.75,59.3057,64.0449,135.323,99.4968,104.303,0.00458041,0.0965235,20.942,134.388,-0.429318,0.0,0.0
890,222.25,58.6634,63.6735,137.189,99.5618,105.016,0.00425041,0.0955696,20.943,134.318,-0.48535,0.0,0.0
900,224.75,59.2843,63.2449,138.894,99.5918,104.726,0.00387688,0.094445,20.9444,134.338,-0.45741,0.0,0.0
910,227.25,58.7389,62.5394,135.666,99.6513,105.455,0.00369918,0.0935674,20.9449,134.258,-0.515184,0.0,0.0
920,229.75,58.3604,63.0499,136.953,99.6688,104.728,0.00365365,0.0925116,20.9465,134.198,-0.450567,0.0,0.0
930,232.25,58.366,62.2524,138.307,99.7068,104.682,0.00357543,0.0916056,20.9473,134.208,-0.443152,0.0,0.0
940,234.75,57.6844,62.5132,140.274,99.7367,105.059,,0.0907169,,134.198,-0.473125,0.0,0.0
950,237.25,57.8838,61.8459,137.079,99.7658,104.966,,0.0895464,,134.138,-0.462428,0.0,0.0
960,239.75,58.0537,61.3869,138.62,99.7902,104.973,,,,134.188,-0.460792,0.0,0.0
970,242.25,57.8634,61.1363,143.402,99.8054,105.491,,,,134.098,-0.504191,0.0,0.0
980,244.75,57.7982,61.2438,140.623,99.817,105.151,,,,134.118,-0.473721,0.0,0.0
983,245.5,57.658,61.141,137.863,99.8022,104.957,,,,134.138,-0.458295,0.0,0.0