File: 01_Data/FRP_Panel/Cone/FRP_Panel_Cone_HF50Scalar_220919_R4.csv
LABORATORY,FSRI
TEST IDENT,FRP_Panel_HF50_4
OPERATOR,Dow
MATERIAL,Fiber reinforced plastic panel
ORIENTATION,Horizontal
HEAT FLUX,50
SURF AREA,0.01
C FACTOR,0.0402601
SPEC HOLDER DIFF,-566
SPECIMEN MASS,33.25
SCAN TIME,0.25
O2 DELAY TIME,11
CO DELAY TIME,11
CO2 DELAY TIME,8
FLOW FACTOR,1
SCAN COUNT,1190
TIME TO IGN,30.5
END OF TEST SCAN,710
END OF TEST TIME,177.5
TEST STATUS,1
PRE TEST CMT,Dimensions: 102.12 x 102.52 x 2.09 mm