File: 01_Data/FRP_Panel/Cone/FRP_Panel_Cone_HF50Scalar_220919_R3.csv
LABORATORY,FSRI
TEST IDENT,FRP_Panel_HF50_3
OPERATOR,Dow
MATERIAL,Fiber reinforced plastic panel
ORIENTATION,Horizontal
HEAT FLUX,50
SURF AREA,0.01
C FACTOR,0.0402601
SPEC HOLDER DIFF,-566
SPECIMEN MASS,32.37
SCAN TIME,0.25
O2 DELAY TIME,11
CO DELAY TIME,11
CO2 DELAY TIME,8
FLOW FACTOR,1
SCAN COUNT,939
TIME TO IGN,31.5
END OF TEST SCAN,459
END OF TEST TIME,114.75
TEST STATUS,1
PRE TEST CMT,Dimensions: 102.36 x 101.79 x 2.12 mm