File: 01_Data/FRP_Panel/Cone/FRP_Panel_Cone_HF50Scalar_220919_R2.csv
LABORATORY,FSRI
TEST IDENT,FRP_Panel_HF50_2
OPERATOR,Dow
MATERIAL,Fiber reinforced plastic panel
ORIENTATION,Horizontal
HEAT FLUX,50
SURF AREA,0.01
C FACTOR,0.0402601
SPEC HOLDER DIFF,-566
SPECIMEN MASS,34.81
SCAN TIME,0.25
O2 DELAY TIME,11
CO DELAY TIME,11
CO2 DELAY TIME,8
FLOW FACTOR,1
SCAN COUNT,1299
TIME TO IGN,32.5
END OF TEST SCAN,819
END OF TEST TIME,204.75
TEST STATUS,1
PRE TEST CMT,Dimensions: 102.28 x 101.91 x 2.20 mm