File: 01_Data/FRP_Panel/Cone/FRP_Panel_Cone_HF75Scan_220919_R3.csv
Names,Time,Stack TC,Smoke TC,Exh Press,Smoke Comp,Smoke Meas,CO Meter,CO2 Meter,O2 Meter,Sample Mass,Ext Coeff,Start Test,Flame Verif
Chan Gain,,500,500,1,1,1,1,1,1,1,1,1.0,1.0
Offset,,0,0,0.143022,0,0,0,0,0,0,0,0.0,0.0
Gain,,1,1,25.011,14.5176,16.5692,1,1,1,1.00088,1.03055,1.0,1.0
Units,sec,C,C,Pa,%,%,%,%,%,g,/m,,
Baseline,,66.4049,68.4257,137.549,109.679,116.683,6.05519e-05,0.0427628,20.9553,-449.481,-0.559547,,
9,2,63.0238,64.8958,137.438,109.293,115.419,0.000267322,0.0443103,20.955,81.8822,-0.49301,0.0,0.0
18,4.25,63.1384,65.1124,137.199,109.284,115.8,0.000284355,0.0437669,20.9563,81.9022,-0.523519,0.0,0.0
27,6.5,62.5062,64.5139,134.554,109.28,117.268,0.000123849,0.0435193,20.9569,81.8922,-0.637754,0.0,0.0
36,8.75,62.8326,64.5297,137.52,109.275,116.289,-9.83561e-05,0.0431956,20.9571,81.8421,-0.562376,0.0,0.0
45,11,62.8597,64.4426,135.746,109.265,115.675,-0.000215284,0.0429869,20.9564,81.8421,-0.515376,0.0,0.0
54,13.25,62.8183,64.5986,138.45,109.284,115.217,-0.000143309,0.0428807,20.9555,81.8121,-0.477924,0.0,0.0
63,15.5,63.3689,64.6337,139.274,109.256,115.472,9.92793e-05,0.0435701,20.9543,81.8021,-0.500246,0.0,0.0
72,17.75,62.8886,64.7029,135.141,109.252,114.799,0.00150824,0.0584565,20.9298,81.672,-0.447773,0.0,0.0
81,20,63.7215,65.0438,127.783,109.259,86.4142,0.00617815,0.154352,20.7525,81.4218,2.12046,0.0,1.0
90,22.25,65.4775,65.9326,121.947,109.232,69.6635,0.0172726,0.341485,20.5299,81.0715,4.0661,0.0,1.0
99,24.5,66.9825,66.9588,106.518,109.225,58.3996,0.0339511,0.643899,20.2024,80.4909,5.65986,0.0,1.0
108,26.75,73.1674,71.4405,93.2321,109.238,49.93,0.0515278,1.03807,19.5792,79.7603,7.0774,0.0,0.0
117,29,80.9468,77.8248,98.9376,109.227,49.4668,0.062628,1.45508,19.0185,79.0997,7.16074,0.0,0.0
126,31.25,88.478,85.4882,92.5757,109.202,46.9952,0.0704792,1.6924,18.6747,78.3491,7.622,0.0,0.0
135,33.5,96.1591,92.625,96.2982,109.201,44.4472,0.0773766,1.86451,18.4259,77.5584,8.12584,0.0,0.0
144,35.75,103.527,99.7753,87.0778,109.24,37.2174,0.0837567,2.02286,18.2298,76.7476,9.73388,0.0,0.0
153,38,110.647,107.66,88.6235,109.256,35.8668,0.091029,2.18811,18.0214,75.9069,10.0694,0.0,0.0
162,40.25,118.531,115.606,78.7268,109.269,33.7709,0.0983194,2.35737,17.7714,75.0562,10.6148,0.0,0.0
171,42.5,125.892,123.74,76.6561,109.307,35.1852,0.1048,2.49716,17.5889,74.1554,10.2471,0.0,0.0
180,44.75,133.328,132.148,92.5536,109.339,36.0301,0.110987,2.61563,17.4414,73.3046,10.0352,0.0,0.0
189,47,139.965,139.909,79.7649,109.367,33.8736,0.114807,2.67186,17.3732,72.4338,10.5954,0.0,0.0
198,49.25,145.995,147.294,85.9741,109.408,34.4859,0.114561,2.68147,17.3611,71.5331,10.4368,0.0,0.0
207,51.5,150.569,153.583,89.515,109.448,36.0721,0.110462,2.67122,17.3774,70.6122,10.0337,0.0,0.0
216,53.75,155.814,159.656,84.8292,109.471,37.405,0.104544,2.62955,17.454,69.7915,9.70755,0.0,0.0
225,56,159.66,164.807,88.6059,109.539,41.4583,0.0969871,2.49333,17.6212,69.0308,8.78312,0.0,0.0
234,58.25,162.21,169.413,93.8504,109.605,43.9057,0.0869053,2.29768,17.8643,68.3603,8.27008,0.0,0.0
243,60.5,163.025,171.928,94.0717,109.641,44.7309,0.0756281,2.04109,18.2201,67.6897,8.10471,0.0,0.0
252,62.75,162.587,172.86,109.291,109.679,53.241,0.0647392,1.74195,18.6084,67.1992,6.53342,0.0,0.0
261,65,161.041,172.504,109.22,109.717,57.6493,0.0522699,1.4267,19.0349,66.7989,5.81745,0.0,0.0
270,67.25,157.926,170.932,122.216,109.773,68.9005,0.0389887,1.10094,19.5074,66.4886,4.21036,0.0,0.0
279,69.5,153.116,168.314,126.012,109.791,87.7466,0.0282161,0.817616,19.8639,66.2884,2.02609,0.0,0.0
288,71.75,148.779,164.8,130.826,109.8,105.352,0.0183291,0.593587,20.154,66.2684,0.373816,0.0,0.0
297,74,143.804,160.997,128.551,109.851,114.454,0.0115879,0.422182,20.4309,66.2084,-0.371036,0.0,0.0
306,76.25,139.128,156.57,134.105,109.879,116.563,0.00780643,0.301157,20.6162,66.1683,-0.533801,0.0,0.0
315,78.5,134.836,152.803,131.074,109.858,116.382,0.0055051,0.230744,20.7145,66.1283,-0.521501,0.0,0.0
324,80.75,128.713,147.708,132.256,109.879,116.918,0.0042424,0.192061,20.7728,66.0983,-0.561252,0.0,0.0
333,83,124.754,143.886,130.604,109.92,116.447,0.00366726,0.170993,20.8061,66.0182,-0.521503,0.0,0.0
342,85.25,121.59,140.561,131.151,109.955,116.609,0.00347638,0.15991,20.8227,66.0082,-0.531138,0.0,0.0
351,87.5,118.503,137.532,131.59,109.937,116.862,0.00339994,0.15409,20.8333,65.9481,-0.552216,0.0,0.0
360,89.75,115.026,134.026,133.817,109.952,117.013,0.00335442,0.150778,20.8399,65.9381,-0.562623,0.0,0.0
369,92,112.707,131.642,133.463,109.959,116.58,0.00323707,0.148368,20.845,65.8881,-0.528578,0.0,0.0
378,94.25,109.787,128.401,132.635,109.965,116.513,0.00305591,0.146169,20.8458,65.868,-0.522889,0.0,0.0
387,96.5,107.467,125.882,132.839,109.984,116.963,0.00293884,0.144894,20.8474,65.818,-0.556096,0.0,0.0
396,98.75,105.387,123.529,137.498,110.012,117.483,0.00285914,0.144649,20.849,65.7379,-0.594003,0.0,0.0
405,101,102.808,120.871,133.762,110.033,117.258,0.00283626,0.1444,20.8513,65.7479,-0.574923,0.0,0.0
414,103.25,101.184,118.789,134.608,110.038,116.694,0.0027639,0.143601,20.8533,65.6779,-0.530839,0.0,0.0
423,105.5,98.894,116.354,138.195,110.051,116.991,0.00264837,0.142696,20.8547,65.6779,-0.552826,0.0,0.0
432,107.75,96.9567,114.324,133.112,110.063,117.163,0.00260561,0.141851,20.8561,65.5778,-0.565079,0.0,0.0
441,110,96.1068,112.512,132.155,110.049,117.238,0.00263594,0.14072,20.8579,65.5177,-0.572017,0.0,0.0
450,112.25,93.9224,110.751,131.159,110.066,117.036,0.00263377,0.140133,20.8587,65.4377,-0.555103,0.0,0.0
459,114.5,93.0932,109.132,135.431,110.072,117.362,0.00258629,0.138653,20.859,65.4377,-0.579672,0.0,0.0
468,116.75,91.4709,107.297,130.182,110.076,117.383,0.00278729,0.13799,20.8592,65.4076,-0.581055,0.0,0.0
477,119,90.4057,105.998,134.645,110.075,117.093,0.00308996,0.137552,20.8607,65.3776,-0.558748,0.0,0.0
486,121.25,89.2388,104.244,136.378,110.077,117.285,0.00311716,0.13609,20.8616,65.3176,-0.57335,0.0,0.0
495,123.5,88.2354,102.844,135.168,110.097,117.432,0.0029894,0.133612,20.8641,65.2975,-0.583086,0.0,0.0
504,125.75,87.2705,101.356,133.38,110.102,117.253,0.00291014,0.131307,20.8661,65.2175,-0.568859,0.0,0.0
513,128,85.8852,100.058,132.81,110.096,118.2,0.00288937,0.129055,20.8695,65.1274,-0.642054,0.0,0.0
522,130.25,85.0869,98.4465,136.342,110.088,117.704,0.00294126,0.127123,20.8712,65.1875,-0.604691,0.0,0.0
531,132.5,84.6475,97.5802,137.195,110.104,116.875,0.00296639,0.126177,20.8728,65.1875,-0.539543,0.0,0.0
540,134.75,83.2273,95.8143,134.542,110.123,117.331,0.00317592,0.125224,20.8735,65.1274,-0.573112,0.0,0.0
549,137,82.6815,95.0313,134.692,110.092,117.249,0.0034516,0.123729,20.8749,65.0573,-0.569347,0.0,0.0
558,139.25,81.9578,93.9122,133.556,110.109,117.211,0.00354009,0.121824,20.8771,64.9973,-0.565038,0.0,0.0
567,141.5,81.3573,93.0383,132.849,110.103,117.151,0.00344327,0.119731,20.8796,65.0073,-0.560908,0.0,0.0
576,143.75,80.8842,91.9177,137.981,110.09,116.924,0.00323713,0.117936,20.8823,64.9773,-0.544424,0.0,0.0
585,146,79.7584,90.6178,133.42,110.086,117.4,0.0031291,0.116241,20.8844,64.9172,-0.581542,0.0,0.0
594,148.25,79.2136,90.2002,133.38,110.102,117.108,0.00312967,0.114828,20.886,64.9272,-0.557663,0.0,0.0
603,150.5,78.5459,89.0396,136.929,110.089,117.718,0.00308312,0.112713,20.8877,64.8872,-0.605631,0.0,0.0
612,152.75,78.4387,88.1129,134.787,110.084,117.324,0.00302793,0.11022,20.8899,64.7871,-0.575843,0.0,0.0
621,155,77.5002,87.2615,137.171,110.079,117.76,0.00304379,0.108194,20.8914,64.7671,-0.609729,0.0,0.0
630,157.25,76.9401,86.5192,134.703,110.07,117.602,0.00304199,0.107497,20.8925,64.7971,-0.598338,0.0,0.0
639,159.5,76.4976,86.2483,136.704,110.067,117.181,0.00294797,0.106985,20.8929,64.7571,-0.566193,0.0,0.0
648,161.75,76.5945,84.9305,132.249,110.056,117.407,0.00282289,0.105296,20.894,64.8071,-0.584447,0.0,0.0
657,164,76.074,84.7062,135.033,110.061,117.734,0.00272508,0.103238,20.8957,64.7371,-0.609241,0.0,0.0
666,166.25,75.3934,83.7778,134.028,110.056,117.487,0.00272183,0.101544,20.8968,64.717,-0.590675,0.0,0.0
675,168.5,75.0127,83.0799,137.33,110.037,117.143,0.0026589,0.100437,20.8988,64.697,-0.565705,0.0,0.0
684,170.75,74.6588,82.36,136.437,110.035,117.268,0.002429,0.0994493,20.901,64.677,-0.575484,0.0,0.0
693,173,74.4959,82.0054,133.63,110.03,117.54,0.00216954,0.0977547,20.9028,64.657,-0.596868,0.0,0.0
702,175.25,74.4363,81.6584,136.939,110.013,116.461,0.00181295,0.0961883,20.9042,64.617,-0.514953,0.0,0.0
711,177.5,73.6331,80.7306,133.664,109.997,117.245,0.00157112,0.0954402,20.9055,64.5569,-0.576858,0.0,0.0
720,179.75,73.2009,80.2879,132.968,110.006,117.311,0.00151227,0.094771,20.906,64.5469,-0.581235,0.0,0.0
729,182,72.8216,80.252,136.723,109.994,117.518,0.00148181,0.0930198,20.9078,64.4568,-0.59818,0.0,0.0
738,184.25,72.946,79.6871,133.25,109.964,117.491,0.0012536,0.0906226,20.9112,64.4768,-0.598519,0.0,0.0
747,186.5,72.2832,78.6485,134.225,109.952,117.81,0.000948836,0.0877117,20.9142,64.4068,-0.624019,0.0,0.0
756,188.75,72.1598,78.0082,129.635,109.943,116.878,0.000706217,0.0840938,20.9201,64.4068,-0.552952,0.0,0.0
765,191,72.0635,77.9121,138.054,109.913,117.321,,0.0799351,,64.4268,-0.589588,0.0,0.0
774,193.25,71.6648,77.4057,134.302,109.887,117.44,,,,64.4268,-0.600929,0.0,0.0
783,195.5,71.4938,77.1895,137.994,109.875,117.594,,,,64.4268,-0.613776,0.0,0.0
792,197.75,71.0917,76.9855,138.897,109.879,117.244,,,,64.3968,-0.586507,0.0,0.0
800,199.75,71.2028,76.7127,137.043,109.863,117.218,,,,64.3867,-0.585758,0.0,0.0