File: 01_Data/FRP_Panel/Cone/FRP_Panel_Cone_HF75Scalar_220919_R1.csv
LABORATORY,FSRI
TEST IDENT,FRP_Panel_HF75_1
OPERATOR,Dow
MATERIAL,Fiber reinforced plastic panel
ORIENTATION,Horizontal
HEAT FLUX,75
SURF AREA,0.01
C FACTOR,0.0402601
SPEC HOLDER DIFF,-566
SPECIMEN MASS,33.02
SCAN TIME,0.25
O2 DELAY TIME,11
CO DELAY TIME,11
CO2 DELAY TIME,8
FLOW FACTOR,1
SCAN COUNT,812
TIME TO IGN,17.75
END OF TEST SCAN,332
END OF TEST TIME,83
TEST STATUS,1
PRE TEST CMT,Dimensions: 102.62 x 102.52 x 1.96 mm