File: 01_Data/FRP_Panel/Cone/FRP_Panel_Cone_HF25Scan_220919_R3.csv
Names,Time,Stack TC,Smoke TC,Exh Press,Smoke Comp,Smoke Meas,CO Meter,CO2 Meter,O2 Meter,Sample Mass,Ext Coeff,Start Test,Flame Verif
Chan Gain,,500,500,1,1,1,1,1,1,1,1,1.0,1.0
Offset,,0,0,0.143022,0,0,0,0,0,0,0,0.0,0.0
Gain,,1,1,25.011,14.5176,16.5692,1,1,1,1.00088,1.03055,1.0,1.0
Units,sec,C,C,Pa,%,%,%,%,%,g,/m,,
Baseline,,37.7977,38.2921,149.275,109.38,111.076,0.00032127,0.0464794,20.949,-445.628,-0.138992,,
13,3,35.629,36.133,152.865,109.338,111.173,9.38165e-05,0.0510348,20.9477,86.2961,-0.150447,0.0,0.0
26,6.25,35.5016,36.4639,146.887,109.341,110.526,0.00021501,0.050179,20.9486,86.2961,-0.0974497,0.0,0.0
39,9.5,35.7385,36.4807,146.717,109.352,111.165,0.000372994,0.0491197,20.9501,86.286,-0.148659,0.0,0.0
52,12.75,35.6016,36.0252,149.16,109.353,111.263,0.000413078,0.0479865,20.9509,86.246,-0.156559,0.0,0.0
65,16,35.7892,36.4206,147.991,109.354,110.883,0.000418878,0.0471924,20.9511,86.2961,-0.125534,0.0,0.0
78,19.25,35.4643,36.5072,146.166,109.362,110.967,0.000521905,0.0468123,20.9506,86.286,-0.131642,0.0,0.0
91,22.5,35.4773,36.2258,151.603,109.345,110.859,0.000686157,0.046539,20.9505,86.266,-0.124369,0.0,0.0
104,25.75,35.6085,36.369,148.004,109.342,110.909,0.000708533,0.0465516,20.9504,86.276,-0.128666,0.0,0.0
117,29,35.5751,36.0928,153.024,109.347,110.647,0.000579449,0.0464835,20.9504,86.236,-0.106811,0.0,0.0
130,32.25,35.7379,35.7728,149.612,109.345,111.053,0.000300046,0.046565,20.9504,86.266,-0.140107,0.0,0.0
143,35.5,35.7926,36.3117,147.641,109.344,110.709,0.000247169,0.0465354,20.9504,86.236,-0.112147,0.0,0.0
156,38.75,35.3475,36.0003,151.33,109.341,110.745,0.000499518,0.0462906,20.9504,86.1759,-0.115334,0.0,0.0
169,42,35.5775,36.1605,149.184,109.348,110.741,0.000474501,0.0464615,20.9503,86.206,-0.114419,0.0,0.0
182,45.25,35.5244,36.2089,150.441,109.354,111.326,0.000370798,0.0462125,20.9503,86.186,-0.161501,0.0,0.0
195,48.5,36.0139,36.4889,152.855,109.34,110.815,0.000358502,0.0461511,20.9506,86.216,-0.121148,0.0,0.0
208,51.75,35.5344,35.9337,150.836,109.347,110.977,0.000398455,0.046189,20.9524,86.216,-0.133752,0.0,0.0
221,55,35.3005,36.738,151.123,109.362,111.308,0.000318431,0.0461988,20.9532,86.216,-0.159404,0.0,0.0
234,58.25,35.73,36.7453,149.324,109.359,110.877,0.000244153,0.0461968,20.9534,86.1559,-0.1246,0.0,0.0
247,61.5,35.8051,36.5442,146.638,109.356,110.742,0.000242454,0.0463872,20.9519,86.1259,-0.113846,0.0,0.0
260,64.75,35.7879,36.2311,146.866,109.377,110.305,0.000204116,0.0463936,20.9495,86.0458,-0.0763872,0.0,0.0
273,68,35.5124,36.2319,147.283,109.392,110.864,0.000119612,0.0463311,20.9488,86.0358,-0.120823,0.0,0.0
286,71.25,35.6004,36.335,151.988,109.37,110.587,0.000355388,0.0463056,20.9487,86.1259,-0.100035,0.0,0.0
299,74.5,35.5902,35.9378,153.184,109.386,110.285,0.00072303,0.0468913,20.9474,86.0659,-0.0739656,0.0,0.0
312,77.75,35.9249,36.365,149.808,109.396,110.232,0.000767317,0.047218,20.9466,86.0258,-0.0688116,0.0,0.0
325,81,35.5952,36.3951,143.994,109.389,111.247,0.000945918,0.0537818,20.937,85.9658,-0.152278,0.0,1.0
338,84.25,36.5921,36.6209,146.513,109.383,107.387,0.00159666,0.0943465,20.8807,85.9858,0.166455,0.0,1.0
351,87.5,36.0235,36.1584,134.879,109.39,97.4298,0.00425272,0.186487,20.7539,85.6054,1.04669,0.0,1.0
364,90.75,38.6418,37.2012,134.555,109.394,86.2898,0.010258,0.322189,20.5529,85.3352,2.14469,0.0,0.0
377,94,42.3875,40.0171,130.015,109.4,75.6302,0.0199906,0.483376,20.2892,84.8848,3.33713,0.0,0.0
390,97.25,46.9854,43.429,128.242,109.414,71.9607,0.0346283,0.674288,20.012,84.1642,3.78788,0.0,0.0
403,100.5,52.0788,47.393,111.582,109.408,52.486,0.0495438,0.887793,19.717,83.4135,6.64015,0.0,0.0
416,103.75,58.375,53.342,111.459,109.402,54.0146,0.0643723,1.07939,19.461,82.5428,6.38012,0.0,0.0
429,107,64.9389,58.8816,111.257,109.401,58.7511,0.0693198,1.26606,19.1995,81.5619,5.62024,0.0,0.0
442,110.25,71.7451,66.0907,114.158,109.405,52.0937,0.0664172,1.39006,19.065,80.611,6.70776,0.0,0.0
455,113.5,77.8533,72.1136,100.384,109.407,55.3602,0.0622721,1.4397,19.0123,79.8003,6.15813,0.0,0.0
468,116.75,83.332,77.9066,106.515,109.396,52.6099,0.0588906,1.45819,18.9994,78.8895,6.61788,0.0,0.0
481,120,88.5778,83.4373,102.856,109.393,51.9288,0.0568651,1.45471,19.014,78.0088,6.73539,0.0,0.0
494,123.25,92.7772,88.6551,108.704,109.393,52.8891,0.0552562,1.43432,19.0417,77.198,6.56976,0.0,0.0
507,126.5,96.8487,93.1711,101.708,109.379,52.93,0.0536041,1.39021,19.1124,76.4174,6.56162,0.0,0.0
520,129.75,99.3097,97.4148,110.471,109.375,55.1888,0.0507045,1.34166,19.1656,75.5666,6.18349,0.0,0.0
533,133,102.45,100.971,110.632,109.356,55.7748,0.047085,1.29401,19.227,74.836,6.08643,0.0,0.0
546,136.25,103.574,103.643,112.56,109.319,56.5712,0.0435475,1.21247,19.3578,74.1554,5.95526,0.0,0.0
559,139.5,103.8,105.609,113.873,109.295,61.3248,0.0393194,1.10999,19.5006,73.5248,5.22382,0.0,0.0
572,142.75,104.333,106.671,126.071,109.246,64.7916,0.0350282,1.00119,19.6522,72.9243,4.72272,0.0,0.0
585,146,103.247,106.812,126.358,109.213,69.5315,0.0304039,0.894715,19.7977,72.3938,4.08167,0.0,0.0
598,149.25,101.593,106.055,127.467,109.124,70.9286,0.0261461,0.783625,19.9492,71.9834,3.89453,0.0,0.0
611,152.5,98.8609,105.261,132.4,109.045,77.3165,0.0213225,0.671278,20.0951,71.6331,3.10838,0.0,0.0
624,155.75,96.5171,103.646,132.758,108.952,85.3893,0.0173768,0.566186,20.2385,71.3028,2.20288,0.0,0.0
637,159,93.4132,101.345,134.576,108.86,87.5474,0.0136589,0.475124,20.3676,71.0826,1.96964,0.0,0.0
650,162.25,90.1431,98.927,140.272,108.806,93.8918,0.0101297,0.389783,20.504,70.9325,1.33273,0.0,0.0
663,165.5,85.8125,96.3939,137.604,108.829,100.73,0.00765532,0.32309,20.5932,70.7824,0.699036,0.0,0.0
676,168.75,82.9084,93.2726,142.72,108.853,103.667,0.00610116,0.26701,20.6707,70.6823,0.441267,0.0,0.0
689,172,79.5583,90.7348,147.39,108.879,108.959,0.00531567,0.218675,20.7334,70.5822,-0.00660944,0.0,0.0
702,175.25,76.4609,87.4637,142.705,108.922,111.181,0.00524584,0.175618,20.7913,70.5722,-0.185644,0.0,0.0
715,178.5,73.4712,84.575,146.831,109.011,112.14,0.00574554,0.143474,20.8265,70.4921,-0.2558,0.0,0.0
728,181.75,70.1479,82.0441,146.168,109.02,111.219,0.00623806,0.122904,20.8532,70.4921,-0.180568,0.0,0.0
741,185,66.1813,77.7665,150.398,109.097,111.984,0.00654094,0.111639,20.8672,70.4521,-0.236185,0.0,0.0
754,188.25,63.6225,75.401,145.155,109.157,111.079,0.00700359,0.108093,20.8713,70.4221,-0.157795,0.0,0.0
767,191.5,61.1755,72.6314,148.093,109.241,111.729,0.00708047,0.105736,20.8741,70.372,-0.203625,0.0,0.0
780,194.75,59.3211,70.846,146.562,109.255,111.13,0.0069931,0.104505,20.8758,70.362,-0.153804,0.0,0.0
793,198,57.3246,68.6839,146.04,109.292,111.932,0.00714073,0.103488,20.8771,70.332,-0.215727,0.0,0.0
806,201.25,55.9006,67.0585,145.803,109.291,112.059,0.00689444,0.102409,20.8786,70.322,-0.226159,0.0,0.0
819,204.5,54.5238,65.0029,148.067,109.263,111.566,0.00662044,0.100831,20.8811,70.322,-0.188568,0.0,0.0
832,207.75,53.4121,63.5421,146.889,109.265,111.69,0.0065428,0.0999475,20.8827,70.2719,-0.198458,0.0,0.0
845,211,51.9144,61.9229,145.223,109.296,111.893,0.00667999,0.0995544,20.8827,70.2419,-0.21233,0.0,0.0
858,214.25,50.6185,60.3603,147.857,109.293,111.809,0.00672758,0.0991177,20.8828,70.2319,-0.205761,0.0,0.0
871,217.5,49.7819,59.0071,146.638,109.34,112.029,0.00654197,0.0985681,20.8828,70.1418,-0.219645,0.0,0.0
884,220.75,49.1995,58.1551,145.189,109.339,111.867,0.00622839,0.0973441,20.8846,70.1218,-0.206652,0.0,0.0
897,224,48.2082,56.7507,147.442,109.364,112.412,0.00631641,0.0959844,20.8856,70.1418,-0.248465,0.0,0.0
910,227.25,47.9697,55.717,148.049,109.376,111.777,0.00649094,0.0951529,20.8873,70.0818,-0.196299,0.0,0.0
923,230.5,46.8378,54.379,146.748,109.42,111.75,0.00633591,0.0939765,20.8892,70.0918,-0.190544,0.0,0.0
936,233.75,45.9648,53.5804,150.483,109.46,110.854,0.00597368,0.0928718,20.8919,70.0417,-0.114361,0.0,0.0
949,237,45.9788,52.8134,147.733,109.482,111.925,0.00579101,0.0918474,20.8938,70.0317,-0.199484,0.0,0.0
962,240.25,44.8148,52.2549,145.223,109.541,112.137,0.0057346,0.0912144,20.8949,70.0217,-0.211716,0.0,0.0
975,243.5,44.6142,51.2039,146.324,109.567,112.284,0.00584853,0.0905482,20.8952,69.9717,-0.221491,0.0,0.0
988,246.75,43.8453,50.0475,145.346,109.599,112.523,0.0056925,0.0894452,20.8968,69.9216,-0.238017,0.0,0.0
1001,250,43.4882,49.2851,146.839,109.619,112.043,0.00540444,0.088099,20.8981,69.9416,-0.197699,0.0,0.0
1014,253.25,43.1791,48.5708,149.582,109.65,112.106,0.00531361,0.0877059,20.8985,69.9216,-0.200204,0.0,0.0
1027,256.5,42.8008,47.995,152.315,109.675,111.371,0.00508728,0.0865731,20.8986,69.8716,-0.138677,0.0,0.0
1040,259.75,42.7725,47.4174,149.291,109.684,111.81,0.00482085,0.0855064,20.8997,69.8416,-0.173502,0.0,0.0
1053,263,42.1666,47.1511,149.256,109.706,112.128,0.00477749,0.0839675,20.9017,69.8516,-0.197396,0.0,0.0
1066,266.25,41.8764,46.6451,152.027,109.709,112.605,0.00483727,0.0836825,20.9029,69.7915,-0.235542,0.0,0.0
1079,269.5,41.6074,45.8794,148.528,109.701,112.732,0.00468364,0.0832082,20.9032,69.8115,-0.246419,0.0,0.0
1092,272.75,41.4513,45.2016,144.93,109.718,112.06,0.00447314,0.0824032,20.9043,69.7815,-0.190983,0.0,0.0
1105,276,40.9676,44.8481,150.846,109.727,112.894,0.00432569,0.0814315,20.9058,69.7715,-0.257228,0.0,0.0
1118,279.25,41.6944,44.5261,146.4,109.722,112.027,0.00424139,0.080291,20.9062,69.7815,-0.187925,0.0,0.0
1131,282.5,41.1045,44.0344,145.126,109.729,111.207,0.004199,0.0793547,20.9072,69.7515,-0.120951,0.0,0.0
1144,285.75,40.2783,43.6474,144.881,109.73,112.201,0.00408359,0.0785376,20.9082,69.7114,-0.201371,0.0,0.0
1157,289,40.3104,43.3501,147.538,109.739,111.861,0.00396693,0.0776265,20.9095,69.7114,-0.173068,0.0,0.0
1170,292.25,40.2151,43.4287,150.325,109.723,111.588,,0.0765048,,69.6814,-0.152361,0.0,0.0
1183,295.5,40.0957,42.9321,146.86,109.73,111.995,,,,69.7415,-0.184693,0.0,0.0
1196,298.75,39.4134,42.488,148.444,109.718,111.785,,,,69.8015,-0.168688,0.0,0.0
1209,302,39.4033,42.0095,147.81,109.703,111.706,,,,69.6514,-0.163625,0.0,0.0
1213,303,39.285,42.1941,145.707,109.689,111.851,,,,69.6514,-0.176494,0.0,0.0