File: 01_Data/FRP_Panel/Cone/FRP_Panel_Cone_HF25Scalar_220919_R2.csv
LABORATORY,FSRI
TEST IDENT,FRP_Panel_HF25_2
OPERATOR,Dow
MATERIAL,Fiber reinforced plastic panel
ORIENTATION,Horizontal
HEAT FLUX,25
SURF AREA,0.01
C FACTOR,0.0402601
SPEC HOLDER DIFF,-566
SPECIMEN MASS,31.69
SCAN TIME,0.25
O2 DELAY TIME,11
CO DELAY TIME,11
CO2 DELAY TIME,8
FLOW FACTOR,1
SCAN COUNT,1195
TIME TO IGN,79.75
END OF TEST SCAN,715
END OF TEST TIME,178.75
TEST STATUS,1
PRE TEST CMT,Dimensions: 101.95 x 102.56 x 2.00 mm