File: 01_Data/FRP_Panel/Cone/FRP_Panel_Cone_HF75Scan_220919_R1.csv
Names,Time,Stack TC,Smoke TC,Exh Press,Smoke Comp,Smoke Meas,CO Meter,CO2 Meter,O2 Meter,Sample Mass,Ext Coeff,Start Test,Flame Verif
Chan Gain,,500,500,1,1,1,1,1,1,1,1,1.0,1.0
Offset,,0,0,0.143022,0,0,0,0,0,0,0,0.0,0.0
Gain,,1,1,25.011,14.5176,16.5692,1,1,1,1.00088,1.03055,1.0,1.0
Units,sec,C,C,Pa,%,%,%,%,%,g,/m,,
Baseline,,60.0893,62.474,138.423,109.671,115.874,0.000264601,0.0428893,20.9526,-448.929,-0.497292,,
9,2,57.4503,60.5432,139.074,109.557,115.661,0.000164114,0.0441546,20.9531,83.5436,-0.490109,0.0,0.0
18,4.25,58.2676,60.7189,139.701,109.577,115.56,0.000213699,0.043647,20.9538,83.5236,-0.480593,0.0,0.0
27,6.5,58.3006,60.5897,139.54,109.566,114.934,0.000319375,0.0432892,20.9544,83.5236,-0.432407,0.0,0.0
36,8.75,57.9128,60.5121,139.663,109.553,115.414,0.00041283,0.0431759,20.9547,83.4436,-0.471129,0.0,0.0
45,11,57.3899,60.3492,139.35,109.551,116.053,0.000512638,0.0431521,20.9548,83.4436,-0.521236,0.0,0.0
54,13.25,57.9756,59.9334,138.249,109.564,116.027,0.000632014,0.043126,20.9549,83.3935,-0.518129,0.0,0.0
63,15.5,58.2548,60.4712,136.54,109.549,115.208,0.000786106,0.0433519,20.9536,83.4335,-0.455288,0.0,0.0
72,17.75,58.2444,60.5128,135.664,109.547,114.743,0.0023194,0.059453,20.9302,83.2834,-0.418894,0.0,1.0
81,20,58.8802,61.152,124.879,109.536,87.9069,0.00742459,0.147261,20.7498,83.1032,1.98852,0.0,1.0
90,22.25,60.4672,61.3997,117.909,109.552,66.3338,0.0197312,0.337767,20.4378,82.7429,4.53536,0.0,1.0
99,24.5,62.6808,62.8618,102.228,109.517,51.0424,0.0412503,0.618442,20.063,82.0223,6.90131,0.0,0.0
108,26.75,67.6156,66.1365,103.291,109.504,45.0247,0.0622722,1.03084,19.5267,81.2116,8.0342,0.0,0.0
117,29,74.7565,72.1414,93.4115,109.501,47.6111,0.0750809,1.4221,18.9893,80.4009,7.52906,0.0,0.0
126,31.25,82.9074,79.3985,92.3856,109.485,44.1661,0.0804299,1.6841,18.6519,79.7803,8.20668,0.0,0.0
135,33.5,90.0088,86.4331,89.9974,109.486,39.6688,0.0842061,1.84029,18.4394,78.9396,9.17756,0.0,0.0
144,35.75,97.4699,93.9852,80.3373,109.469,38.3228,0.0883736,1.9856,18.25,78.1789,9.48828,0.0,0.0
153,38,104.736,101.385,105.917,109.447,39.193,0.0925708,2.10747,18.1002,77.3382,9.28351,0.0,0.0
162,40.25,111.954,108.682,84.1728,109.439,32.8845,0.0977525,2.22572,17.9323,76.4474,10.8693,0.0,0.0
171,42.5,119.076,116.719,81.5555,109.43,35.3546,0.103395,2.34009,17.7861,75.5966,10.2138,0.0,0.0
180,44.75,126.158,123.887,84.5651,109.412,36.8139,0.107485,2.44072,17.6659,74.7459,9.84664,0.0,0.0
189,47,132.515,131.209,84.9216,109.42,33.3305,0.110322,2.52952,17.5613,73.8551,10.7459,0.0,0.0
198,49.25,138.929,138.937,82.5814,109.372,36.423,0.109797,2.57019,17.5156,73.1044,9.93984,0.0,0.0
207,51.5,143.891,145.31,84.817,109.35,35.5548,0.106623,2.54245,17.55,72.1736,10.1561,0.0,0.0
216,53.75,148.011,151.118,87.4938,109.347,36.3012,0.10128,2.49252,17.6159,71.2828,9.96809,0.0,0.0
225,56,151.758,155.688,90.7103,109.323,38.0528,0.0948191,2.38925,17.7848,70.5322,9.54015,0.0,0.0
234,58.25,154.014,159.928,87.548,109.299,43.845,0.0859086,2.20741,18.0148,69.8215,8.25727,0.0,0.0
243,60.5,155.164,161.822,96.6623,109.297,43.8187,0.0746798,1.98173,18.312,69.221,8.26258,0.0,0.0
252,62.75,154.563,163.641,102.298,109.258,50.0665,0.0631398,1.71768,18.6992,68.7306,7.0544,0.0,0.0
261,65,153.436,163.347,106.176,109.236,55.2454,0.0516635,1.42287,19.0754,68.2802,6.16271,0.0,0.0
270,67.25,150.196,161.559,119.727,109.215,66.0845,0.0394107,1.12955,19.4748,67.9399,4.54149,0.0,0.0
279,69.5,146.635,159.641,122.676,109.22,81.3678,0.0280093,0.871028,19.8795,67.7797,2.66119,0.0,0.0
288,71.75,141.95,156.413,130.449,109.184,103.152,0.0194396,0.636557,20.1913,67.6496,0.51379,0.0,0.0
297,74,137.657,153.023,131.554,109.163,112.222,0.0137937,0.456235,20.3826,67.6396,-0.249804,0.0,0.0
306,76.25,132.505,149.652,135.375,109.136,114.885,0.00933925,0.334878,20.5635,67.5696,-0.464036,0.0,0.0
315,78.5,128.197,145.495,131.246,109.124,115.327,0.00693671,0.257736,20.6856,67.5195,-0.499774,0.0,0.0
324,80.75,124.448,141.781,131.89,109.089,115.255,0.00546739,0.207652,20.7557,67.4695,-0.497041,0.0,0.0
333,83,120.38,138.406,131.856,109.055,114.97,0.00454745,0.180541,20.7942,67.4394,-0.477473,0.0,0.0
342,85.25,115.423,133.235,133.625,109.122,115.909,0.00402308,0.165802,20.8147,67.3794,-0.545424,0.0,0.0
351,87.5,112.351,130.288,131.531,109.197,116.11,0.00371242,0.156819,20.8266,67.3494,-0.554867,0.0,0.0
360,89.75,109.451,127.818,135.002,109.291,115.387,0.00354958,0.151126,20.8347,67.2793,-0.490701,0.0,0.0
369,92,106.562,125.297,130.965,109.401,116.624,0.0033846,0.147732,20.8399,67.2493,-0.57796,0.0,0.0
378,94.25,103.896,122.676,135.225,109.502,116.916,0.00339152,0.145796,20.8427,67.1992,-0.592206,0.0,0.0
387,96.5,101.7,120.387,133.302,109.578,116.504,0.00353484,0.144655,20.8459,67.1992,-0.554109,0.0,0.0
396,98.75,99.2063,117.313,133.238,109.672,116.279,0.00372991,0.144293,20.8456,67.1492,-0.528888,0.0,0.0
405,101,97.3931,115.425,133.671,109.735,116.545,0.0037798,0.143896,20.8468,67.1392,-0.544357,0.0,0.0
414,103.25,95.8451,113.494,134.193,109.779,116.662,0.00362256,0.143162,20.8485,67.0791,-0.549689,0.0,0.0
423,105.5,94.0493,110.99,134.659,109.8,116.209,0.00336985,0.142612,20.8492,67.0391,-0.512799,0.0,0.0
432,107.75,92.1259,109.219,132.98,109.831,115.606,0.00327855,0.141979,20.8506,67.0191,-0.463276,0.0,0.0
441,110,91.0685,107.069,137.02,109.871,116.39,0.00330881,0.140527,20.8533,66.939,-0.521038,0.0,0.0
450,112.25,89.0669,105.459,134.392,109.898,116.474,0.00342225,0.139123,20.8553,66.909,-0.525293,0.0,0.0
459,114.5,88.215,103.637,132.462,109.929,116.213,0.00347371,0.137924,20.8573,66.8689,-0.502508,0.0,0.0
468,116.75,86.3334,102.3,132.142,109.947,116.489,0.00344024,0.136143,20.8591,66.8289,-0.522538,0.0,0.0
477,119,85.5509,100.897,133.107,109.957,116.664,0.00337818,0.134714,20.8604,66.7588,-0.535266,0.0,0.0
486,121.25,84.5209,98.598,135.785,109.909,116.598,0.00321565,0.133132,20.8623,66.7088,-0.534065,0.0,0.0
495,123.5,83.665,97.902,133.937,109.892,117.135,0.00314588,0.131595,20.8648,66.6888,-0.576952,0.0,0.0
504,125.75,82.4988,96.8535,133.602,109.909,116.764,0.00320542,0.130123,20.8679,66.6487,-0.546954,0.0,0.0
513,128,81.5011,95.3591,135.844,109.931,116.531,0.00328045,0.128417,20.8701,66.6387,-0.527066,0.0,0.0
522,130.25,80.6252,93.7788,134.956,109.951,116.238,0.00350768,0.126397,20.8722,66.5887,-0.502686,0.0,0.0
531,132.5,79.9207,92.7335,134.921,109.974,116.07,0.00381242,0.124607,20.8732,66.5687,-0.487691,0.0,0.0
540,134.75,79.2626,92.0031,140.187,110.005,115.956,0.00387512,0.122865,20.8748,66.5286,-0.476313,0.0,0.0
549,137,78.2657,90.7105,135.499,109.999,116.263,0.00374887,0.121149,20.8761,66.4586,-0.50072,0.0,0.0
558,139.25,77.8211,90.2628,136.066,109.993,115.598,0.00365791,0.119033,20.8788,66.4386,-0.449268,0.0,0.0
567,141.5,76.8771,88.5348,133.567,110.007,115.618,0.00362714,0.117183,20.8801,66.4085,-0.449645,0.0,0.0
576,143.75,76.3804,87.7535,138.27,110.002,116.364,0.00376525,0.115321,20.8817,66.3985,-0.508249,0.0,0.0
585,146,75.9501,87.0009,133.809,109.997,116.177,0.00400758,0.113314,20.883,66.3685,-0.494179,0.0,0.0
594,148.25,75.0595,85.7278,134.736,109.991,116.547,0.0040424,0.111879,20.885,66.3385,-0.523405,0.0,0.0
603,150.5,75.1162,85.3825,134.058,110.008,116.878,0.00377091,0.110523,20.8863,66.3385,-0.547637,0.0,0.0
612,152.75,73.7722,84.0778,140.402,109.98,116.054,0.00348604,0.108399,20.8887,66.3185,-0.48596,0.0,0.0
621,155,74.0382,83.5244,134.374,109.966,116.361,0.0033106,0.106375,20.8905,66.2484,-0.511039,0.0,0.0
630,157.25,73.1542,82.6535,136.196,109.98,115.705,0.00322981,0.104742,20.8933,66.2584,-0.458736,0.0,0.0
639,159.5,72.6984,81.888,133.231,109.955,116.356,0.00324568,0.103416,20.8955,66.1883,-0.511517,0.0,0.0
648,161.75,72.293,81.3902,138.105,109.945,116.421,0.00325173,0.102237,20.8966,66.1883,-0.517382,0.0,0.0
657,164,72.1248,80.5837,136.002,109.922,116.492,0.00317086,0.100725,20.8975,66.1683,-0.524738,0.0,0.0
666,166.25,72.0911,79.9676,135.55,109.925,115.633,0.00302961,0.0989387,20.8991,66.1283,-0.45768,0.0,0.0
675,168.5,71.6148,79.6543,131.642,109.915,115.226,0.00285021,0.0976478,20.9004,66.1183,-0.426564,0.0,0.0
684,170.75,70.7764,79.0269,135.585,109.871,116.312,0.00258584,0.0960438,20.9022,66.0882,-0.514986,0.0,0.0
693,173,70.6441,78.2441,133.61,109.852,117.066,0.00234333,0.0947566,20.9035,66.0782,-0.57496,0.0,0.0
702,175.25,70.1534,77.8683,134.005,109.826,116.484,0.00214688,0.0932154,20.9055,66.0782,-0.532056,0.0,0.0
711,177.5,69.9611,77.5433,136.054,109.784,116.807,0.00198495,0.0916114,20.9077,66.0382,-0.560562,0.0,0.0
720,179.75,69.8022,76.6305,133.403,109.757,115.981,0.00191045,0.0900685,20.9114,65.9882,-0.498617,0.0,0.0
729,182,69.3512,76.3384,135.627,109.727,115.663,0.00171062,0.0878519,20.9136,65.9882,-0.476274,0.0,0.0
738,184.25,69.2013,75.561,137.341,109.689,115.279,0.00144326,0.0852569,20.9167,65.9581,-0.449295,0.0,0.0
747,186.5,68.6846,75.3403,135.041,109.633,115.289,0.00123676,0.0825882,20.9198,65.9581,-0.454765,0.0,0.0
756,188.75,68.0789,74.947,134.149,109.583,115.807,0.00102338,0.0799334,20.9235,65.9281,-0.499367,0.0,0.0
765,191,68.2934,74.4767,133.131,109.56,116.263,0.000804382,0.0772764,20.9263,65.9281,-0.536762,0.0,0.0
774,193.25,67.8484,74.3084,135.004,109.495,116.402,,0.0739329,,65.9081,-0.553018,0.0,0.0
783,195.5,67.8225,73.9719,133.077,109.497,115.283,,,,65.8781,-0.465549,0.0,0.0
792,197.75,68.0462,73.6018,133.549,109.541,115.792,,,,65.8881,-0.501653,0.0,0.0
801,200,67.8623,73.5435,136.318,109.556,116.027,,,,65.828,-0.518751,0.0,0.0
810,202.25,67.3302,72.674,137.394,109.576,115.23,,,,65.818,-0.4548,0.0,0.0
812,202.75,67.8759,72.9879,138.539,109.586,116.315,,,,65.808,-0.538766,0.0,0.0