File: 01_Data/FRP_Panel/Cone/FRP_Panel_Cone_HF75Scalar_220919_R3.csv
LABORATORY,FSRI
TEST IDENT,FRP_Panel_HF75_3
OPERATOR,Dow
MATERIAL,Fiber reinforced plastic panel
ORIENTATION,Horizontal
HEAT FLUX,75
SURF AREA,0.01
C FACTOR,0.0402601
SPEC HOLDER DIFF,-566
SPECIMEN MASS,32.61
SCAN TIME,0.25
O2 DELAY TIME,11
CO DELAY TIME,11
CO2 DELAY TIME,8
FLOW FACTOR,1
SCAN COUNT,800
TIME TO IGN,18.25
END OF TEST SCAN,320
END OF TEST TIME,80
TEST STATUS,1
PRE TEST CMT,Dimensions: 102.45 x 102.31 x 2.03 mm