File: 01_Data/FRP_Panel/Cone/FRP_Panel_Cone_HF50Scan_220919_R2.csv
Names,Time,Stack TC,Smoke TC,Exh Press,Smoke Comp,Smoke Meas,CO Meter,CO2 Meter,O2 Meter,Sample Mass,Ext Coeff,Start Test,Flame Verif
Chan Gain,,500,500,1,1,1,1,1,1,1,1,1.0,1.0
Offset,,0,0,0.143022,0,0,0,0,0,0,0,0.0,0.0
Gain,,1,1,25.011,14.5176,16.5692,1,1,1,1.00088,1.03055,1.0,1.0
Units,sec,C,C,Pa,%,%,%,%,%,g,/m,,
Baseline,,46.2666,47.7745,145.432,109.015,111.98,0.000483121,0.0457353,20.9498,-446.206,-0.242572,,
14,3.25,44.5453,45.7367,142.111,108.596,110.904,0.000348528,0.0515791,20.9443,88.5881,-0.190075,0.0,0.0
28,6.75,44.6244,46.3395,140.802,108.568,112.75,0.00034319,0.0527232,20.9429,88.528,-0.34164,0.0,0.0
42,10.25,44.8319,46.7649,143.904,108.576,111.275,0.000359582,0.0519736,20.9442,88.528,-0.221932,0.0,0.0
56,13.75,44.9032,47.0343,147.235,108.567,111.531,0.00055269,0.0502943,20.9467,88.508,-0.243514,0.0,0.0
70,17.25,44.6573,46.1058,142.073,108.564,112.187,0.00054629,0.0482739,20.9496,88.508,-0.296811,0.0,0.0
84,20.75,44.6996,46.4865,150.298,108.57,111.721,0.00045471,0.0470226,20.9503,88.4279,-0.258608,0.0,0.0
98,24.25,44.6707,46.6097,143.03,108.546,111.743,0.000342044,0.0464049,20.9505,88.458,-0.262404,0.0,0.0
112,27.75,45.4196,46.2987,143.139,108.549,110.926,0.000191619,0.0460006,20.95,88.438,-0.195872,0.0,0.0
126,31.25,45.6025,46.4875,147.299,108.54,110.197,0.000659911,0.0469234,20.9446,88.3579,-0.136996,0.0,0.0
140,34.75,45.3171,46.7965,136.23,108.565,97.4091,0.00370775,0.116086,20.8055,88.1577,0.980186,0.0,1.0
154,38.25,46.9776,47.1968,125.698,108.633,76.8347,0.0137535,0.331278,20.5064,87.7273,3.13067,0.0,0.0
168,41.75,52.2459,50.5994,113.038,108.748,59.1172,0.0326734,0.626797,20.0349,86.9667,5.50996,0.0,0.0
182,45.25,60.212,56.4696,105.023,108.834,55.5351,0.0496366,0.971711,19.5585,86.0959,6.08215,0.0,0.0
196,48.75,68.566,64.3167,108.058,108.891,58.0042,0.0554723,1.2026,19.3001,85.1951,5.69358,0.0,0.0
210,52.25,76.3383,72.0006,104.065,108.95,54.9557,0.0555903,1.32546,19.1567,84.2242,6.18657,0.0,0.0
224,55.75,84.1601,79.8027,107.701,109.015,55.2176,0.056726,1.41244,19.0362,83.2934,6.14903,0.0,0.0
238,59.25,91.6706,87.5677,95.1876,109.061,45.7649,0.0602178,1.51355,18.9033,82.2525,7.85013,0.0,0.0
252,62.75,98.4075,95.1696,103.661,109.119,46.2448,0.0633377,1.61405,18.7585,81.2416,7.76069,0.0,0.0
266,66.25,106.009,102.998,94.8052,109.206,46.4344,0.0656445,1.70395,18.6408,80.1807,7.73089,0.0,0.0
280,69.75,112.496,110.081,94.5701,109.269,44.5549,0.0689165,1.79212,18.5261,79.1097,8.10965,0.0,0.0
294,73.25,118.756,117.674,92.3673,109.337,47.9372,0.0719503,1.84267,18.487,77.9887,7.4538,0.0,0.0
308,76.75,124.901,123.851,97.2622,109.382,45.1895,0.0721839,1.82379,18.5193,76.9478,7.99114,0.0,0.0
322,80.25,128.586,129.939,102.719,109.435,47.7461,0.0693375,1.76591,18.5975,75.8869,7.49805,0.0,0.0
336,83.75,131.442,134.097,100.469,109.479,52.0734,0.0631118,1.64873,18.7606,74.9761,6.71739,0.0,0.0
350,87.25,133.221,137.344,114.303,109.493,53.8326,0.0559699,1.48254,18.9774,74.1153,6.41814,0.0,0.0
364,90.75,132.203,138.92,113.596,109.523,61.3344,0.0480226,1.30162,19.251,73.3947,5.2413,0.0,0.0
378,94.25,130.961,138.538,118.042,109.505,65.2229,0.0395996,1.07716,19.4992,72.8142,4.68416,0.0,0.0
392,97.75,126.798,137.058,128.566,109.502,72.7611,0.0294598,0.859782,19.8553,72.2837,3.69519,0.0,0.0
406,101.25,122.398,133.474,130.842,109.46,83.5977,0.0199056,0.639475,20.1531,72.0235,2.43667,0.0,0.0
420,104.75,116.34,130.139,134.312,109.445,107.047,0.011544,0.443929,20.428,71.8533,0.200266,0.0,0.0
434,108.25,110.357,124.958,136.461,109.398,113.347,0.00782642,0.290916,20.6387,71.8033,-0.320561,0.0,0.0
448,111.75,105.19,119.943,137.953,109.395,113.078,0.00768052,0.200807,20.7621,71.7733,-0.299374,0.0,0.0
462,115.25,99.1422,115.332,144.186,109.351,113.485,0.00842542,0.15502,20.817,71.7132,-0.335446,0.0,0.0
476,118.75,94.8698,111.317,140.991,109.302,113.616,0.008923,0.134293,20.839,71.6632,-0.349898,0.0,0.0
490,122.25,90.657,107.251,142.302,109.167,113.434,0.00910254,0.125029,20.8488,71.6331,-0.346548,0.0,0.0
504,125.75,86.8586,103.469,145.015,109.046,113.711,0.00899737,0.119479,20.8553,71.5931,-0.378666,0.0,0.0
518,129.25,83.8128,100.407,140.863,108.966,113.976,0.00882785,0.115866,20.8599,71.5631,-0.406355,0.0,0.0
532,132.75,81.0619,96.7536,143.465,109.008,112.431,0.00871515,0.113458,20.8633,71.503,-0.279542,0.0,0.0
546,136.25,78.5591,93.6303,142.78,109.058,111.678,0.0085584,0.111637,20.8657,71.483,-0.214532,0.0,0.0
560,139.75,75.6726,90.9057,140.064,109.111,113.441,0.00856731,0.110598,20.8685,71.463,-0.351774,0.0,0.0
574,143.25,73.7255,88.5515,143.034,109.185,113.04,0.00888437,0.109241,20.8682,71.3629,-0.313713,0.0,0.0
588,146.75,71.9049,86.6311,141.576,109.234,113.262,0.00884389,0.10807,20.8698,71.3829,-0.3273,0.0,0.0
602,150.25,70.4893,84.0281,143.51,109.325,113.263,0.00852346,0.106275,20.8715,71.3429,-0.319944,0.0,0.0
616,153.75,68.7041,82.0466,139.774,109.369,112.964,0.00839123,0.104283,20.8741,71.3229,-0.292398,0.0,0.0
630,157.25,67.4903,79.9012,140.651,109.473,113.091,0.00819859,0.102564,20.876,71.2528,-0.293943,0.0,0.0
644,160.75,66.3055,78.1862,141.706,109.527,113.636,0.0083341,0.101062,20.8781,71.2428,-0.332953,0.0,0.0
658,164.25,65.3424,76.9145,144.464,109.592,113.917,0.00860666,0.100646,20.8804,71.2128,-0.349912,0.0,0.0
672,167.75,64.6354,75.403,148.861,109.661,113.388,0.00885047,0.0997254,20.8832,71.1527,-0.302144,0.0,0.0
686,171.25,63.0528,73.6173,140.452,109.696,113.654,0.00894893,0.0992143,20.8828,71.1427,-0.320438,0.0,0.0
700,174.75,62.6855,72.0575,142.379,109.758,112.745,0.00873025,0.0986265,20.8825,71.1327,-0.242802,0.0,0.0
714,178.25,62.1094,71.327,141.907,109.771,114.173,0.00862342,0.0971605,20.8838,71.0626,-0.355482,0.0,0.0
728,181.75,60.5113,69.8837,139.882,109.809,112.961,0.00873028,0.0951177,20.8874,71.0226,-0.255865,0.0,0.0
742,185.25,60.1453,68.6746,143.43,109.817,113.441,0.00859573,0.0939816,20.889,71.0226,-0.293452,0.0,0.0
756,188.75,59.4566,67.3836,142.897,109.848,114.23,0.00848628,0.0924379,20.8895,70.9125,-0.353654,0.0,0.0
770,192.25,59.0514,66.8469,139.013,109.86,113.61,0.00849588,0.0910006,20.8918,70.9525,-0.303401,0.0,0.0
784,195.75,58.4919,66.1886,139.906,109.882,113.756,0.00869659,0.0898276,20.8933,70.9025,-0.313274,0.0,0.0
798,199.25,58.3074,65.1148,143.421,109.89,112.73,0.00860232,0.0884929,20.8951,70.9025,-0.230645,0.0,0.0
812,202.75,58.0265,64.3054,139.484,109.89,113.942,0.00817838,0.0870431,20.8974,70.8825,-0.327281,0.0,0.0
826,206.25,55.6861,62.1436,143.154,109.908,114.461,0.00788575,0.0852898,20.8982,70.8224,-0.36693,0.0,0.0
840,209.75,55.7957,61.5861,141.883,109.91,114.131,0.00771372,0.0843699,20.9004,70.8124,-0.340709,0.0,0.0
854,213.25,55.6287,60.8102,139.981,109.933,114.285,0.00725165,0.0843353,20.9022,70.8124,-0.351018,0.0,0.0
868,216.75,54.5954,60.3166,142.209,109.903,114.431,0.00677876,0.0838314,20.9031,70.7824,-0.36497,0.0,0.0
882,220.25,54.381,59.3965,141.754,109.907,113.711,0.00630751,0.0828288,20.9063,70.7524,-0.30762,0.0,0.0
896,223.75,54.2169,58.8518,142.248,109.863,114.126,0.00582528,0.0814822,20.9071,70.7323,-0.344208,0.0,0.0
910,227.25,53.6444,58.5194,145.31,109.836,113.883,0.00531072,0.0804476,20.9088,70.7423,-0.32711,0.0,0.0
924,230.75,53.431,58.2446,141.702,109.767,113.343,0.00484618,0.079269,20.9095,70.6823,-0.289794,0.0,0.0
938,234.25,53.443,57.808,142.544,109.727,113.731,0.00444624,0.0768551,20.914,70.6923,-0.324035,0.0,0.0
952,237.75,53.2879,57.0628,143.019,109.665,113.414,0.00378937,0.0737536,20.9192,70.6723,-0.303834,0.0,0.0
966,241.25,52.995,56.7907,145.519,109.599,112.81,0.00291396,0.0702599,20.9236,70.6523,-0.261027,0.0,0.0
980,244.75,52.66,56.0807,140.473,109.539,114.116,0.00228338,0.0663869,20.9278,70.6623,-0.370018,0.0,0.0
994,248.25,52.4402,55.927,143.002,109.461,113.201,0.00205448,0.0631464,20.9321,70.6222,-0.303702,0.0,0.0
1008,251.75,52.4484,55.2653,142.512,109.406,112.712,0.00181718,0.0602805,20.9358,70.6022,-0.269067,0.0,0.0
1022,255.25,51.5721,55.3124,142.265,109.336,113.143,0.00137295,0.0577006,20.9392,70.6222,-0.309381,0.0,0.0
1036,258.75,52.1578,55.2389,145.416,109.289,113.391,0.00108564,0.0554104,20.942,70.5822,-0.333039,0.0,0.0
1050,262.25,51.4961,54.6352,143.719,109.241,113.855,0.000792334,0.0533123,20.9433,70.6122,-0.374003,0.0,0.0
1064,265.75,51.8348,54.8023,144.934,109.207,111.874,0.000765621,0.0515343,20.9452,70.5722,-0.218109,0.0,0.0
1078,269.25,50.7603,54.2551,142.224,109.186,113.689,0.00065903,0.049996,20.9474,70.6222,-0.365298,0.0,0.0
1092,272.75,51.4033,53.9771,144.935,109.16,113.185,0.000571695,0.0484145,20.9481,70.5522,-0.327324,0.0,0.0
1106,276.25,51.4166,53.8726,140.826,109.143,113.661,0.000594909,0.0472894,20.9485,70.5422,-0.366682,0.0,0.0
1120,279.75,51.2206,53.7277,141.851,109.101,112.506,0.000387876,0.0463905,20.9502,70.5922,-0.277768,0.0,0.0
1134,283.25,51.0544,53.4944,142.372,109.083,112.969,0.000226285,0.0459022,20.9506,70.5722,-0.316454,0.0,0.0
1148,286.75,50.8183,53.3054,141.625,108.996,113.369,0.000197086,0.0457887,20.9519,70.5922,-0.355676,0.0,0.0
1162,290.25,50.7848,52.83,142.238,108.951,113.184,0.000196512,0.045459,20.9527,70.5322,-0.344618,0.0,0.0
1176,293.75,50.5264,52.9826,144.149,108.876,112.508,0.000123984,0.0452296,20.953,70.5222,-0.296597,0.0,0.0
1190,297.25,50.5351,52.2929,142.027,108.822,112.19,3.47295e-05,0.0452409,20.953,70.5622,-0.275572,0.0,0.0
1204,300.75,50.4403,52.6672,144.132,108.75,112.14,1.87673e-06,0.045095,20.9528,70.5522,-0.277498,0.0,0.0
1218,304.25,50.3274,52.565,141.731,108.722,112.891,0.00012271,0.0450587,20.9522,70.5722,-0.340112,0.0,0.0
1232,307.75,50.1487,52.597,142.057,108.657,112.783,-9.22619e-05,0.0449604,20.9521,70.5722,-0.33694,0.0,0.0
1246,311.25,50.359,52.2653,143.782,108.583,112.253,-0.000134446,0.0448628,20.9535,70.5422,-0.300483,0.0,0.0
1260,314.75,49.9478,51.8354,141.642,108.525,113.043,,0.0448546,,70.5422,-0.368776,0.0,0.0
1274,318.25,49.7276,52.1005,146.107,108.447,112.096,,,,70.5822,-0.299144,0.0,0.0
1288,321.75,49.9808,51.3857,140.992,108.377,112.303,,,,70.5322,-0.321603,0.0,0.0
1299,324.5,49.3567,51.5005,144.298,108.315,112.4,,,,70.5322,-0.334663,0.0,0.0