File: 01_Data/FRP_Panel/Cone/FRP_Panel_Cone_HF50Scan_220919_R4.csv
Names,Time,Stack TC,Smoke TC,Exh Press,Smoke Comp,Smoke Meas,CO Meter,CO2 Meter,O2 Meter,Sample Mass,Ext Coeff,Start Test,Flame Verif
Chan Gain,,500,500,1,1,1,1,1,1,1,1,1.0,1.0
Offset,,0,0,0.143022,0,0,0,0,0,0,0,0.0,0.0
Gain,,1,1,25.011,14.5176,16.5692,1,1,1,1.00088,1.03055,1.0,1.0
Units,sec,C,C,Pa,%,%,%,%,%,g,/m,,
Baseline,,51.6137,53.2079,143.374,108.343,113.495,0.000261741,0.043038,20.9505,-447.61,-0.419922,,
13,3,48.9685,50.5162,143.945,108.625,114.342,0.000686372,0.0436062,20.9533,84.4544,-0.463728,0.0,0.0
26,6.25,49.1102,50.6487,145.208,108.653,113.657,0.000709514,0.0433469,20.9535,84.4244,-0.407034,0.0,0.0
39,9.5,49.0249,50.8922,145.195,108.69,114.147,0.000708411,0.0432457,20.9535,84.4344,-0.442825,0.0,0.0
52,12.75,48.9885,50.2465,146.691,108.747,113.82,0.000409237,0.0431236,20.9519,84.4144,-0.41217,0.0,0.0
65,16,49.1018,50.7348,143.126,108.795,113.652,0.00010094,0.0431803,20.9514,84.3944,-0.394806,0.0,0.0
78,19.25,48.9933,50.7842,144.23,108.787,114.102,0.000206794,0.0432058,20.9523,84.3744,-0.431195,0.0,0.0
91,22.5,49.7166,51.256,145.138,108.85,113.747,0.000519258,0.0432603,20.9515,84.3644,-0.397765,0.0,0.0
104,25.75,49.1758,50.7308,143.772,108.914,113.076,0.000615931,0.0432252,20.9502,84.2943,-0.33902,0.0,0.0
117,29,49.1458,50.8643,146.629,108.934,112.948,0.000857869,0.0440607,20.9467,84.2843,-0.327095,0.0,0.0
130,32.25,50.1285,51.0331,132.941,108.968,101.142,0.00346758,0.103175,20.8674,84.0941,0.673721,0.0,1.0
143,35.5,50.9605,51.0324,125.26,109.033,77.7059,0.0127836,0.289036,20.5937,83.7138,3.06201,0.0,1.0
156,38.75,54.7089,53.7354,111.613,109.049,60.1138,0.0275192,0.578916,20.1124,83.0132,5.38377,0.0,0.0
169,42,61.3251,59.6218,102.24,109.111,56.0231,0.0427577,0.953681,19.6811,82.1224,6.026,0.0,0.0
182,45.25,70.6613,67.2643,99.7932,109.171,59.9661,0.0512469,1.26817,19.2211,81.3017,5.41617,0.0,0.0
195,48.5,79.5284,75.0381,99.391,109.188,54.3246,0.0554269,1.43255,19.0102,80.4109,6.31073,0.0,0.0
208,51.75,87.0369,83.397,96.3226,109.221,49.2822,0.061064,1.56434,18.8104,79.41,7.19409,0.0,0.0
221,55,95.4271,91.123,89.2684,109.261,44.3461,0.0664437,1.70966,18.6292,78.4191,8.15142,0.0,0.0
234,58.25,103.169,99.8408,96.286,109.293,40.804,0.0713397,1.82769,18.4655,77.3482,8.90658,0.0,0.0
247,61.5,110.89,107.801,92.984,109.303,43.264,0.076035,1.94513,18.3296,76.2472,8.37822,0.0,0.0
260,64.75,117.912,115.945,85.349,109.342,38.8947,0.079318,2.03135,18.2263,75.1262,9.34383,0.0,0.0
273,68,124.166,123.37,91.7224,109.357,43.8,0.081178,2.07298,18.1771,73.9852,8.27142,0.0,0.0
286,71.25,129.925,130.278,96.1509,109.376,41.6232,0.0799976,2.06986,18.1874,72.9843,8.73378,0.0,0.0
299,74.5,134.381,136.456,97.1118,109.411,43.7014,0.0761488,1.99688,18.2788,71.9234,8.29622,0.0,0.0
312,77.75,137.404,141.207,106.611,109.452,47.8467,0.0686419,1.82585,18.5087,71.0927,7.48041,0.0,0.0
325,81,137.813,143.367,108.762,109.478,52.3581,0.0581677,1.58134,18.844,70.2619,6.66803,0.0,0.0
338,84.25,137.081,144.291,115.3,109.498,56.2779,0.0471069,1.31073,19.1891,69.6814,6.01703,0.0,0.0
351,87.5,134.22,143.418,119.83,109.517,71.6381,0.0369542,1.03707,19.5792,69.201,3.83702,0.0,0.0
364,90.75,129.293,140.381,129.478,109.548,82.7715,0.0260936,0.781359,19.9298,68.9007,2.5337,0.0,0.0
377,94,124.28,136.981,128.571,109.54,95.8911,0.016722,0.558921,20.2699,68.6205,1.203,0.0,0.0
390,97.25,118.915,132.793,135.58,109.557,106.347,0.0108462,0.392439,20.478,68.5204,0.268811,0.0,0.0
403,100.5,113.419,128.045,134.472,109.564,115.112,0.0084554,0.275474,20.6531,68.4904,-0.446578,0.0,0.0
416,103.75,108.576,123.475,140.32,109.563,115.594,0.0083478,0.200712,20.7523,68.4804,-0.484413,0.0,0.0
429,107,103.856,119.152,138.545,109.572,114.949,0.00904605,0.160341,20.8051,68.3502,-0.433049,0.0,0.0
442,110.25,99.4874,115.239,138.613,109.592,116.231,0.00951195,0.14099,20.8279,68.3603,-0.531689,0.0,0.0
455,113.5,95.7193,111.554,135.283,109.606,115.129,0.00941495,0.130497,20.8402,68.3302,-0.444378,0.0,0.0
468,116.75,91.9954,108.004,142.583,109.594,115.63,0.0091627,0.123524,20.849,68.2401,-0.484665,0.0,0.0
481,120,88.8355,104.57,137.413,109.618,115.706,0.00905566,0.119656,20.8543,68.1501,-0.488617,0.0,0.0
494,123.25,86.311,102.034,144.726,109.627,115.08,0.00894343,0.116317,20.8588,68.1901,-0.438808,0.0,0.0
507,126.5,84.1467,98.912,136.563,109.604,115.515,0.00895038,0.114716,20.861,68.1601,-0.474883,0.0,0.0
520,129.75,81.4696,96.7553,136.787,109.619,115.228,0.00890247,0.11287,20.8627,68.1301,-0.451137,0.0,0.0
533,133,79.3666,93.8588,137.063,109.621,115.523,0.00858409,0.1117,20.8658,68.09,-0.474088,0.0,0.0
546,136.25,77.6327,91.8665,143.327,109.625,115.773,0.00859214,0.109628,20.8677,68.0099,-0.493285,0.0,0.0
559,139.5,75.9712,89.3166,138.253,109.605,115.871,0.00869428,0.107912,20.8694,68.03,-0.502585,0.0,0.0
572,142.75,74.1963,87.7104,142.425,109.618,115.984,0.00838897,0.106111,20.8714,67.9699,-0.510358,0.0,0.0
585,146,72.9452,85.7359,141.223,109.626,115.677,0.00826258,0.10446,20.8734,67.9599,-0.485746,0.0,0.0
598,149.25,71.5021,83.8339,139.338,109.61,115.133,0.00825799,0.103269,20.8751,67.9299,-0.444403,0.0,0.0
611,152.5,70.7433,82.4408,138.228,109.597,116.059,0.0082462,0.101661,20.878,67.8898,-0.517906,0.0,0.0
624,155.75,69.5626,80.6734,137.721,109.581,115.578,0.00821335,0.100071,20.8806,67.8498,-0.481649,0.0,0.0
637,159,68.4828,79.0773,137.542,109.565,115.529,0.00816176,0.098084,20.8831,67.8698,-0.47913,0.0,0.0
650,162.25,67.224,77.5122,138.723,109.555,115.673,0.00821144,0.0964948,20.8835,67.8298,-0.491238,0.0,0.0
663,165.5,66.5877,76.4525,137.116,109.548,115.442,0.00812844,0.095046,20.8848,67.8198,-0.473712,0.0,0.0
676,168.75,65.5679,75.0508,139.746,109.53,115.232,0.00807163,0.09348,20.887,67.7697,-0.458761,0.0,0.0
689,172,64.7442,73.8855,134.626,109.492,115.149,0.00803794,0.0918321,20.8889,67.7197,-0.455437,0.0,0.0
702,175.25,64.3413,73.085,143.93,109.485,115.755,0.00825176,0.0908872,20.891,67.7197,-0.503455,0.0,0.0
715,178.5,62.5212,70.9354,140.277,109.462,115.275,0.00836813,0.0894812,20.8945,67.6496,-0.467765,0.0,0.0
728,181.75,61.3383,69.2779,140.426,109.42,114.478,0.00810742,0.0873914,20.8964,67.6496,-0.408497,0.0,0.0
741,185,60.8599,68.9184,138.586,109.389,114.868,0.00818807,0.0865036,20.8986,67.6596,-0.441829,0.0,0.0
754,188.25,60.5138,68.2348,138.62,109.365,115.918,0.0082965,0.0856469,20.8994,67.6096,-0.52612,0.0,0.0
767,191.5,60.4111,66.7293,141.636,109.319,115.293,0.00790515,0.0841959,20.901,67.5796,-0.480984,0.0,0.0
780,194.75,59.4123,66.3048,141.443,109.289,115.254,0.00762143,0.083042,20.9026,67.5896,-0.480383,0.0,0.0
793,198,59.0025,65.8226,138.217,109.264,114.856,0.00735821,0.0822123,20.9039,67.5495,-0.451129,0.0,0.0
806,201.25,58.5412,64.8241,138.606,109.231,115.738,0.00690719,0.0812043,20.9059,67.5095,-0.523061,0.0,0.0
819,204.5,57.9146,64.3895,136.128,109.175,115.123,0.00612177,0.0801344,20.9069,67.5095,-0.479601,0.0,0.0
832,207.75,58.4797,63.8767,138.381,109.148,115.098,0.00537047,0.0787467,20.9091,67.4995,-0.47978,0.0,0.0
845,211,58.1259,62.8968,138.897,109.134,114.574,0.00467859,0.0769916,20.9113,67.4695,-0.439754,0.0,0.0
858,214.25,57.4982,61.8383,138.758,109.093,115.113,0.00414285,0.0743972,20.9147,67.4595,-0.485597,0.0,0.0
871,217.5,57.2243,61.9849,139.803,109.044,114.748,0.00360268,0.0720268,20.9175,67.4494,-0.46096,0.0,0.0
884,220.75,56.7892,61.3384,139.129,109.026,115.187,0.00301186,0.0697741,20.9197,67.4094,-0.496901,0.0,0.0
897,224,56.1939,61.4647,141.124,109.011,114.165,0.00230585,0.0673296,20.9232,67.4194,-0.417631,0.0,0.0
910,227.25,56.3589,60.7183,141.18,108.98,114.661,0.0018811,0.0642196,20.9266,67.3794,-0.459356,0.0,0.0
923,230.5,56.0718,60.4235,141.542,108.976,115.147,0.00146918,0.0605351,20.9313,67.3293,-0.497881,0.0,0.0
936,233.75,55.8358,60.1155,140.845,108.964,114.189,0.000949222,0.0568891,20.9354,67.3794,-0.423408,0.0,0.0
949,237,55.5189,59.4446,141.323,108.95,114.907,0.000713936,0.0539147,20.9405,67.3994,-0.481173,0.0,0.0
962,240.25,55.2221,58.7863,138.348,108.933,115.028,0.000762672,0.051137,20.9425,67.4094,-0.492149,0.0,0.0
975,243.5,55.4162,59.4137,138.554,108.975,114.637,0.000743363,0.0492322,20.9436,67.3694,-0.457884,0.0,0.0
988,246.75,54.5904,58.3258,136.863,109.014,114.118,0.000707763,0.0475581,20.9463,67.3694,-0.413646,0.0,0.0
1001,250,54.8461,58.2195,137.564,109.058,114.765,0.000530719,0.0463256,20.9474,67.3694,-0.461063,0.0,0.0
1014,253.25,54.5877,57.6918,141.451,109.094,114.457,0.000249087,0.0453065,20.9488,67.3794,-0.4338,0.0,0.0
1027,256.5,54.8004,57.0484,141.146,109.136,115.629,0.000257482,0.0446333,20.9475,67.3794,-0.522451,0.0,0.0
1040,259.75,54.2809,57.1852,140.106,109.201,114.409,6.20323e-05,0.0440956,20.9488,67.3694,-0.421161,0.0,0.0
1053,263,54.2993,56.8495,139.326,109.287,114.94,-0.000123916,0.0439653,20.9492,67.3293,-0.455906,0.0,0.0
1066,266.25,54.2654,56.4392,139.987,109.365,115.552,-6.39206e-05,0.0436882,20.9493,67.3594,-0.497488,0.0,0.0
1079,269.5,53.7322,56.3356,140.668,109.42,115.14,-0.000129705,0.043562,20.9493,67.3994,-0.460647,0.0,0.0
1092,272.75,53.6632,56.4662,139.609,109.488,114.956,-0.000132451,0.0434754,20.9492,67.3594,-0.44055,0.0,0.0
1105,276,53.6046,55.882,140.86,109.563,115.373,0.000185687,0.0434475,20.9488,67.3594,-0.467119,0.0,0.0
1118,279.25,53.4139,55.7571,139.307,109.632,114.397,0.000239795,0.0435104,20.9487,67.3494,-0.384588,0.0,0.0
1131,282.5,53.593,55.4537,138.416,109.685,115.516,0.000149779,0.0437042,20.9494,67.3494,-0.468201,0.0,0.0
1144,285.75,53.2765,55.7512,139.744,109.76,115.323,0.00012091,0.043634,20.9493,67.3694,-0.446903,0.0,0.0
1157,289,52.9946,55.1527,142.167,109.803,115.239,,0.0433832,,67.3293,-0.436822,0.0,0.0
1170,292.25,53.3701,55.2058,137.755,109.816,114.878,,,,67.3594,-0.407362,0.0,0.0
1183,295.5,53.1295,55.3442,142.286,109.846,114.769,,,,67.3293,-0.396281,0.0,0.0
1190,297.25,52.7717,54.693,142.08,109.855,115.395,,,,67.3293,-0.444761,0.0,0.0