File: 01_Data/FRP_Panel/Cone/FRP_Panel_Cone_HF25Scalar_220919_R1.csv
LABORATORY,FSRI
TEST IDENT,FRP_Panel_HF25_1
OPERATOR,Dow
MATERIAL,Fiber reinforced plastic panel
ORIENTATION,Horizontal
HEAT FLUX,25
SURF AREA,0.01
C FACTOR,0.0402601
SPEC HOLDER DIFF,-566
SPECIMEN MASS,32.59
SCAN TIME,0.25
O2 DELAY TIME,11
CO DELAY TIME,11
CO2 DELAY TIME,8
FLOW FACTOR,1
SCAN COUNT,1214
TIME TO IGN,80
END OF TEST SCAN,734
END OF TEST TIME,183.5
TEST STATUS,1
PRE TEST CMT,Dimensions: 102.22 x 102.50 x 2.00 mm