File: 01_Data/FRP_Panel/Cone/FRP_Panel_Cone_HF25Scan_220919_R2.csv
Names,Time,Stack TC,Smoke TC,Exh Press,Smoke Comp,Smoke Meas,CO Meter,CO2 Meter,O2 Meter,Sample Mass,Ext Coeff,Start Test,Flame Verif
Chan Gain,,500,500,1,1,1,1,1,1,1,1,1.0,1.0
Offset,,0,0,0.143022,0,0,0,0,0,0,0,0.0,0.0
Gain,,1,1,25.011,14.5176,16.5692,1,1,1,1.00088,1.03055,1.0,1.0
Units,sec,C,C,Pa,%,%,%,%,%,g,/m,,
Baseline,,36.6182,37.2262,149.043,108.916,110.163,0.000370824,0.0470271,20.9479,-445.494,-0.102904,,
13,3,34.6592,35.3534,149.349,108.93,110.274,0.000171937,0.0528793,20.943,78.1189,-0.110886,0.0,0.0
26,6.25,34.5934,35.7325,150.273,108.946,110.513,0.000161509,0.0505026,20.9454,78.0688,-0.129065,0.0,0.0
39,9.5,34.4022,35.2179,145.182,108.934,110.397,0.000324934,0.0486688,20.9472,78.0688,-0.120617,0.0,0.0
52,12.75,34.8609,35.2906,149.763,108.938,110.002,0.000359091,0.0475472,20.9488,78.0688,-0.0878176,0.0,0.0
65,16,34.8908,35.1034,146.884,108.934,110.056,0.000457852,0.0468887,20.9493,78.0588,-0.0926672,0.0,0.0
78,19.25,34.7703,35.5541,152.095,108.924,110.57,0.000441825,0.0467982,20.9492,78.0488,-0.13554,0.0,0.0
91,22.5,34.5156,35.676,147.392,108.928,110.39,0.000284419,0.0463132,20.9487,78.0288,-0.120479,0.0,0.0
104,25.75,34.8106,35.1828,148.053,108.934,109.822,0.000175461,0.0463481,20.9499,78.0488,-0.0734213,0.0,0.0
117,29,34.7298,35.6197,151.436,108.931,109.969,9.81526e-05,0.0460818,20.9501,78.0388,-0.0857041,0.0,0.0
130,32.25,34.4624,35.3922,150.657,108.916,110.048,0.000190409,0.046079,20.9502,78.0388,-0.0935143,0.0,0.0
143,35.5,34.3551,35.3639,152.988,108.928,110.096,0.00039284,0.0459608,20.9502,78.0288,-0.0964252,0.0,0.0
156,38.75,34.9937,35.2915,146.773,108.925,109.867,0.000422455,0.0460008,20.9502,78.0388,-0.0778555,0.0,0.0
169,42,34.526,35.4814,149.631,108.916,110.235,0.000585058,0.0461854,20.9506,78.0188,-0.108792,0.0,0.0
182,45.25,34.6206,35.087,148.199,108.922,109.522,0.000577016,0.0462277,20.9529,77.9787,-0.049735,0.0,0.0
195,48.5,34.8505,35.8148,151.12,108.934,109.9,0.0003571,0.04635,20.9535,77.9487,-0.0797867,0.0,0.0
208,51.75,35.008,35.544,147.79,108.928,109.42,0.000167609,0.0463325,20.9537,77.9487,-0.0407073,0.0,0.0
221,55,34.8992,35.3655,148.415,108.923,109.855,2.68793e-05,0.0463041,20.9531,77.9487,-0.0770452,0.0,0.0
234,58.25,35.0937,35.689,148.278,108.949,109.487,-0.000105951,0.0461862,20.9525,77.9487,-0.0444969,0.0,0.0
247,61.5,34.7634,35.415,145.609,108.939,109.548,-6.22559e-05,0.0463234,20.9523,77.9587,-0.0503922,0.0,0.0
260,64.75,35.4071,35.5862,149.978,108.926,110.464,0.000275738,0.0463704,20.9523,77.8586,-0.126752,0.0,0.0
273,68,34.8627,35.754,151.954,108.937,109.615,0.000326148,0.0463831,20.9521,77.8886,-0.0560827,0.0,0.0
286,71.25,34.9789,35.7367,145.855,108.939,109.569,0.000348244,0.0465237,20.9521,77.9287,-0.052103,0.0,0.0
299,74.5,35.1546,35.3839,149.744,108.928,109.362,0.000372941,0.0468183,20.951,77.8786,-0.0359385,0.0,0.0
312,77.75,35.1778,35.9552,147.67,108.93,109.83,0.000575125,0.0473546,20.9494,77.8586,-0.0743399,0.0,0.0
325,81,35.5821,35.655,147.128,108.941,110.015,0.00120517,0.057325,20.933,77.7785,-0.0887137,0.0,1.0
338,84.25,35.4624,36.0725,142.888,108.93,106.223,0.00208189,0.101964,20.8633,77.6284,0.227515,0.0,1.0
351,87.5,35.2302,35.4288,140.939,108.926,95.1675,0.0041827,0.183874,20.7476,77.4282,1.22062,0.0,1.0
364,90.75,37.8742,36.9387,134.134,108.923,86.3662,0.00966324,0.305924,20.5647,77.108,2.09766,0.0,0.0
377,94,40.5502,38.689,128.246,108.925,73.5843,0.0211128,0.472546,20.3205,76.5875,3.54567,0.0,0.0
390,97.25,45.1053,41.9821,116.273,108.917,66.0056,0.0374572,0.702865,19.9438,75.8969,4.52761,0.0,0.0
403,100.5,51.6257,46.7877,110.88,108.93,59.1349,0.0524982,0.979462,19.5427,74.9861,5.52231,0.0,0.0
416,103.75,58.7241,53.5415,112.661,108.932,56.2799,0.0596036,1.22925,19.2304,74.0853,5.96981,0.0,0.0
429,107,66.9157,60.7377,99.852,108.927,59.2603,0.0595495,1.34765,19.1143,73.2746,5.50294,0.0,0.0
442,110.25,73.7999,66.9953,103.645,108.939,56.0893,0.0579072,1.39939,19.0673,72.4238,6.00107,0.0,0.0
455,113.5,79.5855,73.8777,113.247,108.934,59.1429,0.0551558,1.40981,19.0661,71.503,5.52147,0.0,0.0
468,116.75,85.5511,79.8275,107.198,108.931,54.7822,0.0524715,1.40082,19.0918,70.7023,6.21356,0.0,0.0
481,120,89.9861,85.5971,107.444,108.935,54.6057,0.0514659,1.38559,19.112,69.8816,6.24306,0.0,0.0
494,123.25,93.8701,90.1291,110.613,108.95,52.9973,0.0512098,1.3763,19.1239,69.1209,6.51463,0.0,0.0
507,126.5,98.1981,94.9642,104.887,108.94,55.0148,0.0503132,1.36179,19.1428,68.2702,6.17604,0.0,0.0
520,129.75,100.682,98.9687,113.85,108.933,54.6548,0.0483523,1.33196,19.1844,67.5796,6.23476,0.0,0.0
533,133,103.051,102.274,106.388,108.937,56.5823,0.0457634,1.2762,19.2634,66.8189,5.92181,0.0,0.0
546,136.25,104.299,104.851,108.746,108.941,61.1676,0.0426289,1.21472,19.3457,66.1483,5.21778,0.0,0.0
559,139.5,105.152,106.764,118.722,108.941,64.25,0.0388933,1.11942,19.5052,65.5278,4.7733,0.0,0.0
572,142.75,104.483,107.46,119.217,108.936,61.6065,0.0349101,0.993289,19.6678,64.9573,5.15267,0.0,0.0
585,146,102.912,106.933,124.398,108.945,68.1182,0.0307365,0.865463,19.848,64.4568,4.24509,0.0,0.0
598,149.25,101.32,106.63,130.586,108.949,70.9787,0.0255521,0.742144,20.0115,64.0665,3.8736,0.0,0.0
611,152.5,98.4078,105.135,132.413,108.936,79.2188,0.0207052,0.6281,20.1889,63.7162,2.87965,0.0,0.0
624,155.75,95.3854,103.118,132.841,108.937,84.3764,0.0162143,0.520445,20.3144,63.4759,2.3095,0.0,0.0
637,159,91.4568,100.365,136.417,108.931,90.6399,0.0124249,0.435661,20.4264,63.2558,1.6617,0.0,0.0
650,162.25,88.2006,98.0851,136.873,108.907,99.0914,0.00927855,0.350562,20.5495,63.1056,0.853868,0.0,0.0
663,165.5,84.0898,95.0288,142.131,108.906,103.467,0.00671305,0.280343,20.6526,63.0055,0.463159,0.0,0.0
676,168.75,81.1106,91.8102,141.919,108.895,108.615,0.00527427,0.223383,20.7277,62.8954,0.0232826,0.0,0.0
689,172,77.2197,89.1314,142.591,108.884,110.522,0.00489837,0.178688,20.7879,62.8854,-0.134957,0.0,0.0
702,175.25,74.087,85.8478,143.392,108.855,111.515,0.00512613,0.147601,20.8286,62.8454,-0.218215,0.0,0.0
715,178.5,70.9116,83.4833,142.85,108.861,111.428,0.00556856,0.12573,20.8546,62.7853,-0.210725,0.0,0.0
728,181.75,66.6574,78.766,145.586,108.854,110.979,0.00591357,0.112385,20.8699,62.7653,-0.174812,0.0,0.0
741,185,63.9425,76.6199,148.761,108.829,110.995,0.00642881,0.106502,20.8748,62.7753,-0.178153,0.0,0.0
754,188.25,61.867,73.669,148.886,108.828,110.659,0.00656788,0.104341,20.8776,62.7453,-0.150831,0.0,0.0
767,191.5,59.8435,71.8013,148.107,108.822,111.013,0.00672542,0.102896,20.8793,62.7053,-0.180142,0.0,0.0
780,194.75,57.7463,69.4293,143.342,108.801,111.249,0.00668944,0.10215,20.88,62.6452,-0.201122,0.0,0.0
793,198,55.8804,67.612,144.321,108.759,111.229,0.00642262,0.101899,20.8802,62.6552,-0.203013,0.0,0.0
806,201.25,54.2168,66.0337,145.001,108.778,111.449,0.00635006,0.100916,20.8812,62.5952,-0.219252,0.0,0.0
819,204.5,53.2241,63.8715,144.162,108.783,110.521,0.00655673,0.099771,20.8815,62.6152,-0.143306,0.0,0.0
832,207.75,51.673,62.3732,145.279,108.746,111.358,0.0067006,0.0993142,20.8812,62.5351,-0.214591,0.0,0.0
845,211,50.5997,60.7258,143.281,108.746,110.974,0.00643356,0.0992693,20.8817,62.5151,-0.183304,0.0,0.0
858,214.25,49.7342,59.5338,150.057,108.737,110.513,0.00620786,0.0980509,20.8836,62.455,-0.146433,0.0,0.0
871,217.5,48.9271,58.0169,143.476,108.727,110.561,0.00637239,0.0968104,20.8859,62.4751,-0.151176,0.0,0.0
884,220.75,47.9243,57.0422,146.059,108.719,110.886,0.00637636,0.0964387,20.886,62.4751,-0.178417,0.0,0.0
897,224,47.1074,55.9442,146.447,108.696,110.412,0.00631221,0.096215,20.8858,62.435,-0.141629,0.0,0.0
910,227.25,46.5769,54.7303,143.909,108.696,110.644,0.00615534,0.0949988,20.8877,62.445,-0.160649,0.0,0.0
923,230.5,45.7299,53.2759,147.7,108.677,110.299,0.00588814,0.0934779,20.8912,62.405,-0.13393,0.0,0.0
936,233.75,45.5323,52.6327,149.816,108.654,110.353,0.00583471,0.0922804,20.8924,62.365,-0.140285,0.0,0.0
949,237,45.1786,51.7967,148.953,108.651,110.362,0.00574124,0.091536,20.895,62.345,-0.141288,0.0,0.0
962,240.25,44.4665,51.2113,146.266,108.594,110.854,0.00570332,0.0907974,20.8965,62.3249,-0.186178,0.0,0.0
975,243.5,43.868,50.366,149.716,108.579,110.657,0.0057766,0.0906376,20.8963,62.2649,-0.171372,0.0,0.0
988,246.75,43.8617,49.7469,148.065,108.566,110.535,0.00553214,0.0896578,20.8989,62.2449,-0.162445,0.0,0.0
1001,250,42.7335,48.6562,143.233,108.554,110.45,0.00531837,0.0887442,20.8999,62.2449,-0.156532,0.0,0.0
1014,253.25,42.1361,47.5909,149.3,108.536,109.836,0.00515814,0.0881991,20.8975,62.2349,-0.107699,0.0,0.0
1027,256.5,42.122,47.2609,151.007,108.525,110.764,0.00496047,0.0874571,20.8976,62.1948,-0.184668,0.0,0.0
1040,259.75,42.0493,46.7192,145.797,108.517,110.223,0.00470618,0.086466,20.8986,62.2048,-0.140993,0.0,0.0
1053,263,41.5908,46.1953,146.612,108.499,109.994,0.00468514,0.0860856,20.8993,62.1448,-0.123701,0.0,0.0
1066,266.25,41.4911,45.712,147.276,108.504,109.823,0.00453043,0.0850472,20.901,62.0947,-0.109237,0.0,0.0
1079,269.5,40.9356,44.9065,146.938,108.504,111.17,0.0043916,0.0840521,20.9018,62.1047,-0.219402,0.0,0.0
1092,272.75,40.8263,44.9088,145.229,108.483,110.3,0.0043278,0.0837138,20.9034,62.0947,-0.150174,0.0,0.0
1105,276,40.1463,44.6669,147.251,108.491,109.993,0.00427926,0.0827651,20.9039,62.0647,-0.12432,0.0,0.0
1118,279.25,40.6449,43.2991,145.146,108.504,110.025,0.00417408,0.0816364,20.9055,62.0847,-0.125866,0.0,0.0
1131,282.5,39.9495,43.4592,142.522,108.501,110.334,0.00413732,0.0806269,20.9059,62.0547,-0.151474,0.0,0.0
1144,285.75,40.1031,43.1974,145.211,108.48,110.684,0.00391928,0.0797379,20.9074,62.0147,-0.181873,0.0,0.0
1157,289,39.405,43.0456,144.529,108.471,110.569,,0.0787178,,62.0147,-0.173191,0.0,0.0
1170,292.25,40.1214,42.6565,145.833,108.455,110.393,,,,62.0147,-0.160159,0.0,0.0
1183,295.5,39.1959,42.541,143.861,108.443,110.16,,,,61.9746,-0.142006,0.0,0.0
1195,298.5,39.4518,42.1015,148.235,108.421,109.757,,,,61.9646,-0.110684,0.0,0.0