File: 01_Data/Lightweight_Gypsum_Wallboard_Unpainted_Paper/STA/N2/10K_min/Lightweight_Gypsum_Wallboard_Paper_STA_N2_10KData_220203_R4.csv
##Temp./Â°C,Time/min,DSC(subtr.2)/(mW/mg),Mass loss(subtr.2)/mg,Sensit./(uV/mW)
49.678,10.00583,0.02556673,-0.00867,1.07517
52.678,11.2819,0.13426,-0.008918448,1.0736
55.678,11.71486,0.18616,-0.009657076,1.07204
58.678,12.0824,0.21979,-0.01008475,1.07048
61.678,12.42475,0.24678,-0.01185045,1.06892
64.678,12.75717,0.26355,-0.01316636,1.06736
67.678,13.08359,0.28106,-0.01448007,1.06581
70.678,13.4055,0.30057,-0.01579519,1.06425
73.678,13.7239,0.31981,-0.01956586,1.0627
76.678,14.03916,0.33411,-0.02172,1.06115
79.678,14.35014,0.34749,-0.02238125,1.0596
82.678,14.6611,0.36294,-0.02599809,1.05805
85.678,14.9673,0.38271,-0.02862994,1.0565
88.678,15.27,0.40066,-0.03126004,1.05496
91.678,15.5709,0.40882,-0.03421674,1.05341
94.678,15.86895,0.41192,-0.03752993,1.05187
97.678,16.16549,0.405,-0.04048,1.05033
100.678,16.46273,0.39677,-0.04263542,1.04878
103.678,16.75747,0.38712,-0.04475999,1.04725
106.678,17.05198,0.37734,-0.0483694,1.04571
109.678,17.34552,0.36757,-0.04969,1.04417
112.678,17.63963,0.36139,-0.05232,1.04264
115.678,17.93323,0.35713,-0.0539702,1.0411
118.678,18.22706,0.35608,-0.05429006,1.03957
121.678,18.51986,0.35057,-0.05469883,1.03804
124.678,18.81201,0.34436,-0.0566067,1.03651
127.678,19.1039,0.33646,-0.05791,1.03498
130.678,19.3962,0.32885,-0.05798264,1.03345
133.678,19.6871,0.32453,-0.05922995,1.03193
136.678,19.97731,0.32595,-0.05792006,1.0304
139.678,20.2667,0.32083,-0.06055091,1.02888
142.678,20.55579,0.32114,-0.05804412,1.02736
145.678,20.84446,0.32297,-0.05856977,1.02583
148.678,21.13317,0.32341,-0.06086987,1.02431
151.678,21.42191,0.32422,-0.05956928,1.02279
154.678,21.71143,0.32573,-0.06087998,1.02128
157.678,22.0004,0.32599,-0.06088,1.01976
160.678,22.28922,0.32953,-0.06088,1.01824
163.678,22.5773,0.33133,-0.06088,1.01672
166.678,22.86561,0.33414,-0.06088,1.01521
169.678,23.15319,0.337,-0.06153,1.01369
172.678,23.44105,0.34169,-0.06218822,1.01218
175.678,23.72873,0.34282,-0.06219129,1.01066
178.678,24.0155,0.34796,-0.06219912,1.00915
181.678,24.3025,0.34768,-0.06217721,1.00764
184.678,24.58925,0.35404,-0.06318001,1.00613
187.678,24.87612,0.35618,-0.06340036,1.00461
190.678,25.1619,0.35674,-0.06404989,1.0031
193.678,25.44899,0.36233,-0.06504001,1.00159
196.678,25.73612,0.36334,-0.06504777,1.00008
199.678,26.0234,0.36518,-0.06508524,0.99857
202.678,26.3102,0.36896,-0.06735,0.99706
205.678,26.597,0.36947,-0.06859038,0.99554
208.678,26.88443,0.37261,-0.06932,0.99403
211.678,27.17178,0.37406,-0.07130027,0.99252
214.678,27.458,0.37952,-0.07261994,0.99101
217.678,27.7435,0.38501,-0.07361,0.9895
220.678,28.0287,0.39078,-0.07623116,0.98798
223.678,28.313,0.39395,-0.07788,0.98647
226.678,28.5974,0.39432,-0.08051002,0.98496
229.678,28.88263,0.39712,-0.08079027,0.98344
232.678,29.1678,0.39807,-0.08611001,0.98193
235.678,29.4528,0.40485,-0.08973107,0.98041
238.678,29.7381,0.40654,-0.09368005,0.9789
241.678,30.02311,0.41035,-0.09894226,0.97738
244.678,30.30821,0.41047,-0.10331,0.97586
247.678,30.5936,0.40982,-0.1112,0.97434
250.678,30.8795,0.40596,-0.11802,0.97282
253.678,31.1658,0.40392,-0.12593,0.9713
256.678,31.45223,0.40332,-0.13513,0.96978
259.678,31.73965,0.40574,-0.14654,0.96826
262.678,32.0275,0.40565,-0.15847,0.96673
265.678,32.31521,0.40866,-0.17229,0.9652
268.678,32.60266,0.41506,-0.18949,0.96367
271.678,32.89063,0.42321,-0.20909,0.96214
274.678,33.17823,0.43705,-0.23055,0.96061
277.678,33.46512,0.44699,-0.25379,0.95908
280.678,33.75297,0.46211,-0.2806,0.95754
283.678,34.0407,0.47552,-0.31278,0.95601
286.678,34.3284,0.49313,-0.34628,0.95447
289.678,34.61728,0.51155,-0.38342,0.95292
292.678,34.90586,0.52833,-0.4257,0.95138
295.678,35.19419,0.54513,-0.47272,0.94983
298.678,35.48285,0.56243,-0.52317,0.94828
301.678,35.77212,0.58044,-0.57685,0.94673
304.678,36.06122,0.596,-0.63476,0.94518
307.678,36.35026,0.61206,-0.69909,0.94362
310.678,36.63975,0.62827,-0.762,0.94206
313.678,36.9286,0.64481,-0.83231,0.9405
316.678,37.21732,0.66122,-0.90316,0.93893
319.678,37.50594,0.67889,-0.9803,0.93736
322.678,37.79502,0.69729,-1.06107,0.93579
325.678,38.08385,0.71643,-1.14603,0.93421
328.678,38.37332,0.73891,-1.23628,0.93263
331.678,38.66301,0.7635,-1.33092,0.93105
334.678,38.95251,0.79569,-1.43019,0.92947
337.678,39.2418,0.82905,-1.53968,0.92788
340.678,39.53158,0.85783,-1.65539,0.92628
343.678,39.82134,0.88715,-1.77499,0.92469
346.678,40.11222,0.90599,-1.90096,0.92309
349.678,40.4028,0.89904,-2.02953,0.92148
352.678,40.69324,0.86314,-2.15461,0.91987
355.678,40.9843,0.79115,-2.27157,0.91826
358.678,41.27601,0.69157,-2.37453,0.91664
361.678,41.567,0.57906,-2.45952,0.91502
364.678,41.8579,0.46203,-2.52778,0.9134
367.678,42.14747,0.3527,-2.57812,0.91176
370.678,42.4379,0.26919,-2.60921,0.91013
373.678,42.72827,0.20962,-2.63398,0.90849
376.678,43.0191,0.1751,-2.64475,0.90685
379.678,43.31031,0.15888,-2.657,0.9052
382.678,43.60188,0.15039,-2.66589,0.90354
385.678,43.89343,0.14519,-2.67335,0.90188
388.678,44.185,0.13851,-2.68194,0.90022
391.678,44.47596,0.13863,-2.69033,0.89855
394.678,44.76744,0.13209,-2.69876,0.89687
397.678,45.05912,0.12826,-2.70552,0.89519
400.678,45.35106,0.12203,-2.71361,0.89351
403.678,45.64356,0.12019,-2.72286,0.89182
406.678,45.93672,0.11599,-2.73108,0.89012
409.678,46.23035,0.11318,-2.73817,0.88842
412.678,46.52366,0.11325,-2.74751,0.88671
415.678,46.81797,0.11175,-2.75411,0.885
418.678,47.11118,0.11331,-2.76102,0.88328
421.678,47.40547,0.11116,-2.76769,0.88155
424.678,47.69863,0.11375,-2.77705,0.87982
427.678,47.99238,0.11628,-2.78592,0.87808
430.678,48.2858,0.11499,-2.79097,0.87634
433.678,48.57911,0.1161,-2.79656,0.87459
436.678,48.87263,0.12229,-2.80204,0.87283
439.678,49.16753,0.12109,-2.80994,0.87107
442.678,49.46196,0.12438,-2.81674,0.8693
445.678,49.75568,0.12694,-2.82201,0.86752
448.678,50.0505,0.12712,-2.82769,0.86574
451.678,50.3461,0.12839,-2.83288,0.86395
454.678,50.64132,0.13165,-2.8391,0.86216
457.678,50.9368,0.13107,-2.84339,0.86035
460.678,51.23227,0.13095,-2.84636,0.85854
463.678,51.52835,0.13026,-2.85139,0.85673
466.678,51.82458,0.13219,-2.85622,0.8549
469.678,52.1214,0.13579,-2.85918,0.85307
472.678,52.41752,0.13126,-2.86489,0.85123
475.678,52.71354,0.13864,-2.86763,0.84939
478.678,53.00963,0.14188,-2.87224,0.84754
481.678,53.30565,0.13953,-2.87521,0.84568
484.678,53.6028,0.14196,-2.87981,0.84381
487.678,53.89949,0.14209,-2.88146,0.84194
490.678,54.1961,0.14038,-2.88375,0.84005
493.678,54.49196,0.14344,-2.88727,0.83816
496.678,54.7883,0.15072,-2.89187,0.83627
499.678,55.0844,0.16942,-2.8942,0.83436
502.678,55.3808,0.17703,-2.89947,0.83245
505.678,55.6762,0.18675,-2.90076,0.83053
508.678,55.9726,0.1864,-2.90339,0.8286
511.678,56.2705,0.18506,-2.90668,0.82667
514.678,56.56762,0.18697,-2.90881,0.82473
517.678,56.86555,0.18651,-2.91161,0.82277
520.678,57.1636,0.18021,-2.91321,0.82082
523.678,57.46114,0.16145,-2.91589,0.81885
526.678,57.75911,0.15292,-2.91973,0.81687
529.678,58.0586,0.15077,-2.92105,0.81489
532.678,58.357,0.14851,-2.9225,0.8129
535.678,58.65565,0.1464,-2.92566,0.8109
538.678,58.95431,0.14342,-2.92961,0.80889
541.678,59.253,0.13622,-2.93093,0.80688
544.678,59.5516,0.12632,-2.93323,0.80485
547.678,59.85004,0.12161,-2.93554,0.80282
550.678,60.14812,0.11721,-2.93811,0.80078
553.678,60.44654,0.10578,-2.94003,0.79874
556.678,60.74507,0.10128,-2.94193,0.79668
559.678,61.04486,0.10071,-2.94529,0.79461
562.678,61.34395,0.09851959,-2.94726,0.79254
565.678,61.6435,0.09232331,-2.9488,0.79046
568.678,61.94364,0.09296419,-2.95306,0.78837
571.678,62.24416,0.09047985,-2.95417,0.78627
574.678,62.5452,0.08842049,-2.95582,0.78417
577.678,62.8453,0.09023634,-2.95807,0.78205
580.678,63.1443,0.08977643,-2.96076,0.77993
583.678,63.4432,0.09320667,-2.96175,0.7778
586.678,63.7426,0.09313291,-2.96438,0.77566
589.678,64.04174,0.09771168,-2.96604,0.77351
592.678,64.3411,0.0996766,-2.96866,0.77135
595.678,64.64081,0.10314,-2.97096,0.76919
598.678,64.9413,0.10577,-2.97096,0.76702
601.678,65.2417,0.1118,-2.97371,0.76483
604.678,65.5432,0.11842,-2.97766,0.76264
607.678,65.8442,0.1222,-2.97996,0.76045
610.678,66.14466,0.12206,-2.98079,0.75824
613.678,66.44558,0.12423,-2.98423,0.75602
616.678,66.74655,0.13437,-2.98785,0.7538
619.678,67.04762,0.14055,-2.99048,0.75157
622.678,67.34841,0.14655,-2.99246,0.74933
625.678,67.65018,0.15129,-2.99603,0.74708
628.678,67.9516,0.15921,-2.99666,0.74482
631.678,68.2531,0.16445,-3.00036,0.74256
634.678,68.55551,0.17218,-3.00337,0.74028
637.678,68.85724,0.18093,-3.00595,0.738
640.678,69.15868,0.18755,-3.00825,0.73571
643.678,69.4602,0.2034,-3.01352,0.73342
646.678,69.76186,0.2122,-3.01746,0.73111
649.678,70.06469,0.22169,-3.0201,0.7288
652.678,70.36788,0.23305,-3.02529,0.72647
655.678,70.67093,0.24295,-3.02734,0.72414
658.678,70.9738,0.24924,-3.0326,0.7218
661.678,71.27673,0.25405,-3.03788,0.71946
664.678,71.5795,0.25951,-3.04303,0.7171
667.678,71.88244,0.25772,-3.04874,0.71474
670.678,72.1841,0.26145,-3.05267,0.71237
673.678,72.4863,0.2629,-3.05663,0.70999
676.678,72.7884,0.25897,-3.06076,0.70761
679.678,73.09115,0.25658,-3.06738,0.70521
682.678,73.39341,0.24585,-3.07001,0.70281
685.678,73.6965,0.22225,-3.07489,0.7004
688.678,74.00055,0.19654,-3.07933,0.69799
691.678,74.3045,0.17922,-3.08086,0.69556
694.678,74.60849,0.17628,-3.08276,0.69313
697.678,74.91153,0.17638,-3.08941,0.69069
700.678,75.21415,0.17508,-3.09019,0.68825
703.678,75.51651,0.17179,-3.0925,0.68579
706.678,75.81917,0.16857,-3.09513,0.68333
709.678,76.12204,0.16705,-3.09907,0.68086
712.678,76.42545,0.1669,-3.10171,0.67839
715.678,76.72844,0.15859,-3.10434,0.6759
718.678,77.03161,0.15974,-3.10432,0.67341
721.678,77.33547,0.15361,-3.10693,0.67092
724.678,77.63972,0.15137,-3.1096,0.66841
727.678,77.94292,0.14965,-3.10948,0.6659
730.678,78.24571,0.14882,-3.11388,0.66339
733.678,78.54948,0.14287,-3.11579,0.66086
736.678,78.85295,0.1431,-3.11727,0.65833
739.678,79.15834,0.13133,-3.11991,0.65579
742.678,79.46367,0.13357,-3.11859,0.65325
745.678,79.76948,0.12658,-3.12255,0.6507
747.878,79.99223,0.12483,-3.12386,0.64883