File: 01_Data/Lightweight_Gypsum_Wallboard_Unpainted_Paper/STA/N2/10K_min/Lightweight_Gypsum_Wallboard_Unpainted_Paper_STA_N2_10KData_220103_R2.csv
##Temp./Â°C,Time/min,DSC(subtr.2)/(mW/mg),Mass loss(subtr.2)/mg,Sensit./(uV/mW)
49.666,10.01,0.0265438,-0.01448,1.07517
52.766,11.29543,0.13031,-0.01544819,1.07356
55.866,11.73907,0.18277,-0.01655696,1.07194
58.966,12.11663,0.21538,-0.01799536,1.07033
62.066,12.47007,0.23605,-0.01831888,1.06872
65.166,12.81103,0.25397,-0.02039409,1.06711
68.266,13.14683,0.27302,-0.02066326,1.0655
71.366,13.4772,0.28856,-0.0217399,1.0639
74.466,13.80427,0.30667,-0.02067745,1.06229
77.566,14.12914,0.31773,-0.02633057,1.06069
80.666,14.45086,0.33024,-0.0286314,1.05909
83.766,14.7702,0.34596,-0.03158986,1.05749
86.866,15.0854,0.36476,-0.03421588,1.05589
89.966,15.3975,0.38516,-0.03819528,1.05429
93.066,15.70817,0.39253,-0.04176416,1.0527
96.166,16.01517,0.39362,-0.04343096,1.0511
99.266,16.32181,0.38402,-0.04739,1.04951
102.366,16.62816,0.3756,-0.05035006,1.04792
105.466,16.93284,0.36347,-0.05264326,1.04633
108.566,17.23759,0.35346,-0.05626879,1.04474
111.666,17.5411,0.34562,-0.05758,1.04315
114.766,17.84465,0.33797,-0.05840881,1.04157
117.866,18.14796,0.33309,-0.06017826,1.03999
120.966,18.45009,0.33292,-0.06285,1.0384
124.066,18.75159,0.32593,-0.06350999,1.03682
127.166,19.05209,0.31667,-0.06416,1.03524
130.266,19.3534,0.30506,-0.06547986,1.03366
133.366,19.65423,0.29755,-0.06679,1.03209
136.466,19.95407,0.29073,-0.06689499,1.03051
139.566,20.254,0.28792,-0.06842079,1.02894
142.666,20.55239,0.28854,-0.06811304,1.02736
145.766,20.85164,0.28407,-0.06666278,1.02579
148.866,21.15138,0.28523,-0.06843897,1.02422
151.966,21.45022,0.28372,-0.06910673,1.02265
155.066,21.74821,0.28766,-0.06957851,1.02108
158.166,22.04542,0.29101,-0.07053984,1.01951
161.266,22.34367,0.29084,-0.06930702,1.01794
164.366,22.64104,0.29257,-0.07141,1.01638
167.466,22.93881,0.29471,-0.07042057,1.01481
170.566,23.2363,0.29583,-0.07042384,1.01324
173.666,23.53361,0.29983,-0.07305706,1.01168
176.766,23.83086,0.30077,-0.07041995,1.01012
179.866,24.12807,0.30229,-0.07305,1.00855
182.966,24.425,0.30617,-0.07305064,1.00699
186.066,24.7214,0.31008,-0.07338,1.00543
189.166,25.01746,0.3101,-0.07467547,1.00386
192.266,25.3142,0.31058,-0.07633991,1.0023
195.366,25.61028,0.31331,-0.07568,1.00074
198.466,25.90581,0.315,-0.07799,0.99918
201.566,26.2018,0.31698,-0.07799012,0.99762
204.666,26.4972,0.31959,-0.07962983,0.99605
207.766,26.7927,0.32044,-0.08127,0.99449
210.866,27.08799,0.32488,-0.08159128,0.99293
213.966,27.38407,0.32291,-0.08524098,0.99137
217.066,27.68035,0.3248,-0.08522,0.98981
220.166,27.9765,0.32736,-0.08818902,0.98824
223.266,28.2729,0.32924,-0.09152628,0.98668
226.366,28.56912,0.32902,-0.09443592,0.98512
229.466,28.8656,0.33131,-0.09529255,0.98355
232.566,29.1618,0.33457,-0.10134,0.98199
235.666,29.4562,0.33638,-0.1036,0.98042
238.766,29.75287,0.33682,-0.10892,0.97885
241.866,30.04897,0.33846,-0.11313,0.97729
244.966,30.34485,0.34288,-0.1211,0.97572
248.066,30.64108,0.34062,-0.12613,0.97415
251.166,30.93709,0.34071,-0.1331,0.97258
254.266,31.23272,0.342,-0.14303,0.971
257.366,31.52869,0.34439,-0.15152,0.96943
260.466,31.82518,0.34349,-0.16474,0.96786
263.566,32.12095,0.34589,-0.17706,0.96628
266.666,32.41686,0.35285,-0.1925,0.9647
269.766,32.71367,0.35274,-0.21043,0.96312
272.866,33.0102,0.35952,-0.23089,0.96154
275.966,33.30708,0.37084,-0.25627,0.95995
279.066,33.60412,0.38042,-0.28293,0.95837
282.166,33.90183,0.39414,-0.31168,0.95678
285.266,34.19989,0.41271,-0.34473,0.95519
288.366,34.4977,0.42735,-0.38186,0.9536
291.466,34.79549,0.44614,-0.42437,0.952
294.566,35.0937,0.46694,-0.47189,0.95041
297.666,35.3922,0.4854,-0.52194,0.94881
300.766,35.6905,0.50173,-0.57498,0.9472
303.866,35.9885,0.51952,-0.63547,0.9456
306.966,36.2876,0.53807,-0.69876,0.94399
310.066,36.58623,0.55581,-0.76615,0.94238
313.166,36.88482,0.57133,-0.83916,0.94076
316.266,37.1826,0.5893,-0.91228,0.93915
319.366,37.48107,0.60685,-0.99424,0.93752
322.466,37.7789,0.62036,-1.07511,0.9359
325.566,38.07826,0.63972,-1.16474,0.93427
328.666,38.378,0.65676,-1.25774,0.93264
331.766,38.67824,0.68556,-1.35645,0.93101
334.866,38.97769,0.7145,-1.4624,0.92937
337.966,39.2776,0.74775,-1.57517,0.92772
341.066,39.57692,0.77683,-1.69492,0.92608
344.166,39.87697,0.80105,-1.82089,0.92443
347.266,40.17726,0.80814,-1.95315,0.92277
350.366,40.47736,0.79179,-2.08388,0.92111
353.466,40.77858,0.7403,-2.21105,0.91945
356.566,41.07897,0.65588,-2.3262,0.91778
359.666,41.37856,0.54462,-2.42526,0.91611
362.766,41.67945,0.42698,-2.50782,0.91443
365.866,41.9794,0.31277,-2.56933,0.91275
368.966,42.27837,0.21011,-2.61071,0.91106
372.066,42.57711,0.13533,-2.63927,0.90937
375.166,42.8769,0.08955304,-2.65746,0.90768
378.266,43.1776,0.06519483,-2.67026,0.90597
381.366,43.47777,0.05261287,-2.68012,0.90427
384.466,43.7789,0.0465435,-2.68968,0.90255
387.566,44.07991,0.03567823,-2.69784,0.90084
390.666,44.38122,0.02792672,-2.70892,0.89911
393.766,44.68306,0.02141996,-2.71301,0.89738
396.866,44.9856,0.01802454,-2.72563,0.89565
399.966,45.28901,0.01365012,-2.73155,0.89391
403.066,45.59176,0.008896881,-2.74027,0.89216
406.166,45.89423,0.009412448,-2.74724,0.89041
409.266,46.19685,0.00968584,-2.75912,0.88865
412.366,46.49904,0.006149314,-2.76595,0.88689
415.466,46.80182,0.006182467,-2.77142,0.88512
418.566,47.104,0.007647151,-2.78079,0.88334
421.666,47.4069,0.006763526,-2.78756,0.88156
424.766,47.71,0.004096586,-2.79448,0.87977
427.866,48.01315,0.00543834,-2.80209,0.87797
430.966,48.31758,0.00925926,-2.80863,0.87617
434.066,48.62238,0.009597711,-2.81685,0.87436
437.166,48.9269,0.01670808,-2.82142,0.87255
440.266,49.23162,0.02390261,-2.8295,0.87072
443.366,49.5357,0.02434192,-2.83349,0.86889
446.466,49.84114,0.0284155,-2.84087,0.86706
449.566,50.1461,0.02510632,-2.84624,0.86521
452.666,50.4514,0.02928911,-2.85183,0.86336
455.766,50.75541,0.02718431,-2.85677,0.8615
458.866,51.06013,0.03119927,-2.8617,0.85964
461.966,51.3645,0.03163334,-2.86654,0.85776
465.066,51.66858,0.03709603,-2.87112,0.85588
468.166,51.97298,0.03777924,-2.87395,0.854
471.266,52.27752,0.04175058,-2.8787,0.8521
474.366,52.5823,0.04360769,-2.88398,0.8502
477.466,52.8872,0.04308604,-2.8859,0.84829
480.566,53.19311,0.04525915,-2.89072,0.84637
483.666,53.49899,0.04497647,-2.89593,0.84444
486.766,53.80515,0.0447729,-2.89844,0.84251
489.866,54.11144,0.05114158,-2.90099,0.84056
492.966,54.4172,0.06936291,-2.90493,0.83861
496.066,54.7235,0.07349137,-2.90887,0.83666
499.166,55.02921,0.08137495,-2.91183,0.83469
502.266,55.33605,0.08639854,-2.9162,0.83271
505.366,55.6424,0.08907489,-2.91842,0.83073
508.466,55.9491,0.09132353,-2.92105,0.82874
511.566,56.25561,0.08689613,-2.92214,0.82674
514.666,56.56281,0.06589672,-2.9272,0.82473
517.766,56.8693,0.05714068,-2.93026,0.82272
520.866,57.17742,0.0536867,-2.93157,0.82069
523.966,57.48542,0.05420476,-2.93422,0.81866
527.066,57.79391,0.05032981,-2.93608,0.81662
530.166,58.10125,0.04704631,-2.94047,0.81457
533.266,58.409,0.04102575,-2.94079,0.81251
536.366,58.7168,0.02928077,-2.94474,0.81044
539.466,59.0251,0.02064132,-2.94703,0.80836
542.566,59.33444,0.01456073,-2.94836,0.80628
545.666,59.6431,0.008378726,-2.95099,0.80419
548.766,59.95168,0.001684626,-2.95362,0.80208
551.866,60.26185,-0.001508094,-2.95531,0.79997
554.966,60.5714,-0.01054786,-2.95791,0.79785
558.066,60.8809,-0.01266733,-2.96054,0.79572
561.166,61.19031,-0.01750427,-2.96123,0.79359
564.266,61.5004,-0.01474949,-2.96449,0.79144
567.366,61.80933,-0.02028251,-2.96613,0.78929
570.466,62.1187,-0.02233124,-2.96742,0.78712
573.566,62.4283,-0.01646464,-2.96811,0.78495
576.666,62.73797,-0.01968042,-2.97238,0.78277
579.766,63.0482,-0.01615709,-2.97271,0.78058
582.866,63.35775,-0.01460598,-2.97583,0.77838
585.966,63.66732,-0.01271265,-2.97666,0.77617
589.066,63.9775,-0.00992073,-2.97929,0.77395
592.166,64.28761,-0.009546504,-2.98056,0.77172
595.266,64.59951,-0.002980375,-2.98325,0.76949
598.366,64.91066,0.003190089,-2.98592,0.76724
601.466,65.22284,0.00898265,-2.98717,0.76499
604.566,65.53437,0.01885368,-2.98982,0.76273
607.666,65.8446,0.02740829,-2.99377,0.76045
610.766,66.1554,0.03551543,-2.99508,0.75817
613.866,66.46554,0.03598805,-2.99762,0.75588
616.966,66.77563,0.04343509,-2.9984,0.75359
620.066,67.0866,0.05008384,-2.99916,0.75128
623.166,67.39805,0.05318407,-3.0032,0.74896
626.266,67.7098,0.06119162,-3.0065,0.74664
629.366,68.02078,0.06559327,-3.00814,0.7443
632.466,68.33276,0.07311194,-3.01567,0.74196
635.566,68.64445,0.08258858,-3.01713,0.73961
638.666,68.95594,0.09336067,-3.01878,0.73725
641.766,69.2678,0.10438,-3.02258,0.73488
644.866,69.57897,0.11935,-3.02635,0.7325
647.966,69.89035,0.13555,-3.02898,0.73012
651.066,70.20184,0.14901,-3.03227,0.72772
654.166,70.51374,0.16346,-3.03813,0.72532
657.266,70.82571,0.17921,-3.04298,0.72291
660.366,71.13845,0.19016,-3.04694,0.72049
663.466,71.45101,0.20131,-3.0541,0.71806
666.566,71.76276,0.20377,-3.05894,0.71562
669.666,72.07496,0.20797,-3.06597,0.71317
672.766,72.387,0.20878,-3.06987,0.71072
675.866,72.69834,0.20919,-3.07482,0.70825
678.966,73.01023,0.20673,-3.07876,0.70578
682.066,73.3242,0.2007,-3.08403,0.7033
685.166,73.637,0.1891,-3.0893,0.70082
688.266,73.9495,0.17081,-3.09293,0.69832
691.366,74.2628,0.13839,-3.09558,0.69582
694.466,74.57548,0.12338,-3.10017,0.6933
697.566,74.88832,0.11529,-3.10521,0.69078
700.666,75.20087,0.10989,-3.10543,0.68826
703.766,75.51278,0.10864,-3.10806,0.68572
706.866,75.82593,0.10828,-3.11231,0.68318
709.966,76.13877,0.10877,-3.11463,0.68062
713.066,76.4527,0.10833,-3.11619,0.67807
716.166,76.76733,0.11179,-3.11788,0.6755
719.266,77.0816,0.11585,-3.11991,0.67293
722.366,77.39591,0.11289,-3.12385,0.67034
725.466,77.71036,0.11687,-3.12648,0.66775
728.566,78.0243,0.11957,-3.13044,0.66516
731.666,78.33671,0.11838,-3.12912,0.66256
734.766,78.64851,0.12034,-3.13175,0.65994
737.866,78.96221,0.12147,-3.13273,0.65733
740.966,79.2765,0.11487,-3.13536,0.6547
744.066,79.59104,0.11608,-3.13439,0.65207
747.166,79.90587,0.11542,-3.13801,0.64943
748.066,79.99688,0.11652,-3.13801,0.64867