File: 01_Data/PlasticC/STA/N2/30K_min/PlasticC_STA_N2_30KData_211028_R2.csv
Temp/C,Time/min,DSC/mW,Mass loss/mg,Sensit./(uV/mW)
50,10.9602,-0.0314842,0.04793034,1.05402
52.5,11.6114,0.24457,0.0501191,1.05406
55,11.9304,0.451483,0.05136,1.05406
57.5,12.174,0.607066,0.0534493,1.05403
60,12.3805,0.741745,0.0540997,1.05398
62.5,12.566,0.855853,0.0557488,1.05389
65,12.7379,0.943419,0.0557909,1.05377
67.5,12.8998,1.04196,0.0547026,1.05362
70,13.0541,1.11507,0.0563302,1.05345
72.5,13.2024,1.18977,0.0557462,1.05324
75,13.3457,1.25485,0.0565395,1.053
77.5,13.4839,1.31481,0.057303,1.05274
80,13.6184,1.37148,0.0553412,1.05244
82.5,13.7485,1.45398,0.05748199,1.05212
85,13.8746,1.45395,0.0573121,1.05177
87.5,13.9972,1.42873,0.0586645,1.05139
90,14.1158,1.43515,0.0585798,1.05098
92.5,14.2316,1.4924,0.0597719,1.05054
95,14.3442,1.56784,0.0591961,1.05007
97.5,14.4541,1.65544,0.0599822,1.04958
100,14.5614,1.78396,0.0593959,1.04905
102.5,14.6665,1.91092,0.060979,1.0485
105,14.7703,2.03351,0.0595493,1.04793
107.5,14.8718,2.11895,0.0596887,1.04732
110,14.9714,2.18004,0.0583691,1.04669
112.5,15.0696,2.23635,0.059422,1.04603
115,15.1664,2.27507,0.0592325,1.04535
117.5,15.2614,2.33058,0.0592225,1.04463
120,15.3555,2.37582,0.0606758,1.0439
122.5,15.4483,2.42844,0.0607109,1.04313
125,15.5396,2.47285,0.0599886,1.04234
127.5,15.6299,2.50876,0.0620847,1.04152
130,15.7188,2.554,0.06135765,1.04068
132.5,15.807,2.59935,0.060934,1.03982
135,15.8941,2.63516,0.0618528,1.03892
137.5,15.9802,2.67536,0.0623247,1.03801
140,16.0655,2.70719,0.0619468,1.03706
142.5,16.1496,2.73703,0.06198,1.0361
145,16.2333,2.76858,0.0617404,1.03511
147.5,16.316,2.81308,0.0601873,1.03409
150,16.3982,2.84621,0.0640389,1.03305
152.5,16.4797,2.88145,0.0621096,1.03199
155,16.5607,2.91713,0.06210953,1.03091
157.5,16.6409,2.94077,0.0634,1.0298
160,16.721,2.98234,0.0633998,1.02867
162.5,16.8003,3.01013,0.0633408,1.02751
165,16.8791,3.05098,0.06204653,1.02633
167.5,16.9574,3.07536,0.0634,1.02513
170,17.0354,3.11596,0.0633999,1.02391
172.5,17.1127,3.14462,0.0634,1.022672
175,17.1896,3.18242,0.0647095,1.0214
177.5,17.266,3.20504,0.06341,1.02012
180,17.3419,3.24158,0.0643052,1.01881
182.5,17.4177,3.26396,0.0632057,1.01748
185,17.4925,3.29994,0.0640752,1.01613
187.5,17.5671,3.33018,0.0631723,1.01476
190,17.6414,3.36857,0.0621818,1.01337
192.5,17.7151,3.39824,0.0621891,1.01196
195,17.7887,3.43049,0.06219,1.01053
197.5,17.8619,3.46561,0.0633209,1.00908
200,17.9347,3.49303,0.0648387,1.00761
202.5,18.0073,3.53304,0.0635175,1.00612
205,18.0797,3.56981,0.06352002,1.00461
207.5,18.1516,3.5911,0.06352,1.00308
210,18.2235,3.62313,0.06352,1.00154
212.5,18.2952,3.68055,0.06352,0.999973
215,18.3665,3.70039,0.06352,0.998393
217.5,18.438,3.73059,0.063362,0.996793
220,18.5089,3.76288,0.06318,0.995183
222.5,18.5794,3.79678,0.06351,0.993543
225,18.6504,3.82468,0.0622,0.991893
227.5,18.721,3.8666,0.0622,0.990233
230,18.791,3.89551,0.06317,0.988543
232.5,18.8611,3.92924,0.06219,0.986843
235,18.9311,3.95799,0.06180792,0.985133
237.5,19.0008,3.98956,0.0593498,0.983393
240,19.0704,4.01463,0.0653814,0.9816528
242.5,19.14,4.03605,0.0626628,0.979883
245,19.2092,4.06439,0.06165,0.978113
247.5,19.2783,4.09774,0.0616815,0.976313
250,19.3476,4.12656,0.06034,0.974513
252.5,19.4166,4.15454,0.0616507,0.972683
255,19.4855,4.16869,0.0596703,0.970853
257.5,19.5544,4.19551,0.05902,0.969003
260,19.623,4.2239,0.0584015,0.967143
262.5,19.6916,4.24331,0.0577,0.965263
265,19.7604,4.27497,0.0577,0.963373
267.5,19.8288,4.29529,0.05639,0.961473
270,19.8971,4.31808,0.0595067,0.959553
272.5,19.9655,4.33053,0.0520092,0.957633
275,20.0337,4.35056,0.05211,0.955693
277.5,20.102,4.35808,0.0534296,0.953733
280,20.1702,4.37458,0.0514219,0.951773
282.5,20.2383,4.40057,0.05079,0.949803
285,20.3066,4.40782,0.0518246,0.9478132
287.5,20.3747,4.42043,0.0508,0.9458132
290,20.4429,4.41593,0.0481785,0.943813
292.5,20.511,4.43059,0.04684,0.941793
295,20.579,4.43667,0.0468198,0.939763
297.5,20.647,4.44435,0.0455288,0.937723
300,20.715,4.45291,0.0442197,0.935683
302.5,20.783,4.4522,0.0426712,0.933623
305,20.8511,4.46646,0.04159,0.931553
307.5,20.9191,4.46398,0.0389506,0.929483
310,20.9871,4.47557,0.0389361,0.927393
312.5,21.0552,4.48077,0.0361,0.925303
315,21.1233,4.4832,0.0360905,0.923203
317.5,21.1912,4.47992,0.0346067,0.921093
320,21.2592,4.49635,0.0321626,0.918973
322.5,21.3271,4.49869,0.02927549,0.916853
325,21.3952,4.50823,0.0278236,0.914723
327.5,21.4632,4.51542,0.0263012,0.912583
330,21.5313,4.50305,0.02390967,0.910433
332.5,21.5993,4.48551,0.0211019,0.908284
335,21.6674,4.48154,0.0195225,0.906123
337.5,21.7352,4.46623,0.0170297,0.903963
340,21.8036,4.42823,0.0155001,0.901793
342.5,21.872,4.41325,0.0141705,0.899614
345,21.9403,4.38374,0.009083638,0.897434
347.5,22.0085,4.34662,0.008256761,0.895244
350,22.0771,4.29478,0.005389968,0.893054
352.5,22.1456,4.25594,0.002772981,0.890854
355,22.2141,4.20269,0.00235034,0.888654
357.5,22.28275,4.1496,-0.001075471,0.886443
360,22.3514,4.09665,-0.005511972,0.884233
362.5,22.42,4.0306,-0.0054812,0.882024
365,22.4888,3.96278,-0.008191301,0.879804
367.5,22.5578,3.89037,-0.011677,0.877584
370,22.6267,3.81023,-0.0126663,0.875363
372.5,22.6957,3.74082,-0.0165685,0.873134
375,22.7648,3.66141,-0.0200292,0.870904
377.5,22.8341,3.57947,-0.023268,0.868663
380,22.9031,3.51832,-0.026223,0.8664336
382.5,22.9726,3.44738,-0.0320454,0.8641936
385,23.042,3.40418,-0.0355298,0.8619536
387.5,23.1116,3.36657,-0.0373115,0.8597136
390,23.1813,3.35671,-0.0423808,0.8574736
392.5,23.2509,3.3723,-0.0495094,0.8552236
395,23.3206,3.42423,-0.0548083,0.8529836
397.5,23.3904,3.51258,-0.0613552,0.8507336
400,23.4604,3.61693,-0.067836,0.8484836
402.5,23.5306,3.78481,-0.0774033,0.8462436
405,23.6007,4.00164,-0.0854993,0.8439936
407.5,23.6711,4.30411,-0.0916761,0.8417436
410,23.7416,4.67847,-0.10169,0.8394936
412.5,23.8122,5.08732,-0.113142,0.8372436
415,23.8829,5.63564,-0.125702,0.834994
417.5,23.9538,6.2551,-0.145421,0.8327536
420,24.0244,7.03856,-0.162162,0.8305036
422.5,24.0959,8.03687,-0.182814,0.828264
425,24.167,9.19451,-0.209279,0.8260136
427.5,24.2386,10.6424,-0.238466,0.8237736
430,24.3103,12.3187,-0.274837,0.8215336
432.5,24.3819,14.555,-0.318383,0.8192936
435,24.4538,17.2017,-0.378783,0.8170536
437.5,24.5259,20.3192,-0.451367,0.814814
440,24.5984,23.5448,-0.549383,0.8125836
442.5,24.6712,27.2782,-0.654331,0.8103536
445,24.7442,31.2519,-0.783569,0.808124
447.5,24.8174,35.1768,-0.932937,0.805903
450,24.891,39.1215,-1.10799,0.803674
452.5,24.9646,42.5651,-1.32676,0.801454
455,25.0386,45.2107,-1.54959,0.799244
457.5,25.1124,46.6803,-1.78155,0.797023
460,25.1861,46.8451,-2.02078,0.794813
462.5,25.2599,45.4367,-2.2593,0.792614
465,25.3334,42.6193,-2.48254,0.790414
467.5,25.4065,38.7415,-2.68664,0.788214
470,25.4793,34.0756,-2.87071,0.786023
472.5,25.5521,29.1355,-3.02301,0.783833
475,25.6244,24.4039,-3.15514,0.781643
477.5,25.6968,20.0624,-3.26689,0.779463
480,25.7691,16.3151,-3.35699,0.777293
482.5,25.8415,13.1718,-3.434426,0.775123
485,25.9139,10.6116,-3.50328,0.772953
487.5,25.9867,8.51161,-3.54087,0.770793
490,26.0598,6.84439,-3.58937,0.768643
492.5,26.1328,5.45877,-3.62401,0.766493
495,26.2062,4.2878,-3.6562,0.764353
497.5,26.2799,3.27061,-3.68145,0.762213
500,26.3536,2.34376,-3.7002,0.760083
502.5,26.4276,1.55126,-3.71552,0.757953
505,26.5017,0.850913,-3.72796,0.755833
507.5,26.5759,0.284323,-3.73472,0.753723
510,26.6503,-0.154416,-3.73996,0.751613
512.5,26.7247,-0.469958,-3.74272,0.749513
515,26.7992,-0.682162,-3.74554,0.747423
517.5,26.8738,-0.816683,-3.747,0.745333
520,26.9486,-0.905839,-3.74558,0.743253
522.5,27.0235,-0.979993,-3.75592,0.741183
525,27.0985,-1.02612,-3.74165,0.739113
527.5,27.1737,-1.05204,-3.74775,0.737053
530,27.2488,-1.09012,-3.74545,0.735003
532.5,27.3241,-1.11851,-3.74642,0.732963
535,27.3999,-1.18734,-3.74073,0.730923
537.5,27.4753,-1.26091,-3.75285,0.728893
540,27.5511,-1.29988,-3.74917,0.7268732
542.5,27.6267,-1.33754,-3.7485,0.724863
545,27.7024,-1.36231,-3.74836,0.7228532
547.5,27.7787,-1.39682,-3.74709,0.7208532
550,27.8548,-1.43074,-3.74709,0.718863
552.5,27.9312,-1.45346,-3.74619,0.716883
555,28.0075,-1.47616,-3.7471,0.714913
557.5,28.0841,-1.49163,-3.74588,0.712953
560,28.1605,-1.52223,-3.74579,0.710993
562.5,28.237,-1.52511,-3.74611,0.709043
565,28.3137,-1.54144,-3.74744,0.707103
567.5,28.3906,-1.58528,-3.74611,0.705173
570,28.4675,-1.61839,-3.74479,0.703253
572.5,28.5443,-1.64439,-3.74742,0.701343
575,28.6215,-1.6429,-3.74741,0.699433
577.5,28.6987,-1.65812,-3.7471,0.697543
580,28.7759,-1.68752,-3.7461,0.695653
582.5,28.8533,-1.69206,-3.7461,0.693773
585,28.9306,-1.70648,-3.74468,0.691913
587.5,29.0082,-1.71787,-3.74402,0.690053
590,29.0857,-1.72936,-3.74512,0.688203
592.5,29.1634,-1.73436,-3.74643,0.686363
595,29.2412,-1.73492,-3.74564,0.684533
597.5,29.319,-1.7515,-3.74512,0.682713
600,29.3968,-1.75759,-3.7464,0.680893
602.5,29.475,-1.75375,-3.74369,0.679093
605,29.553,-1.75896,-3.74501,0.677303
607.5,29.6313,-1.75448,-3.74499,0.675513
610,29.7097,-1.74699,-3.74364,0.6737428
612.5,29.7881,-1.73795,-3.74633,0.671983
615,29.8663,-1.75985,-3.74501,0.6702228
617.5,29.9448,-1.7677,-3.74774,0.6684828
620,,,,
622.5,,,,
625,,,,
627.5,,,,
630,,,,
632.5,,,,
635,,,,
637.5,,,,
640,,,,
642.5,,,,
645,,,,
647.5,,,,
650,,,,
652.5,,,,
655,,,,
657.5,,,,
660,,,,
662.5,,,,
665,,,,
667.5,,,,
670,,,,
672.5,,,,
675,,,,
677.5,,,,
680,,,,
682.5,,,,
685,,,,
687.5,,,,
690,,,,
692.5,,,,
695,,,,
697.5,,,,
700,,,,
702.5,,,,
705,,,,
707.5,,,,
710,,,,
712.5,,,,
715,,,,
717.5,,,,
720,,,,
722.5,,,,
725,,,,
727.5,,,,
730,,,,
732.5,,,,
735,,,,
737.5,,,,
740,,,,
742.5,,,,
745,,,,
747.5,,,,
750,,,,