File: 01_Data/Polyurethane_Foam/FTIR/ATR/Polyurethane_Foam_ATR_210608_R3.tst
4497.79,-0.00556
4484.29,-0.00517
4470.79,-0.00517
4457.29,-0.00486
4443.79,-0.00461
4430.28,-0.00470
4416.78,-0.00434
4403.28,-0.00425
4389.78,-0.00388
4376.28,-0.00396
4362.78,-0.00367
4349.28,-0.00346
4335.78,-0.00322
4322.28,-0.00311
4308.77,-0.00350
4295.27,-0.00357
4281.77,-0.00361
4268.27,-0.00355
4254.77,-0.00357
4241.27,-0.00351
4227.77,-0.00352
4214.27,-0.00363
4200.77,-0.00352
4187.26,-0.00345
4173.76,-0.00327
4160.26,-0.00322
4146.76,-0.00334
4133.26,-0.00313
4119.76,-0.00307
4106.26,-0.00259
4092.76,-0.00294
4079.26,-0.00239
4065.75,-0.00263
4052.25,-0.00245
4038.75,-0.00224
4025.25,-0.00196
4011.75,-0.00176
3998.25,-0.00190
3984.75,-0.00182
3971.25,-0.00120
3957.75,-0.00097
3944.25,-0.00013
3930.74,0.00084
3917.24,0.00039
3903.74,0.00420
3890.24,0.00077
3876.74,-0.00036
3863.24,0.00377
3849.74,0.00142
3836.24,0.00296
3822.74,0.00269
3809.23,-0.00038
3795.73,-0.00017
3782.23,-0.00033
3768.73,0.00124
3755.23,0.00295
3741.73,0.00379
3728.23,0.00207
3714.73,0.00094
3701.23,-0.00018
3687.72,0.00221
3674.22,0.00434
3660.72,0.00028
3647.22,0.00611
3633.72,0.00311
3620.22,0.00631
3606.72,0.00487
3593.22,0.00528
3579.72,0.00504
3566.21,0.01034
3552.71,0.00640
3539.21,0.00540
3525.71,0.00928
3512.21,0.00677
3498.71,0.00697
3485.21,0.00669
3471.71,0.00593
3458.21,0.00673
3444.7,0.00741
3431.2,0.00663
3417.7,0.00753
3404.2,0.00884
3390.7,0.01166
3377.2,0.01469
3363.7,0.01819
3350.2,0.02041
3336.7,0.02403
3323.2,0.02699
3309.69,0.03068
3296.19,0.03242
3282.69,0.03264
3269.19,0.03052
3255.69,0.02707
3242.19,0.02231
3228.69,0.01844
3215.19,0.01587
3201.69,0.01438
3188.18,0.01269
3174.68,0.01115
3161.18,0.00992
3147.68,0.00947
3134.18,0.00938
3120.68,0.00923
3107.18,0.00867
3093.68,0.00881
3080.18,0.00966
3066.67,0.00970
3053.17,0.00937
3039.67,0.00940
3026.17,0.00990
3012.67,0.01089
2999.17,0.01862
2985.67,0.04445
2972.17,0.07457
2958.67,0.04456
2945.16,0.04468
2931.66,0.06887
2918.16,0.06595
2904.66,0.07190
2891.16,0.07616
2877.66,0.08311
2864.16,0.08744
2850.66,0.06220
2837.16,0.03232
2823.66,0.01989
2810.15,0.01667
2796.65,0.01563
2783.15,0.01411
2769.65,0.01252
2756.15,0.01111
2742.65,0.01004
2729.15,0.00909
2715.65,0.00785
2702.15,0.00700
2688.64,0.00638
2675.14,0.00614
2661.64,0.00576
2648.14,0.00514
2634.64,0.00446
2621.14,0.00383
2607.64,0.00349
2594.14,0.00367
2580.64,0.00338
2567.13,0.00275
2553.63,0.00242
2540.13,0.00236
2526.63,0.00222
2513.13,0.00208
2499.63,0.00220
2486.13,0.00216
2472.63,0.00241
2459.13,0.00219
2445.62,0.00199
2432.12,0.00228
2418.62,0.00217
2405.12,0.00235
2391.62,0.00250
2378.12,0.00289
2364.62,-0.00480
2351.12,0.00062
2337.62,-0.00274
2324.12,0.00105
2310.61,0.00387
2297.11,0.00390
2283.61,0.00453
2270.11,0.00439
2256.61,0.00351
2243.11,0.00301
2229.61,0.00237
2216.11,0.00182
2202.61,0.00158
2189.1,0.00067
2175.6,0.00041
2162.1,-0.00039
2148.6,0.00123
2135.1,0.00168
2121.6,0.00171
2108.1,0.00170
2094.6,0.00243
2081.1,0.00272
2067.59,0.00310
2054.09,0.00276
2040.59,0.00341
2027.09,0.00277
2013.59,0.00347
2000.09,0.00361
1986.59,0.00392
1973.09,0.00347
1959.59,0.00406
1946.08,0.00492
1932.58,0.00447
1919.08,0.00597
1905.58,0.00484
1892.08,0.00554
1878.58,0.00488
1865.08,0.00607
1851.58,0.00531
1838.08,0.00622
1824.57,0.00754
1811.07,0.00815
1797.57,0.01020
1784.07,0.00979
1770.57,0.01352
1757.07,0.01613
1743.57,0.04108
1730.07,0.08238
1716.57,0.08349
1703.07,0.07025
1689.56,0.05782
1676.06,0.05538
1662.56,0.06088
1649.06,0.08523
1635.56,0.09251
1622.06,0.06444
1608.56,0.08260
1595.06,0.09463
1581.56,0.06624
1568.05,0.09032
1554.55,0.14968
1541.05,0.18191
1527.55,0.17480
1514.05,0.12993
1500.55,0.11700
1487.05,0.09410
1473.55,0.11073
1460.05,0.10847
1446.54,0.11793
1433.04,0.06905
1419.54,0.07282
1406.04,0.07697
1392.54,0.07128
1379.04,0.11416
1365.54,0.09344
1352.04,0.06508
1338.54,0.07920
1325.03,0.07077
1311.53,0.08596
1298.03,0.10321
1284.53,0.09253
1271.03,0.09746
1257.53,0.10386
1244.03,0.12560
1230.53,0.17591
1217.03,0.17150
1203.53,0.13124
1190.02,0.10614
1176.52,0.11126
1163.02,0.14757
1149.52,0.18391
1136.02,0.22970
1122.52,0.30149
1109.02,0.40074
1095.52,0.45331
1082.02,0.44251
1068.51,0.37286
1055.01,0.28579
1041.51,0.19430
1028.01,0.14879
1014.51,0.16133
1001.01,0.14734
987.508,0.09165
974.007,0.07768
960.506,0.07093
947.005,0.06944
933.503,0.10252
920.002,0.10194
906.501,0.08791
893,0.06829
879.499,0.07332
865.998,0.07820
852.497,0.07003
838.996,0.07044
825.495,0.08679
811.994,0.09609
798.493,0.07582
784.992,0.06771
771.49,0.07856
757.989,0.07748
744.488,0.06678
730.987,0.06231
717.486,0.07097
703.985,0.07763
690.484,0.08457
676.983,0.09303
663.482,0.09690
649.981,0.09145
636.48,0.08747
622.979,0.08016
609.477,0.07275
599.834,0.08548