File: 01_Data/Polyurethane_Foam/FTIR/ATR/Polyurethane_Foam_ATR_210608_R1.tst
4497.79,-0.00554
4484.29,-0.00535
4470.79,-0.00526
4457.29,-0.00516
4443.79,-0.00496
4430.28,-0.00492
4416.78,-0.00450
4403.28,-0.00413
4389.78,-0.00430
4376.28,-0.00398
4362.78,-0.00377
4349.28,-0.00372
4335.78,-0.00330
4322.28,-0.00321
4308.77,-0.00372
4295.27,-0.00367
4281.77,-0.00385
4268.27,-0.00379
4254.77,-0.00381
4241.27,-0.00385
4227.77,-0.00390
4214.27,-0.00392
4200.77,-0.00377
4187.26,-0.00366
4173.76,-0.00360
4160.26,-0.00352
4146.76,-0.00348
4133.26,-0.00333
4119.76,-0.00330
4106.26,-0.00291
4092.76,-0.00304
4079.26,-0.00255
4065.75,-0.00276
4052.25,-0.00272
4038.75,-0.00258
4025.25,-0.00217
4011.75,-0.00210
3998.25,-0.00227
3984.75,-0.00220
3971.25,-0.00129
3957.75,-0.00135
3944.25,-0.00037
3930.74,0.00040
3917.24,0.00012
3903.74,0.00368
3890.24,0.00046
3876.74,-0.00060
3863.24,0.00308
3849.74,0.00118
3836.24,0.00306
3822.74,0.00263
3809.23,-0.00090
3795.73,-0.00029
3782.23,-0.00063
3768.73,0.00103
3755.23,0.00267
3741.73,0.00368
3728.23,0.00177
3714.73,0.00099
3701.23,-0.00052
3687.72,0.00222
3674.22,0.00430
3660.72,-0.00008
3647.22,0.00586
3633.72,0.00276
3620.22,0.00572
3606.72,0.00460
3593.22,0.00482
3579.72,0.00445
3566.21,0.00958
3552.71,0.00599
3539.21,0.00481
3525.71,0.00849
3512.21,0.00620
3498.71,0.00614
3485.21,0.00609
3471.71,0.00524
3458.21,0.00592
3444.7,0.00638
3431.2,0.00568
3417.7,0.00665
3404.2,0.00784
3390.7,0.01066
3377.2,0.01365
3363.7,0.01715
3350.2,0.01939
3336.7,0.02311
3323.2,0.02605
3309.69,0.02961
3296.19,0.03134
3282.69,0.03134
3269.19,0.02933
3255.69,0.02582
3242.19,0.02128
3228.69,0.01749
3215.19,0.01498
3201.69,0.01353
3188.18,0.01176
3174.68,0.01041
3161.18,0.00916
3147.68,0.00886
3134.18,0.00865
3120.68,0.00860
3107.18,0.00797
3093.68,0.00828
3080.18,0.00896
3066.67,0.00909
3053.17,0.00877
3039.67,0.00883
3026.17,0.00939
3012.67,0.01041
2999.17,0.01819
2985.67,0.04406
2972.17,0.07445
2958.67,0.04445
2945.16,0.04443
2931.66,0.06908
2918.16,0.06618
2904.66,0.07196
2891.16,0.07604
2877.66,0.08308
2864.16,0.08740
2850.66,0.06221
2837.16,0.03192
2823.66,0.01948
2810.15,0.01631
2796.65,0.01511
2783.15,0.01371
2769.65,0.01203
2756.15,0.01070
2742.65,0.00958
2729.15,0.00870
2715.65,0.00741
2702.15,0.00667
2688.64,0.00598
2675.14,0.00578
2661.64,0.00545
2648.14,0.00472
2634.64,0.00413
2621.14,0.00348
2607.64,0.00325
2594.14,0.00332
2580.64,0.00311
2567.13,0.00248
2553.63,0.00217
2540.13,0.00210
2526.63,0.00198
2513.13,0.00194
2499.63,0.00195
2486.13,0.00203
2472.63,0.00207
2459.13,0.00189
2445.62,0.00169
2432.12,0.00195
2418.62,0.00184
2405.12,0.00204
2391.62,0.00225
2378.12,0.00250
2364.62,-0.00443
2351.12,0.00034
2337.62,-0.00300
2324.12,0.00071
2310.61,0.00338
2297.11,0.00359
2283.61,0.00423
2270.11,0.00425
2256.61,0.00324
2243.11,0.00280
2229.61,0.00213
2216.11,0.00160
2202.61,0.00130
2189.1,0.00056
2175.6,-0.00001
2162.1,-0.00120
2148.6,0.00086
2135.1,0.00125
2121.6,0.00133
2108.1,0.00144
2094.6,0.00205
2081.1,0.00225
2067.59,0.00293
2054.09,0.00267
2040.59,0.00292
2027.09,0.00284
2013.59,0.00299
2000.09,0.00325
1986.59,0.00360
1973.09,0.00313
1959.59,0.00352
1946.08,0.00476
1932.58,0.00412
1919.08,0.00564
1905.58,0.00480
1892.08,0.00536
1878.58,0.00474
1865.08,0.00590
1851.58,0.00503
1838.08,0.00597
1824.57,0.00725
1811.07,0.00792
1797.57,0.00983
1784.07,0.00950
1770.57,0.01306
1757.07,0.01573
1743.57,0.04052
1730.07,0.08174
1716.57,0.08290
1703.07,0.06948
1689.56,0.05649
1676.06,0.05372
1662.56,0.05884
1649.06,0.08239
1635.56,0.08878
1622.06,0.06214
1608.56,0.08044
1595.06,0.09250
1581.56,0.06467
1568.05,0.08827
1554.55,0.14698
1541.05,0.17814
1527.55,0.17154
1514.05,0.12717
1500.55,0.11481
1487.05,0.09252
1473.55,0.10906
1460.05,0.10687
1446.54,0.11630
1433.04,0.06765
1419.54,0.07138
1406.04,0.07550
1392.54,0.06977
1379.04,0.11249
1365.54,0.09174
1352.04,0.06367
1338.54,0.07773
1325.03,0.06933
1311.53,0.08444
1298.03,0.10147
1284.53,0.09085
1271.03,0.09577
1257.53,0.10236
1244.03,0.12334
1230.53,0.17310
1217.03,0.16873
1203.53,0.12921
1190.02,0.10434
1176.52,0.10930
1163.02,0.14486
1149.52,0.18064
1136.02,0.22594
1122.52,0.29659
1109.02,0.39427
1095.52,0.44610
1082.02,0.43561
1068.51,0.36674
1055.01,0.28074
1041.51,0.19093
1028.01,0.14622
1014.51,0.15867
1001.01,0.14475
987.508,0.08995
974.007,0.07630
960.506,0.06962
947.005,0.06852
933.503,0.10090
920.002,0.10022
906.501,0.08627
893,0.06715
879.499,0.07216
865.998,0.07694
852.497,0.06895
838.996,0.06932
825.495,0.08623
811.994,0.09524
798.493,0.07568
784.992,0.06690
771.49,0.07819
757.989,0.07563
744.488,0.06631
730.987,0.06162
717.486,0.06984
703.985,0.07622
690.484,0.08290
676.983,0.09093
663.482,0.09565
649.981,0.08924
636.48,0.08572
622.979,0.07854
609.477,0.07660
599.834,0.08330