File: 01_Data/Polyurethane_Foam/FTIR/ATR/Polyurethane_Foam_ATR_210608_R5.tst
4497.79,-0.00564
4484.29,-0.00557
4470.79,-0.00533
4457.29,-0.00541
4443.79,-0.00511
4430.28,-0.00531
4416.78,-0.00458
4403.28,-0.00433
4389.78,-0.00432
4376.28,-0.00415
4362.78,-0.00398
4349.28,-0.00370
4335.78,-0.00376
4322.28,-0.00349
4308.77,-0.00349
4295.27,-0.00390
4281.77,-0.00396
4268.27,-0.00374
4254.77,-0.00389
4241.27,-0.00387
4227.77,-0.00374
4214.27,-0.00378
4200.77,-0.00371
4187.26,-0.00382
4173.76,-0.00360
4160.26,-0.00346
4146.76,-0.00341
4133.26,-0.00322
4119.76,-0.00342
4106.26,-0.00297
4092.76,-0.00296
4079.26,-0.00266
4065.75,-0.00286
4052.25,-0.00258
4038.75,-0.00251
4025.25,-0.00212
4011.75,-0.00199
3998.25,-0.00211
3984.75,-0.00204
3971.25,-0.00152
3957.75,-0.00142
3944.25,-0.00032
3930.74,0.00074
3917.24,0.00022
3903.74,0.00425
3890.24,0.00047
3876.74,-0.00045
3863.24,0.00293
3849.74,0.00098
3836.24,0.00286
3822.74,0.00235
3809.23,-0.00061
3795.73,-0.00007
3782.23,-0.00055
3768.73,0.00092
3755.23,0.00273
3741.73,0.00394
3728.23,0.00180
3714.73,0.00121
3701.23,-0.00014
3687.72,0.00209
3674.22,0.00475
3660.72,0.00033
3647.22,0.00548
3633.72,0.00319
3620.22,0.00641
3606.72,0.00549
3593.22,0.00616
3579.72,0.00582
3566.21,0.01124
3552.71,0.00763
3539.21,0.00674
3525.71,0.01077
3512.21,0.00848
3498.71,0.00846
3485.21,0.00852
3471.71,0.00766
3458.21,0.00847
3444.7,0.00919
3431.2,0.00835
3417.7,0.00938
3404.2,0.01049
3390.7,0.01341
3377.2,0.01624
3363.7,0.01975
3350.2,0.02179
3336.7,0.02533
3323.2,0.02806
3309.69,0.03157
3296.19,0.03324
3282.69,0.03316
3269.19,0.03112
3255.69,0.02775
3242.19,0.02319
3228.69,0.01952
3215.19,0.01709
3201.69,0.01558
3188.18,0.01382
3174.68,0.01231
3161.18,0.01101
3147.68,0.01063
3134.18,0.01032
3120.68,0.01007
3107.18,0.00947
3093.68,0.00974
3080.18,0.01051
3066.67,0.01051
3053.17,0.01018
3039.67,0.01010
3026.17,0.01053
3012.67,0.01156
2999.17,0.01917
2985.67,0.04478
2972.17,0.07422
2958.67,0.04431
2945.16,0.04479
2931.66,0.06854
2918.16,0.06583
2904.66,0.07157
2891.16,0.07560
2877.66,0.08262
2864.16,0.08638
2850.66,0.06114
2837.16,0.03193
2823.66,0.01998
2810.15,0.01677
2796.65,0.01559
2783.15,0.01410
2769.65,0.01258
2756.15,0.01112
2742.65,0.01011
2729.15,0.00918
2715.65,0.00795
2702.15,0.00706
2688.64,0.00644
2675.14,0.00624
2661.64,0.00589
2648.14,0.00524
2634.64,0.00455
2621.14,0.00393
2607.64,0.00363
2594.14,0.00370
2580.64,0.00344
2567.13,0.00280
2553.63,0.00251
2540.13,0.00254
2526.63,0.00232
2513.13,0.00228
2499.63,0.00232
2486.13,0.00235
2472.63,0.00251
2459.13,0.00234
2445.62,0.00204
2432.12,0.00222
2418.62,0.00222
2405.12,0.00237
2391.62,0.00241
2378.12,0.00277
2364.62,-0.00435
2351.12,0.00054
2337.62,-0.00258
2324.12,0.00131
2310.61,0.00383
2297.11,0.00390
2283.61,0.00433
2270.11,0.00426
2256.61,0.00319
2243.11,0.00299
2229.61,0.00249
2216.11,0.00206
2202.61,0.00170
2189.1,0.00099
2175.6,0.00044
2162.1,-0.00029
2148.6,0.00119
2135.1,0.00180
2121.6,0.00171
2108.1,0.00179
2094.6,0.00241
2081.1,0.00280
2067.59,0.00328
2054.09,0.00300
2040.59,0.00378
2027.09,0.00320
2013.59,0.00339
2000.09,0.00351
1986.59,0.00419
1973.09,0.00329
1959.59,0.00425
1946.08,0.00536
1932.58,0.00450
1919.08,0.00594
1905.58,0.00506
1892.08,0.00552
1878.58,0.00485
1865.08,0.00622
1851.58,0.00528
1838.08,0.00634
1824.57,0.00762
1811.07,0.00829
1797.57,0.01059
1784.07,0.01058
1770.57,0.01437
1757.07,0.01748
1743.57,0.04274
1730.07,0.08421
1716.57,0.08636
1703.07,0.07325
1689.56,0.06055
1676.06,0.05804
1662.56,0.06390
1649.06,0.08768
1635.56,0.08918
1622.06,0.06534
1608.56,0.08298
1595.06,0.09409
1581.56,0.06604
1568.05,0.08959
1554.55,0.14890
1541.05,0.18287
1527.55,0.17650
1514.05,0.13181
1500.55,0.11880
1487.05,0.09557
1473.55,0.11227
1460.05,0.10970
1446.54,0.11862
1433.04,0.07029
1419.54,0.07420
1406.04,0.07831
1392.54,0.07297
1379.04,0.11611
1365.54,0.09478
1352.04,0.06645
1338.54,0.08024
1325.03,0.07197
1311.53,0.08694
1298.03,0.10407
1284.53,0.09355
1271.03,0.09853
1257.53,0.10553
1244.03,0.12749
1230.53,0.17666
1217.03,0.17232
1203.53,0.13300
1190.02,0.10851
1176.52,0.11301
1163.02,0.14794
1149.52,0.18364
1136.02,0.22937
1122.52,0.30126
1109.02,0.39995
1095.52,0.45245
1082.02,0.44400
1068.51,0.37557
1055.01,0.28807
1041.51,0.19729
1028.01,0.15102
1014.51,0.16292
1001.01,0.14812
987.508,0.09265
974.007,0.07865
960.506,0.07148
947.005,0.07057
933.503,0.10345
920.002,0.10278
906.501,0.08811
893,0.06902
879.499,0.07391
865.998,0.07858
852.497,0.07068
838.996,0.07154
825.495,0.08867
811.994,0.09733
798.493,0.07837
784.992,0.06996
771.49,0.08176
757.989,0.07885
744.488,0.06950
730.987,0.06443
717.486,0.07326
703.985,0.07989
690.484,0.08636
676.983,0.09507
663.482,0.09915
649.981,0.09375
636.48,0.09062
622.979,0.08476
609.477,0.08489
599.834,0.08983