File: 01_Data/Polyurethane_Foam/FTIR/ATR/Polyurethane_Foam_ATR_210608_R2.tst
4497.79,-0.00527
4484.29,-0.00484
4470.79,-0.00476
4457.29,-0.00459
4443.79,-0.00446
4430.28,-0.00418
4416.78,-0.00378
4403.28,-0.00385
4389.78,-0.00378
4376.28,-0.00360
4362.78,-0.00325
4349.28,-0.00323
4335.78,-0.00285
4322.28,-0.00310
4308.77,-0.00314
4295.27,-0.00335
4281.77,-0.00331
4268.27,-0.00313
4254.77,-0.00326
4241.27,-0.00344
4227.77,-0.00340
4214.27,-0.00333
4200.77,-0.00316
4187.26,-0.00323
4173.76,-0.00304
4160.26,-0.00304
4146.76,-0.00299
4133.26,-0.00276
4119.76,-0.00267
4106.26,-0.00241
4092.76,-0.00271
4079.26,-0.00220
4065.75,-0.00236
4052.25,-0.00219
4038.75,-0.00222
4025.25,-0.00151
4011.75,-0.00163
3998.25,-0.00179
3984.75,-0.00150
3971.25,-0.00111
3957.75,-0.00089
3944.25,0.00008
3930.74,0.00099
3917.24,0.00077
3903.74,0.00456
3890.24,0.00082
3876.74,-0.00017
3863.24,0.00351
3849.74,0.00147
3836.24,0.00352
3822.74,0.00327
3809.23,-0.00019
3795.73,0.00007
3782.23,-0.00006
3768.73,0.00139
3755.23,0.00355
3741.73,0.00451
3728.23,0.00255
3714.73,0.00194
3701.23,0.00019
3687.72,0.00275
3674.22,0.00467
3660.72,0.00051
3647.22,0.00611
3633.72,0.00323
3620.22,0.00670
3606.72,0.00527
3593.22,0.00544
3579.72,0.00513
3566.21,0.01049
3552.71,0.00663
3539.21,0.00560
3525.71,0.00943
3512.21,0.00703
3498.71,0.00718
3485.21,0.00710
3471.71,0.00621
3458.21,0.00694
3444.7,0.00743
3431.2,0.00661
3417.7,0.00778
3404.2,0.00892
3390.7,0.01170
3377.2,0.01470
3363.7,0.01839
3350.2,0.02044
3336.7,0.02418
3323.2,0.02700
3309.69,0.03066
3296.19,0.03233
3282.69,0.03237
3269.19,0.03030
3255.69,0.02678
3242.19,0.02219
3228.69,0.01844
3215.19,0.01606
3201.69,0.01437
3188.18,0.01263
3174.68,0.01114
3161.18,0.00998
3147.68,0.00956
3134.18,0.00944
3120.68,0.00930
3107.18,0.00865
3093.68,0.00897
3080.18,0.00965
3066.67,0.00973
3053.17,0.00937
3039.67,0.00953
3026.17,0.00992
3012.67,0.01102
2999.17,0.01863
2985.67,0.04460
2972.17,0.07462
2958.67,0.04462
2945.16,0.04478
2931.66,0.06914
2918.16,0.06619
2904.66,0.07205
2891.16,0.07625
2877.66,0.08319
2864.16,0.08746
2850.66,0.06222
2837.16,0.03228
2823.66,0.01991
2810.15,0.01670
2796.65,0.01557
2783.15,0.01412
2769.65,0.01262
2756.15,0.01114
2742.65,0.01012
2729.15,0.00914
2715.65,0.00788
2702.15,0.00712
2688.64,0.00648
2675.14,0.00633
2661.64,0.00591
2648.14,0.00526
2634.64,0.00454
2621.14,0.00402
2607.64,0.00372
2594.14,0.00388
2580.64,0.00363
2567.13,0.00300
2553.63,0.00259
2540.13,0.00257
2526.63,0.00247
2513.13,0.00235
2499.63,0.00245
2486.13,0.00252
2472.63,0.00255
2459.13,0.00246
2445.62,0.00227
2432.12,0.00251
2418.62,0.00234
2405.12,0.00258
2391.62,0.00275
2378.12,0.00318
2364.62,-0.00371
2351.12,0.00126
2337.62,-0.00176
2324.12,0.00164
2310.61,0.00425
2297.11,0.00423
2283.61,0.00462
2270.11,0.00463
2256.61,0.00363
2243.11,0.00353
2229.61,0.00285
2216.11,0.00237
2202.61,0.00190
2189.1,0.00163
2175.6,0.00089
2162.1,0.00010
2148.6,0.00186
2135.1,0.00218
2121.6,0.00210
2108.1,0.00196
2094.6,0.00270
2081.1,0.00291
2067.59,0.00349
2054.09,0.00347
2040.59,0.00389
2027.09,0.00354
2013.59,0.00396
2000.09,0.00401
1986.59,0.00458
1973.09,0.00421
1959.59,0.00435
1946.08,0.00563
1932.58,0.00490
1919.08,0.00642
1905.58,0.00531
1892.08,0.00576
1878.58,0.00504
1865.08,0.00631
1851.58,0.00550
1838.08,0.00652
1824.57,0.00772
1811.07,0.00830
1797.57,0.01032
1784.07,0.01003
1770.57,0.01369
1757.07,0.01627
1743.57,0.04089
1730.07,0.08235
1716.57,0.08353
1703.07,0.07045
1689.56,0.05753
1676.06,0.05469
1662.56,0.05994
1649.06,0.08360
1635.56,0.08920
1622.06,0.06310
1608.56,0.08135
1595.06,0.09340
1581.56,0.06510
1568.05,0.08854
1554.55,0.14749
1541.05,0.18025
1527.55,0.17309
1514.05,0.12849
1500.55,0.11602
1487.05,0.09363
1473.55,0.11018
1460.05,0.10780
1446.54,0.11720
1433.04,0.06876
1419.54,0.07256
1406.04,0.07657
1392.54,0.07083
1379.04,0.11339
1365.54,0.09276
1352.04,0.06461
1338.54,0.07877
1325.03,0.07033
1311.53,0.08542
1298.03,0.10242
1284.53,0.09189
1271.03,0.09680
1257.53,0.10291
1244.03,0.12449
1230.53,0.17439
1217.03,0.17041
1203.53,0.13041
1190.02,0.10547
1176.52,0.11011
1163.02,0.14605
1149.52,0.18163
1136.02,0.22703
1122.52,0.29842
1109.02,0.39638
1095.52,0.44775
1082.02,0.43727
1068.51,0.36881
1055.01,0.28287
1041.51,0.19287
1028.01,0.14791
1014.51,0.16027
1001.01,0.14638
987.508,0.09151
974.007,0.07771
960.506,0.07103
947.005,0.06974
933.503,0.10210
920.002,0.10155
906.501,0.08773
893,0.06807
879.499,0.07363
865.998,0.07830
852.497,0.07037
838.996,0.07052
825.495,0.08721
811.994,0.09576
798.493,0.07609
784.992,0.06820
771.49,0.07989
757.989,0.07713
744.488,0.06739
730.987,0.06347
717.486,0.07193
703.985,0.07805
690.484,0.08468
676.983,0.09280
663.482,0.09689
649.981,0.09118
636.48,0.08788
622.979,0.08456
609.477,0.08242
599.834,0.08953