File: 01_Data/Eucalyptus_Flooring/HFM/Eucalyptus_Flooring_Density_Dry_R2.csv
,Eucalyptus_Flooring_DRY_2
Sample Mass [g],544.6
Sample Volume [cm3],576.2
Sample Density [kg/m3],945