File: 01_Data/Eucalyptus_Flooring/HFM/Eucalyptus_Flooring_Density_Wet_R3.csv
,Eucalyptus_Flooring_WET_3
Sample Mass [g],598.1
Sample Volume [cm3],577.6
Sample Density [kg/m3],1035