File: 01_Data/Eucalyptus_Flooring/HFM/Eucalyptus_Flooring_Density_Dry_R1.csv
,Eucalyptus_Flooring_DRY_1
Sample Mass [g],550.5
Sample Volume [cm3],585.5
Sample Density [kg/m3],940