File: 01_Data/Eucalyptus_Flooring/HFM/Eucalyptus_Flooring_Density_Wet_R2.csv
,Eucalyptus_Flooring_WET_2
Sample Mass [g],589.4
Sample Volume [cm3],576.2
Sample Density [kg/m3],1023