File: 01_Data/Eucalyptus_Flooring/HFM/Eucalyptus_Flooring_Density_Dry_R3.csv
,Eucalyptus_Flooring_DRY_3
Sample Mass [g],552.5
Sample Volume [cm3],577.6
Sample Density [kg/m3],957