File: 01_Data/Eucalyptus_Flooring/HFM/Eucalyptus_Flooring_Density_Wet_R1.csv
,Eucalyptus_Flooring_WET_1
Sample Mass [g],595.6
Sample Volume [cm3],585.5
Sample Density [kg/m3],1017