File: 01_Data/MDF/FTIR/IS/MDF_IS_REFLECT_MEAS_210623_R2.dpt
5996.41,0.59289
5977.12,0.58398
5957.84,0.59042
5938.55,0.59342
5919.26,0.58270
5899.97,0.57637
5880.69,0.57663
5861.4,0.58297
5842.11,0.57816
5822.82,0.57105
5803.54,0.56921
5784.25,0.57346
5764.96,0.56904
5745.68,0.58269
5726.39,0.58435
5707.1,0.57728
5687.81,0.57674
5668.53,0.57932
5649.24,0.57284
5629.95,0.57620
5610.66,0.57135
5591.38,0.58288
5572.09,0.58727
5552.8,0.58297
5533.52,0.59005
5514.23,0.58396
5494.94,0.58143
5475.65,0.58591
5456.37,0.59757
5437.08,0.59981
5417.79,0.60579
5398.5,0.60288
5379.22,0.60155
5359.93,0.60923
5340.64,0.59477
5321.36,0.59166
5302.07,0.58185
5282.78,0.54939
5263.49,0.51053
5244.21,0.47889
5224.92,0.45706
5205.63,0.45118
5186.34,0.44661
5167.06,0.46224
5147.77,0.47065
5128.48,0.48519
5109.2,0.49036
5089.91,0.50053
5070.62,0.50833
5051.33,0.51550
5032.05,0.52017
5012.76,0.51865
4993.47,0.51545
4974.18,0.50974
4954.9,0.49266
4935.61,0.47439
4916.32,0.45322
4897.04,0.43879
4877.75,0.41990
4858.46,0.41020
4839.17,0.39734
4819.89,0.38480
4800.6,0.38235
4781.31,0.37774
4762.02,0.37019
4742.74,0.37077
4723.45,0.37314
4704.16,0.37616
4684.88,0.37775
4665.59,0.38046
4646.3,0.38928
4627.01,0.39543
4607.73,0.40351
4588.44,0.41198
4569.15,0.41935
4549.87,0.42477
4530.58,0.42931
4511.29,0.42680
4492,0.41862
4472.72,0.40249
4453.43,0.37749
4434.14,0.35315
4414.85,0.33308
4395.57,0.32823
4376.28,0.33155
4356.99,0.33692
4337.71,0.33073
4318.42,0.32358
4299.13,0.31892
4279.84,0.31496
4260.56,0.31579
4241.27,0.31937
4221.98,0.32154
4202.69,0.32510
4183.41,0.32468
4164.12,0.33158
4144.83,0.32711
4125.55,0.31842
4106.26,0.30521
4086.97,0.28839
4067.68,0.27345
4048.4,0.25779
4029.11,0.24788
4009.82,0.24680
3990.53,0.25037
3971.25,0.25291
3951.96,0.25923
3932.67,0.26744
3913.39,0.27627
3894.1,0.28348
3874.81,0.28858
3855.52,0.29421
3836.24,0.30534
3816.95,0.30647
3797.66,0.30695
3778.37,0.30883
3759.09,0.30154
3739.8,0.29111
3720.51,0.27809
3701.23,0.25329
3681.94,0.21322
3662.65,0.15913
3643.36,0.11784
3624.08,0.09178
3604.79,0.07600
3585.5,0.06340
3566.21,0.05312
3546.93,0.04608
3527.64,0.04255
3508.35,0.03983
3489.07,0.03862
3469.78,0.03518
3450.49,0.03435
3431.2,0.03344
3411.92,0.03273
3392.63,0.03441
3373.34,0.03473
3354.05,0.03467
3334.77,0.03589
3315.48,0.03802
3296.19,0.03940
3276.91,0.04069
3257.62,0.04431
3238.33,0.04760
3219.04,0.05099
3199.76,0.05563
3180.47,0.05949
3161.18,0.06459
3141.89,0.06916
3122.61,0.07401
3103.32,0.07833
3084.03,0.08250
3064.75,0.08515
3045.46,0.08746
3026.17,0.08760
3006.88,0.08321
2987.6,0.07717
2968.31,0.06277
2949.02,0.05535
2929.74,0.05028
2910.45,0.05097
2891.16,0.05531
2871.87,0.05694
2852.59,0.06032
2833.3,0.07696
2814.01,0.09169
2794.72,0.09914
2775.44,0.10443
2756.15,0.10595
2736.86,0.10755
2717.58,0.11021
2698.29,0.11589
2679,0.11961
2659.71,0.12303
2640.43,0.12637
2621.14,0.12972
2601.85,0.13340
2582.56,0.13518
2563.28,0.13618
2543.99,0.13598
2524.7,0.13623
2505.42,0.14138
2486.13,0.15103
2466.84,0.15647
2447.55,0.16134
2428.27,0.16706
2408.98,0.17431
2389.69,0.17896
2370.4,0.17498
2351.12,0.17391
2331.83,0.17794
2312.54,0.18035
2293.26,0.17447
2273.97,0.16919
2254.68,0.17386
2235.39,0.17898
2216.11,0.18349
2196.82,0.18230
2177.53,0.17320
2158.24,0.16414
2138.96,0.15885
2119.67,0.15993
2100.38,0.16353
2081.1,0.16544
2061.81,0.16399
2042.52,0.16550
2023.23,0.17154
2003.95,0.17783
1984.66,0.18211
1965.37,0.18191
1946.08,0.18118
1926.8,0.18632
1907.51,0.18604
1888.22,0.18640
1868.94,0.18660
1849.65,0.17738
1830.36,0.16449
1811.07,0.14131
1791.79,0.11353
1772.5,0.08266
1753.21,0.04602
1733.92,0.04107
1714.64,0.04992
1695.35,0.05599
1676.06,0.05230
1656.78,0.04707
1637.49,0.04740
1618.2,0.04449
1598.91,0.03944
1579.63,0.05162
1560.34,0.06586
1541.05,0.05661
1521.76,0.04563
1502.48,0.04120
1483.19,0.04422
1463.9,0.03685
1444.62,0.03744
1425.33,0.03611
1406.04,0.03901
1386.75,0.03593
1367.47,0.03607
1348.18,0.03833
1328.89,0.03623
1309.61,0.03737
1290.32,0.03717
1271.03,0.03288
1251.74,0.03181
1232.46,0.03295
1213.17,0.03553
1193.88,0.03415
1174.59,0.02725
1155.31,0.02960
1136.02,0.02374
1116.73,0.02620
1097.45,0.02877
1078.16,0.02899
1058.87,0.04001
1039.58,0.04192
1020.3,0.04856
1001.01,0.04791
981.722,0.05537
962.434,0.06152
943.147,0.07031
923.86,0.06908
904.573,0.06199
885.285,0.06203
865.998,0.06722
846.711,0.06529
827.424,0.06071
808.136,0.05998
788.849,0.05889
769.562,0.05263
750.274,0.04840
730.987,0.04445
711.7,0.03874
692.413,0.03899
673.125,0.03495
653.838,0.03559
634.551,0.03351
615.264,0.03307
595.976,0.03873
576.689,0.03753
557.402,0.03777
538.115,0.03697
518.827,0.03614
499.54,0.04194
480.253,0.03535
460.966,0.03425
441.678,0.04050
422.391,0.03853
403.104,0.03666
399.246,0.05678