File: 01_Data/MDF/FTIR/IS/MDF_IS_REFLECT_MEAS_210623_R4.dpt
5996.41,0.57913
5977.12,0.57037
5957.84,0.57354
5938.55,0.58235
5919.26,0.57522
5899.97,0.56611
5880.69,0.57350
5861.4,0.57866
5842.11,0.57484
5822.82,0.57007
5803.54,0.56411
5784.25,0.55940
5764.96,0.57071
5745.68,0.57526
5726.39,0.57568
5707.1,0.57004
5687.81,0.55875
5668.53,0.56880
5649.24,0.56164
5629.95,0.56735
5610.66,0.56220
5591.38,0.57109
5572.09,0.57835
5552.8,0.57614
5533.52,0.57692
5514.23,0.57355
5494.94,0.57238
5475.65,0.57616
5456.37,0.58977
5437.08,0.59004
5417.79,0.59342
5398.5,0.59354
5379.22,0.58821
5359.93,0.59776
5340.64,0.57723
5321.36,0.57338
5302.07,0.55708
5282.78,0.51694
5263.49,0.46259
5244.21,0.43316
5224.92,0.40130
5205.63,0.39521
5186.34,0.39744
5167.06,0.40606
5147.77,0.41947
5128.48,0.43058
5109.2,0.44091
5089.91,0.45303
5070.62,0.46404
5051.33,0.47449
5032.05,0.47928
5012.76,0.48635
4993.47,0.48741
4974.18,0.48395
4954.9,0.48094
4935.61,0.46649
4916.32,0.44709
4897.04,0.43153
4877.75,0.41838
4858.46,0.40559
4839.17,0.39611
4819.89,0.38459
4800.6,0.38056
4781.31,0.37613
4762.02,0.36989
4742.74,0.36810
4723.45,0.37319
4704.16,0.37589
4684.88,0.37991
4665.59,0.38116
4646.3,0.38878
4627.01,0.39617
4607.73,0.40268
4588.44,0.41169
4569.15,0.41888
4549.87,0.42312
4530.58,0.43035
4511.29,0.42702
4492,0.42247
4472.72,0.40291
4453.43,0.37726
4434.14,0.35393
4414.85,0.33412
4395.57,0.32741
4376.28,0.33360
4356.99,0.33902
4337.71,0.33221
4318.42,0.32261
4299.13,0.32023
4279.84,0.31652
4260.56,0.31812
4241.27,0.32114
4221.98,0.32195
4202.69,0.32391
4183.41,0.32365
4164.12,0.32877
4144.83,0.32342
4125.55,0.31479
4106.26,0.30225
4086.97,0.28671
4067.68,0.26997
4048.4,0.25440
4029.11,0.24540
4009.82,0.24402
3990.53,0.24817
3971.25,0.25003
3951.96,0.25614
3932.67,0.26533
3913.39,0.27310
3894.1,0.27900
3874.81,0.28297
3855.52,0.28738
3836.24,0.29941
3816.95,0.29839
3797.66,0.29872
3778.37,0.29670
3759.09,0.28755
3739.8,0.27430
3720.51,0.25981
3701.23,0.23270
3681.94,0.18775
3662.65,0.13311
3643.36,0.09488
3624.08,0.07406
3604.79,0.06021
3585.5,0.05078
3566.21,0.04352
3546.93,0.03957
3527.64,0.03561
3508.35,0.03260
3489.07,0.03099
3469.78,0.02974
3450.49,0.02891
3431.2,0.02926
3411.92,0.02728
3392.63,0.02910
3373.34,0.02903
3354.05,0.02923
3334.77,0.03023
3315.48,0.03228
3296.19,0.03346
3276.91,0.03496
3257.62,0.03833
3238.33,0.04044
3219.04,0.04354
3199.76,0.04684
3180.47,0.05027
3161.18,0.05420
3141.89,0.05884
3122.61,0.06362
3103.32,0.06744
3084.03,0.07128
3064.75,0.07558
3045.46,0.07934
3026.17,0.08006
3006.88,0.07736
2987.6,0.07262
2968.31,0.05981
2949.02,0.05222
2929.74,0.04853
2910.45,0.04838
2891.16,0.05206
2871.87,0.05590
2852.59,0.05821
2833.3,0.07438
2814.01,0.08895
2794.72,0.09685
2775.44,0.10076
2756.15,0.10368
2736.86,0.10451
2717.58,0.10763
2698.29,0.11397
2679,0.11914
2659.71,0.12280
2640.43,0.12575
2621.14,0.13122
2601.85,0.13448
2582.56,0.13665
2563.28,0.13859
2543.99,0.13951
2524.7,0.14185
2505.42,0.14699
2486.13,0.15405
2466.84,0.15929
2447.55,0.16371
2428.27,0.16976
2408.98,0.17613
2389.69,0.17990
2370.4,0.17634
2351.12,0.17438
2331.83,0.17649
2312.54,0.18048
2293.26,0.17534
2273.97,0.17055
2254.68,0.17395
2235.39,0.17758
2216.11,0.18060
2196.82,0.17864
2177.53,0.16990
2158.24,0.16094
2138.96,0.15664
2119.67,0.15737
2100.38,0.16025
2081.1,0.16190
2061.81,0.16083
2042.52,0.16290
2023.23,0.16884
2003.95,0.17565
1984.66,0.18028
1965.37,0.18124
1946.08,0.18227
1926.8,0.18587
1907.51,0.18746
1888.22,0.18824
1868.94,0.19042
1849.65,0.17911
1830.36,0.16918
1811.07,0.14811
1791.79,0.12390
1772.5,0.09137
1753.21,0.05013
1733.92,0.04445
1714.64,0.05316
1695.35,0.05786
1676.06,0.05060
1656.78,0.04526
1637.49,0.04752
1618.2,0.04488
1598.91,0.04050
1579.63,0.05338
1560.34,0.06630
1541.05,0.06089
1521.76,0.04602
1502.48,0.04013
1483.19,0.04436
1463.9,0.03357
1444.62,0.03516
1425.33,0.03376
1406.04,0.03660
1386.75,0.03305
1367.47,0.03166
1348.18,0.03442
1328.89,0.03206
1309.61,0.03448
1290.32,0.03432
1271.03,0.03040
1251.74,0.02904
1232.46,0.03133
1213.17,0.03389
1193.88,0.03424
1174.59,0.02652
1155.31,0.02695
1136.02,0.02213
1116.73,0.02515
1097.45,0.02760
1078.16,0.02788
1058.87,0.03844
1039.58,0.04279
1020.3,0.04919
1001.01,0.05031
981.722,0.05825
962.434,0.06625
943.147,0.07431
923.86,0.07182
904.573,0.06412
885.285,0.06777
865.998,0.06819
846.711,0.06521
827.424,0.06057
808.136,0.05934
788.849,0.05735
769.562,0.05228
750.274,0.04663
730.987,0.04480
711.7,0.04143
692.413,0.04013
673.125,0.03585
653.838,0.03754
634.551,0.03404
615.264,0.03755
595.976,0.03845
576.689,0.03836
557.402,0.04245
538.115,0.04161
518.827,0.03998
499.54,0.04149
480.253,0.04374
460.966,0.04826
441.678,0.04670
422.391,0.05830
403.104,0.03139
399.246,0.03195