File: 01_Data/MDF/FTIR/IS/MDF_IS_REFLECT_MEAS_210623_R3.dpt
5996.41,0.59414
5977.12,0.59158
5957.84,0.58794
5938.55,0.58768
5919.26,0.58557
5899.97,0.57508
5880.69,0.58253
5861.4,0.58669
5842.11,0.58868
5822.82,0.58380
5803.54,0.57822
5784.25,0.57452
5764.96,0.57550
5745.68,0.58581
5726.39,0.58777
5707.1,0.58586
5687.81,0.58444
5668.53,0.57826
5649.24,0.58070
5629.95,0.58988
5610.66,0.58195
5591.38,0.59502
5572.09,0.59987
5552.8,0.59408
5533.52,0.59802
5514.23,0.59387
5494.94,0.59240
5475.65,0.59622
5456.37,0.60470
5437.08,0.61029
5417.79,0.61449
5398.5,0.61536
5379.22,0.61462
5359.93,0.62244
5340.64,0.61276
5321.36,0.60955
5302.07,0.60124
5282.78,0.57454
5263.49,0.53972
5244.21,0.51767
5224.92,0.49697
5205.63,0.49156
5186.34,0.49426
5167.06,0.50380
5147.77,0.51596
5128.48,0.52320
5109.2,0.52802
5089.91,0.53102
5070.62,0.54159
5051.33,0.54721
5032.05,0.54457
5012.76,0.54658
4993.47,0.53735
4974.18,0.52607
4954.9,0.51115
4935.61,0.49062
4916.32,0.46328
4897.04,0.45026
4877.75,0.43410
4858.46,0.42107
4839.17,0.40917
4819.89,0.39904
4800.6,0.39261
4781.31,0.39079
4762.02,0.38398
4742.74,0.38257
4723.45,0.38406
4704.16,0.38826
4684.88,0.39023
4665.59,0.39493
4646.3,0.39904
4627.01,0.40806
4607.73,0.41709
4588.44,0.42706
4569.15,0.43495
4549.87,0.44082
4530.58,0.44507
4511.29,0.44143
4492,0.43477
4472.72,0.41664
4453.43,0.38966
4434.14,0.36461
4414.85,0.34715
4395.57,0.33956
4376.28,0.34381
4356.99,0.35068
4337.71,0.34342
4318.42,0.33666
4299.13,0.33347
4279.84,0.32730
4260.56,0.32968
4241.27,0.33344
4221.98,0.33581
4202.69,0.33884
4183.41,0.34044
4164.12,0.34608
4144.83,0.34341
4125.55,0.33404
4106.26,0.32171
4086.97,0.30561
4067.68,0.28766
4048.4,0.27124
4029.11,0.26066
4009.82,0.25977
3990.53,0.26470
3971.25,0.26809
3951.96,0.27452
3932.67,0.28473
3913.39,0.29428
3894.1,0.30064
3874.81,0.30722
3855.52,0.31577
3836.24,0.32867
3816.95,0.33108
3797.66,0.33076
3778.37,0.33254
3759.09,0.32967
3739.8,0.31959
3720.51,0.30709
3701.23,0.28295
3681.94,0.24448
3662.65,0.18624
3643.36,0.13980
3624.08,0.10833
3604.79,0.08648
3585.5,0.06757
3566.21,0.05683
3546.93,0.04666
3527.64,0.04105
3508.35,0.03832
3489.07,0.03457
3469.78,0.03213
3450.49,0.03166
3431.2,0.03085
3411.92,0.03088
3392.63,0.03142
3373.34,0.03150
3354.05,0.03122
3334.77,0.03304
3315.48,0.03543
3296.19,0.03613
3276.91,0.03896
3257.62,0.04282
3238.33,0.04770
3219.04,0.05180
3199.76,0.05782
3180.47,0.06226
3161.18,0.06877
3141.89,0.07399
3122.61,0.07888
3103.32,0.08489
3084.03,0.08987
3064.75,0.09318
3045.46,0.09591
3026.17,0.09642
3006.88,0.08985
2987.6,0.08235
2968.31,0.06541
2949.02,0.05626
2929.74,0.05170
2910.45,0.05158
2891.16,0.05497
2871.87,0.05962
2852.59,0.06229
2833.3,0.07977
2814.01,0.09833
2794.72,0.10813
2775.44,0.11253
2756.15,0.11502
2736.86,0.11593
2717.58,0.11901
2698.29,0.12615
2679,0.13163
2659.71,0.13433
2640.43,0.13805
2621.14,0.14327
2601.85,0.14668
2582.56,0.14933
2563.28,0.15104
2543.99,0.15315
2524.7,0.15538
2505.42,0.16078
2486.13,0.16732
2466.84,0.17221
2447.55,0.17748
2428.27,0.18381
2408.98,0.19188
2389.69,0.19670
2370.4,0.19531
2351.12,0.19185
2331.83,0.19573
2312.54,0.19915
2293.26,0.19189
2273.97,0.18595
2254.68,0.19181
2235.39,0.19941
2216.11,0.20549
2196.82,0.20500
2177.53,0.19512
2158.24,0.18514
2138.96,0.18038
2119.67,0.18120
2100.38,0.18561
2081.1,0.18825
2061.81,0.18575
2042.52,0.18812
2023.23,0.19496
2003.95,0.20281
1984.66,0.20708
1965.37,0.20666
1946.08,0.20682
1926.8,0.21063
1907.51,0.21076
1888.22,0.21142
1868.94,0.21225
1849.65,0.20076
1830.36,0.18870
1811.07,0.16392
1791.79,0.13555
1772.5,0.09604
1753.21,0.05256
1733.92,0.04793
1714.64,0.05800
1695.35,0.06781
1676.06,0.06205
1656.78,0.05762
1637.49,0.05824
1618.2,0.05202
1598.91,0.04459
1579.63,0.05908
1560.34,0.07519
1541.05,0.06430
1521.76,0.04835
1502.48,0.04183
1483.19,0.04812
1463.9,0.03434
1444.62,0.03627
1425.33,0.03355
1406.04,0.03788
1386.75,0.03413
1367.47,0.03265
1348.18,0.03467
1328.89,0.03294
1309.61,0.03526
1290.32,0.03519
1271.03,0.03166
1251.74,0.02976
1232.46,0.03139
1213.17,0.03487
1193.88,0.03490
1174.59,0.02631
1155.31,0.02907
1136.02,0.02343
1116.73,0.02608
1097.45,0.03014
1078.16,0.03165
1058.87,0.04162
1039.58,0.04521
1020.3,0.05278
1001.01,0.05397
981.722,0.06232
962.434,0.07355
943.147,0.08359
923.86,0.08112
904.573,0.07254
885.285,0.07761
865.998,0.08025
846.711,0.07887
827.424,0.07453
808.136,0.07211
788.849,0.07248
769.562,0.06679
750.274,0.05971
730.987,0.05338
711.7,0.04816
692.413,0.04558
673.125,0.03993
653.838,0.04133
634.551,0.03738
615.264,0.03857
595.976,0.03870
576.689,0.04021
557.402,0.04672
538.115,0.04253
518.827,0.04221
499.54,0.04489
480.253,0.04310
460.966,0.05502
441.678,0.03583
422.391,0.04770
403.104,0.04125
399.246,0.01513