File: 01_Data/MDF/FTIR/IS/MDF_IS_REFLECT_MEAS_210623_R1.dpt
5996.41,0.61663
5977.12,0.61962
5957.84,0.61312
5938.55,0.61389
5919.26,0.61295
5899.97,0.60168
5880.69,0.60815
5861.4,0.60406
5842.11,0.60590
5822.82,0.60066
5803.54,0.59793
5784.25,0.59564
5764.96,0.59523
5745.68,0.60767
5726.39,0.61436
5707.1,0.60927
5687.81,0.60308
5668.53,0.60152
5649.24,0.60214
5629.95,0.60740
5610.66,0.60748
5591.38,0.60939
5572.09,0.61883
5552.8,0.61782
5533.52,0.62005
5514.23,0.61588
5494.94,0.61504
5475.65,0.61195
5456.37,0.62663
5437.08,0.64154
5417.79,0.64269
5398.5,0.63770
5379.22,0.64212
5359.93,0.64793
5340.64,0.64456
5321.36,0.63550
5302.07,0.62262
5282.78,0.60006
5263.49,0.55231
5244.21,0.53422
5224.92,0.50971
5205.63,0.50656
5186.34,0.51087
5167.06,0.52572
5147.77,0.53745
5128.48,0.54277
5109.2,0.54791
5089.91,0.55268
5070.62,0.55863
5051.33,0.56513
5032.05,0.56725
5012.76,0.56250
4993.47,0.55798
4974.18,0.54627
4954.9,0.52888
4935.61,0.50568
4916.32,0.48186
4897.04,0.46381
4877.75,0.44946
4858.46,0.43346
4839.17,0.42393
4819.89,0.41029
4800.6,0.40561
4781.31,0.40204
4762.02,0.39766
4742.74,0.39724
4723.45,0.39811
4704.16,0.40112
4684.88,0.40545
4665.59,0.40898
4646.3,0.41514
4627.01,0.42327
4607.73,0.43085
4588.44,0.44010
4569.15,0.44676
4549.87,0.45330
4530.58,0.45879
4511.29,0.45526
4492,0.44833
4472.72,0.42975
4453.43,0.40325
4434.14,0.37801
4414.85,0.35714
4395.57,0.35129
4376.28,0.35523
4356.99,0.35971
4337.71,0.35566
4318.42,0.34816
4299.13,0.34299
4279.84,0.33907
4260.56,0.33981
4241.27,0.34332
4221.98,0.34732
4202.69,0.34916
4183.41,0.35089
4164.12,0.35552
4144.83,0.35249
4125.55,0.34477
4106.26,0.33075
4086.97,0.31257
4067.68,0.29490
4048.4,0.27775
4029.11,0.26787
4009.82,0.26634
3990.53,0.27040
3971.25,0.27567
3951.96,0.28253
3932.67,0.28861
3913.39,0.30350
3894.1,0.31292
3874.81,0.31856
3855.52,0.31924
3836.24,0.34014
3816.95,0.34090
3797.66,0.34584
3778.37,0.33717
3759.09,0.33481
3739.8,0.34714
3720.51,0.31614
3701.23,0.28574
3681.94,0.25535
3662.65,0.19213
3643.36,0.14690
3624.08,0.11598
3604.79,0.08895
3585.5,0.06972
3566.21,0.05422
3546.93,0.04617
3527.64,0.04074
3508.35,0.03671
3489.07,0.03384
3469.78,0.03202
3450.49,0.03019
3431.2,0.03009
3411.92,0.03025
3392.63,0.03095
3373.34,0.03033
3354.05,0.03085
3334.77,0.03236
3315.48,0.03427
3296.19,0.03595
3276.91,0.03812
3257.62,0.04291
3238.33,0.04663
3219.04,0.05230
3199.76,0.05604
3180.47,0.06261
3161.18,0.06900
3141.89,0.07471
3122.61,0.08077
3103.32,0.08619
3084.03,0.09028
3064.75,0.09399
3045.46,0.09736
3026.17,0.09623
3006.88,0.09012
2987.6,0.08227
2968.31,0.06556
2949.02,0.05581
2929.74,0.05085
2910.45,0.04959
2891.16,0.05386
2871.87,0.05807
2852.59,0.06133
2833.3,0.07952
2814.01,0.09754
2794.72,0.10772
2775.44,0.11195
2756.15,0.11541
2736.86,0.11576
2717.58,0.11998
2698.29,0.12606
2679,0.13204
2659.71,0.13570
2640.43,0.13903
2621.14,0.14418
2601.85,0.14789
2582.56,0.15063
2563.28,0.15203
2543.99,0.15379
2524.7,0.15752
2505.42,0.16271
2486.13,0.16879
2466.84,0.17403
2447.55,0.17883
2428.27,0.18587
2408.98,0.19401
2389.69,0.19983
2370.4,0.19605
2351.12,0.19503
2331.83,0.19863
2312.54,0.20258
2293.26,0.19558
2273.97,0.18977
2254.68,0.19613
2235.39,0.20326
2216.11,0.20922
2196.82,0.20891
2177.53,0.19869
2158.24,0.18755
2138.96,0.18239
2119.67,0.18381
2100.38,0.18814
2081.1,0.19042
2061.81,0.18844
2042.52,0.19051
2023.23,0.19792
2003.95,0.20580
1984.66,0.21140
1965.37,0.21053
1946.08,0.21191
1926.8,0.21642
1907.51,0.21578
1888.22,0.21517
1868.94,0.21287
1849.65,0.20725
1830.36,0.19030
1811.07,0.16655
1791.79,0.13440
1772.5,0.09349
1753.21,0.05220
1733.92,0.04438
1714.64,0.05813
1695.35,0.06751
1676.06,0.06219
1656.78,0.05918
1637.49,0.05715
1618.2,0.05191
1598.91,0.04409
1579.63,0.06081
1560.34,0.07249
1541.05,0.06237
1521.76,0.04563
1502.48,0.04351
1483.19,0.04777
1463.9,0.03327
1444.62,0.03510
1425.33,0.03184
1406.04,0.03651
1386.75,0.03246
1367.47,0.03139
1348.18,0.03231
1328.89,0.03049
1309.61,0.03350
1290.32,0.03290
1271.03,0.02898
1251.74,0.02772
1232.46,0.02900
1213.17,0.03320
1193.88,0.03382
1174.59,0.02593
1155.31,0.02688
1136.02,0.02231
1116.73,0.02406
1097.45,0.02647
1078.16,0.02743
1058.87,0.03958
1039.58,0.04264
1020.3,0.04990
1001.01,0.05189
981.722,0.05880
962.434,0.06959
943.147,0.08093
923.86,0.07988
904.573,0.07098
885.285,0.07524
865.998,0.08037
846.711,0.07675
827.424,0.07419
808.136,0.07179
788.849,0.07002
769.562,0.06336
750.274,0.05829
730.987,0.05198
711.7,0.04518
692.413,0.04727
673.125,0.03527
653.838,0.03913
634.551,0.03528
615.264,0.03981
595.976,0.04374
576.689,0.04025
557.402,0.04117
538.115,0.03836
518.827,0.03864
499.54,0.04767
480.253,0.04175
460.966,0.04706
441.678,0.04896
422.391,0.04852
403.104,0.04448
399.246,0.07216