File: 01_Data/MDF/FTIR/IS/MDF_IS_REFLECT_MEAS_210623_R5.dpt
5996.41,0.57977
5977.12,0.57663
5957.84,0.57126
5938.55,0.57529
5919.26,0.57278
5899.97,0.56262
5880.69,0.56391
5861.4,0.56665
5842.11,0.56447
5822.82,0.56214
5803.54,0.55492
5784.25,0.55689
5764.96,0.55775
5745.68,0.56925
5726.39,0.56541
5707.1,0.57030
5687.81,0.56428
5668.53,0.56576
5649.24,0.55802
5629.95,0.56686
5610.66,0.56102
5591.38,0.57342
5572.09,0.57271
5552.8,0.58003
5533.52,0.58150
5514.23,0.57923
5494.94,0.57613
5475.65,0.58038
5456.37,0.58894
5437.08,0.59272
5417.79,0.59261
5398.5,0.59928
5379.22,0.60103
5359.93,0.60208
5340.64,0.59215
5321.36,0.59285
5302.07,0.58564
5282.78,0.56294
5263.49,0.52543
5244.21,0.50295
5224.92,0.48650
5205.63,0.48446
5186.34,0.48478
5167.06,0.49124
5147.77,0.50061
5128.48,0.51115
5109.2,0.51916
5089.91,0.52084
5070.62,0.52939
5051.33,0.53544
5032.05,0.53655
5012.76,0.52901
4993.47,0.52291
4974.18,0.50998
4954.9,0.49439
4935.61,0.47292
4916.32,0.44694
4897.04,0.43256
4877.75,0.41369
4858.46,0.40182
4839.17,0.39203
4819.89,0.37885
4800.6,0.37300
4781.31,0.37065
4762.02,0.36633
4742.74,0.36431
4723.45,0.36726
4704.16,0.37053
4684.88,0.37432
4665.59,0.37798
4646.3,0.38449
4627.01,0.39151
4607.73,0.40028
4588.44,0.40938
4569.15,0.41531
4549.87,0.42147
4530.58,0.42868
4511.29,0.42396
4492,0.41727
4472.72,0.40011
4453.43,0.37327
4434.14,0.34955
4414.85,0.33092
4395.57,0.32218
4376.28,0.32709
4356.99,0.33277
4337.71,0.32563
4318.42,0.32058
4299.13,0.31644
4279.84,0.31253
4260.56,0.31180
4241.27,0.31711
4221.98,0.31998
4202.69,0.32262
4183.41,0.32476
4164.12,0.32871
4144.83,0.32657
4125.55,0.31898
4106.26,0.30491
4086.97,0.28950
4067.68,0.27301
4048.4,0.25701
4029.11,0.24635
4009.82,0.24551
3990.53,0.25001
3971.25,0.25381
3951.96,0.26076
3932.67,0.27002
3913.39,0.27830
3894.1,0.28486
3874.81,0.29242
3855.52,0.30109
3836.24,0.30863
3816.95,0.31255
3797.66,0.31411
3778.37,0.31707
3759.09,0.31361
3739.8,0.30392
3720.51,0.29210
3701.23,0.26954
3681.94,0.23322
3662.65,0.17697
3643.36,0.13343
3624.08,0.10359
3604.79,0.08341
3585.5,0.06793
3566.21,0.05609
3546.93,0.04720
3527.64,0.04232
3508.35,0.03847
3489.07,0.03722
3469.78,0.03478
3450.49,0.03360
3431.2,0.03320
3411.92,0.03240
3392.63,0.03353
3373.34,0.03378
3354.05,0.03433
3334.77,0.03463
3315.48,0.03675
3296.19,0.03866
3276.91,0.04122
3257.62,0.04435
3238.33,0.04739
3219.04,0.05230
3199.76,0.05751
3180.47,0.06244
3161.18,0.06723
3141.89,0.07191
3122.61,0.07761
3103.32,0.08285
3084.03,0.08637
3064.75,0.08975
3045.46,0.09183
3026.17,0.09133
3006.88,0.08691
2987.6,0.07941
2968.31,0.06347
2949.02,0.05571
2929.74,0.05147
2910.45,0.05096
2891.16,0.05500
2871.87,0.05858
2852.59,0.06191
2833.3,0.07680
2814.01,0.09322
2794.72,0.10146
2775.44,0.10614
2756.15,0.10900
2736.86,0.10904
2717.58,0.11207
2698.29,0.11832
2679,0.12325
2659.71,0.12594
2640.43,0.12854
2621.14,0.13299
2601.85,0.13602
2582.56,0.13878
2563.28,0.14033
2543.99,0.14099
2524.7,0.14270
2505.42,0.14733
2486.13,0.15472
2466.84,0.15994
2447.55,0.16514
2428.27,0.17054
2408.98,0.17775
2389.69,0.18310
2370.4,0.18044
2351.12,0.17841
2331.83,0.18051
2312.54,0.18642
2293.26,0.17963
2273.97,0.17491
2254.68,0.17959
2235.39,0.18554
2216.11,0.19062
2196.82,0.19018
2177.53,0.18070
2158.24,0.17072
2138.96,0.16661
2119.67,0.16743
2100.38,0.17156
2081.1,0.17382
2061.81,0.17210
2042.52,0.17354
2023.23,0.17971
2003.95,0.18747
1984.66,0.19155
1965.37,0.19069
1946.08,0.19051
1926.8,0.19496
1907.51,0.19484
1888.22,0.19503
1868.94,0.19659
1849.65,0.18469
1830.36,0.17287
1811.07,0.14942
1791.79,0.12164
1772.5,0.08726
1753.21,0.04872
1733.92,0.04505
1714.64,0.05511
1695.35,0.06027
1676.06,0.05727
1656.78,0.05264
1637.49,0.05422
1618.2,0.04893
1598.91,0.04273
1579.63,0.05558
1560.34,0.07007
1541.05,0.06008
1521.76,0.04744
1502.48,0.04125
1483.19,0.04509
1463.9,0.03558
1444.62,0.03755
1425.33,0.03527
1406.04,0.03870
1386.75,0.03502
1367.47,0.03454
1348.18,0.03614
1328.89,0.03430
1309.61,0.03660
1290.32,0.03582
1271.03,0.03223
1251.74,0.03131
1232.46,0.03187
1213.17,0.03493
1193.88,0.03373
1174.59,0.02735
1155.31,0.02948
1136.02,0.02430
1116.73,0.02742
1097.45,0.03010
1078.16,0.02938
1058.87,0.04325
1039.58,0.04612
1020.3,0.05260
1001.01,0.05263
981.722,0.05930
962.434,0.06758
943.147,0.07601
923.86,0.07269
904.573,0.06693
885.285,0.06802
865.998,0.07100
846.711,0.07105
827.424,0.06489
808.136,0.06388
788.849,0.06304
769.562,0.05922
750.274,0.05359
730.987,0.04864
711.7,0.04233
692.413,0.04267
673.125,0.03730
653.838,0.03661
634.551,0.03723
615.264,0.03744
595.976,0.03930
576.689,0.04480
557.402,0.04050
538.115,0.03933
518.827,0.04051
499.54,0.04299
480.253,0.03938
460.966,0.03422
441.678,0.04068
422.391,0.03583
403.104,0.05955
399.246,0.04566