File: 01_Data/Lightweight_Gypsum_Wallboard_Gypsum_Core/MCC/Lightweight_Gypsum_Wallboard_Core_MCC_30K_min_211129_R1.txt
Sample ID:	C:\MCC\MCC Cal\Test\LW_GypBoard_Gypsum_Core_MCC_30K_min_211129_R1.txt
Sample Weight (mg):	4.8
Heating Rate (C/s):	0.5
Combustor Temp (C):	900
N2 Flow Rate (cc/min):	80
O2 Flow Rate (cc/min):	20
Calibration File:	C:\MCC\MCC Cal\Coeff1 JN10440_30_210304.txt.txt
T Correction Coefficients:	0	1.024463	0
Time Shift (s):	14
*
Time (s)	Temperature (C)	N2 flow rate (cc/min)	O2 flow rate (cc/min)	Flow Rate (cc/min)	Oxygen (%)	HRR (W/g)	Heating rate (C/s)
0.000	108.874	80.006	19.994	103.100	20.119	-0.273	0.005
8.000	108.862	80.006	19.993	103.110	20.116	-0.065	-0.014
16.000	109.015	80.006	19.994	103.247	20.098	1.155	0.062
24.000	109.659	80.005	19.995	103.292	20.083	2.164	0.076
32.000	110.817	80.005	19.994	103.293	20.079	2.375	0.115
40.000	112.419	80.006	19.993	103.286	20.080	2.325	0.207
48.000	114.297	80.005	19.993	103.293	20.081	2.278	0.229
56.000	116.411	80.009	19.996	103.319	20.077	2.518	0.274
64.000	118.812	80.004	19.995	103.342	20.076	2.618	0.302
72.001	121.511	80.004	19.995	103.347	20.077	2.572	0.361
80.000	124.467	80.005	19.995	103.362	20.075	2.660	0.385
88.000	127.665	80.007	19.994	103.362	20.076	2.592	0.405
96.000	131.064	80.005	19.995	103.365	20.072	2.855	0.403
104.000	134.665	80.006	19.994	103.370	20.077	2.519	0.473
112.000	138.338	80.008	19.994	103.372	20.079	2.404	0.446
120.001	142.206	80.006	19.994	103.371	20.080	2.367	0.518
128.000	146.136	80.006	19.994	103.368	20.079	2.380	0.479
136.000	150.064	80.007	19.995	103.358	20.080	2.335	0.464
144.000	154.101	80.006	19.994	103.332	20.084	2.058	0.507
152.000	158.033	80.006	19.995	103.332	20.084	2.046	0.493
160.000	161.805	80.004	19.995	102.993	20.131	-1.080	0.388
168.000	164.170	80.007	19.995	102.946	20.153	-2.536	0.246
176.000	165.156	80.003	19.994	102.940	20.159	-2.948	0.058
184.000	165.214	80.004	19.994	102.941	20.166	-3.398	-0.006
192.000	164.563	80.006	19.994	102.941	20.166	-3.428	-0.079
200.000	163.382	80.008	19.994	102.940	20.168	-3.565	-0.179
208.000	161.865	80.008	19.994	102.932	20.167	-3.485	-0.190
216.000	160.089	80.005	19.994	102.939	20.169	-3.652	-0.206
224.000	158.111	80.005	19.995	102.937	20.170	-3.712	-0.249
232.000	156.118	80.007	19.995	102.942	20.171	-3.737	-0.232
240.000	154.085	80.005	19.996	102.948	20.168	-3.581	-0.261
248.000	152.037	80.005	19.995	102.950	20.171	-3.747	-0.246
256.000	149.945	80.005	19.994	102.970	20.166	-3.445	-0.243
264.000	147.885	80.004	19.994	102.974	20.168	-3.543	-0.263
272.001	145.940	80.008	19.994	102.978	20.170	-3.715	-0.243
280.000	144.011	80.005	19.993	102.965	20.158	-2.918	-0.252
288.000	143.245	80.007	19.994	104.027	20.015	6.776	0.093
296.000	146.345	80.007	19.994	103.913	19.995	8.104	0.558
304.000	152.281	80.008	19.994	103.840	19.996	8.009	0.861
312.000	160.087	80.006	19.995	103.774	20.014	6.764	1.074
320.000	169.184	80.005	19.994	103.690	20.029	5.777	1.166
328.000	178.764	80.005	19.994	103.604	20.044	4.742	1.213
336.000	188.662	80.006	19.995	103.555	20.060	3.700	1.255
344.000	198.302	80.005	19.995	103.522	20.074	2.722	1.197
352.000	207.781	80.005	19.994	103.478	20.080	2.359	1.176
360.000	216.826	80.009	19.994	103.418	20.084	2.063	1.103
368.000	225.397	80.006	19.994	103.416	20.095	1.347	1.063
376.000	233.602	80.007	19.995	103.399	20.096	1.272	0.994
384.000	241.435	80.007	19.993	103.378	20.098	1.117	0.951
392.000	248.997	80.007	19.994	103.370	20.100	0.977	0.936
400.000	256.373	80.005	19.993	103.352	20.106	0.581	0.934
408.000	263.350	80.005	19.995	103.340	20.109	0.362	0.872
416.000	270.067	80.005	19.995	103.324	20.111	0.234	0.824
424.000	276.490	80.004	19.995	103.321	20.115	-0.031	0.784
432.000	282.703	80.005	19.995	103.358	20.120	-0.347	0.775
440.000	288.714	80.008	19.994	103.299	20.121	-0.435	0.697
448.000	294.565	80.006	19.994	103.296	20.127	-0.830	0.708
456.000	300.090	80.007	19.995	103.292	20.124	-0.620	0.679
464.000	305.371	80.009	19.994	103.266	20.132	-1.140	0.652
472.000	310.382	80.005	19.993	103.258	20.133	-1.195	0.623
480.000	315.211	80.004	19.994	103.253	20.137	-1.470	0.599
488.000	319.762	80.005	19.994	103.250	20.139	-1.629	0.567
496.001	324.160	80.004	19.995	103.241	20.138	-1.549	0.539
504.000	328.454	80.004	19.994	103.245	20.142	-1.819	0.539
512.000	332.599	80.005	19.994	103.261	20.144	-1.947	0.525
520.000	336.708	80.007	19.995	103.219	20.149	-2.262	0.488
528.000	340.642	80.005	19.996	103.224	20.149	-2.290	0.446
536.000	344.522	80.007	19.994	103.219	20.146	-2.071	0.460
544.000	348.394	80.010	19.993	103.243	20.145	-2.052	0.459
552.000	352.315	80.006	19.995	103.231	20.148	-2.226	0.495
560.000	356.174	80.005	19.995	103.220	20.147	-2.158	0.482
568.000	360.063	80.006	19.994	103.222	20.146	-2.078	0.483
576.000	363.941	80.006	19.993	103.229	20.152	-2.460	0.501
584.000	367.919	80.006	19.995	103.222	20.150	-2.364	0.519
592.000	371.963	80.005	19.995	103.227	20.154	-2.642	0.492
600.000	376.090	80.008	19.995	103.232	20.151	-2.447	0.537
608.000	380.228	80.007	19.994	103.229	20.154	-2.652	0.503
616.000	384.339	80.006	19.996	103.218	20.160	-3.022	0.499
624.000	388.437	80.007	19.995	103.214	20.161	-3.067	0.518
632.001	392.582	80.006	19.994	103.214	20.159	-2.954	0.518
640.000	396.688	80.004	19.993	103.218	20.160	-3.037	0.481
648.000	400.680	80.006	19.994	103.216	20.161	-3.063	0.476
656.000	404.747	80.005	19.995	103.212	20.165	-3.384	0.508
664.000	408.824	80.006	19.995	103.215	20.166	-3.418	0.517
672.000	412.971	80.006	19.995	103.214	20.168	-3.577	0.503
680.000	417.125	80.006	19.995	103.212	20.169	-3.616	0.547
688.000	421.448	80.007	19.995	103.216	20.161	-3.130	0.576
696.000	425.824	80.007	19.994	103.222	20.167	-3.500	0.553
704.000	430.167	80.008	19.994	103.214	20.164	-3.321	0.572
712.000	434.585	80.005	19.995	103.214	20.170	-3.730	0.567
720.000	438.973	80.004	19.995	103.210	20.172	-3.822	0.498
728.000	443.234	80.008	19.994	103.220	20.173	-3.932	0.230
736.000	447.653	80.006	19.995	103.204	20.172	-3.827	0.484
744.000	451.812	80.006	19.994	103.201	20.175	-4.065	0.529
752.000	455.762	80.004	19.995	103.206	20.177	-4.185	0.505
760.000	459.637	80.006	19.992	103.193	20.180	-4.362	0.456
768.000	463.549	80.006	19.995	103.203	20.183	-4.540	0.521
776.000	467.273	80.006	19.995	103.202	20.182	-4.532	0.501
784.000	471.057	80.008	19.994	103.189	20.181	-4.413	0.482
792.000	474.922	80.006	19.995	103.204	20.184	-4.635	0.485
800.000	478.779	80.004	19.996	103.197	20.186	-4.747	0.465
808.000	482.759	80.005	19.995	103.194	20.184	-4.636	0.492
816.000	486.813	80.004	19.994	103.179	20.185	-4.728	0.508
824.000	490.900	80.004	19.993	103.205	20.185	-4.688	0.481
832.000	495.063	80.004	19.994	103.192	20.187	-4.836	0.543
840.000	499.118	80.004	19.994	103.195	20.188	-4.935	0.519
848.000	503.192	80.008	19.994	103.194	20.188	-4.909	0.478
856.000	507.261	80.005	19.994	103.182	20.188	-4.921	0.510
864.000	511.329	80.005	19.994	103.204	20.191	-5.102	0.528
872.000	515.382	80.006	19.994	103.181	20.190	-5.040	0.492
880.000	519.452	80.003	19.994	103.183	20.192	-5.152	0.525
888.000	523.462	80.005	19.995	103.185	20.191	-5.087	0.461
896.000	527.354	80.005	19.994	103.177	20.191	-5.109	0.472
904.000	531.229	80.003	19.995	103.179	20.189	-4.977	0.477
912.000	535.083	80.005	19.994	103.179	20.193	-5.272	0.479
920.000	539.040	80.007	19.994	103.196	20.199	-5.621	0.498
928.000	543.041	80.005	19.995	103.200	20.201	-5.768	0.521
936.000	547.013	80.007	19.993	103.191	20.198	-5.582	0.504
944.000	551.081	80.010	19.994	103.190	20.196	-5.418	0.507
952.000	555.127	80.005	19.994	103.193	20.196	-5.471	0.506
960.000	559.127	80.004	19.994	103.192	20.200	-5.687	0.512
968.000	563.131	80.006	19.996	103.179	20.202	-5.854	0.492
976.000	567.136	80.006	19.995	103.184	20.197	-5.497	0.519
984.000	571.118	80.004	19.996	103.183	20.199	-5.670	0.490
992.000	575.205	80.006	19.995	103.175	20.197	-5.493	0.510
1000.000	579.295	80.006	19.994	103.190	20.207	-6.149	0.507
1008.000	583.382	80.005	19.994	103.193	20.204	-5.947	0.521
1016.000	587.481	80.006	19.994	103.182	20.204	-5.950	0.489
1024.001	591.527	80.008	19.994	103.181	20.203	-5.937	0.482
1032.000	595.682	80.006	19.993	103.177	20.200	-5.707	0.532
1040.000	599.743	80.005	19.994	103.198	20.202	-5.829	0.465
1048.001	603.933	80.004	19.994	103.192	20.207	-6.181	0.505
1056.000	608.152	80.007	19.994	103.208	20.205	-6.047	0.564
1064.001	612.276	80.005	19.995	103.189	20.206	-6.097	0.510
1072.001	616.372	80.004	19.995	103.187	20.208	-6.243	0.528
1080.000	620.431	80.006	19.995	103.191	20.202	-5.817	0.538
1088.000	624.417	80.006	19.994	103.182	20.207	-6.166	0.498
1096.000	628.411	80.006	19.994	103.188	20.205	-6.038	0.537
1104.001	632.488	80.008	19.993	103.196	20.210	-6.352	0.509
1112.001	636.579	80.008	19.993	103.203	20.210	-6.382	0.530
1120.000	640.684	80.004	19.993	103.208	20.210	-6.385	0.523
1128.000	644.766	80.007	19.993	103.208	20.211	-6.457	0.500
1136.000	648.800	80.004	19.995	103.209	20.213	-6.607	0.489
1144.001	652.888	80.002	19.995	103.195	20.212	-6.494	0.514
1152.001	656.919	80.004	19.994	103.205	20.212	-6.489	0.468
1160.001	660.910	80.006	19.993	103.206	20.210	-6.410	0.501
1168.000	664.880	80.005	19.997	103.195	20.210	-6.353	0.486
1176.001	668.817	80.005	19.995	103.203	20.216	-6.773	0.503
1184.000	672.772	80.009	19.994	103.196	20.212	-6.523	0.492
1192.000	676.795	80.006	19.994	103.181	20.217	-6.872	0.513
1200.000	680.844	80.004	19.994	103.215	20.215	-6.707	0.517
1208.000	684.907	80.005	19.993	103.196	20.214	-6.643	0.506
1216.000	689.045	80.006	19.994	103.213	20.216	-6.812	0.573
1224.000	693.054	80.005	19.995	103.204	20.213	-6.591	0.514
1232.000	697.140	80.003	19.994	103.202	20.215	-6.735	0.547
1240.001	701.320	80.006	19.994	103.213	20.213	-6.605	0.533
1248.001	705.741	80.006	19.994	103.212	20.218	-6.952	0.571
1256.000	710.118	80.005	19.996	103.180	20.216	-6.781	0.545
1264.000	714.485	80.007	19.995	103.186	20.218	-6.902	0.521
1272.000	718.646	80.005	19.994	103.191	20.219	-6.975	0.509
1280.000	722.686	80.004	19.994	103.192	20.219	-6.983	0.471
1288.000	726.727	80.005	19.996	103.165	20.222	-7.209	0.453
1296.001	730.768	80.004	19.994	103.173	20.220	-7.070	0.524
1304.000	734.887	80.004	19.994	103.176	20.220	-7.083	0.507
1312.000	738.836	80.005	19.995	103.175	20.223	-7.223	0.487
1320.000	742.931	80.006	19.995	103.174	20.226	-7.442	0.513
1321.000	743.467	80.006	19.995	103.175	20.226	-7.448	0.530