File: 01_Data/Hemp_Sheets/STA/N2/10K_min/Hemp_Sheet_STA_N2_10KData_22274_R3.csv
##Temp./Â°C,Time/min,DSC(subtr.2)/(mW/mg),Mass loss(subtr.2)/mg,Sensit./(uV/mW)
49.721,10.01,0.02606296,-0.06219,1.06051
52.521,11.25496,0.12508,-0.06664049,1.05993
55.321,11.67068,0.17383,-0.06969816,1.05934
58.121,12.01878,0.2068,-0.06563485,1.05873
60.921,12.34414,0.22885,-0.0682215,1.0581
63.721,12.65666,0.24542,-0.07185521,1.05746
66.521,12.96146,0.25823,-0.07315927,1.05681
69.321,13.26397,0.26941,-0.07250003,1.05614
72.121,13.56166,0.28109,-0.08070275,1.05546
74.921,13.85735,0.29143,-0.07839711,1.05476
77.721,14.1498,0.29888,-0.08171363,1.05405
80.521,14.43896,0.30352,-0.0805099,1.05333
83.321,14.726,0.30802,-0.08201216,1.05259
86.121,15.011,0.3111,-0.08939972,1.05183
88.921,15.2935,0.3079,-0.08347428,1.05106
91.721,15.57298,0.30764,-0.09820829,1.05028
94.521,15.85155,0.30469,-0.0918099,1.04949
97.321,16.12868,0.30053,-0.09180994,1.04868
100.121,16.40423,0.29595,-0.09424376,1.04785
102.921,16.67938,0.28856,-0.10124,1.04702
105.721,16.95295,0.28522,-0.10246,1.04617
108.521,17.22664,0.279,-0.09319783,1.0453
111.321,17.50036,0.27534,-0.0969601,1.04442
114.121,17.77299,0.27195,-0.10235,1.04353
116.921,18.04557,0.27157,-0.09949305,1.04263
119.721,18.31881,0.26969,-0.10211,1.04171
122.521,18.59036,0.27017,-0.10015,1.04078
125.321,18.86178,0.26792,-0.10254,1.03983
128.121,19.13368,0.2663,-0.10382,1.03887
130.921,19.40505,0.2659,-0.10522,1.0379
133.721,19.67471,0.26767,-0.10146,1.03691
136.521,19.94642,0.2682,-0.10247,1.03592
139.321,20.21631,0.26993,-0.10378,1.0349
142.121,20.4861,0.27145,-0.10179,1.03388
144.921,20.75478,0.27361,-0.1077,1.03284
147.721,21.02358,0.27425,-0.10619,1.03179
150.521,21.2927,0.27629,-0.10341,1.03073
153.321,21.56126,0.27774,-0.10698,1.02965
156.121,21.8305,0.27747,-0.10453,1.02856
158.921,22.09845,0.27983,-0.10321,1.02746
161.721,22.36686,0.28194,-0.1087,1.02635
164.521,22.63589,0.28481,-0.10443,1.02522
167.321,22.9042,0.28674,-0.10445,1.02408
170.121,23.17336,0.28681,-0.10859,1.02293
172.921,23.44121,0.2886,-0.10332,1.02177
175.721,23.70929,0.29526,-0.11405,1.02059
178.521,23.9772,0.29545,-0.11309,1.01941
181.321,24.24544,0.29694,-0.10903,1.01821
184.121,24.51335,0.29797,-0.10804,1.01699
186.921,24.78081,0.29832,-0.1098,1.01577
189.721,25.04851,0.30082,-0.1066,1.01453
192.521,25.31561,0.30368,-0.11058,1.01329
195.321,25.58265,0.30592,-0.11144,1.01203
198.121,25.84941,0.30765,-0.1144,1.01075
200.921,26.1159,0.30866,-0.11568,1.00947
203.721,26.38267,0.30943,-0.11858,1.00818
206.521,26.64984,0.31209,-0.12208,1.00687
209.321,26.91593,0.31314,-0.11788,1.00555
212.121,27.1826,0.31348,-0.11778,1.00422
214.921,27.44916,0.3164,-0.11522,1.00288
217.721,27.71469,0.31613,-0.12048,1.00153
220.521,27.98159,0.31764,-0.12307,1.00016
223.321,28.24799,0.32006,-0.12591,0.99879
226.121,28.51378,0.31931,-0.12364,0.9974
228.921,28.78012,0.32105,-0.12986,0.99601
231.721,29.0455,0.32421,-0.12832,0.9946
234.521,29.313,0.32539,-0.13097,0.99318
237.321,29.57968,0.3275,-0.13381,0.99175
240.121,29.8467,0.32601,-0.14012,0.99031
242.921,30.11412,0.32707,-0.1379,0.98886
245.721,30.38131,0.33077,-0.14128,0.9874
248.521,30.64875,0.33055,-0.14034,0.98592
251.321,30.91582,0.33177,-0.14416,0.98444
254.121,31.18348,0.3362,-0.1481,0.98295
256.921,31.4507,0.33877,-0.1573,0.98144
259.721,31.7176,0.34307,-0.16245,0.97993
262.521,31.9842,0.34509,-0.16257,0.9784
265.321,32.25141,0.3443,-0.16947,0.97687
268.121,32.51831,0.34685,-0.17484,0.97532
270.921,32.78606,0.35006,-0.17812,0.97377
273.721,33.05335,0.34582,-0.18728,0.9722
276.521,33.321,0.34796,-0.18787,0.97063
279.321,33.5888,0.34966,-0.20534,0.96904
282.121,33.85669,0.3514,-0.20572,0.96745
284.921,34.1244,0.35217,-0.21731,0.96584
287.721,34.39273,0.35916,-0.22774,0.96423
290.521,34.66063,0.36197,-0.23666,0.96261
293.321,34.92901,0.36511,-0.25086,0.96097
296.121,35.1972,0.3725,-0.26222,0.95933
298.921,35.46445,0.38165,-0.27376,0.95768
301.721,35.73316,0.38994,-0.2919,0.95602
304.521,36.0011,0.39557,-0.30647,0.95434
307.321,36.26933,0.40805,-0.33077,0.95266
310.121,36.5375,0.4172,-0.35287,0.95098
312.921,36.80621,0.42968,-0.36959,0.94928
315.721,37.07535,0.44262,-0.39698,0.94757
318.521,37.34468,0.4607,-0.42472,0.94585
321.321,37.6139,0.48348,-0.46057,0.94413
324.121,37.8829,0.5085,-0.49694,0.94239
326.921,38.15256,0.53475,-0.53932,0.94065
329.721,38.4218,0.57213,-0.58035,0.9389
332.521,38.69233,0.61045,-0.63509,0.93714
335.321,38.9623,0.65496,-0.69615,0.93537
338.121,39.23238,0.71207,-0.76448,0.93359
340.921,39.5033,0.77872,-0.8469,0.93181
343.721,39.77415,0.85482,-0.93182,0.93001
346.521,40.0448,0.9468,-1.03237,0.92821
349.321,40.31661,1.05189,-1.15215,0.9264
352.121,40.5888,1.17725,-1.28944,0.92458
354.921,40.8608,1.31823,-1.43734,0.92275
357.721,41.133,1.47086,-1.62172,0.92092
360.521,41.40648,1.62558,-1.81496,0.91908
363.321,41.6795,1.76237,-2.03447,0.91723
366.121,41.95248,1.85607,-2.27154,0.91537
368.921,42.22472,1.88235,-2.51683,0.9135
371.721,42.49674,1.80852,-2.76146,0.91163
374.521,42.7677,1.61673,-2.99204,0.90975
377.321,43.03736,1.3114,-3.17314,0.90786
380.121,43.3062,0.92245,-3.31699,0.90596
382.921,43.5736,0.5363,-3.4123,0.90405
385.721,43.8421,0.24008,-3.46211,0.90214
388.521,44.11068,0.06413689,-3.48747,0.90022
391.321,44.38005,-0.005060182,-3.50305,0.8983
394.121,44.6507,-0.02807434,-3.506,0.89636
396.921,44.92075,-0.03622148,-3.50996,0.89442
399.721,45.19307,-0.04611057,-3.51039,0.89248
402.521,45.4653,-0.05182445,-3.51749,0.89052
405.321,45.73697,-0.0541817,-3.5241,0.88856
408.121,46.00998,-0.05722519,-3.52411,0.88659
410.921,46.2826,-0.06464328,-3.52728,0.88462
413.721,46.5557,-0.06364509,-3.53248,0.88264
416.521,46.82952,-0.06751025,-3.53749,0.88065
419.321,47.10282,-0.06904322,-3.5367,0.87865
422.121,47.37661,-0.07505201,-3.53963,0.87665
424.921,47.65011,-0.07358585,-3.54538,0.87464
427.721,47.92411,-0.07928707,-3.549,0.87263
430.521,48.19883,-0.08258927,-3.54867,0.87061
433.321,48.47298,-0.08110037,-3.55569,0.86858
436.121,48.74855,-0.0855794,-3.56173,0.86655
438.921,49.02304,-0.08863696,-3.55784,0.86451
441.721,49.2973,-0.08785404,-3.56402,0.86246
444.521,49.57199,-0.08761453,-3.57302,0.86041
447.321,49.84695,-0.09078948,-3.57172,0.85835
450.121,50.1224,-0.09234152,-3.57986,0.85629
452.921,50.39796,-0.09874103,-3.57263,0.85422
455.721,50.6728,-0.09591566,-3.58916,0.85214
458.521,50.94792,-0.09630156,-3.58567,0.85006
461.321,51.22285,-0.10309,-3.58309,0.84798
464.121,51.49804,-0.10074,-3.5906,0.84589
466.921,51.7737,-0.09993594,-3.592,0.84379
469.721,52.04918,-0.09925997,-3.5988,0.84169
472.521,52.32546,-0.10037,-3.60284,0.83958
475.321,52.60057,-0.09912237,-3.60022,0.83746
478.121,52.87729,-0.10354,-3.60023,0.83534
480.921,53.15294,-0.10103,-3.60449,0.83322
483.721,53.42974,-0.1029,-3.61207,0.83109
486.521,53.7065,-0.10684,-3.61108,0.82896
489.321,53.9825,-0.10399,-3.61372,0.82682
492.121,54.25815,-0.10595,-3.61462,0.82467
494.921,54.53501,-0.10763,-3.61997,0.82252
497.721,54.8111,-0.11206,-3.6203,0.82037
500.521,55.08784,-0.11746,-3.62293,0.81821
503.321,55.36416,-0.11945,-3.62688,0.81605
506.121,55.6411,-0.12254,-3.62242,0.81388
508.921,55.9186,-0.12415,-3.63049,0.81171
511.721,56.19615,-0.12911,-3.63151,0.80953
514.521,56.47297,-0.13329,-3.63463,0.80735
517.321,56.7508,-0.14046,-3.63231,0.80516
520.121,57.02955,-0.14308,-3.63577,0.80297
522.921,57.30771,-0.14987,-3.63587,0.80078
525.721,57.5853,-0.15058,-3.63844,0.79858
528.521,57.8636,-0.15177,-3.63946,0.79638
531.321,58.1417,-0.15552,-3.64005,0.79417
534.121,58.42054,-0.15726,-3.64004,0.79196
536.921,58.69857,-0.16056,-3.64673,0.78974
539.721,58.97736,-0.16319,-3.64041,0.78752
542.521,59.2555,-0.16441,-3.6495,0.7853
545.321,59.53365,-0.17131,-3.64439,0.78307
548.121,59.81245,-0.16965,-3.65259,0.78084
550.921,60.091,-0.17281,-3.64945,0.77861
553.721,60.3694,-0.17418,-3.65266,0.77637
556.521,60.6485,-0.1731,-3.65529,0.77413
559.321,60.92739,-0.17574,-3.65604,0.77189
562.121,61.2065,-0.18048,-3.65237,0.76964
564.921,61.4855,-0.18589,-3.65725,0.76739
567.721,61.76497,-0.18082,-3.65584,0.76513
570.521,62.04521,-0.18084,-3.65737,0.76287
573.321,62.32461,-0.17922,-3.66176,0.76061
576.121,62.60462,-0.17867,-3.66239,0.75835
578.921,62.88499,-0.17991,-3.65757,0.75608
581.721,63.16559,-0.18051,-3.66373,0.75381
584.521,63.44514,-0.18126,-3.66306,0.75154
587.321,63.72535,-0.18209,-3.66477,0.74926
590.121,64.00545,-0.18341,-3.66589,0.74698
592.921,64.2861,-0.1854,-3.66439,0.7447
595.721,64.5672,-0.17784,-3.67656,0.74242
598.521,64.84767,-0.18579,-3.66325,0.74013
601.321,65.1288,-0.18308,-3.67192,0.73784
604.121,65.40958,-0.18677,-3.66932,0.73555
606.921,65.69041,-0.18436,-3.67196,0.73325
609.721,65.97104,-0.18852,-3.67125,0.73095
612.521,66.25106,-0.18759,-3.67024,0.72865
615.321,66.53118,-0.18616,-3.67024,0.72635
618.121,66.81143,-0.18731,-3.67414,0.72405
620.921,67.09227,-0.19032,-3.6792,0.72174
623.721,67.3737,-0.19297,-3.67829,0.71943
626.521,67.6545,-0.19558,-3.67091,0.71712
629.321,67.93576,-0.19664,-3.68139,0.71481
632.121,68.21704,-0.19426,-3.67876,0.71249
634.921,68.49885,-0.20114,-3.67773,0.71018
637.721,68.7799,-0.20138,-3.67909,0.70786
640.521,69.06146,-0.20459,-3.68016,0.70554
643.321,69.34334,-0.20666,-3.68355,0.70321
646.121,69.62552,-0.20345,-3.68337,0.70089
648.921,69.9082,-0.21344,-3.67679,0.69856
651.721,70.1902,-0.21516,-3.67797,0.69624
654.521,70.47304,-0.2105,-3.68413,0.69391
657.321,70.7551,-0.21553,-3.6792,0.69158
660.121,71.0365,-0.21608,-3.68316,0.68925
662.921,71.31854,-0.22173,-3.68716,0.68691
665.721,71.60039,-0.22318,-3.68242,0.68458
668.521,71.88294,-0.23059,-3.68537,0.68224
671.321,72.16601,-0.23111,-3.68567,0.67991
674.121,72.4491,-0.23407,-3.6857,0.67757
676.921,72.7317,-0.23569,-3.68324,0.67523
679.721,73.01536,-0.24219,-3.68502,0.67289
682.521,73.29796,-0.24496,-3.68056,0.67055
685.321,73.58078,-0.2415,-3.68479,0.66821
688.121,73.86357,-0.24391,-3.68796,0.66586
690.921,74.14599,-0.2466,-3.6905,0.66352
693.721,74.4281,-0.25191,-3.68122,0.66118
696.521,74.70976,-0.25258,-3.6894,0.65883
699.321,74.9918,-0.2519,-3.6905,0.65649