File: 01_Data/Hemp_Sheets/STA/N2/10K_min/Hemp_Sheet_STA_N2_10KData_22274_R2.csv
##Temp./Â°C,Time/min,DSC(subtr.2)/(mW/mg),Mass loss(subtr.2)/mg,Sensit./(uV/mW)
49.647,10.01,0.01010002,0.00658,1.06053
52.547,11.27232,0.11779,0.00581336,1.05993
55.447,11.69572,0.17268,0.006816747,1.05931
58.347,12.05303,0.20948,0.00484826,1.05868
61.247,12.38658,0.23158,0.004941666,1.05803
64.147,12.70698,0.24577,0.001497933,1.05736
67.047,13.0219,0.25775,0.000881528,1.05669
69.947,13.3324,0.27218,0.001085711,1.05599
72.847,13.6397,0.28045,0.000548765,1.05528
75.747,13.94423,0.29497,-0.00207128,1.05455
78.647,14.24598,0.30328,-0.004756144,1.05381
81.547,14.54491,0.31121,-0.001356486,1.05306
84.447,14.84075,0.31524,-0.005298469,1.05228
87.347,15.1336,0.32244,-0.005597383,1.0515
90.247,15.42579,0.32314,-0.007785821,1.0507
93.147,15.71522,0.32381,-0.009257627,1.04988
96.047,16.0032,0.32168,-0.00861329,1.04905
98.947,16.289,0.31924,-0.01063906,1.0482
101.847,16.57391,0.31616,-0.00997495,1.04734
104.747,16.85913,0.31003,-0.01124452,1.04646
107.647,17.1429,0.30791,-0.00957484,1.04557
110.547,17.42631,0.30459,-0.01264973,1.04467
113.447,17.70917,0.30102,-0.01536925,1.04375
116.347,17.99144,0.29814,-0.01059913,1.04281
119.247,18.2734,0.29875,-0.01264771,1.04186
122.147,18.55518,0.29647,-0.01217849,1.0409
125.047,18.83659,0.29802,-0.008327505,1.03992
127.947,19.1186,0.29932,-0.01097003,1.03893
130.847,19.39854,0.29962,-0.00801003,1.03792
133.747,19.6797,0.30174,-0.01095657,1.0369
136.647,19.96049,0.30388,-0.01163597,1.03587
139.547,20.2405,0.30657,-0.01098375,1.03482
142.447,20.52006,0.30831,-0.01096801,1.03376
145.347,20.79891,0.31097,-0.009655041,1.03268
148.247,21.07679,0.31386,-0.00695892,1.03159
151.147,21.3551,0.31867,-0.006987655,1.03049
154.047,21.633,0.32119,-0.0112841,1.02937
156.947,21.91161,0.32322,-0.009985692,1.02824
159.847,22.18993,0.32367,-0.00734984,1.0271
162.747,22.46794,0.32533,-0.00997675,1.02594
165.647,22.74638,0.33117,-0.008990175,1.02477
168.547,23.0241,0.33303,-0.00802897,1.02358
171.447,23.30198,0.33555,-0.009214614,1.02238
174.347,23.57957,0.33992,-0.006106125,1.02117
177.247,23.85647,0.34439,-0.009979991,1.01995
180.147,24.13338,0.34522,-0.008120036,1.01871
183.047,24.41085,0.35026,-0.009428642,1.01746
185.947,24.68773,0.35128,-0.009409084,1.0162
188.847,24.96414,0.35308,-0.008120073,1.01492
191.747,25.2401,0.35579,-0.008121199,1.01363
194.647,25.51677,0.36009,-0.01075034,1.01233
197.547,25.79287,0.36169,-0.009445458,1.01102
200.447,26.06938,0.36192,-0.01240268,1.00969
203.347,26.34618,0.36672,-0.01338454,1.00835
206.247,26.62237,0.36701,-0.01207338,1.007
209.147,26.8987,0.36723,-0.008446415,1.00563
212.047,27.1749,0.3737,-0.01131182,1.00426
214.947,27.45102,0.37629,-0.01733001,1.00287
217.847,27.7275,0.37542,-0.01459105,1.00147
220.747,28.0039,0.3791,-0.01625821,1.00005
223.647,28.27996,0.38274,-0.01918999,0.99863
226.547,28.5564,0.38391,-0.02018055,0.99719
229.447,28.83235,0.38582,-0.01873485,0.99574
232.347,29.10868,0.38873,-0.02222116,0.99428
235.247,29.38461,0.39114,-0.02616942,0.99281
238.147,29.66055,0.39356,-0.02358853,0.99133
241.047,29.93703,0.39541,-0.02752889,0.98983
243.947,30.21371,0.39833,-0.02986176,0.98832
246.847,30.48971,0.40049,-0.03322985,0.98681
249.747,30.7667,0.40226,-0.03458373,0.98528
252.647,31.0432,0.40546,-0.03980642,0.98373
255.547,31.32,0.40925,-0.04245,0.98218
258.447,31.59635,0.41272,-0.04540991,0.98062
261.347,31.87245,0.41403,-0.04805078,0.97904
264.247,32.149,0.41749,-0.05487293,0.97746
267.147,32.4264,0.41956,-0.05693804,0.97586
270.047,32.7033,0.41956,-0.06299141,0.97426
272.947,32.9803,0.42117,-0.06900064,0.97264
275.847,33.2579,0.42412,-0.0770183,0.97101
278.747,33.5355,0.42303,-0.08178158,0.96937
281.647,33.81286,0.42711,-0.0887877,0.96772
284.547,34.09015,0.42988,-0.09884758,0.96606
287.447,34.36743,0.43381,-0.1094,0.96439
290.347,34.64503,0.44019,-0.12063,0.96271
293.247,34.9224,0.44622,-0.13374,0.96102
296.147,35.1999,0.4515,-0.14083,0.95931
299.047,35.47672,0.45732,-0.15626,0.9576
301.947,35.756,0.46729,-0.17117,0.95588
304.847,36.03456,0.4731,-0.18849,0.95415
307.747,36.31398,0.48563,-0.20941,0.95241
310.647,36.59243,0.50055,-0.23114,0.95066
313.547,36.87096,0.51666,-0.24898,0.9489
316.447,37.14913,0.53448,-0.28467,0.94713
319.347,37.42719,0.55598,-0.31408,0.94535
322.247,37.7059,0.57991,-0.3495,0.94356
325.147,37.98507,0.60959,-0.38624,0.94176
328.047,38.26433,0.63851,-0.43168,0.93995
330.947,38.5433,0.67735,-0.48142,0.93813
333.847,38.8227,0.72372,-0.53521,0.9363
336.747,39.10218,0.77525,-0.60408,0.93447
339.647,39.3818,0.83962,-0.68002,0.93262
342.547,39.6621,0.91235,-0.76327,0.93077
345.447,39.94247,0.99584,-0.86485,0.9289
348.347,40.22318,1.09882,-0.97829,0.92703
351.247,40.5051,1.222,-1.10882,0.92515
354.147,40.78675,1.35918,-1.26076,0.92326
357.047,41.0687,1.51217,-1.43418,0.92136
359.947,41.3506,1.66961,-1.63398,0.91946
362.847,41.63286,1.81398,-1.86253,0.91754
365.747,41.91547,1.91785,-2.09659,0.91562
368.647,42.19801,1.95178,-2.35827,0.91368
371.547,42.47954,1.88281,-2.60499,0.91174
374.447,42.76027,1.69427,-2.83254,0.90979
377.347,43.03969,1.37995,-3.03446,0.90784
380.247,43.3177,0.98704,-3.17676,0.90587
383.147,43.59513,0.59665,-3.27194,0.9039
386.047,43.8731,0.3088,-3.32314,0.90192
388.947,44.1514,0.15085,-3.3467,0.89993
391.847,44.4307,0.09210328,-3.35383,0.89794
394.747,44.71115,0.07489933,-3.36254,0.89593
397.647,44.99208,0.06899716,-3.36676,0.89392
400.547,45.27475,0.0649571,-3.36978,0.8919
403.447,45.5569,0.06215646,-3.37712,0.88987
406.347,45.84012,0.06010856,-3.37998,0.88784
409.247,46.12288,0.05986003,-3.38261,0.8858
412.147,46.40602,0.05828021,-3.38392,0.88375
415.047,46.68912,0.05817715,-3.39436,0.88169
417.947,46.9723,0.05509664,-3.39301,0.87963
420.847,47.2559,0.05314293,-3.39653,0.87756
423.747,47.5396,0.05048882,-3.39894,0.87548
426.647,47.82366,0.05216858,-3.40587,0.8734
429.547,48.10714,0.05347904,-3.40947,0.87131
432.447,48.39114,0.05105146,-3.40859,0.86921
435.347,48.67548,0.05402961,-3.41485,0.86711
438.247,48.95986,0.05542131,-3.4156,0.865
441.147,49.244,0.05211274,-3.41911,0.86288
444.047,49.52913,0.05371063,-3.42297,0.86076
446.947,49.81418,0.05254801,-3.42932,0.85863
449.847,50.0995,0.05438737,-3.43109,0.85649
452.747,50.38478,0.0520718,-3.43263,0.85435
455.647,50.66964,0.05575751,-3.43691,0.8522
458.547,50.95483,0.05712986,-3.43953,0.85004
461.447,51.23968,0.05847492,-3.44349,0.84788
464.347,51.52424,0.05961367,-3.44391,0.84572
467.247,51.80953,0.05810492,-3.44866,0.84354
470.147,52.0953,0.05448826,-3.45163,0.84137
473.047,52.3814,0.05836311,-3.45783,0.83918
475.947,52.6682,0.05799242,-3.4595,0.83699
478.847,52.9542,0.06129229,-3.45884,0.83479
481.747,53.24117,0.06274226,-3.4618,0.83259
484.647,53.52684,0.06731988,-3.4641,0.83039
487.547,53.814,0.07063948,-3.46673,0.82817
490.447,54.10089,0.07263041,-3.4721,0.82596
493.347,54.3878,0.06958913,-3.47211,0.82373
496.247,54.6747,0.07186339,-3.47607,0.82151
499.147,54.9618,0.06617041,-3.47508,0.81927
502.047,55.249,0.06708365,-3.47806,0.81703
504.947,55.5358,0.06455998,-3.48188,0.81479
507.847,55.8224,0.0615532,-3.48091,0.81254
510.747,56.1096,0.05941702,-3.4845,0.81029
513.647,56.39725,0.05279528,-3.48539,0.80803
516.547,56.6853,0.05388571,-3.48438,0.80577
519.447,56.97348,0.05306753,-3.48828,0.8035
522.347,57.26174,0.05091219,-3.48989,0.80123
525.247,57.5499,0.0494007,-3.49219,0.79895
528.147,57.83758,0.04399138,-3.49221,0.79667
531.047,58.1251,0.04759135,-3.49623,0.79439
533.947,58.41384,0.0446906,-3.49602,0.7921
536.847,58.7022,0.04404851,-3.49723,0.7898
539.747,58.9901,0.03699168,-3.50129,0.7875
542.647,59.27865,0.03924268,-3.50096,0.7852
545.547,59.5673,0.03855968,-3.50228,0.78289
548.447,59.85637,0.03686252,-3.50308,0.78058
551.347,60.1454,0.03566473,-3.50422,0.77827
554.247,60.4339,0.03505677,-3.50622,0.77595
557.147,60.7228,0.03033418,-3.50622,0.77363
560.047,61.0122,0.03166999,-3.50885,0.7713
562.947,61.30134,0.03080963,-3.51022,0.76897
565.847,61.5909,0.0285382,-3.50621,0.76664
568.747,61.88049,0.03106305,-3.51149,0.76431
571.647,62.17037,0.02602587,-3.51236,0.76197
574.547,62.4612,0.0266808,-3.51073,0.75962
577.447,62.75159,0.0278587,-3.51665,0.75728
580.347,63.0415,0.02606563,-3.51597,0.75493
583.247,63.3312,0.02795685,-3.51631,0.75257
586.147,63.62079,0.03079532,-3.51763,0.75022
589.047,63.91109,0.02339264,-3.51806,0.74786
591.947,64.20098,0.029576,-3.52158,0.74549
594.847,64.4905,0.02402749,-3.51763,0.74313
597.747,64.78147,0.02617364,-3.52124,0.74076
600.647,65.07169,0.02672476,-3.52125,0.73839
603.547,65.362,0.03070148,-3.5222,0.73602
606.447,65.6523,0.02566117,-3.5254,0.73364
609.347,65.9421,0.02999578,-3.52223,0.73126
612.247,66.2327,0.02911088,-3.51961,0.72888
615.147,66.52416,0.03222343,-3.52542,0.72649
618.047,66.81483,0.03601412,-3.52454,0.72411
620.947,67.10558,0.03577366,-3.52739,0.72172
623.847,67.39704,0.03651669,-3.53298,0.71933
626.747,67.68887,0.03705248,-3.52619,0.71693
629.647,67.98008,0.04076664,-3.52652,0.71454
632.547,68.27163,0.03650572,-3.52821,0.71214
635.447,68.56278,0.03852925,-3.52973,0.70974
638.347,68.85387,0.03969615,-3.52971,0.70734
641.247,69.14496,0.03874881,-3.53211,0.70493
644.147,69.43697,0.04286227,-3.53233,0.70253
647.047,69.72905,0.04825397,-3.53475,0.70012
649.947,70.0209,0.0445242,-3.53079,0.69771
652.847,70.3129,0.0484728,-3.53365,0.6953
655.747,70.60454,0.04759384,-3.53781,0.69289
658.647,70.8959,0.0468223,-3.53583,0.69047
661.547,71.18812,0.0489932,-3.53681,0.68806
664.447,71.48057,0.04731765,-3.53683,0.68564
667.347,71.77317,0.04936641,-3.5392,0.68322
670.247,72.06597,0.04560353,-3.53682,0.6808
673.147,72.35925,0.04720505,-3.53916,0.67838
676.047,72.65303,0.04776188,-3.5354,0.67596
678.947,72.946,0.05054486,-3.5355,0.67354
681.847,73.2393,0.05822411,-3.54034,0.67111
684.747,73.53233,0.06072286,-3.54034,0.66869
687.647,73.82502,0.06362657,-3.53971,0.66626
690.547,74.11848,0.06431342,-3.54133,0.66383
693.447,74.4102,0.06877735,-3.54245,0.66141
696.347,74.70302,0.07210442,-3.5441,0.65898
699.247,74.99585,0.07687148,-3.54846,0.65655