File: 01_Data/Lightweight_Gypsum_Wallboard_Painted_Paper/STA/N2/10K_min/Lightweight_Gypsum_Wallboard_Painted_Paper_STA_N2_10KData_222202_R2.csv
##Temp./Â°C,Time/min,Mass loss(subtr.2)/mg,DSC(subtr.2)/(mW/mg),Sensit./(uV/mW)
49.788,10.00917,-0.00867,0.02564091,1.07511
52.788,11.28369,-0.01250614,0.12362,1.07355
55.788,11.71735,-0.01160105,0.17228,1.07198
58.788,12.08563,-0.01249222,0.20135,1.07042
61.788,12.42867,-0.01458892,0.22539,1.06886
64.788,12.7606,-0.01418542,0.23872,1.06731
67.788,13.0866,-0.01415341,0.25024,1.06575
70.788,13.4088,-0.01641817,0.26224,1.0642
73.788,13.72621,-0.01522627,0.27067,1.06264
76.788,14.04009,-0.01860661,0.28341,1.06109
79.788,14.3529,-0.0234001,0.29311,1.05954
82.788,14.66092,-0.02075218,0.29842,1.05799
85.788,14.96693,-0.02361589,0.3051,1.05644
88.788,15.269,-0.02324404,0.30806,1.0549
91.788,15.57081,-0.02446014,0.30929,1.05335
94.788,15.8705,-0.02576599,0.30618,1.05181
97.788,16.16881,-0.02543953,0.30511,1.05027
100.788,16.4654,-0.027927,0.3028,1.04873
103.788,16.7616,-0.02906906,0.30251,1.04719
106.788,17.0567,-0.03050001,0.30302,1.04565
109.788,17.3503,-0.0291799,0.30462,1.04412
112.788,17.64286,-0.02918011,0.30818,1.04258
115.788,17.93658,-0.03047284,0.30252,1.04105
118.788,18.23003,-0.03048849,0.29912,1.03952
121.788,18.52285,-0.03061365,0.29844,1.03798
124.788,18.8154,-0.03312,0.2981,1.03645
127.788,19.1078,-0.03212704,0.29784,1.03493
130.788,19.39846,-0.03224086,0.29824,1.0334
133.788,19.68958,-0.02830184,0.29948,1.03187
136.788,19.9807,-0.03498942,0.30162,1.03035
139.788,20.27113,-0.03202555,0.30261,1.02882
142.788,20.5615,-0.0306959,0.30456,1.0273
145.788,20.85141,-0.03443634,0.30554,1.02578
148.788,21.14087,-0.0324838,0.30784,1.02426
151.788,21.43025,-0.03523811,0.31162,1.02274
154.788,21.71811,-0.03347491,0.31213,1.02122
157.788,22.00729,-0.03169864,0.31594,1.0197
160.788,22.29491,-0.03466,0.31923,1.01818
163.788,22.58286,-0.03498407,0.32261,1.01667
166.788,22.87131,-0.0346568,0.3279,1.01515
169.788,23.15867,-0.03728745,0.32879,1.01364
172.788,23.44674,-0.03730004,0.33401,1.01212
175.788,23.73384,-0.03598658,0.33752,1.01061
178.788,24.02072,-0.03734952,0.34008,1.0091
181.788,24.30767,-0.0423162,0.34001,1.00758
184.788,24.59447,-0.04200318,0.34204,1.00607
187.788,24.88136,-0.04272555,0.34741,1.00456
190.788,25.1688,-0.04354327,0.34798,1.00305
193.788,25.45525,-0.04460264,0.34856,1.00153
196.788,25.74246,-0.04514058,0.35263,1.00002
199.788,26.03019,-0.04388368,0.35331,0.99851
202.788,26.3174,-0.04912453,0.35806,0.997
205.788,26.6038,-0.04947,0.36218,0.99549
208.788,26.8903,-0.05022995,0.3652,0.99398
211.788,27.1772,-0.05896437,0.3702,0.99247
214.788,27.46365,-0.05802302,0.37024,0.99095
217.788,27.7506,-0.05934049,0.37643,0.98944
220.788,28.03742,-0.06363108,0.37851,0.98793
223.788,28.32367,-0.06422816,0.38138,0.98642
226.788,28.6104,-0.06538023,0.38531,0.9849
229.788,28.89718,-0.07327498,0.38954,0.98339
232.788,29.18351,-0.07891639,0.39084,0.98187
235.788,29.47035,-0.08249001,0.39328,0.98036
238.788,29.75735,-0.08705038,0.38799,0.97884
241.788,30.04393,-0.09034817,0.3896,0.97733
244.788,30.3304,-0.0929031,0.39006,0.97581
247.788,30.6171,-0.1014,0.39249,0.97429
250.788,30.90325,-0.10607,0.39337,0.97277
253.788,31.1905,-0.11276,0.3957,0.97125
256.788,31.47715,-0.11737,0.39802,0.96972
259.788,31.76445,-0.12531,0.40137,0.9682
262.788,32.05157,-0.13186,0.40563,0.96667
265.788,32.3392,-0.14566,0.40752,0.96515
268.788,32.6269,-0.15063,0.40908,0.96362
271.788,32.9144,-0.16281,0.41708,0.96209
274.788,33.2021,-0.17326,0.42368,0.96056
277.788,33.48969,-0.19669,0.43221,0.95902
280.788,33.77767,-0.20764,0.44092,0.95749
283.788,34.06432,-0.22413,0.45066,0.95595
286.788,34.3524,-0.24379,0.45984,0.95441
289.788,34.63885,-0.25577,0.46803,0.95287
292.788,34.92654,-0.27804,0.48449,0.95132
295.788,35.21542,-0.3031,0.49444,0.94977
298.788,35.50335,-0.33328,0.50727,0.94823
301.788,35.79142,-0.3534,0.51785,0.94667
304.788,36.08013,-0.38996,0.52929,0.94512
307.788,36.36857,-0.42079,0.54293,0.94356
310.788,36.65784,-0.45127,0.556,0.942
313.788,36.9471,-0.48961,0.57021,0.94044
316.788,37.2372,-0.53055,0.58588,0.93887
319.788,37.52724,-0.56535,0.59933,0.9373
322.788,37.81698,-0.60969,0.61898,0.93573
325.788,38.107,-0.65944,0.63888,0.93416
328.788,38.39707,-0.70732,0.66304,0.93258
331.788,38.68691,-0.75781,0.69065,0.93099
334.788,38.9773,-0.81894,0.72211,0.92941
337.788,39.2682,-0.88094,0.76168,0.92782
340.788,39.55903,-0.95237,0.80651,0.92623
343.788,39.84993,-1.02864,0.84929,0.92463
346.788,40.14076,-1.11205,0.88942,0.92303
349.788,40.43162,-1.19894,0.9207,0.92142
352.788,40.72292,-1.29178,0.93759,0.91981
355.788,41.01383,-1.3852,0.93124,0.9182
358.788,41.30508,-1.47379,0.89437,0.91658
361.788,41.59538,-1.55556,0.82679,0.91496
364.788,41.88612,-1.63668,0.73633,0.91334
367.788,42.1764,-1.69192,0.62991,0.91171
370.788,42.46662,-1.74216,0.52441,0.91007
373.788,42.75748,-1.77867,0.43587,0.90843
376.788,43.04817,-1.80709,0.38389,0.90679
379.788,43.3395,-1.82818,0.35993,0.90514
382.788,43.63167,-1.84418,0.3586,0.90348
385.788,43.92371,-1.87194,0.36777,0.90182
388.788,44.21606,-1.89572,0.37689,0.90016
391.788,44.5084,-1.92003,0.39301,0.89849
394.788,44.80108,-1.9536,0.40195,0.89681
397.788,45.09301,-1.98159,0.40158,0.89513
400.788,45.38565,-2.02438,0.39987,0.89345
403.788,45.6777,-2.04637,0.38574,0.89176
406.788,45.97012,-2.08465,0.35838,0.89006
409.788,46.26318,-2.11319,0.32196,0.88836
412.788,46.55588,-2.13829,0.27877,0.88665
415.788,46.84851,-2.15878,0.24169,0.88494
418.788,47.14227,-2.17108,0.21855,0.88322
421.788,47.43548,-2.1807,0.20167,0.88149
424.788,47.72972,-2.18658,0.19368,0.87976
427.788,48.0236,-2.19274,0.18871,0.87802
430.788,48.3174,-2.21055,0.19299,0.87628
433.788,48.6113,-2.21589,0.19202,0.87452
436.788,48.90583,-2.22011,0.19481,0.87277
439.788,49.20013,-2.22627,0.19419,0.871
442.788,49.4946,-2.23485,0.19507,0.86924
445.788,49.78941,-2.22672,0.19384,0.86746
448.788,50.0847,-2.24374,0.19241,0.86568
451.788,50.37947,-2.24363,0.19371,0.86389
454.788,50.67287,-2.24893,0.19518,0.86209
457.788,50.96818,-2.25854,0.19515,0.86029
460.788,51.26441,-2.25124,0.19251,0.85848
463.788,51.55945,-2.26109,0.19115,0.85666
466.788,51.85491,-2.26216,0.19224,0.85484
469.788,52.15033,-2.26612,0.19623,0.853
472.788,52.44676,-2.27862,0.19478,0.85117
475.788,52.74332,-2.27059,0.19122,0.84932
478.788,53.03997,-2.27665,0.18757,0.84747
481.788,53.3364,-2.2735,0.18606,0.84561
484.788,53.63276,-2.28254,0.18991,0.84374
487.788,53.9286,-2.28021,0.18976,0.84187
490.788,54.2246,-2.28807,0.18874,0.83998
493.788,54.52114,-2.28851,0.18844,0.8381
496.788,54.81794,-2.28937,0.19999,0.8362
499.788,55.1143,-2.28956,0.20563,0.83429
502.788,55.4105,-2.29127,0.20808,0.83238
505.788,55.70729,-2.29464,0.20589,0.83046
508.788,56.00439,-2.29815,0.2104,0.82853
511.788,56.30174,-2.29975,0.21139,0.8266
514.788,56.5987,-2.30033,0.21107,0.82465
517.788,56.89669,-2.30442,0.2073,0.8227
520.788,57.1944,-2.30637,0.20648,0.82074
523.788,57.49208,-2.30253,0.19838,0.81878
526.788,57.79003,-2.31043,0.18467,0.8168
529.788,58.08797,-2.30944,0.18359,0.81482
532.788,58.3865,-2.31081,0.17745,0.81283
535.788,58.6857,-2.31143,0.17364,0.81083
538.788,58.9842,-2.31607,0.17016,0.80882
541.788,59.2826,-2.31488,0.16597,0.8068
544.788,59.5828,-2.31411,0.15929,0.80478
547.788,59.88188,-2.31854,0.15404,0.80275
550.788,60.18375,-2.31591,0.15064,0.80071
553.788,60.48364,-2.32109,0.14983,0.79866
556.788,60.78305,-2.32103,0.14714,0.7966
559.788,61.0819,-2.32163,0.14738,0.79454
562.788,61.381,-2.32809,0.14876,0.79247
565.788,61.68,-2.32011,0.14766,0.79038
568.788,61.9788,-2.32567,0.14656,0.78829
571.788,62.27839,-2.32245,0.14964,0.7862
574.788,62.57886,-2.32678,0.15397,0.78409
577.788,62.8786,-2.32963,0.15506,0.78197
580.788,63.17929,-2.32601,0.15485,0.77985
583.788,63.4802,-2.33064,0.159,0.77772
586.788,63.7818,-2.33081,0.16263,0.77558
589.788,64.08305,-2.33048,0.1622,0.77343
592.788,64.38328,-2.32917,0.16652,0.77127
595.788,64.68377,-2.33423,0.17443,0.76911
598.788,64.98445,-2.33423,0.18005,0.76694
601.788,65.28645,-2.33943,0.18828,0.76475
604.788,65.58768,-2.33632,0.19013,0.76256
607.788,65.8877,-2.33565,0.19969,0.76036
610.788,66.18781,-2.33986,0.20076,0.75816
613.788,66.48854,-2.33871,0.21104,0.75594
616.788,66.78933,-2.34487,0.21715,0.75372
619.788,67.09045,-2.34754,0.22643,0.75149
622.788,67.3917,-2.34992,0.23019,0.74925
625.788,67.6927,-2.33934,0.23775,0.747
628.788,67.99393,-2.34615,0.24612,0.74474
631.788,68.2948,-2.36209,0.26285,0.74247
634.788,68.59685,-2.35597,0.27044,0.7402
637.788,68.89867,-2.35275,0.27349,0.73792
640.788,69.20204,-2.35641,0.28433,0.73563
643.788,69.50429,-2.35944,0.29181,0.73333
646.788,69.80605,-2.35792,0.29379,0.73102
649.788,70.10645,-2.36527,0.30099,0.72871
652.788,70.40818,-2.36532,0.30236,0.72639
655.788,70.7099,-2.36944,0.30172,0.72406
658.788,71.0116,-2.37393,0.29894,0.72172
661.788,71.3146,-2.37261,0.2949,0.71937
664.788,71.61756,-2.37756,0.29815,0.71702
667.788,71.9204,-2.3807,0.31063,0.71465
670.788,72.223,-2.37796,0.30001,0.71228
673.788,72.5246,-2.38355,0.29416,0.70991
676.788,72.82579,-2.38396,0.26855,0.70752
679.788,73.12756,-2.38775,0.22721,0.70513
682.788,73.4306,-2.38918,0.20918,0.70272
685.788,73.73365,-2.38774,0.20241,0.70032
688.788,74.03689,-2.38994,0.19833,0.6979
691.788,74.3399,-2.39359,0.19834,0.69547
694.788,74.6434,-2.38345,0.19398,0.69304
697.788,74.94584,-2.39956,0.19943,0.6906
700.788,75.2488,-2.38744,0.19236,0.68816
703.788,75.5512,-2.38776,0.19314,0.6857
706.788,75.8536,-2.39206,0.19003,0.68324
709.788,76.15768,-2.39171,0.19343,0.68077
712.788,76.4627,-2.39174,0.19486,0.6783
715.788,76.76691,-2.39707,0.19536,0.67581
718.788,77.071,-2.3973,0.20177,0.67332
721.788,77.37432,-2.39038,0.20492,0.67083
724.788,77.67644,-2.39173,0.21046,0.66832
727.788,77.97957,-2.39873,0.21282,0.66581
730.788,78.2831,-2.39938,0.21206,0.66329
733.788,78.5855,-2.39666,0.20972,0.66077
736.788,78.88771,-2.39454,0.2094,0.65824
739.788,79.18926,-2.39676,0.21287,0.6557
742.788,79.49248,-2.39642,0.20719,0.65316
745.788,79.79723,-2.39412,0.21137,0.65061
747.688,79.9906,-2.40112,0.2095,0.64899