File: 01_Data/Lightweight_Gypsum_Wallboard_Painted_Paper/STA/N2/10K_min/Lightweight_Gypsum_Wallboard_Painted_Paper_STA_N2_10KData_222202_R1.csv
##Temp./Â°C,Time/min,Mass loss(subtr.2)/mg,DSC(subtr.2)/(mW/mg),Sensit./(uV/mW)
49.779,10.01,-0.06197,-0.00541842,1.07511
52.779,11.28115,-0.06745872,0.05602285,1.07355
55.779,11.71318,-0.06685172,0.09162094,1.07199
58.779,12.08,-0.06944004,0.10955,1.07043
61.779,12.42373,-0.07189906,0.12324,1.06887
64.779,12.75569,-0.07448022,0.13229,1.06731
67.779,13.0817,-0.07714647,0.13812,1.06576
70.779,13.4033,-0.07663863,0.14413,1.0642
73.779,13.72192,-0.07516449,0.15222,1.06265
76.779,14.03696,-0.08153241,0.15828,1.0611
79.779,14.34917,-0.08326098,0.16346,1.05955
82.779,14.65676,-0.08392428,0.16742,1.058
85.779,14.9634,-0.08851119,0.17166,1.05645
88.779,15.2671,-0.08854039,0.17288,1.0549
91.779,15.5689,-0.0911501,0.17076,1.05336
94.779,15.86841,-0.09411971,0.16774,1.05182
97.779,16.1664,-0.09378504,0.16397,1.05027
100.779,16.46375,-0.09384013,0.1614,1.04873
103.779,16.76074,-0.09641463,0.15796,1.04719
106.779,17.05627,-0.09907778,0.15588,1.04566
109.779,17.35148,-0.10037,0.15504,1.04412
112.779,17.64612,-0.10268,0.15239,1.04259
115.779,17.93927,-0.10367,0.14942,1.04105
118.779,18.23201,-0.10431,0.14576,1.03952
121.779,18.52532,-0.1043,0.14142,1.03799
124.779,18.81866,-0.10563,0.13833,1.03646
127.779,19.1113,-0.10561,0.1369,1.03493
130.779,19.40273,-0.10959,0.13699,1.0334
133.779,19.69422,-0.10817,0.1385,1.03188
136.779,19.98486,-0.1109,0.13653,1.03035
139.779,20.27497,-0.11068,0.13588,1.02883
142.779,20.5653,-0.11068,0.13778,1.02731
145.779,20.85475,-0.11432,0.138,1.02578
148.779,21.1447,-0.11408,0.13938,1.02426
151.779,21.43346,-0.11305,0.14063,1.02274
154.779,21.72157,-0.11269,0.14296,1.02122
157.779,22.00894,-0.1154,0.14386,1.01971
160.779,22.29746,-0.11565,0.14748,1.01819
163.779,22.58576,-0.11671,0.149,1.01667
166.779,22.87347,-0.11671,0.14836,1.01516
169.779,23.1614,-0.11737,0.14902,1.01364
172.779,23.4477,-0.11803,0.14993,1.01213
175.779,23.7368,-0.1213,0.15035,1.01061
178.779,24.02456,-0.12328,0.15205,1.0091
181.779,24.31192,-0.12329,0.1546,1.00759
184.779,24.59885,-0.12406,0.1532,1.00607
187.779,24.8848,-0.12407,0.15765,1.00456
190.779,25.17183,-0.12537,0.15769,1.00305
193.779,25.4578,-0.12932,0.15696,1.00154
196.779,25.7435,-0.13064,0.15949,1.00003
199.779,26.02961,-0.13152,0.16332,0.99852
202.779,26.31611,-0.13482,0.16308,0.997
205.779,26.60265,-0.13683,0.16505,0.99549
208.779,26.8889,-0.13838,0.16692,0.99398
211.779,27.17558,-0.13866,0.16782,0.99247
214.779,27.4616,-0.14137,0.16811,0.99096
217.779,27.7474,-0.14797,0.17216,0.98945
220.779,28.03367,-0.15017,0.17379,0.98793
223.779,28.31962,-0.15463,0.17131,0.98642
226.779,28.60541,-0.15861,0.1727,0.98491
229.779,28.89207,-0.16322,0.17054,0.98339
232.779,29.1782,-0.16585,0.1696,0.98188
235.779,29.46623,-0.17211,0.16849,0.98036
238.779,29.7532,-0.17677,0.1707,0.97885
241.779,30.03945,-0.18132,0.17011,0.97733
244.779,30.3259,-0.18657,0.174,0.97581
247.779,30.61216,-0.19151,0.16701,0.97429
250.779,30.8983,-0.20181,0.16523,0.97277
253.779,31.18481,-0.20862,0.16185,0.97125
256.779,31.47107,-0.2135,0.16324,0.96973
259.779,31.7571,-0.22342,0.16545,0.9682
262.779,32.04398,-0.23003,0.16871,0.96668
265.779,32.3312,-0.23919,0.17028,0.96515
268.779,32.6175,-0.25163,0.17525,0.96362
271.779,32.90507,-0.26345,0.18117,0.96209
274.779,33.19278,-0.27536,0.18424,0.96056
277.779,33.48072,-0.29012,0.19011,0.95903
280.779,33.76938,-0.30713,0.19908,0.95749
283.779,34.05729,-0.32252,0.20277,0.95595
286.779,34.3457,-0.34221,0.21383,0.95441
289.779,34.6338,-0.36714,0.22134,0.95287
292.779,34.921,-0.3881,0.23182,0.95133
295.779,35.20944,-0.417,0.23963,0.94978
298.779,35.49771,-0.43895,0.25207,0.94823
301.779,35.78607,-0.46803,0.26601,0.94668
304.779,36.0747,-0.49907,0.27797,0.94512
307.779,36.363,-0.53376,0.28877,0.94357
310.779,36.65128,-0.56862,0.30109,0.94201
313.779,36.94015,-0.60636,0.31929,0.94044
316.779,37.229,-0.64715,0.33086,0.93888
319.779,37.51893,-0.68987,0.34367,0.93731
322.779,37.8087,-0.73535,0.35802,0.93574
325.779,38.0991,-0.78526,0.3777,0.93416
328.779,38.3897,-0.83916,0.39996,0.93258
331.779,38.6802,-0.89607,0.42569,0.931
334.779,38.97139,-0.95801,0.45873,0.92941
337.779,39.26169,-1.02447,0.49564,0.92782
340.779,39.5533,-1.09781,0.53193,0.92623
343.779,39.84453,-1.17865,0.57648,0.92463
346.779,40.13528,-1.26144,0.61127,0.92303
349.779,40.4258,-1.35288,0.64533,0.92143
352.779,40.71651,-1.44592,0.65906,0.91982
355.779,41.00703,-1.5433,0.65764,0.91821
358.779,41.2978,-1.64,0.62798,0.91659
361.779,41.5884,-1.7277,0.56673,0.91497
364.779,41.87993,-1.80706,0.47572,0.91334
367.779,42.1712,-1.87426,0.36631,0.91171
370.779,42.46141,-1.92931,0.25162,0.91007
373.779,42.7521,-1.96926,0.15828,0.90844
376.779,43.0423,-1.99715,0.0945622,0.90679
379.779,43.3328,-2.02115,0.06418984,0.90514
382.779,43.6228,-2.04096,0.0562424,0.90349
385.779,43.9138,-2.06557,0.06132021,0.90183
388.779,44.20686,-2.09066,0.07259885,0.90016
391.779,44.4985,-2.11885,0.08149251,0.89849
394.779,44.78946,-2.15032,0.08906385,0.89682
397.779,45.0826,-2.18577,0.09142845,0.89514
400.779,45.37528,-2.21981,0.08344616,0.89345
403.779,45.66895,-2.25827,0.06683059,0.89176
406.779,45.96224,-2.29302,0.04096328,0.89006
409.779,46.25544,-2.32638,-0.0005376008,0.88836
412.779,46.5492,-2.34736,-0.04483565,0.88665
415.779,46.84228,-2.36566,-0.08311043,0.88494
418.779,47.13536,-2.38003,-0.10805,0.88322
421.779,47.42918,-2.39371,-0.12118,0.88149
424.779,47.72306,-2.40551,-0.12936,0.87976
427.779,48.01678,-2.40997,-0.13366,0.87802
430.779,48.31102,-2.4173,-0.13834,0.87628
433.779,48.60503,-2.42704,-0.14288,0.87453
436.779,48.89948,-2.43131,-0.14409,0.87277
439.779,49.19293,-2.43528,-0.14643,0.87101
442.779,49.48752,-2.44339,-0.14726,0.86924
445.779,49.78315,-2.44754,-0.14719,0.86746
448.779,50.07862,-2.45018,-0.15409,0.86568
451.779,50.37298,-2.45436,-0.15537,0.86389
454.779,50.66874,-2.46086,-0.15394,0.8621
457.779,50.96423,-2.46434,-0.15144,0.86029
460.779,51.25913,-2.46838,-0.15042,0.85848
463.779,51.55468,-2.47134,-0.14761,0.85667
466.779,51.84953,-2.47529,-0.15052,0.85484
469.779,52.1445,-2.47924,-0.15389,0.85301
472.779,52.44013,-2.48055,-0.15718,0.85117
475.779,52.73483,-2.48285,-0.15623,0.84933
478.779,53.03134,-2.48819,-0.15806,0.84747
481.779,53.32767,-2.49098,-0.15795,0.84561
484.779,53.6248,-2.49431,-0.15954,0.84375
487.779,53.92182,-2.49766,-0.16199,0.84187
490.779,54.21861,-2.49635,-0.14504,0.83999
493.779,54.51583,-2.49898,-0.14272,0.8381
496.779,54.81143,-2.50292,-0.14069,0.8362
499.779,55.10849,-2.50293,-0.14094,0.8343
502.779,55.40529,-2.50416,-0.1439,0.83239
505.779,55.70171,-2.50624,-0.14867,0.83047
508.779,55.99901,-2.5065,-0.15383,0.82854
511.779,56.29603,-2.50972,-0.15731,0.8266
514.779,56.59391,-2.51431,-0.16714,0.82466
517.779,56.89212,-2.51554,-0.18519,0.82271
520.779,57.19002,-2.51817,-0.19874,0.82075
523.779,57.48675,-2.51489,-0.20541,0.81878
526.779,57.78507,-2.51918,-0.21406,0.81681
529.779,58.08426,-2.5218,-0.22583,0.81482
532.779,58.38309,-2.52038,-0.2409,0.81283
535.779,58.6821,-2.52451,-0.24901,0.81083
538.779,58.9804,-2.52575,-0.26138,0.80883
541.779,59.2784,-2.52706,-0.27252,0.80681
544.779,59.5771,-2.52837,-0.27417,0.80479
547.779,59.8741,-2.52845,-0.27738,0.80275
550.779,60.1734,-2.53195,-0.27636,0.80071
553.779,60.47342,-2.53463,-0.28042,0.79867
556.779,60.77245,-2.53427,-0.282,0.79661
559.779,61.07252,-2.53465,-0.28582,0.79454
562.779,61.37194,-2.53857,-0.28733,0.79247
565.779,61.6725,-2.53726,-0.28833,0.79039
568.779,61.9725,-2.53492,-0.28698,0.7883
571.779,62.27166,-2.53858,-0.28907,0.7862
574.779,62.5714,-2.54055,-0.2908,0.7841
577.779,62.8711,-2.53989,-0.28941,0.78198
580.779,63.17103,-2.54252,-0.28976,0.77986
583.779,63.47147,-2.54252,-0.29222,0.77773
586.779,63.77166,-2.54253,-0.29489,0.77559
589.779,64.07174,-2.54655,-0.29631,0.77344
592.779,64.372,-2.54812,-0.29219,0.77128
595.779,64.67263,-2.55042,-0.29051,0.76912
598.779,64.9725,-2.5501,-0.28969,0.76694
601.779,65.27282,-2.54912,-0.29321,0.76476
604.779,65.57311,-2.55141,-0.28817,0.76257
607.779,65.8737,-2.55437,-0.28839,0.76037
610.779,66.1747,-2.55537,-0.28329,0.75816
613.779,66.47596,-2.55727,-0.28215,0.75595
616.779,66.77721,-2.55864,-0.27792,0.75373
619.779,67.07894,-2.55997,-0.2718,0.75149
622.779,67.38064,-2.56205,-0.26542,0.74925
625.779,67.68126,-2.56074,-0.256,0.747
628.779,67.98199,-2.56468,-0.24942,0.74475
631.779,68.28189,-2.56747,-0.24233,0.74248
634.779,68.58211,-2.57045,-0.23345,0.74021
637.779,68.88417,-2.57183,-0.23034,0.73793
640.779,69.1857,-2.57435,-0.22383,0.73564
643.779,69.4879,-2.57938,-0.22202,0.73334
646.779,69.79019,-2.5807,-0.21875,0.73103
649.779,70.09268,-2.58333,-0.22024,0.72872
652.779,70.39549,-2.58595,-0.23151,0.72639
655.779,70.6977,-2.58859,-0.23794,0.72406
658.779,70.9999,-2.59056,-0.24214,0.72173
661.779,71.3019,-2.59354,-0.2415,0.71938
664.779,71.60265,-2.59473,-0.23675,0.71702
667.779,71.9056,-2.59847,-0.2414,0.71466
670.779,72.20869,-2.60009,-0.25516,0.71229
673.779,72.51034,-2.60175,-0.28404,0.70991
676.779,72.81214,-2.60051,-0.33116,0.70753
679.779,73.11495,-2.6028,-0.33712,0.70513
682.779,73.41824,-2.60242,-0.33417,0.70273
685.779,73.72139,-2.60307,-0.33724,0.70032
688.779,74.0243,-2.60505,-0.33817,0.69791
691.779,74.3279,-2.60504,-0.33955,0.69548
694.779,74.63074,-2.60702,-0.33613,0.69305
697.779,74.93445,-2.60604,-0.34436,0.69061
700.779,75.23784,-2.60573,-0.34688,0.68816
703.779,75.5417,-2.60724,-0.34644,0.68571
706.779,75.8446,-2.6079,-0.34782,0.68325
709.779,76.1469,-2.60626,-0.34854,0.68078
712.779,76.44965,-2.6079,-0.34664,0.6783
715.779,76.75445,-2.6092,-0.35258,0.67582
718.779,77.05803,-2.61018,-0.35008,0.67333
721.779,77.36195,-2.60988,-0.35561,0.67083
724.779,77.6644,-2.60988,-0.35444,0.66833
727.779,77.96692,-2.61152,-0.34854,0.66582
730.779,78.2697,-2.61283,-0.3521,0.6633
733.779,78.5718,-2.61185,-0.34922,0.66078
736.779,78.87383,-2.61026,-0.3531,0.65825
739.779,79.17713,-2.61317,-0.34568,0.65571
742.779,79.4806,-2.6128,-0.34431,0.65316
745.779,79.78396,-2.61425,-0.34822,0.65061
747.879,79.99804,-2.61429,-0.34885,0.64883