File: 01_Data/Memory_Foam_Carpet_Pad/MCC/Memory_Foam_Carpet_Pad_MCC_30K_min_211102_R1.txt
Sample ID:	C:\MCC\MCC Cal\Test\Memory_Foam_Carpet_Pad_MCC_30K_min_211102_R1.txt
Sample Weight (mg):	4.76
Heating Rate (C/s):	0.5
Combustor Temp (C):	900
N2 Flow Rate (cc/min):	80
O2 Flow Rate (cc/min):	20
Calibration File:	C:\MCC\MCC Cal\Coeff1 JN10440_30_210304.txt.txt
T Correction Coefficients:	0	1.024463	0
Time Shift (s):	14
*
Time (s)	Temperature (C)	N2 flow rate (cc/min)	O2 flow rate (cc/min)	Flow Rate (cc/min)	Oxygen (%)	HRR (W/g)	Heating rate (C/s)
0.000	107.195	80.006	19.995	103.056	20.147	-0.506	0.009
8.000	107.172	80.005	19.994	103.061	20.144	-0.272	0.016
16.000	107.146	80.006	19.994	103.056	20.149	-0.596	0.003
24.000	107.100	80.005	19.994	103.065	20.143	-0.245	-0.002
32.001	107.171	80.003	19.996	103.113	20.134	0.422	0.017
40.000	107.402	80.003	19.995	103.185	20.126	0.945	0.051
48.000	108.012	80.003	19.994	103.226	20.110	2.007	0.063
56.000	109.065	80.003	19.996	103.252	20.106	2.275	0.170
64.000	110.532	80.004	19.996	103.269	20.101	2.648	0.212
72.001	112.313	80.005	19.995	103.299	20.098	2.860	0.252
80.000	114.541	80.006	19.994	103.309	20.092	3.262	0.317
88.001	116.984	80.004	19.994	103.312	20.094	3.126	0.284
96.001	119.840	80.004	19.993	103.336	20.086	3.635	0.357
104.001	122.969	80.005	19.994	103.338	20.087	3.582	0.398
112.000	126.283	80.004	19.994	103.334	20.086	3.619	0.433
120.001	129.762	80.003	19.996	103.329	20.088	3.525	0.437
128.000	133.403	80.004	19.996	103.338	20.087	3.583	0.455
136.000	137.250	80.005	19.995	103.319	20.084	3.751	0.514
144.000	141.130	80.003	19.995	103.325	20.084	3.786	0.496
152.000	145.078	80.003	19.996	103.309	20.084	3.771	0.509
160.000	149.037	80.004	19.995	103.299	20.085	3.721	0.511
168.000	153.051	80.003	19.994	103.315	20.084	3.767	0.495
176.000	156.962	80.004	19.995	103.299	20.080	4.042	0.471
184.000	160.950	80.004	19.994	103.279	20.080	4.015	0.480
192.000	164.917	80.006	19.994	103.275	20.078	4.179	0.490
200.000	168.814	80.004	19.994	103.267	20.074	4.477	0.465
208.000	172.781	80.004	19.995	103.265	20.068	4.864	0.467
216.000	176.656	80.004	19.996	103.271	20.068	4.881	0.503
224.000	180.508	80.003	19.995	103.264	20.063	5.222	0.439
232.000	184.446	80.003	19.995	103.262	20.060	5.399	0.497
240.000	188.377	80.004	19.995	103.263	20.056	5.677	0.481
248.000	192.245	80.005	19.996	103.257	20.046	6.318	0.502
256.000	196.136	80.004	19.996	103.249	20.040	6.781	0.462
264.000	200.040	80.005	19.996	103.252	20.032	7.260	0.526
272.000	203.942	80.005	19.996	103.256	20.027	7.627	0.511
280.000	207.919	80.004	19.994	103.260	20.016	8.399	0.478
288.000	211.823	80.003	19.995	103.255	20.004	9.203	0.443
296.000	215.799	80.005	19.995	103.259	19.986	10.373	0.506
304.000	219.810	80.004	19.995	103.261	19.972	11.381	0.511
312.000	223.796	80.002	19.995	103.258	19.949	12.917	0.511
320.000	227.798	80.005	19.995	103.263	19.926	14.454	0.510
328.000	231.910	80.005	19.994	103.261	19.897	16.455	0.511
336.000	236.015	80.005	19.995	103.264	19.861	18.878	0.479
344.000	240.038	80.004	19.996	103.260	19.822	21.487	0.513
352.000	244.085	80.006	19.995	103.279	19.781	24.295	0.502
360.000	248.083	80.003	19.994	103.286	19.732	27.583	0.505
368.000	252.135	80.005	19.995	103.297	19.680	31.145	0.500
376.000	256.161	80.004	19.995	103.324	19.616	35.442	0.531
384.000	260.297	80.004	19.995	103.329	19.557	39.449	0.513
392.000	264.336	80.005	19.996	103.339	19.504	43.055	0.530
400.000	268.470	80.003	19.994	103.341	19.462	45.909	0.520
408.000	272.636	80.005	19.994	103.365	19.450	46.711	0.545
416.000	276.767	80.003	19.996	103.340	19.476	44.990	0.500
424.000	280.799	80.006	19.995	103.334	19.533	41.130	0.509
432.000	284.836	80.005	19.995	103.333	19.594	36.944	0.490
440.000	288.900	80.005	19.996	103.333	19.593	37.051	0.521
448.000	293.080	80.004	19.995	103.334	19.559	39.331	0.521
456.000	297.168	80.004	19.995	103.335	19.536	40.905	0.498
464.000	301.338	80.006	19.994	103.333	19.546	40.218	0.570
472.000	305.439	80.004	19.994	103.336	19.567	38.818	0.494
480.000	309.493	80.004	19.994	103.304	19.577	38.120	0.482
488.000	313.569	80.006	19.995	103.304	19.584	37.660	0.501
496.000	317.585	80.006	19.994	103.304	19.582	37.764	0.501
504.000	321.562	80.002	19.995	103.297	19.568	38.679	0.492
512.000	325.457	80.005	19.995	103.288	19.550	39.939	0.507
520.000	329.439	80.006	19.995	103.282	19.529	41.337	0.534
528.000	333.524	80.002	19.995	103.286	19.496	43.589	0.379
536.000	337.463	80.003	19.995	103.282	19.473	45.147	0.510
544.000	341.400	80.001	19.994	103.267	19.450	46.670	0.487
552.000	345.334	80.002	19.995	103.264	19.433	47.812	0.521
560.000	349.235	80.004	19.995	103.264	19.418	48.835	0.485
568.000	353.232	80.003	19.994	103.262	19.393	50.512	0.496
576.000	357.147	80.006	19.995	103.259	19.354	53.150	0.505
584.000	361.029	80.004	19.994	103.260	19.289	57.573	0.515
592.000	364.904	80.004	19.996	103.245	19.197	63.816	0.493
600.000	368.738	80.006	19.995	103.227	19.082	71.564	0.487
608.000	372.609	80.005	19.995	103.234	18.947	80.697	0.495
616.000	376.528	80.002	19.996	103.253	18.800	90.627	0.489
624.000	380.448	80.003	19.996	103.243	18.633	101.964	0.487
632.000	384.467	80.004	19.996	103.240	18.457	113.874	0.484
640.000	388.589	80.005	19.995	103.228	18.285	125.468	0.508
648.000	392.729	80.005	19.996	103.217	18.141	135.145	0.547
656.000	396.889	80.005	19.995	103.182	18.056	140.866	0.511
664.000	401.139	80.005	19.994	103.155	18.069	139.923	0.521
672.000	405.317	80.005	19.994	103.129	18.188	131.931	0.505
680.000	409.441	80.005	19.994	103.115	18.401	117.528	0.518
688.000	413.548	80.003	19.995	103.110	18.670	99.295	0.536
696.000	417.607	80.004	19.995	103.104	18.952	80.262	0.521
704.000	421.651	80.000	19.995	103.118	19.214	62.582	0.512
712.000	425.659	80.005	19.995	103.108	19.441	47.235	0.507
720.000	429.607	80.001	19.996	103.140	19.619	35.232	0.477
728.000	433.648	80.004	19.997	103.143	19.760	25.684	0.505
736.000	437.624	80.000	19.995	103.147	19.853	19.377	0.504
744.000	441.629	80.004	19.993	103.151	19.913	15.338	0.524
752.001	445.507	80.006	19.995	103.169	19.948	12.934	0.470
760.000	449.390	80.006	19.994	103.157	19.978	10.973	0.474
768.000	453.281	80.008	19.995	103.176	19.990	10.113	0.500
776.000	457.322	80.004	19.994	103.177	19.992	9.999	0.506
784.000	461.542	80.004	19.994	103.176	19.986	10.375	0.516
792.000	465.787	80.004	19.995	103.171	19.974	11.211	0.554
800.000	470.081	80.003	19.996	103.159	19.967	11.673	0.564
808.000	474.404	80.002	19.996	103.159	19.956	12.446	0.556
816.000	478.669	80.004	19.996	103.146	19.950	12.828	0.558
824.000	482.851	80.006	19.996	103.155	19.956	12.447	0.488
832.000	487.104	80.004	19.996	103.143	19.970	11.507	0.564
840.000	491.248	80.008	19.995	103.156	19.997	9.645	0.511
848.000	495.436	80.007	19.993	103.162	20.028	7.541	0.493
856.000	499.596	80.004	19.994	103.164	20.061	5.305	0.512
864.000	503.696	80.003	19.993	103.175	20.081	3.985	0.530
872.000	507.815	80.004	19.998	103.182	20.093	3.178	0.496
880.000	511.893	80.004	19.996	103.168	20.102	2.582	0.536
888.000	516.034	80.005	19.994	103.171	20.102	2.554	0.529
896.000	520.160	80.004	19.995	103.171	20.105	2.330	0.535
904.000	524.194	80.005	19.995	103.174	20.105	2.320	0.510
912.000	528.255	80.004	19.995	103.163	20.107	2.237	0.494
920.000	532.351	80.003	19.995	103.163	20.107	2.193	0.528
928.000	536.425	80.006	19.994	103.168	20.106	2.292	0.518
936.000	540.396	80.004	19.993	103.155	20.112	1.893	0.475
944.000	544.311	80.003	19.994	103.157	20.116	1.637	0.466
952.000	548.323	80.004	19.994	103.173	20.109	2.074	0.497
960.000	552.417	80.005	19.994	103.176	20.113	1.780	0.479
968.000	556.561	80.004	19.997	103.172	20.111	1.948	0.523
976.000	560.575	80.003	19.997	103.161	20.110	2.038	0.480
984.000	564.619	80.007	19.993	103.153	20.113	1.781	0.503
992.000	568.749	80.004	19.996	103.167	20.112	1.889	0.548
1000.000	572.825	80.004	19.995	103.148	20.111	1.963	0.469
1008.000	576.999	80.007	19.997	103.176	20.112	1.873	0.508
1016.000	581.186	80.007	19.996	103.165	20.118	1.479	0.529
1024.000	585.350	80.004	19.996	103.152	20.118	1.462	0.547
1032.000	589.555	80.004	19.993	103.157	20.116	1.600	0.543
1040.000	593.702	80.004	19.995	103.165	20.115	1.652	0.504
1048.000	597.869	80.004	19.996	103.154	20.120	1.341	0.502
1056.000	601.987	80.003	19.995	103.149	20.115	1.686	0.511
1064.001	606.106	80.005	19.994	103.173	20.116	1.604	0.517
1072.000	610.179	80.003	19.995	103.165	20.118	1.486	0.521
1080.000	614.283	80.004	19.996	103.171	20.118	1.493	0.520
1088.000	618.379	80.006	19.997	103.155	20.120	1.313	0.512
1096.000	622.475	80.006	19.994	103.147	20.115	1.650	0.543
1104.000	626.504	80.005	19.996	103.154	20.118	1.449	0.479
1112.000	630.506	80.004	19.994	103.160	20.121	1.237	0.519
1120.001	634.460	80.004	19.995	103.162	20.120	1.335	0.472
1128.000	638.408	80.003	19.995	103.156	20.121	1.261	0.478
1136.001	642.352	80.005	19.995	103.164	20.120	1.339	0.500
1144.001	646.274	80.004	19.993	103.164	20.119	1.401	0.502
1152.000	650.272	80.006	19.994	103.169	20.121	1.269	0.502
1160.001	654.372	80.005	19.996	103.173	20.119	1.411	0.518
1168.000	658.457	80.003	19.995	103.180	20.112	1.865	0.523
1176.000	662.581	80.007	19.995	103.179	20.118	1.505	0.534
1184.000	666.618	80.004	19.995	103.178	20.118	1.481	0.497
1192.001	670.784	80.002	19.996	103.178	20.120	1.350	0.530
1200.000	674.891	80.004	19.994	103.182	20.121	1.258	0.503
1208.000	678.975	80.004	19.995	103.181	20.120	1.315	0.502
1216.000	682.966	80.005	19.995	103.175	20.119	1.412	0.510
1224.000	686.941	80.003	19.995	103.174	20.118	1.481	0.506
1232.000	690.799	80.007	19.995	103.160	20.115	1.672	0.449
1240.000	694.744	80.005	19.995	103.162	20.115	1.692	0.524
1248.000	698.662	80.005	19.993	103.151	20.117	1.517	0.461
1256.000	702.649	80.006	19.994	103.144	20.116	1.583	0.526
1264.000	706.631	80.003	19.994	103.159	20.119	1.416	0.525
1272.001	710.711	80.005	19.995	103.149	20.111	1.913	0.544
1280.000	714.807	80.003	19.994	103.158	20.115	1.670	0.502
1288.001	718.881	80.004	19.995	103.144	20.113	1.793	0.524
1296.000	723.019	80.004	19.994	103.162	20.111	1.966	0.501
1304.000	727.168	80.004	19.995	103.150	20.112	1.904	0.545
1312.000	731.283	80.005	19.995	103.149	20.114	1.753	0.530
1320.001	735.262	80.004	19.993	103.156	20.110	2.011	0.491
1328.000	739.309	80.004	19.995	103.166	20.112	1.858	0.481
1336.001	743.345	80.004	19.993	103.139	20.113	1.806	0.466
1337.000	743.850	80.005	19.992	103.143	20.108	2.134	0.498