File: 01_Data/Nylon_Carpet_High_Pile/HFM/Nylon_Carpet_High_Pile_Density_Wet_R3.csv
,Nylon_Carpet_High_Pile_WET_3
Sample Mass [g],106.1
Sample Volume [cm3],583.6
Sample Density [kg/m3],182