File: 01_Data/Luan_Panel/MCC/Luan_Panel_MCC_30K_min_211118_R1.txt
Sample ID:	C:\MCC\MCC Cal\Test\Luan_Panel_MCC_30K_min_211118_R1.txt
Sample Weight (mg):	4.77
Heating Rate (C/s):	0.5
Combustor Temp (C):	900
N2 Flow Rate (cc/min):	80
O2 Flow Rate (cc/min):	20
Calibration File:	C:\MCC\MCC Cal\Coeff1 JN10440_30_210304.txt.txt
T Correction Coefficients:	0	1.024463	0
Time Shift (s):	14
*
Time (s)	Temperature (C)	N2 flow rate (cc/min)	O2 flow rate (cc/min)	Flow Rate (cc/min)	Oxygen (%)	HRR (W/g)	Heating rate (C/s)
0.000	107.497	80.003	19.996	103.035	20.240	0.243	-0.002
8.000	107.462	80.004	19.996	103.031	20.242	0.120	-0.045
15.999	107.438	80.000	19.994	103.036	20.239	0.309	-0.020
24.000	107.479	80.001	19.994	103.070	20.235	0.583	0.007
31.999	107.614	80.003	19.996	103.072	20.237	0.465	0.028
39.999	107.902	80.002	19.995	103.142	20.222	1.447	0.051
47.999	108.525	80.001	19.996	103.213	20.211	2.207	0.066
56.001	109.676	80.004	19.995	103.229	20.208	2.386	0.166
63.999	111.196	80.003	19.996	103.262	20.206	2.548	0.194
71.999	113.055	80.002	19.996	103.253	20.204	2.658	0.271
79.999	115.092	80.003	19.995	103.269	20.201	2.915	0.277
87.999	117.454	80.004	19.995	103.281	20.198	3.054	0.288
96.001	120.059	80.001	19.996	103.267	20.196	3.243	0.343
104.000	122.796	80.001	19.995	103.266	20.197	3.139	0.333
112.000	125.757	80.003	19.995	103.270	20.197	3.173	0.390
120.000	128.838	80.004	19.995	103.279	20.200	2.956	0.389
127.999	131.974	80.001	19.995	103.285	20.200	2.958	0.387
136.000	135.304	80.003	19.995	103.273	20.196	3.218	0.391
144.000	138.709	80.004	19.996	103.276	20.200	2.956	0.421
152.000	142.172	80.003	19.995	103.272	20.198	3.094	0.437
160.000	145.750	80.003	19.996	103.270	20.196	3.207	0.476
168.000	149.318	80.005	19.995	103.276	20.193	3.395	0.456
176.000	152.946	80.003	19.995	103.282	20.195	3.303	0.453
184.000	156.578	80.001	19.996	103.282	20.196	3.233	0.465
192.000	160.389	80.001	19.997	103.284	20.197	3.171	0.457
200.000	164.234	80.002	19.995	103.278	20.193	3.424	0.466
208.000	168.165	80.001	19.994	103.282	20.188	3.750	0.511
216.000	172.095	80.002	19.995	103.279	20.192	3.486	0.454
224.000	176.045	80.002	19.994	103.274	20.189	3.708	0.450
232.000	180.082	80.003	19.994	103.268	20.188	3.752	0.492
239.999	184.107	80.004	19.995	103.269	20.190	3.655	0.504
247.999	188.136	80.004	19.995	103.273	20.187	3.829	0.476
255.999	192.180	80.004	19.996	103.296	20.182	4.176	0.491
264.000	196.155	80.001	19.996	103.269	20.178	4.412	0.506
272.000	200.024	80.002	19.995	103.273	20.177	4.534	0.477
280.000	204.021	80.001	19.996	103.271	20.168	5.097	0.500
288.000	207.987	80.001	19.996	103.262	20.170	4.958	0.468
296.000	211.905	80.002	19.995	103.258	20.160	5.642	0.479
304.000	215.813	80.002	19.996	103.267	20.150	6.340	0.467
312.000	219.726	80.004	19.996	103.267	20.139	7.042	0.456
320.000	223.669	80.003	19.995	103.263	20.131	7.581	0.464
328.000	227.564	80.005	19.995	103.283	20.123	8.165	0.475
336.000	231.559	80.005	19.994	103.266	20.117	8.584	0.518
344.000	235.493	80.001	19.995	103.274	20.108	9.176	0.504
352.000	239.398	80.002	19.995	103.272	20.098	9.852	0.466
360.000	243.343	80.002	19.995	103.267	20.088	10.506	0.508
368.000	247.220	80.004	19.996	103.268	20.080	11.027	0.507
376.000	251.141	80.003	19.996	103.276	20.064	12.167	0.495
384.000	255.045	80.005	19.996	103.278	20.046	13.367	0.473
392.000	258.903	80.004	19.996	103.303	20.029	14.515	0.477
400.000	262.763	80.002	19.995	103.305	20.004	16.175	0.479
408.000	266.714	80.003	19.996	103.319	19.970	18.489	0.491
416.000	270.652	80.003	19.995	103.350	19.944	20.240	0.481
424.000	274.700	80.003	19.995	103.347	19.918	21.988	0.531
432.000	278.771	80.003	19.994	103.344	19.888	24.035	0.521
440.000	282.875	80.003	19.996	103.299	19.866	25.532	0.501
448.000	287.019	80.002	19.997	103.346	19.839	27.361	0.503
456.000	291.105	80.001	19.997	103.351	19.809	29.395	0.519
464.000	295.226	80.001	19.996	103.378	19.776	31.626	0.515
472.000	299.315	80.001	19.997	103.386	19.746	33.628	0.528
480.000	303.338	80.003	19.995	103.388	19.705	36.435	0.549
488.000	307.303	80.002	19.995	103.414	19.676	38.432	0.504
496.000	311.259	80.005	19.996	103.420	19.634	41.240	0.471
504.000	315.404	80.004	19.996	103.417	19.593	44.005	0.464
512.000	319.218	80.002	19.995	103.429	19.550	46.964	0.498
520.000	323.121	80.004	19.995	103.446	19.510	49.686	0.502
528.000	326.976	80.003	19.995	103.464	19.466	52.669	0.504
536.000	330.819	80.002	19.997	103.466	19.418	55.899	0.467
544.000	334.747	80.001	19.997	103.496	19.380	58.457	0.464
552.000	338.788	80.004	19.994	103.496	19.342	61.015	0.496
560.000	342.764	80.002	19.996	103.501	19.319	62.609	0.515
568.000	346.850	80.004	19.997	103.498	19.312	63.031	0.486
576.000	350.997	80.005	19.997	103.499	19.340	61.157	0.506
584.000	355.172	80.006	19.994	103.425	19.400	57.003	0.493
592.000	359.439	80.002	19.996	103.363	19.495	50.566	0.512
600.000	363.648	80.003	19.995	103.317	19.626	41.695	0.517
608.000	367.907	80.003	19.995	103.267	19.774	31.726	0.552
616.000	372.198	80.003	19.995	103.216	19.911	22.486	0.499
624.000	376.413	80.001	19.995	103.211	20.009	15.811	0.528
632.000	380.583	80.002	19.997	103.192	20.064	12.118	0.518
640.000	384.690	80.004	19.995	103.189	20.100	9.726	0.524
648.000	388.798	80.001	19.994	103.192	20.110	9.052	0.535
656.000	392.911	80.002	19.996	103.200	20.120	8.339	0.516
664.000	397.095	80.004	19.996	103.190	20.126	7.965	0.529
672.000	401.172	80.002	19.995	103.190	20.135	7.317	0.505
680.000	405.235	80.002	19.994	103.172	20.139	7.068	0.490
688.000	409.251	80.001	19.995	103.186	20.148	6.491	0.474
696.000	413.240	80.002	19.997	103.187	20.149	6.361	0.471
704.000	417.212	80.003	19.996	103.190	20.154	6.039	0.503
712.000	421.205	80.004	19.995	103.182	20.157	5.879	0.534
720.000	425.245	80.005	19.996	103.190	20.161	5.601	0.521
728.000	429.353	80.003	19.997	103.175	20.161	5.564	0.513
736.000	433.469	80.002	19.995	103.170	20.165	5.323	0.532
744.000	437.545	80.004	19.995	103.186	20.170	4.976	0.517
752.000	441.637	80.004	19.996	103.166	20.176	4.599	0.510
760.000	445.683	80.003	19.996	103.159	20.176	4.563	0.480
768.000	449.707	80.004	19.995	103.157	20.184	4.004	0.479
776.000	453.716	80.002	19.995	103.168	20.184	3.999	0.486
784.000	457.724	80.003	19.995	103.160	20.190	3.655	0.501
792.000	461.728	80.004	19.995	103.160	20.193	3.416	0.482
800.000	465.692	80.004	19.995	103.161	20.196	3.188	0.487
808.000	469.741	80.001	19.994	103.170	20.199	3.005	0.514
816.000	473.844	80.003	19.996	103.156	20.198	3.062	0.534
824.000	477.927	80.004	19.996	103.151	20.202	2.832	0.494
832.000	482.067	80.006	19.994	103.155	20.205	2.601	0.545
840.000	486.162	80.003	19.996	103.157	20.206	2.570	0.488
848.000	490.260	80.002	19.996	103.149	20.206	2.550	0.489
856.000	494.384	80.003	19.995	103.150	20.203	2.725	0.493
864.000	498.529	80.002	19.996	103.156	20.207	2.476	0.527
872.000	502.544	80.001	19.995	103.155	20.208	2.431	0.496
880.000	506.594	80.000	19.994	103.152	20.206	2.531	0.502
888.000	510.670	80.004	19.995	103.155	20.204	2.706	0.494
896.000	514.718	80.003	19.995	103.164	20.212	2.171	0.521
904.000	518.809	80.004	19.995	103.150	20.208	2.380	0.503
912.000	522.900	80.006	19.995	103.155	20.209	2.350	0.494
920.000	526.986	80.001	19.995	103.157	20.210	2.305	0.498
928.000	531.124	80.003	19.995	103.202	20.211	2.173	0.517
936.000	535.222	80.002	19.997	103.154	20.211	2.197	0.515
944.000	539.360	80.001	19.996	103.154	20.214	1.996	0.508
952.000	543.486	80.001	19.996	103.151	20.211	2.179	0.536
960.000	547.660	80.001	19.994	103.157	20.214	1.989	0.531
968.000	551.821	80.006	19.995	103.150	20.216	1.870	0.525
976.000	556.039	80.004	19.996	103.149	20.215	1.928	0.541
984.000	560.184	80.004	19.994	103.153	20.220	1.616	0.506
992.000	564.332	80.005	19.994	103.152	20.217	1.781	0.530
1000.000	568.487	80.001	19.995	103.153	20.216	1.874	0.499
1008.000	572.636	80.004	19.996	103.136	20.217	1.776	0.500
1016.000	576.769	80.001	19.995	103.152	20.215	1.949	0.487
1024.000	580.852	80.003	19.995	103.162	20.222	1.484	0.480
1031.999	584.897	80.004	19.997	103.149	20.216	1.851	0.490
1040.001	588.930	80.003	19.997	103.150	20.214	2.021	0.491
1048.000	592.919	80.005	19.995	103.183	20.215	1.951	0.504
1056.000	596.939	80.002	19.995	103.156	20.215	1.941	0.507
1064.000	600.837	80.003	19.995	103.138	20.221	1.561	0.491
1071.999	604.788	80.004	19.995	103.157	20.217	1.827	0.526
1079.999	608.925	80.003	19.996	103.157	20.214	1.987	0.533
1087.999	613.288	80.004	19.994	103.164	20.213	2.064	0.561
1096.001	617.761	80.004	19.996	103.154	20.215	1.964	0.555
1103.999	622.299	80.003	19.996	103.148	20.213	2.071	0.561
1112.000	626.815	80.002	19.995	103.151	20.220	1.593	0.559
1119.999	631.302	80.003	19.996	103.159	20.219	1.667	0.548
1128.000	635.700	80.002	19.995	103.155	20.220	1.572	0.512
1136.000	640.079	80.003	19.996	103.160	20.220	1.606	0.537
1143.999	644.304	80.004	19.995	103.158	20.220	1.618	0.550
1152.001	648.464	80.005	19.994	103.155	20.219	1.634	0.527
1160.000	652.529	80.005	19.996	103.152	20.222	1.431	0.491
1167.999	656.653	80.002	19.995	103.159	20.223	1.397	0.497
1175.999	660.765	80.003	19.994	103.162	20.223	1.410	0.538
1183.999	664.775	80.002	19.995	103.153	20.222	1.433	0.521
1191.999	668.773	80.001	19.996	103.152	20.221	1.540	0.517
1200.001	672.830	80.000	19.995	103.153	20.220	1.633	0.495
1208.001	676.909	80.004	19.995	103.149	20.220	1.610	0.507
1216.000	680.907	80.003	19.995	103.149	20.219	1.655	0.494
1224.000	684.943	80.002	19.997	103.149	20.222	1.478	0.526
1232.000	688.895	80.005	19.996	103.147	20.220	1.587	0.503
1240.000	692.891	80.005	19.995	103.152	20.222	1.456	0.507
1248.000	696.883	80.003	19.995	103.151	20.217	1.774	0.500
1256.000	700.848	80.003	19.995	103.152	20.221	1.521	0.512
1264.000	704.764	80.002	19.995	103.133	20.221	1.559	0.475
1272.001	708.690	80.003	19.994	103.144	20.221	1.544	0.475
1280.000	712.680	80.003	19.995	103.150	20.224	1.335	0.497
1288.000	716.750	80.003	19.996	103.154	20.222	1.439	0.510
1296.000	720.785	80.004	19.996	103.116	20.222	1.484	0.510
1304.000	724.824	80.003	19.995	103.149	20.225	1.275	0.503
1312.000	728.939	80.003	19.996	103.149	20.221	1.540	0.497
1320.000	733.018	80.004	19.994	103.145	20.226	1.216	0.501
1328.000	737.065	80.002	19.995	103.150	20.222	1.461	0.493
1336.000	741.132	80.003	19.996	103.151	20.226	1.201	0.499
1341.000	743.670	80.002	19.994	103.149	20.227	1.128	0.490