File: 01_Data/Luan_Panel/MCC/Luan_Panel_MCC_30K_min_211118_R2.txt
Sample ID:	C:\MCC\MCC Cal\Test\Luan_Panel_MCC_30K_min_211118_R2.txt
Sample Weight (mg):	4.51
Heating Rate (C/s):	0.5
Combustor Temp (C):	900
N2 Flow Rate (cc/min):	80
O2 Flow Rate (cc/min):	20
Calibration File:	C:\MCC\MCC Cal\Coeff1 JN10440_30_210304.txt.txt
T Correction Coefficients:	0	1.024463	0
Time Shift (s):	14
*
Time (s)	Temperature (C)	N2 flow rate (cc/min)	O2 flow rate (cc/min)	Flow Rate (cc/min)	Oxygen (%)	HRR (W/g)	Heating rate (C/s)
0.000	108.632	80.004	19.996	103.045	20.324	-0.080	-0.020
7.999	108.668	80.002	19.996	103.044	20.328	-0.372	0.007
15.999	108.624	80.004	19.997	103.045	20.324	-0.048	-0.012
23.999	108.662	80.002	19.996	103.057	20.317	0.426	0.005
31.999	108.877	80.002	19.995	103.127	20.310	0.936	0.011
39.999	109.425	80.003	19.994	103.204	20.300	1.686	0.081
47.999	110.311	80.002	19.994	103.225	20.293	2.181	0.111
55.999	111.648	80.002	19.995	103.263	20.282	2.961	0.225
63.999	113.343	80.003	19.995	103.262	20.278	3.210	0.227
71.999	115.449	80.005	19.995	103.319	20.279	3.176	0.292
79.999	117.871	80.003	19.996	103.277	20.279	3.164	0.297
87.999	120.514	80.002	19.996	103.266	20.280	3.079	0.326
95.999	123.387	80.005	19.995	103.266	20.284	2.816	0.369
103.999	126.306	80.006	19.995	103.265	20.282	2.941	0.350
111.999	129.334	80.003	19.997	103.282	20.281	3.041	0.395
119.999	132.509	80.003	19.995	103.278	20.281	3.029	0.434
127.999	135.791	80.003	19.995	103.266	20.277	3.303	0.431
135.999	139.184	80.003	19.996	103.298	20.276	3.363	0.413
144.000	142.673	80.001	19.997	103.291	20.278	3.221	0.447
151.999	146.267	80.003	19.995	103.281	20.280	3.117	0.407
159.999	150.002	80.005	19.995	103.287	20.278	3.210	0.471
167.999	153.750	80.004	19.995	103.300	20.275	3.444	0.442
175.999	157.501	80.004	19.997	103.300	20.280	3.123	0.471
183.999	161.321	80.006	19.995	103.267	20.280	3.124	0.471
191.999	165.252	80.003	19.996	103.289	20.277	3.308	0.518
199.999	169.149	80.004	19.996	103.279	20.278	3.262	0.507
207.999	173.019	80.002	19.996	103.281	20.276	3.346	0.506
215.999	176.963	80.003	19.996	103.263	20.278	3.205	0.490
223.999	180.899	80.003	19.994	103.279	20.276	3.360	0.484
231.999	184.802	80.003	19.995	103.289	20.273	3.611	0.488
239.999	188.866	80.004	19.994	103.282	20.270	3.798	0.471
247.999	192.777	80.005	19.995	103.280	20.268	3.956	0.488
255.999	196.745	80.005	19.995	103.265	20.265	4.129	0.448
263.999	200.659	80.007	19.995	103.269	20.259	4.574	0.439
271.999	204.725	80.004	19.995	103.270	20.258	4.630	0.507
279.999	208.702	80.003	19.994	103.264	20.249	5.322	0.500
287.999	212.733	80.002	19.995	103.270	20.240	5.974	0.518
295.999	216.677	80.003	19.996	103.271	20.233	6.481	0.482
303.999	220.659	80.004	19.997	103.267	20.219	7.426	0.510
311.999	224.602	80.003	19.995	103.267	20.212	7.948	0.465
319.999	228.585	80.003	19.995	103.264	20.202	8.637	0.497
327.999	232.585	80.004	19.995	103.265	20.196	9.123	0.511
335.999	236.524	80.005	19.995	103.264	20.190	9.515	0.487
343.999	240.448	80.004	19.995	103.290	20.181	10.128	0.464
351.999	244.400	80.006	19.994	103.277	20.168	11.106	0.483
359.999	248.353	80.002	19.995	103.294	20.156	11.940	0.531
367.999	252.307	80.002	19.995	103.282	20.143	12.891	0.512
375.999	256.137	80.001	19.996	103.298	20.119	14.581	0.471
383.999	260.080	80.003	19.996	103.313	20.098	16.118	0.496
391.999	264.068	80.004	19.996	103.333	20.065	18.484	0.495
399.999	268.178	80.003	19.995	103.341	20.040	20.252	0.499
407.999	272.310	80.006	19.994	103.348	20.017	21.915	0.518
415.999	276.436	80.001	19.995	103.342	19.988	23.963	0.526
423.999	280.619	80.003	19.994	103.349	19.964	25.692	0.510
431.999	284.697	80.008	19.995	103.346	19.942	27.262	0.482
439.999	288.764	80.004	19.995	103.350	19.914	29.230	0.517
447.999	292.758	80.003	19.995	103.358	19.885	31.314	0.517
455.999	296.630	80.003	19.995	103.363	19.859	33.183	0.494
463.999	300.419	80.004	19.996	103.380	19.832	35.109	0.483
471.999	304.115	80.003	19.996	103.384	19.803	37.180	0.458
479.999	307.868	80.005	19.995	103.384	19.771	39.542	0.457
487.999	311.618	80.002	19.995	103.392	19.739	41.810	0.470
495.999	315.470	80.003	19.996	103.422	19.705	44.234	0.473
504.000	319.399	80.002	19.995	103.428	19.665	47.124	0.501
511.999	323.396	80.006	19.994	103.457	19.623	50.100	0.496
519.999	327.454	80.006	19.995	103.460	19.582	53.082	0.496
527.999	331.533	80.002	19.996	103.472	19.530	56.757	0.502
535.999	335.716	80.004	19.996	103.481	19.489	59.720	0.489
543.999	339.784	80.004	19.995	103.494	19.456	62.061	0.509
551.999	343.843	80.003	19.996	103.484	19.439	63.284	0.527
559.999	347.968	80.002	19.996	103.463	19.454	62.181	0.523
567.999	352.085	80.004	19.996	103.425	19.494	59.270	0.506
575.999	356.224	80.003	19.995	103.380	19.571	53.769	0.515
583.999	360.261	80.004	19.996	103.332	19.686	45.519	0.478
591.999	364.406	80.003	19.997	103.267	19.821	35.845	0.517
599.999	368.493	80.005	19.994	103.227	19.950	26.660	0.490
607.999	372.574	80.003	19.995	103.222	20.062	18.641	0.519
615.999	376.669	80.004	19.995	103.196	20.137	13.315	0.519
623.999	380.671	80.001	19.996	103.191	20.174	10.673	0.471
631.999	384.713	80.003	19.996	103.189	20.197	9.000	0.508
639.999	388.745	80.003	19.995	103.197	20.208	8.224	0.514
647.999	392.761	80.001	19.996	103.187	20.216	7.683	0.523
655.999	396.765	80.005	19.996	103.192	20.226	6.975	0.475
663.999	400.817	80.003	19.995	103.191	20.225	7.017	0.516
671.999	404.812	80.004	19.996	103.188	20.233	6.409	0.455
679.999	408.944	80.004	19.996	103.192	20.233	6.429	0.504
688.000	412.915	80.003	19.996	103.182	20.238	6.105	0.497
695.999	416.861	80.004	19.996	103.191	20.239	6.015	0.497
703.999	420.918	80.004	19.997	103.184	20.241	5.905	0.520
711.999	424.914	80.003	19.995	103.180	20.250	5.234	0.490
719.999	428.959	80.005	19.995	103.184	20.251	5.136	0.499
727.999	432.991	80.003	19.994	103.186	20.261	4.427	0.506
735.999	437.091	80.007	19.994	103.178	20.265	4.157	0.510
743.999	441.103	80.005	19.995	103.185	20.260	4.528	0.499
751.999	445.122	80.003	19.994	103.180	20.265	4.192	0.528
759.999	449.177	80.004	19.995	103.164	20.265	4.182	0.541
767.999	453.261	80.004	19.995	103.184	20.270	3.799	0.491
775.999	457.380	80.002	19.996	103.162	20.273	3.614	0.510
783.999	461.469	80.003	19.996	103.173	20.273	3.600	0.517
791.999	465.492	80.004	19.995	103.166	20.279	3.143	0.487
799.999	469.527	80.003	19.995	103.176	20.279	3.149	0.501
807.999	473.590	80.003	19.995	103.161	20.283	2.877	0.515
815.999	477.633	80.005	19.994	103.181	20.282	2.944	0.503
823.999	481.658	80.005	19.994	103.184	20.282	2.962	0.482
831.999	485.637	80.005	19.994	103.166	20.286	2.689	0.525
839.999	489.643	80.006	19.995	103.151	20.286	2.689	0.514
847.999	493.812	80.006	19.995	103.168	20.277	3.304	0.557
855.999	497.883	80.003	19.995	103.170	20.285	2.731	0.490
863.999	502.008	80.004	19.996	103.157	20.288	2.533	0.540
871.999	506.122	80.003	19.996	103.158	20.289	2.448	0.508
879.999	510.224	80.003	19.995	103.155	20.286	2.625	0.499
888.000	514.280	80.003	19.995	103.164	20.288	2.509	0.506
895.999	518.425	80.004	19.995	103.156	20.292	2.245	0.520
903.999	522.575	80.006	19.995	103.150	20.293	2.183	0.531
911.999	526.759	80.004	19.993	103.157	20.298	1.828	0.558
919.999	530.839	80.005	19.994	103.146	20.293	2.191	0.547
927.999	534.904	80.005	19.994	103.148	20.293	2.129	0.536
935.999	538.914	80.003	19.995	103.151	20.293	2.131	0.525
943.999	542.958	80.005	19.995	103.148	20.296	1.944	0.471
951.999	547.033	80.002	19.995	103.152	20.295	2.021	0.517
959.999	551.037	80.004	19.996	103.150	20.296	1.960	0.487
967.999	555.058	80.001	19.996	103.146	20.296	1.942	0.512
976.000	559.229	80.004	19.995	103.148	20.292	2.223	0.538
983.999	563.560	80.006	19.996	103.162	20.293	2.131	0.563
991.999	568.005	80.005	19.994	103.164	20.296	1.962	0.554
1000.000	572.564	80.005	19.995	103.166	20.290	2.402	0.569
1008.000	577.216	80.006	19.994	103.156	20.292	2.203	0.564
1015.999	581.767	80.005	19.994	103.169	20.288	2.484	0.575
1023.999	586.296	80.002	19.994	103.170	20.293	2.135	0.557
1032.001	590.772	80.003	19.996	103.166	20.292	2.241	0.569
1039.999	595.193	80.004	19.996	103.148	20.289	2.414	0.530
1047.999	599.515	80.005	19.995	103.151	20.290	2.384	0.549
1055.999	603.796	80.002	19.996	103.151	20.287	2.575	0.538
1063.999	607.911	80.005	19.995	103.155	20.291	2.282	0.521
1071.999	612.029	80.005	19.994	103.158	20.296	1.940	0.531
1080.000	616.101	80.004	19.994	103.153	20.300	1.653	0.513
1087.999	620.172	80.006	19.994	103.151	20.289	2.444	0.497
1096.000	624.255	80.006	19.994	103.149	20.289	2.428	0.519
1103.999	628.269	80.004	19.994	103.148	20.297	1.886	0.535
1111.999	632.290	80.005	19.993	103.146	20.297	1.882	0.506
1120.000	636.341	80.003	19.995	103.149	20.298	1.800	0.502
1127.999	640.383	80.004	19.997	103.150	20.300	1.647	0.491
1135.999	644.389	80.003	19.995	103.154	20.298	1.784	0.480
1143.999	648.400	80.004	19.995	103.151	20.297	1.884	0.492
1152.000	652.354	80.005	19.995	103.151	20.296	1.922	0.456
1159.999	656.419	80.004	19.996	103.151	20.299	1.743	0.504
1167.999	660.399	80.004	19.994	103.151	20.298	1.790	0.527
1176.000	664.411	80.007	19.994	103.148	20.291	2.314	0.507
1184.000	668.410	80.003	19.994	103.147	20.289	2.414	0.501
1191.999	672.467	80.002	19.995	103.152	20.295	2.000	0.497
1200.000	676.518	80.004	19.995	103.151	20.300	1.639	0.492
1207.999	680.564	80.004	19.994	103.153	20.296	1.926	0.507
1215.999	684.550	80.003	19.995	103.154	20.295	2.017	0.488
1224.000	688.563	80.004	19.995	103.149	20.295	2.005	0.507
1232.000	692.624	80.007	19.997	103.151	20.299	1.756	0.484
1239.999	696.688	80.005	19.995	103.136	20.296	1.926	0.502
1247.999	700.715	80.005	19.995	103.134	20.298	1.814	0.525
1256.000	704.691	80.007	19.996	103.141	20.300	1.667	0.499
1264.000	708.674	80.004	19.995	103.141	20.300	1.671	0.505
1271.999	712.669	80.004	19.995	103.148	20.302	1.517	0.512
1279.999	716.675	80.004	19.994	103.147	20.298	1.802	0.493
1287.999	720.711	80.004	19.995	103.144	20.298	1.794	0.490
1295.999	724.687	80.004	19.994	103.134	20.302	1.491	0.507
1303.999	728.684	80.004	19.995	103.126	20.303	1.422	0.518
1312.000	732.685	80.005	19.995	103.130	20.300	1.623	0.500
1320.000	736.671	80.005	19.995	103.129	20.297	1.866	0.543
1328.000	740.719	80.004	19.995	103.150	20.299	1.708	0.508
1333.999	743.788	80.006	19.994	103.138	20.300	1.627	0.544