File: 01_Data/Pine_Lap_Siding_Wood/STA/N2/10K_min/Pine_Lap_Siding_Wood_STA_N2_10KData_220318_R2.csv
##Temp./Â°C,Time/min,Mass loss(subtr.2)/mg,DSC(subtr.2)/(mW/mg),Sensit./(uV/mW)
49.691,10.01,-0.01536,0.02628186,1.07516
52.691,11.2822,-0.0174129,0.13687,1.0736
55.691,11.7159,-0.0178229,0.19454,1.07203
58.691,12.08433,-0.01999513,0.22698,1.07047
61.691,12.4285,-0.0197504,0.25351,1.06892
64.691,12.75967,-0.02053207,0.27206,1.06736
67.691,13.0852,-0.02257799,0.28795,1.0658
70.691,13.40565,-0.02469028,0.30381,1.06425
73.691,13.72396,-0.02335919,0.31676,1.06269
76.691,14.03953,-0.02731015,0.33113,1.06114
79.691,14.35085,-0.03127784,0.34276,1.05959
82.691,14.65974,-0.03127,0.35147,1.05804
85.691,14.96526,-0.03634948,0.35695,1.05649
88.691,15.26879,-0.03677522,0.35949,1.05495
91.691,15.569,-0.038847,0.35649,1.0534
94.691,15.8674,-0.03916077,0.35052,1.05186
97.691,16.1643,-0.04179002,0.34554,1.05032
100.691,16.4604,-0.04147,0.33698,1.04878
103.691,16.7557,-0.04545498,0.32955,1.04724
106.691,17.0506,-0.04408955,0.32287,1.0457
109.691,17.34422,-0.04529073,0.31735,1.04417
112.691,17.63782,-0.04392957,0.31398,1.04263
115.691,17.93158,-0.04640033,0.31176,1.0411
118.691,18.2249,-0.04495458,0.31171,1.03956
121.691,18.51761,-0.04509628,0.31569,1.03803
124.691,18.80957,-0.04771,0.31586,1.0365
127.691,19.1014,-0.04811147,0.31858,1.03498
130.691,19.39366,-0.04647348,0.31941,1.03345
133.691,19.685,-0.04640173,0.32433,1.03192
136.691,19.97525,-0.04771636,0.32948,1.0304
139.691,20.26541,-0.04773198,0.32906,1.02887
142.691,20.55574,-0.04772013,0.33269,1.02735
145.691,20.8452,-0.04674713,0.33607,1.02583
148.691,21.13459,-0.04805028,0.34076,1.02431
151.691,21.42363,-0.05032856,0.34319,1.02279
154.691,21.71173,-0.04825618,0.34994,1.02127
157.691,22.00045,-0.04903187,0.35332,1.01975
160.691,22.28814,-0.04803406,0.35802,1.01823
163.691,22.57594,-0.0483719,0.36144,1.01672
166.691,22.8641,-0.04904564,0.36546,1.0152
169.691,23.1513,-0.04936,0.36826,1.01369
172.691,23.4388,-0.05068,0.37165,1.01217
175.691,23.72632,-0.04936,0.37721,1.01066
178.691,24.01343,-0.05068,0.38006,1.00914
181.691,24.29948,-0.04937013,0.38202,1.00763
184.691,24.58697,-0.05067978,0.38557,1.00612
187.691,24.87442,-0.05200678,0.38835,1.00461
190.691,25.16075,-0.05233,0.39694,1.00309
193.691,25.44705,-0.05114283,0.39856,1.00158
196.691,25.7334,-0.05332122,0.40515,1.00007
199.691,26.01981,-0.05463,0.4088,0.99856
202.691,26.30537,-0.05332001,0.4106,0.99705
205.691,26.5915,-0.0556439,0.41623,0.99554
208.691,26.8781,-0.05820442,0.41925,0.99403
211.691,27.16406,-0.06087849,0.42486,0.99251
214.691,27.4507,-0.06154,0.42721,0.991
217.691,27.7371,-0.06334912,0.43258,0.98949
220.691,28.02376,-0.06558345,0.43748,0.98798
223.691,28.3098,-0.06789252,0.44173,0.98647
226.691,28.5971,-0.07086,0.44545,0.98495
229.691,28.8842,-0.07221694,0.44817,0.98344
232.691,29.17169,-0.07613,0.45583,0.98192
235.691,29.45856,-0.07898426,0.46202,0.98041
238.691,29.74555,-0.08467841,0.46938,0.97889
241.691,30.03295,-0.08962046,0.47623,0.97737
244.691,30.32,-0.09455,0.48144,0.97586
247.691,30.60773,-0.10115,0.48289,0.97434
250.691,30.89505,-0.1068,0.48708,0.97282
253.691,31.18192,-0.11783,0.48562,0.9713
256.691,31.4689,-0.12681,0.48394,0.96977
259.691,31.75603,-0.13613,0.4862,0.96825
262.691,32.04305,-0.15061,0.48898,0.96672
265.691,32.32946,-0.16581,0.49096,0.9652
268.691,32.61529,-0.17843,0.49481,0.96367
271.691,32.90202,-0.19237,0.49413,0.96214
274.691,33.18823,-0.21021,0.49881,0.96061
277.691,33.47571,-0.2306,0.50123,0.95907
280.691,33.76265,-0.24943,0.4999,0.95754
283.691,34.05072,-0.27495,0.50084,0.956
286.691,34.33984,-0.29997,0.50565,0.95446
289.691,34.62792,-0.32925,0.51162,0.95292
292.691,34.91579,-0.358,0.52043,0.95137
295.691,35.20264,-0.39071,0.5296,0.94982
298.691,35.48992,-0.4258,0.53956,0.94828
301.691,35.77726,-0.46527,0.55195,0.94672
304.691,36.06524,-0.50969,0.5633,0.94517
307.691,36.35298,-0.55378,0.57777,0.94361
310.691,36.6421,-0.60438,0.59146,0.94205
313.691,36.93161,-0.65747,0.6107,0.94049
316.691,37.22139,-0.71778,0.62565,0.93892
319.691,37.5109,-0.78202,0.64602,0.93735
322.691,37.80124,-0.84909,0.66379,0.93578
325.691,38.09138,-0.91904,0.67844,0.93421
328.691,38.38165,-0.99259,0.69309,0.93263
331.691,38.67154,-1.07019,0.70446,0.93105
334.691,38.9615,-1.14939,0.71773,0.92946
337.691,39.2511,-1.23175,0.73083,0.92787
340.691,39.54003,-1.3135,0.74882,0.92628
343.691,39.8287,-1.40217,0.77045,0.92468
346.691,40.1179,-1.49166,0.80047,0.92308
349.691,40.40783,-1.5856,0.83967,0.92147
352.691,40.69805,-1.68884,0.88626,0.91987
355.691,40.98908,-1.79882,0.93952,0.91825
358.691,41.27994,-1.91642,0.99816,0.91664
361.691,41.57035,-2.04141,1.05081,0.91501
364.691,41.8613,-2.17448,1.08025,0.91339
367.691,42.15217,-2.31116,1.07976,0.91176
370.691,42.4434,-2.44319,1.02968,0.91012
373.691,42.73413,-2.56883,0.92367,0.90848
376.691,43.0248,-2.67698,0.76467,0.90684
379.691,43.31504,-2.76132,0.58259,0.90519
382.691,43.6049,-2.81977,0.40779,0.90354
385.691,43.89495,-2.85861,0.26922,0.90188
388.691,44.18522,-2.88224,0.1843,0.90021
391.691,44.4761,-2.89855,0.14176,0.89854
394.691,44.7676,-2.90883,0.12236,0.89687
397.691,45.0587,-2.9206,0.11498,0.89519
400.691,45.35109,-2.93096,0.10653,0.8935
403.691,45.643,-2.93816,0.10199,0.89181
406.691,45.93535,-2.94814,0.0983644,0.89011
409.691,46.2278,-2.95747,0.08996007,0.88841
412.691,46.5208,-2.96621,0.08418079,0.8867
415.691,46.8138,-2.97616,0.07382837,0.88499
418.691,47.10774,-2.98498,0.06756904,0.88327
421.691,47.40207,-2.99508,0.06297918,0.88155
424.691,47.69619,-3.00285,0.05388253,0.87981
427.691,47.99069,-3.01252,0.04976401,0.87808
430.691,48.28427,-3.02105,0.04652798,0.87633
433.691,48.57832,-3.02778,0.04478361,0.87458
436.691,48.87281,-3.03673,0.04435708,0.87282
439.691,49.16709,-3.04531,0.04912694,0.87106
442.691,49.46139,-3.05329,0.05144045,0.86929
445.691,49.75677,-3.06105,0.05876294,0.86752
448.691,50.05186,-3.0676,0.06735974,0.86573
451.691,50.34817,-3.07418,0.07385525,0.86394
454.691,50.64387,-3.0811,0.08335907,0.86215
457.691,50.93967,-3.08709,0.09014067,0.86035
460.691,51.23503,-3.09366,0.09943521,0.85854
463.691,51.52997,-3.09885,0.11125,0.85672
466.691,51.8255,-3.10413,0.11862,0.85489
469.691,52.12216,-3.10937,0.12452,0.85306
472.691,52.41855,-3.11202,0.1304,0.85123
475.691,52.71521,-3.11776,0.13504,0.84938
478.691,53.0116,-3.12234,0.13753,0.84753
481.691,53.30849,-3.12358,0.14363,0.84567
484.691,53.6057,-3.13087,0.14673,0.8438
487.691,53.90212,-3.13485,0.14769,0.84193
490.691,54.19944,-3.13879,0.15294,0.84005
493.691,54.49655,-3.1436,0.15219,0.83816
496.691,54.7944,-3.14607,0.15532,0.83626
499.691,55.09325,-3.15003,0.15669,0.83436
502.691,55.3911,-3.15375,0.16287,0.83244
505.691,55.68845,-3.15635,0.17344,0.83052
508.691,55.9862,-3.16094,0.18227,0.8286
511.691,56.28447,-3.16422,0.19325,0.82666
514.691,56.58283,-3.16554,0.19524,0.82472
517.691,56.88091,-3.17123,0.20109,0.82277
520.691,57.17985,-3.17135,0.20669,0.82081
523.691,57.4773,-3.17378,0.21522,0.81884
526.691,57.77474,-3.17936,0.2188,0.81686
529.691,58.07226,-3.18233,0.22057,0.81488
532.691,58.36994,-3.18365,0.22687,0.81289
535.691,58.66805,-3.18727,0.22596,0.81089
538.691,58.96631,-3.18989,0.22513,0.80888
541.691,59.2649,-3.19384,0.21073,0.80687
544.691,59.5639,-3.19641,0.20001,0.80485
547.691,59.86263,-3.20172,0.1937,0.80281
550.691,60.1615,-3.20174,0.18855,0.80077
553.691,60.4607,-3.20404,0.18404,0.79873
556.691,60.7599,-3.20602,0.18467,0.79667
559.691,61.05834,-3.20997,0.18625,0.79461
562.691,61.35722,-3.21227,0.18453,0.79253
565.691,61.6576,-3.21284,0.18392,0.79045
568.691,61.95776,-3.21688,0.1811,0.78836
571.691,62.25806,-3.21687,0.18252,0.78626
574.691,62.55849,-3.22083,0.17584,0.78416
577.691,62.85909,-3.22313,0.18057,0.78204
580.691,63.1593,-3.22412,0.18132,0.77992
583.691,63.4603,-3.22686,0.179,0.77779
586.691,63.76124,-3.22815,0.17749,0.77565
589.691,64.06308,-3.23081,0.17558,0.7735
592.691,64.36442,-3.23341,0.17683,0.77134
595.691,64.66666,-3.23464,0.17336,0.76918
598.691,64.96857,-3.23656,0.17182,0.76701
601.691,65.27091,-3.23864,0.1738,0.76482
604.691,65.5727,-3.23988,0.17828,0.76263
607.691,65.87414,-3.24243,0.18196,0.76044
610.691,66.17435,-3.24354,0.18526,0.75823
613.691,66.47586,-3.2468,0.18652,0.75601
616.691,66.7789,-3.2477,0.19331,0.75379
619.691,67.07977,-3.25033,0.19679,0.75156
622.691,67.37994,-3.2533,0.19962,0.74932
625.691,67.68025,-3.25417,0.20726,0.74707
628.691,67.98144,-3.25549,0.20987,0.74481
631.691,68.28319,-3.25812,0.21282,0.74255
634.691,68.5853,-3.2585,0.21447,0.74027
637.691,68.88769,-3.26075,0.21464,0.73799
640.691,69.18926,-3.26075,0.21898,0.7357
643.691,69.49006,-3.26306,0.22577,0.73341
646.691,69.79133,-3.26438,0.23121,0.7311
649.691,70.09467,-3.26672,0.2335,0.72879
652.691,70.39777,-3.26646,0.23711,0.72646
655.691,70.70028,-3.26766,0.23569,0.72413
658.691,71.0035,-3.26964,0.23758,0.72179
661.691,71.30711,-3.27063,0.24052,0.71945
664.691,71.61033,-3.27063,0.24543,0.71709
667.691,71.91293,-3.27256,0.24938,0.71473
670.691,72.21461,-3.27224,0.25475,0.71236
673.691,72.5169,-3.27457,0.25571,0.70998
676.691,72.81959,-3.27521,0.25917,0.7076
679.691,73.1228,-3.2752,0.26664,0.7052
682.691,73.4269,-3.27564,0.26844,0.7028
685.691,73.73054,-3.27722,0.2642,0.70039
688.691,74.03446,-3.27984,0.26863,0.69798
691.691,74.33703,-3.28017,0.27102,0.69555
694.691,74.64065,-3.28116,0.27833,0.69312
697.691,74.94377,-3.28417,0.27959,0.69068
700.691,75.24723,-3.2852,0.28072,0.68824
703.691,75.551,-3.28401,0.28936,0.68578
706.691,75.85504,-3.28557,0.29138,0.68332
709.691,76.15905,-3.28369,0.29508,0.68085
712.691,76.46206,-3.28752,0.29477,0.67838
715.691,76.76684,-3.2861,0.29747,0.67589
718.691,77.07157,-3.28916,0.30238,0.6734
721.691,77.37591,-3.29015,0.30349,0.67091
724.691,77.68043,-3.29081,0.30657,0.6684
727.691,77.985,-3.29245,0.29977,0.66589
730.691,78.2897,-3.29245,0.3024,0.66338
733.691,78.5945,-3.2942,0.30761,0.66085
736.691,78.89878,-3.29476,0.30972,0.65832
739.691,79.20403,-3.29443,0.30954,0.65578
742.691,79.50842,-3.29608,0.30677,0.65324
745.691,79.81331,-3.2964,0.31048,0.65069
747.491,79.9958,-3.29777,0.31193,0.64916