File: 01_Data/Pine_Lap_Siding_Wood/STA/N2/10K_min/Pine_Lap_Siding_Wood_STA_N2_10KData_220318_R1.csv
##Temp./Â°C,Time/min,Mass loss(subtr.2)/mg,DSC(subtr.2)/(mW/mg),Sensit./(uV/mW)
49.604,10.01,0.00033,0.01596114,1.07521
52.604,11.27315,0.00187143,0.13256,1.07364
55.604,11.70604,0.00452387,0.18788,1.07208
58.604,12.0723,0.003637687,0.22157,1.07052
61.604,12.41493,0.002626238,0.2445,1.06896
64.604,12.74735,0.002628122,0.2665,1.0674
67.604,13.07245,0.00206245,0.28152,1.06585
70.604,13.39339,0.0003007887,0.29636,1.06429
73.604,13.71158,-9.952968e-06,0.31086,1.06274
76.604,14.02564,-0.00164585,0.32632,1.06119
79.604,14.3385,-0.003947126,0.33886,1.05964
82.604,14.64671,-0.003921225,0.34625,1.05809
85.604,14.9522,-0.003939992,0.35214,1.05654
88.604,15.25518,-0.0065742,0.3535,1.05499
91.604,15.55608,-0.007899999,0.35039,1.05345
94.604,15.8545,-0.007912507,0.34508,1.05191
97.604,16.15268,-0.009870899,0.33826,1.05036
100.604,16.44872,-0.01052377,0.32884,1.04882
103.604,16.74294,-0.00987997,0.32221,1.04728
106.604,17.0375,-0.01218021,0.31796,1.04575
109.604,17.33108,-0.01216993,0.31154,1.04421
112.604,17.6244,-0.01218023,0.31024,1.04268
115.604,17.91825,-0.01355767,0.30471,1.04114
118.604,18.21181,-0.01086294,0.30429,1.03961
121.604,18.50542,-0.01216535,0.30653,1.03808
124.604,18.7974,-0.011395,0.30757,1.03655
127.604,19.08918,-0.01117973,0.31099,1.03502
130.604,19.37999,-0.01119,0.3137,1.03349
133.604,19.67086,-0.0112122,0.32039,1.03197
136.604,19.9606,-0.01117746,0.32097,1.03044
139.604,20.25061,-0.01119001,0.32512,1.02892
142.604,20.5395,-0.00988748,0.32851,1.02739
145.604,20.82914,-0.01086006,0.32951,1.02587
148.604,21.11845,-0.01085,0.33425,1.02435
151.604,21.40774,-0.01062339,0.33674,1.02283
154.604,21.6972,-0.01019512,0.34094,1.02131
157.604,21.98586,-0.01020974,0.34354,1.01979
160.604,22.2743,-0.00820545,0.35029,1.01828
163.604,22.56198,-0.01053,0.35165,1.01676
166.604,22.84995,-0.00954349,0.35534,1.01524
169.604,23.13755,-0.009572035,0.36081,1.01373
172.604,23.4246,-0.00921,0.36537,1.01222
175.604,23.71209,-0.009214324,0.36828,1.0107
178.604,23.99931,-0.008883458,0.37486,1.00919
181.604,24.28622,-0.008557896,0.37421,1.00768
184.604,24.57246,-0.009903981,0.3774,1.00616
187.604,24.8584,-0.00921055,0.37941,1.00465
190.604,25.1458,-0.0105387,0.38469,1.00314
193.604,25.43352,-0.00970537,0.38735,1.00163
196.604,25.72125,-0.01086322,0.38999,1.00012
199.604,26.0082,-0.01152139,0.39531,0.9986
202.604,26.29502,-0.01283,0.3973,0.99709
205.604,26.58127,-0.01316,0.40598,0.99558
208.604,26.8669,-0.01316067,0.40996,0.99407
211.604,27.15253,-0.01481,0.41619,0.99256
214.604,27.4386,-0.01579565,0.4201,0.99105
217.604,27.72393,-0.01842327,0.42508,0.98953
220.604,28.00974,-0.01842946,0.42817,0.98802
223.604,28.29595,-0.02106,0.43161,0.98651
226.604,28.58241,-0.02237976,0.437,0.985
229.604,28.8686,-0.02632337,0.43816,0.98348
232.604,29.1557,-0.02857085,0.44505,0.98197
235.604,29.44202,-0.03257827,0.44915,0.98045
238.604,29.72897,-0.03653127,0.45702,0.97894
241.604,30.01502,-0.03942489,0.46231,0.97742
244.604,30.3012,-0.04443531,0.46906,0.9759
247.604,30.58734,-0.05253451,0.4715,0.97438
250.604,30.87395,-0.05794932,0.47427,0.97286
253.604,31.16092,-0.06774927,0.47475,0.97134
256.604,31.4471,-0.07677759,0.47668,0.96982
259.604,31.73445,-0.0860711,0.47855,0.96829
262.604,32.02166,-0.09890028,0.47999,0.96677
265.604,32.3091,-0.11275,0.47921,0.96524
268.604,32.59656,-0.12526,0.48009,0.96371
271.604,32.88456,-0.14164,0.48398,0.96218
274.604,33.17192,-0.15985,0.4832,0.96065
277.604,33.45899,-0.17908,0.48697,0.95912
280.604,33.7463,-0.20087,0.49179,0.95758
283.604,34.0338,-0.22342,0.49552,0.95604
286.604,34.32177,-0.24809,0.49889,0.9545
289.604,34.60904,-0.27617,0.5064,0.95296
292.604,34.89647,-0.30628,0.51108,0.95142
295.604,35.18399,-0.33896,0.5181,0.94987
298.604,35.47148,-0.37436,0.52647,0.94832
301.604,35.7599,-0.41448,0.53568,0.94677
304.604,36.04827,-0.45854,0.54818,0.94521
307.604,36.3369,-0.50255,0.56279,0.94366
310.604,36.62556,-0.55392,0.5782,0.9421
313.604,36.91506,-0.60875,0.59412,0.94053
316.604,37.2042,-0.66454,0.6163,0.93897
319.604,37.4924,-0.72992,0.63256,0.9374
322.604,37.78141,-0.79635,0.65099,0.93583
325.604,38.07028,-0.86692,0.66805,0.93425
328.604,38.3601,-0.9409,0.68343,0.93267
331.604,38.64865,-1.01797,0.69751,0.93109
334.604,38.93807,-1.09681,0.70837,0.92951
337.604,39.2286,-1.18015,0.71985,0.92792
340.604,39.51829,-1.26419,0.74067,0.92632
343.604,39.80862,-1.35228,0.76209,0.92473
346.604,40.09838,-1.44202,0.79206,0.92313
349.604,40.38852,-1.53915,0.83206,0.92152
352.604,40.67917,-1.64142,0.87092,0.91991
355.604,40.96938,-1.74927,0.92881,0.9183
358.604,41.26266,-1.86832,0.98247,0.91668
361.604,41.55475,-2.00303,1.03363,0.91506
364.604,41.84648,-2.13017,1.06346,0.91344
367.604,42.13813,-2.25617,1.05846,0.91181
370.604,42.42853,-2.38872,1.01718,0.91017
373.604,42.71849,-2.51643,0.91705,0.90853
376.604,43.0074,-2.6279,0.76805,0.90689
379.604,43.2972,-2.71481,0.5923,0.90524
382.604,43.58659,-2.77674,0.4158,0.90358
385.604,43.87634,-2.81651,0.27771,0.90192
388.604,44.16517,-2.84052,0.19017,0.90026
391.604,44.45576,-2.85565,0.14324,0.89859
394.604,44.748,-2.86878,0.1254,0.89692
397.604,45.04017,-2.87862,0.1148,0.89524
400.604,45.33162,-2.8883,0.10705,0.89355
403.604,45.62325,-2.8979,0.10151,0.89186
406.604,45.91502,-2.9067,0.09671644,0.89016
409.604,46.20714,-2.91469,0.08795292,0.88846
412.604,46.4994,-2.92333,0.07981404,0.88675
415.604,46.79274,-2.93276,0.07377786,0.88504
418.604,47.08597,-2.9409,0.06551493,0.88332
421.604,47.38054,-2.94896,0.06195351,0.8816
424.604,47.67559,-2.95786,0.05232998,0.87986
427.604,47.97039,-2.96692,0.04826232,0.87813
430.604,48.2637,-2.97483,0.04506839,0.87638
433.604,48.55823,-2.98209,0.04774126,0.87463
436.604,48.85164,-2.99005,0.04664303,0.87288
439.604,49.14595,-2.99984,0.05079581,0.87111
442.604,49.4397,-3.00637,0.05452987,0.86934
445.604,49.73438,-3.0145,0.06122101,0.86757
448.604,50.0301,-3.02207,0.06827609,0.86579
451.604,50.32571,-3.02775,0.07671329,0.864
454.604,50.62223,-3.03568,0.0855121,0.8622
457.604,50.9182,-3.04228,0.09352495,0.8604
460.604,51.21419,-3.04744,0.1007,0.85859
463.604,51.5099,-3.05409,0.10842,0.85677
466.604,51.80615,-3.05838,0.11579,0.85495
469.604,52.10226,-3.06331,0.12311,0.85312
472.604,52.39869,-3.06825,0.12747,0.85128
475.604,52.69486,-3.07088,0.13258,0.84943
478.604,52.9914,-3.07723,0.13723,0.84758
481.604,53.2883,-3.0814,0.14318,0.84572
484.604,53.585,-3.08472,0.14711,0.84386
487.604,53.88166,-3.08866,0.15215,0.84198
490.604,54.1788,-3.09195,0.15589,0.8401
493.604,54.47583,-3.09829,0.15969,0.83821
496.604,54.7735,-3.10019,0.16182,0.83631
499.604,55.0702,-3.10346,0.16573,0.83441
502.604,55.3673,-3.1074,0.16627,0.8325
505.604,55.6633,-3.11004,0.17271,0.83058
508.604,55.9626,-3.11399,0.18642,0.82865
511.604,56.26039,-3.11731,0.20021,0.82672
514.604,56.55822,-3.1209,0.21216,0.82477
517.604,56.85586,-3.12448,0.21597,0.82282
520.604,57.15421,-3.12715,0.22276,0.82086
523.604,57.4521,-3.12979,0.23035,0.8189
526.604,57.74971,-3.13241,0.23771,0.81692
529.604,58.0477,-3.13583,0.24454,0.81494
532.604,58.3459,-3.13965,0.24826,0.81295
535.604,58.6448,-3.1413,0.24999,0.81095
538.604,58.94305,-3.14426,0.25272,0.80894
541.604,59.24139,-3.14767,0.24876,0.80693
544.604,59.53997,-3.15084,0.23569,0.8049
547.604,59.8384,-3.15413,0.23474,0.80287
550.604,60.1369,-3.1568,0.22971,0.80083
553.604,60.4366,-3.1594,0.22881,0.79879
556.604,60.7369,-3.16071,0.2308,0.79673
559.604,61.0367,-3.16118,0.22916,0.79467
562.604,61.33583,-3.16468,0.22579,0.79259
565.604,61.63705,-3.16796,0.22731,0.79051
568.604,61.9388,-3.16927,0.2275,0.78842
571.604,62.2391,-3.17059,0.22548,0.78632
574.604,62.5388,-3.17322,0.22566,0.78422
577.604,62.8385,-3.17585,0.22762,0.7821
580.604,63.13854,-3.17848,0.22765,0.77998
583.604,63.43871,-3.18013,0.22715,0.77785
586.604,63.73831,-3.1814,0.2316,0.77571
589.604,64.0393,-3.18374,0.22927,0.77356
592.604,64.34048,-3.18704,0.23111,0.77141
595.604,64.6412,-3.18835,0.23402,0.76924
598.604,64.9428,-3.19132,0.23187,0.76707
601.604,65.24269,-3.19263,0.23313,0.76489
604.604,65.5429,-3.19459,0.23782,0.7627
607.604,65.8435,-3.19793,0.23894,0.7605
610.604,66.144,-3.19889,0.242,0.75829
613.604,66.44505,-3.20258,0.24355,0.75608
616.604,66.74486,-3.20281,0.24666,0.75385
619.604,67.04674,-3.20547,0.25172,0.75162
622.604,67.34942,-3.20546,0.25432,0.74938
625.604,67.65048,-3.20942,0.25721,0.74714
628.604,67.95189,-3.20941,0.26105,0.74488
631.604,68.25367,-3.21139,0.26177,0.74261
634.604,68.55593,-3.21271,0.26381,0.74034
637.604,68.8592,-3.21598,0.26094,0.73806
640.604,69.1623,-3.21602,0.26219,0.73577
643.604,69.4654,-3.21896,0.26671,0.73347
646.604,69.76856,-3.22028,0.26655,0.73117
649.604,70.07206,-3.22128,0.26924,0.72885
652.604,70.3751,-3.22191,0.27207,0.72653
655.604,70.6764,-3.22587,0.27603,0.7242
658.604,70.97798,-3.22587,0.28209,0.72186
661.604,71.2805,-3.22719,0.28428,0.71952
664.604,71.58346,-3.2285,0.28877,0.71716
667.604,71.88627,-3.22916,0.29386,0.7148
670.604,72.18851,-3.23179,0.29503,0.71243
673.604,72.4901,-3.23245,0.30107,0.71005
676.604,72.7909,-3.23244,0.30647,0.70767
679.604,73.09415,-3.23479,0.30961,0.70527
682.604,73.39659,-3.23466,0.31433,0.70287
685.604,73.69898,-3.2364,0.31689,0.70046
688.604,74.00131,-3.23772,0.32072,0.69805
691.604,74.30425,-3.22854,0.32247,0.69562
694.604,74.60745,-3.23666,0.32452,0.69319
697.604,74.9115,-3.24147,0.32982,0.69075
700.604,75.21704,-3.24526,0.3409,0.68831
703.604,75.52336,-3.242,0.34475,0.68585
706.604,75.82848,-3.24221,0.34413,0.68339
709.604,76.13385,-3.24288,0.34737,0.68092
712.604,76.43815,-3.24551,0.35127,0.67845
715.604,76.74225,-3.24535,0.3538,0.67597
718.604,77.04517,-3.24814,0.35475,0.67348
721.604,77.349,-3.24946,0.35374,0.67098
724.604,77.6536,-3.24888,0.35546,0.66848
727.604,77.95838,-3.25044,0.35728,0.66597
730.604,78.26231,-3.25222,0.35372,0.66345
733.604,78.56649,-3.25307,0.35762,0.66092
736.604,78.87051,-3.25241,0.35575,0.65839
739.604,79.1747,-3.25406,0.36077,0.65586
742.604,79.4782,-3.25476,0.36605,0.65331
745.604,79.78139,-3.25638,0.36662,0.65076
747.704,79.99299,-3.25669,0.36869,0.64897