File: 01_Data/Pine_Lap_Siding_Wood/STA/N2/30K_min/Pine_Lap_Siding_Wood_STA_N2_30KData_220317_R1.csv
##Temp./Â°C,Time/min,Mass loss(subtr.2)/mg,DSC(subtr.2)/(mW/mg),Sensit./(uV/mW)
48.888,10.01,-0.05429,0.03310892,1.08881
52.288,10.89226,-0.05881208,0.2024,1.08595
55.688,11.13219,-0.05875803,0.32025,1.08311
59.088,11.3175,-0.05955658,0.4117,1.08029
62.488,11.47829,-0.05990691,0.49352,1.07749
65.888,11.6248,-0.0603321,0.55892,1.0747
69.288,11.7624,-0.06030036,0.62108,1.07194
72.688,11.89443,-0.06351999,0.67672,1.0692
76.088,12.0222,-0.0643611,0.7305,1.06648
79.488,12.14723,-0.06470761,0.78251,1.06377
82.888,12.26942,-0.06707134,0.82772,1.06109
86.288,12.38959,-0.06916913,0.87199,1.05843
89.688,12.50741,-0.06922137,0.91119,1.05579
93.088,12.62486,-0.0715892,0.95027,1.05316
96.488,12.74156,-0.07404081,0.97888,1.05056
99.888,12.85706,-0.07665448,1.00206,1.04797
103.288,12.97187,-0.07797855,1.0145,1.04541
106.688,13.08645,-0.07929998,1.02086,1.04286
110.088,13.2008,-0.08193279,1.01553,1.04034
113.488,13.3146,-0.08449227,1.00709,1.03783
116.888,13.4281,-0.08456468,0.99388,1.03534
120.288,13.5414,-0.08587906,0.97738,1.03287
123.688,13.65315,-0.08720002,0.96014,1.03042
127.088,13.76508,-0.0872,0.94674,1.02799
130.488,13.8766,-0.0865162,0.94038,1.02557
133.888,13.987,-0.08720345,0.9356,1.02318
137.288,14.0974,-0.08835061,0.93913,1.0208
140.688,14.20684,-0.08825832,0.94417,1.01844
144.088,14.3157,-0.08852007,0.95282,1.0161
147.488,14.42397,-0.08873134,0.96325,1.01378
150.888,14.5318,-0.08884,0.97867,1.01148
154.288,14.63928,-0.08883861,0.99171,1.00919
157.688,14.74635,-0.08983089,1.00529,1.00692
161.088,14.85351,-0.09021343,1.01918,1.00467
164.488,14.95994,-0.09016,1.03277,1.00243
167.888,15.06662,-0.09016,1.04851,1.00021
171.288,15.17257,-0.09016,1.0603,0.99801
174.688,15.2786,-0.09112307,1.07674,0.99582
178.088,15.3845,-0.09150001,1.08993,0.99366
181.488,15.49034,-0.09246832,1.10237,0.9915
184.888,15.5952,-0.09115,1.11491,0.98937
188.288,15.69996,-0.09115,1.12848,0.98724
191.688,15.8046,-0.09245987,1.14276,0.98514
195.088,15.90887,-0.09246277,1.15611,0.98305
198.488,16.01305,-0.09299949,1.16813,0.98097
201.888,16.1171,-0.09444004,1.1842,0.97891
205.288,16.22104,-0.09447866,1.19731,0.97686
208.688,16.32465,-0.09656814,1.21245,0.97483
212.088,16.4284,-0.09707,1.22303,0.97281
215.488,16.53185,-0.09787269,1.23848,0.97081
218.888,16.63534,-0.09838013,1.25141,0.96882
222.288,16.73886,-0.09969995,1.26651,0.96684
225.688,16.84226,-0.10101,1.27636,0.96488
229.088,16.9456,-0.10333,1.28972,0.96293
232.488,17.04881,-0.10397,1.30386,0.96099
235.888,17.15194,-0.10529,1.3183,0.95906
239.288,17.2547,-0.10906,1.32897,0.95715
242.688,17.3583,-0.11055,1.34397,0.95525
246.088,17.46122,-0.11317,1.35561,0.95336
249.488,17.56418,-0.11633,1.37246,0.95148
252.888,17.66705,-0.12043,1.38487,0.94961
256.288,17.7698,-0.1259,1.40067,0.94775
259.688,17.87252,-0.13091,1.41606,0.94591
263.088,17.97476,-0.13742,1.43013,0.94407
266.488,18.07734,-0.14404,1.44559,0.94224
269.888,18.17967,-0.15462,1.45546,0.94043
273.288,18.28247,-0.16382,1.46615,0.93862
276.688,18.3854,-0.17425,1.47448,0.93682
280.088,18.48789,-0.18749,1.48154,0.93503
283.488,18.59054,-0.20078,1.48647,0.93325
286.888,18.69331,-0.21575,1.49363,0.93148
290.288,18.7961,-0.23165,1.4969,0.92971
293.688,18.89878,-0.25018,1.50062,0.92796
297.088,19.0016,-0.26959,1.50717,0.92621
300.488,19.1044,-0.29271,1.5119,0.92446
303.888,19.20745,-0.31844,1.51755,0.92273
307.288,19.31035,-0.34462,1.52566,0.921
310.688,19.41346,-0.37568,1.5359,0.91927
314.088,19.51663,-0.40633,1.54984,0.91756
317.488,19.62,-0.44203,1.57382,0.91584
320.888,19.72339,-0.48195,1.59834,0.91414
324.288,19.827,-0.52496,1.62702,0.91244
327.688,19.93055,-0.57305,1.66662,0.91074
331.088,20.03439,-0.62144,1.70821,0.90904
334.488,20.1383,-0.67917,1.75432,0.90736
337.888,20.2424,-0.74176,1.80505,0.90567
341.288,20.34657,-0.8062,1.84777,0.90399
344.688,20.451,-0.87988,1.89203,0.90231
348.088,20.55526,-0.95569,1.93205,0.90063
351.488,20.65985,-1.03754,1.9655,0.89896
354.888,20.76461,-1.12043,1.99944,0.89729
358.288,20.8695,-1.20637,2.03447,0.89562
361.688,20.97397,-1.29653,2.07583,0.89395
365.088,21.07852,-1.38701,2.13779,0.89228
368.488,21.18392,-1.48197,2.22347,0.89062
371.888,21.28944,-1.58648,2.33545,0.88895
375.288,21.39487,-1.69314,2.47935,0.88729
378.688,21.50029,-1.81218,2.63807,0.88562
382.088,21.60599,-1.94178,2.78994,0.88396
385.488,21.71165,-2.07688,2.90574,0.88229
388.888,21.8175,-2.22232,2.93814,0.88062
392.288,21.9233,-2.36418,2.84199,0.87896
395.688,22.029,-2.49868,2.59318,0.87729
399.088,22.13445,-2.61853,2.19564,0.87561
402.488,22.23956,-2.71213,1.71063,0.87394
405.888,22.345,-2.78402,1.2216,0.87227
409.288,22.45022,-2.83185,0.80747,0.87059
412.688,22.55551,-2.86068,0.51563,0.86891
416.088,22.66075,-2.87775,0.34847,0.86722
419.488,22.7665,-2.89106,0.26095,0.86554
422.888,22.8724,-2.90385,0.21342,0.86384
426.288,22.97842,-2.91451,0.17937,0.86215
429.688,23.0847,-2.92754,0.15412,0.86045
433.088,23.19128,-2.93533,0.13228,0.85874
436.488,23.29774,-2.94611,0.10722,0.85704
439.888,23.40448,-2.95584,0.08691238,0.85532
443.288,23.51146,-2.96595,0.0646315,0.8536
446.688,23.61854,-2.9754,0.0471095,0.85188
450.088,23.72577,-2.98344,0.03045962,0.85014
453.488,23.83304,-2.99305,0.0207725,0.84841
456.888,23.94031,-3.00269,0.01756157,0.84666
460.288,24.04791,-3.01148,0.01587152,0.84491
463.688,24.15543,-3.01968,0.02830534,0.84315
467.088,24.26312,-3.02752,0.0394393,0.84139
470.488,24.371,-3.0354,0.05755942,0.83962
473.888,24.47898,-3.04222,0.08177585,0.83784
477.288,24.58704,-3.0488,0.11051,0.83605
480.688,24.69517,-3.0551,0.1351,0.83425
484.088,24.80307,-3.06277,0.16311,0.83245
487.488,24.9116,-3.06694,0.18874,0.83064
490.888,25.02038,-3.07318,0.21126,0.82881
494.288,25.1291,-3.07874,0.23077,0.82698
497.688,25.2376,-3.08323,0.24721,0.82514
501.088,25.34665,-3.08817,0.2646,0.82329
504.488,25.4555,-3.09385,0.27759,0.82143
507.888,25.5646,-3.09852,0.29025,0.81956
511.288,25.67387,-3.10222,0.29962,0.81768
514.688,25.78304,-3.10548,0.30873,0.81579
518.088,25.89271,-3.11059,0.31099,0.81389
521.488,26.0022,-3.11522,0.31665,0.81198
524.888,26.112,-3.11796,0.3234,0.81006
528.288,26.2218,-3.12204,0.32508,0.80813
531.688,26.3316,-3.12617,0.32409,0.80618
535.088,26.44185,-3.1288,0.32471,0.80422
538.488,26.5518,-3.13322,0.32959,0.80226
541.888,26.6621,-3.13594,0.33062,0.80028
545.288,26.7723,-3.1388,0.32754,0.79829
548.688,26.88275,-3.14261,0.3276,0.79628
552.088,26.99285,-3.14409,0.32392,0.79426
555.488,27.1036,-3.14751,0.32518,0.79224
558.888,27.21397,-3.15125,0.31918,0.79019
562.288,27.32457,-3.15501,0.32589,0.78814
565.688,27.43517,-3.15635,0.33391,0.78607
569.088,27.54562,-3.16091,0.33764,0.78399
572.488,27.65633,-3.16231,0.34011,0.7819
575.888,27.76704,-3.16571,0.33821,0.77979
579.288,27.8779,-3.16696,0.34196,0.77767
582.688,27.98879,-3.16957,0.33858,0.77554
586.088,28.0998,-3.17386,0.34129,0.77339
589.488,28.211,-3.17486,0.33748,0.77123
592.888,28.3223,-3.1775,0.33556,0.76906
596.288,28.43348,-3.18029,0.33343,0.76687
599.688,28.54437,-3.18279,0.32802,0.76467
603.088,28.65558,-3.18543,0.31817,0.76245
606.488,28.76779,-3.18872,0.30559,0.76022
609.888,28.8795,-3.19061,0.29927,0.75797
613.288,28.99138,-3.194,0.28745,0.75571
616.688,29.1033,-3.19388,0.28111,0.75344
620.088,29.21521,-3.19658,0.27835,0.75115
623.488,29.32773,-3.19923,0.26966,0.74885
626.888,29.44036,-3.20054,0.25879,0.74653
630.288,29.5529,-3.20452,0.24994,0.7442
633.688,29.6654,-3.20505,0.24196,0.74185
637.088,29.77788,-3.20777,0.23774,0.73948
640.488,29.8903,-3.20974,0.23017,0.73711
643.888,30.00283,-3.21106,0.22399,0.73472
647.288,30.11536,-3.2137,0.21622,0.73231
650.688,30.22788,-3.215,0.21307,0.72989
654.088,30.3404,-3.21536,0.20626,0.72745
657.488,30.45297,-3.21797,0.20705,0.725
660.888,30.5656,-3.22028,0.19901,0.72253
664.288,30.6783,-3.22109,0.19163,0.72005
667.688,30.79087,-3.22289,0.18889,0.71755
671.088,30.90346,-3.22554,0.1853,0.71504
674.488,31.01612,-3.22548,0.18343,0.71251
677.888,31.12861,-3.22807,0.17809,0.70997
681.288,31.24137,-3.22817,0.17532,0.70741
684.688,31.35405,-3.23085,0.17171,0.70484
688.088,31.46688,-3.23211,0.1698,0.70225
691.488,31.57964,-3.23343,0.16606,0.69965
694.888,31.6926,-3.23402,0.16264,0.69703
698.288,31.8056,-3.23483,0.16067,0.6944
701.688,31.9184,-3.23606,0.15772,0.69175
705.088,32.03115,-3.23615,0.15621,0.68909
708.488,32.1443,-3.2387,0.15706,0.68641
711.888,32.25725,-3.24004,0.15639,0.68372
715.288,32.37007,-3.2422,0.1574,0.68102
718.688,32.4835,-3.24127,0.1549,0.6783
722.088,32.5967,-3.24112,0.15591,0.67556
725.488,32.71014,-3.24254,0.15591,0.67281
728.888,32.8238,-3.24385,0.16099,0.67005
732.288,32.9374,-3.24517,0.16142,0.66727
735.688,33.05124,-3.24649,0.16382,0.66448
739.088,33.16495,-3.2452,0.16011,0.66167
742.488,33.2787,-3.24747,0.16271,0.65885
745.888,33.39248,-3.2478,0.16197,0.65602
749.288,33.5064,-3.24931,0.165,0.65317
752.688,33.6203,-3.24913,0.16459,0.65031
756.088,33.7341,-3.25051,0.16748,0.64744
759.488,33.84814,-3.25273,0.16815,0.64455
762.888,33.9621,-3.25415,0.16951,0.64165
766.288,34.07609,-3.25406,0.17226,0.63873
769.688,34.19011,-3.25439,0.17523,0.6358
773.088,34.30455,-3.25519,0.17172,0.63286
776.488,34.4187,-3.2557,0.17497,0.62991
779.888,34.53272,-3.2569,0.18077,0.62694
783.288,34.64721,-3.25799,0.18415,0.62396
786.688,34.76157,-3.25867,0.18754,0.62097
790.088,34.8758,-3.25962,0.1907,0.61796
793.488,34.99013,-3.25997,0.19666,0.61495
796.888,35.1046,-3.26161,0.19791,0.61192
800.288,35.21898,-3.26064,0.20409,0.60888
803.688,35.33339,-3.26195,0.20901,0.60583
807.088,35.44784,-3.26194,0.20931,0.60276
810.488,35.56258,-3.2624,0.20742,0.59969
813.888,35.67719,-3.26258,0.22019,0.5966
817.288,35.79162,-3.26327,0.21957,0.5935
820.688,35.90632,-3.26457,0.22471,0.5904
824.088,36.0206,-3.26459,0.23096,0.58728
827.488,36.13528,-3.26427,0.23329,0.58415
830.888,36.25,-3.26557,0.24096,0.58101
834.288,36.36483,-3.26589,0.24908,0.57786
837.688,36.48004,-3.26722,0.25489,0.5747
841.088,36.59522,-3.26722,0.26355,0.57153
843.188,36.66639,-3.27007,0.26839,0.56957