File: 01_Data/Pine_Lap_Siding_Wood/STA/N2/30K_min/Pine_Lap_Siding_Wood_STA_N2_30KData_220321_R2.csv
##Temp./Â°C,Time/min,Mass loss(subtr.2)/mg,DSC(subtr.2)/(mW/mg),Sensit./(uV/mW)
48.745,10.01,0.00262,0.01076581,1.08893
51.945,10.87193,0.00135528,0.16534,1.08624
55.145,11.10507,0.003769958,0.27881,1.08356
58.345,11.28377,0.00132848,0.36918,1.0809
61.545,11.43833,0.00223778,0.44324,1.07826
64.745,11.57874,0.002086515,0.50852,1.07564
67.945,11.71078,0.0006419128,0.56316,1.07303
71.145,11.8363,0.002126041,0.6166,1.07044
74.345,11.958,1.524287e-05,0.6664,1.06787
77.545,12.07671,-0.00250016,0.70815,1.06532
80.745,12.1927,-0.001258315,0.75226,1.06278
83.945,12.30723,-0.002096008,0.7889,1.06026
87.145,12.42003,-0.003188063,0.82613,1.05776
90.345,12.53125,-0.004513025,0.86283,1.05528
93.545,12.64118,-0.007450593,0.89091,1.05281
96.745,12.75057,-0.00746798,0.91756,1.05036
99.945,12.8591,-0.007473161,0.93805,1.04793
103.145,12.96717,-0.01005828,0.95284,1.04552
106.345,13.07523,-0.01176519,0.96036,1.04312
109.545,13.18281,-0.01370196,0.96409,1.04074
112.745,13.28994,-0.01503989,0.95804,1.03837
115.945,13.39674,-0.01502854,0.94932,1.03603
119.145,13.50322,-0.01735132,0.93931,1.0337
122.345,13.60941,-0.01602262,0.92842,1.03139
125.545,13.7148,-0.01608064,0.91957,1.02909
128.745,13.8196,-0.01865804,0.90475,1.02681
131.945,13.9243,-0.01733307,0.90152,1.02455
135.145,14.02844,-0.01615773,0.89895,1.0223
138.345,14.13204,-0.01637322,0.90118,1.02007
141.545,14.23506,-0.01700478,0.90974,1.01785
144.745,14.3377,-0.01766396,0.91924,1.01565
147.945,14.4398,-0.0176682,0.92556,1.01347
151.145,14.54149,-0.01641702,0.93907,1.0113
154.345,14.6431,-0.01734,0.95064,1.00915
157.545,14.7443,-0.01734002,0.96503,1.00701
160.745,14.84534,-0.01604253,0.97767,1.00489
163.945,14.94602,-0.01603926,0.98849,1.00279
167.145,15.0465,-0.01635,1.00292,1.0007
170.345,15.14657,-0.01750884,1.01415,0.99862
173.545,15.2464,-0.01702366,1.02849,0.99656
176.745,15.3461,-0.01701,1.04059,0.99451
179.945,15.44563,-0.01700951,1.05241,0.99248
183.145,15.54456,-0.01832987,1.06544,0.99046
186.345,15.6433,-0.01825458,1.07642,0.98845
189.545,15.7414,-0.01767,1.08933,0.98646
192.745,15.83964,-0.01766718,1.10233,0.98449
195.945,15.93805,-0.01900912,1.11727,0.98252
199.145,16.03566,-0.0189895,1.13067,0.98057
202.345,16.13368,-0.01855475,1.1422,0.97863
205.545,16.2314,-0.01897869,1.15765,0.97671
208.745,16.3291,-0.01964002,1.16999,0.9748
211.945,16.42644,-0.02096268,1.18293,0.9729
215.145,16.52394,-0.02232143,1.19916,0.97101
218.345,16.62124,-0.02225819,1.21448,0.96914
221.545,16.7184,-0.02359001,1.22746,0.96727
224.745,16.8155,-0.02583123,1.23955,0.96542
227.945,16.91248,-0.02633353,1.2537,0.96358
231.145,17.00941,-0.02850658,1.26646,0.96175
234.345,17.1064,-0.0298505,1.27625,0.95994
237.545,17.20305,-0.03099836,1.28955,0.95813
240.745,17.29972,-0.03278769,1.30055,0.95633
243.945,17.39631,-0.03605011,1.31446,0.95455
247.145,17.49294,-0.03860797,1.32608,0.95277
250.345,17.58967,-0.04135889,1.3333,0.95101
253.545,17.6862,-0.04585117,1.3466,0.94925
256.745,17.78288,-0.05038523,1.35812,0.94751
259.945,17.87939,-0.05578234,1.37221,0.94577
263.145,17.9759,-0.06218376,1.38393,0.94404
266.345,18.07236,-0.06790735,1.39401,0.94232
269.545,18.16907,-0.07615394,1.40595,0.94061
272.745,18.26556,-0.08625578,1.41489,0.93891
275.945,18.36235,-0.09547098,1.42141,0.93721
279.145,18.459,-0.1075,1.425,0.93553
282.345,18.55582,-0.11994,1.42869,0.93385
285.545,18.65256,-0.13466,1.43331,0.93218
288.745,18.74948,-0.14888,1.43469,0.93051
291.945,18.84627,-0.16579,1.43763,0.92886
295.145,18.94341,-0.1855,1.44243,0.92721
298.345,19.0404,-0.20587,1.44516,0.92556
301.545,19.13737,-0.22702,1.44686,0.92392
304.745,19.23455,-0.25361,1.45172,0.92229
307.945,19.3315,-0.28164,1.45666,0.92066
311.145,19.42878,-0.30841,1.46302,0.91904
314.345,19.5261,-0.3426,1.47608,0.91743
317.545,19.62335,-0.3754,1.48883,0.91582
320.745,19.72074,-0.41213,1.51255,0.91421
323.945,19.81811,-0.45458,1.53648,0.91261
327.145,19.91552,-0.498,1.5676,0.91101
330.345,20.01301,-0.54905,1.60419,0.90941
333.545,20.11056,-0.60207,1.64449,0.90782
336.745,20.20835,-0.66161,1.69044,0.90624
339.945,20.3061,-0.72383,1.73397,0.90465
343.145,20.4039,-0.79174,1.77515,0.90307
346.345,20.5019,-0.86287,1.81313,0.90149
349.545,20.60005,-0.93919,1.85441,0.89992
352.745,20.69831,-1.02012,1.88603,0.89834
355.945,20.79663,-1.10179,1.92256,0.89677
359.145,20.89486,-1.18936,1.96087,0.8952
362.345,20.9937,-1.27616,2.00805,0.89363
365.545,21.0925,-1.36972,2.06706,0.89206
368.745,21.19115,-1.46193,2.15088,0.89049
371.945,21.29018,-1.56521,2.25182,0.88892
375.145,21.38914,-1.67004,2.37644,0.88736
378.345,21.4882,-1.78738,2.514,0.88579
381.545,21.58762,-1.90891,2.65545,0.88422
384.745,21.68705,-2.04223,2.77028,0.88265
387.945,21.78661,-2.17496,2.83418,0.88109
391.145,21.8861,-2.31902,2.80252,0.87952
394.345,21.9855,-2.45286,2.64951,0.87795
397.545,22.085,-2.58045,2.35678,0.87637
400.745,22.1843,-2.68848,1.9459,0.8748
403.945,22.28335,-2.77649,1.47364,0.87322
407.145,22.3821,-2.83919,1.01851,0.87165
410.345,22.481,-2.88244,0.63824,0.87007
413.545,22.5799,-2.90931,0.37495,0.86848
416.745,22.6789,-2.92694,0.22317,0.8669
419.945,22.77834,-2.94103,0.14138,0.86531
423.145,22.87793,-2.95329,0.09341274,0.86372
426.345,22.97765,-2.96362,0.05834893,0.86212
429.545,23.07777,-2.97363,0.03199581,0.86052
432.745,23.17794,-2.98374,0.007038705,0.85892
435.945,23.27818,-2.99362,-0.01885975,0.85731
439.145,23.3787,-3.00233,-0.03747298,0.8557
442.345,23.47931,-3.014,-0.0582912,0.85408
445.545,23.58008,-3.02319,-0.08123007,0.85246
448.745,23.68082,-3.03022,-0.09526718,0.85083
451.945,23.78199,-3.03976,-0.10685,0.8492
455.145,23.8829,-3.04859,-0.115,0.84756
458.345,23.9842,-3.05768,-0.11769,0.84591
461.545,24.0855,-3.06642,-0.11463,0.84426
464.745,24.187,-3.07301,-0.1038,0.84261
467.945,24.2886,-3.07953,-0.08708897,0.84094
471.145,24.39,-3.08778,-0.06740233,0.83927
474.345,24.492,-3.09547,-0.04514787,0.8376
477.545,24.59392,-3.10219,-0.02046355,0.83591
480.745,24.6959,-3.10865,0.004140212,0.83422
483.945,24.7981,-3.11271,0.03262646,0.83253
487.145,24.90009,-3.11893,0.05467946,0.83082
490.345,25.0025,-3.12533,0.07817146,0.82911
493.545,25.1048,-3.13057,0.09459123,0.82738
496.745,25.20739,-3.13544,0.11376,0.82565
499.945,25.3098,-3.13888,0.1276,0.82392
503.145,25.4125,-3.14334,0.14059,0.82217
506.345,25.5149,-3.14917,0.15058,0.82041
509.545,25.6179,-3.15321,0.16024,0.81865
512.745,25.72074,-3.15603,0.16763,0.81687
515.945,25.82369,-3.16034,0.17721,0.81509
519.145,25.92685,-3.16376,0.18044,0.8133
522.345,26.02969,-3.16741,0.18276,0.8115
525.545,26.133,-3.17187,0.18456,0.80969
528.745,26.23635,-3.17452,0.1916,0.80786
531.945,26.33983,-3.17716,0.18861,0.80603
535.145,26.44336,-3.18096,0.19041,0.80419
538.345,26.547,-3.18425,0.1883,0.80234
541.545,26.6505,-3.18718,0.18915,0.80048
544.745,26.7543,-3.18925,0.19032,0.7986
547.945,26.8583,-3.19266,0.18885,0.79672
551.145,26.96214,-3.19532,0.18633,0.79483
554.345,27.06656,-3.19813,0.18473,0.79292
557.545,27.1706,-3.20239,0.18751,0.791
560.745,27.2751,-3.20386,0.18362,0.78907
563.945,27.37953,-3.20602,0.18096,0.78714
567.145,27.4839,-3.21044,0.18488,0.78518
570.345,27.5884,-3.21185,0.19159,0.78322
573.545,27.6928,-3.21382,0.19746,0.78125
576.745,27.7972,-3.21693,0.19979,0.77926
579.945,27.90186,-3.21886,0.19996,0.77726
583.145,28.00675,-3.22134,0.20214,0.77525
586.345,28.1115,-3.22279,0.2045,0.77323
589.545,28.2164,-3.22606,0.21002,0.7712
592.745,28.32106,-3.22814,0.20997,0.76915
595.945,28.42613,-3.23193,0.21221,0.76709
599.145,28.5312,-3.23332,0.20901,0.76502
602.345,28.63632,-3.23609,0.20729,0.76294
605.545,28.7416,-3.23819,0.19924,0.76084
608.745,28.8468,-3.24042,0.19029,0.75873
611.945,28.952,-3.24188,0.174,0.75661
615.145,29.05767,-3.24561,0.1609,0.75447
618.345,29.163,-3.24697,0.15115,0.75233
621.545,29.26843,-3.24956,0.14313,0.75016
624.745,29.37388,-3.25127,0.13381,0.74799
627.945,29.4791,-3.25214,0.11983,0.7458
631.145,29.58486,-3.25354,0.11109,0.7436
634.345,29.6903,-3.25747,0.10335,0.74139
637.545,29.79603,-3.25923,0.09467412,0.73917
640.745,29.90148,-3.2601,0.08520386,0.73693
643.945,30.00733,-3.26261,0.07509996,0.73467
647.145,30.11303,-3.26534,0.06603017,0.73241
650.345,30.2187,-3.26559,0.06043791,0.73013
653.545,30.3243,-3.268,0.05125131,0.72784
656.745,30.4301,-3.27063,0.04742224,0.72553
659.945,30.536,-3.27191,0.03868228,0.72321
663.145,30.6417,-3.27326,0.02443638,0.72088
666.345,30.74755,-3.27326,0.01972108,0.71854
669.545,30.85337,-3.27577,0.01354078,0.71618
672.745,30.95924,-3.27717,0.00546256,0.71381
675.945,31.0651,-3.27852,0.0001507458,0.71142
679.145,31.17108,-3.27984,-0.008467766,0.70902
682.345,31.2772,-3.28064,-0.01500422,0.70661
685.545,31.38301,-3.28181,-0.02019389,0.70419
688.745,31.4891,-3.28313,-0.02848193,0.70175
691.945,31.5952,-3.28444,-0.03411841,0.6993
695.145,31.70135,-3.28576,-0.04377561,0.69683
698.345,31.8072,-3.28641,-0.04968044,0.69435
701.545,31.9137,-3.28774,-0.054773,0.69186
704.745,32.02015,-3.28906,-0.06558079,0.68936
707.945,32.12662,-3.28789,-0.06812323,0.68684
711.145,32.23319,-3.28908,-0.07651161,0.68431
714.345,32.3397,-3.29168,-0.08207763,0.68177
717.545,32.44625,-3.29169,-0.08705831,0.67921
720.745,32.55323,-3.29277,-0.09530346,0.67664
723.945,32.6599,-3.29201,-0.10269,0.67406
727.145,32.76678,-3.2945,-0.10889,0.67147
730.345,32.8739,-3.29596,-0.11366,0.66886
733.545,32.98072,-3.29595,-0.12133,0.66624
736.745,33.0877,-3.2973,-0.13137,0.66361
739.945,33.19461,-3.29824,-0.13135,0.66097
743.145,33.30174,-3.29834,-0.13881,0.65831
746.345,33.40855,-3.29958,-0.14625,0.65564
749.545,33.51599,-3.30071,-0.15075,0.65296
752.745,33.62303,-3.30089,-0.15486,0.65026
755.945,33.7302,-3.30158,-0.15983,0.64756
759.145,33.83755,-3.30222,-0.16263,0.64484
762.345,33.94475,-3.30419,-0.16477,0.64211
765.545,34.05199,-3.30551,-0.16705,0.63937
768.745,34.15922,-3.30622,-0.17043,0.63662
771.945,34.26643,-3.30551,-0.17386,0.63385
775.145,34.3738,-3.30681,-0.17765,0.63108
778.345,34.48124,-3.30962,-0.17996,0.62829
781.545,34.5886,-3.31088,-0.18116,0.62549
784.745,34.69628,-3.30957,-0.18397,0.62268
787.945,34.80376,-3.30953,-0.18852,0.61986
791.145,34.91128,-3.31089,-0.18843,0.61703
793.745,34.99865,-3.31092,-0.18543,0.61472