File: 01_Data/Scott_HT_SCBA/Cone/Scott_HT_SCBA_Cone_HF100-FrameScalar_201103_R1.csv
LABORATORY,FSRI
TEST IDENT,FacePiece_HF100_1
OPERATOR,Dow
MATERIAL,Phoenix Arizona SCBA Face Piece
ORIENTATION,Horizontal
HEAT FLUX,100
SURF AREA,0.01
C FACTOR,0.0377677
SPEC HOLDER DIFF,345
SPECIMEN MASS,41.82
SCAN TIME,0.25
O2 DELAY TIME,11
CO DELAY TIME,11
CO2 DELAY TIME,8
FLOW FACTOR,1
SCAN COUNT,602
TIME TO IGN,13.25
END OF TEST SCAN,122
END OF TEST TIME,30.5
TEST STATUS,1
,
POST TEST CMT,Sample removed 10 seconds after ignition