File: 01_Data/Scott_HT_SCBA/Cone/Scott_HT_SCBA_Cone_HF75-Frame+GridScalar_201103_R1.csv
LABORATORY,FSRI
TEST IDENT,FacePiece_HF75_1
OPERATOR,Dow
MATERIAL,Phoenix Arizona SCBA Face Piece
ORIENTATION,Horizontal
HEAT FLUX,75
SURF AREA,0.01
C FACTOR,0.0377677
SPEC HOLDER DIFF,366.32
SPECIMEN MASS,45.21
SCAN TIME,0.25
O2 DELAY TIME,11
CO DELAY TIME,11
CO2 DELAY TIME,8
FLOW FACTOR,1
SCAN COUNT,711
TIME TO IGN,37.25
END OF TEST SCAN,231
END OF TEST TIME,57.75
TEST STATUS,1
,
POST TEST CMT,removed and extinguished sample 10 seconds after ignition. Pressed end test button shortly after.