File: 01_Data/Scott_HT_SCBA/Cone/Scott_HT_SCBA_Cone_HF75-Frame+GridScan_201103_R1.csv
Names,Time,Stack TC,Smoke TC,Exh Press,Smoke Comp,Smoke Meas,CO Meter,CO2 Meter,O2 Meter,Sample Mass,Ext Coeff,Start Test,Flame Verif
Chan Gain,,500,500,1,1,1,1,1,1,1,1,1.0,1.0
Offset,,0,0,0.134413,0,0,0,0,0,0,0,0.0,0.0
Gain,,1,1,25.011,13.8462,17.0661,1,1,1,1.0009,1.04998,1.0,1.0
Units,sec,C,C,Pa,%,%,%,%,%,g,/m,,
Baseline,,30.9925,34.7518,179.832,102.054,103.85,0.00369947,0.0650862,20.9971,-937.438,-0.160654,,
8,1.75,31.0588,34.4002,177.143,101.907,103.507,0.00381445,0.0759882,20.9873,40.9767,-0.143525,0.0,0.0
16,3.75,31.2556,34.6277,177.115,101.832,103.805,0.00395808,0.079805,20.9845,40.9667,-0.176797,0.0,0.0
24,5.75,31.3042,34.733,177.75,101.741,103.585,0.00406367,0.0814513,20.9839,40.9267,-0.165495,0.0,0.0
32,7.75,31.3444,34.5531,180.526,101.672,103.401,0.00410797,0.0808814,20.9848,40.9367,-0.155325,0.0,0.0
40,9.75,31.5573,34.8522,176.693,101.585,103.411,0.00398574,0.0795285,20.9863,40.9167,-0.164141,0.0,0.0
48,11.75,31.3173,34.8675,180.507,101.502,103.418,0.00378617,0.0776872,20.9887,40.9367,-0.172294,0.0,0.0
56,13.75,31.3785,34.6017,176.072,101.414,103.543,0.00368703,0.0766152,20.989,40.9267,-0.191353,0.0,0.0
64,15.75,31.2471,34.6592,180.099,101.337,102.94,0.0035921,0.0779615,20.9864,40.9267,-0.144496,0.0,0.0
72,17.75,31.1817,35.4441,176.41,101.216,103.158,0.0034483,0.0804074,20.9835,40.8966,-0.174991,0.0,0.0
80,19.75,31.2027,35.0929,176.236,101.105,103.014,0.00344368,0.0814896,20.9831,40.9167,-0.17222,0.0,0.0
88,21.75,31.2836,35.399,179.566,101.011,103.123,0.0035445,0.0811312,20.9842,40.9066,-0.190619,0.0,0.0
96,23.75,31.9376,35.1431,177.631,100.912,103.308,0.00359561,0.0793567,20.9857,40.8866,-0.216147,0.0,0.0
104,25.75,31.4929,35.6778,173.075,100.811,102.317,0.00362484,0.0767859,20.987,40.8866,-0.136533,0.0,0.0
112,27.75,31.4167,35.4418,177.729,100.723,102.557,0.00364716,0.0754339,20.9892,40.8566,-0.166193,0.0,0.0
120,29.75,31.3837,35.4944,177.255,100.62,101.552,0.0036745,0.0753011,20.9898,40.8766,-0.0849076,0.0,0.0
128,31.75,31.6947,35.8749,181.915,100.536,101.27,0.00373829,0.0756193,20.9897,40.8566,-0.0669877,0.0,0.0
136,33.75,31.503,35.3577,177.235,100.471,100.838,0.0037822,0.0754026,20.9896,40.8566,-0.0335814,0.0,0.0
144,35.75,31.6789,35.6122,179.461,100.401,99.9433,0.00391774,0.0754725,20.9874,40.8366,0.0421072,0.0,0.0
152,37.75,31.3724,35.6042,181.632,100.335,99.5647,0.00433052,0.0894775,20.9699,40.7765,0.0709793,0.0,1.0
160,39.75,32.264,36.3903,172.062,100.277,91.7722,0.00530046,0.12164,20.9287,40.7265,0.816331,0.0,1.0
168,41.75,33.4483,38.9687,169.775,100.215,80.1392,0.00700499,0.165738,20.8593,40.6564,2.05896,0.0,1.0
176,43.75,34.4004,40.8594,173.908,100.187,73.8962,0.00877864,0.215059,20.7981,40.5363,2.80344,0.0,0.0
184,45.75,35.9557,43.4926,161.903,100.151,68.6625,0.0115663,0.266023,20.7215,40.3461,3.47667,0.0,0.0
192,47.75,37.6096,46.3834,162.741,100.133,62.1195,0.0141067,0.321778,20.6489,40.166,4.39744,0.0,0.0
200,49.75,40.3894,49.2749,161.166,100.132,57.5675,0.015039,0.366522,20.6155,40.146,5.09825,0.0,0.0
208,51.75,40.9396,50.3275,187.727,100.13,95.6898,0.0137552,0.327486,20.6253,-937.47,0.417722,0.0,0.0
216,53.75,39.4313,47.657,184.285,100.141,100.757,0.0107863,0.255075,20.7355,-937.57,-0.0564692,0.0,0.0
224,55.75,37.7471,44.6939,179.436,100.17,101.315,0.00835476,0.180696,20.8311,-937.51,-0.104637,0.0,0.0
232,57.75,36.4854,42.3501,183.405,100.22,101.777,0.00652883,0.140214,20.9027,-937.55,-0.141993,0.0,0.0
240,59.75,35.0637,40.2646,181.779,100.289,102.178,0.00547336,0.113695,20.9397,-937.53,-0.171855,0.0,0.0
248,61.75,34.1548,40.3571,178.575,100.373,101.83,0.00470826,0.098323,20.9614,-937.57,-0.132752,0.0,0.0
256,63.75,33.7413,39.2151,175.136,100.437,102.318,0.00413826,0.0885282,20.9749,-937.57,-0.170942,0.0,0.0
264,65.75,33.7354,38.6474,173.641,100.541,102.405,0.0038313,0.0816171,20.9839,-937.53,-0.169241,0.0,0.0
272,67.75,33.7496,37.9519,175.651,100.648,102.3,0.00372872,0.0769256,20.9896,-937.57,-0.149946,0.0,0.0
280,69.75,33.0425,37.8876,180.065,100.757,103.165,0.00369878,0.0732798,20.9934,-937.58,-0.217572,0.0,0.0
288,71.75,32.731,37.2686,177.262,100.886,102.623,0.00365235,0.0712111,20.9967,-937.55,-0.157314,0.0,0.0
296,73.75,32.5511,36.6639,182.674,100.99,102.881,0.00358201,0.0697052,20.9987,-937.55,-0.170899,0.0,0.0
304,75.75,32.2256,36.7877,181.28,101.109,102.378,0.00351609,0.0685064,20.9999,-937.59,-0.114925,0.0,0.0
312,77.75,32.0057,36.4157,179.089,101.249,103.088,0.0034161,0.0678138,21.0008,-937.59,-0.165798,0.0,0.0
320,79.75,32.0629,35.7243,178.957,101.344,103.136,0.00338337,0.067253,21.0022,-937.56,-0.161441,0.0,0.0
328,81.75,32.554,35.9642,177.132,101.439,103.469,0.00345187,0.0668019,21.0023,-937.55,-0.182507,0.0,0.0
336,83.75,32.2498,35.6657,173.261,101.541,103.622,0.0034547,0.0665743,21.0011,-937.54,-0.186856,0.0,0.0
344,85.75,32.313,35.2831,177.433,101.628,102.782,0.00340744,0.0663197,21.0015,-937.55,-0.103989,0.0,0.0
352,87.75,31.6377,35.2484,178.408,101.711,102.902,0.00342124,0.0660969,21.0021,-937.56,-0.107253,0.0,0.0
360,89.75,31.8681,35.1909,175.285,101.789,102.983,0.00351127,0.065882,21.0023,-937.57,-0.107437,0.0,0.0
368,91.75,31.1882,34.7868,176.934,101.842,103.097,0.00363194,0.0660009,21.0024,-937.57,-0.112863,0.0,0.0
376,93.75,31.6207,35.2641,180.685,101.911,103.479,0.0036827,0.0662094,21.0024,-937.55,-0.140678,0.0,0.0
384,95.75,31.5577,34.9611,179.727,101.955,104.161,0.00363816,0.0664066,21.0012,-937.54,-0.197113,0.0,0.0
392,97.75,31.3873,35.3531,174.576,101.999,103.68,0.00354155,0.0665781,21.0008,-937.54,-0.150569,0.0,0.0
400,99.75,31.1958,34.9742,175.765,102.047,103.97,0.00340063,0.066613,21.0023,-937.56,-0.171916,0.0,0.0
408,101.75,30.879,34.7752,178.483,102.067,103.662,0.00333262,0.0665186,21.0034,-937.59,-0.142901,0.0,0.0
416,103.75,30.6842,34.7697,181.183,102.086,104.124,0.00332404,0.0663133,21.0039,-937.57,-0.182055,0.0,0.0
424,105.75,31.3698,35.0715,177.347,102.113,104.57,0.00332746,0.0661612,21.0034,-937.56,-0.219051,0.0,0.0
432,107.75,31.5422,34.9038,178.646,102.121,104.172,0.00333402,0.0659315,21.0032,-937.58,-0.183137,0.0,0.0
440,109.75,31.3218,34.8099,180.157,102.124,104.192,0.00335267,0.0657584,21.0026,-937.57,-0.184696,0.0,0.0
448,111.75,31.6438,34.9707,181.521,102.123,104.36,0.0033962,0.065758,21.0023,-937.58,-0.199592,0.0,0.0
456,113.75,31.1033,34.6498,179.11,102.132,104.179,0.00342086,0.06577,21.0021,-937.58,-0.182782,0.0,0.0
464,115.75,31.2036,34.5778,175.816,102.147,103.836,0.00345915,0.0656094,21.0021,-937.59,-0.151102,0.0,0.0
472,117.75,31.2988,35.09,176.997,102.15,103.704,0.00354123,0.0657475,21.002,-937.58,-0.139093,0.0,0.0
480,119.75,31.5345,34.9944,182.415,102.143,103.584,0.00352417,0.0659638,21.002,-937.59,-0.129049,0.0,0.0
488,121.75,30.9961,34.341,181.029,102.132,104.216,0.00340294,0.0659048,21.0021,-937.58,-0.186005,0.0,0.0
496,123.75,30.8216,34.6864,177.383,102.119,103.817,0.00325498,0.065789,21.0022,-937.58,-0.151861,0.0,0.0
504,125.75,30.8815,34.7135,178.447,102.1,104.41,0.00328268,0.0657101,21.0023,-937.57,-0.206054,0.0,0.0
512,127.75,31.1382,34.4143,179.095,102.083,104.148,0.00345963,0.0655643,21.0023,-937.6,-0.184448,0.0,0.0
520,129.75,30.5897,34.916,178.508,102.07,103.492,0.00354884,0.0655368,21.0023,-937.59,-0.127489,0.0,0.0
528,131.75,31.0652,34.2472,175.898,102.025,103.789,0.00347721,0.0657568,21.0023,-937.59,-0.157915,0.0,0.0
536,133.75,30.8883,34.3189,180.981,102.007,104.352,0.00334723,0.066056,21.0023,-937.61,-0.209343,0.0,0.0
544,135.75,30.6514,34.5574,177.39,101.974,104.249,0.00333356,0.0661969,21.0023,-937.6,-0.203297,0.0,0.0
552,137.75,30.9636,34.2088,177.305,101.941,103.354,0.00344255,0.0662796,21.0023,-937.58,-0.126835,0.0,0.0
560,139.75,31.6371,34.5496,186.424,101.914,103.69,0.00348014,0.0662852,21.0023,-937.57,-0.159166,0.0,0.0
568,141.75,31.5847,34.8908,178.561,101.891,103.925,0.00340867,0.0661352,21.0023,-937.59,-0.182116,0.0,0.0
576,143.75,31.3139,34.6324,176.775,101.837,103.9,0.00331146,0.0659956,21.0023,-937.57,-0.184752,0.0,0.0
584,145.75,30.8534,34.5113,177.63,101.827,103.795,0.00323715,0.0659176,21.0029,-937.57,-0.176254,0.0,0.0
592,147.75,31.1424,35.0631,176.938,101.791,104.253,0.00328697,0.065887,21.0031,-937.6,-0.220084,0.0,0.0
600,149.75,31.1656,34.3651,172.188,101.772,103.485,0.00340699,0.0656835,21.0021,-937.57,-0.153769,0.0,0.0
608,151.75,30.2979,34.0472,178.022,101.83,103.903,0.003543,0.0656263,21.0028,-937.62,-0.185595,0.0,0.0
616,153.75,30.9742,34.7038,177.732,101.955,103.65,0.00362468,0.0657025,21.0033,-937.61,-0.151946,0.0,0.0
624,155.75,31.1663,34.551,181.957,102.071,104.043,0.00359251,0.0656508,21.0035,-937.61,-0.176284,0.0,0.0
632,157.75,31.3209,34.7934,175.779,102.169,103.618,0.00345949,0.0656881,21.0036,-937.61,-0.129659,0.0,0.0
640,159.75,31.6637,35.0606,178.211,102.251,104.237,0.00335255,0.0658832,21.0036,-937.65,-0.177237,0.0,0.0
648,161.75,31.3085,35.1075,182.545,102.331,104.037,0.00319358,0.0660761,21.0036,-937.63,-0.152311,0.0,0.0
656,163.75,31.0001,35.0111,179.871,102.402,104.685,0.00307286,0.0660941,21.0026,-937.62,-0.203105,0.0,0.0
664,165.75,30.752,35.0163,178.374,102.449,104.379,0.00306452,0.0661834,21.0019,-937.63,-0.171865,0.0,0.0
672,167.75,31.0904,35.1758,183.099,102.483,104.13,,0.0661927,,-937.64,-0.146833,0.0,0.0
680,169.75,30.8256,34.8148,184.585,102.515,103.957,,,,-937.62,-0.128602,0.0,0.0
688,171.75,31.1331,34.8714,179.104,102.509,104.637,,,,-937.62,-0.189247,0.0,0.0
696,173.75,31.3745,34.4146,182.192,102.528,104.517,,,,-937.62,-0.176981,0.0,0.0
704,175.75,31.024,34.8445,177.693,102.522,104.19,,,,-937.61,-0.148607,0.0,0.0
711,177.5,30.9928,34.6973,177.447,102.511,104.387,,,,-937.58,-0.167056,0.0,0.0