File: 01_Data/Scott_HT_SCBA/Cone/Scott_HT_SCBA_Cone_HF50-FrameScan_201103_R1.csv
Names,Time,Stack TC,Smoke TC,Exh Press,Smoke Comp,Smoke Meas,CO Meter,CO2 Meter,O2 Meter,Sample Mass,Ext Coeff,Start Test,Flame Verif
Chan Gain,,500,500,1,1,1,1,1,1,1,1,1.0,1.0
Offset,,0,0,0.134413,0,0,0,0,0,0,0,0.0,0.0
Gain,,1,1,25.011,13.8462,17.0661,1,1,1,1.0009,1.04998,1.0,1.0
Units,sec,C,C,Pa,%,%,%,%,%,g,/m,,
Baseline,,28.7288,31.7265,181.82,102.437,103.643,0.00370355,0.0790577,20.9871,-938.742,-0.10772,,
9,2,25.9445,27.6134,183.629,102.413,103.23,0.00347285,0.0798318,20.9864,2.25202,-0.0731141,0.0,0.0
18,4.25,26.1363,28.19,180.126,102.412,103.89,0.00356309,0.0797289,20.9864,2.16194,-0.132,0.0,0.0
27,6.5,26.248,28.7584,183.477,102.4,103.286,0.00360109,0.0800587,20.9858,2.19196,-0.079393,0.0,0.0
36,8.75,26.4249,28.8188,181.037,102.411,103.47,0.0036486,0.081265,20.9839,2.19196,-0.0947015,0.0,0.0
45,11,27.2827,29.2753,180.72,102.404,103.187,0.00371715,0.0828265,20.9826,2.18195,-0.0701386,0.0,0.0
54,13.25,26.5762,30.1661,182.711,102.4,103.753,0.00379642,0.0832027,20.9825,2.17195,-0.120828,0.0,0.0
63,15.5,26.9946,29.8724,179.65,102.412,103.77,0.00387435,0.0827615,20.9835,2.16194,-0.121336,0.0,0.0
72,17.75,27.1217,30.1934,183.096,102.424,103.548,0.00389361,0.0829986,20.9821,2.15193,-0.100551,0.0,0.0
81,20,26.9896,30.2032,182.726,102.411,103.809,0.00379677,0.0843606,20.9804,2.15193,-0.12487,0.0,0.0
90,22.25,26.8367,29.8369,182.318,102.41,103.323,0.00351476,0.08622,20.9781,2.13191,-0.0817782,0.0,0.0
99,24.5,27.0583,30.2461,182.223,102.43,103.756,0.00330945,0.0860262,20.9775,2.16194,-0.11853,0.0,0.0
108,26.75,27.3416,29.6642,183.729,102.429,103.412,0.00338554,0.0847774,20.9787,2.1219,-0.0879954,0.0,0.0
117,29,27.1185,30.1076,181.476,102.413,103.453,0.00362026,0.0840484,20.9799,2.15193,-0.0930188,0.0,0.0
126,31.25,27.0356,29.9404,187.327,102.418,103.836,0.00382519,0.0840129,20.9804,2.13191,-0.126711,0.0,0.0
135,33.5,27.0735,30.1169,179.63,102.424,104.159,0.00394244,0.0852431,20.9792,2.1219,-0.154739,0.0,0.0
144,35.75,27.1864,30.3064,178.807,102.418,103.991,0.00392589,0.0865303,20.9775,2.10188,-0.140375,0.0,0.0
153,38,27.226,30.5566,182.462,102.426,103.759,0.00386527,0.0861931,20.9775,2.10188,-0.119103,0.0,0.0
162,40.25,27.6115,30.6625,185.462,102.432,103.914,0.00388109,0.0847799,20.9784,2.09187,-0.132292,0.0,0.0
171,42.5,27.4068,31.2726,182.905,102.426,103.466,0.00397933,0.0838143,20.9803,2.08187,-0.0929994,0.0,0.0
180,44.75,27.572,30.7931,183.687,102.431,103.12,0.00398433,0.0829284,20.9811,2.08187,-0.0617458,0.0,0.0
189,47,27.5364,30.6388,182.812,102.422,103.187,0.00380854,0.0825859,20.9814,2.07186,-0.0685512,0.0,0.0
198,49.25,27.8793,30.9583,184.536,102.426,102.581,0.00375327,0.0831873,20.9807,2.07186,-0.0139294,0.0,0.0
207,51.5,27.6611,31.0973,180.689,102.414,102.335,0.00384776,0.0843871,20.9791,2.0118,0.0070967,0.0,0.0
216,53.75,27.6882,31.2071,182.69,102.405,101.789,0.00392422,0.085767,20.977,2.07186,0.0556116,0.0,0.0
225,56,27.9584,30.9799,175.231,102.412,101.478,0.00397792,0.0884141,20.9743,2.03182,0.084435,0.0,0.0
234,58.25,27.9053,31.1705,181.448,102.426,101.305,0.00414205,0.0901422,20.9723,2.04183,0.101357,0.0,0.0
243,60.5,27.8365,31.2796,179.003,102.428,100.499,0.0044027,0.0934267,20.9658,2.0118,0.175179,0.0,0.0
252,62.75,27.8295,31.3703,175.215,102.424,99.022,0.00504224,0.116535,20.9456,1.92172,0.311083,0.0,1.0
261,65,28.7407,33.189,168.447,102.41,89.4353,0.0065029,0.158919,20.9033,1.87168,1.24769,0.0,1.0
270,67.25,28.9383,33.9334,174.403,102.415,82.2157,0.00891212,0.218807,20.8091,1.75157,2.02341,0.0,0.0
279,69.5,31.3987,37.4655,168.396,102.404,79.1189,0.0113648,0.292968,20.7098,1.54138,2.37601,0.0,0.0
288,71.75,33.6598,41.0492,169.938,102.409,70.1619,0.0124698,0.348436,20.6632,1.92172,3.4831,0.0,0.0
297,74,35.7244,43.3269,179.951,102.418,102.847,0.0114475,0.297782,20.7042,-933.106,-0.0385246,0.0,0.0
306,76.25,33.2769,39.9131,184.901,102.406,100.275,0.00956323,0.224915,20.782,-938.771,0.193712,0.0,0.0
315,78.5,31.7356,37.2276,182.854,102.402,103.415,0.00756574,0.168324,20.8597,-938.771,-0.0905836,0.0,0.0
324,80.75,30.7135,35.6228,181.055,102.396,104.334,0.00604736,0.126378,20.9196,-938.741,-0.172662,0.0,0.0
333,83,29.4311,34.2458,187.302,102.405,103.217,0.0050352,0.103997,20.9511,-938.731,-0.0726736,0.0,0.0
342,85.25,28.9898,33.1829,178.878,102.399,103.684,0.00434245,0.0923252,20.9684,-938.751,-0.114884,0.0,0.0
351,87.5,28.4228,32.2715,176.736,102.407,103.939,0.00396499,0.0855907,20.9783,-938.751,-0.136712,0.0,0.0
360,89.75,27.8359,31.4177,181.64,102.394,103.438,0.00378988,0.0820966,20.9827,-938.761,-0.0933921,0.0,0.0
369,92,27.1114,31.3014,184.569,102.38,103.76,0.00365536,0.0811801,20.9838,-938.781,-0.123338,0.0,0.0
378,94.25,27.4127,30.7824,180.039,102.374,103.584,0.00350598,0.0819912,20.9834,-938.771,-0.108231,0.0,0.0
387,96.5,27.284,30.9096,178.683,102.379,103.632,0.00351238,0.0829569,20.9827,-938.751,-0.112043,0.0,0.0
396,98.75,27.2491,30.0601,178.206,102.37,103.635,0.00367775,0.0831562,20.9815,-938.781,-0.113148,0.0,0.0
405,101,27.2104,29.9374,184.421,102.355,103.483,0.00374191,0.0823132,20.982,-938.761,-0.100915,0.0,0.0
414,103.25,27.3449,30.1363,184.843,102.367,103.462,0.00363071,0.0807119,20.9827,-938.741,-0.0980051,0.0,0.0
423,105.5,26.7213,29.8545,178.669,102.356,103.373,0.00350797,0.0790882,20.9851,-938.751,-0.0911374,0.0,0.0
432,107.75,26.6464,29.6353,184.018,102.362,103.165,0.00348249,0.0778767,20.9867,-938.751,-0.0719875,0.0,0.0
441,110,26.34,28.5486,183.447,102.357,103.674,0.00347737,0.0769441,20.9874,-938.771,-0.117806,0.0,0.0
450,112.25,26.2085,28.9128,183.257,102.356,103.46,0.00353444,0.0764533,20.9886,-938.681,-0.098808,0.0,0.0
459,114.5,26.3982,29.2044,183.469,102.348,103.898,0.00348565,0.0761487,20.9891,-938.731,-0.138395,0.0,0.0
468,116.75,25.9581,28.0177,179.528,102.33,104.074,0.00347063,0.0763075,20.9893,-938.751,-0.155622,0.0,0.0
477,119,26.6987,28.7951,182.393,102.334,103.612,0.00339153,0.0764709,20.9894,-938.741,-0.114314,0.0,0.0
486,121.25,26.2001,28.8487,180.582,102.342,103.446,0.00320813,0.0767026,20.9886,-938.791,-0.0987636,0.0,0.0
495,123.5,25.7985,28.7434,188.918,102.331,103.547,0.00315094,0.0783889,20.9863,-938.751,-0.108821,0.0,0.0
504,125.75,25.7252,28.7198,184.49,102.335,103.468,0.00326697,0.0813286,20.9841,-938.731,-0.101405,0.0,0.0
513,128,25.3372,27.8365,181.969,102.33,103.45,0.00347117,0.0835899,20.9818,-938.711,-0.100239,0.0,0.0
522,130.25,25.6419,28.4451,184.289,102.327,103.48,0.00365946,0.0843017,20.9809,-938.761,-0.103147,0.0,0.0
531,132.5,25.7057,28.1626,184.476,102.318,103.302,0.00378692,0.0835154,20.9805,-938.761,-0.0881245,0.0,0.0
540,134.75,25.274,28.2891,176.141,102.299,103.736,0.00378089,0.0819801,20.9808,-938.771,-0.128513,0.0,0.0
549,137,25.9786,28.3624,182.336,102.305,103.62,0.00378407,0.0806998,20.9827,-938.791,-0.117625,0.0,0.0
558,139.25,26.2494,28.2291,183.899,102.304,103.529,0.00375498,0.0794232,20.9843,-938.781,-0.109642,0.0,0.0
567,141.5,25.651,28.5856,186.744,102.279,103.146,0.00358594,0.0784498,20.9857,-938.761,-0.0777214,0.0,0.0
576,143.75,26.0488,28.6361,178.208,102.262,103.895,0.00336276,0.0775308,20.9867,-938.771,-0.145916,0.0,0.0
585,146,26.162,28.3589,178.539,102.261,103.277,0.00328207,0.0769204,20.987,-938.791,-0.0910703,0.0,0.0
594,148.25,25.7659,28.6761,179.885,102.237,104.067,0.00339455,0.0765745,20.9872,-938.781,-0.163348,0.0,0.0
603,150.5,26.1416,28.9513,177.873,102.226,103.166,0.00354408,0.0765578,20.9872,-938.771,-0.0842926,0.0,0.0
612,152.75,25.7538,28.3304,181.922,102.219,103.467,0.00354335,0.0764485,20.9881,-938.771,-0.111776,0.0,0.0
621,155,25.9091,28.5666,176.701,102.216,103.795,0.00345816,0.0761392,20.989,-938.761,-0.141197,0.0,0.0
630,157.25,25.9429,28.5181,180.217,102.192,103.646,0.00341517,0.0760386,20.9892,-938.751,-0.130064,0.0,0.0
639,159.5,25.4318,28.413,180.426,102.176,103.308,0.00336923,0.0758233,20.989,-938.741,-0.10151,0.0,0.0
648,161.75,25.8064,28.1486,184.51,102.176,103.639,0.00331716,0.0757325,20.988,-938.771,-0.130985,0.0,0.0
657,164,25.4036,28.3479,184.78,102.162,103.316,0.00327976,0.075659,20.989,-938.741,-0.103501,0.0,0.0
666,166.25,25.6541,28.2091,180.139,102.157,103.568,0.00325488,0.0754679,20.9894,-938.761,-0.126327,0.0,0.0
675,168.5,26.0373,28.0896,182.745,102.133,103.393,0.00335122,0.0754577,20.9885,-938.771,-0.112876,0.0,0.0
684,170.75,25.5722,28.4677,181.759,102.137,103.571,0.00348427,0.075507,20.9878,-938.761,-0.128433,0.0,0.0
693,173,25.2676,28.9031,182.385,102.127,103.332,0.00360073,0.0755428,20.9875,-938.761,-0.10798,0.0,0.0
702,175.25,25.4883,28.1369,183.032,102.12,103.736,0.00364448,0.0754267,20.9879,-938.781,-0.144582,0.0,0.0
711,177.5,26.0169,28.3949,186.931,102.15,103.364,0.00351284,0.0754365,20.9883,-938.761,-0.1088,0.0,0.0
720,179.75,25.3209,28.4928,178.973,102.149,103.891,0.00341111,0.0754525,20.9878,-938.781,-0.155714,0.0,0.0
729,182,25.6485,28.1824,185.014,102.124,103.256,0.00342512,0.0755429,20.9878,-938.741,-0.101505,0.0,0.0
738,184.25,26.0567,28.284,179.044,102.135,103.444,0.00355549,0.0756297,20.9867,-938.731,-0.117231,0.0,0.0
747,186.5,25.007,28.3106,180.359,102.131,103.543,0.00357407,0.0756942,20.9872,-938.731,-0.126503,0.0,0.0
756,188.75,25.5784,27.9694,180.4,102.134,103.227,0.0034944,0.0757371,20.9875,-938.771,-0.0980345,0.0,0.0
765,191,25.2505,27.8932,183.402,102.11,103.745,,0.0759225,,-938.791,-0.146291,0.0,0.0
774,193.25,25.2294,28.2461,179.623,102.124,103.823,,,,-938.791,-0.15192,0.0,0.0
783,195.5,25.1353,28.2305,181.001,102.119,103.442,,,,-938.801,-0.11857,0.0,0.0
792,197.75,25.7061,28.27,180.35,102.108,102.861,,,,-938.791,-0.0676331,0.0,0.0
801,200,25.3708,28.0677,181.627,102.105,103.424,,,,-938.781,-0.118298,0.0,0.0
804,200.75,25.6891,28.1759,185.94,102.102,103.187,,,,-938.801,-0.0974369,0.0,0.0