File: 01_Data/Rubber_Foam_Pipe_Insulation/MCC/Rubber_Foam_Pipe_Insulation_MCC_30K_min_220126_R1.txt
Sample ID:	C:\MCC\MCC Cal\Test\Rubber_Foam_Pipe_Insulation_MCC_30K_min_220126_R1.txt
Sample Weight (mg):	4.68
Heating Rate (C/s):	0.5
Combustor Temp (C):	900
N2 Flow Rate (cc/min):	80
O2 Flow Rate (cc/min):	20
Calibration File:	C:\MCC\MCC Cal\Coeff1 JN10440_30_210304.txt.txt
T Correction Coefficients:	0	1.024463	0
Time Shift (s):	14
*
Time (s)	Temperature (C)	N2 flow rate (cc/min)	O2 flow rate (cc/min)	Flow Rate (cc/min)	Oxygen (%)	HRR (W/g)	Heating rate (C/s)
0.000	112.947	80.005	19.996	103.676	20.277	-0.187	0.005
8.000	112.929	80.004	19.994	103.706	20.277	-0.147	-0.017
16.000	113.014	80.004	19.994	103.708	20.272	0.216	0.019
24.000	113.120	80.005	19.994	103.713	20.269	0.376	-0.012
32.000	113.384	80.007	19.994	103.737	20.263	0.824	0.031
40.000	113.813	80.006	19.994	103.832	20.253	1.496	0.052
48.000	114.631	80.007	19.993	103.865	20.243	2.169	0.074
56.000	115.872	80.008	19.993	103.897	20.240	2.422	0.166
64.000	117.484	80.005	19.993	103.876	20.235	2.773	0.223
72.000	119.315	80.005	19.994	103.899	20.234	2.819	0.203
80.000	121.475	80.004	19.994	103.906	20.230	3.115	0.273
88.000	123.901	80.002	19.993	103.940	20.231	3.054	0.317
96.000	126.557	80.003	19.994	103.923	20.236	2.715	0.332
104.000	129.420	80.006	19.995	103.925	20.230	3.096	0.361
112.000	132.436	80.004	19.995	103.913	20.232	2.935	0.385
120.000	135.534	80.004	19.993	103.921	20.232	2.963	0.354
128.000	138.781	80.005	19.993	103.926	20.228	3.219	0.409
136.000	142.024	80.007	19.994	103.926	20.227	3.289	0.413
144.000	145.475	80.004	19.994	103.918	20.227	3.326	0.429
152.000	148.913	80.004	19.993	103.935	20.227	3.276	0.424
160.000	152.457	80.004	19.993	103.940	20.224	3.536	0.495
168.000	156.000	80.004	19.994	103.933	20.225	3.446	0.446
176.000	159.647	80.003	19.995	103.938	20.226	3.378	0.462
184.000	163.401	80.005	19.994	103.918	20.222	3.635	0.480
192.000	167.156	80.005	19.993	103.929	20.218	3.911	0.486
200.000	170.862	80.004	19.996	103.938	20.214	4.186	0.462
208.000	174.727	80.005	19.994	103.935	20.213	4.250	0.483
216.000	178.565	80.005	19.992	103.925	20.209	4.553	0.514
224.000	182.471	80.004	19.994	103.925	20.199	5.257	0.469
232.000	186.425	80.005	19.993	103.925	20.198	5.309	0.475
240.000	190.407	80.004	19.994	103.932	20.191	5.801	0.499
248.000	194.392	80.004	19.993	103.925	20.187	6.057	0.507
256.000	198.448	80.004	19.993	103.930	20.182	6.403	0.539
264.000	202.437	80.006	19.994	103.919	20.178	6.700	0.481
272.000	206.515	80.005	19.995	103.909	20.174	6.997	0.497
280.000	210.652	80.006	19.994	103.909	20.164	7.639	0.492
288.000	214.687	80.005	19.994	103.905	20.160	7.949	0.483
296.000	218.775	80.006	19.996	103.910	20.150	8.642	0.525
304.000	222.826	80.004	19.994	103.903	20.135	9.670	0.509
312.000	226.831	80.005	19.994	103.934	20.113	11.180	0.507
320.000	230.879	80.005	19.993	103.940	20.091	12.732	0.530
328.000	234.839	80.004	19.994	103.945	20.065	14.531	0.511
336.000	238.702	80.003	19.992	103.940	20.042	16.126	0.471
344.000	242.621	80.006	19.992	103.937	20.033	16.748	0.471
352.000	246.523	80.005	19.994	103.944	20.028	17.116	0.494
360.000	250.591	80.004	19.995	103.979	20.026	17.226	0.509
368.000	254.598	80.008	19.993	103.984	20.012	18.226	0.518
376.000	258.661	80.005	19.993	104.013	19.973	20.887	0.485
384.000	262.699	80.004	19.994	104.010	19.890	26.671	0.512
392.000	266.642	80.005	19.994	103.925	19.783	33.968	0.482
400.000	270.651	80.004	19.994	103.728	19.713	38.851	0.496
408.000	274.594	80.005	19.993	103.716	19.780	34.217	0.476
416.000	278.447	80.003	19.994	103.801	19.899	25.981	0.472
424.000	282.304	80.006	19.993	103.825	19.989	19.753	0.480
432.000	286.131	80.006	19.993	103.833	20.045	15.924	0.494
440.000	290.068	80.006	19.993	103.829	20.081	13.425	0.478
448.000	294.039	80.007	19.994	103.827	20.099	12.136	0.487
456.000	298.060	80.006	19.993	103.829	20.119	10.779	0.531
464.000	302.058	80.005	19.993	103.842	20.128	10.162	0.496
472.000	306.130	80.004	19.994	103.839	20.132	9.895	0.546
480.000	310.168	80.006	19.996	103.843	20.141	9.258	0.482
488.000	314.347	80.004	19.994	103.831	20.140	9.310	0.529
496.000	318.511	80.004	19.993	103.835	20.138	9.434	0.502
504.000	322.567	80.007	19.994	103.828	20.136	9.594	0.500
512.000	326.640	80.005	19.993	103.840	20.144	9.082	0.518
520.000	330.702	80.005	19.994	103.848	20.145	8.958	0.518
528.000	334.801	80.007	19.994	103.853	20.144	9.064	0.513
536.000	338.915	80.005	19.995	103.842	20.149	8.692	0.509
544.000	342.986	80.006	19.993	103.837	20.149	8.713	0.518
552.000	347.074	80.004	19.994	103.836	20.145	8.957	0.498
560.000	351.173	80.006	19.995	103.829	20.142	9.156	0.500
568.000	355.211	80.004	19.995	103.828	20.142	9.162	0.511
576.000	359.144	80.004	19.994	103.828	20.141	9.232	0.486
584.000	363.107	80.006	19.993	103.831	20.133	9.824	0.471
592.000	367.067	80.006	19.993	103.840	20.134	9.771	0.511
600.000	371.072	80.007	19.995	103.864	20.127	10.236	0.509
608.000	375.118	80.009	19.994	103.870	20.120	10.698	0.529
616.000	379.106	80.006	19.994	103.898	20.109	11.490	0.493
624.000	383.134	80.004	19.995	103.902	20.102	11.977	0.528
632.000	387.144	80.005	19.994	103.894	20.093	12.580	0.517
640.000	391.226	80.007	19.994	103.874	20.086	13.086	0.508
648.000	395.365	80.004	19.994	103.857	20.075	13.810	0.513
656.000	399.481	80.005	19.995	103.850	20.054	15.258	0.499
664.000	403.614	80.006	19.993	103.830	20.038	16.354	0.542
672.000	407.719	80.007	19.994	103.825	20.011	18.284	0.505
680.000	411.783	80.007	19.994	103.816	19.981	20.349	0.509
688.000	415.792	80.009	19.994	103.823	19.945	22.808	0.494
696.000	419.819	80.006	19.993	103.805	19.908	25.399	0.495
704.000	423.768	80.005	19.993	103.809	19.864	28.414	0.490
712.000	427.715	80.004	19.994	103.823	19.817	31.668	0.501
720.000	431.697	80.003	19.994	103.827	19.761	35.567	0.497
728.000	435.722	80.004	19.994	103.815	19.708	39.230	0.512
736.000	439.677	80.005	19.994	103.825	19.654	42.954	0.501
744.000	443.759	80.006	19.995	103.804	19.606	46.300	0.525
752.000	447.780	80.006	19.994	103.803	19.560	49.495	0.498
760.000	451.861	80.006	19.993	103.826	19.531	51.483	0.525
768.000	455.915	80.007	19.992	103.824	19.520	52.218	0.502
776.000	459.925	80.005	19.994	103.820	19.532	51.416	0.492
784.000	463.969	80.006	19.993	103.825	19.569	48.821	0.497
792.000	467.944	80.006	19.993	103.797	19.624	45.036	0.484
800.000	471.965	80.004	19.995	103.813	19.698	39.919	0.477
808.000	476.019	80.004	19.995	103.820	19.776	34.490	0.525
816.000	480.048	80.005	19.994	103.813	19.856	28.974	0.488
824.000	484.176	80.006	19.993	103.831	19.942	23.037	0.546
832.000	488.271	80.004	19.995	103.838	20.017	17.877	0.495
840.000	492.491	80.006	19.994	103.845	20.071	14.098	0.535
848.000	496.723	80.006	19.994	103.824	20.119	10.757	0.533
856.000	500.908	80.005	19.993	103.855	20.154	8.378	0.517
864.000	505.029	80.005	19.994	103.850	20.174	6.958	0.513
872.000	509.208	80.005	19.994	103.839	20.190	5.837	0.504
880.000	513.202	80.005	19.993	103.825	20.207	4.709	0.506
888.000	517.372	80.003	19.993	103.828	20.215	4.104	0.543
896.000	521.452	80.005	19.994	103.827	20.231	3.026	0.508
904.000	525.507	80.005	19.994	103.809	20.237	2.625	0.541
912.001	529.501	80.004	19.993	103.805	20.236	2.653	0.502
920.000	533.615	80.007	19.996	103.823	20.241	2.358	0.529
928.000	537.911	80.005	19.995	103.813	20.245	2.061	0.540
936.000	542.349	80.004	19.994	103.811	20.250	1.703	0.591
944.000	546.765	80.004	19.992	103.798	20.246	1.963	0.565
952.000	551.230	80.005	19.994	103.798	20.247	1.891	0.563
960.000	555.670	80.004	19.994	103.800	20.252	1.540	0.540
968.000	560.039	80.004	19.993	103.801	20.250	1.703	0.572
976.000	564.285	80.007	19.993	103.817	20.252	1.550	0.530
984.000	568.550	80.005	19.995	103.821	20.252	1.588	0.526
992.000	572.790	80.004	19.994	103.794	20.250	1.737	0.509
1000.000	577.042	80.008	19.994	103.803	20.250	1.684	0.523
1008.000	581.282	80.006	19.995	103.791	20.252	1.571	0.503
1016.000	585.497	80.003	19.998	103.814	20.252	1.597	0.521
1024.000	589.586	80.003	19.994	103.797	20.254	1.451	0.492
1032.000	593.719	80.004	19.993	103.794	20.252	1.582	0.510
1040.000	597.870	80.004	19.995	103.789	20.257	1.236	0.517
1048.000	601.790	80.003	19.994	103.787	20.258	1.173	0.476
1056.000	605.606	80.006	19.993	103.788	20.257	1.217	0.449
1064.000	609.294	80.008	19.993	103.784	20.261	0.980	0.447
1072.001	613.031	80.005	19.994	103.787	20.258	1.175	0.477
1080.000	616.885	80.006	19.994	103.786	20.256	1.273	0.473
1088.001	620.784	80.005	19.993	103.785	20.261	0.973	0.480
1096.000	624.739	80.003	19.994	103.788	20.260	1.007	0.505
1104.000	628.747	80.004	19.994	103.787	20.259	1.084	0.476
1112.001	632.826	80.004	19.996	103.782	20.261	0.965	0.505
1120.000	636.966	80.004	19.994	103.783	20.259	1.107	0.499
1128.000	641.040	80.004	19.994	103.780	20.264	0.736	0.524
1136.000	645.201	80.006	19.994	103.787	20.260	0.993	0.542
1144.000	649.411	80.005	19.993	103.784	20.263	0.793	0.485
1152.000	653.674	80.005	19.993	103.788	20.262	0.908	0.540
1160.000	657.903	80.006	19.994	103.783	20.263	0.783	0.500
1168.000	662.135	80.005	19.995	103.774	20.257	1.197	0.500
1176.000	666.302	80.004	19.994	103.777	20.264	0.745	0.531
1184.000	670.378	80.005	19.994	103.772	20.263	0.781	0.500
1192.000	674.434	80.005	19.995	103.777	20.260	1.044	0.548
1200.001	678.559	80.003	19.995	103.770	20.260	1.039	0.530
1208.000	682.626	80.004	19.994	103.780	20.264	0.768	0.507
1216.001	686.633	80.005	19.994	103.771	20.263	0.793	0.470
1224.000	690.729	80.005	19.993	103.771	20.263	0.812	0.523
1232.000	694.733	80.007	19.992	103.761	20.262	0.865	0.486
1240.000	698.661	80.007	19.993	103.751	20.258	1.135	0.460
1248.001	702.742	80.006	19.994	103.759	20.262	0.899	0.490
1256.000	706.788	80.003	19.995	103.773	20.259	1.091	0.523
1264.000	710.807	80.004	19.995	103.773	20.254	1.402	0.504
1272.000	714.858	80.003	19.993	103.783	20.260	0.993	0.520
1280.000	718.845	80.003	19.994	103.776	20.255	1.334	0.473
1288.000	722.803	80.004	19.995	103.809	20.262	0.874	0.493
1296.000	726.807	80.005	19.994	103.762	20.257	1.217	0.510
1304.000	731.040	80.006	19.993	103.778	20.254	1.428	0.546
1312.000	735.331	80.006	19.995	103.784	20.260	1.039	0.548
1320.000	739.706	80.008	19.994	103.773	20.252	1.557	0.557
1326.500	743.215	80.004	19.992	103.770	20.253	1.504	0.544