File: 01_Data/Rubber_Foam_Pipe_Insulation/MCC/Rubber_Foam_Pipe_Insulation_MCC_30K_min_220127_R2.txt
Sample ID:	C:\MCC\MCC Cal\Test\Rubber_Foam_Pipe_Insulation_MCC_30K_min_220127_R2.txt
Sample Weight (mg):	4.7
Heating Rate (C/s):	0.5
Combustor Temp (C):	900
N2 Flow Rate (cc/min):	80
O2 Flow Rate (cc/min):	20
Calibration File:	C:\MCC\MCC Cal\Coeff1 JN10440_30_210304.txt.txt
T Correction Coefficients:	0	1.024463	0
Time Shift (s):	14
*
Time (s)	Temperature (C)	N2 flow rate (cc/min)	O2 flow rate (cc/min)	Flow Rate (cc/min)	Oxygen (%)	HRR (W/g)	Heating rate (C/s)
0.000	112.973	80.010	19.993	103.717	20.011	0.546	-0.013
8.000	112.940	80.010	19.996	103.723	20.017	0.137	0.013
16.000	112.929	80.010	19.994	103.737	20.015	0.300	-0.035
24.000	113.067	80.008	19.993	103.761	20.007	0.850	0.026
32.000	113.259	80.009	19.994	103.782	20.002	1.155	0.010
40.001	113.607	80.009	19.994	103.863	19.989	2.044	0.050
48.001	114.462	80.008	19.994	103.946	19.979	2.758	0.154
56.001	115.855	80.008	19.994	103.967	19.970	3.389	0.209
64.001	117.697	80.011	19.993	103.945	19.971	3.314	0.238
72.000	119.781	80.007	19.996	103.961	19.968	3.552	0.273
80.000	122.194	80.008	19.994	103.975	19.965	3.746	0.305
88.000	124.907	80.010	19.994	104.001	19.966	3.634	0.331
96.000	127.874	80.010	19.993	103.995	19.962	3.933	0.384
104.000	131.057	80.009	19.994	104.008	19.958	4.188	0.439
112.000	134.448	80.008	19.993	104.009	19.964	3.821	0.431
120.000	138.008	80.007	19.993	104.007	19.959	4.129	0.453
128.000	141.770	80.009	19.994	104.009	19.962	3.956	0.477
136.000	145.633	80.006	19.992	104.015	19.961	4.016	0.478
144.000	149.683	80.009	19.995	103.985	19.958	4.250	0.537
152.000	153.628	80.010	19.992	103.999	19.963	3.862	0.496
160.000	157.736	80.008	19.993	103.983	19.959	4.147	0.524
168.000	161.860	80.008	19.995	103.994	19.958	4.219	0.512
176.000	165.982	80.009	19.994	103.978	19.956	4.381	0.473
184.000	170.060	80.008	19.993	103.978	19.954	4.466	0.504
192.000	174.116	80.009	19.993	103.979	19.950	4.788	0.485
200.000	178.158	80.007	19.994	103.976	19.951	4.730	0.498
208.000	182.141	80.008	19.994	103.968	19.946	5.029	0.492
216.000	186.118	80.008	19.994	103.943	19.939	5.493	0.533
224.000	190.030	80.007	19.993	103.969	19.931	6.070	0.464
232.000	193.949	80.011	19.993	103.944	19.922	6.730	0.484
240.000	197.753	80.009	19.995	103.955	19.920	6.826	0.473
248.000	201.582	80.008	19.996	103.961	19.917	7.056	0.466
256.001	205.418	80.010	19.994	103.958	19.912	7.363	0.488
264.000	209.318	80.008	19.994	103.969	19.907	7.744	0.501
272.000	213.169	80.007	19.993	103.962	19.902	8.095	0.507
280.000	217.070	80.008	19.994	103.963	19.889	8.990	0.478
288.000	220.960	80.008	19.994	103.977	19.876	9.904	0.482
296.000	224.894	80.008	19.993	103.978	19.858	11.086	0.481
304.000	228.889	80.009	19.993	103.981	19.835	12.741	0.530
312.000	232.866	80.011	19.993	104.005	19.809	14.483	0.463
320.000	236.916	80.010	19.994	104.016	19.786	16.067	0.490
328.000	240.909	80.010	19.994	103.997	19.773	16.961	0.467
336.000	244.996	80.009	19.993	104.003	19.774	16.935	0.492
344.000	249.146	80.011	19.993	104.025	19.771	17.169	0.564
352.000	253.295	80.010	19.994	104.055	19.750	18.564	0.528
360.000	257.359	80.006	19.995	104.084	19.710	21.364	0.496
368.000	261.381	80.009	19.996	104.068	19.628	26.974	0.490
376.000	265.472	80.009	19.994	104.000	19.512	34.932	0.556
384.000	269.463	80.007	19.994	103.797	19.452	39.071	0.495
392.000	273.458	80.009	19.994	103.766	19.515	34.769	0.478
400.000	277.372	80.010	19.993	103.838	19.624	27.235	0.477
408.000	281.302	80.010	19.993	103.863	19.716	20.890	0.495
416.000	285.195	80.011	19.993	103.863	19.774	16.904	0.497
424.000	289.122	80.011	19.994	103.872	19.812	14.272	0.503
432.000	293.058	80.009	19.995	103.891	19.833	12.832	0.503
440.000	296.994	80.008	19.993	103.882	19.850	11.659	0.491
448.000	300.888	80.010	19.992	103.883	19.859	11.041	0.494
456.000	304.883	80.008	19.993	103.900	19.864	10.704	0.495
464.000	308.825	80.007	19.994	103.902	19.871	10.232	0.460
472.000	312.905	80.009	19.993	103.897	19.877	9.820	0.523
480.000	316.964	80.010	19.994	103.894	19.878	9.742	0.477
488.000	320.994	80.010	19.995	103.899	19.880	9.558	0.547
496.000	324.978	80.009	19.993	103.890	19.883	9.374	0.477
504.000	329.046	80.013	19.992	103.898	19.884	9.344	0.509
512.000	333.088	80.010	19.993	103.901	19.890	8.914	0.526
520.000	337.094	80.008	19.994	103.894	19.884	9.327	0.519
528.000	341.126	80.009	19.994	103.888	19.884	9.343	0.507
536.000	345.092	80.009	19.994	103.891	19.885	9.268	0.478
544.000	349.146	80.008	19.995	103.895	19.876	9.839	0.521
552.001	353.095	80.007	19.996	103.897	19.877	9.826	0.482
560.000	357.070	80.010	19.994	103.890	19.876	9.872	0.490
568.000	360.987	80.011	19.994	103.895	19.872	10.117	0.481
576.000	364.900	80.010	19.994	103.902	19.865	10.628	0.485
584.000	368.854	80.009	19.994	103.907	19.861	10.917	0.495
592.000	372.777	80.011	19.994	103.934	19.854	11.408	0.491
600.000	376.667	80.010	19.993	103.955	19.846	11.969	0.458
608.000	380.645	80.010	19.997	103.955	19.837	12.596	0.519
616.000	384.496	80.009	19.995	103.939	19.830	13.027	0.501
624.000	388.413	80.009	19.995	103.937	19.824	13.437	0.484
632.000	392.339	80.009	19.995	103.901	19.815	14.049	0.513
640.000	396.272	80.009	19.995	103.901	19.802	14.987	0.474
648.000	400.100	80.009	19.995	103.891	19.783	16.251	0.473
656.000	403.969	80.010	19.994	103.879	19.763	17.675	0.497
664.000	407.806	80.011	19.993	103.895	19.731	19.836	0.504
672.001	411.813	80.013	19.993	103.882	19.699	22.088	0.518
680.000	415.880	80.009	19.993	103.874	19.660	24.793	0.476
688.000	420.160	80.010	19.993	103.873	19.615	27.891	0.562
696.000	424.436	80.010	19.993	103.883	19.560	31.652	0.549
704.000	428.741	80.009	19.994	103.885	19.497	35.981	0.485
712.000	432.962	80.009	19.995	103.876	19.436	40.192	0.482
720.000	437.244	80.009	19.995	103.874	19.376	44.377	0.699
728.000	441.412	80.010	19.996	103.873	19.313	48.679	0.469
736.000	445.630	80.010	19.994	103.867	19.264	52.072	0.527
744.000	449.807	80.010	19.997	103.867	19.237	53.933	0.502
752.000	453.977	80.012	19.994	103.859	19.228	54.514	0.509
760.000	458.202	80.011	19.993	103.867	19.240	53.708	0.517
768.000	462.360	80.009	19.996	103.882	19.283	50.751	0.503
776.000	466.428	80.009	19.993	103.877	19.342	46.713	0.522
784.000	470.557	80.010	19.994	103.877	19.424	41.021	0.517
792.000	474.693	80.010	19.994	103.871	19.509	35.145	0.502
800.000	478.852	80.009	19.993	103.881	19.598	29.040	0.522
808.000	482.903	80.011	19.995	103.887	19.681	23.293	0.504
816.000	486.945	80.011	19.994	103.897	19.755	18.186	0.507
824.000	490.885	80.011	19.995	103.905	19.818	13.844	0.459
832.000	494.822	80.011	19.994	103.905	19.856	11.219	0.472
840.000	498.781	80.012	19.994	103.900	19.889	8.954	0.469
848.000	502.694	80.011	19.995	103.898	19.908	7.652	0.477
856.000	506.538	80.009	19.993	103.896	19.922	6.723	0.457
864.000	510.462	80.010	19.993	103.892	19.937	5.663	0.507
872.000	514.435	80.010	19.993	103.884	19.944	5.160	0.520
880.000	518.541	80.008	19.994	103.886	19.952	4.646	0.537
888.000	522.651	80.010	19.994	103.880	19.956	4.318	0.529
896.000	526.841	80.010	19.994	103.881	19.962	3.924	0.535
904.000	531.144	80.010	19.993	103.865	19.960	4.043	0.527
912.000	535.588	80.010	19.994	103.876	19.969	3.486	0.536
920.000	540.022	80.012	19.992	103.869	19.965	3.700	0.586
928.000	544.406	80.009	19.994	103.867	19.971	3.335	0.556
936.000	548.785	80.009	19.996	103.863	19.971	3.345	0.545
944.001	553.154	80.009	19.994	103.876	19.973	3.179	0.554
952.000	557.424	80.010	19.994	103.874	19.970	3.379	0.517
960.000	561.663	80.009	19.993	103.872	19.974	3.110	0.524
968.000	565.892	80.010	19.996	103.879	19.971	3.308	0.545
976.000	570.064	80.010	19.994	103.875	19.973	3.164	0.526
984.000	574.229	80.011	19.993	103.879	19.969	3.440	0.530
992.000	578.379	80.011	19.994	103.871	19.973	3.183	0.502
1000.000	582.441	80.011	19.995	103.865	19.974	3.117	0.495
1008.000	586.483	80.012	19.995	103.857	19.969	3.460	0.496
1016.000	590.536	80.010	19.994	103.859	19.970	3.417	0.483
1024.000	594.494	80.009	19.994	103.859	19.972	3.241	0.508
1032.000	598.541	80.010	19.995	103.888	19.970	3.407	0.494
1040.000	602.495	80.009	19.993	103.875	19.969	3.480	0.499
1048.000	606.422	80.009	19.994	103.876	19.967	3.602	0.461
1056.000	610.410	80.010	19.993	103.867	19.973	3.153	0.503
1064.000	614.503	80.011	19.995	103.862	19.970	3.381	0.531
1072.000	618.622	80.010	19.995	103.860	19.967	3.601	0.527
1080.000	622.687	80.012	19.993	103.869	19.971	3.347	0.498
1088.000	626.824	80.013	19.995	103.860	19.970	3.390	0.523
1096.000	630.976	80.009	19.995	103.860	19.964	3.769	0.509
1104.001	635.143	80.009	19.995	103.862	19.969	3.486	0.557
1112.000	639.281	80.011	19.994	103.864	19.967	3.577	0.527
1120.000	643.429	80.008	19.993	103.854	19.970	3.367	0.502
1128.000	647.515	80.008	19.995	103.860	19.969	3.424	0.522
1136.000	651.670	80.009	19.995	103.857	19.971	3.292	0.517
1144.000	655.788	80.011	19.993	103.850	19.973	3.167	0.518
1152.000	659.897	80.013	19.995	103.855	19.971	3.282	0.516
1160.001	663.992	80.010	19.995	103.848	19.969	3.484	0.500
1168.000	668.021	80.012	19.993	103.841	19.967	3.574	0.479
1176.000	672.062	80.011	19.994	103.835	19.965	3.736	0.514
1184.000	676.103	80.008	19.992	103.847	19.967	3.563	0.485
1192.001	680.215	80.009	19.994	103.848	19.970	3.386	0.520
1200.000	684.247	80.010	19.994	103.851	19.969	3.422	0.508
1208.001	688.320	80.008	19.995	103.850	19.966	3.663	0.500
1216.000	692.285	80.009	19.995	103.859	19.966	3.635	0.471
1224.000	696.285	80.009	19.995	103.846	19.970	3.380	0.474
1232.000	700.180	80.010	19.994	103.833	19.967	3.571	0.498
1240.000	704.064	80.009	19.993	103.853	19.968	3.493	0.512
1248.000	707.989	80.011	19.992	103.860	19.967	3.588	0.499
1256.000	712.093	80.010	19.993	103.853	19.965	3.717	0.505
1264.000	716.188	80.009	19.995	103.853	19.966	3.648	0.510
1272.000	720.408	80.010	19.994	103.859	19.965	3.739	0.548
1280.001	724.588	80.009	19.993	103.854	19.967	3.620	0.539
1288.001	728.762	80.009	19.994	103.850	19.965	3.725	0.506
1296.000	732.955	80.010	19.994	103.854	19.966	3.680	0.536
1304.000	737.049	80.008	19.993	103.855	19.965	3.718	0.492
1312.001	741.163	80.009	19.994	103.845	19.964	3.763	0.630
1316.500	743.451	80.010	19.993	103.857	19.963	3.882	0.516