File: 01_Data/LW_GypBoard_Painted_Paper/STA/N2/30K_min/Lw_Gypsum_Painted_Paper_STA_N2_30KData_222302_R1.csv
##Temp./Â°C,Time/min,Mass loss(subtr.2)/mg,DSC(subtr.2)/(mW/mg),Sensit./(uV/mW)
48.767,10.01,-0.02402,0.0058675,1.08892
51.967,10.87802,-0.0215879,0.16887,1.08622
55.167,11.11089,-0.02662754,0.2816,1.08354
58.367,11.28989,-0.02391199,0.36921,1.08088
61.567,11.44437,-0.02408469,0.44208,1.07824
64.767,11.58512,-0.03076966,0.50904,1.07562
67.967,11.71705,-0.02350102,0.56516,1.07301
71.167,11.84302,-0.02488278,0.61759,1.07042
74.367,11.96457,-0.02443286,0.66962,1.06785
77.567,12.08332,-0.02768578,0.71186,1.0653
80.767,12.19899,-0.02898524,0.75488,1.06276
83.967,12.3138,-0.03006452,0.79591,1.06024
87.167,12.42639,-0.03136438,0.83135,1.05774
90.367,12.53771,-0.03214228,0.86486,1.05526
93.567,12.64798,-0.03424492,0.89549,1.05279
96.767,12.75741,-0.03467267,0.9211,1.05035
99.967,12.86609,-0.03618023,0.94277,1.04791
103.167,12.97465,-0.03867491,0.95827,1.0455
106.367,13.08264,-0.04066768,0.97093,1.0431
109.567,13.19046,-0.04167975,0.98001,1.04072
112.767,13.29822,-0.04167997,0.98495,1.03836
115.967,13.40541,-0.04299227,0.9921,1.03601
119.167,13.5123,-0.04394934,0.99398,1.03368
122.367,13.61846,-0.04398,1.00132,1.03137
125.567,13.7246,-0.04398175,1.00665,1.02907
128.767,13.83032,-0.04661119,1.0129,1.02679
131.967,13.9352,-0.04792633,1.01446,1.02453
135.167,14.0391,-0.04856463,1.01401,1.02228
138.367,14.14274,-0.04933555,1.02057,1.02005
141.567,14.246,-0.04925,1.02447,1.01784
144.767,14.34876,-0.04924999,1.03367,1.01564
147.967,14.4508,-0.05056151,1.04363,1.01346
151.167,14.553,-0.04920389,1.05193,1.01129
154.367,14.6541,-0.04793001,1.06608,1.00914
157.567,14.75593,-0.04793202,1.07973,1.007
160.767,14.85705,-0.05055985,1.0925,1.00488
163.967,14.958,-0.05154688,1.10623,1.00277
167.167,15.0587,-0.05187995,1.12002,1.00068
170.367,15.15894,-0.0528747,1.13277,0.99861
173.567,15.2591,-0.0532,1.15029,0.99654
176.767,15.3591,-0.05319981,1.16068,0.9945
179.967,15.4588,-0.05582157,1.17795,0.99246
183.167,15.5579,-0.05581839,1.18868,0.99045
186.367,15.6568,-0.05451004,1.20259,0.98844
189.567,15.75562,-0.057087,1.21514,0.98645
192.767,15.85414,-0.05922076,1.22658,0.98447
195.967,15.95245,-0.05997182,1.24165,0.98251
199.167,16.05015,-0.06009935,1.25699,0.98056
202.367,16.14856,-0.06009514,1.26552,0.97862
205.567,16.2464,-0.06286368,1.27915,0.9767
208.767,16.3442,-0.06416849,1.28947,0.97478
211.967,16.44191,-0.06284844,1.30158,0.97289
215.167,16.53937,-0.06548013,1.31477,0.971
218.367,16.63661,-0.06682631,1.32616,0.96912
221.567,16.7339,-0.0681404,1.33547,0.96726
224.767,16.83132,-0.07092235,1.34708,0.96541
227.967,16.92839,-0.07364067,1.35802,0.96357
231.167,17.02541,-0.07642712,1.36758,0.96174
234.367,17.12252,-0.07875489,1.37103,0.95992
237.567,17.21957,-0.08297446,1.37856,0.95812
240.767,17.3165,-0.0862637,1.38513,0.95632
243.967,17.41341,-0.08883772,1.38832,0.95454
247.167,17.51014,-0.09137369,1.39447,0.95276
250.367,17.60705,-0.09788355,1.39987,0.951
253.567,17.7037,-0.10272,1.40812,0.94924
256.767,17.8003,-0.10828,1.41309,0.94749
259.967,17.89695,-0.1119,1.4142,0.94576
263.167,17.99359,-0.11737,1.4201,0.94403
266.367,18.09019,-0.12395,1.42809,0.94231
269.567,18.1869,-0.13007,1.43359,0.9406
272.767,18.28334,-0.13639,1.44288,0.9389
275.967,18.37999,-0.14456,1.45047,0.9372
279.167,18.47665,-0.1542,1.46328,0.93552
282.367,18.57328,-0.16238,1.47182,0.93384
285.567,18.6699,-0.17427,1.48472,0.93217
288.767,18.7668,-0.18514,1.49738,0.9305
291.967,18.8633,-0.19663,1.51672,0.92885
295.167,18.96001,-0.2107,1.53362,0.92719
298.367,19.05692,-0.22698,1.55515,0.92555
301.567,19.15377,-0.24296,1.57876,0.92391
304.767,19.25078,-0.26115,1.60473,0.92228
307.967,19.3476,-0.28182,1.63095,0.92065
311.167,19.4443,-0.30279,1.65984,0.91903
314.367,19.54162,-0.32792,1.6914,0.91742
317.567,19.63873,-0.35565,1.72666,0.9158
320.767,19.736,-0.38487,1.76017,0.9142
323.967,19.83355,-0.41744,1.79483,0.9126
327.167,19.93101,-0.44928,1.82666,0.911
330.367,20.0287,-0.48689,1.86105,0.9094
333.567,20.1268,-0.5244,1.89722,0.90781
336.767,20.225,-0.56556,1.9322,0.90623
339.967,20.3233,-0.60728,1.9727,0.90464
343.167,20.42171,-0.65488,2.01822,0.90306
346.367,20.52037,-0.705,2.07069,0.90148
349.567,20.61869,-0.75696,2.13712,0.8999
352.767,20.71762,-0.81706,2.2132,0.89833
355.967,20.8164,-0.87893,2.3039,0.89676
359.167,20.9153,-0.94868,2.40821,0.89519
362.367,21.01432,-1.02413,2.52399,0.89362
365.567,21.11342,-1.10787,2.6341,0.89205
368.767,21.21259,-1.19529,2.74173,0.89048
371.967,21.31193,-1.29138,2.81923,0.88891
375.167,21.4112,-1.38758,2.85163,0.88735
378.367,21.51056,-1.48746,2.81718,0.88578
381.567,21.60961,-1.58164,2.7069,0.88421
384.767,21.7087,-1.67231,2.51528,0.88264
387.967,21.80796,-1.74832,2.24823,0.88107
391.167,21.90696,-1.8116,1.9342,0.87951
394.367,22.00591,-1.85884,1.62899,0.87793
397.567,22.10476,-1.89657,1.39052,0.87636
400.767,22.2039,-1.92482,1.24556,0.87479
403.967,22.30286,-1.94909,1.18349,0.87321
407.167,22.4022,-1.97429,1.16853,0.87164
410.367,22.50169,-2.00115,1.17816,0.87006
413.567,22.6018,-2.02818,1.19708,0.86847
416.767,22.70138,-2.06018,1.21612,0.86689
419.967,22.8011,-2.09382,1.22195,0.8653
423.167,22.9013,-2.13222,1.20354,0.86371
426.367,23.00125,-2.16814,1.1579,0.86211
429.567,23.10154,-2.20709,1.0773,0.86051
432.767,23.2017,-2.24381,0.96715,0.85891
435.967,23.30176,-2.27205,0.83613,0.8573
439.167,23.4021,-2.29309,0.71266,0.85569
442.367,23.50252,-2.30996,0.62257,0.85407
445.567,23.60289,-2.32057,0.5631,0.85245
448.767,23.70334,-2.33171,0.52464,0.85082
451.967,23.80419,-2.34023,0.50176,0.84919
455.167,23.9049,-2.34856,0.48472,0.84755
458.367,24.00607,-2.35402,0.47826,0.8459
461.567,24.10742,-2.36123,0.4711,0.84425
464.767,24.20867,-2.36698,0.46667,0.8426
467.967,24.31011,-2.3724,0.46189,0.84093
471.167,24.41154,-2.3755,0.4566,0.83926
474.367,24.51325,-2.38027,0.44898,0.83759
477.567,24.61504,-2.38338,0.44601,0.8359
480.767,24.71675,-2.38659,0.43718,0.83421
483.967,24.81861,-2.39255,0.43145,0.83251
487.167,24.92057,-2.3974,0.42258,0.83081
490.367,25.02273,-2.40152,0.41319,0.82909
493.567,25.12487,-2.40397,0.40205,0.82737
496.767,25.22709,-2.40712,0.39395,0.82564
499.967,25.3292,-2.40835,0.38227,0.8239
503.167,25.43196,-2.41261,0.36964,0.82216
506.367,25.53445,-2.41566,0.35758,0.8204
509.567,25.6368,-2.41726,0.34915,0.81864
512.767,25.73943,-2.42097,0.34052,0.81686
515.967,25.84209,-2.42361,0.33134,0.81508
519.167,25.9448,-2.42622,0.3247,0.81329
522.367,26.04757,-2.42756,0.31468,0.81149
525.567,26.15055,-2.42987,0.30227,0.80967
528.767,26.2536,-2.43122,0.30039,0.80785
531.967,26.3566,-2.43381,0.28766,0.80602
535.167,26.45978,-2.43646,0.27766,0.80418
538.367,26.56297,-2.43909,0.27079,0.80233
541.567,26.66633,-2.44041,0.26443,0.80046
544.767,26.76967,-2.4417,0.27247,0.79859
547.967,26.87329,-2.44318,0.27582,0.79671
551.167,26.97703,-2.44435,0.27867,0.79481
554.367,27.08056,-2.4457,0.27517,0.79291
557.567,27.18419,-2.44835,0.27127,0.79099
560.767,27.28835,-2.44994,0.27127,0.78906
563.967,27.39248,-2.45126,0.26418,0.78712
567.167,27.4963,-2.45384,0.25604,0.78517
570.367,27.6007,-2.45523,0.24773,0.78321
573.567,27.7052,-2.45455,0.24088,0.78123
576.767,27.8095,-2.4552,0.22824,0.77925
579.967,27.91406,-2.4576,0.21488,0.77725
583.167,28.01865,-2.46016,0.19746,0.77524
586.367,28.1232,-2.45919,0.183,0.77322
589.567,28.2279,-2.46178,0.1736,0.77118
592.767,28.33275,-2.46314,0.1659,0.76914
595.967,28.43763,-2.46443,0.1533,0.76708
599.167,28.54265,-2.46574,0.14478,0.76501
602.367,28.6477,-2.46494,0.13725,0.76292
605.567,28.7527,-2.46749,0.12502,0.76082
608.767,28.85775,-2.46946,0.11483,0.75872
611.967,28.96303,-2.4701,0.10874,0.75659
615.167,29.06832,-2.47144,0.10077,0.75446
618.367,29.17372,-2.47162,0.09100194,0.75231
621.567,29.27903,-2.47408,0.08503285,0.75015
624.767,29.3842,-2.47662,0.0791303,0.74798
627.967,29.48987,-2.47912,0.07557939,0.74579
631.167,29.59501,-2.47912,0.07724715,0.74359
634.367,29.7005,-2.48044,0.07466453,0.74138
637.567,29.80612,-2.48339,0.08086439,0.73915
640.767,29.91168,-2.48339,0.07816116,0.73691
643.967,30.0175,-2.48471,0.08141302,0.73466
647.167,30.12332,-2.48721,0.0895674,0.73239
650.367,30.2294,-2.48866,0.09578472,0.73011
653.567,30.33555,-2.4915,0.11106,0.72782
656.767,30.44156,-2.4923,0.12468,0.72552
659.967,30.54757,-2.49415,0.13884,0.7232
663.167,30.65363,-2.49688,0.15541,0.72087
666.367,30.7597,-2.49752,0.16938,0.71852
669.567,30.86583,-2.49815,0.18429,0.71616
672.767,30.97196,-2.50092,0.19805,0.71379
675.967,31.0782,-2.50224,0.20996,0.71141
679.167,31.18455,-2.50499,0.2154,0.70901
682.367,31.291,-2.50928,0.21699,0.7066
685.567,31.39718,-2.51332,0.20805,0.70417
688.767,31.50351,-2.51535,0.18936,0.70173
691.967,31.60987,-2.5186,0.1674,0.69928
695.167,31.7161,-2.52058,0.15834,0.69682
698.367,31.8227,-2.52328,0.16451,0.69434
701.567,31.92905,-2.52497,0.1644,0.69185
704.767,32.0355,-2.52874,0.13868,0.68934
707.967,32.14183,-2.53077,0.08257909,0.68683
711.167,32.24803,-2.532,-0.02987898,0.6843
714.367,32.3542,-2.53473,-0.09872675,0.68175
717.567,32.46092,-2.53725,-0.11762,0.6792
720.767,32.567,-2.53858,-0.12431,0.67663
723.967,32.67321,-2.53857,-0.12539,0.67405
727.167,32.7796,-2.53989,-0.13096,0.67145
730.367,32.8864,-2.53986,-0.13311,0.66884
733.567,32.993,-2.53975,-0.13654,0.66622
736.767,33.0995,-2.53989,-0.13765,0.66359
739.967,33.20615,-2.54121,-0.13879,0.66095
743.167,33.3129,-2.54048,-0.14051,0.65829
746.367,33.41935,-2.5412,-0.14026,0.65562
749.567,33.52608,-2.53988,-0.14008,0.65294
752.767,33.63293,-2.5412,-0.14187,0.65024
755.967,33.74003,-2.5412,-0.14453,0.64754
759.167,33.8472,-2.54361,-0.14897,0.64482
762.367,33.9543,-2.54316,-0.15125,0.64209
765.567,34.06151,-2.54316,-0.15531,0.63935
768.767,34.16892,-2.54515,-0.157,0.6366
771.967,34.27608,-2.54778,-0.16256,0.63383
775.167,34.38348,-2.54917,-0.16263,0.63106
778.367,34.49078,-2.54943,-0.16406,0.62827
781.567,34.59818,-2.55068,-0.16147,0.62547
784.767,34.7057,-2.54905,-0.16214,0.62266
787.967,34.81313,-2.54909,-0.16038,0.61984
791.167,34.92047,-2.5491,-0.16574,0.61701
793.467,34.9981,-2.5491,-0.16817,0.61497