File: 01_Data/LW_GypBoard_Painted_Paper/STA/N2/30K_min/Lw_Gypsum_Painted_Paper_STA_N2_30KData_222402_R2.csv
##Temp./Â°C,Time/min,Mass loss(subtr.2)/mg,DSC(subtr.2)/(mW/mg),Sensit./(uV/mW)
48.817,10.01,-0.00778,0.0055499,1.08887
52.017,10.87645,-0.01032304,0.14904,1.08618
55.217,11.10869,-0.008712867,0.25138,1.0835
58.417,11.28769,-0.008975875,0.33083,1.08084
61.617,11.44203,-0.007852951,0.3973,1.0782
64.817,11.582,-0.01011553,0.45141,1.07558
68.017,11.71397,-0.009895433,0.49899,1.07297
71.217,11.83961,-0.01078692,0.54057,1.07038
74.417,11.96141,-0.00892278,0.57937,1.06781
77.617,12.0801,-0.009642829,0.61304,1.06526
80.817,12.19629,-0.009588112,0.64297,1.06272
84.017,12.31,-0.01085002,0.67456,1.06021
87.217,12.42261,-0.01236749,0.70169,1.0577
90.417,12.53481,-0.01130908,0.72907,1.05522
93.617,12.6452,-0.01327449,0.74916,1.05276
96.817,12.75464,-0.01375503,0.7709,1.05031
100.017,12.8635,-0.01502339,0.78486,1.04788
103.217,12.97224,-0.01632817,0.79997,1.04546
106.417,13.0802,-0.01731996,0.80915,1.04306
109.617,13.18799,-0.01844724,0.81495,1.04068
112.817,13.2954,-0.01897051,0.81733,1.03832
116.017,13.40269,-0.0200185,0.81911,1.03598
119.217,13.50973,-0.02235897,0.82312,1.03365
122.417,13.616,-0.02300365,0.82696,1.03133
125.617,13.72175,-0.02301234,0.82956,1.02904
128.817,13.82755,-0.02426411,0.82632,1.02676
132.017,13.93259,-0.02566,0.82209,1.0245
135.217,14.03691,-0.02566001,0.81939,1.02225
138.417,14.14069,-0.02697979,0.81806,1.02002
141.617,14.2441,-0.02788723,0.8186,1.0178
144.817,14.347,-0.02697,0.8213,1.0156
148.017,14.44946,-0.02697,0.82681,1.01342
151.217,14.55122,-0.02697,0.83374,1.01125
154.417,14.6533,-0.02697,0.84273,1.0091
157.617,14.7545,-0.02759379,0.85222,1.00697
160.817,14.85578,-0.02829014,0.85916,1.00485
164.017,14.9565,-0.02927856,0.86998,1.00274
167.217,15.0574,-0.02928878,0.87834,1.00065
170.417,15.1578,-0.0287487,0.8895,0.99857
173.617,15.25805,-0.02993017,0.89883,0.99651
176.817,15.35785,-0.02994083,0.90756,0.99446
180.017,15.45744,-0.03120687,0.91839,0.99243
183.217,15.55675,-0.03488643,0.92816,0.99041
186.417,15.6556,-0.03199502,0.93718,0.98841
189.617,15.75433,-0.03207074,0.94655,0.98642
192.817,15.8529,-0.03332998,0.95436,0.98444
196.017,15.9512,-0.03464895,0.96439,0.98248
199.217,16.04942,-0.0359499,0.97223,0.98053
202.417,16.14752,-0.03597001,0.97885,0.97859
205.617,16.24548,-0.03859827,0.98898,0.97667
208.817,16.3431,-0.03997275,0.99413,0.97475
212.017,16.4409,-0.03718255,1.00307,0.97286
215.217,16.5386,-0.04067718,1.01151,0.97097
218.417,16.63629,-0.04402738,1.02019,0.96909
221.617,16.73367,-0.04547197,1.02815,0.96723
224.817,16.83095,-0.04819447,1.03608,0.96538
228.017,16.92792,-0.04994732,1.04248,0.96354
231.217,17.0249,-0.05111474,1.04726,0.96171
234.417,17.12231,-0.05521049,1.05263,0.9599
237.617,17.2198,-0.05780287,1.05709,0.95809
240.817,17.3167,-0.06091684,1.05741,0.95629
244.017,17.4138,-0.0650828,1.0606,0.95451
247.217,17.51071,-0.06923472,1.06323,0.95273
250.417,17.6078,-0.07188772,1.0669,0.95097
253.617,17.70424,-0.07684381,1.07345,0.94921
256.817,17.80118,-0.08217118,1.07651,0.94747
260.017,17.89799,-0.08902262,1.08072,0.94573
263.217,17.99442,-0.09515044,1.08717,0.944
266.417,18.09102,-0.10053,1.09322,0.94228
269.617,18.18705,-0.10703,1.09893,0.94057
272.817,18.2843,-0.11359,1.10388,0.93887
276.017,18.3811,-0.1247,1.11336,0.93718
279.217,18.47769,-0.13122,1.12056,0.93549
282.417,18.57454,-0.13999,1.13221,0.93381
285.617,18.6713,-0.15082,1.14477,0.93214
288.817,18.76822,-0.162,1.15857,0.93048
292.017,18.86499,-0.17398,1.17609,0.92882
295.217,18.96189,-0.18883,1.1956,0.92717
298.417,19.059,-0.2054,1.21494,0.92553
301.617,19.15564,-0.22121,1.24285,0.92389
304.817,19.253,-0.24313,1.27225,0.92225
308.017,19.3501,-0.2637,1.30176,0.92063
311.217,19.44687,-0.28524,1.33275,0.91901
314.417,19.54384,-0.31065,1.36793,0.91739
317.617,19.641,-0.33807,1.39819,0.91578
320.817,19.7382,-0.36829,1.43645,0.91417
324.017,19.83589,-0.40035,1.47213,0.91257
327.217,19.93364,-0.43598,1.51108,0.91097
330.417,20.03133,-0.47181,1.54919,0.90938
333.617,20.1291,-0.51345,1.58976,0.90779
336.817,20.22655,-0.55521,1.6308,0.9062
340.017,20.32455,-0.60246,1.67867,0.90462
343.217,20.4224,-0.64803,1.72883,0.90304
346.417,20.52038,-0.70003,1.78696,0.90146
349.617,20.6185,-0.75534,1.86252,0.89988
352.817,20.71641,-0.81417,1.94778,0.89831
356.017,20.81474,-0.88082,2.04627,0.89673
359.217,20.91346,-0.95119,2.15938,0.89516
362.417,21.01194,-1.0303,2.28293,0.89359
365.617,21.11045,-1.11469,2.40692,0.89202
368.817,21.20916,-1.20835,2.52167,0.89046
372.017,21.308,-1.30429,2.60843,0.88889
375.217,21.40718,-1.40792,2.64651,0.88732
378.417,21.50629,-1.50887,2.61738,0.88575
381.617,21.6053,-1.60948,2.50171,0.88419
384.817,21.70415,-1.69807,2.30431,0.88262
388.017,21.80329,-1.77956,2.02845,0.88105
391.217,21.90205,-1.84223,1.7057,0.87948
394.417,22.00089,-1.89386,1.39543,0.87791
397.617,22.09958,-1.93071,1.15749,0.87634
400.817,22.1985,-1.96109,1.01418,0.87476
404.017,22.29758,-1.98476,0.95671,0.87319
407.217,22.39675,-2.00772,0.94691,0.87161
410.417,22.49616,-2.03537,0.96301,0.87003
413.617,22.5958,-2.06521,0.98514,0.86845
416.817,22.69572,-2.09992,1.00897,0.86686
420.017,22.79569,-2.13434,1.01729,0.86527
423.217,22.89583,-2.17328,1.00043,0.86368
426.417,22.99595,-2.2125,0.95862,0.86208
429.617,23.09616,-2.25276,0.87983,0.86048
432.817,23.19647,-2.28818,0.76518,0.85888
436.017,23.29675,-2.31938,0.63239,0.85727
439.217,23.39712,-2.34259,0.51235,0.85566
442.417,23.49762,-2.35711,0.4196,0.85404
445.617,23.59831,-2.37122,0.36066,0.85242
448.817,23.69913,-2.38064,0.32571,0.85079
452.017,23.7999,-2.38839,0.30581,0.84916
455.217,23.90087,-2.39557,0.2912,0.84752
458.417,24.00218,-2.40187,0.28205,0.84588
461.617,24.10345,-2.40801,0.27926,0.84423
464.817,24.2047,-2.41377,0.27552,0.84257
468.017,24.30621,-2.41901,0.27423,0.84091
471.217,24.40784,-2.42465,0.27428,0.83924
474.417,24.5096,-2.4301,0.27494,0.83756
477.617,24.61125,-2.43473,0.27265,0.83588
480.817,24.71303,-2.43931,0.27058,0.83419
484.017,24.81466,-2.44462,0.26918,0.83249
487.217,24.91665,-2.4479,0.26484,0.83078
490.417,25.01878,-2.45074,0.25859,0.82907
493.617,25.12097,-2.4548,0.25132,0.82734
496.817,25.22319,-2.4576,0.24411,0.82561
500.017,25.3256,-2.46036,0.23891,0.82388
503.217,25.4281,-2.46443,0.23305,0.82213
506.417,25.53049,-2.46728,0.22438,0.82037
509.617,25.633,-2.46999,0.21995,0.81861
512.817,25.73568,-2.47263,0.21604,0.81683
516.017,25.8384,-2.47422,0.21026,0.81505
519.217,25.94118,-2.47825,0.20473,0.81326
522.417,26.04423,-2.48197,0.1993,0.81146
525.617,26.14701,-2.48274,0.19396,0.80965
528.817,26.25,-2.48526,0.18585,0.80782
532.017,26.35315,-2.48794,0.18082,0.80599
535.217,26.4564,-2.49053,0.17557,0.80415
538.417,26.5598,-2.49053,0.17117,0.8023
541.617,26.6632,-2.49448,0.16424,0.80044
544.817,26.76665,-2.49585,0.16042,0.79856
548.017,26.8702,-2.49812,0.15695,0.79668
551.217,26.9735,-2.50073,0.16231,0.79478
554.417,27.0772,-2.50193,0.16846,0.79288
557.617,27.18078,-2.50341,0.16968,0.79096
560.817,27.2847,-2.50469,0.17258,0.78903
564.017,27.3887,-2.5047,0.17435,0.78709
567.217,27.49268,-2.50715,0.17333,0.78514
570.417,27.5968,-2.51081,0.17124,0.78318
573.617,27.7012,-2.51082,0.16441,0.7812
576.817,27.8055,-2.51222,0.16256,0.77922
580.017,27.90977,-2.51476,0.15693,0.77722
583.217,28.0142,-2.51482,0.15115,0.77521
586.417,28.11887,-2.5174,0.14059,0.77319
589.617,28.22366,-2.51871,0.13425,0.77115
592.817,28.3285,-2.51871,0.1232,0.7691
596.017,28.43344,-2.51864,0.11546,0.76704
599.217,28.53831,-2.52135,0.10648,0.76497
602.417,28.64333,-2.52363,0.10356,0.76289
605.617,28.7485,-2.52483,0.09862299,0.76079
608.817,28.8537,-2.52494,0.09432268,0.75868
612.017,28.95887,-2.52661,0.08962073,0.75656
615.217,29.0641,-2.52793,0.08216067,0.75442
618.417,29.1692,-2.52924,0.07742486,0.75228
621.617,29.27432,-2.53061,0.07570165,0.75012
624.817,29.37968,-2.53188,0.07184032,0.74794
628.017,29.4849,-2.53319,0.07375112,0.74576
631.217,29.5904,-2.53451,0.07883489,0.74356
634.417,29.696,-2.53515,0.07859056,0.74134
637.617,29.80126,-2.53693,0.07930941,0.73912
640.817,29.907,-2.53911,0.08493839,0.73688
644.017,30.0122,-2.54041,0.0896121,0.73462
647.217,30.1178,-2.54174,0.09688261,0.73236
650.417,30.2234,-2.54437,0.10509,0.73008
653.617,30.3291,-2.54569,0.11715,0.72779
656.817,30.43478,-2.54767,0.13306,0.72548
660.017,30.54025,-2.55032,0.15383,0.72316
663.217,30.64616,-2.55153,0.17367,0.72083
666.417,30.75205,-2.55424,0.19648,0.71848
669.617,30.8579,-2.55692,0.21833,0.71613
672.817,30.9638,-2.55831,0.23797,0.71375
676.017,31.06966,-2.56124,0.25904,0.71137
679.217,31.1758,-2.56486,0.27168,0.70897
682.417,31.28189,-2.56934,0.28094,0.70656
685.617,31.38785,-2.57084,0.28503,0.70413
688.817,31.49407,-2.57347,0.2695,0.70169
692.017,31.6002,-2.57774,0.25308,0.69924
695.217,31.70647,-2.57906,0.23764,0.69678
698.417,31.8128,-2.58106,0.23421,0.6943
701.617,31.9195,-2.58405,0.24287,0.69181
704.817,32.02585,-2.58708,0.23656,0.6893
708.017,32.1323,-2.58964,0.18699,0.68679
711.217,32.2389,-2.59231,0.07651548,0.68426
714.417,32.34531,-2.59499,-0.025826,0.68171
717.617,32.4519,-2.59568,-0.05952449,0.67916
720.817,32.5585,-2.59692,-0.07164844,0.67659
724.017,32.66493,-2.59552,-0.0720144,0.674
727.217,32.77179,-2.59693,-0.08005446,0.67141
730.417,32.87856,-2.59824,-0.08373207,0.6688
733.617,32.9852,-2.59817,-0.08773949,0.66618
736.817,33.09189,-2.59953,-0.08926549,0.66355
740.017,33.19847,-2.59991,-0.09374617,0.66091
743.217,33.30536,-2.6012,-0.09504143,0.65825
746.417,33.4122,-2.60252,-0.09900686,0.65558
749.617,33.5193,-2.60252,-0.10029,0.6529
752.817,33.62608,-2.60339,-0.10321,0.6502
756.017,33.73357,-2.60235,-0.10536,0.6475
759.217,33.8407,-2.60219,-0.10828,0.64478
762.417,33.94785,-2.60481,-0.11141,0.64205
765.617,34.05523,-2.60482,-0.11314,0.63931
768.817,34.16245,-2.60441,-0.11454,0.63655
772.017,34.26962,-2.60515,-0.12216,0.63379
775.217,34.3771,-2.60717,-0.12256,0.63101
778.417,34.48429,-2.60779,-0.12529,0.62823
781.617,34.59156,-2.6091,-0.12932,0.62543
784.817,34.69885,-2.60873,-0.13514,0.62262
788.017,34.806,-2.60877,-0.13906,0.6198
791.217,34.91357,-2.61008,-0.14402,0.61696
793.717,34.9971,-2.6114,-0.14984,0.61474