File: 01_Data/Vinyl_Plank_Flooring/Cone/Vinyl_Plank_Flooring_Cone_HF25Scan_220311_R3.csv
Names,Time,Stack TC,Smoke TC,Exh Press,Smoke Comp,Smoke Meas,CO Meter,CO2 Meter,O2 Meter,Sample Mass,Ext Coeff,Start Test,Flame Verif
Chan Gain,,500,500,1,1,1,1,1,1,1,1,1.0,1.0
Offset,,0,0,0.136191,0,0,0,0,0,0,0,0.0,0.0
Gain,,1,1,25.011,13.291,13.2919,1,1,1,1.00093,1.00758,1.0,1.0
Units,sec,C,C,Pa,%,%,%,%,%,g,/m,,
Baseline,,18.9354,19.3823,175.769,99.5298,96.458,0.000602642,0.0411581,21.0848,-0.988293,0.277088,,
10,2.25,17.307,18.2539,167.101,100.568,96.9022,0.000591665,0.0422706,21.081,493.187,0.328215,0.0,0.0
20,4.75,17.5806,18.3192,178.932,100.47,97.0616,0.000555729,0.0424325,21.081,493.257,0.30502,0.0,0.0
30,7.25,17.3831,18.0732,179.555,100.317,97.1374,0.000598674,0.0424169,21.081,493.237,0.284655,0.0,0.0
40,9.75,18.1229,18.3053,179.883,100.059,96.2491,0.000687005,0.042362,21.0817,493.237,0.343098,0.0,0.0
50,12.25,17.1715,17.8387,176.05,99.7859,96.7444,0.000773599,0.0424768,21.0836,493.237,0.273587,0.0,0.0
60,14.75,17.2976,18.1594,176.074,99.5048,95.9428,0.000799088,0.0435818,21.0843,493.217,0.322188,0.0,0.0
70,17.25,17.5358,17.776,177.214,99.2067,94.9275,0.000778893,0.0446491,21.0845,493.217,0.389697,0.0,0.0
80,19.75,17.7053,18.2281,175.124,98.9475,94.2692,0.000745093,0.0446898,21.0846,493.207,0.428086,0.0,0.0
90,22.25,17.9125,18.0311,172.187,98.756,93.0089,0.000695121,0.0442444,21.0833,493.187,0.52993,0.0,0.0
100,24.75,17.959,18.19,173.302,98.6088,91.8775,0.00141888,0.0497795,21.0715,493.117,0.624909,0.0,1.0
110,27.25,18.7398,18.878,166.903,98.554,83.7474,0.00704944,0.0857217,21.0101,492.817,1.43889,0.0,1.0
120,29.75,19.0211,19.446,144.232,98.567,54.3083,0.0211454,0.204487,20.7671,492.006,5.26822,0.0,0.0
130,32.25,22.0715,21.8293,148.458,98.6623,48.2724,0.0354292,0.364525,20.5561,491.316,6.31807,0.0,0.0
140,34.75,23.1647,23.9055,165.784,98.7929,48.6123,0.0383485,0.397094,20.5163,490.885,6.26775,0.0,0.0
150,37.25,24.9254,25.5095,161.168,98.986,52.0882,0.0359344,0.367355,20.5483,490.535,5.6746,0.0,0.0
160,39.75,26.5502,27.3956,154.609,99.1945,51.1816,0.0339132,0.361697,20.5577,490.125,5.84839,0.0,0.0
170,42.25,27.9377,28.773,151.367,99.4009,51.3463,0.0335237,0.376778,20.5349,489.704,5.83837,0.0,0.0
180,44.75,29.4919,30.3019,154.368,99.609,55.6728,0.0337939,0.393732,20.516,489.274,5.14183,0.0,0.0
190,47.25,31.287,32.2471,156.109,99.7429,50.9468,0.0344612,0.406086,20.4985,488.823,5.93777,0.0,0.0
200,49.75,31.9526,33.0614,150.42,99.8678,49.2536,0.0351274,0.421088,20.4764,488.343,6.24755,0.0,0.0
210,52.25,33.7189,35.1091,150.408,99.8966,50.7699,0.035456,0.430158,20.4637,487.862,5.98211,0.0,0.0
220,54.75,34.7093,36.1161,159.02,99.9015,51.4923,0.0349709,0.433994,20.4584,487.382,5.85766,0.0,0.0
230,57.25,35.7137,37.4297,153.718,99.8179,49.2658,0.0336376,0.422524,20.4798,486.942,6.24095,0.0,0.0
240,59.75,35.9498,37.9622,154.604,99.753,48.3896,0.031843,0.403807,20.5106,486.551,6.3938,0.0,0.0
250,62.25,36.9673,38.8587,157.273,99.6573,47.004,0.0301803,0.390905,20.5323,486.191,6.64211,0.0,0.0
260,64.75,38.4926,40.2817,153.976,99.5616,45.6934,0.0292434,0.391828,20.5303,485.8,6.88355,0.0,0.0
270,67.25,38.5532,40.6594,153.543,99.506,48.016,0.0282724,0.399626,20.5245,485.4,6.44039,0.0,0.0
280,69.75,40.0296,42.3338,164.513,99.7031,48.9056,0.0263769,0.396501,20.5334,485.08,6.29564,0.0,0.0
290,72.25,39.2043,41.4402,162.087,100.043,55.3633,0.0239822,0.379389,20.5649,484.77,5.22957,0.0,0.0
300,74.75,39.1678,41.4712,159.519,100.269,57.9298,0.0206871,0.355973,20.5993,484.509,4.84893,0.0,0.0
310,77.25,39.9514,42.489,164.191,100.354,63.7243,0.0172824,0.329398,20.6453,484.319,4.01386,0.0,0.0
320,79.75,39.8203,42.0564,164.392,100.294,72.6796,0.0141567,0.301948,20.684,484.149,2.84634,0.0,0.0
330,82.25,39.7668,42.2275,170.409,100.077,79.2586,0.0106792,0.26942,20.7323,484.049,2.06134,0.0,0.0
340,84.75,39.0785,41.5218,166.041,99.7984,80.731,0.00818493,0.242054,20.7879,483.959,1.874,0.0,0.0
350,87.25,38.7224,41.3994,161.999,99.9587,81.5306,0.00663385,0.221492,20.8206,483.889,1.80108,0.0,0.0
360,89.75,38.3887,41.1334,163.891,100.121,83.2574,0.00560117,0.206229,20.8453,483.809,1.63021,0.0,0.0
370,92.25,38.0011,40.6173,166.516,100.331,86.541,0.00501341,0.190371,20.8704,483.709,1.30678,0.0,0.0
380,94.75,37.6585,40.2129,165.65,100.467,89.969,0.004298,0.176164,20.8926,483.699,0.975467,0.0,0.0
390,97.25,36.7691,39.3136,170.494,100.586,91.7056,0.0035934,0.158627,20.9205,483.709,0.816911,0.0,0.0
400,99.75,36.2469,39.0117,169.769,100.586,92.8624,0.00318712,0.141866,20.945,483.658,0.706148,0.0,0.0
410,102.25,35.3073,38.216,173.79,100.498,92.1084,0.00297694,0.126069,20.9639,483.618,0.770474,0.0,0.0
420,104.75,34.521,37.69,172.12,100.313,93.7427,0.00300675,0.111685,20.9849,483.608,0.59871,0.0,0.0
430,107.25,34.223,36.9271,169.763,100.07,94.6014,0.00318377,0.098574,21.0021,483.588,0.49668,0.0,0.0
440,109.75,33.5587,36.3541,168.067,99.7603,93.4242,0.00341604,0.0881543,21.0172,483.568,0.579972,0.0,0.0
450,112.25,31.8569,34.4881,169.502,99.4387,93.2624,0.00342935,0.0791646,21.0301,483.568,0.566755,0.0,0.0
460,114.75,31.1613,34.2326,170.986,99.1134,92.8916,0.0033213,0.0720181,21.0415,483.528,0.573,0.0,0.0
470,117.25,31.242,33.228,169.596,98.8518,93.552,0.00314241,0.067257,21.0482,483.538,0.48703,0.0,0.0
480,119.75,30.1025,32.7934,171.629,98.6656,93.1963,0.0029479,0.0638277,21.0537,483.528,0.50404,0.0,0.0
490,122.25,29.9002,31.5918,170.282,98.5844,93.0855,0.00268639,0.0613375,21.0572,483.518,0.507278,0.0,0.0
500,124.75,29.7095,31.9367,167.989,98.6331,93.2251,0.00241063,0.0597166,21.0601,483.508,0.498403,0.0,0.0
510,127.25,28.392,30.9102,172.447,98.7418,93.5431,0.0023101,0.0581185,21.0602,483.498,0.478038,0.0,0.0
520,129.75,28.1512,30.5588,162.446,98.9381,93.6895,0.00229647,0.0571437,21.0609,483.488,0.481768,0.0,0.0
530,132.25,27.61,29.9498,176.004,99.1474,93.8319,0.00236256,0.0560033,21.0628,483.488,0.487024,0.0,0.0
540,134.75,27.5899,29.452,170.266,99.3989,93.8469,0.00245176,0.0549056,21.0649,483.488,0.507999,0.0,0.0
550,137.25,27.6003,29.4338,170.803,99.6131,93.7658,0.00221273,0.0541274,21.066,483.488,0.534666,0.0,0.0
560,139.75,26.8243,28.9012,175.416,99.8021,94.399,0.0019531,0.0530203,21.0673,483.478,0.491936,0.0,0.0
570,142.25,25.8378,28.4509,173.072,99.8816,94.5771,0.00186701,0.0521727,21.0683,483.458,0.482316,0.0,0.0
580,144.75,26.0325,28.0268,172.673,99.9092,94.358,0.00185716,0.051639,21.0691,483.488,0.50525,0.0,0.0
590,147.25,26.1204,27.7202,173.08,99.8532,93.6859,0.00180513,0.0508774,21.0711,483.468,0.563481,0.0,0.0
600,149.75,25.0405,27.1737,180.68,99.753,94.201,0.00177544,0.0500896,21.0727,483.468,0.506141,0.0,0.0
610,152.25,25.3344,26.7772,173.732,99.6386,94.369,0.0017378,0.0495512,21.0746,483.478,0.480258,0.0,0.0
620,154.75,24.7848,26.3339,173.103,99.5385,93.9524,0.00171609,0.0490997,21.0763,483.468,0.510471,0.0,0.0
630,157.25,24.9254,26.5436,175.179,99.4675,93.9406,0.00177341,0.0486355,21.0769,483.458,0.505272,0.0,0.0
640,159.75,23.625,25.6589,169.012,99.6009,93.9739,0.00177858,0.0483103,21.0771,483.448,0.513993,0.0,0.0
650,162.25,23.8916,25.8883,174.964,99.9546,94.1893,0.00175953,0.0478633,21.0772,483.468,0.525089,0.0,0.0
660,164.75,23.8547,25.5589,169.83,100.179,94.4505,0.00169711,0.0473589,21.0761,483.468,0.520421,0.0,0.0
670,167.25,23.8475,25.3436,172.384,100.303,95.1198,0.00156794,0.0471471,21.0753,483.448,0.46899,0.0,0.0
680,169.75,23.7866,25.0262,174.694,100.312,94.7584,0.00138384,0.0469683,21.0766,483.448,0.503352,0.0,0.0
690,172.25,23.2742,24.9915,172.825,100.21,95.0626,0.00108323,0.0465753,21.0771,483.458,0.466081,0.0,0.0
700,174.75,22.8914,24.5419,167.126,100,93.9775,0.000961863,0.0462322,21.0776,483.428,0.549033,0.0,0.0
710,177.25,22.7555,24.9356,171.181,99.7879,94.4481,0.000881961,0.0460029,21.0787,483.418,0.486084,0.0,0.0
720,179.75,22.7973,24.3161,174.585,99.9072,94.5077,0.00083093,0.0458442,21.0797,483.418,0.491062,0.0,0.0
730,182.25,22.8706,24.3832,173.624,100.081,94.6363,0.000780519,0.0458551,21.0796,483.408,0.494388,0.0,0.0
740,184.75,22.4744,23.9513,171.225,100.232,94.3925,0.000815674,0.0458728,21.0789,483.408,0.530501,0.0,0.0
750,187.25,21.9116,23.8999,174,100.391,94.5807,0.000909886,0.0456506,21.0798,483.418,0.526906,0.0,0.0
760,189.75,22.5548,23.4741,166.171,100.482,94.1962,0.00113705,0.0455572,21.0801,483.408,0.570943,0.0,0.0
770,192.25,22.2394,23.4128,172.502,100.513,94.6095,0.00129198,0.0454346,21.0801,483.418,0.534992,0.0,0.0
780,194.75,22.0077,23.4942,175.104,100.573,94.7474,0.00139765,0.0452671,21.0796,483.418,0.527359,0.0,0.0
790,197.25,22.0485,22.9803,171.463,100.609,94.5219,0.00152051,0.0452503,21.0808,483.428,0.55163,0.0,0.0
800,199.75,22.1857,22.7998,173.445,100.595,95.1263,0.00158922,0.0451574,21.0815,483.418,0.494012,0.0,0.0
810,202.25,22.2029,23.4172,169.089,100.609,94.6241,0.00142021,0.0450435,21.0821,483.418,0.542041,0.0,0.0
820,204.75,21.7642,22.9336,170.96,100.569,93.956,0.00125391,0.0450051,21.0825,483.428,0.601137,0.0,0.0
830,207.25,21.9908,22.6353,177.408,100.45,94.2793,0.00116895,0.0448656,21.0827,483.428,0.560363,0.0,0.0
840,209.75,21.8631,22.9372,172.317,100.307,94.0213,0.00094697,0.0447272,21.0827,483.428,0.571974,0.0,0.0
850,212.25,22.0278,22.707,173.77,100.1,93.8988,0.000744457,0.0446567,21.0827,483.418,0.56525,0.0,0.0
860,214.75,21.6623,21.8228,176.908,99.9023,93.4762,0.000749707,0.0447039,21.0823,483.418,0.587631,0.0,0.0
870,217.25,20.5,21.782,174.098,99.6561,92.8,0.000869293,0.0446453,21.082,483.398,0.629991,0.0,0.0
880,219.75,21.6127,22.333,173.483,99.42,93.1671,0.000936932,0.044639,21.0818,483.408,0.574136,0.0,0.0
890,222.25,21.6472,21.8561,173.951,99.2127,93.137,,0.0445914,,483.388,0.558538,0.0,0.0
900,224.75,20.6452,21.6462,172.131,99.0209,92.9367,,,,483.398,0.560467,0.0,0.0
910,227.25,21.0869,22.0603,174.835,98.8615,92.3992,,,,483.378,0.59749,0.0,0.0
920,229.75,21.0189,21.3551,174.583,98.7455,92.5042,,,,483.408,0.577069,0.0,0.0
925,231,21.6359,21.9159,176.572,98.711,92.6357,,,,483.428,0.561434,0.0,0.0