File: 01_Data/Vinyl_Plank_Flooring/Cone/Vinyl_Plank_Flooring_Cone_HF75Scalar_220311_R2.csv
LABORATORY,FSRI
TEST IDENT,VinylPF_HF75_2
OPERATOR,Dow
MATERIAL,Vinyl Plan Flooring
ORIENTATION,Horizontal
HEAT FLUX,75
SURF AREA,0.01
C FACTOR,0.0377281
SPEC HOLDER DIFF,-566
SPECIMEN MASS,16.4
SCAN TIME,0.25
O2 DELAY TIME,11
CO DELAY TIME,11
CO2 DELAY TIME,8
FLOW FACTOR,1
SCAN COUNT,692
TIME TO IGN,3.5
END OF TEST SCAN,212
END OF TEST TIME,53
TEST STATUS,1
PRE TEST CMT,Dimensions: 101.64 x 101.22 x 2.18 mm