File: 01_Data/Vinyl_Plank_Flooring/Cone/Vinyl_Plank_Flooring_Cone_HF25Scan_220311_R2.csv
Names,Time,Stack TC,Smoke TC,Exh Press,Smoke Comp,Smoke Meas,CO Meter,CO2 Meter,O2 Meter,Sample Mass,Ext Coeff,Start Test,Flame Verif
Chan Gain,,500,500,1,1,1,1,1,1,1,1,1.0,1.0
Offset,,0,0,0.136191,0,0,0,0,0,0,0,0.0,0.0
Gain,,1,1,25.011,13.291,13.2919,1,1,1,1.00093,1.00758,1.0,1.0
Units,sec,C,C,Pa,%,%,%,%,%,g,/m,,
Baseline,,18.7468,19.1011,175.706,99.6598,95.0209,0.000399565,0.0413229,21.084,-1.08709,0.421387,,
9,2,17.1472,17.6307,175.363,99.8374,95.9071,0.000714549,0.0435365,21.0824,500.454,0.354971,0.0,0.0
18,4.25,17.1537,17.8454,175.472,99.8354,96.0102,0.0007502,0.0432182,21.0826,500.384,0.345302,0.0,0.0
27,6.5,17.4326,17.9646,171.942,99.837,95.8593,0.00062445,0.0430366,21.084,500.384,0.359346,0.0,0.0
36,8.75,17.646,17.6977,171.903,99.8459,95.7972,0.000526968,0.0428977,21.0845,500.344,0.365861,0.0,0.0
45,11,17.5022,17.9384,174.668,99.8455,95.6354,0.000492412,0.0425177,21.0847,500.294,0.38077,0.0,0.0
54,13.25,16.9702,17.5783,179.452,99.8471,95.4074,0.000419211,0.0421769,21.0847,500.304,0.402006,0.0,0.0
63,15.5,17.6637,17.8385,173.854,99.8516,95.2849,0.000342532,0.0417786,21.0859,500.294,0.413757,0.0,0.0
72,17.75,17.2496,17.3408,177.625,99.8629,94.3864,0.000419539,0.0415121,21.0866,500.304,0.4985,0.0,0.0
81,20,17.5575,17.7521,175.686,99.841,93.9909,0.000613865,0.0414957,21.0854,500.254,0.533673,0.0,0.0
90,22.25,17.2263,17.7766,177.455,99.839,92.3351,0.00107826,0.0420982,21.0814,500.304,0.690584,0.0,0.0
99,24.5,17.7997,17.8453,176.28,99.8414,92.675,0.00677745,0.059031,21.0588,500.264,0.658322,0.0,1.0
108,26.75,18.704,18.4305,152.493,99.8256,77.965,0.0203928,0.152411,20.9101,499.763,2.18454,0.0,1.0
117,29,20.8885,20.9112,140.94,99.8066,49.2374,0.04035,0.325238,20.6261,498.903,6.24504,0.0,1.0
126,31.25,22.7467,22.6559,155.069,99.8017,50.8758,0.0489055,0.429038,20.4864,498.332,5.9553,0.0,0.0
135,33.5,24.8006,25.169,161.553,99.7729,44.6606,0.0459868,0.419917,20.486,497.912,7.10435,0.0,0.0
144,35.75,26.4011,26.9935,156.575,99.7502,44.3901,0.040506,0.385888,20.5218,497.551,7.15604,0.0,0.0
153,38,27.3896,28.0838,157.449,99.7279,48.4862,0.0375789,0.375126,20.5321,497.101,6.37396,0.0,0.0
162,40.25,28.8,29.4948,157.933,99.6824,47.9856,0.0373114,0.38993,20.5071,496.721,6.46165,0.0,0.0
171,42.5,30.0216,30.9648,154.966,99.6443,48.0136,0.0383344,0.416011,20.4641,496.24,6.45312,0.0,0.0
180,44.75,31.1656,32.1433,147.076,99.5891,49.4305,0.0402356,0.444881,20.4257,495.71,6.19118,0.0,0.0
189,47,32.6832,34.2648,150.528,99.5636,50.7249,0.0418541,0.468446,20.3948,495.369,5.96044,0.0,0.0
198,49.25,34.502,35.7806,155.03,99.5068,49.9619,0.0423276,0.478493,20.3832,494.919,6.08936,0.0,0.0
207,51.5,35.946,37.1468,157.823,99.4379,50.2199,0.041581,0.476732,20.3885,494.428,6.03771,0.0,0.0
216,53.75,36.637,38.4098,156.979,99.3867,51.12,0.0401274,0.465028,20.4135,494.058,5.87616,0.0,0.0
225,56,37.0957,38.7136,158.322,99.3202,48.9936,0.038362,0.445246,20.4467,493.598,6.24574,0.0,0.0
234,58.25,38.4166,40.3966,149.9,99.2618,49.168,0.0363326,0.429374,20.4709,493.207,6.20913,0.0,0.0
243,60.5,39.2837,41.3648,151.062,99.1945,46.8291,0.0342677,0.419497,20.4867,492.787,6.6339,0.0,0.0
252,62.75,39.7401,41.8471,156.957,99.1247,46.2698,0.0324398,0.41517,20.4952,492.517,6.73389,0.0,0.0
261,65,40.4318,42.7769,157.135,99.0639,43.3232,0.0304282,0.412054,20.501,492.116,7.31003,0.0,0.0
270,67.25,40.8137,43.2873,160.28,99.001,46.5716,0.0280563,0.405401,20.5143,491.856,6.66539,0.0,0.0
279,69.5,40.8921,43.459,156.327,98.9191,51.0242,0.0253606,0.3929,20.5409,491.656,5.85103,0.0,0.0
288,71.75,41.4001,44.1723,161.102,98.8526,56.536,0.0222701,0.372224,20.568,491.426,4.93847,0.0,0.0
297,74,41.0375,43.7763,162.519,98.799,62.4259,0.0184492,0.344842,20.6167,491.225,4.05778,0.0,0.0
306,76.25,41.3289,44.0849,161.852,98.7268,68.669,0.0148092,0.310567,20.678,491.085,3.20886,0.0,0.0
315,78.5,40.7382,43.4478,172.597,98.6562,76.6244,0.0115071,0.277929,20.7263,490.955,2.2337,0.0,0.0
324,80.75,40.4284,43.274,172.284,98.6068,79.5109,0.0088544,0.250602,20.773,490.875,1.90243,0.0,0.0
333,83,39.3547,42.2404,164.036,98.5751,78.4619,0.00713309,0.228764,20.8111,490.815,2.01697,0.0,0.0
342,85.25,39.1941,42.3295,166.357,98.5463,78.8684,0.00608636,0.212605,20.8331,490.775,1.96872,0.0,0.0
351,87.5,39.2858,42.4581,163.885,98.5143,81.5999,0.00529607,0.199746,20.8514,490.695,1.66492,0.0,0.0
360,89.75,38.3545,41.2066,167.552,98.5021,85.8547,0.00452144,0.184781,20.8801,490.715,1.21459,0.0,0.0
369,92,38.4041,40.7547,165.695,98.4814,89.5358,0.00389852,0.166004,20.9079,490.615,0.841675,0.0,0.0
378,94.25,37.6491,40.5342,171.942,98.4964,91.9753,0.00346521,0.144767,20.9353,490.585,0.605433,0.0,0.0
387,96.5,36.1124,39.6629,173.588,98.5086,92.2025,0.00328751,0.128759,20.9581,490.545,0.584723,0.0,0.0
396,98.75,35.7841,39.3133,171.609,98.5333,92.8401,0.00327757,0.116619,20.9756,490.615,0.526028,0.0,0.0
405,101,35.0118,37.847,172.534,98.5613,93.6745,0.00332041,0.103459,20.9967,490.575,0.449458,0.0,0.0
414,103.25,34.1157,37.0505,170.453,98.6027,93.0957,0.00325708,0.0899369,21.0192,490.575,0.507951,0.0,0.0
423,105.5,32.8815,35.3281,175.861,98.666,94.1564,0.00314618,0.0790447,21.0344,490.545,0.413486,0.0,0.0
432,107.75,32.7213,35.3192,176.661,98.7187,95.2135,0.00315788,0.0719351,21.0432,490.525,0.319533,0.0,0.0
441,110,31.321,34.2649,175.528,98.8059,94.5231,0.0031817,0.0675624,21.0496,490.555,0.391658,0.0,0.0
450,112.25,31.106,34.4409,172.127,98.8862,94.7851,0.00317347,0.0646213,21.0536,490.585,0.374371,0.0,0.0
459,114.5,30.1985,32.9299,172.526,98.9824,95.1535,0.00312362,0.0623703,21.0567,490.575,0.34868,0.0,0.0
468,116.75,30.3081,33.2459,174.76,99.0562,94.6614,0.00299142,0.0605277,21.0587,490.575,0.401091,0.0,0.0
477,119,29.4986,32.2497,173.484,99.1405,95.1401,0.00279575,0.0590123,21.0597,490.525,0.364037,0.0,0.0
486,121.25,29.3723,31.3124,174.837,99.2383,96.0305,0.00252897,0.058197,21.0601,490.565,0.290417,0.0,0.0
495,123.5,29.1071,31.5818,170.233,99.3458,95.5595,0.00225615,0.0572256,21.0617,490.555,0.343437,0.0,0.0
504,125.75,27.5571,30.591,174.551,99.4464,95.6268,0.00197656,0.0562778,21.0634,490.445,0.346156,0.0,0.0
513,128,27.5947,30.5384,173.206,99.5307,95.4618,0.00169619,0.055334,21.0644,490.455,0.368922,0.0,0.0
522,130.25,27.5607,30.006,175.679,99.6102,95.4942,0.00155197,0.0545003,21.0662,490.455,0.372976,0.0,0.0
531,132.5,26.926,29.52,174.852,99.7072,95.7692,0.0015319,0.0535125,21.068,490.425,0.356155,0.0,0.0
540,134.75,26.7565,29.5704,177.093,99.8171,95.549,0.00165439,0.0526358,21.0695,490.445,0.386244,0.0,0.0
549,137,25.551,28.7065,172.309,99.9347,95.9704,0.0018761,0.0519631,21.071,490.405,0.357754,0.0,0.0
558,139.25,25.8594,28.3161,175.723,100.019,96.8807,0.00193227,0.0515215,21.0729,490.475,0.281742,0.0,0.0
567,141.5,25.9855,27.5419,168.95,100.1,96.5951,0.00169435,0.0511738,21.0738,490.345,0.315035,0.0,0.0
576,143.75,25.6346,27.8195,177.061,100.204,96.4284,0.00141924,0.0506536,21.0752,490.345,0.339466,0.0,0.0
585,146,24.8484,26.3695,169.227,100.28,96.5022,0.00127551,0.0500733,21.0757,490.505,0.339425,0.0,0.0
594,148.25,24.9923,26.9178,176.357,100.34,96.6665,0.00121711,0.0496241,21.0759,490.475,0.329646,0.0,0.0
603,150.5,23.7071,26.2834,173.024,100.408,96.3335,0.00124735,0.0492385,21.076,490.375,0.366112,0.0,0.0
612,152.75,24.2727,26.4363,168.056,100.463,96.6742,0.00123052,0.0490098,21.076,490.385,0.339759,0.0,0.0
621,155,24.2123,26.0669,169.742,100.517,96.4803,0.00108715,0.0486945,21.076,490.485,0.362285,0.0,0.0
630,157.25,23.6762,24.8717,174.738,100.538,96.8202,0.000954485,0.0484267,21.0771,490.485,0.333054,0.0,0.0
639,159.5,23.5642,25.4999,173.061,100.547,96.5874,0.000888273,0.0480867,21.0779,490.445,0.355119,0.0,0.0
648,161.75,23.4048,25.4614,174.357,100.547,96.6227,0.000939801,0.0477888,21.0782,490.435,0.35189,0.0,0.0
657,164,23.4299,25.1244,174.063,100.532,97.137,0.000933856,0.0477915,21.0772,490.435,0.303611,0.0,0.0
666,166.25,23.309,25.1124,164.859,100.494,96.7038,0.000839632,0.0478656,21.0765,490.375,0.339765,0.0,0.0
675,168.5,23.3357,24.6349,169.884,100.456,96.7257,0.000861083,0.0478619,21.0762,490.375,0.334409,0.0,0.0
684,170.75,22.9178,24.4788,172.234,100.399,96.9366,0.000934403,0.0477954,21.0761,490.395,0.310194,0.0,0.0
693,173,22.4784,24.4341,174.868,100.317,96.9095,0.000925023,0.0477534,21.0761,490.405,0.305456,0.0,0.0
702,175.25,22.5215,24.2039,176.347,100.264,96.5245,0.000946397,0.0476239,21.076,490.425,0.335952,0.0,0.0
711,177.5,22.5923,23.977,179.174,100.183,97.1642,0.000984381,0.0474765,21.076,490.465,0.270417,0.0,0.0
720,179.75,22.7337,23.7919,164.397,100.11,96.7894,0.00101978,0.047167,21.0765,490.465,0.298098,0.0,0.0
729,182,21.4982,23.299,171.636,100.035,97.2088,0.00104722,0.0468251,21.0778,490.365,0.253324,0.0,0.0
738,184.25,22.3226,23.9358,172.337,99.9574,96.4178,0.0011053,0.046473,21.0787,490.365,0.318654,0.0,0.0
747,186.5,22.1422,23.5471,173.951,99.8788,96.9484,0.00105198,0.0461894,21.0789,490.415,0.26319,0.0,0.0
756,188.75,21.9978,23.1141,176.181,99.8053,96.4166,0.000912216,0.0460517,21.079,490.445,0.305306,0.0,0.0
765,191,21.9112,23.2711,174.325,99.7644,95.9238,0.000887176,0.0460556,21.0784,490.375,0.346971,0.0,0.0
774,193.25,20.9181,22.3223,174.648,99.798,97.034,0.000754351,0.0460016,21.0779,490.425,0.248245,0.0,0.0
783,195.5,21.7817,22.9361,176.589,99.9461,96.4057,0.000655794,0.0458877,21.0781,490.285,0.318765,0.0,0.0
792,197.75,21.1095,22.6806,170.372,100.065,96.89,0.000670159,0.0457443,21.0781,490.435,0.285013,0.0,0.0
801,200,21.5386,22.4876,172.471,100.179,95.8069,0.000673476,0.0456303,21.0794,490.455,0.394427,0.0,0.0
810,202.25,21.601,22.3608,175.006,100.267,96.8239,0.000789973,0.0455707,21.0801,490.425,0.308797,0.0,0.0
819,204.5,21.5038,22.6131,169.248,100.287,96.9224,0.000920298,0.0456423,21.0803,490.395,0.301592,0.0,0.0
828,206.75,21.3528,22.314,168.946,100.306,96.5874,0.000989621,0.0454747,21.0792,490.475,0.333915,0.0,0.0
837,209,20.7026,22.1169,175.719,100.297,96.585,0.00107743,0.0454766,21.0786,490.485,0.333279,0.0,0.0
846,211.25,21.2729,22.4036,175.902,100.263,97.2733,,0.0456532,,490.365,0.267544,0.0,0.0
855,213.5,20.8059,22.5725,177.507,100.172,97.4003,,0.0454312,,490.345,0.247967,0.0,0.0
864,215.75,20.4709,21.7266,171.475,100.074,96.6649,,,,490.355,0.306361,0.0,0.0
873,218,20.8408,21.9689,171.701,99.9505,96.4994,,,,490.425,0.310573,0.0,0.0
882,220.25,21.056,22.1537,174.359,99.7863,96.6507,,,,490.365,0.282188,0.0,0.0
889,222,20.7805,21.8481,173.039,99.6342,96.4259,,,,490.355,0.289279,0.0,0.0