File: 01_Data/Vinyl_Plank_Flooring/Cone/Vinyl_Plank_Flooring_Cone_HF50Scan_220311_R3.csv
Names,Time,Stack TC,Smoke TC,Exh Press,Smoke Comp,Smoke Meas,CO Meter,CO2 Meter,O2 Meter,Sample Mass,Ext Coeff,Start Test,Flame Verif
Chan Gain,,500,500,1,1,1,1,1,1,1,1,1.0,1.0
Offset,,0,0,0.136191,0,0,0,0,0,0,0,0.0,0.0
Gain,,1,1,25.011,13.291,13.2919,1,1,1,1.00093,1.00758,1.0,1.0
Units,sec,C,C,Pa,%,%,%,%,%,g,/m,,
Baseline,,31.188,32.261,166.432,99.8173,94.0658,0.000498876,0.0412727,21.083,-2.32111,0.524587,,
8,1.75,27.6509,28.8815,165.814,99.0862,93.8566,0.000587356,0.0423906,21.0822,498.682,0.479232,0.0,0.0
16,3.75,27.6724,28.8138,165.254,99.1422,93.1634,0.000610129,0.0424735,21.082,498.692,0.549747,0.0,0.0
24,5.75,27.512,28.5767,167.025,99.1888,93.1581,0.0010999,0.0423711,21.0778,498.692,0.554405,0.0,0.0
32,7.75,28.2733,29.1448,163.817,99.2472,90.3876,0.00803258,0.0508531,21.0694,498.652,0.826447,0.0,0.0
40,9.75,28.6529,29.0471,138.639,99.3085,72.4155,0.0289807,0.130881,20.9213,498.142,2.79126,0.0,1.0
48,11.75,31.4515,31.7172,135.244,99.3896,46.707,0.056066,0.348738,20.4946,497.131,6.67434,0.0,1.0
56,13.75,34.2916,34.941,139.747,99.4707,29.6289,0.071057,0.520109,20.2639,496.37,10.7043,0.0,0.0
64,15.75,36.8985,37.9625,135.877,99.5644,25.287,0.0717167,0.571116,20.1857,495.81,12.1132,0.0,0.0
72,17.75,39.1654,40.3167,139.879,99.6565,32.8335,0.0668778,0.568582,20.1696,495.349,9.81311,0.0,0.0
80,19.75,41.1817,42.5955,139.819,99.7623,38.2844,0.0634458,0.575873,20.1595,494.869,8.46497,0.0,0.0
88,21.75,42.3285,43.8635,137.31,99.8512,38.6479,0.0635786,0.609295,20.1304,494.358,8.38932,0.0,0.0
96,23.75,45.788,47.5536,134.978,99.9534,36.7629,0.0656347,0.659238,20.0522,493.738,8.84031,0.0,0.0
104,25.75,47.7846,50.2327,123.129,100.042,33.6131,0.0674433,0.71926,19.9983,493.067,9.63984,0.0,0.0
112,27.75,50.1808,53.2086,132.878,100.13,33.0683,0.0657102,0.737576,19.9749,492.507,9.792,0.0,0.0
120,29.75,51.9284,54.7549,136.003,100.227,34.6552,0.0614568,0.717561,20.0158,492.046,9.38628,0.0,0.0
128,31.75,54.2447,57.4527,138.277,100.321,30.5319,0.05635,0.691328,20.0625,491.536,10.5142,0.0,0.0
136,33.75,55.3337,59.0254,140.245,100.405,34.4864,0.0510599,0.665546,20.1123,491.095,9.44511,0.0,0.0
144,35.75,55.8287,59.5637,139.619,100.486,39.0608,0.0449098,0.636553,20.1728,490.715,8.35136,0.0,0.0
152,37.75,56.5275,60.2217,140.374,100.551,44.9267,0.0392811,0.608057,20.2355,490.365,7.12053,0.0,0.0
160,39.75,57.0066,60.7941,148.402,100.612,51.7901,0.0338497,0.579745,20.2945,490.064,5.86932,0.0,0.0
168,41.75,57.8371,61.9966,150.739,100.672,57.903,0.028433,0.549278,20.3448,489.824,4.88851,0.0,0.0
176,43.75,57.975,61.8727,147.612,100.699,62.2076,0.0234391,0.515561,20.4069,489.604,4.25708,0.0,0.0
184,45.75,57.779,62.0311,157.24,100.727,68.9501,0.019045,0.473218,20.4775,489.404,3.35001,0.0,0.0
192,47.75,58.1545,62.3384,154.973,100.741,73.8705,0.0149142,0.425557,20.5425,489.264,2.74206,0.0,0.0
200,49.75,57.3924,61.7994,156.024,100.741,79.3202,0.0115087,0.379964,20.6075,489.144,2.11295,0.0,0.0
208,51.75,57.0666,61.4478,161.04,100.733,80.8454,0.0089973,0.328507,20.6836,489.064,1.94387,0.0,0.0
216,53.75,56.4557,60.7954,162.469,100.708,83.6906,0.00723261,0.283562,20.7504,488.983,1.636,0.0,0.0
224,55.75,55.8257,60.3326,158.99,100.663,86.3398,0.00610216,0.245813,20.8013,488.973,1.35661,0.0,0.0
232,57.75,55.0741,59.609,158.119,100.611,89.5622,0.00530587,0.216116,20.8471,488.923,1.02818,0.0,0.0
240,59.75,54.5284,59.0306,158.813,100.552,93.0742,0.00476279,0.18763,20.8899,488.873,0.683022,0.0,0.0
248,61.75,53.6053,58.2213,162.892,100.471,94.2363,0.00442505,0.160836,20.9283,488.843,0.566178,0.0,0.0
256,63.75,52.6266,57.033,164.081,100.405,94.3503,0.00430596,0.138549,20.9612,488.793,0.549747,0.0,0.0
264,65.75,51.3143,55.8139,164.554,100.34,94.5811,0.00430704,0.122084,20.9879,488.783,0.522437,0.0,0.0
272,67.75,51.0601,55.4172,162.062,100.252,93.9836,0.00428917,0.108957,21.0067,488.743,0.570622,0.0,0.0
280,69.75,49.0661,53.6379,160.25,100.17,94.5868,0.00407129,0.0991881,21.0178,488.753,0.506889,0.0,0.0
288,71.75,49.1196,53.0824,161.314,100.102,94.1021,0.00369056,0.0925576,21.0253,488.733,0.546321,0.0,0.0
296,73.75,48.4314,52.2646,166.01,100.034,93.9946,0.00323433,0.0872212,21.032,488.723,0.550405,0.0,0.0
304,75.75,47.7769,51.926,167.275,99.9907,94.3779,0.00280747,0.0832944,21.0386,488.723,0.510598,0.0,0.0
312,77.75,46.1959,51.1497,163.079,99.9416,94.5191,0.00244732,0.0804181,21.0422,488.703,0.493049,0.0,0.0
320,79.75,46.3162,50.7337,166.945,100.085,94.0096,0.00222942,0.0785671,21.0443,488.693,0.553508,0.0,0.0
328,81.75,45.6115,49.8065,165.324,100.197,94.1394,0.00221784,0.0771725,21.0466,488.653,0.551193,0.0,0.0
336,83.75,44.8884,48.8016,164.792,100.306,94.1025,0.0023456,0.0763567,21.0476,488.663,0.564243,0.0,0.0
344,85.75,44.8573,48.5222,168.292,100.399,94.2201,0.00248122,0.0755691,21.048,488.623,0.561418,0.0,0.0
352,87.75,44.3815,47.8493,166.42,100.445,94.4501,0.00252666,0.0749284,21.0482,488.613,0.543867,0.0,0.0
360,89.75,43.5439,47.2227,165.893,100.498,95.2979,0.0024696,0.0746666,21.0482,488.613,0.469598,0.0,0.0
368,91.75,43.2349,46.6286,161.159,100.52,94.934,0.00237282,0.0742336,21.0483,488.603,0.505299,0.0,0.0
376,93.75,42.1369,46.4935,163.317,100.502,94.6553,0.00235695,0.0736269,21.0484,488.593,0.529748,0.0,0.0
384,95.75,42.2504,46.0201,169.285,100.495,94.1629,0.00243196,0.0730491,21.0485,488.583,0.575243,0.0,0.0
392,97.75,41.9065,45.7068,168.966,100.439,95.1052,0.00239588,0.0723892,21.0497,488.563,0.482312,0.0,0.0
400,99.75,41.9679,44.9573,166.039,100.389,94.9125,0.00224895,0.0719772,21.0504,488.543,0.495809,0.0,0.0
408,101.75,41.2195,45.3213,165.451,100.318,93.9747,0.00210608,0.071414,21.0507,488.513,0.577325,0.0,0.0
416,103.75,40.9415,44.2375,161.971,100.213,94.227,0.0020767,0.0707343,21.0509,488.513,0.544402,0.0,0.0
424,105.75,40.2641,43.6495,156.311,100.101,95.2739,0.00216625,0.070142,21.0509,488.503,0.436826,0.0,0.0
432,107.75,39.7693,43.4262,165.741,99.9757,94.5158,0.00232228,0.0696777,21.0521,488.503,0.496366,0.0,0.0
440,109.75,39.6295,43.18,163.957,99.8191,94.4598,0.00246447,0.0695608,21.0528,488.493,0.487748,0.0,0.0
448,111.75,39.4213,42.5893,162.016,99.6459,94.2485,0.00243796,0.0689855,21.0531,488.473,0.492197,0.0,0.0
456,113.75,39.5909,42.118,167.33,99.6557,93.4733,0.00233715,0.0683035,21.0534,488.463,0.566055,0.0,0.0
464,115.75,38.9904,42.0792,161.753,99.6792,94.1361,0.00237177,0.0676371,21.0538,488.453,0.50569,0.0,0.0
472,117.75,38.7954,42.3082,157.682,99.706,93.6457,0.00248254,0.0671683,21.0547,488.453,0.554228,0.0,0.0
480,119.75,38.7223,41.6527,167.699,99.7392,94.2408,0.0025076,0.0663683,21.0571,488.433,0.50119,0.0,0.0
488,121.75,38.4809,41.3748,165.317,99.7915,94.0165,0.00241259,0.0657986,21.0584,488.433,0.526889,0.0,0.0
496,123.75,37.9152,40.7838,164.962,99.8289,93.4762,0.00232741,0.065244,21.0589,488.393,0.581134,0.0,0.0
504,125.75,38.0251,40.7059,167.408,99.8735,93.6725,0.00233239,0.0648467,21.0587,488.383,0.566539,0.0,0.0
512,127.75,37.0508,40.1684,167.625,99.9193,93.7463,0.00236938,0.0645541,21.0585,488.373,0.563631,0.0,0.0
520,129.75,37.3388,40.368,157.376,99.9514,94.7198,0.00228125,0.0640928,21.0585,488.363,0.475155,0.0,0.0
528,131.75,36.5341,39.1903,157.487,99.9887,94.6343,0.00216283,0.0636353,21.0585,488.353,0.486443,0.0,0.0
536,133.75,37.0996,39.9016,165.103,100.016,94.4878,0.00208932,0.0631462,21.0593,488.363,0.502568,0.0,0.0
544,135.75,37.2449,40.0154,162.218,100.045,94.04,0.00204301,0.0625259,21.0601,488.343,0.547065,0.0,0.0
552,137.75,36.8167,39.3007,158.483,100.082,94.253,0.00199359,0.0619761,21.0605,488.343,0.530333,0.0,0.0
560,139.75,36.4932,39.1493,169.68,100.082,94.0534,0.0019322,0.0615891,21.0608,488.343,0.549067,0.0,0.0
568,141.75,36.0747,39.2294,167.307,100.066,93.7743,0.00185371,0.0610641,21.0621,488.333,0.573936,0.0,0.0
576,143.75,36.2431,38.5719,167.73,100.041,93.4956,0.00181115,0.0607228,21.0628,488.353,0.59809,0.0,0.0
584,145.75,36.5361,38.9477,165.894,99.9972,94.8837,0.0017011,0.0600958,21.0635,488.333,0.463928,0.0,0.0
592,147.75,35.9712,38.7209,163.979,99.9408,94.0834,0.00151647,0.0596632,21.0641,488.323,0.533809,0.0,0.0
600,149.75,36.2954,38.5541,166.408,99.8719,94.3398,0.00151153,0.0592067,21.0655,488.313,0.503659,0.0,0.0
608,151.75,35.8998,37.8655,163.563,99.8228,94.2177,0.00160318,0.0589523,21.0661,488.283,0.51076,0.0,0.0
616,153.75,35.3666,38.1908,158.239,99.736,94.2262,0.00170672,0.0586662,21.0664,488.283,0.502273,0.0,0.0
624,155.75,35.2051,37.2322,166.171,99.6638,94.6959,0.00184717,0.0582973,21.0664,488.283,0.451921,0.0,0.0
632,157.75,35.7271,37.4216,168.099,99.581,94.6914,0.00198372,0.0578352,21.066,488.273,0.444997,0.0,0.0
640,159.75,35.1588,37.2874,165.195,99.4898,93.5281,0.0020424,0.0575437,21.0672,488.263,0.546153,0.0,0.0
648,161.75,35.3251,37.6871,162.137,99.4192,93.4356,0.00196498,0.0573052,21.0663,488.263,0.548625,0.0,0.0
656,163.75,35.5791,37.6543,169.092,99.3442,93.6413,0.00170932,0.0568824,21.0661,488.253,0.522519,0.0,0.0
664,165.75,35.1112,37.3081,168.231,99.2752,94.3199,0.00149804,0.056399,21.0666,488.223,0.45256,0.0,0.0
672,167.75,34.9685,37.579,165.047,99.1827,93.2417,0.00144239,0.0559385,21.067,488.233,0.545939,0.0,0.0
680,169.75,35.0854,36.9899,165.994,99.1304,94.1848,0.00147119,0.055511,21.0686,488.243,0.452325,0.0,0.0
688,171.75,34.9434,37.0586,165.024,99.0627,93.6903,0.00144824,0.0550695,21.0692,488.253,0.492808,0.0,0.0
696,173.75,34.3389,36.8747,169.015,98.9844,93.2981,0.00136242,0.0548586,21.0695,488.213,0.522902,0.0,0.0
704,175.75,34.6145,36.9392,161.197,98.9272,93.5666,0.00117823,0.0546422,21.0696,488.233,0.492392,0.0,0.0
712,177.75,34.9261,36.3501,167.23,98.8757,93.0186,0.00102194,0.0543131,21.0697,488.203,0.539706,0.0,0.0
720,179.75,34.782,36.5273,163.396,98.8238,93.5707,,0.05399,,488.203,0.482763,0.0,0.0
728,181.75,34.259,36.35,167.438,98.7897,93.3476,,,,488.193,0.500814,0.0,0.0
736,183.75,34.365,36.1663,162.643,98.756,93.3561,,,,488.173,0.496995,0.0,0.0
744,185.75,34.6258,35.8082,166.326,98.7268,93.8141,,,,488.183,0.45113,0.0,0.0
752,187.75,34.2863,36.1877,165.452,98.7078,93.1435,,,,488.213,0.51282,0.0,0.0
756,188.75,33.879,36.3248,166.162,98.7078,93.1658,,,,488.193,0.510704,0.0,0.0