File: 01_Data/Vinyl_Plank_Flooring/Cone/Vinyl_Plank_Flooring_Cone_HF75Scan_220311_R3.csv
Names,Time,Stack TC,Smoke TC,Exh Press,Smoke Comp,Smoke Meas,CO Meter,CO2 Meter,O2 Meter,Sample Mass,Ext Coeff,Start Test,Flame Verif
Chan Gain,,500,500,1,1,1,1,1,1,1,1,1.0,1.0
Offset,,0,0,0.136191,0,0,0,0,0,0,0,0.0,0.0
Gain,,1,1,25.011,13.291,13.2919,1,1,1,1.00093,1.00758,1.0,1.0
Units,sec,C,C,Pa,%,%,%,%,%,g,/m,,
Baseline,,41.8724,43.574,158.923,99.5439,94.3284,0.000299777,0.0400086,21.0907,-4.00305,0.47578,,
8,1.75,38.8968,40.2577,156.53,100.412,94.59,0.000464126,0.0404067,21.0875,490.405,0.52789,0.0,0.0
16,3.75,38.6802,40.4298,162.221,100.178,94.5511,0.00782537,0.0421231,21.0757,490.355,0.51094,0.0,0.0
24,5.75,38.5897,40.341,154.302,99.9043,82.582,0.0304534,0.0789285,20.955,490.275,1.68302,0.0,1.0
32,7.75,41.0235,41.934,120.775,99.6204,32.4266,0.0624339,0.259831,20.5707,488.903,9.92011,0.0,1.0
40,9.75,44.2022,45.8722,129.352,99.3381,11.3242,0.0812225,0.464755,20.2256,488.003,19.1934,0.0,0.0
48,11.75,47.6502,49.2923,127.708,99.0854,20.0389,0.0819631,0.577018,20.0715,487.322,14.1265,0.0,0.0
56,13.75,50.3359,52.3737,129.676,98.8874,32.9722,0.0770817,0.635269,20.0052,486.771,9.70738,0.0,0.0
64,15.75,52.4305,55.7301,127.376,98.7556,36.2595,0.0736938,0.685021,19.9459,486.241,8.85562,0.0,0.0
72,17.75,55.2894,58.9446,120.322,98.7049,37.3048,0.0729926,0.749008,19.8695,485.61,8.59988,0.0,0.0
80,19.75,59.1001,62.1517,126.103,98.7641,39.1573,0.0723648,0.80542,19.825,484.93,8.17682,0.0,0.0
88,21.75,61.1156,65.3469,133.535,98.8891,33.7027,0.0687294,0.828731,19.8319,484.369,9.51383,0.0,0.0
96,23.75,63.3848,67.2703,127.662,99.0732,29.8756,0.0632009,0.816993,19.8659,483.879,10.5956,0.0,0.0
104,25.75,64.8681,68.9515,118.366,99.3141,39.6729,0.057989,0.818635,19.875,483.418,8.11029,0.0,0.0
112,27.75,67.1186,72.0485,125.832,99.5526,44.0907,0.0530122,0.842477,19.8727,482.898,7.19833,0.0,0.0
120,29.75,68.8108,74.4848,128.463,99.7794,43.4587,0.0482101,0.85911,19.8781,482.437,7.34604,0.0,0.0
128,31.75,70.7719,76.1844,129.229,99.9368,49.2183,0.0433169,0.848986,19.9408,481.997,6.25999,0.0,0.0
136,33.75,71.5582,77.7803,131.97,100.051,53.381,0.0381793,0.806142,20.0319,481.557,5.55249,0.0,0.0
144,35.75,71.9269,78.2341,140.825,100.035,53.5972,0.0326074,0.747278,20.1396,481.246,5.51536,0.0,0.0
152,37.75,72.4631,78.8481,142.047,99.9745,58.3719,0.0271524,0.671835,20.2609,481.026,4.75576,0.0,0.0
160,39.75,72.276,78.7988,146.041,99.8719,54.7411,0.0223638,0.592999,20.3609,480.766,5.3143,0.0,0.0
168,41.75,71.5136,78.2094,143.803,99.7636,59.5081,0.0178236,0.510168,20.4396,480.656,4.56672,0.0,0.0
176,43.75,71.9497,78.2319,147.884,99.6626,72.0813,0.0134024,0.442079,20.5347,480.486,2.86361,0.0,0.0
184,45.75,70.4364,77.4328,143.923,99.609,82.8866,0.00981365,0.365727,20.6598,480.426,1.62432,0.0,0.0
192,47.75,70.4786,76.4323,149.103,99.7887,89.2847,0.00754654,0.303578,20.7473,480.335,0.983049,0.0,0.0
200,49.75,69.3616,75.776,146.128,100.108,91.448,0.00585007,0.252729,20.8218,480.275,0.799651,0.0,0.0
208,51.75,68.5533,74.7142,151.718,100.332,92.3448,0.00491519,0.218413,20.8817,480.235,0.733209,0.0,0.0
216,53.75,67.6976,73.9689,155.554,100.443,93.4161,0.00437817,0.186897,20.9209,480.205,0.641051,0.0,0.0
224,55.75,66.7264,72.708,154.512,100.45,92.8726,0.00414659,0.164745,20.9429,480.175,0.693234,0.0,0.0
232,57.75,65.8635,72.0583,159.262,100.354,92.9306,0.00415483,0.149174,20.9626,480.095,0.679218,0.0,0.0
240,59.75,65.1854,70.9556,153.104,100.131,92.5399,0.00420238,0.139578,20.9766,480.085,0.69685,0.0,0.0
248,61.75,64.1471,70.0166,155.871,99.9205,91.5782,0.00416307,0.131496,20.9855,480.085,0.77055,0.0,0.0
256,63.75,63.1702,69.2095,153.435,100.019,93.0133,0.00408708,0.124848,20.9925,480.035,0.641795,0.0,0.0
264,65.75,62.7496,68.1807,155.292,100.153,93.1955,0.0040023,0.119001,21.0008,480.055,0.636396,0.0,0.0
272,67.75,61.4815,67.1844,156.021,100.286,93.737,0.00386078,0.113435,21.0093,480.035,0.596921,0.0,0.0
280,69.75,60.3298,66.3536,154.132,100.435,93.7187,0.00368505,0.1085,21.0156,479.985,0.611752,0.0,0.0
288,71.75,59.945,65.4574,152.048,100.554,94.0887,0.00350516,0.104718,21.0201,479.975,0.58735,0.0,0.0
296,73.75,59.1678,64.4994,151.715,100.637,94.1795,0.00327851,0.101804,21.0234,479.955,0.586123,0.0,0.0
304,75.75,58.6929,63.908,158.486,100.696,93.7483,0.00311111,0.0994776,21.0265,479.935,0.631846,0.0,0.0
312,77.75,58.1643,63.3965,163.379,100.715,93.6165,0.00298151,0.0976592,21.0282,479.925,0.645957,0.0,0.0
320,79.75,57.5414,62.6645,154.334,100.695,94.0226,0.00289233,0.0963278,21.0297,479.945,0.60596,0.0,0.0
328,81.75,57.0309,62.3989,162.539,100.639,93.5642,0.00275424,0.0954452,21.0309,479.795,0.64424,0.0,0.0
336,83.75,56.4828,61.2951,146.398,100.544,94.0769,0.00265101,0.0948825,21.0314,479.775,0.587635,0.0,0.0
344,85.75,55.8863,60.6983,161.279,100.421,93.5366,0.00258895,0.0943226,21.0316,479.755,0.62766,0.0,0.0
352,87.75,55.5206,59.4895,152.712,100.285,93.8287,0.00253134,0.0939101,21.0321,479.705,0.588174,0.0,0.0
360,89.75,54.033,59.1344,158.799,100.148,92.7436,0.00248887,0.0935111,21.0324,479.725,0.678855,0.0,0.0
368,91.75,54.7965,59.3593,155.189,99.996,93.5536,0.0025053,0.0930196,21.0325,479.665,0.588594,0.0,0.0
376,93.75,53.8607,58.1744,155.422,99.8394,93.1752,0.00253675,0.0924433,21.033,479.685,0.610571,0.0,0.0
384,95.75,53.8449,58.1465,157.099,99.6764,93.3557,0.00246326,0.0918799,21.0341,479.675,0.579019,0.0,0.0
392,97.75,52.8676,56.9626,156.569,99.5364,93.1736,0.00224116,0.0912514,21.0352,479.625,0.583862,0.0,0.0
400,99.75,52.2627,56.5651,158.436,99.3746,93.0604,0.00205502,0.0904168,21.0364,479.615,0.580222,0.0,0.0
408,101.75,52.9293,56.9237,158.472,99.218,91.9173,0.00195121,0.0897015,21.0369,479.575,0.675522,0.0,0.0
416,103.75,52.5467,56.6847,152.926,99.0817,91.9635,0.00199722,0.088873,21.0368,479.565,0.658929,0.0,0.0
424,105.75,52.1016,56.273,156.136,98.9665,92.4828,0.00207219,0.0884673,21.0366,479.545,0.598886,0.0,0.0
432,107.75,51.8883,55.9953,153.847,98.8895,92.5286,0.00208406,0.0880203,21.0373,479.535,0.587622,0.0,0.0
440,109.75,52.1214,55.6846,156.783,98.8201,92.4596,0.00208098,0.0874701,21.0382,479.515,0.58801,0.0,0.0
448,111.75,51.5482,55.1272,156.438,98.7548,92.2483,0.00204539,0.0871335,21.039,479.515,0.602392,0.0,0.0
456,113.75,51.0524,54.6899,156.625,98.7215,92.2073,0.00194105,0.0866875,21.0405,479.505,0.603342,0.0,0.0
464,115.75,50.7054,55.0112,152.586,98.7195,91.7226,0.00180081,0.0862156,21.0418,479.485,0.649747,0.0,0.0
472,117.75,49.9564,54.5411,157.485,98.7065,93.1565,0.00170353,0.0855883,21.0424,479.455,0.51148,0.0,0.0
480,119.75,50.3219,54.1776,156.121,98.7191,92.4041,0.00166209,0.0849271,21.0431,479.435,0.584286,0.0,0.0
488,121.75,50.1989,53.8117,155.744,98.7426,92.2743,0.00160785,0.0840858,21.0443,479.415,0.598817,0.0,0.0
496,123.75,49.5779,52.7702,162.51,98.795,92.1582,0.00151192,0.0837322,21.0445,479.425,0.614619,0.0,0.0
504,125.75,49.4109,52.6069,155.113,98.829,92.7639,0.00140572,0.0833153,21.0444,479.395,0.559774,0.0,0.0
512,127.75,49.5508,53.0735,157.735,98.8765,92.6612,0.00132173,0.0824706,21.0454,479.365,0.573801,0.0,0.0
520,129.75,49.0113,52.8907,159.981,98.9381,92.6117,0.00133923,0.0816696,21.0461,479.335,0.584032,0.0,0.0
528,131.75,48.9282,52.6676,151.868,98.9901,92.9148,0.00141745,0.0810079,21.0464,479.344,0.559798,0.0,0.0
536,133.75,48.8259,52.1096,154.805,99.0412,92.6945,0.00138086,0.0804486,21.0463,479.314,0.585336,0.0,0.0
544,135.75,48.9719,51.8111,160.166,99.1032,92.8997,0.00127585,0.079906,21.0461,479.304,0.571324,0.0,0.0
552,137.75,48.7192,52.0474,156.524,99.1474,93.2474,0.00126908,0.0793075,21.0465,479.304,0.542254,0.0,0.0
560,139.75,48.4693,51.6091,165.095,99.203,92.2426,0.00131586,0.078527,21.0475,479.304,0.64296,0.0,0.0
568,141.75,47.9949,51.211,155.923,99.2764,92.8823,0.00141032,0.0778617,21.049,479.274,0.588416,0.0,0.0
576,143.75,48.5019,51.2593,152.854,99.3324,92.9375,0.00153067,0.0773978,21.0499,479.284,0.58815,0.0,0.0
584,145.75,47.9133,51.0454,159.626,99.3612,93.0794,0.00150209,0.0767987,21.0503,479.284,0.577221,0.0,0.0
592,147.75,48.2258,51.1343,156.87,99.4233,92.8211,0.00138436,0.0760389,21.0505,479.254,0.607309,0.0,0.0
600,149.75,47.4186,50.6507,159.353,99.4683,93.0113,0.00128063,0.0753984,21.0508,479.224,0.593214,0.0,0.0
608,151.75,47.4091,51.0104,154.425,99.5437,93.9763,0.00120615,0.0746914,21.052,479.234,0.508688,0.0,0.0
616,153.75,47.5716,50.8211,153.493,99.5782,93.4474,0.00107367,0.0740229,21.0538,479.214,0.561636,0.0,0.0
624,155.75,47.5399,50.531,158.098,99.6167,93.5524,0.000904947,0.0734245,21.0546,479.214,0.555124,0.0,0.0
632,157.75,47.2088,50.5994,153.721,99.6549,93.3111,0.000738128,0.0728656,21.0556,479.164,0.581338,0.0,0.0
640,159.75,47.6258,50.6802,156.43,99.6841,93.965,0.000725217,0.0722373,21.057,479.154,0.522208,0.0,0.0
648,161.75,47.0348,49.9382,159.646,99.6995,93.247,0.000810991,0.0714245,21.0579,479.174,0.591367,0.0,0.0
656,163.75,46.6477,49.6409,159.064,99.7173,93.0754,0.000833081,0.0706412,21.0593,479.164,0.609228,0.0,0.0
664,165.75,47.4143,49.6565,151.668,99.7287,93.928,0.000799031,0.0699873,21.0605,479.164,0.529636,0.0,0.0
672,167.75,46.9927,49.7573,146.954,99.751,92.8823,0.00082662,0.0692884,21.0613,479.144,0.630566,0.0,0.0
680,169.75,46.6231,49.5701,158.265,99.7672,93.9357,0.000862403,0.068622,21.0616,479.124,0.532325,0.0,0.0
688,171.75,47.1157,49.6259,154.047,99.7713,93.4474,0.000890585,0.0678953,21.0627,479.144,0.578757,0.0,0.0
696,173.75,47.2897,49.5306,155.506,99.794,93.1314,0.000962769,0.0669521,21.0636,479.094,0.610706,0.0,0.0
704,175.75,46.1329,49.0046,153.741,99.7944,93.812,0.00105007,0.0661105,21.0637,479.094,0.546381,0.0,0.0
712,177.75,46.8622,48.7873,153.739,99.8118,93.8376,0.00108561,0.0654578,21.0635,479.084,0.545518,0.0,0.0
720,179.75,46.2516,49.4137,155.83,99.8183,93.4279,,0.064906,,479.034,0.584766,0.0,0.0
728,181.75,46.4686,49.3362,154.894,99.8248,93.6072,,,,479.024,0.568395,0.0,0.0
736,183.75,46.1656,48.7957,151.584,99.8345,93.2535,,,,478.994,0.602717,0.0,0.0
744,185.75,46.6585,48.3325,155.282,99.8451,93.1448,,,,479.004,0.613961,0.0,0.0
752,187.75,46.3707,49.0551,156.747,99.8248,93.6108,,,,479.014,0.56805,0.0,0.0
759,189.5,46.1714,49.4757,158.473,99.8293,93.7033,,,,479.014,0.559717,0.0,0.0