File: 01_Data/Vinyl_Plank_Flooring/Cone/Vinyl_Plank_Flooring_Cone_HF50Scan_220311_R2.csv
Names,Time,Stack TC,Smoke TC,Exh Press,Smoke Comp,Smoke Meas,CO Meter,CO2 Meter,O2 Meter,Sample Mass,Ext Coeff,Start Test,Flame Verif
Chan Gain,,500,500,1,1,1,1,1,1,1,1,1.0,1.0
Offset,,0,0,0.136191,0,0,0,0,0,0,0,0.0,0.0
Gain,,1,1,25.011,13.291,13.2919,1,1,1,1.00093,1.00758,1.0,1.0
Units,sec,C,C,Pa,%,%,%,%,%,g,/m,,
Baseline,,30.7965,32.0888,167.082,100.084,95.3324,0.000842651,0.041449,21.0818,-2.14249,0.42994,,
8,1.75,28.3346,29.5762,168.561,98.7134,94.4347,0.00107215,0.0415205,21.0826,491.786,0.391654,0.0,0.0
16,3.75,28.3789,29.5014,165.908,98.7224,94.3937,0.00104278,0.0416324,21.0815,491.836,0.396288,0.0,0.0
24,5.75,28.4096,29.9109,172.171,98.7402,94.7515,0.00128272,0.041698,21.0766,491.826,0.36445,0.0,0.0
32,7.75,28.1187,29.8294,163.657,98.7649,93.5536,0.00772039,0.0476335,21.0655,491.716,0.479111,0.0,1.0
40,9.75,28.7958,29.9599,141.105,98.8002,73.2759,0.0258471,0.113911,20.9351,491.466,2.64152,0.0,1.0
48,11.75,31.3337,32.009,130.613,98.8307,50.5326,0.0500726,0.320682,20.6175,490.365,5.9287,0.0,1.0
56,13.75,34.1394,34.5941,144.923,98.8793,29.4959,0.0664189,0.490078,20.3541,489.684,10.6914,0.0,0.0
64,15.75,36.6588,37.6439,141.936,98.9207,24.5134,0.0664791,0.527651,20.2567,489.204,12.3304,0.0,0.0
72,17.75,37.7487,39.2181,154.099,98.9483,37.3547,0.0592374,0.519734,20.2697,488.783,8.60983,0.0,0.0
80,19.75,39.7375,41.4206,141.337,98.9929,40.1937,0.0537432,0.507105,20.2842,488.383,7.96638,0.0,0.0
88,21.75,41.2208,42.9679,146.032,99.0481,40.6306,0.05147,0.51607,20.2841,487.922,7.87576,0.0,0.0
96,23.75,43.51,45.1479,142.761,99.1101,43.021,0.0521805,0.547066,20.2425,487.502,7.37602,0.0,0.0
104,25.75,44.7603,47.1911,140.251,99.1511,44.2164,0.0537952,0.584023,20.1939,486.962,7.13744,0.0,0.0
112,27.75,47.7519,49.5223,142.257,99.2067,42.7253,0.0546723,0.610735,20.1637,486.391,7.44559,0.0,0.0
120,29.75,49.1519,51.8198,147.457,99.2529,43.9313,0.0531821,0.619127,20.1595,485.901,7.20369,0.0,0.0
128,31.75,50.4481,53.1389,142.02,99.2979,36.4481,0.0504423,0.60514,20.182,485.46,8.85816,0.0,0.0
136,33.75,52.1573,55.0975,141.391,99.3575,35.8323,0.0474111,0.59656,20.1945,485.07,9.01406,0.0,0.0
144,35.75,53.3697,56.5892,135.988,99.3924,37.7096,0.0450791,0.607487,20.1911,484.619,8.56583,0.0,0.0
152,37.75,54.0819,57.4518,138.716,99.4273,40.025,0.0430091,0.623033,20.1878,484.199,8.04226,0.0,0.0
160,39.75,55.8176,59.2392,141.905,99.435,43.6709,0.0398034,0.625877,20.1942,483.789,7.27244,0.0,0.0
168,41.75,56.3467,60.2542,145.372,99.4156,45.5672,0.0361232,0.61267,20.2245,483.488,6.89502,0.0,0.0
176,43.75,57.3003,61.4825,142.52,99.4354,51.9844,0.0306367,0.585488,20.279,483.188,5.73228,0.0,0.0
184,45.75,57.7056,61.4596,146.354,99.4383,58.4713,0.0248988,0.549011,20.3602,482.928,4.6932,0.0,0.0
192,47.75,57.5233,61.6199,147.692,99.4196,64.3689,0.0197144,0.495715,20.4567,482.718,3.84222,0.0,0.0
200,49.75,56.4041,61.0146,157.929,99.3949,69.0921,0.0155729,0.442328,20.5337,482.608,3.21417,0.0,0.0
208,51.75,56.9582,61.6126,158.345,99.3778,71.6707,0.0125966,0.390657,20.6025,482.457,2.8888,0.0,0.0
216,53.75,56.9228,61.085,155.881,99.349,75.1377,0.0104546,0.342126,20.6659,482.367,2.46871,0.0,0.0
224,55.75,56.3867,61.0201,161.046,99.3214,76.2143,0.00869191,0.301053,20.7207,482.267,2.34052,0.0,0.0
232,57.75,56.056,60.5489,162.997,99.3024,81.075,0.00725775,0.266196,20.7705,482.197,1.79238,0.0,0.0
240,59.75,55.3101,59.9751,159.984,99.2707,87.4439,0.00624585,0.233809,20.8183,482.167,1.12118,0.0,0.0
248,61.75,54.39,59.1702,162.452,99.2257,91.5713,0.00551379,0.202787,20.8614,482.127,0.709543,0.0,0.0
256,63.75,53.6863,58.2724,162.247,99.1876,92.4974,0.00494755,0.177283,20.8936,482.087,0.617211,0.0,0.0
264,65.75,52.7509,57.4922,165.655,99.1669,92.6117,0.00467398,0.156463,20.9282,482.067,0.604444,0.0,0.0
272,67.75,51.9598,56.2541,164.567,99.1255,93.075,0.0044756,0.137363,20.9596,482.037,0.556657,0.0,0.0
280,69.75,50.9638,55.5152,159.541,99.0241,92.0337,0.00424147,0.123862,20.9807,482.017,0.647047,0.0,0.0
288,71.75,50.3737,54.8633,162.044,98.973,93.6177,0.00401918,0.113806,20.9953,481.947,0.491659,0.0,0.0
296,73.75,49.6914,54.233,164.562,98.9029,93.3281,0.00383467,0.105527,21.0082,481.957,0.512776,0.0,0.0
304,75.75,47.8082,52.2636,163.815,98.8631,92.9111,0.00367241,0.0984046,21.0187,481.977,0.548802,0.0,0.0
312,77.75,48.305,52.3772,170.454,98.8144,93.3833,0.0034598,0.0922731,21.0264,481.937,0.499647,0.0,0.0
320,79.75,46.8543,51.2873,165.283,98.7828,94.0619,0.0033125,0.0879583,21.0331,481.917,0.43282,0.0,0.0
328,81.75,46.5324,50.5339,164.838,98.7605,93.064,0.00327033,0.0847852,21.0372,481.887,0.525088,0.0,0.0
336,83.75,45.1692,49.7355,164.579,98.7378,93.335,0.00326091,0.0823045,21.0396,481.887,0.497358,0.0,0.0
344,85.75,45.6419,49.6754,163.684,98.7426,93.0158,0.00305138,0.0805264,21.0395,481.857,0.528076,0.0,0.0
352,87.75,44.5233,48.233,166.182,98.7313,93.5098,0.00286473,0.0791656,21.0402,481.857,0.480237,0.0,0.0
360,89.75,44.0807,48.5223,165.106,98.7702,92.7391,0.00282995,0.0780255,21.0408,481.847,0.556871,0.0,0.0
368,91.75,43.7675,47.7945,165.35,98.784,93.3776,0.00284151,0.0772254,21.0416,481.827,0.497464,0.0,0.0
376,93.75,43.1103,46.9349,166.842,98.8505,93.511,0.00282274,0.0763117,21.0427,481.817,0.490791,0.0,0.0
384,95.75,43.0042,46.6767,161.791,98.8931,93.1516,0.00274413,0.0757622,21.0432,481.797,0.528633,0.0,0.0
392,97.75,42.2429,46.2345,164.341,98.9682,94.3073,0.00275367,0.0751827,21.0434,481.787,0.42636,0.0,0.0
400,99.75,41.7575,45.4794,166.278,99.0432,93.2279,0.00295575,0.0745287,21.0435,481.767,0.534802,0.0,0.0
408,101.75,41.7783,45.143,162.534,99.1341,93.3504,0.00304675,0.0739368,21.0447,481.717,0.531301,0.0,0.0
416,103.75,40.5464,44.4676,163.572,99.2351,92.8568,0.00301093,0.0733337,21.0454,481.767,0.587165,0.0,0.0
424,105.75,40.9652,44.5708,165.8,99.3551,93.868,0.00287957,0.072679,21.047,481.737,0.502117,0.0,0.0
432,107.75,40.505,43.4591,163.786,99.4476,94.0473,0.0027087,0.0721134,21.0477,481.727,0.493475,0.0,0.0
440,109.75,40.4768,43.6595,164.619,99.5514,94.2838,0.00254345,0.0714779,21.0484,481.727,0.480502,0.0,0.0
448,111.75,39.4439,42.3484,162.613,99.6496,93.9714,0.00243242,0.0713209,21.0486,481.707,0.518541,0.0,0.0
456,113.75,39.6975,42.9224,166.135,99.7457,95.336,0.0024456,0.0710128,21.05,481.677,0.399642,0.0,0.0
464,115.75,38.3817,41.7168,164.607,99.8512,94.431,0.00254447,0.0704244,21.0507,481.667,0.493281,0.0,0.0
472,117.75,38.898,42.1057,165.864,99.9299,94.4221,0.00263667,0.0697669,21.051,481.677,0.501079,0.0,0.0
480,119.75,38.0752,41.0634,168.208,99.9976,94.3787,0.00272095,0.0693456,21.0511,481.647,0.511131,0.0,0.0
488,121.75,38.5518,41.3888,163.156,100.045,94.4209,0.00265643,0.0690421,21.0511,481.627,0.511411,0.0,0.0
496,123.75,37.3004,40.2981,165.81,100.073,94.9263,0.00241054,0.0684809,21.0524,481.617,0.466628,0.0,0.0
504,125.75,37.3607,40.5456,170.161,100.108,94.7495,0.00225401,0.06789,21.053,481.607,0.486226,0.0,0.0
512,127.75,37.385,40.4642,161.391,100.113,94.6424,0.00229746,0.0673985,21.0541,481.597,0.49665,0.0,0.0
520,129.75,37.625,40.3988,165.829,100.103,94.6326,0.00243577,0.0669706,21.0551,481.607,0.496664,0.0,0.0
528,131.75,37.4129,40.3806,169.101,100.073,94.7133,0.00254676,0.0665295,21.0552,481.617,0.486478,0.0,0.0
536,133.75,36.997,39.933,170.532,100.046,94.7121,0.00251376,0.0659032,21.0552,481.587,0.484226,0.0,0.0
544,135.75,36.898,39.9667,162.542,100.027,94.4213,0.00240841,0.0651793,21.0564,481.557,0.50976,0.0,0.0
552,137.75,36.7754,39.7537,167.912,99.9822,93.9211,0.00229811,0.0646675,21.0571,481.567,0.552723,0.0,0.0
560,139.75,36.1204,38.9737,161.418,99.942,95.2342,0.0022042,0.0642259,21.0573,481.537,0.426464,0.0,0.0
568,141.75,36.3051,39.4395,162.917,99.8938,94.4132,0.00208734,0.0638575,21.0575,481.537,0.498721,0.0,0.0
576,143.75,35.9194,39.107,164.216,99.8463,93.8015,0.00193505,0.0631206,21.0588,481.547,0.551971,0.0,0.0
584,145.75,36.4953,38.6298,171.747,99.8001,94.7365,0.0018561,0.0622365,21.0594,481.547,0.460214,0.0,0.0
592,147.75,36.131,38.5255,173.364,99.7542,94.3398,0.0019324,0.0614665,21.06,481.507,0.493242,0.0,0.0
600,149.75,35.3489,38.2773,164.752,99.7331,94.255,0.00209343,0.0610697,21.0604,481.507,0.49932,0.0,0.0
608,151.75,35.2576,38.3784,169.353,99.9116,95.1827,0.00213151,0.0607527,21.0616,481.486,0.428557,0.0,0.0
616,153.75,35.188,38.1332,159.422,100.136,94.8054,0.00203785,0.0602415,21.0617,481.486,0.48344,0.0,0.0
624,155.75,35.6713,37.9683,164.44,100.298,95.5116,0.00191481,0.0594973,21.0622,481.486,0.432155,0.0,0.0
632,157.75,35.3061,37.8976,166.212,100.422,95.2082,0.00177473,0.0588013,21.0621,481.496,0.471243,0.0,0.0
640,159.75,35.7792,37.4123,163.985,100.496,95.0143,0.00167299,0.058243,21.0631,481.476,0.495755,0.0,0.0
648,161.75,35.2536,37.5619,165.365,100.555,94.6639,0.00161777,0.0578404,21.0636,481.476,0.533553,0.0,0.0
656,163.75,35.2453,37.4745,165.878,100.559,94.6728,0.00157213,0.0572623,21.0641,481.456,0.533147,0.0,0.0
664,165.75,35.5766,37.5755,163.295,100.518,94.4513,0.00152344,0.0566465,21.0653,481.466,0.550211,0.0,0.0
672,167.75,34.9659,37.3329,161.758,100.429,94.3345,0.00151457,0.0561215,21.0659,481.486,0.5533,0.0,0.0
680,169.75,34.4085,37.3841,163.904,100.298,95.1157,0.00153392,0.0557692,21.0661,481.446,0.468902,0.0,0.0
688,171.75,35.1486,36.0212,161.328,100.12,94.388,0.00152177,0.0554909,21.0673,481.476,0.521042,0.0,0.0
696,173.75,34.823,36.7905,161.141,99.9883,95.0736,0.00142486,0.0552081,21.0681,481.426,0.445473,0.0,0.0
704,175.75,34.5867,36.7367,168.515,100.049,94.2976,0.0013607,0.0546913,21.0684,481.466,0.523284,0.0,0.0
712,177.75,34.5085,36.1122,163.432,100.149,93.8757,0.00137858,0.054215,21.0681,481.426,0.57176,0.0,0.0
720,179.75,34.0071,36.836,167.024,100.253,94.4399,0.00145574,0.0537051,21.0691,481.436,0.527919,0.0,0.0
728,181.75,34.2831,36.0977,156.865,100.36,94.8898,0.00149048,0.0530653,21.07,481.436,0.495354,0.0,0.0
736,183.75,34.486,36.2032,163.127,100.483,94.9008,,0.0527671,,481.416,0.50515,0.0,0.0
744,185.75,34.4666,36.4646,167.71,100.583,94.8878,,0.0524004,,481.436,0.515202,0.0,0.0
752,187.75,34.0358,36.1868,159.741,100.681,94.2704,,,,481.416,0.581447,0.0,0.0
760,189.75,34.3163,36.419,164.029,100.737,95.463,,,,481.416,0.475286,0.0,0.0
768,191.75,34.3205,36.1007,167.579,100.785,95.3405,,,,481.416,0.490833,0.0,0.0
776,193.75,33.922,36.0344,160.739,100.794,94.9174,,,,481.426,0.530924,0.0,0.0
778,194.25,34.1126,36.0021,159.796,100.787,95.1669,,,,481.406,0.507084,0.0,0.0