File: 01_Data/Cedar_Shingle/HFM/Cedar_Shingle_Density_Dry_R3.csv
,Cedar_Shingle_DRY_3
Sample Mass [g],39.2
Sample Volume [cm3],123.4
Sample Density [kg/m3],318