File: 01_Data/Cedar_Shingle/HFM/Cedar_Shingle_Density_Wet_R1.csv
,Cedar_Shingle_WET_1
Sample Mass [g],50.5
Sample Volume [cm3],161.2
Sample Density [kg/m3],313