File: 01_Data/Cedar_Shingle/HFM/Cedar_Shingle_Density_Wet_R2.csv
,Cedar_Shingle_WET_2
Sample Mass [g],47.2
Sample Volume [cm3],137.1
Sample Density [kg/m3],344