File: 01_Data/Cedar_Shingle/HFM/Cedar_Shingle_Density_Dry_R2.csv
,Cedar_Shingle_DRY_2
Sample Mass [g],42.7
Sample Volume [cm3],137.1
Sample Density [kg/m3],311