File: 01_Data/Cedar_Shingle/HFM/Cedar_Shingle_Density_Dry_R1.csv
,Cedar_Shingle_DRY_1
Sample Mass [g],45.9
Sample Volume [cm3],161.2
Sample Density [kg/m3],285