File: 01_Data/Cedar_Shingle/HFM/Cedar_Shingle_Density_Wet_R3.csv
,Cedar_Shingle_WET_3
Sample Mass [g],43.1
Sample Volume [cm3],123.4
Sample Density [kg/m3],349