File: 01_Data/Cedar_Shingle/HFM/Cedar_Shingle_Ignition_Temp_Properties.csv
Thermal Conductivity (W/m-K),0.089
Heat Capacity (J/kg-K),1860.0
Density (kg/m3),335.333