File: 01_Data/Cotton_Ball/STA/N2/10K_min/Cotton_Ball_STA_N2_10KData_210712_R2.csv
##Temp./Â°C,Time/min,Mass loss(subtr.2)/mg,DSC(subtr.2)/(mW/mg),Sensit./(uV/mW)
49.501,10.01,-0.05112,0.05072659,0.61841
52.501,12.37582,-0.0539867,0.11106,0.61999
55.501,13.0649,-0.0562744,0.14206,0.62154
58.501,13.6165,-0.05860102,0.16524,0.62306
61.501,14.1075,-0.05857726,0.18107,0.62455
64.501,14.55895,-0.06141369,0.20297,0.62601
67.501,14.98196,-0.06395517,0.21857,0.62743
70.501,15.3834,-0.06693876,0.2367,0.62883
73.501,15.7662,-0.06960698,0.24988,0.63019
76.501,16.1349,-0.07347514,0.26833,0.63152
79.501,16.4916,-0.07612488,0.28138,0.63282
82.501,16.83747,-0.07941,0.29249,0.63408
85.501,17.17432,-0.08336078,0.30423,0.63532
88.501,17.50284,-0.08682199,0.31023,0.63652
91.501,17.82483,-0.08878337,0.31867,0.6377
94.501,18.14076,-0.09201719,0.31837,0.63884
97.501,18.452,-0.09728531,0.31844,0.63995
100.501,18.75764,-0.09993039,0.32088,0.64102
103.501,19.0604,-0.10256,0.3223,0.64207
106.501,19.36058,-0.10519,0.3171,0.64308
109.501,19.65767,-0.10904,0.31472,0.64407
112.501,19.9529,-0.10947,0.30822,0.64502
115.501,20.2473,-0.11211,0.30296,0.64594
118.501,20.53891,-0.11331,0.29973,0.64682
121.501,20.82848,-0.11572,0.29521,0.64768
124.501,21.11609,-0.11224,0.29064,0.64851
127.501,21.40158,-0.11857,0.29023,0.6493
130.501,21.68499,-0.12089,0.2862,0.65006
133.501,21.96694,-0.12153,0.28231,0.65079
136.501,22.2468,-0.12398,0.27684,0.65149
139.501,22.52488,-0.12612,0.27358,0.65216
142.501,22.80235,-0.12069,0.27663,0.6528
145.501,23.0781,-0.12393,0.27533,0.65341
148.501,23.35249,-0.12482,0.26905,0.65399
151.501,23.62634,-0.12594,0.26949,0.65453
154.501,23.8996,-0.12793,0.26751,0.65505
157.501,24.17197,-0.12823,0.26672,0.65553
160.501,24.4442,-0.12824,0.2704,0.65598
163.501,24.7161,-0.12813,0.27219,0.65641
166.501,24.98828,-0.12798,0.27378,0.6568
169.501,25.25975,-0.12889,0.27405,0.65716
172.501,25.5305,-0.12887,0.27695,0.6575
175.501,25.80142,-0.12868,0.27753,0.6578
178.501,26.07163,-0.12889,0.28016,0.65807
181.501,26.34158,-0.1302,0.28154,0.65832
184.501,26.6114,-0.12887,0.28415,0.65853
187.501,26.8798,-0.12987,0.28861,0.65872
190.501,27.1481,-0.1302,0.29342,0.65887
193.501,27.41579,-0.13193,0.29793,0.659
196.501,27.6837,-0.12916,0.29889,0.6591
199.501,27.9522,-0.13185,0.30055,0.65917
202.501,28.219,-0.13184,0.30479,0.65921
205.501,28.48678,-0.13113,0.30889,0.65922
208.501,28.75403,-0.13386,0.31315,0.65921
211.501,29.0216,-0.13115,0.31281,0.65917
214.501,29.29,-0.13316,0.31996,0.6591
217.501,29.55718,-0.13372,0.31652,0.659
220.501,29.8248,-0.13612,0.31899,0.65887
223.501,30.0923,-0.13784,0.31999,0.65872
226.501,30.36005,-0.13788,0.32164,0.65854
229.501,30.6279,-0.13689,0.32575,0.65833
232.501,30.89498,-0.14052,0.32846,0.6581
235.501,31.1633,-0.13997,0.33456,0.65784
238.501,31.43122,-0.14391,0.33892,0.65755
241.501,31.69913,-0.14761,0.33585,0.65724
244.501,31.96718,-0.15027,0.34287,0.6569
247.501,32.23565,-0.15442,0.34896,0.65654
250.501,32.504,-0.15812,0.34942,0.65615
253.501,32.77247,-0.16352,0.35007,0.65573
256.501,33.0405,-0.16903,0.35072,0.65529
259.501,33.30917,-0.17307,0.3525,0.65483
262.501,33.57754,-0.17977,0.34979,0.65434
265.501,33.8462,-0.18731,0.34939,0.65383
268.501,34.11526,-0.19538,0.3397,0.6533
271.501,34.3839,-0.20698,0.33398,0.65274
274.501,34.65352,-0.21888,0.3298,0.65215
277.501,34.92281,-0.23609,0.31877,0.65155
280.501,35.19283,-0.2516,0.31302,0.65092
283.501,35.46263,-0.26776,0.30432,0.65027
286.501,35.7329,-0.2908,0.30075,0.64959
289.501,36.00323,-0.3176,0.29903,0.6489
292.501,36.27405,-0.34641,0.29142,0.64818
295.501,36.5453,-0.37999,0.29264,0.64744
298.501,36.81606,-0.41623,0.29918,0.64668
301.501,37.08739,-0.4577,0.30339,0.6459
304.501,37.35888,-0.50425,0.31142,0.6451
307.501,37.6308,-0.55878,0.32377,0.64427
310.501,37.90276,-0.62036,0.3346,0.64343
313.501,38.17521,-0.68796,0.34984,0.64257
316.501,38.44682,-0.76569,0.36623,0.64168
319.501,38.71966,-0.85509,0.38257,0.64078
322.501,38.99283,-0.95907,0.39821,0.63986
325.501,39.26618,-1.07965,0.42308,0.63892
328.501,39.53949,-1.21684,0.43852,0.63796
331.501,39.8129,-1.36905,0.45933,0.63698
334.501,40.0869,-1.5378,0.47815,0.63599
337.501,40.36122,-1.71683,0.49636,0.63498
340.501,40.6355,-1.89939,0.50452,0.63395
343.501,40.91063,-2.07937,0.50094,0.6329
346.501,41.18602,-2.24887,0.47645,0.63184
349.501,41.4615,-2.3997,0.44728,0.63076
352.501,41.73858,-2.53046,0.39623,0.62966
355.501,42.01497,-2.63446,0.33707,0.62855
358.501,42.29183,-2.71918,0.27588,0.62742
361.501,42.5685,-2.7815,0.21462,0.62628
364.501,42.84548,-2.82199,0.15058,0.62512
367.501,43.12312,-2.85313,0.11235,0.62395
370.501,43.40097,-2.87541,0.08718367,0.62276
373.501,43.67978,-2.88672,0.06838441,0.62156
376.501,43.95851,-2.89818,0.06117223,0.62034
379.501,44.23715,-2.90673,0.05400992,0.61912
382.501,44.51717,-2.91634,0.04919694,0.61787
385.501,44.79651,-2.92265,0.04290732,0.61662
388.501,45.0764,-2.93272,0.03704412,0.61535
391.501,45.35625,-2.93681,0.03243549,0.61407
394.501,45.63704,-2.94485,0.0267405,0.61278
397.501,45.9174,-2.95347,0.02279034,0.61148
400.501,46.1987,-2.96177,0.01706232,0.61016
403.501,46.47984,-2.96592,0.00515532,0.60884
406.501,46.76149,-2.97502,0.003533838,0.6075
409.501,47.04433,-2.97912,0.002411603,0.60616
412.501,47.32718,-2.98679,0.001270347,0.6048
415.501,47.61043,-2.99585,0.0002971273,0.60343
418.501,47.89362,-3.00021,-0.0006851793,0.60206
421.501,48.17631,-3.00724,0.0001852729,0.60067
424.501,48.4599,-3.01319,0.00587831,0.59927
427.501,48.74432,-3.02131,0.003076453,0.59787
430.501,49.0293,-3.02692,-0.004018745,0.59646
433.501,49.31438,-3.03419,-0.003233783,0.59504
436.501,49.59965,-3.03886,-0.003492897,0.59361
439.501,49.88463,-3.04731,-0.00188605,0.59218
442.501,50.17001,-3.05125,-0.003770323,0.59073
445.501,50.4566,-3.05791,-0.00374526,0.58929
448.501,50.74309,-3.06265,-0.003388097,0.58783
451.501,51.02984,-3.0722,-0.000955497,0.58637
454.501,51.31662,-3.07811,-4.417513e-05,0.5849
457.501,51.60393,-3.08172,-0.001039088,0.58342
460.501,51.89113,-3.08777,-0.002321642,0.58194
463.501,52.17929,-3.08698,-1.287375e-06,0.58046
466.501,52.4676,-3.09604,-0.00524878,0.57897
469.501,52.75642,-3.10295,-0.002185416,0.57747
472.501,53.04557,-3.10646,0.0006362136,0.57598
475.501,53.33481,-3.11083,0.007590856,0.57447
478.501,53.62429,-3.11514,0.01003747,0.57297
481.501,53.9139,-3.12134,0.008644956,0.57145
484.501,54.2036,-3.12244,0.01161092,0.56994
487.501,54.49403,-3.12536,0.01782636,0.56842
490.501,54.7843,-3.13077,0.0200344,0.5669
493.501,55.0749,-3.13368,0.02286319,0.56538
496.501,55.36591,-3.13626,0.03761897,0.56386
499.501,55.65705,-3.14021,0.0526217,0.56233
502.501,55.9482,-3.14609,0.05171338,0.5608
505.501,56.2398,-3.14855,0.06136124,0.55927
508.501,56.5326,-3.15172,0.060173,0.55774
511.501,56.8252,-3.1537,0.06095133,0.55621
514.501,57.1184,-3.155,0.06608209,0.55468
517.501,57.41169,-3.16034,0.061486,0.55314
520.501,57.7057,-3.15967,0.04606865,0.55161
523.501,57.99901,-3.16372,0.03374407,0.55007
526.501,58.29257,-3.16885,0.02891182,0.54854
529.501,58.5865,-3.17136,0.02791399,0.54701
532.501,58.88097,-3.17355,0.0209315,0.54547
535.501,59.17584,-3.17805,0.02373677,0.54394
538.501,59.471,-3.17972,0.02288817,0.54241
541.501,59.7665,-3.18277,0.01733072,0.54088
544.501,60.06216,-3.18449,0.01713888,0.53935
547.501,60.3583,-3.18785,0.01518958,0.53783
550.501,60.65445,-3.18969,0.008380263,0.5363
553.501,60.95049,-3.19176,0.00951447,0.53478
556.501,61.2472,-3.19528,0.00595319,0.53326
559.501,61.54526,-3.19605,0.01335485,0.53175
562.501,61.8417,-3.19801,0.009022774,0.53023
565.501,62.1389,-3.19669,0.01612199,0.52872
568.501,62.43546,-3.20065,0.01351741,0.52721
571.501,62.73265,-3.202,0.01210956,0.52571
574.501,63.0309,-3.20436,0.01686782,0.52421
577.501,63.32809,-3.20635,0.01753396,0.52271
580.501,63.6263,-3.20711,0.02460001,0.52121
583.501,63.92476,-3.20965,0.0238836,0.51972
586.501,64.22381,-3.20855,0.02932602,0.51824
589.501,64.5236,-3.20726,0.0355502,0.51676
592.501,64.82373,-3.21264,0.05009299,0.51528
595.501,65.12402,-3.21182,0.05148267,0.51381
598.501,65.42407,-3.21272,0.05907805,0.51234
601.501,65.72368,-3.21258,0.07648866,0.51088
604.501,66.0237,-3.21273,0.08145934,0.50943
607.501,66.32417,-3.21844,0.09080381,0.50797
610.501,66.6254,-3.22215,0.09617058,0.50653
613.501,66.92756,-3.21558,0.12101,0.50509
616.501,67.22856,-3.21677,0.1171,0.50365
619.501,67.5293,-3.22277,0.11532,0.50223
622.501,67.8314,-3.21545,0.11664,0.5008
625.501,68.13377,-3.21936,0.11224,0.49939
628.501,68.4361,-3.22242,0.11507,0.49798
631.501,68.73785,-3.22389,0.11203,0.49657
634.501,69.04011,-3.22423,0.12785,0.49518
637.501,69.3434,-3.22455,0.14125,0.49379
640.501,69.64672,-3.22588,0.1485,0.4924
643.501,69.95005,-3.22587,0.15162,0.49103
646.501,70.2531,-3.22736,0.15093,0.48966
649.501,70.557,-3.2285,0.15874,0.4883
652.501,70.8595,-3.22875,0.17235,0.48694
655.501,71.16298,-3.23335,0.19206,0.48559
658.501,71.46728,-3.2273,0.20752,0.48425
661.501,71.77195,-3.22923,0.21388,0.48292
664.501,72.07681,-3.23229,0.20763,0.48159
667.501,72.3814,-3.2322,0.20568,0.48028
670.501,72.68677,-3.23194,0.22698,0.47897
673.501,72.992,-3.23146,0.2475,0.47766
676.501,73.2971,-3.23156,0.2508,0.47637
679.501,73.6019,-3.23132,0.26576,0.47508
682.501,73.90775,-3.23332,0.25203,0.4738
685.501,74.2139,-3.23214,0.27479,0.47253
688.501,74.52067,-3.23378,0.2854,0.47127
691.501,74.82769,-3.2351,0.30048,0.47001
694.501,75.1344,-3.23716,0.3045,0.46877
697.501,75.44142,-3.23377,0.30739,0.46753
700.501,75.74721,-3.23661,0.30548,0.4663
703.501,76.05336,-3.23871,0.29847,0.46508
706.501,76.36013,-3.24114,0.30814,0.46386
709.501,76.66736,-3.24014,0.31871,0.46266
712.501,76.9742,-3.23792,0.32624,0.46146
715.501,77.28268,-3.2409,0.35125,0.46027
718.501,77.59054,-3.23958,0.35874,0.45909
721.501,77.89855,-3.24188,0.35806,0.45792
724.501,78.20744,-3.24123,0.3646,0.45676
727.501,78.51559,-3.24248,0.37101,0.45561
730.501,78.82366,-3.24397,0.37437,0.45446
733.501,79.1327,-3.24133,0.38583,0.45332
736.501,79.4406,-3.24333,0.38458,0.45219
739.501,79.7492,-3.24266,0.38736,0.45107
741.901,79.99755,-3.24528,0.39097,0.45018