File: 01_Data/Cotton_Ball/STA/N2/10K_min/Cotton_Ball_STA_N2_10KData_210712_R1.csv
##Temp./Â°C,Time/min,Mass loss(subtr.2)/mg,DSC(subtr.2)/(mW/mg),Sensit./(uV/mW)
49.293,10.01,-0.02292,0.03895183,0.6183
51.893,12.24337,-0.0264795,0.10465,0.61967
54.493,12.88144,-0.02488385,0.13803,0.62103
57.093,13.38688,-0.02650721,0.16542,0.62235
59.693,13.8337,-0.02731888,0.18347,0.62366
62.293,14.2415,-0.02754781,0.20161,0.62494
64.893,14.6258,-0.03016179,0.21573,0.62619
67.493,14.9886,-0.03316223,0.23024,0.62743
70.093,15.33569,-0.03267618,0.24337,0.62864
72.693,15.6705,-0.03499,0.26054,0.62982
75.293,15.99337,-0.03848033,0.27295,0.63099
77.893,16.30614,-0.03850938,0.28822,0.63212
80.493,16.6112,-0.04125081,0.30138,0.63324
83.093,16.90842,-0.04254504,0.30957,0.63433
85.693,17.19826,-0.04648865,0.32306,0.6354
88.293,17.48274,-0.04803862,0.33179,0.63644
90.893,17.7612,-0.05176833,0.34092,0.63746
93.493,18.0364,-0.05438066,0.34292,0.63846
96.093,18.3065,-0.05697082,0.34832,0.63943
98.693,18.57387,-0.05967513,0.35306,0.64038
101.293,18.8379,-0.06099151,0.35552,0.6413
103.893,19.09935,-0.06492989,0.35522,0.6422
106.493,19.3592,-0.0678842,0.35388,0.64308
109.093,19.6173,-0.07019956,0.35908,0.64393
111.693,19.8733,-0.07401329,0.35599,0.64476
114.293,20.12769,-0.07548357,0.35542,0.64557
116.893,20.3814,-0.0782016,0.35271,0.64635
119.493,20.63342,-0.08086517,0.35198,0.64711
122.093,20.88384,-0.08117372,0.35081,0.64785
124.693,21.133,-0.08117841,0.34576,0.64856
127.293,21.38008,-0.08379995,0.34556,0.64925
129.893,21.626,-0.08546017,0.34291,0.64991
132.493,21.87056,-0.08643497,0.34116,0.65055
135.093,22.11318,-0.08807,0.34023,0.65117
137.693,22.35555,-0.08939,0.33863,0.65176
140.293,22.5962,-0.0907,0.3374,0.65234
142.893,22.83604,-0.09202056,0.33649,0.65288
145.493,23.07478,-0.09202009,0.33521,0.65341
148.093,23.31285,-0.09235961,0.33697,0.65391
150.693,23.5505,-0.09075687,0.33387,0.65439
153.293,23.78715,-0.09336194,0.33325,0.65484
155.893,24.02425,-0.09465997,0.33474,0.65527
158.493,24.26022,-0.09466,0.33459,0.65568
161.093,24.4959,-0.09564853,0.33576,0.65607
163.693,24.7311,-0.09460658,0.33481,0.65643
166.293,24.9668,-0.09530306,0.33607,0.65677
168.893,25.20204,-0.09556014,0.33716,0.65709
171.493,25.43729,-0.09686,0.33852,0.65739
174.093,25.67156,-0.09751006,0.34212,0.65766
176.693,25.9063,-0.09553996,0.34174,0.65791
179.293,26.1404,-0.09751041,0.33983,0.65814
181.893,26.37275,-0.09618985,0.34419,0.65835
184.493,26.6066,-0.0918062,0.34574,0.65853
187.093,26.8391,-0.09532032,0.34562,0.6587
189.693,27.07115,-0.09925905,0.34644,0.65884
192.293,27.3029,-0.09793797,0.34805,0.65895
194.893,27.53479,-0.10063,0.35456,0.65905
197.493,27.7665,-0.09882827,0.35648,0.65913
200.093,27.9978,-0.10129,0.35229,0.65918
202.693,28.2291,-0.10321,0.35602,0.65921
205.293,28.4605,-0.09946459,0.35635,0.65922
207.893,28.69195,-0.1008,0.35897,0.65921
210.493,28.9234,-0.10343,0.35957,0.65918
213.093,29.1546,-0.10483,0.36135,0.65913
215.693,29.38583,-0.10573,0.35905,0.65906
218.293,29.61757,-0.10378,0.36266,0.65897
220.893,29.84863,-0.1054,0.3601,0.65885
223.493,30.0803,-0.1077,0.35924,0.65872
226.093,30.3121,-0.10772,0.35643,0.65856
228.693,30.5433,-0.10529,0.35913,0.65839
231.293,30.77522,-0.11127,0.35709,0.65819
233.893,31.00698,-0.11174,0.36132,0.65798
236.493,31.2385,-0.11528,0.36044,0.65774
239.093,31.47073,-0.11823,0.36051,0.65749
241.693,31.7022,-0.12054,0.36003,0.65722
244.293,31.934,-0.12218,0.35957,0.65692
246.893,32.16648,-0.12617,0.35638,0.65661
249.493,32.3983,-0.13031,0.35916,0.65628
252.093,32.63125,-0.13437,0.35454,0.65593
254.693,32.86293,-0.13957,0.35344,0.65556
257.293,33.09563,-0.14512,0.34915,0.65517
259.893,33.32809,-0.15213,0.34732,0.65477
262.493,33.56068,-0.15867,0.3433,0.65434
265.093,33.79331,-0.16843,0.33835,0.6539
267.693,34.0259,-0.17632,0.3359,0.65344
270.293,34.2583,-0.18801,0.33269,0.65296
272.893,34.49125,-0.20482,0.32325,0.65247
275.493,34.7241,-0.21296,0.31934,0.65196
278.093,34.95715,-0.22259,0.31064,0.65143
280.693,35.1905,-0.24437,0.30276,0.65088
283.293,35.42365,-0.25625,0.29399,0.65031
285.893,35.6575,-0.28662,0.28946,0.64973
288.493,35.89118,-0.31113,0.28687,0.64913
291.093,36.12509,-0.33719,0.28217,0.64852
293.693,36.35917,-0.36797,0.27761,0.64789
296.293,36.5934,-0.40069,0.28126,0.64724
298.893,36.82842,-0.44173,0.2848,0.64658
301.493,37.0633,-0.48532,0.28893,0.6459
304.093,37.29852,-0.5326,0.29479,0.64521
306.693,37.53368,-0.58625,0.29998,0.6445
309.293,37.76885,-0.65027,0.31316,0.64377
311.893,38.00393,-0.70915,0.31711,0.64303
314.493,38.23957,-0.78324,0.32797,0.64228
317.093,38.47505,-0.8611,0.34198,0.64151
319.693,38.7112,-0.95461,0.35219,0.64072
322.293,38.94686,-1.05804,0.37073,0.63992
324.893,39.18285,-1.17521,0.38275,0.63911
327.493,39.41902,-1.30749,0.40082,0.63828
330.093,39.65506,-1.45447,0.41721,0.63744
332.693,39.89165,-1.61015,0.43841,0.63659
335.293,40.12842,-1.78396,0.45948,0.63572
337.893,40.3654,-1.9637,0.47183,0.63484
340.493,40.60309,-2.14941,0.48491,0.63395
343.093,40.8409,-2.33544,0.48876,0.63304
345.693,41.07905,-2.50586,0.47651,0.63212
348.293,41.31815,-2.67025,0.45061,0.63119
350.893,41.557,-2.81373,0.41275,0.63025
353.493,41.7969,-2.9363,0.36678,0.62929
356.093,42.03651,-3.03774,0.30667,0.62833
358.693,42.27557,-3.12069,0.24956,0.62735
361.293,42.5158,-3.18397,0.19674,0.62636
363.893,42.756,-3.23259,0.14311,0.62536
366.493,42.99563,-3.26567,0.09919885,0.62434
369.093,43.23585,-3.28908,0.07093,0.62332
371.693,43.47607,-3.30761,0.05447403,0.62228
374.293,43.7168,-3.3169,0.04192076,0.62124
376.893,43.95765,-3.33278,0.03806502,0.62018
379.493,44.19898,-3.34155,0.03623281,0.61912
382.093,44.44092,-3.34969,0.03029947,0.61804
384.693,44.6828,-3.35894,0.02388315,0.61696
387.293,44.92409,-3.36751,0.02076865,0.61586
389.893,45.16682,-3.37559,0.01837919,0.61476
392.493,45.40961,-3.38454,0.01737115,0.61365
395.093,45.65294,-3.39056,0.01375291,0.61252
397.693,45.8962,-3.39684,0.01093431,0.61139
400.293,46.1396,-3.404,0.00689598,0.61026
402.893,46.38301,-3.41412,0.005463248,0.60911
405.493,46.627,-3.42082,0.002484449,0.60795
408.093,46.87109,-3.42821,0.004282665,0.60679
410.693,47.1155,-3.43445,-0.000972088,0.60562
413.293,47.36051,-3.4437,0.001753825,0.60444
415.893,47.6054,-3.44983,-0.00346211,0.60325
418.493,47.85053,-3.45581,-0.0051668,0.60206
421.093,48.0965,-3.46502,-0.00652491,0.60086
423.693,48.34236,-3.4717,-0.00928555,0.59965
426.293,48.58873,-3.47783,-0.01430811,0.59844
428.893,48.83464,-3.4845,-0.01482344,0.59722
431.493,49.0813,-3.49078,-0.01701831,0.59599
434.093,49.32756,-3.49725,-0.01882901,0.59476
436.693,49.57458,-3.50414,-0.01957379,0.59352
439.293,49.8217,-3.51204,-0.0176522,0.59228
441.893,50.06888,-3.51995,-0.02107185,0.59103
444.493,50.31668,-3.52465,-0.01946926,0.58977
447.093,50.56475,-3.53121,-0.02082015,0.58851
449.693,50.81317,-3.53819,-0.02139054,0.58725
452.293,51.0618,-3.54285,-0.01772945,0.58598
454.893,51.31027,-3.54933,-0.02426288,0.58471
457.493,51.55932,-3.5558,-0.02176977,0.58343
460.093,51.80823,-3.56183,-0.0213911,0.58215
462.693,52.05701,-3.5673,-0.02574245,0.58086
465.293,52.3057,-3.57418,-0.02795914,0.57957
467.893,52.55633,-3.57983,-0.02581146,0.57828
470.493,52.806,-3.58411,-0.02345724,0.57698
473.093,53.05607,-3.59113,-0.02237926,0.57568
475.693,53.30636,-3.59442,-0.02548959,0.57438
478.293,53.5571,-3.60032,-0.02464664,0.57307
480.893,53.80786,-3.60527,-0.01788975,0.57176
483.493,54.05921,-3.60791,-0.01773154,0.57045
486.093,54.31122,-3.61392,-0.02088461,0.56914
488.693,54.56371,-3.61798,-0.01926112,0.56782
491.293,54.81567,-3.62387,-0.01735775,0.5665
493.893,55.0672,-3.62468,-0.0192654,0.56518
496.493,55.3193,-3.62973,-0.01515951,0.56386
499.093,55.57192,-3.63399,-0.01553454,0.56254
501.693,55.82479,-3.6395,-0.0174578,0.56121
504.293,56.0774,-3.64236,-0.00663702,0.55989
506.893,56.33125,-3.64617,-0.00173733,0.55856
509.493,56.5849,-3.64884,0.0105936,0.55723
512.093,56.8383,-3.65114,0.050351,0.55591
514.693,57.0927,-3.65639,0.07066309,0.55458
517.293,57.3477,-3.65605,0.07988182,0.55325
519.893,57.60258,-3.66198,0.07213745,0.55192
522.493,57.85739,-3.66461,0.07346024,0.55059
525.093,58.11254,-3.66478,0.0736135,0.54926
527.693,58.368,-3.66798,0.0728007,0.54793
530.293,58.6235,-3.67281,0.07127467,0.5466
532.893,58.87868,-3.67428,0.07486564,0.54527
535.493,59.13406,-3.67669,0.07025577,0.54395
538.093,59.38939,-3.68044,0.07301955,0.54262
540.693,59.64566,-3.68195,0.06950787,0.54129
543.293,59.90121,-3.68566,0.07198181,0.53997
545.893,60.1572,-3.6861,0.06545925,0.53865
548.493,60.41316,-3.68699,0.06611847,0.53732
551.093,60.6695,-3.68962,0.07025703,0.536
553.693,60.9274,-3.69358,0.069156,0.53469
556.293,61.18455,-3.69642,0.07195759,0.53337
558.893,61.4416,-3.69795,0.0740388,0.53205
561.493,61.6988,-3.7031,0.07582417,0.53074
564.093,61.9567,-3.70338,0.08417275,0.52943
566.693,62.2139,-3.70542,0.08861401,0.52812
569.293,62.47186,-3.70638,0.09043027,0.52681
571.893,62.73005,-3.71035,0.09596367,0.52551
574.493,62.98803,-3.71037,0.09339945,0.52421
577.093,63.24722,-3.71263,0.09665529,0.52291
579.693,63.5059,-3.7154,0.099265,0.52162
582.293,63.7648,-3.71579,0.10379,0.52032
584.893,64.02381,-3.71947,0.10468,0.51903
587.493,64.28319,-3.72077,0.1071,0.51775
590.093,64.54224,-3.72208,0.10984,0.51647
592.693,64.802,-3.72538,0.11173,0.51519
595.293,65.06182,-3.72509,0.11321,0.51391
597.893,65.3212,-3.72647,0.11129,0.51264
600.493,65.5814,-3.72801,0.11718,0.51137
603.093,65.84182,-3.72965,0.12024,0.51011
605.693,66.1023,-3.73227,0.11921,0.50885
608.293,66.36282,-3.7336,0.12103,0.50759
610.893,66.6233,-3.73349,0.12369,0.50634
613.493,66.88319,-3.73352,0.12489,0.50509
616.093,67.14449,-3.73488,0.12392,0.50385
618.693,67.40531,-3.7372,0.12956,0.50261
621.293,67.6669,-3.73836,0.12329,0.50138
623.893,67.92885,-3.73854,0.13527,0.50015
626.493,68.18985,-3.74128,0.13285,0.49892
629.093,68.45243,-3.74024,0.14166,0.4977
631.693,68.7146,-3.74304,0.14865,0.49648
634.293,68.9765,-3.74172,0.15435,0.49527
636.893,69.23869,-3.74358,0.15966,0.49407
639.493,69.50097,-3.74577,0.15731,0.49287
642.093,69.76346,-3.74577,0.15674,0.49167
644.393,69.99551,-3.74707,0.15223,0.49062