File: 01_Data/Plastic_Laminate_Counterop/Cone/Plastic_Laminate_Countertop_Cone_HF25Scan_220509_R2.csv
Names,Time,Stack TC,Smoke TC,Exh Press,Smoke Comp,Smoke Meas,CO Meter,CO2 Meter,O2 Meter,Sample Mass,Ext Coeff,Start Test,Flame Verif
Chan Gain,,500,500,1,1,1,1,1,1,1,1,1.0,1.0
Offset,,0,0,0.136848,0,0,0,0,0,0,0,0.0,0.0
Gain,,1,1,25.011,13.1423,14.7137,1,1,1,1.0009,1.01396,1.0,1.0
Units,sec,C,C,Pa,%,%,%,%,%,g,/m,,
Baseline,,21.9851,22.4499,147.379,99.6185,102.463,0.000538629,0.0434118,20.9928,-442.593,-0.250364,,
158,39.25,20.5033,21.3824,148.641,99.8201,102.507,0.000717311,0.042268,20.9941,750.133,-0.236207,0.0,0.0
316,78.75,20.7145,21.8748,149.34,99.3429,100.426,0.00169942,0.0502444,20.9898,749.693,-0.0964707,0.0,0.0
474,118.25,22.3489,22.4399,144.542,100.152,103.253,0.00156464,0.0871143,20.949,748.682,-0.271184,0.0,0.0
632,157.75,21.7051,22.5293,145.954,99.6954,102.502,0.00204564,0.0558333,20.9849,748.061,-0.246899,0.0,0.0
790,197.25,21.0183,21.8186,148.356,99.677,102.713,0.00163217,0.0525869,20.9833,747.731,-0.266879,0.0,0.0
948,236.75,20.7684,21.8299,145.398,99.8907,102.495,0.00200745,0.0464934,20.9921,747.441,-0.228905,0.0,0.0
1106,276.25,20.6566,21.8201,142.111,100.141,102.944,0.00167817,0.0498558,20.9876,747.141,-0.245533,0.0,0.0
1264,315.75,20.8928,21.2771,147.725,99.8811,102.896,0.00215998,0.0464319,20.9952,746.85,-0.264492,0.0,0.0
1422,355.25,20.6277,21.3219,144.427,99.4062,102.285,0.00205031,0.0472486,20.993,746.52,-0.253935,0.0,0.0
1580,394.75,20.9726,21.7791,142.079,99.63,103.018,0.00190365,0.0472544,20.9906,746.19,-0.297389,0.0,0.0
1738,434.25,21.2764,21.7395,150.367,99.845,103.13,0.00224498,0.0484942,20.9937,745.789,-0.287945,0.0,0.0
1896,473.75,20.7544,21.8524,145.667,99.8009,103.281,0.00292267,0.0507975,20.9938,745.299,-0.304839,0.0,0.0
2054,513.25,22.2285,22.5578,145.388,99.411,102.685,0.00221166,0.0639172,20.9788,744.638,-0.288227,0.0,0.0
2212,552.75,22.8994,22.8115,141.805,98.9145,102.502,0.00405117,0.0716711,20.9744,743.717,-0.316841,0.0,0.0
2370,592.25,23.9514,24.2226,144.94,98.6703,100.894,0.00534878,0.0997685,20.9432,742.296,-0.198198,0.0,0.0
2528,631.75,26.0905,26.712,143.534,98.6346,100.97,0.00578863,0.123732,20.9175,740.364,-0.208143,0.0,0.0
2686,671.25,27.6848,28.3173,142.067,98.5764,100.244,0.00587444,0.131745,20.9069,738.132,-0.149198,0.0,0.0
2844,710.75,28.0796,28.6878,140.25,98.57,100.273,0.00541571,0.125471,20.9135,735.97,-0.152366,0.0,0.0
3002,750.25,28.3469,29.2687,144.386,98.5965,101.877,0.00457151,0.118509,20.9183,734.049,-0.291161,0.0,0.0
3160,789.75,28.0813,29.8569,143.157,98.6169,102.263,0.00360183,0.110705,20.926,732.287,-0.322888,0.0,0.0
3318,829.25,28.0993,29.6032,139.723,98.6109,101.836,0.00307081,0.109874,20.9257,730.646,-0.286252,0.0,0.0
3476,868.75,28.785,29.414,142.27,98.5648,103.027,0.00297594,0.10586,20.9299,729.164,-0.393854,0.0,0.0
3634,908.25,28.2437,28.8398,142.082,98.5495,102.542,0.00305811,0.100513,20.9328,727.753,-0.353265,0.0,0.0
3792,947.75,27.553,28.5509,142.235,98.7011,102.419,0.00245356,0.0964413,20.9387,726.432,-0.328836,0.0,0.0
3950,987.25,27.3716,28.2216,145.539,99.0015,102.624,0.00274587,0.0949351,20.9392,725.201,-0.31961,0.0,0.0
4108,1026.75,27.4338,28.0923,145.173,99.3557,102.559,0.00278942,0.0939812,20.9414,724,-0.282205,0.0,0.0
4266,1066.25,27.0315,28.2411,145.13,99.8225,103.886,0.00279892,0.0934036,20.9397,722.799,-0.354883,0.0,0.0
4424,1105.75,27.2427,28.0282,139.81,99.693,103.297,0.00266408,0.0928281,20.9401,721.658,-0.31589,0.0,0.0
4582,1145.25,27.0129,27.5251,141.058,99.3304,102.846,0.00366716,0.0917909,20.9432,720.477,-0.309355,0.0,0.0
4740,1184.75,26.662,28.2196,141.126,99.7941,103.265,0.00305459,0.0913393,20.9439,719.326,-0.304093,0.0,0.0
4898,1224.25,26.8533,27.9771,144.336,100.125,103.625,0.00305302,0.0905925,20.9401,718.185,-0.305579,0.0,0.0
5056,1263.75,27.0033,27.7919,138.69,99.6489,103.67,0.00367695,0.0904797,20.9424,717.013,-0.35186,0.0,0.0
5214,1303.25,26.2759,27.8264,144.692,99.7852,103.493,0.00353021,0.0905174,20.9426,715.872,-0.324505,0.0,0.0
5372,1342.75,26.5138,27.4778,144.031,100.072,103.552,0.00351598,0.0909366,20.9438,714.691,-0.30407,0.0,0.0
5530,1382.25,26.2259,27.5785,146.81,100.244,103.895,0.00367448,0.090175,20.9425,713.53,-0.318169,0.0,0.0
5688,1421.75,26.94,27.2951,144.866,100.388,103.906,0.00393839,0.0892199,20.9439,712.379,-0.306367,0.0,0.0
5846,1461.25,26.841,27.5905,144.958,100.472,103.956,0.00367078,0.0884013,20.9453,711.228,-0.303171,0.0,0.0
6004,1500.75,26.4865,27.7575,142.919,100.397,103.756,0.00369613,0.0874672,20.9497,710.027,-0.292738,0.0,0.0
6162,1540.25,25.9736,27.0334,145.268,99.928,103.546,0.00386761,0.0869332,20.9477,708.916,-0.316301,0.0,0.0
6320,1579.75,26.2975,27.1983,142.948,98.9338,102.64,0.00349062,0.0907045,20.9446,707.745,-0.327141,0.0,0.0
6478,1619.25,27.337,27.6588,144.966,98.5656,102.318,0.00352332,0.0921142,20.942,706.614,-0.332283,0.0,0.0
6636,1658.75,26.8033,27.8716,143.851,98.876,102.728,0.00341251,0.0932519,20.9414,705.493,-0.339958,0.0,0.0
6794,1698.25,27.1229,27.978,142.175,99.2169,102.822,0.00324099,0.0942708,20.9384,704.352,-0.317466,0.0,0.0
6952,1737.75,27.7488,28.3166,139.73,99.5109,103.183,0.00328941,0.0957373,20.9376,703.171,-0.322286,0.0,0.0
7110,1777.25,27.3584,28.1875,143.935,99.6613,103.34,0.00314517,0.0968006,20.9328,702,-0.322428,0.0,0.0
7268,1816.75,27.6268,28.3094,143.035,99.7139,103.652,0.00358124,0.0973697,20.9337,700.799,-0.344482,0.0,0.0
7426,1856.25,28.1285,28.826,145.398,99.7387,103.569,0.00331966,0.098105,20.9353,699.598,-0.335172,0.0,0.0
7584,1895.75,27.9717,29.0135,144.273,99.8278,103.737,0.00336979,0.0974343,20.937,698.407,-0.341646,0.0,0.0
7742,1935.25,27.9544,28.5388,141.33,99.5807,104.568,0.00403264,0.0967263,20.9378,697.186,-0.434625,0.0,0.0
7900,1974.75,27.6161,28.7578,144.524,99.2931,103.25,0.00382747,0.0959763,20.9349,695.995,-0.347538,0.0,0.0
8058,2014.25,27.2909,28.8751,140.726,99.2799,103.559,0.00386705,0.0953058,20.9371,694.774,-0.375297,0.0,0.0
8216,2053.75,27.5621,28.882,147.042,99.5358,103.079,0.00403497,0.0930431,20.9386,693.602,-0.311117,0.0,0.0
8374,2093.25,27.2144,28.1814,145.29,99.9713,103.554,0.00462458,0.0894351,20.9443,692.411,-0.313141,0.0,0.0
8532,2132.75,27.5211,28.583,144.516,99.8474,103.491,0.00419138,0.0880513,20.9473,691.28,-0.318811,0.0,0.0
8690,2172.25,27.1724,28.0157,145.372,100.252,103.732,0.00478792,0.0834179,20.9502,690.109,-0.303532,0.0,0.0
8848,2211.75,27.0262,27.4797,144.159,100.44,104.136,0.00460356,0.0823679,20.9493,688.958,-0.321404,0.0,0.0
9006,2251.25,26.3022,27.6266,142.788,100.311,103.569,0.00467001,0.0820407,20.9521,687.877,-0.284241,0.0,0.0
9164,2290.75,26.6004,27.5166,141.659,100.1,103.54,0.00475976,0.0807385,20.9522,686.796,-0.300501,0.0,0.0
9322,2330.25,26.1152,26.9592,146.058,99.6465,103.04,0.00482205,0.0812726,20.9536,685.705,-0.297899,0.0,0.0
9480,2369.75,26.626,27.1038,143.884,99.3364,102.69,0.00454698,0.0808956,20.9527,684.614,-0.295292,0.0,0.0
9638,2409.25,26.5116,27.4507,138.204,99.2907,102.553,0.00451416,0.0813233,20.9513,683.573,-0.287517,0.0,0.0
9796,2448.75,26.2754,27.5985,142.172,98.9534,102.416,0.0045743,0.0810496,20.9507,682.523,-0.305937,0.0,0.0
9954,2488.25,26.3479,27.2931,143.083,98.5784,102.137,0.00493516,0.0800879,20.9549,681.482,-0.315419,0.0,0.0
10112,2527.75,26.7108,27.1297,145.721,98.7517,102.034,0.00497613,0.0808381,20.9514,680.381,-0.290802,0.0,0.0
10270,2567.25,26.5995,27.289,146.229,99.0393,102.108,0.00463302,0.082833,20.9535,679.34,-0.271395,0.0,0.0
10428,2606.75,26.2127,26.8343,145.862,98.9342,102.703,0.00440638,0.0840729,20.9487,678.259,-0.332512,0.0,0.0
10586,2646.25,26.0062,26.6415,144.337,98.7609,102.245,0.00438273,0.0851421,20.948,677.188,-0.308349,0.0,0.0
10744,2685.75,26.213,27.5571,146.228,98.6719,102.705,0.00442834,0.0856918,20.9493,676.087,-0.356319,0.0,0.0
10902,2725.25,26.3256,27.177,143.85,98.6462,101.826,0.00432806,0.0858196,20.9497,675.006,-0.282206,0.0,0.0
11060,2764.75,26.8669,27.5805,141.535,98.5897,102.241,0.00477825,0.0868024,20.9475,673.895,-0.323473,0.0,0.0
11218,2804.25,26.7483,27.3033,145.796,98.5804,101.678,0.00414417,0.0880824,20.9466,672.814,-0.275147,0.0,0.0
11376,2843.75,26.8994,28.1674,145.632,98.5876,101.968,0.00442547,0.0919373,20.944,671.703,-0.299872,0.0,0.0
11534,2883.25,27.2684,27.8337,145.333,98.5917,102.23,0.00395888,0.0944332,20.9374,670.562,-0.322277,0.0,0.0
11692,2922.75,27.7098,28.447,143.663,99.3749,102.46,0.00363552,0.0964707,20.937,669.371,-0.27195,0.0,0.0
11850,2962.25,28.0826,28.8376,142.139,99.7953,103.721,0.00362135,0.100098,20.9329,668.2,-0.343155,0.0,0.0
12008,3001.75,28.6498,29.0317,138.847,99.8197,104.182,0.00358281,0.102949,20.9299,666.939,-0.380432,0.0,0.0
12166,3041.25,28.419,29.6054,142.813,99.7467,103.334,0.00298607,0.105615,20.9271,665.697,-0.314228,0.0,0.0
12324,3080.75,28.7696,29.7671,141.319,99.45,103.553,0.00337806,0.108702,20.9239,664.376,-0.359612,0.0,0.0
12482,3120.25,29.2692,29.7987,145.027,98.8985,103.132,0.00299821,0.111561,20.9203,663.035,-0.372781,0.0,0.0
12640,3159.75,29.3235,30.3912,141.395,98.5612,102.705,0.00274271,0.115334,20.9174,661.614,-0.366264,0.0,0.0
12798,3199.25,29.505,29.9786,144.02,98.874,102.711,0.00305054,0.118861,20.9128,660.152,-0.338661,0.0,0.0
12956,3238.75,30.0727,31.3745,141.509,99.4824,103.674,0.00312026,0.123811,20.9059,658.631,-0.367114,0.0,0.0
13114,3278.25,30.5011,31.9665,141.89,99.8238,105.209,0.00271842,0.130415,20.9022,657,-0.467355,0.0,0.0
13272,3317.75,31.982,33.0111,143.475,100.141,105.351,0.00309875,0.136097,20.894,655.278,-0.451156,0.0,0.0
13430,3357.25,31.9935,32.8753,143.554,100.378,105.242,0.00290176,0.139519,20.8917,653.506,-0.420838,0.0,0.0
13588,3396.75,32.0932,33.4168,142.254,100.445,105.097,0.00263197,0.140382,20.8925,651.715,-0.402674,0.0,0.0
13746,3436.25,32.6625,33.691,141.203,100.356,105.401,0.00255321,0.141477,20.8888,649.883,-0.436252,0.0,0.0
13904,3475.75,32.886,34.2763,140.084,100.083,104.701,0.00267854,0.144605,20.8833,648.032,-0.401262,0.0,0.0
14062,3515.25,33.0223,34.7021,143.106,99.8326,105.018,0.00265801,0.147355,20.8824,646.09,-0.450421,0.0,0.0
14220,3554.75,32.8044,34.9857,141.49,99.7844,105.089,0.00273878,0.150242,20.8795,644.118,-0.460716,0.0,0.0
14378,3594.25,33.9098,34.9788,140.023,99.9573,105.356,0.00276095,0.153523,20.877,642.096,-0.467829,0.0,0.0
14536,3633.75,32.135,33.5228,139.572,99.8723,105.131,0.00257024,0.157925,20.8706,640.094,-0.456386,0.0,0.0
14694,3673.25,32.6978,33.6917,145.41,100.059,105.34,0.00219163,0.159563,20.8672,638.003,-0.45748,0.0,0.0
14852,3712.75,32.9046,34.3511,140.116,100.361,105.19,,0.160303,,635.971,-0.418003,0.0,0.0
14892,3722.75,32.9826,34.6662,140.252,100.394,105.467,,,,635.45,-0.43841,0.0,0.0