File: 01_Data/Plastic_Laminate_Counterop/Cone/Plastic_Laminate_Countertop_Cone_HF50Scan_220504_R1.csv
Names,Time,Stack TC,Smoke TC,Exh Press,Smoke Comp,Smoke Meas,CO Meter,CO2 Meter,O2 Meter,Sample Mass,Ext Coeff,Start Test,Flame Verif
Chan Gain,,500,500,1,1,1,1,1,1,1,1,1.0,1.0
Offset,,0,0,0.134921,0,0,0,0,0,0,0,0.0,0.0
Gain,,1,1,25.011,13.0391,14.631,1,1,1,1.0009,1.01612,1.0,1.0
Units,sec,C,C,Pa,%,%,%,%,%,g,/m,,
Baseline,,32.8061,33.97,132.553,99.0103,101.658,0.00109404,0.0579748,21.0083,-477.229,-0.235161,,
190,47.25,43.3105,43.2585,123.907,98.4468,104.079,0.00340621,0.323025,20.7176,715.043,-0.495925,0.0,0.0
380,94.75,43.1839,45.4864,130.307,98.9147,102.702,0.00489746,0.143888,20.917,712.17,-0.334943,0.0,0.0
570,142.25,43.6085,45.845,119.179,99.1507,99.3805,0.00504762,0.223018,20.8127,709.678,-0.0206316,0.0,0.0
760,189.75,51.6301,53.4205,123.351,99.179,100.173,0.0051267,0.331149,20.6962,705.044,-0.088892,0.0,0.0
950,237.25,54.9217,58.0514,121.705,99.0942,101.989,0.00608134,0.320248,20.7135,700.059,-0.256684,0.0,0.0
1140,284.75,54.6962,58.5551,119.632,98.8459,103.202,0.00508742,0.289573,20.7487,695.475,-0.384405,0.0,0.0
1330,332.25,55.0615,58.1799,127.107,99.3202,104.712,0.00285773,0.271913,20.7682,691.091,-0.471175,0.0,0.0
1520,379.75,54.9394,58.1066,122.661,99.5924,105.31,0.00208532,0.257921,20.7823,687.038,-0.497567,0.0,0.0
1710,427.25,54.8281,57.6302,121.732,99.4957,105.164,0.00199594,0.251916,20.789,683.364,-0.493897,0.0,0.0
1900,474.75,54.396,57.4579,121.462,99.2036,104.972,0.00170803,0.244037,20.7964,679.841,-0.503775,0.0,0.0
2090,522.25,53.4772,56.1146,121.904,98.512,104.165,0.00153654,0.232021,20.8104,676.518,-0.497358,0.0,0.0
2280,569.75,52.7268,55.3671,119.056,97.9788,103.326,0.00143904,0.219411,20.83,673.395,-0.473613,0.0,0.0
2470,617.25,51.5417,54.1041,123.666,97.8754,102.657,0.00171639,0.208089,20.8375,670.493,-0.425183,0.0,0.0
2660,664.75,50.7552,53.2643,125.391,98.3505,103.766,0.00174242,0.197733,20.8536,667.7,-0.477802,0.0,0.0
2850,712.25,49.5815,51.4928,125.43,98.8232,103.938,0.00172982,0.188907,20.8626,665.208,-0.449817,0.0,0.0
3040,759.75,48.6535,51.0269,126.544,99.0524,104.637,0.00165188,0.184221,20.8687,662.726,-0.488853,0.0,0.0
3230,807.25,48.6698,50.7564,125.865,99.0484,104.128,0.00209296,0.181996,20.8733,660.243,-0.445746,0.0,0.0
3420,854.75,48.4367,50.6897,127.55,98.9104,103.984,0.00199144,0.181149,20.8733,657.771,-0.445864,0.0,0.0
3610,902.25,47.9031,50.4804,125.138,98.6999,104.374,0.00183048,0.179358,20.8757,655.299,-0.498205,0.0,0.0
3800,949.75,47.8404,50.1279,126.889,98.522,102.522,0.00220143,0.176464,20.8772,652.907,-0.354774,0.0,0.0
3990,997.25,47.8968,49.3664,126.456,98.4953,103.711,0.00174721,0.174364,20.8832,650.565,-0.45989,0.0,0.0
4180,1044.75,47.2441,49.0371,125.373,98.52,103.983,0.00202719,0.174343,20.88,648.243,-0.480997,0.0,0.0
4370,1092.25,47.2299,49.4313,128.007,99.0735,103.6,0.00210102,0.173137,20.88,645.921,-0.398198,0.0,0.0
4560,1139.75,47.0395,49.1758,124.263,99.2247,103.748,0.00185678,0.172756,20.8847,643.578,-0.397311,0.0,0.0
4750,1187.25,47.5515,49.0259,124.27,99.1439,104.24,0.00185711,0.173072,20.8868,641.226,-0.446744,0.0,0.0
4940,1234.75,47.0256,49.0898,124.261,99.0218,102.921,0.00221236,0.174176,20.8811,638.824,-0.344271,0.0,0.0
5130,1282.25,47.0638,49.3008,124.431,98.8789,103.083,0.00216269,0.175945,20.8792,636.412,-0.371164,0.0,0.0
5320,1329.75,47.1295,49.0615,126.269,99.2168,103.952,0.00213476,0.17949,20.874,633.98,-0.415578,0.0,0.0
5510,1377.25,47.387,49.7848,122.748,99.5474,104.154,0.00212559,0.183694,20.869,631.558,-0.40317,0.0,0.0
5700,1424.75,47.8781,49.6407,123.766,99.6266,105.089,0.00187216,0.185086,20.8726,629.005,-0.475778,0.0,0.0
5890,1472.25,48.1728,49.8758,123.283,99.3954,104.179,0.00172576,0.187406,20.8712,626.413,-0.418969,0.0,0.0
6080,1519.75,48.7094,50.8718,123.365,99.0464,104.104,0.00184997,0.189716,20.8672,623.801,-0.443937,0.0,0.0
6270,1567.25,48.6476,50.5113,123.982,98.9478,103.943,0.00195402,0.192687,20.8629,621.158,-0.438973,0.0,0.0
6460,1614.75,49.0068,51.0946,120.505,98.7599,103.798,0.00217403,0.200104,20.8558,618.426,-0.443493,0.0,0.0
6650,1662.25,49.7065,51.378,123.364,98.7989,103.626,0.0019673,0.20323,20.8555,615.633,-0.425162,0.0,0.0
6840,1709.75,50.3637,52.2312,126.99,98.7874,104.313,0.00156138,0.209482,20.8467,612.771,-0.485153,0.0,0.0
7030,1757.25,50.8684,53.2239,122.985,98.6338,103.031,0.00203751,0.216268,20.8372,609.818,-0.388769,0.0,0.0
7220,1804.75,51.5056,53.8186,123.03,98.3274,103.789,0.00175485,0.224168,20.8262,606.735,-0.481811,0.0,0.0
7410,1852.25,52.9647,54.816,124.211,97.9593,104.058,0.00179051,0.236473,20.8102,603.563,-0.538333,0.0,0.0
7600,1899.75,53.3964,55.9444,120.36,97.9323,103.393,0.00171934,0.240031,20.8085,600.199,-0.483626,0.0,0.0
7790,1947.25,54.7978,56.3483,119.426,98.173,103.426,0.00213962,0.24404,20.802,596.806,-0.464628,0.0,0.0
7980,1994.75,54.7605,57.1356,127.908,98.6362,103.972,0.0018395,0.24403,20.7996,593.473,-0.469572,0.0,0.0
8170,2042.25,55.0275,55.7983,121.271,98.9151,106.214,0.00195966,0.243596,20.8014,590.19,-0.634589,0.0,0.0
8360,2089.75,55.0319,57.5717,121.255,99.058,104.465,0.00189952,0.245926,20.7968,586.968,-0.473734,0.0,0.0
8550,2137.25,55.4861,58.108,125.221,99.1197,105.144,0.00185787,0.249244,20.7924,583.635,-0.525944,0.0,0.0
8740,2184.75,55.4156,57.9446,122.814,99.0739,104.649,0.00210798,0.243279,20.7992,580.462,-0.487946,0.0,0.0
8930,2232.25,55.3307,57.5126,121.51,98.826,104.232,0.00197238,0.235449,20.8061,577.389,-0.474687,0.0,0.0
9120,2279.75,54.3585,57.1585,120.385,98.4643,102.963,0.00193539,0.227465,20.8169,574.436,-0.398228,0.0,0.0
9310,2327.25,54.1188,56.5155,121.655,98.9565,103.894,0.00179945,0.221068,20.8279,571.634,-0.434009,0.0,0.0
9500,2374.75,53.4199,55.5509,123.27,99.2311,105.141,0.00196984,0.216448,20.831,568.971,-0.515666,0.0,0.0
9690,2422.25,52.5588,54.7466,121.41,98.8085,104.763,0.00186266,0.214931,20.8321,566.359,-0.521625,0.0,0.0
9880,2469.75,52.9399,55.1377,124.173,99.0063,104.288,0.00176586,0.217315,20.8295,563.777,-0.463214,0.0,0.0
10070,2517.25,53.1572,54.8198,123.452,99.2848,105.359,0.00218136,0.218252,20.8277,561.134,-0.529295,0.0,0.0
10260,2564.75,52.8216,54.8676,126.02,99.6493,105.267,0.0017457,0.221111,20.826,558.432,-0.488809,0.0,0.0
10450,2612.25,53.3187,55.6252,126.036,99.6433,105.852,0.0019104,0.22698,20.8198,555.649,-0.538733,0.0,0.0
10640,2659.75,54.1387,56.2763,122.197,99.4698,105.755,0.00209759,0.231836,20.8155,552.737,-0.546141,0.0,0.0
10830,2707.25,54.9791,57.1319,124.275,99.3214,105.001,0.00181435,0.240565,20.8058,549.744,-0.495701,0.0,0.0
11020,2754.75,55.7119,57.9966,127.592,99.1933,105.337,0.00188731,0.255857,20.7872,546.491,-0.535663,0.0,0.0
11210,2802.25,56.9647,59.2227,120.355,99.1503,105.239,0.00177297,0.279326,20.7641,542.988,-0.53121,0.0,0.0
11400,2849.75,59.4391,61.7081,123.733,98.7878,104.509,0.00193018,0.312075,20.7271,539.034,-0.501851,0.0,0.0
11590,2897.25,61.82,64.9372,114.55,98.0644,103.06,0.00252203,0.349417,20.6793,534.48,-0.442848,0.0,0.0
11780,2944.75,66.4503,68.8715,117.815,98.1054,102.085,0.00308632,0.402763,20.611,529.366,-0.354461,0.0,0.0
11970,2992.25,62.3304,66.8591,119.788,98.2371,103.693,0.00223862,0.235809,20.7993,525.372,-0.481756,0.0,0.0
12160,3039.75,54.1893,57.7477,126.208,98.4699,105.102,0.00278136,0.155533,20.8906,523.761,-0.580974,0.0,0.0
12350,3087.25,48.8169,51.3512,128.464,98.9175,103.945,0.00442102,0.126448,20.9287,522.84,-0.441927,0.0,0.0
12540,3134.75,45.7884,47.4068,130.193,99.2052,103.168,0.00531464,0.115912,20.937,522.239,-0.349132,0.0,0.0
12730,3182.25,44.3456,45.4839,127.529,99.2072,103.161,0.00620258,0.112794,20.9395,521.679,-0.348374,0.0,0.0
12920,3229.75,43.838,44.916,132.874,99.1006,103.552,0.00663113,0.110574,20.944,521.148,-0.391653,0.0,0.0
13110,3277.25,43.7855,44.3544,129.828,98.9681,103.843,0.0065475,0.108312,20.9468,520.668,-0.428602,0.0,0.0
13300,3324.75,42.5064,44.7634,129.129,98.8348,104.16,0.00711093,0.109966,20.9469,520.198,-0.467747,0.0,0.0
13490,3372.25,42.403,43.8506,123.432,98.6489,102.972,0.00678842,0.106431,20.9486,519.727,-0.382302,0.0,0.0
13680,3419.75,41.9147,43.4908,128.777,98.5339,102.697,0.00752611,0.106155,20.9503,519.307,-0.368859,0.0,0.0
13870,3467.25,41.7183,43.4655,127.35,98.7309,103.164,0.00738131,0.105049,20.9507,518.896,-0.391503,0.0,0.0
14060,3514.75,41.4119,43.6443,125.392,98.6744,103.324,0.00718305,0.103285,20.9543,518.556,-0.410445,0.0,0.0
14250,3562.25,41.3873,42.8005,125.969,98.6991,103.414,0.00739965,0.103811,20.9533,518.196,-0.415916,0.0,0.0
14440,3609.75,41.4775,42.2364,127.939,99.0341,102.865,0.00758778,0.104247,20.9552,517.765,-0.338286,0.0,0.0
14630,3657.25,41.1247,42.0175,127.942,99.13,103.716,0.00784129,0.10391,20.9535,517.345,-0.403099,0.0,0.0
14820,3704.75,40.9099,42.2523,125.305,99.2327,104.079,0.00772521,0.10187,20.9576,516.955,-0.425015,0.0,0.0
15010,3752.25,40.5395,42.2173,127.518,99.2768,103.021,0.00773761,0.1092,20.9478,516.584,-0.329998,0.0,0.0
15200,3799.75,40.4528,42.1899,129.776,99.2629,103.654,0.00712042,0.10382,20.9534,516.214,-0.385821,0.0,0.0
15390,3847.25,40.6502,42.1447,132.707,99.2156,103.769,0.00717708,0.103315,20.9538,515.894,-0.399936,0.0,0.0
15580,3894.75,40.0865,42.729,126.429,99.1706,103.242,0.00709057,0.103464,20.9509,515.573,-0.358605,0.0,0.0
15770,3942.25,40.4639,42.0731,131.514,98.8718,102.863,0.00709623,0.102308,20.954,515.173,-0.352717,0.0,0.0
15960,3989.75,40.821,42.0059,131.251,98.9004,102.529,0.00704088,0.102056,20.9568,514.823,-0.321186,0.0,0.0
16150,4037.25,40.5764,42.1634,132.209,99.0043,102.878,0.00734104,0.101807,20.9552,514.392,-0.342134,0.0,0.0
16340,4084.75,40.6144,41.7012,129.445,99.0763,102.892,0.00703226,0.102667,20.956,514.032,-0.336812,0.0,0.0
16530,4132.25,40.6892,42.1271,128.29,99.1475,102.649,0.00698379,0.100572,20.9585,513.702,-0.309378,0.0,0.0
16720,4179.75,39.9288,41.6606,129.375,99.2136,103.038,0.00660832,0.0999264,20.9601,513.391,-0.337109,0.0,0.0
16910,4227.25,40.0849,42.1471,127.347,99.2737,103.774,0.00669922,0.0990952,20.9602,513.031,-0.395217,0.0,0.0
17100,4274.75,40.4419,41.7596,129.483,99.2884,102.167,0.00688753,0.100969,20.9592,512.731,-0.254752,0.0,0.0
17290,4322.25,40.2605,41.6215,128.801,99.2876,104.013,0.00674395,0.101926,20.9578,512.381,-0.41446,0.0,0.0
17480,4369.75,40.3632,41.5293,128.79,99.2633,103.449,0.00661622,0.101817,20.9558,512.03,-0.368106,0.0,0.0
17670,4417.25,39.4561,41.2955,127.755,99.2016,103.604,0.00620455,0.100502,20.9582,511.65,-0.387062,0.0,0.0
17860,4464.75,39.5242,41.3099,129.071,99.0035,102.948,0.00651362,0.0990689,20.9614,511.3,-0.348199,0.0,0.0
18050,4512.25,39.4302,40.196,128.519,98.945,103.721,,,,511.029,-0.420212,0.0,0.0
18073,4518,39.723,41.0858,130.465,98.9549,102.892,,,,510.939,-0.347737,0.0,0.0