File: 01_Data/Polyester_Carpet_High_Pile/MCC/Polyester_Carpet_High_Pile_MCC_30K_min_211027_R2.txt
Sample ID:	C:\MCC\MCC Cal\Test\Polyester_Carpet_HighPile_MCC_30K_min_211027_R2.txt
Sample Weight (mg):	4.74
Heating Rate (C/s):	0.5
Combustor Temp (C):	900
N2 Flow Rate (cc/min):	80
O2 Flow Rate (cc/min):	20
Calibration File:	C:\MCC\MCC Cal\Coeff1 JN10440_30_210304.txt.txt
T Correction Coefficients:	0	1.024463	0
Time Shift (s):	14
*
Time (s)	Temperature (C)	N2 flow rate (cc/min)	O2 flow rate (cc/min)	Flow Rate (cc/min)	Oxygen (%)	HRR (W/g)	Heating rate (C/s)
0.000	107.841	79.999	19.996	102.970	20.216	-0.023	-0.019
8.000	107.798	80.000	19.995	102.988	20.213	0.193	-0.005
16.000	107.844	79.998	19.994	103.049	20.205	0.701	0.015
24.000	108.293	79.998	19.995	103.166	20.186	2.032	0.090
32.000	109.108	79.997	19.996	103.112	20.181	2.326	0.103
40.000	110.237	79.999	19.996	103.192	20.177	2.595	0.178
48.000	111.773	80.000	19.996	103.203	20.176	2.726	0.202
56.000	113.684	79.999	19.995	103.198	20.171	3.022	0.244
64.000	115.925	79.999	19.998	103.216	20.166	3.348	0.313
72.001	118.402	80.001	19.996	103.234	20.169	3.142	0.338
80.000	121.207	79.998	19.995	103.234	20.166	3.350	0.347
88.001	124.208	79.997	19.996	103.239	20.166	3.407	0.370
96.000	127.437	79.998	19.995	103.245	20.170	3.131	0.394
104.002	130.860	79.998	19.997	103.243	20.168	3.236	0.455
112.001	134.402	79.999	19.995	103.255	20.168	3.238	0.448
120.001	138.082	79.998	19.995	103.241	20.165	3.413	0.483
128.000	141.953	79.998	19.996	103.234	20.163	3.568	0.488
136.000	145.891	79.999	19.995	103.245	20.165	3.454	0.522
144.000	149.886	80.000	19.995	103.238	20.169	3.205	0.535
152.000	153.888	80.001	19.996	103.225	20.171	3.031	0.492
160.000	157.883	79.998	19.996	103.206	20.171	3.058	0.448
168.000	161.988	79.999	19.995	103.234	20.175	2.754	0.511
176.000	166.042	79.998	19.995	103.207	20.174	2.830	0.527
184.000	170.088	79.998	19.996	103.210	20.172	2.943	0.504
192.000	174.073	79.998	19.996	103.195	20.175	2.743	0.489
200.000	178.061	79.997	19.996	103.194	20.176	2.716	0.485
208.000	182.029	80.000	19.995	103.245	20.176	2.695	0.497
216.000	185.990	80.000	19.996	103.196	20.178	2.583	0.520
224.000	189.922	79.998	19.995	103.197	20.183	2.225	0.501
232.000	193.838	80.003	19.996	103.189	20.180	2.451	0.483
240.000	197.671	80.002	19.996	103.192	20.183	2.243	0.499
248.000	201.580	79.999	19.996	103.191	20.180	2.443	0.475
256.000	205.407	79.999	19.996	103.189	20.184	2.174	0.450
264.000	209.349	80.000	19.995	103.176	20.180	2.455	0.482
272.000	213.235	80.000	19.996	103.181	20.183	2.196	0.498
280.000	217.104	79.998	19.996	103.164	20.182	2.301	0.493
288.000	221.015	80.000	19.996	103.170	20.187	1.951	0.483
296.000	224.966	80.002	19.994	103.177	20.184	2.155	0.520
304.000	228.938	80.000	19.997	103.175	20.185	2.051	0.490
312.000	232.936	80.000	19.996	103.162	20.187	1.954	0.526
320.000	236.925	80.002	19.996	103.164	20.184	2.172	0.503
328.000	240.911	79.999	19.995	103.156	20.183	2.238	0.482
336.000	244.913	79.999	19.995	103.160	20.188	1.876	0.487
344.000	248.959	79.999	19.996	103.157	20.190	1.757	0.511
352.000	253.010	79.998	19.997	103.151	20.189	1.846	0.504
360.000	256.923	79.997	19.995	103.159	20.186	2.033	0.470
368.000	260.780	79.999	19.996	103.148	20.188	1.878	0.487
376.000	264.578	80.000	19.996	103.149	20.187	1.956	0.466
384.000	268.458	79.999	19.995	103.152	20.188	1.899	0.451
392.000	272.486	80.000	19.995	103.152	20.188	1.890	0.508
400.000	276.392	80.001	19.995	103.144	20.189	1.829	0.478
408.000	280.367	79.999	19.996	103.137	20.185	2.096	0.501
416.000	284.337	79.998	19.996	103.154	20.187	1.920	0.513
424.000	288.355	79.999	19.995	103.160	20.186	2.016	0.503
432.000	292.326	79.999	19.995	103.138	20.183	2.204	0.492
440.000	296.343	79.998	19.996	103.142	20.188	1.855	0.488
448.000	300.348	79.999	19.996	103.128	20.185	2.054	0.531
456.000	304.307	80.000	19.995	103.188	20.176	2.706	0.516
464.000	308.248	80.001	19.995	103.140	20.181	2.382	0.479
472.000	312.230	80.000	19.996	103.157	20.175	2.791	0.506
480.000	316.239	80.000	19.995	103.138	20.165	3.476	0.493
488.000	320.175	80.000	19.995	103.160	20.159	3.849	0.410
496.000	324.276	79.998	19.996	103.152	20.148	4.628	0.525
504.000	328.320	79.998	19.996	103.153	20.135	5.497	0.542
512.000	332.351	79.999	19.996	103.157	20.119	6.582	0.511
520.000	336.484	79.997	19.996	103.157	20.100	7.837	0.493
528.000	340.573	79.997	19.996	103.161	20.080	9.211	0.503
536.000	344.597	79.999	19.997	103.160	20.068	10.014	0.493
544.001	348.661	79.999	19.996	103.168	20.050	11.278	0.503
552.000	352.689	79.998	19.996	103.166	20.034	12.343	0.520
560.000	356.670	80.002	19.996	103.156	20.022	13.150	0.473
568.000	360.671	80.000	19.995	103.163	20.013	13.772	0.543
576.000	364.646	79.999	19.996	103.113	20.003	14.413	0.488
584.000	368.633	79.999	19.995	103.162	19.998	14.810	0.519
592.000	372.644	79.998	19.995	103.155	19.983	15.818	0.498
600.000	376.681	79.998	19.997	103.177	19.974	16.444	0.492
608.000	380.751	79.998	19.996	103.190	19.968	16.797	0.497
616.000	384.820	79.998	19.997	103.164	19.953	17.843	0.513
624.000	388.849	80.000	19.997	103.158	19.937	18.921	0.518
632.000	392.816	79.999	19.996	103.174	19.918	20.208	0.479
640.000	396.920	80.001	19.996	103.183	19.888	22.235	0.528
648.000	400.999	80.002	19.995	103.204	19.863	23.943	0.515
656.000	405.054	79.999	19.996	103.188	19.823	26.662	0.503
664.000	409.018	79.999	19.996	103.232	19.774	29.992	0.506
672.000	413.041	79.999	19.994	103.240	19.723	33.489	0.495
680.000	417.085	80.000	19.996	103.236	19.646	38.698	0.498
688.001	421.263	79.998	19.997	103.242	19.572	43.768	0.526
696.001	425.391	79.999	19.996	103.244	19.489	49.383	0.535
704.000	429.573	80.000	19.994	103.273	19.406	55.022	0.515
712.000	433.713	79.998	19.997	103.291	19.331	60.156	0.527
720.000	437.859	79.999	19.997	103.304	19.272	64.140	0.524
728.001	441.918	80.003	19.995	103.303	19.250	65.646	0.516
736.000	445.938	80.000	19.996	103.258	19.294	62.627	0.499
744.000	449.933	79.999	19.995	103.232	19.393	55.897	0.499
752.000	453.898	79.999	19.995	103.195	19.514	47.668	0.508
760.000	457.810	80.000	19.997	103.154	19.624	40.145	0.491
768.000	461.767	80.000	19.996	103.120	19.666	37.327	0.498
776.000	465.685	79.998	19.996	103.102	19.650	38.359	0.493
784.000	469.639	80.000	19.996	103.076	19.590	42.467	0.498
792.000	473.659	79.999	19.996	103.064	19.527	46.722	0.523
800.000	477.632	80.002	19.995	103.041	19.504	48.267	0.476
808.000	481.680	80.001	19.995	103.002	19.609	41.149	0.520
816.001	485.714	80.000	19.996	103.026	19.825	26.483	0.497
824.000	489.805	80.002	19.996	103.049	20.010	13.950	0.519
832.000	493.896	80.002	19.996	103.088	20.119	6.583	0.502
840.000	498.044	79.999	19.996	103.085	20.157	4.016	0.506
848.000	502.122	80.001	19.996	103.106	20.168	3.268	0.517
856.000	506.183	80.000	19.995	103.113	20.175	2.763	0.499
864.000	510.232	80.001	19.996	103.117	20.174	2.852	0.507
872.000	514.338	80.001	19.996	103.121	20.173	2.915	0.525
880.000	518.436	80.001	19.996	103.111	20.173	2.915	0.521
888.000	522.529	80.003	19.996	103.103	20.177	2.617	0.515
896.000	526.647	80.004	19.995	103.107	20.173	2.899	0.513
904.000	530.798	79.999	19.996	103.112	20.181	2.351	0.526
912.000	535.004	79.999	19.997	103.116	20.181	2.377	0.520
920.000	539.144	79.998	19.995	103.117	20.183	2.233	0.534
928.000	543.184	80.001	19.994	103.087	20.176	2.663	0.500
936.000	547.145	80.000	19.995	103.100	20.177	2.654	0.483
944.000	551.192	80.001	19.995	103.120	20.176	2.703	0.493
952.000	555.475	80.002	19.996	103.115	20.169	3.166	0.536
960.000	559.836	80.000	19.995	103.117	20.166	3.378	0.551
968.000	564.229	80.000	19.995	103.117	20.153	4.257	0.558
976.000	568.597	80.001	19.996	103.122	20.142	5.007	0.537
984.000	572.987	79.999	19.996	103.126	20.118	6.617	0.525
992.000	577.418	79.998	19.996	103.122	20.087	8.751	0.533
1000.000	581.726	79.999	19.997	103.137	20.047	11.439	0.536
1008.000	586.018	79.999	19.996	103.157	20.001	14.596	0.528
1016.000	590.229	80.000	19.995	103.160	19.957	17.576	0.530
1024.000	594.490	79.999	19.995	103.178	19.913	20.584	0.505
1032.000	598.713	80.000	19.994	103.192	19.880	22.803	0.544
1040.000	602.894	79.999	19.996	103.192	19.853	24.643	0.527
1048.000	607.035	80.001	19.996	103.193	19.841	25.467	0.510
1056.001	611.124	80.002	19.995	103.200	19.860	24.152	0.496
1064.000	615.300	80.000	19.997	103.180	19.925	19.742	0.530
1072.000	619.315	80.000	19.996	103.151	20.033	12.367	0.510
1080.000	623.382	80.001	19.995	103.132	20.132	5.674	0.499
1088.000	627.410	79.999	19.997	103.120	20.166	3.382	0.485
1096.000	631.462	80.000	19.997	103.085	20.172	2.935	0.478
1104.000	635.518	80.000	19.996	103.118	20.181	2.373	0.501
1112.000	639.616	80.001	19.995	103.114	20.175	2.773	0.505
1120.000	643.600	80.000	19.995	103.124	20.172	2.938	0.458
1128.000	647.677	80.000	19.994	103.192	20.175	2.796	0.538
1136.000	651.661	80.003	19.995	103.137	20.173	2.891	0.493
1144.000	655.683	80.001	19.996	103.125	20.172	2.997	0.530
1152.000	659.690	79.998	19.995	103.155	20.171	3.052	0.492
1160.000	663.661	80.000	19.996	103.153	20.169	3.171	0.502
1168.000	667.607	79.999	19.996	103.156	20.163	3.590	0.516
1176.000	671.594	79.999	19.996	103.228	20.162	3.628	0.512
1184.000	675.486	79.998	19.996	103.195	20.157	3.968	0.517
1192.001	679.338	80.000	19.996	103.197	20.160	3.766	0.521
1200.001	683.236	80.000	19.995	103.207	20.149	4.524	0.529
1208.000	687.041	80.000	19.996	103.229	20.150	4.447	0.475
1216.000	690.944	80.003	19.995	103.253	20.149	4.519	0.508
1224.000	694.896	80.002	19.995	103.247	20.145	4.814	0.484
1232.001	698.820	80.000	19.996	103.272	20.144	4.897	0.481
1240.000	702.806	80.000	19.996	103.277	20.139	5.224	0.496
1248.001	706.771	80.001	19.996	103.278	20.130	5.836	0.479
1256.000	710.654	79.999	19.997	103.293	20.127	6.045	0.473
1264.000	714.824	80.000	19.996	103.345	20.125	6.199	0.540
1272.000	719.230	80.000	19.997	103.319	20.123	6.330	0.552
1280.000	723.747	80.002	19.996	103.325	20.124	6.237	0.592
1288.000	728.228	80.001	19.997	103.313	20.118	6.629	0.558
1296.000	732.744	80.004	19.995	103.290	20.124	6.249	0.545
1304.000	737.169	80.002	19.996	103.218	20.134	5.544	0.523
1312.000	741.670	80.001	19.996	103.180	20.155	4.136	0.579
1314.500	743.069	80.000	19.995	103.156	20.160	3.747	0.603