File: 01_Data/Rayon_Bamboo_Pillowcase/HFM/Rayon_Bamboo_Pillowcase_Density_Dry_R1.csv
,Rayon_Pillowcase_DRY_1
Sample Mass [g],5.9
Sample Volume [cm3],8.9
Sample Density [kg/m3],655