File: 01_Data/Rayon_Bamboo_Pillowcase/HFM/Rayon_Bamboo_Pillowcase_Density_Wet_R1.csv
,Rayon_Pillowcase_WET_1
Sample Mass [g],6.2
Sample Volume [cm3],8.9
Sample Density [kg/m3],691