File: 01_Data/Rayon_Bamboo_Pillowcase/HFM/Rayon_Bamboo_Pillowcase_Density_Wet_R2.csv
,Rayon_Pillowcase_WET_2
Sample Mass [g],5.9
Sample Volume [cm3],8.9
Sample Density [kg/m3],660