File: 01_Data/Rayon_Bamboo_Pillowcase/HFM/Rayon_Bamboo_Pillowcase_Density_Dry_R3.csv
,Rayon_Pillowcase_Dry_3
Sample Mass [g],5.6
Sample Volume [cm3],8.9
Sample Density [kg/m3],626