File: 01_Data/Triexta_Carpet_HighPile/MCC/Triexta_Carpet_HighPile_MCC_30K_min_211117_R2.txt
Sample ID:	C:\MCC\MCC Cal\Test\Triexta_Carpet_High_Pile_MCC_30K_min_211117_R2.txt
Sample Weight (mg):	4.18
Heating Rate (C/s):	0.5
Combustor Temp (C):	900
N2 Flow Rate (cc/min):	80
O2 Flow Rate (cc/min):	20
Calibration File:	C:\MCC\MCC Cal\Coeff1 JN10440_30_210304.txt.txt
T Correction Coefficients:	0	1.024463	0
Time Shift (s):	14
*
Time (s)	Temperature (C)	N2 flow rate (cc/min)	O2 flow rate (cc/min)	Flow Rate (cc/min)	Oxygen (%)	HRR (W/g)	Heating rate (C/s)
0.000	108.391	79.997	19.995	102.980	19.984	0.228	-0.000
7.999	108.367	80.001	19.994	102.971	19.991	-0.334	0.011
15.999	108.379	80.006	19.995	103.009	19.986	0.068	0.001
24.000	108.547	80.001	19.994	103.028	19.978	0.668	0.048
32.000	108.790	80.002	19.995	103.063	19.973	1.103	0.058
39.999	109.374	80.001	19.996	103.105	19.962	1.954	0.076
47.999	110.276	80.000	19.996	103.140	19.955	2.439	0.140
56.000	111.457	79.997	19.995	103.136	19.954	2.543	0.158
63.999	112.952	80.014	19.992	103.165	19.948	2.984	0.205
71.999	114.756	79.999	19.994	103.187	19.944	3.288	0.240
80.000	116.822	80.000	19.995	103.205	19.945	3.226	0.266
87.999	119.223	80.011	19.992	103.220	19.946	3.133	0.326
95.999	121.883	79.999	19.995	103.227	19.941	3.547	0.393
103.999	124.891	80.000	19.995	103.227	19.939	3.712	0.390
111.999	128.065	79.995	19.995	103.237	19.936	3.930	0.431
119.999	131.446	80.002	19.996	103.257	19.937	3.838	0.458
127.999	135.083	80.001	19.996	103.254	19.934	4.085	0.481
136.000	138.857	80.002	19.995	103.241	19.939	3.738	0.496
144.000	142.740	80.002	19.996	103.241	19.940	3.594	0.483
152.000	146.786	80.002	19.994	103.224	19.946	3.189	0.525
160.000	150.806	80.010	19.993	103.226	19.941	3.536	0.533
168.000	154.863	80.002	19.995	103.221	19.942	3.457	0.523
176.000	158.901	79.997	19.995	103.218	19.938	3.756	0.523
184.000	162.962	79.998	19.995	103.222	19.945	3.244	0.509
192.000	167.056	80.003	19.993	103.200	19.946	3.178	0.515
200.000	171.103	79.999	19.994	103.201	19.947	3.052	0.520
208.000	175.066	80.000	19.996	103.180	19.950	2.882	0.492
216.000	178.996	80.003	19.995	103.184	19.950	2.840	0.465
224.000	182.925	80.000	19.996	103.180	19.949	2.903	0.473
232.000	186.888	80.000	19.996	103.179	19.949	2.942	0.475
240.000	190.803	79.998	19.995	103.181	19.947	3.061	0.509
248.000	194.653	79.999	19.994	103.182	19.949	2.938	0.475
256.000	198.550	80.000	19.994	103.180	19.951	2.743	0.497
264.000	202.450	79.999	19.995	103.175	19.954	2.522	0.471
272.000	206.367	80.000	19.993	103.165	19.954	2.539	0.507
280.000	210.315	80.001	19.994	103.177	19.952	2.687	0.496
288.000	214.217	80.001	19.995	103.179	19.955	2.478	0.479
296.000	218.151	80.003	19.995	103.175	19.954	2.541	0.489
304.000	222.072	80.000	19.994	103.177	19.957	2.318	0.498
312.000	225.962	79.997	19.995	103.171	19.955	2.447	0.491
320.000	229.934	79.998	19.995	103.178	19.959	2.179	0.490
328.000	233.849	79.999	19.995	103.170	19.956	2.366	0.477
336.000	237.807	80.002	19.995	103.170	19.956	2.414	0.514
344.000	241.708	80.001	19.995	103.165	19.954	2.532	0.497
352.000	245.747	80.000	19.994	103.176	19.956	2.355	0.515
360.000	249.740	80.002	19.994	103.153	19.956	2.399	0.568
368.000	253.863	80.003	19.994	103.141	19.961	2.002	0.509
376.000	257.932	80.003	19.994	103.141	19.961	2.025	0.517
384.000	261.988	80.000	19.995	103.115	19.961	2.041	0.489
392.000	266.023	79.998	19.993	103.109	19.959	2.133	0.497
400.000	270.096	79.998	19.996	103.107	19.956	2.423	0.546
408.000	274.132	79.998	19.997	103.106	19.965	1.701	0.523
416.000	278.145	79.999	19.995	103.113	19.958	2.215	0.502
424.000	282.103	80.000	19.994	103.104	19.957	2.274	0.506
432.000	286.003	80.000	19.994	103.117	19.955	2.446	0.486
440.000	289.955	80.003	19.994	103.104	19.957	2.338	0.481
448.000	293.835	80.000	19.995	103.105	19.959	2.155	0.490
456.000	297.737	80.003	19.995	103.118	19.954	2.527	0.459
464.000	301.570	80.001	19.995	103.106	19.950	2.847	0.475
472.000	305.467	80.001	19.996	103.108	19.950	2.853	0.496
480.000	309.370	80.000	19.996	103.128	19.952	2.681	0.511
488.000	313.350	80.001	19.995	103.118	19.943	3.370	0.483
496.000	317.224	79.997	19.996	103.115	19.943	3.406	0.466
504.000	321.129	80.003	19.995	103.117	19.942	3.447	0.503
512.000	325.076	80.002	19.995	103.114	19.937	3.821	0.538
520.000	329.028	80.001	19.994	103.111	19.931	4.296	0.505
528.000	333.050	80.001	19.994	103.110	19.925	4.787	0.500
536.000	337.106	80.000	19.994	103.112	19.919	5.246	0.492
544.000	341.205	80.003	19.993	103.115	19.912	5.765	0.491
552.000	345.297	80.001	19.993	103.121	19.904	6.398	0.504
560.000	349.397	79.998	19.995	103.162	19.887	7.711	0.514
568.000	353.531	80.000	19.995	103.133	19.869	9.115	0.500
576.000	357.577	79.999	19.994	103.132	19.849	10.622	0.469
584.000	361.643	80.001	19.995	103.127	19.819	12.957	0.505
592.000	365.578	80.000	19.995	103.140	19.782	15.760	0.474
600.000	369.486	80.001	19.994	103.145	19.736	19.297	0.499
608.000	373.364	80.002	19.994	103.179	19.668	24.590	0.496
616.000	377.438	80.001	19.993	103.213	19.593	30.380	0.544
624.000	381.645	80.000	19.994	103.266	19.498	37.659	0.534
632.000	385.981	80.002	19.994	103.260	19.357	48.545	0.513
640.000	390.365	80.000	19.994	103.284	19.200	60.725	0.562
648.000	394.775	79.997	19.995	103.322	19.022	74.443	0.533
656.000	399.196	79.999	19.995	103.357	18.835	88.878	0.548
664.000	403.505	80.000	19.995	103.381	18.658	102.581	0.552
672.000	407.788	80.000	19.995	103.411	18.518	113.379	0.536
680.000	412.012	80.000	19.996	103.415	18.431	120.076	0.535
688.000	416.106	80.002	19.994	103.418	18.420	120.943	0.503
696.000	420.235	80.001	19.993	103.416	18.476	116.623	0.523
704.000	424.344	79.999	19.995	103.438	18.597	107.253	0.514
712.000	428.445	80.000	19.995	103.350	18.758	94.777	0.541
720.000	432.497	80.000	19.994	103.311	18.939	80.796	0.516
728.000	436.592	80.000	19.996	103.266	19.110	67.593	0.502
736.000	440.626	80.001	19.995	103.230	19.261	55.901	0.504
744.000	444.584	80.002	19.993	103.181	19.421	43.542	0.472
752.000	448.505	80.006	19.994	103.149	19.527	35.376	0.469
760.000	452.384	80.002	19.994	103.138	19.585	30.975	0.467
768.000	456.209	80.002	19.996	103.108	19.599	29.836	0.491
776.000	460.025	80.001	19.994	103.097	19.595	30.124	0.477
784.000	463.843	80.002	19.994	103.074	19.600	29.772	0.478
792.000	467.630	80.000	19.995	103.059	19.637	26.952	0.477
800.000	471.479	80.002	19.996	103.063	19.707	21.539	0.480
808.000	475.461	79.999	19.995	103.074	19.774	16.362	0.491
816.000	479.625	80.001	19.994	103.095	19.830	12.116	0.514
824.000	483.930	80.001	19.994	103.107	19.877	8.494	0.579
832.000	488.271	80.001	19.995	103.110	19.908	6.118	0.547
840.000	492.739	80.002	19.996	103.101	19.920	5.167	0.539
848.000	497.176	80.002	19.995	103.101	19.923	4.965	0.543
856.000	501.526	80.000	19.996	103.103	19.923	4.944	0.528
864.000	505.890	79.998	19.996	103.101	19.930	4.393	0.551
872.000	510.180	80.001	19.994	103.105	19.926	4.682	0.545
880.000	514.507	80.001	19.995	103.106	19.926	4.701	0.564
888.000	518.753	79.999	19.994	103.104	19.928	4.520	0.533
896.000	522.942	80.001	19.993	103.107	19.924	4.819	0.537
904.000	527.073	80.001	19.994	103.102	19.921	5.072	0.533
912.000	531.251	80.001	19.995	103.104	19.922	5.037	0.530
920.000	535.333	80.002	19.995	103.101	19.919	5.201	0.550
928.000	539.424	80.001	19.995	103.106	19.916	5.465	0.495
936.000	543.508	79.999	19.994	103.105	19.912	5.764	0.516
944.000	547.532	79.999	19.996	103.104	19.910	5.955	0.522
952.000	551.592	79.999	19.995	103.104	19.911	5.841	0.495
960.000	555.634	80.000	19.994	103.106	19.912	5.808	0.473
968.000	559.668	79.999	19.995	103.105	19.913	5.668	0.490
976.000	563.695	80.000	19.995	103.104	19.909	5.978	0.497
984.000	567.769	80.002	19.995	103.102	19.907	6.194	0.495
992.000	571.797	80.002	19.992	103.105	19.902	6.519	0.481
1000.000	575.888	80.002	19.994	103.105	19.894	7.124	0.504
1008.000	579.932	80.001	19.994	103.107	19.886	7.793	0.496
1016.000	583.896	80.001	19.995	103.116	19.876	8.531	0.481
1024.000	587.888	80.000	19.994	103.116	19.867	9.269	0.482
1031.999	591.899	80.000	19.996	103.134	19.852	10.406	0.507
1039.999	595.871	79.999	19.996	103.141	19.828	12.226	0.479
1047.999	599.861	79.999	19.995	103.141	19.792	15.035	0.503
1055.999	603.854	80.003	19.994	103.149	19.753	17.986	0.491
1063.999	607.864	80.003	19.994	103.177	19.728	19.910	0.540
1072.000	611.987	80.003	19.995	103.177	19.720	20.593	0.490
1079.999	616.068	80.003	19.993	103.166	19.737	19.242	0.510
1087.999	620.149	80.003	19.994	103.144	19.790	15.188	0.592
1095.999	624.220	80.001	19.996	103.140	19.860	9.809	0.549
1103.999	628.232	80.000	19.995	103.123	19.894	7.180	0.474
1111.999	632.408	79.999	19.995	103.105	19.904	6.375	0.480
1119.999	636.648	79.999	19.996	103.108	19.911	5.843	0.506
1127.999	640.843	79.999	19.997	103.118	19.918	5.333	0.555
1135.999	644.527	79.999	19.994	103.111	19.916	5.506	-0.083
1143.999	649.081	80.002	19.994	103.123	19.914	5.647	0.506
1151.999	653.222	80.001	19.994	103.132	19.915	5.518	0.500
1159.999	657.319	80.003	19.995	103.126	19.914	5.639	0.498
1168.000	661.408	80.003	19.994	103.137	19.916	5.429	0.518
1176.000	665.378	80.002	19.995	103.143	19.911	5.824	0.486
1183.999	669.417	80.002	19.996	103.142	19.913	5.700	0.494
1191.999	673.506	79.998	19.997	103.146	19.911	5.850	0.526
1199.999	677.688	80.000	19.997	103.145	19.913	5.704	0.528
1207.999	681.812	79.999	19.996	103.161	19.908	6.108	0.494
1215.999	686.001	80.002	19.996	103.144	19.907	6.155	0.497
1223.999	690.081	80.001	19.995	103.160	19.908	6.064	0.472
1231.999	694.295	80.001	19.995	103.159	19.909	6.032	0.529
1240.000	698.499	80.002	19.995	103.157	19.908	6.094	0.518
1247.999	702.589	80.001	19.996	103.143	19.911	5.836	0.490
1255.999	706.678	80.000	19.995	103.130	19.915	5.554	0.515
1263.999	710.742	79.999	19.995	103.122	19.915	5.538	0.496
1271.999	714.800	80.000	19.995	103.107	19.916	5.496	0.530
1279.999	718.837	80.001	19.995	103.110	19.911	5.839	0.516
1287.999	722.920	80.001	19.996	103.104	19.918	5.330	0.512
1296.001	726.909	80.001	19.994	103.106	19.914	5.618	0.518
1303.999	731.032	79.999	19.996	103.103	19.913	5.675	0.499
1311.999	735.077	80.001	19.995	103.102	19.912	5.787	0.511
1319.999	739.099	80.004	19.994	103.104	19.910	5.922	0.451
1328.000	743.203	80.002	19.994	103.109	19.908	6.080	0.495
1328.500	743.499	80.002	19.993	103.109	19.909	5.980	0.515