File: 01_Data/Fiber_Cement_Board/HFM/Fiber_Cement_Board_Density_Wet_R3.csv
,Fiber_Cement_Board_3_WET
Sample Mass [g],414.0
Sample Volume [cm3],318.3
Sample Density [kg/m3],1301