File: 01_Data/Fiber_Cement_Board/HFM/Fiber_Cement_Board_Density_Dry_R2.csv
,Fiber_Cement_Board_2_DRY
Sample Mass [g],390.9
Sample Volume [cm3],303.6
Sample Density [kg/m3],1287