File: 01_Data/Fiber_Cement_Board/HFM/Fiber_Cement_Board_Density_Wet_R1.csv
,Fiber_Cement_Board_1_WET
Sample Mass [g],401.7
Sample Volume [cm3],295.7
Sample Density [kg/m3],1359