File: 01_Data/Fiber_Cement_Board/HFM/Fiber_Cement_Board_Ignition_Temp_Properties.csv
Thermal Conductivity (W/m-K),0.153
Heat Capacity (J/kg-K),990.0
Density (kg/m3),1332.67