File: 01_Data/Fiber_Cement_Board/HFM/Fiber_Cement_Board_Density_Wet_R2.csv
,Fiber_Cement_Board_2_WET
Sample Mass [g],406.3
Sample Volume [cm3],303.6
Sample Density [kg/m3],1338