File: 01_Data/Fiber_Cement_Board/HFM/Fiber_Cement_Board_Density_Dry_R1.csv
,Fiber_Cement_Board_1_DRY
Sample Mass [g],386.9
Sample Volume [cm3],299.2
Sample Density [kg/m3],1293