File: 01_Data/Fiber_Cement_Board/HFM/Fiber_Cement_Board_Density_Dry_R3.csv
,Fiber_Cement_Board_3_DRY
Sample Mass [g],398.3
Sample Volume [cm3],318.3
Sample Density [kg/m3],1251