File: 01_Data/Pallet_Wood/STA/N2/30K_min/Pallet_Wood_STA_N2_30KData_220413_R2.csv
##Temp./Â°C,Time/min,Mass loss(subtr.2)/mg,DSC(subtr.2)/(mW/mg),Sensit./(uV/mW)
48.381,10.01,-0.00197,0.006861651,1.07511
51.681,10.8917,-0.001241795,0.14681,1.07365
54.981,11.1285,0.0004073202,0.24776,1.07218
58.281,11.311,0.00261254,0.32837,1.0707
61.581,11.46865,-0.00103991,0.39787,1.06921
64.881,11.61223,-0.0008035905,0.45664,1.0677
68.181,11.74686,-0.001712525,0.50823,1.06618
71.481,11.8758,-0.0005055091,0.55513,1.06466
74.781,12.0007,-0.00167519,0.59668,1.06311
78.081,12.12242,-0.002757822,0.638,1.06156
81.381,12.24167,-0.003667205,0.67619,1.06
84.681,12.359,-0.003638418,0.7099,1.05842
87.981,12.47487,-0.005874383,0.73779,1.05684
91.281,12.58918,-0.00811955,0.76387,1.05524
94.581,12.7026,-0.009281132,0.78487,1.05363
97.881,12.81533,-0.009506308,0.80107,1.05201
101.181,12.9272,-0.01207716,0.80766,1.05038
104.481,13.0389,-0.01338778,0.8092,1.04874
107.781,13.1502,-0.01336856,0.80423,1.04709
111.081,13.2611,-0.01601278,0.79585,1.04543
114.381,13.37159,-0.01875279,0.78725,1.04376
117.681,13.4817,-0.01864001,0.77467,1.04207
120.981,13.59141,-0.01873196,0.76108,1.04038
124.281,13.7006,-0.01864,0.75244,1.03868
127.581,13.80911,-0.01864,0.74592,1.03697
130.881,13.917,-0.01862009,0.74272,1.03525
134.181,14.02413,-0.01831346,0.74151,1.03352
137.481,14.1308,-0.01863973,0.741,1.03178
140.781,14.2371,-0.01597954,0.74431,1.03003
144.081,14.3429,-0.01601,0.75089,1.02827
147.381,14.44805,-0.01620343,0.7554,1.0265
150.681,14.5531,-0.01965905,0.76425,1.02472
153.981,14.65754,-0.02138013,0.77411,1.02293
157.281,14.7619,-0.02137024,0.78416,1.02114
160.581,14.86602,-0.01827165,0.79443,1.01933
163.881,14.96941,-0.01539031,0.80369,1.01752
167.181,15.0732,-0.01443066,0.8122,1.0157
170.481,15.17614,-0.01938085,0.82572,1.01387
173.781,15.2791,-0.01799422,0.83468,1.01203
177.081,15.38168,-0.0192801,0.84882,1.01018
180.381,15.4841,-0.02171816,0.85993,1.00833
183.681,15.58585,-0.02039003,0.86977,1.00647
186.981,15.68725,-0.01940933,0.87922,1.00459
190.281,15.78844,-0.01815919,0.8914,1.00272
193.581,15.88959,-0.01810052,0.90412,1.00083
196.881,15.99054,-0.01809,0.9136,0.99893
200.181,16.091,-0.01941015,0.92308,0.99703
203.481,16.19158,-0.0207199,0.93543,0.99512
206.781,16.2923,-0.02072006,0.94734,0.9932
210.081,16.3928,-0.02204048,0.95654,0.99128
213.381,16.49315,-0.02336681,0.96595,0.98935
216.681,16.59347,-0.02383161,0.9795,0.98741
219.981,16.69377,-0.02533385,0.99162,0.98546
223.281,16.79381,-0.0256583,1.00187,0.9835
226.581,16.8933,-0.02801628,1.0145,0.98154
229.881,16.99403,-0.03069326,1.02798,0.97958
233.181,17.09371,-0.03262272,1.0412,0.9776
236.481,17.19355,-0.03592303,1.05859,0.97562
239.781,17.2934,-0.0400475,1.07303,0.97363
243.081,17.39322,-0.04227461,1.08451,0.97164
246.381,17.49298,-0.04617389,1.09813,0.96963
249.681,17.5928,-0.0516337,1.1128,0.96763
252.981,17.69246,-0.05729263,1.12456,0.96561
256.281,17.79196,-0.06153248,1.1371,0.96359
259.581,17.8915,-0.06961181,1.15055,0.96157
262.881,17.99085,-0.07816399,1.15984,0.95953
266.181,18.0905,-0.08901573,1.17051,0.95749
269.481,18.1901,-0.09927093,1.1795,0.95545
272.781,18.28947,-0.11096,1.18932,0.9534
276.081,18.3891,-0.12634,1.19732,0.95134
279.381,18.48842,-0.13998,1.21197,0.94928
282.681,18.58822,-0.158,1.22657,0.94721
285.981,18.68781,-0.18158,1.2413,0.94513
289.281,18.78751,-0.20789,1.25666,0.94305
292.581,18.88721,-0.23901,1.27093,0.94097
295.881,18.98711,-0.27409,1.28097,0.93888
299.181,19.08679,-0.30951,1.28485,0.93678
302.481,19.18664,-0.34972,1.28299,0.93468
305.781,19.28631,-0.39315,1.27856,0.93257
309.081,19.3864,-0.44472,1.2683,0.93046
312.381,19.48641,-0.49355,1.25826,0.92834
315.681,19.58625,-0.54576,1.25073,0.92622
318.981,19.68618,-0.59863,1.24446,0.92409
322.281,19.78642,-0.6533,1.24076,0.92195
325.581,19.88682,-0.70636,1.24227,0.91982
328.881,19.98715,-0.76677,1.25193,0.91767
332.181,20.0875,-0.82321,1.26706,0.91553
335.481,20.1882,-0.8825,1.29043,0.91337
338.781,20.28885,-0.94315,1.3191,0.91121
342.081,20.3893,-1.00711,1.35448,0.90905
345.381,20.49042,-1.06937,1.39524,0.90688
348.681,20.59145,-1.13716,1.44246,0.90471
351.981,20.69249,-1.20367,1.49997,0.90254
355.281,20.79372,-1.27659,1.55946,0.90035
358.581,20.89525,-1.34963,1.63507,0.89817
361.881,20.99685,-1.4309,1.71455,0.89598
365.181,21.0984,-1.51381,1.80729,0.89378
368.481,21.2002,-1.60322,1.92177,0.89159
371.781,21.302,-1.69905,2.04685,0.88938
375.081,21.404,-1.80305,2.18181,0.88718
378.381,21.50605,-1.91923,2.31286,0.88496
381.681,21.60812,-2.03659,2.42399,0.88275
384.981,21.71059,-2.16703,2.49445,0.88053
388.281,21.81302,-2.29481,2.49318,0.8783
391.581,21.91555,-2.42489,2.39544,0.87607
394.881,22.01811,-2.54323,2.17705,0.87384
398.181,22.12046,-2.6497,1.83664,0.87161
401.481,22.2226,-2.7363,1.41246,0.86937
404.781,22.32496,-2.79784,0.96573,0.86712
408.081,22.42691,-2.8373,0.58189,0.86487
411.381,22.52915,-2.85837,0.31407,0.86262
414.681,22.63125,-2.87064,0.163,0.86037
417.981,22.73367,-2.88092,0.07703838,0.85811
421.281,22.8364,-2.88975,0.02667965,0.85584
424.581,22.9392,-2.89903,-0.008413211,0.85358
427.881,23.0422,-2.9086,-0.03470518,0.8513
431.181,23.14556,-2.91381,-0.05922588,0.84903
434.481,23.24879,-2.92442,-0.08036074,0.84675
437.781,23.35229,-2.93129,-0.09654436,0.84447
441.081,23.45605,-2.93828,-0.11257,0.84218
444.381,23.55985,-2.94527,-0.1186,0.8399
447.681,23.66374,-2.95078,-0.1211,0.8376
450.981,23.768,-2.95771,-0.11939,0.83531
454.281,23.87206,-2.96522,-0.11677,0.83301
457.581,23.97643,-2.97192,-0.10434,0.83071
460.881,24.08061,-2.97933,-0.09465384,0.8284
464.181,24.18546,-2.98472,-0.07904737,0.82609
467.481,24.2901,-2.99093,-0.06076199,0.82378
470.781,24.39494,-2.99733,-0.04777326,0.82146
474.081,24.4998,-3.0008,-0.02961964,0.81914
477.381,24.60476,-3.00672,-0.01261804,0.81682
480.681,24.70978,-3.01176,0.00283316,0.8145
483.981,24.81506,-3.01467,0.01291166,0.81217
487.281,24.92034,-3.01629,0.02229441,0.80984
490.581,25.02559,-3.02147,0.03094369,0.8075
493.881,25.13102,-3.02326,0.03898506,0.80516
497.181,25.23678,-3.02954,0.04446113,0.80282
500.481,25.34225,-3.03501,0.04966454,0.80048
503.781,25.448,-3.03917,0.05288974,0.79813
507.081,25.55377,-3.04067,0.05305146,0.79578
510.381,25.6595,-3.0434,0.05769419,0.79343
513.681,25.7655,-3.04817,0.06026391,0.79107
516.981,25.8716,-3.05133,0.06439191,0.78871
520.281,25.97766,-3.05258,0.06420815,0.78635
523.581,26.08354,-3.05631,0.06750404,0.78399
526.881,26.18981,-3.0598,0.06726941,0.78162
530.181,26.29624,-3.0616,0.07465695,0.77925
533.481,26.40267,-3.06451,0.08368106,0.77687
536.781,26.509,-3.06782,0.08925598,0.7745
540.081,26.61583,-3.07066,0.09438936,0.77212
543.381,26.7224,-3.06927,0.09816537,0.76974
546.681,26.82923,-3.07506,0.09705443,0.76735
549.981,26.93618,-3.07833,0.09635128,0.76497
553.281,27.0431,-3.07965,0.09351062,0.76258
556.581,27.15018,-3.0836,0.09245664,0.76019
559.881,27.25713,-3.08489,0.09042457,0.75779
563.181,27.36419,-3.08845,0.08451759,0.7554
566.481,27.4716,-3.08875,0.07686283,0.753
569.781,27.57886,-3.08986,0.06858636,0.75059
573.081,27.68615,-3.09384,0.05905761,0.74819
576.381,27.7937,-3.09508,0.05462081,0.74578
579.681,27.90121,-3.09647,0.04568681,0.74337
582.981,28.00887,-3.09699,0.04258128,0.74096
586.281,28.1165,-3.1016,0.03912519,0.73855
589.581,28.2245,-3.1046,0.03377768,0.73613
592.881,28.3324,-3.10765,0.03069392,0.73371
596.181,28.4403,-3.11125,0.0257101,0.73129
599.481,28.54842,-3.10992,0.02633567,0.72887
602.781,28.6565,-3.11114,0.02251859,0.72644
606.081,28.76468,-3.11386,0.02159904,0.72402
609.381,28.873,-3.11519,0.01338874,0.72159
612.681,28.98118,-3.1165,0.01042819,0.71915
615.981,29.08946,-3.11875,0.007485979,0.71672
619.281,29.19796,-3.12169,0.00136758,0.71428
622.581,29.30616,-3.12298,-0.005028106,0.71184
625.881,29.41468,-3.12435,-0.008037215,0.7094
629.181,29.52303,-3.12572,-0.01365472,0.70696
632.481,29.63164,-3.12573,-0.01854239,0.70452
635.781,29.74,-3.12835,-0.02239325,0.70207
639.081,29.84842,-3.12835,-0.02577348,0.69962
642.381,29.95706,-3.12967,-0.03222894,0.69717
645.681,30.0655,-3.13093,-0.03341922,0.69472
648.981,30.1744,-3.13361,-0.03533275,0.69227
652.281,30.28313,-3.13493,-0.03975428,0.68981
655.581,30.3919,-3.13625,-0.04338932,0.68735
658.881,30.5007,-3.13888,-0.04485801,0.68489
662.181,30.6096,-3.13758,-0.04777619,0.68243
665.481,30.71872,-3.14085,-0.05262177,0.67997
668.781,30.82767,-3.14427,-0.05349489,0.67751
672.081,30.9368,-3.14425,-0.05876166,0.67504
675.381,31.0458,-3.14425,-0.05997602,0.67257
678.681,31.1552,-3.14557,-0.06430736,0.6701
681.981,31.2644,-3.14428,-0.0680889,0.66763
685.281,31.3738,-3.14569,-0.06777762,0.66516
688.581,31.48333,-3.14585,-0.07321562,0.66269
691.881,31.5928,-3.14689,-0.07834059,0.66021
695.181,31.7021,-3.1483,-0.07753351,0.65774
698.481,31.8119,-3.14966,-0.07854159,0.65526
701.781,31.9215,-3.15194,-0.07925802,0.65278
705.081,32.03133,-3.1493,-0.08274708,0.6503
708.381,32.14123,-3.14995,-0.08587142,0.64782
711.681,32.2511,-3.14996,-0.08352091,0.64533
714.981,32.36099,-3.15127,-0.08746268,0.64285
718.281,32.47105,-3.15257,-0.08853409,0.64036
721.581,32.58097,-3.15358,-0.0905497,0.63788
724.881,32.69102,-3.15495,-0.09131697,0.63539
728.181,32.8011,-3.15622,-0.09856069,0.6329
731.481,32.9112,-3.15556,-0.09867855,0.63041
734.781,33.02151,-3.15562,-0.10374,0.62792
738.081,33.13172,-3.15721,-0.10457,0.62543
741.381,33.24207,-3.1572,-0.11012,0.62294
744.681,33.35253,-3.1572,-0.11185,0.62045
747.981,33.4629,-3.1581,-0.11686,0.61795
751.281,33.57345,-3.15853,-0.11872,0.61546
754.581,33.68365,-3.15979,-0.11879,0.61297
757.881,33.79423,-3.16021,-0.11626,0.61047
761.181,33.90484,-3.16238,-0.1201,0.60797
764.481,34.01522,-3.16378,-0.12646,0.60548
767.781,34.12575,-3.16238,-0.12904,0.60298
771.081,34.2363,-3.16247,-0.12996,0.60048
774.381,34.3468,-3.16368,-0.1341,0.59798
777.681,34.4574,-3.16646,-0.1363,0.59549
780.981,34.56793,-3.16644,-0.13933,0.59299
784.281,34.67864,-3.16642,-0.14153,0.59049
787.581,34.78918,-3.16773,-0.14464,0.58799
790.881,34.8999,-3.16773,-0.14256,0.58549
793.781,34.99765,-3.16641,-0.14251,0.58329