File: 01_Data/Pallet_Wood/STA/N2/30K_min/Pallet_Wood_STA_N2_30KData_220413_R1.csv
##Temp./Â°C,Time/min,Mass loss(subtr.2)/mg,DSC(subtr.2)/(mW/mg),Sensit./(uV/mW)
48.446,10.01,-0.04113,0.00889259,1.07508
51.646,10.88349,-0.04353835,0.14485,1.07367
54.846,11.11858,-0.04407191,0.24443,1.07224
58.046,11.2988,-0.04624998,0.32605,1.07081
61.246,11.4542,-0.04548741,0.3953,1.06936
64.446,11.5954,-0.04609007,0.45256,1.0679
67.646,11.7276,-0.04923699,0.50475,1.06643
70.846,11.85356,-0.04793333,0.55182,1.06495
74.046,11.97592,-0.04982938,0.59434,1.06346
77.246,12.09476,-0.05005952,0.63584,1.06196
80.446,12.2108,-0.05123269,0.67344,1.06044
83.646,12.3253,-0.0519219,0.70758,1.05892
86.846,12.43788,-0.0531001,0.73877,1.05738
90.046,12.54909,-0.05498997,0.76971,1.05584
93.246,12.6587,-0.05627584,0.79154,1.05428
96.446,12.768,-0.05849437,0.81211,1.05272
99.646,12.8765,-0.05832203,0.82886,1.05114
102.846,12.98433,-0.06175827,0.83566,1.04956
106.046,13.09197,-0.06445726,0.83726,1.04796
109.246,13.19936,-0.06437773,0.83385,1.04635
112.446,13.3065,-0.0669919,0.82496,1.04474
115.646,13.4133,-0.06793854,0.81171,1.04311
118.846,13.5198,-0.06898975,0.79882,1.04148
122.046,13.62563,-0.06840836,0.787,1.03983
125.246,13.731,-0.06964494,0.78044,1.03818
128.446,13.83596,-0.07031017,0.77041,1.03652
131.646,13.9402,-0.07161999,0.76621,1.03485
134.846,14.0442,-0.07294808,0.76399,1.03317
138.046,14.14746,-0.06979294,0.76567,1.03148
141.246,14.2504,-0.07198007,0.76805,1.02978
144.446,14.3527,-0.07222319,0.77038,1.02807
147.646,14.4549,-0.07326,0.78013,1.02636
150.846,14.55652,-0.07288291,0.78767,1.02463
154.046,14.6581,-0.07190271,0.79561,1.0229
157.246,14.759,-0.07253496,0.8046,1.02116
160.446,14.8597,-0.07360903,0.81146,1.01941
163.646,14.96039,-0.0732766,0.8191,1.01765
166.846,15.0608,-0.07359999,0.83055,1.01589
170.046,15.16104,-0.07367665,0.83966,1.01411
173.246,15.26096,-0.07425,0.84923,1.01233
176.446,15.3605,-0.07424995,0.86218,1.01054
179.646,15.4598,-0.07556921,0.87074,1.00874
182.846,15.5587,-0.07391492,0.88325,1.00694
186.046,15.6571,-0.07622992,0.89149,1.00513
189.246,15.75531,-0.07622551,0.90065,1.00331
192.446,15.8535,-0.07610699,0.9109,1.00148
195.646,15.9512,-0.07742996,0.92133,0.99964
198.846,16.04935,-0.07742762,0.92993,0.9978
202.046,16.14689,-0.07942801,0.93872,0.99595
205.246,16.24434,-0.0788356,0.95105,0.9941
208.446,16.34176,-0.079866,0.9616,0.99223
211.646,16.43928,-0.0810527,0.97165,0.99036
214.846,16.53606,-0.08237002,0.9804,0.98848
218.046,16.63363,-0.08332518,0.99023,0.9866
221.246,16.73065,-0.08500105,1.00005,0.98471
224.446,16.82781,-0.08664401,1.01066,0.98281
227.646,16.92481,-0.08925915,1.02202,0.98091
230.846,17.0217,-0.08916473,1.03331,0.979
234.046,17.1186,-0.0927938,1.0452,0.97708
237.246,17.21535,-0.09554011,1.05822,0.97516
240.446,17.31227,-0.09917772,1.06657,0.97323
243.646,17.4089,-0.10257,1.07763,0.97129
246.846,17.50563,-0.10626,1.09006,0.96935
250.046,17.60219,-0.11095,1.09991,0.9674
253.246,17.69878,-0.11734,1.11373,0.96545
256.446,17.79525,-0.12369,1.12611,0.96349
259.646,17.8917,-0.13053,1.13753,0.96153
262.846,17.9882,-0.13868,1.14487,0.95955
266.046,18.0847,-0.14896,1.15281,0.95758
269.246,18.18085,-0.15934,1.16271,0.95559
272.446,18.27739,-0.17143,1.17173,0.9536
275.646,18.37407,-0.18645,1.17988,0.95161
278.846,18.47056,-0.20398,1.19168,0.94961
282.046,18.5671,-0.222,1.2034,0.94761
285.246,18.6635,-0.24085,1.21386,0.9456
288.446,18.76032,-0.2665,1.22395,0.94358
291.646,18.8569,-0.2944,1.23546,0.94156
294.846,18.95375,-0.32671,1.23971,0.93953
298.046,19.05043,-0.36168,1.24151,0.9375
301.246,19.14676,-0.40316,1.23633,0.93546
304.446,19.24372,-0.44576,1.22746,0.93342
307.646,19.3407,-0.49302,1.2137,0.93138
310.846,19.43751,-0.54286,1.20164,0.92933
314.046,19.53445,-0.59414,1.18808,0.92727
317.246,19.63139,-0.6471,1.1722,0.92521
320.446,19.72855,-0.70303,1.16158,0.92314
323.646,19.82559,-0.75728,1.15912,0.92107
326.846,19.92288,-0.81246,1.15725,0.919
330.046,20.02016,-0.86992,1.1643,0.91692
333.246,20.11737,-0.92843,1.17665,0.91483
336.446,20.2149,-0.988,1.1945,0.91274
339.646,20.3124,-1.05121,1.22034,0.91065
342.846,20.40999,-1.11264,1.25237,0.90855
346.046,20.5078,-1.17881,1.28672,0.90645
349.246,20.6057,-1.24442,1.3279,0.90434
352.446,20.70364,-1.31551,1.37765,0.90223
355.646,20.80181,-1.38659,1.43354,0.90011
358.846,20.90009,-1.46186,1.50054,0.89799
362.046,20.99847,-1.54017,1.57815,0.89587
365.246,21.09702,-1.62423,1.66683,0.89374
368.446,21.19558,-1.71648,1.77085,0.89161
371.646,21.29441,-1.81322,1.88973,0.88947
374.846,21.39336,-1.92007,2.01197,0.88733
378.046,21.49239,-2.03149,2.13256,0.88519
381.246,21.59153,-2.1565,2.23614,0.88304
384.446,21.69079,-2.27844,2.30301,0.88089
387.646,21.79014,-2.41338,2.30621,0.87873
390.846,21.88953,-2.54016,2.21837,0.87657
394.046,21.98884,-2.66667,2.02241,0.87441
397.246,22.08813,-2.77351,1.71098,0.87224
400.446,22.18731,-2.86412,1.31494,0.87007
403.646,22.28614,-2.93038,0.88351,0.86789
406.846,22.3852,-2.97686,0.49188,0.86572
410.046,22.48413,-3.00382,0.1955,0.86353
413.246,22.5832,-3.0204,0.01348629,0.86135
416.446,22.68238,-3.03253,-0.08638074,0.85916
419.646,22.78169,-3.04299,-0.14612,0.85696
422.846,22.88138,-3.05062,-0.18643,0.85477
426.046,22.9812,-3.05858,-0.21913,0.85257
429.246,23.08097,-3.06584,-0.24514,0.85036
432.446,23.1813,-3.07604,-0.26825,0.84816
435.646,23.28135,-3.08352,-0.28374,0.84595
438.846,23.3817,-3.09053,-0.29812,0.84373
442.046,23.48219,-3.10002,-0.30426,0.84152
445.246,23.58287,-3.10798,-0.31146,0.8393
448.446,23.68365,-3.11517,-0.31599,0.83707
451.646,23.7846,-3.12218,-0.31078,0.83485
454.846,23.8855,-3.1286,-0.30101,0.83262
458.046,23.98658,-3.1335,-0.29165,0.83038
461.246,24.0878,-3.14081,-0.27876,0.82815
464.446,24.189,-3.14683,-0.26177,0.82591
467.646,24.29053,-3.15341,-0.24604,0.82366
470.846,24.3921,-3.16016,-0.227,0.82142
474.046,24.49375,-3.16441,-0.21047,0.81917
477.246,24.5956,-3.16921,-0.19317,0.81692
480.446,24.69749,-3.1756,-0.17745,0.81466
483.646,24.79946,-3.17945,-0.16498,0.8124
486.846,24.90136,-3.18386,-0.15018,0.81014
490.046,25.00369,-3.18728,-0.13954,0.80788
493.246,25.10604,-3.19108,-0.13136,0.80561
496.446,25.2082,-3.19563,-0.1224,0.80334
499.646,25.31077,-3.19853,-0.11465,0.80107
502.846,25.41333,-3.20274,-0.10962,0.7988
506.046,25.51594,-3.20601,-0.10701,0.79652
509.246,25.61873,-3.20963,-0.10193,0.79424
512.446,25.72137,-3.21326,-0.09883201,0.79195
515.646,25.82435,-3.21668,-0.09461788,0.78967
518.846,25.927,-3.21937,-0.09677361,0.78738
522.046,26.0301,-3.22323,-0.09142354,0.78509
525.246,26.1331,-3.22586,-0.09078897,0.78279
528.446,26.2363,-3.22782,-0.08916503,0.78049
531.646,26.33939,-3.22991,-0.08315691,0.77819
534.846,26.4426,-3.23349,-0.07781454,0.77589
538.046,26.5458,-3.23712,-0.06829283,0.77359
541.246,26.6492,-3.2394,-0.06919808,0.77128
544.446,26.75272,-3.24145,-0.06600283,0.76897
547.646,26.8563,-3.24459,-0.06029103,0.76666
550.846,26.96002,-3.24714,-0.06155761,0.76434
554.046,27.0637,-3.24978,-0.06076948,0.76202
557.246,27.16747,-3.25253,-0.06338151,0.75971
560.446,27.2714,-3.25515,-0.06312248,0.75738
563.646,27.3754,-3.25729,-0.06336226,0.75506
566.846,27.4795,-3.25976,-0.068205,0.75273
570.046,27.58352,-3.26335,-0.07200583,0.7504
573.246,27.68788,-3.26448,-0.08172695,0.74807
576.446,27.792,-3.2689,-0.09117775,0.74574
579.646,27.89647,-3.26878,-0.09523195,0.7434
582.846,28.0008,-3.27139,-0.10037,0.74106
586.046,28.10528,-3.27398,-0.10696,0.73872
589.246,28.2099,-3.27665,-0.11404,0.73638
592.446,28.31458,-3.27941,-0.11565,0.73403
595.646,28.41935,-3.28071,-0.12212,0.73168
598.846,28.52419,-3.28333,-0.12231,0.72934
602.046,28.629,-3.28564,-0.13206,0.72698
605.246,28.7339,-3.28793,-0.13206,0.72463
608.446,28.83847,-3.28959,-0.13962,0.72227
611.646,28.94378,-3.29086,-0.14503,0.71992
614.846,29.0487,-3.29353,-0.15142,0.71756
618.046,29.15376,-3.29485,-0.151,0.71519
621.246,29.2587,-3.29595,-0.15823,0.71283
624.446,29.36385,-3.2987,-0.15886,0.71047
627.646,29.46913,-3.30011,-0.16284,0.7081
630.846,29.5745,-3.30014,-0.16252,0.70573
634.046,29.6799,-3.30407,-0.17111,0.70336
637.246,29.78544,-3.30538,-0.17697,0.70098
640.446,29.89078,-3.30573,-0.18183,0.69861
643.646,29.99646,-3.30722,-0.18349,0.69623
646.846,30.10202,-3.31098,-0.18737,0.69385
650.046,30.2074,-3.31359,-0.18839,0.69147
653.246,30.31314,-3.31502,-0.19161,0.68909
656.446,30.41896,-3.31493,-0.19333,0.68671
659.646,30.5245,-3.31492,-0.1971,0.68432
662.846,30.6302,-3.31625,-0.19599,0.68194
666.046,30.73586,-3.31886,-0.19833,0.67955
669.246,30.84168,-3.31951,-0.20003,0.67716
672.446,30.9475,-3.32085,-0.19723,0.67477
675.646,31.05335,-3.32178,-0.19579,0.67237
678.846,31.15914,-3.32283,-0.19653,0.66998
682.046,31.26506,-3.32415,-0.19496,0.66758
685.246,31.37105,-3.32546,-0.19215,0.66519
688.446,31.47703,-3.32469,-0.19032,0.66279
691.646,31.58295,-3.32651,-0.19074,0.66039
694.846,31.689,-3.32778,-0.19084,0.65799
698.046,31.79481,-3.3304,-0.19058,0.65558
701.246,31.90093,-3.33114,-0.18993,0.65318
704.446,32.00703,-3.33171,-0.18962,0.65078
707.646,32.11335,-3.33187,-0.18483,0.64837
710.846,32.21966,-3.33435,-0.18512,0.64596
714.046,32.326,-3.33468,-0.18096,0.64355
717.246,32.43241,-3.33486,-0.1813,0.64114
720.446,32.5388,-3.33599,-0.17836,0.63873
723.646,32.64546,-3.33599,-0.17478,0.63632
726.846,32.75212,-3.3373,-0.18063,0.63391
730.046,32.85906,-3.33862,-0.17939,0.6315
733.246,32.96581,-3.33957,-0.176,0.62908
736.446,33.0728,-3.3396,-0.18217,0.62667
739.646,33.17974,-3.34158,-0.18392,0.62425
742.846,33.28663,-3.34028,-0.17861,0.62183
746.046,33.3938,-3.34026,-0.1765,0.61942
749.246,33.50088,-3.34157,-0.17623,0.617
752.446,33.6079,-3.3429,-0.17193,0.61458
755.646,33.71498,-3.34353,-0.17024,0.61216
758.846,33.8221,-3.34454,-0.16686,0.60974
762.046,33.92907,-3.34587,-0.15991,0.60732
765.246,34.03644,-3.34586,-0.16554,0.6049
768.446,34.14365,-3.34777,-0.16423,0.60248
771.646,34.25088,-3.34684,-0.16361,0.60005
774.846,34.35823,-3.34689,-0.16043,0.59763
778.046,34.46553,-3.34943,-0.15984,0.59521
781.246,34.57288,-3.35202,-0.16296,0.59279
784.446,34.6803,-3.35222,-0.1606,0.59036
787.646,34.7877,-3.35356,-0.15653,0.58794
790.846,34.89506,-3.35453,-0.1589,0.58552
793.946,34.9993,-3.35453,-0.15691,0.58317