File: 01_Data/Coffee_Machine/MCC/Coffee_Machine_MCC_30K_min_220202_R1.txt
Sample ID:	C:\MCC\MCC Cal\Test\Coffee_Machine_MCC_30K_min_220202_R1.txt
Sample Weight (mg):	4.41
Heating Rate (C/s):	0.5
Combustor Temp (C):	900
N2 Flow Rate (cc/min):	80
O2 Flow Rate (cc/min):	20
Calibration File:	C:\MCC\MCC Cal\Coeff1 JN10440_30_210304.txt.txt
T Correction Coefficients:	0	1.024463	0
Time Shift (s):	14
*
Time (s)	Temperature (C)	N2 flow rate (cc/min)	O2 flow rate (cc/min)	Flow Rate (cc/min)	Oxygen (%)	HRR (W/g)	Heating rate (C/s)
-0.001	110.790	80.011	19.993	103.770	20.098	-0.022	0.012
7.999	110.787	80.010	19.994	103.761	20.097	0.108	0.038
15.999	110.772	80.011	19.993	103.763	20.096	0.138	-0.027
24.000	110.757	80.011	19.993	103.766	20.097	0.090	0.002
31.999	110.798	80.009	19.994	103.823	20.086	0.878	0.029
40.000	111.090	80.009	19.994	103.924	20.071	2.017	0.055
47.999	111.939	80.010	19.995	103.986	20.056	3.112	0.136
55.999	113.287	80.009	19.993	104.006	20.055	3.178	0.201
63.999	115.170	80.007	19.995	104.015	20.054	3.218	0.241
72.000	117.413	80.010	19.995	104.016	20.050	3.527	0.295
80.000	119.933	80.011	19.994	104.020	20.051	3.460	0.339
88.000	122.690	80.009	19.994	104.019	20.054	3.282	0.341
95.999	125.730	80.011	19.994	104.037	20.049	3.633	0.367
104.000	128.860	80.012	19.993	104.029	20.052	3.412	0.395
111.999	132.281	80.010	19.994	104.040	20.047	3.747	0.477
119.999	135.763	80.009	19.992	104.030	20.051	3.487	0.425
127.999	139.400	80.011	19.994	104.022	20.052	3.429	0.454
136.000	143.117	80.008	19.996	104.017	20.050	3.547	0.484
143.999	146.977	80.009	19.994	104.019	20.052	3.433	0.467
151.999	150.972	80.010	19.993	104.021	20.052	3.411	0.499
159.999	154.962	80.010	19.994	104.020	20.051	3.489	0.521
167.999	158.935	80.009	19.996	104.015	20.052	3.389	0.506
175.999	162.948	80.008	19.995	104.017	20.056	3.078	0.510
183.999	167.019	80.012	19.994	104.011	20.053	3.310	0.536
192.000	171.008	80.009	19.994	103.994	20.054	3.244	0.506
199.999	175.014	80.008	19.994	103.981	20.055	3.163	0.497
207.999	178.968	80.008	19.994	103.981	20.055	3.205	0.509
215.999	182.841	80.010	19.992	103.982	20.055	3.190	0.469
223.999	186.873	80.008	19.994	103.980	20.062	2.693	0.534
231.999	190.744	80.008	19.994	103.977	20.059	2.887	0.497
240.000	194.684	80.010	19.993	103.978	20.062	2.689	0.444
247.999	198.577	80.011	19.995	103.974	20.062	2.699	0.485
255.999	202.477	80.009	19.995	103.966	20.058	2.939	0.456
264.000	206.406	80.008	19.996	103.956	20.063	2.561	0.502
272.000	210.356	80.011	19.994	103.950	20.064	2.497	0.515
280.000	214.323	80.009	19.994	103.962	20.063	2.611	0.495
287.999	218.307	80.009	19.994	103.958	20.063	2.593	0.493
296.000	222.268	80.009	19.994	103.947	20.063	2.619	0.497
303.999	226.289	80.009	19.994	103.904	20.065	2.451	0.521
312.000	230.339	80.009	19.994	103.944	20.068	2.193	0.501
320.000	234.396	80.011	19.995	103.942	20.064	2.531	0.516
328.000	238.377	80.012	19.994	103.942	20.065	2.417	0.528
336.000	242.332	80.011	19.994	103.944	20.065	2.463	0.508
343.999	246.340	80.012	19.993	103.940	20.070	2.068	0.462
352.000	250.430	80.013	19.994	103.939	20.067	2.311	0.529
360.000	254.363	80.009	19.994	103.938	20.067	2.271	0.500
368.000	258.322	80.010	19.993	103.937	20.066	2.381	0.479
375.999	262.218	80.010	19.993	103.937	20.066	2.359	0.498
384.000	266.151	80.010	19.994	103.928	20.065	2.421	0.496
392.000	270.081	80.008	19.995	103.941	20.069	2.177	0.477
399.999	274.080	80.010	19.993	103.925	20.064	2.487	0.505
408.000	278.093	80.011	19.993	103.929	20.067	2.317	0.475
416.000	282.110	80.011	19.994	103.933	20.068	2.245	0.531
424.000	286.125	80.009	19.994	103.932	20.066	2.333	0.499
431.999	290.139	80.011	19.994	103.928	20.069	2.175	0.499
440.000	294.165	80.009	19.994	103.916	20.067	2.293	0.483
447.999	298.307	80.008	19.994	103.909	20.065	2.448	0.539
455.999	302.296	80.009	19.996	103.910	20.064	2.484	0.486
464.000	306.364	80.009	19.993	103.908	20.065	2.404	0.503
472.000	310.424	80.008	19.993	103.905	20.064	2.542	0.516
479.999	314.522	80.007	19.994	103.906	20.063	2.592	0.498
488.000	318.546	80.010	19.993	103.909	20.066	2.392	0.517
495.999	322.617	80.010	19.993	103.905	20.062	2.663	0.510
504.000	326.654	80.010	19.994	103.902	20.061	2.719	0.513
511.999	330.625	80.012	19.995	103.900	20.057	3.044	0.490
519.999	334.626	80.011	19.994	103.900	20.056	3.114	0.488
528.000	338.626	80.009	19.993	103.900	20.056	3.116	0.509
536.000	342.627	80.008	19.994	103.902	20.055	3.156	0.506
544.000	346.639	80.008	19.994	103.901	20.052	3.411	0.497
552.000	350.698	80.007	19.994	103.900	20.050	3.545	0.522
560.000	354.730	80.008	19.994	103.897	20.046	3.870	0.516
568.000	358.776	80.011	19.993	103.895	20.044	4.004	0.509
576.000	362.852	80.011	19.993	103.879	20.038	4.405	0.522
584.000	366.881	80.009	19.995	103.880	20.030	4.989	0.529
592.000	370.880	80.013	19.993	103.876	20.028	5.186	0.504
600.000	374.964	80.010	19.993	103.887	20.018	5.896	0.527
608.000	379.026	80.008	19.993	103.887	20.006	6.744	0.503
616.000	383.034	80.009	19.993	103.875	19.991	7.870	0.510
624.000	387.074	80.009	19.994	103.879	19.976	8.989	0.488
631.999	391.105	80.009	19.995	103.867	19.951	10.815	0.529
640.000	395.188	80.007	19.994	103.868	19.916	13.354	0.521
648.000	399.257	80.010	19.996	103.862	19.877	16.220	0.425
656.000	403.335	80.010	19.994	103.858	19.836	19.239	0.524
664.000	407.448	80.010	19.993	103.858	19.780	23.407	0.538
671.999	411.534	80.012	19.994	103.845	19.713	28.262	0.506
679.999	415.549	80.011	19.992	103.837	19.628	34.552	0.512
687.999	419.663	80.008	19.993	103.825	19.539	41.071	0.507
696.000	423.683	80.008	19.993	103.823	19.426	49.324	0.478
703.999	427.860	80.010	19.994	103.781	19.314	57.626	0.501
712.000	431.818	80.009	19.994	103.804	19.148	69.737	0.483
720.000	435.883	80.010	19.994	103.744	18.895	88.269	0.500
728.000	439.798	80.008	19.995	103.720	18.514	116.169	0.488
736.000	443.670	80.008	19.997	103.679	18.026	151.868	0.456
744.000	447.562	80.010	19.993	103.629	17.423	195.888	0.477
752.000	451.487	80.010	19.994	103.520	16.646	252.327	0.456
759.999	455.427	80.012	19.993	103.381	15.707	320.375	0.499
768.000	459.331	80.010	19.994	103.211	14.673	395.539	0.509
775.999	463.227	80.009	19.993	103.020	13.604	471.941	0.481
783.999	467.130	80.009	19.994	102.849	12.585	545.646	0.479
792.000	470.987	80.010	19.994	102.690	12.052	584.708	0.469
799.999	475.016	80.008	19.995	102.712	12.238	571.801	0.502
808.000	479.199	80.008	19.995	102.810	13.239	500.664	0.496
816.000	483.511	80.009	19.994	103.049	14.925	378.861	0.519
823.999	487.934	80.009	19.995	103.360	16.921	233.307	0.566
832.000	492.396	80.010	19.994	103.710	18.545	114.159	0.559
840.000	497.001	80.011	19.994	103.870	19.465	46.555	0.599
848.000	501.612	80.009	19.994	103.899	19.866	17.030	0.593
856.000	506.090	80.009	19.995	103.887	20.024	5.458	0.560
863.999	510.734	80.010	19.994	103.861	20.063	2.550	0.598
871.999	515.051	80.008	19.993	103.798	20.077	1.546	0.606
879.999	519.745	80.008	19.995	103.712	20.082	1.210	0.526
888.000	524.197	80.008	19.994	103.809	20.079	1.398	0.564
896.000	528.731	80.011	19.994	103.859	20.084	1.023	0.566
903.999	533.292	80.011	19.994	103.863	20.084	1.019	0.584
912.000	537.816	80.010	19.995	103.866	20.088	0.782	0.578
920.000	542.200	80.010	19.995	103.861	20.090	0.576	0.559
927.999	546.467	80.009	19.995	103.848	20.091	0.538	0.542
936.000	550.658	80.009	19.994	103.851	20.094	0.333	0.493
943.999	554.857	80.009	19.994	103.856	20.093	0.403	0.527
952.000	558.974	80.010	19.994	103.859	20.093	0.357	0.523
959.999	563.050	80.009	19.994	103.860	20.089	0.686	0.511
968.000	567.049	80.010	19.993	103.855	20.092	0.487	0.488
975.999	571.104	80.011	19.993	103.858	20.092	0.489	0.499
984.000	575.257	80.009	19.995	103.858	20.096	0.170	0.529
992.000	579.292	80.009	19.994	103.862	20.096	0.160	0.535
1000.000	583.348	80.012	19.995	103.862	20.094	0.307	0.524
1008.000	587.396	80.009	19.994	103.864	20.096	0.172	0.499
1015.999	591.446	80.010	19.995	103.861	20.095	0.263	0.519
1024.000	595.499	80.010	19.993	103.852	20.094	0.333	0.460
1032.000	599.542	80.011	19.994	103.855	20.098	0.050	0.528
1039.999	603.626	80.009	19.994	103.842	20.095	0.265	0.513
1047.999	607.676	80.010	19.993	103.861	20.095	0.227	0.520
1055.999	611.720	80.012	19.994	103.856	20.093	0.395	0.495
1063.999	615.749	80.009	19.993	103.853	20.094	0.299	0.520
1072.000	619.783	80.009	19.993	103.858	20.094	0.299	0.534
1080.000	623.729	80.011	19.994	103.856	20.096	0.171	0.509
1088.000	627.645	80.011	19.993	103.841	20.094	0.301	0.499
1096.000	631.673	80.010	19.994	103.833	20.094	0.327	0.541
1103.999	635.630	80.008	19.995	103.857	20.093	0.379	0.522
1111.999	639.659	80.009	19.995	103.857	20.096	0.152	0.470
1120.000	643.722	80.008	19.994	103.861	20.096	0.183	0.501
1128.000	647.891	80.009	19.994	103.853	20.092	0.467	0.532
1136.000	652.020	80.011	19.994	103.851	20.091	0.508	0.514
1144.000	656.106	80.010	19.994	103.841	20.094	0.327	0.534
1151.999	660.224	80.011	19.993	103.853	20.096	0.169	0.553
1160.000	664.083	80.011	19.993	103.854	20.094	0.303	0.468
1168.000	667.968	80.009	19.994	103.838	20.092	0.473	0.482
1176.000	671.944	80.010	19.994	103.853	20.090	0.624	0.511
1183.999	675.962	80.008	19.995	103.864	20.095	0.265	0.507
1192.000	680.066	80.008	19.995	103.861	20.092	0.467	0.504
1200.000	684.208	80.007	19.995	103.863	20.091	0.503	0.529
1208.000	688.355	80.009	19.994	103.860	20.091	0.554	0.528
1215.999	692.566	80.010	19.993	103.846	20.091	0.554	0.526
1223.999	696.687	80.009	19.993	103.858	20.095	0.223	0.500
1232.000	700.765	80.010	19.993	103.848	20.095	0.243	0.485
1240.000	704.796	80.011	19.994	103.856	20.092	0.463	0.478
1247.999	708.757	80.010	19.993	103.854	20.094	0.297	0.461
1256.000	712.774	80.010	19.993	103.844	20.094	0.331	0.524
1264.000	716.783	80.009	19.995	103.854	20.094	0.341	0.508
1272.000	720.786	80.010	19.994	103.861	20.090	0.630	0.501
1280.000	724.769	80.010	19.994	103.843	20.087	0.808	0.473
1288.000	728.718	80.008	19.994	103.850	20.086	0.891	0.499
1296.000	732.689	80.010	19.995	103.843	20.086	0.917	0.523
1304.000	736.610	80.010	19.994	103.853	20.089	0.670	0.486
1312.000	740.602	80.011	19.994	103.853	20.088	0.786	0.520
1318.500	743.798	80.011	19.994	103.833	20.087	0.821	0.454