File: 01_Data/Coffee_Machine/MCC/Coffee_Machine_MCC_30K_min_220202_R2.txt
Sample ID:	C:\MCC\MCC Cal\Test\Coffee_Machine_MCC_30K_min_220202_R2.txt
Sample Weight (mg):	4.42
Heating Rate (C/s):	0.5
Combustor Temp (C):	900
N2 Flow Rate (cc/min):	80
O2 Flow Rate (cc/min):	20
Calibration File:	C:\MCC\MCC Cal\Coeff1 JN10440_30_210304.txt.txt
T Correction Coefficients:	0	1.024463	0
Time Shift (s):	14
*
Time (s)	Temperature (C)	N2 flow rate (cc/min)	O2 flow rate (cc/min)	Flow Rate (cc/min)	Oxygen (%)	HRR (W/g)	Heating rate (C/s)
0.000	112.881	80.012	19.992	103.820	19.942	0.197	-0.013
8.000	112.860	80.011	19.994	103.810	19.939	0.388	-0.005
16.000	112.838	80.009	19.995	103.845	19.934	0.779	0.004
24.001	112.987	80.009	19.996	103.932	19.923	1.568	0.048
32.000	113.567	80.010	19.995	103.981	19.905	2.918	0.110
40.000	114.597	80.007	19.995	104.029	19.894	3.684	0.131
48.000	116.145	80.010	19.994	104.048	19.893	3.799	0.208
56.000	118.186	80.010	19.993	104.051	19.894	3.672	0.293
64.001	120.447	80.011	19.993	104.052	19.893	3.781	0.309
72.000	123.001	80.011	19.993	104.051	19.891	3.909	0.340
80.000	125.756	80.012	19.993	104.025	19.892	3.875	0.357
88.001	128.638	80.014	19.993	104.035	19.891	3.953	0.368
96.001	131.758	80.010	19.994	104.052	19.889	4.106	0.428
104.000	134.966	80.010	19.994	104.051	19.889	4.065	0.431
112.000	138.344	80.010	19.993	104.045	19.891	3.905	0.471
120.001	141.824	80.010	19.995	104.057	19.889	4.047	0.453
128.001	145.518	80.010	19.994	104.059	19.893	3.805	0.508
136.000	149.260	80.008	19.996	104.052	19.889	4.058	0.485
144.001	153.120	80.012	19.996	104.042	19.890	4.016	0.480
152.001	156.912	80.011	19.994	104.040	19.892	3.868	0.500
160.001	160.766	80.013	19.993	104.021	19.891	3.950	0.498
168.000	164.709	80.013	19.993	104.025	19.889	4.071	0.494
176.000	168.591	80.011	19.993	104.017	19.890	3.992	0.507
184.000	172.516	80.011	19.993	104.022	19.892	3.816	0.468
192.000	176.473	80.010	19.993	104.017	19.895	3.629	0.507
200.000	180.429	80.009	19.994	104.020	19.897	3.467	0.499
208.001	184.359	80.011	19.993	104.006	19.890	4.035	0.484
216.001	188.433	80.012	19.994	104.010	19.893	3.748	0.469
224.001	192.437	80.013	19.994	104.001	19.892	3.883	0.526
232.000	196.453	80.012	19.994	104.001	19.888	4.128	0.485
240.001	200.433	80.011	19.994	103.998	19.890	3.981	0.513
248.001	204.418	80.013	19.993	104.000	19.891	3.940	0.500
256.000	208.469	80.013	19.993	103.997	19.893	3.767	0.487
264.000	212.504	80.010	19.994	103.987	19.898	3.393	0.498
272.000	216.529	80.011	19.993	103.981	19.895	3.610	0.485
280.001	220.590	80.011	19.992	103.980	19.898	3.386	0.506
288.000	224.547	80.013	19.992	103.980	19.895	3.596	0.467
296.000	228.534	80.009	19.994	103.980	19.897	3.500	0.482
304.000	232.512	80.011	19.995	103.978	19.898	3.382	0.516
312.001	236.492	80.012	19.994	103.980	19.896	3.580	0.525
320.000	240.408	80.010	19.994	103.980	19.898	3.402	0.496
328.000	244.386	80.011	19.994	103.975	19.894	3.685	0.499
336.000	248.368	80.012	19.994	103.976	19.898	3.412	0.491
344.000	252.449	80.009	19.994	103.971	19.900	3.280	0.527
352.000	256.521	80.010	19.993	103.969	19.896	3.593	0.497
360.001	260.511	80.011	19.995	103.967	19.893	3.770	0.474
368.000	264.490	80.009	19.995	103.961	19.894	3.732	0.500
376.000	268.501	80.011	19.992	103.962	19.894	3.686	0.479
384.000	272.569	80.009	19.995	103.949	19.893	3.774	0.539
392.000	276.536	80.010	19.992	103.959	19.894	3.672	0.480
400.000	280.553	80.011	19.992	103.944	19.894	3.674	0.471
408.000	284.583	80.012	19.993	103.943	19.896	3.558	0.514
416.000	288.570	80.014	19.993	103.941	19.894	3.694	0.514
424.000	292.570	80.012	19.994	103.938	19.893	3.777	0.493
432.000	296.484	80.010	19.993	103.933	19.887	4.182	0.502
440.000	300.377	80.010	19.995	103.942	19.886	4.271	0.505
448.000	304.321	80.011	19.992	103.941	19.886	4.287	0.508
456.000	308.263	80.011	19.993	103.942	19.889	4.072	0.520
464.000	312.235	80.010	19.994	103.943	19.886	4.275	0.499
472.000	316.276	80.012	19.993	103.939	19.892	3.843	0.522
480.001	320.238	80.012	19.993	103.939	19.883	4.490	0.506
488.000	324.221	80.012	19.993	103.935	19.884	4.442	0.501
496.001	328.235	80.014	19.994	103.937	19.878	4.875	0.489
504.000	332.336	80.014	19.993	103.936	19.877	4.966	0.514
512.000	336.490	80.011	19.993	103.940	19.869	5.541	0.483
520.000	340.564	80.010	19.995	103.940	19.868	5.601	0.488
528.000	344.676	80.011	19.995	103.933	19.866	5.788	0.516
536.001	348.763	80.011	19.994	103.934	19.865	5.828	0.519
544.000	352.907	80.009	19.993	103.937	19.856	6.455	0.543
552.000	357.019	80.009	19.993	103.933	19.858	6.330	0.510
560.000	361.081	80.012	19.993	103.934	19.850	6.927	0.482
568.000	365.249	80.012	19.992	103.926	19.834	8.103	0.510
576.000	369.379	80.011	19.992	103.936	19.836	7.950	0.555
584.001	373.414	80.013	19.993	103.930	19.826	8.654	0.484
592.000	377.634	80.011	19.993	103.923	19.817	9.337	0.516
600.000	381.610	80.012	19.993	103.907	19.809	9.953	0.518
608.000	385.615	80.011	19.993	103.918	19.792	11.168	0.518
616.000	389.684	80.011	19.994	103.916	19.768	12.959	0.493
624.000	393.854	80.012	19.995	103.907	19.737	15.235	0.552
632.001	398.030	80.010	19.994	103.909	19.692	18.493	0.508
640.000	402.268	80.010	19.993	103.915	19.649	21.654	0.505
648.000	406.439	80.012	19.993	103.903	19.590	25.969	0.511
656.000	410.651	80.011	19.993	103.894	19.517	31.364	0.526
664.001	414.752	80.012	19.992	103.889	19.429	37.770	0.544
672.001	418.858	80.013	19.992	103.866	19.324	45.453	0.534
680.001	422.815	80.010	19.992	103.855	19.184	55.768	0.491
688.000	426.809	80.008	19.994	103.827	19.055	65.155	0.483
696.001	430.790	80.011	19.994	103.774	18.869	78.794	0.485
704.000	434.800	80.010	19.994	103.806	18.666	93.612	0.497
712.000	438.695	80.009	19.995	103.768	18.274	122.252	0.484
720.001	442.575	80.011	19.994	103.728	17.797	157.150	0.485
728.000	446.444	80.012	19.993	103.680	17.187	201.512	0.496
736.000	450.263	80.011	19.993	103.594	16.414	257.692	0.439
744.000	454.161	80.013	19.995	103.455	15.502	323.640	0.454
752.001	458.052	80.014	19.993	103.264	14.489	396.995	0.498
760.000	461.979	80.012	19.993	103.075	13.436	472.507	0.485
768.000	465.888	80.012	19.993	102.875	12.494	540.274	0.504
776.000	469.899	80.012	19.994	102.697	11.972	578.138	0.504
784.000	474.020	80.010	19.994	102.706	12.163	565.100	0.511
792.000	478.127	80.009	19.994	102.846	13.250	487.714	0.500
800.000	482.353	80.012	19.994	103.094	15.002	361.215	0.543
808.000	486.547	80.013	19.995	103.395	16.941	220.102	0.511
816.001	490.710	80.011	19.994	103.736	18.445	109.968	0.511
824.000	494.922	80.012	19.993	103.880	19.292	47.836	0.539
832.001	499.038	80.014	19.994	103.895	19.667	20.300	0.495
840.000	503.163	80.011	19.994	103.920	19.820	9.133	0.520
848.000	507.260	80.011	19.993	103.704	19.862	6.030	0.522
856.001	511.353	80.010	19.995	103.803	19.876	4.986	0.542
864.001	515.580	80.011	19.995	103.861	19.883	4.541	0.564
872.000	519.756	80.011	19.993	103.867	19.884	4.427	0.528
880.000	523.902	80.010	19.995	103.881	19.890	4.011	0.509
888.000	527.992	80.013	19.995	103.863	19.894	3.715	0.537
896.000	532.047	80.013	19.994	103.861	19.892	3.854	0.514
904.000	536.077	80.010	19.994	103.859	19.892	3.873	0.498
912.000	540.089	80.012	19.994	103.864	19.896	3.539	0.508
920.001	544.028	80.011	19.993	103.882	19.895	3.628	0.482
928.001	547.994	80.010	19.993	103.892	19.895	3.645	0.477
936.000	552.003	80.010	19.993	103.865	19.895	3.621	0.493
944.000	556.032	80.011	19.994	103.864	19.895	3.611	0.483
952.000	560.035	80.011	19.993	103.851	19.898	3.378	0.500
960.000	564.046	80.011	19.993	103.862	19.900	3.225	0.496
968.000	568.083	80.012	19.994	103.827	19.902	3.114	0.488
976.000	572.166	80.012	19.995	103.860	19.901	3.156	0.536
984.000	576.327	80.011	19.994	103.861	19.908	2.706	0.510
992.000	580.413	80.012	19.993	103.860	19.905	2.873	0.523
1000.000	584.476	80.013	19.995	103.859	19.903	3.016	0.521
1008.000	588.526	80.011	19.993	103.848	19.913	2.310	0.484
1016.000	592.562	80.012	19.994	103.860	19.909	2.632	0.496
1024.001	596.685	80.011	19.993	103.858	19.910	2.521	0.473
1032.001	600.735	80.012	19.994	103.863	19.911	2.442	0.512
1040.001	604.786	80.010	19.994	103.865	19.912	2.376	0.492
1048.000	608.977	80.011	19.993	103.867	19.914	2.219	0.558
1056.001	613.143	80.013	19.993	103.866	19.913	2.320	0.534
1064.001	617.320	80.012	19.994	103.864	19.913	2.282	0.529
1072.001	621.428	80.011	19.994	103.861	19.916	2.051	0.481
1080.000	625.477	80.014	19.994	103.860	19.919	1.880	0.498
1088.001	629.478	80.012	19.994	103.860	19.915	2.151	0.493
1096.000	633.570	80.010	19.995	103.859	19.915	2.139	0.497
1104.001	637.598	80.010	19.996	103.863	19.918	1.974	0.495
1112.000	641.676	80.010	19.993	103.868	19.919	1.888	0.493
1120.000	645.736	80.012	19.993	103.865	19.920	1.819	0.502
1128.000	649.845	80.011	19.994	103.864	19.919	1.904	0.511
1136.000	653.925	80.012	19.992	103.861	19.919	1.876	0.489
1144.001	658.027	80.011	19.993	103.858	19.920	1.759	0.511
1152.000	662.078	80.010	19.995	103.861	19.923	1.580	0.520
1160.001	666.207	80.012	19.993	103.862	19.920	1.807	0.518
1168.000	670.352	80.012	19.994	103.866	19.925	1.439	0.505
1176.000	674.612	80.010	19.993	103.865	19.927	1.291	0.509
1184.000	678.793	80.010	19.995	103.865	19.928	1.190	0.521
1192.000	682.764	80.009	19.995	103.859	19.927	1.281	0.502
1200.000	686.662	80.011	19.994	103.860	19.928	1.190	0.459
1208.000	690.552	80.010	19.994	103.860	19.932	0.931	0.522
1216.000	694.498	80.012	19.994	103.861	19.930	1.061	0.492
1224.000	698.586	80.013	19.995	103.859	19.929	1.116	0.549
1232.001	702.655	80.013	19.995	103.866	19.930	1.041	0.471
1240.000	706.675	80.014	19.992	103.861	19.933	0.816	0.473
1248.000	710.766	80.012	19.993	103.862	19.928	1.208	0.509
1256.000	714.814	80.011	19.995	103.861	19.932	0.941	0.504
1264.001	718.883	80.011	19.994	103.850	19.934	0.738	0.514
1272.000	722.904	80.011	19.994	103.850	19.935	0.670	0.505
1280.000	726.944	80.010	19.995	103.849	19.936	0.605	0.510
1288.000	730.962	80.010	19.995	103.860	19.937	0.527	0.478
1296.000	735.050	80.012	19.992	103.859	19.942	0.191	0.532
1304.000	739.035	80.012	19.993	103.859	19.940	0.314	0.481
1312.000	743.032	80.011	19.993	103.855	19.942	0.167	0.483
1313.001	743.550	80.012	19.995	103.857	19.939	0.394	0.512