File: 01_Data/Overstuffed_Chair_Polyester_Fabric/MCC/Overstuffed_Chair_Polyester_Fabric_MCC_30K_min_210308_R1.txt
Sample ID:	C:\MCC\MCC Cal\Test\Polyester_Fabric_30_1.txt
Sample Weight (mg):	3.05
Heating Rate (C/s):	0.5
Combustor Temp (C):	900
N2 Flow Rate (cc/min):	80
O2 Flow Rate (cc/min):	20
Calibration File:	C:\MCC\MCC Cal\Coeff1 JN10440_30_210304.txt.txt
T Correction Coefficients:	0	1.024463	0
Time Shift (s):	14
*
Time (s)	Temperature (C)	N2 flow rate (cc/min)	O2 flow rate (cc/min)	Flow Rate (cc/min)	Oxygen (%)	HRR (W/g)	Heating rate (C/s)
0.000	107.357	79.993	19.991	99.583	20.291	-0.025	-0.025
7.500	107.338	79.992	19.992	99.604	20.295	-0.469	0.016
15.000	107.271	79.993	19.992	99.596	20.293	-0.271	-0.030
22.500	107.310	79.994	19.991	99.602	20.286	0.464	-0.010
30.000	107.336	79.993	19.992	99.673	20.282	0.897	0.012
37.501	107.645	79.995	19.991	99.781	20.265	2.655	0.043
45.000	108.517	79.996	19.990	99.803	20.258	3.285	0.146
52.500	109.591	79.993	19.991	99.799	20.252	3.971	0.155
60.000	111.127	79.993	19.991	99.800	20.243	4.875	0.219
67.500	112.931	79.993	19.992	99.875	20.242	4.932	0.316
75.000	115.049	79.993	19.992	99.875	20.236	5.555	0.290
82.500	117.496	79.994	19.992	99.873	20.238	5.405	0.360
90.000	120.221	79.993	19.993	99.891	20.234	5.822	0.368
97.500	123.160	79.997	19.992	99.910	20.242	4.960	0.377
105.001	126.206	79.995	19.992	99.885	20.235	5.674	0.418
112.500	129.495	79.994	19.993	99.903	20.234	5.748	0.430
120.000	132.817	79.994	19.992	99.909	20.240	5.180	0.449
127.500	136.368	79.995	19.992	99.899	20.234	5.750	0.480
135.000	139.956	79.993	19.990	99.913	20.238	5.348	0.470
142.500	143.652	79.994	19.992	99.906	20.231	6.104	0.487
150.000	147.340	79.994	19.992	99.906	20.237	5.477	0.492
157.500	151.111	79.994	19.992	99.911	20.234	5.749	0.487
165.000	154.862	79.994	19.991	99.912	20.237	5.487	0.481
172.500	158.590	79.994	19.991	99.897	20.239	5.264	0.484
180.000	162.409	79.995	19.994	99.907	20.239	5.307	0.527
187.500	166.173	79.995	19.991	99.902	20.234	5.786	0.504
195.000	169.955	79.992	19.990	99.885	20.239	5.305	0.496
202.500	173.703	79.996	19.991	99.891	20.237	5.479	0.540
210.000	177.421	79.994	19.992	99.894	20.241	5.107	0.476
217.500	181.164	79.991	19.991	99.905	20.240	5.189	0.528
225.001	184.947	79.992	19.991	99.846	20.241	5.068	0.518
232.500	188.689	79.994	19.991	99.908	20.236	5.605	0.492
240.001	192.459	79.994	19.991	99.908	20.238	5.345	0.509
247.500	196.054	79.993	19.991	99.900	20.237	5.490	0.473
255.000	199.815	79.994	19.991	99.921	20.241	5.118	0.509
262.500	203.491	79.995	19.991	99.908	20.240	5.132	0.498
270.000	207.273	79.994	19.992	99.928	20.235	5.657	0.508
277.500	210.976	79.994	19.991	99.891	20.236	5.538	0.477
285.000	214.675	79.996	19.991	99.887	20.230	6.207	0.465
292.500	218.431	79.996	19.991	99.928	20.242	4.981	0.495
300.000	222.193	79.994	19.992	99.911	20.238	5.363	0.519
307.500	225.964	79.992	19.992	99.915	20.237	5.491	0.520
315.000	229.766	79.993	19.990	99.901	20.234	5.775	0.495
322.500	233.529	79.993	19.990	99.881	20.229	6.298	0.482
330.000	237.257	79.991	19.992	99.907	20.235	5.650	0.488
337.500	240.942	79.994	19.992	99.897	20.229	6.313	0.470
345.000	244.749	79.996	19.992	99.906	20.227	6.498	0.501
352.500	248.472	79.994	19.992	99.922	20.233	5.902	0.511
360.000	252.316	79.996	19.993	99.911	20.234	5.784	0.514
367.500	256.049	79.995	19.990	99.887	20.232	6.038	0.475
375.000	259.795	79.995	19.992	99.915	20.235	5.642	0.472
382.500	263.524	79.992	19.992	99.916	20.232	5.983	0.528
390.000	267.287	79.992	19.993	99.912	20.237	5.485	0.487
397.500	271.013	79.994	19.995	99.919	20.233	5.867	0.486
405.000	274.793	79.993	19.992	99.908	20.234	5.793	0.462
412.500	278.547	79.992	19.991	99.918	20.229	6.280	0.496
420.000	282.326	79.994	19.991	99.914	20.228	6.391	0.488
427.500	286.064	79.995	19.991	99.931	20.229	6.300	0.474
435.000	289.843	79.994	19.991	99.913	20.227	6.554	0.505
442.500	293.663	79.994	19.992	99.926	20.220	7.196	0.482
450.000	297.495	79.995	19.992	99.917	20.218	7.406	0.512
457.500	301.250	79.995	19.991	99.934	20.221	7.153	0.501
465.000	305.027	79.993	19.992	99.925	20.216	7.603	0.492
472.500	308.917	79.993	19.992	99.924	20.213	7.942	0.531
480.000	312.743	79.992	19.992	99.920	20.215	7.725	0.506
487.500	316.558	79.993	19.992	99.917	20.216	7.595	0.514
495.000	320.329	79.994	19.991	99.924	20.210	8.245	0.483
502.500	324.187	79.994	19.990	99.918	20.215	7.719	0.490
510.000	328.029	79.993	19.992	99.916	20.210	8.217	0.500
517.500	331.813	79.994	19.990	99.925	20.219	7.330	0.487
525.000	335.597	79.993	19.989	99.918	20.210	8.195	0.520
532.500	339.384	79.997	19.991	99.933	20.204	8.869	0.486
540.000	343.161	79.993	19.992	99.930	20.201	9.141	0.485
547.500	346.939	79.994	19.992	99.923	20.189	10.421	0.505
555.000	350.770	79.993	19.993	99.924	20.185	10.763	0.481
562.500	354.552	79.993	19.992	99.916	20.177	11.622	0.459
570.000	358.400	79.992	19.993	99.953	20.158	13.525	0.495
577.500	362.184	79.993	19.991	99.945	20.151	14.319	0.452
585.000	366.004	79.994	19.990	99.952	20.147	14.734	0.511
592.500	369.857	79.993	19.991	99.936	20.134	16.048	0.542
600.000	373.736	79.996	19.992	99.949	20.124	17.010	0.519
607.500	377.576	79.996	19.990	99.949	20.111	18.396	0.523
615.000	381.416	79.995	19.990	99.958	20.106	18.894	0.515
622.500	385.260	79.994	19.992	99.965	20.097	19.775	0.532
630.000	389.070	79.994	19.992	99.961	20.089	20.601	0.523
637.500	393.018	79.994	19.992	99.957	20.083	21.220	0.552
645.000	396.822	79.994	19.991	99.959	20.064	23.218	0.498
652.500	400.604	79.992	19.991	99.970	20.020	27.706	0.493
660.000	404.406	79.992	19.992	100.000	19.965	33.309	0.493
667.500	408.206	79.995	19.992	99.990	19.904	39.601	0.486
675.000	411.971	79.995	19.992	100.039	19.827	47.512	0.506
682.500	415.682	79.993	19.989	100.098	19.709	59.564	0.496
690.000	419.442	79.996	19.990	100.112	19.596	71.194	0.491
697.500	423.193	79.995	19.990	100.176	19.455	85.660	0.507
705.000	426.932	79.993	19.992	100.231	19.246	107.295	0.471
712.500	430.693	79.993	19.991	100.356	19.029	129.440	0.499
720.000	434.471	79.994	19.991	100.327	18.770	156.243	0.502
727.500	438.241	79.993	19.991	100.429	18.714	161.924	0.521
735.000	442.103	79.993	19.992	100.452	18.677	165.818	0.520
742.500	445.936	79.993	19.991	100.451	18.636	170.004	0.529
750.000	449.815	79.996	19.994	100.425	18.666	166.867	0.537
757.500	453.633	79.995	19.991	100.408	18.793	153.533	0.514
765.000	457.443	79.996	19.990	100.351	18.995	132.759	0.511
772.500	461.229	79.996	19.989	100.303	19.257	105.902	0.497
780.000	465.071	79.996	19.990	100.168	19.556	75.184	0.523
787.500	468.892	79.995	19.992	100.131	19.781	52.142	0.521
795.000	472.688	79.995	19.989	99.998	19.922	37.706	0.538
802.500	476.550	79.994	19.991	100.006	20.022	27.440	0.536
810.000	480.351	79.994	19.992	99.989	20.088	20.673	0.494
817.500	484.189	79.994	19.992	99.944	20.135	15.870	0.514
825.000	488.046	79.993	19.991	99.952	20.170	12.319	0.495
832.500	491.883	79.993	19.992	99.913	20.194	9.870	0.548
840.000	495.722	79.995	19.992	99.904	20.201	9.150	0.506
847.500	499.528	79.995	19.993	99.891	20.212	8.009	0.527
855.000	503.467	79.997	19.991	99.907	20.218	7.401	0.559
862.500	507.415	79.996	19.991	99.909	20.222	6.995	0.441
870.000	511.099	79.993	19.991	99.945	20.220	7.210	0.463
877.500	515.127	79.993	19.992	99.902	20.219	7.289	0.573
885.000	519.047	79.996	19.990	99.893	20.221	7.077	0.495
892.500	523.018	79.994	19.992	99.896	20.223	6.951	0.529
900.000	526.963	79.993	19.992	99.883	20.218	7.408	0.515
907.500	530.919	79.993	19.992	99.913	20.226	6.599	0.525
915.000	534.921	79.997	19.992	99.910	20.225	6.743	0.539
922.500	538.869	79.993	19.992	99.891	20.227	6.458	0.547
930.000	542.737	79.995	19.991	99.883	20.226	6.628	0.560
937.500	546.637	80.000	19.991	99.902	20.226	6.566	0.519
945.000	550.528	79.996	19.990	99.884	20.224	6.848	0.539
952.500	554.406	79.994	19.991	99.898	20.221	7.083	0.546
960.000	558.264	79.992	19.990	99.885	20.225	6.693	0.517
967.500	562.031	79.993	19.990	99.887	20.222	6.990	0.499
975.001	565.911	79.992	19.991	99.884	20.224	6.784	0.543
982.500	569.731	79.993	19.992	99.884	20.223	6.932	0.520
990.000	573.588	79.996	19.992	99.865	20.222	7.019	0.534
997.500	577.472	79.997	19.991	99.821	20.222	6.968	0.522
1005.000	581.313	79.993	19.993	99.901	20.227	6.461	0.515
1012.500	585.161	79.994	19.992	99.889	20.224	6.767	0.521
1020.000	589.033	79.997	19.992	99.898	20.226	6.652	0.542
1027.500	592.854	79.993	19.990	99.872	20.221	7.093	0.508
1035.000	596.804	79.993	19.991	99.891	20.225	6.683	0.509
1042.500	600.666	79.991	19.991	99.913	20.220	7.257	0.509
1050.001	604.546	79.994	19.991	99.875	20.221	7.154	0.508
1057.500	608.409	79.992	19.992	99.876	20.224	6.823	0.468
1065.000	612.301	79.994	19.992	99.877	20.218	7.458	0.525
1072.500	616.139	79.993	19.992	99.875	20.224	6.791	0.533
1080.000	619.994	79.994	19.990	99.877	20.228	6.401	0.504
1087.500	623.802	79.993	19.990	99.877	20.223	6.882	0.518
1095.000	627.621	79.993	19.992	99.877	20.226	6.644	0.523
1102.500	631.368	79.997	19.993	99.861	20.221	7.080	0.483
1110.000	635.226	79.994	19.992	99.865	20.231	6.092	0.510
1117.500	638.959	79.994	19.991	99.871	20.222	7.003	0.490
1125.000	642.772	79.994	19.991	99.815	20.221	7.070	0.483
1132.500	646.432	79.995	19.991	99.880	20.226	6.635	0.479
1140.000	650.291	79.993	19.992	99.915	20.227	6.486	0.520
1147.500	654.145	79.995	19.992	99.879	20.227	6.467	0.502
1155.000	658.029	79.995	19.992	99.874	20.230	6.231	0.500
1162.500	661.872	79.996	19.992	99.875	20.231	6.070	0.499
1170.001	665.716	79.995	19.991	99.854	20.231	6.126	0.524
1177.500	669.464	79.995	19.992	99.871	20.233	5.871	0.500
1185.000	673.303	79.995	19.991	99.871	20.230	6.206	0.493
1192.500	677.174	79.995	19.993	99.870	20.232	5.983	0.511
1200.000	680.966	79.994	19.991	99.868	20.232	5.992	0.539
1207.500	684.771	79.995	19.991	99.879	20.224	6.806	0.590
1215.000	688.517	79.994	19.992	99.871	20.230	6.146	0.496
1222.500	692.397	79.992	19.991	99.871	20.230	6.200	0.518
1230.000	696.255	79.993	19.991	99.881	20.228	6.398	0.515
1237.500	700.059	79.996	19.991	99.883	20.231	6.070	0.495
1245.000	703.876	79.995	19.991	99.874	20.231	6.079	0.515
1252.500	707.662	79.994	19.992	99.822	20.231	6.081	0.516
1260.000	711.571	79.995	19.992	99.857	20.233	5.903	0.502
1267.500	715.432	79.996	19.990	99.870	20.230	6.244	0.476
1275.000	719.257	79.992	19.993	99.872	20.229	6.269	0.489
1282.500	723.071	79.992	19.992	99.843	20.228	6.451	0.554
1290.001	726.861	79.993	19.993	99.893	20.228	6.380	0.541
1297.500	730.721	79.994	19.991	99.878	20.227	6.552	0.522
1305.000	734.497	79.994	19.991	99.856	20.228	6.434	0.488
1312.500	738.338	79.995	19.993	99.870	20.223	6.862	0.517
1320.001	742.161	79.996	19.991	99.870	20.219	7.359	0.508
1322.501	743.441	79.995	19.992	99.872	20.226	6.590	0.485