File: 01_Data/Overstuffed_Chair_Polyester_Fabric/MCC/Overstuffed_Chair_Polyester_Fabric_MCC_30K_min_210308_R3.txt
Sample ID:	C:\MCC\MCC Cal\Test\Polyester_Fabric_30_3.txt
Sample Weight (mg):	3.6
Heating Rate (C/s):	0.5
Combustor Temp (C):	900
N2 Flow Rate (cc/min):	80
O2 Flow Rate (cc/min):	20
Calibration File:	C:\MCC\MCC Cal\Coeff1 JN10440_30_210304.txt.txt
T Correction Coefficients:	0	1.024463	0
Time Shift (s):	14
*
Time (s)	Temperature (C)	N2 flow rate (cc/min)	O2 flow rate (cc/min)	Flow Rate (cc/min)	Oxygen (%)	HRR (W/g)	Heating rate (C/s)
-0.001	110.139	79.995	19.991	99.586	20.301	0.147	-0.002
5.999	110.093	79.996	19.991	99.608	20.306	-0.272	0.030
12.000	110.062	79.996	19.991	99.594	20.302	0.071	0.012
18.000	110.088	79.996	19.991	99.610	20.304	-0.047	0.021
23.999	110.091	79.997	19.991	99.603	20.302	0.085	-0.010
29.999	110.063	79.994	19.992	99.634	20.295	0.688	-0.018
35.999	110.175	79.993	19.991	99.670	20.290	1.155	0.011
42.000	110.387	79.995	19.990	99.695	20.281	1.894	0.048
47.999	110.803	79.994	19.991	99.757	20.266	3.171	0.092
53.999	111.521	79.994	19.990	99.791	20.262	3.573	0.142
59.999	112.391	79.994	19.992	99.795	20.263	3.484	0.157
65.999	113.480	79.993	19.992	99.793	20.262	3.569	0.220
71.999	114.713	79.996	19.990	99.817	20.256	4.061	0.211
77.999	116.102	79.996	19.990	99.823	20.252	4.386	0.222
83.999	117.697	79.996	19.991	99.865	20.249	4.692	0.270
89.999	119.465	79.995	19.992	99.871	20.249	4.655	0.295
95.999	121.374	79.995	19.991	99.845	20.246	4.898	0.341
101.999	123.344	79.999	19.991	99.830	20.246	4.924	0.348
108.000	125.500	79.997	19.991	99.824	20.250	4.576	0.340
113.999	127.681	79.994	19.991	99.853	20.248	4.742	0.398
119.999	130.049	79.995	19.992	99.883	20.248	4.750	0.360
126.001	132.381	79.995	19.993	99.861	20.245	5.063	0.395
132.000	134.851	79.996	19.990	99.896	20.244	5.107	0.401
138.000	137.383	79.996	19.990	99.891	20.242	5.288	0.424
144.000	139.976	79.995	19.991	99.905	20.244	5.149	0.407
150.000	142.656	79.994	19.991	99.880	20.242	5.262	0.451
156.000	145.419	79.996	19.991	99.897	20.241	5.379	0.437
162.000	148.175	79.997	19.991	99.890	20.239	5.574	0.442
168.000	151.003	79.998	19.991	99.890	20.240	5.483	0.453
174.000	153.791	79.995	19.992	99.910	20.237	5.728	0.476
180.000	156.687	79.997	19.991	99.902	20.238	5.623	0.500
186.000	159.605	79.998	19.991	99.911	20.236	5.836	0.473
192.000	162.529	79.996	19.990	99.901	20.236	5.843	0.507
198.000	165.463	79.994	19.991	99.895	20.234	5.932	0.484
204.000	168.448	79.995	19.992	99.890	20.237	5.720	0.499
210.000	171.411	79.995	19.992	99.881	20.238	5.635	0.527
216.000	174.504	79.996	19.992	99.901	20.236	5.770	0.493
222.000	177.508	79.996	19.990	99.896	20.241	5.383	0.482
228.000	180.498	79.996	19.991	99.893	20.237	5.730	0.479
234.000	183.508	79.995	19.991	99.886	20.238	5.616	0.492
240.000	186.559	79.998	19.992	99.904	20.242	5.270	0.494
246.000	189.563	79.996	19.991	99.890	20.239	5.532	0.493
252.000	192.625	79.997	19.990	99.904	20.238	5.585	0.542
258.000	195.590	79.998	19.991	99.890	20.238	5.613	0.463
264.000	198.550	79.999	19.990	99.887	20.232	6.145	0.505
270.000	201.517	79.997	19.991	99.880	20.234	5.998	0.524
276.000	204.464	79.996	19.991	99.901	20.236	5.817	0.482
282.000	207.521	79.995	19.992	99.906	20.236	5.779	0.515
288.000	210.484	79.994	19.991	99.893	20.234	5.934	0.500
294.000	213.484	79.995	19.991	99.902	20.234	5.958	0.507
300.000	216.419	79.994	19.992	99.912	20.233	6.069	0.490
306.000	219.403	79.994	19.992	99.913	20.233	6.063	0.501
312.000	222.346	79.994	19.991	99.904	20.226	6.700	0.501
318.000	225.351	79.995	19.991	99.899	20.230	6.278	0.517
324.000	228.299	79.997	19.991	99.912	20.227	6.539	0.513
330.000	231.238	79.995	19.990	99.905	20.223	6.949	0.488
336.000	234.212	79.997	19.991	99.909	20.230	6.356	0.475
342.000	237.123	79.997	19.990	99.908	20.229	6.425	0.496
348.000	240.073	79.996	19.991	99.905	20.229	6.385	0.480
354.000	243.015	79.997	19.992	99.906	20.228	6.487	0.465
360.000	245.965	79.995	19.991	99.906	20.227	6.601	0.504
366.000	248.882	79.996	19.991	99.913	20.227	6.591	0.473
372.000	251.856	79.994	19.991	99.913	20.221	7.073	0.473
378.000	254.786	79.997	19.990	99.914	20.224	6.871	0.493
384.000	257.744	79.994	19.991	99.912	20.225	6.714	0.509
390.000	260.650	79.994	19.992	99.909	20.225	6.722	0.461
396.000	263.699	79.994	19.992	99.909	20.227	6.595	0.492
402.000	266.741	79.996	19.991	99.922	20.226	6.657	0.525
408.000	269.812	79.996	19.990	99.870	20.222	6.990	0.534
414.000	272.921	79.995	19.991	99.909	20.224	6.881	0.520
420.000	275.933	79.994	19.991	99.911	20.221	7.142	0.498
426.000	279.010	79.997	19.991	99.914	20.222	6.995	0.512
432.000	282.064	79.996	19.991	99.921	20.225	6.767	0.470
438.000	285.199	79.996	19.991	99.924	20.219	7.265	0.526
444.000	288.259	79.995	19.992	99.925	20.218	7.372	0.501
450.000	291.285	79.993	19.994	99.847	20.216	7.554	0.488
456.000	294.394	79.995	19.991	99.908	20.215	7.616	0.514
462.000	297.406	79.996	19.992	99.920	20.217	7.466	0.499
468.000	300.483	79.996	19.992	99.936	20.214	7.694	0.486
474.000	303.535	79.992	19.993	99.916	20.212	7.874	0.513
480.000	306.515	79.994	19.993	99.915	20.207	8.355	0.482
486.000	309.501	79.997	19.992	99.937	20.208	8.268	0.521
492.000	312.533	79.998	19.990	99.937	20.202	8.780	0.509
498.000	315.549	79.995	19.991	99.920	20.203	8.697	0.516
504.000	318.528	79.996	19.991	99.925	20.202	8.745	0.484
510.000	321.548	80.000	19.991	99.917	20.200	8.882	0.511
516.000	324.579	79.997	19.991	99.920	20.202	8.719	0.492
522.000	327.577	79.995	19.991	99.919	20.198	9.100	0.504
528.000	330.647	79.995	19.992	99.934	20.192	9.641	0.519
534.000	333.709	79.994	19.991	99.947	20.192	9.605	0.530
540.000	336.697	79.996	19.991	99.941	20.189	9.914	0.503
546.000	339.701	79.995	19.991	99.934	20.185	10.186	0.500
552.000	342.742	79.994	19.991	99.948	20.178	10.792	0.517
558.000	345.748	79.994	19.991	99.928	20.174	11.175	0.509
564.000	348.797	79.995	19.993	99.928	20.171	11.463	0.491
570.000	351.908	79.996	19.992	99.947	20.152	13.097	0.506
576.000	354.982	79.999	19.991	99.950	20.145	13.718	0.533
582.000	357.987	79.997	19.991	99.983	20.143	13.827	0.512
588.000	361.004	79.998	19.992	99.962	20.136	14.460	0.493
594.000	364.113	79.999	19.992	99.947	20.117	16.116	0.487
600.000	367.104	79.996	19.991	99.945	20.122	15.648	0.504
606.000	370.446	79.995	19.990	99.946	20.110	16.721	0.592
612.000	373.571	79.997	19.991	99.969	20.108	16.931	0.787
618.000	376.483	79.996	19.991	99.955	20.103	17.327	0.557
624.000	379.574	79.996	19.992	99.960	20.094	18.133	0.502
630.000	382.658	79.995	19.993	99.955	20.086	18.814	0.543
636.000	385.726	79.996	19.992	99.986	20.071	20.088	0.502
642.000	388.823	79.996	19.993	99.961	20.056	21.425	0.500
648.000	391.940	79.996	19.993	99.982	20.042	22.608	0.528
654.000	395.088	79.996	19.993	99.991	20.024	24.151	0.514
660.000	398.148	79.995	19.993	100.022	19.993	26.850	0.520
666.000	401.305	79.997	19.990	100.011	19.923	32.988	0.554
672.000	404.380	79.999	19.991	99.963	19.867	37.821	0.488
678.000	407.526	79.998	19.990	100.090	19.824	41.564	0.514
684.000	410.564	79.996	19.990	100.116	19.735	49.329	0.516
690.000	413.692	79.995	19.991	100.105	19.647	56.953	0.572
696.000	416.792	79.997	19.992	100.228	19.550	65.436	0.507
702.000	419.822	79.996	19.991	100.199	19.421	76.667	0.489
708.000	422.829	79.995	19.991	100.245	19.271	89.711	0.516
714.000	425.828	79.994	19.992	100.310	19.100	104.861	0.496
720.000	428.822	79.996	19.992	100.329	18.941	118.356	0.472
726.000	431.815	79.996	19.991	100.654	18.494	157.776	0.506
732.000	434.810	79.997	19.991	100.272	18.389	166.817	0.511
738.000	437.838	79.996	19.992	100.704	18.327	172.278	0.512
744.000	440.910	79.994	19.992	100.578	18.276	176.719	0.517
750.000	443.905	79.997	19.991	100.605	18.251	178.862	0.519
756.000	446.984	79.999	19.990	100.582	18.283	176.041	0.501
762.000	450.072	79.996	19.991	100.555	18.395	166.117	0.511
768.000	453.125	79.995	19.991	100.534	18.572	150.589	0.501
774.000	456.175	79.995	19.991	100.429	18.801	130.584	0.496
780.000	459.191	79.996	19.990	100.339	19.041	109.608	0.488
786.000	462.265	79.996	19.991	100.288	19.313	85.910	0.490
792.000	465.285	79.996	19.990	100.201	19.561	64.340	0.497
798.000	468.426	79.995	19.992	100.173	19.747	48.194	0.531
804.000	471.473	79.994	19.992	100.082	19.879	36.744	0.490
810.000	474.584	79.996	19.992	100.048	19.969	28.911	0.541
816.000	477.683	79.997	19.991	100.032	20.036	23.176	0.533
822.000	480.686	79.996	19.990	100.015	20.086	18.788	0.478
828.000	483.863	79.996	19.992	99.996	20.121	15.771	0.490
834.000	486.988	79.998	19.991	99.989	20.146	13.628	0.528
840.000	490.065	79.998	19.991	99.955	20.165	11.979	0.500
846.000	493.110	79.997	19.991	99.946	20.178	10.801	0.493
852.000	496.257	79.995	19.991	99.955	20.183	10.419	0.526
858.000	499.332	79.995	19.991	99.959	20.190	9.759	0.533
864.000	502.432	79.996	19.991	99.955	20.194	9.415	0.506
870.000	505.494	79.997	19.991	99.932	20.201	8.837	0.490
876.000	508.571	79.995	19.991	99.910	20.199	8.974	0.524
882.000	511.652	79.997	19.990	99.952	20.198	9.094	0.532
888.000	514.716	79.995	19.990	99.925	20.201	8.866	0.541
894.000	517.750	79.996	19.990	99.951	20.202	8.729	0.486
900.000	520.864	79.997	19.992	99.859	20.202	8.713	0.557
906.000	523.918	79.997	19.991	99.931	20.200	8.951	0.511
912.000	527.025	79.998	19.992	99.984	20.201	8.796	0.487
918.000	530.112	80.017	19.994	99.911	20.201	8.826	0.508
924.000	533.218	80.011	19.992	99.927	20.204	8.531	0.521
930.000	536.278	80.011	19.993	99.914	20.205	8.457	0.488
936.000	539.335	80.013	19.991	99.937	20.204	8.543	0.485
942.000	542.394	80.014	19.991	99.940	20.205	8.520	0.483
948.000	545.403	79.999	19.991	99.910	20.206	8.403	0.536
954.000	548.465	79.997	19.990	99.946	20.208	8.258	0.512
960.000	551.512	79.996	19.991	99.913	20.205	8.512	0.516
966.000	554.655	79.996	19.991	99.946	20.205	8.527	0.544
972.000	557.682	79.998	19.992	99.938	20.203	8.637	0.528
978.000	560.744	79.997	19.991	99.942	20.200	8.887	0.545
984.000	563.767	79.996	19.991	99.942	20.201	8.794	0.501
990.000	566.807	79.997	19.992	99.934	20.200	8.940	0.505
996.000	569.860	79.997	19.992	99.939	20.196	9.290	0.498
1002.000	572.859	79.998	19.990	99.930	20.194	9.477	0.485
1008.000	575.970	79.996	19.992	99.989	20.196	9.289	0.506
1014.000	579.029	79.995	19.992	99.877	20.196	9.253	0.531
1020.000	582.131	79.994	19.992	99.918	20.194	9.436	0.533
1026.000	585.157	79.997	19.991	99.949	20.194	9.464	0.491
1031.999	588.245	79.997	19.991	99.908	20.196	9.264	0.511
1037.999	591.319	79.995	19.991	99.915	20.190	9.791	0.554
1041.999	593.363	80.002	19.991	99.929	20.190	9.762	0.538