File: 01_Data/Hemp_Sheet/STA/N2/30K_min/Hemp_Sheet_STA_N2_30KData_22284_R2.csv
##Temp./Â°C,Time/min,DSC(subtr.2)/(mW/mg),Mass loss(subtr.2)/mg,Sensit./(uV/mW)
48.586,10.01,0.008697291,0.00187,1.07502
51.886,10.89434,0.17618,0.001572134,1.07356
55.186,11.13076,0.29166,0.004448528,1.07209
58.486,11.3142,0.38428,0.004237181,1.07061
61.786,11.4718,0.45649,0.002339248,1.06911
65.086,11.6157,0.51557,-0.003074895,1.06761
68.386,11.74987,0.56495,0.001211178,1.06609
71.686,11.87912,0.6059,0.001545909,1.06456
74.986,12.00383,0.64434,0.001732065,1.06302
78.286,12.12547,0.67981,0.001159825,1.06147
81.586,12.2447,0.71408,0.000943262,1.0599
84.886,12.36133,0.74247,0.002142516,1.05832
88.186,12.47655,0.77151,-0.002243784,1.05674
91.486,12.5907,0.79735,-0.0006788077,1.05514
94.786,12.70379,0.82337,-0.00165583,1.05353
98.086,12.8158,0.84621,-0.00291099,1.05191
101.386,12.92721,0.86306,-0.004653053,1.05028
104.686,13.03849,0.88201,-0.003791555,1.04864
107.986,13.1493,0.89746,-0.003300112,1.04699
111.286,13.2598,0.90963,-0.00460013,1.04532
114.586,13.36985,0.91521,-0.00460001,1.04365
117.886,13.47991,0.92242,-0.00591998,1.04197
121.186,13.5892,0.92581,-0.007240135,1.04028
124.486,13.69794,0.92934,-0.008555629,1.03858
127.786,13.80605,0.93021,-0.007133203,1.03686
131.086,13.914,0.93164,-0.008657118,1.03514
134.386,14.0208,0.93385,-0.00987281,1.03341
137.686,14.12755,0.93821,-0.01051318,1.03167
140.986,14.233,0.94198,-0.008554039,1.02992
144.286,14.33906,0.95126,-0.00785491,1.02816
147.586,14.444,0.95716,-0.008029772,1.02639
150.886,14.5489,0.96769,-0.009205172,1.02461
154.186,14.6532,0.97679,-0.01018911,1.02282
157.486,14.75721,0.98847,-0.01020133,1.02103
160.786,14.86077,0.99993,-0.01151924,1.01922
164.086,14.96469,1.01203,-0.01149596,1.01741
167.386,15.06817,1.02349,-0.01100153,1.01559
170.686,15.1711,1.03478,-0.01019,1.01376
173.986,15.2738,1.04856,-0.01019512,1.01192
177.286,15.3766,1.06093,-0.00749134,1.01007
180.586,15.4785,1.0749,-0.00745529,1.00821
183.886,15.58054,1.08755,-0.01164002,1.00635
187.186,15.6821,1.09867,-0.01436805,1.00448
190.486,15.78319,1.11018,-0.01163463,1.0026
193.786,15.8843,1.12222,-0.01019341,1.00071
197.086,15.98506,1.12986,-0.009302951,0.99882
200.386,16.08601,1.14248,-0.0099635,0.99691
203.686,16.18676,1.15502,-0.01129565,0.995
206.986,16.28719,1.16522,-0.01293996,0.99308
210.286,16.38741,1.17519,-0.01294,0.99116
213.586,16.48777,1.18584,-0.01302587,0.98922
216.886,16.58803,1.19505,-0.01524804,0.98728
220.186,16.688,1.20432,-0.01557,0.98534
223.486,16.78807,1.21329,-0.01710464,0.98338
226.786,16.8883,1.22223,-0.02204887,0.98142
230.086,16.9881,1.22909,-0.02144691,0.97945
233.386,17.08784,1.23612,-0.02082999,0.97748
236.686,17.18755,1.24554,-0.02217542,0.9755
239.986,17.28707,1.25205,-0.02205924,0.97351
243.286,17.3865,1.25994,-0.02478575,0.97151
246.586,17.48651,1.2658,-0.02610019,0.96951
249.886,17.58602,1.27075,-0.02609948,0.9675
253.186,17.6856,1.27609,-0.02856895,0.96549
256.486,17.78516,1.28358,-0.03014327,0.96347
259.786,17.88458,1.28459,-0.03283751,0.96144
263.086,17.98404,1.29304,-0.03671098,0.95941
266.386,18.0834,1.29651,-0.0423991,0.95737
269.686,18.1829,1.3007,-0.04502864,0.95532
272.986,18.28236,1.30584,-0.04960403,0.95327
276.286,18.3818,1.31408,-0.05246545,0.95121
279.586,18.48122,1.31958,-0.05713381,0.94915
282.886,18.5807,1.32648,-0.06217259,0.94708
286.186,18.68021,1.33743,-0.06855958,0.945
289.486,18.7801,1.34637,-0.07700734,0.94292
292.786,18.8797,1.3565,-0.08324066,0.94084
296.086,18.97952,1.36608,-0.09317593,0.93875
299.386,19.07909,1.3758,-0.10017,0.93665
302.686,19.1788,1.38336,-0.11021,0.93455
305.986,19.27865,1.39843,-0.11698,0.93244
309.286,19.3785,1.41117,-0.1294,0.93033
312.586,19.4782,1.42608,-0.14281,0.92821
315.886,19.57841,1.44504,-0.15681,0.92608
319.186,19.6783,1.46405,-0.17294,0.92396
322.486,19.77824,1.48603,-0.18865,0.92182
325.786,19.8783,1.51764,-0.20809,0.91968
329.086,19.9789,1.55104,-0.22927,0.91754
332.386,20.07921,1.59933,-0.25515,0.91539
335.686,20.1796,1.65284,-0.28591,0.91324
338.986,20.28024,1.72097,-0.32048,0.91108
342.286,20.3807,1.80272,-0.35752,0.90892
345.586,20.48176,1.89545,-0.40212,0.90675
348.886,20.58268,2.01318,-0.44964,0.90458
352.186,20.6839,2.15169,-0.51182,0.9024
355.486,20.78539,2.31423,-0.58198,0.90022
358.786,20.88675,2.50416,-0.66483,0.89803
362.086,20.98845,2.72548,-0.75921,0.89584
365.386,21.09036,2.98029,-0.86541,0.89365
368.686,21.1925,3.27274,-0.99114,0.89145
371.986,21.29475,3.60765,-1.13518,0.88925
375.286,21.3972,3.97197,-1.30904,0.88704
378.586,21.49993,4.36128,-1.49522,0.88483
381.886,21.6028,4.74679,-1.71299,0.88261
385.186,21.70571,5.08385,-1.94269,0.88039
388.486,21.80898,5.3073,-2.21354,0.87816
391.786,21.9122,5.34813,-2.47747,0.87594
395.086,22.01543,5.12193,-2.73694,0.8737
398.386,22.11805,4.58003,-2.962,0.87147
401.686,22.2204,3.71165,-3.15238,0.86923
404.986,22.32197,2.64529,-3.29224,0.86698
408.286,22.42294,1.62656,-3.37534,0.86473
411.586,22.5238,0.88732,-3.41225,0.86248
414.886,22.6247,0.47352,-3.42639,0.86023
418.186,22.7259,0.27897,-3.43381,0.85797
421.486,22.8276,0.19012,-3.43799,0.8557
424.786,22.92955,0.14916,-3.44278,0.85343
428.086,23.03235,0.1241,-3.44773,0.85116
431.386,23.13504,0.11078,-3.45234,0.84889
434.686,23.2379,0.10416,-3.45611,0.84661
437.986,23.34114,0.09410185,-3.4639,0.84433
441.286,23.4448,0.08245144,-3.46926,0.84204
444.586,23.5484,0.07828631,-3.47202,0.83975
447.886,23.65227,0.07338386,-3.47101,0.83746
451.186,23.75619,0.06609787,-3.47101,0.83517
454.486,23.8601,0.06332522,-3.47464,0.83287
457.786,23.96421,0.05945624,-3.48468,0.83056
461.086,24.06857,0.0520821,-3.48703,0.82826
464.386,24.17288,0.04773951,-3.4883,0.82595
467.686,24.27753,0.04619708,-3.49309,0.82364
470.986,24.38196,0.04362376,-3.5007,0.82132
474.286,24.487,0.03618423,-3.50222,0.819
477.586,24.59169,0.03212629,-3.50679,0.81668
480.886,24.69656,0.02664582,-3.5095,0.81435
484.186,24.80162,0.02395669,-3.51084,0.81202
487.486,24.90683,0.0217231,-3.51402,0.80969
490.786,25.01201,0.0140144,-3.52013,0.80736
494.086,25.1173,0.01361058,-3.5208,0.80502
497.386,25.22277,0.01174675,-3.52211,0.80268
500.686,25.328,0.008063716,-3.52538,0.80033
503.986,25.4339,0.007831511,-3.53057,0.79798
507.286,25.5396,0.005211186,-3.53189,0.79563
510.586,25.64544,0.002528539,-3.53319,0.79328
513.886,25.7514,0.00493779,-3.53696,0.79092
517.186,25.85745,-0.002530424,-3.54036,0.78857
520.486,25.96327,-0.003949945,-3.53901,0.7862
523.786,26.0698,-0.004972727,-3.54165,0.78384
527.086,26.17598,-0.0054754,-3.54026,0.78147
530.386,26.2824,-0.00602688,-3.54434,0.7791
533.686,26.3885,-0.00729747,-3.54999,0.77673
536.986,26.49505,-0.0008755538,-3.55347,0.77435
540.286,26.6019,0.01172484,-3.55417,0.77197
543.586,26.70857,0.0208378,-3.55653,0.76959
546.886,26.81515,0.02746726,-3.55843,0.76721
550.186,26.9221,0.02982875,-3.55974,0.76482
553.486,27.02892,0.02801377,-3.56105,0.76243
556.786,27.13578,0.02105366,-3.56238,0.76004
560.086,27.24307,0.01422453,-3.56179,0.75764
563.386,27.3503,0.0137886,-3.56194,0.75525
566.686,27.4576,0.01009278,-3.56457,0.75285
569.986,27.5648,0.0003411631,-3.56743,0.75045
573.286,27.6726,-0.01366362,-3.5694,0.74804
576.586,27.78012,-0.02281325,-3.57061,0.74563
579.886,27.8879,-0.03431505,-3.57061,0.74322
583.186,27.99564,-0.04234526,-3.57264,0.74081
586.486,28.1033,-0.04835917,-3.57521,0.7384
589.786,28.211,-0.05377984,-3.57695,0.73598
593.086,28.3189,-0.06782946,-3.57542,0.73356
596.386,28.42677,-0.07211494,-3.57727,0.73114
599.686,28.53465,-0.07553213,-3.57856,0.72872
602.986,28.6422,-0.08601583,-3.57999,0.72629
606.286,28.75057,-0.0927949,-3.58162,0.72386
609.586,28.8589,-0.09938606,-3.58569,0.72143
612.886,28.96688,-0.10648,-3.58771,0.719
616.186,29.0751,-0.11535,-3.58575,0.71657
619.486,29.18342,-0.11815,-3.58442,0.71413
622.786,29.29185,-0.13255,-3.5831,0.71169
626.086,29.4003,-0.13602,-3.58575,0.70925
629.386,29.5088,-0.14256,-3.58705,0.70681
632.686,29.61723,-0.15749,-3.59011,0.70437
635.986,29.7257,-0.16273,-3.58991,0.70192
639.286,29.83468,-0.1653,-3.59146,0.69947
642.586,29.94352,-0.17689,-3.5936,0.69702
645.886,30.05232,-0.18088,-3.59321,0.69457
649.186,30.1613,-0.18996,-3.59263,0.69211
652.486,30.27027,-0.19925,-3.59364,0.68966
655.786,30.3794,-0.20429,-3.59073,0.6872
659.086,30.4885,-0.21501,-3.58969,0.68474
662.386,30.59775,-0.2188,-3.59034,0.68228
665.686,30.7069,-0.22626,-3.59232,0.67982
668.986,30.81615,-0.22752,-3.59497,0.67735
672.286,30.9253,-0.23118,-3.59617,0.67489
675.586,31.03492,-0.23596,-3.59946,0.67242
678.886,31.14385,-0.24029,-3.59804,0.66995
682.186,31.25328,-0.24869,-3.59945,0.66748
685.486,31.36277,-0.24813,-3.59802,0.66501
688.786,31.47242,-0.25455,-3.5954,0.66253
692.086,31.5819,-0.25896,-3.5968,0.66006
695.386,31.6914,-0.25983,-3.59815,0.65758
698.686,31.80081,-0.2664,-3.59813,0.6551
701.986,31.9105,-0.26726,-3.59912,0.65262
705.286,32.02016,-0.27641,-3.60044,0.65014
708.586,32.1297,-0.2783,-3.60044,0.64766
711.886,32.23917,-0.28502,-3.60177,0.64518
715.186,32.3488,-0.2895,-3.59779,0.6427
718.486,32.45815,-0.29837,-3.6005,0.64021
721.786,32.5683,-0.29783,-3.60363,0.63772
725.086,32.67822,-0.30575,-3.60353,0.63524
728.386,32.7881,-0.31072,-3.60412,0.63275
731.686,32.89819,-0.31658,-3.60275,0.63026
734.986,33.0084,-0.32652,-3.60275,0.62777
738.286,33.11851,-0.33437,-3.60702,0.62528
741.586,33.22855,-0.33522,-3.60832,0.62279
744.886,33.33891,-0.34436,-3.60571,0.62029
748.186,33.44912,-0.35579,-3.60307,0.6178
751.486,33.55959,-0.36345,-3.60704,0.61531
754.786,33.67004,-0.36922,-3.60856,0.61281
758.086,33.78063,-0.37505,-3.6068,0.61032
761.386,33.89096,-0.38642,-3.60581,0.60782
764.686,34.00159,-0.3887,-3.60678,0.60532
767.986,34.11227,-0.40085,-3.6068,0.60282
771.286,34.22275,-0.40698,-3.6068,0.60033
774.586,34.33337,-0.41357,-3.60812,0.59783
777.886,34.44408,-0.42086,-3.60804,0.59533
781.186,34.55478,-0.43457,-3.60668,0.59283
784.486,34.66553,-0.43489,-3.60669,0.59033
787.786,34.77617,-0.43756,-3.60542,0.58783
791.086,34.88727,-0.4395,-3.60823,0.58533
794.386,34.9981,-0.44862,-3.60866,0.58283