File: 01_Data/Hemp_Sheet/STA/N2/30K_min/Hemp_Sheet_STA_N2_30KData_22284_R1.csv
##Temp./Â°C,Time/min,DSC(subtr.2)/(mW/mg),Mass loss(subtr.2)/mg,Sensit./(uV/mW)
48.602,10.01,0.009439403,0.00483,1.07501
51.802,10.88378,0.1757,0.006861439,1.0736
55.002,11.118,0.28933,0.008474311,1.07217
58.202,11.29767,0.38372,0.007678902,1.07074
61.402,11.45245,0.45824,0.002840247,1.06929
64.602,11.59356,0.51788,0.006313806,1.06783
67.802,11.72542,0.57286,0.00753537,1.06636
71.002,11.8515,0.62161,0.007079105,1.06488
74.202,11.97345,0.66641,0.00706144,1.06339
77.402,12.09191,0.70463,0.009350685,1.06188
80.602,12.2082,0.74452,0.0075404,1.06037
83.802,12.3222,0.77711,0.00473892,1.05884
87.002,12.4346,0.81379,0.004463318,1.05731
90.202,12.5458,0.84269,0.005313659,1.05576
93.402,12.6555,0.87175,0.00582781,1.05421
96.602,12.76491,0.89701,0.004550546,1.05264
99.802,12.8733,0.91746,0.002930818,1.05106
103.002,12.9811,0.94128,0.0003388038,1.04948
106.202,13.08882,0.95819,-0.00229855,1.04788
109.402,13.19604,0.96757,0.0003195291,1.04628
112.602,13.30303,0.98022,0.0003716664,1.04466
115.802,13.40991,0.98531,-0.00230008,1.04303
119.002,13.5161,0.98893,-0.000981962,1.0414
122.202,13.6219,0.98999,-0.003328082,1.03975
125.402,13.72741,0.98977,-0.00251917,1.0381
128.602,13.83213,0.98982,-0.00307742,1.03644
131.802,13.93629,0.99197,-0.004919889,1.03477
135.002,14.04013,0.99956,-0.00625772,1.03308
138.202,14.1431,1.0063,-0.00887794,1.03139
141.402,14.24594,1.01174,-0.007891819,1.0297
144.602,14.34804,1.02119,-0.008885502,1.02799
147.802,14.4497,1.03107,-0.006237347,1.02627
151.002,14.55137,1.03924,-0.004924695,1.02455
154.202,14.6523,1.05304,-0.004868919,1.02281
157.402,14.7532,1.0662,-0.00492999,1.02107
160.602,14.85375,1.07982,-0.003651841,1.01932
163.802,14.9543,1.09016,-0.002300005,1.01757
167.002,15.05437,1.10532,-0.0023,1.0158
170.202,15.1543,1.11897,-0.003069475,1.01402
173.402,15.2539,1.13372,-0.00358827,1.01224
176.602,15.35321,1.14809,-0.00276623,1.01045
179.802,15.4524,1.16695,-0.00527152,1.00866
183.002,15.55091,1.17904,-0.00789885,1.00685
186.202,15.6495,1.19066,-0.006580159,1.00504
189.402,15.7477,1.20379,-0.004272103,1.00322
192.602,15.84565,1.21834,-0.00427,1.00139
195.802,15.94333,1.23232,-0.004270917,0.99955
199.002,16.04099,1.24557,-0.006909952,0.99771
202.202,16.13863,1.25796,-0.00691,0.99586
205.402,16.23595,1.27106,-0.006938769,0.994
208.602,16.3334,1.2826,-0.007899989,0.99214
211.802,16.4305,1.29633,-0.007908304,0.99027
215.002,16.52769,1.30613,-0.006580592,0.98839
218.202,16.6249,1.31422,-0.006971786,0.98651
221.402,16.72195,1.32559,-0.009538465,0.98462
224.602,16.81887,1.33722,-0.01085963,0.98272
227.802,16.91563,1.34556,-0.01094272,0.98082
231.002,17.01274,1.35193,-0.01145099,0.97891
234.202,17.1093,1.3627,-0.01309514,0.97699
237.402,17.20618,1.37187,-0.01482393,0.97506
240.602,17.30276,1.38153,-0.01740537,0.97314
243.802,17.39948,1.39009,-0.01874822,0.9712
247.002,17.49599,1.39607,-0.01933316,0.96926
250.202,17.5925,1.40672,-0.02167816,0.96731
253.402,17.68899,1.41378,-0.02314109,0.96536
256.602,17.78564,1.42439,-0.02446212,0.9634
259.802,17.88212,1.42767,-0.02692093,0.96143
263.002,17.97852,1.43614,-0.02984443,0.95946
266.202,18.07496,1.44202,-0.03528281,0.95748
269.402,18.17141,1.44996,-0.03687943,0.9555
272.602,18.268,1.45601,-0.04233851,0.95351
275.802,18.36433,1.46489,-0.0467812,0.95151
279.002,18.4609,1.47054,-0.05269426,0.94951
282.202,18.55763,1.48073,-0.05866604,0.94751
285.402,18.6541,1.48954,-0.06079707,0.9455
288.602,18.75098,1.50051,-0.06386563,0.94348
291.802,18.84773,1.51098,-0.0708815,0.94146
295.002,18.9444,1.51946,-0.0804391,0.93943
298.202,19.04104,1.53197,-0.08957721,0.9374
301.402,19.13785,1.54548,-0.09818767,0.93537
304.602,19.2347,1.55878,-0.10711,0.93332
307.802,19.33147,1.5709,-0.11733,0.93128
311.002,19.42833,1.58597,-0.12793,0.92923
314.202,19.52521,1.60255,-0.14166,0.92717
317.402,19.62227,1.62035,-0.15802,0.92511
320.602,19.7193,1.64362,-0.17172,0.92304
323.802,19.81626,1.66845,-0.18533,0.92097
327.002,19.91328,1.7,-0.20492,0.91889
330.202,20.01071,1.74051,-0.225,0.91681
333.402,20.10826,1.78722,-0.25612,0.91473
336.602,20.20575,1.84317,-0.28676,0.91264
339.802,20.30347,1.90747,-0.32115,0.91055
343.002,20.4011,1.98871,-0.35642,0.90845
346.202,20.4989,2.08373,-0.40086,0.90634
349.402,20.59693,2.19936,-0.45582,0.90424
352.602,20.69503,2.3319,-0.51013,0.90213
355.802,20.79331,2.48876,-0.57306,0.90001
359.002,20.89161,2.67179,-0.64555,0.89789
362.202,20.99052,2.88833,-0.73675,0.89577
365.402,21.08926,3.13815,-0.84025,0.89364
368.602,21.18812,3.42276,-0.96287,0.89151
371.802,21.28741,3.74571,-1.09722,0.88937
375.002,21.38692,4.10331,-1.25688,0.88723
378.202,21.4865,4.48483,-1.43224,0.88508
381.402,21.5864,4.8668,-1.63867,0.88294
384.602,21.6863,5.2111,-1.85991,0.88078
387.802,21.7863,5.46429,-2.11145,0.87863
391.002,21.8867,5.55726,-2.3678,0.87647
394.202,21.9865,5.43115,-2.61694,0.8743
397.402,22.08633,5.03046,-2.8562,0.87213
400.602,22.1854,4.33208,-3.04686,0.86996
403.802,22.28416,3.37545,-3.20797,0.86779
407.002,22.38221,2.34065,-3.31283,0.86561
410.202,22.47997,1.46386,-3.37075,0.86343
413.402,22.57735,0.88709,-3.39536,0.86124
416.602,22.67576,0.59259,-3.40354,0.85905
419.802,22.7741,0.45202,-3.41184,0.85686
423.002,22.8729,0.39137,-3.41233,0.85466
426.202,22.9722,0.35673,-3.41537,0.85246
429.402,23.07155,0.33579,-3.42131,0.85026
432.602,23.17125,0.32508,-3.42714,0.84805
435.802,23.27115,0.31566,-3.43163,0.84584
439.002,23.37121,0.30843,-3.43164,0.84363
442.202,23.4716,0.30272,-3.43432,0.84141
445.402,23.57206,0.29555,-3.44042,0.83919
448.602,23.67278,0.29423,-3.44503,0.83696
451.802,23.7733,0.28748,-3.4475,0.83474
455.002,23.87454,0.28534,-3.45004,0.83251
458.202,23.97561,0.2829,-3.45717,0.83027
461.402,24.07656,0.28017,-3.46092,0.82804
464.602,24.17812,0.27571,-3.46268,0.8258
467.802,24.27944,0.27492,-3.46647,0.82355
471.002,24.38097,0.27135,-3.46956,0.82131
474.202,24.48246,0.27013,-3.47402,0.81906
477.402,24.5841,0.26614,-3.47832,0.81681
480.602,24.6859,0.26464,-3.48141,0.81455
483.802,24.78775,0.26322,-3.48455,0.81229
487.002,24.88952,0.2603,-3.48714,0.81003
490.202,24.99134,0.25874,-3.48747,0.80777
493.402,25.0935,0.2592,-3.49141,0.8055
496.602,25.19554,0.2626,-3.49519,0.80323
499.802,25.29797,0.25854,-3.50082,0.80096
503.002,25.40029,0.25691,-3.50215,0.79868
506.202,25.50261,0.2561,-3.50217,0.79641
509.402,25.6051,0.25023,-3.50087,0.79413
512.602,25.7076,0.2518,-3.5035,0.79184
515.802,25.81024,0.25106,-3.50877,0.78955
519.002,25.9131,0.25065,-3.51351,0.78727
522.202,26.01604,0.25472,-3.51346,0.78497
525.402,26.11895,0.25461,-3.51403,0.78268
528.602,26.22193,0.25489,-3.51732,0.78038
531.802,26.32494,0.25809,-3.52006,0.77808
535.002,26.42823,0.2621,-3.52147,0.77578
538.202,26.5312,0.27144,-3.52048,0.77347
541.402,26.63454,0.27866,-3.52322,0.77117
544.602,26.73773,0.29367,-3.52313,0.76886
547.802,26.8414,0.29475,-3.5242,0.76654
551.002,26.94487,0.29525,-3.52574,0.76423
554.202,27.04853,0.2949,-3.52893,0.76191
557.402,27.15247,0.29161,-3.53277,0.75959
560.602,27.25627,0.29031,-3.53606,0.75727
563.802,27.36,0.28625,-3.53672,0.75494
567.002,27.4642,0.27564,-3.5354,0.75262
570.202,27.5683,0.26655,-3.53539,0.75029
573.402,27.6726,0.25859,-3.53866,0.74796
576.602,27.7768,0.25056,-3.54243,0.74562
579.802,27.88103,0.24394,-3.54187,0.74329
583.002,27.9854,0.2322,-3.54187,0.74095
586.202,28.0898,0.22438,-3.54319,0.73861
589.402,28.1943,0.21353,-3.54573,0.73626
592.602,28.29893,0.20324,-3.54693,0.73392
595.802,28.4037,0.19343,-3.54956,0.73157
599.002,28.50855,0.18255,-3.54955,0.72922
602.202,28.6134,0.18237,-3.55085,0.72687
605.402,28.71838,0.17391,-3.54956,0.72452
608.602,28.82325,0.16978,-3.54822,0.72216
611.802,28.92816,0.16759,-3.551,0.7198
615.002,29.03315,0.16722,-3.55503,0.71744
618.202,29.1381,0.16393,-3.55504,0.71508
621.402,29.2431,0.16212,-3.55503,0.71272
624.602,29.3479,0.16466,-3.55503,0.71035
627.802,29.45298,0.16568,-3.55503,0.70798
631.002,29.558,0.16485,-3.55767,0.70561
634.202,29.66317,0.16645,-3.55777,0.70324
637.402,29.7683,0.16562,-3.55833,0.70087
640.602,29.87377,0.16458,-3.55964,0.69849
643.802,29.979,0.16189,-3.55832,0.69612
647.002,30.08444,0.16468,-3.55823,0.69374
650.202,30.18992,0.16714,-3.56063,0.69136
653.402,30.29573,0.16526,-3.56067,0.68898
656.602,30.4013,0.16127,-3.56526,0.68659
659.802,30.50693,0.16652,-3.5666,0.68421
663.002,30.61267,0.16546,-3.5638,0.68182
666.202,30.71834,0.16195,-3.56128,0.67943
669.402,30.824,0.16524,-3.56063,0.67704
672.602,30.92983,0.16575,-3.56358,0.67465
675.802,31.0353,0.17025,-3.56627,0.67226
679.002,31.1413,0.16641,-3.5649,0.66986
682.202,31.2474,0.16938,-3.56448,0.66747
685.402,31.3533,0.16834,-3.56702,0.66507
688.602,31.4594,0.1693,-3.56534,0.66267
691.802,31.5655,0.17048,-3.56817,0.66027
695.002,31.67148,0.17449,-3.56941,0.65787
698.202,31.7779,0.17513,-3.56808,0.65547
701.402,31.88403,0.17323,-3.5694,0.65306
704.602,31.99036,0.1745,-3.56874,0.65066
707.802,32.09681,0.1806,-3.56835,0.64825
711.002,32.20332,0.17937,-3.56743,0.64584
714.202,32.30961,0.17715,-3.57005,0.64344
717.402,32.4159,0.18302,-3.5727,0.64103
720.602,32.52267,0.1795,-3.57137,0.63862
723.802,32.62956,0.17856,-3.57137,0.6362
727.002,32.73648,0.18166,-3.57132,0.63379
730.202,32.8433,0.1772,-3.57271,0.63138
733.402,32.9501,0.18345,-3.57401,0.62896
736.602,33.0572,0.18549,-3.57401,0.62655
739.802,33.16417,0.18585,-3.57396,0.62413
743.002,33.27088,0.18487,-3.57401,0.62172
746.202,33.37775,0.19243,-3.57392,0.6193
749.402,33.48513,0.19181,-3.575,0.61688
752.602,33.59202,0.19572,-3.57548,0.61446
755.802,33.69915,0.18982,-3.57486,0.61204
759.002,33.80659,0.19022,-3.57121,0.60962
762.202,33.91372,0.18761,-3.57105,0.6072
765.402,34.02088,0.18245,-3.57103,0.60478
768.602,34.12832,0.18573,-3.57368,0.60236
771.802,34.2358,0.17751,-3.57368,0.59994
775.002,34.34324,0.17266,-3.575,0.59751
778.202,34.45067,0.17302,-3.5763,0.59509
781.402,34.55826,0.16809,-3.57893,0.59267
784.602,34.6658,0.17096,-3.58026,0.59024
787.802,34.77333,0.16542,-3.57894,0.58782
791.002,34.88087,0.16227,-3.5773,0.5854
794.202,34.98837,0.16584,-3.575,0.58297
794.502,34.9985,0.16569,-3.575,0.58275