File: 01_Data/Luan_Panel/STA/N2/10K_min/Luan_Panel_STA_N2_10KData_221003_R1.csv
##Temp./Â°C,Time/min,Mass loss(subtr.2)/mg,DSC(subtr.2)/mW,Sensit./(uV/mW)
49.612,10.00917,0.0079,0.11353,1.0752
52.612,11.27984,0.01078719,0.51625,1.07364
55.612,11.71371,0.01098607,0.72781,1.07208
58.612,12.08185,0.01062367,0.85995,1.07052
61.612,12.42491,0.0091229,0.95019,1.06896
64.612,12.7563,0.009153628,1.02576,1.0674
67.612,13.082,0.009218601,1.08678,1.06584
70.612,13.40356,0.00780508,1.15362,1.06429
73.612,13.72139,0.007881093,1.233,1.06273
76.612,14.0369,0.00527304,1.27198,1.06118
79.612,14.34854,0.003949483,1.31714,1.05963
82.612,14.65751,0.002630002,1.35197,1.05808
85.612,14.9637,0.001320444,1.37301,1.05654
88.612,15.26635,-0.0004878703,1.3863,1.05499
91.612,15.56645,-0.001972448,1.38247,1.05344
94.612,15.86541,-0.00273668,1.37075,1.0519
97.612,16.16161,-0.00395,1.33962,1.05036
100.612,16.4567,-0.007108934,1.31557,1.04882
103.612,16.7511,-0.007897424,1.28887,1.04728
106.612,17.04673,-0.00789951,1.27956,1.04574
109.612,17.34056,-0.00789,1.30959,1.04421
112.612,17.634,-0.01055156,1.30059,1.04267
115.612,17.92708,-0.009299301,1.27676,1.04114
118.612,18.2201,-0.01053,1.24294,1.03961
121.612,18.51351,-0.01054169,1.22736,1.03807
124.612,18.80528,-0.01188019,1.19679,1.03654
127.612,19.09791,-0.01316012,1.20682,1.03502
130.612,19.38896,-0.01316,1.2025,1.03349
133.612,19.68079,-0.01316,1.20387,1.03196
136.612,19.97159,-0.01249999,1.21554,1.03044
139.612,20.26128,-0.01250923,1.21852,1.02891
142.612,20.55041,-0.01237518,1.23101,1.02739
145.612,20.8402,-0.0140305,1.23965,1.02587
148.612,21.12858,-0.01370974,1.26242,1.02435
151.612,21.41643,-0.01503318,1.2831,1.02283
154.612,21.70434,-0.01458203,1.30903,1.02131
157.612,21.99227,-0.01371011,1.32598,1.01979
160.612,22.28061,-0.01502553,1.35595,1.01827
163.612,22.56891,-0.01538196,1.37706,1.01676
166.612,22.8572,-0.01633998,1.41492,1.01524
169.612,23.14575,-0.01885982,1.45473,1.01373
172.612,23.43376,-0.02029003,1.51393,1.01221
175.612,23.7219,-0.02126652,1.56949,1.0107
178.612,24.0091,-0.02423966,1.64587,1.00918
181.612,24.2965,-0.02554657,1.71089,1.00767
184.612,24.58286,-0.02819136,1.78499,1.00616
187.612,24.8687,-0.03345,1.86203,1.00465
190.612,25.15503,-0.03719429,1.93982,1.00313
193.612,25.44122,-0.04119011,2.01915,1.00162
196.612,25.7269,-0.04660854,2.06851,1.00011
199.612,26.01362,-0.05286918,2.12477,0.9986
202.612,26.2999,-0.05988326,2.1628,0.99709
205.612,26.5865,-0.06757134,2.1918,0.99558
208.612,26.87405,-0.07396633,2.2291,0.99407
211.612,27.1609,-0.08074345,2.24433,0.99255
214.612,27.4481,-0.08877723,2.277,0.99104
217.612,27.7347,-0.09694758,2.30353,0.98953
220.612,28.0214,-0.10354,2.35737,0.98802
223.612,28.3083,-0.11473,2.40812,0.9865
226.612,28.59487,-0.12157,2.43693,0.98499
229.612,28.8809,-0.13332,2.47694,0.98348
232.612,29.16709,-0.14747,2.483,0.98196
235.612,29.453,-0.15919,2.47081,0.98045
238.612,29.7387,-0.17174,2.45377,0.97893
241.612,30.0243,-0.18527,2.43501,0.97741
244.612,30.30967,-0.19968,2.42154,0.9759
247.612,30.59555,-0.21639,2.42342,0.97438
250.612,30.882,-0.23475,2.41693,0.97286
253.612,31.16875,-0.25306,2.39448,0.97134
256.612,31.45542,-0.27307,2.38505,0.96981
259.612,31.74131,-0.29416,2.38165,0.96829
262.612,32.02737,-0.31882,2.37355,0.96676
265.612,32.314,-0.34722,2.35793,0.96524
268.612,32.60006,-0.37731,2.32931,0.96371
271.612,32.88572,-0.41321,2.29784,0.96218
274.612,33.17183,-0.4498,2.25746,0.96065
277.612,33.45783,-0.49019,2.18596,0.95911
280.612,33.74387,-0.53469,2.08981,0.95758
283.612,34.03024,-0.57927,2.00294,0.95604
286.612,34.31615,-0.62829,1.89588,0.9545
289.612,34.60314,-0.68027,1.79233,0.95296
292.612,34.89025,-0.73442,1.68119,0.95141
295.612,35.177,-0.78885,1.56916,0.94987
298.612,35.46403,-0.84692,1.47881,0.94832
301.612,35.75085,-0.90707,1.41365,0.94676
304.612,36.03737,-0.96806,1.36183,0.94521
307.612,36.3242,-1.03302,1.3293,0.94365
310.612,36.61161,-1.09874,1.30895,0.94209
313.612,36.8999,-1.16652,1.31398,0.94053
316.612,37.18874,-1.23857,1.31686,0.93896
319.612,37.47788,-1.31244,1.31598,0.9374
322.612,37.7675,-1.3919,1.32534,0.93582
325.612,38.0576,-1.47564,1.34517,0.93425
328.612,38.34711,-1.56404,1.36278,0.93267
331.612,38.6372,-1.65606,1.35478,0.93109
334.612,38.92617,-1.74987,1.35635,0.9295
337.612,39.2155,-1.84585,1.34299,0.92791
340.612,39.50544,-1.94622,1.31564,0.92632
343.612,39.79602,-2.04699,1.25836,0.92472
346.612,40.08755,-2.14843,1.1727,0.92312
349.612,40.37941,-2.24436,1.07284,0.92152
352.612,40.67049,-2.33584,0.9391,0.91991
355.612,40.96236,-2.41498,0.7786,0.9183
358.612,41.25372,-2.48128,0.62403,0.91668
361.612,41.54473,-2.53171,0.47106,0.91506
364.612,41.83578,-2.56601,0.36426,0.91343
367.612,42.1271,-2.58996,0.29556,0.9118
370.612,42.4187,-2.60643,0.23928,0.91017
373.612,42.70955,-2.62143,0.21661,0.90853
376.612,43.00051,-2.6345,0.18284,0.90688
379.612,43.29252,-2.64645,0.16655,0.90523
382.612,43.58508,-2.65832,0.1441,0.90358
385.612,43.87744,-2.66999,0.1156,0.90192
388.612,44.1701,-2.68148,0.10889,0.90026
391.612,44.4629,-2.69071,0.09198115,0.89859
394.612,44.75504,-2.69912,0.0812735,0.89691
397.612,45.04736,-2.70864,0.06758617,0.89523
400.612,45.33958,-2.71838,0.06990657,0.89355
403.612,45.6323,-2.7289,0.07658674,0.89186
406.612,45.9253,-2.73704,0.07119535,0.89016
409.612,46.21843,-2.74544,0.07268093,0.88846
412.612,46.51238,-2.75393,0.07254127,0.88675
415.612,46.8063,-2.76178,0.08615201,0.88504
418.612,47.09998,-2.77165,0.09544697,0.88332
421.612,47.3947,-2.77812,0.10229,0.88159
424.612,47.68884,-2.78471,0.12044,0.87986
427.612,47.98312,-2.79284,0.14342,0.87812
430.612,48.2773,-2.80003,0.16667,0.87638
433.612,48.57156,-2.80691,0.17859,0.87463
436.612,48.86528,-2.81355,0.1988,0.87287
439.612,49.15886,-2.81959,0.22931,0.87111
442.612,49.4535,-2.82692,0.23978,0.86934
445.612,49.74864,-2.83341,0.255,0.86756
448.612,50.04418,-2.83876,0.27432,0.86578
451.612,50.33955,-2.84395,0.29613,0.86399
454.612,50.6353,-2.84979,0.3179,0.8622
457.612,50.93083,-2.85585,0.32663,0.86039
460.612,51.22614,-2.86006,0.33426,0.85858
463.612,51.52069,-2.86579,0.35391,0.85677
466.612,51.8157,-2.87128,0.35974,0.85494
469.612,52.11117,-2.87641,0.36776,0.85311
472.612,52.40732,-2.88162,0.37931,0.85127
475.612,52.7023,-2.88692,0.37873,0.84943
478.612,52.9992,-2.89078,0.38979,0.84758
481.612,53.2956,-2.89601,0.39249,0.84572
484.612,53.59219,-2.89933,0.39535,0.84385
487.612,53.88899,-2.90393,0.39515,0.84198
490.612,54.18584,-2.90854,0.4073,0.8401
493.612,54.4823,-2.91249,0.4183,0.83821
496.612,54.77945,-2.91776,0.42136,0.83631
499.612,55.07575,-2.92137,0.46303,0.83441
502.612,55.3724,-2.92543,0.4828,0.83249
505.612,55.66965,-2.92965,0.49855,0.83057
508.612,55.9671,-2.93318,0.50761,0.82865
511.612,56.2646,-2.93783,0.52225,0.82671
514.612,56.56255,-2.94145,0.53979,0.82477
517.612,56.85971,-2.9454,0.54992,0.82282
520.612,57.15733,-2.94795,0.546,0.82086
523.612,57.45451,-2.9523,0.55144,0.81889
526.612,57.75134,-2.95424,0.56167,0.81692
529.612,58.04895,-2.95887,0.57394,0.81493
532.612,58.3469,-2.96152,0.58245,0.81294
535.612,58.64505,-2.96383,0.56427,0.81094
538.612,58.9451,-2.9658,0.53418,0.80894
541.612,59.24455,-2.97073,0.49974,0.80692
544.612,59.54461,-2.97238,0.48158,0.8049
547.612,59.844,-2.97502,0.47046,0.80287
550.612,60.14365,-2.97831,0.45861,0.80083
553.612,60.44379,-2.97923,0.45651,0.79878
556.612,60.74369,-2.9813,0.44444,0.79672
559.612,61.0429,-2.98401,0.45465,0.79466
562.612,61.3427,-2.98763,0.44233,0.79259
565.612,61.6425,-2.98909,0.43775,0.79051
568.612,61.9425,-2.99289,0.44073,0.78842
571.612,62.2408,-2.99552,0.43906,0.78632
574.612,62.53911,-2.9975,0.4407,0.78421
577.612,62.83744,-2.9998,0.43398,0.7821
580.612,63.13635,-3.00144,0.43021,0.77998
583.612,63.4364,-3.00624,0.41496,0.77784
586.612,63.7362,-3.00762,0.41031,0.77571
589.612,64.03582,-3.01023,0.40303,0.77356
592.612,64.33555,-3.01055,0.39508,0.7714
595.612,64.63594,-3.01319,0.39054,0.76924
598.612,64.9368,-3.01318,0.37514,0.76706
601.612,65.23813,-3.01547,0.37421,0.76488
604.612,65.54013,-3.01714,0.39676,0.76269
607.612,65.842,-3.01942,0.39438,0.76049
610.612,66.14401,-3.02108,0.40596,0.75829
613.612,66.44559,-3.02339,0.40628,0.75607
616.612,66.74706,-3.02602,0.42732,0.75385
619.612,67.04897,-3.02799,0.43435,0.75162
622.612,67.3509,-3.03042,0.44435,0.74938
625.612,67.65259,-3.03358,0.46917,0.74713
628.612,67.95421,-3.03464,0.46101,0.74487
631.612,68.2561,-3.0363,0.46836,0.74261
634.612,68.55794,-3.03852,0.48442,0.74033
637.612,68.8603,-3.04083,0.47528,0.73805
640.612,69.1623,-3.04208,0.47536,0.73576
643.612,69.46557,-3.04203,0.47334,0.73347
646.612,69.76841,-3.04511,0.46461,0.73116
649.612,70.07189,-3.04612,0.45272,0.72885
652.612,70.37519,-3.04609,0.45932,0.72652
655.612,70.67851,-3.04839,0.45411,0.72419
658.612,70.98101,-3.04755,0.43615,0.72186
661.612,71.28341,-3.05003,0.4438,0.71951
664.612,71.58548,-3.05004,0.42095,0.71716
667.612,71.88712,-3.04952,0.45162,0.71479
670.612,72.18949,-3.05434,0.47018,0.71242
673.612,72.49213,-3.05563,0.50371,0.71005
676.612,72.795,-3.05424,0.52102,0.70766
679.612,73.09675,-3.05606,0.54242,0.70527
682.612,73.39915,-3.05761,0.57311,0.70287
685.612,73.70177,-3.06057,0.59171,0.70046
688.612,74.00461,-3.06115,0.61757,0.69804
691.612,74.3077,-3.0609,0.64894,0.69562
694.612,74.6118,-3.06353,0.65629,0.69318
697.612,74.9161,-3.06352,0.69404,0.69075
700.612,75.2192,-3.06583,0.7205,0.6883
703.612,75.5228,-3.06682,0.76756,0.68585
706.612,75.82675,-3.06814,0.75996,0.68338
709.612,76.1306,-3.06748,0.80427,0.68092
712.612,76.43418,-3.06946,0.81585,0.67844
715.612,76.73815,-3.07044,0.82687,0.67596
718.612,77.04103,-3.07143,0.8491,0.67347
721.612,77.34443,-3.07307,0.84298,0.67097
724.612,77.6477,-3.07286,0.86033,0.66847
727.612,77.95107,-3.07275,0.86727,0.66596
730.612,78.2556,-3.07277,0.88339,0.66344
733.612,78.56028,-3.07504,0.90152,0.66092
736.612,78.86455,-3.07504,0.92845,0.65839
739.612,79.17008,-3.07472,0.9252,0.65585
742.612,79.4751,-3.07473,0.9219,0.65331
745.612,79.77938,-3.07735,0.91785,0.65076
747.712,79.99186,-3.07603,0.91499,0.64897