File: 01_Data/Luan_Panel/STA/N2/10K_min/Luan_STA_N2_10KData_221003_R2.csv
##Temp./Â°C,Time/min,DSC(subtr.2)/mW,Mass loss(subtr.2)/mg,Sensit./(uV/mW)
49.511,10.01,0.10643,-0.04376,1.07525
52.511,11.2788,0.50751,-0.04752998,1.07369
55.511,11.71217,0.7044,-0.04951095,1.07213
58.511,12.08057,0.83133,-0.0500092,1.07057
61.511,12.42349,0.92511,-0.05169358,1.06901
64.511,12.75554,0.99178,-0.05163163,1.06745
67.511,13.08113,1.05088,-0.05362384,1.06589
70.511,13.40332,1.10667,-0.05539863,1.06434
73.511,13.72205,1.15602,-0.05813645,1.06279
76.511,14.03705,1.21853,-0.06077221,1.06123
79.511,14.34774,1.25978,-0.06218249,1.05968
82.511,14.6569,1.29873,-0.06642249,1.05814
85.511,14.9619,1.3145,-0.06902734,1.05659
88.511,15.2659,1.32324,-0.0703096,1.05504
91.511,15.5671,1.31899,-0.07269433,1.0535
94.511,15.8666,1.29697,-0.07426002,1.05195
97.511,16.1645,1.27163,-0.07689054,1.05041
100.511,16.46115,1.26016,-0.07886244,1.04887
103.511,16.7557,1.24709,-0.07952623,1.04733
106.511,17.05022,1.28482,-0.08084,1.04579
109.511,17.34381,1.28787,-0.08213089,1.04426
112.511,17.6366,1.25922,-0.08216143,1.04272
115.511,17.92997,1.22592,-0.0834684,1.04119
118.511,18.2232,1.2097,-0.08597013,1.03966
121.511,18.516,1.20266,-0.08613589,1.03813
124.511,18.808,1.19718,-0.08841,1.0366
127.511,19.09968,1.19567,-0.08873927,1.03507
130.511,19.39059,1.18729,-0.08874005,1.03354
133.511,19.68039,1.18794,-0.09005169,1.03201
136.511,19.97107,1.20562,-0.09266067,1.03049
139.511,20.26023,1.21066,-0.09137024,1.02896
142.511,20.5498,1.21036,-0.09367,1.02744
145.511,20.839,1.21517,-0.09143544,1.02592
148.511,21.12827,1.2224,-0.09238319,1.0244
151.511,21.4162,1.23089,-0.09304781,1.02288
154.511,21.70488,1.26672,-0.09401149,1.02136
157.511,21.99232,1.29323,-0.09532,1.01984
160.511,22.2804,1.31589,-0.09532014,1.01832
163.511,22.5683,1.35285,-0.09796228,1.01681
166.511,22.85586,1.38381,-0.10056,1.01529
169.511,23.14396,1.42198,-0.10157,1.01378
172.511,23.43165,1.4848,-0.10453,1.01226
175.511,23.71846,1.53833,-0.10552,1.01075
178.511,24.00686,1.60293,-0.10683,1.00923
181.511,24.29499,1.66384,-0.1098,1.00772
184.511,24.58249,1.72923,-0.11352,1.00621
187.511,24.8706,1.8082,-0.11903,1.0047
190.511,25.15821,1.86534,-0.12283,1.00319
193.511,25.44525,1.93756,-0.1293,1.00167
196.511,25.73239,1.99889,-0.13316,1.00016
199.511,26.01919,2.05212,-0.14007,0.99865
202.511,26.30507,2.09545,-0.14571,0.99714
205.511,26.59188,2.12202,-0.15333,0.99563
208.511,26.8776,2.15489,-0.16221,0.99412
211.511,27.16269,2.18462,-0.16748,0.9926
214.511,27.4485,2.20398,-0.17473,0.99109
217.511,27.7337,2.23451,-0.18405,0.98958
220.511,28.0191,2.29202,-0.19166,0.98807
223.511,28.3046,2.32532,-0.20286,0.98656
226.511,28.58979,2.36624,-0.21149,0.98504
229.511,28.8752,2.40851,-0.22391,0.98353
232.511,29.1601,2.4333,-0.23451,0.98201
235.511,29.44558,2.4023,-0.25054,0.9805
238.511,29.7305,2.38352,-0.26248,0.97898
241.511,30.016,2.35497,-0.2769,0.97747
244.511,30.30142,2.33608,-0.2929,0.97595
247.511,30.5873,2.32737,-0.31009,0.97443
250.511,30.8733,2.33157,-0.32676,0.97291
253.511,31.1596,2.31233,-0.34635,0.97139
256.511,31.44643,2.31087,-0.36637,0.96986
259.511,31.73225,2.29982,-0.38871,0.96834
262.511,32.0194,2.27596,-0.41249,0.96682
265.511,32.30565,2.26464,-0.43897,0.96529
268.511,32.59255,2.24508,-0.46941,0.96376
271.511,32.87894,2.21863,-0.50535,0.96223
274.511,33.16543,2.1885,-0.54053,0.9607
277.511,33.4517,2.11991,-0.58219,0.95916
280.511,33.7374,2.03438,-0.6248,0.95763
283.511,34.0246,1.95346,-0.67084,0.95609
286.511,34.31157,1.84836,-0.71855,0.95455
289.511,34.59928,1.73731,-0.7703,0.95301
292.511,34.88664,1.6165,-0.82397,0.95146
295.511,35.17518,1.52063,-0.87818,0.94992
298.511,35.46387,1.44911,-0.93497,0.94837
301.511,35.75135,1.37412,-0.99521,0.94682
304.511,36.0384,1.3286,-1.0539,0.94526
307.511,36.32584,1.30245,-1.1183,0.94371
310.511,36.6131,1.27854,-1.18474,0.94215
313.511,36.90078,1.2937,-1.25305,0.94058
316.511,37.18823,1.29134,-1.32204,0.93902
319.511,37.47648,1.30052,-1.39758,0.93745
322.511,37.76457,1.3253,-1.47379,0.93588
325.511,38.05305,1.34427,-1.55713,0.9343
328.511,38.3412,1.34664,-1.64278,0.93272
331.511,38.631,1.35165,-1.73191,0.93114
334.511,38.9212,1.33878,-1.82747,0.92955
337.511,39.21094,1.32896,-1.92446,0.92797
340.511,39.50071,1.30507,-2.02212,0.92637
343.511,39.79071,1.25253,-2.12326,0.92478
346.511,40.08057,1.17753,-2.22283,0.92318
349.511,40.37019,1.06447,-2.31959,0.92157
352.511,40.66101,0.92004,-2.41095,0.91996
355.511,40.9514,0.72807,-2.49403,0.91835
358.511,41.24179,0.55998,-2.56076,0.91673
361.511,41.5322,0.36911,-2.61375,0.91511
364.511,41.82241,0.22612,-2.64709,0.91349
367.511,42.11291,0.13614,-2.67071,0.91186
370.511,42.40379,0.073057,-2.68862,0.91022
373.511,42.69552,0.03300401,-2.70316,0.90858
376.511,42.98752,-0.01096654,-2.71728,0.90694
379.511,43.28035,-0.04034743,-2.72954,0.90529
382.511,43.57315,-0.06465422,-2.7427,0.90363
385.511,43.86546,-0.08113387,-2.75298,0.90198
388.511,44.15762,-0.09924497,-2.76279,0.90031
391.511,44.45064,-0.10612,-2.77275,0.89864
394.511,44.74303,-0.12304,-2.78351,0.89697
397.511,45.03588,-0.14591,-2.79171,0.89529
400.511,45.3282,-0.15121,-2.80139,0.8936
403.511,45.62189,-0.15076,-2.81007,0.89191
406.511,45.91446,-0.14034,-2.82005,0.89022
409.511,46.20735,-0.14911,-2.82671,0.88851
412.511,46.50098,-0.13664,-2.83495,0.88681
415.511,46.79416,-0.12497,-2.84286,0.88509
418.511,47.08724,-0.12975,-2.85034,0.88337
421.511,47.38095,-0.11419,-2.85764,0.88165
424.511,47.6741,-0.09643626,-2.86449,0.87992
427.511,47.9684,-0.07004158,-2.87391,0.87818
430.511,48.26282,-0.04674489,-2.87979,0.87644
433.511,48.55761,-0.0388889,-2.88642,0.87469
436.511,48.8516,-0.0193802,-2.89175,0.87293
439.511,49.14586,-0.003611482,-2.89987,0.87117
442.511,49.4402,0.024432,-2.90669,0.8694
445.511,49.73468,0.03892622,-2.91309,0.86762
448.511,50.02848,0.03752542,-2.9181,0.86584
451.511,50.3237,0.05956101,-2.92338,0.86405
454.511,50.6188,0.06895319,-2.92994,0.86226
457.511,50.9147,0.07704843,-2.93518,0.86045
460.511,51.21054,0.08313224,-2.93854,0.85864
463.511,51.50598,0.08962151,-2.94477,0.85683
466.511,51.8022,0.09262111,-2.95067,0.855
469.511,52.09917,0.0943359,-2.9543,0.85317
472.511,52.39608,0.08581976,-2.95837,0.85134
475.511,52.69265,0.10651,-2.96251,0.84949
478.511,52.98945,0.10262,-2.96777,0.84764
481.511,53.2858,0.1039,-2.97173,0.84578
484.511,53.5823,0.11991,-2.97682,0.84391
487.511,53.87837,0.13322,-2.98093,0.84204
490.511,54.1746,0.18022,-2.98488,0.84016
493.511,54.47135,0.21459,-2.98917,0.83827
496.511,54.7677,0.2316,-2.99444,0.83637
499.511,55.0642,0.23871,-2.99837,0.83447
502.511,55.36119,0.24586,-3.00233,0.83256
505.511,55.6577,0.27397,-3.00606,0.83064
508.511,55.955,0.28459,-3.01001,0.82871
511.511,56.2523,0.28412,-3.01264,0.82678
514.511,56.5497,0.2914,-3.01527,0.82483
517.511,56.848,0.27969,-3.01791,0.82288
520.511,57.14676,0.27767,-3.02122,0.82092
523.511,57.4456,0.27305,-3.02449,0.81896
526.511,57.74345,0.26137,-3.02714,0.81698
529.511,58.04218,0.2232,-3.02973,0.815
532.511,58.3398,0.20262,-3.03303,0.81301
535.511,58.63834,0.18352,-3.03502,0.81101
538.511,58.9367,0.16248,-3.03969,0.80901
541.511,59.2355,0.15836,-3.04217,0.80699
544.511,59.5339,0.14893,-3.04522,0.80497
547.511,59.8326,0.1266,-3.04752,0.80294
550.511,60.1313,0.11882,-3.0515,0.8009
553.511,60.43099,0.12037,-3.05385,0.79885
556.511,60.73,0.09384204,-3.05574,0.79679
559.511,61.02956,0.08747753,-3.05707,0.79473
562.511,61.32901,0.09002086,-3.05896,0.79266
565.511,61.6293,0.07831625,-3.06134,0.79058
568.511,61.92957,0.07663883,-3.06397,0.78849
571.511,62.22877,0.07330958,-3.06494,0.78639
574.511,62.52794,0.07213997,-3.06935,0.78428
577.511,62.82804,0.07347234,-3.07134,0.78217
580.511,63.1276,0.05881373,-3.07393,0.78005
583.511,63.42782,0.05947067,-3.07527,0.77792
586.511,63.7293,0.05744029,-3.07889,0.77578
589.511,64.03138,0.049562,-3.08015,0.77363
592.511,64.33279,0.04044565,-3.08415,0.77147
595.511,64.63388,0.03117021,-3.08547,0.76931
598.511,64.9341,0.02490488,-3.08701,0.76714
601.511,65.23467,0.0275372,-3.08964,0.76496
604.511,65.53485,0.04010371,-3.08995,0.76277
607.511,65.83583,0.04699124,-3.09194,0.76057
610.511,66.1367,0.0359793,-3.09442,0.75836
613.511,66.4375,0.04941021,-3.09589,0.75615
616.511,66.73827,0.03013499,-3.09721,0.75392
619.511,67.03859,0.04817123,-3.09851,0.75169
622.511,67.3391,0.05858683,-3.10115,0.74945
625.511,67.6404,0.05392443,-3.10379,0.74721
628.511,67.94226,0.05580726,-3.10512,0.74495
631.511,68.2444,0.04877305,-3.10682,0.74268
634.511,68.5471,0.05317908,-3.10906,0.74041
637.511,68.8505,0.05079977,-3.11103,0.73813
640.511,69.15513,0.02318828,-3.11497,0.73584
643.511,69.46032,0.006438851,-3.11619,0.73354
646.511,69.76435,0.001046249,-3.11749,0.73124
649.511,70.06801,-0.007788635,-3.11881,0.72892
652.511,70.37135,0.00872655,-3.12277,0.7266
655.511,70.67347,0.005983855,-3.12276,0.72427
658.511,70.9754,0.01691538,-3.12408,0.72193
661.511,71.27731,0.02445059,-3.12605,0.71959
664.511,71.57915,0.04119107,-3.12507,0.71723
667.511,71.8806,0.05453074,-3.1254,0.71487
670.511,72.18172,0.06004551,-3.12935,0.7125
673.511,72.4839,0.05849056,-3.12935,0.71013
676.511,72.7868,0.05261338,-3.13033,0.70774
679.511,73.0898,0.08125014,-3.13429,0.70535
682.511,73.3938,0.07544771,-3.13297,0.70295
685.511,73.69759,0.08994843,-3.1356,0.70054
688.511,74.00146,0.08496299,-3.13759,0.69812
691.511,74.305,0.08743998,-3.13757,0.6957
694.511,74.60713,0.11003,-3.1402,0.69327
697.511,74.91027,0.11708,-3.14152,0.69083
700.511,75.2132,0.12668,-3.14284,0.68838
703.511,75.51597,0.13792,-3.14317,0.68593
706.511,75.81939,0.12315,-3.14284,0.68347
709.511,76.12331,0.14203,-3.14416,0.681
712.511,76.4282,0.13199,-3.14551,0.67852
715.511,76.73352,0.13763,-3.14656,0.67604
718.511,77.03851,0.14567,-3.14591,0.67355
721.511,77.34404,0.15032,-3.14788,0.67106
724.511,77.64941,0.14644,-3.14788,0.66855
727.511,77.95349,0.13273,-3.1492,0.66604
730.511,78.25758,0.13898,-3.15019,0.66353
733.511,78.56234,0.12543,-3.15147,0.661
736.511,78.86654,0.13163,-3.15315,0.65847
739.511,79.17109,0.12805,-3.1525,0.65594
742.511,79.47495,0.11004,-3.15249,0.65339
745.511,79.77883,0.10461,-3.15212,0.65084
747.611,79.9918,0.10994,-3.15381,0.64905