File: 01_Data/Composite_Deck_Board/STA/N2/10K_min/Composite_Deck_Board_STA_N2_10KData_210625_R1.csv
##Temp./Â°C,Time/min,Mass loss(subtr.2)/mg,DSC(subtr.2)/mW,Sensit./(uV/mW)
49.329,10.01,-0.00439,-0.0690973,0.61832
52.329,12.35437,-0.006015375,0.33389,0.6199
55.329,13.04107,-0.00559557,0.53348,0.62145
58.329,13.5916,-0.00696636,0.65969,0.62298
61.329,14.0808,-0.00690543,0.7356,0.62447
64.329,14.5305,-0.006917159,0.79975,0.62592
67.329,14.95289,-0.00602927,0.87277,0.62735
70.329,15.35431,-0.009480925,0.92957,0.62875
73.329,15.73737,-0.008228201,1.00231,0.63011
76.329,16.10514,-0.008111958,1.04751,0.63144
79.329,16.4619,-0.0102493,1.09106,0.63274
82.329,16.8085,-0.00768865,1.14936,0.63401
85.329,17.14578,-0.0116282,1.19449,0.63525
88.329,17.47557,-0.01196621,1.23181,0.63646
91.329,17.7961,-0.01064495,1.28296,0.63763
94.329,18.1133,-0.0137998,1.331,0.63877
97.329,18.42466,-0.01197033,1.38008,0.63988
100.329,18.73131,-0.01393114,1.45611,0.64096
103.329,19.03452,-0.01292271,1.56927,0.64201
106.329,19.33507,-0.01385895,1.65784,0.64303
109.329,19.63362,-0.01475194,1.78051,0.64401
112.329,19.92907,-0.01240475,1.90759,0.64496
115.329,20.22324,-0.01343175,2.08133,0.64588
118.329,20.5156,-0.01471,2.28,0.64677
121.329,20.80641,-0.01339,2.58417,0.64763
124.329,21.0957,-0.01472209,3.05811,0.64846
127.329,21.38276,-0.01469952,2.42342,0.64926
130.329,21.66647,-0.01602259,2.53147,0.65002
133.329,21.9488,-0.01524691,2.12824,0.65075
136.329,22.2273,-0.01651213,1.59584,0.65146
139.329,22.50491,-0.01720515,1.45603,0.65213
142.329,22.78051,-0.01757673,1.42912,0.65277
145.329,23.05528,-0.01842835,1.44936,0.65337
148.329,23.32902,-0.0164568,1.48714,0.65395
151.329,23.60216,-0.018611,1.50276,0.6545
154.329,23.87453,-0.01745008,1.50582,0.65502
157.329,24.1464,-0.01810709,1.51806,0.6555
160.329,24.42023,-0.01909,1.50378,0.65596
163.329,24.6911,-0.02006997,1.51714,0.65638
166.329,24.9637,-0.02139027,1.49091,0.65678
169.329,25.2351,-0.02008001,1.48149,0.65714
172.329,25.5061,-0.02019881,1.50433,0.65748
175.329,25.77743,-0.02259942,1.51421,0.65778
178.329,26.04741,-0.02160603,1.52657,0.65806
181.329,26.31632,-0.02162,1.53774,0.65831
184.329,26.58628,-0.02560586,1.53552,0.65852
187.329,26.85342,-0.0255586,1.55733,0.65871
190.329,27.1207,-0.02457013,1.5736,0.65887
193.329,27.38992,-0.02556006,1.61042,0.659
196.329,27.65692,-0.02823304,1.63263,0.6591
199.329,27.924,-0.02821139,1.65598,0.65917
202.329,28.19073,-0.0305,1.67332,0.65921
205.329,28.4577,-0.03181,1.68323,0.65922
208.329,28.7249,-0.03247441,1.68765,0.65921
211.329,28.9916,-0.03379171,1.71138,0.65917
214.329,29.2586,-0.03493225,1.7327,0.6591
217.329,29.52635,-0.03708,1.74628,0.659
220.329,29.7938,-0.03905045,1.7584,0.65888
223.329,30.06083,-0.04096691,1.75703,0.65873
226.329,30.32756,-0.04234,1.76456,0.65855
229.329,30.59549,-0.04599331,1.77816,0.65834
232.329,30.8633,-0.050018,1.77837,0.65811
235.329,31.1293,-0.05166749,1.78958,0.65785
238.329,31.39769,-0.05561957,1.79187,0.65757
241.329,31.66501,-0.05956953,1.80185,0.65726
244.329,31.93298,-0.06496177,1.81488,0.65692
247.329,32.20032,-0.07164692,1.81406,0.65656
250.329,32.46848,-0.07753254,1.81994,0.65617
253.329,32.73588,-0.08566519,1.82556,0.65576
256.329,33.0038,-0.09368602,1.84119,0.65532
259.329,33.2723,-0.10345,1.85754,0.65486
262.329,33.5404,-0.11363,1.86205,0.65437
265.329,33.80881,-0.12558,1.87302,0.65386
268.329,34.0775,-0.1393,1.89258,0.65333
271.329,34.3459,-0.15505,1.91168,0.65277
274.329,34.6145,-0.17479,1.93816,0.65219
277.329,34.88329,-0.1935,1.95501,0.65158
280.329,35.15283,-0.21585,1.96037,0.65096
283.329,35.42272,-0.2407,1.98527,0.65031
286.329,35.69223,-0.26629,1.98629,0.64963
289.329,35.9619,-0.29303,1.98419,0.64894
292.329,36.23162,-0.32249,1.97628,0.64822
295.329,36.50223,-0.35048,1.97148,0.64748
298.329,36.77306,-0.37931,1.97537,0.64672
301.329,37.04438,-0.40954,1.9711,0.64594
304.329,37.31579,-0.43969,1.96579,0.64514
307.329,37.5872,-0.47016,1.96403,0.64432
310.329,37.859,-0.49953,1.97756,0.64348
313.329,38.12999,-0.53078,1.99454,0.64262
316.329,38.4028,-0.56204,2.00732,0.64173
319.329,38.6753,-0.59321,2.02999,0.64083
322.329,38.94763,-0.62508,2.05793,0.63991
325.329,39.21987,-0.65768,2.09194,0.63897
328.329,39.49188,-0.69214,2.14634,0.63802
331.329,39.76593,-0.72605,2.20317,0.63704
334.329,40.0396,-0.76361,2.26371,0.63605
337.329,40.31327,-0.80221,2.32582,0.63504
340.329,40.5876,-0.84451,2.40842,0.63401
343.329,40.86307,-0.88752,2.52371,0.63296
346.329,41.13727,-0.93552,2.64,0.6319
349.329,41.4133,-0.99392,2.80644,0.63082
352.329,41.68953,-1.05147,2.96903,0.62972
355.329,41.96526,-1.11655,3.13962,0.62861
358.329,42.24159,-1.18708,3.30637,0.62749
361.329,42.51782,-1.26227,3.43319,0.62634
364.329,42.79424,-1.33994,3.47566,0.62519
367.329,43.0715,-1.41729,3.39662,0.62401
370.329,43.3488,-1.48822,3.13563,0.62283
373.329,43.6258,-1.55054,2.7492,0.62163
376.329,43.90249,-1.59851,2.23145,0.62041
379.329,44.17908,-1.6278,1.74749,0.61919
382.329,44.45687,-1.64937,1.36838,0.61795
385.329,44.73464,-1.65946,1.13847,0.61669
388.329,45.01299,-1.66896,1.04344,0.61542
391.329,45.29137,-1.68418,1.0118,0.61415
394.329,45.57062,-1.68247,0.97974,0.61286
397.329,45.8505,-1.69048,0.9541,0.61155
400.329,46.1308,-1.69575,0.9252,0.61024
403.329,46.41153,-1.70251,0.93225,0.60891
406.329,46.69288,-1.70905,0.92601,0.60758
409.329,46.97397,-1.71719,0.92337,0.60623
412.329,47.25636,-1.72401,0.91385,0.60488
415.329,47.53877,-1.73285,0.92224,0.60351
418.329,47.82095,-1.7413,0.93172,0.60213
421.329,48.10413,-1.75127,0.95072,0.60075
424.329,48.38748,-1.76096,0.96535,0.59936
427.329,48.671,-1.77313,1.0095,0.59795
430.329,48.9549,-1.78621,1.06928,0.59654
433.329,49.23863,-1.80018,1.11934,0.59512
436.329,49.52257,-1.81663,1.1979,0.59369
439.329,49.8077,-1.83658,1.2862,0.59226
442.329,50.09244,-1.85849,1.38714,0.59082
445.329,50.37836,-1.88675,1.50214,0.58937
448.329,50.664,-1.91597,1.65797,0.58791
451.329,50.9508,-1.95267,1.79571,0.58645
454.329,51.23774,-1.99455,1.97163,0.58498
457.329,51.52456,-2.04479,2.14009,0.58351
460.329,51.81263,-2.10393,2.34464,0.58203
463.329,52.10035,-2.17167,2.55496,0.58054
466.329,52.3881,-2.25281,2.79171,0.57905
469.329,52.6758,-2.34548,2.99766,0.57756
472.329,52.96476,-2.4505,3.18639,0.57606
475.329,53.2541,-2.56839,3.35103,0.57456
478.329,53.54303,-2.69736,3.42748,0.57305
481.329,53.83315,-2.83491,3.42057,0.57154
484.329,54.12347,-2.97166,3.25348,0.57003
487.329,54.41406,-3.1086,2.92431,0.56851
490.329,54.70469,-3.2317,2.43384,0.56699
493.329,54.995,-3.33043,1.82268,0.56547
496.329,55.2858,-3.39851,1.21509,0.56394
499.329,55.57598,-3.45302,0.63683,0.56242
502.329,55.867,-3.48019,0.17756,0.56089
505.329,56.15814,-3.49285,-0.08175715,0.55936
508.329,56.44973,-3.4969,-0.1888,0.55783
511.329,56.74009,-3.49987,-0.21115,0.5563
514.329,57.0304,-3.50448,-0.22406,0.55476
517.329,57.32225,-3.50645,-0.27714,0.55323
520.329,57.6151,-3.51007,-0.303,0.5517
523.329,57.90817,-3.50996,-0.33345,0.55016
526.329,58.20171,-3.5153,-0.37585,0.54863
529.329,58.4964,-3.51523,-0.37998,0.54709
532.329,58.79065,-3.52016,-0.38602,0.54556
535.329,59.085,-3.52159,-0.39984,0.54403
538.329,59.37936,-3.52329,-0.3968,0.5425
541.329,59.6739,-3.52557,-0.40556,0.54097
544.329,59.96866,-3.52948,-0.42321,0.53944
547.329,60.2636,-3.53097,-0.43821,0.53792
550.329,60.559,-3.53279,-0.44263,0.53639
553.329,60.8556,-3.53442,-0.44819,0.53487
556.329,61.1516,-3.53843,-0.45794,0.53335
559.329,61.44771,-3.53968,-0.47529,0.53183
562.329,61.74415,-3.54243,-0.4714,0.53032
565.329,62.0413,-3.54374,-0.47233,0.52881
568.329,62.3387,-3.55817,-0.49779,0.5273
571.329,62.6365,-3.55147,-0.48558,0.52579
574.329,62.93512,-3.55356,-0.5176,0.52429
577.329,63.23405,-3.55373,-0.51163,0.52279
580.329,63.53258,-3.55333,-0.52721,0.5213
583.329,63.83172,-3.55391,-0.49504,0.51981
586.329,64.13061,-3.55592,-0.50354,0.51832
589.329,64.42928,-3.55658,-0.49878,0.51684
592.329,64.72829,-3.5592,-0.50766,0.51537
595.329,65.026,-3.55931,-0.52307,0.51389
598.329,65.32489,-3.56055,-0.52928,0.51243
601.329,65.6229,-3.56371,-0.50887,0.51097
604.329,65.92201,-3.56258,-0.5567,0.50951
607.329,66.22322,-3.56403,-0.55748,0.50806
610.329,66.52447,-3.56502,-0.53723,0.50661
613.329,66.82513,-3.56509,-0.53912,0.50517
616.329,67.12625,-3.56899,-0.53855,0.50374
619.329,67.42774,-3.56764,-0.55885,0.50231
622.329,67.7293,-3.56897,-0.52733,0.50088
625.329,68.03056,-3.56886,-0.50979,0.49947
628.329,68.33241,-3.57018,-0.5385,0.49806
631.329,68.63498,-3.57175,-0.5399,0.49665
634.329,68.93705,-3.57314,-0.5389,0.49526
637.329,69.23918,-3.57172,-0.52386,0.49387
640.329,69.54146,-3.57435,-0.52459,0.49248
643.329,69.84395,-3.57435,-0.51598,0.49111
646.329,70.14581,-3.57434,-0.5486,0.48974
649.329,70.45071,-3.57599,-0.54092,0.48837
652.329,70.75437,-3.57697,-0.5116,0.48702
655.329,71.05835,-3.57534,-0.50829,0.48567
658.329,71.36248,-3.57566,-0.47526,0.48433
661.329,71.66718,-3.57696,-0.48596,0.483
664.329,71.97203,-3.5772,-0.46432,0.48167
667.329,72.27679,-3.57516,-0.42895,0.48035
670.329,72.5816,-3.57653,-0.46036,0.47904
673.329,72.88654,-3.57624,-0.49386,0.47774
676.329,73.19158,-3.57643,-0.47066,0.47644
679.329,73.49709,-3.57705,-0.44712,0.47516
682.329,73.80151,-3.57621,-0.43631,0.47388
685.329,74.1065,-3.57632,-0.461,0.4726
688.329,74.41322,-3.57764,-0.47679,0.47134
691.329,74.71987,-3.57731,-0.48036,0.47009
694.329,75.0266,-3.57697,-0.4896,0.46884
697.329,75.3313,-3.57763,-0.48486,0.4676
700.329,75.6379,-3.57631,-0.53709,0.46637
703.329,75.944,-3.57896,-0.56095,0.46515
706.329,76.25076,-3.57796,-0.57253,0.46393
709.329,76.55936,-3.58038,-0.59538,0.46273
712.329,76.86833,-3.57935,-0.58527,0.46153
715.329,77.17749,-3.57961,-0.61728,0.46034
718.329,77.48573,-3.57792,-0.56256,0.45916
721.329,77.7942,-3.56931,-0.54395,0.45799
724.329,78.10175,-3.58062,-0.57803,0.45683
727.329,78.4108,-3.58907,-0.62998,0.45567
730.329,78.7192,-3.57939,-0.62247,0.45453
733.329,79.0282,-3.58004,-0.65011,0.45339
736.329,79.3372,-3.58103,-0.64932,0.45226
739.329,79.64611,-3.58102,-0.62572,0.45114
742.329,79.95537,-3.58127,-0.68785,0.45002
742.729,79.99629,-3.58126,-0.69345,0.44988