File: 01_Data/Composite_Deck_Board/STA/N2/10K_min/Composite_Deck_Board_STA_N2_10KData_210625_R2.csv
##Temp./Â°C,Time/min,Mass loss(subtr.2)/mg,DSC(subtr.2)/mW,Sensit./(uV/mW)
49.33,10.00917,-0.0498,-0.01233866,0.61832
52.23,12.32043,-0.05833946,0.31427,0.61985
55.13,12.99451,-0.05907273,0.46805,0.62135
58.03,13.5344,-0.06065589,0.5597,0.62283
60.93,14.01159,-0.0634222,0.61322,0.62427
63.83,14.45139,-0.06474975,0.67719,0.62568
66.73,14.8635,-0.06572283,0.72606,0.62707
69.63,15.25479,-0.06742723,0.76872,0.62842
72.53,15.629,-0.06855031,0.83231,0.62975
75.43,15.9897,-0.0692573,0.86077,0.63105
78.33,16.3373,-0.07119363,0.90847,0.63231
81.23,16.67503,-0.07119304,0.93076,0.63355
84.13,17.00421,-0.07229048,0.96193,0.63476
87.03,17.325,-0.07581368,0.99763,0.63594
89.93,17.63862,-0.07371866,1.0202,0.63709
92.83,17.94594,-0.07501298,1.06479,0.63821
95.73,18.24906,-0.07535073,1.11107,0.63929
98.63,18.54702,-0.07777009,1.17395,0.64036
101.53,18.84206,-0.07756115,1.24373,0.64139
104.43,19.13402,-0.07887001,1.31224,0.64239
107.33,19.42399,-0.08066227,1.40557,0.64336
110.23,19.7117,-0.07826093,1.51304,0.6443
113.13,19.99761,-0.0799531,1.6543,0.64521
116.03,20.28144,-0.08127394,1.81634,0.6461
118.93,20.56416,-0.08127985,2.01646,0.64695
121.83,20.84442,-0.08127849,2.39007,0.64777
124.73,21.12445,-0.08396018,2.74014,0.64857
127.63,21.40093,-0.08259033,1.84303,0.64933
130.53,21.67505,-0.085209,1.7765,0.65007
133.43,21.94697,-0.08325022,1.51943,0.65078
136.33,22.21668,-0.07752646,1.20904,0.65146
139.23,22.48465,-0.08626535,1.15974,0.6521
142.13,22.75215,-0.08599433,1.15877,0.65272
145.03,23.0185,-0.08725712,1.17206,0.65332
147.93,23.2835,-0.08565115,1.18204,0.65388
150.83,23.54777,-0.08699,1.20163,0.65441
153.73,23.8118,-0.08830067,1.22123,0.65492
156.63,24.07497,-0.08896038,1.2467,0.65539
159.53,24.33925,-0.08896,1.25631,0.65584
162.43,24.60189,-0.08654422,1.25443,0.65626
165.33,24.86494,-0.090169,1.24314,0.65665
168.23,25.12756,-0.09004392,1.25063,0.65701
171.13,25.38914,-0.09049029,1.27669,0.65735
174.03,25.65073,-0.09246999,1.28112,0.65766
176.93,25.9119,-0.09279232,1.28899,0.65793
179.83,26.17266,-0.09278999,1.29444,0.65819
182.73,26.4326,-0.09279543,1.31666,0.65841
185.63,26.69255,-0.09412001,1.33105,0.65861
188.53,26.9518,-0.09269111,1.3307,0.65878
191.43,27.21047,-0.09630333,1.33551,0.65892
194.33,27.46977,-0.09794419,1.3428,0.65903
197.23,27.72751,-0.09860998,1.35651,0.65912
200.13,27.9859,-0.12036,1.36825,0.65918
203.03,28.2437,-0.10157,1.3985,0.65922
205.93,28.5021,-0.10289,1.414,0.65922
208.83,28.7599,-0.1031,1.43527,0.65921
211.73,29.01785,-0.10453,1.45869,0.65916
214.63,29.27648,-0.10363,1.48305,0.65909
217.53,29.53418,-0.10676,1.49079,0.659
220.43,29.79253,-0.10707,1.49531,0.65887
223.33,30.0518,-0.11172,1.50384,0.65873
226.23,30.3104,-0.11407,1.52248,0.65855
229.13,30.56857,-0.11671,1.53629,0.65836
232.03,30.82743,-0.12053,1.55841,0.65813
234.93,31.086,-0.12326,1.57275,0.65789
237.83,31.34445,-0.12814,1.58029,0.65762
240.73,31.6028,-0.1319,1.5952,0.65732
243.63,31.86177,-0.13846,1.58699,0.657
246.53,32.1205,-0.14446,1.58768,0.65666
249.43,32.37945,-0.14874,1.59961,0.65629
252.33,32.63889,-0.15675,1.61088,0.6559
255.23,32.89764,-0.16336,1.62059,0.65548
258.13,33.15759,-0.17221,1.63451,0.65505
261.03,33.41683,-0.18278,1.66564,0.65459
263.93,33.67621,-0.19322,1.68243,0.6541
266.83,33.93588,-0.20602,1.70456,0.6536
269.73,34.19534,-0.21987,1.7262,0.65307
272.63,34.4541,-0.23951,1.75928,0.65252
275.53,34.71523,-0.25746,1.79089,0.65195
278.43,34.97528,-0.27583,1.80032,0.65136
281.33,35.2356,-0.29806,1.81985,0.65074
284.23,35.4961,-0.31996,1.82123,0.65011
287.13,35.75677,-0.34854,1.8327,0.64945
290.03,36.01765,-0.37951,1.84511,0.64877
292.93,36.2787,-0.4033,1.83757,0.64808
295.83,36.5398,-0.43224,1.8512,0.64736
298.73,36.80126,-0.46056,1.8529,0.64662
301.63,37.06394,-0.49052,1.85304,0.64586
304.53,37.3265,-0.52039,1.8448,0.64509
307.43,37.5888,-0.5495,1.86026,0.64429
310.33,37.8514,-0.57864,1.88118,0.64348
313.23,38.1135,-0.6069,1.89599,0.64264
316.13,38.37656,-0.63601,1.92242,0.64179
319.03,38.63964,-0.66695,1.94868,0.64092
321.93,38.90314,-0.69801,1.99446,0.64004
324.83,39.16686,-0.73003,2.03381,0.63913
327.73,39.4306,-0.76954,2.0913,0.63821
330.63,39.6943,-0.79844,2.12141,0.63727
333.53,39.9589,-0.83458,2.19879,0.63631
336.43,40.22363,-0.87174,2.27317,0.63534
339.33,40.4889,-0.91246,2.37052,0.63435
342.23,40.75397,-0.95349,2.46796,0.63335
345.13,41.01977,-1.00054,2.60635,0.63232
348.03,41.28605,-1.05044,2.74666,0.63129
350.93,41.55232,-1.10598,2.92485,0.63024
353.83,41.81864,-1.16913,3.09411,0.62917
356.73,42.08603,-1.23719,3.28198,0.62809
359.63,42.3538,-1.30829,3.44864,0.62699
362.53,42.6216,-1.38246,3.54784,0.62588
365.43,42.8895,-1.45978,3.54362,0.62476
368.33,43.15766,-1.53369,3.41822,0.62362
371.23,43.42618,-1.59784,3.11294,0.62247
374.13,43.6943,-1.65566,2.70911,0.6213
377.03,43.96354,-1.69704,2.23072,0.62013
379.93,44.23223,-1.72643,1.7722,0.61894
382.83,44.50054,-1.74218,1.47064,0.61774
385.73,44.7695,-1.75446,1.27314,0.61652
388.63,45.03881,-1.76299,1.17411,0.6153
391.53,45.30892,-1.76869,1.15046,0.61406
394.43,45.57955,-1.77703,1.13063,0.61281
397.33,45.85058,-1.78176,1.1155,0.61155
400.23,46.12192,-1.78959,1.11052,0.61028
403.13,46.3934,-1.79381,1.10779,0.609
406.03,46.66565,-1.80186,1.10794,0.60771
408.93,46.93782,-1.80862,1.11699,0.60641
411.83,47.21028,-1.81669,1.11677,0.6051
414.73,47.48287,-1.82453,1.11451,0.60378
417.63,47.75577,-1.83182,1.13382,0.60246
420.53,48.02985,-1.8401,1.1605,0.60112
423.43,48.30389,-1.85043,1.18665,0.59977
426.33,48.57849,-1.85874,1.22238,0.59842
429.23,48.85333,-1.871,1.28235,0.59706
432.13,49.12862,-1.88216,1.32431,0.59569
435.03,49.40327,-1.89855,1.40203,0.59431
437.93,49.6781,-1.91601,1.48074,0.59293
440.83,49.95402,-1.93634,1.55891,0.59154
443.73,50.2303,-1.95766,1.68047,0.59014
446.63,50.50743,-1.98513,1.81753,0.58874
449.53,50.78457,-2.01468,1.96119,0.58733
452.43,51.0618,-2.05172,2.11556,0.58591
455.33,51.3392,-2.09414,2.29348,0.58449
458.23,51.6168,-2.14201,2.48703,0.58307
461.13,51.89476,-2.20052,2.69355,0.58163
464.03,52.17273,-2.26686,2.90401,0.5802
466.93,52.4511,-2.34077,3.12863,0.57876
469.83,52.72987,-2.42852,3.332,0.57731
472.73,53.0092,-2.52608,3.51619,0.57586
475.63,53.2884,-2.6344,3.65105,0.57441
478.53,53.5677,-2.75285,3.70166,0.57295
481.43,53.8474,-2.87547,3.66281,0.57149
484.33,54.12732,-2.99908,3.49684,0.57003
487.23,54.40775,-3.11803,3.21161,0.56856
490.13,54.688,-3.22385,2.76809,0.56709
493.03,54.96901,-3.31334,2.21385,0.56562
495.93,55.24978,-3.37938,1.62667,0.56415
498.83,55.53193,-3.42343,1.0665,0.56267
501.73,55.8141,-3.44774,0.63472,0.56119
504.63,56.0961,-3.45969,0.35756,0.55972
507.53,56.37806,-3.46664,0.21159,0.55824
510.43,56.65993,-3.46926,0.15999,0.55676
513.33,56.94203,-3.47322,0.14085,0.55527
516.23,57.22455,-3.47584,0.118,0.55379
519.13,57.5076,-3.47968,0.09706227,0.55231
522.03,57.79121,-3.47981,0.09516532,0.55083
524.93,58.0744,-3.48281,0.064062,0.54934
527.83,58.35776,-3.48618,0.04654306,0.54786
530.73,58.6419,-3.48769,0.01744133,0.54638
533.63,58.9262,-3.48934,0.005827995,0.5449
536.53,59.2108,-3.49164,0.01859364,0.54342
539.43,59.49544,-3.49442,-0.00938622,0.54194
542.33,59.78009,-3.49592,-0.03374394,0.54046
545.23,60.06657,-3.49855,-0.05363256,0.53898
548.13,60.3529,-3.49954,-0.0938359,0.53751
551.03,60.63938,-3.5025,-0.07959966,0.53604
553.93,60.9256,-3.50381,-0.0880762,0.53456
556.83,61.21077,-3.50514,-0.10509,0.5331
559.73,61.4982,-3.50775,-0.11154,0.53163
562.63,61.7855,-3.50897,-0.12745,0.53017
565.53,62.0729,-3.50951,-0.11959,0.52871
568.43,62.36005,-3.51398,-0.14458,0.52725
571.33,62.648,-3.51452,-0.14808,0.52579
574.23,62.93583,-3.51735,-0.15311,0.52434
577.13,63.2247,-3.51688,-0.14024,0.52289
580.03,63.5123,-3.51848,-0.15646,0.52145
582.93,63.801,-3.52084,-0.15638,0.52001
585.83,64.09057,-3.52019,-0.17033,0.51857
588.73,64.38006,-3.52121,-0.17567,0.51714
591.63,64.66905,-3.52279,-0.16561,0.51571
594.53,64.95817,-3.52674,-0.19581,0.51429
597.43,65.24799,-3.52806,-0.18645,0.51287
600.33,65.5382,-3.52872,-0.19026,0.51145
603.23,65.82915,-3.53102,-0.18398,0.51004
606.13,66.1191,-3.53003,-0.1546,0.50864
609.03,66.41023,-3.53234,-0.17656,0.50724
611.93,66.7007,-3.53233,-0.19424,0.50584
614.83,66.9929,-3.53299,-0.21156,0.50445
617.73,67.2839,-3.53431,-0.17777,0.50307
620.63,67.5752,-3.53431,-0.16824,0.50169
623.53,67.86668,-3.53651,-0.14013,0.50032
626.43,68.1587,-3.53818,-0.15269,0.49895
629.33,68.45158,-3.53918,-0.1474,0.49759
632.23,68.74399,-3.53979,-0.12816,0.49623
635.13,69.0371,-3.54044,-0.12254,0.49489
638.03,69.32964,-3.53979,-0.11909,0.49354
640.93,69.6225,-3.54034,-0.13465,0.49221
643.83,69.91564,-3.54265,-0.1096,0.49088
646.73,70.20897,-3.54133,-0.1854,0.48955
649.63,70.5013,-3.54134,-0.19819,0.48824
652.53,70.79608,-3.54199,-0.19545,0.48693
655.43,71.08978,-3.54473,-0.17565,0.48562
658.33,71.38423,-3.54615,-0.12715,0.48433
661.23,71.67879,-3.54648,-0.12002,0.48304
664.13,71.97322,-3.54845,-0.16514,0.48176
667.03,72.26819,-3.54714,-0.16949,0.48048
669.93,72.5628,-3.546,-0.15307,0.47921
672.83,72.85762,-3.54846,-0.18172,0.47795
675.73,73.15303,-3.54847,-0.15067,0.4767
678.63,73.44876,-3.54977,-0.13328,0.47545
681.53,73.74414,-3.5491,-0.12126,0.47422
684.43,74.03993,-3.55046,-0.09386926,0.47298
687.33,74.33617,-3.54944,-0.10545,0.47176
690.23,74.6319,-3.55044,-0.02918478,0.47055
693.13,74.928,-3.5501,-0.03162786,0.46934
696.03,75.22332,-3.54911,-0.01086774,0.46814
698.93,75.52,-3.54912,0.01500117,0.46694
701.83,75.81716,-3.55212,0.02420328,0.46576
704.73,76.1147,-3.55101,0.0926782,0.46458
707.63,76.41149,-3.55175,0.1775,0.46341
710.53,76.70788,-3.55175,0.19479,0.46225
713.43,77.00482,-3.55175,0.2249,0.46109
716.33,77.30238,-3.55319,0.22186,0.45995
719.23,77.59993,-3.55285,0.26479,0.45881
722.13,77.8981,-3.55284,0.39181,0.45768
725.03,78.19676,-3.55317,0.37487,0.45656
727.93,78.49529,-3.55318,0.33455,0.45544
730.83,78.79302,-3.55449,0.2614,0.45434
733.73,79.0915,-3.55463,0.15398,0.45324
736.63,79.39035,-3.55581,0.18356,0.45215
739.53,79.68907,-3.55449,0.17423,0.45106
742.43,79.9891,-3.55712,0.24752,0.44999