File: 01_Data/Lightweight_Gypsum_Wallboard/HFM/Lightweight_Gypsum_Wallboard_Density_Dry_R2.csv
,Lightweight_Gypsum_Wallboard_DRY_2
Sample Mass [g],218.8
Sample Volume [cm3],514.6
Sample Density [kg/m3],425