File: 01_Data/Lightweight_Gypsum_Wallboard/HFM/Lightweight_Gypsum_Wallboard_Density_Wet_R2.csv
,Lightweight_Gypsum_Wallboard_WET_2
Sample Mass [g],251.5
Sample Volume [cm3],514.6
Sample Density [kg/m3],489