File: 01_Data/Lightweight_Gypsum_Wallboard/HFM/Lightweight_Gypsum_Wallboard_Density_Dry_R3.csv
,Lightweight_Gypsum_Wallboard_DRY_3
Sample Mass [g],227.5
Sample Volume [cm3],529.2
Sample Density [kg/m3],430