File: 01_Data/Engineered_Flooring/FTIR/IS/Engineered_Flooring_IS_S_220909_R7.dpt
7497.02,0.36978
7473.88,0.38090
7450.73,0.36971
7427.59,0.37178
7404.44,0.36939
7381.3,0.36718
7358.15,0.35919
7335.01,0.36101
7311.86,0.36063
7288.72,0.35659
7265.57,0.35360
7242.43,0.36830
7219.28,0.35701
7196.14,0.35361
7172.99,0.35502
7149.85,0.34572
7126.7,0.34610
7103.56,0.33830
7080.41,0.33022
7057.27,0.32546
7034.12,0.31793
7010.98,0.31299
6987.83,0.30727
6964.69,0.30536
6941.54,0.30687
6918.4,0.30381
6895.25,0.29832
6872.11,0.29808
6848.96,0.30478
6825.82,0.30511
6802.67,0.30178
6779.53,0.30397
6756.38,0.30807
6733.24,0.30649
6710.1,0.31027
6686.95,0.31369
6663.81,0.31344
6640.66,0.31247
6617.52,0.31953
6594.37,0.32397
6571.23,0.31958
6548.08,0.32521
6524.94,0.32698
6501.79,0.33106
6478.65,0.32880
6455.5,0.33026
6432.36,0.33300
6409.21,0.33114
6386.07,0.33319
6362.92,0.33823
6339.78,0.33592
6316.63,0.33973
6293.49,0.33805
6270.34,0.34090
6247.2,0.34243
6224.05,0.34784
6200.91,0.34797
6177.76,0.35000
6154.62,0.35334
6131.47,0.35155
6108.33,0.35660
6085.18,0.35520
6062.04,0.35450
6038.89,0.34961
6015.75,0.34170
5992.6,0.33596
5969.46,0.33202
5946.31,0.32723
5923.17,0.32438
5900.02,0.32362
5876.88,0.32254
5853.73,0.32135
5830.59,0.31993
5807.44,0.31569
5784.3,0.31508
5761.15,0.31953
5738.01,0.32559
5714.86,0.32950
5691.72,0.33029
5668.57,0.33340
5645.43,0.33588
5622.28,0.33566
5599.14,0.33676
5575.99,0.33688
5552.85,0.34165
5529.7,0.34392
5506.56,0.34416
5483.41,0.34617
5460.27,0.34825
5437.13,0.35203
5413.98,0.35585
5390.84,0.35586
5367.69,0.35519
5344.55,0.35404
5321.4,0.34540
5298.26,0.33187
5275.11,0.30965
5251.97,0.28060
5228.82,0.26350
5205.68,0.25641
5182.53,0.25726
5159.39,0.26387
5136.24,0.26983
5113.1,0.27899
5089.95,0.28670
5066.81,0.29407
5043.66,0.30062
5020.52,0.30571
4997.37,0.30846
4974.23,0.30715
4951.08,0.30075
4927.94,0.29086
4904.79,0.28250
4881.65,0.27587
4858.5,0.27015
4835.36,0.26462
4812.21,0.25888
4789.07,0.25661
4765.92,0.25364
4742.78,0.24969
4719.63,0.24699
4696.49,0.24440
4673.34,0.24303
4650.2,0.25006
4627.05,0.25379
4603.91,0.26087
4580.76,0.26720
4557.62,0.27007
4534.47,0.27280
4511.33,0.26933
4488.18,0.25746
4465.04,0.23458
4441.89,0.19910
4418.75,0.17588
4395.6,0.17255
4372.46,0.17083
4349.31,0.16739
4326.17,0.16749
4303.02,0.17251
4279.88,0.17249
4256.73,0.17576
4233.59,0.17965
4210.44,0.18352
4187.3,0.18463
4164.16,0.18396
4141.01,0.18212
4117.87,0.17739
4094.72,0.16963
4071.58,0.15793
4048.43,0.15138
4025.29,0.14938
4002.14,0.14906
3979,0.15475
3955.85,0.16230
3932.71,0.16998
3909.56,0.17706
3886.42,0.18280
3863.27,0.18877
3840.13,0.19593
3816.98,0.19826
3793.84,0.19664
3770.69,0.19599
3747.55,0.19060
3724.4,0.17964
3701.26,0.15741
3678.11,0.10438
3654.97,0.07607
3631.82,0.06101
3608.68,0.05404
3585.53,0.05081
3562.39,0.04913
3539.24,0.04716
3516.1,0.04754
3492.95,0.04759
3469.81,0.04691
3446.66,0.04661
3423.52,0.04744
3400.37,0.04688
3377.23,0.04698
3354.08,0.04802
3330.94,0.04733
3307.79,0.04782
3284.65,0.04859
3261.5,0.04823
3238.36,0.04914
3215.21,0.04991
3192.07,0.05001
3168.92,0.05172
3145.78,0.05224
3122.63,0.05282
3099.49,0.05331
3076.34,0.05326
3053.2,0.05316
3030.05,0.05273
3006.91,0.04917
2983.76,0.04575
2960.62,0.04753
2937.47,0.04811
2914.33,0.04995
2891.18,0.04902
2868.04,0.04975
2844.9,0.05182
2821.75,0.05500
2798.61,0.05862
2775.46,0.06137
2752.32,0.06330
2729.17,0.06521
2706.03,0.06898
2682.88,0.07313
2659.74,0.07528
2636.59,0.07861
2613.45,0.08100
2590.3,0.08287
2567.16,0.08497
2544.01,0.08651
2520.87,0.08976
2497.72,0.09320
2474.58,0.09704
2451.43,0.09999
2428.29,0.10255
2405.14,0.10666
2382,0.10893
2358.85,0.11125
2335.71,0.11360
2312.56,0.11550
2289.42,0.11716
2266.27,0.11842
2243.13,0.11723
2219.98,0.11735
2196.84,0.11635
2173.69,0.11103
2150.55,0.10514
2127.4,0.10167
2104.26,0.10003
2081.11,0.09958
2057.97,0.09972
2034.82,0.10046
2011.68,0.10229
1988.53,0.10428
1965.39,0.10406
1942.24,0.10487
1919.1,0.10764
1895.95,0.10739
1872.81,0.10447
1849.66,0.09586
1826.52,0.08186
1803.37,0.06444
1780.23,0.04489
1757.08,0.02945
1733.94,0.05121
1710.79,0.06348
1687.65,0.05636
1664.5,0.05270
1641.36,0.05109
1618.21,0.05042
1595.07,0.05094
1571.93,0.05208
1548.78,0.04857
1525.64,0.04733
1502.49,0.04637
1479.35,0.04257
1456.2,0.04269
1433.06,0.04493
1409.91,0.04272
1386.77,0.04238
1363.62,0.04309
1340.48,0.04151
1317.33,0.03906
1294.19,0.03894
1271.04,0.03953
1247.9,0.04279
1224.75,0.04367
1201.61,0.04525
1178.46,0.04820
1155.32,0.05497
1132.17,0.05615
1109.03,0.05803
1085.88,0.05955
1062.74,0.06328
1039.59,0.06711
1016.45,0.06936
993.302,0.06819
970.157,0.06917
947.013,0.06819
923.868,0.06572
900.723,0.06496
877.578,0.06633
854.433,0.06312
831.288,0.06077
808.143,0.06320
784.998,0.06207
761.853,0.06033
738.708,0.06084
715.563,0.06171
692.419,0.06626
669.274,0.06742
646.129,0.05848
622.984,0.05761
599.839,0.05789