File: 01_Data/Engineered_Flooring/FTIR/IS/Engineered_Flooring_IS_T_220909_R8.dpt
7497.02,0.02596
7473.88,0.02199
7450.73,0.01901
7427.59,0.02870
7404.44,0.03467
7381.3,0.02462
7358.15,0.02611
7335.01,0.02576
7311.86,0.01788
7288.72,0.02956
7265.57,0.02283
7242.43,0.02686
7219.28,0.02540
7196.14,0.02285
7172.99,0.02736
7149.85,0.02587
7126.7,0.01909
7103.56,0.02690
7080.41,0.01987
7057.27,0.03445
7034.12,0.02351
7010.98,0.02249
6987.83,0.02238
6964.69,0.02477
6941.54,0.02608
6918.4,0.02615
6895.25,0.02683
6872.11,0.02586
6848.96,0.02126
6825.82,0.02382
6802.67,0.02113
6779.53,0.02445
6756.38,0.02303
6733.24,0.02600
6710.1,0.02554
6686.95,0.02212
6663.81,0.02222
6640.66,0.02611
6617.52,0.02143
6594.37,0.02632
6571.23,0.02393
6548.08,0.01932
6524.94,0.01869
6501.79,0.02079
6478.65,0.02088
6455.5,0.02660
6432.36,0.02151
6409.21,0.02171
6386.07,0.02564
6362.92,0.02216
6339.78,0.02273
6316.63,0.01848
6293.49,0.02164
6270.34,0.02348
6247.2,0.02304
6224.05,0.02798
6200.91,0.02474
6177.76,0.02153
6154.62,0.02402
6131.47,0.02044
6108.33,0.02574
6085.18,0.02129
6062.04,0.02460
6038.89,0.02446
6015.75,0.02323
5992.6,0.02307
5969.46,0.02260
5946.31,0.02097
5923.17,0.02143
5900.02,0.02343
5876.88,0.02162
5853.73,0.02346
5830.59,0.02157
5807.44,0.02190
5784.3,0.02027
5761.15,0.02278
5738.01,0.02264
5714.86,0.02064
5691.72,0.02032
5668.57,0.02257
5645.43,0.02115
5622.28,0.02051
5599.14,0.02138
5575.99,0.02159
5552.85,0.02236
5529.7,0.02113
5506.56,0.02134
5483.41,0.02319
5460.27,0.02312
5437.13,0.02349
5413.98,0.02201
5390.84,0.02349
5367.69,0.02239
5344.55,0.02133
5321.4,0.02295
5298.26,0.02438
5275.11,0.02267
5251.97,0.02194
5228.82,0.02237
5205.68,0.02169
5182.53,0.02123
5159.39,0.02273
5136.24,0.02264
5113.1,0.02258
5089.95,0.02219
5066.81,0.02184
5043.66,0.02245
5020.52,0.02267
4997.37,0.02237
4974.23,0.02236
4951.08,0.02237
4927.94,0.02274
4904.79,0.02224
4881.65,0.02241
4858.5,0.02286
4835.36,0.02290
4812.21,0.02253
4789.07,0.02251
4765.92,0.02201
4742.78,0.02335
4719.63,0.02263
4696.49,0.02283
4673.34,0.02335
4650.2,0.02288
4627.05,0.02269
4603.91,0.02140
4580.76,0.02299
4557.62,0.02325
4534.47,0.02242
4511.33,0.02183
4488.18,0.02286
4465.04,0.02205
4441.89,0.02200
4418.75,0.02294
4395.6,0.02229
4372.46,0.02379
4349.31,0.02249
4326.17,0.02234
4303.02,0.02261
4279.88,0.02177
4256.73,0.02300
4233.59,0.02284
4210.44,0.02164
4187.3,0.02254
4164.16,0.02250
4141.01,0.02281
4117.87,0.02270
4094.72,0.02242
4071.58,0.02297
4048.43,0.02243
4025.29,0.02292
4002.14,0.02389
3979,0.02291
3955.85,0.02265
3932.71,0.02269
3909.56,0.02221
3886.42,0.02350
3863.27,0.02337
3840.13,0.02316
3816.98,0.02226
3793.84,0.02278
3770.69,0.02331
3747.55,0.02341
3724.4,0.02273
3701.26,0.02244
3678.11,0.02261
3654.97,0.02229
3631.82,0.02235
3608.68,0.02261
3585.53,0.02173
3562.39,0.02161
3539.24,0.02108
3516.1,0.02061
3492.95,0.02101
3469.81,0.02115
3446.66,0.02114
3423.52,0.02042
3400.37,0.02098
3377.23,0.02110
3354.08,0.02017
3330.94,0.02063
3307.79,0.01971
3284.65,0.02034
3261.5,0.02079
3238.36,0.02089
3215.21,0.02038
3192.07,0.02069
3168.92,0.02066
3145.78,0.02054
3122.63,0.02113
3099.49,0.02150
3076.34,0.02080
3053.2,0.02110
3030.05,0.02143
3006.91,0.02075
2983.76,0.02025
2960.62,0.01949
2937.47,0.01960
2914.33,0.02060
2891.18,0.02045
2868.04,0.02084
2844.9,0.02095
2821.75,0.02144
2798.61,0.02165
2775.46,0.02193
2752.32,0.02127
2729.17,0.02116
2706.03,0.02098
2682.88,0.02159
2659.74,0.02145
2636.59,0.02144
2613.45,0.02111
2590.3,0.02164
2567.16,0.02147
2544.01,0.02159
2520.87,0.02119
2497.72,0.02120
2474.58,0.02148
2451.43,0.02142
2428.29,0.02166
2405.14,0.02150
2382,0.02129
2358.85,0.02115
2335.71,0.02154
2312.56,0.02129
2289.42,0.02112
2266.27,0.02110
2243.13,0.02122
2219.98,0.02080
2196.84,0.02112
2173.69,0.02135
2150.55,0.02107
2127.4,0.02150
2104.26,0.02094
2081.11,0.02085
2057.97,0.02096
2034.82,0.02074
2011.68,0.02074
1988.53,0.02108
1965.39,0.02070
1942.24,0.02080
1919.1,0.02118
1895.95,0.02095
1872.81,0.02064
1849.66,0.02046
1826.52,0.02023
1803.37,0.01971
1780.23,0.01933
1757.08,0.01770
1733.94,0.01963
1710.79,0.02050
1687.65,0.01960
1664.5,0.01862
1641.36,0.01844
1618.21,0.01919
1595.07,0.01886
1571.93,0.01827
1548.78,0.01817
1525.64,0.01903
1502.49,0.01892
1479.35,0.01846
1456.2,0.01871
1433.06,0.01871
1409.91,0.01847
1386.77,0.01796
1363.62,0.01809
1340.48,0.01803
1317.33,0.01725
1294.19,0.01791
1271.04,0.01929
1247.9,0.01993
1224.75,0.01936
1201.61,0.01835
1178.46,0.01783
1155.32,0.01747
1132.17,0.01834
1109.03,0.01885
1085.88,0.01850
1062.74,0.01994
1039.59,0.01991
1016.45,0.01895
993.302,0.02111
970.157,0.01958
947.013,0.01970
923.868,0.01904
900.723,0.01967
877.578,0.01932
854.433,0.01903
831.288,0.01873
808.143,0.01907
784.998,0.01908
761.853,0.01857
738.708,0.01835
715.563,0.01866
692.419,0.01737
669.274,0.01721
646.129,0.01689
622.984,0.01398
599.839,0.01699