File: 01_Data/Engineered_Flooring/FTIR/IS/Engineered_Flooring_IS_T_220909_R5.dpt
7497.02,0.01480
7473.88,0.02386
7450.73,0.02488
7427.59,0.02929
7404.44,0.01475
7381.3,0.02209
7358.15,0.02438
7335.01,0.02542
7311.86,0.02181
7288.72,0.01520
7265.57,0.01382
7242.43,0.02900
7219.28,0.02150
7196.14,0.02452
7172.99,0.01948
7149.85,0.01923
7126.7,0.02270
7103.56,0.02264
7080.41,0.02340
7057.27,0.02987
7034.12,0.02715
7010.98,0.02320
6987.83,0.02056
6964.69,0.02017
6941.54,0.02819
6918.4,0.03051
6895.25,0.02384
6872.11,0.02460
6848.96,0.02347
6825.82,0.02139
6802.67,0.01937
6779.53,0.02124
6756.38,0.02743
6733.24,0.02362
6710.1,0.02390
6686.95,0.02206
6663.81,0.02093
6640.66,0.02235
6617.52,0.02236
6594.37,0.02522
6571.23,0.02533
6548.08,0.02040
6524.94,0.02784
6501.79,0.02064
6478.65,0.02556
6455.5,0.02486
6432.36,0.02348
6409.21,0.02299
6386.07,0.02241
6362.92,0.02085
6339.78,0.02152
6316.63,0.02355
6293.49,0.02435
6270.34,0.01794
6247.2,0.02094
6224.05,0.02314
6200.91,0.02431
6177.76,0.02012
6154.62,0.02242
6131.47,0.02494
6108.33,0.02275
6085.18,0.02159
6062.04,0.02131
6038.89,0.02235
6015.75,0.02180
5992.6,0.02094
5969.46,0.02314
5946.31,0.02396
5923.17,0.02275
5900.02,0.02189
5876.88,0.02143
5853.73,0.02355
5830.59,0.02299
5807.44,0.02178
5784.3,0.02303
5761.15,0.02254
5738.01,0.02346
5714.86,0.02331
5691.72,0.02051
5668.57,0.02129
5645.43,0.02192
5622.28,0.02353
5599.14,0.02492
5575.99,0.02160
5552.85,0.02291
5529.7,0.02482
5506.56,0.02126
5483.41,0.02245
5460.27,0.02407
5437.13,0.02305
5413.98,0.02437
5390.84,0.02223
5367.69,0.02213
5344.55,0.02368
5321.4,0.02113
5298.26,0.02140
5275.11,0.02268
5251.97,0.02154
5228.82,0.02221
5205.68,0.02281
5182.53,0.02193
5159.39,0.02211
5136.24,0.02387
5113.1,0.02233
5089.95,0.02139
5066.81,0.02235
5043.66,0.02265
5020.52,0.02224
4997.37,0.02265
4974.23,0.02152
4951.08,0.02227
4927.94,0.02281
4904.79,0.02209
4881.65,0.02240
4858.5,0.02201
4835.36,0.02317
4812.21,0.02199
4789.07,0.02382
4765.92,0.02235
4742.78,0.02313
4719.63,0.02289
4696.49,0.02201
4673.34,0.02322
4650.2,0.02270
4627.05,0.02300
4603.91,0.02271
4580.76,0.02282
4557.62,0.02278
4534.47,0.02299
4511.33,0.02138
4488.18,0.02245
4465.04,0.02241
4441.89,0.02221
4418.75,0.02215
4395.6,0.02237
4372.46,0.02289
4349.31,0.02320
4326.17,0.02309
4303.02,0.02277
4279.88,0.02266
4256.73,0.02210
4233.59,0.02327
4210.44,0.02281
4187.3,0.02250
4164.16,0.02236
4141.01,0.02280
4117.87,0.02338
4094.72,0.02258
4071.58,0.02276
4048.43,0.02249
4025.29,0.02252
4002.14,0.02312
3979,0.02217
3955.85,0.02323
3932.71,0.02266
3909.56,0.02268
3886.42,0.02265
3863.27,0.02308
3840.13,0.02241
3816.98,0.02232
3793.84,0.02258
3770.69,0.02275
3747.55,0.02302
3724.4,0.02289
3701.26,0.02245
3678.11,0.02300
3654.97,0.02276
3631.82,0.02241
3608.68,0.02196
3585.53,0.02201
3562.39,0.02149
3539.24,0.02139
3516.1,0.02141
3492.95,0.02094
3469.81,0.02073
3446.66,0.02081
3423.52,0.02003
3400.37,0.02042
3377.23,0.02045
3354.08,0.01994
3330.94,0.02132
3307.79,0.02054
3284.65,0.02040
3261.5,0.02017
3238.36,0.02069
3215.21,0.02043
3192.07,0.02084
3168.92,0.02091
3145.78,0.02061
3122.63,0.02138
3099.49,0.02129
3076.34,0.02079
3053.2,0.02049
3030.05,0.02059
3006.91,0.02062
2983.76,0.01981
2960.62,0.01946
2937.47,0.01971
2914.33,0.01997
2891.18,0.02049
2868.04,0.02072
2844.9,0.02099
2821.75,0.02121
2798.61,0.02155
2775.46,0.02136
2752.32,0.02159
2729.17,0.02143
2706.03,0.02125
2682.88,0.02185
2659.74,0.02129
2636.59,0.02175
2613.45,0.02150
2590.3,0.02139
2567.16,0.02170
2544.01,0.02153
2520.87,0.02130
2497.72,0.02132
2474.58,0.02149
2451.43,0.02108
2428.29,0.02123
2405.14,0.02141
2382,0.02154
2358.85,0.02130
2335.71,0.02171
2312.56,0.02101
2289.42,0.02146
2266.27,0.02089
2243.13,0.02110
2219.98,0.02103
2196.84,0.02127
2173.69,0.02090
2150.55,0.02142
2127.4,0.02103
2104.26,0.02124
2081.11,0.02110
2057.97,0.02119
2034.82,0.02099
2011.68,0.02072
1988.53,0.02111
1965.39,0.02085
1942.24,0.02103
1919.1,0.02108
1895.95,0.02087
1872.81,0.02080
1849.66,0.02063
1826.52,0.02028
1803.37,0.01986
1780.23,0.01926
1757.08,0.01795
1733.94,0.01981
1710.79,0.02058
1687.65,0.01920
1664.5,0.01853
1641.36,0.01838
1618.21,0.01884
1595.07,0.01920
1571.93,0.01897
1548.78,0.01845
1525.64,0.01861
1502.49,0.01892
1479.35,0.01887
1456.2,0.01884
1433.06,0.01901
1409.91,0.01837
1386.77,0.01817
1363.62,0.01807
1340.48,0.01800
1317.33,0.01743
1294.19,0.01786
1271.04,0.01967
1247.9,0.02075
1224.75,0.01914
1201.61,0.01876
1178.46,0.01764
1155.32,0.01773
1132.17,0.01890
1109.03,0.01868
1085.88,0.01824
1062.74,0.01956
1039.59,0.02006
1016.45,0.01957
993.302,0.02109
970.157,0.02048
947.013,0.02040
923.868,0.01898
900.723,0.01866
877.578,0.01879
854.433,0.01883
831.288,0.01873
808.143,0.01868
784.998,0.01836
761.853,0.01815
738.708,0.01818
715.563,0.01717
692.419,0.01745
669.274,0.01675
646.129,0.01706
622.984,0.01772
599.839,0.01604