File: 01_Data/Engineered_Flooring/FTIR/IS/Engineered_Flooring_IS_S_220909_R2.dpt
7497.02,0.37411
7473.88,0.37836
7450.73,0.37608
7427.59,0.37262
7404.44,0.37768
7381.3,0.36721
7358.15,0.36762
7335.01,0.36613
7311.86,0.36269
7288.72,0.35508
7265.57,0.35696
7242.43,0.36584
7219.28,0.36075
7196.14,0.35470
7172.99,0.35343
7149.85,0.34410
7126.7,0.33879
7103.56,0.34074
7080.41,0.33078
7057.27,0.32637
7034.12,0.32627
7010.98,0.31332
6987.83,0.31141
6964.69,0.30526
6941.54,0.29953
6918.4,0.30531
6895.25,0.30108
6872.11,0.30855
6848.96,0.30617
6825.82,0.30444
6802.67,0.29997
6779.53,0.30459
6756.38,0.30441
6733.24,0.30587
6710.1,0.31233
6686.95,0.30917
6663.81,0.31325
6640.66,0.31457
6617.52,0.31453
6594.37,0.32048
6571.23,0.32594
6548.08,0.32634
6524.94,0.32805
6501.79,0.32806
6478.65,0.32927
6455.5,0.33149
6432.36,0.32934
6409.21,0.33681
6386.07,0.33268
6362.92,0.33399
6339.78,0.33742
6316.63,0.33872
6293.49,0.33783
6270.34,0.34168
6247.2,0.34617
6224.05,0.34678
6200.91,0.34805
6177.76,0.35048
6154.62,0.35246
6131.47,0.35414
6108.33,0.35395
6085.18,0.35403
6062.04,0.35154
6038.89,0.35004
6015.75,0.34083
5992.6,0.33556
5969.46,0.33027
5946.31,0.32613
5923.17,0.32364
5900.02,0.32157
5876.88,0.32113
5853.73,0.32322
5830.59,0.31777
5807.44,0.31635
5784.3,0.31591
5761.15,0.32006
5738.01,0.32522
5714.86,0.32853
5691.72,0.33143
5668.57,0.33229
5645.43,0.33397
5622.28,0.33579
5599.14,0.33687
5575.99,0.33655
5552.85,0.34051
5529.7,0.34077
5506.56,0.34526
5483.41,0.34580
5460.27,0.34865
5437.13,0.35034
5413.98,0.35373
5390.84,0.35438
5367.69,0.35480
5344.55,0.35079
5321.4,0.34535
5298.26,0.33216
5275.11,0.30636
5251.97,0.27769
5228.82,0.25847
5205.68,0.25160
5182.53,0.25355
5159.39,0.26167
5136.24,0.26765
5113.1,0.27578
5089.95,0.28355
5066.81,0.29124
5043.66,0.29934
5020.52,0.30296
4997.37,0.30622
4974.23,0.30379
4951.08,0.29917
4927.94,0.29080
4904.79,0.28085
4881.65,0.27420
4858.5,0.27018
4835.36,0.26240
4812.21,0.25808
4789.07,0.25581
4765.92,0.25238
4742.78,0.24836
4719.63,0.24620
4696.49,0.24342
4673.34,0.24179
4650.2,0.24944
4627.05,0.25301
4603.91,0.26071
4580.76,0.26674
4557.62,0.27030
4534.47,0.27052
4511.33,0.26812
4488.18,0.25690
4465.04,0.23373
4441.89,0.19873
4418.75,0.17446
4395.6,0.17302
4372.46,0.16956
4349.31,0.16714
4326.17,0.16643
4303.02,0.17236
4279.88,0.17184
4256.73,0.17569
4233.59,0.17922
4210.44,0.18313
4187.3,0.18389
4164.16,0.18359
4141.01,0.18052
4117.87,0.17567
4094.72,0.16937
4071.58,0.15780
4048.43,0.14997
4025.29,0.14817
4002.14,0.14808
3979,0.15388
3955.85,0.16132
3932.71,0.16853
3909.56,0.17590
3886.42,0.18184
3863.27,0.18736
3840.13,0.19450
3816.98,0.19602
3793.84,0.19586
3770.69,0.19342
3747.55,0.18851
3724.4,0.17662
3701.26,0.15379
3678.11,0.10131
3654.97,0.07294
3631.82,0.05875
3608.68,0.05255
3585.53,0.05036
3562.39,0.04896
3539.24,0.04758
3516.1,0.04725
3492.95,0.04752
3469.81,0.04746
3446.66,0.04760
3423.52,0.04714
3400.37,0.04770
3377.23,0.04751
3354.08,0.04731
3330.94,0.04850
3307.79,0.04849
3284.65,0.04808
3261.5,0.04866
3238.36,0.04943
3215.21,0.04994
3192.07,0.05085
3168.92,0.05129
3145.78,0.05226
3122.63,0.05269
3099.49,0.05294
3076.34,0.05268
3053.2,0.05340
3030.05,0.05275
3006.91,0.04908
2983.76,0.04626
2960.62,0.04724
2937.47,0.04749
2914.33,0.05057
2891.18,0.04925
2868.04,0.05051
2844.9,0.05184
2821.75,0.05498
2798.61,0.05858
2775.46,0.06151
2752.32,0.06315
2729.17,0.06503
2706.03,0.06887
2682.88,0.07279
2659.74,0.07508
2636.59,0.07785
2613.45,0.08029
2590.3,0.08234
2567.16,0.08477
2544.01,0.08631
2520.87,0.08932
2497.72,0.09257
2474.58,0.09609
2451.43,0.09948
2428.29,0.10240
2405.14,0.10616
2382,0.10860
2358.85,0.11079
2335.71,0.11306
2312.56,0.11483
2289.42,0.11681
2266.27,0.11722
2243.13,0.11605
2219.98,0.11673
2196.84,0.11513
2173.69,0.10914
2150.55,0.10385
2127.4,0.10083
2104.26,0.09911
2081.11,0.09855
2057.97,0.09878
2034.82,0.09939
2011.68,0.10098
1988.53,0.10339
1965.39,0.10267
1942.24,0.10424
1919.1,0.10684
1895.95,0.10635
1872.81,0.10371
1849.66,0.09542
1826.52,0.08138
1803.37,0.06421
1780.23,0.04519
1757.08,0.02979
1733.94,0.05118
1710.79,0.06368
1687.65,0.05655
1664.5,0.05290
1641.36,0.05070
1618.21,0.05054
1595.07,0.05064
1571.93,0.05194
1548.78,0.04907
1525.64,0.04776
1502.49,0.04630
1479.35,0.04252
1456.2,0.04258
1433.06,0.04478
1409.91,0.04356
1386.77,0.04252
1363.62,0.04358
1340.48,0.04155
1317.33,0.03951
1294.19,0.03885
1271.04,0.03981
1247.9,0.04250
1224.75,0.04386
1201.61,0.04491
1178.46,0.04830
1155.32,0.05610
1132.17,0.05608
1109.03,0.05801
1085.88,0.05975
1062.74,0.06379
1039.59,0.06726
1016.45,0.06926
993.302,0.06879
970.157,0.06900
947.013,0.06782
923.868,0.06604
900.723,0.06413
877.578,0.06578
854.433,0.06284
831.288,0.06084
808.143,0.06208
784.998,0.06188
761.853,0.06051
738.708,0.06018
715.563,0.06193
692.419,0.06669
669.274,0.06877
646.129,0.05844
622.984,0.05541
599.839,0.05688