File: 01_Data/Engineered_Flooring/FTIR/IS/Engineered_Flooring_IS_S_220909_R1.dpt
7497.02,0.36453
7473.88,0.36896
7450.73,0.37692
7427.59,0.37350
7404.44,0.37442
7381.3,0.36406
7358.15,0.36207
7335.01,0.36490
7311.86,0.36039
7288.72,0.36519
7265.57,0.36255
7242.43,0.35666
7219.28,0.36064
7196.14,0.35248
7172.99,0.35758
7149.85,0.34887
7126.7,0.33708
7103.56,0.33698
7080.41,0.32752
7057.27,0.32393
7034.12,0.31399
7010.98,0.31317
6987.83,0.30817
6964.69,0.30013
6941.54,0.30324
6918.4,0.30688
6895.25,0.30121
6872.11,0.30059
6848.96,0.30242
6825.82,0.30673
6802.67,0.30642
6779.53,0.29952
6756.38,0.30656
6733.24,0.30321
6710.1,0.31204
6686.95,0.30628
6663.81,0.31347
6640.66,0.31705
6617.52,0.31878
6594.37,0.31704
6571.23,0.32177
6548.08,0.32652
6524.94,0.32208
6501.79,0.32905
6478.65,0.32627
6455.5,0.33093
6432.36,0.33008
6409.21,0.33202
6386.07,0.33045
6362.92,0.33242
6339.78,0.33606
6316.63,0.33843
6293.49,0.33771
6270.34,0.34233
6247.2,0.34233
6224.05,0.34463
6200.91,0.34601
6177.76,0.34875
6154.62,0.34946
6131.47,0.35223
6108.33,0.35498
6085.18,0.35017
6062.04,0.34964
6038.89,0.34555
6015.75,0.34363
5992.6,0.33259
5969.46,0.32896
5946.31,0.32357
5923.17,0.32498
5900.02,0.32030
5876.88,0.32085
5853.73,0.31987
5830.59,0.31548
5807.44,0.31306
5784.3,0.31500
5761.15,0.31879
5738.01,0.32255
5714.86,0.32703
5691.72,0.32921
5668.57,0.33116
5645.43,0.33303
5622.28,0.33353
5599.14,0.33303
5575.99,0.33447
5552.85,0.33831
5529.7,0.34003
5506.56,0.34307
5483.41,0.34450
5460.27,0.34512
5437.13,0.34868
5413.98,0.35167
5390.84,0.35299
5367.69,0.35344
5344.55,0.35303
5321.4,0.34497
5298.26,0.32982
5275.11,0.30506
5251.97,0.27475
5228.82,0.25562
5205.68,0.24987
5182.53,0.25149
5159.39,0.25676
5136.24,0.26502
5113.1,0.27417
5089.95,0.28138
5066.81,0.28898
5043.66,0.29527
5020.52,0.30169
4997.37,0.30401
4974.23,0.30245
4951.08,0.29733
4927.94,0.28699
4904.79,0.27879
4881.65,0.27351
4858.5,0.26770
4835.36,0.26169
4812.21,0.25624
4789.07,0.25477
4765.92,0.25158
4742.78,0.24792
4719.63,0.24509
4696.49,0.24240
4673.34,0.24090
4650.2,0.24849
4627.05,0.25163
4603.91,0.25899
4580.76,0.26496
4557.62,0.26798
4534.47,0.27065
4511.33,0.26692
4488.18,0.25552
4465.04,0.23214
4441.89,0.19635
4418.75,0.17363
4395.6,0.17181
4372.46,0.16949
4349.31,0.16638
4326.17,0.16568
4303.02,0.17159
4279.88,0.17129
4256.73,0.17393
4233.59,0.17899
4210.44,0.18186
4187.3,0.18304
4164.16,0.18218
4141.01,0.18007
4117.87,0.17575
4094.72,0.16786
4071.58,0.15589
4048.43,0.14969
4025.29,0.14694
4002.14,0.14726
3979,0.15269
3955.85,0.16055
3932.71,0.16724
3909.56,0.17451
3886.42,0.17971
3863.27,0.18629
3840.13,0.19283
3816.98,0.19393
3793.84,0.19362
3770.69,0.19141
3747.55,0.18637
3724.4,0.17511
3701.26,0.15197
3678.11,0.09875
3654.97,0.07043
3631.82,0.05749
3608.68,0.05260
3585.53,0.04939
3562.39,0.04852
3539.24,0.04695
3516.1,0.04695
3492.95,0.04611
3469.81,0.04691
3446.66,0.04741
3423.52,0.04743
3400.37,0.04702
3377.23,0.04682
3354.08,0.04775
3330.94,0.04806
3307.79,0.04750
3284.65,0.04752
3261.5,0.04859
3238.36,0.04913
3215.21,0.04994
3192.07,0.05001
3168.92,0.05033
3145.78,0.05185
3122.63,0.05246
3099.49,0.05320
3076.34,0.05181
3053.2,0.05232
3030.05,0.05196
3006.91,0.04940
2983.76,0.04613
2960.62,0.04747
2937.47,0.04795
2914.33,0.05030
2891.18,0.04927
2868.04,0.04982
2844.9,0.05182
2821.75,0.05472
2798.61,0.05803
2775.46,0.06114
2752.32,0.06260
2729.17,0.06480
2706.03,0.06868
2682.88,0.07247
2659.74,0.07474
2636.59,0.07735
2613.45,0.08029
2590.3,0.08225
2567.16,0.08366
2544.01,0.08599
2520.87,0.08877
2497.72,0.09197
2474.58,0.09570
2451.43,0.09914
2428.29,0.10198
2405.14,0.10551
2382,0.10771
2358.85,0.10994
2335.71,0.11197
2312.56,0.11416
2289.42,0.11557
2266.27,0.11705
2243.13,0.11561
2219.98,0.11569
2196.84,0.11421
2173.69,0.10869
2150.55,0.10292
2127.4,0.09966
2104.26,0.09801
2081.11,0.09770
2057.97,0.09770
2034.82,0.09856
2011.68,0.10018
1988.53,0.10252
1965.39,0.10199
1942.24,0.10318
1919.1,0.10605
1895.95,0.10554
1872.81,0.10286
1849.66,0.09482
1826.52,0.08087
1803.37,0.06378
1780.23,0.04467
1757.08,0.02987
1733.94,0.05125
1710.79,0.06347
1687.65,0.05586
1664.5,0.05242
1641.36,0.05079
1618.21,0.05022
1595.07,0.05042
1571.93,0.05143
1548.78,0.04894
1525.64,0.04736
1502.49,0.04658
1479.35,0.04263
1456.2,0.04270
1433.06,0.04494
1409.91,0.04322
1386.77,0.04237
1363.62,0.04325
1340.48,0.04136
1317.33,0.03876
1294.19,0.03863
1271.04,0.03936
1247.9,0.04263
1224.75,0.04386
1201.61,0.04445
1178.46,0.04835
1155.32,0.05479
1132.17,0.05640
1109.03,0.05822
1085.88,0.05967
1062.74,0.06330
1039.59,0.06786
1016.45,0.06961
993.302,0.06876
970.157,0.06870
947.013,0.06711
923.868,0.06583
900.723,0.06453
877.578,0.06536
854.433,0.06287
831.288,0.05961
808.143,0.06225
784.998,0.06177
761.853,0.05999
738.708,0.06040
715.563,0.06174
692.419,0.06626
669.274,0.06749
646.129,0.05803
622.984,0.05519
599.839,0.05808