File: 01_Data/Engineered_Flooring/FTIR/IS/Engineered_Flooring_IS_S_220909_R5.dpt
7497.02,0.37535
7473.88,0.37963
7450.73,0.37860
7427.59,0.36782
7404.44,0.36790
7381.3,0.36694
7358.15,0.36794
7335.01,0.35515
7311.86,0.36738
7288.72,0.35823
7265.57,0.35785
7242.43,0.36009
7219.28,0.35712
7196.14,0.35647
7172.99,0.35041
7149.85,0.34530
7126.7,0.34046
7103.56,0.33602
7080.41,0.32894
7057.27,0.32747
7034.12,0.31727
7010.98,0.31283
6987.83,0.31278
6964.69,0.30836
6941.54,0.30472
6918.4,0.30547
6895.25,0.30152
6872.11,0.30299
6848.96,0.30721
6825.82,0.30606
6802.67,0.30792
6779.53,0.30170
6756.38,0.30889
6733.24,0.31312
6710.1,0.30527
6686.95,0.31064
6663.81,0.31346
6640.66,0.31643
6617.52,0.31991
6594.37,0.32181
6571.23,0.32375
6548.08,0.32563
6524.94,0.32601
6501.79,0.32779
6478.65,0.32779
6455.5,0.32913
6432.36,0.32951
6409.21,0.33210
6386.07,0.33536
6362.92,0.33357
6339.78,0.33725
6316.63,0.33565
6293.49,0.33619
6270.34,0.33850
6247.2,0.34233
6224.05,0.34841
6200.91,0.34668
6177.76,0.34851
6154.62,0.34859
6131.47,0.35449
6108.33,0.35334
6085.18,0.35398
6062.04,0.34984
6038.89,0.34800
6015.75,0.34135
5992.6,0.33468
5969.46,0.32821
5946.31,0.32878
5923.17,0.32485
5900.02,0.32058
5876.88,0.32087
5853.73,0.32193
5830.59,0.31780
5807.44,0.31277
5784.3,0.31500
5761.15,0.31915
5738.01,0.32350
5714.86,0.32786
5691.72,0.33107
5668.57,0.33035
5645.43,0.33187
5622.28,0.33390
5599.14,0.33699
5575.99,0.33500
5552.85,0.33851
5529.7,0.34132
5506.56,0.34293
5483.41,0.34347
5460.27,0.34774
5437.13,0.35027
5413.98,0.35262
5390.84,0.35501
5367.69,0.35193
5344.55,0.35155
5321.4,0.34614
5298.26,0.33194
5275.11,0.30568
5251.97,0.27845
5228.82,0.25846
5205.68,0.25421
5182.53,0.25583
5159.39,0.26020
5136.24,0.26706
5113.1,0.27635
5089.95,0.28381
5066.81,0.29033
5043.66,0.29676
5020.52,0.30359
4997.37,0.30621
4974.23,0.30443
4951.08,0.29880
4927.94,0.28821
4904.79,0.28007
4881.65,0.27308
4858.5,0.26855
4835.36,0.26174
4812.21,0.25826
4789.07,0.25460
4765.92,0.25220
4742.78,0.24796
4719.63,0.24594
4696.49,0.24308
4673.34,0.24118
4650.2,0.24751
4627.05,0.25253
4603.91,0.25967
4580.76,0.26587
4557.62,0.26799
4534.47,0.27080
4511.33,0.26700
4488.18,0.25607
4465.04,0.23276
4441.89,0.19741
4418.75,0.17436
4395.6,0.17296
4372.46,0.16973
4349.31,0.16618
4326.17,0.16585
4303.02,0.17177
4279.88,0.17154
4256.73,0.17474
4233.59,0.17877
4210.44,0.18293
4187.3,0.18330
4164.16,0.18324
4141.01,0.18110
4117.87,0.17534
4094.72,0.16900
4071.58,0.15676
4048.43,0.15013
4025.29,0.14744
4002.14,0.14905
3979,0.15406
3955.85,0.16109
3932.71,0.16862
3909.56,0.17573
3886.42,0.18143
3863.27,0.18747
3840.13,0.19444
3816.98,0.19602
3793.84,0.19511
3770.69,0.19317
3747.55,0.18816
3724.4,0.17774
3701.26,0.15550
3678.11,0.10327
3654.97,0.07470
3631.82,0.05943
3608.68,0.05267
3585.53,0.05048
3562.39,0.04825
3539.24,0.04722
3516.1,0.04715
3492.95,0.04647
3469.81,0.04672
3446.66,0.04718
3423.52,0.04684
3400.37,0.04757
3377.23,0.04714
3354.08,0.04740
3330.94,0.04729
3307.79,0.04767
3284.65,0.04827
3261.5,0.04858
3238.36,0.04899
3215.21,0.04945
3192.07,0.04984
3168.92,0.05052
3145.78,0.05204
3122.63,0.05277
3099.49,0.05294
3076.34,0.05261
3053.2,0.05267
3030.05,0.05273
3006.91,0.04888
2983.76,0.04608
2960.62,0.04718
2937.47,0.04791
2914.33,0.05042
2891.18,0.04909
2868.04,0.04955
2844.9,0.05203
2821.75,0.05494
2798.61,0.05856
2775.46,0.06146
2752.32,0.06278
2729.17,0.06459
2706.03,0.06872
2682.88,0.07260
2659.74,0.07502
2636.59,0.07811
2613.45,0.08019
2590.3,0.08242
2567.16,0.08411
2544.01,0.08604
2520.87,0.08895
2497.72,0.09267
2474.58,0.09599
2451.43,0.09958
2428.29,0.10223
2405.14,0.10599
2382,0.10830
2358.85,0.11084
2335.71,0.11261
2312.56,0.11456
2289.42,0.11621
2266.27,0.11732
2243.13,0.11642
2219.98,0.11642
2196.84,0.11523
2173.69,0.10943
2150.55,0.10380
2127.4,0.10106
2104.26,0.09937
2081.11,0.09874
2057.97,0.09841
2034.82,0.09950
2011.68,0.10093
1988.53,0.10336
1965.39,0.10283
1942.24,0.10453
1919.1,0.10695
1895.95,0.10651
1872.81,0.10348
1849.66,0.09532
1826.52,0.08121
1803.37,0.06401
1780.23,0.04505
1757.08,0.02975
1733.94,0.05112
1710.79,0.06349
1687.65,0.05629
1664.5,0.05309
1641.36,0.05087
1618.21,0.05066
1595.07,0.05021
1571.93,0.05191
1548.78,0.04914
1525.64,0.04735
1502.49,0.04687
1479.35,0.04231
1456.2,0.04229
1433.06,0.04475
1409.91,0.04281
1386.77,0.04234
1363.62,0.04308
1340.48,0.04109
1317.33,0.03924
1294.19,0.03871
1271.04,0.03977
1247.9,0.04284
1224.75,0.04396
1201.61,0.04498
1178.46,0.04816
1155.32,0.05520
1132.17,0.05635
1109.03,0.05761
1085.88,0.05971
1062.74,0.06361
1039.59,0.06670
1016.45,0.06922
993.302,0.06808
970.157,0.06880
947.013,0.06770
923.868,0.06560
900.723,0.06518
877.578,0.06591
854.433,0.06281
831.288,0.06048
808.143,0.06304
784.998,0.06226
761.853,0.06028
738.708,0.05995
715.563,0.06254
692.419,0.06548
669.274,0.06684
646.129,0.05839
622.984,0.05611
599.839,0.05826