File: 01_Data/Engineered_Flooring/FTIR/IS/Engineered_Flooring_IS_S_220909_R8.dpt
7497.02,0.37885
7473.88,0.36800
7450.73,0.37893
7427.59,0.37104
7404.44,0.36753
7381.3,0.37139
7358.15,0.36025
7335.01,0.36751
7311.86,0.36114
7288.72,0.36195
7265.57,0.35934
7242.43,0.35751
7219.28,0.36061
7196.14,0.35504
7172.99,0.35378
7149.85,0.34785
7126.7,0.34095
7103.56,0.33318
7080.41,0.33530
7057.27,0.32502
7034.12,0.31697
7010.98,0.31377
6987.83,0.31408
6964.69,0.30802
6941.54,0.30619
6918.4,0.30067
6895.25,0.30586
6872.11,0.30583
6848.96,0.30107
6825.82,0.30363
6802.67,0.30318
6779.53,0.30612
6756.38,0.30841
6733.24,0.30609
6710.1,0.30769
6686.95,0.31066
6663.81,0.31061
6640.66,0.31637
6617.52,0.31591
6594.37,0.31981
6571.23,0.32577
6548.08,0.32428
6524.94,0.32605
6501.79,0.32790
6478.65,0.33039
6455.5,0.33059
6432.36,0.33090
6409.21,0.33508
6386.07,0.33450
6362.92,0.33715
6339.78,0.33786
6316.63,0.33451
6293.49,0.34393
6270.34,0.34344
6247.2,0.34245
6224.05,0.34433
6200.91,0.35076
6177.76,0.35026
6154.62,0.34914
6131.47,0.35277
6108.33,0.35412
6085.18,0.35392
6062.04,0.35201
6038.89,0.34843
6015.75,0.34088
5992.6,0.33492
5969.46,0.32954
5946.31,0.32638
5923.17,0.32412
5900.02,0.32395
5876.88,0.32279
5853.73,0.32120
5830.59,0.31681
5807.44,0.31291
5784.3,0.31562
5761.15,0.32012
5738.01,0.32244
5714.86,0.32607
5691.72,0.32970
5668.57,0.33401
5645.43,0.33355
5622.28,0.33570
5599.14,0.33519
5575.99,0.33787
5552.85,0.33978
5529.7,0.34219
5506.56,0.34374
5483.41,0.34630
5460.27,0.34792
5437.13,0.34906
5413.98,0.35430
5390.84,0.35585
5367.69,0.35569
5344.55,0.35432
5321.4,0.34647
5298.26,0.33363
5275.11,0.30929
5251.97,0.28078
5228.82,0.26168
5205.68,0.25685
5182.53,0.25667
5159.39,0.26363
5136.24,0.26881
5113.1,0.27878
5089.95,0.28538
5066.81,0.29354
5043.66,0.29925
5020.52,0.30474
4997.37,0.30812
4974.23,0.30485
4951.08,0.30017
4927.94,0.28952
4904.79,0.28221
4881.65,0.27530
4858.5,0.27000
4835.36,0.26268
4812.21,0.25851
4789.07,0.25671
4765.92,0.25304
4742.78,0.24937
4719.63,0.24646
4696.49,0.24309
4673.34,0.24200
4650.2,0.24971
4627.05,0.25398
4603.91,0.26059
4580.76,0.26682
4557.62,0.26976
4534.47,0.27215
4511.33,0.26848
4488.18,0.25714
4465.04,0.23383
4441.89,0.19860
4418.75,0.17462
4395.6,0.17324
4372.46,0.16973
4349.31,0.16636
4326.17,0.16732
4303.02,0.17159
4279.88,0.17174
4256.73,0.17549
4233.59,0.17930
4210.44,0.18383
4187.3,0.18495
4164.16,0.18412
4141.01,0.18112
4117.87,0.17715
4094.72,0.16991
4071.58,0.15846
4048.43,0.15086
4025.29,0.14920
4002.14,0.14921
3979,0.15454
3955.85,0.16179
3932.71,0.16966
3909.56,0.17680
3886.42,0.18295
3863.27,0.18920
3840.13,0.19572
3816.98,0.19763
3793.84,0.19741
3770.69,0.19502
3747.55,0.19099
3724.4,0.18023
3701.26,0.15797
3678.11,0.10552
3654.97,0.07728
3631.82,0.06131
3608.68,0.05398
3585.53,0.05041
3562.39,0.04805
3539.24,0.04739
3516.1,0.04709
3492.95,0.04693
3469.81,0.04655
3446.66,0.04717
3423.52,0.04747
3400.37,0.04690
3377.23,0.04710
3354.08,0.04775
3330.94,0.04831
3307.79,0.04809
3284.65,0.04811
3261.5,0.04859
3238.36,0.04873
3215.21,0.04979
3192.07,0.05031
3168.92,0.05130
3145.78,0.05237
3122.63,0.05332
3099.49,0.05338
3076.34,0.05293
3053.2,0.05292
3030.05,0.05283
3006.91,0.04872
2983.76,0.04619
2960.62,0.04680
2937.47,0.04742
2914.33,0.05007
2891.18,0.04912
2868.04,0.04949
2844.9,0.05216
2821.75,0.05510
2798.61,0.05814
2775.46,0.06185
2752.32,0.06296
2729.17,0.06554
2706.03,0.06907
2682.88,0.07296
2659.74,0.07517
2636.59,0.07832
2613.45,0.08050
2590.3,0.08254
2567.16,0.08463
2544.01,0.08656
2520.87,0.08934
2497.72,0.09324
2474.58,0.09656
2451.43,0.09983
2428.29,0.10279
2405.14,0.10682
2382,0.10873
2358.85,0.11146
2335.71,0.11307
2312.56,0.11529
2289.42,0.11704
2266.27,0.11831
2243.13,0.11730
2219.98,0.11747
2196.84,0.11568
2173.69,0.11040
2150.55,0.10503
2127.4,0.10185
2104.26,0.10030
2081.11,0.09969
2057.97,0.09947
2034.82,0.10031
2011.68,0.10231
1988.53,0.10383
1965.39,0.10372
1942.24,0.10463
1919.1,0.10753
1895.95,0.10733
1872.81,0.10425
1849.66,0.09604
1826.52,0.08167
1803.37,0.06433
1780.23,0.04466
1757.08,0.02956
1733.94,0.05099
1710.79,0.06337
1687.65,0.05619
1664.5,0.05238
1641.36,0.05172
1618.21,0.05078
1595.07,0.05055
1571.93,0.05232
1548.78,0.04931
1525.64,0.04752
1502.49,0.04630
1479.35,0.04243
1456.2,0.04301
1433.06,0.04487
1409.91,0.04299
1386.77,0.04303
1363.62,0.04339
1340.48,0.04128
1317.33,0.03933
1294.19,0.03856
1271.04,0.03934
1247.9,0.04279
1224.75,0.04369
1201.61,0.04474
1178.46,0.04823
1155.32,0.05469
1132.17,0.05616
1109.03,0.05820
1085.88,0.05960
1062.74,0.06348
1039.59,0.06735
1016.45,0.06953
993.302,0.06863
970.157,0.06887
947.013,0.06801
923.868,0.06539
900.723,0.06496
877.578,0.06594
854.433,0.06324
831.288,0.05980
808.143,0.06294
784.998,0.06260
761.853,0.06060
738.708,0.05996
715.563,0.06116
692.419,0.06682
669.274,0.06681
646.129,0.05932
622.984,0.05770
599.839,0.06014