File: 01_Data/Engineered_Flooring/FTIR/IS/Engineered_Flooring_IS_T_220909_R7.dpt
7497.02,0.02021
7473.88,0.03005
7450.73,0.01952
7427.59,0.02472
7404.44,0.02034
7381.3,0.02280
7358.15,0.02220
7335.01,0.01803
7311.86,0.02793
7288.72,0.02987
7265.57,0.03307
7242.43,0.02956
7219.28,0.02599
7196.14,0.02808
7172.99,0.02703
7149.85,0.02171
7126.7,0.02637
7103.56,0.02195
7080.41,0.02188
7057.27,0.02381
7034.12,0.02599
7010.98,0.02392
6987.83,0.02621
6964.69,0.02128
6941.54,0.02866
6918.4,0.02118
6895.25,0.02294
6872.11,0.02280
6848.96,0.02462
6825.82,0.02344
6802.67,0.02908
6779.53,0.02523
6756.38,0.02332
6733.24,0.02039
6710.1,0.02260
6686.95,0.02400
6663.81,0.02373
6640.66,0.02401
6617.52,0.02461
6594.37,0.02418
6571.23,0.02244
6548.08,0.02228
6524.94,0.02580
6501.79,0.01752
6478.65,0.02202
6455.5,0.02568
6432.36,0.01987
6409.21,0.02475
6386.07,0.02139
6362.92,0.02092
6339.78,0.02205
6316.63,0.02172
6293.49,0.01767
6270.34,0.02183
6247.2,0.02218
6224.05,0.02086
6200.91,0.02206
6177.76,0.02347
6154.62,0.02256
6131.47,0.02178
6108.33,0.02329
6085.18,0.02134
6062.04,0.02175
6038.89,0.02063
6015.75,0.02240
5992.6,0.01755
5969.46,0.02024
5946.31,0.02296
5923.17,0.02305
5900.02,0.02291
5876.88,0.02275
5853.73,0.02529
5830.59,0.02141
5807.44,0.02075
5784.3,0.01974
5761.15,0.02144
5738.01,0.02223
5714.86,0.02074
5691.72,0.02288
5668.57,0.02118
5645.43,0.02346
5622.28,0.02302
5599.14,0.02401
5575.99,0.02258
5552.85,0.02078
5529.7,0.02150
5506.56,0.02122
5483.41,0.02209
5460.27,0.01940
5437.13,0.02201
5413.98,0.02157
5390.84,0.02084
5367.69,0.02090
5344.55,0.02284
5321.4,0.02160
5298.26,0.02284
5275.11,0.02256
5251.97,0.02248
5228.82,0.02325
5205.68,0.02246
5182.53,0.02224
5159.39,0.02124
5136.24,0.02261
5113.1,0.02331
5089.95,0.02241
5066.81,0.02084
5043.66,0.02212
5020.52,0.02259
4997.37,0.02269
4974.23,0.02381
4951.08,0.02264
4927.94,0.02316
4904.79,0.02235
4881.65,0.02200
4858.5,0.02219
4835.36,0.02235
4812.21,0.02257
4789.07,0.02300
4765.92,0.02279
4742.78,0.02311
4719.63,0.02228
4696.49,0.02248
4673.34,0.02246
4650.2,0.02327
4627.05,0.02260
4603.91,0.02309
4580.76,0.02255
4557.62,0.02251
4534.47,0.02205
4511.33,0.02275
4488.18,0.02212
4465.04,0.02260
4441.89,0.02342
4418.75,0.02283
4395.6,0.02187
4372.46,0.02238
4349.31,0.02196
4326.17,0.02254
4303.02,0.02323
4279.88,0.02250
4256.73,0.02292
4233.59,0.02288
4210.44,0.02217
4187.3,0.02170
4164.16,0.02264
4141.01,0.02300
4117.87,0.02288
4094.72,0.02318
4071.58,0.02321
4048.43,0.02282
4025.29,0.02276
4002.14,0.02264
3979,0.02346
3955.85,0.02253
3932.71,0.02333
3909.56,0.02320
3886.42,0.02314
3863.27,0.02234
3840.13,0.02277
3816.98,0.02269
3793.84,0.02317
3770.69,0.02259
3747.55,0.02317
3724.4,0.02254
3701.26,0.02214
3678.11,0.02264
3654.97,0.02233
3631.82,0.02270
3608.68,0.02202
3585.53,0.02198
3562.39,0.02159
3539.24,0.02094
3516.1,0.02087
3492.95,0.02054
3469.81,0.02090
3446.66,0.02087
3423.52,0.02086
3400.37,0.02009
3377.23,0.02029
3354.08,0.02013
3330.94,0.02041
3307.79,0.02045
3284.65,0.02034
3261.5,0.02015
3238.36,0.02114
3215.21,0.02095
3192.07,0.02129
3168.92,0.02125
3145.78,0.02095
3122.63,0.02178
3099.49,0.02119
3076.34,0.02130
3053.2,0.02108
3030.05,0.02111
3006.91,0.02087
2983.76,0.02056
2960.62,0.01976
2937.47,0.02005
2914.33,0.02035
2891.18,0.02082
2868.04,0.02031
2844.9,0.02098
2821.75,0.02138
2798.61,0.02185
2775.46,0.02166
2752.32,0.02126
2729.17,0.02114
2706.03,0.02187
2682.88,0.02108
2659.74,0.02152
2636.59,0.02145
2613.45,0.02144
2590.3,0.02172
2567.16,0.02157
2544.01,0.02138
2520.87,0.02163
2497.72,0.02138
2474.58,0.02159
2451.43,0.02158
2428.29,0.02110
2405.14,0.02178
2382,0.02118
2358.85,0.02170
2335.71,0.02136
2312.56,0.02101
2289.42,0.02147
2266.27,0.02128
2243.13,0.02129
2219.98,0.02092
2196.84,0.02111
2173.69,0.02120
2150.55,0.02144
2127.4,0.02126
2104.26,0.02125
2081.11,0.02113
2057.97,0.02082
2034.82,0.02094
2011.68,0.02108
1988.53,0.02092
1965.39,0.02119
1942.24,0.02082
1919.1,0.02105
1895.95,0.02085
1872.81,0.02059
1849.66,0.02071
1826.52,0.02047
1803.37,0.01982
1780.23,0.01919
1757.08,0.01796
1733.94,0.01949
1710.79,0.02087
1687.65,0.01921
1664.5,0.01868
1641.36,0.01872
1618.21,0.01881
1595.07,0.01903
1571.93,0.01865
1548.78,0.01849
1525.64,0.01872
1502.49,0.01879
1479.35,0.01849
1456.2,0.01860
1433.06,0.01851
1409.91,0.01839
1386.77,0.01808
1363.62,0.01833
1340.48,0.01814
1317.33,0.01722
1294.19,0.01800
1271.04,0.01931
1247.9,0.02008
1224.75,0.01954
1201.61,0.01906
1178.46,0.01793
1155.32,0.01802
1132.17,0.01861
1109.03,0.01871
1085.88,0.01868
1062.74,0.01998
1039.59,0.01928
1016.45,0.01948
993.302,0.02099
970.157,0.02062
947.013,0.01979
923.868,0.01931
900.723,0.02019
877.578,0.01892
854.433,0.01910
831.288,0.02011
808.143,0.01932
784.998,0.01893
761.853,0.01832
738.708,0.01806
715.563,0.01764
692.419,0.01779
669.274,0.01637
646.129,0.01683
622.984,0.01505
599.839,0.01510