File: 01_Data/Engineered_Flooring/FTIR/IS/Engineered_Flooring_IS_T_220909_R4.dpt
7497.02,0.01794
7473.88,0.01520
7450.73,0.02456
7427.59,0.03232
7404.44,0.03046
7381.3,0.02070
7358.15,0.02475
7335.01,0.01991
7311.86,0.02256
7288.72,0.03009
7265.57,0.02796
7242.43,0.02805
7219.28,0.02395
7196.14,0.02951
7172.99,0.01976
7149.85,0.02023
7126.7,0.02300
7103.56,0.02531
7080.41,0.02906
7057.27,0.01622
7034.12,0.02157
7010.98,0.02717
6987.83,0.02554
6964.69,0.02239
6941.54,0.02594
6918.4,0.01944
6895.25,0.02385
6872.11,0.02076
6848.96,0.02649
6825.82,0.02221
6802.67,0.02351
6779.53,0.02608
6756.38,0.02984
6733.24,0.02386
6710.1,0.02451
6686.95,0.02373
6663.81,0.02263
6640.66,0.02593
6617.52,0.02320
6594.37,0.02545
6571.23,0.02739
6548.08,0.02146
6524.94,0.02379
6501.79,0.02592
6478.65,0.02292
6455.5,0.02684
6432.36,0.02128
6409.21,0.02332
6386.07,0.02107
6362.92,0.01975
6339.78,0.01901
6316.63,0.02483
6293.49,0.02141
6270.34,0.02177
6247.2,0.02059
6224.05,0.02101
6200.91,0.02109
6177.76,0.02332
6154.62,0.02207
6131.47,0.02349
6108.33,0.02221
6085.18,0.02194
6062.04,0.02323
6038.89,0.02329
6015.75,0.02116
5992.6,0.02026
5969.46,0.02208
5946.31,0.02157
5923.17,0.02411
5900.02,0.02226
5876.88,0.02125
5853.73,0.02002
5830.59,0.02207
5807.44,0.02182
5784.3,0.02368
5761.15,0.02275
5738.01,0.02247
5714.86,0.02473
5691.72,0.02284
5668.57,0.02385
5645.43,0.02146
5622.28,0.02368
5599.14,0.02217
5575.99,0.02275
5552.85,0.02370
5529.7,0.02389
5506.56,0.02076
5483.41,0.02183
5460.27,0.02338
5437.13,0.02404
5413.98,0.02403
5390.84,0.02128
5367.69,0.02114
5344.55,0.02206
5321.4,0.02277
5298.26,0.02207
5275.11,0.02267
5251.97,0.02343
5228.82,0.02282
5205.68,0.02292
5182.53,0.02417
5159.39,0.02168
5136.24,0.02289
5113.1,0.02249
5089.95,0.02351
5066.81,0.02259
5043.66,0.02317
5020.52,0.02299
4997.37,0.02247
4974.23,0.02312
4951.08,0.02372
4927.94,0.02204
4904.79,0.02311
4881.65,0.02263
4858.5,0.02267
4835.36,0.02319
4812.21,0.02261
4789.07,0.02342
4765.92,0.02232
4742.78,0.02285
4719.63,0.02282
4696.49,0.02339
4673.34,0.02272
4650.2,0.02373
4627.05,0.02285
4603.91,0.02227
4580.76,0.02241
4557.62,0.02288
4534.47,0.02298
4511.33,0.02307
4488.18,0.02405
4465.04,0.02384
4441.89,0.02250
4418.75,0.02285
4395.6,0.02369
4372.46,0.02328
4349.31,0.02228
4326.17,0.02375
4303.02,0.02275
4279.88,0.02326
4256.73,0.02232
4233.59,0.02301
4210.44,0.02299
4187.3,0.02351
4164.16,0.02311
4141.01,0.02327
4117.87,0.02311
4094.72,0.02374
4071.58,0.02334
4048.43,0.02290
4025.29,0.02327
4002.14,0.02305
3979,0.02274
3955.85,0.02308
3932.71,0.02363
3909.56,0.02293
3886.42,0.02291
3863.27,0.02298
3840.13,0.02313
3816.98,0.02278
3793.84,0.02311
3770.69,0.02365
3747.55,0.02238
3724.4,0.02270
3701.26,0.02257
3678.11,0.02231
3654.97,0.02183
3631.82,0.02280
3608.68,0.02161
3585.53,0.02201
3562.39,0.02245
3539.24,0.02203
3516.1,0.02081
3492.95,0.02128
3469.81,0.02109
3446.66,0.02094
3423.52,0.02140
3400.37,0.02114
3377.23,0.02045
3354.08,0.02073
3330.94,0.02066
3307.79,0.02138
3284.65,0.02061
3261.5,0.02082
3238.36,0.02107
3215.21,0.02119
3192.07,0.02129
3168.92,0.02171
3145.78,0.02215
3122.63,0.02122
3099.49,0.02114
3076.34,0.02104
3053.2,0.02092
3030.05,0.02088
3006.91,0.02061
2983.76,0.02030
2960.62,0.02036
2937.47,0.02024
2914.33,0.02055
2891.18,0.02073
2868.04,0.02101
2844.9,0.02138
2821.75,0.02204
2798.61,0.02165
2775.46,0.02196
2752.32,0.02161
2729.17,0.02165
2706.03,0.02201
2682.88,0.02184
2659.74,0.02197
2636.59,0.02195
2613.45,0.02193
2590.3,0.02179
2567.16,0.02150
2544.01,0.02186
2520.87,0.02136
2497.72,0.02152
2474.58,0.02185
2451.43,0.02153
2428.29,0.02157
2405.14,0.02161
2382,0.02169
2358.85,0.02165
2335.71,0.02184
2312.56,0.02181
2289.42,0.02132
2266.27,0.02155
2243.13,0.02164
2219.98,0.02129
2196.84,0.02198
2173.69,0.02172
2150.55,0.02135
2127.4,0.02144
2104.26,0.02180
2081.11,0.02126
2057.97,0.02125
2034.82,0.02156
2011.68,0.02124
1988.53,0.02147
1965.39,0.02130
1942.24,0.02165
1919.1,0.02099
1895.95,0.02099
1872.81,0.02103
1849.66,0.02050
1826.52,0.02079
1803.37,0.02014
1780.23,0.01950
1757.08,0.01819
1733.94,0.01993
1710.79,0.02076
1687.65,0.01966
1664.5,0.01892
1641.36,0.01900
1618.21,0.01946
1595.07,0.01932
1571.93,0.01833
1548.78,0.01868
1525.64,0.01885
1502.49,0.01900
1479.35,0.01913
1456.2,0.01915
1433.06,0.01898
1409.91,0.01857
1386.77,0.01846
1363.62,0.01879
1340.48,0.01849
1317.33,0.01755
1294.19,0.01797
1271.04,0.01972
1247.9,0.02075
1224.75,0.01968
1201.61,0.01898
1178.46,0.01809
1155.32,0.01775
1132.17,0.01837
1109.03,0.01834
1085.88,0.01915
1062.74,0.02026
1039.59,0.02004
1016.45,0.01977
993.302,0.02134
970.157,0.02057
947.013,0.02091
923.868,0.01964
900.723,0.02020
877.578,0.01873
854.433,0.01987
831.288,0.01857
808.143,0.01952
784.998,0.01808
761.853,0.01913
738.708,0.01848
715.563,0.01826
692.419,0.01777
669.274,0.01835
646.129,0.01646
622.984,0.01507
599.839,0.01723