File: 01_Data/Engineered_Flooring/FTIR/IS/Engineered_Flooring_IS_S_220909_R4.dpt
7497.02,0.36891
7473.88,0.36813
7450.73,0.38711
7427.59,0.37609
7404.44,0.36709
7381.3,0.36954
7358.15,0.36536
7335.01,0.36591
7311.86,0.36457
7288.72,0.35791
7265.57,0.35855
7242.43,0.35475
7219.28,0.35567
7196.14,0.36008
7172.99,0.35067
7149.85,0.35280
7126.7,0.34218
7103.56,0.33661
7080.41,0.33611
7057.27,0.32927
7034.12,0.31905
7010.98,0.31269
6987.83,0.30481
6964.69,0.30623
6941.54,0.30789
6918.4,0.30673
6895.25,0.30309
6872.11,0.30352
6848.96,0.30430
6825.82,0.30660
6802.67,0.30055
6779.53,0.30044
6756.38,0.30706
6733.24,0.30721
6710.1,0.31039
6686.95,0.30861
6663.81,0.31274
6640.66,0.31305
6617.52,0.31726
6594.37,0.32119
6571.23,0.32207
6548.08,0.32089
6524.94,0.32520
6501.79,0.33052
6478.65,0.32779
6455.5,0.33147
6432.36,0.33322
6409.21,0.33147
6386.07,0.33565
6362.92,0.33091
6339.78,0.33723
6316.63,0.33827
6293.49,0.34064
6270.34,0.34140
6247.2,0.34397
6224.05,0.34474
6200.91,0.34910
6177.76,0.34555
6154.62,0.35223
6131.47,0.35320
6108.33,0.34910
6085.18,0.35403
6062.04,0.35372
6038.89,0.34774
6015.75,0.34090
5992.6,0.33448
5969.46,0.32768
5946.31,0.32531
5923.17,0.32406
5900.02,0.32038
5876.88,0.31883
5853.73,0.32314
5830.59,0.31917
5807.44,0.31542
5784.3,0.31380
5761.15,0.32226
5738.01,0.32435
5714.86,0.32734
5691.72,0.32963
5668.57,0.33049
5645.43,0.33259
5622.28,0.33412
5599.14,0.33662
5575.99,0.33779
5552.85,0.33914
5529.7,0.34316
5506.56,0.34375
5483.41,0.34668
5460.27,0.34714
5437.13,0.35083
5413.98,0.35346
5390.84,0.35637
5367.69,0.35538
5344.55,0.35271
5321.4,0.34530
5298.26,0.33319
5275.11,0.30761
5251.97,0.27734
5228.82,0.25925
5205.68,0.25487
5182.53,0.25439
5159.39,0.26247
5136.24,0.26896
5113.1,0.27623
5089.95,0.28583
5066.81,0.29236
5043.66,0.29832
5020.52,0.30363
4997.37,0.30661
4974.23,0.30477
4951.08,0.30025
4927.94,0.28936
4904.79,0.28189
4881.65,0.27466
4858.5,0.26896
4835.36,0.26314
4812.21,0.25779
4789.07,0.25509
4765.92,0.25270
4742.78,0.24838
4719.63,0.24755
4696.49,0.24469
4673.34,0.24310
4650.2,0.24942
4627.05,0.25283
4603.91,0.26026
4580.76,0.26689
4557.62,0.27054
4534.47,0.27233
4511.33,0.26784
4488.18,0.25725
4465.04,0.23334
4441.89,0.19706
4418.75,0.17433
4395.6,0.17335
4372.46,0.17028
4349.31,0.16627
4326.17,0.16671
4303.02,0.17188
4279.88,0.17215
4256.73,0.17482
4233.59,0.17915
4210.44,0.18277
4187.3,0.18323
4164.16,0.18348
4141.01,0.18150
4117.87,0.17595
4094.72,0.16967
4071.58,0.15768
4048.43,0.15049
4025.29,0.14875
4002.14,0.14961
3979,0.15427
3955.85,0.16111
3932.71,0.16857
3909.56,0.17595
3886.42,0.18159
3863.27,0.18767
3840.13,0.19444
3816.98,0.19639
3793.84,0.19552
3770.69,0.19391
3747.55,0.18888
3724.4,0.17754
3701.26,0.15504
3678.11,0.10235
3654.97,0.07372
3631.82,0.05955
3608.68,0.05324
3585.53,0.04982
3562.39,0.04775
3539.24,0.04778
3516.1,0.04730
3492.95,0.04721
3469.81,0.04719
3446.66,0.04693
3423.52,0.04775
3400.37,0.04685
3377.23,0.04682
3354.08,0.04761
3330.94,0.04726
3307.79,0.04787
3284.65,0.04838
3261.5,0.04860
3238.36,0.04962
3215.21,0.04996
3192.07,0.05039
3168.92,0.05100
3145.78,0.05249
3122.63,0.05298
3099.49,0.05263
3076.34,0.05270
3053.2,0.05320
3030.05,0.05258
3006.91,0.04876
2983.76,0.04618
2960.62,0.04742
2937.47,0.04840
2914.33,0.05047
2891.18,0.04988
2868.04,0.04948
2844.9,0.05230
2821.75,0.05537
2798.61,0.05843
2775.46,0.06179
2752.32,0.06321
2729.17,0.06545
2706.03,0.06902
2682.88,0.07295
2659.74,0.07491
2636.59,0.07825
2613.45,0.08097
2590.3,0.08247
2567.16,0.08475
2544.01,0.08612
2520.87,0.08955
2497.72,0.09309
2474.58,0.09628
2451.43,0.09964
2428.29,0.10278
2405.14,0.10627
2382,0.10889
2358.85,0.11079
2335.71,0.11310
2312.56,0.11469
2289.42,0.11697
2266.27,0.11776
2243.13,0.11631
2219.98,0.11659
2196.84,0.11517
2173.69,0.10984
2150.55,0.10408
2127.4,0.10105
2104.26,0.09947
2081.11,0.09937
2057.97,0.09852
2034.82,0.09952
2011.68,0.10069
1988.53,0.10321
1965.39,0.10316
1942.24,0.10424
1919.1,0.10741
1895.95,0.10697
1872.81,0.10372
1849.66,0.09563
1826.52,0.08119
1803.37,0.06385
1780.23,0.04507
1757.08,0.03007
1733.94,0.05127
1710.79,0.06356
1687.65,0.05633
1664.5,0.05305
1641.36,0.05085
1618.21,0.05060
1595.07,0.05033
1571.93,0.05187
1548.78,0.04879
1525.64,0.04731
1502.49,0.04629
1479.35,0.04297
1456.2,0.04273
1433.06,0.04485
1409.91,0.04303
1386.77,0.04309
1363.62,0.04324
1340.48,0.04160
1317.33,0.03924
1294.19,0.03883
1271.04,0.03950
1247.9,0.04249
1224.75,0.04360
1201.61,0.04527
1178.46,0.04861
1155.32,0.05539
1132.17,0.05649
1109.03,0.05900
1085.88,0.06002
1062.74,0.06369
1039.59,0.06755
1016.45,0.06940
993.302,0.06865
970.157,0.06915
947.013,0.06717
923.868,0.06604
900.723,0.06534
877.578,0.06583
854.433,0.06315
831.288,0.05958
808.143,0.06231
784.998,0.06190
761.853,0.06052
738.708,0.06111
715.563,0.06210
692.419,0.06533
669.274,0.06737
646.129,0.06050
622.984,0.05425
599.839,0.05844