File: 01_Data/Engineered_Flooring/FTIR/IS/Engineered_Flooring_IS_S_220909_R6.dpt
7497.02,0.37701
7473.88,0.37706
7450.73,0.36973
7427.59,0.37311
7404.44,0.36717
7381.3,0.36907
7358.15,0.36431
7335.01,0.36055
7311.86,0.35805
7288.72,0.35272
7265.57,0.35751
7242.43,0.35469
7219.28,0.35581
7196.14,0.35304
7172.99,0.35514
7149.85,0.35116
7126.7,0.34641
7103.56,0.34230
7080.41,0.33399
7057.27,0.32682
7034.12,0.32053
7010.98,0.30959
6987.83,0.30444
6964.69,0.30582
6941.54,0.30610
6918.4,0.31048
6895.25,0.30115
6872.11,0.30279
6848.96,0.30017
6825.82,0.30513
6802.67,0.30258
6779.53,0.30701
6756.38,0.30558
6733.24,0.30764
6710.1,0.30778
6686.95,0.31000
6663.81,0.31231
6640.66,0.31363
6617.52,0.32029
6594.37,0.31916
6571.23,0.32342
6548.08,0.32829
6524.94,0.32347
6501.79,0.32564
6478.65,0.33610
6455.5,0.33217
6432.36,0.32933
6409.21,0.33056
6386.07,0.33419
6362.92,0.33294
6339.78,0.33458
6316.63,0.33780
6293.49,0.33487
6270.34,0.33792
6247.2,0.34274
6224.05,0.34542
6200.91,0.34885
6177.76,0.34620
6154.62,0.35054
6131.47,0.35281
6108.33,0.35423
6085.18,0.35127
6062.04,0.35069
6038.89,0.34569
6015.75,0.34167
5992.6,0.33563
5969.46,0.32785
5946.31,0.32511
5923.17,0.32100
5900.02,0.31951
5876.88,0.31989
5853.73,0.31999
5830.59,0.31660
5807.44,0.31340
5784.3,0.31654
5761.15,0.31957
5738.01,0.32366
5714.86,0.32920
5691.72,0.33025
5668.57,0.32933
5645.43,0.33139
5622.28,0.33520
5599.14,0.33479
5575.99,0.33589
5552.85,0.34014
5529.7,0.34218
5506.56,0.34165
5483.41,0.34331
5460.27,0.34755
5437.13,0.34900
5413.98,0.35155
5390.84,0.35353
5367.69,0.35247
5344.55,0.35212
5321.4,0.34568
5298.26,0.33227
5275.11,0.30706
5251.97,0.27736
5228.82,0.25945
5205.68,0.25384
5182.53,0.25485
5159.39,0.26095
5136.24,0.26906
5113.1,0.27750
5089.95,0.28479
5066.81,0.29120
5043.66,0.29823
5020.52,0.30304
4997.37,0.30699
4974.23,0.30501
4951.08,0.29831
4927.94,0.28812
4904.79,0.27984
4881.65,0.27418
4858.5,0.26940
4835.36,0.26233
4812.21,0.25762
4789.07,0.25533
4765.92,0.25229
4742.78,0.24817
4719.63,0.24521
4696.49,0.24294
4673.34,0.24171
4650.2,0.24894
4627.05,0.25262
4603.91,0.25956
4580.76,0.26542
4557.62,0.26885
4534.47,0.27084
4511.33,0.26764
4488.18,0.25575
4465.04,0.23336
4441.89,0.19712
4418.75,0.17353
4395.6,0.17300
4372.46,0.16999
4349.31,0.16616
4326.17,0.16649
4303.02,0.17147
4279.88,0.17150
4256.73,0.17471
4233.59,0.17941
4210.44,0.18324
4187.3,0.18280
4164.16,0.18304
4141.01,0.18048
4117.87,0.17642
4094.72,0.16891
4071.58,0.15754
4048.43,0.15083
4025.29,0.14795
4002.14,0.14926
3979,0.15383
3955.85,0.16162
3932.71,0.16904
3909.56,0.17596
3886.42,0.18123
3863.27,0.18754
3840.13,0.19461
3816.98,0.19584
3793.84,0.19565
3770.69,0.19366
3747.55,0.18977
3724.4,0.17804
3701.26,0.15547
3678.11,0.10340
3654.97,0.07496
3631.82,0.05975
3608.68,0.05314
3585.53,0.05014
3562.39,0.04800
3539.24,0.04773
3516.1,0.04664
3492.95,0.04744
3469.81,0.04703
3446.66,0.04703
3423.52,0.04725
3400.37,0.04721
3377.23,0.04690
3354.08,0.04742
3330.94,0.04757
3307.79,0.04760
3284.65,0.04701
3261.5,0.04819
3238.36,0.04933
3215.21,0.04986
3192.07,0.04956
3168.92,0.05081
3145.78,0.05166
3122.63,0.05282
3099.49,0.05248
3076.34,0.05246
3053.2,0.05284
3030.05,0.05253
3006.91,0.04850
2983.76,0.04630
2960.62,0.04690
2937.47,0.04785
2914.33,0.05046
2891.18,0.04922
2868.04,0.05000
2844.9,0.05179
2821.75,0.05473
2798.61,0.05835
2775.46,0.06122
2752.32,0.06284
2729.17,0.06501
2706.03,0.06894
2682.88,0.07250
2659.74,0.07503
2636.59,0.07787
2613.45,0.08038
2590.3,0.08270
2567.16,0.08429
2544.01,0.08636
2520.87,0.08871
2497.72,0.09272
2474.58,0.09618
2451.43,0.09965
2428.29,0.10214
2405.14,0.10655
2382,0.10836
2358.85,0.11071
2335.71,0.11276
2312.56,0.11460
2289.42,0.11669
2266.27,0.11761
2243.13,0.11687
2219.98,0.11667
2196.84,0.11533
2173.69,0.10982
2150.55,0.10434
2127.4,0.10064
2104.26,0.09945
2081.11,0.09910
2057.97,0.09896
2034.82,0.09974
2011.68,0.10141
1988.53,0.10350
1965.39,0.10314
1942.24,0.10388
1919.1,0.10709
1895.95,0.10665
1872.81,0.10378
1849.66,0.09534
1826.52,0.08130
1803.37,0.06430
1780.23,0.04473
1757.08,0.02977
1733.94,0.05087
1710.79,0.06351
1687.65,0.05634
1664.5,0.05279
1641.36,0.05096
1618.21,0.05035
1595.07,0.05022
1571.93,0.05153
1548.78,0.04883
1525.64,0.04742
1502.49,0.04646
1479.35,0.04256
1456.2,0.04245
1433.06,0.04497
1409.91,0.04307
1386.77,0.04270
1363.62,0.04341
1340.48,0.04145
1317.33,0.03952
1294.19,0.03907
1271.04,0.03983
1247.9,0.04306
1224.75,0.04331
1201.61,0.04495
1178.46,0.04853
1155.32,0.05510
1132.17,0.05638
1109.03,0.05821
1085.88,0.05971
1062.74,0.06379
1039.59,0.06757
1016.45,0.06987
993.302,0.06850
970.157,0.06906
947.013,0.06736
923.868,0.06563
900.723,0.06506
877.578,0.06541
854.433,0.06259
831.288,0.06011
808.143,0.06245
784.998,0.06188
761.853,0.06108
738.708,0.06073
715.563,0.06236
692.419,0.06549
669.274,0.06726
646.129,0.05981
622.984,0.05773
599.839,0.05739