File: 01_Data/Engineered_Flooring/FTIR/IS/Engineered_Flooring_IS_T_220909_R3.dpt
7497.02,0.02322
7473.88,0.02667
7450.73,0.02524
7427.59,0.02573
7404.44,0.01846
7381.3,0.02576
7358.15,0.02383
7335.01,0.02781
7311.86,0.02880
7288.72,0.03291
7265.57,0.02218
7242.43,0.02946
7219.28,0.02569
7196.14,0.02551
7172.99,0.02702
7149.85,0.02787
7126.7,0.02184
7103.56,0.02216
7080.41,0.02840
7057.27,0.02351
7034.12,0.02535
7010.98,0.02715
6987.83,0.02309
6964.69,0.02948
6941.54,0.02658
6918.4,0.02775
6895.25,0.02639
6872.11,0.01954
6848.96,0.02081
6825.82,0.02961
6802.67,0.02241
6779.53,0.02171
6756.38,0.02346
6733.24,0.02712
6710.1,0.02407
6686.95,0.02394
6663.81,0.02767
6640.66,0.02481
6617.52,0.02550
6594.37,0.02216
6571.23,0.02456
6548.08,0.02272
6524.94,0.02335
6501.79,0.02315
6478.65,0.02167
6455.5,0.02175
6432.36,0.02398
6409.21,0.02065
6386.07,0.02088
6362.92,0.02236
6339.78,0.02115
6316.63,0.02195
6293.49,0.02183
6270.34,0.02461
6247.2,0.02512
6224.05,0.02233
6200.91,0.02183
6177.76,0.02179
6154.62,0.02160
6131.47,0.02189
6108.33,0.02420
6085.18,0.02194
6062.04,0.02226
6038.89,0.01923
6015.75,0.01877
5992.6,0.02368
5969.46,0.02522
5946.31,0.02056
5923.17,0.02263
5900.02,0.02250
5876.88,0.02180
5853.73,0.02308
5830.59,0.01934
5807.44,0.02241
5784.3,0.02299
5761.15,0.02343
5738.01,0.02195
5714.86,0.02322
5691.72,0.02026
5668.57,0.02244
5645.43,0.02330
5622.28,0.02522
5599.14,0.02178
5575.99,0.02132
5552.85,0.02172
5529.7,0.02251
5506.56,0.02026
5483.41,0.02307
5460.27,0.02213
5437.13,0.02138
5413.98,0.02210
5390.84,0.02271
5367.69,0.02216
5344.55,0.02365
5321.4,0.02350
5298.26,0.02340
5275.11,0.02231
5251.97,0.02238
5228.82,0.02180
5205.68,0.02129
5182.53,0.02371
5159.39,0.02231
5136.24,0.02303
5113.1,0.02283
5089.95,0.02177
5066.81,0.02278
5043.66,0.02238
5020.52,0.02238
4997.37,0.02227
4974.23,0.02198
4951.08,0.02250
4927.94,0.02065
4904.79,0.02273
4881.65,0.02259
4858.5,0.02303
4835.36,0.02257
4812.21,0.02212
4789.07,0.02256
4765.92,0.02270
4742.78,0.02226
4719.63,0.02343
4696.49,0.02302
4673.34,0.02359
4650.2,0.02255
4627.05,0.02295
4603.91,0.02241
4580.76,0.02171
4557.62,0.02292
4534.47,0.02327
4511.33,0.02289
4488.18,0.02227
4465.04,0.02272
4441.89,0.02288
4418.75,0.02261
4395.6,0.02304
4372.46,0.02248
4349.31,0.02263
4326.17,0.02344
4303.02,0.02252
4279.88,0.02259
4256.73,0.02358
4233.59,0.02353
4210.44,0.02293
4187.3,0.02241
4164.16,0.02295
4141.01,0.02321
4117.87,0.02235
4094.72,0.02268
4071.58,0.02286
4048.43,0.02209
4025.29,0.02240
4002.14,0.02302
3979,0.02230
3955.85,0.02291
3932.71,0.02283
3909.56,0.02267
3886.42,0.02294
3863.27,0.02283
3840.13,0.02301
3816.98,0.02270
3793.84,0.02285
3770.69,0.02313
3747.55,0.02308
3724.4,0.02296
3701.26,0.02274
3678.11,0.02316
3654.97,0.02225
3631.82,0.02230
3608.68,0.02256
3585.53,0.02179
3562.39,0.02098
3539.24,0.02091
3516.1,0.02099
3492.95,0.02105
3469.81,0.02047
3446.66,0.02099
3423.52,0.02010
3400.37,0.02094
3377.23,0.02022
3354.08,0.02016
3330.94,0.02099
3307.79,0.02051
3284.65,0.02020
3261.5,0.01993
3238.36,0.01973
3215.21,0.02077
3192.07,0.02085
3168.92,0.02113
3145.78,0.02127
3122.63,0.02144
3099.49,0.02060
3076.34,0.02059
3053.2,0.02050
3030.05,0.02071
3006.91,0.02072
2983.76,0.02028
2960.62,0.01939
2937.47,0.01983
2914.33,0.02096
2891.18,0.02100
2868.04,0.02080
2844.9,0.02146
2821.75,0.02168
2798.61,0.02125
2775.46,0.02166
2752.32,0.02158
2729.17,0.02140
2706.03,0.02149
2682.88,0.02145
2659.74,0.02158
2636.59,0.02196
2613.45,0.02107
2590.3,0.02141
2567.16,0.02104
2544.01,0.02107
2520.87,0.02133
2497.72,0.02130
2474.58,0.02130
2451.43,0.02166
2428.29,0.02127
2405.14,0.02182
2382,0.02131
2358.85,0.02135
2335.71,0.02145
2312.56,0.02147
2289.42,0.02138
2266.27,0.02116
2243.13,0.02121
2219.98,0.02137
2196.84,0.02093
2173.69,0.02118
2150.55,0.02105
2127.4,0.02106
2104.26,0.02092
2081.11,0.02099
2057.97,0.02096
2034.82,0.02081
2011.68,0.02080
1988.53,0.02133
1965.39,0.02052
1942.24,0.02089
1919.1,0.02032
1895.95,0.02104
1872.81,0.02086
1849.66,0.02060
1826.52,0.02009
1803.37,0.01976
1780.23,0.01899
1757.08,0.01788
1733.94,0.01988
1710.79,0.02058
1687.65,0.01938
1664.5,0.01817
1641.36,0.01875
1618.21,0.01916
1595.07,0.01896
1571.93,0.01839
1548.78,0.01855
1525.64,0.01871
1502.49,0.01861
1479.35,0.01858
1456.2,0.01901
1433.06,0.01889
1409.91,0.01848
1386.77,0.01826
1363.62,0.01844
1340.48,0.01793
1317.33,0.01726
1294.19,0.01794
1271.04,0.01965
1247.9,0.02006
1224.75,0.01946
1201.61,0.01839
1178.46,0.01807
1155.32,0.01755
1132.17,0.01821
1109.03,0.01904
1085.88,0.01742
1062.74,0.01957
1039.59,0.01968
1016.45,0.01899
993.302,0.02109
970.157,0.02033
947.013,0.02013
923.868,0.01962
900.723,0.01944
877.578,0.01827
854.433,0.01941
831.288,0.01965
808.143,0.01873
784.998,0.01877
761.853,0.01853
738.708,0.01796
715.563,0.01779
692.419,0.01863
669.274,0.01731
646.129,0.01581
622.984,0.01572
599.839,0.01434