File: 01_Data/Engineered_Flooring/FTIR/IS/Engineered_Flooring_IS_T_220909_R1.dpt
7497.02,0.03606
7473.88,0.02966
7450.73,0.03626
7427.59,0.02961
7404.44,0.02952
7381.3,0.03246
7358.15,0.02554
7335.01,0.02118
7311.86,0.02550
7288.72,0.02628
7265.57,0.02066
7242.43,0.02693
7219.28,0.02155
7196.14,0.02259
7172.99,0.02451
7149.85,0.02763
7126.7,0.02211
7103.56,0.02328
7080.41,0.02161
7057.27,0.02312
7034.12,0.02534
7010.98,0.02162
6987.83,0.02703
6964.69,0.02792
6941.54,0.01650
6918.4,0.02148
6895.25,0.02173
6872.11,0.02251
6848.96,0.02322
6825.82,0.02237
6802.67,0.02551
6779.53,0.02020
6756.38,0.02393
6733.24,0.02656
6710.1,0.02172
6686.95,0.02168
6663.81,0.02153
6640.66,0.02075
6617.52,0.02193
6594.37,0.02358
6571.23,0.01947
6548.08,0.02555
6524.94,0.02028
6501.79,0.02460
6478.65,0.02141
6455.5,0.01958
6432.36,0.02319
6409.21,0.02260
6386.07,0.02101
6362.92,0.02279
6339.78,0.02737
6316.63,0.02143
6293.49,0.02112
6270.34,0.02408
6247.2,0.02551
6224.05,0.02353
6200.91,0.02268
6177.76,0.02190
6154.62,0.02261
6131.47,0.02574
6108.33,0.01954
6085.18,0.02061
6062.04,0.02183
6038.89,0.01882
6015.75,0.02163
5992.6,0.02157
5969.46,0.02172
5946.31,0.02143
5923.17,0.02105
5900.02,0.02280
5876.88,0.01926
5853.73,0.02020
5830.59,0.02316
5807.44,0.02340
5784.3,0.02361
5761.15,0.02231
5738.01,0.02045
5714.86,0.02178
5691.72,0.02150
5668.57,0.02142
5645.43,0.02406
5622.28,0.02451
5599.14,0.02253
5575.99,0.02190
5552.85,0.02233
5529.7,0.02172
5506.56,0.02188
5483.41,0.02135
5460.27,0.02165
5437.13,0.02265
5413.98,0.02294
5390.84,0.02201
5367.69,0.02196
5344.55,0.02220
5321.4,0.02327
5298.26,0.02140
5275.11,0.02129
5251.97,0.02227
5228.82,0.02092
5205.68,0.02245
5182.53,0.02125
5159.39,0.02268
5136.24,0.02307
5113.1,0.02241
5089.95,0.02228
5066.81,0.02206
5043.66,0.02163
5020.52,0.02358
4997.37,0.02320
4974.23,0.02216
4951.08,0.02353
4927.94,0.02151
4904.79,0.02322
4881.65,0.02188
4858.5,0.02209
4835.36,0.02169
4812.21,0.02200
4789.07,0.02134
4765.92,0.02206
4742.78,0.02175
4719.63,0.02218
4696.49,0.02237
4673.34,0.02344
4650.2,0.02324
4627.05,0.02296
4603.91,0.02122
4580.76,0.02276
4557.62,0.02172
4534.47,0.02188
4511.33,0.02295
4488.18,0.02216
4465.04,0.02309
4441.89,0.02159
4418.75,0.02234
4395.6,0.02227
4372.46,0.02199
4349.31,0.02249
4326.17,0.02240
4303.02,0.02255
4279.88,0.02284
4256.73,0.02205
4233.59,0.02283
4210.44,0.02229
4187.3,0.02346
4164.16,0.02172
4141.01,0.02255
4117.87,0.02194
4094.72,0.02198
4071.58,0.02228
4048.43,0.02269
4025.29,0.02250
4002.14,0.02266
3979,0.02276
3955.85,0.02211
3932.71,0.02212
3909.56,0.02276
3886.42,0.02215
3863.27,0.02307
3840.13,0.02246
3816.98,0.02253
3793.84,0.02239
3770.69,0.02266
3747.55,0.02216
3724.4,0.02265
3701.26,0.02223
3678.11,0.02228
3654.97,0.02229
3631.82,0.02098
3608.68,0.02167
3585.53,0.02151
3562.39,0.02151
3539.24,0.02095
3516.1,0.02091
3492.95,0.02050
3469.81,0.02070
3446.66,0.02094
3423.52,0.01991
3400.37,0.02029
3377.23,0.01987
3354.08,0.02013
3330.94,0.02013
3307.79,0.02035
3284.65,0.01997
3261.5,0.02007
3238.36,0.02040
3215.21,0.02107
3192.07,0.02053
3168.92,0.02053
3145.78,0.02021
3122.63,0.02075
3099.49,0.02030
3076.34,0.02029
3053.2,0.02044
3030.05,0.02066
3006.91,0.02049
2983.76,0.01955
2960.62,0.01944
2937.47,0.01927
2914.33,0.02033
2891.18,0.02027
2868.04,0.02049
2844.9,0.02110
2821.75,0.02121
2798.61,0.02134
2775.46,0.02090
2752.32,0.02054
2729.17,0.02064
2706.03,0.02121
2682.88,0.02086
2659.74,0.02103
2636.59,0.02078
2613.45,0.02114
2590.3,0.02071
2567.16,0.02096
2544.01,0.02114
2520.87,0.02089
2497.72,0.02122
2474.58,0.02123
2451.43,0.02073
2428.29,0.02088
2405.14,0.02090
2382,0.02099
2358.85,0.02102
2335.71,0.02109
2312.56,0.02085
2289.42,0.02112
2266.27,0.02077
2243.13,0.02070
2219.98,0.02083
2196.84,0.02050
2173.69,0.02051
2150.55,0.02060
2127.4,0.02067
2104.26,0.02051
2081.11,0.02072
2057.97,0.02076
2034.82,0.02077
2011.68,0.02075
1988.53,0.02056
1965.39,0.02026
1942.24,0.02064
1919.1,0.02049
1895.95,0.02048
1872.81,0.02039
1849.66,0.02017
1826.52,0.02028
1803.37,0.01957
1780.23,0.01862
1757.08,0.01766
1733.94,0.01918
1710.79,0.02005
1687.65,0.01926
1664.5,0.01830
1641.36,0.01864
1618.21,0.01836
1595.07,0.01902
1571.93,0.01783
1548.78,0.01813
1525.64,0.01841
1502.49,0.01862
1479.35,0.01868
1456.2,0.01866
1433.06,0.01845
1409.91,0.01836
1386.77,0.01768
1363.62,0.01804
1340.48,0.01771
1317.33,0.01738
1294.19,0.01738
1271.04,0.01931
1247.9,0.02028
1224.75,0.01939
1201.61,0.01804
1178.46,0.01768
1155.32,0.01723
1132.17,0.01724
1109.03,0.01804
1085.88,0.01800
1062.74,0.01947
1039.59,0.01906
1016.45,0.01892
993.302,0.02067
970.157,0.02044
947.013,0.02041
923.868,0.01964
900.723,0.01910
877.578,0.01932
854.433,0.01923
831.288,0.01874
808.143,0.01890
784.998,0.01874
761.853,0.01775
738.708,0.01777
715.563,0.01765
692.419,0.01776
669.274,0.01717
646.129,0.01605
622.984,0.01727
599.839,0.01848