File: 01_Data/PLA_3D_Printer_Filament/MCC/PLA_3D_Printer_Filament_MCC_30K_min_220217_R2.txt
Sample ID:	C:\MCC\MCC Cal\Test\PLA_3D_Printer_Filament_MCC_30K_min_220217_R2.txt
Sample Weight (mg):	4.39
Heating Rate (C/s):	0.5
Combustor Temp (C):	900
N2 Flow Rate (cc/min):	80
O2 Flow Rate (cc/min):	20
Calibration File:	C:\MCC\MCC Cal\Coeff1 JN10440_30_210304.txt.txt
T Correction Coefficients:	0	1.024463	0
Time Shift (s):	14
*
Time (s)	Temperature (C)	N2 flow rate (cc/min)	O2 flow rate (cc/min)	Flow Rate (cc/min)	Oxygen (%)	HRR (W/g)	Heating rate (C/s)
0.000	113.945	80.006	19.994	103.707	19.867	0.036	0.029
7.500	113.893	80.005	19.997	103.702	19.868	-0.022	-0.002
15.000	113.857	80.005	19.993	103.711	19.867	0.053	-0.020
22.500	113.893	80.003	19.995	103.724	19.853	1.040	-0.014
30.000	114.123	80.005	19.994	103.811	19.844	1.709	0.062
37.500	114.575	80.001	19.995	103.908	19.835	2.372	0.119
45.000	115.569	80.004	19.993	103.990	19.817	3.728	0.191
52.500	117.234	80.005	19.993	103.992	19.816	3.775	0.255
60.001	119.327	80.004	19.992	103.992	19.814	3.935	0.310
67.500	121.751	80.005	19.994	103.987	19.812	4.051	0.354
75.000	124.540	80.003	19.992	103.986	19.808	4.370	0.384
82.500	127.537	80.006	19.995	103.989	19.815	3.858	0.394
90.000	130.726	80.006	19.993	103.991	19.808	4.345	0.426
97.500	134.178	80.002	19.994	103.995	19.807	4.480	0.475
105.000	137.682	80.005	19.994	103.991	19.808	4.368	0.475
112.500	141.354	80.007	19.994	103.991	19.805	4.609	0.510
120.001	145.183	80.002	19.995	103.995	19.810	4.223	0.501
127.500	149.016	80.004	19.993	103.984	19.811	4.190	0.531
135.000	152.937	80.005	19.995	103.972	19.812	4.090	0.510
142.500	156.805	80.007	19.995	103.975	19.814	3.943	0.502
150.000	160.644	80.004	19.991	103.956	19.812	4.052	0.513
157.500	164.469	80.005	19.991	103.953	19.816	3.765	0.498
165.000	168.301	80.007	19.993	103.942	19.817	3.726	0.489
172.500	172.048	80.002	19.994	103.947	19.816	3.801	0.496
180.000	175.772	80.004	19.994	103.946	19.815	3.870	0.477
187.500	179.479	79.995	19.993	103.927	19.819	3.543	0.497
195.000	183.130	80.003	19.995	103.932	19.820	3.453	0.461
202.500	186.788	80.005	19.998	103.912	19.820	3.519	0.498
210.000	190.446	80.004	19.992	103.922	19.823	3.265	0.500
217.500	194.114	80.002	19.995	103.918	19.820	3.461	0.498
225.000	197.756	80.003	19.995	103.927	19.822	3.313	0.492
232.500	201.393	80.010	19.997	103.935	19.819	3.553	0.494
240.000	205.040	79.999	19.995	103.930	19.823	3.252	0.499
247.500	208.773	80.002	19.996	103.913	19.821	3.427	0.505
255.000	212.514	80.014	19.995	103.912	19.818	3.670	0.501
262.500	216.253	80.014	19.990	103.913	19.820	3.478	0.499
270.000	220.000	80.017	19.986	103.890	19.822	3.362	0.515
277.500	223.768	80.008	19.991	103.919	19.824	3.188	0.485
285.000	227.566	80.004	19.991	103.906	19.821	3.449	0.499
292.500	231.385	79.991	19.995	103.912	19.827	3.005	0.477
300.000	235.146	80.010	19.993	103.904	19.823	3.246	0.538
307.500	238.859	80.015	19.993	103.897	19.823	3.277	0.476
315.000	242.561	80.008	19.996	103.925	19.822	3.333	0.487
322.500	246.329	80.009	19.994	103.892	19.823	3.241	0.529
330.000	250.090	79.999	19.994	103.882	19.822	3.331	0.515
337.500	253.849	80.013	19.993	103.871	19.819	3.552	0.491
345.001	257.566	80.002	19.995	103.898	19.823	3.268	0.496
352.500	261.226	80.008	19.991	103.879	19.824	3.199	0.442
360.000	265.023	80.001	19.993	103.889	19.822	3.367	0.515
367.500	268.698	79.999	19.993	103.899	19.818	3.633	0.521
375.000	272.434	80.003	19.993	103.891	19.819	3.536	0.480
382.500	276.196	79.999	19.994	103.878	19.816	3.765	0.489
390.000	279.968	80.011	19.995	103.887	19.812	4.104	0.500
397.500	283.735	80.016	19.992	103.904	19.815	3.852	0.514
405.000	287.471	80.012	19.992	103.909	19.807	4.440	0.529
412.500	291.250	80.008	19.995	103.890	19.801	4.860	0.496
420.000	295.060	80.014	19.993	103.897	19.802	4.840	0.518
427.500	298.839	80.003	19.996	103.897	19.791	5.638	0.533
435.000	302.615	80.004	19.994	103.912	19.781	6.345	0.485
442.500	306.415	80.007	19.995	103.908	19.765	7.578	0.526
450.000	310.232	80.005	19.994	103.916	19.734	9.841	0.494
457.500	314.064	80.004	19.994	103.909	19.710	11.648	0.499
465.000	317.848	80.000	19.994	103.923	19.682	13.723	0.490
472.500	321.729	80.007	19.995	103.942	19.647	16.287	0.516
480.000	325.539	80.001	19.995	103.939	19.592	20.366	0.520
487.500	329.365	80.006	19.995	103.977	19.520	25.654	0.515
495.000	333.217	80.005	19.993	104.031	19.426	32.653	0.535
502.500	337.033	80.010	19.993	104.080	19.286	43.053	0.541
510.000	340.876	80.005	19.995	104.134	19.120	55.381	0.518
517.500	344.618	80.004	19.995	104.206	18.921	70.211	0.527
525.000	348.393	80.004	19.995	104.325	18.662	89.529	0.483
532.500	352.112	80.014	19.992	104.433	18.330	114.355	0.488
540.000	355.792	80.004	19.994	104.556	17.959	142.074	0.488
547.500	359.460	80.006	19.994	104.704	17.565	171.533	0.481
555.000	363.094	80.008	19.994	104.815	17.171	200.998	0.521
562.500	366.686	80.013	19.991	104.880	16.845	225.312	0.496
570.000	370.372	80.007	19.994	104.853	16.668	238.046	0.457
577.500	374.181	80.010	19.990	104.783	16.710	234.639	0.516
585.000	377.990	80.007	19.993	104.716	17.040	209.519	0.543
592.500	381.964	80.005	19.994	104.448	17.646	164.142	0.544
600.000	386.018	80.003	19.993	104.029	18.573	95.540	0.557
607.500	390.186	80.003	19.996	104.015	19.285	42.953	0.554
615.000	394.294	80.006	19.996	103.892	19.576	21.517	0.568
622.500	398.341	80.006	19.991	103.833	19.681	13.742	0.520
630.000	402.287	80.004	19.994	103.802	19.720	10.841	0.505
637.500	406.204	80.007	19.995	103.811	19.737	9.603	0.536
645.000	410.015	80.005	19.994	103.836	19.742	9.261	0.499
652.500	413.775	80.006	19.994	103.845	19.747	8.893	0.504
660.000	417.449	80.008	19.993	103.836	19.747	8.867	0.510
667.500	421.147	80.010	19.993	103.830	19.749	8.752	0.487
675.000	424.837	80.007	19.994	103.832	19.747	8.840	0.484
682.500	428.530	80.006	19.994	103.832	19.746	8.928	0.492
690.000	432.258	80.005	19.994	103.835	19.743	9.145	0.487
697.500	436.099	80.006	19.994	103.839	19.737	9.616	0.535
705.000	439.859	80.006	19.995	103.833	19.735	9.727	0.507
712.500	443.660	80.006	19.995	103.830	19.727	10.348	0.511
720.000	447.454	80.007	19.994	103.862	19.724	10.539	0.526
727.500	451.237	80.006	19.994	103.823	19.717	11.089	0.484
735.000	455.135	80.007	19.993	103.818	19.712	11.440	0.488
742.500	458.943	80.008	19.993	103.813	19.705	11.939	0.519
750.000	462.781	80.010	19.994	103.829	19.702	12.206	0.521
757.500	466.654	80.008	19.993	103.822	19.697	12.534	0.531
765.000	470.535	80.006	19.994	103.823	19.691	13.002	0.492
772.500	474.435	80.007	19.994	103.812	19.695	12.684	0.496
780.000	478.276	80.007	19.993	103.826	19.705	11.976	0.486
787.500	482.200	80.006	19.994	103.819	19.719	10.926	0.515
795.000	486.024	80.005	19.994	103.823	19.743	9.181	0.489
802.500	489.917	80.006	19.994	103.820	19.768	7.321	0.521
810.000	493.810	80.007	19.994	103.804	19.786	5.992	0.536
817.500	497.729	80.007	19.994	103.828	19.797	5.158	0.545
825.000	501.545	80.007	19.993	103.834	19.814	3.941	0.477
832.500	505.379	80.008	19.993	103.832	19.817	3.680	0.484
840.000	509.219	80.007	19.993	103.833	19.813	3.999	0.481
847.500	512.926	80.005	19.994	103.819	19.826	3.041	0.469
855.000	517.149	80.007	19.993	103.804	19.823	3.285	0.960
862.500	520.445	80.004	19.994	103.830	19.826	3.018	0.561
870.000	524.514	80.005	19.994	103.830	19.824	3.214	0.524
877.500	528.252	80.007	19.994	103.805	19.826	3.077	0.468
885.000	532.070	80.007	19.994	103.827	19.828	2.881	0.505
892.500	535.917	80.006	19.995	103.820	19.825	3.088	0.489
900.000	539.719	80.006	19.995	103.821	19.829	2.836	0.493
907.500	543.502	80.007	19.993	103.825	19.828	2.864	0.482
915.000	547.303	80.007	19.993	103.826	19.829	2.854	0.530
922.500	551.157	80.005	19.994	103.813	19.825	3.149	0.492
930.000	554.924	80.006	19.995	103.798	19.821	3.381	0.484
937.500	558.781	80.006	19.995	103.817	19.826	3.030	0.498
945.000	562.652	80.007	19.994	103.816	19.826	3.030	0.525
952.500	566.459	80.004	19.994	103.826	19.828	2.900	0.522
960.000	570.348	80.005	19.994	103.800	19.824	3.184	0.529
967.500	574.243	80.007	19.995	103.806	19.827	2.970	0.558
975.000	578.094	80.006	19.994	103.814	19.825	3.148	0.510
982.500	581.907	80.006	19.995	103.831	19.828	2.883	0.511
990.000	585.693	80.007	19.995	103.806	19.828	2.879	0.496
997.500	589.491	80.009	19.993	103.820	19.826	3.067	0.512
1005.000	593.367	80.007	19.993	103.805	19.826	3.079	0.487
1012.500	597.186	80.006	19.993	103.813	19.826	3.022	0.485
1020.000	601.065	80.006	19.994	103.811	19.828	2.925	0.505
1027.501	604.908	80.007	19.993	103.803	19.824	3.191	0.501
1035.000	608.708	80.006	19.994	103.800	19.820	3.477	0.501
1042.500	612.501	80.005	19.993	103.814	19.822	3.321	0.467
1050.000	616.345	80.006	19.993	103.824	19.825	3.146	0.513
1057.500	620.194	80.008	19.993	103.795	19.826	3.051	0.488
1065.001	624.068	80.008	19.995	103.830	19.825	3.122	0.522
1072.501	627.912	80.009	19.994	103.815	19.822	3.319	0.500
1080.000	631.781	80.008	19.994	103.812	19.826	3.022	0.527
1087.500	635.660	80.005	19.994	103.812	19.823	3.247	0.536
1095.000	639.546	80.006	19.994	103.806	19.822	3.339	0.517
1102.500	643.304	80.006	19.995	103.833	19.825	3.118	0.500
1110.000	647.064	80.007	19.994	103.802	19.827	2.968	0.531
1117.500	650.801	80.004	19.995	103.830	19.827	3.002	0.463
1125.000	654.624	80.005	19.993	103.820	19.827	2.974	0.510
1132.500	658.304	80.006	19.994	103.818	19.825	3.087	0.506
1140.000	662.021	80.009	19.993	103.810	19.825	3.120	0.484
1147.500	665.660	80.006	19.994	103.786	19.826	3.061	0.473
1155.000	669.388	80.005	19.995	103.827	19.826	3.026	0.495
1162.500	673.175	80.009	19.994	103.829	19.824	3.183	0.522
1170.000	677.058	80.004	19.994	103.813	19.821	3.449	0.524
1177.501	680.912	80.005	19.994	103.755	19.825	3.132	0.513
1185.000	684.833	80.003	19.995	103.802	19.822	3.306	0.520
1192.500	688.838	80.006	19.994	103.814	19.823	3.251	0.548
1200.000	692.760	80.006	19.994	103.813	19.821	3.436	0.499
1207.500	696.750	80.004	19.994	103.816	19.826	3.047	0.552
1215.000	700.673	80.006	19.994	103.814	19.823	3.261	0.504
1222.501	704.511	80.008	19.994	103.809	19.818	3.599	0.535
1230.000	708.356	80.006	19.994	103.821	19.819	3.570	0.516
1237.500	712.098	80.007	19.993	103.815	19.821	3.388	0.507
1245.000	715.855	80.009	19.994	103.826	19.816	3.803	0.502
1252.500	719.634	80.006	19.995	103.870	19.817	3.740	0.509
1260.000	723.432	80.006	19.994	103.818	19.818	3.622	0.534
1267.500	727.181	80.008	19.994	103.805	19.820	3.493	0.543
1275.000	730.979	80.006	19.995	103.814	19.818	3.651	0.486
1282.500	734.781	80.003	19.996	103.814	19.814	3.963	0.530
1290.000	738.496	80.005	19.995	103.863	19.816	3.792	0.496
1297.500	742.298	80.007	19.995	103.802	19.816	3.784	0.511
1300.000	743.595	80.006	19.994	103.812	19.816	3.766	0.501