File: 01_Data/PLA_3D_Printer_Filament/MCC/PLA_3D_Printer_Filament_MCC_30K_min_220216_R1.txt
Sample ID:	C:\MCC\MCC Cal\Test\PLA_3D_Printer_Filament_MCC_30K_min_220216_R1.txt
Sample Weight (mg):	4.6
Heating Rate (C/s):	0.5
Combustor Temp (C):	900
N2 Flow Rate (cc/min):	80
O2 Flow Rate (cc/min):	20
Calibration File:	C:\MCC\MCC Cal\Coeff1 JN10440_30_210304.txt.txt
T Correction Coefficients:	0	1.024463	0
Time Shift (s):	14
*
Time (s)	Temperature (C)	N2 flow rate (cc/min)	O2 flow rate (cc/min)	Flow Rate (cc/min)	Oxygen (%)	HRR (W/g)	Heating rate (C/s)
-0.001	115.024	80.014	19.993	103.667	20.087	-0.450	-0.025
7.498	114.991	80.003	19.994	103.664	20.087	-0.433	-0.050
14.999	114.969	80.004	19.992	103.674	20.086	-0.350	-0.010
22.500	114.947	79.993	19.994	103.709	20.082	-0.074	-0.017
29.998	115.184	80.001	19.992	103.843	20.061	1.370	0.046
37.499	115.886	79.999	19.994	103.889	20.048	2.338	0.140
44.998	117.061	80.007	19.994	103.909	20.042	2.716	0.192
52.500	118.737	80.009	19.989	103.940	20.040	2.890	0.261
59.999	120.824	80.010	19.992	103.949	20.034	3.289	0.310
67.499	123.333	80.003	19.997	103.967	20.032	3.414	0.346
74.999	126.131	80.002	19.993	103.967	20.031	3.530	0.377
82.500	129.229	80.013	19.993	103.966	20.029	3.629	0.426
89.999	132.606	80.014	19.994	103.970	20.032	3.409	0.473
97.498	136.103	80.004	19.995	103.982	20.029	3.636	0.486
104.999	139.815	80.002	19.994	103.972	20.033	3.390	0.512
112.500	143.673	80.002	19.994	103.957	20.036	3.131	0.516
119.999	147.606	80.013	19.992	103.941	20.036	3.157	0.548
127.498	151.600	80.011	19.991	103.942	20.036	3.142	0.538
134.999	155.517	80.014	19.993	103.942	20.044	2.595	0.476
142.499	159.421	80.011	19.993	103.929	20.045	2.500	0.511
150.000	163.305	80.009	19.993	103.922	20.046	2.465	0.485
157.499	167.190	80.007	19.992	103.903	20.048	2.332	0.525
165.000	170.994	80.002	19.996	103.895	20.050	2.170	0.493
172.500	174.736	80.007	19.992	103.887	20.053	1.936	0.495
179.999	178.453	79.999	19.994	103.890	20.056	1.715	0.466
187.499	182.131	80.006	19.994	103.889	20.056	1.766	0.535
194.998	185.768	80.017	19.993	103.890	20.056	1.721	0.446
202.500	189.468	80.006	19.993	103.875	20.056	1.736	0.476
209.998	193.063	80.018	19.990	103.879	20.058	1.621	0.444
217.500	196.705	80.019	19.992	103.885	20.058	1.625	0.446
224.999	200.360	80.013	19.991	103.887	20.058	1.640	0.499
232.500	204.027	80.018	19.990	103.864	20.059	1.509	0.509
240.000	207.636	79.994	19.995	103.880	20.062	1.321	0.460
247.499	211.421	80.012	19.993	103.864	20.060	1.456	0.501
254.999	215.082	80.009	19.995	103.861	20.066	1.064	0.474
262.499	218.846	80.019	19.990	103.857	20.063	1.279	0.502
270.000	222.581	80.018	19.993	103.867	20.064	1.189	0.518
277.499	226.297	80.003	19.992	103.871	20.065	1.115	0.508
285.000	230.116	80.007	19.995	103.859	20.066	1.022	0.500
292.499	233.856	80.014	19.992	103.860	20.062	1.326	0.504
299.999	237.614	80.009	19.992	103.862	20.061	1.416	0.524
307.498	241.327	80.010	19.992	103.853	20.059	1.564	0.491
314.999	245.138	80.007	19.993	103.860	20.061	1.389	0.521
322.498	248.896	79.999	19.994	103.855	20.066	1.060	0.515
329.999	252.697	80.009	19.993	103.859	20.064	1.185	0.512
337.500	256.494	80.003	19.995	103.861	20.062	1.345	0.471
344.998	260.259	80.000	19.994	103.860	20.059	1.531	0.516
352.500	263.993	80.012	19.993	103.855	20.059	1.549	0.493
359.999	267.726	80.001	19.995	103.848	20.056	1.741	0.506
367.499	271.488	80.011	19.993	103.842	20.059	1.520	0.506
375.000	275.249	80.005	19.995	103.852	20.053	1.950	0.479
382.499	278.939	79.999	19.995	103.837	20.050	2.173	0.499
389.999	282.698	80.011	19.994	103.853	20.045	2.521	0.508
397.499	286.440	80.009	19.994	103.858	20.042	2.749	0.491
404.998	290.233	80.019	19.990	103.841	20.038	3.004	0.513
412.500	294.028	80.006	19.991	103.858	20.029	3.659	0.504
419.998	297.792	80.009	19.993	103.855	20.020	4.257	0.511
427.499	301.509	80.005	19.993	103.861	20.003	5.495	0.508
434.998	305.223	80.008	19.994	103.861	19.981	7.007	0.451
442.500	309.018	80.007	19.994	103.869	19.953	9.038	0.483
449.998	312.851	80.003	19.995	103.873	19.928	10.742	0.502
457.499	316.634	80.004	19.994	103.877	19.908	12.198	0.504
464.999	320.402	80.009	19.993	103.902	19.868	14.968	0.499
472.500	324.161	80.003	19.994	103.916	19.814	18.815	0.503
479.999	327.966	80.006	19.993	103.957	19.748	23.457	0.486
487.499	331.854	80.009	19.993	103.981	19.674	28.715	0.499
494.999	335.706	80.012	19.992	104.004	19.569	36.119	0.496
502.499	339.571	80.006	19.994	104.031	19.450	44.562	0.527
509.999	343.348	80.007	19.994	104.110	19.291	55.837	0.482
517.500	347.124	80.004	19.993	104.227	19.085	70.517	0.517
524.999	350.889	80.006	19.992	104.310	18.821	89.317	0.502
532.499	354.592	80.005	19.994	104.441	18.482	113.440	0.460
540.000	358.304	80.005	19.993	104.556	18.098	140.866	0.480
547.500	361.927	80.011	19.994	104.686	17.693	169.776	0.479
554.999	365.504	80.011	19.994	104.801	17.303	197.484	0.505
562.499	369.157	80.007	19.994	104.816	17.004	218.593	0.501
569.999	372.861	80.010	19.992	104.830	16.866	228.257	0.459
577.498	376.748	80.006	19.992	104.724	16.948	222.044	0.531
585.000	380.669	80.003	19.993	104.590	17.296	196.900	0.541
592.499	384.646	80.016	19.991	104.383	17.886	154.780	0.542
599.999	388.790	80.005	19.993	104.073	18.682	98.653	0.557
607.499	392.984	80.008	19.994	103.973	19.402	47.845	0.573
614.999	397.201	80.007	19.992	103.898	19.748	23.415	0.530
622.498	401.306	80.009	19.994	103.820	19.887	13.661	0.543
629.999	405.306	80.015	19.995	103.779	19.946	9.498	0.507
637.499	409.240	80.004	19.997	103.772	19.972	7.674	0.515
644.999	413.061	80.008	19.992	103.783	19.982	6.923	0.498
652.499	416.794	80.014	19.994	103.785	19.985	6.726	0.520
660.000	420.535	79.999	19.992	103.786	19.988	6.514	0.495
667.499	424.221	80.005	19.993	103.786	19.984	6.822	0.488
675.000	427.988	80.009	19.992	103.791	19.980	7.088	0.506
682.499	431.676	79.999	19.995	103.782	19.978	7.241	0.500
689.999	435.430	80.012	19.994	103.784	19.972	7.651	0.451
697.499	439.275	80.005	19.997	103.789	19.969	7.885	0.517
704.999	443.005	80.011	19.992	103.779	19.966	8.085	0.503
712.498	446.769	79.995	19.996	103.785	19.952	9.090	0.529
719.999	450.580	80.031	19.992	103.787	19.950	9.226	0.515
727.500	454.369	80.014	19.993	103.786	19.941	9.814	0.491
734.998	458.169	80.006	19.994	103.786	19.937	10.117	0.500
742.499	461.978	80.006	19.996	103.781	19.933	10.440	0.512
749.999	465.721	80.017	19.993	103.781	19.923	11.130	0.530
757.500	469.570	80.007	19.992	103.778	19.923	11.076	0.536
764.999	473.387	80.008	19.994	103.768	19.929	10.710	0.538
772.499	477.217	80.013	19.993	103.779	19.938	10.055	0.545
780.000	481.024	80.008	19.994	103.778	19.949	9.248	0.511
787.500	484.889	80.008	19.993	103.766	19.976	7.352	0.528
794.999	488.685	80.006	19.993	103.774	19.999	5.793	0.523
802.499	492.497	80.008	19.993	103.786	20.021	4.234	0.472
809.999	496.374	80.019	19.993	103.781	20.037	3.088	0.506
817.498	500.235	80.009	19.993	103.782	20.051	2.088	0.481
824.999	504.072	80.008	19.994	103.778	20.062	1.321	0.507
832.499	507.907	80.008	19.995	103.782	20.064	1.181	0.477
839.999	511.833	80.006	19.996	103.785	20.069	0.808	0.496
847.500	515.666	80.005	19.995	103.783	20.073	0.563	0.495
854.999	519.544	80.005	19.993	103.785	20.074	0.489	0.490
862.499	523.401	80.006	19.994	103.787	20.071	0.717	0.521
869.999	527.231	80.009	19.993	103.780	20.074	0.492	0.515
877.499	531.038	80.008	19.993	103.774	20.077	0.268	0.537
884.999	534.982	80.008	19.994	103.784	20.069	0.816	0.516
892.499	538.861	80.008	19.995	103.768	20.072	0.608	0.518
900.000	542.674	80.003	19.993	103.783	20.071	0.683	0.522
907.500	546.557	80.012	19.984	103.775	20.071	0.682	0.526
915.000	550.459	80.009	19.993	103.771	20.073	0.534	0.547
922.499	554.355	80.006	19.997	103.772	20.072	0.643	0.536
929.999	558.296	80.005	19.995	103.773	20.071	0.721	0.572
937.498	562.219	80.004	19.993	103.780	20.068	0.918	0.521
945.000	566.110	80.010	19.992	103.779	20.070	0.738	0.491
952.499	570.065	80.010	19.992	103.780	20.070	0.768	0.513
960.000	574.014	80.009	19.994	103.775	20.070	0.776	0.491
967.499	578.047	80.009	19.994	103.761	20.072	0.641	0.515
974.999	581.930	80.008	19.992	103.764	20.070	0.797	0.538
982.498	585.779	80.008	19.993	103.765	20.069	0.819	0.521
989.998	589.586	80.010	19.992	103.763	20.068	0.886	0.489
997.499	593.350	80.002	19.998	103.772	20.069	0.800	0.478
1004.998	597.162	80.007	19.992	103.775	20.072	0.639	0.498
1012.499	600.945	80.009	19.995	103.760	20.070	0.738	0.501
1019.999	604.712	80.007	19.994	103.761	20.071	0.660	0.477
1027.499	608.449	80.010	19.994	103.769	20.069	0.840	0.491
1034.999	612.326	80.007	19.993	103.777	20.070	0.791	0.488
1042.499	616.246	80.006	19.994	103.779	20.066	1.021	0.522
1049.999	620.218	80.008	19.993	103.780	20.066	1.030	0.496
1057.499	624.153	80.007	19.994	103.774	20.064	1.203	0.514
1064.999	628.090	80.012	19.994	103.746	20.070	0.779	0.510
1072.499	632.000	80.010	19.993	103.779	20.064	1.205	0.481
1080.000	636.022	80.006	19.992	103.758	20.061	1.416	0.542
1087.499	639.815	80.008	19.994	103.768	20.060	1.435	0.472
1094.999	643.786	80.005	19.994	103.770	20.064	1.160	0.506
1102.500	647.541	80.006	19.993	103.776	20.065	1.118	0.583
1110.000	651.447	80.010	19.992	103.753	20.063	1.274	0.499
1117.500	655.316	80.004	19.993	103.747	20.061	1.418	0.477
1125.000	659.056	80.012	19.993	103.768	20.061	1.372	0.497
1132.498	662.779	80.007	19.994	103.766	20.063	1.245	0.494
1139.999	666.552	80.011	19.992	103.765	20.061	1.374	0.524
1147.500	670.267	80.009	19.993	103.769	20.059	1.570	0.492
1154.999	673.946	80.009	19.994	103.758	20.061	1.416	0.515
1162.498	677.714	80.004	19.991	103.769	20.056	1.779	0.485
1169.999	681.502	80.004	19.995	103.769	20.059	1.536	0.502
1177.498	685.214	80.005	19.995	103.755	20.060	1.450	0.511
1185.000	689.073	80.007	19.993	103.764	20.056	1.734	0.538
1192.499	692.861	80.012	19.992	103.752	20.058	1.633	0.503
1199.999	696.781	80.010	19.994	103.750	20.054	1.899	0.514
1207.499	700.709	80.009	19.994	103.751	20.056	1.753	0.524
1215.000	704.575	80.015	19.993	103.751	20.056	1.764	0.526
1222.499	708.461	80.008	19.993	103.750	20.057	1.665	0.515
1230.000	712.293	80.004	19.993	103.749	20.057	1.696	0.475
1237.500	716.194	80.006	19.992	103.766	20.050	2.135	0.514
1244.999	720.018	80.009	19.994	103.754	20.055	1.813	0.484
1252.500	723.810	80.011	19.992	103.752	20.050	2.156	0.463
1260.000	727.582	80.005	19.995	103.749	20.049	2.268	0.486
1267.500	731.288	80.008	19.993	103.764	20.051	2.098	0.504
1275.000	735.070	80.009	19.993	103.755	20.049	2.205	0.516
1282.499	738.774	80.007	19.992	103.756	20.050	2.199	0.466
1289.998	742.550	80.006	19.993	103.752	20.050	2.176	0.531
1291.999	743.552	80.009	19.993	103.754	20.047	2.395	0.480