File: 01_Data/Rayon_Bamboo_Pillowcase/STA/N2/30K_min/Rayon_Bamboo_Pillowcase_STA_N2_30KData_220523_R2.csv
##Temp./Â°C,Time/min,Mass loss(subtr.2)/mg,DSC(subtr.2)/(mW/mg),Sensit./(uV/mW)
48.586,10.01,-0.03305,0.0337559,1.054
51.386,10.8505,-0.03260689,0.19832,1.05343
54.186,11.07127,-0.03391465,0.30919,1.05284
56.986,11.2395,-0.03357647,0.39954,1.05224
59.786,11.3834,-0.03530084,0.47724,1.05162
62.586,11.51265,-0.03560086,0.54561,1.05099
65.386,11.63327,-0.03532608,0.60503,1.05035
68.186,11.74772,-0.0353283,0.66402,1.04969
70.986,11.85786,-0.03742352,0.72108,1.04902
73.786,11.96458,-0.03822437,0.76976,1.04833
76.586,12.0689,-0.04033093,0.81955,1.04763
79.386,12.17078,-0.04135607,0.86881,1.04692
82.186,12.27165,-0.04295823,0.92067,1.04619
84.986,12.37092,-0.04376478,0.96712,1.04545
87.786,12.46868,-0.04678046,1.01773,1.04469
90.586,12.56507,-0.04973377,1.0659,1.04392
93.386,12.66157,-0.05241634,1.11217,1.04314
96.186,12.757,-0.05249142,1.15505,1.04234
98.986,12.85178,-0.05516262,1.19198,1.04153
101.786,12.94632,-0.05873614,1.22949,1.04071
104.586,13.04055,-0.0616951,1.2589,1.03987
107.386,13.13434,-0.06428021,1.28021,1.03902
110.186,13.22834,-0.06822512,1.2976,1.03816
112.986,13.3217,-0.07073798,1.30947,1.03728
115.786,13.41489,-0.07451443,1.31267,1.03639
118.586,13.5081,-0.07759824,1.31237,1.03548
121.386,13.6004,-0.08159234,1.30546,1.03457
124.186,13.69261,-0.08421467,1.28954,1.03364
126.986,13.78425,-0.08554148,1.27396,1.0327
129.786,13.8752,-0.08683946,1.25342,1.03174
132.586,13.9666,-0.0894608,1.23358,1.03077
135.386,14.0571,-0.09055886,1.21252,1.02979
138.186,14.14725,-0.09078237,1.19409,1.0288
140.986,14.2371,-0.0931002,1.17583,1.02779
143.786,14.32649,-0.09379057,1.16451,1.02677
146.586,14.4156,-0.09474183,1.15315,1.02574
149.386,14.5042,-0.09605987,1.14877,1.02469
152.186,14.5927,-0.09605998,1.14474,1.02364
154.986,14.68104,-0.09738898,1.14279,1.02257
157.786,14.7691,-0.09870001,1.14607,1.02148
160.586,14.85711,-0.09939298,1.14923,1.02039
163.386,14.94483,-0.10133,1.15254,1.01928
166.186,15.0323,-0.10133,1.15448,1.01817
168.986,15.11985,-0.10133,1.15499,1.01703
171.786,15.20706,-0.10232,1.15686,1.01589
174.586,15.2941,-0.10103,1.15859,1.01474
177.386,15.38084,-0.10105,1.16071,1.01357
180.186,15.46742,-0.10231,1.15901,1.01239
182.986,15.55365,-0.09962791,1.1642,1.0112
185.786,15.6399,-0.09968034,1.16908,1.01
188.586,15.72585,-0.10199,1.17236,1.00878
191.386,15.8114,-0.10199,1.17543,1.00756
194.186,15.8968,-0.10199,1.18289,1.00632
196.986,15.9824,-0.10231,1.18999,1.00507
199.786,16.06765,-0.10298,1.19811,1.00381
202.586,16.1528,-0.10428,1.20451,1.00254
205.386,16.23801,-0.10495,1.21042,1.00126
208.186,16.32316,-0.10594,1.21686,0.99997
210.986,16.408,-0.10594,1.22529,0.99866
213.786,16.49305,-0.10463,1.23183,0.99734
216.586,16.57791,-0.10594,1.23908,0.99602
219.386,16.66272,-0.10595,1.24646,0.99468
222.186,16.74738,-0.10729,1.25345,0.99333
224.986,16.83219,-0.10726,1.25767,0.99197
227.786,16.91658,-0.10858,1.26532,0.9906
230.586,17.0011,-0.1099,1.26721,0.98922
233.386,17.0853,-0.11123,1.26995,0.98782
236.186,17.16992,-0.11122,1.27319,0.98642
238.986,17.25442,-0.11122,1.27417,0.98501
241.786,17.33887,-0.11253,1.27713,0.98358
244.586,17.42312,-0.11385,1.2823,0.98215
247.386,17.50725,-0.11637,1.30046,0.9807
250.186,17.59159,-0.11786,1.29,0.97925
252.986,17.67579,-0.12039,1.28226,0.97778
255.786,17.76016,-0.12408,1.27369,0.97631
258.586,17.84436,-0.12937,1.26186,0.97482
261.386,17.92841,-0.13501,1.25581,0.97333
264.186,18.01241,-0.14351,1.26059,0.97182
266.986,18.09657,-0.15132,1.28853,0.9703
269.786,18.18079,-0.16273,1.35921,0.96878
272.586,18.2647,-0.17746,1.49931,0.96724
275.386,18.34931,-0.19536,1.70792,0.9657
278.186,18.43374,-0.22191,1.9581,0.96414
280.986,18.51839,-0.25946,2.19359,0.96258
283.786,18.60305,-0.30075,2.3581,0.96101
286.586,18.68779,-0.35054,2.43074,0.95942
289.386,18.7721,-0.40453,2.4281,0.95783
292.186,18.8571,-0.46162,2.38297,0.95623
294.986,18.9416,-0.52016,2.32857,0.95462
297.786,19.0261,-0.58241,2.27385,0.953
300.586,19.11058,-0.64945,2.22734,0.95137
303.386,19.19504,-0.71909,2.19677,0.94973
306.186,19.2794,-0.79275,2.17776,0.94808
308.986,19.36393,-0.87178,2.1701,0.94643
311.786,19.4482,-0.95413,2.17001,0.94476
314.586,19.5328,-1.03994,2.18087,0.94309
317.386,19.61729,-1.13001,2.19709,0.94141
320.186,19.70177,-1.2245,2.21732,0.93972
322.986,19.7864,-1.32403,2.23429,0.93802
325.786,19.87111,-1.42824,2.25634,0.93631
328.586,19.95579,-1.53594,2.27008,0.93459
331.386,20.04066,-1.64979,2.27334,0.93287
334.186,20.12556,-1.76854,2.26474,0.93113
336.986,20.21043,-1.88888,2.24019,0.92939
339.786,20.2951,-2.00812,2.19136,0.92764
342.586,20.38025,-2.12491,2.1177,0.92588
345.386,20.46527,-2.24184,2.00746,0.92412
348.186,20.55038,-2.35314,1.85794,0.92234
350.986,20.63532,-2.45615,1.66407,0.92056
353.786,20.72065,-2.54915,1.43471,0.91877
356.586,20.80564,-2.62552,1.19325,0.91697
359.386,20.8906,-2.686,0.97767,0.91517
362.186,20.97557,-2.73188,0.80474,0.91335
364.986,21.06096,-2.76855,0.67038,0.91153
367.786,21.1462,-2.79496,0.57257,0.90971
370.586,21.23144,-2.81571,0.50103,0.90787
373.386,21.31672,-2.83234,0.45141,0.90603
376.186,21.40258,-2.84788,0.41844,0.90418
378.986,21.4883,-2.86082,0.39217,0.90232
381.786,21.57411,-2.87138,0.3731,0.90045
384.586,21.66004,-2.88204,0.35845,0.89858
387.386,21.74609,-2.89176,0.34387,0.8967
390.186,21.83226,-2.90137,0.33113,0.89482
392.986,21.9185,-2.90982,0.32114,0.89292
395.786,22.005,-2.91726,0.30928,0.89102
398.586,22.09141,-2.92542,0.30586,0.88912
401.386,22.1781,-2.93367,0.29798,0.8872
404.186,22.26475,-2.94226,0.2929,0.88528
406.986,22.35156,-2.94817,0.28567,0.88336
409.786,22.4384,-2.95581,0.28291,0.88142
412.586,22.52523,-2.96175,0.27826,0.87948
415.386,22.61225,-2.96944,0.27511,0.87754
418.186,22.69955,-2.97628,0.27276,0.87559
420.986,22.7869,-2.9843,0.27144,0.87363
423.786,22.8744,-2.98937,0.2679,0.87166
426.586,22.9619,-2.9944,0.26669,0.86969
429.386,23.04916,-3.00118,0.26634,0.86771
432.186,23.13676,-3.00804,0.26387,0.86573
434.986,23.2246,-3.01242,0.26376,0.86374
437.786,23.3124,-3.0177,0.2627,0.86174
440.586,23.40029,-3.0241,0.26355,0.85974
443.386,23.4882,-3.03039,0.2666,0.85774
446.186,23.5763,-3.03375,0.26719,0.85572
448.986,23.66443,-3.03832,0.26841,0.8537
451.786,23.75272,-3.04351,0.27057,0.85168
454.586,23.84092,-3.04922,0.26941,0.84965
457.386,23.92932,-3.05371,0.27019,0.84762
460.186,24.01761,-3.05799,0.27377,0.84558
462.986,24.10623,-3.06415,0.27412,0.84353
465.786,24.19495,-3.06989,0.2755,0.84148
468.586,24.2836,-3.07489,0.27885,0.83942
471.386,24.37238,-3.07969,0.27949,0.83736
474.186,24.46111,-3.0841,0.27955,0.83529
476.986,24.54982,-3.08886,0.28359,0.83322
479.786,24.63881,-3.09281,0.28759,0.83115
482.586,24.72782,-3.09618,0.28863,0.82906
485.386,24.8167,-3.09814,0.28961,0.82698
488.186,24.9056,-3.10402,0.29219,0.82489
490.986,24.99456,-3.10981,0.29225,0.82279
493.786,25.08367,-3.1139,0.29619,0.82069
496.586,25.17295,-3.11797,0.29653,0.81858
499.386,25.26211,-3.12098,0.29786,0.81648
502.186,25.35108,-3.12374,0.30344,0.81436
504.986,25.44055,-3.12782,0.30642,0.81224
507.786,25.53002,-3.13168,0.30648,0.81012
510.586,25.6192,-3.13632,0.31072,0.80799
513.386,25.70889,-3.13939,0.31575,0.80586
516.186,25.7985,-3.14115,0.31909,0.80372
518.986,25.88826,-3.14324,0.32257,0.80158
521.786,25.97754,-3.14722,0.3278,0.79944
524.586,26.06767,-3.14894,0.33319,0.79729
527.386,26.15746,-3.15025,0.33491,0.79514
530.186,26.24755,-3.15311,0.33578,0.79298
532.986,26.3377,-3.15705,0.34086,0.79082
535.786,26.42778,-3.1599,0.33897,0.78866
538.586,26.518,-3.16254,0.34302,0.78649
541.386,26.6083,-3.16255,0.34518,0.78432
544.186,26.69834,-3.16458,0.34626,0.78215
546.986,26.7887,-3.1678,0.34865,0.77997
549.786,26.879,-3.17044,0.35232,0.77779
552.586,26.96932,-3.17176,0.35459,0.7756
555.386,27.05978,-3.17318,0.35426,0.77342
558.186,27.15039,-3.17465,0.35133,0.77122
560.986,27.2408,-3.178,0.34656,0.76903
563.786,27.3316,-3.18205,0.3458,0.76683
566.586,27.4222,-3.18329,0.34202,0.76463
569.386,27.513,-3.18352,0.3393,0.76243
572.186,27.6036,-3.1872,0.33787,0.76022
574.986,27.6943,-3.19084,0.33567,0.75801
577.786,27.78513,-3.19255,0.33417,0.7558
580.586,27.87598,-3.19292,0.33654,0.75358
583.386,27.96697,-3.19522,0.33677,0.75136
586.186,28.05798,-3.19787,0.34161,0.74914
588.986,28.1489,-3.19916,0.33885,0.74692
591.786,28.2401,-3.1992,0.33673,0.74469
594.586,28.3312,-3.19988,0.34077,0.74246
597.386,28.4223,-3.20188,0.34342,0.74023
600.186,28.5136,-3.20205,0.34224,0.73799
602.986,28.6048,-3.20478,0.33702,0.73576
605.786,28.6963,-3.20433,0.33808,0.73352
608.586,28.7877,-3.20469,0.34058,0.73128
611.386,28.8793,-3.20602,0.34384,0.72903
614.186,28.9707,-3.20869,0.34544,0.72679
616.986,29.06242,-3.20732,0.34862,0.72454
619.786,29.15397,-3.20986,0.35655,0.72229
622.586,29.2457,-3.21128,0.36119,0.72004
625.386,29.3375,-3.21127,0.36577,0.71779
628.186,29.4291,-3.21323,0.37226,0.71553
630.986,29.52093,-3.21457,0.37682,0.71327
633.786,29.61288,-3.21593,0.37865,0.71101
636.586,29.7049,-3.21652,0.38391,0.70875
639.386,29.79673,-3.21722,0.3851,0.70649
642.186,29.8888,-3.2172,0.38808,0.70423
644.986,29.98068,-3.21851,0.39027,0.70196
647.786,30.07268,-3.21985,0.3885,0.69969
650.586,30.1648,-3.21983,0.38967,0.69742
653.386,30.25665,-3.22115,0.38856,0.69515
656.186,30.3488,-3.22243,0.3848,0.69288
658.986,30.4409,-3.22375,0.39033,0.69061
661.786,30.53295,-3.22244,0.38835,0.68833
664.586,30.62505,-3.22487,0.39093,0.68606
667.386,30.71707,-3.22379,0.38575,0.68378
670.186,30.8093,-3.22511,0.38641,0.6815
672.986,30.9013,-3.2261,0.38023,0.67923
675.786,30.9937,-3.22643,0.38391,0.67695
678.586,31.0859,-3.22775,0.38672,0.67466
681.386,31.1782,-3.22906,0.37713,0.67238
684.186,31.2705,-3.22967,0.38096,0.6701
686.986,31.36287,-3.23038,0.37987,0.66782
689.786,31.45515,-3.2317,0.38008,0.66553
692.586,31.5476,-3.2317,0.37504,0.66325
695.386,31.6405,-3.2317,0.37621,0.66096
696.186,31.66661,-3.2317,0.37458,0.66031