File: 01_Data/Rayon_Bamboo_Pillowcase/STA/N2/30K_min/Rayon_Bamboo_Pillowcase_STA_N2_30KData_220523_R1.csv
##Temp./Â°C,Time/min,Mass loss(subtr.2)/mg,DSC(subtr.2)/(mW/mg),Sensit./(uV/mW)
48.695,10.00917,-0.00352,0.01357258,1.05398
51.495,10.84848,-0.00191969,0.1236,1.0534
54.295,11.06959,-0.002432298,0.21438,1.05282
57.095,11.238,-0.00229064,0.28984,1.05221
59.895,11.382,-0.001142783,0.35132,1.0516
62.695,11.51122,-0.002553251,0.40691,1.05097
65.495,11.63166,-0.0034735,0.45748,1.05032
68.295,11.74639,-0.00345664,0.50407,1.04966
71.095,11.85636,-0.00433228,0.54868,1.04899
73.895,11.96306,-0.005126818,0.58898,1.0483
76.695,12.0673,-0.004370138,0.6273,1.0476
79.495,12.16956,-0.00287,0.66763,1.04689
82.295,12.26984,-0.007209057,0.70558,1.04616
85.095,12.36894,-0.01032566,0.74579,1.04542
87.895,12.4666,-0.01005254,0.78297,1.04466
90.695,12.56322,-0.0101939,0.82369,1.04389
93.495,12.65955,-0.01284448,0.85718,1.04311
96.295,12.75495,-0.01385919,0.89452,1.04231
99.095,12.84958,-0.01646416,0.9297,1.0415
101.895,12.94391,-0.01696143,0.9623,1.04067
104.695,13.03807,-0.02043433,0.98725,1.03984
107.495,13.1318,-0.02184399,1.0081,1.03899
110.295,13.2258,-0.02437018,1.02241,1.03812
113.095,13.31926,-0.02569503,1.03215,1.03724
115.895,13.41239,-0.02831961,1.03942,1.03635
118.695,13.50494,-0.02954121,1.0386,1.03545
121.495,13.5978,-0.03226879,1.03181,1.03453
124.295,13.69012,-0.03491022,1.02066,1.0336
127.095,13.78169,-0.03753814,1.00659,1.03266
129.895,13.87311,-0.03886001,0.99181,1.0317
132.695,13.9639,-0.04160036,0.97378,1.03073
135.495,14.0547,-0.04241132,0.9559,1.02975
138.295,14.14476,-0.04281,0.93642,1.02876
141.095,14.23456,-0.04280429,0.92075,1.02775
143.895,14.32375,-0.04535392,0.91144,1.02673
146.695,14.41283,-0.04805914,0.90086,1.0257
149.495,14.5015,-0.04749148,0.89474,1.02465
152.295,14.59014,-0.04741919,0.89015,1.02359
155.095,14.6784,-0.04842,0.88655,1.02252
157.895,14.7664,-0.04841818,0.88706,1.02144
160.695,14.85433,-0.04656613,0.88602,1.02035
163.495,14.9419,-0.04775829,0.88552,1.01924
166.295,15.02931,-0.04776451,0.8893,1.01812
169.095,15.1169,-0.05029528,0.88932,1.01699
171.895,15.20406,-0.04990851,0.89057,1.01585
174.695,15.291,-0.04887835,0.8901,1.01469
177.495,15.3778,-0.05147946,0.89489,1.01352
180.295,15.46427,-0.05280046,0.89483,1.01235
183.095,15.55055,-0.05280247,0.89598,1.01115
185.895,15.63645,-0.05312997,0.90033,1.00995
188.695,15.7219,-0.05313,0.90381,1.00874
191.495,15.80775,-0.05313464,0.91212,1.00751
194.295,15.8933,-0.05181985,0.91392,1.00627
197.095,15.9787,-0.0504994,0.91855,1.00502
199.895,16.06356,-0.0505,0.92538,1.00376
202.695,16.14892,-0.05050227,0.93266,1.00249
205.495,16.23395,-0.05016868,0.93747,1.00121
208.295,16.31912,-0.05017066,0.94536,0.99991
211.095,16.40411,-0.05148999,0.95433,0.99861
213.895,16.48921,-0.05148995,0.95971,0.99729
216.695,16.57412,-0.05280814,0.96883,0.99596
219.495,16.6588,-0.05347032,0.97336,0.99463
222.295,16.7435,-0.05401018,0.98232,0.99328
225.095,16.8281,-0.05347,0.98615,0.99192
227.895,16.91285,-0.05488725,0.9887,0.99054
230.695,16.99729,-0.05479012,0.994,0.98916
233.495,17.0817,-0.05609811,0.99547,0.98777
236.295,17.16626,-0.05742073,1.00012,0.98637
239.095,17.2507,-0.05873991,1.00125,0.98495
241.895,17.3351,-0.05970241,1.00605,0.98353
244.695,17.41935,-0.06136933,1.00994,0.98209
247.495,17.50369,-0.06273514,1.02881,0.98065
250.295,17.58791,-0.06534062,1.02506,0.97919
253.095,17.67215,-0.06805322,1.01825,0.97773
255.895,17.75645,-0.0701824,1.01096,0.97625
258.695,17.8407,-0.07531419,1.00082,0.97476
261.495,17.9248,-0.08220738,0.99668,0.97327
264.295,18.00882,-0.0927111,1.00225,0.97176
267.095,18.09306,-0.09789198,1.03083,0.97025
269.895,18.1773,-0.11043,1.10091,0.96872
272.695,18.26162,-0.12412,1.2347,0.96718
275.495,18.34597,-0.14224,1.43125,0.96564
278.295,18.4304,-0.16894,1.67055,0.96408
281.095,18.51454,-0.20308,1.88941,0.96252
283.895,18.59979,-0.24499,2.04203,0.96095
286.695,18.68457,-0.29414,2.10344,0.95936
289.495,18.76911,-0.34512,2.10298,0.95777
292.295,18.85377,-0.40362,2.06232,0.95617
295.095,18.93862,-0.46287,2.00956,0.95456
297.895,19.02335,-0.52508,1.95863,0.95294
300.695,19.10758,-0.59042,1.90897,0.95131
303.495,19.19225,-0.65947,1.88803,0.94967
306.295,19.27673,-0.73279,1.87125,0.94802
309.095,19.36133,-0.80901,1.86437,0.94636
311.895,19.4459,-0.88863,1.86649,0.9447
314.695,19.5303,-0.9735,1.87245,0.94302
317.495,19.61514,-1.06354,1.88481,0.94134
320.295,19.69978,-1.15915,1.90537,0.93965
323.095,19.78452,-1.26015,1.92464,0.93795
325.895,19.86952,-1.36506,1.94239,0.93624
328.695,19.9543,-1.47096,1.9553,0.93452
331.495,20.03929,-1.57948,1.96238,0.9328
334.295,20.12399,-1.69551,1.9579,0.93106
337.095,20.20864,-1.81215,1.93412,0.92932
339.895,20.29406,-1.92948,1.89304,0.92757
342.695,20.3795,-2.04884,1.8242,0.92581
345.495,20.4645,-2.16532,1.72398,0.92405
348.295,20.5494,-2.27566,1.58536,0.92227
351.095,20.63464,-2.37731,1.4028,0.92049
353.895,20.71967,-2.4659,1.18279,0.9187
356.695,20.80477,-2.54075,0.95452,0.9169
359.495,20.88978,-2.60071,0.75061,0.9151
362.295,20.97516,-2.64659,0.58093,0.91328
365.095,21.06036,-2.68252,0.45708,0.91146
367.895,21.14548,-2.70888,0.36236,0.90963
370.695,21.23094,-2.72873,0.29611,0.9078
373.495,21.316,-2.74604,0.25158,0.90596
376.295,21.40209,-2.76065,0.21852,0.9041
379.095,21.4876,-2.77178,0.19357,0.90225
381.895,21.5736,-2.78386,0.17438,0.90038
384.695,21.6596,-2.79402,0.15999,0.89851
387.495,21.7457,-2.80267,0.14908,0.89663
390.295,21.83186,-2.81146,0.13908,0.89474
393.095,21.91829,-2.8197,0.13059,0.89285
395.895,22.00459,-2.82844,0.12363,0.89095
398.695,22.09096,-2.83665,0.11738,0.88904
401.495,22.1773,-2.84421,0.10853,0.88713
404.295,22.26391,-2.85269,0.10599,0.88521
407.095,22.3506,-2.85901,0.10284,0.88328
409.895,22.43743,-2.86586,0.09748808,0.88135
412.695,22.5244,-2.87232,0.09573169,0.87941
415.495,22.61136,-2.87822,0.09436807,0.87746
418.295,22.69849,-2.88434,0.0902143,0.87551
421.095,22.78555,-2.8918,0.09111828,0.87355
423.895,22.87288,-2.89988,0.09043469,0.87158
426.695,22.96024,-2.90419,0.09064293,0.86961
429.495,23.04745,-2.91007,0.09072705,0.86764
432.295,23.1353,-2.91492,0.08947803,0.86565
435.095,23.22285,-2.92071,0.09044111,0.86366
437.895,23.31053,-2.92672,0.09289465,0.86167
440.695,23.39835,-2.93333,0.09456678,0.85966
443.495,23.48614,-2.93786,0.09464981,0.85766
446.295,23.5742,-2.94204,0.09835288,0.85564
449.095,23.662,-2.94746,0.09930232,0.85363
451.895,23.75016,-2.95207,0.1039,0.8516
454.695,23.83844,-2.95794,0.10688,0.84957
457.495,23.92676,-2.96209,0.10731,0.84754
460.295,24.01489,-2.96722,0.11179,0.8455
463.095,24.1033,-2.96866,0.11292,0.84345
465.895,24.1917,-2.9747,0.11355,0.8414
468.695,24.28013,-2.97988,0.11545,0.83934
471.495,24.36882,-2.98478,0.1162,0.83728
474.295,24.45737,-2.9894,0.11777,0.83521
477.095,24.54585,-2.99412,0.11908,0.83314
479.895,24.6346,-2.99755,0.12295,0.83106
482.695,24.7236,-3.00071,0.12455,0.82898
485.495,24.81241,-3.00662,0.12416,0.8269
488.295,24.90138,-3.01137,0.12736,0.82481
491.095,24.99045,-3.01698,0.12902,0.82271
493.895,25.07956,-3.01863,0.1308,0.82061
496.695,25.1688,-3.02146,0.13099,0.8185
499.495,25.258,-3.02417,0.13152,0.81639
502.295,25.34712,-3.02876,0.13352,0.81428
505.095,25.43648,-3.03292,0.13467,0.81216
507.895,25.52603,-3.03589,0.13592,0.81004
510.695,25.6153,-3.03847,0.13912,0.80791
513.495,25.7049,-3.04175,0.13954,0.80578
516.295,25.79459,-3.04407,0.14579,0.80364
519.095,25.88445,-3.04709,0.14846,0.8015
521.895,25.97407,-3.04962,0.15163,0.79936
524.695,26.06382,-3.0524,0.15592,0.79721
527.495,26.154,-3.0552,0.16013,0.79506
530.295,26.24362,-3.0579,0.16534,0.7929
533.095,26.33405,-3.05874,0.16644,0.79074
535.895,26.42403,-3.06238,0.16928,0.78858
538.695,26.51424,-3.06486,0.17246,0.78641
541.495,26.6045,-3.06904,0.17399,0.78424
544.295,26.69472,-3.07039,0.17644,0.78206
547.095,26.78503,-3.07171,0.17896,0.77989
549.895,26.8754,-3.07426,0.17865,0.7777
552.695,26.9656,-3.07552,0.1763,0.77552
555.495,27.0562,-3.07951,0.17212,0.77333
558.295,27.1465,-3.08055,0.1664,0.77114
561.095,27.2372,-3.08197,0.16603,0.76894
563.895,27.32775,-3.08327,0.16555,0.76675
566.695,27.4185,-3.0859,0.16558,0.76455
569.495,27.50907,-3.08721,0.16614,0.76234
572.295,27.59985,-3.08988,0.16608,0.76013
575.095,27.69087,-3.09115,0.16657,0.75792
577.895,27.78189,-3.09184,0.16705,0.75571
580.695,27.87298,-3.09321,0.16965,0.75349
583.495,27.964,-3.09542,0.16816,0.75128
586.295,28.0552,-3.09677,0.17193,0.74905
589.095,28.14612,-3.09876,0.17085,0.74683
591.895,28.2374,-3.10085,0.17362,0.7446
594.695,28.32868,-3.10215,0.17597,0.74237
597.495,28.41985,-3.10349,0.17518,0.74014
600.295,28.51148,-3.10563,0.17616,0.73791
603.095,28.6028,-3.10577,0.18049,0.73567
605.895,28.69427,-3.10644,0.18218,0.73343
608.695,28.7857,-3.10775,0.18587,0.73119
611.495,28.8774,-3.10905,0.19168,0.72895
614.295,28.9687,-3.10906,0.19217,0.7267
617.095,29.0603,-3.1117,0.19649,0.72445
619.895,29.15225,-3.11167,0.19937,0.7222
622.695,29.24418,-3.11302,0.20903,0.71995
625.495,29.33595,-3.11423,0.21337,0.7177
628.295,29.42776,-3.117,0.21609,0.71544
631.095,29.51966,-3.11829,0.22031,0.71318
633.895,29.6115,-3.11953,0.21969,0.71093
636.695,29.7035,-3.11927,0.22124,0.70866
639.495,29.7955,-3.12059,0.22175,0.7064
642.295,29.88751,-3.12059,0.22219,0.70414
645.095,29.9796,-3.12191,0.22142,0.70187
647.895,30.07183,-3.12256,0.21893,0.6996
650.695,30.16395,-3.12341,0.21782,0.69733
653.495,30.256,-3.12533,0.21556,0.69506
656.295,30.3482,-3.1252,0.21303,0.69279
659.095,30.44037,-3.1266,0.21,0.69052
661.895,30.5327,-3.12784,0.20761,0.68825
664.695,30.62482,-3.12651,0.20578,0.68597
667.495,30.7169,-3.12783,0.20275,0.68369
670.295,30.8092,-3.12783,0.19706,0.68142
673.095,30.9016,-3.13069,0.19578,0.67914
675.895,30.994,-3.13078,0.19543,0.67686
678.695,31.08615,-3.12938,0.18894,0.67458
681.495,31.17819,-3.13136,0.18732,0.67229
684.295,31.27065,-3.132,0.18593,0.67001
687.095,31.36314,-3.13328,0.18381,0.66773
689.895,31.45549,-3.13237,0.18148,0.66544
692.695,31.548,-3.13424,0.17866,0.66316
695.495,31.64082,-3.13333,0.18163,0.66088
696.195,31.6638,-3.13333,0.18027,0.6603