File: 01_Data/Polyester_Microfiber_Sheet/HFM/Polyester_Microfiber_Sheet_Density_Wet_R1.csv
,Polyester_Microfiber_Sheet_WET_1
Sample Mass [g],3.8
Sample Volume [cm3],8.3
Sample Density [kg/m3],457