File: 01_Data/Polyester_Microfiber_Sheet/HFM/Polyester_Microfiber_Sheet_Density_Wet_R2.csv
,Polyester_Microfiber_Sheet_WET_2
Sample Mass [g],3.9
Sample Volume [cm3],8.5
Sample Density [kg/m3],455