File: 01_Data/PlasticC/Cone/PlasticC_Cone_HF25Scalar_220218_R2.csv
LABORATORY,FSRI
TEST IDENT,PlasticC_HF25_2
OPERATOR,Dow
MATERIAL,Plastic C
ORIENTATION,Horizontal
HEAT FLUX,25
SURF AREA,0.01
C FACTOR,0.0385692
SPEC HOLDER DIFF,299.7
SPECIMEN MASS,31.2
SCAN TIME,0.25
O2 DELAY TIME,11
CO DELAY TIME,11
CO2 DELAY TIME,8
FLOW FACTOR,1
SCAN COUNT,1634
TIME TO IGN,137
END OF TEST SCAN,1154
END OF TEST TIME,288.5
TEST STATUS,1
PRE TEST CMT,Dimensions: 99.99 x 99.60 x 2.89 mm