File: 01_Data/PlasticC/Cone/PlasticC_Cone_HF50Scalar_220218_R1.csv
LABORATORY,FSRI
TEST IDENT,PlasticC_HF50_1
OPERATOR,Dow
MATERIAL,Plastic C
ORIENTATION,Horizontal
HEAT FLUX,50
SURF AREA,0.01
C FACTOR,0.0385692
SPEC HOLDER DIFF,-89.48
SPECIMEN MASS,31.3
SCAN TIME,0.25
O2 DELAY TIME,11
CO DELAY TIME,11
CO2 DELAY TIME,8
FLOW FACTOR,1
SCAN COUNT,1111
TIME TO IGN,37.75
END OF TEST SCAN,631
END OF TEST TIME,157.75
TEST STATUS,1
PRE TEST CMT,Dimensions: 99.88 x 100.01 x 2.89 mm