File: 01_Data/PlasticC/Cone/PlasticC_Cone_HF75Scan_220218_R2.csv
Names,Time,Stack TC,Smoke TC,Exh Press,Smoke Comp,Smoke Meas,CO Meter,CO2 Meter,O2 Meter,Sample Mass,Ext Coeff,Start Test,Flame Verif
Chan Gain,,500,500,1,1,1,1,1,1,1,1,1.0,1.0
Offset,,0,0,0.132436,0,0,0,0,0,0,0,0.0,0.0
Gain,,1,1,25.011,15.4219,15.1528,1,1,1,1.00089,1.02113,1.0,1.0
Units,sec,C,C,Pa,%,%,%,%,%,g,/m,,
Baseline,,47.8736,48.5351,152.131,115.554,110.681,-0.00623021,0.0396856,21.0087,-482.752,0.386063,,
10,2.25,44.1753,44.499,154.045,115.816,111.25,-0.0061258,0.0422826,21.0066,31.4078,0.360282,0.0,0.0
20,4.75,44.5321,44.8706,156.969,115.829,110.439,-0.00624294,0.0417863,21.0068,31.3978,0.426847,0.0,0.0
30,7.25,44.401,44.5717,150.893,115.822,110.471,-0.0061796,0.0415872,21.0068,31.3978,0.423677,0.0,0.0
40,9.75,44.7386,45.2788,153.203,115.845,109.409,-0.00614486,0.0411352,21.0068,31.3478,0.511963,0.0,0.0
50,12.25,45.0166,45.4336,155.248,115.826,110.839,-0.00614228,0.0409106,21.0086,31.3778,0.39417,0.0,0.0
60,14.75,44.232,45.2176,149.556,115.861,108.781,-0.00584907,0.0429989,21.004,31.3778,0.5648,0.0,0.0
70,17.25,44.6126,45.2849,143.542,115.824,105.455,-0.00386734,0.0602807,20.9532,31.2377,0.840087,0.0,1.0
80,19.75,45.5876,46.5826,134.646,115.831,58.6086,0.00235995,0.143236,20.791,31.0675,6.10213,0.0,1.0
90,22.25,46.8541,48.1676,120.402,115.823,51.6971,0.0119792,0.337977,20.4285,30.7172,7.22549,0.0,0.0
100,24.75,50.5359,52.5352,116.311,115.829,44.7903,0.021567,0.581376,20.0494,30.3869,8.51049,0.0,0.0
110,27.25,54.7454,57.8532,121.104,115.84,35.3128,0.0308644,0.789792,19.7588,29.9465,10.6409,0.0,0.0
120,29.75,59.5332,63.6806,113.71,115.828,35.0358,0.0404977,0.968609,19.4784,29.406,10.7105,0.0,0.0
130,32.25,64.1483,69.7454,100.035,115.849,32.9457,0.0493295,1.13713,19.2323,28.8355,11.2631,0.0,0.0
140,34.75,69.7681,76.0885,113.578,115.832,32.0217,0.0576638,1.28964,19.0446,28.235,11.5166,0.0,0.0
150,37.25,75.044,83.1482,106.479,115.842,31.378,0.0648133,1.42795,18.8402,27.5944,11.6992,0.0,0.0
160,39.75,80.9883,90.5142,107.488,115.837,28.1947,0.0713679,1.55737,18.6514,27.0139,12.657,0.0,0.0
170,42.25,85.7384,96.9966,101.579,115.825,23.1884,0.0785198,1.68241,18.4758,26.3533,14.4071,0.0,0.0
180,44.75,91.5682,104.198,98.8062,115.848,22.1938,0.0858332,1.79197,18.2799,25.6928,14.8015,0.0,0.0
190,47.25,96.6215,110.533,98.6467,115.854,23.8294,0.0922969,1.91782,18.1024,24.7719,14.1651,0.0,0.0
200,49.75,102.706,118.393,104.599,115.853,19.619,0.100021,2.03677,17.9546,24.1314,15.9065,0.0,0.0
210,52.25,107.738,124.825,97.8063,115.853,19.2943,0.110186,2.12258,17.805,23.2506,16.0559,0.0,0.0
220,54.75,112.583,131.391,90.2301,115.848,20.1133,0.121661,2.25317,17.6022,22.4098,15.6832,0.0,0.0
230,57.25,117.973,138.533,97.3621,115.842,14.3232,0.131795,2.3966,17.417,21.5891,18.7237,0.0,0.0
240,59.75,123.888,145.981,92.755,115.858,17.5857,0.142483,2.55872,17.1994,20.6983,16.8869,0.0,0.0
250,62.25,130.113,154.292,90.5789,115.843,16.277,0.154181,2.73697,16.9478,19.7375,17.5784,0.0,0.0
260,64.75,135.712,162.477,92.2932,115.849,16.0629,0.166191,2.90145,16.6827,18.7666,17.6975,0.0,0.0
270,67.25,141.426,170.65,83.0622,115.836,15.5339,0.179401,3.07448,16.4338,17.6456,17.9964,0.0,0.0
280,69.75,148.035,179.783,94.9044,115.859,13.859,0.193734,3.21038,16.256,16.6547,19.0202,0.0,0.0
290,72.25,153.772,187.506,84.1498,115.842,13.2615,0.207354,3.33605,16.0424,15.6639,19.4136,0.0,0.0
300,74.75,159.24,195.658,80.0518,115.863,15.6402,0.217543,3.57126,15.7059,14.5529,17.9374,0.0,0.0
310,77.25,165.871,205.029,74.1753,115.853,11.4469,0.230192,3.73771,15.4846,13.4519,20.7324,0.0,0.0
320,79.75,172.05,213.745,72.2679,115.86,14.1082,0.242709,3.95233,15.2342,12.1307,18.8606,0.0,0.0
330,82.25,177.856,222.547,85.2612,115.848,11.2689,0.253759,4.01719,15.1582,11.1899,20.8724,0.0,0.0
340,84.75,182.982,229.92,67.1387,115.856,20.9669,0.260825,4.0466,15.0861,9.98885,15.3115,0.0,0.0
350,87.25,188.637,238.33,84.7185,115.851,12.221,0.264781,4.13947,14.9909,8.78778,20.1461,0.0,0.0
360,89.75,193.497,245.554,68.4767,115.848,16.1253,0.263651,4.1684,14.9685,7.74686,17.6627,0.0,0.0
370,92.25,197.848,251.958,87.0945,115.869,12.4458,0.254257,4.12002,15.0481,6.5458,19.9843,0.0,0.0
380,94.75,201.224,256.699,73.4113,115.835,15.3961,0.24114,3.97326,15.2878,5.59496,18.0762,0.0,0.0
390,97.25,203.683,259.905,90.743,115.848,14.1873,0.220051,3.76293,15.6213,4.52401,18.8096,0.0,0.0
400,99.75,205.145,260.72,89.4683,115.83,16.1447,0.191666,3.41675,16.1422,3.63322,17.6505,0.0,0.0
410,102.25,205.28,260.137,105.641,115.841,19.1727,0.158634,3.00763,16.6824,2.97263,16.1117,0.0,0.0
420,104.75,202.85,256.364,105.404,115.822,27.2333,0.121938,2.5446,17.2871,2.30204,12.9666,0.0,0.0
430,107.25,199.829,251.285,112.539,115.824,37.7933,0.0920428,2.05614,18.0841,1.90168,10.0316,0.0,0.0
440,109.75,194.9,243.956,123.094,115.811,42.2257,0.0647622,1.61617,18.8402,1.60142,9.03726,0.0,0.0
450,112.25,188.994,235.432,130.84,115.81,70.9179,0.0414173,1.17162,19.4437,1.38122,4.3929,0.0,0.0
460,114.75,181.742,225.65,137.094,115.795,100.227,0.0241264,0.779599,20.0686,1.38122,1.2933,0.0,0.0
470,117.25,174.034,215.066,141.478,115.791,107.177,0.015067,0.476732,20.4661,1.3512,0.692448,0.0,0.0
480,119.75,166.695,205.302,140.818,115.765,106.967,0.0106879,0.300907,20.6991,1.40124,0.707972,0.0,0.0
490,122.25,159.507,195.969,145.69,115.755,106.697,0.00864027,0.203152,20.8247,1.36121,0.729812,0.0,0.0
500,124.75,154.038,187.488,141.049,115.719,107.053,0.00729468,0.149928,20.8918,1.30115,0.697202,0.0,0.0
510,127.25,148.03,180.324,142.498,115.698,107.289,0.00592114,0.117905,20.9232,1.28113,0.67589,0.0,0.0
520,129.75,142.972,172.979,143.724,115.644,106.818,0.00458184,0.0984932,20.9457,1.27113,0.711084,0.0,0.0
530,132.25,138.301,166.327,144.332,115.622,106.218,0.00333234,0.0839326,20.9615,1.29114,0.759848,0.0,0.0
540,134.75,133.261,160.236,145.065,115.565,107.73,0.00234565,0.0739013,20.9716,1.26112,0.628815,0.0,0.0
550,137.25,128.949,153.869,142.295,115.515,106.331,0.00136249,0.0666594,20.9813,1.27113,0.742054,0.0,0.0
560,139.75,125.517,148.92,144.378,115.467,106.931,0.000427177,0.0611602,20.9871,1.29114,0.687949,0.0,0.0
570,142.25,122.023,143.331,144.781,115.386,107.833,-0.000586992,0.0568372,20.9915,1.29114,0.606374,0.0,0.0
580,144.75,117.903,138.609,144.929,115.314,106.37,-0.00158137,0.0535538,20.995,1.32117,0.723148,0.0,0.0
590,147.25,114.833,134.326,148.074,115.228,107.688,-0.00253944,0.0507249,21,0.0600532,0.606196,0.0,0.0
600,149.75,111.339,129.145,146.751,115.223,106.553,-0.00312413,0.0485436,21.0011,1.18105,0.700723,0.0,0.0
610,152.25,108.037,125.14,147.68,115.178,106.984,-0.00354766,0.0471615,21.0007,1.16103,0.661014,0.0,0.0
620,154.75,104.307,120.888,146.073,115.169,106.588,-0.00416774,0.0459321,21.0013,0.920816,0.693522,0.0,0.0
630,157.25,101.511,117.039,143.694,115.118,107.389,-0.00474883,0.0449737,21.0037,0.800709,0.622551,0.0,0.0
640,159.75,99.6565,114.111,145.704,115.134,107.323,-0.00519806,0.0440363,21.0045,1.0209,0.629312,0.0,0.0
650,162.25,97.4016,110.803,143.992,115.116,106.475,-0.00551069,0.0433593,21.0062,1.09097,0.698911,0.0,0.0
660,164.75,95.4835,107.79,149.404,115.145,107.021,-0.00562267,0.0428056,21.0069,0.720638,0.655391,0.0,0.0
670,167.25,93.0531,104.812,146.684,115.132,106.658,-0.00556778,0.0423758,21.0072,0.960851,0.6848,0.0,0.0
680,169.75,91.4108,102.318,145.817,115.142,107.341,-0.00552595,0.0420435,21.0079,1.09097,0.628392,0.0,0.0
690,172.25,89.264,99.5438,145.326,115.124,107.164,-0.00550231,0.0418283,21.0089,0.840745,0.641717,0.0,0.0
700,174.75,87.7732,97.2473,146.003,115.118,106.591,-0.00553835,0.0415267,21.0089,0.340301,0.689372,0.0,0.0
710,177.25,85.8504,94.9715,143.756,115.117,106.903,-0.00556223,0.0414118,21.0089,0.660585,0.663145,0.0,0.0
720,179.75,84.1799,92.6437,148.419,115.094,109.05,-0.00562518,0.0411185,21.0089,0.710629,0.483159,0.0,0.0
730,182.25,82.3731,90.325,144.551,115.086,106.437,-0.00579945,0.0410567,21.0089,1.131,0.699831,0.0,0.0
740,184.75,80.9613,87.7506,145.075,115.125,106.521,-0.00593227,0.0409403,21.0089,1.131,0.69579,0.0,0.0
750,187.25,79.9353,86.9978,147.132,115.165,107.339,-0.00609855,0.0408953,21.0089,0.70062,0.63038,0.0,0.0
760,189.75,78.993,85.0187,148.139,115.217,107.228,-0.00621875,0.0407591,21.0089,0.770683,0.643708,0.0,0.0
770,192.25,77.5282,83.1574,143.145,115.241,107.096,-0.00630799,0.0407926,21.0089,1.19105,0.656589,0.0,0.0
780,194.75,76.2499,81.8562,147.625,115.299,107.202,-0.00631661,0.0406881,21.0089,0.780691,0.652161,0.0,0.0
790,197.25,74.5037,79.7013,152.723,115.374,108.328,-0.00634277,0.0406771,21.0075,0.570505,0.564379,0.0,0.0
800,199.75,74.0631,78.4992,147.201,115.403,108.619,-0.00634219,0.0408427,21.0075,1.10098,0.542701,0.0,0.0
810,202.25,72.3876,77.2927,140.251,115.456,107.937,-0.00631047,0.0409573,21.0081,1.30115,0.603178,0.0,0.0
820,204.75,71.0229,75.5555,145.954,115.499,106.652,-0.00639332,0.0411161,21.0083,0.850753,0.713783,0.0,0.0
830,207.25,70.8771,75.1107,146.799,115.536,108.907,-0.00654835,0.0414592,21.0083,1.16103,0.529271,0.0,0.0
840,209.75,70.3192,74.0249,147.189,115.59,107.757,-0.00667888,0.0420424,21.0074,0.680603,0.628593,0.0,0.0
850,212.25,69.0915,72.7052,149.236,115.652,108.044,-0.00652652,0.0424829,21.0071,0.400355,0.609492,0.0,0.0
860,214.75,68.526,71.6442,154.827,115.686,109.193,-0.00632343,0.0423838,21.0082,0.730647,0.517392,0.0,0.0
870,217.25,67.3529,70.1576,147.245,115.699,107.899,-0.0062773,0.0418767,21.0088,1.0109,0.625145,0.0,0.0
880,219.75,66.875,69.7739,147.914,115.741,108.719,-0.00641559,0.0414647,21.0083,0.860762,0.560619,0.0,0.0
890,222.25,66.0932,68.6668,147.37,115.748,107.365,-0.00644066,0.0411439,21.0081,0.270239,0.67342,0.0,0.0
900,224.75,65.6949,67.5366,146.901,115.775,107.842,-0.00628514,0.0409683,21.008,1.14101,0.635808,0.0,0.0
910,227.25,64.5772,66.9857,147.238,115.769,108.701,,0.0408632,,0.70062,0.564292,0.0,0.0
920,229.75,64.2322,66.569,150.529,115.806,108.594,,,,1.23109,0.575974,0.0,0.0
930,232.25,63.9259,64.8523,150.314,115.788,108.463,,,,0.570505,0.585355,0.0,0.0
940,234.75,63.2028,64.9457,149.059,115.776,109.485,,,,0.400355,0.500406,0.0,0.0
945,236,62.7762,63.4341,147.43,115.748,109.292,,,,-0.0200177,0.514047,0.0,0.0