File: 01_Data/PlasticC/Cone/PlasticC_Cone_HF25Scan_220218_R3.csv
Names,Time,Stack TC,Smoke TC,Exh Press,Smoke Comp,Smoke Meas,CO Meter,CO2 Meter,O2 Meter,Sample Mass,Ext Coeff,Start Test,Flame Verif
Chan Gain,,500,500,1,1,1,1,1,1,1,1,1.0,1.0
Offset,,0,0,0.134285,0,0,0,0,0,0,0,0.0,0.0
Gain,,1,1,25.011,13.3843,12.7012,1,1,1,1.00088,1.02252,1.0,1.0
Units,sec,C,C,Pa,%,%,%,%,%,g,/m,,
Baseline,,16.0947,16.058,170.131,99.1743,95.9505,-2.10871e-05,0.0421029,21.0242,-0.300888,0.296423,,
19,4.5,14.6191,14.7166,171.044,99.1793,96.0442,-0.000161912,0.0430333,21.0217,897.145,0.288106,0.0,0.0
38,9.25,14.6832,15.0015,167.775,99.1711,95.9407,-0.000194994,0.0428175,21.0213,897.316,0.297038,0.0,0.0
57,14,14.8535,14.5458,172.666,99.2128,95.9493,-0.000135555,0.0426681,21.0232,897.135,0.300007,0.0,0.0
76,18.75,14.9275,15.1666,167.93,99.2263,95.881,0.000156773,0.0428772,21.0248,897.206,0.307606,0.0,0.0
95,23.5,15.0298,15.3069,168.137,99.2263,95.952,-8.60691e-05,0.0429719,21.025,897.115,0.300973,0.0,0.0
114,28.25,14.6248,14.8076,168.475,99.2385,95.9663,-0.000163234,0.0430585,21.0233,897.195,0.30074,0.0,0.0
133,33,15.6635,15.0545,169.223,99.2165,96.0411,-0.000422782,0.0429824,21.0221,897.156,0.291756,0.0,0.0
152,37.75,15.0364,15.21,170.353,99.2389,95.907,-0.00037152,0.0428772,21.0233,897.206,0.306322,0.0,0.0
171,42.5,15.3999,15.339,170.528,99.243,95.7237,-0.000132701,0.0429431,21.0214,897.256,0.323853,0.0,0.0
190,47.25,15.3954,15.7334,168.636,99.2304,95.7303,-0.000183776,0.0430151,21.0198,897.216,0.322091,0.0,0.0
209,52,15.3913,15.848,173.413,99.2369,95.7279,-0.000205864,0.0436257,21.0196,897.206,0.322899,0.0,0.0
228,56.75,15.2947,15.2977,165.848,99.223,95.4857,-0.000164043,0.0435443,21.0176,897.125,0.344371,0.0,0.0
247,61.5,15.5229,15.6234,170.465,99.2144,95.3814,-0.000348784,0.0435884,21.0201,897.125,0.353396,0.0,0.0
266,66.25,14.6779,15.3767,173.275,99.214,95.6074,-0.000327003,0.0432443,21.0234,897.055,0.332135,0.0,0.0
285,71,15.3682,15.6666,167.899,99.1952,94.812,3.61879e-06,0.0430624,21.0238,897.065,0.405366,0.0,0.0
304,75.75,15.3953,16.3237,171.713,99.1879,94.9419,-0.000246364,0.0426878,21.0238,897.186,0.392425,0.0,0.0
323,80.5,15.6308,16.0143,166.21,99.1777,94.9364,-0.000397835,0.0426378,21.0238,897.156,0.392015,0.0,0.0
342,85.25,15.3951,15.6813,169.78,99.165,95.0178,-0.000243281,0.0425183,21.0253,897.176,0.383182,0.0,0.0
361,90,15.5381,16.118,171.56,99.154,95.2872,-0.000306407,0.0424169,21.0255,896.395,0.356791,0.0,0.0
380,94.75,15.6056,15.5204,168.877,99.1577,94.5949,-0.00029462,0.0424821,21.0238,897.115,0.422526,0.0,0.0
399,99.5,15.3473,15.7827,171.663,99.1593,94.8,-0.000100726,0.0423082,21.0233,897.095,0.403252,0.0,0.0
418,104.25,15.0625,15.4811,163.954,99.1601,94.548,0.000133776,0.0423267,21.0252,897.035,0.427196,0.0,0.0
437,109,15.9038,15.6785,172.891,99.1662,94.705,-0.00020425,0.0424053,21.0234,897.195,0.412869,0.0,0.0
456,113.75,15.5816,16.376,170.615,99.1793,94.9829,-0.000168411,0.0423971,21.0224,896.885,0.387769,0.0,0.0
475,118.5,15.546,15.8108,166.869,99.2116,94.0918,6.46556e-05,0.0430705,21.0222,896.925,0.475235,0.0,0.0
494,123.25,15.5146,16.2223,170.425,99.2279,94.5965,0.000153592,0.0435202,21.0222,896.925,0.428732,0.0,0.0
513,128,15.957,16.2385,168.299,99.2193,93.4895,0.000360436,0.0447443,21.0204,897.055,0.53354,0.0,0.0
532,132.75,15.1246,15.3545,170.648,99.2063,93.8752,0.000337088,0.0446096,21.0197,896.875,0.495433,0.0,0.0
551,137.5,15.435,15.8977,170.753,99.1826,94.2453,0.000326753,0.0449923,21.0174,896.605,0.457992,0.0,0.0
570,142.25,15.583,15.9483,166.892,99.1695,93.5372,0.000270559,0.0467993,21.0144,896.545,0.524461,0.0,0.0
589,147,15.4189,16.4994,167.635,99.1238,94.5132,0.000647585,0.0502926,20.9978,896.545,0.427217,0.0,1.0
608,151.75,16.5587,17.6352,156.038,99.0551,59.4109,0.00755772,0.155881,20.8061,896.195,4.5852,0.0,1.0
627,156.5,20.9006,22.6415,138.249,98.9767,44.4887,0.0219599,0.432368,20.2773,895.634,7.17245,0.0,0.0
646,161.25,27.2865,30.2088,136.443,98.8587,45.6794,0.0302393,0.66018,19.9634,895.214,6.92484,0.0,0.0
665,166,32.2525,37.0946,133.723,98.7492,40.5331,0.0351301,0.78907,19.7863,894.573,7.98701,0.0,0.0
684,170.75,38.4628,45.2405,143.536,98.6299,41.9153,0.0375226,0.874718,19.6893,893.903,7.6754,0.0,0.0
703,175.5,42.7757,51.0442,138.613,98.5241,40.861,0.0405519,0.905403,19.6543,893.192,7.89427,0.0,0.0
722,180.25,49.2401,59.1931,125.718,98.44,33.9906,0.0490069,1.05264,19.3997,892.211,9.53781,0.0,0.0
741,185,54.1724,65.9624,114.93,98.5617,33.3647,0.0536294,1.15564,19.2621,891.15,9.71562,0.0,0.0
760,189.75,60.2567,73.5848,121.642,98.7398,30.8328,0.0567223,1.22832,19.145,890.289,10.4397,0.0,0.0
779,194.5,66.6819,81.7758,126.162,98.8983,31.5658,0.0605951,1.33717,19.0177,889.108,10.2433,0.0,0.0
798,199.25,71.4725,87.2607,116.596,99.0339,27.4873,0.0623318,1.35224,18.9949,888.088,11.4965,0.0,0.0
817,204,75.1881,92.8962,118.468,99.1344,27.0354,0.0684324,1.44758,18.8281,886.917,11.6543,0.0,0.0
836,208.75,82.2409,100.961,111.498,99.1932,28.6153,0.0730309,1.5861,18.6474,885.796,11.1502,0.0,0.0
855,213.5,87.2669,107.294,118.907,99.2365,25.7563,0.0746367,1.61596,18.5994,884.564,12.0983,0.0,0.0
874,218.25,91.7563,113.083,112.7,99.2541,23.9512,0.0778691,1.64866,18.5609,883.293,12.7516,0.0,0.0
893,223,95.9968,118.469,105.458,99.2598,23.9942,0.0816602,1.71171,18.4563,882.323,12.736,0.0,0.0
912,227.75,101.566,124.847,109.856,99.2287,25.6586,0.0821829,1.77243,18.4055,880.901,12.1317,0.0,0.0
931,232.5,104.527,129.042,118.835,99.2099,26.7191,0.0778232,1.70153,18.5399,879.71,11.7667,0.0,0.0
950,237.25,106.785,131.249,105.072,99.203,21.9228,0.0827281,1.75393,18.3934,878.049,13.5407,0.0,0.0
969,242,110.052,135.797,125.881,99.201,30.0758,0.0782685,1.76051,18.4683,877.218,10.7044,0.0,0.0
988,246.75,111.807,136.95,109.424,99.1805,22.7666,0.0810492,1.70862,18.5093,875.777,13.1999,0.0,0.0
1007,251.5,114.722,140.771,110.416,99.1977,23.5066,0.0829197,1.80014,18.408,874.686,12.9146,0.0,0.0
1026,256.25,116.727,142.357,108.925,99.154,24.4806,0.081066,1.77227,18.4258,873.565,12.5464,0.0,0.0
1045,261,118.644,144.934,123.26,99.1581,30.1153,0.0744215,1.69801,18.5778,872.474,10.6888,0.0,0.0
1064,265.75,119.06,144.361,112.636,99.1662,28.1753,0.0664743,1.55948,18.7778,871.523,11.2868,0.0,0.0
1083,270.5,118.274,142.812,123.489,99.1936,31.6762,0.057089,1.40776,19.023,870.342,10.2387,0.0,0.0
1102,275.25,116.476,140.385,133.523,99.2181,33.6852,0.0534553,1.28763,19.2035,869.621,9.68939,0.0,0.0
1121,280,114.286,136.621,125.687,99.2492,42.0235,0.0472119,1.1435,19.4283,868.931,7.70842,0.0,0.0
1140,284.75,110.315,131.969,146.174,99.2553,43.9541,0.0360565,0.938825,19.811,868.601,7.30608,0.0,0.0
1159,289.5,105.671,124.904,149.954,99.2765,52.2614,0.0259212,0.726821,20.105,867.92,5.75528,0.0,0.0
1178,294.25,99.4766,116.826,151.531,99.2639,67.7107,0.017045,0.522023,20.4094,867.85,3.43116,0.0,0.0
1197,299,93.5093,108.282,155.872,99.2475,75.8284,0.0107971,0.357495,20.6564,867.83,2.41408,0.0,0.0
1216,303.75,87.7379,100.409,162.088,99.2001,84.5214,0.00705278,0.258499,20.7905,867.76,1.43633,0.0,0.0
1235,308.5,81.5731,93.2209,161.884,99.1074,86.0889,0.004568,0.192893,20.8692,867.009,1.26312,0.0,0.0
1254,313.25,76.131,85.873,158.775,98.9861,87.9211,0.00292389,0.147802,20.9252,867.55,1.06324,0.0,0.0
1273,318,72.0189,80.195,159.266,98.8366,90.5739,0.00239246,0.120486,20.9494,867.249,0.783054,0.0,0.0
1292,322.75,68.1273,74.6006,159.198,98.654,92.1832,0.0016114,0.0987287,20.9783,867.029,0.608496,0.0,0.0
1311,327.5,63.7477,69.4338,160.117,98.4898,93.3112,0.00104906,0.0811395,20.9974,867.289,0.484471,0.0,0.0
1330,332.25,59.6881,64.6987,159.729,98.5785,94.1337,0.000801115,0.0688704,21.009,867.329,0.413823,0.0,0.0
1349,337,56.5836,60.2662,160.112,98.6871,93.6775,0.000400973,0.0598529,21.0156,867.099,0.46728,0.0,0.0
1368,341.75,53.8611,56.655,164.458,98.8092,93.8077,5.59463e-05,0.0547925,21.0166,867.439,0.465912,0.0,0.0
1387,346.5,50.7322,53.1886,164.894,98.9792,94.1604,0.000215554,0.0516466,21.0187,867.359,0.44766,0.0,0.0
1406,351.25,48.8691,50.1871,164.253,99.0449,93.9329,0.000478569,0.0496708,21.0186,867.46,0.475317,0.0,0.0
1425,356,46.7091,48.0644,165.436,99.1814,94.7899,-2.88656e-05,0.0482746,21.0209,867.389,0.406201,0.0,0.0
1444,360.75,44.8281,45.7513,163.848,99.2259,94.726,-9.29044e-06,0.0472391,21.0208,867.249,0.41628,0.0,0.0
1463,365.5,43.5253,43.0637,164.179,99.2393,93.9779,0.000255571,0.04642,21.0174,867.49,0.488615,0.0,0.0
1482,370.25,41.7296,41.4041,163.057,99.2467,95.293,0.000174874,0.0457131,21.0183,867.279,0.364628,0.0,0.0
1501,375,39.1947,39.2155,166.849,99.2259,94.9938,1.42181e-05,0.045074,21.0204,867.179,0.390954,0.0,0.0
1520,379.75,38.1955,37.5817,161.657,99.1544,94.8372,-0.000201405,0.0448543,21.0214,867.239,0.399289,0.0,0.0
1539,384.5,37.0628,36.8658,162.713,99.0858,94.719,-3.97996e-05,0.044372,21.0212,867.59,0.404267,0.0,0.0
1558,389.25,36.7808,35.4937,164.042,99.0069,94.7981,-0.000287139,0.0440378,21.0218,866.929,0.389643,0.0,0.0
1577,394,35.2746,34.1248,162.877,98.8922,94.6492,-0.000134645,0.043724,21.0224,867.109,0.393333,0.0,0.0
1596,398.75,34.6174,33.0613,164.205,98.7729,94.4787,-5.57764e-05,0.0437928,21.0229,867.099,0.398686,0.0,0.0
1615,403.5,33.3483,32.1187,165.155,98.605,94.1445,-0.000409901,0.0434737,21.0248,867.139,0.415204,0.0,0.0
1634,408.25,33.0404,31.7474,164.011,98.3979,93.541,-0.000380311,0.0433046,21.0232,867.339,0.454031,0.0,0.0
1653,413,32.113,31.218,166.711,98.1863,93.9798,-0.00020398,0.0429626,21.0215,867.399,0.392749,0.0,0.0
1672,417.75,31.4232,30.0982,163.35,98.0046,93.7597,-0.000143117,0.0428431,21.0212,867.379,0.397166,0.0,0.0
1691,422.5,30.7352,30.0387,161.585,97.8665,93.9752,-2.87599e-05,0.0428661,21.0227,867.179,0.363928,0.0,0.0
1710,427.25,30.2659,29.6036,164.097,97.7493,93.7271,6.02806e-05,0.0427192,21.0212,867.259,0.376887,0.0,0.0
1729,432,29.6771,27.9649,163.722,97.6713,93.9023,0.000102417,0.0426506,21.0214,867.46,0.352975,0.0,0.0
1748,436.75,29.5818,27.7746,163.504,97.5814,93.4344,-3.9261e-05,0.0426503,21.0218,867.419,0.389518,0.0,0.0
1767,441.5,28.8836,27.0526,163.983,97.4977,93.71,2.6479e-05,0.042571,21.0218,867.169,0.355401,0.0,0.0
1786,446.25,28.0395,26.3949,162.427,97.4062,93.2841,,,,866.979,0.387845,0.0,0.0
1805,451,27.9187,26.294,162.71,97.3596,93.2779,,,,867.439,0.384153,0.0,0.0
1814,453.25,28.1291,26.2259,169.008,97.3335,93.9504,,,,867.339,0.31731,0.0,0.0