File: 01_Data/PlasticC/Cone/PlasticC_Cone_HF50Scan_220218_R2.csv
Names,Time,Stack TC,Smoke TC,Exh Press,Smoke Comp,Smoke Meas,CO Meter,CO2 Meter,O2 Meter,Sample Mass,Ext Coeff,Start Test,Flame Verif
Chan Gain,,500,500,1,1,1,1,1,1,1,1,1.0,1.0
Offset,,0,0,0.132436,0,0,0,0,0,0,0,0.0,0.0
Gain,,1,1,25.011,15.4219,15.1528,1,1,1,1.00089,1.02113,1.0,1.0
Units,sec,C,C,Pa,%,%,%,%,%,g,/m,,
Baseline,,30.6186,31.6822,160.8,114.324,111.939,-0.00597232,0.0455582,21.001,-477.133,0.188947,,
12,2.75,28.3751,29.7906,162.302,114.265,111.967,-0.00612534,0.0479911,21.0027,37.233,0.181939,0.0,0.0
24,5.75,28.0618,29.5107,160.466,114.289,112.737,-0.00612809,0.0475869,21.0033,37.1629,0.122436,0.0,0.0
36,8.75,28.1936,29.6469,163.68,114.289,112.954,-0.00609375,0.0471595,21.0035,37.213,0.105296,0.0,0.0
48,11.75,28.4562,29.4221,161.071,114.287,112.13,-0.00609624,0.0466512,21.003,37.303,0.170623,0.0,0.0
60,14.75,28.3071,29.5017,159.445,114.285,111.798,-0.0063264,0.046291,21.0034,37.263,0.197038,0.0,0.0
72,17.75,28.183,29.5431,159.281,114.284,112.182,-0.00619342,0.0459192,21.0035,37.263,0.166303,0.0,0.0
84,20.75,28.5725,29.5337,162.015,114.293,111.626,-0.00610687,0.0456353,21.0035,37.1629,0.211494,0.0,0.0
96,23.75,28.6809,29.7848,161.22,114.276,111.219,-0.00623874,0.0455468,21.0044,37.1329,0.242845,0.0,0.0
108,26.75,28.6664,29.877,162.581,114.274,110.541,-0.00618377,0.0454914,21.0052,37.243,0.29746,0.0,0.0
120,29.75,28.7646,29.7812,158.339,114.25,110.995,-0.00601596,0.0453007,21.0054,37.1729,0.258896,0.0,0.0
132,32.75,28.8589,29.9582,158.996,114.244,110.279,-0.00578067,0.0453925,21.0055,37.0228,0.316407,0.0,0.0
144,35.75,29.0245,29.7644,165.286,114.223,110.878,-0.00522308,0.046308,21.0011,37.1829,0.266275,0.0,0.0
156,38.75,28.5838,29.7671,149.868,114.198,88.5438,-0.0020833,0.0847524,20.8834,36.9027,2.27904,0.0,1.0
168,41.75,30.9367,31.7533,146.426,114.171,65.4039,0.00467082,0.238693,20.6121,36.7425,4.99022,0.0,1.0
180,44.75,33.5197,35.4226,132.618,114.137,53.5547,0.0131737,0.45068,20.3019,36.2721,6.77792,0.0,1.0
192,47.75,37.5237,39.6567,133.941,114.133,45.459,0.0200019,0.598756,20.1107,35.9518,8.24566,0.0,1.0
204,50.75,41.4501,44.9572,125.211,114.117,46.1452,0.0267053,0.7323,19.8933,35.4514,8.11016,0.0,1.0
216,53.75,46.4506,49.9315,122.823,114.069,42.0587,0.0330879,0.85987,19.7139,34.9309,8.937,0.0,1.0
228,56.75,50.4469,55.7782,119.724,114.067,37.3896,0.0408504,0.987929,19.5123,34.4005,9.99081,0.0,0.0
240,59.75,55.8278,62.1252,126.428,114.038,39.0576,0.0462865,1.12457,19.2911,33.7799,9.59763,0.0,0.0
252,62.75,61.5353,68.5092,120.477,114.017,43.2046,0.0502294,1.23427,19.1803,33.0493,8.69212,0.0,0.0
264,65.75,65.8552,73.7605,106.346,113.995,28.4902,0.0559861,1.31939,19.0382,32.3687,12.4201,0.0,0.0
276,68.75,71.779,80.8852,113.96,113.974,29.7318,0.0601654,1.40582,18.9289,31.7781,12.0363,0.0,0.0
288,71.75,77.0526,86.9612,114.811,113.952,27.6606,0.0639067,1.47654,18.8265,31.1276,12.6814,0.0,0.0
300,74.75,82.0958,93.2534,108.737,113.927,27.421,0.0681112,1.56758,18.6885,30.2368,12.7573,0.0,0.0
312,77.75,87.1883,99.4318,108.862,113.903,27.7212,0.0746906,1.6646,18.5423,29.5261,12.658,0.0,0.0
324,80.75,92.6991,106.298,101.614,113.859,27.2495,0.0814789,1.75037,18.4044,28.6954,12.8082,0.0,0.0
336,83.75,96.6811,111.961,106.338,113.844,24.7519,0.0878226,1.83685,18.2684,27.9047,13.6681,0.0,0.0
348,86.75,102.423,118.813,98.8932,113.812,22.6701,0.0925593,1.96703,18.0877,26.9238,14.4525,0.0,0.0
360,89.75,108.516,126.148,108.619,113.769,23.7373,0.0955255,2.06014,17.9655,26.0731,14.037,0.0,0.0
372,92.75,112.879,131.989,105.954,113.76,24.6608,0.100641,2.14005,17.8644,25.2223,13.6945,0.0,0.0
384,95.75,118.339,139.257,88.3173,113.741,23.7595,0.106169,2.25307,17.6981,24.2114,14.0265,0.0,0.0
396,98.75,123.735,146.002,101.372,113.718,21.5561,0.111291,2.35691,17.5616,23.4207,14.8965,0.0,0.0
408,101.75,129.123,152.547,91.7475,113.707,23.7031,0.115118,2.44806,17.4179,22.3298,14.0452,0.0,0.0
420,104.75,133.711,158.913,93.3725,113.675,19.9963,0.120956,2.52013,17.3379,21.2688,15.5659,0.0,0.0
432,107.75,138.293,165.287,101.198,113.653,19.4312,0.126202,2.55436,17.289,20.358,15.8209,0.0,0.0
444,110.75,142.96,171.245,89.9973,113.659,18.6492,0.130312,2.60734,17.1993,19.4372,16.1893,0.0,0.0
456,113.75,148.025,177.866,97.2568,113.655,19.2717,0.133508,2.67554,17.113,18.3563,15.8949,0.0,0.0
468,116.75,151.488,182.762,83.6911,113.626,18.781,0.137585,2.70612,17.0643,17.2052,16.1236,0.0,0.0
480,119.75,155.486,187.398,91.3658,113.6,17.6634,0.141644,2.75768,17.0042,16.2344,16.6712,0.0,0.0
492,122.75,159.71,193.256,93.3946,113.558,18.1729,0.141465,2.76251,17.0053,15.1734,16.4131,0.0,0.0
504,125.75,162.038,196.373,86.5381,113.519,18.6682,0.140102,2.75828,17.0021,14.1826,16.1691,0.0,0.0
516,128.75,165.319,200.366,90.846,113.475,20.5323,0.137931,2.76181,17.0099,13.0516,15.3132,0.0,0.0
528,131.75,168.002,204.096,94.2083,113.456,19.4169,0.133644,2.72957,17.0666,12.1508,15.8119,0.0,0.0
540,134.75,169.496,206.457,93.3557,113.424,18.9669,0.126103,2.63143,17.2535,11.1999,16.0195,0.0,0.0
552,137.75,170.452,207.318,97.7079,113.442,22.2326,0.116871,2.49098,17.4267,10.2891,14.5979,0.0,0.0
564,140.75,170.599,206.898,108.253,113.459,27.0104,0.103298,2.30468,17.6951,9.40833,12.8556,0.0,0.0
576,143.75,170.227,206.2,104.224,113.481,31.2966,0.0871078,2.04224,18.1511,8.75776,11.538,0.0,0.0
588,146.75,167.622,202.386,112.976,113.491,35.6615,0.0707392,1.73676,18.6098,8.09717,10.3694,0.0,0.0
600,149.75,163.609,196.588,131.24,113.527,36.7746,0.0562721,1.4374,19.0563,7.74686,10.0969,0.0,0.0
612,152.75,158.909,190.489,132.476,113.582,47.0442,0.0422494,1.14722,19.444,7.39655,7.89524,0.0,0.0
624,155.75,153.377,183.551,135.577,113.628,60.5424,0.0291677,0.873914,19.8641,7.01621,5.63934,0.0,0.0
636,158.75,146.719,174.7,151.378,113.655,94.5988,0.0193099,0.612685,20.2701,6.97618,1.64387,0.0,0.0
648,161.75,138.929,165.692,151.075,113.673,106.959,0.0147241,0.369534,20.5797,6.95616,0.545322,0.0,0.0
660,164.75,131.962,156.538,153.102,113.71,105.954,0.0131694,0.217982,20.7821,6.84606,0.632801,0.0,0.0
672,167.75,124.953,148.192,154.591,113.754,106.775,0.0127386,0.140633,20.8805,6.80603,0.567125,0.0,0.0
684,170.75,119.191,140.964,153.069,113.813,106.795,0.0120967,0.10404,20.9267,6.82605,0.570086,0.0,0.0
696,173.75,112.795,133.777,154.949,113.884,107.504,0.0110195,0.0859341,20.9488,6.84606,0.516379,0.0,0.0
708,176.75,108.102,127.64,151.197,113.968,107.067,0.00956096,0.0759496,20.9634,6.95616,0.559525,0.0,0.0
720,179.75,102.689,120.809,154.757,114.08,107.669,0.00785352,0.0697934,20.9721,6.78601,0.51802,0.0,0.0
732,182.75,98.8207,116.346,153.682,114.156,107.598,0.00590175,0.0655216,20.9776,6.78601,0.529968,0.0,0.0
744,185.75,94.7594,110.202,152.732,114.234,107.211,0.00420682,0.0621791,20.9798,6.86608,0.568339,0.0,0.0
756,188.75,91.5,105.991,155.4,114.278,106.947,0.00249695,0.0600171,20.9816,6.8861,0.593856,0.0,0.0
768,191.75,87.4476,102.28,153.823,114.295,107.81,0.000607644,0.0577113,20.9857,6.82605,0.523165,0.0,0.0
780,194.75,83.6292,97.1116,155.219,114.316,107.815,-0.000830551,0.0560236,20.9883,6.75598,0.524403,0.0,0.0
792,197.75,81.6208,93.7109,153.016,114.298,107.777,-0.00199717,0.0544694,20.9913,6.70594,0.52619,0.0,0.0
804,200.75,79.1591,90.5386,156.492,114.273,108.286,-0.00275027,0.0529842,20.9942,6.73597,0.481985,0.0,0.0
816,203.75,76.8275,87.5112,152.345,114.184,107.781,-0.0032473,0.0517561,20.9958,6.84606,0.516914,0.0,0.0
828,206.75,73.6991,83.7787,151.745,114.077,108.283,-0.00367594,0.0506292,20.9971,6.81604,0.466892,0.0,0.0
840,209.75,72.6679,81.4346,157.901,113.979,108.29,-0.00432357,0.0500807,20.9973,6.86608,0.458593,0.0,0.0
852,212.75,70.3007,79.3565,156.644,113.875,107.882,-0.00494478,0.0492836,20.9985,6.90612,0.484327,0.0,0.0
864,215.75,68.5329,76.4958,156.689,113.879,105.208,-0.00519449,0.0488154,21.0013,6.62587,0.709419,0.0,0.0
876,218.75,66.4976,74.0697,153.081,114.228,108.96,-0.00521971,0.0484107,21.0021,6.776,0.422882,0.0,0.0
888,221.75,65.5855,72.0175,154.391,114.438,109.15,-0.00525529,0.0480037,21.0021,6.71595,0.423791,0.0,0.0
900,224.75,63.7043,69.5118,155.22,114.547,109.21,-0.00524703,0.0477713,21.002,6.65589,0.427364,0.0,0.0
912,227.75,62.1749,67.6056,154.351,114.528,107.512,-0.00525155,0.0475115,21.0019,6.69593,0.566296,0.0,0.0
924,230.75,61.1244,66.7706,154.913,114.354,109.392,-0.00543326,0.0472195,21.0016,6.84606,0.397369,0.0,0.0
936,233.75,59.0143,63.8774,151.081,113.965,107.815,-0.00551276,0.047041,21,6.75598,0.496849,0.0,0.0
948,236.75,58.8124,63.2174,153.978,113.684,107.347,-0.00560366,0.0468372,20.9999,6.73597,0.513743,0.0,0.0
960,239.75,57.9083,61.99,151.742,113.812,107.118,-0.00582993,0.0468485,20.9998,6.64589,0.542982,0.0,0.0
972,242.75,56.4168,60.4935,157.124,114.02,107.855,-0.00579117,0.0467674,21.001,6.6659,0.497911,0.0,0.0
984,245.75,56.1815,59.9382,158.365,114.229,108.907,-0.00582491,0.0466113,21.0012,6.70594,0.427404,0.0,0.0
996,248.75,54.8469,58.3206,155.323,114.38,107.977,-0.00601643,0.0465627,21.0012,6.67591,0.516055,0.0,0.0
1008,251.75,53.4807,57.248,151.667,114.451,109.14,-0.00605473,0.0464578,21.0012,6.86608,0.425545,0.0,0.0
1020,254.75,53.0141,56.2833,154.903,114.42,108.875,-0.00589657,0.0463396,21.0012,6.71595,0.444963,0.0,0.0
1032,257.75,52.3093,55.2675,157.677,114.298,109.007,-0.00568766,0.0462612,21.0012,6.63588,0.424541,0.0,0.0
1044,260.75,51.3955,54.5275,153.519,113.978,108.574,-0.00558377,0.0460835,21.0012,6.76599,0.435101,0.0,0.0
1056,263.75,51.3381,53.5727,156.746,113.594,108.86,-0.00558052,0.0459654,21.0012,6.60585,0.381248,0.0,0.0
1068,266.75,50.6619,52.5345,156.402,113.141,106.899,-0.00566785,0.0459394,21.0017,6.63588,0.508352,0.0,0.0
1080,269.75,49.3958,51.3443,155.945,112.695,106.222,,0.0459796,,6.75598,0.529829,0.0,0.0
1092,272.75,49.5513,50.5837,158.768,112.265,106.974,,,,6.56581,0.432429,0.0,0.0
1104,275.75,49.1512,50.6062,150.049,111.983,106.863,,,,6.84606,0.419167,0.0,0.0
1116,278.75,48.2242,49.8559,156.057,111.877,105.444,,,,6.60585,0.530446,0.0,0.0
1121,280,47.5453,49.3395,157.728,111.912,106.849,,,,6.73597,0.414759,0.0,0.0