File: 01_Data/PlasticC/Cone/PlasticC_Cone_HF75Scan_220218_R1.csv
Names,Time,Stack TC,Smoke TC,Exh Press,Smoke Comp,Smoke Meas,CO Meter,CO2 Meter,O2 Meter,Sample Mass,Ext Coeff,Start Test,Flame Verif
Chan Gain,,500,500,1,1,1,1,1,1,1,1,1.0,1.0
Offset,,0,0,0.132436,0,0,0,0,0,0,0,0.0,0.0
Gain,,1,1,25.011,15.4219,15.1528,1,1,1,1.00089,1.02113,1.0,1.0
Units,sec,C,C,Pa,%,%,%,%,%,g,/m,,
Baseline,,42.7222,44.9743,154.303,115.15,112.183,-0.00586972,0.0438938,21.0005,-482.72,0.23394,,
10,2.25,39.7135,41.5038,156.084,115.511,112.835,-0.00612261,0.0467654,20.9998,26.0731,0.209934,0.0,0.0
20,4.75,40.1271,41.5016,151.517,115.044,111.482,-0.00598898,0.0461842,20.9995,26.0531,0.281755,0.0,0.0
30,7.25,39.6946,41.26,155.079,115.22,111.915,-0.00585478,0.0464303,20.9992,26.0331,0.260629,0.0,0.0
40,9.75,39.7295,41.8576,154.158,115.451,110.876,-0.00594684,0.0464238,21.0006,26.0431,0.3622,0.0,0.0
50,12.25,39.6601,42.1067,157.561,115.702,111.311,-0.00599354,0.0460048,21.0017,26.0531,0.346519,0.0,0.0
60,14.75,40.0557,41.7696,151.434,115.866,110.711,-0.00545774,0.0467178,20.9977,26.0431,0.407621,0.0,0.0
70,17.25,40.1466,42.3053,150.823,115.93,107.159,-0.00313802,0.0663056,20.9388,25.993,0.704687,0.0,1.0
80,19.75,41.2577,43.2658,131.532,115.848,63.1214,0.00242563,0.161681,20.6951,25.7328,5.439,0.0,1.0
90,22.25,43.1056,45.2717,131.799,115.641,54.2525,0.0106353,0.375949,20.3838,25.4025,6.77924,0.0,0.0
100,24.75,45.6225,48.9789,122.899,115.365,50.7995,0.019971,0.5438,20.067,25.0622,7.34686,0.0,0.0
110,27.25,50.1805,54.2272,119.9375,115.281,44.9013,0.0278717,0.734341,19.7914,24.6618,8.44582,0.0,0.0
120,29.75,54.9782,59.9057,111.156,115.044,37.3891,0.0367203,0.906814,19.5816,24.1614,10.0674,0.0,0.0
130,32.25,58.961,65.5073,112.897,114.694,35.4354,0.0447279,1.08591,19.3413,23.6109,10.5208,0.0,0.0
140,34.75,64.6275,71.7098,115.44,114.385,32.911,0.0526797,1.25394,19.1071,23.0905,11.1586,0.0,0.0
150,37.25,70.4812,78.9281,105.974,114.42,30.0287,0.059853,1.39296,18.9092,22.4299,11.9823,0.0,0.0
160,39.75,75.296,85.635,103.155,114.243,28.9933,0.0674233,1.51496,18.6894,21.7893,12.2827,0.0,0.0
170,42.25,80.8138,92.3655,100.037,113.985,25.7036,0.0739919,1.6429,18.5196,21.1087,13.3412,0.0,0.0
180,44.75,86.9941,100.08,98.1155,113.778,24.5096,0.0812802,1.75513,18.3637,20.4281,13.751,0.0,0.0
190,47.25,92.1186,106.557,97.0728,113.612,22.6164,0.0870742,1.87987,18.1774,19.6874,14.458,0.0,0.0
200,49.75,98.1327,114.244,103.255,113.55,22.6479,0.0944268,1.99576,17.9862,18.9968,14.4407,0.0,0.0
210,52.25,103.719,121.11,99.8435,113.519,19.6735,0.103862,2.13686,17.7855,18.2161,15.6993,0.0,0.0
220,54.75,109.604,129.312,94.857,113.558,17.4432,0.113112,2.29919,17.5921,17.3554,16.7801,0.0,0.0
230,57.25,116.071,137.188,91.5597,113.63,19.0109,0.1238,2.44511,17.4202,16.5046,16.015,0.0,0.0
240,59.75,121.767,144.986,89.6118,113.743,17.8326,0.134284,2.5569,17.1979,15.5338,16.597,0.0,0.0
250,62.25,127.491,152.35,93.7182,113.882,17.3558,0.145663,2.69025,16.9931,14.623,16.8507,0.0,0.0
260,64.75,133.55,160.311,94.2968,114.043,17.046,0.158164,2.85824,16.7552,13.7121,17.0247,0.0,0.0
270,67.25,140.268,169.67,85.7321,114.246,13.7193,0.170595,3.02832,16.5285,12.7413,18.9853,0.0,0.0
280,69.75,145.991,177.747,96.1768,114.41,15.723,0.181067,3.17953,16.305,11.6703,17.7771,0.0,0.0
290,72.25,151.78,186.277,77.4826,114.599,14.5073,0.192333,3.32713,16.0745,10.6094,18.5127,0.0,0.0
300,74.75,157.72,194.536,86.8014,114.761,12.7658,0.204384,3.51777,15.8192,9.64855,19.6708,0.0,0.0
310,77.25,163.791,203.157,75.7607,114.92,12.0268,0.217443,3.6428,15.6756,8.42746,20.2173,0.0,0.0
320,79.75,168.968,210.856,85.5085,115.017,14.351,0.231403,3.72778,15.5477,7.38654,18.6424,0.0,0.0
330,82.25,174.586,219.392,78.1734,115.138,12.5415,0.243235,3.89813,15.2851,6.24553,19.859,0.0,0.0
340,84.75,181.346,228.757,78.0039,115.21,13.5353,0.25046,4.02475,15.1787,5.04447,19.1815,0.0,0.0
350,87.25,186.605,235.993,83.8064,115.259,15.1565,0.252747,4.03928,15.1728,3.96351,18.172,0.0,0.0
360,89.75,190.764,242.406,76.8674,115.309,12.6608,0.250055,4.01157,15.2151,2.87254,19.7875,0.0,0.0
370,92.25,194.946,248.133,74.815,115.34,15.9575,0.242152,3.94689,15.3068,1.75155,17.717,0.0,0.0
380,94.75,197.366,252.054,78.1848,115.358,16.4046,0.229809,3.91033,15.382,0.770683,17.4709,0.0,0.0
390,97.25,200.819,256.487,88.7211,115.361,14.8934,0.210637,3.78976,15.6148,-0.26023,18.3368,0.0,0.0
400,99.75,202.74,258.223,83.7667,115.343,15.9015,0.188407,3.55307,15.9526,-1.12099,17.7487,0.0,0.0
410,102.25,203.206,258.655,89.637,115.302,21.2425,0.15875,3.22718,16.4683,-2.01178,15.1516,0.0,0.0
420,104.75,202.659,256.969,97.498,115.261,26.4476,0.126198,2.77766,17.1494,-2.6023,13.1854,0.0,0.0
430,107.25,199.912,252.875,112.356,115.197,30.1512,0.0952411,2.30597,17.8897,-3.14278,12.0064,0.0,0.0
440,109.75,194.572,245.998,117.806,115.142,37.3443,0.0687052,1.79519,18.7078,-3.46307,10.0857,0.0,0.0
450,112.25,188.753,237.036,126.741,115.082,49.0779,0.0470961,1.33409,19.3263,-3.75332,7.63366,0.0,0.0
460,114.75,182.689,227.902,137.239,115.055,78.825,0.0292225,0.957263,19.8899,-3.89345,3.38748,0.0,0.0
470,117.25,175.003,217.892,144.009,115.01,103.781,0.017984,0.616319,20.3191,-3.91347,0.920187,0.0,0.0
480,119.75,166.862,207.468,142.782,115.198,106.062,0.0110165,0.400942,20.6082,-3.89345,0.7402,0.0,0.0
490,122.25,160.071,197.767,141.233,115.407,106.888,0.00759213,0.262743,20.7741,-3.91347,0.686839,0.0,0.0
500,124.75,153.803,189.017,144.722,115.592,106.873,0.0056459,0.184613,20.8558,-3.92348,0.702499,0.0,0.0
510,127.25,148.172,180.741,144.659,115.711,107.708,0.00454804,0.141656,20.9001,-3.94349,0.642036,0.0,0.0
520,129.75,142.443,173.565,147.926,115.826,107.703,0.00372737,0.115491,20.9307,-3.9535,0.651307,0.0,0.0
530,132.25,137.397,166.592,145.082,115.898,107.04,0.00283322,0.0976448,20.9499,-3.9535,0.712156,0.0,0.0
540,134.75,132.748,160.191,143.825,115.94,107.06,0.00177134,0.0855294,20.9638,-3.97352,0.713729,0.0,0.0
550,137.25,127.883,153.62,145.826,115.956,108.482,0.000762153,0.076704,20.974,-3.98353,0.596741,0.0,0.0
560,139.75,123.887,148.16,143.932,115.94,107.816,-0.000237175,0.0699839,20.9802,-3.97352,0.650694,0.0,0.0
570,142.25,120.077,143.012,146.319,115.87,107.533,-0.00117853,0.0647808,20.9863,-3.96351,0.668852,0.0,0.0
580,144.75,116.313,137.944,146.713,115.789,107.493,-0.00192627,0.06053,20.9911,-3.96351,0.665946,0.0,0.0
590,147.25,112.421,133.18,141.461,115.643,107.048,-0.00246784,0.0572288,20.9939,-3.98353,0.691762,0.0,0.0
600,149.75,109.076,128.958,143.799,115.482,107.377,-0.0029666,0.0547842,20.9968,-4.00355,0.651778,0.0,0.0
610,152.25,106.456,124.789,145.037,115.285,106.833,-0.00350023,0.0524375,21.0004,-3.99354,0.681986,0.0,0.0
620,154.75,103.881,121.151,147.154,115.277,108.011,-0.0039355,0.0505243,21.0019,-3.96351,0.583117,0.0,0.0
630,157.25,101.179,117.595,148.85,115.366,106.726,-0.00420329,0.0489563,21.0048,-4.01356,0.697198,0.0,0.0
640,159.75,98.4316,114.529,148.127,115.44,107.464,-0.00448691,0.047725,21.0061,-3.99354,0.641317,0.0,0.0
650,162.25,96.5199,111.223,144.654,115.55,106.998,-0.00494119,0.0469762,21.0064,-3.99354,0.688718,0.0,0.0
660,164.75,94.0459,107.598,145.545,115.634,107.086,-0.00527737,0.0460817,21.0071,-4.00355,0.687895,0.0,0.0
670,167.25,91.7677,105.248,145.823,115.742,107.59,-0.00556912,0.0454404,21.0082,-3.99354,0.654216,0.0,0.0
680,169.75,89.8413,101.815,149.018,115.828,107.98,-0.00583129,0.0447644,21.0082,-4.01356,0.628445,0.0,0.0
690,172.25,88.1729,99.9468,149.073,115.928,106.876,-0.00589658,0.0441136,21.0073,-4.00355,0.728267,0.0,0.0
700,174.75,86.4731,97.7716,144.716,116.012,108.075,-0.00583889,0.0437744,21.0078,-3.98353,0.634803,0.0,0.0
710,177.25,85.1999,94.8983,146.029,116.081,108.069,-0.00602033,0.0435465,21.0087,-3.99354,0.640606,0.0,0.0
720,179.75,83.5381,92.6448,145.46,116.127,107.664,-0.0062596,0.0433046,21.009,-4.02356,0.677764,0.0,0.0
730,182.25,82.2772,90.9527,148.057,116.163,108.641,-0.0063946,0.043365,21.0091,-4.00355,0.599635,0.0,0.0
740,184.75,80.8155,89.5067,146.755,116.175,108.456,-0.00628968,0.0431719,21.0091,-4.01356,0.615807,0.0,0.0
750,187.25,79.067,87.3306,146.043,116.15,107.914,-0.00623162,0.0429684,21.0092,-4.00355,0.658755,0.0,0.0
760,189.75,78.7112,85.9305,147.958,116.143,108.502,-0.00623145,0.0429111,21.0092,-3.96351,0.609556,0.0,0.0
770,192.25,77.3224,83.9878,150.959,116.072,109.232,-0.00628944,0.0426766,21.0092,-4.01356,0.544035,0.0,0.0
780,194.75,75.9847,82.5872,147.238,116.039,108.989,-0.00641647,0.0425467,21.0087,-4.00355,0.561497,0.0,0.0
790,197.25,75.2549,81.4607,147.593,115.947,108.367,-0.00650626,0.0422897,21.0086,-3.99354,0.605636,0.0,0.0
800,199.75,73.9744,80.3673,149.337,115.854,108.453,-0.00637391,0.0421159,21.0085,-3.98353,0.591292,0.0,0.0
810,202.25,73.3297,78.741,145.139,115.733,108.058,-0.00627714,0.0422181,21.0081,-3.99354,0.614609,0.0,0.0
820,204.75,72.0006,77.5935,151.263,115.625,108.427,-0.00633207,0.0420614,21.0078,-4.02356,0.57569,0.0,0.0
830,207.25,71.7747,76.1197,146.723,115.511,108.531,-0.00632863,0.0420688,21.0077,-3.99354,0.558272,0.0,0.0
840,209.75,70.3196,75.3524,146.612,115.377,107.451,-0.0062814,0.0420484,21.0077,-4.00355,0.637501,0.0,0.0
850,212.25,69.8257,74.5389,145.413,115.222,108.499,-0.00631897,0.0421231,21.0081,-3.98353,0.538506,0.0,0.0
860,214.75,69.5451,73.7555,151.697,115.081,107.235,-0.00643832,0.0422421,21.0084,-4.03357,0.632511,0.0,0.0
870,217.25,68.4724,72.4177,146.375,114.909,106.399,-0.00639788,0.0420837,21.0095,-3.99354,0.689165,0.0,0.0
880,219.75,67.8786,71.6567,145.358,114.764,107.577,-0.00630758,0.0420315,21.0104,-3.99354,0.579287,0.0,0.0
890,222.25,67.623,71.1742,147.274,114.646,107.672,-0.00632161,0.0418484,21.0103,-4.00355,0.562172,0.0,0.0
900,224.75,67.0099,69.8808,146.254,114.526,107.682,-0.0064008,0.0418454,21.0101,-4.04358,0.551942,0.0,0.0
910,227.25,65.9602,68.9649,146.467,114.428,107.24,-0.00634912,0.0419472,21.01,-4.01356,0.581133,0.0,0.0
920,229.75,65.7139,68.3551,144.89,114.325,106.421,,0.0418211,,-4.02356,0.641726,0.0,0.0
930,232.25,65.398,68.2243,147.667,114.234,107.492,,,,-3.98353,0.544841,0.0,0.0
940,234.75,65.466,66.9703,148.691,114.131,107.127,,,,-4.00355,0.567323,0.0,0.0
950,237.25,64.4262,66.8246,148.254,114.098,107.685,,,,-4.02356,0.518154,0.0,0.0
954,238.25,63.7875,66.8554,149.232,114.059,106.571,,,,-4.00355,0.608268,0.0,0.0