File: 01_Data/PlasticC/Cone/PlasticC_Cone_HF50Scan_220218_R1.csv
Names,Time,Stack TC,Smoke TC,Exh Press,Smoke Comp,Smoke Meas,CO Meter,CO2 Meter,O2 Meter,Sample Mass,Ext Coeff,Start Test,Flame Verif
Chan Gain,,500,500,1,1,1,1,1,1,1,1,1.0,1.0
Offset,,0,0,0.132436,0,0,0,0,0,0,0,0.0,0.0
Gain,,1,1,25.011,15.4219,15.1528,1,1,1,1.00089,1.02113,1.0,1.0
Units,sec,C,C,Pa,%,%,%,%,%,g,/m,,
Baseline,,22.6988,24.1007,165.135,112.264,111.561,-0.0057558,0.0489986,20.9964,-476.494,0.0563086,,
12,2.75,21.7078,22.7464,166.153,111.262,110.389,-0.00584753,0.0498186,20.9989,32.2085,0.0704926,0.0,0.0
24,5.75,21.8098,22.7042,165.851,111.961,111.298,-0.00606439,0.0491828,20.9992,32.0684,0.0532277,0.0,0.0
36,8.75,21.9085,22.9878,167.427,112.766,111.926,-0.00618058,0.0485744,21.0001,32.1184,0.0670234,0.0,0.0
48,11.75,22.088,23.4666,170.1,113.258,112.314,-0.00605184,0.0480114,21.0008,32.1985,0.0749718,0.0,0.0
60,14.75,22.6413,23.608,164.087,113.287,111.987,-0.00598415,0.0478482,21.0017,32.2786,0.103391,0.0,0.0
72,17.75,22.2981,23.2076,164.518,112.907,111.516,-0.00602221,0.0476552,21.0023,32.1785,0.111079,0.0,0.0
84,20.75,22.2682,24.153,162.214,112.789,110.628,-0.00605925,0.0474816,21.0025,32.1084,0.173305,0.0,0.0
96,23.75,22.6117,23.7583,165.19,113.303,111.399,-0.00598352,0.0473257,21.0011,32.1184,0.15179,0.0,0.0
108,26.75,23.0801,24.2837,167.964,113.012,110.602,-0.00585427,0.0473772,21,32.0684,0.193138,0.0,0.0
120,29.75,22.7868,24.29,163.04,112.458,109.555,-0.00582871,0.0476266,20.9996,32.0784,0.234278,0.0,0.0
132,32.75,23.3348,23.9064,162.773,112.89,109.567,-0.00582224,0.0486322,20.9972,32.0884,0.267642,0.0,0.0
144,35.75,22.6512,23.8869,166.047,113.258,110.3,-0.00565654,0.0508722,20.9948,32.0484,0.237113,0.0,0.0
156,38.75,22.9444,24.189,160.807,113.195,104.983,-0.00410283,0.0660011,20.95,31.9583,0.674586,0.0,1.0
168,41.75,23.9589,25.1282,147.208,112.669,63.1713,0.0019867,0.169047,20.7187,31.8482,5.18271,0.0,1.0
180,44.75,25.5854,27.181,131.313,111.871,55.2953,0.0101731,0.362849,20.378,31.3678,6.31177,0.0,0.0
192,47.75,30.0315,32.0142,132.209,111.267,49.4363,0.0179444,0.553127,20.1186,30.8173,7.26652,0.0,0.0
204,50.75,34.7197,37.343,128.2,111.163,42.375,0.0250224,0.706778,19.9082,30.477,8.63872,0.0,0.0
216,53.75,38.7164,42.4795,125.599,111.652,44.1692,0.0311363,0.844063,19.6899,30.2268,8.30655,0.0,0.0
228,56.75,44.1613,48.5356,124.274,112.441,43.896,0.0357863,0.958749,19.5692,29.6262,8.42527,0.0,0.0
240,59.75,49.3231,55.0751,121.746,113.146,38.819,0.040552,1.05954,19.428,28.9456,9.58215,0.0,0.0
252,62.75,54.0589,61.3547,127.043,113.483,36.0019,0.044248,1.1427,19.3125,28.3451,10.2837,0.0,0.0
264,65.75,59.2119,66.7581,124.545,113.409,35.3253,0.0482033,1.20223,19.2196,27.6745,10.4477,0.0,0.0
276,68.75,64.0946,72.3981,115.247,113.043,31.2902,0.0524491,1.30011,19.0663,27.124,11.5053,0.0,0.0
288,71.75,69.4309,79.038,117.969,113.018,35.2129,0.0566661,1.39885,18.9286,26.2533,10.4453,0.0,0.0
300,74.75,74.4404,85.3301,111.013,113.458,26.2192,0.062451,1.50037,18.758,25.6327,13.1218,0.0,0.0
312,77.75,80.0616,92.2445,111.013,113.214,28.1438,0.0690716,1.61577,18.6209,24.7219,12.468,0.0,0.0
324,80.75,84.4041,97.5974,108.647,112.576,27.1001,0.0757318,1.71727,18.4621,24.0013,12.7559,0.0,0.0
336,83.75,90.5505,105.203,104.741,113.038,23.0807,0.0815785,1.84374,18.2884,23.2206,14.2306,0.0,0.0
348,86.75,96.4276,111.67,106.858,113.413,26.3769,0.0868469,1.91485,18.1781,22.2797,13.0646,0.0,0.0
360,89.75,101.19,118.494,99.2497,113.369,22.4134,0.0950145,2.04929,17.9457,21.509,14.5196,0.0,0.0
372,92.75,107.633,126.297,99.2871,112.868,23.9269,0.100904,2.17883,17.787,20.5882,13.8946,0.0,0.0
384,95.75,113.244,132.922,94.3892,112.125,22.9022,0.104412,2.28533,17.6318,19.5673,14.2275,0.0,0.0
396,98.75,119.156,140.442,113.154,111.472,21.416,0.107555,2.38462,17.5237,18.5664,14.7762,0.0,0.0
408,101.75,123.525,146.495,100.362,111.295,20.5628,0.111917,2.47585,17.3952,17.6256,15.1261,0.0,0.0
420,104.75,128.685,152.935,106.248,111.732,18.2673,0.121423,2.55238,17.3026,16.5046,16.2215,0.0,0.0
432,107.75,133.688,159.552,92.2016,112.513,16.4781,0.132723,2.69369,17.0296,15.4137,17.2072,0.0,0.0
444,110.75,139.343,166.846,90.3995,113.241,18.6432,0.136488,2.85919,16.8546,14.3227,16.1592,0.0,0.0
456,113.75,144.474,173.62,86.7442,113.656,19.1269,0.137251,2.90511,16.8121,13.2417,15.9625,0.0,0.0
468,116.75,148.928,179.157,96.1622,113.651,15.9496,0.143832,2.9431,16.7159,12.0907,17.5893,0.0,0.0
480,119.75,153.116,185.477,87.7807,113.343,21.1556,0.14944,3.04859,16.5905,10.9397,15.0349,0.0,0.0
492,122.75,158.865,191.839,90.1125,113.238,19.4701,0.150256,3.09772,16.5633,9.85873,15.7702,0.0,0.0
504,125.75,162.66,197.286,94.4296,113.738,17.5491,0.146951,3.0802,16.5977,8.76777,16.7401,0.0,0.0
516,128.75,165.101,201.149,102.174,113.489,18.3861,0.141263,2.99729,16.7357,7.76688,16.3032,0.0,0.0
528,131.75,167.95,204.293,96.5042,112.795,20.1965,0.133475,2.90337,16.8892,6.56581,15.407,0.0,0.0
540,134.75,168.647,205.672,91.7475,113.181,16.16,0.127875,2.78681,17.0293,5.57494,17.4348,0.0,0.0
552,137.75,170.501,207.293,98.8482,113.544,19.9598,0.120109,2.71597,17.1653,4.88433,15.5719,0.0,0.0
564,140.75,171.017,207.726,104.327,113.597,27.7882,0.102667,2.47466,17.5968,3.96351,12.6122,0.0,0.0
576,143.75,169.139,204.833,122.31,113.196,29.5995,0.0826766,2.09681,18.1791,3.18282,12.0149,0.0,0.0
588,146.75,165.201,199.416,119.13,112.45,36.4851,0.0642183,1.72675,18.6885,2.68238,10.0823,0.0,0.0
600,149.75,160.408,193.442,132.503,111.74,51.2805,0.0467992,1.32641,19.244,2.16191,6.97646,0.0,0.0
612,152.75,153.981,184.444,144.662,111.454,64.739,0.031313,0.957101,19.7707,2.01178,4.86598,0.0,0.0
624,155.75,146.17,175.191,148.042,111.745,95.0169,0.0201843,0.615292,20.3121,2.08184,1.45258,0.0,0.0
636,158.75,137.586,164.197,153.351,112.484,104.025,0.015254,0.361599,20.6533,2.06183,0.700298,0.0,0.0
648,161.75,130.072,155.052,153.99,113.192,105.151,0.0135532,0.217179,20.8177,2.13189,0.66009,0.0,0.0
660,164.75,122.928,146.691,150.47,113.712,106.128,0.0125151,0.145187,20.8934,1.98176,0.6183,0.0,0.0
672,167.75,116.442,138.638,150.42,113.905,106.055,0.0113384,0.109371,20.9301,2.10186,0.639619,0.0,0.0
684,170.75,110.393,131.694,155.661,113.754,105.268,0.00996944,0.0901478,20.9511,1.94172,0.694451,0.0,0.0
696,173.75,105.189,124.71,153.251,113.436,106.026,0.00863589,0.0796076,20.9578,2.00177,0.6051,0.0,0.0
708,176.75,100.655,118.954,153.048,113.764,106.177,0.00673268,0.0730916,20.9655,1.8116,0.618278,0.0,0.0
720,179.75,96.1052,112.971,152.034,114.033,106.724,0.00491779,0.0679608,20.9723,1.89168,0.593343,0.0,0.0
732,182.75,91.8909,107.53,157.256,113.713,106.505,0.00333685,0.0643585,20.9777,1.96174,0.586622,0.0,0.0
744,185.75,88.4836,103.375,154.915,113.092,104.189,0.00180937,0.0616096,20.9825,1.86165,0.734465,0.0,0.0
756,188.75,84.8315,99.4805,153.017,113.373,105.605,0.000219835,0.0595049,20.9862,1.95173,0.635781,0.0,0.0
768,191.75,81.7589,94.6593,160.754,113.725,106.324,-0.00102782,0.0576823,20.9887,1.86165,0.602728,0.0,0.0
780,194.75,78.7894,90.9691,155.347,113.893,107.47,-0.00195884,0.0559503,20.9905,1.86165,0.519933,0.0,0.0
792,197.75,76.0642,87.5203,155.643,113.76,106.169,-0.00287084,0.05444,20.992,1.98176,0.618607,0.0,0.0
804,200.75,73.1244,83.9627,155.663,113.353,106.193,-0.00356521,0.0531554,20.9936,1.90168,0.584391,0.0,0.0
816,203.75,70.8255,80.6548,153.87,112.766,106.46,-0.00413207,0.0521662,20.9958,1.95173,0.515456,0.0,0.0
828,206.75,68.7165,78.1035,153.205,112.214,104.42,-0.00446163,0.0513194,20.9964,1.8016,0.644781,0.0,0.0
840,209.75,66.8731,75.278,156.769,111.767,104.301,-0.0047896,0.0506803,20.9982,1.96174,0.619337,0.0,0.0
852,212.75,65.0142,73.2636,155.563,111.611,105.726,-0.00493224,0.0500053,20.9987,1.88167,0.485201,0.0,0.0
864,215.75,63.0991,70.0307,155.615,111.821,105.065,-0.0048891,0.049635,20.9985,1.90168,0.55823,0.0,0.0
876,218.75,61.8975,68.244,156.403,112.236,105.538,-0.00515624,0.0492761,20.9991,1.76156,0.551181,0.0,0.0
888,221.75,59.5053,65.6859,158.592,112.799,105.77,-0.00535017,0.0489009,20.9992,1.95173,0.576312,0.0,0.0
900,224.75,58.9204,64.5792,159.693,113.308,106.905,-0.00546534,0.0487099,20.9992,1.84163,0.521066,0.0,0.0
912,227.75,57.2342,62.4438,157.984,113.687,106.793,-0.0054287,0.0483805,21.0003,1.84163,0.560348,0.0,0.0
924,230.75,55.8481,61.4602,160.044,113.943,106.486,-0.00535981,0.0481862,21.0018,1.96174,0.606211,0.0,0.0
936,233.75,54.8613,59.6143,161.296,114.067,106.84,-0.005363,0.0481842,21.0022,1.83162,0.586341,0.0,0.0
948,236.75,53.9824,58.3828,157.835,114.061,106.332,-0.00540911,0.0482066,21.0015,2.00177,0.62857,0.0,0.0
960,239.75,53.1413,56.8444,155.516,113.937,106.709,-0.00555141,0.0482284,21.0015,1.9217,0.587039,0.0,0.0
972,242.75,51.9581,56.1096,157.514,113.741,108.1,-0.00532914,0.0481654,21.0011,1.87166,0.455591,0.0,0.0
984,245.75,51.2029,53.8932,153.006,113.584,106.963,-0.0054292,0.0480845,20.9998,1.94172,0.538,0.0,0.0
996,248.75,49.479,53.203,156.603,113.888,107.752,-0.00567135,0.0480296,21.0006,1.90168,0.496046,0.0,0.0
1008,251.75,49.3665,52.5996,158.424,114.178,107.715,-0.00577844,0.0483121,20.9995,1.90168,0.521895,0.0,0.0
1020,254.75,48.6462,51.6902,158.724,114.282,107.852,-0.00587777,0.0483471,20.9993,1.95173,0.51875,0.0,0.0
1032,257.75,48.541,50.6215,156.043,114.188,106.506,-0.00593587,0.048294,21.0004,1.87166,0.623794,0.0,0.0
1044,260.75,46.8846,49.3727,156.14,113.979,107.822,-0.00590104,0.0481553,21.0008,1.8116,0.497459,0.0,0.0
1056,263.75,46.7557,49.3662,157.597,113.589,106.947,-0.00590363,0.0479175,21.0006,1.86165,0.539723,0.0,0.0
1068,266.75,45.9065,48.4757,156.47,113.397,107.751,,0.0479002,,1.87166,0.457471,0.0,0.0
1080,269.75,46.2287,47.9145,155.598,113.56,107.309,,,,1.98176,0.507149,0.0,0.0
1092,272.75,44.9507,46.9074,159.11,113.752,108.877,,,,1.8116,0.392376,0.0,0.0
1104,275.75,44.7787,46.1967,159.6,113.945,108.381,,,,1.88167,0.448435,0.0,0.0
1111,277.5,44.8128,46.1596,155.598,114.03,107.92,,,,1.95173,0.493351,0.0,0.0