File: 01_Data/PlasticC/Cone/PlasticC_Cone_HF25Scan_220218_R1.csv
Names,Time,Stack TC,Smoke TC,Exh Press,Smoke Comp,Smoke Meas,CO Meter,CO2 Meter,O2 Meter,Sample Mass,Ext Coeff,Start Test,Flame Verif
Chan Gain,,500,500,1,1,1,1,1,1,1,1,1.0,1.0
Offset,,0,0,0.134285,0,0,0,0,0,0,0,0.0,0.0
Gain,,1,1,25.011,13.3843,12.7012,1,1,1,1.00088,1.02252,1.0,1.0
Units,sec,C,C,Pa,%,%,%,%,%,g,/m,,
Baseline,,16.0543,16.5979,167.956,99.6696,96.2318,5.94084e-05,0.0417873,21.0251,-0.916219,0.314846,,
18,4.25,13.5243,13.5014,166.183,98.8672,95.4946,-0.00024293,0.0422704,21.027,896.565,0.311316,0.0,0.0
36,8.75,13.3431,13.6953,167.533,98.9918,95.5291,-0.000240881,0.042322,21.0269,896.865,0.319372,0.0,0.0
54,13.25,13.763,14.3041,165.759,99.3758,96.0117,-0.000452641,0.043326,21.0251,897.025,0.308898,0.0,0.0
72,17.75,14.0629,14.0721,169.039,99.562,96.1318,-0.000629021,0.0445598,21.0239,897.065,0.314475,0.0,0.0
90,22.25,14.1356,14.7908,173.227,99.6662,96.269,-0.000387593,0.045085,21.0244,897.206,0.311059,0.0,0.0
108,26.75,14.3519,14.8152,165.847,99.6805,96.1671,-0.00038767,0.0444955,21.0251,897.055,0.321849,0.0,0.0
126,31.25,14.8353,15.0242,163.606,99.6298,95.9155,-0.000322846,0.0448973,21.0238,897.015,0.340784,0.0,0.0
144,35.75,14.9683,15.4618,166.63,99.52,95.9613,-0.000209848,0.0454839,21.0232,896.455,0.32661,0.0,0.0
162,40.25,14.682,15.2867,166.383,99.3513,95.7558,-0.000148609,0.0452958,21.0221,896.675,0.330616,0.0,0.0
180,44.75,15.1728,15.1424,169.309,99.1033,95.7806,-0.000159766,0.0453589,21.022,896.995,0.305882,0.0,0.0
198,49.25,14.6125,15.5554,168.72,99.1912,95.5981,-0.000222746,0.0452795,21.0219,896.625,0.330938,0.0,0.0
216,53.75,14.6855,15.47,171.279,99.2892,95.6679,-0.00045691,0.0448966,21.0219,896.205,0.333255,0.0,0.0
234,58.25,14.9754,15.437,164.954,99.3582,95.4907,-0.000573047,0.0443477,21.0238,897.025,0.356112,0.0,0.0
252,62.75,14.9929,15.797,168.467,99.4272,95.7151,-0.000493306,0.0437071,21.0224,897.025,0.341285,0.0,0.0
270,67.25,14.8193,15.9051,170.507,99.4812,95.5376,-0.000478977,0.043558,21.0228,896.955,0.3628,0.0,0.0
288,71.75,15.5838,15.6843,168.064,99.5396,95.5717,-0.000427352,0.0440261,21.0203,897.005,0.364863,0.0,0.0
306,76.25,15.7409,16.3468,169.88,99.569,95.4306,-0.000157636,0.0451671,21.0184,896.645,0.380763,0.0,0.0
324,80.75,15.575,16.3833,164.473,99.6066,95.3857,-0.00028748,0.0453158,21.0181,896.915,0.388374,0.0,0.0
342,85.25,15.4635,16.5473,171.925,99.6458,96.0481,2.32568e-05,0.0448436,21.0207,896.705,0.329831,0.0,0.0
360,89.75,15.1736,16.3521,165.684,99.6752,94.8283,-0.000180432,0.0439943,21.0217,897.015,0.447118,0.0,0.0
378,94.25,15.7841,16.3945,164.919,99.6911,95.0523,-0.000494866,0.0439983,21.0219,897.045,0.427385,0.0,0.0
396,98.75,15.6102,17.0453,169.425,99.6833,95.1279,-0.000277619,0.0439398,21.0219,896.475,0.419558,0.0,0.0
414,103.25,16.0605,16.7666,170.853,99.6813,94.988,-0.000224091,0.0441438,21.0222,896.765,0.432578,0.0,0.0
432,107.75,15.8203,16.4094,163.461,99.6695,94.9426,-0.000358669,0.0444033,21.0223,896.845,0.435795,0.0,0.0
450,112.25,15.5004,16.0713,166.41,99.6482,94.7279,-0.000199423,0.0444669,21.024,897.005,0.454194,0.0,0.0
468,116.75,15.6134,16.7273,166.645,99.5927,94.5349,7.01279e-05,0.0440987,21.0241,896.875,0.467487,0.0,0.0
486,121.25,16.4973,16.9522,165.417,99.5665,94.526,4.62881e-05,0.0446427,21.0227,896.975,0.465979,0.0,0.0
504,125.75,16.6034,17.4233,169.558,99.5196,94.9484,-4.27414e-05,0.0446601,21.0241,896.695,0.421746,0.0,0.0
522,130.25,16.2495,17.1304,170.333,99.4669,94.2984,-9.7136e-05,0.0444477,21.0227,896.855,0.478611,0.0,0.0
540,134.75,15.9312,16.4912,168.773,99.4513,94.2849,9.80478e-05,0.0449814,21.02,896.685,0.478503,0.0,0.0
558,139.25,15.3571,17.1863,165.74,99.4309,93.0414,0.000260139,0.0462765,21.0163,895.764,0.595739,0.0,0.0
576,143.75,16.4671,16.7759,163.372,99.3942,86.9118,0.00201032,0.0700252,20.9473,894.783,1.20371,0.0,1.0
594,148.25,16.8944,17.829,139.47,99.3586,52.3773,0.0121229,0.207171,20.5819,895.264,5.74283,0.0,0.0
612,152.75,21.9271,24.1047,145.895,99.3186,47.6783,0.0235381,0.467527,20.1928,895.874,6.58231,0.0,0.0
630,157.25,27.5239,31.6644,137.452,99.3018,50.4075,0.0280455,0.610967,20.0387,895.124,6.08154,0.0,0.0
648,161.75,32.8571,37.7548,140.545,99.2655,44.0282,0.0319427,0.713798,19.89,894.463,7.29191,0.0,0.0
666,166.25,37.4858,43.8401,136.449,99.1715,46.0341,0.034496,0.781916,19.8144,893.712,6.88381,0.0,0.0
684,170.75,41.9734,49.2542,130.636,99.0568,41.037,0.0385243,0.860431,19.6842,892.672,7.90408,0.0,0.0
702,175.25,46.1492,54.9921,119.155,98.9771,38.4036,0.043708,0.947424,19.5647,892.391,8.49175,0.0,0.0
720,179.75,51.8558,61.5802,131.124,98.8517,35.2159,0.0470803,1.03624,19.4372,891.43,9.25762,0.0,0.0
738,184.25,56.2521,67.4073,124.372,98.768,34.0104,0.0500026,1.10011,19.318,890.299,9.56243,0.0,0.0
756,188.75,62.0526,74.8926,124.463,98.7374,31.4731,0.0562784,1.23764,19.0933,889.539,10.2551,0.0,0.0
774,193.25,68.0167,82.3199,120.577,98.7071,33.8185,0.0584884,1.31284,19.0317,887.077,9.60765,0.0,0.0
792,197.75,72.4409,88.0126,112.266,98.663,28.1622,0.0642788,1.41916,18.8351,887.487,11.2453,0.0,0.0
810,202.25,79.062,96.2621,111.996,98.6463,28.0467,0.0695018,1.52139,18.7225,886.426,11.2807,0.0,0.0
828,206.75,83.6518,102.682,112.558,98.683,27.3342,0.0728081,1.58207,18.6366,885.255,11.5148,0.0,0.0
846,211.25,88.3434,108.455,107.248,98.7243,28.4048,0.0740787,1.6207,18.6061,884.104,11.1739,0.0,0.0
864,215.75,92.5118,113.573,125.764,98.7741,25.1865,0.0703076,1.59704,18.6906,882.973,12.2571,0.0,0.0
882,220.25,94.6571,116.28,116.324,98.8546,23.6496,0.0726506,1.60502,18.6216,881.792,12.8291,0.0,0.0
900,224.75,97.5822,119.398,117.605,98.9171,27.3835,0.0752577,1.67689,18.5135,880.821,11.5199,0.0,0.0
918,229.25,100.802,123.02,120.74,99.0698,22.6298,0.0805802,1.73699,18.4107,879.36,13.244,0.0,0.0
936,233.75,105.191,128.644,103.247,99.2132,27.2067,0.0858856,1.82838,18.3041,878.119,11.6048,0.0,0.0
954,238.25,108.762,132.796,105.137,99.292,27.4466,0.0825006,1.80209,18.4126,877.418,11.5332,0.0,0.0
972,242.75,110.774,134.85,116.843,99.4027,28.5036,0.0778931,1.69897,18.5652,875.537,11.2042,0.0,0.0
990,247.25,112.1,136.463,99.0561,99.5073,24.9152,0.0834768,1.75453,18.4419,874.816,12.4205,0.0,0.0
1008,251.75,114.813,139.506,106.769,99.6106,28.8726,0.0814339,1.76504,18.4676,873.665,11.1076,0.0,0.0
1026,256.25,116.606,141.601,106.631,99.6564,29.4742,0.0776183,1.71417,18.565,872.974,10.9267,0.0,0.0
1044,260.75,117.887,142.937,104.71,99.6727,26.8807,0.0717263,1.60985,18.7276,871.753,11.7544,0.0,0.0
1062,265.25,117.446,141.963,109.144,99.6744,25.7039,0.0695968,1.52531,18.807,870.612,12.156,0.0,0.0
1080,269.75,117.968,142.158,119.228,99.6192,33.693,0.0648208,1.48958,18.8839,869.932,9.72352,0.0,0.0
1098,274.25,116.769,140.646,119.307,99.5461,31.4991,0.0564544,1.34981,19.1495,869.001,10.3208,0.0,0.0
1116,278.75,114.975,137.318,129.718,99.4808,40.6633,0.048019,1.19936,19.422,867.65,8.02444,0.0,0.0
1134,283.25,111.231,132.4375,135.615,99.4097,39.728,0.0389756,1.00443,19.7165,867.209,8.22674,0.0,0.0
1152,287.75,107.226,126.627,144.292,99.3112,45.9182,0.0309147,0.818197,20.0005,866.629,6.91904,0.0,0.0
1170,292.25,100.995,118.584,158.031,99.1948,76.3141,0.0199511,0.601163,20.3666,867.159,2.35205,0.0,0.0
1188,296.75,94.021,109.008,161.137,99.0935,84.9795,0.010968,0.378809,20.7036,867.089,1.3782,0.0,0.0
1206,301.25,88.2696,101.684,162.809,99.3051,91.9487,0.00560851,0.244283,20.8681,866.989,0.690344,0.0,0.0
1224,305.75,82.6188,93.7224,156.837,99.5224,93.9422,0.00323681,0.167091,20.9476,866.749,0.517566,0.0,0.0
1242,310.25,77.7604,86.5942,156.762,99.6396,94.3159,0.00198244,0.121733,20.9846,867.209,0.49252,0.0,0.0
1260,314.75,72.5016,79.8696,162.336,99.6012,94.9775,0.0012473,0.0980804,20.9996,867.019,0.426359,0.0,0.0
1278,319.25,68.5154,74.8023,160.823,99.4187,94.1066,0.000923542,0.0829535,21.0078,866.859,0.492533,0.0,0.0
1296,323.75,64.358,69.4245,162.599,99.0825,94.3732,0.000795096,0.074375,21.0117,866.949,0.436772,0.0,0.0
1314,328.25,60.3137,65.1949,161.295,98.7721,93.8306,0.000563312,0.0674883,21.0138,866.879,0.46035,0.0,0.0
1332,332.75,56.9423,60.8152,160.817,98.877,94.0007,0.00051516,0.0623844,21.0161,866.899,0.453626,0.0,0.0
1350,337.25,55.0378,57.5128,163.532,98.9845,94.1345,0.000446617,0.0586111,21.0162,866.339,0.450616,0.0,0.0
1368,341.75,52.8365,54.5289,163.167,99.0796,94.7752,0.000374611,0.0557154,21.0173,865.338,0.398392,0.0,0.0
1386,346.25,49.8682,51.441,160.452,99.2075,94.1659,0.000319986,0.0532329,21.0192,866.369,0.467811,0.0,0.0
1404,350.75,48.0602,48.8662,157.931,99.3047,94.6647,0.000170379,0.0514323,21.0212,867.079,0.429204,0.0,0.0
1422,355.25,46.2496,46.6746,162.171,99.3701,94.9112,0.00033704,0.050083,21.021,867.109,0.411778,0.0,0.0
1440,359.75,44.5532,45.1968,156.76,99.404,94.393,0.000386617,0.0490024,21.0204,866.889,0.463946,0.0,0.0
1458,364.25,43.4304,43.2923,161.984,99.4477,94.4124,0.000243897,0.0480827,21.021,867.049,0.466048,0.0,0.0
1476,368.75,41.9763,41.7088,160.629,99.4673,94.2558,9.77998e-05,0.0474829,21.0228,866.899,0.482705,0.0,0.0
1494,373.25,40.9789,40.4864,159.622,99.473,94.4802,-0.000212683,0.0468186,21.0231,866.909,0.461889,0.0,0.0
1512,377.75,39.3316,39.4478,162.395,99.4387,95.0132,-0.000107105,0.0462273,21.0232,866.669,0.40834,0.0,0.0
1530,382.25,38.6299,37.552,160.242,99.3999,95.1283,-5.29919e-05,0.0457561,21.0218,866.979,0.393979,0.0,0.0
1548,386.75,36.7737,35.9857,161.886,99.3157,95.4434,2.25581e-05,0.0453752,21.0194,866.339,0.356719,0.0,0.0
1566,391.25,36.0614,34.6805,165.427,99.2022,94.7407,1.026e-05,0.0450241,21.0188,866.829,0.412744,0.0,0.0
1584,395.75,34.7108,33.6814,169.938,99.0261,95.5597,-4.93242e-05,0.0446003,21.0205,866.719,0.319606,0.0,0.0
1602,400.25,33.8129,32.5908,157.914,98.8464,94.3791,5.55745e-05,0.0444555,21.0215,865.728,0.414821,0.0,0.0
1620,404.75,33.1099,31.86,160.827,98.605,94.1081,6.97943e-05,0.0442433,21.0216,866.829,0.418677,0.0,0.0
1638,409.25,32.8562,31.174,157.838,98.4147,93.9426,-7.53667e-05,0.044064,21.0216,866.279,0.417135,0.0,0.0
1656,413.75,32.3805,30.9453,164.196,98.2292,94.2337,-0.000357681,0.0439108,21.0216,866.839,0.372467,0.0,0.0
1674,418.25,31.9701,30.6124,159.55,98.0516,93.1472,-0.000321565,0.0436487,21.0216,866.779,0.460243,0.0,0.0
1692,422.75,30.8266,29.474,164.806,97.9294,93.793,,,,866.789,0.387096,0.0,0.0
1710,427.25,31.6978,29.9478,159.972,97.7791,93.636,,,,866.659,0.388344,0.0,0.0
1722,430.25,30.2864,28.9737,162.677,97.6986,93.5104,,,,866.539,0.392996,0.0,0.0