File: 01_Data/PlasticC/Cone/PlasticC_Cone_HF50Scan_220218_R3.csv
Names,Time,Stack TC,Smoke TC,Exh Press,Smoke Comp,Smoke Meas,CO Meter,CO2 Meter,O2 Meter,Sample Mass,Ext Coeff,Start Test,Flame Verif
Chan Gain,,500,500,1,1,1,1,1,1,1,1,1.0,1.0
Offset,,0,0,0.132436,0,0,0,0,0,0,0,0.0,0.0
Gain,,1,1,25.011,15.4219,15.1528,1,1,1,1.00089,1.02113,1.0,1.0
Units,sec,C,C,Pa,%,%,%,%,%,g,/m,,
Baseline,,31.4762,31.7719,162.055,113.62,111.164,-0.00598358,0.0456007,21.0002,-477.882,0.195764,,
12,2.75,29.5947,29.8698,156.121,112.683,110.75,-0.0058284,0.0534595,20.993,31.1075,0.155011,0.0,0.0
24,5.75,29.5088,29.9327,159.043,112.722,110.627,-0.00582203,0.051851,20.9944,30.9374,0.168071,0.0,0.0
36,8.75,29.8434,29.6073,165.871,112.753,110.754,-0.00610306,0.0494977,20.9976,31.4879,0.16021,0.0,0.0
48,11.75,29.6933,30.2601,162.396,112.785,111.483,-0.00627455,0.04748,21.0004,31.4178,0.104004,0.0,0.0
60,14.75,29.4815,29.8289,163.045,112.804,111.649,-0.00640926,0.0462129,21.0029,31.4679,0.0921717,0.0,0.0
72,17.75,29.6941,30.0881,162.42,112.855,110.352,-0.00648445,0.0455504,21.0039,31.588,0.200878,0.0,0.0
84,20.75,29.6717,29.9409,162.567,112.881,110.654,-0.00643533,0.0450088,21.0042,31.4579,0.178493,0.0,0.0
96,23.75,29.5975,29.6772,162.869,112.897,110.183,-0.00635924,0.0448719,21.0043,31.578,0.217988,0.0,0.0
108,26.75,29.3281,29.8425,160.578,112.949,109.274,-0.00626546,0.0448388,21.0037,31.3277,0.296309,0.0,0.0
120,29.75,29.2816,29.3854,161.805,112.977,110.694,-0.00619413,0.0450602,21.0025,31.0275,0.182852,0.0,0.0
132,32.75,29.5099,29.8618,165.565,113.021,108.887,-0.00600559,0.0455172,21.0008,30.8974,0.333725,0.0,0.0
144,35.75,29.4494,29.9081,164.185,113.068,109.365,-0.00554554,0.0467896,20.9984,31.2076,0.298282,0.0,0.0
156,38.75,29.0721,29.8166,164.553,113.104,109.848,-0.00476204,0.0531541,20.9902,31.628,0.261662,0.0,1.0
168,41.75,29.6603,30.218,148.822,113.147,74.5956,0.000302019,0.111059,20.8434,30.6371,3.73167,0.0,1.0
180,44.75,31.3598,31.7723,135.788,113.183,48.4055,0.00923786,0.326155,20.4354,30.3869,7.60818,0.0,0.0
192,47.75,35.9867,36.8397,137.602,113.239,47.8562,0.0189096,0.564514,20.1331,30.2468,7.71485,0.0,0.0
204,50.75,40.3315,42.2995,133.756,113.274,43.0284,0.0266651,0.729547,19.893,29.5662,8.67018,0.0,0.0
216,53.75,44.9005,47.6358,131.579,113.301,42.2035,0.0342351,0.852614,19.7104,28.6954,8.84571,0.0,0.0
228,56.75,49.2355,53.3157,122.436,113.378,34.2469,0.0429477,1.01833,19.4288,28.6153,10.7229,0.0,0.0
240,59.75,55.0705,60.2554,121.418,113.392,32.9674,0.0498313,1.17143,19.2309,27.9648,11.0651,0.0,0.0
252,62.75,60.1415,66.5068,118.625,113.427,31.7975,0.0541611,1.2794,19.1078,27.3242,11.3916,0.0,0.0
264,65.75,65.1636,72.7668,116.996,113.476,26.5961,0.0586204,1.34999,19.0029,26.4935,12.9954,0.0,0.0
276,68.75,69.4884,77.9808,114.308,113.535,28.3815,0.0644299,1.42436,18.8776,25.6827,12.4181,0.0,0.0
288,71.75,74.9531,83.4585,125.61,113.539,29.4844,0.0689744,1.50556,18.7628,25.0522,12.077,0.0,0.0
300,74.75,79.9419,90.6327,113.535,113.58,24.5244,0.0749753,1.59475,18.6239,24.1814,13.73,0.0,0.0
312,77.75,85.428,97.4079,110.684,113.605,20.8074,0.0839996,1.7762,18.3264,23.661,15.2042,0.0,0.0
324,80.75,91.3992,105.169,113.663,113.667,22.8823,0.0902681,1.93793,18.1245,22.5099,14.3576,0.0,0.0
336,83.75,97.1951,112.55,101.403,113.697,24.0518,0.0944779,2.02023,18.0143,21.7493,13.9135,0.0,0.0
348,86.75,101.931,118.992,105.905,113.717,24.265,0.0999956,2.11971,17.8675,20.8585,13.8361,0.0,0.0
360,89.75,108.645,126.732,101.98,113.754,18.7556,0.105691,2.23674,17.7271,19.6074,16.1458,0.0,0.0
372,92.75,113.445,133.335,97.1553,113.764,20.695,0.112912,2.35479,17.5252,18.5765,15.2652,0.0,0.0
384,95.75,119.292,140.396,96.592,113.78,19.44,0.11957,2.47347,17.3621,17.4855,15.8268,0.0,0.0
396,98.75,124.042,147.598,96.6217,113.847,19.9598,0.12604,2.57999,17.213,16.2844,15.5958,0.0,0.0
408,101.75,129.513,154.504,91.5276,113.904,17.9436,0.133374,2.70154,17.0043,15.6138,16.5541,0.0,0.0
420,104.75,135.12,162.119,101.592,113.97,17.3198,0.141751,2.84451,16.8231,14.3827,16.8762,0.0,0.0
432,107.75,140.802,169.408,94.8578,114.031,13.1903,0.148285,2.94709,16.7001,13.4419,19.3207,0.0,0.0
444,110.75,146.351,176.48,92.3054,114.086,15.0465,0.154635,2.98659,16.6523,12.0006,18.1457,0.0,0.0
456,113.75,150.918,182.973,98.836,114.152,18.7954,0.158939,3.04584,16.5612,10.4693,16.1581,0.0,0.0
468,116.75,155.011,189.233,97.3301,114.221,18.5054,0.158409,3.0931,16.5001,9.38832,16.3028,0.0,0.0
480,119.75,160.262,195.083,99.0665,114.278,18.4781,0.159601,3.1264,16.4631,8.36741,16.3205,0.0,0.0
492,122.75,163.753,200.552,88.7608,114.34,17.3998,0.157834,3.13636,16.4608,7.69682,16.8639,0.0,0.0
504,125.75,167.333,205.275,100.914,114.388,15.8756,0.151501,3.04029,16.6267,6.39566,17.6889,0.0,0.0
516,128.75,168.862,207.45,97.7667,114.432,21.6911,0.142085,2.90681,16.7997,5.12454,14.8966,0.0,0.0
528,131.75,170.122,209.247,92.2512,114.496,20.4869,0.129234,2.73711,17.0131,4.31382,15.4132,0.0,0.0
540,134.75,170.754,209.126,103.535,114.516,22.3676,0.114706,2.52612,17.3667,3.39301,14.6281,0.0,0.0
552,137.75,169.863,207.308,113.712,114.541,25.0058,0.0963863,2.2047,17.8349,2.84252,13.6314,0.0,0.0
564,140.75,166.58,203.33,119.729,114.565,26.523,0.0777533,1.8441,18.3853,2.07183,13.1056,0.0,0.0
576,143.75,162.578,197.888,128.634,114.6,44.1914,0.0601846,1.46958,18.9,1.59141,8.53549,0.0,0.0
588,146.75,157.738,191.126,129.673,114.61,49.7373,0.0436962,1.16484,19.3694,1.12099,7.47729,0.0,0.0
600,149.75,151.848,183.942,142.647,114.636,66.6613,0.0306549,0.897286,19.7773,1.08096,4.85606,0.0,0.0
612,152.75,145.627,175.495,148.479,114.635,87.2203,0.0193363,0.644369,20.1378,1.00089,2.44812,0.0,0.0
624,155.75,138.477,165.959,152.661,114.676,105.836,0.0134637,0.420737,20.4614,0.550488,0.71849,0.0,0.0
636,158.75,131.345,157.181,154.841,114.686,105.76,0.0123035,0.261731,20.6902,0.560496,0.725757,0.0,0.0
648,161.75,124.795,149.049,155.596,114.684,108.469,0.0125998,0.169014,20.8254,1.18105,0.499034,0.0,0.0
660,164.75,118.941,141.056,154.315,114.714,108.671,0.0119588,0.121347,20.89,0.600532,0.484753,0.0,0.0
672,167.75,113.36,134.464,156.943,114.741,108.82,0.0111562,0.0972714,20.9236,0.760674,0.474581,0.0,0.0
684,170.75,107.609,127.796,155.82,114.757,108.594,0.0103582,0.0845855,20.9416,0.870771,0.494426,0.0,0.0
696,173.75,102.601,122.086,158.093,114.777,109.609,0.00902311,0.0763205,20.9529,0.920816,0.412708,0.0,0.0
708,176.75,98.8374,116.547,151.416,114.767,108.672,0.00765276,0.0710578,20.9589,1.04092,0.488828,0.0,0.0
720,179.75,94.3047,110.625,153.502,114.777,108.49,0.00558994,0.0674119,20.9625,1.23109,0.504555,0.0,0.0
732,182.75,91.3166,106.536,155.198,114.773,108.767,0.00359367,0.0639109,20.9681,0.730647,0.481457,0.0,0.0
744,185.75,87.218,102.105,156.771,114.784,108.611,0.00195796,0.0608911,20.9737,0.650576,0.495108,0.0,0.0
756,188.75,85.0417,97.6411,154.19,114.79,108.587,0.000598055,0.0582008,20.979,0.860762,0.497569,0.0,0.0
768,191.75,81.6121,94.3102,153.817,114.791,108.722,-0.000688825,0.0561071,20.9825,0.53047,0.486549,0.0,0.0
780,194.75,79.0702,90.5333,154.645,114.776,108.679,-0.00160302,0.0543413,20.9853,0.320284,0.488879,0.0,0.0
792,197.75,76.4063,87.1601,156.028,114.779,108.103,-0.00248981,0.0530481,20.9881,0.720638,0.53679,0.0,0.0
804,200.75,74.5328,84.0452,154.146,114.776,109.119,-0.00345417,0.0517558,20.9902,0.500443,0.452708,0.0,0.0
816,203.75,71.9506,81.0862,151.022,114.764,109.257,-0.00404544,0.0505771,20.9911,0.53047,0.440447,0.0,0.0
828,206.75,70.1278,78.5967,156.766,114.743,110.681,-0.00441677,0.0497195,20.9914,0.630558,0.322856,0.0,0.0
840,209.75,67.5901,75.6236,158.305,114.738,108.841,-0.00465977,0.0490378,20.9927,0.100089,0.47265,0.0,0.0
852,212.75,66.2852,73.5015,154.396,114.737,110.242,-0.00492215,0.0484196,20.9935,0.120106,0.357927,0.0,0.0
864,215.75,64.7185,70.9565,157.894,114.71,110.802,-0.00529557,0.047902,20.9941,0.290257,0.310521,0.0,0.0
876,218.75,62.6412,69.8057,153.67,114.704,109.595,-0.00539699,0.0473598,20.9949,0.950842,0.408148,0.0,0.0
888,221.75,61.5875,67.74,155.102,114.716,109.298,-0.0054585,0.0472594,20.9952,1.28113,0.433362,0.0,0.0
900,224.75,60.2307,66.127,158.139,114.707,109.787,-0.00545456,0.0471682,20.9962,0.400355,0.392623,0.0,0.0
912,227.75,59.0153,64.1138,155.411,114.676,110.662,-0.00532711,0.046946,20.9969,0.740656,0.319173,0.0,0.0
924,230.75,57.5401,62.227,152.188,114.686,109.766,-0.0053236,0.0468232,20.9971,0.320284,0.392741,0.0,0.0
936,233.75,57.0831,61.0464,154.762,114.668,109.382,-0.00550443,0.0466023,20.9985,1.17104,0.422795,0.0,0.0
948,236.75,55.2792,59.4498,158.223,114.668,110.084,-0.00565211,0.046292,20.998,0.550488,0.365419,0.0,0.0
960,239.75,54.4388,57.8916,155.634,114.656,109.992,-0.00555404,0.0463494,20.9974,0.88078,0.372029,0.0,0.0
972,242.75,53.2087,56.6436,154.354,114.664,109.601,-0.00560188,0.0462714,20.9972,0.640567,0.404494,0.0,0.0
984,245.75,52.8729,56.1769,156.431,114.638,110.453,-0.00588575,0.046272,20.9986,0.680603,0.333128,0.0,0.0
996,248.75,51.678,54.2436,155.62,114.633,109.659,-0.00569129,0.0460949,20.9969,0.70062,0.397308,0.0,0.0
1008,251.75,51.5204,54.311,156.263,114.603,109.829,-0.00532128,0.0460429,20.9959,0.680603,0.381064,0.0,0.0
1020,254.75,50.3521,52.621,154.031,114.597,111.298,-0.00533163,0.0461248,20.9956,0.710629,0.261638,0.0,0.0
1032,257.75,49.7246,51.7155,158.202,114.58,110.791,-0.00552833,0.0460092,20.995,0.950842,0.301232,0.0,0.0
1044,260.75,49.7061,51.6926,159.041,114.564,109.105,-0.00559982,0.0458207,20.9962,1.07095,0.43734,0.0,0.0
1056,263.75,49.0745,50.9038,159.426,114.558,109.899,-0.0057288,0.0456824,20.9967,0.560496,0.371876,0.0,0.0
1068,266.75,48.3954,49.5811,158.258,114.567,111.049,,0.0458013,,0.7907,0.279403,0.0,0.0
1080,269.75,47.6869,49.0506,157.446,114.556,111.2,,,,0.860762,0.266329,0.0,0.0
1092,272.75,47.0456,48.4942,156.886,114.557,111.226,,,,0.720638,0.264318,0.0,0.0
1102,275.25,47.1553,47.6837,159.087,114.539,110.864,,,,0.380337,0.29209,0.0,0.0