File: 01_Data/PlasticC/Cone/PlasticC_Cone_HF25Scalar_220218_R3.csv
LABORATORY,FSRI
TEST IDENT,PlasticC_HF25_3
OPERATOR,Dow
MATERIAL,Plastic C
ORIENTATION,Horizontal
HEAT FLUX,25
SURF AREA,0.01
C FACTOR,0.0385692
SPEC HOLDER DIFF,299.21
SPECIMEN MASS,31.1
SCAN TIME,0.25
O2 DELAY TIME,11
CO DELAY TIME,11
CO2 DELAY TIME,8
FLOW FACTOR,1
SCAN COUNT,1814
TIME TO IGN,147.25
END OF TEST SCAN,1334
END OF TEST TIME,333.5
TEST STATUS,1
PRE TEST CMT,Dimensions: 99.98 x 99.84 x 2.85 mm