File: 01_Data/PlasticC/Cone/PlasticC_Cone_HF25Scan_220218_R2.csv
Names,Time,Stack TC,Smoke TC,Exh Press,Smoke Comp,Smoke Meas,CO Meter,CO2 Meter,O2 Meter,Sample Mass,Ext Coeff,Start Test,Flame Verif
Chan Gain,,500,500,1,1,1,1,1,1,1,1,1.0,1.0
Offset,,0,0,0.134285,0,0,0,0,0,0,0,0.0,0.0
Gain,,1,1,25.011,13.3843,12.7012,1,1,1,1.00088,1.02252,1.0,1.0
Units,sec,C,C,Pa,%,%,%,%,%,g,/m,,
Baseline,,15.4065,16.0338,168.798,99.2083,95.68,-0.000279932,0.0425019,21.0257,-0.279161,0.324816,,
17,4,12.3979,12.5993,171.87,97.5634,94.0438,-0.000534118,0.0430569,21.0239,897.456,0.329563,0.0,0.0
34,8.25,11.9441,13.0975,168.968,97.4805,93.8918,-0.000515905,0.0431672,21.0235,897.716,0.33644,0.0,0.0
51,12.5,12.9061,13.0052,167.775,97.4389,94.0569,-0.000591748,0.0428446,21.0241,897.866,0.316845,0.0,0.0
68,16.75,13.1381,13.3379,165.067,97.4209,93.8965,-0.000285738,0.0427817,21.026,897.696,0.330507,0.0,0.0
85,21,12.6286,12.5081,171.371,97.4336,93.8612,-0.000291485,0.0425676,21.025,897.736,0.335042,0.0,0.0
102,25.25,12.8095,13.6558,169.716,97.5144,94.0794,-0.000266386,0.0423846,21.0246,897.766,0.321655,0.0,0.0
119,29.5,13.1869,13.7404,171.296,97.6125,94.081,-0.000284293,0.0422158,21.0246,897.646,0.330519,0.0,0.0
136,33.75,12.8957,13.4721,165.246,97.7166,94.0818,-0.000214022,0.0423027,21.0249,897.576,0.340011,0.0,0.0
153,38,12.6355,13.5887,171.992,97.8731,94.2314,-0.000368432,0.0422666,21.025,900.448,0.340106,0.0,0.0
170,42.25,13.2897,13.6968,172.191,98.0438,94.4368,-0.000483906,0.0423904,21.025,897.566,0.336207,0.0,0.0
187,46.5,13.4503,13.6698,168.571,98.2231,94.5167,-0.00032901,0.0422483,21.025,897.696,0.345016,0.0,0.0
204,50.75,13.4822,14.3205,169.948,98.4098,94.7085,-0.000253059,0.0422137,21.0255,897.696,0.343856,0.0,0.0
221,55,13.4903,14.004,170.819,98.6148,94.8333,-0.000143945,0.0422107,21.0258,897.566,0.350712,0.0,0.0
238,59.25,13.8432,14.4513,168.342,98.7949,94.9198,-0.000110825,0.0424443,21.0258,897.686,0.358909,0.0,0.0
255,63.5,13.39,14.0897,167.084,98.9689,95.0802,-0.000482063,0.0426262,21.0258,897.796,0.359542,0.0,0.0
272,67.75,13.9543,14.3002,171.717,99.0939,95.2291,-0.000566594,0.0427357,21.0258,897.686,0.356833,0.0,0.0
289,72,13.7518,14.3889,166.008,99.1952,95.3202,-0.00043892,0.0427003,21.0253,897.646,0.357422,0.0,0.0
306,76.25,13.8238,14.5263,168.587,99.2569,94.9078,-0.000303155,0.0426538,21.0254,897.536,0.401888,0.0,0.0
323,80.5,14.3392,14.9989,174.602,99.2908,95.0705,-0.000347971,0.0423786,21.0259,897.626,0.389579,0.0,0.0
340,84.75,14.1225,15.0701,167.865,99.3043,94.7643,-0.000367769,0.0422055,21.0254,897.896,0.419734,0.0,0.0
357,89,14.2301,14.8136,168.324,99.2916,94.5139,-0.000336069,0.0421823,21.0238,897.596,0.442321,0.0,0.0
374,93.25,13.9754,15.182,172.369,99.2655,95.057,-0.000374405,0.0421609,21.0242,897.636,0.388571,0.0,0.0
391,97.5,14.1366,14.9745,171.725,99.2295,94.4314,-0.000499047,0.042097,21.0243,897.456,0.444549,0.0,0.0
408,101.75,13.9534,14.4211,168.589,99.1593,94.2318,-0.000428041,0.0418334,21.024,897.646,0.457177,0.0,0.0
425,106,14.1663,15.0469,168.053,99.0825,94.3748,-0.000364859,0.0419896,21.0244,897.416,0.436625,0.0,0.0
442,110.25,14.0674,14.5337,170.189,99.0098,94.219,-0.000447069,0.0419646,21.0235,897.706,0.444862,0.0,0.0
459,114.5,14.5577,15.1594,174.147,98.9518,94.238,-0.00017329,0.04198,21.024,897.526,0.437799,0.0,0.0
476,118.75,14.737,15.3401,167.488,98.8828,93.5565,-0.000165817,0.042035,21.0242,897.636,0.496631,0.0,0.0
493,123,14.2501,15.5416,166.753,98.8162,93.4395,7.19998e-05,0.0420273,21.0251,897.626,0.50182,0.0,0.0
510,127.25,15.2667,15.4875,165.527,98.6941,93.1581,-3.96965e-05,0.0419218,21.026,897.636,0.517781,0.0,0.0
527,131.5,14.5506,15.752,169.593,98.5911,93.8162,-6.61712e-05,0.0421362,21.0247,897.516,0.445275,0.0,0.0
544,135.75,15.0524,15.596,166.252,98.5147,92.655,0.000330451,0.0476019,21.011,897.316,0.550043,0.0,0.0
561,140,15.1654,15.8031,157.601,98.5576,73.3171,0.00380757,0.113897,20.8713,897.336,2.6536,0.0,1.0
578,144.25,17.2105,18.3053,145.495,98.8382,52.9808,0.0122875,0.267514,20.5718,897.105,5.59297,0.0,0.0
595,148.5,21.5067,23.9861,145.791,99.0249,47.2062,0.0211915,0.467121,20.2107,896.425,6.64501,0.0,0.0
612,152.75,26.763,30.8359,126.087,99.1756,41.2242,0.0280068,0.656288,19.9617,895.484,7.87401,0.0,0.0
629,157,31.9961,37.0689,139.901,99.2688,38.9148,0.0327311,0.742667,19.8514,895.264,8.39952,0.0,0.0
646,161.25,37.0149,43.6454,132.577,99.2855,38.0257,0.0372393,0.851095,19.69,894.523,8.60836,0.0,0.0
663,165.5,41.7581,49.298,130.942,99.2753,34.0658,0.0412397,0.908514,19.6357,893.732,9.59378,0.0,0.0
680,169.75,46.7766,56.3868,125.916,99.23,33.7232,0.0465973,1.01909,19.4563,893.122,9.68035,0.0,0.0
697,174,51.8195,62.2856,125.354,99.1928,31.1851,0.0502134,1.08495,19.374,892.121,10.3788,0.0,0.0
714,178.25,56.8144,68.8931,130.353,99.1099,28.9754,0.0589367,1.20988,19.1462,891.37,11.0305,0.0,0.0
731,182.5,62.5581,76.5227,118.017,99.0339,28.8029,0.0630845,1.30318,19.0231,890.149,11.0772,0.0,0.0
748,186.75,67.6399,82.8897,125.379,98.9036,29.8107,0.0648077,1.37527,18.9368,888.858,10.7569,0.0,0.0
765,191,72.1387,89.0116,111.494,98.7958,27.53,0.0694971,1.4415,18.8109,888.028,11.461,0.0,0.0
782,195.25,77.2394,95.2696,110.484,98.6834,25.1977,0.074536,1.55307,18.6446,887.177,12.2448,0.0,0.0
799,199.5,83.2257,102.825,98.2967,98.7104,21.0518,0.0803629,1.68209,18.4824,886.096,13.8597,0.0,0.0
816,203.75,88.2588,109.064,124.598,98.7312,23.2597,0.0815645,1.7198,18.4616,884.905,12.967,0.0,0.0
833,208,92.2697,114.345,103.445,98.7402,22.6864,0.0852849,1.74795,18.392,883.484,13.1917,0.0,0.0
850,212.25,96.9601,120.083,111.637,98.75,23.2031,0.0872337,1.83554,18.2801,882.723,12.9906,0.0,0.0
867,216.5,101.784,126.248,107.934,98.7467,20.9553,0.0898495,1.8914,18.2089,881.252,13.9042,0.0,0.0
884,220.75,105.974,131.416,104.959,98.7467,25.1225,0.0899266,1.91875,18.2107,879.99,12.2774,0.0,0.0
901,225,108.958,135.265,123.516,98.7423,26.6617,0.0865681,1.86058,18.2744,878.829,11.7436,0.0,0.0
918,229.25,112.802,139.603,106.906,98.7369,21.7422,0.0900905,1.91652,18.1907,878.099,13.5727,0.0,0.0
935,233.5,115.525,143.124,101.821,98.7108,18.6971,0.0890275,1.89961,18.2265,877.058,14.9237,0.0,0.0
952,237.75,117.617,144.989,117.182,98.6928,25.4408,0.0866107,1.84117,18.3147,875.837,12.1596,0.0,0.0
969,242,119.739,147.688,121.925,98.7798,29.5649,0.0827639,1.82361,18.3854,874.356,10.8199,0.0,0.0
986,246.25,120.717,148.913,114.892,98.8501,25.019,0.0779883,1.71549,18.5601,873.164,12.3238,0.0,0.0
1003,250.5,121.934,149.091,109.863,98.9338,24.79,0.0775291,1.65537,18.6174,872.644,12.4139,0.0,0.0
1020,254.75,121.724,148.245,119.101,99.0363,34.986,0.070695,1.55134,18.8136,871.303,9.33309,0.0,0.0
1037,259,120.725,147.46,122.704,99.1258,29.5483,0.0676856,1.50138,18.8899,870.502,10.8564,0.0,0.0
1054,263.25,120.067,145.483,113.703,99.1969,29.7502,0.0613641,1.39822,19.0552,869.902,10.8017,0.0,0.0
1071,267.5,117.772,142.802,134.313,99.2353,40.6095,0.0526937,1.25019,19.3364,869.251,8.01417,0.0,0.0
1088,271.75,114.86,137.961,136.857,99.2643,35.9004,0.0435277,1.05406,19.626,868.62,9.1223,0.0,0.0
1105,276,110.445,131.908,147.931,99.2798,49.1346,0.0324071,0.835449,20.0013,867.74,6.30895,0.0,0.0
1122,280.25,103.88,123.705,156.383,99.2504,70.1286,0.0207957,0.585153,20.3608,867.81,3.11523,0.0,0.0
1139,284.5,98.2683,115.222,157.144,99.2124,87.4649,0.0121728,0.383817,20.6606,868.18,1.13039,0.0,0.0
1156,288.75,90.9324,106.455,161.217,99.1115,93.4953,0.00649457,0.232991,20.8704,867.97,0.523229,0.0,0.0
1173,293,84.8841,98.3142,158.189,99.0351,93.2375,0.00342373,0.150834,20.959,868.04,0.541076,0.0,0.0
1190,297.25,80.074,91.4428,160.027,98.9555,94.3004,0.00187874,0.110707,20.9925,867.55,0.432194,0.0,0.0
1207,301.5,74.6899,85.3957,162.371,98.8599,94.443,0.00104969,0.0893742,21.0049,867.98,0.409969,0.0,0.0
1224,305.75,70.4118,79.2653,164.419,98.8378,94.2504,0.000674065,0.0772119,21.0088,868.09,0.426282,0.0,0.0
1241,310,66.5638,73.8925,161.46,98.699,94.4678,0.000475686,0.0689562,21.0133,867.91,0.393,0.0,0.0
1258,314.25,63.082,69.4416,163.95,98.6299,94.2961,0.000529126,0.063549,21.0146,868.01,0.403042,0.0,0.0
1275,318.5,60.1864,65.3484,165.697,98.5874,94.193,0.00062597,0.0595227,21.0159,867.73,0.408991,0.0,0.0
1292,322.75,57.0058,61.6017,166.611,98.5229,94.6477,0.000230786,0.0567373,21.018,867.87,0.359926,0.0,0.0
1309,327,54.9469,58.1159,165.511,98.5372,94.4132,0.000267703,0.0543637,21.019,867.78,0.383479,0.0,0.0
1326,331.25,51.706,55.0114,163.535,98.4763,94.2186,0.000525391,0.0523802,21.0177,867.99,0.396442,0.0,0.0
1343,335.5,49.5888,52.1282,171.486,98.4425,94.6597,0.000355329,0.0509978,21.0184,867.51,0.35146,0.0,0.0
1360,339.75,47.5537,49.2601,167.027,98.4629,94.4632,0.000364703,0.0495911,21.0203,868.15,0.37196,0.0,0.0
1377,344,45.1618,46.2826,164.996,98.4441,94.393,0.000690559,0.0485474,21.0206,867.93,0.376913,0.0,0.0
1394,348.25,43.7766,44.3222,163.699,98.4629,93.7232,0.000589039,0.0477972,21.0207,867.81,0.442497,0.0,0.0
1411,352.5,42.2459,42.8441,161.03,98.4702,94.2744,0.000481061,0.0473764,21.02,868.03,0.390572,0.0,0.0
1428,356.75,41.2241,41.7577,168.947,98.4862,94.4283,0.00021869,0.0470366,21.0192,868.01,0.377395,0.0,0.0
1445,361,40.2346,40.2778,162.743,98.4866,94.4938,7.55742e-06,0.0467084,21.019,867.82,0.371212,0.0,0.0
1462,365.25,39.0418,39.2488,162.718,98.4955,94.1686,-0.000151678,0.0463871,21.019,868.13,0.402952,0.0,0.0
1479,369.5,37.7852,38.3039,172.229,98.5409,93.8333,1.84921e-05,0.0461759,21.0202,868.07,0.439072,0.0,0.0
1496,373.75,37.3575,36.9069,163.112,98.5466,94.2446,0.000170446,0.045834,21.0198,868.01,0.400367,0.0,0.0
1513,378,36.2216,36.0827,163.898,98.5348,94.2457,0.000157572,0.0456619,21.0208,868.17,0.399179,0.0,0.0
1530,382.25,35.9306,35.5273,164.151,98.5703,94.6023,5.18092e-05,0.0450458,21.0221,867.84,0.368538,0.0,0.0
1547,386.5,35.0507,34.3914,163.764,98.5891,94.1756,4.20847e-05,0.044967,21.0223,867.8,0.410801,0.0,0.0
1564,390.75,34.1603,33.4869,162.216,98.5854,94.7151,-0.00014112,0.0447027,21.0223,867.79,0.359226,0.0,0.0
1581,395,33.1665,32.6064,160.855,98.6095,94.8225,-0.000313638,0.0445894,21.0222,867.92,0.351256,0.0,0.0
1598,399.25,32.6074,31.4503,162.101,98.6479,94.2597,,0.0442929,,867.83,0.408144,0.0,0.0
1615,403.5,32.1276,31.1394,162.879,98.6728,94.7965,,,,867.98,0.35947,0.0,0.0
1632,407.75,31.53,30.6479,161.684,98.6765,94.876,,,,867.82,0.352289,0.0,0.0
1634,408.25,31.7687,30.3586,165.969,98.6892,94.962,,,,868,0.345309,0.0,0.0