File: 01_Data/Cotton_Shirt/STA/N2/10K_min/Cotton_Shirt_STA_N2_10KData_21237_R1.csv
##Temp./Â°C,Time/min,Mass loss(subtr.2)/mg,DSC(subtr.2)/(mW/mg),Sensit./(uV/mW)
49.474,10.00917,-0.02172,0.0291065,0.6184
52.174,12.30432,-0.01949153,0.06797446,0.61982
54.874,12.95102,-0.02102484,0.09099781,0.62122
57.574,13.468,-0.02139315,0.10565,0.6226
60.274,13.92518,-0.02102311,0.11794,0.62395
62.974,14.34503,-0.02210913,0.13373,0.62527
65.674,14.739,-0.02446015,0.1407,0.62657
68.374,15.1122,-0.0238943,0.1552,0.62784
71.074,15.46866,-0.02681299,0.16901,0.62909
73.774,15.8103,-0.0289703,0.18061,0.63031
76.474,16.14141,-0.03144142,0.19042,0.63151
79.174,16.46282,-0.03268079,0.19494,0.63268
81.874,16.77563,-0.03412672,0.20181,0.63382
84.574,17.08036,-0.03664998,0.20586,0.63494
87.274,17.37827,-0.03791619,0.21035,0.63604
89.974,17.67015,-0.03984127,0.2119,0.6371
92.674,17.9576,-0.04245316,0.21419,0.63815
95.374,18.23955,-0.04245974,0.20579,0.63916
98.074,18.51773,-0.04509644,0.20337,0.64015
100.774,18.79339,-0.04473611,0.1967,0.64112
103.474,19.06619,-0.04557579,0.18823,0.64206
106.174,19.33683,-0.04507682,0.17895,0.64297
108.874,19.6049,-0.04640958,0.17588,0.64386
111.574,19.87104,-0.04706132,0.16925,0.64473
114.274,20.1356,-0.04605108,0.16663,0.64556
116.974,20.39911,-0.04673998,0.16423,0.64638
119.674,20.66088,-0.04706011,0.15914,0.64716
122.374,20.9202,-0.04684292,0.15677,0.64792
125.074,21.17969,-0.04607719,0.15867,0.64866
127.774,21.43655,-0.0473968,0.16179,0.64937
130.474,21.6918,-0.04477619,0.16103,0.65006
133.174,21.94562,-0.04475,0.16147,0.65072
135.874,22.1984,-0.04607998,0.16156,0.65135
138.574,22.4495,-0.04476125,0.16343,0.65196
141.274,22.69906,-0.04574999,0.15954,0.65254
143.974,22.94807,-0.04607023,0.16469,0.6531
146.674,23.19576,-0.04574013,0.16271,0.65364
149.374,23.44294,-0.04609789,0.16495,0.65415
152.074,23.68955,-0.04540957,0.1604,0.65463
154.774,23.93489,-0.04580103,0.16041,0.65509
157.474,24.18073,-0.04575,0.15577,0.65553
160.174,24.42567,-0.04542127,0.15766,0.65594
162.874,24.6697,-0.04573801,0.15928,0.65632
165.574,24.91555,-0.04442998,0.16148,0.65668
168.274,25.16028,-0.04573608,0.16784,0.65702
170.974,25.40419,-0.04443001,0.16933,0.65733
173.674,25.64787,-0.04442728,0.17509,0.65762
176.374,25.89151,-0.04573994,0.18494,0.65788
179.074,26.13457,-0.04447626,0.18457,0.65812
181.774,26.37711,-0.04576114,0.18989,0.65834
184.474,26.61903,-0.04574015,0.19009,0.65853
187.174,26.86065,-0.0450867,0.19563,0.6587
189.874,27.10158,-0.04574911,0.20576,0.65884
192.574,27.34228,-0.04443,0.20998,0.65897
195.274,27.58329,-0.04440186,0.21523,0.65906
197.974,27.82364,-0.04329443,0.21807,0.65914
200.674,28.0645,-0.04084589,0.22334,0.65919
203.374,28.30475,-0.04399066,0.22005,0.65922
206.074,28.54522,-0.04458513,0.223,0.65922
208.774,28.78568,-0.04464736,0.2233,0.65921
211.474,29.02593,-0.04599566,0.22609,0.65917
214.174,29.26653,-0.04597005,0.22796,0.6591
216.874,29.50678,-0.04728196,0.22798,0.65902
219.574,29.7478,-0.04597879,0.2277,0.65891
222.274,29.9885,-0.04727995,0.22724,0.65878
224.974,30.22935,-0.04694999,0.22608,0.65863
227.674,30.46987,-0.04826006,0.22691,0.65846
230.374,30.7109,-0.04991003,0.22905,0.65826
233.074,30.95148,-0.0512299,0.23243,0.65805
235.774,31.1924,-0.05228217,0.23221,0.65781
238.474,31.4335,-0.05387,0.23235,0.65755
241.174,31.6742,-0.05779635,0.23775,0.65727
243.874,31.9154,-0.0604474,0.23809,0.65697
246.574,32.15602,-0.06328874,0.23767,0.65665
249.274,32.39817,-0.06593006,0.23827,0.65631
251.974,32.63949,-0.0685615,0.23759,0.65595
254.674,32.88109,-0.07546877,0.24281,0.65556
257.374,33.12285,-0.08011164,0.24703,0.65516
260.074,33.3639,-0.08613664,0.24878,0.65474
262.774,33.60565,-0.09430355,0.25623,0.6543
265.474,33.847,-0.10164,0.25744,0.65384
268.174,34.0885,-0.10997,0.26917,0.65336
270.874,34.3303,-0.12007,0.27808,0.65286
273.574,34.57247,-0.13198,0.28777,0.65234
276.274,34.8147,-0.14062,0.29197,0.6518
278.974,35.05737,-0.15531,0.3011,0.65124
281.674,35.29954,-0.16796,0.30851,0.65067
284.374,35.54242,-0.18121,0.31868,0.65007
287.074,35.78521,-0.19662,0.32782,0.64946
289.774,36.02859,-0.21592,0.33817,0.64883
292.474,36.27173,-0.23428,0.347,0.64819
295.174,36.5154,-0.25433,0.36287,0.64752
297.874,36.75922,-0.27565,0.37535,0.64684
300.574,37.00329,-0.30287,0.39194,0.64614
303.274,37.248,-0.3303,0.40634,0.64543
305.974,37.4931,-0.35976,0.42502,0.64469
308.674,37.7378,-0.39199,0.44518,0.64394
311.374,37.98278,-0.42707,0.46775,0.64318
314.074,38.2279,-0.46955,0.49331,0.6424
316.774,38.4732,-0.51197,0.52211,0.6416
319.474,38.7183,-0.5606,0.55842,0.64079
322.174,38.96306,-0.61501,0.60117,0.63996
324.874,39.2095,-0.6749,0.65103,0.63912
327.574,39.45537,-0.74337,0.71437,0.63826
330.274,39.70213,-0.82156,0.7879,0.63739
332.974,39.94834,-0.90709,0.87301,0.6365
335.674,40.19498,-1.00801,0.97439,0.6356
338.374,40.44229,-1.12268,1.09241,0.63468
341.074,40.69005,-1.2495,1.2186,0.63375
343.774,40.93845,-1.39826,1.34907,0.6328
346.474,41.18694,-1.55994,1.47324,0.63185
349.174,41.43615,-1.73989,1.57598,0.63088
351.874,41.68526,-1.93199,1.63475,0.62989
354.574,41.93508,-2.12393,1.63851,0.62889
357.274,42.18459,-2.31301,1.5641,0.62788
359.974,42.43372,-2.48911,1.4191,0.62686
362.674,42.6825,-2.64344,1.20247,0.62583
365.374,42.9308,-2.76657,0.94147,0.62478
368.074,43.1792,-2.86107,0.68012,0.62372
370.774,43.42754,-2.93106,0.4603,0.62265
373.474,43.67627,-2.9758,0.2985,0.62157
376.174,43.92487,-3.00699,0.16673,0.62048
378.874,44.17455,-3.02687,0.0797307,0.61937
381.574,44.42399,-3.03848,0.03128391,0.61826
384.274,44.67405,-3.04646,0.002502692,0.61713
386.974,44.92451,-3.05082,-0.01183287,0.616
389.674,45.17584,-3.05521,-0.01873592,0.61485
392.374,45.42711,-3.06043,-0.02035261,0.6137
395.074,45.67895,-3.06321,-0.02768371,0.61253
397.774,45.93067,-3.06853,-0.0224986,0.61136
400.474,46.1831,-3.07233,-0.02864184,0.61018
403.174,46.43593,-3.07376,-0.02939054,0.60898
405.874,46.68886,-3.07736,-0.02626628,0.60778
408.574,46.94228,-3.08175,-0.02505113,0.60657
411.274,47.19604,-3.08402,-0.02606495,0.60535
413.974,47.4505,-3.08657,-0.03123011,0.60413
416.674,47.70513,-3.08974,-0.02551697,0.60289
419.374,47.96024,-3.09415,-0.02316039,0.60165
422.074,48.21532,-3.09751,-0.02676409,0.6004
424.774,48.47054,-3.10093,-0.03192287,0.59915
427.474,48.72625,-3.10281,-0.03116303,0.59788
430.174,48.98169,-3.10545,-0.0320216,0.59661
432.874,49.23707,-3.10872,-0.03445873,0.59534
435.574,49.49395,-3.11261,-0.03673176,0.59405
438.274,49.75007,-3.11465,-0.03728012,0.59276
440.974,50.00679,-3.11864,-0.03634923,0.59147
443.674,50.26357,-3.12093,-0.03455054,0.59017
446.374,50.52101,-3.12309,-0.03529241,0.58886
449.074,50.77892,-3.12594,-0.03451768,0.58755
451.774,51.03632,-3.12727,-0.0355072,0.58623
454.474,51.29442,-3.1299,-0.03502074,0.58491
457.174,51.55213,-3.13255,-0.04012111,0.58359
459.874,51.80989,-3.13873,-0.04068724,0.58225
462.574,52.0681,-3.13747,-0.03687622,0.58092
465.274,52.32656,-3.1401,-0.03236453,0.57958
467.974,52.58562,-3.14405,-0.02942204,0.57824
470.674,52.84519,-3.14404,-0.03077183,0.57689
473.374,53.1048,-3.1469,-0.02516781,0.57554
476.074,53.36472,-3.1521,-0.02440731,0.57418
478.774,53.6253,-3.15216,-0.02549921,0.57283
481.474,53.8866,-3.1548,-0.02039585,0.57147
484.174,54.14745,-3.15743,-0.02486892,0.57011
486.874,54.4084,-3.15875,-0.02206537,0.56874
489.574,54.67031,-3.15875,-0.02486094,0.56737
492.274,54.9314,-3.16274,-0.02614618,0.566
494.974,55.1929,-3.1653,-0.02524127,0.56463
497.674,55.45548,-3.16532,-0.02235279,0.56326
500.374,55.71728,-3.16763,-0.01531164,0.56189
503.074,55.97976,-3.16796,-0.01532079,0.56051
505.774,56.2425,-3.16894,-0.01931812,0.55913
508.474,56.50513,-3.17031,-0.01628574,0.55775
511.174,56.7684,-3.17123,-0.02117553,0.55638
513.874,57.0312,-3.17454,-0.02001892,0.555
516.574,57.2946,-3.17587,-0.01683443,0.55362
519.274,57.55806,-3.1771,-0.02687246,0.55224
521.974,57.8224,-3.17849,-0.0233716,0.55085
524.674,58.0868,-3.17716,-0.02796283,0.54947
527.374,58.35145,-3.1811,-0.02604597,0.54809
530.074,58.61558,-3.18112,-0.02873733,0.54671
532.774,58.88029,-3.18287,-0.02960665,0.54534
535.474,59.1452,-3.18288,-0.02430519,0.54396
538.174,59.4106,-3.18294,-0.02732574,0.54258
540.874,59.67559,-3.18672,-0.02783475,0.5412
543.574,59.9412,-3.18742,-0.03022971,0.53983
546.274,60.2067,-3.18878,-0.03012358,0.53845
548.974,60.472,-3.18869,-0.03564946,0.53708
551.674,60.7373,-3.1887,-0.03280621,0.53571
554.374,61.00317,-3.19097,-0.03410454,0.53434
557.074,61.2697,-3.191,-0.02998548,0.53297
559.774,61.5362,-3.1919,-0.02473714,0.53161
562.474,61.80276,-3.19317,-0.03011646,0.53024
565.174,62.06975,-3.19385,-0.030043,0.52888
567.874,62.33724,-3.1945,-0.02411692,0.52753
570.574,62.6053,-3.19681,-0.0210173,0.52617
573.274,62.8732,-3.19883,-0.0170429,0.52482
575.974,63.1415,-3.1953,-0.02054088,0.52347
578.674,63.4097,-3.19922,-0.01049361,0.52212
581.374,63.6784,-3.19922,-0.009077242,0.52078
584.074,63.9475,-3.20054,-0.008366968,0.51944
586.774,64.21616,-3.20054,-0.007592595,0.5181
589.474,64.48559,-3.20185,-0.00395503,0.51677
592.174,64.75415,-3.20184,-0.00916928,0.51544
594.874,65.02282,-3.20314,-0.00535032,0.51412
597.574,65.2924,-3.20219,-0.001083023,0.5128
600.274,65.56225,-3.20349,0.004127876,0.51148
602.974,65.8323,-3.20494,0.008256154,0.51017
605.674,66.1027,-3.2046,0.0127127,0.50886
608.374,66.37324,-3.20491,0.01430549,0.50755
611.074,66.6433,-3.20631,0.01584767,0.50625
613.774,66.91368,-3.2069,0.01118555,0.50496
616.474,67.18494,-3.20591,0.02753465,0.50367
619.174,67.45614,-3.2079,0.03012436,0.50238
621.874,67.72754,-3.21641,0.03584186,0.5011
624.574,67.99869,-3.19137,0.04874833,0.49982
627.274,68.27,-3.20821,0.05189249,0.49855
629.974,68.54172,-3.20954,0.05385711,0.49729
632.674,68.81393,-3.20823,0.05832222,0.49603
635.374,69.08532,-3.20855,0.06420106,0.49477
638.074,69.35792,-3.20986,0.06482877,0.49352
640.774,69.6301,-3.21118,0.0626451,0.49228
643.474,69.90225,-3.21075,0.07290378,0.49104
644.374,69.9928,-3.21346,0.07246858,0.49063