File: 01_Data/Rubber_Band/MCC/Rubber_Band_MCC_30K_min_220208_R1.txt
Sample ID:	C:\MCC\MCC Cal\Test\Rubber_Band_MCC_30K_min_220208_R1.txt
Sample Weight (mg):	4.2
Heating Rate (C/s):	0.5
Combustor Temp (C):	900
N2 Flow Rate (cc/min):	80
O2 Flow Rate (cc/min):	20
Calibration File:	C:\MCC\MCC Cal\Coeff1 JN10440_30_210304.txt.txt
T Correction Coefficients:	0	1.024463	0
Time Shift (s):	14
*
Time (s)	Temperature (C)	N2 flow rate (cc/min)	O2 flow rate (cc/min)	Flow Rate (cc/min)	Oxygen (%)	HRR (W/g)	Heating rate (C/s)
0.000	111.971	80.011	19.993	103.713	20.005	-0.369	0.006
8.000	112.046	80.012	19.992	103.712	20.002	-0.141	0.012
15.999	112.082	80.010	19.993	103.765	19.995	0.418	0.010
23.999	112.353	80.009	19.993	103.806	19.989	0.870	0.043
31.999	112.830	80.008	19.994	103.855	19.977	1.843	0.087
40.000	113.669	80.008	19.995	103.853	19.973	2.155	0.095
47.999	114.812	80.008	19.993	103.899	19.965	2.706	0.157
55.999	116.371	80.008	19.994	103.890	19.962	2.997	0.211
64.000	118.199	80.009	19.995	103.948	19.956	3.420	0.247
71.999	120.361	80.010	19.993	103.958	19.954	3.552	0.282
79.999	122.747	80.011	19.994	103.946	19.953	3.681	0.303
87.999	125.470	80.011	19.993	103.954	19.950	3.894	0.315
95.999	128.401	80.009	19.993	103.959	19.944	4.323	0.373
103.999	131.456	80.010	19.994	103.958	19.942	4.521	0.373
111.999	134.723	80.009	19.993	103.961	19.944	4.382	0.417
119.999	138.163	80.008	19.994	103.972	19.935	5.065	0.423
128.000	141.706	80.008	19.993	103.960	19.935	5.016	0.428
136.000	145.412	80.009	19.993	103.958	19.931	5.388	0.463
144.000	149.168	80.010	19.993	103.980	19.931	5.338	0.467
152.000	153.047	80.010	19.996	103.961	19.923	6.012	0.455
160.000	156.972	80.011	19.996	103.946	19.921	6.153	0.471
168.000	160.913	80.011	19.993	104.026	19.916	6.524	0.511
176.000	164.968	80.010	19.994	103.959	19.910	6.960	0.501
184.000	168.970	80.009	19.993	103.949	19.906	7.287	0.530
192.000	173.027	80.007	19.994	103.941	19.900	7.765	0.515
200.000	177.093	80.009	19.994	103.938	19.890	8.556	0.514
208.000	181.109	80.007	19.992	103.942	19.883	9.057	0.497
216.000	185.115	80.010	19.994	103.924	19.864	10.503	0.515
224.000	189.155	80.011	19.993	103.943	19.855	11.242	0.508
232.000	193.109	80.010	19.995	103.940	19.840	12.382	0.523
240.000	197.078	80.008	19.994	103.914	19.827	13.400	0.503
248.000	201.077	80.011	19.994	103.913	19.811	14.628	0.523
256.000	205.023	80.011	19.994	103.902	19.791	16.163	0.457
264.000	209.029	80.007	19.994	103.903	19.781	16.946	0.517
272.000	212.958	80.008	19.994	103.896	19.769	17.870	0.490
280.000	216.895	80.009	19.994	103.897	19.755	18.970	0.499
288.000	220.852	80.009	19.993	103.890	19.746	19.659	0.511
296.000	224.776	80.009	19.993	103.905	19.738	20.251	0.500
304.000	228.769	80.010	19.994	103.905	19.740	20.073	0.492
312.000	232.775	80.010	19.993	103.884	19.741	20.042	0.474
320.000	236.836	80.009	19.994	103.903	19.744	19.756	0.501
328.000	240.838	80.011	19.994	103.875	19.751	19.240	0.474
336.000	244.897	80.011	19.994	103.877	19.763	18.285	0.510
344.000	248.904	80.008	19.994	103.881	19.774	17.492	0.505
352.000	252.959	80.008	19.994	103.895	19.788	16.356	0.508
360.000	257.008	80.010	19.994	103.868	19.799	15.517	0.516
368.000	261.011	80.010	19.993	103.874	19.814	14.403	0.499
376.000	264.982	80.007	19.994	103.880	19.819	13.981	0.504
384.000	268.980	80.008	19.993	103.878	19.830	13.178	0.498
392.000	273.007	80.011	19.993	103.872	19.838	12.557	0.471
400.000	277.043	80.011	19.992	103.878	19.849	11.693	0.510
408.000	281.074	80.010	19.993	103.886	19.845	12.025	0.534
416.000	285.077	80.008	19.994	103.875	19.846	11.935	0.509
424.000	289.057	80.012	19.993	103.882	19.841	12.314	0.543
432.000	293.070	80.010	19.994	103.871	19.834	12.813	0.501
440.000	297.165	80.008	19.994	103.883	19.831	13.076	0.544
448.000	301.158	80.010	19.995	103.874	19.817	14.154	0.527
456.000	305.198	80.005	19.993	103.868	19.807	14.907	0.490
464.000	309.258	80.008	19.994	103.877	19.793	16.012	0.476
472.000	313.312	80.011	19.994	103.875	19.778	17.181	0.492
480.000	317.339	80.012	19.993	103.865	19.742	19.917	0.508
488.000	321.332	80.011	19.994	103.866	19.714	22.131	0.470
496.000	325.404	80.011	19.994	103.866	19.678	24.897	0.552
504.000	329.367	80.011	19.992	103.867	19.624	29.013	0.518
512.000	333.514	80.011	19.993	103.867	19.569	33.307	0.507
520.000	337.628	80.010	19.995	103.869	19.485	39.734	0.522
528.000	341.675	80.009	19.993	103.859	19.398	46.443	0.526
536.000	345.706	80.009	19.996	103.856	19.288	54.940	0.509
544.000	349.829	80.009	19.993	103.853	19.154	65.293	0.511
552.000	353.926	80.010	19.995	103.841	18.993	77.692	0.505
560.000	358.048	80.012	19.993	103.823	18.825	90.641	0.547
568.000	362.016	80.011	19.993	103.810	18.649	104.200	0.508
576.000	366.032	80.011	19.994	103.792	18.474	117.674	0.516
584.000	370.083	80.011	19.992	103.783	18.342	127.850	0.510
592.000	374.148	80.011	19.994	103.763	18.255	134.486	0.515
600.000	378.180	80.008	19.994	103.751	18.230	136.433	0.510
608.000	382.245	80.009	19.993	103.746	18.286	132.125	0.517
616.000	386.248	80.010	19.995	103.744	18.387	124.385	0.464
624.000	390.301	80.010	19.994	103.748	18.548	111.986	0.497
632.000	394.416	80.008	19.995	103.754	18.714	99.180	0.527
640.000	398.488	80.008	19.994	103.782	18.869	87.224	0.522
648.000	402.477	80.010	19.995	103.801	18.997	77.404	0.466
656.000	406.543	80.009	19.994	103.808	19.102	69.309	0.524
664.000	410.589	80.011	19.995	103.818	19.165	64.391	0.500
672.000	414.590	80.012	19.993	103.816	19.212	60.839	0.479
680.000	418.625	80.009	19.992	103.826	19.240	58.644	0.542
688.000	422.649	80.011	19.993	103.817	19.266	56.639	0.479
696.000	426.762	80.010	19.994	103.826	19.270	56.317	0.522
704.000	430.841	80.009	19.993	103.830	19.275	55.927	0.525
712.000	434.930	80.009	19.995	103.831	19.281	55.520	0.499
720.000	439.012	80.009	19.994	103.833	19.282	55.439	0.502
728.000	443.074	80.012	19.993	103.830	19.291	54.697	0.533
736.000	447.101	80.009	19.994	103.829	19.304	53.707	0.501
744.000	451.184	80.010	19.994	103.846	19.328	51.847	0.535
752.000	455.252	80.013	19.994	103.825	19.368	48.766	0.531
760.000	459.337	80.012	19.995	103.823	19.423	44.549	0.545
768.000	463.395	80.009	19.994	103.851	19.483	39.906	0.482
776.000	467.470	80.009	19.992	103.836	19.556	34.299	0.484
784.000	471.546	80.010	19.994	103.838	19.633	28.375	0.529
792.000	475.634	80.009	19.993	103.858	19.706	22.723	0.492
800.000	479.713	80.011	19.993	103.838	19.768	17.902	0.558
808.000	483.742	80.010	19.993	103.841	19.813	14.455	0.500
816.000	487.869	80.010	19.994	103.835	19.835	12.773	0.512
824.000	491.927	80.012	19.993	103.848	19.852	11.464	0.496
832.000	496.093	80.011	19.995	103.846	19.864	10.528	0.527
840.000	500.152	80.012	19.993	103.859	19.870	10.083	0.515
848.000	504.249	80.009	19.993	103.851	19.880	9.325	0.500
856.000	508.358	80.010	19.995	103.841	19.873	9.852	0.532
864.000	512.435	80.011	19.993	103.854	19.878	9.474	0.523
872.000	516.597	80.011	19.994	103.855	19.876	9.596	0.515
880.000	520.721	80.009	19.994	103.847	19.874	9.767	0.494
888.000	524.925	80.012	19.994	103.857	19.874	9.776	0.497
896.000	529.088	80.013	19.994	103.860	19.877	9.517	0.546
904.000	533.265	80.010	19.993	103.840	19.870	10.079	0.504
912.000	537.524	80.011	19.994	103.848	19.871	9.992	0.515
920.000	541.673	80.013	19.994	103.838	19.875	9.691	0.545
928.000	545.733	80.010	19.993	103.845	19.876	9.595	0.504
936.000	549.871	80.008	19.995	103.845	19.873	9.855	0.534
944.000	553.959	80.009	19.994	103.839	19.873	9.816	0.495
952.000	558.125	80.009	19.994	103.854	19.874	9.780	0.509
960.000	562.261	80.011	19.993	103.848	19.871	10.009	0.508
968.000	566.391	80.009	19.994	103.855	19.875	9.685	0.512
976.000	570.451	80.011	19.994	103.839	19.867	10.310	0.493
984.000	574.641	80.011	19.994	103.851	19.870	10.092	0.542
992.000	578.761	80.010	19.993	103.867	19.869	10.143	0.545
1000.000	582.900	80.012	19.993	103.842	19.862	10.716	0.547
1008.000	586.905	80.013	19.994	103.837	19.866	10.341	0.507
1016.000	591.025	80.010	19.995	103.847	19.861	10.726	0.500
1024.000	595.172	80.011	19.995	103.852	19.862	10.671	0.519
1032.000	599.227	80.011	19.995	103.845	19.859	10.877	0.502
1039.999	603.276	80.009	19.994	103.850	19.862	10.652	0.492
1047.999	607.338	80.011	19.994	103.844	19.858	11.011	0.517
1055.999	611.411	80.011	19.994	103.862	19.859	10.912	0.502
1063.999	615.510	80.012	19.993	103.844	19.857	11.044	0.500
1072.000	619.619	80.010	19.993	103.856	19.851	11.519	0.524
1079.999	623.756	80.012	19.993	103.854	19.858	10.984	0.554
1087.999	627.783	80.013	19.993	103.854	19.856	11.111	0.482
1095.999	631.928	80.012	19.994	103.862	19.859	10.917	0.464
1104.000	636.145	80.010	19.994	103.865	19.851	11.515	0.547
1112.000	640.197	80.009	19.992	103.864	19.855	11.216	0.517
1120.000	644.214	80.010	19.993	103.862	19.856	11.179	0.451
1128.000	648.343	80.010	19.993	103.865	19.857	11.063	0.493
1135.999	652.458	80.009	19.996	103.868	19.857	11.059	0.490
1143.999	656.586	80.011	19.994	103.866	19.854	11.324	0.499
1152.000	660.693	80.011	19.993	103.879	19.853	11.398	0.512
1159.999	664.663	80.012	19.994	103.868	19.843	12.126	0.474
1168.000	668.713	80.012	19.994	103.877	19.846	11.929	0.507
1175.999	672.737	80.013	19.992	103.869	19.842	12.196	0.548
1183.999	676.749	80.011	19.994	103.874	19.843	12.145	0.477
1191.999	680.809	80.011	19.994	103.894	19.841	12.341	0.523
1199.999	684.828	80.010	19.993	103.892	19.840	12.358	0.508
1207.999	688.809	80.010	19.994	103.901	19.836	12.721	0.510
1215.999	692.784	80.009	19.994	103.904	19.830	13.175	0.503
1223.999	696.853	80.011	19.994	103.905	19.831	13.083	0.518
1231.999	700.862	80.012	19.994	103.915	19.828	13.293	0.512
1239.999	704.922	80.010	19.995	103.913	19.824	13.630	0.475
1248.000	708.975	80.011	19.993	103.945	19.824	13.607	0.505
1255.999	713.023	80.014	19.993	103.937	19.827	13.412	0.520
1264.000	717.198	80.011	19.993	103.941	19.827	13.367	0.537
1272.000	721.258	80.010	19.993	103.935	19.824	13.594	0.517
1280.000	725.400	80.012	19.994	103.910	19.824	13.631	0.511
1287.999	729.435	80.012	19.993	103.901	19.827	13.349	0.499
1295.999	733.536	80.010	19.994	103.864	19.833	12.906	0.525
1303.999	737.588	80.010	19.994	103.864	19.833	12.880	0.508
1312.000	741.658	80.012	19.995	103.863	19.835	12.780	0.477
1319.500	745.361	80.011	19.994	103.835	19.836	12.719	0.496