File: 01_Data/Laminate_Flooring/HFM/Laminate_Flooring_Density_Wet_R2.csv
,Laminate_Flooring_2_WET
Sample Mass [g],
Sample Volume [cm3],
Sample Density [kg/m3],1997