File: 01_Data/Laminate_Flooring/HFM/Laminate_Flooring_Density_Wet_R1.csv
,Laminate_Flooring_1_WET
Sample Mass [g],
Sample Volume [cm3],
Sample Density [kg/m3],2007