File: 01_Data/Polyester_Bed_Skirt/MCC/Polyester_Bed_Skirt_MCC_30K_min_211208_R2.txt
Sample ID:	C:\MCC\MCC Cal\Test\Polyester_Bed_Skirt_MCC_30K_min_211208_R2.txt
Sample Weight (mg):	4.59
Heating Rate (C/s):	0.5
Combustor Temp (C):	900
N2 Flow Rate (cc/min):	80
O2 Flow Rate (cc/min):	20
Calibration File:	C:\MCC\MCC Cal\Coeff1 JN10440_30_210304.txt.txt
T Correction Coefficients:	0	1.024463	0
Time Shift (s):	14
*
Time (s)	Temperature (C)	N2 flow rate (cc/min)	O2 flow rate (cc/min)	Flow Rate (cc/min)	Oxygen (%)	HRR (W/g)	Heating rate (C/s)
0.000	110.373	80.007	19.994	103.094	20.112	-0.031	-0.025
8.000	110.402	80.006	19.993	103.096	20.116	-0.307	0.006
16.000	110.389	80.009	19.994	103.091	20.117	-0.410	0.018
24.000	110.383	80.008	19.995	103.090	20.117	-0.412	0.016
32.000	110.392	80.008	19.994	103.089	20.112	-0.033	-0.021
40.000	110.345	80.009	19.994	103.096	20.114	-0.147	0.017
48.000	110.474	80.008	19.994	103.202	20.096	1.124	0.042
56.001	111.007	80.007	19.995	103.288	20.081	2.146	0.076
64.000	112.070	80.009	19.994	103.275	20.081	2.152	0.174
72.000	113.408	80.009	19.994	103.259	20.084	1.945	0.177
80.001	115.009	80.006	19.994	103.257	20.084	1.934	0.219
88.001	116.869	80.008	19.994	103.291	20.078	2.345	0.256
96.001	119.006	80.009	19.994	103.312	20.075	2.557	0.207
104.000	121.304	80.009	19.993	103.325	20.075	2.588	0.334
112.000	124.056	80.007	19.993	103.317	20.075	2.533	0.335
120.000	126.996	80.007	19.994	103.331	20.073	2.739	0.358
128.000	130.070	80.008	19.994	103.328	20.068	3.036	0.366
136.000	133.427	80.008	19.994	103.337	20.066	3.216	0.429
144.000	136.898	80.008	19.995	103.338	20.070	2.925	0.447
152.000	140.583	80.009	19.995	103.339	20.070	2.902	0.453
160.000	144.392	80.008	19.994	103.324	20.064	3.371	0.488
168.000	148.206	80.008	19.994	103.325	20.060	3.588	0.467
176.000	152.150	80.009	19.994	103.323	20.070	2.917	0.506
184.000	156.079	80.006	19.995	103.325	20.071	2.869	0.519
192.000	160.118	80.006	19.995	103.324	20.072	2.799	0.506
200.000	164.191	80.006	19.995	103.323	20.071	2.826	0.518
208.000	168.227	80.007	19.995	103.317	20.074	2.655	0.472
216.000	172.291	80.007	19.996	103.315	20.077	2.405	0.482
224.000	176.338	80.008	19.994	103.288	20.080	2.224	0.503
232.001	180.354	80.009	19.993	103.287	20.076	2.523	0.499
240.001	184.369	80.007	19.994	103.282	20.079	2.251	0.486
248.000	188.358	80.007	19.995	103.284	20.083	1.994	0.535
256.000	192.342	80.008	19.995	103.283	20.084	1.899	0.484
264.000	196.299	80.006	19.994	103.286	20.087	1.726	0.499
272.000	200.231	80.006	19.994	103.285	20.084	1.910	0.453
280.001	204.211	80.006	19.995	103.279	20.084	1.920	0.500
288.000	208.181	80.007	19.993	103.277	20.087	1.745	0.489
296.000	212.128	80.008	19.994	103.272	20.089	1.567	0.506
304.000	216.093	80.007	19.994	103.267	20.086	1.763	0.474
312.000	219.994	80.005	19.994	103.260	20.089	1.588	0.458
320.000	223.991	80.008	19.995	103.266	20.093	1.302	0.490
328.000	227.981	80.007	19.994	103.255	20.090	1.534	0.510
336.000	231.951	80.007	19.996	103.249	20.090	1.495	0.463
344.000	236.001	80.005	19.994	103.255	20.093	1.286	0.537
352.000	239.966	80.006	19.994	103.244	20.093	1.294	0.480
360.000	243.944	80.006	19.995	103.245	20.094	1.209	0.519
368.000	248.006	80.006	19.995	103.245	20.096	1.073	0.525
376.000	252.039	80.008	19.994	103.248	20.099	0.910	0.510
384.000	255.940	80.010	19.995	103.248	20.100	0.821	0.477
392.000	259.909	80.008	19.995	103.250	20.099	0.908	0.501
400.000	263.871	80.010	19.994	103.250	20.102	0.689	0.497
408.000	267.929	80.010	19.994	103.242	20.099	0.846	0.538
416.000	271.972	80.007	19.994	103.244	20.101	0.715	0.498
424.000	275.972	80.008	19.994	103.231	20.103	0.575	0.503
432.000	280.010	80.007	19.995	103.232	20.108	0.273	0.502
440.000	284.091	80.008	19.996	103.231	20.107	0.327	0.522
448.000	288.062	80.008	19.994	103.227	20.108	0.256	0.467
456.000	292.158	80.008	19.994	103.228	20.111	0.039	0.525
464.000	296.219	80.009	19.997	103.229	20.108	0.269	0.475
472.000	300.240	80.007	19.995	103.227	20.107	0.323	0.502
480.000	304.338	80.011	19.994	103.216	20.107	0.300	0.513
488.000	308.331	80.011	19.995	103.224	20.111	0.050	0.510
496.000	312.415	80.008	19.994	103.215	20.108	0.275	0.534
504.000	316.485	80.007	19.996	103.214	20.114	-0.147	0.534
512.000	320.509	80.010	19.994	103.209	20.109	0.211	0.514
520.000	324.508	80.008	19.992	103.210	20.110	0.081	0.464
528.000	328.491	80.007	19.996	103.211	20.110	0.081	0.510
536.000	332.487	80.007	19.994	103.211	20.108	0.240	0.462
544.000	336.512	80.010	19.993	103.205	20.108	0.252	0.501
552.000	340.526	80.008	19.995	103.204	20.107	0.288	0.484
560.000	344.511	80.009	19.996	103.319	20.117	-0.356	0.501
568.000	348.542	80.012	19.996	103.204	20.108	0.275	0.519
576.000	352.565	80.007	19.992	103.209	20.110	0.093	0.478
584.000	356.615	80.008	19.994	103.207	20.107	0.327	0.500
592.000	360.659	80.006	19.994	103.185	20.101	0.707	0.494
600.000	364.719	80.007	19.995	103.197	20.095	1.148	0.540
608.000	368.808	80.007	19.995	103.203	20.093	1.282	0.516
616.000	372.901	80.006	19.995	103.208	20.080	2.196	0.541
624.000	377.014	80.006	19.995	103.207	20.059	3.671	0.520
632.000	381.104	80.007	19.995	103.209	20.030	5.717	0.514
640.000	385.307	80.007	19.995	103.212	20.002	7.678	0.516
648.000	389.410	80.009	19.993	103.248	19.966	10.188	0.489
656.000	393.566	80.008	19.994	103.271	19.911	14.073	0.526
664.000	397.678	80.006	19.995	103.289	19.828	19.893	0.499
672.000	401.790	80.007	19.998	103.313	19.731	26.713	0.527
680.000	405.882	80.008	19.994	103.325	19.632	33.688	0.527
688.000	409.974	80.007	19.995	103.372	19.530	40.906	0.526
696.000	414.015	80.007	19.997	103.398	19.394	50.499	0.507
704.000	417.989	80.008	19.994	103.475	19.229	62.115	0.482
712.000	422.022	80.007	19.993	103.547	19.035	75.868	0.514
720.000	426.055	80.006	19.995	103.643	18.784	93.640	0.515
728.000	430.050	80.009	19.994	103.732	18.514	112.777	0.495
736.000	434.038	80.009	19.994	103.826	18.219	133.706	0.512
744.000	438.092	80.007	19.995	103.890	18.026	147.471	0.474
752.000	442.141	80.006	19.996	104.014	17.854	159.690	0.506
760.000	446.233	80.007	19.994	104.012	17.704	170.279	0.504
768.000	450.282	80.008	19.994	104.059	17.654	173.735	0.493
776.000	454.335	80.006	19.994	104.011	17.796	163.454	0.519
784.000	458.440	80.007	19.995	103.927	18.139	139.052	0.524
792.000	462.582	80.008	19.994	103.771	18.615	105.381	0.519
800.000	466.649	80.008	19.996	103.612	19.144	68.030	0.530
808.001	470.776	80.008	19.998	103.477	19.515	41.942	0.530
816.000	474.943	80.009	19.995	103.374	19.745	25.732	0.532
824.000	479.021	80.007	19.995	103.313	19.888	15.671	0.486
832.000	483.124	80.005	19.994	103.282	19.981	9.192	0.490
840.000	487.238	80.008	19.993	103.248	20.034	5.456	0.499
848.000	491.373	80.006	19.994	103.215	20.075	2.589	0.515
856.000	495.512	80.006	19.993	103.213	20.097	1.018	0.525
864.000	499.660	80.009	19.994	103.202	20.117	-0.375	0.511
872.000	503.768	80.006	19.995	103.175	20.126	-0.981	0.478
880.000	507.958	80.007	19.995	103.168	20.130	-1.270	0.550
888.000	512.006	80.008	19.995	103.165	20.138	-1.868	0.517
896.000	516.160	80.010	19.995	103.166	20.141	-2.052	0.535
904.000	520.324	80.002	19.996	103.169	20.141	-2.048	0.553
912.000	524.319	80.006	19.994	103.170	20.143	-2.210	0.518
920.000	528.566	80.008	19.994	103.168	20.146	-2.423	0.321
928.000	532.546	80.008	19.994	103.163	20.146	-2.409	0.653
936.001	536.858	80.006	19.995	103.167	20.149	-2.618	0.519
944.000	541.274	80.008	19.994	103.168	20.152	-2.868	0.523
952.000	545.545	80.010	19.994	103.160	20.150	-2.725	0.530
960.000	549.927	80.007	19.994	103.156	20.157	-3.164	0.589
968.000	554.178	80.007	19.995	103.163	20.153	-2.928	0.508
976.000	558.464	80.009	19.994	103.153	20.158	-3.262	0.509
984.000	562.677	80.007	19.995	103.156	20.156	-3.136	0.536
992.000	566.826	80.005	19.995	103.134	20.154	-2.959	0.549
1000.000	570.947	80.005	19.995	103.136	20.154	-2.984	0.508
1008.000	575.116	80.007	19.994	103.138	20.150	-2.709	0.543
1016.000	579.212	80.005	19.994	103.141	20.155	-3.067	0.526
1024.000	583.312	80.007	19.995	103.134	20.157	-3.198	0.519
1032.000	587.478	80.009	19.994	103.143	20.152	-2.834	0.528
1040.000	591.550	80.007	19.994	103.144	20.148	-2.548	0.512
1048.001	595.684	80.008	19.994	103.139	20.146	-2.447	0.519
1056.001	599.794	80.008	19.996	103.133	20.147	-2.459	0.505
1064.001	603.887	80.005	19.994	103.129	20.148	-2.561	0.516
1072.000	607.910	80.006	19.995	103.128	20.148	-2.544	0.500
1080.000	611.954	80.007	19.996	103.133	20.152	-2.848	0.476
1088.000	616.049	80.005	19.995	103.135	20.150	-2.730	0.490
1096.000	620.164	80.006	19.994	103.137	20.155	-3.026	0.525
1104.000	624.243	80.007	19.994	103.134	20.154	-2.977	0.490
1112.000	628.453	80.007	19.995	103.135	20.161	-3.434	0.513
1120.000	632.508	80.005	19.995	103.128	20.168	-3.933	0.512
1128.000	636.642	80.008	19.994	103.129	20.175	-4.438	0.527
1136.001	640.721	80.009	19.993	103.126	20.174	-4.353	0.511
1144.001	644.909	80.007	19.994	103.123	20.178	-4.653	0.526
1152.000	648.959	80.006	19.995	103.129	20.185	-5.117	0.527
1160.001	653.087	80.007	19.995	103.131	20.182	-4.945	0.522
1168.000	657.185	80.005	19.995	103.127	20.180	-4.794	0.485
1176.001	661.282	80.006	19.995	103.129	20.186	-5.244	0.517
1184.000	665.287	80.007	19.995	103.115	20.185	-5.178	0.550
1192.000	669.498	80.008	19.995	103.123	20.189	-5.450	0.524
1200.000	673.622	80.007	19.995	103.122	20.178	-4.658	0.538
1208.000	677.799	80.009	19.995	103.124	20.194	-5.812	0.519
1216.000	681.985	80.009	19.995	103.109	20.194	-5.803	0.448
1224.000	686.110	80.008	19.994	103.112	20.197	-5.994	0.509
1232.001	690.167	80.004	19.995	103.123	20.199	-6.147	0.515
1240.000	694.209	80.006	19.996	103.107	20.198	-6.057	0.490
1248.000	698.152	80.007	19.995	103.115	20.200	-6.207	0.460
1256.000	702.093	80.006	19.996	103.107	20.203	-6.391	0.529
1264.001	706.050	80.007	19.996	103.111	20.203	-6.437	0.474
1272.001	710.030	80.008	19.996	103.100	20.205	-6.575	0.460
1280.000	714.063	80.008	19.995	103.102	20.204	-6.488	0.500
1288.000	718.112	80.008	19.994	103.096	20.206	-6.594	0.483
1296.000	722.205	80.008	19.995	103.113	20.207	-6.704	0.544
1304.000	726.302	80.006	19.995	103.100	20.209	-6.832	0.532
1312.000	730.441	80.007	19.995	103.093	20.209	-6.858	0.503
1320.000	734.640	80.007	19.994	103.102	20.210	-6.874	0.528
1328.000	738.761	80.007	19.994	103.103	20.210	-6.872	0.484
1336.000	742.953	80.005	19.996	103.093	20.208	-6.781	0.534
1337.001	743.475	80.005	19.995	103.095	20.209	-6.808	0.521