File: 01_Data/Polyester_Bed_Skirt/MCC/Polyester_Bed_Skirt_MCC_30K_min_211208_R1.txt
Sample ID:	C:\MCC\MCC Cal\Test\Polyester_Bed_Skirt_MCC_30K_min_211208_R1.txt
Sample Weight (mg):	4.54
Heating Rate (C/s):	0.5
Combustor Temp (C):	900
N2 Flow Rate (cc/min):	80
O2 Flow Rate (cc/min):	20
Calibration File:	C:\MCC\MCC Cal\Coeff1 JN10440_30_210304.txt.txt
T Correction Coefficients:	0	1.024463	0
Time Shift (s):	14
*
Time (s)	Temperature (C)	N2 flow rate (cc/min)	O2 flow rate (cc/min)	Flow Rate (cc/min)	Oxygen (%)	HRR (W/g)	Heating rate (C/s)
0.000	108.290	80.005	19.997	103.055	20.266	0.336	-0.003
8.001	108.265	80.007	19.994	103.096	20.259	0.861	-0.012
16.000	108.450	80.007	19.995	103.128	20.255	1.110	0.032
24.000	108.863	80.003	19.996	103.176	20.248	1.637	0.033
32.000	109.609	80.005	19.996	103.203	20.237	2.422	0.083
40.000	110.671	80.005	19.994	103.227	20.235	2.528	0.161
48.000	111.983	80.006	19.994	103.248	20.229	2.970	0.186
56.000	113.722	80.004	19.995	103.282	20.225	3.265	0.210
64.001	115.751	80.005	19.994	103.301	20.216	3.876	0.284
72.000	118.151	80.008	19.995	103.310	20.216	3.870	0.311
80.000	120.812	80.005	19.994	103.322	20.214	4.026	0.336
88.000	123.776	80.007	19.995	103.305	20.216	3.897	0.377
96.000	126.867	80.007	19.994	103.291	20.217	3.843	0.385
104.000	130.133	80.005	19.996	103.319	20.221	3.531	0.408
112.000	133.534	80.004	19.995	103.318	20.218	3.759	0.458
120.001	137.091	80.003	19.994	103.326	20.217	3.803	0.469
128.000	140.751	80.006	19.994	103.325	20.219	3.707	0.458
136.000	144.600	80.004	19.993	103.320	20.215	3.950	0.503
144.000	148.432	80.006	19.995	103.318	20.216	3.858	0.487
152.001	152.421	80.008	19.994	103.320	20.213	4.128	0.513
160.000	156.316	80.006	19.993	103.319	20.214	4.010	0.508
168.000	160.315	80.007	19.993	103.298	20.216	3.902	0.509
176.000	164.351	80.007	19.994	103.286	20.216	3.912	0.503
184.000	168.440	80.007	19.995	103.289	20.219	3.671	0.518
192.000	172.488	80.005	19.994	103.289	20.219	3.687	0.510
200.000	176.538	80.004	19.994	103.288	20.219	3.655	0.518
208.000	180.525	80.006	19.995	103.274	20.218	3.735	0.498
216.000	184.523	80.004	19.995	103.282	20.224	3.353	0.480
224.000	188.510	80.005	19.994	103.281	20.222	3.437	0.489
232.000	192.460	80.008	19.994	103.276	20.220	3.580	0.467
240.000	196.393	80.006	19.994	103.255	20.219	3.704	0.487
248.000	200.287	80.005	19.994	103.264	20.228	3.063	0.485
256.000	204.215	80.008	19.994	103.274	20.226	3.184	0.498
264.000	208.219	80.005	19.993	103.267	20.222	3.439	0.498
272.000	212.188	80.006	19.995	103.252	20.223	3.368	0.495
280.000	216.177	80.005	19.994	103.247	20.227	3.082	0.485
288.000	220.130	80.006	19.995	103.259	20.224	3.323	0.486
296.000	224.105	80.004	19.995	103.245	20.224	3.323	0.494
304.000	228.121	80.004	19.997	103.246	20.222	3.495	0.537
312.000	232.166	80.007	19.994	103.246	20.222	3.437	0.514
320.000	236.200	80.006	19.994	103.242	20.224	3.325	0.533
328.000	240.240	80.006	19.995	103.250	20.223	3.417	0.504
336.000	244.222	80.007	19.993	103.248	20.223	3.409	0.490
344.000	248.319	80.006	19.994	103.244	20.224	3.333	0.504
352.000	252.370	80.006	19.994	103.243	20.225	3.237	0.507
360.000	256.352	80.005	19.994	103.237	20.221	3.562	0.517
368.000	260.282	80.004	19.995	103.232	20.224	3.331	0.484
376.000	264.256	80.005	19.995	103.239	20.226	3.164	0.483
384.000	268.266	80.004	19.995	103.227	20.224	3.297	0.510
392.000	272.334	80.003	19.995	103.242	20.223	3.416	0.529
400.000	276.341	80.006	19.995	103.225	20.223	3.369	0.496
408.000	280.368	80.005	19.995	103.221	20.228	3.025	0.510
416.000	284.359	80.007	19.994	103.215	20.221	3.565	0.512
424.000	288.367	80.006	19.994	103.221	20.226	3.211	0.509
432.000	292.397	80.005	19.994	103.217	20.223	3.420	0.535
440.000	296.449	80.005	19.995	103.221	20.221	3.520	0.513
448.000	300.448	80.005	19.994	103.215	20.223	3.387	0.518
456.000	304.444	80.003	19.994	103.214	20.226	3.212	0.506
464.000	308.517	80.005	19.996	103.214	20.222	3.463	0.509
472.000	312.586	80.006	19.995	103.208	20.220	3.592	0.521
480.000	316.613	80.006	19.995	103.209	20.222	3.488	0.494
488.000	320.588	80.005	19.995	103.208	20.221	3.500	0.495
496.000	324.654	80.006	19.995	103.207	20.219	3.696	0.504
504.000	328.702	80.007	19.994	103.210	20.219	3.670	0.493
512.000	332.804	80.006	19.994	103.215	20.222	3.447	0.553
520.001	336.835	80.004	19.993	103.211	20.213	4.103	0.511
528.000	340.953	80.005	19.995	103.210	20.216	3.895	0.512
536.000	344.960	80.006	19.995	103.208	20.221	3.527	0.515
544.000	349.000	80.004	19.994	103.208	20.216	3.879	0.511
552.000	353.138	80.005	19.996	103.207	20.214	4.038	0.481
560.000	357.202	80.006	19.995	103.207	20.208	4.479	0.537
568.000	361.252	80.006	19.997	103.210	20.205	4.635	0.513
576.000	365.239	80.005	19.996	103.212	20.202	4.878	0.487
584.000	369.254	80.006	19.998	103.209	20.191	5.661	0.521
592.000	373.299	80.005	19.994	103.212	20.177	6.653	0.514
600.000	377.364	80.005	19.994	103.211	20.156	8.109	0.507
608.000	381.530	80.005	19.995	103.213	20.131	9.918	0.558
616.001	385.647	80.005	19.995	103.242	20.095	12.467	0.524
624.000	389.830	80.006	19.994	103.247	20.063	14.717	0.511
632.000	394.024	80.006	19.996	103.264	19.998	19.344	0.558
640.000	398.217	80.007	19.994	103.293	19.909	25.675	0.528
648.000	402.331	80.005	19.996	103.328	19.807	32.937	0.512
656.000	406.555	80.005	19.995	103.372	19.703	40.376	0.559
664.000	410.688	80.008	19.996	103.424	19.582	48.995	0.544
672.000	414.813	80.005	19.995	103.445	19.434	59.567	0.515
680.000	418.886	80.005	19.995	103.532	19.271	71.178	0.491
688.001	422.951	80.006	19.995	103.575	19.065	85.926	0.499
696.000	426.914	80.005	19.994	103.662	18.824	103.194	0.514
704.000	430.904	80.004	19.995	103.773	18.545	123.168	0.466
712.000	434.898	80.006	19.995	103.835	18.290	141.520	0.493
720.000	438.942	80.006	19.995	103.945	18.088	156.016	0.548
728.000	442.992	80.006	19.995	104.000	17.909	168.906	0.532
736.000	446.980	80.005	19.994	104.032	17.778	178.218	0.504
744.001	450.967	80.007	19.995	104.062	17.748	180.290	0.500
752.000	455.044	80.007	19.995	104.024	17.894	169.622	0.500
760.000	459.184	80.005	19.995	103.910	18.251	143.966	0.523
768.001	463.261	80.004	19.995	103.764	18.737	109.208	0.545
776.000	467.383	80.004	19.996	103.629	19.246	72.858	0.495
784.000	471.465	80.005	19.994	103.487	19.590	48.327	0.498
792.000	475.634	80.004	19.994	103.382	19.812	32.588	0.525
800.000	479.683	80.007	19.994	103.323	19.936	23.767	0.439
808.000	483.626	80.006	19.995	103.289	20.021	17.720	0.030
816.000	487.799	80.007	19.995	103.257	20.077	13.746	0.509
824.000	491.847	80.007	19.996	103.251	20.105	11.752	0.498
832.000	495.703	80.007	19.994	103.234	20.126	10.293	0.474
840.000	499.523	80.005	19.995	103.210	20.144	9.018	0.492
848.000	503.338	80.005	19.994	103.212	20.152	8.428	0.471
856.000	507.284	80.007	19.996	103.209	20.158	7.990	0.518
864.000	511.239	80.005	19.995	103.206	20.155	8.245	0.511
872.000	515.223	80.004	19.995	103.206	20.159	7.943	0.514
880.000	519.272	80.006	19.995	103.199	20.158	8.021	0.480
888.000	523.467	80.006	19.995	103.204	20.162	7.704	0.551
896.000	527.558	80.006	19.994	103.206	20.160	7.885	0.526
904.000	531.764	80.006	19.994	103.204	20.159	7.963	0.538
912.000	535.953	80.008	19.994	103.178	20.159	7.952	0.533
920.000	540.078	80.006	19.995	103.181	20.157	8.078	0.539
928.000	544.219	80.006	19.995	103.186	20.157	8.036	0.508
936.000	548.355	80.007	19.995	103.194	20.150	8.534	0.542
944.000	552.482	80.005	19.994	103.175	20.149	8.606	0.508
952.000	556.648	80.004	19.995	103.194	20.151	8.506	0.529
960.000	560.750	80.004	19.995	103.180	20.147	8.784	0.516
968.000	564.860	80.007	19.995	103.183	20.148	8.680	0.502
976.000	568.946	80.006	19.994	103.173	20.149	8.671	0.515
984.000	573.070	80.006	19.994	103.178	20.144	9.027	0.468
992.000	577.318	80.010	19.995	103.193	20.145	8.927	0.516
1000.000	581.416	80.005	19.993	103.170	20.139	9.322	0.529
1008.000	585.553	80.007	19.994	103.192	20.130	9.969	0.520
1016.000	589.624	80.006	19.995	103.195	20.128	10.099	0.525
1024.000	593.691	80.005	19.996	103.189	20.130	9.974	0.533
1032.000	597.782	80.004	19.995	103.178	20.124	10.426	0.512
1040.000	601.831	80.006	19.996	103.185	20.127	10.201	0.496
1048.000	605.865	80.009	19.996	103.186	20.124	10.414	0.503
1056.000	609.987	80.006	19.995	103.175	20.126	10.296	0.512
1064.000	614.058	80.007	19.996	103.173	20.123	10.466	0.498
1072.001	618.123	80.009	19.994	103.168	20.121	10.637	0.492
1080.001	622.160	80.006	19.995	103.174	20.122	10.585	0.482
1088.000	626.227	80.006	19.994	103.180	20.121	10.649	0.489
1096.000	630.308	80.005	19.995	103.171	20.124	10.443	0.482
1104.000	634.382	80.007	19.994	103.175	20.128	10.130	0.555
1112.000	638.530	80.005	19.995	103.172	20.127	10.184	0.499
1120.000	642.559	80.006	19.996	103.168	20.123	10.470	0.474
1128.000	646.584	80.007	19.995	103.168	20.124	10.415	0.513
1136.000	650.687	80.007	19.995	103.165	20.126	10.282	0.496
1144.000	654.791	80.007	19.997	103.167	20.130	10.011	0.512
1152.000	658.914	80.008	19.996	103.169	20.129	10.040	0.541
1160.000	663.118	80.008	19.993	103.168	20.126	10.289	0.527
1168.000	667.248	80.006	19.996	103.170	20.122	10.535	0.501
1176.000	671.355	80.007	19.994	103.169	20.121	10.654	0.549
1184.000	675.565	80.007	19.995	103.159	20.124	10.382	0.533
1192.000	679.715	80.006	19.994	103.169	20.119	10.728	0.487
1200.000	683.856	80.005	19.994	103.167	20.122	10.527	0.516
1208.000	688.011	80.006	19.995	103.152	20.117	10.888	0.532
1216.000	692.103	80.007	19.995	103.160	20.123	10.455	0.496
1224.000	696.236	80.007	19.996	103.151	20.118	10.868	0.522
1232.000	700.324	80.007	19.995	103.154	20.116	10.952	0.502
1240.000	704.379	80.008	19.997	103.161	20.121	10.615	0.488
1248.000	708.452	80.004	19.995	103.159	20.116	11.003	0.493
1256.000	712.540	80.007	19.995	103.138	20.116	10.996	0.528
1264.000	716.552	80.005	19.995	103.139	20.114	11.102	0.503
1272.000	720.522	80.005	19.995	103.139	20.114	11.132	0.477
1280.000	724.531	80.006	19.994	103.155	20.113	11.175	0.499
1288.000	728.535	80.009	19.995	103.167	20.106	11.661	0.526
1296.000	732.435	80.009	19.993	103.164	20.113	11.154	0.512
1304.000	736.436	80.008	19.995	103.157	20.109	11.474	0.492
1312.000	740.465	80.009	19.996	103.153	20.110	11.406	0.475
1318.000	743.436	80.009	19.995	103.159	20.107	11.613	0.500