File: 01_Data/Vinyl_Tile/Cone/Vinyl_Tile_Cone_HF75Scan_220405_R3.csv
Names,Time,Stack TC,Smoke TC,Exh Press,Smoke Comp,Smoke Meas,CO Meter,CO2 Meter,O2 Meter,Sample Mass,Ext Coeff,Start Test,Flame Verif
Chan Gain,,500,500,1,1,1,1,1,1,1,1,1.0,1.0
Offset,,0,0,0.132686,0,0,0,0,0,0,0,0.0,0.0
Gain,,1,1,25.011,13.1151,13.9355,1,1,1,1.00092,1.01752,1.0,1.0
Units,sec,C,C,Pa,%,%,%,%,%,g,/m,,
Baseline,,42.3432,44.0841,147.571,98.9311,97.9457,0.000645508,0.0628361,21.0201,-836.79,0.0894234,,
17,4,41.6336,43.0794,152.061,98.6219,97.4757,0.00061136,0.0659577,21.0209,190.926,0.104338,0.0,0.0
34,8.25,41.1215,43.1121,144.259,98.6399,97.147,0.000734017,0.0657188,21.0211,190.996,0.136121,0.0,0.0
51,12.5,41.4795,42.411,145.757,98.6627,97.375,0.0010821,0.0651681,21.0211,191.006,0.117266,0.0,0.0
68,16.75,41.4227,42.7974,145.68,98.6707,91.1782,0.00131169,0.0646608,21.019,190.896,0.704872,0.0,0.0
85,21,41.9073,43.4004,142.317,98.6919,84.205,0.00655213,0.092843,20.9713,190.596,1.41693,0.0,1.0
102,25.25,42.3287,44.4947,139.673,98.6988,78.1401,0.0149727,0.160138,20.8594,190.205,2.08474,0.0,0.0
119,29.5,44.4029,46.2127,134.146,98.7228,72.5498,0.0210718,0.240917,20.743,189.575,2.74946,0.0,0.0
136,33.75,46.2959,48.3667,134.704,98.7684,65.5765,0.0212785,0.288651,20.6749,189.004,3.65556,0.0,0.0
153,38,48.4213,51.018,132.134,98.7888,69.3156,0.0209733,0.327036,20.639,188.444,3.16246,0.0,0.0
170,42.25,49.9103,52.5961,133.663,98.8192,66.4879,0.0216197,0.349722,20.6231,187.803,3.53696,0.0,0.0
187,46.5,51.0251,53.6367,136.812,98.8729,72.3793,0.0215906,0.357097,20.6284,187.142,2.78402,0.0,0.0
204,50.75,52.3034,55.3537,136.033,98.9069,72.7854,0.0217717,0.362185,20.6283,186.552,2.73715,0.0,0.0
221,55,53.6104,56.526,131.638,98.9397,68.4769,0.0239716,0.382245,20.5992,185.901,3.28474,0.0,0.0
238,59.25,54.3296,57.8433,130.039,98.9865,66.2327,0.0288517,0.393522,20.5721,185.251,3.58638,0.0,0.0
255,63.5,55.9831,59.6617,127.706,99.0161,64.9688,0.0328295,0.4107,20.5359,184.54,3.76102,0.0,0.0
272,67.75,57.4915,61.203,134.117,99.0434,64.2811,0.0347954,0.429289,20.497,183.789,3.85845,0.0,0.0
289,72,58.3341,62.3998,130.388,99.0806,65.1483,0.0332392,0.424085,20.5028,183.169,3.74221,0.0,0.0
306,76.25,59.4523,63.8571,132.028,99.1026,69.9173,0.0279361,0.381332,20.5654,182.598,3.11362,0.0,0.0
323,80.5,59.6197,64.0654,137.255,99.1166,71.789,0.0221733,0.335208,20.6342,182.128,2.87909,0.0,0.0
340,84.75,59.6189,64.0925,140.05,99.1154,69.5644,0.0184103,0.307077,20.6695,181.747,3.15995,0.0,0.0
357,89,59.8281,64.3352,134.992,99.1442,65.2912,0.0166936,0.301102,20.6743,181.417,3.72838,0.0,0.0
374,93.25,60.3765,64.4276,136.367,99.1454,67.7029,0.0161932,0.312883,20.6549,181.007,3.40474,0.0,0.0
391,97.5,60.1573,64.7149,135.494,99.1638,61.644,0.0161953,0.323291,20.6347,180.626,4.2432,0.0,0.0
408,101.75,60.9205,65.4257,134.057,99.1886,63.1716,0.0160041,0.322267,20.6346,180.236,4.02694,0.0,0.0
425,106,61.1611,65.6428,138.918,99.1942,65.3945,0.015147,0.30967,20.6585,179.866,3.71877,0.0,0.0
442,110.25,61.256,66.0061,135.725,99.1966,72.4686,0.0138424,0.293259,20.6883,179.575,2.8022,0.0,0.0
459,114.5,60.7435,65.7175,138.37,99.2123,77.9347,0.0124867,0.271179,20.723,179.275,2.15455,0.0,0.0
476,118.75,60.8045,65.4936,142.473,99.2175,80.7249,0.0105833,0.251166,20.7594,179.005,1.84105,0.0,0.0
493,123,60.5675,65.116,139.498,99.2299,86.8455,0.00894529,0.233175,20.7946,178.785,1.18985,0.0,0.0
510,127.25,59.646,64.2635,143.781,99.2447,90.0683,0.00749334,0.21775,20.8239,178.615,0.865964,0.0,0.0
527,131.5,59.3156,64.0893,143.985,99.2571,92.6263,0.00647917,0.206131,20.8441,178.464,0.617116,0.0,0.0
544,135.75,58.8738,63.5616,143.957,99.2683,93.4148,0.00568131,0.196109,20.8607,178.274,0.542467,0.0,0.0
561,140,58.0014,62.6846,143.661,99.2855,93.7886,0.00517574,0.188261,20.8733,178.104,0.508368,0.0,0.0
578,144.25,56.9987,61.156,140.268,99.3135,94.865,0.00510684,0.183451,20.8821,177.994,0.409035,0.0,0.0
595,148.5,57.2716,61.2142,140.673,99.3179,95.6951,0.00476234,0.179056,20.8898,177.864,0.331664,0.0,0.0
612,152.75,56.0276,60.1636,141.956,99.3283,95.5399,0.00465829,0.175328,20.8966,177.744,0.34709,0.0,0.0
629,157,55.5876,59.4847,145.816,99.3587,96.2118,0.00460169,0.171726,20.901,177.634,0.287268,0.0,0.0
646,161.25,54.7049,58.6699,143.424,99.3732,95.9128,0.00469585,0.167936,20.9059,177.453,0.316341,0.0,0.0
663,165.5,55.5897,58.6423,142.163,99.3632,96.3373,0.00497089,0.1654,20.9084,177.373,0.276032,0.0,0.0
680,169.75,54.3656,58.2871,141.273,99.3824,96.5363,0.00476676,0.16234,20.9112,177.273,0.259337,0.0,0.0
697,174,53.976,57.52,145.478,99.3792,96.7396,0.00485363,0.15812,20.9168,177.163,0.240273,0.0,0.0
714,178.25,53.4221,57.1762,141.31,99.3824,96.3649,0.00502326,0.155271,20.9201,177.053,0.275198,0.0,0.0
731,182.5,53.1695,56.6309,144.123,99.3916,96.857,0.00542321,0.152705,20.9232,176.983,0.230565,0.0,0.0
748,186.75,52.9524,56.619,142.299,99.39,96.8319,0.00554535,0.14934,20.9264,176.893,0.232733,0.0,0.0
765,191,52.2274,55.7541,144.582,99.3816,96.6983,0.00526936,0.145536,20.9305,176.823,0.244296,0.0,0.0
782,195.25,51.8915,55.1742,141.83,99.3643,97.3456,0.00520141,0.142275,20.9344,176.703,0.183205,0.0,0.0
799,199.5,51.4023,54.745,145.535,99.3716,96.9684,0.00530261,0.140409,20.9369,176.603,0.218505,0.0,0.0
816,203.75,51.3582,54.7068,145.469,99.3323,97.0815,0.00547397,0.137789,20.9401,176.533,0.204575,0.0,0.0
833,208,50.926,54.2046,141.66,99.3291,96.4823,0.00552377,0.135123,20.9418,176.453,0.259549,0.0,0.0
850,212.25,50.9929,54.1373,145.248,99.3199,97.3681,0.00543898,0.132508,20.9449,176.383,0.177146,0.0,0.0
867,216.5,50.2745,53.4202,147.46,99.3043,97.5008,0.00554686,0.129206,20.9498,176.282,0.163588,0.0,0.0
884,220.75,50.2054,53.0665,145.454,99.2707,97.0734,0.00548426,0.127565,20.9507,176.222,0.199778,0.0,0.0
901,225,49.697,52.9413,149.728,99.2727,98.1872,0.00536819,0.126042,20.954,176.122,0.0981308,0.0,0.0
918,229.25,49.6416,52.6277,145.265,99.2371,97.975,0.00566343,0.124272,20.9552,176.052,0.11424,0.0,0.0
935,233.5,49.5139,52.2552,145.411,99.2079,97.6399,0.00586229,0.122795,20.9594,175.992,0.142193,0.0,0.0
952,237.75,49.3458,52.173,144.867,99.1918,97.3286,0.00599893,0.120367,20.9641,175.982,0.169256,0.0,0.0
969,242,48.5032,51.5989,145.799,99.1766,97.2053,0.00613568,0.118424,20.9658,175.902,0.179204,0.0,0.0
986,246.25,48.1689,51.2226,141.762,99.1306,97.173,0.00599888,0.116496,20.969,175.862,0.178029,0.0,0.0
1003,250.5,48.5072,51.3611,144.488,99.1034,97.585,0.00628715,0.115327,20.9699,175.752,0.137806,0.0,0.0
1020,254.75,48.3156,51.2807,137.621,99.0702,97.8304,0.0063961,0.11333,20.9714,175.682,0.112398,0.0,0.0
1037,259,48.4205,50.9495,147.418,99.0193,97.9716,0.00643746,0.111988,20.9734,175.602,0.0949447,0.0,0.0
1054,263.25,47.9426,50.6838,145.374,98.9857,97.7373,0.00638951,0.111338,20.9739,175.542,0.113288,0.0,0.0
1071,267.5,47.8796,50.5012,146.151,98.9665,97.5808,0.00623435,0.110917,20.9758,175.522,0.125858,0.0,0.0
1088,271.75,47.9534,50.5409,142.617,98.9249,97.2839,0.00603836,0.110111,20.9763,175.412,0.149298,0.0,0.0
1105,276,47.5515,50.2609,143.865,98.8821,96.9982,0.00616576,0.10984,20.9764,175.392,0.17169,0.0,0.0
1122,280.25,47.6837,50.0069,147.159,98.8448,97.5191,0.00631939,0.109543,20.9751,175.342,0.12052,0.0,0.0
1139,284.5,47.5804,50.0178,147.489,98.794,96.635,0.00631017,0.109033,20.9749,175.241,0.197222,0.0,0.0
1156,288.75,47.5494,50.1805,146.49,98.7376,97.2223,0.006282,0.109867,20.9741,175.191,0.138039,0.0,0.0
1173,293,46.8144,49.4668,143.629,98.6947,97.173,0.00589825,0.110348,20.9747,175.121,0.138698,0.0,0.0
1190,297.25,46.8086,48.8338,143.446,98.6551,97.497,0.00587547,0.109347,20.9748,175.131,0.105398,0.0,0.0
1207,301.5,46.6409,49.0924,143.964,98.5983,97.3299,0.00590271,0.108405,20.9763,175.011,0.115568,0.0,0.0
1224,305.75,46.6689,48.9607,142.765,98.5587,97.3567,0.00613428,0.107951,20.977,175.021,0.109523,0.0,0.0
1241,310,46.6165,48.7826,141.579,98.5411,96.976,0.00637226,0.107072,20.9772,174.921,0.142892,0.0,0.0
1258,314.25,46.811,48.7223,143.578,98.4878,97.2257,0.00633443,0.106617,20.9772,174.881,0.115122,0.0,0.0
1275,318.5,46.2772,49.2663,145.588,98.4502,97.3112,0.00601444,0.106377,20.9788,174.761,0.103869,0.0,0.0
1292,322.75,46.5032,48.8426,140.806,98.4134,97.3452,0.00590688,0.106236,20.9795,174.711,0.0974088,0.0,0.0
1309,327,46.2681,48.9925,145.759,98.3485,97.0751,0.00579538,0.105524,20.9801,174.671,0.116323,0.0,0.0
1326,331.25,46.6794,48.4933,148.349,98.2901,96.49,0.00601326,0.105004,20.9792,174.621,0.164985,0.0,0.0
1343,335.5,46.2437,48.2905,140.124,98.2273,97.2895,0.00603383,0.105475,20.98,174.601,0.0856229,0.0,0.0
1360,339.75,46.1145,48.3746,143.344,98.1708,97.0688,0.00585152,0.105743,20.9802,174.491,0.100767,0.0,0.0
1377,344,46.2068,48.671,143.202,98.1128,96.8961,0.00574309,0.105571,20.9802,174.521,0.111379,0.0,0.0
1394,348.25,46.0126,48.5866,142.691,98.0632,96.4032,0.00592887,0.104848,20.9834,174.441,0.152382,0.0,0.0
1411,352.5,45.8558,48.5116,149.494,98.0384,96.285,0.00599235,0.104899,20.9829,174.381,0.161076,0.0,0.0
1428,356.75,46.2182,48.496,144.663,98.0011,96.7668,0.00589394,0.104745,20.9818,174.341,0.113131,0.0,0.0
1445,361,46.2357,48.5001,145.563,98.2377,97.0951,0.0059002,0.104488,20.9826,174.261,0.104417,0.0,0.0
1462,365.25,46.1488,48.0344,147.952,98.2189,96.4806,0.0060624,0.103795,20.9841,174.201,0.159378,0.0,0.0
1479,369.5,46.1933,48.221,148.001,98.152,96.5465,0.00591403,0.103648,20.9839,174.15,0.147206,0.0,0.0
1496,373.75,45.9998,48.3667,143.175,98.0928,96.3934,0.00567418,0.103566,20.9828,174.11,0.155983,0.0,0.0
1513,378,45.9811,48.0387,145.127,98.0356,96.1421,0.00546666,0.102951,20.9826,174.07,0.174077,0.0,0.0
1530,382.25,46.2084,48.421,144.239,97.9583,96.2105,0.00531148,0.103642,20.983,174.01,0.160688,0.0,0.0
1547,386.5,45.6537,48.0316,144.78,97.8991,96.8604,0.00557241,0.102895,20.9845,173.97,0.0952058,0.0,0.0
1564,390.75,46.0066,48.4682,146.344,97.8587,95.9401,0.00576728,0.103088,20.9838,173.92,0.17673,0.0,0.0
1581,395,45.5659,48.8733,144.444,97.8194,96.3938,0.0057561,0.102887,20.9841,173.89,0.131035,0.0,0.0
1598,399.25,46.2273,48.3586,141.315,97.7498,96.7562,0.00588682,0.102181,20.9844,173.8,0.0911908,0.0,0.0
1615,403.5,46.4063,48.1051,144.602,97.7438,96.9646,,0.102287,,173.75,0.0714395,0.0,0.0
1632,407.75,45.4872,48.3154,144.1,97.717,96.2327,,,,173.74,0.136618,0.0,0.0
1649,412,45.9138,48.1254,145.153,97.6897,96.3373,,,,173.69,0.124433,0.0,0.0