File: 01_Data/Vinyl_Tile/Cone/Vinyl_Tile_Cone_HF25Scan_220510_R4.csv
Names,Time,Stack TC,Smoke TC,Exh Press,Smoke Comp,Smoke Meas,CO Meter,CO2 Meter,O2 Meter,Sample Mass,Ext Coeff,Start Test,Flame Verif
Chan Gain,,500,500,1,1,1,1,1,1,1,1,1.0,1.0
Offset,,0,0,0.135316,0,0,0,0,0,0,0,0.0,0.0
Gain,,1,1,25.011,13.8443,15.4071,1,1,1,1.00079,1.02936,1.0,1.0
Units,sec,C,C,Pa,%,%,%,%,%,g,/m,,
Baseline,,19.2954,19.8038,141.806,104.888,103.932,0.000264935,0.0453249,21.0002,-446.498,0.0826347,,
11,2.5,17.1983,18.1277,139.255,104.34,103.386,-0.00014016,0.0485037,20.9959,534.642,0.0828968,0.0,0.0
22,5.25,17.4888,17.9618,141.034,104.328,103.486,6.88527e-05,0.0482822,20.996,534.652,0.0732137,0.0,0.0
33,8,17.0352,18.0832,139.698,104.329,103.415,0.000257758,0.050205,20.9946,534.682,0.0794789,0.0,0.0
44,10.75,17.0678,17.6976,146.404,104.345,103.507,0.000200112,0.0512785,20.9941,534.672,0.0728303,0.0,0.0
55,13.5,17.0935,18.5231,139.84,104.334,103.364,7.99048e-05,0.050255,20.9955,534.642,0.08428,0.0,0.0
66,16.25,17.5749,18.2076,142.19,104.352,103.408,0.000192213,0.0489395,20.9969,534.592,0.0821096,0.0,0.0
77,19,17.6314,17.8367,138.398,104.378,103.391,0.000369329,0.0473429,20.9994,534.592,0.0857408,0.0,0.0
88,21.75,17.6195,18.3569,143.635,104.381,103.429,0.000391775,0.0461941,21.0005,534.602,0.0827112,0.0,0.0
99,24.5,17.6768,18.3733,140.583,104.404,103.466,0.000358063,0.045416,21.0009,534.642,0.0814792,0.0,0.0
110,27.25,17.0602,17.8726,143.923,104.445,103.455,0.000241553,0.0450532,21.001,534.572,0.0859679,0.0,0.0
121,30,16.7902,17.8202,143.036,104.46,103.499,0.000137129,0.0450302,21.001,534.582,0.083462,0.0,0.0
132,32.75,17.1217,18.0756,140.478,104.491,103.456,0.000295959,0.0449589,21.001,534.622,0.0899429,0.0,0.0
143,35.5,17.4448,18.1597,146.801,104.523,103.541,0.000538445,0.0448494,21.001,534.562,0.0852152,0.0,0.0
154,38.25,17.7102,18.6042,140.325,104.547,103.627,0.000539272,0.044993,21.0011,534.562,0.0797584,0.0,0.0
165,41,17.5911,17.9242,141.23,104.582,103.635,0.000463211,0.045491,21.0007,534.592,0.0821672,0.0,0.0
176,43.75,17.4176,18.2678,142.79,104.608,103.696,0.000378167,0.0467671,20.9992,534.582,0.0791044,0.0,0.0
187,46.5,17.6684,18.6127,139.68,104.631,103.498,0.000383718,0.0484328,20.9979,534.602,0.0982901,0.0,0.0
198,49.25,17.4834,18.0963,140.926,104.644,103.738,0.000321586,0.049465,20.9968,534.622,0.0785613,0.0,0.0
209,52,17.4242,17.7908,142.446,104.674,103.483,0.000302965,0.0496739,20.9968,534.592,0.103322,0.0,0.0
220,54.75,17.9379,18.5947,143.961,104.689,103.532,0.000264444,0.0490068,20.9975,534.582,0.100363,0.0,0.0
231,57.5,17.8194,18.3805,141.346,104.689,103.586,0.000350444,0.0484358,20.9986,534.522,0.0956161,0.0,0.0
242,60.25,18.1195,18.1955,146.363,104.696,103.332,0.000492373,0.0480783,20.9989,534.602,0.118396,0.0,0.0
253,63,18.0851,18.5808,145.314,104.697,103.44,0.000346087,0.0473319,21.0002,534.572,0.1091,0.0,0.0
264,65.75,17.238,18.1507,142.971,104.717,103.134,4.24558e-05,0.0465514,21.0015,534.592,0.137531,0.0,0.0
275,68.5,17.8903,18.3616,140.899,104.73,103.229,-6.847e-05,0.0462986,21.0029,534.522,0.130349,0.0,0.0
286,71.25,18.063,18.2257,144.935,104.719,102.911,-6.49401e-05,0.0462426,21.0034,534.532,0.157211,0.0,0.0
297,74,18.2007,18.5702,141.818,104.743,102.948,-0.000159598,0.0460721,21.0036,534.512,0.156028,0.0,0.0
308,76.75,17.9387,18.1835,138.708,104.751,102.1,-0.0001676,0.0459306,21.0036,534.512,0.231461,0.0,0.0
319,79.5,17.8861,18.5079,144.418,104.77,101.853,0.000139662,0.0460679,21.0027,534.512,0.254998,0.0,0.0
330,82.25,18.1647,18.3031,142.385,104.776,99.7006,0.000436858,0.0475769,21.0004,534.512,0.448336,0.0,0.0
341,85,18.0027,18.4329,137.041,104.798,99.2934,0.0008717,0.0500002,20.9989,534.462,0.487218,0.0,0.0
352,87.75,18.0634,18.6243,136.76,104.802,100.46,0.00191228,0.0617054,20.9786,534.342,0.382046,0.0,1.0
363,90.5,18.6731,18.512,141.039,104.828,100.172,0.00323054,0.0810969,20.9505,534.221,0.410209,0.0,1.0
374,93.25,18.7168,19.0632,138.403,104.848,99.363,0.00423744,0.101584,20.9199,534.111,0.485151,0.0,1.0
385,96,19.5934,19.1363,140.41,104.872,99.048,0.00508668,0.116818,20.8969,533.901,0.515934,0.0,0.0
396,98.75,19.6837,20.224,138.658,104.901,98.2515,0.00588268,0.132226,20.8777,533.751,0.591275,0.0,0.0
407,101.5,20.5923,20.7182,138.064,104.927,98.5435,0.00633682,0.145467,20.859,533.591,0.56677,0.0,0.0
418,104.25,21.6031,21.0907,134.373,104.947,98.1335,0.00656345,0.154138,20.8505,533.331,0.60609,0.0,0.0
429,107,22.1442,21.6154,135.858,104.96,98.3564,0.0063523,0.15733,20.8533,533.131,0.586769,0.0,0.0
440,109.75,22.2416,22.3219,133.969,104.981,98.1429,0.00580025,0.155977,20.8635,532.89,0.608169,0.0,0.0
451,112.5,23.0575,22.8683,137.803,105.006,98.4208,0.00536595,0.150205,20.8763,532.71,0.584819,0.0,0.0
462,115.25,23.5193,23.359,134.797,105.031,99.8201,0.00501819,0.14383,20.8866,532.51,0.459492,0.0,0.0
473,118,23.2949,23.587,137.657,105.059,99.4011,0.0047363,0.13836,20.8912,532.27,0.499901,0.0,0.0
484,120.75,24.1187,23.9675,136.461,105.099,97.2824,0.00454952,0.135548,20.8926,532.1,0.697851,0.0,0.0
495,123.5,23.8724,24.4124,135.232,105.104,98.1814,0.00461306,0.136235,20.8915,531.91,0.615227,0.0,0.0
506,126.25,23.6552,24.4566,134.916,105.126,98.5237,0.00488838,0.139048,20.8865,531.729,0.585653,0.0,0.0
517,129,23.967,24.5959,136.938,105.161,96.5842,0.00507016,0.14509,20.8781,531.589,0.76819,0.0,0.0
528,131.75,24.4789,24.3882,132.427,105.178,97.6012,0.00525186,0.158796,20.8632,531.349,0.675096,0.0,0.0
539,134.5,24.6675,24.8519,131.569,105.208,97.5265,0.00529576,0.176849,20.8302,531.129,0.684589,0.0,0.0
550,137.25,25.4394,25.4801,134.121,105.21,97.628,0.0053635,0.19542,20.8019,530.879,0.675337,0.0,0.0
561,140,26.2114,25.8552,133.723,105.218,95.5131,0.00592908,0.212935,20.777,530.619,0.873779,0.0,0.0
572,142.75,26.2552,26.6414,132.066,105.228,95.7609,0.00652149,0.228842,20.7564,530.408,0.851255,0.0,0.0
583,145.5,26.3781,27.1561,134.149,105.243,93.0192,0.00708269,0.242639,20.7344,530.138,1.11481,0.0,0.0
594,148.25,28.3107,28.5486,130.08,105.25,94.0673,0.00745438,0.25743,20.7112,529.878,1.01426,0.0,0.0
605,151,28.5418,28.9752,129.947,105.265,95.2089,0.00793947,0.263357,20.7018,529.558,0.906608,0.0,0.0
616,153.75,29.232,29.3252,131.996,105.271,96.288,0.00863315,0.265124,20.7009,529.298,0.805352,0.0,0.0
627,156.5,29.8326,29.9709,130.783,105.277,96.7098,0.00882745,0.264005,20.7048,528.997,0.766468,0.0,0.0
638,159.25,30.4271,30.4706,132.885,105.286,97.8824,0.00842431,0.257361,20.7159,528.767,0.658329,0.0,0.0
649,162,30.6208,31.1436,131.447,105.299,99.7143,0.00782017,0.247167,20.7322,528.487,0.492065,0.0,0.0
660,164.75,31.7339,31.7354,131.751,105.288,100.484,0.0072623,0.234308,20.7497,528.247,0.421728,0.0,0.0
671,167.5,31.4534,31.9156,134.446,105.304,100.184,0.00672595,0.222079,20.7691,528.067,0.450107,0.0,0.0
682,170.25,31.6059,32.0276,133.807,105.302,100.474,0.0064502,0.20673,20.792,527.886,0.42374,0.0,0.0
693,173,31.7071,31.9427,130.392,105.309,100.077,0.00616538,0.191775,20.8119,527.706,0.460167,0.0,0.0
704,175.75,31.9255,31.9615,132.608,105.316,100.204,0.00586572,0.177042,20.8261,527.526,0.449299,0.0,0.0
715,178.5,31.4373,32.1862,134.551,105.318,100.386,0.00564797,0.165104,20.8426,527.396,0.433093,0.0,0.0
726,181.25,30.9878,32.1601,136.848,105.329,100.576,0.00544332,0.153168,20.8583,527.246,0.416971,0.0,0.0
737,184,30.5468,31.8892,134.969,105.326,100.369,0.00512321,0.144026,20.8712,527.146,0.435304,0.0,0.0
748,186.75,30.5431,31.6979,136.94,105.329,100.576,0.00492633,0.137044,20.8787,527.046,0.416965,0.0,0.0
759,189.5,29.9933,31.2114,137.993,105.32,99.6367,0.00510137,0.13247,20.8831,526.906,0.500868,0.0,0.0
770,192.25,29.366,31.1633,139.123,105.321,99.1881,0.0050935,0.129832,20.8857,526.826,0.541755,0.0,0.0
781,195,29.6649,31.2229,135.415,105.322,97.1104,0.00496892,0.129368,20.8853,526.726,0.732982,0.0,0.0
792,197.75,29.3238,30.8209,139.391,105.332,96.958,0.00496829,0.131719,20.8803,526.625,0.747955,0.0,0.0
803,200.5,29.6426,30.7142,137.718,105.331,97.4282,0.00494562,0.134917,20.8749,526.525,0.704237,0.0,0.0
814,203.25,29.154,30.5179,134.31,105.324,96.8311,0.00508071,0.137951,20.8699,526.425,0.75917,0.0,0.0
825,206,29.2596,30.67,135.829,105.324,96.1944,0.00529242,0.14025,20.8654,526.375,0.818695,0.0,0.0
836,208.75,28.9136,30.5739,136.845,105.338,95.9133,0.00548079,0.143317,20.861,526.245,0.846322,0.0,0.0
847,211.5,28.8169,30.3271,133.673,105.329,95.0542,0.00552696,0.147002,20.8533,526.135,0.926761,0.0,0.0
858,214.25,27.8764,30.0567,134.537,105.329,93.6634,0.00568356,0.152333,20.8451,526.055,1.05993,0.0,0.0
869,217,28.7292,30.3131,135.029,105.34,94.419,0.00601475,0.157994,20.8362,525.945,0.988284,0.0,0.0
880,219.75,27.9634,30.7569,133.519,105.332,92.9139,0.00633125,0.164027,20.8287,525.895,1.13272,0.0,0.0
891,222.5,29.0749,31.1225,133.623,105.332,92.7931,0.00638844,0.169164,20.8208,525.795,1.1444,0.0,0.0
902,225.25,28.6118,30.4464,134.204,105.325,92.7574,0.00630862,0.173089,20.8135,525.645,1.14734,0.0,0.0
913,228,28.9014,30.7342,132.879,105.319,91.8725,0.00628566,0.17602,20.8087,525.565,1.23335,0.0,0.0
924,230.75,29.4844,31.1152,134.666,105.319,91.3454,0.00645412,0.180679,20.8028,525.445,1.28533,0.0,0.0
935,233.5,29.2767,31.0881,134.039,105.311,93.4805,0.00651032,0.184428,20.7978,525.334,1.07602,0.0,0.0
946,236.25,29.5082,31.0234,135.459,105.302,91.7164,,0.187296,,525.234,1.24722,0.0,0.0
957,239,29.5415,31.0311,138.514,105.309,90.8954,,0.189747,,525.094,1.32905,0.0,0.0
968,241.75,29.8274,31.3856,135.658,105.307,92.5538,,,,524.974,1.16565,0.0,0.0
979,244.5,30.1084,31.7967,138.886,105.271,91.8099,,,,524.914,1.23537,0.0,0.0
989,247,29.9654,31.7919,135.436,105.283,94.0433,,,,524.784,1.01939,0.0,0.0