File: 01_Data/Vinyl_Tile/Cone/Vinyl_Tile_Cone_HF50Scan_220510_R4.csv
Names,Time,Stack TC,Smoke TC,Exh Press,Smoke Comp,Smoke Meas,CO Meter,CO2 Meter,O2 Meter,Sample Mass,Ext Coeff,Start Test,Flame Verif
Chan Gain,,500,500,1,1,1,1,1,1,1,1,1.0,1.0
Offset,,0,0,0.135316,0,0,0,0,0,0,0,0.0,0.0
Gain,,1,1,25.011,13.8443,15.4071,1,1,1,1.00079,1.02936,1.0,1.0
Units,sec,C,C,Pa,%,%,%,%,%,g,/m,,
Baseline,,31.9562,32.9152,135.861,104.501,104.338,3.15292e-05,0.0423908,21.0024,-447.084,0.0141208,,
9,2,29.5437,30.3577,139.579,104.256,103.968,2.70359e-05,0.0459859,20.9961,534.281,0.0249636,0.0,0.0
18,4.25,29.3587,30.2495,138.686,104.001,103.902,0.000118119,0.0452353,20.9974,534.211,0.00855436,0.0,0.0
27,6.5,29.353,30.4694,135.719,103.789,103.899,6.38515e-05,0.044679,20.999,534.131,-0.00963295,0.0,0.0
36,8.75,29.7418,30.9466,135.216,103.596,103.445,4.35496e-06,0.0446594,20.9998,534.101,0.0132267,0.0,0.0
45,11,29.417,30.6461,132.664,103.446,103.37,-1.44254e-05,0.0448597,21.0001,534.191,0.00663246,0.0,0.0
54,13.25,29.5172,31.0138,140.227,103.38,103.203,6.85915e-05,0.0448464,21.0002,534.201,0.0155513,0.0,0.0
63,15.5,29.687,30.5881,137.361,103.368,103.015,0.000266205,0.0456313,20.9988,534.181,0.0308323,0.0,0.0
72,17.75,29.5627,30.9346,135.084,103.443,103.783,0.000364797,0.0473495,20.9962,534.151,-0.0296101,0.0,0.0
81,20,29.4275,31.2144,132.885,103.567,103.217,0.000306456,0.0488391,20.9932,534.191,0.0305351,0.0,0.0
90,22.25,29.4261,30.8658,134.387,103.753,102.942,0.000306894,0.049145,20.9925,534.191,0.0708228,0.0,0.0
99,24.5,29.6721,30.859,134.986,103.948,98.1358,0.00043281,0.0487448,20.993,534.111,0.519529,0.0,0.0
108,26.75,29.981,31.1976,138.144,104.16,94.7463,0.0015408,0.0495376,20.9924,533.981,0.855322,0.0,0.0
117,29,30.3077,30.7047,131.964,104.351,85.6274,0.00436368,0.0671571,20.9792,533.851,1.78565,0.0,1.0
126,31.25,30.4777,30.8221,127.782,104.499,85.4986,0.00848143,0.097586,20.9341,533.671,1.81203,0.0,1.0
135,33.5,31.0791,31.6093,126.604,104.637,86.6275,0.0123294,0.128517,20.8621,533.481,1.70548,0.0,1.0
144,35.75,31.2773,32.8952,130.428,104.721,86.9124,0.015123,0.161801,20.8129,533.211,1.68308,0.0,1.0
153,38,32.6929,33.3738,126.043,104.723,85.0134,0.0172585,0.193319,20.7768,532.82,1.88271,0.0,1.0
162,40.25,34.0905,34.1879,127.525,104.691,86.1456,0.0178878,0.204803,20.7641,532.45,1.76052,0.0,0.0
171,42.5,34.5196,34.7801,132.64,104.587,77.732,0.0172785,0.20999,20.7622,532.2,2.67948,0.0,0.0
180,44.75,35.5874,35.6113,126.81,104.472,71.9304,0.0163211,0.230564,20.7343,531.779,3.37,0.0,0.0
189,47,36.3602,36.3138,126.343,104.348,73.0283,0.0154664,0.261583,20.6903,531.659,3.22244,0.0,0.0
198,49.25,36.7697,37.1492,127.475,104.229,76.9642,0.0146729,0.28526,20.6582,531.429,2.73817,0.0,0.0
207,51.5,37.9225,37.9509,123.106,104.179,82.2233,0.0137463,0.301001,20.6435,531.189,2.13706,0.0,0.0
216,53.75,38.8003,38.9018,127.478,104.578,87.0267,0.0126726,0.310189,20.6389,530.879,1.65886,0.0,0.0
225,56,39.6626,39.6164,124.923,104.882,89.6668,0.0118513,0.317352,20.6369,530.689,1.41524,0.0,0.0
234,58.25,40.004,40.6134,127.61,105.06,92.9614,0.011313,0.324259,20.637,530.308,1.10472,0.0,0.0
243,60.5,41.1952,40.5699,129.165,105.098,93.2374,0.0110276,0.326453,20.6399,530.078,1.08125,0.0,0.0
252,62.75,41.4764,41.1549,123.067,105.053,93.1147,0.0108628,0.324347,20.6494,529.828,1.08922,0.0,0.0
261,65,41.7519,42.4525,126.295,104.879,95.1812,0.0108511,0.322155,20.6558,529.428,0.876089,0.0,0.0
270,67.25,42.4499,42.206,130.757,104.561,95.342,0.0110333,0.323881,20.6564,529.207,0.833417,0.0,0.0
279,69.5,43.2115,43.1431,121.721,104.664,98.9982,0.0111588,0.329439,20.6493,528.977,0.502527,0.0,0.0
288,71.75,43.5989,44.3103,124.331,104.834,99.8878,0.011172,0.339173,20.6378,528.647,0.436391,0.0,0.0
297,74,44.192,45.2074,131.288,105.046,100.518,0.0113776,0.350548,20.6252,528.317,0.397865,0.0,0.0
306,76.25,45.2477,45.9138,125.94,105.19,98.9822,0.0119912,0.361845,20.608,527.917,0.549214,0.0,0.0
315,78.5,45.5663,45.949,123.668,105.324,97.226,0.0128967,0.37431,20.5891,527.636,0.722379,0.0,0.0
324,80.75,46.3669,47.0754,126.242,105.416,97.3511,0.0140608,0.383065,20.5708,527.266,0.718628,0.0,0.0
333,83,46.9625,47.5818,124.842,105.422,96.9242,0.0147914,0.388112,20.5611,526.916,0.758892,0.0,0.0
342,85.25,48.1093,48.5904,124.315,105.361,96.0087,0.0150397,0.386453,20.5591,526.545,0.839296,0.0,0.0
351,87.5,47.7768,49.8503,124.942,105.23,94.8426,0.0150353,0.379285,20.5647,526.345,0.938439,0.0,0.0
360,89.75,48.8139,49.9013,125.182,105.051,92.2566,0.0149741,0.369085,20.5754,526.005,1.17268,0.0,0.0
369,92,49.3527,50.4352,126.391,104.796,92.5674,0.0149303,0.353947,20.5908,525.685,1.12038,0.0,0.0
378,94.25,49.0862,49.9619,123.484,104.52,90.8366,0.0146731,0.338911,20.6052,525.404,1.26693,0.0,0.0
387,96.5,49.0354,50.4195,123.419,104.229,89.4279,0.0142368,0.323915,20.6199,525.264,1.38291,0.0,0.0
396,98.75,49.3194,50.6394,130.891,103.962,86.5796,0.013617,0.309732,20.6389,525.064,1.65203,0.0,0.0
405,101,49.6263,50.4645,127.582,103.69,86.4681,0.0129334,0.290138,20.6622,524.824,1.64003,0.0,0.0
414,103.25,49.2554,50.5299,128.217,103.502,87.2091,0.0123115,0.273331,20.6854,524.644,1.54656,0.0,0.0
423,105.5,49.3348,51.1633,126.38,103.406,85.3749,0.0114507,0.259507,20.7032,524.434,1.73012,0.0,0.0
432,107.75,48.9452,50.8539,127.641,103.393,85.1309,0.0106393,0.251888,20.7123,524.424,1.75483,0.0,0.0
441,110,49.1001,50.2755,129.471,103.435,85.1412,0.0100056,0.24902,20.7137,524.244,1.75742,0.0,0.0
450,112.25,48.2415,50.8532,127.008,103.573,82.4151,0.00961396,0.251406,20.7068,524.043,2.06332,0.0,0.0
459,114.5,48.9422,50.6574,124.125,103.751,83.5572,0.009436,0.257162,20.6947,523.863,1.95454,0.0,0.0
468,116.75,48.9769,50.9506,127.19,103.928,79.151,0.00946412,0.261931,20.6836,523.733,2.45909,0.0,0.0
477,119,48.8475,50.6707,125.625,104.136,78.457,0.00968994,0.269669,20.6712,523.643,2.55665,0.0,0.0
486,121.25,49.0801,51.7509,128.732,104.341,80.0994,0.00998648,0.279097,20.6581,523.513,2.38737,0.0,0.0
495,123.5,49.0331,50.7882,123.028,104.5,80.2193,0.0101898,0.284396,20.6483,523.373,2.3876,0.0,0.0
504,125.75,49.1432,51.2449,125.447,104.618,78.4801,0.0103678,0.287037,20.6425,523.243,2.59574,0.0,0.0
513,128,49.1721,51.9491,121.837,104.713,79.4868,0.0105103,0.289062,20.6386,523.063,2.48878,0.0,0.0
522,130.25,49.7734,52.3929,122.928,104.732,76.9125,0.0105495,0.29051,20.6357,522.983,2.78773,0.0,0.0
531,132.5,50.2881,52.6277,124.908,104.713,77.6573,0.0104579,0.290112,20.6343,522.762,2.69907,0.0,0.0
540,134.75,50.3004,52.764,123.267,104.648,80.9251,0.0102261,0.28842,20.637,522.562,2.32124,0.0,0.0
549,137,50.3277,53.1661,123.631,104.56,77.5157,0.0100044,0.285725,20.6418,522.552,2.70231,0.0,0.0
558,139.25,51.1026,53.1682,127.098,104.463,81.462,0.00972866,0.280874,20.6529,522.342,2.24554,0.0,0.0
567,141.5,51.0114,53.2143,128.331,104.354,81.1635,0.00927512,0.271854,20.668,522.152,2.26931,0.0,0.0
576,143.75,50.5917,52.9397,126.96,104.274,82.3479,0.00863543,0.262757,20.6815,522.152,2.13155,0.0,0.0
585,146,50.2499,53.1445,128.503,104.195,84.5178,0.0079841,0.25462,20.698,522.042,1.88993,0.0,0.0
594,148.25,50.3204,53.29,125.329,104.139,87.8909,0.00755172,0.243641,20.7151,521.942,1.53166,0.0,0.0
603,150.5,49.8863,52.8332,130.173,104.3,90.2828,0.00721126,0.231862,20.7379,521.832,1.3032,0.0,0.0
612,152.75,49.8871,53.2029,131.398,104.456,93.2849,0.00685809,0.221031,20.7592,521.762,1.02128,0.0,0.0
621,155,49.6773,52.44,130.101,104.596,93.7053,0.00645331,0.210651,20.7767,521.631,0.992799,0.0,0.0
630,157.25,48.5003,51.6665,130.656,104.765,94.2474,0.00604217,0.201067,20.7922,521.571,0.955323,0.0,0.0
639,159.5,48.4495,51.7254,131.529,104.904,97.1357,0.00588609,0.192119,20.8095,521.491,0.694655,0.0,0.0
648,161.75,47.7732,51.4754,129.625,105.01,98.6676,0.00598126,0.182735,20.8243,521.361,0.562527,0.0,0.0
657,164,48.1517,51.6471,131.352,105.053,99.1416,0.00615935,0.173393,20.8388,521.311,0.522964,0.0,0.0
666,166.25,47.6537,50.6213,129.493,105.084,100.681,0.00626249,0.164307,20.8541,521.231,0.386489,0.0,0.0
675,168.5,46.8643,50.2055,133.598,105.079,101.84,0.00632047,0.1563,20.8623,521.221,0.28278,0.0,0.0
684,170.75,46.6737,50.1917,133.814,105.066,103.194,0.00643463,0.148481,20.8723,521.121,0.162346,0.0,0.0
693,173,45.9598,49.417,132.404,105.009,103.579,0.00670871,0.141802,20.8827,521.001,0.123807,0.0,0.0
702,175.25,45.0073,48.9778,134.036,104.951,103.819,0.00701774,0.135398,20.8912,520.931,0.0978716,0.0,0.0
711,177.5,45.0189,48.8888,133.61,104.9,104.298,0.00716902,0.129186,20.899,520.951,0.0520141,0.0,0.0
720,179.75,44.4189,47.913,137.181,104.797,104.603,0.00703337,0.123449,20.9078,520.881,0.0167568,0.0,0.0
729,182,43.7593,47.7573,134.092,104.684,105.348,0.00694234,0.117987,20.9147,520.871,-0.0571075,0.0,0.0
738,184.25,44.196,46.4804,133.502,104.55,104.835,0.00705579,0.114396,20.9181,520.791,-0.0245914,0.0,0.0
747,186.5,42.95,47.106,134.492,104.578,104.364,0.00725514,0.111553,20.9232,520.721,0.0184456,0.0,0.0
756,188.75,42.8166,46.0616,132.107,104.615,104.821,0.00737706,0.108744,20.9276,520.741,-0.0177553,0.0,0.0
765,191,41.8589,46.023,133.64,104.655,105.822,0.00723792,0.106478,20.9331,520.691,-0.100114,0.0,0.0
774,193.25,42.1509,45.9285,135.069,104.711,105.626,0.00703964,0.104354,20.9372,520.691,-0.0786378,0.0,0.0
783,195.5,41.8723,44.9342,131.666,104.773,106.081,0.00693607,0.102316,20.94,520.641,-0.112068,0.0,0.0
792,197.75,41.0811,44.9822,135.481,104.808,105.407,0.00685656,0.100502,20.9426,520.551,-0.0514759,0.0,0.0
801,200,40.9176,44.486,131.637,104.882,105.182,0.00670625,0.0987412,20.9463,520.461,-0.0257172,0.0,0.0
810,202.25,39.7521,44.3747,135.652,104.951,106.101,,0.0970584,,520.521,-0.0984359,0.0,0.0
819,204.5,39.4204,43.7792,136.248,104.994,106.198,,,,520.441,-0.103004,0.0,0.0
828,206.75,40.0563,43.3606,135.285,105.062,106.143,,,,520.441,-0.0923658,0.0,0.0
837,209,39.1987,43.1281,138.861,105.104,105.55,,,,520.38,-0.0382282,0.0,0.0
846,211.25,39.1201,42.9502,135.86,105.151,106.639,,,,520.411,-0.12692,0.0,0.0