File: 01_Data/Vinyl_Tile/Cone/Vinyl_Tile_Cone_HF75Scalar_220405_R3.csv
LABORATORY,FSRI
TEST IDENT,Vinyl_Tile_HF75_3
OPERATOR,Dow
MATERIAL,Vinyl Tile
ORIENTATION,Horizontal
HEAT FLUX,75
SURF AREA,0.01
C FACTOR,0.0386621
SPEC HOLDER DIFF,-566
SPECIMEN MASS,53.64
SCAN TIME,0.25
O2 DELAY TIME,11
CO DELAY TIME,11
CO2 DELAY TIME,8
FLOW FACTOR,1
SCAN COUNT,1649
TIME TO IGN,18.75
END OF TEST SCAN,1169
END OF TEST TIME,292.25
TEST STATUS,1
PRE TEST CMT,Dimensions: 101.84 x 101.46 x 2.50 mm; with frame and grid