File: 01_Data/Vinyl_Tile/Cone/Vinyl_Tile_Cone_HF25Scan_220405_R1.csv
Names,Time,Stack TC,Smoke TC,Exh Press,Smoke Comp,Smoke Meas,CO Meter,CO2 Meter,O2 Meter,Sample Mass,Ext Coeff,Start Test,Flame Verif
Chan Gain,,500,500,1,1,1,1,1,1,1,1,1.0,1.0
Offset,,0,0,0.132686,0,0,0,0,0,0,0,0.0,0.0
Gain,,1,1,25.011,13.1151,13.9355,1,1,1,1.00092,1.01752,1.0,1.0
Units,sec,C,C,Pa,%,%,%,%,%,g,/m,,
Baseline,,17.6858,18.2307,161.457,98.9257,97.6961,0.000581346,0.0700889,21.0052,-833.719,0.111649,,
20,4.75,17.1308,17.8013,157.529,98.6511,97.2512,0.000418289,0.0718845,21.002,186.952,0.127568,0.0,0.0
40,9.75,17.2822,17.4495,161.251,98.6635,97.392,0.000480123,0.0706626,21.0032,186.972,0.11578,0.0,0.0
60,14.75,16.8587,17.9945,161.359,98.6847,97.4851,0.000590171,0.0704603,21.0017,186.972,0.109167,0.0,0.0
80,19.75,17.4036,17.7943,158.311,98.6939,97.9993,0.000953795,0.0725326,21,186.962,0.0630472,0.0,0.0
100,24.75,17.3557,17.3344,162.499,98.7132,97.8789,0.000594398,0.0767874,20.9962,186.952,0.0757534,0.0,0.0
120,29.75,16.9742,17.9473,162.037,98.7304,97.7866,0.000593656,0.0786457,20.9948,186.952,0.0857283,0.0,0.0
140,34.75,17.7744,17.9218,164.722,98.736,97.8389,0.000896051,0.0756542,20.9993,186.962,0.0814614,0.0,0.0
160,39.75,17.0845,17.5452,160.347,98.7236,97.6463,0.000667479,0.0720235,21.0028,186.942,0.0979329,0.0,0.0
180,44.75,17.3525,17.576,167.134,98.6955,97.5212,0.000642369,0.0703585,21.0033,186.932,0.106835,0.0,0.0
200,49.75,17.3577,17.8047,163.402,98.6535,97.0756,0.000586571,0.0702232,21.0034,186.922,0.143919,0.0,0.0
220,54.75,17.2597,17.851,161.889,98.5967,97.8542,0.000455653,0.0701122,21.0034,186.912,0.0674656,0.0,0.0
240,59.75,17.5418,17.6376,166.26,98.5375,96.7728,0.000732495,0.0701672,21.0034,186.922,0.161296,0.0,0.0
260,64.75,17.3863,18.1813,162.379,98.4786,97.3226,0.000523015,0.0700926,21.0034,186.882,0.10539,0.0,0.0
280,69.75,17.5419,17.7943,159.47,98.4254,97.0998,0.000583913,0.0702559,21.0034,186.892,0.121025,0.0,0.0
300,74.75,17.5679,18.1926,160.382,98.3545,96.8242,0.000925214,0.0699671,21.0043,186.902,0.139968,0.0,0.0
320,79.75,17.3694,18.4607,163.622,98.2741,96.868,0.00070297,0.0704741,21.0048,186.882,0.128626,0.0,0.0
340,84.75,17.596,18.444,162.913,98.2113,96.3883,0.000536777,0.070794,21.0024,186.872,0.167229,0.0,0.0
360,89.75,17.656,18.2366,162.759,98.1148,95.8261,0.000565744,0.0705703,21.0011,186.802,0.210672,0.0,0.0
380,94.75,17.4873,17.9449,163.815,98.0436,95.4085,0.000663721,0.0714643,21.0009,186.832,0.243173,0.0,0.0
400,99.75,18.3602,18.3571,162.622,97.9587,94.9194,0.000694365,0.0722474,21.0043,186.792,0.281316,0.0,0.0
420,104.75,18.098,18.4262,153.133,97.8695,94.5592,0.00190189,0.0824032,20.9902,186.702,0.307116,0.0,1.0
440,109.75,18.1801,18.7572,159.445,97.783,91.9897,0.00234875,0.097431,20.9698,186.622,0.545126,0.0,0.0
460,114.75,18.2314,18.9785,153.527,97.6921,93.4675,0.00293749,0.11037,20.9485,186.302,0.394576,0.0,0.0
480,119.75,19.0545,19.9664,155.163,97.6225,92.7199,0.00397433,0.137175,20.9159,186.101,0.459894,0.0,0.0
500,124.75,19.8746,20.5949,158.739,97.5569,91.9663,0.00500834,0.157156,20.8896,185.771,0.52673,0.0,0.0
520,129.75,20.7499,21.7438,153.437,97.5092,90.7015,0.00607161,0.173258,20.8658,185.431,0.645973,0.0,0.0
540,134.75,21.2434,22.7181,150.215,97.45,89.6511,0.00692122,0.183198,20.8542,185.101,0.744522,0.0,0.0
560,139.75,21.9257,23.3949,155.998,97.412,87.8377,0.00693344,0.188662,20.8488,184.67,0.923429,0.0,0.0
580,144.75,22.83,24.3282,155.446,97.3892,85.747,0.00695724,0.187175,20.8547,184.3,1.13635,0.0,0.0
600,149.75,23.7436,25.0111,156.144,97.3668,87.261,0.00731337,0.184929,20.8561,183.909,0.978075,0.0,0.0
620,154.75,24.5403,25.6123,156.256,97.3615,87.8504,0.00790082,0.185364,20.8526,183.549,0.91751,0.0,0.0
640,159.75,24.9508,26.523,153.091,97.3611,86.6422,0.00852251,0.190653,20.84,183.189,1.04108,0.0,0.0
660,164.75,25.3646,26.7583,153.428,97.368,87.0318,0.00876085,0.190572,20.8377,182.858,1.00166,0.0,0.0
680,169.75,26.2415,26.9968,152.981,97.3864,87.8806,0.00858587,0.185965,20.8421,182.508,0.916717,0.0,0.0
700,174.75,26.2433,27.1839,150.632,97.4208,87.395,0.00826399,0.18394,20.8428,182.188,0.969335,0.0,0.0
720,179.75,26.2167,28.0023,150.112,97.4464,84.4121,0.00806053,0.186071,20.8376,181.898,1.28164,0.0,0.0
740,184.75,26.6141,28.0779,151.155,97.4856,86.0413,0.00839139,0.189375,20.8314,181.587,1.1146,0.0,0.0
760,189.75,26.9543,29.0562,151.226,97.5365,84.2194,0.00791353,0.192023,20.8287,181.317,1.31028,0.0,0.0
780,194.75,27.4445,28.3025,153.774,97.5913,84.464,0.00743253,0.191894,20.8284,181.097,1.28942,0.0,0.0
800,199.75,27.4175,29.5169,156.317,97.6537,84.3993,0.00708529,0.192389,20.8261,180.807,1.30196,0.0,0.0
820,204.75,27.4874,29.2664,153.995,97.7278,82.7161,0.00678574,0.193354,20.824,180.626,1.48854,0.0,0.0
840,209.75,27.6516,29.8378,152.788,97.835,83.5033,0.0062854,0.193967,20.8221,180.366,1.41379,0.0,0.0
860,214.75,27.9391,29.8692,153.585,97.9111,83.6334,0.00646896,0.197044,20.8204,180.156,1.40682,0.0,0.0
880,219.75,27.5382,29.6284,155.067,98.0259,83.2409,0.0061169,0.195106,20.8215,179.956,1.45928,0.0,0.0
900,224.75,27.8871,30.4304,155.675,98.1348,83.6721,0.00593779,0.192639,20.8261,179.746,1.42306,0.0,0.0
920,229.75,28.4996,29.7389,151.669,98.2317,83.189,0.00609074,0.190035,20.8287,179.505,1.48355,0.0,0.0
940,234.75,28.3654,29.9596,158.913,98.3349,83.7691,0.00600234,0.186376,20.8335,179.335,1.43091,0.0,0.0
960,239.75,28.1906,30.2104,149.279,98.4358,82.4664,0.00581664,0.1863,20.8351,179.145,1.57995,0.0,0.0
980,244.75,28.2012,30.5845,154.775,98.5383,85.9201,0.00541303,0.186674,20.8363,178.945,1.22305,0.0,0.0
1000,249.75,28.3474,30.4675,156.352,98.6411,85.326,0.00530177,0.185147,20.8401,178.765,1.29429,0.0,0.0
1020,254.75,28.0108,30.4214,150.213,98.7248,86.7052,0.00533512,0.18372,20.8416,178.575,1.15874,0.0,0.0
1040,259.75,27.6967,29.8938,151.716,98.8028,86.1149,0.00479357,0.179492,20.8492,178.404,1.22677,0.0,0.0
1060,264.75,28.2827,29.841,154.938,98.8717,87.5859,0.00465712,0.17531,20.8571,178.224,1.0818,0.0,0.0
1080,269.75,28.0589,30.0339,154.465,98.9409,89.1246,0.00466775,0.172982,20.8629,178.044,0.932612,0.0,0.0
1100,274.75,28.059,30.2203,154.275,99.0117,90.0491,0.00419091,0.170664,20.8662,177.884,0.846886,0.0,0.0
1120,279.75,27.8772,29.7819,155.659,99.0722,91.3033,0.00391075,0.167718,20.8726,177.734,0.728881,0.0,0.0
1140,284.75,27.7418,30.0991,153.457,99.1166,92.0518,0.00382757,0.164375,20.8803,177.624,0.660011,0.0,0.0
1160,289.75,27.7616,29.4169,154.205,99.173,93.3029,0.00401446,0.160633,20.8868,177.474,0.544591,0.0,0.0
1180,294.75,27.0368,28.7452,154.78,99.2038,94.4244,0.00431176,0.158274,20.8913,177.353,0.440724,0.0,0.0
1200,299.75,27.2005,29.1185,157.992,99.2539,96.0617,0.00413663,0.154674,20.8967,177.223,0.29178,0.0,0.0
1220,304.75,27.3272,29.0028,154.744,99.2907,95.3961,0.00371674,0.149493,20.9031,177.103,0.357146,0.0,0.0
1240,309.75,26.7457,28.7036,156.462,99.3227,95.898,0.00392557,0.14533,20.9094,176.993,0.313195,0.0,0.0
1260,314.75,26.769,28.599,157.265,99.3451,96.4746,0.0038268,0.141345,20.916,176.853,0.261697,0.0,0.0
1280,319.75,26.6384,28.1841,159.355,99.3639,96.5006,0.00393515,0.135151,20.9238,176.723,0.260986,0.0,0.0
1300,324.75,26.4572,27.7125,157.451,99.388,96.3245,0.00385619,0.131005,20.9285,176.623,0.279443,0.0,0.0
1320,329.75,25.235,27.2461,157.246,99.3976,96.6388,0.00420463,0.125614,20.9339,176.533,0.251231,0.0,0.0
1340,334.75,25.812,27.6843,158.896,99.4008,96.774,0.00402843,0.120201,20.9417,176.423,0.239036,0.0,0.0
1360,339.75,25.6319,27.4202,159.58,99.402,95.6721,0.00395624,0.114057,20.9522,176.332,0.341357,0.0,0.0
1380,344.75,25.4234,26.591,156.453,99.4164,96.4857,0.00362893,0.103365,20.9653,176.212,0.267072,0.0,0.0
1400,349.75,24.8054,26.2934,159.94,99.3992,95.741,0.00358187,0.0998105,20.9687,176.162,0.33468,0.0,0.0
1420,354.75,23.773,24.8997,158.912,99.3888,96.2705,0.00345822,0.0978943,20.9721,176.102,0.284521,0.0,0.0
1440,359.75,22.7918,24.9584,159.974,99.3768,95.5862,0.00329136,0.0957993,20.9757,175.992,0.34711,0.0,0.0
1460,364.75,22.9059,24.6693,158.788,99.3599,95.8695,0.00322581,0.0929141,20.9783,175.922,0.319192,0.0,0.0
1480,369.75,22.1091,22.9165,158.005,99.3351,96.2879,0.00299405,0.0911308,20.9805,175.842,0.278086,0.0,0.0
1500,374.75,22.2228,23.6731,158.974,99.3043,96.6558,0.00305248,0.0909794,20.9795,175.792,0.241283,0.0,0.0
1520,379.75,22.0993,23.8897,155.699,99.2663,96.3824,0.00296815,0.0906329,20.979,175.732,0.263151,0.0,0.0
1540,384.75,21.8377,23.0163,159.739,99.2255,96.9939,0.00283957,0.0905288,20.9789,175.672,0.203027,0.0,0.0
1560,389.75,22.0994,23.4833,162.03,99.1858,97.1797,0.00306281,0.0908177,20.9789,175.632,0.182376,0.0,0.0
1580,394.75,21.9397,23.2966,162.757,99.1322,97.1857,0.00314985,0.0906805,20.9789,175.592,0.177001,0.0,0.0
1600,399.75,21.642,23.025,162.346,99.0962,97.1011,0.0031319,0.0908277,20.9777,175.502,0.181533,0.0,0.0
1620,404.75,21.0595,22.1068,159.367,99.0197,96.6873,0.00318259,0.0911029,20.9776,175.472,0.212763,0.0,0.0
1640,409.75,21.0165,22.3881,152.591,98.9917,97.5557,0.00317868,0.0916215,20.9776,175.412,0.130428,0.0,0.0
1660,414.75,21.2869,22.0469,157.828,98.9169,96.7213,0.00317715,0.0915748,20.9776,175.362,0.200345,0.0,0.0
1680,419.75,21.089,21.7674,160.144,98.8652,97.551,0.00343855,0.0915595,20.9779,175.332,0.119444,0.0,0.0
1700,424.75,21.051,22.0367,160.379,98.8156,96.8374,0.00337608,0.0921047,20.9767,175.261,0.180497,0.0,0.0
1720,429.75,20.7865,21.8874,158.114,98.7628,97.1062,0.00327128,0.0921978,20.9766,175.221,0.150984,0.0,0.0
1740,434.75,20.6085,21.6899,157.55,98.7196,96.8463,0.0031453,0.0926125,20.978,175.191,0.170993,0.0,0.0
1760,439.75,20.2289,21.2633,159.003,98.6763,96.9518,0.00309751,0.0927612,20.9769,175.151,0.157369,0.0,0.0
1780,444.75,20.7953,21.3588,157.655,98.6363,97.3745,0.00307768,0.0931011,20.9774,175.121,0.114915,0.0,0.0
1800,449.75,20.3259,21.4319,156.617,98.6167,97.2878,0.00328686,0.0931211,20.9775,175.071,0.121096,0.0,0.0
1820,454.75,20.8455,21.0757,157.881,98.7372,97.3248,0.00325947,0.0936265,20.978,175.001,0.1286,0.0,0.0
1840,459.75,20.4838,21.0111,158.249,98.8456,97.4111,,0.0935644,,174.981,0.130484,0.0,0.0
1860,464.75,20.7098,21.1477,158.974,98.9157,97.292,,,,174.921,0.147725,0.0,0.0
1880,469.75,20.4269,21.2254,159.132,98.9853,97.688,,,,174.911,0.117757,0.0,0.0