File: 01_Data/Vinyl_Tile/Cone/Vinyl_Tile_Cone_HF75Scan_220405_R2.csv
Names,Time,Stack TC,Smoke TC,Exh Press,Smoke Comp,Smoke Meas,CO Meter,CO2 Meter,O2 Meter,Sample Mass,Ext Coeff,Start Test,Flame Verif
Chan Gain,,500,500,1,1,1,1,1,1,1,1,1.0,1.0
Offset,,0,0,0.132686,0,0,0,0,0,0,0,0.0,0.0
Gain,,1,1,25.011,13.1151,13.9355,1,1,1,1.00092,1.01752,1.0,1.0
Units,sec,C,C,Pa,%,%,%,%,%,g,/m,,
Baseline,,42.0838,43.8693,147.49,98.0947,97.0635,0.000413487,0.0610548,21.0218,-836.798,0.0943967,,
19,4.5,40.7106,42.5457,143.765,97.8062,96.6022,0.000403669,0.0642234,21.0165,188.514,0.110555,0.0,0.0
38,9.25,40.8114,42.8515,144.826,97.7442,96.1506,0.000817996,0.0657946,21.017,188.464,0.14672,0.0,0.0
57,14,41.2548,42.9508,150.154,97.7198,94.4397,0.000687817,0.0643314,21.0187,188.424,0.304741,0.0,0.0
76,18.75,41.0798,42.4786,151.58,97.7086,89.358,0.00275597,0.0686416,21.0083,188.303,0.797392,0.0,1.0
95,23.5,41.3966,43.5301,137.465,97.6765,79.6247,0.0106371,0.124371,20.8983,188.003,1.82382,0.0,1.0
114,28.25,42.9138,44.5772,133.726,97.6517,77.2976,0.0187104,0.201502,20.7866,187.363,2.0863,0.0,0.0
133,33,44.7039,47.0941,134.472,97.6121,62.4435,0.0209592,0.257178,20.7267,186.662,3.98741,0.0,0.0
152,37.75,46.9942,49.2517,138.695,97.6161,60.1117,0.0217066,0.299233,20.6682,185.981,4.32746,0.0,0.0
171,42.5,48.939,51.5436,132.354,97.5897,63.9958,0.0218572,0.328582,20.6401,185.261,3.76619,0.0,0.0
190,47.25,50.6715,53.3721,128.721,97.5877,66.971,0.0216095,0.339863,20.6381,184.63,3.3604,0.0,0.0
209,52,52.0223,54.9699,133.36,97.5785,70.0628,0.0222777,0.357692,20.6235,183.959,2.95674,0.0,0.0
228,56.75,53.5325,56.7824,131.685,97.5645,72.0539,0.0252163,0.381757,20.598,183.169,2.70533,0.0,0.0
247,61.5,55.5702,58.9875,132.151,97.5537,65.8564,0.0305411,0.4284,20.5139,182.258,3.5071,0.0,0.0
266,66.25,57.3544,61.4967,132.486,97.5489,61.9208,0.035601,0.445818,20.4706,181.347,4.05665,0.0,0.0
285,71,59.0469,62.5709,135.097,97.5369,62.5133,0.0339669,0.415067,20.5103,180.626,3.97056,0.0,0.0
304,75.75,59.7917,63.4969,132.992,97.5232,62.6859,0.0284188,0.371497,20.5649,179.996,3.9447,0.0,0.0
323,80.5,59.9546,64.1853,130.641,97.498,60.7033,0.0233568,0.340702,20.6054,179.455,4.22925,0.0,0.0
342,85.25,60.8051,64.7571,137.29,97.478,60.6897,0.0209403,0.329075,20.6152,178.955,4.22942,0.0,0.0
361,90,61.2632,65.4363,128.582,97.4588,55.0875,0.0199861,0.32857,20.6099,178.514,5.09211,0.0,0.0
380,94.75,61.3884,66.0517,135.772,97.4496,56.7575,0.0187499,0.330169,20.6053,178.024,4.82469,0.0,0.0
399,99.5,61.6953,66.6076,134.982,97.4588,60.0594,0.0170769,0.322752,20.6196,177.604,4.32084,0.0,0.0
418,104.25,61.905,66.4384,137.891,97.4472,63.2898,0.0147206,0.309079,20.6571,177.143,3.85216,0.0,0.0
437,109,61.793,66.1944,137.011,97.4432,71.0979,0.0123832,0.286993,20.7001,176.833,2.81345,0.0,0.0
456,113.75,61.5098,66.2845,135.755,97.4476,77.1794,0.0103397,0.26704,20.7415,176.523,2.08129,0.0,0.0
475,118.5,60.7316,65.4483,139.372,97.4564,81.9335,0.00879518,0.248699,20.7756,176.202,1.54856,0.0,0.0
494,123.25,60.6409,65.1173,139.603,97.4644,85.7508,0.00759267,0.232057,20.8037,175.942,1.14284,0.0,0.0
513,128,59.8909,64.5329,137.635,97.474,89.2011,0.00647984,0.215355,20.8308,175.712,0.79163,0.0,0.0
532,132.75,59.339,63.4414,140.876,97.4876,90.0257,0.00581681,0.203951,20.8505,175.492,0.710743,0.0,0.0
551,137.5,58.4576,62.9668,140.025,97.4936,91.5023,0.0054501,0.196952,20.8614,175.281,0.566086,0.0,0.0
570,142.25,58.1525,62.627,146.829,97.524,92.9482,0.00525105,0.188128,20.8752,175.161,0.428929,0.0,0.0
589,147,56.908,61.082,142.081,97.5473,93.4348,0.00491889,0.180632,20.8849,174.971,0.384456,0.0,0.0
608,151.75,56.3251,60.9588,138.839,97.5849,93.5479,0.00474602,0.178021,20.889,174.841,0.377098,0.0,0.0
627,156.5,56.1196,60.4597,143.13,97.6037,93.897,0.0048864,0.173176,20.8961,174.691,0.345568,0.0,0.0
646,161.25,55.6073,59.4821,138.385,97.6301,94.3155,0.0046674,0.169768,20.8996,174.561,0.308293,0.0,0.0
665,166,55.0295,58.9536,143.488,97.6701,94.0812,0.00472973,0.167507,20.9011,174.411,0.334154,0.0,0.0
684,170.75,54.4904,58.5012,140.397,97.7074,93.9493,0.00511253,0.164734,20.9043,174.301,0.350071,0.0,0.0
703,175.5,54.4332,58.4118,142.267,97.7546,94.0774,0.00528041,0.162163,20.9092,174.18,0.342231,0.0,0.0
722,180.25,53.9962,57.9713,141.994,97.7882,94.617,0.00498327,0.15817,20.913,174.06,0.294245,0.0,0.0
741,185,53.8075,57.1055,141.254,97.813,94.5673,0.0050197,0.154838,20.9161,173.92,0.301205,0.0,0.0
760,189.75,53.4076,56.9392,140.98,97.8514,94.3653,0.0048205,0.15171,20.9208,173.83,0.323797,0.0,0.0
779,194.5,53.0975,56.8344,142.986,97.8699,94.9747,0.00494981,0.147714,20.9256,173.76,0.268018,0.0,0.0
798,199.25,52.3645,55.988,144.361,97.9507,94.549,0.00538272,0.145109,20.9304,173.62,0.315485,0.0,0.0
817,204,51.8908,55.4932,141.13,98.0075,95.2911,0.00564539,0.143249,20.9338,173.52,0.250881,0.0,0.0
836,208.75,51.8026,54.8451,147.575,98.0307,96.0145,0.00558912,0.14062,20.937,173.44,0.185492,0.0,0.0
855,213.5,51.1916,54.505,141.653,98.06,95.9443,0.00551695,0.136898,20.942,173.36,0.194677,0.0,0.0
874,218.25,51.1267,54.6334,143.661,98.1104,95.8784,0.00563288,0.13396,20.9461,173.27,0.205401,0.0,0.0
893,223,51.3322,54.3386,147.509,98.1764,96.4155,0.00578042,0.131028,20.951,173.23,0.161544,0.0,0.0
912,227.75,50.6294,53.8583,148.94,98.2353,97.1121,0.00590934,0.128883,20.9525,173.109,0.102636,0.0,0.0
931,232.5,50.1902,53.3861,144.717,98.2941,96.7583,0.00591635,0.127998,20.9538,173.039,0.14056,0.0,0.0
950,237.25,49.8299,52.4907,146.763,98.3317,96.8561,0.00598486,0.124925,20.9564,172.919,0.134957,0.0,0.0
969,242,49.5335,52.7085,141.424,98.397,96.1323,0.00620668,0.124285,20.957,172.819,0.207829,0.0,0.0
988,246.75,49.4196,52.496,147.201,98.457,96.9986,0.00645952,0.127108,20.9536,172.799,0.133202,0.0,0.0
1007,251.5,49.7416,52.6654,141.554,98.507,96.5856,0.00634618,0.127546,20.9537,172.709,0.175815,0.0,0.0
1026,256.25,49.1374,52.1021,145.41,98.5671,97.486,0.00665935,0.124453,20.9575,172.599,0.0984391,0.0,0.0
1045,261,49.0685,51.8429,142.592,98.6083,97.3707,0.00688373,0.121158,20.9627,172.539,0.11273,0.0,0.0
1064,265.75,48.8009,51.5728,147.692,98.6367,97.8883,0.00658824,0.119591,20.9646,172.469,0.067984,0.0,0.0
1083,270.5,48.5883,51.2409,147.898,98.6843,97.483,0.0066604,0.118371,20.9671,172.399,0.109325,0.0,0.0
1102,275.25,48.7092,51.0972,144.612,98.6795,97.7628,0.00700631,0.117102,20.968,172.309,0.0833052,0.0,0.0
1121,280,48.2392,50.9855,144.854,98.716,97.3941,0.00706834,0.117445,20.9664,172.259,0.120326,0.0,0.0
1140,284.75,48.4109,50.8939,144.625,98.7336,97.6378,0.00703619,0.117998,20.9658,172.159,0.0996145,0.0,0.0
1159,289.5,48.4858,50.7397,146.299,98.732,97.8968,0.00714026,0.118134,20.9669,172.069,0.0758252,0.0,0.0
1178,294.25,48.0499,50.6591,144.738,98.7348,97.6093,0.00686305,0.118648,20.967,172.018,0.102328,0.0,0.0
1197,299,47.5424,50.5468,141.759,98.7412,97.3613,0.00659297,0.117466,20.969,171.968,0.125607,0.0,0.0
1216,303.75,47.5852,50.1432,141.701,98.7432,97.3035,0.00680346,0.116069,20.971,171.898,0.131092,0.0,0.0
1235,308.5,47.5959,50.2562,141.736,98.7408,97.2882,0.00688767,0.115132,20.9716,171.838,0.132279,0.0,0.0
1254,313.25,47.6505,50.3358,142.62,98.7196,97.9644,0.0068323,0.11451,20.971,171.758,0.0685405,0.0,0.0
1273,318,47.7157,50.1261,143.058,98.706,98.297,0.0069323,0.113839,20.9729,171.678,0.0370612,0.0,0.0
1292,322.75,47.4927,49.8147,144.512,98.6919,97.5157,0.00667566,0.112935,20.9738,171.648,0.107015,0.0,0.0
1311,327.5,47.1665,49.6066,149.06,98.6843,97.901,0.00666088,0.113159,20.974,171.618,0.0711302,0.0,0.0
1330,332.25,46.9475,49.3968,143.791,98.6759,97.2967,0.00679122,0.113496,20.9735,171.498,0.125636,0.0,0.0
1349,337,47.0032,49.451,146.229,98.6615,97.1827,0.00708268,0.112104,20.9746,171.418,0.134795,0.0,0.0
1368,341.75,46.867,49.4097,145.49,98.6335,97.1496,0.00678143,0.110094,20.977,171.388,0.135307,0.0,0.0
1387,346.5,47.2306,49.3689,143.345,98.6215,97.4928,0.00685884,0.109095,20.9793,171.278,0.102744,0.0,0.0
1406,351.25,46.9113,49.3681,147.914,98.6071,97.4745,0.00671069,0.108302,20.9809,171.258,0.103115,0.0,0.0
1425,356,47.1422,49.2763,145.738,98.5899,97.7075,0.00638304,0.107029,20.9817,171.188,0.0802425,0.0,0.0
1444,360.75,46.9424,48.9702,146.64,98.5927,97.5974,0.00658582,0.106322,20.9821,171.128,0.0905642,0.0,0.0
1463,365.5,46.1735,48.8854,138.957,98.5587,97.3681,0.0065388,0.106891,20.9818,171.118,0.108471,0.0,0.0
1482,370.25,46.87,49.1494,147.837,98.5375,97.2095,0.00652434,0.106559,20.982,171.018,0.121103,0.0,0.0
1501,375,46.423,49.0271,145.31,98.5254,96.9692,0.00636918,0.105893,20.9832,170.978,0.142104,0.0,0.0
1520,379.75,46.737,49.2355,144.604,98.513,97.7981,0.00614389,0.105477,20.9845,170.897,0.0650111,0.0,0.0
1539,384.5,46.4203,49.233,143.52,98.511,98.0694,0.00611753,0.104893,20.9849,170.857,0.0401018,0.0,0.0
1558,389.25,46.7041,48.8773,148.495,98.4894,96.7196,0.00632092,0.104607,20.9861,170.817,0.161848,0.0,0.0
1577,394,46.0623,48.3445,145.306,98.467,97.5617,0.00614172,0.103942,20.987,170.767,0.0824461,0.0,0.0
1596,398.75,46.0558,48.5127,148.153,98.455,96.5078,0.00614642,0.103939,20.9884,170.697,0.178295,0.0,0.0
1615,403.5,46.2971,48.4651,141.194,98.4374,97.1661,0.00589415,0.103537,20.987,170.617,0.116018,0.0,0.0
1634,408.25,46.3342,48.7418,147.771,98.423,97.1593,0.00584074,0.102944,20.9871,170.557,0.115336,0.0,0.0
1653,413,46.2268,48.8535,140.851,98.4162,97.6403,0.00616973,0.102644,20.9882,170.517,0.0706425,0.0,0.0
1672,417.75,46.2332,48.604,144.281,98.3814,97.4949,0.00604068,0.103065,20.9884,170.497,0.0807897,0.0,0.0
1691,422.5,46.3743,48.7315,144.042,98.3786,96.6235,0.00591274,0.102217,20.9884,170.417,0.160669,0.0,0.0
1710,427.25,46.1653,48.3498,146.715,98.3738,97.4086,0.00555203,0.101811,20.9859,170.377,0.0880064,0.0,0.0
1729,432,46.1619,48.3635,146.758,98.365,97.3329,0.00537609,0.101334,20.9863,170.307,0.0941467,0.0,0.0
1748,436.75,46.0018,48.4864,143.714,98.3497,96.9386,,,,170.277,0.128991,0.0,0.0
1767,441.5,45.8467,48.8381,150.133,98.3429,97.1019,,,,170.157,0.11335,0.0,0.0
1778,444.25,46.5981,48.7774,146.995,98.3285,97.3869,,,,170.177,0.0858896,0.0,0.0