File: 01_Data/Vinyl_Tile/Cone/Vinyl_Tile_Cone_HF50Scan_220405_R1.csv
Names,Time,Stack TC,Smoke TC,Exh Press,Smoke Comp,Smoke Meas,CO Meter,CO2 Meter,O2 Meter,Sample Mass,Ext Coeff,Start Test,Flame Verif
Chan Gain,,500,500,1,1,1,1,1,1,1,1,1.0,1.0
Offset,,0,0,0.132686,0,0,0,0,0,0,0,0.0,0.0
Gain,,1,1,25.011,13.1151,13.9355,1,1,1,1.00092,1.01752,1.0,1.0
Units,sec,C,C,Pa,%,%,%,%,%,g,/m,,
Baseline,,32.4506,33.9354,153.054,99.2572,98.2603,0.000821199,0.060544,21.0234,-836.48,0.090175,,
21,5,30.8485,32.5306,159.173,99.3171,98.2897,0.00070907,0.0692722,21.0153,183.599,0.0928126,0.0,0.0
42,10.25,30.6151,32.6383,150.769,99.3495,98.1787,0.000683678,0.0732675,21.0104,183.529,0.105811,0.0,0.0
63,15.5,31.2871,32.679,151.079,99.3515,97.8381,0.000559656,0.070049,21.0139,183.579,0.137012,0.0,0.0
84,20.75,31.2781,32.1326,151.201,99.3884,98.3093,0.000512481,0.0763722,21.0067,183.539,0.0974362,0.0,0.0
105,26,31.1936,32.6291,153.56,99.4072,97.7483,0.00073395,0.0746996,21.0107,183.489,0.1502,0.0,0.0
126,31.25,31.2121,32.7601,148.849,99.4236,96.4032,0.00060414,0.0691986,21.0179,183.519,0.275353,0.0,0.0
147,36.5,31.3965,32.3141,150.529,99.4364,92.0573,0.000964474,0.067952,21.0168,183.409,0.688227,0.0,0.0
168,41.75,31.2324,32.6108,142.637,99.4548,85.1231,0.00536471,0.0932831,20.9551,183.159,1.38886,0.0,1.0
189,47,32.4687,34.0667,144.954,99.4308,84.7493,0.0121009,0.165891,20.8464,182.698,1.42599,0.0,1.0
210,52.25,34.4637,35.6053,141.703,99.4404,86.7966,0.0148756,0.226131,20.7835,182.038,1.2138,0.0,0.0
231,57.5,36.1306,38.3933,140.836,99.454,72.3338,0.0151569,0.24824,20.7578,181.497,2.84194,0.0,0.0
252,62.75,37.4297,39.9893,140.858,99.4452,69.6226,0.0166395,0.263578,20.7327,180.897,3.18212,0.0,0.0
273,68,38.903,41.58,145.263,99.452,73.4922,0.0165297,0.285026,20.7074,180.336,2.69995,0.0,0.0
294,73.25,40.5696,42.5858,139.073,99.448,73.2281,0.0160205,0.296405,20.7009,179.746,2.73172,0.0,0.0
315,78.5,41.6128,44.2629,145.845,99.4332,77.0769,0.0160932,0.305406,20.6934,179.165,2.27319,0.0,0.0
336,83.75,43.0672,45.6311,139.525,99.4376,80.8678,0.0170784,0.325947,20.6695,178.534,1.84505,0.0,0.0
357,89,44.1586,46.83,140.322,99.4628,82.3439,0.0169787,0.345207,20.6441,177.864,1.68585,0.0,0.0
378,94.25,45.5895,48.3647,138.454,99.4292,84.1042,0.0166863,0.358794,20.6289,177.163,1.49405,0.0,0.0
399,99.5,46.4741,49.5315,144.677,99.4256,84.586,0.0162944,0.349882,20.6405,176.573,1.44274,0.0,0.0
420,104.75,47.1393,50.4037,142.501,99.4304,81.8702,0.0156576,0.321087,20.6782,176.002,1.73444,0.0,0.0
441,110,47.4739,50.7064,142.52,99.4272,79.5171,0.0137893,0.291687,20.7122,175.622,1.99445,0.0,0.0
462,115.25,47.5687,51.0272,144.493,99.4224,78.1915,0.0120597,0.27469,20.7305,175.241,2.14407,0.0,0.0
483,120.5,48.0908,50.9615,143.216,99.428,76.8596,0.0113417,0.266998,20.7352,174.831,2.29792,0.0,0.0
504,125.75,48.3007,51.267,142.385,99.4132,75.1631,0.0110511,0.268571,20.7278,174.451,2.4958,0.0,0.0
525,131,47.9198,52.2282,142.55,99.4188,73.8116,0.0110309,0.270387,20.724,174.07,2.65826,0.0,0.0
546,136.25,48.7481,51.7077,141.796,99.4212,72.7233,0.0111002,0.267067,20.7272,173.64,2.79106,0.0,0.0
567,141.5,48.7282,52.0083,140.759,99.4372,71.9667,0.0108692,0.262064,20.7324,173.31,2.88584,0.0,0.0
588,146.75,48.824,52.5099,147.694,99.4068,76.9612,0.010452,0.255763,20.7421,172.929,2.28422,0.0,0.0
609,152,48.6009,52.3522,144.69,99.4236,75.8682,0.0100418,0.246306,20.7601,172.679,2.4134,0.0,0.0
630,157.25,48.4042,52.0641,144.329,99.4192,81.5627,0.00885903,0.233818,20.7815,172.389,1.76702,0.0,0.0
651,162.5,48.3613,52.2845,144.223,99.4072,83.4756,0.00744818,0.219134,20.8066,172.129,1.55903,0.0,0.0
672,167.75,47.8658,51.4507,146.533,99.4056,89.0476,0.00626765,0.204,20.8316,171.878,0.982145,0.0,0.0
693,173,47.6805,50.6925,150.521,99.416,90.1708,0.00535818,0.189752,20.858,171.708,0.871206,0.0,0.0
714,178.25,46.7701,50.5719,145.115,99.3824,93.0197,0.00492802,0.185155,20.8694,171.598,0.590548,0.0,0.0
735,183.5,46.3826,49.5586,150.694,99.3764,93.9868,0.00483626,0.174904,20.8841,171.418,0.497692,0.0,0.0
756,188.75,45.3763,48.5243,150.071,99.3776,95.1622,0.00460848,0.166096,20.8953,171.288,0.386862,0.0,0.0
777,194,45.2232,48.4018,147.357,99.3427,95.9613,0.00460629,0.161088,20.9046,171.158,0.309097,0.0,0.0
798,199.25,44.8034,48.1592,148.145,99.3235,96.4257,0.00477242,0.152674,20.9189,171.048,0.264281,0.0,0.0
819,204.5,43.755,47.1993,147.877,99.3007,96.6537,0.00480409,0.144841,20.9259,170.947,0.241155,0.0,0.0
840,209.75,43.2677,46.8778,149.379,99.2703,96.1961,0.00496288,0.139902,20.932,170.857,0.280778,0.0,0.0
861,215,42.835,45.9067,149.153,99.2115,96.8115,0.00510281,0.136224,20.9361,170.727,0.218571,0.0,0.0
882,220.25,42.4227,45.8039,149.358,99.183,96.6554,0.00479802,0.134519,20.9374,170.667,0.230415,0.0,0.0
903,225.5,41.8969,44.8315,147.022,99.111,96.874,0.00455154,0.133917,20.9387,170.587,0.203766,0.0,0.0
924,230.75,41.6435,44.6439,145.931,99.0534,96.5873,0.00455986,0.131034,20.9425,170.497,0.225023,0.0,0.0
945,236,41.3071,43.9683,149.043,98.9965,96.5801,0.00446011,0.127642,20.946,170.387,0.220569,0.0,0.0
966,241.25,40.7635,43.475,148.433,98.9177,96.9131,0.00468319,0.1264,20.9475,170.307,0.182735,0.0,0.0
987,246.5,40.4806,43.2387,148.359,98.8296,96.3534,0.00451898,0.125182,20.9485,170.217,0.226481,0.0,0.0
1008,251.75,40.4813,42.4469,151.306,98.7472,96.8642,0.00441298,0.123906,20.9509,170.127,0.171842,0.0,0.0
1029,257,40.2094,42.3453,147.852,98.6567,96.6779,0.00422052,0.122122,20.9535,170.087,0.180844,0.0,0.0
1050,262.25,39.8341,42.1759,149.095,98.5591,96.6086,0.00385938,0.121294,20.9554,170.007,0.178406,0.0,0.0
1071,267.5,39.9969,41.672,146.518,98.473,96.3551,0.00401185,0.120873,20.9572,169.927,0.194059,0.0,0.0
1092,272.75,39.7868,41.8609,148.888,98.4182,96.1735,0.00365913,0.118839,20.96,169.867,0.205924,0.0,0.0
1113,278,39.2227,41.5434,148.639,98.3345,96.2369,0.00340319,0.116457,20.9623,169.786,0.192456,0.0,0.0
1134,283.25,39.5127,41.8389,149.159,98.2913,96.8901,0.00356676,0.115443,20.9627,169.726,0.128152,0.0,0.0
1155,288.5,38.8087,41.3561,150.898,98.2417,96.3704,0.0036881,0.115821,20.9607,169.656,0.171647,0.0,0.0
1176,293.75,39.0278,40.7773,149.188,98.1924,96.4423,0.00373561,0.114046,20.9636,169.576,0.160519,0.0,0.0
1197,299,38.4134,41.0663,152.508,98.14,96.7996,0.00337383,0.110017,20.9689,169.446,0.122752,0.0,0.0
1218,304.25,38.5458,40.1962,149.642,98.0988,96.3262,0.00355092,0.110075,20.9695,169.506,0.162753,0.0,0.0
1239,309.5,38.2612,40.3426,148.54,98.038,97.3214,0.00329528,0.115288,20.9657,169.406,0.065479,0.0,0.0
1260,314.75,38.5326,39.7941,147.635,97.9911,96.0047,0.00320236,0.111303,20.9716,169.376,0.182793,0.0,0.0
1281,320,37.9928,39.4919,148.91,97.9547,96.2731,0.00339493,0.104424,20.9807,169.326,0.15456,0.0,0.0
1302,325.25,37.6525,39.8811,153.195,97.9151,96.3828,0.00315645,0.101637,20.9832,169.256,0.140783,0.0,0.0
1323,330.5,38.2318,39.7128,148.934,97.8923,96.3143,0.00300365,0.101682,20.9821,169.226,0.145045,0.0,0.0
1344,335.75,37.1049,39.5671,150.851,97.8807,96.5006,0.00304506,0.101419,20.9839,169.196,0.126742,0.0,0.0
1365,341,37.396,39.3865,150.713,97.8735,96.0213,0.00305629,0.102263,20.983,169.126,0.170527,0.0,0.0
1386,346.25,37.2173,38.9427,149.54,97.845,95.7627,0.00276069,0.100534,20.9865,169.076,0.192002,0.0,0.0
1407,351.5,36.8584,38.6142,153.895,97.8034,96.2331,0.00270979,0.0968275,20.9895,169.036,0.144472,0.0,0.0
1428,356.75,36.7254,38.7887,149.994,97.7926,96.1931,0.00321515,0.0945648,20.9926,168.936,0.147194,0.0,0.0
1449,362,37.2095,38.5963,147.584,97.7814,96.1042,0.00319413,0.0937316,20.9934,168.926,0.154422,0.0,0.0
1470,367.25,36.6661,38.2655,152.277,97.7442,96.1429,0.00298495,0.0933011,20.9927,168.886,0.14743,0.0,0.0
1491,372.5,36.835,38.382,150.801,97.7046,95.8814,0.00261521,0.0933164,20.9933,168.836,0.168125,0.0,0.0
1512,377.75,36.4411,38.402,146.37,97.6669,96.2633,0.00280452,0.0930991,20.9938,168.806,0.129208,0.0,0.0
1533,383,35.7728,37.358,149.081,97.6469,96.1659,0.00254308,0.0923039,20.994,168.735,0.136413,0.0,0.0
1554,388.25,35.7043,37.5314,148.671,97.6189,96.1144,0.0023484,0.0912206,20.995,168.705,0.138629,0.0,0.0
1575,393.5,35.5331,37.4202,152.619,97.5881,96.0719,0.00250182,0.0902921,20.9954,168.695,0.13976,0.0,0.0
1596,398.75,35.7364,37.3649,151.407,97.5845,96.5703,0.00266947,0.0905719,20.9972,168.635,0.0932454,0.0,0.0
1617,404,35.8479,37.5986,147.81,97.5589,95.9949,0.0024857,0.0906921,20.9977,168.585,0.144243,0.0,0.0
1638,409.25,35.505,36.8605,152.192,97.5321,95.7972,0.00257897,0.0900154,20.9987,168.555,0.160195,0.0,0.0
1659,414.5,35.8445,37.2668,149.832,97.5317,95.895,0.00270553,0.089669,20.9999,168.515,0.15105,0.0,0.0
1680,419.75,35.6998,36.8625,154.145,97.526,96.2182,0.00233268,0.0891588,20.9999,168.495,0.120504,0.0,0.0
1701,425,35.4408,37.2788,151.816,97.4924,96.9522,0.00207556,0.0887257,20.9995,168.465,0.0495939,0.0,0.0
1722,430.25,35.8089,37.3029,149.332,97.4904,95.818,0.0018845,0.0886193,20.9995,168.425,0.154443,0.0,0.0
1743,435.5,35.2177,36.5284,153.855,97.4972,96.4032,0.00214949,0.0880815,20.9999,168.395,0.100721,0.0,0.0
1764,440.75,35.5044,36.7943,149.726,97.4756,95.8873,0.00229567,0.0882925,21.0002,168.375,0.146632,0.0,0.0
1785,446,35.6074,36.9524,150.392,97.468,96.8089,0.00224396,0.0887471,20.9988,168.295,0.0605619,0.0,0.0
1806,451.25,35.4192,37.1468,147.837,97.464,95.7223,0.00214874,0.0881738,20.9973,168.275,0.160942,0.0,0.0
1827,456.5,34.7908,36.9825,149.729,97.4384,96.1991,0.00196836,0.0884363,20.9983,168.225,0.114254,0.0,0.0
1848,461.75,35.3258,36.8056,151.458,97.434,96.3607,0.00215447,0.0883585,20.999,168.205,0.0988695,0.0,0.0
1869,467,35.2516,36.7897,151.685,97.444,96.5014,0.00205432,0.0879547,20.9997,168.175,0.0867568,0.0,0.0
1890,472.25,35.2789,36.7917,147.992,97.4188,95.8776,0.00221319,0.0878088,21,168.145,0.142338,0.0,0.0
1911,477.5,35.2496,36.6787,152.987,97.4196,96.5797,0.00205383,0.0881716,21.0001,168.075,0.0772852,0.0,0.0
1932,482.75,35.5427,36.4515,150.479,97.4452,95.9077,0.00199012,0.0880583,21.0001,168.045,0.141947,0.0,0.0
1953,488,34.9499,37.1218,151.316,97.4464,96.3109,0.00240482,0.0881386,21.0001,168.025,0.104615,0.0,0.0
1974,493.25,35.5697,36.7804,153.903,97.4516,96.3726,,,,167.995,0.0993788,0.0,0.0
1995,498.5,35.3478,36.7797,153.934,97.4956,96.1081,,,,167.955,0.127943,0.0,0.0
2004,500.75,35.494,36.6764,152.018,97.498,95.832,,,,167.955,0.153833,0.0,0.0