File: 01_Data/Vinyl_Tile/Cone/Vinyl_Tile_Cone_HF75Scalar_220405_R2.csv
LABORATORY,FSRI
TEST IDENT,Vinyl_Tile_HF75_2
OPERATOR,Dow
MATERIAL,Vinyl Tile
ORIENTATION,Horizontal
HEAT FLUX,75
SURF AREA,0.00884
C FACTOR,0.0386621
SPEC HOLDER DIFF,-566
SPECIMEN MASS,53.96
SCAN TIME,0.25
O2 DELAY TIME,11
CO DELAY TIME,11
CO2 DELAY TIME,8
FLOW FACTOR,1
SCAN COUNT,1778
TIME TO IGN,19
END OF TEST SCAN,1298
END OF TEST TIME,324.5
TEST STATUS,1
PRE TEST CMT,Dimensions: 101.48 x 101.17 x 2.50 mm; with frame and grid
POST TEST CMT,See test pictures