File: 01_Data/Vinyl_Tile/Cone/Vinyl_Tile_Cone_HF50Scalar_220405_R2.csv
LABORATORY,FSRI
TEST IDENT,Vinyl_Tile_HF50_2
OPERATOR,Dow
MATERIAL,Vinyl Tile
ORIENTATION,Horizontal
HEAT FLUX,50
SURF AREA,0.00884
C FACTOR,0.0386621
SPEC HOLDER DIFF,-566
SPECIMEN MASS,54.14
SCAN TIME,0.25
O2 DELAY TIME,11
CO DELAY TIME,11
CO2 DELAY TIME,8
FLOW FACTOR,1
SCAN COUNT,1860
TIME TO IGN,36.25
END OF TEST SCAN,1380
END OF TEST TIME,345
TEST STATUS,1
PRE TEST CMT,Dimensions: 101.53 x 101.54 x 2.51 mm; with frame and grid