File: 01_Data/Vinyl_Tile/Cone/Vinyl_Tile_Cone_HF25Scan_220405_R2.csv
Names,Time,Stack TC,Smoke TC,Exh Press,Smoke Comp,Smoke Meas,CO Meter,CO2 Meter,O2 Meter,Sample Mass,Ext Coeff,Start Test,Flame Verif
Chan Gain,,500,500,1,1,1,1,1,1,1,1,1.0,1.0
Offset,,0,0,0.132686,0,0,0,0,0,0,0,0.0,0.0
Gain,,1,1,25.011,13.1151,13.9355,1,1,1,1.00092,1.01752,1.0,1.0
Units,sec,C,C,Pa,%,%,%,%,%,g,/m,,
Baseline,,18.7451,19.2229,160.945,98.4564,98.3237,0.000769371,0.0696658,21.0041,-833.785,0.0120638,,
20,4.75,17.7063,18.2398,160.142,98.4806,98.5011,0.000717595,0.0708403,21.0045,191.426,-0.00185477,0.0,0.0
40,9.75,17.6626,18.4453,164.69,98.4842,98.4973,0.000661689,0.0708867,21.0043,191.416,-0.00118166,0.0,0.0
60,14.75,18.4295,19.0569,161.071,98.4734,98.5844,0.000398437,0.0709278,21.0024,191.436,-0.0100579,0.0,0.0
80,19.75,18.1214,18.4678,166.589,98.4838,97.9559,0.000630073,0.0752023,20.9979,191.436,0.0479748,0.0,0.0
100,24.75,17.5327,18.2424,160.427,98.497,98.1524,0.000803808,0.0776676,20.994,191.436,0.0312888,0.0,0.0
120,29.75,17.9395,18.3407,162.903,98.4946,97.8177,0.000927927,0.0746244,20.9998,191.426,0.0615585,0.0,0.0
140,34.75,17.9698,18.6308,158.88,98.5082,98.6427,0.000767243,0.0720287,21.0024,191.426,-0.0121753,0.0,0.0
160,39.75,18.3345,18.4515,163.974,98.4986,98.5581,0.000471924,0.0705457,21.004,191.406,-0.00538553,0.0,0.0
180,44.75,18.2024,18.4775,160.513,98.5074,98.4824,0.000881571,0.0697889,21.0055,191.396,0.00227138,0.0,0.0
200,49.75,18.7911,18.6027,162.92,98.519,98.5844,0.00104761,0.0696407,21.0062,191.396,-0.00592319,0.0,0.0
220,54.75,18.4194,18.8584,157.155,98.5202,98.5623,0.00102667,0.0693923,21.0066,191.416,-0.00381264,0.0,0.0
240,59.75,17.7018,18.5587,159.835,98.5266,98.2544,0.000982482,0.0694714,21.0085,191.396,0.0246956,0.0,0.0
260,64.75,18.4197,18.4623,160.564,98.5178,98.2255,0.000695129,0.0694228,21.0087,191.386,0.0265247,0.0,0.0
280,69.75,18.3884,18.917,160.234,98.5126,98.362,0.000932336,0.069507,21.008,191.396,0.0136568,0.0,0.0
300,74.75,18.0549,18.6368,158.138,98.5138,97.7836,0.000633809,0.0695728,21.0084,191.366,0.0664032,0.0,0.0
320,79.75,18.5057,18.3599,161.678,98.507,98.5215,0.000612799,0.0696355,21.0087,191.356,-0.00131043,0.0,0.0
340,84.75,17.9038,18.9659,159.048,98.5094,97.7207,0.000633864,0.0696511,21.0092,191.346,0.0717519,0.0,0.0
360,89.75,18.5276,19.047,161.13,98.5138,97.7113,0.000624576,0.0696688,21.0098,191.326,0.0730057,0.0,0.0
380,94.75,18.6337,19.1714,162.773,98.513,96.868,0.000613663,0.070136,21.0103,191.286,0.150301,0.0,0.0
400,99.75,18.2121,18.6223,163.828,98.5166,97.4103,0.000674939,0.0712622,21.0093,191.276,0.100806,0.0,0.0
420,104.75,18.5652,19.191,158.681,98.5303,95.7691,0.00147488,0.0813902,20.9939,191.196,0.253696,0.0,1.0
440,109.75,18.7576,18.8882,162.049,98.5286,95.6632,0.00251057,0.103256,20.965,191.056,0.263425,0.0,0.0
460,114.75,18.9654,19.2705,155.654,98.5395,93.9391,0.00353635,0.125145,20.9346,190.816,0.426731,0.0,0.0
480,119.75,19.4671,20.6244,153.697,98.5298,94.0774,0.00471067,0.145054,20.9083,190.656,0.412738,0.0,0.0
500,124.75,20.9013,21.3772,156.368,98.535,92.5361,0.00567228,0.163901,20.8817,190.245,0.560642,0.0,0.0
520,129.75,21.4922,22.596,156.457,98.5399,90.6335,0.00649405,0.179962,20.8585,189.895,0.746515,0.0,0.0
540,134.75,22.487,23.4038,153.486,98.5423,89.606,0.00733602,0.192633,20.8379,189.505,0.848495,0.0,0.0
560,139.75,23.7014,24.7078,149.1,98.5423,88.6831,0.00853245,0.205646,20.8225,189.104,0.940897,0.0,0.0
580,144.75,24.504,25.6002,148.678,98.5523,86.0536,0.00961202,0.211076,20.8148,188.644,1.21045,0.0,0.0
600,149.75,25.1805,26.4463,151.726,98.5443,85.6586,0.0101257,0.209989,20.8147,188.213,1.2508,0.0,0.0
620,154.75,25.9964,27.3488,151.809,98.5411,86.5342,0.0103449,0.206636,20.8182,187.823,1.15973,0.0,0.0
640,159.75,26.4576,27.841,153.028,98.5439,85.0283,0.0100381,0.204612,20.8165,187.413,1.31668,0.0,0.0
660,164.75,26.5792,28.1245,152.431,98.5427,85.5025,0.0100484,0.204008,20.8171,187.042,1.26693,0.0,0.0
680,169.75,27.2434,28.7296,157.305,98.5407,83.7682,0.0102121,0.203793,20.8166,186.682,1.44966,0.0,0.0
700,174.75,27.557,29.1782,152.148,98.5415,81.5125,0.0105588,0.201414,20.8199,186.372,1.69337,0.0,0.0
720,179.75,27.3281,29.0715,150.036,98.5407,81.3594,0.010126,0.201311,20.8176,186.061,1.71007,0.0,0.0
740,184.75,28.3468,30.0284,154.529,98.5334,81.7809,0.00966702,0.203632,20.8142,185.731,1.66331,0.0,0.0
760,189.75,28.5865,30.4254,149.307,98.5198,83.3944,0.00873301,0.205226,20.8118,185.451,1.48769,0.0,0.0
780,194.75,28.6837,30.6292,153.304,98.511,83.172,0.00805482,0.206673,20.8105,185.161,1.51073,0.0,0.0
800,199.75,29.3701,30.6746,150.215,98.5062,82.8573,0.00734445,0.208115,20.8092,184.88,1.54413,0.0,0.0
820,204.75,29.6437,31.4298,152.509,98.5154,83.4692,0.00686797,0.20751,20.8117,184.62,1.47928,0.0,0.0
840,209.75,29.3037,30.8712,155.108,98.5166,84.1556,0.00667229,0.205837,20.8143,184.4,1.40629,0.0,0.0
860,214.75,29.6398,31.5204,155.742,98.5138,86.1179,0.00629278,0.201505,20.8208,184.17,1.20031,0.0,0.0
880,219.75,29.8497,31.7946,151.93,98.5214,85.3872,0.00608197,0.19775,20.8259,183.919,1.27705,0.0,0.0
900,224.75,29.3824,31.4031,151.336,98.509,87.6165,0.0057716,0.192346,20.8337,183.699,1.04589,0.0,0.0
920,229.75,29.9604,31.86,153.343,98.5206,88.1741,0.00525867,0.18552,20.8448,183.499,0.990322,0.0,0.0
940,234.75,29.4646,31.4656,153.263,98.5214,87.7309,0.00510419,0.18225,20.8491,183.329,1.03536,0.0,0.0
960,239.75,29.749,31.7045,153.392,98.527,87.8504,0.00478641,0.179137,20.8541,183.149,1.02372,0.0,0.0
980,244.75,29.4765,31.2704,152.737,98.527,89.6302,0.00458602,0.172242,20.8639,183.009,0.844703,0.0,0.0
1000,249.75,29.0332,31.0936,155.449,98.5331,89.2823,0.00425057,0.16612,20.8734,182.868,0.879957,0.0,0.0
1020,254.75,29.4382,31.4557,155.585,98.5395,90.6977,0.00439523,0.161117,20.8802,182.688,0.740157,0.0,0.0
1040,259.75,28.8959,30.9641,156.214,98.5555,91.2518,0.00424193,0.15793,20.8849,182.558,0.687241,0.0,0.0
1060,264.75,29.0069,31.0358,154.536,98.5475,91.8693,0.00391672,0.155534,20.8904,182.418,0.62632,0.0,0.0
1080,269.75,28.852,30.5988,155.967,98.5499,92.7479,0.00386005,0.152133,20.8953,182.268,0.541579,0.0,0.0
1100,274.75,28.3705,30.3346,158.57,98.5407,93.8622,0.00400175,0.149337,20.8993,182.158,0.434158,0.0,0.0
1120,279.75,27.7907,29.7814,154.427,98.5559,94.2683,0.00367321,0.14743,20.903,182.018,0.396997,0.0,0.0
1140,284.75,27.7916,29.6259,152.208,98.5639,94.9177,0.00360853,0.145311,20.9073,181.898,0.336446,0.0,0.0
1160,289.75,27.8784,29.3908,160.154,98.5675,96.3279,0.00330839,0.14484,20.9097,181.787,0.205138,0.0,0.0
1180,294.75,27.0062,28.7435,153.879,98.5691,96.0264,0.00314043,0.141078,20.9134,181.667,0.233265,0.0,0.0
1200,299.75,27.4303,29.1976,156.207,98.5751,96.0417,0.00310589,0.137509,20.9195,181.587,0.232386,0.0,0.0
1220,304.75,27.1527,28.9461,153.634,98.5855,96.4091,0.00326189,0.134539,20.9257,181.467,0.199245,0.0,0.0
1240,309.75,26.6975,28.463,156.772,98.5867,96.6222,0.00359688,0.131617,20.9305,181.347,0.17965,0.0,0.0
1260,314.75,26.6505,28.2926,159.844,98.5999,96.8591,0.00387769,0.1297,20.9327,181.247,0.15899,0.0,0.0
1280,319.75,26.4329,27.8254,157.047,98.6027,96.0217,0.00430562,0.126029,20.9381,181.147,0.236744,0.0,0.0
1300,324.75,26.0931,27.5689,157.649,98.6171,96.8157,0.00401333,0.121235,20.9436,181.047,0.164547,0.0,0.0
1320,329.75,25.6896,27.2398,156.481,98.6187,96.5184,0.00385994,0.117477,20.9488,180.917,0.19214,0.0,0.0
1340,334.75,25.6036,27.1087,158.521,98.6403,96.0366,0.00373389,0.112174,20.9574,180.857,0.238765,0.0,0.0
1360,339.75,25.3392,26.8749,156.207,98.6183,95.6917,0.00344155,0.106912,20.9627,180.777,0.268885,0.0,0.0
1380,344.75,24.8854,26.5378,157.641,98.6351,95.303,0.00342397,0.101976,20.9702,180.686,0.306736,0.0,0.0
1400,349.75,24.2252,25.0632,155.082,98.6139,95.1184,0.00329063,0.0963451,20.9774,180.636,0.32212,0.0,0.0
1420,354.75,23.8686,24.5861,160.844,98.6223,95.1809,0.003132,0.0926544,20.9819,180.546,0.317016,0.0,0.0
1440,359.75,23.534,24.6943,158.484,98.6143,95.4353,0.00318513,0.0914542,20.9832,180.466,0.292474,0.0,0.0
1460,364.75,22.9828,24.4261,155.156,98.6139,95.8078,0.00318839,0.0912662,20.9833,180.386,0.257664,0.0,0.0
1480,369.75,22.988,23.3975,158.093,98.6151,96.1582,0.00348022,0.0914129,20.9832,180.326,0.225186,0.0,0.0
1500,374.75,22.8422,23.8248,156.823,98.6271,97.019,0.00344347,0.0913905,20.9819,180.266,0.146731,0.0,0.0
1520,379.75,22.6675,23.6579,156.888,98.6575,96.1608,0.0036964,0.0914706,20.9824,180.186,0.228788,0.0,0.0
1540,384.75,22.2037,23.6752,158.771,98.6507,96.7396,0.00351331,0.0916529,20.9821,180.136,0.174609,0.0,0.0
1560,389.75,21.9076,23.0362,161.779,98.6623,97.3112,0.00375233,0.0920209,20.9798,180.086,0.123079,0.0,0.0
1580,394.75,21.8473,23.0184,158.377,98.6631,97.0713,0.00378928,0.0922048,20.9796,180.026,0.145179,0.0,0.0
1600,399.75,21.9817,22.764,158.479,98.6679,96.945,0.00345178,0.0924341,20.9797,179.976,0.157234,0.0,0.0
1620,404.75,21.1845,22.1107,157.232,98.6683,97.1113,0.00332376,0.0928018,20.9797,179.926,0.141974,0.0,0.0
1640,409.75,21.7736,22.5666,161.868,98.6651,97.2448,0.00338508,0.0932626,20.9804,179.856,0.12942,0.0,0.0
1660,414.75,21.5595,22.4177,156.271,98.6643,97.9185,0.0036199,0.0934096,20.9805,179.806,0.0677306,0.0,0.0
1680,419.75,21.4987,22.2072,161.252,98.6643,97.5804,0.00337021,0.0936856,20.9799,179.766,0.0986033,0.0,0.0
1700,424.75,21.1119,22.3292,157.985,98.6699,97.6412,0.00334936,0.094072,20.9797,179.726,0.0935476,0.0,0.0
1720,429.75,21.2611,22.1059,158.859,98.6699,98.0745,0.00347987,0.0943409,20.9792,179.666,0.0540221,0.0,0.0
1740,434.75,20.7683,22.266,157.964,98.6699,97.8296,0.00331521,0.0946149,20.9778,179.626,0.0763432,0.0,0.0
1760,439.75,20.4302,21.6022,157.696,98.6871,98.3459,0.0033965,0.0964837,20.9745,179.575,0.0309198,0.0,0.0
1780,444.75,20.9459,21.4776,160.461,98.6899,98.2676,0.00343958,0.102361,20.971,179.555,0.0382776,0.0,0.0
1800,449.75,20.8929,21.6487,153.703,98.6855,98.4484,0.00319139,0.100543,20.971,179.515,0.0214778,0.0,0.0
1820,454.75,20.6181,21.6497,157.189,98.6835,98.1664,0.00313835,0.0975622,20.9739,179.455,0.0468963,0.0,0.0
1840,459.75,20.9581,21.7078,159.06,98.6931,98.2281,,0.0963321,,179.435,0.0421607,0.0,0.0
1860,464.75,21.1633,21.392,158.768,98.6959,98.6338,,,,179.395,0.00562472,0.0,0.0
1878,469.25,20.8835,21.9239,162.543,98.6779,98.4862,,,,179.345,0.0173595,0.0,0.0