File: 01_Data/Vinyl_Tile/Cone/Vinyl_Tile_Cone_HF50Scan_220405_R3.csv
Names,Time,Stack TC,Smoke TC,Exh Press,Smoke Comp,Smoke Meas,CO Meter,CO2 Meter,O2 Meter,Sample Mass,Ext Coeff,Start Test,Flame Verif
Chan Gain,,500,500,1,1,1,1,1,1,1,1,1.0,1.0
Offset,,0,0,0.132686,0,0,0,0,0,0,0,0.0,0.0
Gain,,1,1,25.011,13.1151,13.9355,1,1,1,1.00092,1.01752,1.0,1.0
Units,sec,C,C,Pa,%,%,%,%,%,g,/m,,
Baseline,,32.6026,33.7346,153.104,99.1389,98.3541,0.000489714,0.0598537,21.0261,-836.425,0.0710039,,
22,5.25,31.2304,32.4407,149.349,99.139,98.0537,0.000816614,0.0695868,21.0136,191.967,0.0982508,0.0,0.0
44,10.75,30.9918,31.9696,161.086,99.1226,98.9264,0.00073394,0.0725399,21.0103,191.927,0.0176876,0.0,0.0
66,16.25,31.1749,32.7919,152.096,99.069,97.8308,0.000850338,0.0665017,21.0171,191.917,0.112251,0.0,0.0
88,21.75,31.4955,32.2704,150.528,99.0466,98.6601,0.000659574,0.0639713,21.022,191.897,0.0348909,0.0,0.0
110,27.25,31.4694,32.4484,154.157,99.0053,98.2846,0.000345311,0.0637249,21.0234,191.947,0.0652118,0.0,0.0
132,32.75,31.3794,32.396,156.272,98.9617,93.5657,0.000661014,0.0658503,21.0206,191.877,0.500446,0.0,0.0
154,38.25,31.5066,32.4301,144.893,98.9197,89.6438,0.00416469,0.0807648,20.9808,191.617,0.878847,0.0,1.0
176,43.75,32.1003,34.1004,144.285,98.8801,83.2638,0.0114628,0.15686,20.8745,191.176,1.53425,0.0,1.0
198,49.25,34.185,35.6534,142.056,98.8641,82.2517,0.0153119,0.216602,20.7919,190.516,1.64197,0.0,0.0
220,54.75,36.0839,37.8678,142.755,98.8168,79.8412,0.0174137,0.260306,20.7409,189.785,1.90319,0.0,0.0
242,60.25,38.145,39.8436,141.685,98.7744,74.9879,0.0183199,0.272311,20.7259,189.094,2.4591,0.0,0.0
264,65.75,39.5589,41.4251,140.921,98.7548,73.2541,0.0175135,0.266689,20.7316,188.474,2.66613,0.0,0.0
286,71.25,40.2631,42.5207,147.601,98.724,73.297,0.0171869,0.272693,20.7253,187.873,2.65811,0.0,0.0
308,76.75,41.7412,43.9501,140.365,98.7032,75.4617,0.0171327,0.287489,20.704,187.253,2.39645,0.0,0.0
330,82.25,43.5172,46.0358,141.214,98.6647,75.0453,0.0177339,0.316103,20.6607,186.522,2.44235,0.0,0.0
352,87.75,44.7109,47.59,141.506,98.6763,73.5743,0.0198256,0.333984,20.6395,185.791,2.6201,0.0,0.0
374,93.25,45.8827,49.0583,141.438,98.6563,77.0616,0.0198968,0.318498,20.6631,185.051,2.20495,0.0,0.0
396,98.75,46.6767,49.5681,149.423,98.6399,80.036,0.0169232,0.286429,20.7096,184.58,1.86545,0.0,0.0
418,104.25,46.9704,49.5595,143.86,98.6387,77.8296,0.0138125,0.267024,20.7368,184.12,2.11484,0.0,0.0
440,109.75,46.9446,50.1356,142.747,98.6075,74.7982,0.0119743,0.261358,20.7404,183.719,2.46661,0.0,0.0
462,115.25,46.7791,50.4775,137.587,98.5903,72.3342,0.0118919,0.256015,20.7435,183.319,2.76404,0.0,0.0
484,120.75,46.8304,50.5119,143.984,98.5431,69.5805,0.0124843,0.263133,20.7286,182.909,3.10618,0.0,0.0
506,126.25,47.6975,51.3641,141.159,98.5391,69.6992,0.0124146,0.270394,20.7176,182.468,3.09061,0.0,0.0
528,131.75,48.0498,51.4643,142.332,98.5162,71.7048,0.0115606,0.269687,20.7206,182.108,2.83534,0.0,0.0
550,137.25,48.4891,51.5157,145.59,98.4854,72.2755,0.0108081,0.26176,20.7359,181.737,2.76178,0.0,0.0
572,142.75,48.0457,51.7823,146.755,98.4442,76.7932,0.00971646,0.249573,20.7579,181.397,2.21688,0.0,0.0
594,148.25,48.4854,51.772,147.394,98.3814,80.0589,0.00853664,0.237284,20.7815,181.087,1.83946,0.0,0.0
616,153.75,47.7749,51.558,143.229,98.3349,83.6785,0.00770222,0.225518,20.8042,180.777,1.44057,0.0,0.0
638,159.25,47.2086,50.9408,144.102,98.2617,87.3996,0.00691245,0.214458,20.8218,180.476,1.04557,0.0,0.0
660,164.75,47.4192,50.6135,143.365,98.1892,89.4886,0.00636072,0.202067,20.8441,180.236,0.828164,0.0,0.0
682,170.25,46.7077,49.8148,145.648,98.1212,91.9425,0.00604221,0.188887,20.8641,179.976,0.580524,0.0,0.0
704,175.75,46.2122,49.6843,147.015,98.0528,93.7027,0.00590759,0.175825,20.8828,179.796,0.405033,0.0,0.0
726,181.25,45.0446,49.2818,150.459,98.0059,93.4675,0.00614415,0.164831,20.8959,179.615,0.423199,0.0,0.0
748,186.75,44.8366,48.0679,150.916,97.9431,94.6166,0.00598776,0.155146,20.911,179.455,0.308411,0.0,0.0
770,192.25,44.338,47.5276,146.705,97.9135,95.6028,0.00602568,0.147516,20.9205,179.315,0.21316,0.0,0.0
792,197.75,43.6895,46.7562,153.473,97.8554,95.9958,0.00598937,0.141619,20.9277,179.185,0.171256,0.0,0.0
814,203.25,43.2584,46.0889,150.407,97.8158,95.9422,0.0059144,0.137779,20.9339,179.065,0.172625,0.0,0.0
836,208.75,42.0641,45.3513,144.812,97.783,95.2311,0.0056917,0.133605,20.9398,178.975,0.236027,0.0,0.0
858,214.25,41.7603,44.1395,148.411,97.7278,96.168,0.00580379,0.131821,20.9425,178.865,0.143603,0.0,0.0
880,219.75,40.9053,44.2401,148.116,97.6929,96.379,0.00559729,0.129119,20.9469,178.775,0.120866,0.0,0.0
902,225.25,40.8112,43.5952,149.471,97.6429,96.8144,0.00563133,0.127834,20.9488,178.665,0.0760541,0.0,0.0
924,230.75,40.5304,42.8945,149.84,97.6189,96.0162,0.00549254,0.126457,20.9501,178.545,0.147757,0.0,0.0
946,236.25,39.9162,42.5581,147.871,97.5805,96.4249,0.00530196,0.125539,20.9512,178.484,0.106332,0.0,0.0
968,241.75,40.2084,42.2713,153.019,97.5453,96.8425,0.00503875,0.125183,20.95,178.394,0.0645357,0.0,0.0
990,247.25,39.3124,41.5793,151.95,97.5337,96.6715,0.00492359,0.1304,20.9449,178.294,0.0792449,0.0,0.0
1012,252.75,38.7545,41.6654,148.502,97.5024,96.5146,0.00477984,0.126808,20.9492,178.214,0.0908875,0.0,0.0
1034,258.25,38.9216,41.2042,151.622,97.5068,96.1931,0.00446284,0.122779,20.9537,178.154,0.121074,0.0,0.0
1056,263.75,38.5461,40.8309,148.449,97.4684,95.8839,0.00444025,0.120038,20.9566,178.054,0.14629,0.0,0.0
1078,269.25,38.6617,40.145,150.733,97.4872,96.5708,0.00449618,0.118519,20.959,178.004,0.0843055,0.0,0.0
1100,274.75,38.1013,40.2529,149.092,97.4564,97.7875,0.00418247,0.117074,20.9599,177.884,-0.0302697,0.0,0.0
1122,280.25,37.8096,39.9185,151.965,97.4536,95.9907,0.00399332,0.116377,20.9605,177.814,0.135002,0.0,0.0
1144,285.75,37.7176,39.609,150.142,97.4452,96.2156,0.00402114,0.115732,20.9606,177.764,0.113338,0.0,0.0
1166,291.25,37.5383,39.6551,147.82,97.4408,95.7457,0.00385588,0.114729,20.961,177.694,0.156636,0.0,0.0
1188,296.75,37.2877,39.0886,146.209,97.4356,96.0753,0.0035309,0.113826,20.964,177.654,0.125486,0.0,0.0
1210,302.25,37.0177,39.0922,149.352,97.426,96.0532,0.00342366,0.111368,20.9675,177.554,0.126661,0.0,0.0
1232,307.75,37.2009,39.0216,151.651,97.4464,96.6852,0.00322028,0.110221,20.9704,177.494,0.0699996,0.0,0.0
1254,313.25,37.0585,38.7512,149.062,97.4524,96.5542,0.00317923,0.108351,20.9727,177.464,0.0826495,0.0,0.0
1276,318.75,36.8668,38.2808,150.847,97.4652,96.5274,0.0034133,0.106716,20.975,177.393,0.0863005,0.0,0.0
1298,324.25,36.7513,38.7935,150.788,97.4828,96.3556,0.00317685,0.105521,20.9768,177.333,0.103814,0.0,0.0
1320,329.75,36.4451,38.2969,149.056,97.4984,96.1183,0.0033686,0.10372,20.9783,177.243,0.127252,0.0,0.0
1342,335.25,36.702,37.9341,153.392,97.5232,96.2943,0.00305192,0.102394,20.9813,177.213,0.113188,0.0,0.0
1364,340.75,36.4226,38.273,156.224,97.5353,97.2461,0.00276838,0.101283,20.9819,177.163,0.0265013,0.0,0.0
1386,346.25,36.0742,38.249,154.414,97.5621,95.9834,0.00268927,0.10071,20.9816,177.113,0.145603,0.0,0.0
1408,351.75,35.8704,37.7258,152.243,97.5817,96.3283,0.00286805,0.100188,20.9824,177.043,0.115383,0.0,0.0
1430,357.25,36.1575,38.0785,152.991,97.5937,96.4462,0.00303745,0.0982649,20.9855,177.003,0.105571,0.0,0.0
1452,362.75,36.138,37.4036,153.277,97.6189,96.9233,0.00300555,0.0988038,20.9842,176.953,0.063828,0.0,0.0
1474,368.25,36.1406,37.7541,149.605,97.6261,96.3505,0.00303961,0.100289,20.9829,176.923,0.117396,0.0,0.0
1496,373.75,36.0299,37.4748,149.436,97.6569,97.2053,0.00306731,0.0978779,20.9864,176.883,0.0413759,0.0,0.0
1518,379.25,36.2444,37.5711,151.802,97.6589,96.0366,0.00324313,0.0966807,20.9882,176.813,0.149519,0.0,0.0
1540,384.75,35.7563,37.4256,151.532,97.6993,96.8315,0.0028412,0.0951286,20.9898,176.773,0.0796435,0.0,0.0
1562,390.25,35.3019,37.1075,147.683,97.6993,96.5435,0.0026448,0.0946053,20.9887,176.713,0.106222,0.0,0.0
1584,395.75,35.6501,37.3077,149.351,97.6985,96.9208,0.00285664,0.0949035,20.9875,176.703,0.0713413,0.0,0.0
1606,401.25,35.5703,37.1637,148.653,97.7202,96.6443,0.00305383,0.094832,20.9891,176.663,0.0988096,0.0,0.0
1628,406.75,34.4826,36.4251,152.088,97.7126,95.906,0.00281773,0.0926609,20.9924,176.613,0.166562,0.0,0.0
1650,412.25,35.276,36.2776,148.757,97.7222,96.7481,0.00278349,0.0922253,20.9924,176.583,0.089415,0.0,0.0
1672,417.75,34.8212,36.6079,152.035,97.7114,96.9331,0.00301905,0.0929672,20.992,176.523,0.0713761,0.0,0.0
1694,423.25,35.0362,36.2832,153.396,97.7134,96.3666,0.00285587,0.0913306,20.9931,176.483,0.123873,0.0,0.0
1716,428.75,34.9081,36.3599,153.07,97.703,96.2603,0.00259976,0.0901108,20.9932,176.433,0.132775,0.0,0.0
1738,434.25,35.1076,36.1558,149.179,97.7038,96.4959,0.00247542,0.0893758,20.9932,176.403,0.111029,0.0,0.0
1760,439.75,35.0439,36.8034,149.255,97.6954,96.2195,0.00244309,0.0889953,20.9965,176.362,0.135867,0.0,0.0
1782,445.25,35.178,36.3845,148.125,97.6845,96.5435,0.00257283,0.0889447,20.995,176.342,0.104869,0.0,0.0
1804,450.75,35.6343,36.2651,151.806,97.6941,97.1049,0.00268854,0.0884942,20.9957,176.312,0.0539977,0.0,0.0
1826,456.25,34.5016,36.4682,154.111,97.6857,96.5963,0.00273193,0.0877188,20.996,176.252,0.100105,0.0,0.0
1848,461.75,34.7644,36.6572,146.515,97.715,96.4585,0.00257508,0.08782,20.9973,176.242,0.115515,0.0,0.0
1870,467.25,34.7166,36.4363,151.465,97.7162,96.7872,0.00243942,0.0878652,20.9975,176.192,0.0852572,0.0,0.0
1892,472.75,35.0413,36.5139,149.362,97.7242,97.0768,0.00279678,0.0878471,20.9975,176.132,0.0593201,0.0,0.0
1914,478.25,34.8739,36.136,148.761,97.743,97.1704,0.00245422,0.0876321,20.9975,176.122,0.0524408,0.0,0.0
1936,483.75,34.5621,36.5345,147.041,97.737,97.5072,0.00221917,0.0875844,20.9975,176.072,0.0210065,0.0,0.0
1958,489.25,34.386,36.0419,150.384,97.771,97.3107,0.0022917,0.0873163,20.9983,176.042,0.0421162,0.0,0.0
1980,494.75,34.5239,36.474,148.708,97.7886,96.6282,0.00272811,0.087215,20.9984,176.012,0.106551,0.0,0.0
2002,500.25,34.5799,36.3953,149.759,97.8218,96.6605,0.00246315,0.0870799,20.9984,175.992,0.106598,0.0,0.0
2024,505.75,34.506,36.0361,150.01,97.8206,97.0164,0.00239871,0.0870739,20.998,175.942,0.0736801,0.0,0.0
2046,511.25,34.8501,36.3962,152.315,97.8442,96.8021,0.0021051,0.0865992,20.9997,175.922,0.0955753,0.0,0.0
2068,516.75,34.8365,36.2855,150.031,97.8715,96.4938,,,,175.902,0.126532,0.0,0.0
2090,522.25,34.4129,35.6233,151.148,97.8739,96.814,,,,175.852,0.0971794,0.0,0.0
2096,523.75,34.3961,35.503,150.77,97.8967,97.4974,,,,175.882,0.0364742,0.0,0.0