File: 01_Data/Vinyl_Tile/Cone/Vinyl_Tile_Cone_HF25Scan_220405_R3.csv
Names,Time,Stack TC,Smoke TC,Exh Press,Smoke Comp,Smoke Meas,CO Meter,CO2 Meter,O2 Meter,Sample Mass,Ext Coeff,Start Test,Flame Verif
Chan Gain,,500,500,1,1,1,1,1,1,1,1,1.0,1.0
Offset,,0,0,0.132686,0,0,0,0,0,0,0,0.0,0.0
Gain,,1,1,25.011,13.1151,13.9355,1,1,1,1.00092,1.01752,1.0,1.0
Units,sec,C,C,Pa,%,%,%,%,%,g,/m,,
Baseline,,19.0323,19.6433,160.425,98.6587,99.1552,0.000680336,0.0710297,21.0043,-833.84,-0.0447669,,
18,4.25,18.2678,19.0622,157.697,97.6889,98.1324,0.000567356,0.083002,20.9898,193.418,-0.0404233,0.0,0.0
36,8.75,18.1966,18.7922,161.547,97.7006,98.3931,0.000960082,0.0815131,20.9924,193.408,-0.0630425,0.0,0.0
54,13.25,18.4062,19.155,165.238,97.6685,98.6214,0.00103077,0.0772897,20.9988,193.408,-0.0866613,0.0,0.0
72,17.75,18.2404,18.8907,154.478,97.6825,98.3863,0.000796094,0.0744326,21.0021,193.408,-0.0640707,0.0,0.0
90,22.25,18.4859,18.8171,162.414,97.6737,98.2689,0.000629044,0.0726928,21.0038,193.408,-0.054221,0.0,0.0
108,26.75,18.0407,18.782,161.352,97.6669,98.2978,0.000811184,0.0723128,21.0053,193.408,-0.0574689,0.0,0.0
126,31.25,18.5749,18.8438,159.954,97.6473,98.6618,0.00069181,0.0721678,21.0072,193.408,-0.0922552,0.0,0.0
144,35.75,18.4831,18.7748,161.121,97.6401,98.5096,0.000535005,0.0722611,21.008,193.398,-0.0791303,0.0,0.0
162,40.25,17.7643,18.7809,156.168,97.6157,98.2111,0.000712703,0.0723267,21.0081,193.398,-0.0542713,0.0,0.0
180,44.75,18.5821,18.8464,162.52,97.5705,98.9893,0.000689023,0.072367,21.007,193.398,-0.128858,0.0,0.0
198,49.25,18.3437,19.0106,159.775,97.5625,98.5368,0.000725317,0.0728906,21.006,193.398,-0.0886964,0.0,0.0
216,53.75,18.2592,18.8365,160.476,97.5309,98.4785,0.00090935,0.0734541,21.0045,193.388,-0.0863099,0.0,0.0
234,58.25,18.2699,19.3712,158.921,97.5164,97.8938,0.000771227,0.0734201,21.0041,193.378,-0.0344718,0.0,0.0
252,62.75,18.0869,18.526,160.28,97.5064,98.0622,0.000543648,0.0731938,21.006,193.378,-0.0507291,0.0,0.0
270,67.25,18.5188,19.1735,159.86,97.4984,98.0609,0.000565102,0.0725941,21.0071,193.348,-0.0513466,0.0,0.0
288,71.75,18.273,18.5845,159.635,97.4772,97.85,0.000534279,0.0723184,21.0072,193.338,-0.0340681,0.0,0.0
306,76.25,18.0485,18.6974,157.58,97.4444,97.7658,0.000793152,0.0720954,21.0059,193.358,-0.0293895,0.0,0.0
324,80.75,18.3336,18.8821,158.954,97.4292,97.9929,0.000738199,0.0720882,21.0056,193.328,-0.0514916,0.0,0.0
342,85.25,18.6568,19.4785,163.43,97.4016,97.2261,0.000645733,0.0719302,21.0056,193.318,0.0160936,0.0,0.0
360,89.75,18.7457,19.5491,157.767,97.4024,97.2746,0.000753001,0.0717529,21.0056,193.318,0.0117177,0.0,0.0
378,94.25,18.7517,19.3592,161.933,97.3676,96.4266,0.000888356,0.0720422,21.0056,193.288,0.0866778,0.0,0.0
396,98.75,18.4543,19.1728,160.379,97.3415,95.8401,0.000952238,0.0724851,21.0054,193.268,0.138742,0.0,0.0
414,103.25,18.5273,19.1182,158.313,97.3287,95.8967,0.000981715,0.0779397,20.9979,193.228,0.132301,0.0,1.0
432,107.75,18.5266,18.7681,157.21,97.3219,94.1428,0.00256279,0.105415,20.9589,193.078,0.296428,0.0,1.0
450,112.25,19.0367,19.407,156.095,97.2979,92.5838,0.00420604,0.131709,20.921,192.888,0.443276,0.0,0.0
468,116.75,19.9947,20.7438,155.859,97.2823,92.5293,0.00509269,0.151455,20.8956,192.627,0.447094,0.0,0.0
486,121.25,20.6784,21.5422,152.247,97.2911,91.2765,0.00575891,0.17067,20.8742,192.317,0.569582,0.0,0.0
504,125.75,21.7941,22.5769,151.258,97.2699,90.7313,0.00663294,0.188631,20.8512,192.017,0.621109,0.0,0.0
522,130.25,22.6884,23.7155,147.563,97.2883,89.7872,0.00764733,0.199401,20.8351,191.637,0.71616,0.0,0.0
540,134.75,23.3392,24.2539,152.719,97.2779,88.5143,0.00835377,0.205349,20.8251,191.266,0.842643,0.0,0.0
558,139.25,24.3564,25.3728,150.881,97.2963,87.5834,0.00916966,0.2135,20.8114,190.886,0.938703,0.0,0.0
576,143.75,24.8583,26.0976,149.856,97.2951,87.5893,0.00932756,0.216904,20.8074,190.516,0.937987,0.0,0.0
594,148.25,25.5765,26.6354,152.986,97.3095,86.7915,0.00925908,0.210093,20.8146,190.155,1.02098,0.0,0.0
612,152.75,26.3838,27.6048,155.114,97.3079,85.872,0.0092993,0.206963,20.8168,189.825,1.11589,0.0,0.0
630,157.25,26.4962,27.9475,153.392,97.2983,85.1372,0.00985248,0.205015,20.8165,189.485,1.19172,0.0,0.0
648,161.75,27.6097,29.3001,153.961,97.3231,83.7189,0.0105011,0.205112,20.8129,189.174,1.34395,0.0,0.0
666,166.25,26.8926,28.4887,157.473,97.3035,84.0195,0.0107436,0.206007,20.8098,188.854,1.31015,0.0,0.0
684,170.75,27.6284,29.2385,148.055,97.3279,81.3267,0.0103957,0.208037,20.8074,188.554,1.60314,0.0,0.0
702,175.25,28.2312,29.898,154.615,97.3431,81.8064,0.00992103,0.209229,20.8048,188.253,1.55204,0.0,0.0
720,179.75,28.4913,30.2314,148.539,97.3423,81.9582,0.00923098,0.21083,20.8019,187.993,1.53542,0.0,0.0
738,184.25,28.7854,30.2095,154.803,97.3415,84.5584,0.00844412,0.209692,20.8052,187.733,1.25658,0.0,0.0
756,188.75,29.0426,30.8282,153.385,97.3495,83.4344,0.00785344,0.211263,20.8037,187.473,1.37675,0.0,0.0
774,193.25,28.723,30.5417,152.045,97.3624,83.1447,0.00734943,0.209959,20.8039,187.232,1.40896,0.0,0.0
792,197.75,29.2633,31.0051,150.271,97.3571,83.072,0.00679265,0.209913,20.8065,187.022,1.41629,0.0,0.0
810,202.25,29.5259,31.4369,152.397,97.3696,85.5429,0.00643669,0.207775,20.8109,186.792,1.15582,0.0,0.0
828,206.75,29.935,31.9248,152.392,97.376,84.1093,0.0062452,0.205445,20.8138,186.642,1.30726,0.0,0.0
846,211.25,29.6745,31.5942,154.305,97.3992,86.3063,0.00622851,0.200655,20.822,186.422,1.07924,0.0,0.0
864,215.75,29.8063,31.7558,153.566,97.4052,85.4825,0.00587521,0.19417,20.83,186.222,1.16539,0.0,0.0
882,220.25,29.9039,31.6582,152.811,97.4188,86.7328,0.00579705,0.187935,20.8392,186.061,1.03703,0.0,0.0
900,224.75,29.6773,31.7081,153.6,97.4268,85.6386,0.00532957,0.182574,20.8469,185.871,1.15109,0.0,0.0
918,229.25,29.698,31.6808,152.108,97.4448,86.4402,0.00478376,0.176783,20.8551,185.731,1.06958,0.0,0.0
936,233.75,29.7987,31.6627,158.434,97.47,88.7065,0.00470753,0.171868,20.8616,185.601,0.840892,0.0,0.0
954,238.25,29.23,30.8337,151.479,97.486,89.0778,0.00455331,0.165752,20.8721,185.431,0.805079,0.0,0.0
972,242.75,29.3953,31.3381,154.388,97.5016,89.8195,0.00444198,0.160691,20.8805,185.331,0.732498,0.0,0.0
990,247.25,28.9029,30.8796,154.61,97.5332,90.3519,0.004097,0.155686,20.8879,185.211,0.682638,0.0,0.0
1008,251.75,28.7768,30.6831,152.238,97.5753,90.7636,0.00375927,0.151046,20.8955,185.101,0.645908,0.0,0.0
1026,256.25,28.359,30.2211,154.676,97.6065,91.3458,0.00345738,0.146686,20.902,184.98,0.591693,0.0,0.0
1044,260.75,28.2868,29.9085,157.906,97.6265,92.5774,0.00316333,0.143599,20.9081,184.88,0.473984,0.0,0.0
1062,265.25,27.9778,29.6526,155.589,97.6385,93.0699,0.00300465,0.139643,20.9138,184.81,0.427728,0.0,0.0
1080,269.75,27.8787,29.6484,159.802,97.6677,93.6721,0.00302373,0.135074,20.922,184.69,0.372833,0.0,0.0
1098,274.25,27.2708,29.04,154.276,97.7174,95.0015,0.00312871,0.132105,20.9266,184.64,0.251584,0.0,0.0
1116,278.75,26.8017,28.4964,156.987,97.7306,95.226,0.00297113,0.127968,20.9344,184.55,0.231718,0.0,0.0
1134,283.25,26.8405,28.5892,153.644,97.7642,95.8699,0.00293116,0.124362,20.9362,184.47,0.174641,0.0,0.0
1152,287.75,26.5028,28.2461,155.657,97.7858,96.2913,0.0029289,0.120473,20.9407,184.41,0.137463,0.0,0.0
1170,292.25,26.126,27.7465,158.245,97.8182,96.33,0.00306053,0.117246,20.9465,184.33,0.136834,0.0,0.0
1188,296.75,25.8322,27.3357,157.907,97.8306,96.3807,0.002958,0.113776,20.9502,184.25,0.133278,0.0,0.0
1206,301.25,25.1672,26.7946,157.279,97.8522,96.8246,0.00291465,0.110788,20.9553,184.19,0.0942277,0.0,0.0
1224,305.75,25.4129,26.7903,161.273,97.8546,96.8157,0.00307954,0.107233,20.9593,184.12,0.09527,0.0,0.0
1242,310.25,24.8993,26.0329,160.572,97.8506,96.5469,0.00299607,0.103524,20.9635,184.11,0.119718,0.0,0.0
1260,314.75,24.3389,25.8082,156.395,97.8478,96.8166,0.00315612,0.0998586,20.9703,184.02,0.0945709,0.0,0.0
1278,319.25,23.9143,25.2176,160.298,97.8502,96.4219,0.00298606,0.0965893,20.9757,183.98,0.131249,0.0,0.0
1296,323.75,23.3524,25.0308,159.408,97.833,96.4538,0.00288929,0.0932951,20.9799,183.949,0.126726,0.0,0.0
1314,328.25,23.1075,24.6549,160.061,97.8246,96.1353,0.00262548,0.0925424,20.9813,183.869,0.155484,0.0,0.0
1332,332.75,23.5294,23.5869,158.16,97.8034,96.2752,0.00285858,0.0925736,20.9793,183.819,0.140568,0.0,0.0
1350,337.25,22.5478,23.8014,159.506,97.7958,97.0726,0.00305891,0.093113,20.9782,183.749,0.0662521,0.0,0.0
1368,341.75,22.4997,23.7472,155.598,97.781,96.9722,0.00302549,0.0937877,20.978,183.719,0.0741338,0.0,0.0
1386,346.25,21.7284,24.1423,159.889,97.779,97.5085,0.0031842,0.093922,20.9779,183.669,0.0247274,0.0,0.0
1404,350.75,22.1246,22.7087,158.74,97.7602,97.5765,0.00309679,0.0941635,20.9779,183.609,0.0167828,0.0,0.0
1422,355.25,22.139,23.0316,155.357,97.7602,96.2922,0.00312634,0.0945203,20.9779,183.569,0.135044,0.0,0.0
1440,359.75,21.8135,23.1616,158.543,97.7194,96.7813,0.00329786,0.0947091,20.9773,183.519,0.0860982,0.0,0.0
1458,364.25,21.6887,22.9508,160.712,97.7274,97.7037,0.00312117,0.0952173,20.9771,183.459,0.00216287,0.0,0.0
1476,368.75,21.8626,22.3999,161.204,97.725,96.5197,0.00285956,0.0954468,20.9775,183.419,0.110764,0.0,0.0
1494,373.25,20.8066,22.1705,156.051,97.7278,96.2335,0.00295059,0.0961224,20.9768,183.369,0.137526,0.0,0.0
1512,377.75,21.45,22.2903,157.201,97.6998,97.4064,0.00291924,0.0962019,20.9759,183.319,0.0268376,0.0,0.0
1530,382.25,20.9825,22.0078,160.534,97.6629,97.2138,0.00291104,0.0961041,20.9764,183.269,0.0411429,0.0,0.0
1548,386.75,21.6099,22.441,157.537,97.6377,97.7003,0.0029592,0.0965713,20.9764,183.209,-0.0057193,0.0,0.0
1566,391.25,21.4254,22.022,157.948,97.6045,97.2027,0.00320622,0.0965852,20.9759,183.159,0.0368165,0.0,0.0
1584,395.75,21.0666,22.3385,155.434,97.6025,96.5299,0.00331851,0.096454,20.9756,183.109,0.0986265,0.0,0.0
1602,400.25,20.9817,22.1311,156.345,97.5669,97.2831,0.003393,0.0964812,20.9746,183.069,0.0259985,0.0,0.0
1620,404.75,20.5667,21.4469,159.19,97.5581,97.1576,0.00330816,0.0968591,20.9742,182.999,0.0367105,0.0,0.0
1638,409.25,20.6162,21.1782,162.659,97.5429,97.1291,0.00315328,0.0968871,20.9742,182.959,0.0379364,0.0,0.0
1656,413.75,20.2474,21.6574,160.321,97.5357,97.2146,0.00304171,0.0967582,20.9748,182.919,0.0294267,0.0,0.0
1674,418.25,20.5859,21.6842,159.639,97.5128,97.6829,0.00309646,0.0971829,20.9749,182.858,-0.0155481,0.0,0.0
1692,422.75,20.8774,21.9285,155.46,97.5024,96.6226,0.00317515,0.0973905,20.9749,182.828,0.0809047,0.0,0.0
1710,427.25,20.7461,20.9704,160.038,97.4956,97.6875,,0.0971503,,182.778,-0.0175511,0.0,0.0
1728,431.75,21.091,21.7135,155.332,97.4776,96.6924,,,,182.728,0.072191,0.0,0.0
1746,436.25,21.152,21.561,158.129,97.4856,97.3792,,,,182.678,0.00974954,0.0,0.0
1752,437.75,20.5948,21.6629,154.491,97.4776,97.2372,,,,182.658,0.0220436,0.0,0.0