File: 01_Data/Vinyl_Tile/Cone/Vinyl_Tile_Cone_HF75Scalar_220405_R1.csv
LABORATORY,FSRI
TEST IDENT,Vinyl_Tile_HF75_1
OPERATOR,Dow
MATERIAL,Vinyl Tile
ORIENTATION,Horizontal
HEAT FLUX,75
SURF AREA,0.00884
C FACTOR,0.0386621
SPEC HOLDER DIFF,-566
SPECIMEN MASS,53.22
SCAN TIME,0.25
O2 DELAY TIME,11
CO DELAY TIME,11
CO2 DELAY TIME,8
FLOW FACTOR,1
SCAN COUNT,1414
TIME TO IGN,19
END OF TEST SCAN,934
END OF TEST TIME,233.5
TEST STATUS,1
PRE TEST CMT,Dimensions: 101.50 x 101.05 x 2.53 mm; with frame and grid