File: 01_Data/Vinyl_Tile/Cone/Vinyl_Tile_Cone_HF50Scalar_220405_R1.csv
LABORATORY,FSRI
TEST IDENT,Vinyl_Tile_HF50_1
OPERATOR,Dow
MATERIAL,Vinyl Tile
ORIENTATION,Horizontal
HEAT FLUX,50
SURF AREA,0.00884
C FACTOR,0.0386621
SPEC HOLDER DIFF,-566
SPECIMEN MASS,53.42
SCAN TIME,0.25
O2 DELAY TIME,11
CO DELAY TIME,11
CO2 DELAY TIME,8
FLOW FACTOR,1
SCAN COUNT,2004
TIME TO IGN,39.5
END OF TEST SCAN,1524
END OF TEST TIME,381
TEST STATUS,1
PRE TEST CMT,Dimensions: 101.52 x 101.30 x 2.50 mm; with frame and grid