File: 01_Data/Vinyl_Tile/Cone/Vinyl_Tile_Cone_HF75Scan_220405_R1.csv
Names,Time,Stack TC,Smoke TC,Exh Press,Smoke Comp,Smoke Meas,CO Meter,CO2 Meter,O2 Meter,Sample Mass,Ext Coeff,Start Test,Flame Verif
Chan Gain,,500,500,1,1,1,1,1,1,1,1,1.0,1.0
Offset,,0,0,0.132686,0,0,0,0,0,0,0,0.0,0.0
Gain,,1,1,25.011,13.1151,13.9355,1,1,1,1.00092,1.01752,1.0,1.0
Units,sec,C,C,Pa,%,%,%,%,%,g,/m,,
Baseline,,40.6322,42.7578,147.911,98.865,97.7564,0.00071009,0.059651,21.0256,-836.739,0.100725,,
15,3.5,39.5421,42.0944,150.641,99.081,97.7207,0.000549657,0.0715376,21.013,183.019,0.123388,0.0,0.0
30,7.25,39.6773,41.7369,148.432,99.0686,97.6607,0.000702559,0.0703406,21.013,183.029,0.127748,0.0,0.0
45,11,40.0412,42.3173,148.424,99.0638,97.6969,0.000726866,0.0671952,21.0178,182.969,0.124012,0.0,0.0
60,14.75,40.0293,41.9485,148.636,99.0686,94.4503,0.000678697,0.0638504,21.0196,182.979,0.426093,0.0,0.0
75,18.5,39.9024,41.7698,149.401,99.0618,91.7936,0.00188832,0.0637783,21.0127,182.868,0.680137,0.0,0.0
90,22.25,40.7271,42.6913,145.734,99.0341,85.9584,0.00673249,0.098371,20.9582,182.658,1.26388,0.0,1.0
105,26,41.2439,43.4813,140.336,99.035,76.5572,0.0145975,0.159044,20.8757,182.248,2.29776,0.0,0.0
120,29.75,42.7618,45.1271,138.222,99.0189,75.1665,0.0219017,0.225894,20.7634,181.687,2.45993,0.0,0.0
135,33.5,44.1802,46.7045,137.025,99.0177,63.8035,0.0241537,0.272078,20.7009,181.197,3.92271,0.0,0.0
150,37.25,46.0687,48.0774,138.497,99.0221,68.431,0.0235235,0.29898,20.6713,180.656,3.29816,0.0,0.0
165,41,47.0928,49.9769,138.474,98.9957,70.0959,0.0225573,0.317075,20.6598,180.146,3.08121,0.0,0.0
180,44.75,48.4231,51.3992,136.607,98.9897,69.6792,0.0215734,0.331253,20.6568,179.656,3.1339,0.0,0.0
195,48.5,49.813,52.894,132.623,98.9737,74.8165,0.0211098,0.353004,20.6382,179.165,2.49752,0.0,0.0
210,52.25,51.3789,54.5058,132.247,98.9685,76.356,0.0210774,0.379871,20.6094,178.685,2.31525,0.0,0.0
225,56,52.3125,56.3909,134.411,98.9725,75.2456,0.0216259,0.398943,20.5893,178.074,2.44636,0.0,0.0
240,59.75,53.7494,57.8747,128.702,98.9513,74.4746,0.0239458,0.419841,20.5607,177.484,2.53638,0.0,0.0
255,63.5,55.824,59.432,132.824,98.9465,71.228,0.0274643,0.435482,20.5329,176.843,2.93377,0.0,0.0
270,67.25,56.3013,60.8789,132.453,98.9445,71.5279,0.0300584,0.425301,20.5358,176.182,2.8961,0.0,0.0
285,71,57.8708,60.7745,132.65,98.9601,70.9457,0.0303668,0.409241,20.5492,175.602,2.97046,0.0,0.0
300,74.75,58.8626,62.3646,137.989,98.9737,72.7731,0.0281895,0.396951,20.5637,175.021,2.74469,0.0,0.0
315,78.5,59.3672,63.1932,135.814,98.9641,73.5811,0.0255123,0.381219,20.5789,174.581,2.64527,0.0,0.0
330,82.25,59.5133,64.0396,138.156,98.9605,73.5245,0.0227526,0.360935,20.6115,174.14,2.6518,0.0,0.0
345,86,59.626,64.9084,138.035,98.9565,71.5848,0.0198993,0.336474,20.6409,173.78,2.89008,0.0,0.0
360,89.75,60.2267,64.7153,138.238,98.9489,71.2799,0.0177774,0.322291,20.6532,173.42,2.92749,0.0,0.0
375,93.5,60.1637,64.8316,133.274,98.9489,68.1486,0.0171487,0.320474,20.6504,173.019,3.32846,0.0,0.0
390,97.25,60.8436,64.8278,133.912,98.9325,63.3885,0.0168459,0.328168,20.6339,172.669,3.97327,0.0,0.0
405,101,61.0668,65.7084,138.944,98.9329,67.4856,0.0165881,0.334514,20.6237,172.329,3.41428,0.0,0.0
420,104.75,61.0399,66.0206,133.887,98.9405,64.1697,0.0161672,0.328429,20.6309,171.998,3.86466,0.0,0.0
435,108.5,61.5884,66.5125,137.351,98.9397,68.2651,0.0152608,0.316902,20.6462,171.658,3.31239,0.0,0.0
450,112.25,61.2503,66.5932,143.011,98.9353,69.5894,0.0133722,0.299352,20.6784,171.378,3.14049,0.0,0.0
465,116,61.4112,65.44,140.446,98.9377,74.464,0.0111782,0.281438,20.7113,171.158,2.53643,0.0,0.0
480,119.75,60.7178,65.9442,140.667,98.9137,80.5671,0.0091647,0.264109,20.7399,170.947,1.83114,0.0,0.0
495,123.5,60.4284,65.8255,142.394,98.9201,83.4603,0.00741456,0.24771,20.773,170.787,1.51682,0.0,0.0
510,127.25,59.9826,65.0648,136.859,98.9157,85.8589,0.00639248,0.233766,20.798,170.547,1.26353,0.0,0.0
525,131,59.7848,64.4914,137.25,98.9129,89.0063,0.0054795,0.223441,20.8175,170.427,0.941933,0.0,0.0
540,134.75,59.1715,63.7881,143.341,98.8993,90.8686,0.00482896,0.212747,20.8368,170.287,0.755881,0.0,0.0
555,138.5,58.6044,63.4541,141.3,98.8977,92.5332,0.0044574,0.204034,20.8501,170.147,0.593716,0.0,0.0
570,142.25,58.0831,62.894,144.187,98.8997,93.2991,0.00389025,0.197986,20.8615,170.017,0.520321,0.0,0.0
585,146,57.2824,61.9392,140.397,98.9049,93.4237,0.00360032,0.191633,20.8713,169.897,0.508879,0.0,0.0
600,149.75,56.4566,61.9924,137.945,98.9137,94.3317,0.00361576,0.187534,20.8772,169.786,0.423346,0.0,0.0
615,153.5,56.985,60.9352,142.815,98.9041,93.7962,0.00381399,0.183221,20.884,169.676,0.473285,0.0,0.0
630,157.25,56.1361,60.6187,141.634,98.9149,95.0138,0.00414564,0.180163,20.8902,169.546,0.359142,0.0,0.0
645,161,55.702,60.4648,141.25,98.9129,94.6774,0.0042411,0.175869,20.8971,169.456,0.390618,0.0,0.0
660,164.75,55.5743,59.7065,143.319,98.9173,95.1227,0.00439215,0.17139,20.9029,169.376,0.349137,0.0,0.0
675,168.5,54.9731,59.2742,143.674,98.9373,95.7768,0.00468927,0.166498,20.91,169.286,0.289779,0.0,0.0
690,172.25,53.9677,59.0006,143.822,98.9413,95.5807,0.00490031,0.162285,20.9162,169.196,0.308429,0.0,0.0
705,176,53.9094,58.3687,143.929,98.9625,95.869,0.00521894,0.157751,20.9227,169.076,0.283458,0.0,0.0
720,179.75,53.4454,57.5171,148.781,98.9801,96.0111,0.00543628,0.15354,20.929,169.016,0.271832,0.0,0.0
735,183.5,53.0388,56.8788,144.338,98.9733,96.4385,0.00552961,0.149472,20.9331,168.896,0.231573,0.0,0.0
750,187.25,52.7774,56.263,143.505,98.9941,97.053,0.0059062,0.144191,20.9393,168.816,0.176754,0.0,0.0
765,191,52.2687,55.5637,145.554,99.0133,96.8472,0.00621824,0.139802,20.9449,168.725,0.197436,0.0,0.0
780,194.75,51.8634,55.7531,146.444,99.0257,97.6561,0.00634445,0.135161,20.9495,168.645,0.124318,0.0,0.0
795,198.5,51.3261,54.981,141.527,99.039,96.6601,0.00647814,0.131432,20.9542,168.605,0.217007,0.0,0.0
810,202.25,50.9549,54.7817,146.513,99.0522,97.1287,0.006501,0.1276,20.9585,168.565,0.175026,0.0,0.0
825,206,50.8633,54.1123,145.488,99.0806,96.951,0.0064713,0.12472,20.9614,168.525,0.193938,0.0,0.0
840,209.75,50.4709,53.3091,144.676,99.0822,97.5595,0.00660067,0.121549,20.9661,168.435,0.138229,0.0,0.0
855,213.5,50.122,53.6203,142.458,99.0798,97.6195,0.00679189,0.119432,20.9699,168.385,0.132529,0.0,0.0
870,217.25,49.7315,52.8308,147.066,99.0798,97.5234,0.00650705,0.117667,20.9732,168.295,0.141321,0.0,0.0
885,221,49.4595,52.8619,144.232,99.0834,97.4443,0.00638641,0.115743,20.9741,168.215,0.148888,0.0,0.0
900,224.75,49.0062,52.2778,144.574,99.0718,97.9346,0.00645583,0.11474,20.9758,168.165,0.103042,0.0,0.0
915,228.5,48.8379,51.9415,146.771,99.0678,98.2591,0.00651216,0.113579,20.9765,168.095,0.0731556,0.0,0.0
930,232.25,48.5561,52.0698,144.98,99.0606,97.9708,0.00634608,0.112375,20.9783,168.035,0.0987369,0.0,0.0
945,236,47.9488,50.9001,145.153,99.0798,97.9993,0.00629275,0.110613,20.9807,167.955,0.097873,0.0,0.0
960,239.75,48.08,50.7904,147.518,99.0706,97.6395,0.00629378,0.108861,20.9815,167.895,0.129872,0.0,0.0
975,243.5,47.2828,50.9535,142.543,99.0738,97.5906,0.0061491,0.107324,20.9833,167.875,0.134633,0.0,0.0
990,247.25,47.7924,50.2299,143.484,99.081,97.4268,0.0061136,0.106194,20.9844,167.785,0.150269,0.0,0.0
1005,251,47.2666,49.8262,144.32,99.0766,98.2446,0.00610323,0.105823,20.9857,167.735,0.0752628,0.0,0.0
1020,254.75,47.2413,49.9975,143.513,99.0882,97.8513,0.00607048,0.105302,20.9845,167.695,0.112119,0.0,0.0
1035,258.5,46.6593,49.7019,144.706,99.081,97.8028,0.00600229,0.104422,20.9855,167.654,0.115894,0.0,0.0
1050,262.25,46.5021,49.5643,144.77,99.1086,97.2997,0.00578824,0.104457,20.9841,167.624,0.164413,0.0,0.0
1065,266,46.9351,49.3843,146.808,99.1146,97.5719,0.00581476,0.104808,20.9835,167.534,0.140021,0.0,0.0
1080,269.75,46.6641,49.5529,148.369,99.1078,97.8466,0.00561627,0.104649,20.983,167.464,0.114312,0.0,0.0
1095,273.5,46.236,49.2352,144.894,99.1086,98.3344,0.00573041,0.104149,20.9841,167.424,0.0699985,0.0,0.0
1110,277.25,46.3339,49.3077,145.184,99.143,98.1285,0.00600807,0.104527,20.9849,167.394,0.0917995,0.0,0.0
1125,281,46.2002,49.266,145.49,99.1418,98.1166,0.00619,0.104525,20.9865,167.344,0.0927757,0.0,0.0
1140,284.75,46.4951,49.4095,151.282,99.1518,97.9091,0.00628742,0.104831,20.9868,167.284,0.112576,0.0,0.0
1155,288.5,46.4948,48.8649,145.422,99.1534,98.5568,0.00616909,0.104901,20.9869,167.224,0.0538687,0.0,0.0
1170,292.25,45.9705,49.0929,147.738,99.1682,97.8428,0.00606915,0.104972,20.9871,167.154,0.120103,0.0,0.0
1185,296,45.8526,48.885,145.321,99.1978,98.2583,0.00594893,0.10435,20.9882,167.144,0.0849453,0.0,0.0
1200,299.75,46.714,48.4269,147.49,99.2255,97.648,0.00599263,0.104547,20.9866,167.064,0.143038,0.0,0.0
1215,303.5,46.2126,49.1008,138.56,99.2563,97.91,0.00607172,0.104635,20.9862,167.014,0.121898,0.0,0.0
1230,307.25,46.1782,48.9127,149.139,99.2571,97.9125,0.00579782,0.104179,20.9875,166.974,0.121736,0.0,0.0
1245,311,46.2595,48.3859,142.501,99.2763,98.4454,0.00566247,0.104256,20.9867,166.934,0.0750191,0.0,0.0
1260,314.75,46.2343,48.7616,142.976,99.2939,97.8891,0.00572333,0.10422,20.987,166.884,0.12718,0.0,0.0
1275,318.5,46.1407,49.0202,137.962,99.3195,97.6748,0.00560714,0.104051,20.9869,166.824,0.149047,0.0,0.0
1290,322.25,46.144,48.9584,143.412,99.3259,98.5904,0.0059808,0.104434,20.9869,166.774,0.0663419,0.0,0.0
1305,326,45.8113,48.1647,143.79,99.3295,97.8479,0.0060081,0.103967,20.9867,166.734,0.134143,0.0,0.0
1320,329.75,45.8137,48.1487,141.027,99.3499,98.2808,0.00598087,0.103669,20.9863,166.664,0.0965721,0.0,0.0
1335,333.5,45.9555,48.5972,142.681,99.3624,98.6686,0.0060391,0.103508,20.9873,166.644,0.0625327,0.0,0.0
1350,337.25,46.2881,47.8387,144.453,99.3744,98.5717,0.00607851,0.103653,20.987,166.634,0.0723862,0.0,0.0
1365,341,45.702,48.4389,146.923,99.3792,98.1081,0.00625869,0.104084,20.9861,166.553,0.114891,0.0,0.0
1380,344.75,45.8435,48.2665,141.926,99.3728,97.776,,0.10369,,166.493,0.144585,0.0,0.0
1395,348.5,45.5623,48.628,146.98,99.3792,98.388,,,,166.423,0.0894697,0.0,0.0
1410,352.25,45.8284,48.5547,145.819,99.3964,97.622,,,,166.393,0.16077,0.0,0.0
1414,353.25,46.0827,48.4771,147.347,99.3884,98.2344,,,,166.373,0.104235,0.0,0.0