File: 01_Data/Vinyl_Tile/Cone/Vinyl_Tile_Cone_HF75Scan_220510_R4.csv
Names,Time,Stack TC,Smoke TC,Exh Press,Smoke Comp,Smoke Meas,CO Meter,CO2 Meter,O2 Meter,Sample Mass,Ext Coeff,Start Test,Flame Verif
Chan Gain,,500,500,1,1,1,1,1,1,1,1,1.0,1.0
Offset,,0,0,0.135316,0,0,0,0,0,0,0,0.0,0.0
Gain,,1,1,25.011,13.8443,15.4071,1,1,1,1.00079,1.02936,1.0,1.0
Units,sec,C,C,Pa,%,%,%,%,%,g,/m,,
Baseline,,42.5519,44.0722,131.502,105.404,107.563,7.87567e-05,0.0420182,21.0004,-447.809,-0.183009,,
8,1.75,39.5145,41.2991,129.768,105.486,107.605,0.000162568,0.0471179,20.9914,533.861,-0.179641,0.0,0.0
16,3.75,40.0137,41.2271,130.105,105.481,107.263,0.000113181,0.046725,20.9921,533.891,-0.15127,0.0,0.0
24,5.75,39.8335,41.129,128.991,105.483,108.082,0.0001487,0.0464811,20.9949,533.881,-0.219776,0.0,0.0
32,7.75,39.813,41.5005,130.252,105.471,107.385,0.000135498,0.04642,20.9957,533.841,-0.16242,0.0,0.0
40,9.75,39.7656,41.5886,132.354,105.469,107.315,0.000321679,0.0466235,20.9957,533.861,-0.156671,0.0,0.0
48,11.75,39.9897,41.4773,135.539,105.452,106.004,0.00184233,0.0474637,20.9906,533.851,-0.0471062,0.0,0.0
56,13.75,39.7833,42.0575,126.38,105.46,87.6779,0.00625299,0.0563413,20.9577,533.601,1.66736,0.0,0.0
64,15.75,40.7584,41.8445,125.216,105.446,82.0488,0.0109845,0.079098,20.8946,533.351,2.26532,0.0,1.0
72,17.75,41.8442,43.0186,120.283,105.433,80.8381,0.0154907,0.106146,20.8288,533.171,2.3985,0.0,1.0
80,19.75,42.2176,42.8898,121.304,105.421,82.2378,0.0192728,0.130439,20.7841,532.84,2.24241,0.0,1.0
88,21.75,43.3624,43.5972,120.315,105.404,79.0532,0.0233456,0.158475,20.738,532.4,2.59757,0.0,1.0
96,23.75,44.2314,44.8922,119.409,105.391,75.5602,0.0267131,0.191498,20.6913,532.04,3.0045,0.0,1.0
104,25.75,45.5129,45.9639,120.652,105.371,60.9345,0.0276552,0.223341,20.66,531.629,4.94534,0.0,0.0
112,27.75,47.4045,47.5422,116.987,105.359,53.5413,0.0259893,0.256526,20.614,531.349,6.11222,0.0,0.0
120,29.75,48.4814,48.4903,120.234,105.344,58.7867,0.0234207,0.285801,20.5735,531.059,5.26704,0.0,0.0
128,31.75,49.2773,49.4326,118.924,105.321,64.7811,0.0214745,0.312826,20.5527,530.779,4.38826,0.0,0.0
136,33.75,50.3813,50.8943,116.242,105.292,69.4299,0.0201792,0.334592,20.545,530.479,3.76003,0.0,0.0
144,35.75,51.4264,51.7662,118.307,105.272,79.2912,0.0193389,0.349464,20.5417,530.098,2.55913,0.0,0.0
152,37.75,52.1757,52.7604,120.514,105.255,87.2905,0.0186132,0.363443,20.5438,529.768,1.68979,0.0,0.0
160,39.75,53.4158,53.8275,119.791,105.239,91.7018,0.0183717,0.376315,20.5451,529.458,1.24329,0.0,0.0
168,41.75,54.0077,54.4089,117.143,105.219,92.4583,0.0185589,0.383331,20.5507,529.147,1.1674,0.0,0.0
176,43.75,54.5233,55.1235,121.213,105.198,90.6551,0.0188504,0.384672,20.5603,528.857,1.34342,0.0,0.0
184,45.75,54.8945,55.325,120.857,105.174,91.1954,0.0189227,0.383628,20.5653,528.537,1.2877,0.0,0.0
192,47.75,55.4814,56.0828,118.159,105.152,87.4264,0.0187274,0.383746,20.5675,528.247,1.66689,0.0,0.0
200,49.75,55.1936,56.6054,120.149,105.136,87.9196,0.0182249,0.385018,20.5687,527.987,1.61472,0.0,0.0
208,51.75,55.8295,57.0376,120.713,105.123,86.138,0.0173188,0.384862,20.5707,527.726,1.79851,0.0,0.0
216,53.75,57.3464,58.1165,120.352,105.099,87.3493,0.0164498,0.383697,20.5716,527.446,1.67032,0.0,0.0
224,55.75,57.2875,58.4388,120.624,105.081,85.1577,0.0157495,0.384201,20.5701,527.136,1.89827,0.0,0.0
232,57.75,57.691,58.8731,118.132,105.059,85.642,0.0153237,0.38739,20.5619,526.826,1.84514,0.0,0.0
240,59.75,58.1096,59.646,119.013,105.059,82.8505,0.015293,0.394728,20.5428,526.525,2.14436,0.0,0.0
248,61.75,58.6325,59.7714,120.029,105.056,83.1161,0.0157216,0.40451,20.5267,526.205,2.1152,0.0,0.0
256,63.75,59.8601,60.4528,116.342,105.028,82.7376,0.0164741,0.415525,20.5071,525.915,2.15398,0.0,0.0
264,65.75,60.0746,61.3023,117.38,105.019,82.3638,0.0171762,0.423672,20.4945,525.625,2.19407,0.0,0.0
272,67.75,60.4546,61.8835,118.866,104.991,81.4352,0.0176678,0.430017,20.4876,525.244,2.29412,0.0,0.0
280,69.75,61.4932,62.3662,118.976,104.972,82.9567,0.0179048,0.434237,20.4822,524.964,2.12534,0.0,0.0
288,71.75,61.6569,63.5802,120.068,104.958,80.815,0.0179423,0.43657,20.4803,524.654,2.36028,0.0,0.0
296,73.75,62.7562,63.9549,114.225,104.929,81.0078,0.0178674,0.434892,20.4835,524.364,2.33629,0.0,0.0
304,75.75,62.4419,64.162,119.067,104.911,83.316,0.0177446,0.430007,20.4947,524.033,2.08105,0.0,0.0
312,77.75,62.7834,64.7707,119.043,104.892,83.3592,0.0175224,0.420706,20.5097,523.773,2.07469,0.0,0.0
320,79.75,62.973,64.5578,120.817,104.87,85.6049,0.0171745,0.411691,20.5251,523.503,1.83281,0.0,0.0
328,81.75,63.3427,65.1858,121.249,104.86,83.9681,0.0169057,0.400743,20.5388,523.253,2.00621,0.0,0.0
336,83.75,63.6264,65.5368,119.407,104.834,82.4236,0.0163657,0.388403,20.554,523.033,2.17167,0.0,0.0
344,85.75,63.6427,65.8481,120.126,104.828,84.7952,0.0152524,0.375192,20.5739,522.862,1.91502,0.0,0.0
352,87.75,63.2154,65.4181,118.111,104.799,83.4589,0.0139395,0.361619,20.5921,522.662,2.05593,0.0,0.0
360,89.75,63.7584,64.9993,124.931,104.794,81.4404,0.0124708,0.349754,20.6055,522.452,2.27657,0.0,0.0
368,91.75,63.0617,65.5787,122.531,104.771,83.7871,0.0112002,0.339064,20.6153,522.322,2.01809,0.0,0.0
376,93.75,62.8591,65.3689,123.765,104.752,82.1358,0.0103298,0.331591,20.6195,522.152,2.19615,0.0,0.0
384,95.75,63.2149,66.0049,122.928,104.754,82.7644,0.00975086,0.326472,20.6213,522.062,2.12752,0.0,0.0
392,97.75,62.864,65.7262,123.261,104.734,83.4862,0.00940097,0.322205,20.6254,521.962,2.04738,0.0,0.0
400,99.75,62.4249,65.547,120.488,104.716,84.6391,0.0091934,0.318961,20.6264,521.842,1.92193,0.0,0.0
408,101.75,63.0196,66.1458,123.259,104.704,83.3052,0.00913483,0.317038,20.6247,521.662,2.06435,0.0,0.0
416,103.75,62.7027,65.5604,121.577,104.688,79.4675,0.00927238,0.315983,20.6211,521.491,2.48882,0.0,0.0
424,105.75,63.5174,66.1119,118.787,104.683,81.6388,0.00945201,0.31567,20.615,521.361,2.24501,0.0,0.0
432,107.75,62.1264,65.9389,122.328,104.664,80.4196,0.00955242,0.317688,20.6051,521.261,2.37927,0.0,0.0
440,109.75,62.8695,66.1339,122.885,104.666,82.1833,0.00943994,0.320039,20.6001,521.091,2.18353,0.0,0.0
448,111.75,63.3158,66.3744,121.019,104.642,77.6168,0.00933625,0.320186,20.6002,520.981,2.69765,0.0,0.0
456,113.75,63.2857,65.9391,120.668,104.637,81.47,0.00927337,0.317465,20.6082,520.861,2.25977,0.0,0.0
464,115.75,63.3925,66.5405,122.552,104.621,83.2802,0.00912092,0.313464,20.6166,520.751,2.05987,0.0,0.0
472,117.75,62.6409,66.5411,119.622,104.669,81.9416,0.00887212,0.309532,20.6245,520.631,2.21035,0.0,0.0
480,119.75,63.1185,66.3342,119.15,104.706,81.2029,0.00855581,0.30508,20.6318,520.471,2.29532,0.0,0.0
488,121.75,63.084,66.2821,121.507,104.741,87.0055,0.0081641,0.299757,20.6419,520.391,1.67509,0.0,0.0
496,123.75,62.9038,66.6069,120.729,104.791,88.0465,0.00764838,0.290797,20.6599,520.31,1.57203,0.0,0.0
504,125.75,62.7267,66.3465,121.416,104.822,90.587,0.00703103,0.282763,20.6807,520.15,1.31792,0.0,0.0
512,127.75,62.2555,66.156,123.043,104.838,89.8328,0.00636863,0.271735,20.7036,520.1,1.39475,0.0,0.0
520,129.75,62.0932,65.8296,123.991,104.87,93.0385,0.00582422,0.261283,20.7264,520.02,1.08088,0.0,0.0
528,131.75,61.7174,65.209,125.472,104.899,97.2707,0.00540607,0.251098,20.7442,519.93,0.681757,0.0,0.0
536,133.75,61.3766,65.4955,127.435,104.926,97.7178,0.00511382,0.241559,20.7619,519.89,0.642598,0.0,0.0
544,135.75,61.1387,65.2124,128.19,104.947,101.876,0.0048899,0.231092,20.78,519.82,0.268122,0.0,0.0
552,137.75,60.4964,64.3051,124.148,104.97,102.364,0.00476283,0.22174,20.7957,519.66,0.227045,0.0,0.0
560,139.75,59.3136,64.0713,124.47,105.005,104.372,0.00470839,0.213816,20.8094,519.61,0.0546358,0.0,0.0
568,141.75,58.8921,63.5051,127.718,105.024,104.516,0.00475739,0.206856,20.8216,519.55,0.0437547,0.0,0.0
576,143.75,58.5904,63.0821,128.191,105.039,105.357,0.00487711,0.200284,20.8288,519.52,-0.0273533,0.0,0.0
584,145.75,58.2855,62.6939,124.053,105.067,106.613,0.00504541,0.195427,20.838,519.42,-0.131876,0.0,0.0
592,147.75,57.8504,62.1994,129.793,105.087,106.185,0.00515251,0.189407,20.8469,519.36,-0.0939346,0.0,0.0
600,149.75,57.3589,61.7966,129.113,105.101,106.738,0.00526653,0.183757,20.8572,519.36,-0.139522,0.0,0.0
608,151.75,57.1012,61.0781,130.641,105.112,107.068,0.00538335,0.178281,20.8639,519.27,-0.166534,0.0,0.0
616,153.75,56.2726,61.2404,128.576,105.127,107.08,0.00546473,0.173723,20.8693,519.26,-0.166179,0.0,0.0
624,155.75,56.3523,60.6319,124.995,105.13,107.653,0.00559716,0.16967,20.8746,519.21,-0.214131,0.0,0.0
632,157.75,56.1248,60.4196,128.373,105.139,107.975,0.0058526,0.166005,20.8785,519.089,-0.240264,0.0,0.0
640,159.75,55.3484,59.983,128.462,105.147,107.145,0.00603003,0.162694,20.8827,519.029,-0.169906,0.0,0.0
648,161.75,54.213,59.5196,128.932,105.136,107.527,0.00605242,0.159737,20.8882,519.039,-0.203044,0.0,0.0
656,163.75,54.7706,59.7361,129.696,105.132,108.108,0.00600303,0.156921,20.8929,518.969,-0.252041,0.0,0.0
664,165.75,54.2302,58.8894,131.978,105.114,107.614,0.00596767,0.154028,20.8962,518.869,-0.212308,0.0,0.0
672,167.75,54.1983,57.7347,128.466,105.112,107.852,0.00603517,0.15148,20.8994,518.869,-0.232394,0.0,0.0
680,169.75,53.2114,57.9378,127.437,105.086,107.998,0.0061134,0.1489,20.9026,518.819,-0.246839,0.0,0.0
688,171.75,53.1215,57.2371,125.672,105.065,108.364,,0.146686,,518.729,-0.279226,0.0,0.0
696,173.75,52.7563,57.2703,130.789,105.046,107.751,,,,518.629,-0.229626,0.0,0.0
704,175.75,52.515,56.9,128.653,105.01,106.696,,,,518.639,-0.143789,0.0,0.0
712,177.75,51.9396,56.4734,128.113,104.987,109.142,,,,518.639,-0.350518,0.0,0.0
720,179.75,51.6275,56.2622,129.102,104.951,107.212,,,,518.559,-0.192462,0.0,0.0
725,181,51.4992,55.6877,128.098,104.929,108.248,,,,518.499,-0.281168,0.0,0.0