File: 01_Data/PET/MCC/PET_MCC_30K_min_210922_R1.txt
Sample ID:	C:\MCC\MCC Cal\Test\PET_MCC_30K_min_210922_R1.txt
Sample Weight (mg):	4.35
Heating Rate (C/s):	0.5
Combustor Temp (C):	900
N2 Flow Rate (cc/min):	80
O2 Flow Rate (cc/min):	20
Calibration File:	C:\MCC\MCC Cal\Coeff1 JN10440_30_210304.txt.txt
T Correction Coefficients:	0	1.024463	0
Time Shift (s):	14
*
Time (s)	Temperature (C)	N2 flow rate (cc/min)	O2 flow rate (cc/min)	Flow Rate (cc/min)	Oxygen (%)	HRR (W/g)	Heating rate (C/s)
0.000	106.392	80.007	19.996	100.009	20.171	-0.240	-0.014
8.000	106.423	80.005	19.996	100.018	20.166	0.086	0.000
16.000	106.486	80.006	19.996	100.104	20.153	1.049	0.008
24.000	106.874	80.008	19.996	100.166	20.145	1.627	0.065
32.001	107.600	80.007	19.996	100.171	20.137	2.215	0.134
40.001	108.647	80.006	19.995	100.190	20.139	2.043	0.128
48.000	110.004	80.010	19.995	100.208	20.134	2.379	0.168
56.001	111.716	80.010	19.995	100.235	20.123	3.200	0.228
64.001	113.773	80.005	19.996	100.255	20.123	3.218	0.275
72.001	116.161	80.007	19.996	100.287	20.118	3.581	0.340
80.000	118.903	80.008	19.994	100.281	20.116	3.720	0.366
88.001	121.928	80.007	19.996	100.288	20.114	3.865	0.399
96.000	125.182	80.005	19.996	100.293	20.118	3.551	0.411
104.000	128.525	80.008	19.996	100.281	20.114	3.855	0.427
112.001	132.138	80.008	19.995	100.297	20.119	3.487	0.472
120.001	135.820	80.006	19.996	100.266	20.116	3.681	0.473
128.000	139.615	80.009	19.997	100.265	20.117	3.616	0.500
136.001	143.470	80.008	19.997	100.277	20.120	3.407	0.474
144.000	147.425	80.005	19.997	100.244	20.120	3.378	0.478
152.000	151.341	80.007	19.995	100.284	20.118	3.555	0.475
160.000	155.227	80.007	19.996	100.241	20.116	3.700	0.486
168.000	159.186	80.007	19.995	100.262	20.117	3.627	0.506
176.000	163.077	80.006	19.995	100.250	20.122	3.236	0.461
184.000	167.003	80.008	19.995	100.220	20.119	3.504	0.522
192.000	170.987	80.008	19.996	100.256	20.126	2.984	0.483
200.000	174.850	80.007	19.996	100.233	20.126	2.960	0.467
208.000	178.697	80.009	19.995	100.212	20.125	3.013	0.478
216.000	182.612	80.010	19.997	100.221	20.128	2.829	0.479
224.000	186.514	80.006	19.997	100.246	20.127	2.901	0.483
232.000	190.429	80.007	19.995	100.269	20.132	2.571	0.516
240.000	194.453	80.007	19.994	100.256	20.126	2.972	0.512
248.000	198.504	80.006	19.995	100.241	20.131	2.592	0.493
256.000	202.642	80.007	19.995	100.226	20.128	2.828	0.495
264.000	206.700	80.007	19.996	100.219	20.134	2.433	0.483
272.000	210.760	80.009	19.995	100.228	20.134	2.406	0.467
280.000	214.835	80.008	19.996	100.209	20.127	2.878	0.510
288.000	218.837	80.007	19.997	100.210	20.133	2.486	0.499
296.000	222.844	80.009	19.996	100.208	20.133	2.465	0.511
304.000	226.794	80.008	19.995	100.210	20.138	2.119	0.475
312.000	230.842	80.007	19.998	100.206	20.133	2.470	0.489
320.000	234.752	80.007	19.997	100.192	20.137	2.174	0.441
328.000	238.723	80.009	19.996	100.211	20.137	2.195	0.536
336.000	242.599	80.007	19.996	100.206	20.132	2.527	0.482
344.000	246.525	80.007	19.995	100.199	20.136	2.230	0.492
352.001	250.522	80.007	19.996	100.207	20.137	2.191	0.498
360.000	254.493	80.008	19.995	100.208	20.136	2.253	0.481
368.000	258.537	80.008	19.995	100.200	20.136	2.281	0.502
376.000	262.475	80.007	19.996	100.187	20.140	1.984	0.486
384.000	266.442	80.011	19.996	100.176	20.136	2.243	0.463
392.000	270.467	80.006	19.996	100.174	20.136	2.244	0.496
400.000	274.460	80.007	19.996	100.187	20.141	1.914	0.492
408.000	278.437	80.006	19.998	100.177	20.140	1.937	0.491
416.000	282.369	80.008	19.997	100.179	20.137	2.195	0.505
424.000	286.322	80.008	19.995	100.177	20.137	2.216	0.487
432.000	290.218	80.006	19.994	100.179	20.135	2.356	0.491
440.000	294.206	80.009	19.995	100.177	20.137	2.189	0.492
448.000	298.183	80.008	19.994	100.178	20.146	1.510	0.508
456.000	302.129	80.011	19.995	100.180	20.144	1.670	0.475
464.000	306.162	80.011	19.995	100.175	20.141	1.884	0.501
472.000	310.164	80.006	19.995	100.173	20.144	1.695	0.551
480.000	314.266	80.006	19.996	100.174	20.140	1.970	0.521
488.000	318.234	80.007	19.996	100.179	20.140	1.999	0.495
496.000	322.196	80.006	19.994	100.168	20.138	2.126	0.505
504.000	326.171	80.004	19.997	100.161	20.140	1.993	0.524
512.000	330.155	80.004	19.997	100.163	20.138	2.087	0.514
520.000	334.246	80.009	19.994	100.164	20.146	1.560	0.514
528.000	338.290	80.009	19.995	100.164	20.138	2.122	0.510
536.000	342.331	80.011	19.994	100.160	20.134	2.377	0.472
544.000	346.406	80.009	19.993	100.148	20.136	2.233	0.512
552.000	350.431	80.028	19.995	100.170	20.136	2.245	0.544
560.000	354.453	80.008	19.995	100.145	20.134	2.403	0.490
568.000	358.528	80.007	19.997	100.178	20.126	3.006	0.532
576.000	362.700	80.008	19.995	100.170	20.120	3.437	0.541
584.000	366.994	80.010	19.995	100.177	20.101	4.783	0.577
592.000	371.297	80.005	19.997	100.180	20.086	5.874	0.575
600.000	375.684	80.006	19.996	100.176	20.061	7.638	0.554
608.000	380.155	80.009	19.997	100.180	20.034	9.591	0.571
616.000	384.538	80.005	19.996	100.192	19.978	13.602	0.538
624.000	388.944	80.010	19.994	100.212	19.901	19.187	0.558
632.000	393.225	80.010	19.996	100.250	19.799	26.487	0.548
640.000	397.413	80.003	20.001	100.260	19.656	36.796	0.524
648.000	401.494	80.006	19.996	100.255	19.494	48.475	0.481
656.000	405.491	80.016	19.994	100.350	19.291	63.101	0.459
664.000	409.446	80.004	19.996	100.390	19.006	83.648	0.493
672.000	413.292	80.007	19.996	100.410	18.692	106.380	0.476
680.000	417.055	80.009	19.995	100.532	18.346	131.419	0.483
688.000	420.870	80.010	19.996	100.569	17.984	157.670	0.462
696.000	424.751	80.006	19.997	100.651	17.642	182.521	0.492
704.000	428.546	80.017	19.996	100.736	17.343	204.242	0.478
712.000	432.492	80.010	19.993	100.787	17.087	222.946	0.511
720.000	436.435	80.005	19.995	100.894	16.910	235.865	0.491
728.000	440.393	80.007	19.994	100.918	16.965	231.717	0.560
736.001	444.386	80.007	19.994	100.933	17.267	209.794	0.513
744.000	448.544	80.007	19.996	100.916	17.699	178.341	0.518
752.000	452.672	80.007	19.995	100.760	18.164	144.495	0.506
760.000	456.777	80.007	19.995	100.633	18.645	109.707	0.482
768.000	460.875	80.011	19.995	100.498	19.134	74.349	0.520
776.000	464.895	80.010	19.996	100.373	19.531	45.756	0.482
784.000	468.944	80.010	19.996	100.292	19.770	28.600	0.494
792.000	473.034	80.011	19.996	100.220	19.907	18.684	0.543
800.000	477.065	80.009	19.996	100.210	19.984	13.198	0.480
808.000	481.044	80.007	19.996	100.213	20.038	9.301	0.496
816.000	485.008	80.007	19.994	100.178	20.060	7.688	0.504
824.000	488.989	80.007	19.996	100.178	20.086	5.880	0.478
832.000	493.004	80.007	19.995	100.182	20.101	4.741	0.515
840.000	497.042	80.009	19.995	100.139	20.109	4.228	0.500
848.000	501.033	80.010	19.995	100.139	20.117	3.639	0.485
856.000	505.066	80.008	19.998	100.144	20.116	3.701	0.497
864.000	509.174	80.007	19.994	100.152	20.119	3.455	0.500
872.000	513.300	80.011	19.995	100.141	20.121	3.366	0.521
880.000	517.447	80.009	19.996	100.137	20.118	3.540	0.541
888.000	521.610	80.006	19.996	100.145	20.118	3.573	0.484
896.000	525.768	80.005	19.997	100.163	20.117	3.589	0.492
904.000	529.934	80.008	19.996	100.138	20.115	3.744	0.500
912.000	534.092	80.009	19.996	100.135	20.120	3.412	0.525
920.000	538.313	80.009	19.995	100.139	20.117	3.615	0.567
928.000	542.430	80.010	19.997	100.139	20.121	3.362	0.526
936.000	546.496	80.010	19.994	100.136	20.121	3.354	0.517
944.000	550.556	80.010	19.995	100.138	20.118	3.561	0.536
952.000	554.637	80.010	19.996	100.140	20.120	3.401	0.534
960.000	558.749	80.009	19.994	100.139	20.119	3.446	0.532
968.000	562.896	80.008	19.996	100.137	20.118	3.514	0.524
976.000	566.993	80.008	19.997	100.129	20.120	3.434	0.518
984.000	571.147	80.007	19.998	100.135	20.113	3.904	0.518
992.000	575.330	80.007	19.999	100.143	20.121	3.365	0.545
1000.000	579.419	80.008	19.994	100.138	20.115	3.736	0.518
1008.000	583.428	80.007	19.995	100.124	20.113	3.931	0.502
1016.000	587.329	80.008	19.995	100.132	20.117	3.600	0.497
1024.000	591.238	80.007	19.996	100.140	20.117	3.607	0.509
1032.000	595.124	80.011	19.996	100.140	20.114	3.820	0.468
1040.000	598.974	80.004	19.990	100.125	20.117	3.646	0.472
1048.001	602.798	80.007	19.995	100.130	20.118	3.526	0.441
1056.001	606.725	80.008	19.997	100.136	20.116	3.658	0.491
1064.000	610.763	80.008	19.996	100.139	20.116	3.701	0.504
1072.000	614.886	80.007	19.995	100.135	20.118	3.561	0.528
1080.000	619.005	80.006	19.997	100.137	20.121	3.303	0.504
1088.000	623.084	80.007	19.996	100.140	20.119	3.459	0.510
1096.001	627.089	80.009	19.996	100.137	20.117	3.642	0.482
1104.000	631.089	80.008	19.994	100.123	20.112	3.997	0.487
1112.000	635.088	80.010	19.993	100.131	20.117	3.638	0.514
1120.000	639.147	80.009	19.994	100.133	20.120	3.414	0.524
1128.000	643.094	80.008	19.995	100.119	20.120	3.437	0.459
1136.000	647.118	80.007	19.994	100.123	20.119	3.443	0.513
1144.000	651.046	80.007	19.996	100.120	20.116	3.689	0.473
1152.000	655.025	80.006	19.996	100.131	20.123	3.223	0.531
1160.000	659.202	80.006	19.994	100.141	20.119	3.485	0.547
1168.000	663.701	80.002	19.999	100.132	20.117	3.637	0.600
1176.000	668.297	80.009	19.995	100.149	20.118	3.578	0.569
1184.000	672.999	80.008	19.996	100.132	20.116	3.684	0.550
1192.000	677.753	80.007	19.995	100.155	20.122	3.277	0.609
1200.000	682.411	80.010	19.994	100.111	20.119	3.511	0.570
1208.000	687.021	80.009	19.996	100.133	20.119	3.494	0.600
1216.000	691.450	80.009	19.997	100.120	20.118	3.550	0.569
1224.000	695.884	80.002	19.996	100.136	20.120	3.388	0.549
1232.000	700.197	80.008	19.995	100.133	20.122	3.294	0.518
1240.000	704.387	80.005	19.996	100.106	20.119	3.496	0.513
1248.000	708.539	80.012	19.993	100.135	20.120	3.438	0.545
1256.000	712.702	80.006	19.997	100.137	20.119	3.488	0.499
1264.001	716.972	80.007	19.996	100.131	20.117	3.648	0.531
1272.000	721.262	80.008	19.997	100.132	20.118	3.545	0.580
1280.000	725.477	80.009	19.995	100.135	20.122	3.294	0.535
1288.000	729.592	80.012	19.995	100.107	20.121	3.321	0.513
1296.000	733.697	80.003	19.995	100.109	20.122	3.240	0.510
1304.000	737.625	80.007	19.996	100.099	20.118	3.557	0.506
1312.001	741.705	80.016	19.995	100.100	20.131	2.628	0.541
1314.000	742.544	80.010	19.995	100.099	20.126	3.003	0.546