File: 01_Data/PET/MCC/PET_MCC_30K_min_210927_R2.txt
Sample ID:	C:\MCC\MCC Cal\Test\PET_MCC_30K_min_210927_R2.txt
Sample Weight (mg):	4.49
Heating Rate (C/s):	0.5
Combustor Temp (C):	900
N2 Flow Rate (cc/min):	80
O2 Flow Rate (cc/min):	20
Calibration File:	C:\MCC\MCC Cal\Coeff1 JN10440_30_210304.txt.txt
T Correction Coefficients:	0	1.024463	0
Time Shift (s):	14
*
Time (s)	Temperature (C)	N2 flow rate (cc/min)	O2 flow rate (cc/min)	Flow Rate (cc/min)	Oxygen (%)	HRR (W/g)	Heating rate (C/s)
0.000	108.173	79.998	19.996	99.914	20.104	0.220	0.021
8.000	108.130	79.999	19.994	99.925	20.102	0.370	0.012
16.000	108.152	79.999	19.994	99.953	20.099	0.592	0.021
24.000	108.316	79.999	19.995	100.019	20.086	1.480	0.042
32.000	108.803	80.001	19.994	100.033	20.082	1.760	0.062
40.000	109.607	79.998	19.993	100.106	20.069	2.673	0.100
48.000	110.856	79.997	19.995	100.128	20.067	2.803	0.202
56.000	112.427	79.996	19.997	100.132	20.061	3.225	0.198
64.000	114.376	79.998	19.995	100.145	20.057	3.544	0.275
72.000	116.575	79.995	19.996	100.148	20.058	3.478	0.296
80.000	119.030	79.998	19.996	100.149	20.060	3.337	0.297
88.000	121.634	80.000	19.997	100.148	20.057	3.497	0.338
96.000	124.462	79.998	19.996	100.152	20.056	3.590	0.372
104.000	127.408	79.998	19.995	100.151	20.057	3.484	0.389
112.000	130.480	80.000	19.995	100.157	20.056	3.595	0.411
120.000	133.651	79.998	19.995	100.127	20.055	3.622	0.365
128.000	136.922	79.998	19.995	100.152	20.052	3.831	0.424
136.000	140.266	79.996	19.997	100.151	20.050	3.980	0.429
144.000	143.693	79.997	19.997	100.154	20.048	4.118	0.426
152.000	147.197	79.997	19.996	100.151	20.051	3.924	0.436
160.000	150.767	79.997	19.995	100.154	20.050	4.034	0.466
168.000	154.402	79.998	19.995	100.165	20.046	4.251	0.454
176.000	158.010	79.997	19.995	100.182	20.048	4.128	0.432
184.000	161.772	79.997	19.993	100.172	20.048	4.148	0.456
192.000	165.628	80.001	19.995	100.148	20.051	3.912	0.482
200.000	169.558	80.000	19.996	100.152	20.047	4.188	0.499
208.000	173.488	79.997	19.996	100.151	20.052	3.842	0.514
216.000	177.399	79.998	19.994	100.147	20.050	3.994	0.493
224.000	181.447	79.997	19.995	100.147	20.048	4.123	0.531
232.000	185.449	79.996	19.996	100.149	20.051	3.907	0.516
240.000	189.433	79.997	19.995	100.148	20.053	3.795	0.467
248.000	193.570	79.998	19.996	100.140	20.053	3.770	0.530
256.000	197.531	79.999	19.995	100.141	20.051	3.910	0.471
264.000	201.521	79.997	19.996	100.141	20.058	3.417	0.483
272.000	205.581	80.000	19.995	100.139	20.057	3.523	0.496
280.000	209.609	79.999	19.995	100.129	20.049	4.099	0.537
288.000	213.569	79.998	19.994	100.124	20.048	4.120	0.471
296.000	217.542	79.996	19.995	100.121	20.054	3.695	0.499
304.000	221.498	79.998	19.996	100.125	20.056	3.588	0.495
312.000	225.548	79.997	19.995	100.126	20.057	3.520	0.507
320.000	229.569	79.997	19.997	100.111	20.054	3.708	0.523
328.000	233.571	79.996	19.997	100.110	20.057	3.535	0.525
336.000	237.499	79.999	19.996	100.107	20.056	3.601	0.496
344.000	241.445	79.998	19.997	100.108	20.055	3.618	0.514
352.000	245.417	80.000	19.995	100.108	20.055	3.658	0.486
360.000	249.340	80.000	19.995	100.108	20.053	3.787	0.520
368.000	253.298	79.998	19.995	100.106	20.053	3.769	0.462
376.000	257.247	79.997	19.994	100.110	20.056	3.592	0.494
384.000	261.236	79.999	19.995	100.112	20.051	3.947	0.484
392.000	265.244	79.997	19.996	100.094	20.056	3.579	0.507
400.000	269.257	79.998	19.996	100.107	20.054	3.747	0.507
408.000	273.324	79.998	19.996	100.108	20.058	3.430	0.496
416.000	277.333	80.000	19.997	100.106	20.053	3.765	0.504
424.000	281.313	79.996	19.996	100.106	20.056	3.548	0.470
432.000	285.307	79.998	19.995	100.125	20.054	3.744	0.474
440.000	289.346	79.999	19.996	100.109	20.056	3.586	0.456
448.000	293.412	80.000	19.994	100.108	20.049	4.082	0.487
456.000	297.473	79.998	19.994	100.105	20.046	4.268	0.513
464.000	301.507	79.999	19.995	100.099	20.057	3.514	0.503
472.000	305.525	79.998	19.994	100.104	20.055	3.645	0.510
480.000	309.584	79.996	19.995	100.105	20.051	3.943	0.697
488.000	313.684	79.998	19.997	100.107	20.047	4.191	0.524
496.000	317.629	79.997	19.995	100.102	20.050	4.008	0.507
504.000	321.646	79.996	19.994	100.093	20.053	3.802	0.478
512.000	325.615	79.998	19.994	100.108	20.050	4.026	0.515
520.000	329.618	80.000	19.997	100.102	20.052	3.863	0.478
528.000	333.587	80.000	19.995	100.104	20.047	4.207	0.500
536.000	337.649	79.996	19.994	100.101	20.047	4.220	0.499
544.000	341.680	79.998	19.995	100.107	20.044	4.442	0.533
552.000	345.605	79.999	19.995	100.098	20.045	4.363	0.478
560.000	349.668	79.997	19.995	100.108	20.043	4.473	0.519
568.000	353.813	79.996	19.993	100.109	20.040	4.678	0.537
576.000	357.861	79.997	19.996	100.111	20.037	4.919	0.520
584.000	361.958	79.999	19.996	100.106	20.035	5.065	0.504
592.000	365.985	79.998	19.996	100.103	20.031	5.320	0.502
600.000	370.061	80.000	19.995	100.108	20.014	6.495	0.528
608.000	374.173	80.000	19.995	100.106	19.995	7.791	0.487
616.000	378.254	79.997	19.995	100.108	19.976	9.115	0.519
624.000	382.337	79.995	19.995	100.135	19.946	11.230	0.519
632.000	386.490	79.998	19.994	100.149	19.896	14.711	0.502
640.000	390.630	79.998	19.994	100.150	19.828	19.461	0.512
648.000	394.694	79.997	19.996	100.181	19.730	26.266	0.518
656.000	398.783	79.999	19.995	100.185	19.607	34.883	0.514
664.000	402.802	80.000	19.994	100.231	19.445	46.181	0.515
672.000	406.766	80.000	19.995	100.263	19.239	60.583	0.519
680.000	410.775	79.999	19.996	100.319	18.997	77.469	0.523
688.000	414.705	79.999	19.995	100.364	18.700	98.274	0.486
696.000	418.660	79.999	19.995	100.426	18.372	121.211	0.507
704.000	422.657	79.997	19.995	100.502	18.024	145.658	0.477
712.000	426.667	79.997	19.996	100.578	17.653	171.686	0.511
720.000	430.691	79.998	19.995	100.634	17.333	194.200	0.496
728.000	434.763	79.998	19.994	100.731	17.003	217.511	0.496
736.000	438.882	79.997	19.996	100.795	16.768	234.030	0.521
744.000	442.933	79.999	19.995	100.836	16.730	236.804	0.515
752.000	446.982	79.999	19.994	100.884	16.901	224.598	0.501
760.000	451.059	79.998	19.995	100.873	17.205	203.233	0.515
768.000	455.135	79.998	19.995	100.822	17.627	173.478	0.494
776.000	459.257	80.001	19.995	100.684	18.062	142.874	0.513
784.000	463.255	79.996	19.994	100.535	18.538	109.445	0.504
792.000	467.216	79.997	19.995	100.409	19.054	73.422	0.469
800.000	471.286	79.998	19.996	100.287	19.454	45.477	0.506
808.000	475.356	79.998	19.996	100.216	19.677	29.941	0.523
816.000	479.412	79.996	19.995	100.151	19.807	20.885	0.518
824.000	483.491	79.998	19.995	100.138	19.885	15.457	0.504
832.000	487.568	79.998	19.994	100.124	19.924	12.754	0.524
840.000	491.622	79.998	19.996	100.113	19.950	10.945	0.493
848.000	495.762	79.999	19.994	100.107	19.970	9.553	0.500
856.000	499.809	80.000	19.995	100.106	19.985	8.544	0.520
864.000	503.888	79.997	19.998	100.099	19.989	8.233	0.498
872.000	507.958	79.999	19.995	100.102	19.994	7.871	0.502
880.000	512.095	79.998	19.994	100.103	19.999	7.529	0.501
888.000	516.235	79.997	19.995	100.087	19.995	7.821	0.509
896.000	520.388	79.997	19.995	100.103	19.999	7.546	0.520
904.000	524.524	79.997	19.994	100.083	20.000	7.496	0.523
912.000	528.654	80.001	19.995	100.077	20.002	7.341	0.523
920.000	532.773	79.998	19.995	100.095	20.002	7.307	0.513
928.000	536.896	79.999	19.995	100.073	20.004	7.181	0.492
936.000	541.008	80.001	19.994	100.079	20.004	7.197	0.496
944.000	545.069	79.999	19.993	100.069	20.004	7.196	0.510
952.000	549.148	79.997	19.996	100.087	20.009	6.866	0.506
960.000	553.245	79.997	19.996	100.071	20.003	7.259	0.523
968.000	557.294	79.997	19.994	100.092	20.006	7.024	0.500
976.000	561.330	79.996	19.995	100.070	20.003	7.264	0.509
984.000	565.333	79.997	19.997	100.086	20.004	7.174	0.483
992.000	569.400	79.999	19.996	100.097	20.006	7.086	0.497
1000.000	573.516	80.000	19.994	100.096	20.004	7.190	0.532
1008.000	577.622	79.999	19.994	100.083	20.004	7.220	0.525
1016.000	581.640	80.000	19.995	100.103	19.998	7.601	0.498
1024.000	585.686	79.998	19.994	100.098	19.998	7.627	0.514
1032.001	589.705	79.999	19.995	100.088	19.997	7.697	0.494
1040.000	593.792	79.999	19.996	100.094	19.999	7.539	0.525
1048.000	597.856	79.998	19.995	100.097	19.995	7.857	0.508
1056.001	601.878	79.997	19.996	100.093	19.996	7.787	0.464
1064.000	605.935	79.998	19.996	100.099	19.995	7.807	0.500
1072.000	610.026	79.998	19.995	100.101	19.994	7.867	0.502
1080.000	614.130	79.998	19.995	100.100	19.994	7.907	0.482
1088.000	618.234	79.997	19.995	100.100	19.998	7.628	0.535
1096.000	622.304	79.998	19.994	100.107	19.996	7.775	0.517
1104.000	626.336	80.002	19.995	100.104	19.996	7.766	0.508
1112.000	630.301	79.998	19.994	100.094	19.993	7.985	0.488
1120.000	634.418	79.999	19.995	100.094	19.999	7.516	0.515
1128.000	638.545	79.999	19.995	100.100	20.002	7.339	0.521
1136.000	642.599	79.997	19.994	100.107	20.005	7.095	0.506
1144.000	646.687	79.997	19.996	100.106	20.006	7.070	0.513
1152.000	650.705	79.998	19.995	100.094	20.000	7.471	0.496
1160.000	654.804	79.999	19.995	100.109	20.002	7.316	0.514
1168.000	658.874	79.997	19.996	100.103	20.001	7.432	0.503
1176.000	662.955	79.999	19.996	100.105	20.001	7.387	0.489
1184.000	667.085	80.001	19.994	100.106	19.998	7.617	0.461
1192.000	671.131	79.997	19.995	100.106	20.000	7.489	0.516
1200.000	675.259	79.998	19.994	100.106	19.999	7.548	0.514
1208.000	679.318	79.997	19.994	100.106	20.003	7.268	0.505
1216.001	683.388	79.999	19.995	100.109	20.004	7.220	0.493
1224.000	687.519	79.998	19.996	100.100	19.999	7.531	0.504
1232.000	691.572	80.001	19.995	100.110	19.999	7.561	0.488
1240.000	695.680	80.002	19.995	100.102	19.996	7.774	0.488
1248.000	699.763	80.001	19.994	100.105	20.000	7.491	0.534
1256.000	703.846	79.999	19.994	100.107	19.996	7.768	0.524
1264.000	707.861	80.000	19.996	100.105	19.998	7.624	0.493
1272.001	711.936	79.999	19.995	100.104	20.000	7.475	0.501
1280.000	716.094	79.997	19.996	100.106	20.003	7.283	0.532
1288.000	720.190	79.998	19.994	100.110	20.001	7.397	0.531
1296.000	724.266	80.001	19.994	100.109	19.998	7.617	0.498
1304.000	728.306	80.000	19.994	100.108	19.998	7.596	0.482
1312.000	732.376	79.998	19.995	100.111	20.001	7.436	0.528
1320.000	736.403	79.999	19.995	100.106	19.996	7.734	0.494
1328.000	740.431	79.999	19.996	100.104	19.993	7.952	0.499
1334.000	743.471	79.999	19.994	100.106	19.996	7.738	0.493