File: 01_Data/Wood_Stud/Cone/Wood_Stud_Cone_HF50Scan_221004_R1.csv
Names,Time,Stack TC,Smoke TC,Exh Press,Smoke Comp,Smoke Meas,CO Meter,CO2 Meter,O2 Meter,Sample Mass,Ext Coeff,Start Test,Flame Verif
Chan Gain,,500,500,1,1,1,1,1,1,1,1,1.0,1.0
Offset,,0,0,0.136221,0,0,0,0,0,0,0,0.0,0.0
Gain,,1,1,25.011,13.9274,292.346,1,1,1,1.00091,1.04463,1.0,1.0
Units,sec,C,C,Pa,%,%,%,%,%,g,/m,,
Baseline,,30.153,31.7804,153.091,103.732,108.619,0.001052,0.0623634,20.9559,-442.871,-0.421729,,
108,26.75,38.4992,37.8633,130.02,104.357,120.139,0.00497649,0.585968,20.3532,247.554,-1.29054,0.0,0.0
216,53.75,50.8544,53.4902,134.269,103.163,116.357,0.00398131,0.385699,20.5788,243.791,-1.10281,0.0,0.0
324,80.75,52.4841,56.648,138.875,103.834,116.767,0.00300574,0.326305,20.6502,240.698,-1.07569,0.0,0.0
432,107.75,52.8107,57.3688,137.818,104.287,118.819,0.00249852,0.292737,20.6925,238.126,-1.19543,0.0,0.0
540,134.75,51.3751,56.4174,136.565,102.987,118.48,0.0023122,0.274755,20.712,235.754,-1.28417,0.0,0.0
648,161.75,51.298,55.7998,145.153,102.603,116.758,0.00250561,0.268164,20.7179,233.441,-1.18423,0.0,0.0
756,188.75,50.3627,54.9522,144.281,103.53,118.516,0.00213554,0.258061,20.7318,231.29,-1.23872,0.0,0.0
864,215.75,49.2332,54.1253,143.164,103.58,117.927,0.00207819,0.249519,20.7414,229.248,-1.18865,0.0,0.0
972,242.75,50.4019,54.1083,143.369,103.168,117.168,0.00171726,0.25536,20.7329,227.216,-1.16607,0.0,0.0
1080,269.75,49.6044,53.8188,140.048,103.302,117.204,0.00197647,0.249784,20.741,225.164,-1.15694,0.0,0.0
1188,296.75,49.6604,53.7094,139.489,103.812,118.114,0.00198075,0.240762,20.7527,223.212,-1.18276,0.0,0.0
1296,323.75,48.8199,53.1176,144.571,103.94,118.542,0.00199449,0.244449,20.7497,221.24,-1.20456,0.0,0.0
1404,350.75,49.1868,52.6659,145.183,103.939,118.007,0.00182361,0.243943,20.75,219.289,-1.16324,0.0,0.0
1512,377.75,49.4699,52.9823,140.919,103.914,119.711,0.00205595,0.239912,20.7535,217.377,-1.29679,0.0,0.0
1620,404.75,49.2106,53.0822,142.982,103.948,119.649,0.00183723,0.23944,20.7531,215.425,-1.28905,0.0,0.0
1728,431.75,50.1547,53.2067,140.523,103.87,118.498,0.00189237,0.241889,20.7531,213.543,-1.20734,0.0,0.0
1836,458.75,49.89,53.5033,142.349,103.738,118.739,0.00194192,0.239361,20.7538,211.622,-1.23754,0.0,0.0
1944,485.75,49.9486,53.2136,144.02,103.72,118.043,0.0020847,0.234827,20.7572,209.78,-1.18529,0.0,0.0
2052,512.75,50.0866,52.873,142.908,103.788,118.016,0.00183903,0.232575,20.7593,207.898,-1.17721,0.0,0.0
2160,539.75,49.5071,52.7625,142.359,103.903,119.015,0.00215258,0.23246,20.761,206.097,-1.2443,0.0,0.0
2268,566.75,49.7319,52.8245,146.147,103.939,119.301,0.00232037,0.23261,20.7616,204.295,-1.26315,0.0,0.0
2376,593.75,49.0406,52.3295,145.4,103.941,117.525,0.00222221,0.228899,20.7654,202.483,-1.12553,0.0,0.0
2484,620.75,49.1988,52.2393,145.323,103.868,117.427,0.00234602,0.225424,20.7698,200.692,-1.12436,0.0,0.0
2592,647.75,49.1744,52.3951,147.06,103.767,117.695,0.00219185,0.227816,20.7646,198.95,-1.15415,0.0,0.0
2700,674.75,49.0762,51.9338,146.829,103.725,117.65,0.00191534,0.229101,20.7635,197.169,-1.15435,0.0,0.0
2808,701.75,49.4371,52.7665,141.562,103.758,119.113,0.00189268,0.228133,20.7635,195.397,-1.26472,0.0,0.0
2916,728.75,49.506,52.7393,140.143,103.639,117.802,0.00190066,0.223037,20.7698,193.605,-1.17371,0.0,0.0
3024,755.75,49.7336,52.4394,144.307,103.177,115.09,0.00191265,0.222002,20.7733,191.894,-1.00129,0.0,0.0
3132,782.75,48.9418,51.9341,144.752,103.163,115.964,0.00225091,0.220124,20.7748,190.172,-1.07181,0.0,0.0
3240,809.75,48.7462,51.5039,143.431,103.431,117.231,0.00214459,0.218924,20.7746,188.421,-1.14762,0.0,0.0
3348,836.75,48.5421,51.4968,142.735,103.682,117.177,0.00224534,0.219788,20.7722,186.759,-1.12124,0.0,0.0
3456,863.75,48.3183,51.2262,142.212,103.691,116.553,0.00256289,0.218752,20.7779,184.998,-1.07145,0.0,0.0
3564,890.75,48.7166,51.2129,141.886,103.429,118.239,0.00235032,0.215055,20.7817,183.326,-1.22624,0.0,0.0
3672,917.75,48.3511,51.2205,143.57,102.947,115.58,0.00236753,0.213465,20.7821,181.685,-1.06068,0.0,0.0
3780,944.75,48.0508,50.8661,143.199,102.454,115.714,0.00200389,0.207213,20.7894,180.043,-1.11531,0.0,0.0
3888,971.75,48.1217,50.6767,142.304,102.494,114.893,0.00249903,0.206382,20.7916,178.432,-1.04643,0.0,0.0
3996,998.75,47.6824,50.5102,140.692,103.018,116.062,0.00191209,0.204344,20.793,176.87,-1.09244,0.0,0.0
4104,1025.75,47.0269,48.5346,143.364,103.728,118.239,0.00232239,0.204801,20.7955,175.279,-1.19984,0.0,0.0
4212,1052.75,47.6611,50.214,140.015,104.26,117.499,0.00240389,0.205942,20.7927,173.717,-1.09534,0.0,0.0
4320,1079.75,47.4404,49.8842,145.759,104.3,116.285,0.00230796,0.205022,20.7931,172.156,-0.996752,0.0,0.0
4428,1106.75,46.986,50.0386,144.217,103.931,115.687,0.00252216,0.204503,20.7972,170.595,-0.981997,0.0,0.0
4536,1133.75,47.3633,49.4404,146.77,103.536,116.365,0.00222939,0.20416,20.7921,169.083,-1.07047,0.0,0.0
4644,1160.75,47.3453,49.6295,144.226,103.639,115.705,0.00270531,0.202334,20.7976,167.552,-1.00919,0.0,0.0
4752,1187.75,47.1876,49.833,141.136,103.938,117.24,0.00206332,0.199635,20.8002,166.06,-1.1035,0.0,0.0
4860,1214.75,46.8161,49.5777,140.686,103.88,117.24,0.00232886,0.199704,20.8005,164.569,-1.1086,0.0,0.0
4968,1241.75,46.9832,49.49,140.954,103.584,116.214,0.00275104,0.201751,20.7987,163.098,-1.05426,0.0,0.0
5076,1268.75,46.7232,49.3873,148.147,103.06,116.696,0.00256964,0.201258,20.799,161.616,-1.13865,0.0,0.0
5184,1295.75,47.5397,49.763,144.366,103.202,116.178,0.00254468,0.203252,20.7983,160.165,-1.08528,0.0,0.0
5292,1322.75,47.3303,49.8823,147.548,103.381,115.491,0.00259094,0.201923,20.7975,158.674,-1.01502,0.0,0.0
5400,1349.75,46.9769,49.8772,142.247,103.543,117.177,0.00251842,0.202186,20.7966,157.242,-1.13354,0.0,0.0
5508,1376.75,46.9787,49.6882,139.613,103.663,117.222,0.00223115,0.202666,20.7965,155.821,-1.12642,0.0,0.0
5616,1403.75,46.99,49.6611,142.672,103.678,115.5,0.00243844,0.203582,20.7954,154.4,-0.989469,0.0,0.0
5724,1430.75,47.4195,49.8324,142.089,103.546,116.526,0.00236286,0.208181,20.7878,152.909,-1.0822,0.0,0.0
5832,1457.75,47.6061,50.2183,144.616,103.334,114.938,0.00196942,0.209482,20.7878,151.467,-0.975209,0.0,0.0
5940,1484.75,48.0239,50.6975,141.577,103.052,115.786,0.00244757,0.21205,20.7833,149.956,-1.06759,0.0,0.0
6048,1511.75,48.3861,51.2171,144.527,102.692,115.634,0.0020639,0.214818,20.7836,148.485,-1.08769,0.0,0.0
6156,1538.75,48.3044,50.9552,144.653,102.567,115.411,0.00231306,0.21608,20.7773,146.983,-1.08115,0.0,0.0
6264,1565.75,48.4176,51.3859,142.448,102.464,114.965,0.00240911,0.219491,20.7771,145.452,-1.05482,0.0,0.0
6372,1592.75,48.4204,51.7478,146.151,102.408,115.696,0.00237193,0.218421,20.7778,143.96,-1.118,0.0,0.0
6480,1619.75,48.749,51.5188,142.773,102.362,115.652,0.00246873,0.219274,20.7779,142.449,-1.11854,0.0,0.0
6588,1646.75,49.0956,51.7125,142.104,102.346,115.339,0.00234506,0.222005,20.7708,140.998,-1.09518,0.0,0.0
6696,1673.75,49.2769,52.3603,139.943,102.361,115.25,0.00234187,0.224231,20.7717,139.456,-1.08683,0.0,0.0
6804,1700.75,50.1846,51.67,143.476,102.385,116.553,0.00193483,0.22893,20.7652,137.905,-1.18764,0.0,0.0
6912,1727.75,49.9614,53.1836,140.792,102.421,116.419,0.00229212,0.237482,20.7573,136.273,-1.17388,0.0,0.0
7020,1754.75,50.1608,53.328,140.772,102.383,117.284,0.00233609,0.243594,20.7479,134.592,-1.24517,0.0,0.0
7128,1781.75,51.0774,54.2413,147.527,102.352,117.98,0.0020804,0.246791,20.7473,132.87,-1.30216,0.0,0.0
7236,1808.75,51.9107,54.7175,139.034,102.444,117.168,0.0021571,0.254016,20.7399,131.069,-1.23059,0.0,0.0
7344,1835.75,52.5236,55.6834,136.697,102.855,117.882,0.00183746,0.26005,20.7313,129.237,-1.24955,0.0,0.0
7452,1862.75,53.5738,56.4902,138.647,103.43,118.435,0.0020437,0.272713,20.717,127.295,-1.2414,0.0,0.0
7560,1889.75,53.8648,57.3226,137.217,103.876,121.54,0.00286493,0.283037,20.7032,125.243,-1.4391,0.0,0.0
7668,1916.75,54.9369,58.5694,141.009,104.087,121.049,0.00225894,0.29117,20.6907,123.182,-1.38345,0.0,0.0
7776,1943.75,56.0118,59.8777,140.779,104.175,120.764,0.00254553,0.312278,20.6633,121.03,-1.35404,0.0,0.0
7884,1970.75,56.5708,62.0221,136.712,104.261,118.525,0.0023463,0.328859,20.6367,118.728,-1.17497,0.0,0.0
7992,1997.75,58.3991,62.1347,137.854,104.332,118.516,0.00277482,0.314853,20.6549,116.425,-1.16801,0.0,0.0
8100,2024.75,58.0676,62.1478,139.641,104.322,118.337,0.00275278,0.293639,20.6842,114.294,-1.15506,0.0,0.0
8208,2051.75,56.6081,60.9966,142.385,104.292,117.704,0.00307298,0.272627,20.7075,112.332,-1.10853,0.0,0.0
8316,2078.75,55.2983,59.1525,141.932,104.229,118.346,0.00349563,0.265661,20.7169,110.58,-1.16393,0.0,0.0
8424,2105.75,54.7141,58.543,140.544,104.123,117.481,0.00338563,0.258437,20.7216,108.889,-1.10603,0.0,0.0
8532,2132.75,54.1434,57.6377,141.082,103.98,117.204,0.00302633,0.254951,20.7262,107.237,-1.097,0.0,0.0
8640,2159.75,53.7501,56.9962,139.041,103.727,115.607,0.00322056,0.25001,20.7292,105.676,-0.993677,0.0,0.0
8748,2186.75,52.5513,56.059,141.692,103.56,116.731,0.00338148,0.231582,20.7502,104.274,-1.09708,0.0,0.0
8856,2213.75,51.5703,54.6848,144.065,103.501,115.839,0.00385379,0.214453,20.7717,103.053,-1.03201,0.0,0.0
8964,2240.75,50.2209,52.8435,142.707,103.468,115.304,0.00371022,0.201708,20.7862,101.992,-0.992459,0.0,0.0
9072,2267.75,49.5009,51.9754,144.669,103.602,116.936,0.004633,0.18941,20.7971,101.062,-1.10949,0.0,0.0
9180,2294.75,47.8137,50.4153,143.198,104.32,115.741,0.00451433,0.172923,20.8192,100.381,-0.952011,0.0,0.0
9288,2321.75,46.2642,49.0047,144.842,102.883,115.438,0.00533017,0.157528,20.8374,99.7203,-1.05507,0.0,0.0
9396,2348.75,44.9577,47.8195,144.08,103.179,113.038,0.00592331,0.154105,20.8429,99.1598,-0.836207,0.0,0.0
9504,2375.75,44.5103,46.4422,149.306,103.122,113.796,0.0063609,0.150174,20.8487,98.6494,-0.902536,0.0,0.0
9612,2402.75,43.3705,45.6959,148.35,103.826,114.412,0.00675381,0.143943,20.8514,98.1389,-0.889604,0.0,0.0
9720,2429.75,42.8284,44.8059,148.305,102.901,112.993,0.00661386,0.140425,20.8577,97.6885,-0.85731,0.0,0.0
9828,2456.75,42.178,44.1655,147.08,103.658,114.474,0.0073755,0.141097,20.8575,97.2681,-0.90951,0.0,0.0
9936,2483.75,41.3399,43.1988,150.016,103.79,114.412,0.00725779,0.142038,20.8532,96.8477,-0.892831,0.0,0.0
10044,2510.75,41.2819,42.7649,145.934,104.385,114.858,0.00769603,0.136849,20.8619,96.4874,-0.876067,0.0,0.0
10152,2537.75,40.4992,42.7917,144.819,102.656,112.021,0.0077475,0.137987,20.8612,96.1071,-0.79997,0.0,0.0
10260,2564.75,40.5109,42.1569,146.147,103.667,112.966,0.00747485,0.133563,20.866,95.6967,-0.78715,0.0,0.0
10368,2591.75,39.9467,42.7507,147.863,104.102,112.868,,,,95.3264,-0.74087,0.0,0.0
10389,2597,40.043,41.9546,150.307,103.953,113.189,,,,95.2163,-0.78005,0.0,0.0