File: 01_Data/Wood_Stud/Cone/Wood_Stud_Cone_HF75Scalar_221004_R1.csv
LABORATORY,FSRI
TEST IDENT,Wood_Stud_HF75_1
OPERATOR,Dow
MATERIAL,Wood stud
ORIENTATION,Horizontal
HEAT FLUX,75
SURF AREA,0.01
C FACTOR,0.0389731
SPEC HOLDER DIFF,-566
SPECIMEN MASS,166.93
SCAN TIME,0.25
O2 DELAY TIME,11
CO DELAY TIME,11
CO2 DELAY TIME,8
FLOW FACTOR,1
SCAN COUNT,8148
TIME TO IGN,7.25
END OF TEST SCAN,7668
END OF TEST TIME,1917
TEST STATUS,1
PRE TEST CMT,Dimensions: 101.16 x 101.81 x 38.12 mm; sample composed of 2 with seam on center