File: 01_Data/Wood_Stud/Cone/Wood_Stud_Cone_HF25Scan_221004_R3.csv
Names,Time,Stack TC,Smoke TC,Exh Press,Smoke Comp,Smoke Meas,CO Meter,CO2 Meter,O2 Meter,Sample Mass,Ext Coeff,Start Test,Flame Verif
Chan Gain,,500,500,1,1,1,1,1,1,1,1,1.0,1.0
Offset,,0,0,0.136221,0,0,0,0,0,0,0,0.0,0.0
Gain,,1,1,25.011,13.9274,292.346,1,1,1,1.00091,1.04463,1.0,1.0
Units,sec,C,C,Pa,%,%,%,%,%,g,/m,,
Baseline,,17.6999,18.3356,159.284,103.322,103.3125,0.000879196,0.0688045,20.9449,-438.423,0.000960215,,
147,36.5,17.855,18.1515,159.99,102.74,102.697,0.00118924,0.0731936,20.9418,239.817,0.00383777,0.0,0.0
294,73.25,18.3045,18.7893,159.993,103.736,102.439,0.00179232,0.0686618,20.9496,239.267,0.115307,0.0,0.0
441,110,28.321,26.5433,138.587,104.214,115.866,0.00434613,0.596952,20.3223,236.805,-0.971195,0.0,0.0
588,146.75,35.8814,37.6758,144.914,103.657,112.03,0.00264284,0.270466,20.715,233.031,-0.711784,0.0,0.0
735,183.5,33.8556,37.0209,150.565,103.529,110.789,0.00231407,0.226203,20.7671,230.389,-0.621101,0.0,0.0
882,220.25,33.0842,36.0741,152.068,103.916,110.896,0.00283042,0.214956,20.7823,227.967,-0.595743,0.0,0.0
1029,257,31.6952,34.4988,147.102,103.218,111.842,0.00238585,0.207536,20.7898,225.755,-0.735305,0.0,0.0
1176,293.75,31.2496,33.8327,153.108,103.276,111.048,0.00278518,0.204852,20.7906,223.603,-0.664924,0.0,0.0
1323,330.5,31.1377,33.6081,150.497,103.45,111.441,0.00358206,0.199938,20.7968,221.521,-0.681773,0.0,0.0
1470,367.25,30.8979,33.0201,152.422,102.805,110.45,0.00385655,0.192843,20.8037,219.549,-0.657346,0.0,0.0
1617,404,30.5957,32.477,152.924,102.271,109.986,0.00397065,0.190919,20.8083,217.617,-0.666483,0.0,0.0
1764,440.75,30.6704,32.6971,153,102.111,110.076,0.00389075,0.193331,20.8044,215.715,-0.688205,0.0,0.0
1911,477.5,30.747,32.7316,147.438,102.23,109.094,0.00375342,0.190339,20.807,213.804,-0.595468,0.0,0.0
2058,514.25,31.0131,32.7722,156.132,102.542,109.692,0.00450872,0.185308,20.8136,211.962,-0.617694,0.0,0.0
2205,551,30.0619,31.6529,148.553,102.85,110.013,0.00528943,0.181728,20.8184,210.17,-0.61699,0.0,0.0
2352,587.75,30.303,31.67,151.116,103.243,111.557,0.00444652,0.18573,20.8136,208.359,-0.709658,0.0,0.0
2499,624.5,30.0753,32.1286,151.507,103.509,111.378,0.00375066,0.189606,20.8114,206.487,-0.671442,0.0,0.0
2646,661.25,30.8931,32.6164,153.415,103.803,110.094,0.00378717,0.186969,20.8114,204.655,-0.539129,0.0,0.0
2793,698,30.8098,32.6637,150.927,103.96,112.672,0.00408204,0.183734,20.813,202.844,-0.737425,0.0,0.0
2940,734.75,30.3498,32.0439,152.026,103.998,112.511,0.00441048,0.179995,20.8187,201.082,-0.721022,0.0,0.0
3087,771.5,29.7618,31.4285,151.935,103.956,110.201,0.00534718,0.171692,20.8278,199.371,-0.534575,0.0,0.0
3234,808.25,29.2228,30.8662,150.219,103.989,110.682,0.00607209,0.169753,20.8317,197.669,-0.571627,0.0,0.0
3381,845,29.8983,31.2464,155.817,104.098,110.183,0.00513131,0.172007,20.8288,195.998,-0.520512,0.0,0.0
3528,881.75,29.5804,30.8914,150.431,104.148,110.95,0.00630451,0.170688,20.829,194.336,-0.579725,0.0,0.0
3675,918.5,29.0695,30.6171,153.893,104.183,110.557,0.00742308,0.161205,20.8414,192.685,-0.54418,0.0,0.0
3822,955.25,28.571,29.6877,149.734,104.177,110.201,0.00675085,0.161726,20.8407,191.063,-0.515077,0.0,0.0
3969,992,28.2966,29.8123,155.162,104.149,109.478,0.00693468,0.159295,20.8431,189.462,-0.457293,0.0,0.0
4116,1028.75,28.3928,30.0046,154.088,104.095,110.575,0.00734934,0.160246,20.8432,187.82,-0.553438,0.0,0.0
4263,1065.5,28.3305,29.7498,149.962,104.114,111.057,0.00728828,0.158843,20.8442,186.189,-0.591592,0.0,0.0
4410,1102.25,28.167,29.7355,153.471,104.145,110.406,0.00720684,0.158083,20.8465,184.567,-0.534965,0.0,0.0
4557,1139,27.6431,29.2169,155.861,104.149,109.969,0.00860631,0.155129,20.851,182.916,-0.498274,0.0,0.0
4704,1175.75,28.1611,28.768,154.837,104.144,110.352,0.00850412,0.149717,20.8576,181.274,-0.530634,0.0,0.0
4851,1212.5,27.6143,29.0993,157.823,104.175,110.584,0.0094975,0.146758,20.8624,179.663,-0.547146,0.0,0.0
4998,1249.25,26.9227,28.2096,156.787,104.149,109.683,0.0102156,0.143181,20.8627,178.081,-0.474416,0.0,0.0
5145,1286,26.504,28.1653,152.508,103.99,108.755,0.0104912,0.138577,20.8685,176.47,-0.410566,0.0,0.0
5292,1322.75,26.2935,28.023,153.676,103.734,108.818,0.0089223,0.14343,20.8648,174.928,-0.4384,0.0,0.0
5439,1359.5,27.4618,28.5752,155.672,103.792,108.969,0.00840094,0.149625,20.8568,173.347,-0.446059,0.0,0.0
5586,1396.25,27.3711,28.1712,152.803,104.116,109.728,0.00942435,0.146708,20.8596,171.756,-0.481059,0.0,0.0
5733,1433,27.8141,28.7298,153.243,104.158,109.166,0.00937742,0.152521,20.8548,170.134,-0.43026,0.0,0.0
5880,1469.75,28.393,29.7174,153.492,104.087,108.443,0.00932363,0.152359,20.8551,168.513,-0.375682,0.0,0.0
6027,1506.5,28.7142,30.0233,156.302,104.102,110.459,0.00752353,0.156406,20.8513,166.911,-0.543185,0.0,0.0
6174,1543.25,27.689,30.024,152.249,104.132,110.156,0.00825732,0.152813,20.8532,165.34,-0.515331,0.0,0.0
6321,1580,27.7617,29.5235,151.419,104.155,109.647,0.00816961,0.151797,20.8566,163.828,-0.470948,0.0,0.0
6468,1616.75,27.4945,29.6073,156.174,104.131,109.808,0.00916097,0.147136,20.8577,162.337,-0.486453,0.0,0.0
6615,1653.5,27.4242,28.8991,153.465,104.112,110.352,0.00858291,0.147022,20.8612,160.856,-0.533439,0.0,0.0
6762,1690.25,27.6702,29.5555,152.726,103.609,110.147,0.00813576,0.148582,20.8604,159.384,-0.560709,0.0,0.0
6909,1727,28.3838,29.9265,152.056,102.445,108.987,0.00791979,0.14551,20.8641,158.023,-0.567252,0.0,0.0
7056,1763.75,28.3548,30.1636,150.054,102.944,110.433,0.00849816,0.143987,20.8669,156.582,-0.643447,0.0,0.0
7203,1800.5,28.8006,30.0043,153.395,104.141,111.271,0.00805827,0.14635,20.8646,155.101,-0.606811,0.0,0.0
7350,1837.25,28.5029,30.0934,153.024,103.106,108.996,0.00846684,0.144297,20.8647,153.699,-0.509112,0.0,0.0
7497,1874,28.0138,29.4606,154.328,103.824,110.254,0.00791932,0.14342,20.8661,152.318,-0.55061,0.0,0.0
7644,1910.75,28.3869,29.7159,153.289,103.429,110.343,0.00758347,0.145558,20.863,150.907,-0.592976,0.0,0.0
7791,1947.5,28.2531,29.7989,155.955,103.724,111.021,0.00786119,0.145299,20.8634,149.505,-0.623015,0.0,0.0
7938,1984.25,28.4588,29.6253,149.209,103.496,111.084,0.00797306,0.148032,20.8594,148.164,-0.648354,0.0,0.0
8085,2021,28.7191,30.0987,156.467,103.429,110.343,0.0069284,0.150193,20.859,146.753,-0.592938,0.0,0.0
8232,2057.75,29.3244,30.3426,156.179,104.274,110.593,0.00659583,0.154018,20.8543,145.312,-0.539141,0.0,0.0
8379,2094.5,28.8517,31.1075,153.356,103.032,109.05,0.00614275,0.159645,20.8497,143.88,-0.520148,0.0,0.0
8526,2131.25,29.3086,31.1637,149.84,102.399,108.987,0.00553383,0.164775,20.8405,142.339,-0.571397,0.0,0.0
8673,2168,30.0589,31.5812,151.51,103.141,109.201,0.00543764,0.166717,20.8395,140.808,-0.523213,0.0,0.0
8820,2204.75,30.3938,31.8585,153.409,103.601,108.996,0.00490633,0.169103,20.8333,139.286,-0.465173,0.0,0.0
8967,2241.5,30.0194,32.789,156.042,103.682,109.79,0.00474922,0.173061,20.8288,137.705,-0.524546,0.0,0.0
9114,2278.25,31.2774,32.3448,151.627,103.499,112.333,0.00450299,0.178535,20.8239,136.083,-0.750513,0.0,0.0
9261,2315,31.7634,33.3942,152.5,103.67,110.334,0.00396648,0.184852,20.8167,134.432,-0.570871,0.0,0.0
9408,2351.75,32.3783,33.6604,153.451,103.697,109.157,0.00397961,0.19004,20.8139,132.72,-0.47021,0.0,0.0
9555,2388.5,32.5949,34.3053,159.77,103.054,110.611,0.0041355,0.196216,20.8056,130.919,-0.648486,0.0,0.0
9702,2425.25,33.0408,35.7411,152.031,102.425,110.415,0.00376603,0.202016,20.7987,129.057,-0.688317,0.0,0.0
9849,2462,33.8406,35.863,151.59,102.889,110.388,0.00348123,0.205901,20.7936,127.165,-0.644666,0.0,0.0
9996,2498.75,34.4187,35.9825,152.199,103.63,111.833,0.0037042,0.209127,20.7904,125.223,-0.698083,0.0,0.0
10143,2535.5,34.6944,36.7632,151.084,104.308,111.708,0.00360414,0.212213,20.7859,123.262,-0.628056,0.0,0.0
10290,2572.25,35.3431,37.5183,153.654,104.144,112.806,0.0036542,0.218859,20.7798,121.23,-0.732132,0.0,0.0
10437,2609,36.0455,38.3312,147.942,103.565,112.27,0.0037323,0.231915,20.7629,119.128,-0.739623,0.0,0.0
10584,2645.75,36.8663,39.0534,150.973,103.991,113.154,0.00326973,0.234922,20.7571,116.896,-0.773751,0.0,0.0
10731,2682.5,37.3536,39.6528,148.486,103.733,112.003,0.00300851,0.237987,20.7533,114.714,-0.702909,0.0,0.0
10878,2719.25,37.226,39.8402,148.01,103.153,112.199,0.00283765,0.231796,20.762,112.532,-0.77031,0.0,0.0
11025,2756,36.8952,40.078,150.097,103.5625,112.493,0.00333215,0.227382,20.7672,110.5,-0.757998,0.0,0.0
11172,2792.75,36.861,38.9153,147.767,103.65,111.798,0.0033614,0.216595,20.7767,108.548,-0.693355,0.0,0.0
11319,2829.5,35.8052,38.2825,147.94,102.991,110.575,0.00399225,0.209328,20.7851,106.757,-0.651124,0.0,0.0
11466,2866.25,35.7489,37.0645,153.75,102.389,109.755,0.003675,0.202341,20.792,105.035,-0.636555,0.0,0.0
11613,2903,34.3234,36.8234,150.988,103.023,110.522,0.00456264,0.198081,20.7948,103.454,-0.643851,0.0,0.0
11760,2939.75,34.1381,35.867,148.218,103.788,110.691,0.00511061,0.194257,20.8007,101.912,-0.59006,0.0,0.0
11907,2976.5,33.8477,35.4813,154.293,104.386,111.093,0.00473575,0.189023,20.8058,100.511,-0.570626,0.0,0.0
12054,3013.25,32.8465,34.6673,149.368,103.948,112.547,0.00617044,0.185135,20.8072,99.1098,-0.728274,0.0,0.0
12201,3050,32.5476,34.4569,150.821,103.816,110.986,0.00538527,0.184786,20.8092,97.7486,-0.611924,0.0,0.0
12348,3086.75,32.48,33.8308,155.821,103.82,110.165,0.00527845,0.183103,20.8103,96.4273,-0.543529,0.0,0.0
12495,3123.5,32.265,33.5322,155.995,103.236,109.647,0.00587946,0.179761,20.815,95.1562,-0.552114,0.0,0.0
12642,3160.25,31.2176,33.6271,152.744,103.574,109.799,0.00666031,0.174018,20.8191,93.9551,-0.534874,0.0,0.0
12789,3197,31.6387,32.8962,152.726,103.603,109.38,0.00602488,0.171015,20.8227,92.8241,-0.497218,0.0,0.0
12936,3233.75,30.8421,31.988,151.289,102.757,109.264,0.00658903,0.161793,20.8316,91.7831,-0.562651,0.0,0.0
13083,3270.5,29.86,31.073,150.975,102.414,108.033,0.00662894,0.154784,20.8402,90.8623,-0.489412,0.0,0.0
13230,3307.25,29.2912,30.0945,152.538,103.314,108.666,0.00731624,0.14345,20.8544,90.0916,-0.46279,0.0,0.0
13377,3344,28.0264,29.0144,155.809,104.258,108.363,0.00911445,0.132041,20.8694,89.451,-0.353865,0.0,0.0
13524,3380.75,27.0421,28.1425,156.039,104.235,108.149,0.00921314,0.125159,20.8773,88.8505,-0.337757,0.0,0.0
13671,3417.5,25.5489,26.7605,154.346,103.643,107.827,0.00894035,0.123412,20.8789,88.35,-0.362664,0.0,0.0
13818,3454.25,25.0952,26.2334,156.075,103.92,107.961,0.00877136,0.124392,20.8752,87.8796,-0.349599,0.0,0.0
13965,3491,25.1988,26.2253,153.467,104.019,107.408,0.00871756,0.124265,20.8786,87.4392,-0.293838,0.0,0.0
14016,3503.75,25.0595,25.5231,156.116,103.923,107.524,,,,87.2891,-0.312157,0.0,0.0