File: 01_Data/Wood_Stud/Cone/Wood_Stud_Cone_HF75Scan_221004_R1.csv
Names,Time,Stack TC,Smoke TC,Exh Press,Smoke Comp,Smoke Meas,CO Meter,CO2 Meter,O2 Meter,Sample Mass,Ext Coeff,Start Test,Flame Verif
Chan Gain,,500,500,1,1,1,1,1,1,1,1,1.0,1.0
Offset,,0,0,0.136221,0,0,0,0,0,0,0,0.0,0.0
Gain,,1,1,25.011,13.9274,292.346,1,1,1,1.00091,1.04463,1.0,1.0
Units,sec,C,C,Pa,%,%,%,%,%,g,/m,,
Baseline,,40.9191,43.1353,148.263,104.672,111.487,0.00069197,0.0645053,20.9476,-444.195,-0.577827,,
85,21,58.2668,58.6112,124.371,104.067,122.254,0.00736616,0.722557,20.1501,222.301,-1.47586,0.0,0.0
170,42.25,68.4754,71.955,125.654,104.281,120.951,0.00546266,0.534943,20.3913,218.508,-1.3589,0.0,0.0
255,63.5,70.092,76.3159,136.22,104.309,119.256,0.00443216,0.424217,20.5237,215.435,-1.22714,0.0,0.0
340,84.75,69.9932,76.6483,135.51,104.189,119.006,0.003365,0.389309,20.567,212.773,-1.21846,0.0,0.0
425,106,69.0728,75.9292,136.393,104.029,120.086,0.00301028,0.362745,20.5976,210.291,-1.31531,0.0,0.0
510,127.25,68.6773,75.1951,136.145,103.878,121.808,0.00268622,0.355425,20.6038,207.948,-1.45907,0.0,0.0
595,148.5,68.2171,74.9567,134.369,103.767,124.85,0.00248495,0.346805,20.6181,205.636,-1.69492,0.0,0.0
680,169.75,67.9184,74.2212,132.924,103.508,122.905,0.00255155,0.333579,20.634,203.464,-1.57397,0.0,0.0
765,191,66.8915,73.4695,136.253,103.431,122.191,0.00219292,0.314431,20.6582,201.392,-1.52741,0.0,0.0
850,212.25,65.8242,72.2434,132.649,103.444,123.592,0.00224287,0.300202,20.6756,199.441,-1.63069,0.0,0.0
935,233.5,65.6864,71.3504,135.524,103.511,121.362,0.0021862,0.295065,20.6808,197.569,-1.45787,0.0,0.0
1020,254.75,65.003,70.7575,139.014,103.579,121.95,0.0019948,0.288739,20.6885,195.747,-1.4962,0.0,0.0
1105,276,65.0298,70.0697,139.341,103.671,121.567,0.00200273,0.278396,20.7002,193.996,-1.45921,0.0,0.0
1190,297.25,64.1414,69.2205,133.87,103.706,123.521,0.00200273,0.272783,20.7053,192.314,-1.6022,0.0,0.0
1275,318.5,64.1336,68.7286,136.462,103.747,122.86,0.00224558,0.271954,20.705,190.643,-1.54945,0.0,0.0
1360,339.75,63.9583,68.4156,131.983,103.79,123.726,0.0016521,0.271353,20.7093,188.901,-1.61001,0.0,0.0
1445,361,63.5558,67.9828,137.474,103.719,121.04,0.00201342,0.263004,20.7175,187.29,-1.4152,0.0,0.0
1530,382.25,62.9322,67.4231,135.304,103.691,124.404,0.0016898,0.253921,20.7306,185.718,-1.6688,0.0,0.0
1615,403.5,62.8685,66.9881,133.214,103.595,122.744,0.00202192,0.251022,20.7319,184.227,-1.55424,0.0,0.0
1700,424.75,62.6246,66.6227,133.284,103.578,124.904,0.00192011,0.253657,20.7287,182.686,-1.71556,0.0,0.0
1785,446,62.7226,67.0523,134.976,103.557,122.557,0.00163336,0.260547,20.7232,181.064,-1.54363,0.0,0.0
1870,467.25,63.1925,67.5275,134.631,103.543,120.461,0.00192431,0.258602,20.7256,179.503,-1.38679,0.0,0.0
1955,488.5,63.0712,67.1672,135.778,103.489,122.744,0.00166246,0.249265,20.7347,177.991,-1.56368,0.0,0.0
2040,509.75,62.1462,66.7527,138.699,103.445,123.851,0.00209452,0.24513,20.7419,176.52,-1.64978,0.0,0.0
2125,531,62.1799,66.5206,133.905,103.423,122.584,0.00153115,0.245167,20.7415,175.019,-1.55752,0.0,0.0
2210,552.25,62.5377,66.3906,137.496,103.532,121.79,0.00139794,0.247997,20.7382,173.487,-1.48826,0.0,0.0
2295,573.5,62.2134,66.0946,135.886,103.605,122.281,0.00187449,0.254358,20.7288,171.936,-1.51868,0.0,0.0
2380,594.75,63.0313,66.8559,135.536,103.792,124.743,0.00174248,0.255665,20.7274,170.364,-1.68488,0.0,0.0
2465,616,63.2372,66.7737,139.425,103.886,121.049,0.00161312,0.251355,20.7332,168.793,-1.40109,0.0,0.0
2550,637.25,63.0126,66.451,134.291,104.092,124.359,0.00190087,0.24793,20.7386,167.242,-1.63016,0.0,0.0
2635,658.5,63.0804,67.0297,132.548,104.192,122.655,0.00161573,0.247514,20.7386,165.74,-1.49491,0.0,0.0
2720,679.75,62.6038,66.7253,138.915,104.251,123.833,0.00142116,0.246979,20.7413,164.189,-1.57735,0.0,0.0
2805,701,62.7894,66.686,137.14,104.271,122.325,0.00150556,0.245062,20.7404,162.677,-1.46326,0.0,0.0
2890,722.25,62.6012,66.6289,136.607,104.282,123.021,0.00184759,0.245455,20.7426,161.196,-1.51435,0.0,0.0
2975,743.5,62.6366,66.4512,140.403,104.312,125.412,0.00145909,0.244081,20.7435,159.695,-1.68809,0.0,0.0
3060,764.75,62.2628,66.254,137.648,104.283,120.728,0.00150706,0.238633,20.7463,158.233,-1.34187,0.0,0.0
3145,786,61.8838,65.9018,137.732,104.263,121.585,0.00132433,0.23598,20.7515,156.792,-1.40833,0.0,0.0
3230,807.25,61.1336,65.3817,134.521,104.271,122.477,0.00175657,0.234669,20.7522,155.411,-1.47469,0.0,0.0
3315,828.5,61.7502,65.372,135.631,104.262,122.878,0.00148117,0.232865,20.7533,154,-1.50543,0.0,0.0
3400,849.75,61.6074,65.4247,140.46,104.223,122.513,0.00156474,0.233047,20.7539,152.598,-1.48155,0.0,0.0
3485,871,61.684,65.5556,137.452,104.144,123.092,0.00150033,0.235087,20.7524,151.227,-1.53177,0.0,0.0
3570,892.25,61.6227,65.0083,135.994,104.126,122.753,0.00180983,0.236328,20.7508,149.816,-1.50811,0.0,0.0
3655,913.5,61.4375,65.3416,135.816,104.141,123.833,0.00156655,0.235532,20.7521,148.434,-1.58699,0.0,0.0
3740,934.75,62.2454,65.3204,143.896,104.169,122.45,0.00165903,0.232216,20.7559,147.053,-1.48166,0.0,0.0
3825,956,61.3323,65.1206,138.866,104.126,123.155,0.00168162,0.228595,20.7598,145.742,-1.53803,0.0,0.0
3910,977.25,61.2386,64.8376,136.147,104.039,121.826,0.0018432,0.227393,20.7644,144.441,-1.44618,0.0,0.0
3995,998.5,61.1586,64.9824,134.834,103.864,121.469,0.00186297,0.228022,20.7611,143.12,-1.43477,0.0,0.0
4080,1019.75,61.4084,64.8853,137.681,103.807,120.853,0.00164788,0.22825,20.7625,141.848,-1.39324,0.0,0.0
4165,1041,61.3332,65.0321,137,103.825,121.112,0.00186487,0.234481,20.7553,140.497,-1.41122,0.0,0.0
4250,1062.25,61.8263,65.3365,135.402,103.866,121.95,0.00179764,0.238316,20.7512,139.176,-1.47089,0.0,0.0
4335,1083.5,62.1538,65.627,140.992,103.927,122.539,0.00181397,0.240369,20.7478,137.795,-1.50963,0.0,0.0
4420,1104.75,62.277,65.9086,138.481,104.007,122.031,0.00177234,0.244739,20.7475,136.434,-1.46444,0.0,0.0
4505,1126,62.4724,66.1302,136.948,104.108,123.119,0.00183314,0.245778,20.742,135.042,-1.53691,0.0,0.0
4590,1147.25,60.9906,66.4536,137.216,104.268,123.146,0.00149446,0.243497,20.7455,133.661,-1.52481,0.0,0.0
4675,1168.5,62.599,65.9571,139.986,104.342,122.084,0.00184664,0.243943,20.7446,132.29,-1.43904,0.0,0.0
4760,1189.75,62.8053,66.4804,137.277,104.35,122.263,0.00205555,0.244856,20.7441,130.979,-1.45168,0.0,0.0
4845,1211,63.1151,66.8457,134.608,104.339,122.593,0.00194549,0.2478,20.7397,129.607,-1.47732,0.0,0.0
4930,1232.25,63.0457,66.9964,135.353,104.349,122.281,0.00210589,0.252617,20.7342,128.226,-1.45309,0.0,0.0
5015,1253.5,63.0726,67.3844,138.79,104.354,123.253,0.00173402,0.260441,20.7267,126.875,-1.52523,0.0,0.0
5100,1274.75,63.8198,68.0823,134.743,104.387,123.262,0.00201476,0.265912,20.7213,125.364,-1.52302,0.0,0.0
5185,1296,64.5569,68.8773,137.637,104.395,123.753,0.00205743,0.27172,20.7147,123.912,-1.55871,0.0,0.0
5270,1317.25,65.141,69.0984,133.399,104.418,124.805,0.00176963,0.277327,20.7061,122.371,-1.63432,0.0,0.0
5355,1338.5,65.0876,69.6627,131.518,104.49,125.706,0.00230478,0.275263,20.7077,120.94,-1.69394,0.0,0.0
5440,1359.75,65.8329,69.8014,137.254,104.522,123.931,0.00166379,0.279763,20.7028,119.438,-1.56077,0.0,0.0
5525,1381,65.6926,70.0983,138.166,104.569,124.11,0.00220703,0.284202,20.6968,117.897,-1.56982,0.0,0.0
5610,1402.25,66.5939,70.6674,130.497,104.606,126.688,0.00195233,0.290052,20.6886,116.305,-1.75507,0.0,0.0
5695,1423.5,67.1584,71.0965,134.285,104.641,122.245,0.00207502,0.301666,20.675,114.724,-1.42481,0.0,0.0
5780,1444.75,67.7124,72.2984,139.38,104.651,123.824,0.00249327,0.318398,20.6572,113.002,-1.54153,0.0,0.0
5865,1466,68.4042,73.0689,131.326,104.696,123.913,0.00233374,0.325167,20.6476,111.191,-1.54418,0.0,0.0
5950,1487.25,69.4878,74.2018,135.32,104.691,122.994,0.00278694,0.334025,20.6364,109.299,-1.47642,0.0,0.0
6035,1508.5,70.0845,75.1252,133.089,104.709,122.307,0.00240213,0.349883,20.6168,107.367,-1.42353,0.0,0.0
6120,1529.75,71.7448,76.5929,133.328,104.703,123.217,0.0028225,0.364298,20.5996,105.335,-1.49198,0.0,0.0
6205,1551,72.3426,78.0396,132.087,104.712,122.852,0.00295413,0.375293,20.5862,103.173,-1.46396,0.0,0.0
6290,1572.25,73.7426,78.8017,130.271,104.697,126.277,0.00304144,0.372267,20.5875,101.072,-1.71734,0.0,0.0
6375,1593.5,73.8542,78.9955,129.866,104.656,121.487,0.00329686,0.369369,20.5847,99.0197,-1.36648,0.0,0.0
6460,1614.75,73.3975,78.0738,133.357,104.58,120.585,0.00291326,0.337019,20.6211,97.148,-1.30489,0.0,0.0
6545,1636,71.4743,76.6714,133.295,104.5,118.917,0.00292497,0.297342,20.6661,95.5966,-1.1843,0.0,0.0
6630,1657.25,69.0927,74.3451,137.327,104.376,119.265,0.00355571,0.263952,20.7009,94.3254,-1.22196,0.0,0.0
6715,1678.5,66.628,71.8235,135.544,104.169,119.158,0.00442369,0.229656,20.7413,93.3746,-1.23193,0.0,0.0
6800,1699.75,64.7248,69.07,136.233,103.963,120.157,0.00490356,0.211944,20.7564,92.6239,-1.32656,0.0,0.0
6885,1721,62.3938,66.9501,142.759,103.702,120.014,0.00580828,0.199029,20.7689,91.9833,-1.3387,0.0,0.0
6970,1742.25,61.2495,65.0292,140.373,103.425,118.962,0.00715197,0.185947,20.7901,91.3928,-1.28245,0.0,0.0
7055,1763.5,59.7934,63.4752,134.164,103.205,118.319,0.00708026,0.179097,20.7984,90.9124,-1.25236,0.0,0.0
7140,1784.75,59.0285,61.7018,139.851,103.131,120.603,0.00778258,0.173645,20.8022,90.4319,-1.43413,0.0,0.0
7225,1806,58.0621,60.8028,143.015,103.035,117.98,0.00763554,0.166215,20.8122,90.0616,-1.24121,0.0,0.0
7310,1827.25,57.2873,60.1996,141.961,102.947,116.428,0.00834216,0.165997,20.8142,89.6112,-1.12767,0.0,0.0
7395,1848.5,56.8453,59.5242,140.48,102.893,116.856,0.00860353,0.16157,20.8169,89.2709,-1.16608,0.0,0.0
7480,1869.75,56.2362,58.7907,141.673,102.864,117.311,0.00917363,0.160394,20.8205,88.9306,-1.2043,0.0,0.0
7565,1891,55.2906,58.6636,141.179,102.833,116.321,0.00972484,0.158581,20.823,88.5802,-1.12938,0.0,0.0
7650,1912.25,54.9357,57.8735,139.251,102.797,115.768,0.0103043,0.15696,20.8239,88.2399,-1.08889,0.0,0.0
7735,1933.5,53.3392,56.1588,145.637,102.796,115.232,0.0106726,0.155886,20.8286,87.8896,-1.04653,0.0,0.0
7820,1954.75,53.1885,55.936,144.081,102.782,115.134,0.0104583,0.153817,20.8313,87.5893,-1.03997,0.0,0.0
7905,1976,53.203,55.2076,143.05,102.779,114.447,0.0105458,0.151689,20.8339,87.259,-0.985361,0.0,0.0
7990,1997.25,52.4183,55.5252,138.586,102.79,115.072,0.0104394,0.150891,20.8354,86.9788,-1.03424,0.0,0.0
8075,2018.5,52.2141,54.8437,142.226,102.787,115.527,0.010927,0.152364,20.8328,86.6585,-1.07067,0.0,0.0
8148,2036.75,52.4165,54.8527,142.675,102.77,113.323,,,,86.4183,-0.895744,0.0,0.0