File: 01_Data/Wood_Stud/Cone/Wood_Stud_Cone_HF25Scan_221004_R1.csv
Names,Time,Stack TC,Smoke TC,Exh Press,Smoke Comp,Smoke Meas,CO Meter,CO2 Meter,O2 Meter,Sample Mass,Ext Coeff,Start Test,Flame Verif
Chan Gain,,500,500,1,1,1,1,1,1,1,1,1.0,1.0
Offset,,0,0,0.140306,0,0,0,0,0,0,0,0.0,0.0
Gain,,1,1,25.011,14.0162,15.5607,1,1,1,1.0009,1.02981,1.0,1.0
Units,sec,C,C,Pa,%,%,%,%,%,g,/m,,
Baseline,,18.7286,19.4697,159.28,104.838,5.39504,-0.000286681,0.0859206,20.9643,-3.00196,26.8018,,
90,22.25,18.3793,19.0401,157.148,103.605,5.36372,-0.000487834,0.0840523,20.9694,664.83,26.7474,0.0,0.0
180,44.75,18.8721,19.5281,157.115,104.77,5.44207,-0.000529125,0.0869745,20.9662,664.54,26.7174,0.0,0.0
270,67.25,18.929,19.6488,155.57,105.48,5.33808,-0.000142165,0.0861024,20.9693,664.209,26.9527,0.0,0.0
360,89.75,18.9502,19.7944,158.933,105.466,5.32098,0.000399684,0.0861364,20.9704,663.809,26.9804,0.0,0.0
450,112.25,19.1341,20.0799,161.499,105.191,5.32003,0.00124865,0.0872364,20.9698,663.309,26.9585,0.0,0.0
540,134.75,20.1067,20.4663,143.412,104.743,5.72985,0.00258792,0.165221,20.8927,662.608,26.2496,0.0,1.0
630,157.25,34.9263,35.5247,148.305,104.971,5.77734,0.0024368,0.397049,20.6048,659.095,26.1946,0.0,0.0
720,179.75,37.3006,39.0281,143.426,105.211,5.78873,0.000968469,0.295377,20.7269,656.953,26.1975,0.0,0.0
810,202.25,36.2556,38.5741,148.902,105.091,5.75882,0.00100017,0.257038,20.7692,655.211,26.2339,0.0,0.0
900,224.75,34.937,37.5358,151.859,104.789,5.75597,0.00164134,0.233023,20.7998,653.66,26.2124,0.0,0.0
990,247.25,33.7031,36.3408,153.858,104.343,5.75027,0.00225187,0.218582,20.8152,652.329,26.1829,0.0,0.0
1080,269.75,32.967,34.8512,154.631,104.514,5.71703,0.00273213,0.207134,20.8273,651.048,26.25,0.0,0.0
1170,292.25,31.3741,33.5695,149.538,104.65,5.73982,0.00336598,0.199264,20.8393,649.877,26.2258,0.0,0.0
1260,314.75,30.1605,32.8068,153.551,104.695,5.75787,0.00435286,0.192717,20.8451,648.755,26.2013,0.0,0.0
1350,337.25,29.8556,31.7601,151.73,104.59,5.72083,0.00593974,0.185068,20.8518,647.645,26.2505,0.0,0.0
1440,359.75,28.6143,30.6632,153.854,104.265,5.63867,0.00667252,0.181632,20.8543,646.584,26.3531,0.0,0.0
1530,382.25,28.1866,30.3045,157.614,103.909,5.6306,0.00814203,0.177241,20.8603,645.513,26.3351,0.0,0.0
1620,404.75,27.7071,29.9359,151.185,103.58,5.62443,0.00732044,0.178064,20.8573,644.452,26.3165,0.0,0.0
1710,427.25,27.8055,29.1392,154.838,103.384,5.60306,0.00755648,0.175801,20.8593,643.431,26.3337,0.0,0.0
1800,449.75,28.1591,29.4579,155.485,103.237,5.54655,0.00709685,0.178195,20.8552,642.4,26.4124,0.0,0.0
1890,472.25,27.8157,29.1901,153.69,103.219,5.61398,0.00731122,0.178152,20.8571,641.359,26.3017,0.0,0.0
1980,494.75,27.7665,28.7241,151.945,103.311,5.58596,0.00704768,0.177904,20.8585,640.318,26.3549,0.0,0.0
2070,517.25,27.3045,29.0257,152.711,103.465,5.60353,0.00785846,0.173539,20.8635,639.267,26.34,0.0,0.0
2160,539.75,27.3957,28.8334,150.648,103.733,5.60543,0.00715634,0.177968,20.8558,638.236,26.3604,0.0,0.0
2250,562.25,27.4136,28.6364,155.972,103.857,5.60448,0.00712571,0.178489,20.8583,637.255,26.3727,0.0,0.0
2340,584.75,27.4536,29.143,152.788,104.105,5.65767,0.00761596,0.174599,20.8621,636.234,26.3089,0.0,0.0
2430,607.25,27.245,28.9814,158.933,104.523,5.59973,0.00823435,0.17194,20.8691,635.253,26.4381,0.0,0.0
2520,629.75,26.9529,28.503,153.163,104.894,5.6192,0.00737865,0.172265,20.8629,634.262,26.4387,0.0,0.0
2610,652.25,26.8584,28.5683,154.125,105.102,5.66812,0.00870402,0.174904,20.8607,633.272,26.3783,0.0,0.0
2700,674.75,27.0237,28.4036,154.064,104.95,5.67191,0.00789388,0.173652,20.8611,632.301,26.3592,0.0,0.0
2790,697.25,27.2104,28.5132,154.981,103.794,5.69328,0.00778875,0.170133,20.8689,631.4,26.2252,0.0,0.0
2880,719.75,26.9557,28.3339,149.934,103.309,5.59973,0.00938565,0.162117,20.88,630.459,26.3325,0.0,0.0
2970,742.25,28.0098,28.931,149.883,104.616,5.67714,0.00767747,0.168213,20.8738,629.468,26.3221,0.0,0.0
3060,764.75,28.2882,29.4333,152.658,104.674,5.7118,0.00699604,0.171284,20.8719,628.527,26.2721,0.0,0.0
3150,787.25,28.5283,29.604,150.415,104.896,5.74837,0.00681064,0.17222,20.8743,627.516,26.2336,0.0,0.0
3240,809.75,28.3912,29.8711,155.789,104.305,5.71608,0.00667413,0.172915,20.8701,626.516,26.2334,0.0,0.0
3330,832.25,28.3069,30.1737,153.119,103.941,5.64865,0.00593949,0.173673,20.8688,625.505,26.309,0.0,0.0
3420,854.75,28.253,29.911,154.674,104.187,5.69613,0.0066252,0.171746,20.8695,624.524,26.2548,0.0,0.0
3510,877.25,27.8579,29.521,147.203,105.225,5.73365,0.00799776,0.16869,20.8732,623.543,26.2851,0.0,0.0
3600,899.75,28.2019,29.8751,153.374,103.267,5.60021,0.00803405,0.163495,20.8782,622.562,26.3281,0.0,0.0
3690,922.25,28.0309,29.5735,154.838,104.342,5.67429,0.00746067,0.168371,20.8769,621.601,26.3029,0.0,0.0
3780,944.75,28.2612,29.5057,155.392,105.165,5.81153,0.00785898,0.168843,20.8743,620.64,26.158,0.0,0.0
3870,967.25,28.0314,29.8973,152.814,103.314,5.60876,0.00885217,0.164324,20.8793,619.669,26.3184,0.0,0.0
3960,989.75,28.2013,30.0533,153.713,104.442,5.73412,0.00848345,0.17189,20.8718,618.698,26.2169,0.0,0.0
4050,1012.25,28.3799,29.8904,152.587,104.79,5.65957,0.00874498,0.163307,20.8805,617.738,26.3651,0.0,0.0
4140,1034.75,28.0538,29.3828,148.718,105.363,5.7118,0.00843017,0.159359,20.8863,616.767,26.3314,0.0,0.0
4230,1057.25,27.5774,28.6268,154.022,104.303,5.6363,0.00822369,0.159017,20.8855,615.846,26.3602,0.0,0.0
4320,1079.75,27.3771,28.6346,154.347,103.341,5.59688,0.00856143,0.159475,20.8821,614.915,26.3399,0.0,0.0
4410,1102.25,27.0835,28.6621,151.487,104.143,5.61303,0.00873011,0.157613,20.887,614.004,26.3837,0.0,0.0
4500,1124.75,27.223,28.4265,154.25,104.698,5.61303,0.00844589,0.156792,20.885,613.103,26.4318,0.0,0.0
4590,1147.25,26.7374,28.3737,154.012,104.324,5.63582,0.008254,0.156892,20.8833,612.203,26.3628,0.0,0.0
4680,1169.75,27.0536,27.8222,157.258,104.48,5.56317,0.00858171,0.155428,20.8841,611.292,26.4935,0.0,0.0
4770,1192.25,26.1204,28.1824,152.636,105.02,5.61161,0.0081755,0.155214,20.8832,610.391,26.4618,0.0,0.0
4860,1214.75,26.5664,27.9425,157.114,104.726,5.62585,0.00660737,0.160244,20.879,609.52,26.4135,0.0,0.0
4950,1237.25,26.7907,28.0793,156.045,104.552,5.62205,0.00711299,0.161957,20.8761,608.649,26.4046,0.0,0.0
5040,1259.75,27.0313,28.0756,152.887,104.542,5.60021,0.00686349,0.161703,20.8756,607.749,26.4389,0.0,0.0
5130,1282.25,26.8033,28.3117,156.864,104.548,5.57741,0.00704309,0.160464,20.874,606.858,26.4763,0.0,0.0
5220,1304.75,26.7773,28.5522,154.749,104.957,5.62015,0.00712752,0.160752,20.8766,606.007,26.4426,0.0,0.0
5310,1327.25,26.6126,27.8621,155.721,105.001,5.57077,0.00660198,0.161587,20.8751,605.106,26.5262,0.0,0.0
5400,1349.75,27.126,28.2651,157.059,104.803,5.6325,0.00677368,0.163945,20.8712,604.215,26.4095,0.0,0.0
5490,1372.25,26.4737,28.1663,158.339,104.337,5.58264,0.00655909,0.162794,20.8729,603.335,26.4496,0.0,0.0
5580,1394.75,26.5389,28.031,154.431,104.216,5.61873,0.00695615,0.160983,20.8717,602.474,26.3809,0.0,0.0
5670,1417.25,27.1095,28.238,151.86,104.544,5.55842,0.00641061,0.163629,20.871,601.583,26.5068,0.0,0.0
5760,1439.75,27.0474,28.7316,157.34,104.619,5.59119,0.00643057,0.163998,20.8712,600.732,26.4602,0.0,0.0
5850,1462.25,27.1174,28.6674,155.047,103.973,5.55794,0.00680648,0.163779,20.8687,599.851,26.458,0.0,0.0
5940,1484.75,26.9953,27.9628,155.247,103.342,5.53942,0.00681668,0.162328,20.8706,598.991,26.4333,0.0,0.0
6030,1507.25,26.5774,28.0229,153.222,103.666,5.55604,0.00668354,0.162061,20.8714,598.15,26.4344,0.0,0.0
6120,1529.75,26.5776,27.9357,154.061,104.37,5.57789,0.00667124,0.160598,20.873,597.299,26.4601,0.0,0.0
6210,1552.25,26.6447,28.3401,155.423,105.137,5.58074,0.00676122,0.157684,20.8762,596.488,26.5217,0.0,0.0
6300,1574.75,27.1321,28.3253,156.116,105.308,5.68711,0.0068219,0.157326,20.8782,595.688,26.3658,0.0,0.0
6390,1597.25,26.5055,27.8034,152.795,104.622,5.59024,0.00615295,0.157475,20.878,594.887,26.462,0.0,0.0
6480,1619.75,26.2107,27.9445,157.705,105.009,5.60448,0.00670006,0.156995,20.8771,594.076,26.4723,0.0,0.0
6570,1642.25,26.4142,27.5615,156.483,104.115,5.53752,0.00695151,0.153849,20.8819,593.326,26.5036,0.0,0.0
6660,1664.75,25.5697,27.1417,152.93,104.493,5.56792,0.00707468,0.150997,20.8868,592.585,26.487,0.0,0.0
6750,1687.25,25.7896,26.9844,155.481,104.609,5.55225,0.00794321,0.144392,20.8923,591.844,26.5224,0.0,0.0
6840,1709.75,25.6664,26.6155,155.876,103.915,5.55367,0.00778802,0.144173,20.8911,591.094,26.46,0.0,0.0
6930,1732.25,25.0626,26.2265,155.86,103.307,5.46962,0.00764057,0.144201,20.8901,590.353,26.5447,0.0,0.0
7020,1754.75,24.9719,26.071,151.757,103.515,5.48101,0.00778957,0.142351,20.8943,589.632,26.5441,0.0,0.0
7110,1777.25,24.8996,26.317,153.859,104.407,5.5266,0.00739159,0.142093,20.8961,588.932,26.5468,0.0,0.0
7200,1799.75,24.9171,26.0556,155.681,105.27,5.58216,0.00774461,0.141781,20.8973,588.241,26.5308,0.0,0.0
7290,1822.25,24.508,25.7857,156.372,105.208,5.58169,0.0073029,0.140111,20.8989,587.53,26.5262,0.0,0.0
7380,1844.75,24.5332,25.6989,155.757,104.557,5.50666,0.00729842,0.141124,20.897,586.85,26.5924,0.0,0.0
7470,1867.25,24.9344,25.8509,153.276,105.03,5.52708,0.00762714,0.139489,20.9008,586.159,26.5997,0.0,0.0
7560,1889.75,24.7753,25.855,155.863,104.551,5.46914,0.00758196,0.139556,20.8979,585.478,26.6537,0.0,0.0
7650,1912.25,24.2079,25.5342,153.342,104.242,5.47722,0.00751281,0.139088,20.8971,584.798,26.6136,0.0,0.0
7740,1934.75,24.5983,25.4743,154.209,104.491,5.52185,0.00746976,0.138785,20.8995,584.107,26.5618,0.0,0.0
7830,1957.25,23.5414,24.7112,157.332,104.624,5.51853,0.00723974,0.138195,20.9013,583.437,26.5788,0.0,0.0
7920,1979.75,24.464,25.5273,155.762,104.415,5.57836,0.00775686,0.136109,20.9022,582.766,26.4632,0.0,0.0
8010,2002.25,24.4094,25.2313,156.451,103.879,5.46392,0.00725608,0.140122,20.8998,582.105,26.604,0.0,0.0
8100,2024.75,24.308,25.2281,153.851,103.33,5.41406,0.00800791,0.137625,20.9027,581.445,26.639,0.0,0.0
8190,2047.25,23.9786,25.0545,160.143,103.296,5.42498,0.00914537,0.127631,20.9134,580.814,26.6178,0.0,0.0
8280,2069.75,23.1146,23.8691,155.438,103.744,5.41643,0.00923413,0.125684,20.9161,580.194,26.6712,0.0,0.0
8370,2092.25,22.9073,23.8373,157.838,104.4,5.51141,0.00876717,0.127997,20.9161,579.523,26.571,0.0,0.0
8460,2114.75,22.7719,23.7141,154.793,104.954,5.43828,0.00882392,0.128083,20.9089,578.892,26.7395,0.0,0.0
8550,2137.25,22.9854,23.5147,150.839,105.339,5.47057,0.00922544,0.128119,20.9117,578.272,26.7191,0.0,0.0
8640,2159.75,22.4646,23.8682,157.072,105.3,5.45917,0.00853927,0.12795,20.9146,577.661,26.7347,0.0,0.0
8726,2181.25,22.7873,23.4982,151.455,105.013,5.4416,,,,577.051,26.739,0.0,0.0