File: 01_Data/Wood_Stud/Cone/Wood_Stud_Cone_HF75Scan_221004_R2.csv
Names,Time,Stack TC,Smoke TC,Exh Press,Smoke Comp,Smoke Meas,CO Meter,CO2 Meter,O2 Meter,Sample Mass,Ext Coeff,Start Test,Flame Verif
Chan Gain,,500,500,1,1,1,1,1,1,1,1,1.0,1.0
Offset,,0,0,0.13786,0,0,0,0,0,0,0,0.0,0.0
Gain,,1,1,25.011,13.9274,292.346,1,1,1,1.00091,1.04463,1.0,1.0
Units,sec,C,C,Pa,%,%,%,%,%,g,/m,,
Baseline,,31.2307,32.7419,156.818,104.795,108.031,-0.000161967,0.0651498,20.9451,-443.019,-0.278554,,
90,22.25,50.1105,50.443,134.579,104.353,112.957,0.00613587,0.5807,20.3333,225.975,-0.725989,0.0,0.0
180,44.75,58.8436,61.3442,140.025,104.119,112.654,0.00424271,0.476134,20.4637,222.321,-0.721936,0.0,0.0
270,67.25,61.6833,66.0787,140.661,103.42,113.118,0.00313896,0.39619,20.5529,219.139,-0.821374,0.0,0.0
360,89.75,60.9573,66.7169,137.695,102.986,114.965,0.00223606,0.351287,20.6111,216.466,-1.0083,0.0,0.0
450,112.25,60.3163,66.0322,139.926,103.039,115.803,0.00152854,0.33588,20.6293,213.954,-1.07014,0.0,0.0
540,134.75,60.6195,66.4019,144.765,103.49,118.4,0.001889,0.325206,20.6455,211.562,-1.23329,0.0,0.0
630,157.25,59.7845,65.6812,141.253,104.096,118.774,0.00143842,0.305764,20.6648,209.31,-1.20877,0.0,0.0
720,179.75,59.1516,64.6808,149.411,104.517,122.361,0.00155835,0.302653,20.6699,207.148,-1.44441,0.0,0.0
810,202.25,59.247,64.6194,142.676,104.756,119.515,0.00137078,0.299955,20.675,205.016,-1.2078,0.0,0.0
900,224.75,58.6824,64.2053,144.324,104.873,120.773,0.00134972,0.289132,20.6868,202.954,-1.29349,0.0,0.0
990,247.25,58.8389,63.6291,143.923,104.963,122.111,0.000740687,0.277855,20.6984,200.962,-1.38664,0.0,0.0
1080,269.75,58.2237,63.0308,139.451,105.003,122.343,0.000739672,0.280313,20.6931,199.07,-1.40058,0.0,0.0
1170,292.25,58.6333,63.3222,144.459,104.964,122.744,0.00100212,0.282747,20.6902,197.079,-1.43398,0.0,0.0
1260,314.75,58.606,63.1903,145.33,104.862,123.271,0.000692475,0.27692,20.6972,195.167,-1.4821,0.0,0.0
1350,337.25,59.4686,63.2252,142.498,104.747,122.093,0.000365645,0.275701,20.699,193.265,-1.40413,0.0,0.0
1440,359.75,59.271,63.6432,146.785,104.676,121.406,0.000732501,0.273301,20.7001,191.373,-1.35871,0.0,0.0
1530,382.25,58.9644,63.4031,142.693,104.631,121.727,0.000767618,0.269099,20.7076,189.492,-1.38679,0.0,0.0
1620,404.75,59.1071,62.7716,144.132,104.698,121.942,0.000647446,0.263601,20.7151,187.7,-1.39706,0.0,0.0
1710,427.25,58.8461,62.9589,139.881,104.764,121.727,0.000527194,0.261304,20.717,185.878,-1.37519,0.0,0.0
1800,449.75,58.8404,62.8989,146.523,104.736,122.352,0.000747672,0.263422,20.713,184.157,-1.42457,0.0,0.0
1890,472.25,59.031,62.91,143.04,104.745,121.567,0.000990362,0.260714,20.7145,182.395,-1.3648,0.0,0.0
1980,494.75,58.3765,62.3623,141.376,104.733,121.808,0.000864988,0.256843,20.7199,180.684,-1.38394,0.0,0.0
2070,517.25,58.73,62.799,141.037,104.787,122.718,0.000721058,0.251443,20.7274,179.022,-1.44743,0.0,0.0
2160,539.75,58.6833,62.4908,141.22,104.918,123.137,0.000791141,0.251949,20.731,177.311,-1.46724,0.0,0.0
2250,562.25,58.4422,62.0397,143.434,104.954,123.904,0.00108975,0.254407,20.7296,175.619,-1.52105,0.0,0.0
2340,584.75,59.3019,62.4184,142.874,104.954,122.388,0.000746231,0.253954,20.7282,173.908,-1.40815,0.0,0.0
2430,607.25,59.6521,63.3556,141.827,104.95,121.335,0.00085118,0.251042,20.7335,172.246,-1.32932,0.0,0.0
2520,629.75,59.3282,63.1865,141.809,104.973,120.701,0.000974134,0.248144,20.7366,170.554,-1.27935,0.0,0.0
2610,652.25,59.504,62.626,139.113,104.969,123.173,0.000767386,0.245191,20.7392,168.933,-1.46545,0.0,0.0
2700,674.75,59.2156,63.0416,144.323,104.954,122.62,0.00083016,0.242414,20.7437,167.272,-1.42546,0.0,0.0
2790,697.25,59.495,63.3676,145.979,104.904,122.37,0.000725833,0.241271,20.7444,165.7,-1.41116,0.0,0.0
2880,719.75,59.4124,62.9533,142.991,104.334,122.637,0.000967785,0.241822,20.7429,164.159,-1.4811,0.0,0.0
2970,742.25,59.145,62.6657,146.301,102.968,120.452,0.000996987,0.239094,20.7476,162.577,-1.43707,0.0,0.0
3060,764.75,59.2202,62.4601,139.799,103.688,123.396,0.000732758,0.234894,20.7518,161.076,-1.59454,0.0,0.0
3150,787.25,59.366,62.8525,140.8125,104.031,123.092,0.000830521,0.231099,20.7555,159.545,-1.54173,0.0,0.0
3240,809.75,58.9553,62.5393,140.048,104.585,125.082,0.000801828,0.227736,20.7565,158.073,-1.63996,0.0,0.0
3330,832.25,59.0452,62.494,142.458,104.964,126.581,0.000753438,0.228995,20.7598,156.622,-1.71595,0.0,0.0
3420,854.75,58.9969,62.6307,142.755,102.925,122.12,0.000836425,0.22847,20.7592,155.151,-1.56698,0.0,0.0
3510,877.25,58.9308,62.4179,138.546,104.251,123.012,0.000707924,0.227286,20.7626,153.709,-1.51637,0.0,0.0
3600,899.75,59.106,62.6416,144.312,104.39,123.592,0.000815011,0.226629,20.76,152.268,-1.54723,0.0,0.0
3690,922.25,58.7568,62.1486,143.743,104.305,122.994,0.000722914,0.228509,20.7582,150.857,-1.51026,0.0,0.0
3780,944.75,59.1993,62.7596,139.786,104.006,120.871,0.000568663,0.227435,20.7578,149.415,-1.37701,0.0,0.0
3870,967.25,58.7561,62.364,148.778,104.576,122.281,0.000916589,0.230444,20.7563,148.004,-1.43318,0.0,0.0
3960,989.75,59.0871,62.7489,144.397,103.845,122.477,0.000481426,0.232849,20.7539,146.603,-1.51216,0.0,0.0
4050,1012.25,59.5482,63.252,139.633,104.256,124.788,0.000955606,0.233599,20.7526,145.161,-1.64727,0.0,0.0
4140,1034.75,59.6131,63.2532,140.827,104.625,123.726,0.000687191,0.234666,20.7519,143.71,-1.53657,0.0,0.0
4230,1057.25,60.3188,64.1873,141.319,103.046,121.478,0.00054523,0.237569,20.7495,142.209,-1.50791,0.0,0.0
4320,1079.75,60.3409,63.9352,142.608,103.836,121.647,0.000942869,0.237387,20.7478,140.747,-1.45066,0.0,0.0
4410,1102.25,60.3434,64.2018,141.779,104.415,122.655,0.000601441,0.236523,20.7474,139.296,-1.47534,0.0,0.0
4500,1124.75,60.3396,64.3711,140.643,104.611,122.423,0.000929908,0.237997,20.7485,137.835,-1.44085,0.0,0.0
4590,1147.25,60.4524,64.246,143.21,103.138,119.97,0.00087748,0.238008,20.7471,136.394,-1.38523,0.0,0.0
4680,1169.75,60.7465,64.3005,144.268,103.5,119.667,0.000720596,0.24055,20.7406,134.942,-1.32991,0.0,0.0
4770,1192.25,59.9774,64.2517,146.483,104.208,120.3,0.00101056,0.24477,20.7372,133.491,-1.31585,0.0,0.0
4860,1214.75,60.4408,64.3297,138.456,104.373,119.194,0.000812661,0.247368,20.7347,132.03,-1.2167,0.0,0.0
4950,1237.25,60.8429,64.5511,140.04,103.899,120.122,0.000997531,0.250291,20.7302,130.548,-1.32946,0.0,0.0
5040,1259.75,61.3931,65.2871,142.129,104.11,120.3,0.000569136,0.25213,20.7279,129.057,-1.32449,0.0,0.0
5130,1282.25,61.2714,64.9893,139.94,104.557,120.969,0.00108099,0.253968,20.726,127.576,-1.33601,0.0,0.0
5220,1304.75,61.3355,65.6198,141.961,104.168,120.139,0.000706539,0.257766,20.7209,126.044,-1.30712,0.0,0.0
5310,1327.25,61.4665,65.5936,145.423,104.662,120.862,0.00112189,0.262082,20.7161,124.523,-1.31877,0.0,0.0
5400,1349.75,61.9186,66.4651,140.168,104.954,120.853,0.000827549,0.264936,20.7116,122.951,-1.29253,0.0,0.0
5490,1372.25,62.8259,66.5245,137.604,105.016,120.719,0.00107032,0.271434,20.7035,121.42,-1.277,0.0,0.0
5580,1394.75,62.9129,66.8667,143.217,105.003,120.603,0.000732242,0.275366,20.7024,119.819,-1.26926,0.0,0.0
5670,1417.25,63.7631,67.5973,139.359,105.014,123.414,0.000951863,0.278883,20.6942,118.207,-1.47945,0.0,0.0
5760,1439.75,63.735,67.9169,145.352,105.031,121.727,0.00104658,0.282834,20.6888,116.626,-1.35191,0.0,0.0
5850,1462.25,64.0054,68.2207,140.429,104.997,122.86,0.00130284,0.289975,20.6791,114.954,-1.43974,0.0,0.0
5940,1484.75,64.7549,68.6278,139.072,104.896,120.264,0.00118776,0.300415,20.6658,113.213,-1.25286,0.0,0.0
6030,1507.25,65.1131,69.4404,142.199,104.714,121.246,0.00128663,0.308376,20.6599,111.461,-1.34324,0.0,0.0
6120,1529.75,65.9835,70.3689,135.17,104.416,121.638,0.00125596,0.315457,20.6488,109.589,-1.39893,0.0,0.0
6210,1552.25,67.0786,71.4765,140.473,104.131,121.799,0.00141301,0.325473,20.6395,107.708,-1.43612,0.0,0.0
6300,1574.75,67.2377,71.5709,133.916,104.561,120.773,0.00164039,0.332391,20.6325,105.786,-1.32083,0.0,0.0
6390,1597.25,68.7213,73.1287,139.529,104.17,119.952,0.00193515,0.345359,20.6139,103.824,-1.29267,0.0,0.0
6480,1619.75,68.9906,74.3509,141.024,103.826,120.059,0.00165097,0.360768,20.591,101.702,-1.33111,0.0,0.0
6570,1642.25,70.2085,74.5919,139.163,104.269,120.22,0.00155005,0.357302,20.592,99.6303,-1.30439,0.0,0.0
6660,1664.75,70.1545,75.3473,135.994,104.372,120.291,0.00162643,0.344293,20.602,97.6385,-1.30079,0.0,0.0
6750,1687.25,70.3988,74.6414,142.94,103.899,121.504,0.00186393,0.329825,20.621,95.7668,-1.43435,0.0,0.0
6840,1709.75,69.372,73.977,140.795,103.322,117.356,0.0021611,0.315976,20.6351,94.1153,-1.16702,0.0,0.0
6930,1732.25,68.1955,72.7542,138.911,103.085,118.756,0.00260081,0.297359,20.6576,92.5739,-1.2968,0.0,0.0
7020,1754.75,66.9809,71.4141,144.769,103.362,118.587,0.00261056,0.270044,20.6873,91.2327,-1.25915,0.0,0.0
7110,1777.25,64.5729,68.6881,140.577,103.958,120.585,0.0040467,0.228543,20.73,90.2518,-1.35961,0.0,0.0
7200,1799.75,62.1834,66.4906,144.169,104.495,119.336,0.00516506,0.208161,20.7522,89.5211,-1.21693,0.0,0.0
7290,1822.25,60.2978,63.7923,148.128,104.898,119.952,0.00544871,0.197984,20.767,88.8705,-1.22881,0.0,0.0
7380,1844.75,59.1484,62.4341,143.154,105.002,120.648,0.00606721,0.188169,20.7765,88.31,-1.2728,0.0,0.0
7470,1867.25,57.6747,61.1582,147.252,104.816,119.158,0.0065835,0.183254,20.7802,87.7795,-1.17512,0.0,0.0
7560,1889.75,56.3574,59.2337,145.708,104.48,118.444,0.00668459,0.178049,20.7903,87.2991,-1.14955,0.0,0.0
7650,1912.25,55.5907,58.2589,149.729,104.183,118.364,0.00682904,0.175498,20.7952,86.8587,-1.16943,0.0,0.0
7740,1934.75,55.3026,57.7033,143.467,104.326,116.767,0.00739634,0.171593,20.8013,86.4683,-1.03232,0.0,0.0
7830,1957.25,53.8939,56.295,144.118,104.585,118.462,0.00757969,0.168106,20.8041,86.0379,-1.14172,0.0,0.0
7920,1979.75,54.2853,56.6758,145.825,104.413,116.294,0.00818841,0.166041,20.8075,85.6576,-0.98749,0.0,0.0
8010,2002.25,53.7931,56.427,146.284,104.064,115.152,0.00867183,0.168902,20.8039,85.2472,-0.927814,0.0,0.0
8100,2024.75,53.4317,55.6758,143.869,103.745,115.125,0.00873218,0.167359,20.8043,84.8769,-0.953759,0.0,0.0
8190,2047.25,52.3096,54.8655,143.224,103.991,114.813,0.0093487,0.16496,20.8081,84.5466,-0.90716,0.0,0.0
8280,2069.75,51.9132,54.4492,145.743,104.279,114.67,0.00950081,0.159933,20.8144,84.2163,-0.870439,0.0,0.0
8370,2092.25,51.8267,53.767,147.181,104.362,115.268,0.00969273,0.159135,20.8168,83.886,-0.910765,0.0,0.0
8460,2114.75,51.1631,53.7341,145.078,104.224,115.232,0.00948639,0.158928,20.8176,83.5257,-0.920065,0.0,0.0
8550,2137.25,51.0118,53.7319,143.926,103.742,114.769,0.0103187,0.159412,20.8172,83.1553,-0.925572,0.0,0.0
8637,2159,50.8628,53.5831,149.866,103.27,113.698,,,,82.835,-0.881534,0.0,0.0