File: 01_Data/Wood_Stud/Cone/Wood_Stud_Cone_HF50Scan_221004_R3.csv
Names,Time,Stack TC,Smoke TC,Exh Press,Smoke Comp,Smoke Meas,CO Meter,CO2 Meter,O2 Meter,Sample Mass,Ext Coeff,Start Test,Flame Verif
Chan Gain,,500,500,1,1,1,1,1,1,1,1,1.0,1.0
Offset,,0,0,0.136221,0,0,0,0,0,0,0,0.0,0.0
Gain,,1,1,25.011,13.9274,292.346,1,1,1,1.00091,1.04463,1.0,1.0
Units,sec,C,C,Pa,%,%,%,%,%,g,/m,,
Baseline,,34.9784,36.3594,151.861,103.603,104.812,0.000524889,0.0638361,20.9507,-443.703,-0.106249,,
107,26.5,43.2901,42.8634,132.856,104.042,110.272,0.00574688,0.510747,20.4192,217.827,-0.532906,0.0,0.0
214,53.25,51.5216,53.5019,137.989,104.046,111.244,0.00443309,0.352402,20.6113,214.554,-0.612988,0.0,0.0
321,80,53.1371,56.9032,142.745,103.612,111.414,0.00307213,0.313909,20.6583,211.772,-0.665239,0.0,0.0
428,106.75,52.6048,56.7949,143.512,102.93,112.074,0.00288757,0.27936,20.7009,209.37,-0.779871,0.0,0.0
535,133.5,51.5346,55.8643,140.257,102.963,112.743,0.00230172,0.255987,20.7297,207.218,-0.831504,0.0,0.0
642,160.25,51.0761,55.062,141.816,103.924,114.492,0.00241518,0.241571,20.7464,205.256,-0.887409,0.0,0.0
749,187,50.3225,54.0921,143.924,104.613,115.696,0.00221625,0.22934,20.7591,203.394,-0.922754,0.0,0.0
856,213.75,49.1852,53.0534,144.623,104.627,117.267,0.00167791,0.226481,20.7618,201.673,-1.04505,0.0,0.0
963,240.5,48.8624,52.5158,144.239,104.156,116.303,0.00191162,0.225834,20.7628,199.931,-1.01083,0.0,0.0
1070,267.25,48.9051,52.4741,144.895,103.804,116.713,0.00183592,0.226181,20.7661,198.26,-1.07408,0.0,0.0
1177,294,48.5258,52.5239,138.05,104.176,115.286,0.00183273,0.223086,20.7687,196.578,-0.928544,0.0,0.0
1284,320.75,48.4679,51.8296,141.915,104.176,117.4,0.00164665,0.218241,20.7712,194.927,-1.09512,0.0,0.0
1391,347.5,48.1546,51.5084,143.882,103.466,114.18,0.00229154,0.216691,20.7749,193.345,-0.902911,0.0,0.0
1498,374.25,47.8736,51.7096,142.266,103.626,115.527,0.00183717,0.217042,20.7749,191.724,-0.996176,0.0,0.0
1605,401,48.3059,51.3194,144.287,103.906,115.259,0.00171924,0.216087,20.774,190.142,-0.950225,0.0,0.0
1712,427.75,48.0924,51.2262,145.626,104.015,115.304,0.0020974,0.216983,20.773,188.541,-0.94418,0.0,0.0
1819,454.5,48.2743,50.7735,146.59,104.072,114.046,0.00180741,0.215599,20.7712,186.959,-0.838642,0.0,0.0
1926,481.25,49.0923,50.9295,145.184,104.018,116,0.00239762,0.217685,20.7707,185.388,-0.999055,0.0,0.0
2033,508,47.8986,50.7755,147.11,103.581,115.384,0.0021069,0.214606,20.7759,183.827,-0.988832,0.0,0.0
2140,534.75,47.939,50.9224,143.136,103.084,113.93,0.00266523,0.21654,20.7747,182.235,-0.916668,0.0,0.0
2247,561.5,48.1984,51.0009,143.87,102.777,113.582,0.0022147,0.216337,20.7762,180.694,-0.915959,0.0,0.0
2354,588.25,48.0912,50.7017,145.887,102.951,115.045,0.00260218,0.21484,20.7765,179.132,-1.01776,0.0,0.0
2461,615,48.079,51.1078,144.252,103.536,115.687,0.00258712,0.213293,20.7774,177.611,-1.01691,0.0,0.0
2568,641.75,48.2692,50.5348,140.913,104.305,115.215,0.0022843,0.21159,20.7828,176.079,-0.911548,0.0,0.0
2675,668.5,47.8807,50.8524,146.22,104.696,116.553,0.00240576,0.207724,20.7885,174.568,-0.98312,0.0,0.0
2782,695.25,47.7724,50.4471,140.936,104.531,115.447,0.00304897,0.208121,20.7862,173.077,-0.910172,0.0,0.0
2889,722,47.2686,50.3791,144.926,103.911,115.411,0.00293096,0.205298,20.7889,171.635,-0.961825,0.0,0.0
2996,748.75,47.1144,50.2622,142.868,104.292,114.733,0.00241412,0.201872,20.7955,170.174,-0.874271,0.0,0.0
3103,775.5,47.2517,49.9187,145.304,103.646,115.152,0.00291687,0.201366,20.7955,168.743,-0.964678,0.0,0.0
3210,802.25,47.3524,49.6092,143.088,103.577,114.322,0.00328417,0.201429,20.7941,167.252,-0.90454,0.0,0.0
3317,829,46.747,49.1485,142.463,103.928,115.491,0.00343154,0.199787,20.797,165.81,-0.966736,0.0,0.0
3424,855.75,47.4911,49.8054,141.572,104.063,114.537,0.00314469,0.201786,20.7942,164.359,-0.87877,0.0,0.0
3531,882.5,47.0394,49.5071,144.482,103.933,114.92,0.0028526,0.202211,20.7944,162.898,-0.920833,0.0,0.0
3638,909.25,47.0663,49.7337,141.668,103.589,115.09,0.00326097,0.202919,20.7906,161.426,-0.964706,0.0,0.0
3745,936,47.2796,49.7926,142.639,103.222,114.206,0.00304995,0.205285,20.7889,159.975,-0.926615,0.0,0.0
3852,962.75,47.0254,49.5994,140.01,102.973,114.608,0.00334695,0.204438,20.7871,158.524,-0.980984,0.0,0.0
3959,989.5,46.7771,50.0352,149.451,102.835,113.279,0.0035619,0.205388,20.787,157.092,-0.886302,0.0,0.0
4066,1016.25,47.4269,49.9028,147.567,102.74,115.393,0.00359928,0.20316,20.7913,155.711,-1.06429,0.0,0.0
4173,1043,46.885,49.5938,145.385,102.808,115.188,0.0036023,0.204761,20.7888,154.29,-1.04192,0.0,0.0
4280,1069.75,46.9418,49.4181,143.433,103.086,113.314,0.00375372,0.203182,20.7908,152.868,-0.86687,0.0,0.0
4387,1096.5,46.8844,49.781,146.966,103.424,114.777,0.00334891,0.204704,20.791,151.457,-0.954485,0.0,0.0
4494,1123.25,47.3517,49.6306,144.897,103.795,115.83,0.00344993,0.205469,20.7866,150.036,-1.0053,0.0,0.0
4601,1150,47.4137,50.0772,139.506,104.2,114.403,0.00340999,0.205473,20.7864,148.635,-0.855939,0.0,0.0
4708,1176.75,47.766,49.5501,140.718,104.522,115.464,0.0036476,0.205592,20.7878,147.203,-0.912371,0.0,0.0
4815,1203.5,47.7669,50.2389,145.184,104.643,116.624,0.0033255,0.206829,20.7876,145.772,-0.993343,0.0,0.0
4922,1230.25,47.8395,50.4179,143.375,104.688,116.294,0.00308642,0.206239,20.7868,144.391,-0.963425,0.0,0.0
5029,1257,47.7907,50.1429,144.426,104.702,116.758,0.00347889,0.208279,20.7856,142.96,-0.998718,0.0,0.0
5136,1283.75,47.0851,50.1056,147.015,104.633,116.223,0.00320967,0.206176,20.7866,141.578,-0.962637,0.0,0.0
5243,1310.5,47.4376,49.9915,143.658,104.524,116.419,0.00329674,0.203602,20.7906,140.207,-0.987596,0.0,0.0
5350,1337.25,47.4997,50.2013,145.202,104.274,114.849,0.00336216,0.206699,20.7872,138.826,-0.885173,0.0,0.0
5457,1364,47.5659,50.0824,145.212,103.982,113.867,0.00325213,0.204936,20.7893,137.485,-0.832193,0.0,0.0
5564,1390.75,47.0316,50.0937,141.258,103.994,114.403,0.00365665,0.204723,20.7883,136.123,-0.874123,0.0,0.0
5671,1417.5,47.6978,50.0309,141.738,104.304,116.026,0.00322168,0.205656,20.7898,134.792,-0.975968,0.0,0.0
5778,1444.25,47.2513,49.8617,146.041,104.095,114.902,0.00367687,0.203746,20.7932,133.451,-0.905106,0.0,0.0
5885,1471,47.3192,49.7491,143.453,103.414,114.117,0.00343961,0.20127,20.7935,132.12,-0.90249,0.0,0.0
5992,1497.75,46.7837,49.7249,144.012,103.642,115.054,0.00342224,0.201293,20.7933,130.798,-0.957241,0.0,0.0
6099,1524.5,46.4139,49.569,143.917,103.93,115.687,0.00344135,0.200514,20.7949,129.477,-0.982072,0.0,0.0
6206,1551.25,46.7228,49.3829,140.638,104.033,116.258,0.00329147,0.200667,20.7936,128.166,-1.01812,0.0,0.0
6313,1578,47.0472,49.6459,143.014,103.753,114.572,0.00358326,0.203347,20.7941,126.875,-0.908949,0.0,0.0
6420,1604.75,47.3955,50.1137,147.69,103.162,113.466,0.00322082,0.204986,20.7911,125.524,-0.872367,0.0,0.0
6527,1631.5,47.4113,50.1574,143.11,102.794,112.922,0.00318719,0.207516,20.7912,124.193,-0.861063,0.0,0.0
6634,1658.25,47.4685,50.1495,147.47,102.715,113.519,0.0028598,0.210071,20.786,122.851,-0.91653,0.0,0.0
6741,1685,47.9657,50.4682,141.258,102.709,113.395,0.00310009,0.215852,20.7784,121.48,-0.906972,0.0,0.0
6848,1711.75,48.4424,50.953,141.514,102.844,115.687,0.00316638,0.218097,20.7785,120.089,-1.07832,0.0,0.0
6955,1738.5,48.7014,51.219,145.297,103.273,114.421,0.00278611,0.219406,20.7778,118.678,-0.939328,0.0,0.0
7062,1765.25,48.7548,51.5649,142.077,103.853,115.634,0.00281997,0.227455,20.7659,117.216,-0.984653,0.0,0.0
7169,1792,49.7209,52.3209,138.358,104.336,116.767,0.00256243,0.234977,20.756,115.695,-1.03143,0.0,0.0
7276,1818.75,50.3198,53.5064,143.956,104.652,116.696,0.00260199,0.243032,20.7491,114.153,-0.998168,0.0,0.0
7383,1845.5,51.2279,54.0999,139.233,104.597,116.053,0.00248518,0.251195,20.7385,112.512,-0.952352,0.0,0.0
7490,1872.25,51.861,54.9146,142.155,104.158,118.319,0.00254832,0.260671,20.7259,110.78,-1.16818,0.0,0.0
7597,1899,52.7311,56.0088,140.437,103.832,117.275,0.00241834,0.272233,20.7138,108.909,-1.11566,0.0,0.0
7704,1925.75,53.7789,57.227,139.496,104.189,117.838,0.00237004,0.279611,20.7073,107.027,-1.12802,0.0,0.0
7811,1952.5,54.9215,58.3851,138.037,104.3,119.39,0.00200103,0.293536,20.6904,105.005,-1.23824,0.0,0.0
7918,1979.25,56.0696,59.7682,138.458,104.31,121.156,0.00258845,0.307106,20.672,102.893,-1.37193,0.0,0.0
8025,2006,57.4663,61.1155,137.383,103.887,119.988,0.00266277,0.316008,20.6608,100.621,-1.32033,0.0,0.0
8132,2032.75,59.1524,63.0062,135.923,104.669,123.699,0.00228059,0.339254,20.6359,98.289,-1.53072,0.0,0.0
8239,2059.5,60.605,64.8693,135.936,103.12,120.621,0.00288976,0.345579,20.6273,95.8268,-1.4365,0.0,0.0
8346,2086.25,61.2928,65.3946,137.491,103.787,119.997,0.00234748,0.337729,20.633,93.3646,-1.32979,0.0,0.0
8453,2113,60.7074,65.2948,137.241,104.151,120.951,0.00256218,0.311836,20.6603,91.2527,-1.37037,0.0,0.0
8560,2139.75,58.915,63.5111,136.04,104.665,120.612,0.00265816,0.278953,20.6959,89.391,-1.29948,0.0,0.0
8667,2166.5,56.6338,60.924,139.203,103.277,118.132,0.00340677,0.239856,20.7396,88.0097,-1.23143,0.0,0.0
8774,2193.25,53.3078,57.6934,148.723,103.946,118.319,0.00416139,0.204032,20.783,86.8987,-1.18678,0.0,0.0
8881,2220,50.6412,54.1663,144.933,104.552,116.615,0.0059875,0.179305,20.8125,86.0279,-1.00061,0.0,0.0
8988,2246.75,48.2293,51.5901,146.424,103.864,115.75,0.00647904,0.162571,20.8348,85.4374,-0.992865,0.0,0.0
9095,2273.5,46.4643,49.0228,146.76,104,114.867,0.00799173,0.151178,20.8445,84.9069,-0.910683,0.0,0.0
9202,2300.25,45.2971,47.5037,144.594,103.792,114.697,0.00839543,0.156318,20.8351,84.4265,-0.91548,0.0,0.0
9309,2327,43.394,45.4199,143.884,103.598,112.369,0.00849562,0.147433,20.8482,83.936,-0.744697,0.0,0.0
9416,2353.75,43.2234,45.1886,148.534,103.649,111.566,0.00789099,0.147715,20.8459,83.5157,-0.674473,0.0,0.0
9523,2380.5,42.8724,44.5397,149.886,104.228,112.092,0.00858103,0.14657,20.8482,83.0753,-0.666531,0.0,0.0
9630,2407.25,42.2237,44.0627,147.731,103.986,111.905,0.00795512,0.144092,20.8499,82.6849,-0.672489,0.0,0.0
9737,2434,41.7267,43.5858,143.449,104.561,111.833,0.0082764,0.143551,20.8534,82.3146,-0.616143,0.0,0.0
9844,2460.75,41.0957,42.3308,145.898,104.67,113.109,0.00833916,0.142353,20.854,81.9042,-0.710558,0.0,0.0
9951,2487.5,40.2924,42.1785,142.954,104.68,113.591,0.00818614,0.140419,20.856,81.5439,-0.748576,0.0,0.0
10058,2514.25,40.0102,41.6661,147.021,104.665,111.771,0.00814668,0.139479,20.8577,81.1936,-0.601942,0.0,0.0
10165,2541,39.9968,41.8383,148.005,104.613,111.717,0.00829197,0.137951,20.8587,80.8232,-0.602093,0.0,0.0
10269,2567,39.6158,41.4226,149.637,104.586,111.057,,,,80.4629,-0.550125,0.0,0.0