File: 01_Data/Wood_Stud/Cone/Wood_Stud_Cone_HF25Scan_221004_R2.csv
Names,Time,Stack TC,Smoke TC,Exh Press,Smoke Comp,Smoke Meas,CO Meter,CO2 Meter,O2 Meter,Sample Mass,Ext Coeff,Start Test,Flame Verif
Chan Gain,,500,500,1,1,1,1,1,1,1,1,1.0,1.0
Offset,,0,0,0.140306,0,0,0,0,0,0,0,0.0,0.0
Gain,,1,1,25.011,14.0162,15.5607,1,1,1,1.0009,1.02981,1.0,1.0
Units,sec,C,C,Pa,%,%,%,%,%,g,/m,,
Baseline,,20.2478,21.027,157.767,104.579,5.39114,-0.000586187,0.0820809,20.973,-2.96342,26.7859,,
130,32.25,19.9391,20.9677,155.931,104.561,5.36419,-0.000553595,0.0850646,20.9657,673.818,26.8296,0.0,0.0
260,64.75,20.2087,21.1066,159.437,105.329,5.34283,-0.000166282,0.0877121,20.9638,673.348,26.9317,0.0,0.0
390,97.25,20.2357,21.2564,159.3,104.331,5.264,0.00124708,0.094311,20.9557,672.657,26.98,0.0,0.0
520,129.75,20.7873,20.9177,158.278,103.344,5.16665,0.00192558,0.0918826,20.9602,671.816,27.0628,0.0,0.0
650,162.25,32.2647,31.1269,135.202,103.51,5.75787,0.00336322,0.568826,20.3778,669.024,26.0985,0.0,0.0
780,194.75,39.0076,40.764,148.991,104.02,5.61066,0.00105191,0.32232,20.685,665.421,26.3769,0.0,0.0
910,227.25,37.6832,40.8719,150.363,104.034,5.6325,0.0012619,0.259336,20.7576,662.898,26.343,0.0,0.0
1040,259.75,35.8719,38.4939,150.297,103.548,5.64105,0.00094103,0.240944,20.7789,660.786,26.287,0.0,0.0
1170,292.25,34.7704,37.5715,149.972,103.413,5.67001,0.00134182,0.232043,20.7899,658.785,26.2289,0.0,0.0
1300,324.75,33.6236,36.664,152.212,104.234,5.68616,0.00137578,0.228871,20.7942,656.863,26.2747,0.0,0.0
1430,357.25,33.0691,35.8577,149.737,105.197,5.77401,0.00160432,0.224276,20.8002,655.031,26.2193,0.0,0.0
1560,389.75,32.7115,35.2305,150.64,105.178,5.73175,0.00223397,0.22136,20.801,653.29,26.284,0.0,0.0
1690,422.25,32.4335,34.7271,150.146,104.574,5.68426,0.00247563,0.219801,20.8052,651.558,26.3071,0.0,0.0
1820,454.75,32.4199,34.5444,152.328,104.99,5.74694,0.00303734,0.217491,20.8077,649.847,26.2439,0.0,0.0
1950,487.25,32.0517,33.7681,154.218,104.197,5.67951,0.00411188,0.210006,20.8159,648.195,26.2821,0.0,0.0
2080,519.75,31.257,33.4531,151.646,104.652,5.67334,0.00431196,0.201187,20.8246,646.624,26.3312,0.0,0.0
2210,552.25,31.0457,32.7326,148.672,103.472,5.57741,0.00498642,0.198475,20.8264,645.092,26.3829,0.0,0.0
2340,584.75,30.803,32.3253,151.155,104.171,5.63582,0.00477173,0.197639,20.8278,643.561,26.3495,0.0,0.0
2470,617.25,30.9213,32.7373,153.133,105.327,5.72653,0.00424865,0.198452,20.8226,642.039,26.3051,0.0,0.0
2600,649.75,30.4584,31.8416,150.005,104.84,5.66622,0.00498487,0.195324,20.8287,640.568,26.3588,0.0,0.0
2730,682.25,30.696,32.0458,153.653,104.961,5.63202,0.00372097,0.202418,20.8207,639.047,26.4239,0.0,0.0
2860,714.75,31.2247,32.5379,151.593,104.337,5.59878,0.00321951,0.208221,20.8142,637.435,26.4235,0.0,0.0
2990,747.25,31.0484,33.1416,151.775,104.478,5.66906,0.00289897,0.212898,20.809,635.814,26.323,0.0,0.0
3120,779.75,31.968,33.3895,152.758,103.43,5.64865,0.00264005,0.208699,20.8166,634.192,26.2645,0.0,0.0
3250,812.25,31.5441,32.9901,150.846,103.656,5.67049,0.00293867,0.20594,20.8187,632.591,26.2494,0.0,0.0
3380,844.75,31.809,33.192,155.541,105.006,5.68711,0.00315409,0.202543,20.8218,631.03,26.3398,0.0,0.0
3510,877.25,31.0944,32.5665,157.225,105.238,5.75122,0.00350948,0.200679,20.823,629.518,26.2585,0.0,0.0
3640,909.75,30.8061,32.438,155.558,104.461,5.68664,0.00354846,0.198957,20.8246,627.987,26.2936,0.0,0.0
3770,942.25,30.4551,32.1579,153.459,104.942,5.67096,0.00387445,0.206446,20.8208,626.485,26.3601,0.0,0.0
3900,974.75,30.3391,32.0053,154.451,104.207,5.60733,0.00410579,0.202894,20.8184,624.944,26.3984,0.0,0.0
4030,1007.25,31.0591,32.3258,149.624,104.607,5.69803,0.00392725,0.203799,20.82,623.433,26.2881,0.0,0.0
4160,1039.75,30.4326,31.8771,150.248,104.404,5.59973,0.00427337,0.201693,20.8239,621.901,26.4278,0.0,0.0
4290,1072.25,30.6933,32.2472,153.289,104.045,5.70278,0.00445398,0.203404,20.8197,620.35,26.2319,0.0,0.0
4420,1104.75,30.6385,32.2732,150.608,103.418,5.57694,0.00472122,0.199989,20.8226,618.809,26.3789,0.0,0.0
4550,1137.25,29.9384,31.5248,154.196,103.356,5.66574,0.00497634,0.19481,20.8299,617.267,26.2308,0.0,0.0
4680,1169.75,30.1529,31.7869,151.343,104.384,5.642,0.00579146,0.185021,20.8444,615.766,26.3581,0.0,0.0
4810,1202.25,30.3958,32.103,149.494,104.275,5.7308,0.00639544,0.177877,20.8545,614.244,26.2076,0.0,0.0
4940,1234.75,30.6615,32.0832,152.321,105.227,5.75074,0.00624748,0.177842,20.8568,612.763,26.2583,0.0,0.0
5070,1267.25,30.0545,31.6168,153.308,103.267,5.58929,0.00594453,0.17975,20.8535,611.252,26.3457,0.0,0.0
5200,1299.75,29.921,31.8243,153.281,104.106,5.66669,0.00591529,0.178626,20.8556,609.78,26.2946,0.0,0.0
5330,1332.25,29.5692,31.0929,154.571,105.226,5.70183,0.00614434,0.176887,20.8552,608.299,26.3354,0.0,0.0
5460,1364.75,29.5525,30.9532,152.667,104.613,5.68189,0.00586724,0.174327,20.861,606.868,26.3142,0.0,0.0
5590,1397.25,29.7063,31.0316,150.401,105.128,5.69946,0.00589003,0.173179,20.8645,605.456,26.3307,0.0,0.0
5720,1429.75,30.0594,31.0509,150.275,104.217,5.72273,0.00535431,0.176453,20.8618,604.025,26.2153,0.0,0.0
5850,1462.25,30.1422,31.6953,151.801,104.696,5.71228,0.00540135,0.178274,20.8582,602.554,26.2732,0.0,0.0
5980,1494.75,30.283,31.7579,155.735,104.977,5.73127,0.00601779,0.186616,20.8466,601.103,26.2675,0.0,0.0
6110,1527.25,29.7673,31.2488,151.24,103.419,5.59641,0.0055418,0.182037,20.8497,599.721,26.3475,0.0,0.0
6240,1559.75,29.9471,31.9208,155.935,104.276,5.623,0.00483875,0.187062,20.8443,598.27,26.3792,0.0,0.0
6370,1592.25,30.2398,31.5855,154.007,104.756,5.63107,0.00434438,0.182396,20.8521,596.899,26.4077,0.0,0.0
6500,1624.75,30.2512,31.8464,153.607,104.458,5.65529,0.00524628,0.179224,20.8565,595.517,26.3432,0.0,0.0
6630,1657.25,29.9901,31.608,150.919,104.196,5.59166,0.00558133,0.178361,20.8542,594.126,26.4228,0.0,0.0
6760,1689.75,29.2054,30.7375,154.287,104.098,5.56032,0.0060323,0.177689,20.856,592.745,26.4651,0.0,0.0
6890,1722.25,29.1544,31.0455,152.832,104.305,5.55794,0.00525086,0.177747,20.8538,591.404,26.4869,0.0,0.0
7020,1754.75,29.6464,31.0816,151.626,104.195,5.55415,0.0051202,0.17691,20.8544,590.053,26.4835,0.0,0.0
7150,1787.25,29.3815,30.9012,150.154,104.205,5.60638,0.00534497,0.179082,20.8493,588.721,26.3999,0.0,0.0
7280,1819.75,29.6191,30.8728,152.984,104.519,5.59071,0.00514323,0.184371,20.843,587.42,26.4523,0.0,0.0
7410,1852.25,29.395,31.0651,150.501,104.748,5.67904,0.00523925,0.181328,20.8487,586.069,26.3304,0.0,0.0
7540,1884.75,29.1116,30.6345,152.897,104.671,5.58454,0.00532513,0.183578,20.8413,584.788,26.4754,0.0,0.0
7670,1917.25,28.6952,30.8216,151.902,104.075,5.61018,0.00516289,0.179786,20.8486,583.507,26.3824,0.0,0.0
7800,1949.75,28.8666,30.4591,156.395,103.439,5.53515,0.00476747,0.18229,20.8445,582.185,26.4487,0.0,0.0
7930,1982.25,29.3448,31.1347,148.438,104.595,5.63345,0.00397744,0.183924,20.8438,580.864,26.3901,0.0,0.0
8060,2014.75,28.818,30.5324,148.783,105.365,5.71133,0.00391776,0.188703,20.837,579.593,26.3323,0.0,0.0
8190,2047.25,29.3277,30.8593,151.357,104.904,5.6439,0.00381386,0.191339,20.8349,578.262,26.4,0.0,0.0
8320,2079.75,29.7737,31.3998,155.025,104.289,5.61303,0.00415706,0.192083,20.8345,576.961,26.3964,0.0,0.0
8450,2112.25,29.7079,31.5018,151.864,104.479,5.63013,0.00381606,0.189158,20.8375,575.62,26.3853,0.0,0.0
8580,2144.75,30.0252,31.721,152.039,103.411,5.54322,0.00328587,0.193902,20.834,574.318,26.433,0.0,0.0
8710,2177.25,30.1799,32.0345,148.535,104.959,5.66954,0.0034671,0.192829,20.8331,572.957,26.3638,0.0,0.0
8840,2209.75,30.619,32.3067,152.636,105.066,5.67904,0.00305046,0.199457,20.8249,571.616,26.3578,0.0,0.0
8970,2242.25,31.1706,32.5905,152.655,105.037,5.75977,0.00312193,0.205244,20.8202,570.205,26.2278,0.0,0.0
9100,2274.75,31.8471,33.4279,150.574,104.252,5.67714,0.0022993,0.21286,20.8142,568.733,26.2906,0.0,0.0
9230,2307.25,31.7826,33.4908,153.615,104.683,5.69281,0.00304268,0.214949,20.8104,567.212,26.303,0.0,0.0
9360,2339.75,32.9499,34.9392,147.838,103.49,5.69851,0.00262745,0.226338,20.7943,565.671,26.1904,0.0,0.0
9490,2372.25,33.0526,34.8573,152.892,104.075,5.68901,0.00222184,0.230272,20.7912,564.019,26.2564,0.0,0.0
9620,2404.75,34.0841,35.7928,156.867,105.383,5.76451,0.00199398,0.23202,20.7893,562.368,26.2501,0.0,0.0
9750,2437.25,34.3446,36.7049,147.628,104.883,5.74125,0.00183381,0.23515,20.7859,560.616,26.2437,0.0,0.0
9880,2469.75,35.4235,36.9004,148.704,105.039,5.78778,0.0020309,0.239791,20.7828,558.824,26.1842,0.0,0.0
10010,2502.25,35.439,37.3461,152.117,104.236,5.75454,0.00178249,0.247362,20.7704,556.963,26.1669,0.0,0.0
10140,2534.75,36.0583,38.4297,152.116,104.481,5.80298,0.00150889,0.263727,20.7522,555.031,26.1124,0.0,0.0
10270,2567.25,36.7561,39.2332,149.259,104.704,5.84667,0.00140406,0.27237,20.7422,553.009,26.0639,0.0,0.0
10400,2599.75,37.7044,39.8074,148.192,104.235,5.85474,0.00147231,0.263183,20.7532,550.957,26.0109,0.0,0.0
10530,2632.25,38.2196,40.4481,151.726,103.649,5.81533,0.00180521,0.269184,20.7438,548.825,26.021,0.0,0.0
10660,2664.75,38.3596,40.7364,148.841,103.321,5.81628,0.00124686,0.274257,20.741,546.653,25.9908,0.0,0.0
10790,2697.25,39.0855,41.7168,145.226,103.824,5.89083,0.00129089,0.277515,20.7309,544.491,25.9196,0.0,0.0
10920,2729.75,39.9522,42.2964,147.336,104.703,5.93642,0.0016083,0.275416,20.734,542.299,25.9262,0.0,0.0
11050,2762.25,39.6138,41.9692,146.729,105.264,5.90793,0.00138383,0.273628,20.7359,540.188,26.0179,0.0,0.0
11180,2794.75,39.7933,41.9491,151.53,105.38,5.87421,0.00166614,0.270269,20.7358,538.166,26.0796,0.0,0.0
11310,2827.25,39.1566,41.5725,150.521,105.049,5.82103,0.00139005,0.260954,20.7464,536.254,26.1333,0.0,0.0
11440,2859.75,38.531,41.0583,153.045,104.578,5.77544,0.00234474,0.250413,20.7599,534.542,26.1637,0.0,0.0
11570,2892.25,36.8681,38.8504,147.72,105.009,5.84904,0.00268375,0.224104,20.7852,533.111,26.0865,0.0,0.0
11700,2924.75,34.4557,36.9694,152.027,104.871,5.75027,0.00434022,0.198909,20.813,531.95,26.2284,0.0,0.0
11830,2957.25,32.2734,34.6126,151.338,104.228,5.69756,0.00512504,0.180595,20.841,531.029,26.2561,0.0,0.0
11960,2989.75,30.7221,32.0073,154.393,104.237,5.58406,0.00650426,0.168938,20.8561,530.289,26.4387,0.0,0.0
12090,3022.25,28.7231,30.3024,152.971,104.449,5.58359,0.00863501,0.153616,20.8712,529.668,26.4577,0.0,0.0
12220,3054.75,26.5004,27.7992,156.082,104.652,5.58359,0.00946788,0.146924,20.8822,529.108,26.4753,0.0,0.0
12350,3087.25,26.0252,26.5756,158.615,104.608,5.57836,0.00881471,0.146385,20.8837,528.597,26.4799,0.0,0.0
12480,3119.75,26.5691,26.7892,155.201,104.352,5.54085,0.00900005,0.148347,20.8753,528.097,26.5188,0.0,0.0
12610,3152.25,26.2287,27.3488,156.258,104.79,5.61588,,,,527.626,26.4351,0.0,0.0
12628,3156.75,26.2599,27.1298,151.607,105.038,5.64532,,,,527.556,26.4092,0.0,0.0