File: 01_Data/Wood_Stud/Cone/Wood_Stud_Cone_HF50Scan_221004_R2.csv
Names,Time,Stack TC,Smoke TC,Exh Press,Smoke Comp,Smoke Meas,CO Meter,CO2 Meter,O2 Meter,Sample Mass,Ext Coeff,Start Test,Flame Verif
Chan Gain,,500,500,1,1,1,1,1,1,1,1,1.0,1.0
Offset,,0,0,0.136221,0,0,0,0,0,0,0,0.0,0.0
Gain,,1,1,25.011,13.9274,292.346,1,1,1,1.00091,1.04463,1.0,1.0
Units,sec,C,C,Pa,%,%,%,%,%,g,/m,,
Baseline,,34.2429,35.56,151.68,104.483,105.848,0.000509548,0.0608702,20.9574,-443.393,-0.118807,,
99,24.5,38.5942,37.5851,126.038,103.538,115.58,0.00415765,0.545077,20.3976,223.623,-1.0082,0.0,0.0
198,49.25,52.8081,54.3899,135.533,103.842,112.895,0.00402445,0.411325,20.547,219.919,-0.765968,0.0,0.0
297,74,55.4626,58.8334,133.047,103.99,113.885,0.0033854,0.348725,20.6204,216.927,-0.832955,0.0,0.0
396,98.75,55.8182,60.2111,138.964,103.371,112.975,0.00281973,0.315061,20.6597,214.354,-0.814134,0.0,0.0
495,123.5,55.3672,59.6196,139.966,102.731,113.983,0.00211736,0.290618,20.6913,211.982,-0.952424,0.0,0.0
594,148.25,53.634,58.2287,140.415,103.304,115.991,0.00194038,0.278637,20.703,209.83,-1.06147,0.0,0.0
693,173,53.3727,57.9576,139.494,104.327,117.677,0.00196112,0.271674,20.7152,207.758,-1.10342,0.0,0.0
792,197.75,53.0701,57.6282,141.547,104.675,118.31,0.00179192,0.269068,20.7176,205.716,-1.12209,0.0,0.0
891,222.5,52.9515,56.5848,143.081,104.342,115.955,0.00179874,0.256368,20.7324,203.715,-0.966969,0.0,0.0
990,247.25,51.5553,56.6308,139.544,103.787,117.418,0.00192357,0.252663,20.7375,201.843,-1.13079,0.0,0.0
1089,272,51.7275,55.6716,141.669,104.251,117.168,0.001802,0.246948,20.7441,199.981,-1.07035,0.0,0.0
1188,296.75,51.0061,55.4471,145.494,103.587,115.464,0.00200747,0.243459,20.7477,198.2,-0.99468,0.0,0.0
1287,321.5,51.0301,54.1865,143.678,103.607,116.08,0.00148352,0.237278,20.7544,196.438,-1.04168,0.0,0.0
1386,346.25,50.5335,53.9965,139.355,103.988,116.829,0.0016834,0.230224,20.761,194.756,-1.06699,0.0,0.0
1485,371,50.3557,53.6068,143.191,103.915,116.651,0.00196459,0.228431,20.7641,193.065,-1.05939,0.0,0.0
1584,395.75,50.0193,53.2266,142.881,103.537,117.186,0.00167532,0.233358,20.7599,191.393,-1.1348,0.0,0.0
1683,420.5,50.2928,53.4881,147.502,102.984,116.267,0.0016156,0.234227,20.7565,189.662,-1.11169,0.0,0.0
1782,445.25,49.956,53.1664,141.147,102.706,115.902,0.00187983,0.234343,20.7573,187.95,-1.10762,0.0,0.0
1881,470,50.2543,53.222,139.914,103.007,115.714,0.00152379,0.231565,20.7609,186.299,-1.06599,0.0,0.0
1980,494.75,50.3751,53.4429,140.363,103.345,117.472,0.00177215,0.229051,20.765,184.647,-1.17408,0.0,0.0
2079,519.5,49.7253,53.0012,144.451,103.66,117.597,0.0016123,0.229033,20.7637,183.036,-1.15589,0.0,0.0
2178,544.25,49.9288,52.931,144.974,103.965,116.25,0.00173712,0.228482,20.768,181.424,-1.02345,0.0,0.0
2277,569,50.104,53.065,144.923,104.001,116.071,0.00143773,0.225877,20.7701,179.753,-1.00619,0.0,0.0
2376,593.75,49.7583,52.5778,143.952,103.948,115.134,0.00149062,0.222932,20.7719,178.181,-0.936542,0.0,0.0
2475,618.5,49.4273,52.3127,148.801,104.039,116.214,0.0020841,0.220329,20.7722,176.62,-1.01405,0.0,0.0
2574,643.25,49.7141,52.0496,138.385,104.273,115.955,0.00183081,0.220192,20.7744,175.039,-0.973055,0.0,0.0
2673,668,49.4144,51.9761,141.824,104.544,117.606,0.00184797,0.224309,20.7693,173.487,-1.07881,0.0,0.0
2772,692.75,49.3995,52.2565,141.703,104.658,118.81,0.00168687,0.229062,20.7648,171.846,-1.16216,0.0,0.0
2871,717.5,49.7857,52.6627,141.241,104.57,117.739,0.00164834,0.231523,20.7617,170.184,-1.08696,0.0,0.0
2970,742.25,49.9628,52.7481,138.239,104.28,116.169,0.00197641,0.229285,20.7636,168.543,-0.989401,0.0,0.0
3069,767,49.8713,52.4114,143.02,103.988,117.106,0.00173361,0.223021,20.7716,166.931,-1.08862,0.0,0.0
3168,791.75,49.322,52.3446,143.886,103.849,115.928,0.00174952,0.21971,20.7744,165.39,-1.00833,0.0,0.0
3267,816.5,49.5567,52.1019,142.946,104.265,116.053,0.00172379,0.217812,20.7775,163.848,-0.981517,0.0,0.0
3366,841.25,49.2107,52.3103,148.258,103.965,117.989,0.0017904,0.217569,20.7762,162.307,-1.15949,0.0,0.0
3465,866,49.5842,52.078,147.184,103.353,116.062,0.00192807,0.221469,20.7734,160.786,-1.06274,0.0,0.0
3564,890.75,49.3936,52.3335,141.736,103.458,116.481,0.00172219,0.219765,20.7748,159.194,-1.08648,0.0,0.0
3663,915.5,49.1062,51.9031,143.008,103.581,114.403,0.00199879,0.213721,20.782,157.663,-0.91056,0.0,0.0
3762,940.25,48.9271,51.6818,143.15,103.741,114.965,0.00196439,0.207777,20.7863,156.232,-0.941381,0.0,0.0
3861,965,48.7803,50.999,143.504,103.854,115.366,0.00196192,0.204106,20.7891,154.81,-0.963269,0.0,0.0
3960,989.75,48.0047,50.9991,139.758,103.83,115.393,0.00218611,0.205691,20.7909,153.429,-0.967533,0.0,0.0
4059,1014.5,47.9476,50.3091,141.498,103.789,114.983,0.00226088,0.208859,20.7853,152.008,-0.938487,0.0,0.0
4158,1039.25,47.8932,50.7357,145.2,103.772,115.946,0.00181183,0.20782,20.7872,150.596,-1.01649,0.0,0.0
4257,1064,47.8803,50.5883,147.43,103.82,115.67,0.00199771,0.207326,20.7864,149.205,-0.990407,0.0,0.0
4356,1088.75,47.6355,50.2327,141.474,103.907,116.116,0.0021319,0.209067,20.7832,147.784,-1.01799,0.0,0.0
4455,1113.5,47.8844,50.963,143.599,103.982,117.026,0.00186361,0.20856,20.7867,146.393,-1.08293,0.0,0.0
4554,1138.25,47.7095,50.4605,142.904,103.988,115.58,0.00209658,0.205942,20.79,145.061,-0.968455,0.0,0.0
4653,1163,47.9711,50.3846,146.542,103.967,114.661,0.00236,0.203686,20.7906,143.7,-0.897182,0.0,0.0
4752,1187.75,47.4703,50.0574,142.982,103.985,115.464,0.00221864,0.202115,20.7947,142.379,-0.959517,0.0,0.0
4851,1212.5,47.4708,49.8053,141.002,103.969,115.732,0.00229941,0.20252,20.7933,141.058,-0.982194,0.0,0.0
4950,1237.25,47.2193,49.6857,142.491,103.976,117.052,0.00218878,0.206792,20.7909,139.727,-1.08555,0.0,0.0
5049,1262,47.615,50.0229,143.438,103.96,115.099,0.00214258,0.204859,20.791,138.365,-0.932689,0.0,0.0
5148,1286.75,47.3714,50.1853,148.369,103.894,115.072,0.00218017,0.206553,20.7916,137.024,-0.936404,0.0,0.0
5247,1311.5,47.8858,50.6723,141.98,103.683,114.956,0.00179527,0.206584,20.7928,135.653,-0.945738,0.0,0.0
5346,1336.25,47.6377,50.6222,142.127,103.39,114.599,0.00201993,0.207649,20.7895,134.292,-0.943166,0.0,0.0
5445,1361,47.7183,50.274,142.603,103.055,114.412,0.00189794,0.207082,20.7908,132.94,-0.957905,0.0,0.0
5544,1385.75,47.9998,50.5239,139.289,102.783,112.708,0.00182128,0.209628,20.7879,131.609,-0.844656,0.0,0.0
5643,1410.5,47.6375,50.1951,143.121,102.654,113.618,0.00223972,0.211863,20.7829,130.248,-0.929872,0.0,0.0
5742,1435.25,47.9021,50.9718,140.992,102.69,115.679,0.00224435,0.213802,20.779,128.917,-1.09137,0.0,0.0
5841,1460,48.1742,50.621,143.822,102.911,112.779,0.00173886,0.217964,20.7787,127.526,-0.839059,0.0,0.0
5940,1484.75,48.9398,51.736,147.736,103.185,114.456,0.00199344,0.219843,20.7771,126.114,-0.949958,0.0,0.0
6039,1509.5,49.0632,51.5444,142.511,103.477,116.722,0.00194527,0.223254,20.7713,124.673,-1.10368,0.0,0.0
6138,1534.25,48.8528,51.6888,142.27,103.826,117.606,0.001723,0.225295,20.7677,123.242,-1.14198,0.0,0.0
6237,1559,49.2948,52.4685,139.702,103.971,116.419,0.00212001,0.227117,20.7662,121.81,-1.03628,0.0,0.0
6336,1583.75,50.1249,52.523,141.04,104.05,117.597,0.00187971,0.229765,20.764,120.299,-1.12147,0.0,0.0
6435,1608.5,49.8191,52.5232,139.822,104.136,118.658,0.00208312,0.232387,20.7615,118.838,-1.19627,0.0,0.0
6534,1633.25,50.0968,53.1414,141.663,104.204,118.533,0.0020599,0.233412,20.7612,117.396,-1.18067,0.0,0.0
6633,1658,50.6861,53.8316,142.231,104.296,117.267,0.00204479,0.241803,20.7506,115.855,-1.0741,0.0,0.0
6732,1682.75,51.179,54.1745,141.476,104.372,117.275,0.00205222,0.249887,20.7409,114.203,-1.06811,0.0,0.0
6831,1707.5,51.7049,54.6537,145.613,104.425,119.176,0.00186734,0.258316,20.7308,112.512,-1.21074,0.0,0.0
6930,1732.25,53.2049,56.1264,141.798,104.463,118.962,0.00176103,0.271142,20.7177,110.68,-1.19094,0.0,0.0
7029,1757,54.391,57.4121,136.47,104.518,118.159,0.00191315,0.284023,20.703,108.809,-1.12408,0.0,0.0
7128,1781.75,54.8668,58.4126,141.306,104.482,119.319,0.00188283,0.285397,20.6983,106.797,-1.21671,0.0,0.0
7227,1806.5,55.329,58.8537,139.815,104.348,116.883,0.00226707,0.287367,20.6941,104.895,-1.03948,0.0,0.0
7326,1831.25,55.2732,59.1997,140.304,104.141,117.133,0.0021769,0.283193,20.6995,102.993,-1.07724,0.0,0.0
7425,1856,55.7437,59.294,141.625,103.974,116.838,0.00224782,0.282325,20.6985,101.132,-1.06889,0.0,0.0
7524,1880.75,56.2892,59.2925,136.723,103.972,118.221,0.00223408,0.288195,20.6878,99.2599,-1.17693,0.0,0.0
7623,1905.5,55.7129,59.4473,138.048,103.939,117.258,0.00239756,0.28779,20.689,97.4183,-1.10482,0.0,0.0
7722,1930.25,56.375,59.6345,139.567,104.15,117.864,0.00288557,0.29075,20.6837,95.6166,-1.13354,0.0,0.0
7821,1955,56.2027,59.3872,138.959,104.32,116.74,0.00338936,0.293659,20.676,93.825,-1.03078,0.0,0.0
7920,1979.75,56.3711,60.1997,140.195,104.402,117.49,0.00309564,0.295119,20.672,92.0434,-1.08222,0.0,0.0
8019,2004.5,56.1424,60.1702,142.522,104.527,116.446,0.00330107,0.270483,20.6962,90.3919,-0.989441,0.0,0.0
8118,2029.25,54.7193,58.2111,142.479,104.634,116.571,0.00372695,0.231091,20.744,89.1207,-0.989955,0.0,0.0
8217,2054,52.1973,55.8336,138.906,104.626,115.83,0.00379411,0.199713,20.7774,88.1398,-0.93223,0.0,0.0
8316,2078.75,49.2412,53.0613,144.745,104.591,115.857,0.00468503,0.179918,20.8038,87.4292,-0.937437,0.0,0.0
8415,2103.5,47.8238,50.7641,145.545,104.538,115.143,0.00524928,0.163991,20.8239,86.7786,-0.885467,0.0,0.0
8514,2128.25,45.822,47.8229,145.91,104.456,114.831,0.00609343,0.15369,20.8368,86.2882,-0.867739,0.0,0.0
8613,2153,44.1795,46.5994,147.415,104.483,114.322,0.00686204,0.150825,20.8387,85.8678,-0.824682,0.0,0.0
8712,2177.75,43.5539,45.6844,145.53,104.603,116.383,0.00708133,0.145603,20.8447,85.4474,-0.977859,0.0,0.0
8811,2202.5,42.9755,44.8709,147.405,104.001,114.305,0.00771877,0.146699,20.8463,85.0671,-0.865658,0.0,0.0
8910,2227.25,42.794,44.7313,153.13,102.66,113.02,0.00757369,0.141441,20.8522,84.6467,-0.880965,0.0,0.0
9009,2252,42.7503,44.2051,147.304,103.847,114.189,0.00784006,0.139924,20.8545,84.2763,-0.869923,0.0,0.0
9108,2276.75,41.3121,43.2824,147.324,103.622,115.179,0.00775844,0.139243,20.8569,83.946,-0.968949,0.0,0.0
9207,2301.5,41.0088,43.1265,148.962,104.257,113.858,0.00812077,0.138776,20.8546,83.5056,-0.807311,0.0,0.0
9306,2326.25,40.6305,41.9561,146.877,103.24,111.682,0.00796065,0.138398,20.8551,83.1453,-0.720213,0.0,0.0
9405,2351,40.2207,42.6699,143.094,103.905,113.653,0.00805859,0.138721,20.8551,82.785,-0.821728,0.0,0.0
9490,2372.25,40.0979,41.9629,145.338,104.045,114.162,,,,82.4647,-0.850277,0.0,0.0