File: 01_Data/Cotton_Raw/STA/N2/30K_min/Cotton_Raw_STA_N2_30KData_210708_R1.csv
##Temp./Â°C,Time/min,Mass loss(subtr.2)/mg,DSC(subtr.2)/(mW/mg),Sensit./(uV/mW)
50.47,10.00667,-0.08358,0.02920038,0.6235
52.87,11.46417,-0.09101274,0.0985278,0.62348
55.27,11.78817,-0.09107717,0.15039,0.62344
57.67,12.02139,-0.09036567,0.20117,0.62339
60.07,12.21401,-0.09276956,0.24298,0.62334
62.47,12.38235,-0.09465817,0.28062,0.62328
64.87,12.53606,-0.09326595,0.31949,0.62321
67.27,12.67919,-0.09708807,0.35004,0.62313
69.67,12.81564,-0.09716014,0.38485,0.62304
72.07,12.94572,-0.09814918,0.41447,0.62294
74.47,13.07195,-0.10088,0.44266,0.62284
76.87,13.1946,-0.10215,0.475,0.62272
79.27,13.31417,-0.10535,0.50296,0.6226
81.67,13.4307,-0.10635,0.54163,0.62247
84.07,13.54444,-0.1076,0.57386,0.62233
86.47,13.6559,-0.11024,0.60517,0.62218
88.87,13.76501,-0.11806,0.6355,0.62203
91.27,13.8716,-0.11934,0.65924,0.62186
93.67,13.97615,-0.12235,0.68141,0.62169
96.07,14.0786,-0.12635,0.70064,0.62151
98.47,14.1791,-0.12946,0.7138,0.62132
100.87,14.27765,-0.13086,0.72815,0.62112
103.27,14.3748,-0.13394,0.73596,0.62092
105.67,14.46991,-0.13832,0.74258,0.62071
108.07,14.5636,-0.13963,0.74479,0.62049
110.47,14.65574,-0.14102,0.74202,0.62026
112.87,14.7468,-0.14358,0.74135,0.62002
115.27,14.83639,-0.14534,0.73128,0.61978
117.67,14.9246,-0.14935,0.72637,0.61953
120.07,15.0117,-0.15199,0.71659,0.61927
122.47,15.09774,-0.15336,0.7018,0.619
124.87,15.18273,-0.15379,0.69152,0.61872
127.27,15.2666,-0.15477,0.68161,0.61844
129.67,15.34934,-0.15477,0.67237,0.61815
132.07,15.43125,-0.15652,0.65936,0.61785
134.47,15.51211,-0.15925,0.64652,0.61755
136.87,15.5923,-0.15993,0.63635,0.61723
139.27,15.67186,-0.16006,0.62604,0.61691
141.67,15.75048,-0.1614,0.61772,0.61659
144.07,15.8284,-0.16003,0.60502,0.61625
146.47,15.90576,-0.16268,0.608,0.61591
148.87,15.9825,-0.16392,0.60489,0.61556
151.27,16.05868,-0.16112,0.6031,0.6152
153.67,16.13433,-0.16323,0.60772,0.61484
156.07,16.20949,-0.16377,0.60809,0.61447
158.47,16.28445,-0.16213,0.61391,0.61409
160.87,16.3591,-0.16212,0.61722,0.6137
163.27,16.43308,-0.16475,0.61989,0.61331
165.67,16.50647,-0.16275,0.62799,0.61291
168.07,16.58026,-0.16344,0.63803,0.61251
170.47,16.65331,-0.16278,0.64022,0.6121
172.87,16.72599,-0.1627,0.64103,0.61168
175.27,16.7984,-0.16323,0.65257,0.61125
177.67,16.8704,-0.16212,0.65587,0.61082
180.07,16.94217,-0.16368,0.66895,0.61038
182.47,17.0132,-0.16497,0.67374,0.60993
184.87,17.08406,-0.1664,0.68042,0.60948
187.27,17.15494,-0.16773,0.69059,0.60902
189.67,17.2251,-0.1664,0.69341,0.60856
192.07,17.29491,-0.16725,0.70577,0.60809
194.47,17.36463,-0.16673,0.7168,0.60761
196.87,17.43393,-0.16672,0.72331,0.60712
199.27,17.5032,-0.16871,0.73295,0.60663
201.67,17.57195,-0.16671,0.74047,0.60614
204.07,17.64057,-0.16676,0.74094,0.60563
206.47,17.70871,-0.16805,0.75273,0.60513
208.87,17.77712,-0.16949,0.76841,0.60461
211.27,17.84507,-0.17198,0.77475,0.60409
213.67,17.91301,-0.17749,0.77855,0.60356
216.07,17.98067,-0.16975,0.79362,0.60303
218.47,18.04831,-0.17295,0.80467,0.60249
220.87,18.1157,-0.17582,0.80655,0.60195
223.27,18.18317,-0.1774,0.80684,0.6014
225.67,18.25035,-0.17932,0.81425,0.60084
228.07,18.31737,-0.17993,0.80667,0.60028
230.47,18.3843,-0.18207,0.80865,0.59972
232.87,18.45111,-0.18471,0.81605,0.59914
235.27,18.5178,-0.18738,0.821,0.59857
237.67,18.5841,-0.19199,0.8267,0.59798
240.07,18.65082,-0.19565,0.83673,0.59739
242.47,18.71708,-0.20178,0.85223,0.5968
244.87,18.78329,-0.20502,0.86366,0.5962
247.27,18.8495,-0.20976,0.89075,0.5956
249.67,18.91566,-0.2152,0.92501,0.59499
252.07,18.98185,-0.22063,0.93261,0.59437
254.47,19.04782,-0.22845,0.9457,0.59375
256.87,19.1138,-0.2534,0.93441,0.59313
259.27,19.17941,-0.26106,0.91453,0.5925
261.67,19.24524,-0.26106,0.88759,0.59186
264.07,19.31096,-0.26585,0.87073,0.59122
266.47,19.37633,-0.29084,0.85356,0.59058
268.87,19.4418,-0.29927,0.84409,0.58993
271.27,19.50737,-0.30469,0.8422,0.58928
273.67,19.5728,-0.33023,0.84728,0.58862
276.07,19.63826,-0.35266,0.85396,0.58796
278.47,19.70363,-0.36951,0.85812,0.58729
280.87,19.7692,-0.39509,0.86695,0.58662
283.27,19.83475,-0.40859,0.86855,0.58594
285.67,19.9003,-0.41844,0.88495,0.58526
288.07,19.9657,-0.44468,0.88805,0.58458
290.47,20.03086,-0.4698,0.89953,0.58389
292.87,20.09671,-0.49374,0.90145,0.58319
295.27,20.16217,-0.52128,0.90709,0.5825
297.67,20.22765,-0.55268,0.91402,0.58179
300.07,20.29318,-0.58247,0.92796,0.58109
302.47,20.35868,-0.61556,0.94084,0.58038
304.87,20.42406,-0.65336,0.95236,0.57966
307.27,20.48935,-0.70074,0.9691,0.57895
309.67,20.5546,-0.73427,0.98165,0.57823
312.07,20.62043,-0.7831,1.00889,0.5775
314.47,20.68595,-0.82988,1.03183,0.57677
316.87,20.75151,-0.87821,1.05274,0.57604
319.27,20.8169,-0.93583,1.07666,0.5753
321.67,20.8824,-0.99326,1.10222,0.57456
324.07,20.948,-1.05136,1.12521,0.57382
326.47,21.01353,-1.10915,1.14511,0.57307
328.87,21.07912,-1.1918,1.18191,0.57232
331.27,21.1447,-1.26824,1.21226,0.57157
333.67,21.2103,-1.35067,1.2528,0.57081
336.07,21.27581,-1.44403,1.294,0.57005
338.47,21.34132,-1.54467,1.34298,0.56929
340.87,21.40691,-1.65166,1.39155,0.56852
343.27,21.47208,-1.7761,1.44354,0.56775
345.67,21.53764,-1.91708,1.47449,0.56698
348.07,21.60269,-2.06678,1.44878,0.5662
350.47,21.66872,-2.24783,1.31664,0.56542
352.87,21.73453,-2.4095,1.12403,0.56464
355.27,21.8007,-2.53379,0.92226,0.56385
357.67,21.86713,-2.64444,0.74242,0.56307
360.07,21.93425,-2.71668,0.58127,0.56227
362.47,22.00124,-2.77133,0.43947,0.56148
364.87,22.06847,-2.81204,0.33122,0.56069
367.27,22.13574,-2.83796,0.26152,0.55989
369.67,22.20299,-2.85592,0.21281,0.55909
372.07,22.27028,-2.87667,0.17667,0.55828
374.47,22.33773,-2.88593,0.14817,0.55748
376.87,22.40503,-2.90177,0.13401,0.55667
379.27,22.4724,-2.92501,0.12231,0.55586
381.67,22.53985,-2.92796,0.10904,0.55504
384.07,22.6073,-2.93684,0.10014,0.55423
386.47,22.67495,-2.9491,0.09224376,0.55341
388.87,22.74271,-2.9634,0.08328949,0.55259
391.27,22.8105,-2.97156,0.07896321,0.55177
393.67,22.87839,-2.98393,0.07344117,0.55094
396.07,22.94641,-3.00207,0.07120781,0.55012
398.47,23.01446,-2.99188,0.05745203,0.54929
400.87,23.08269,-3.01063,0.04902168,0.54846
403.27,23.1509,-3.02226,0.04534381,0.54763
405.67,23.21929,-3.03229,0.03769818,0.54679
408.07,23.28773,-3.04398,0.03340737,0.54596
410.47,23.35633,-3.05547,0.02789843,0.54512
412.87,23.425,-3.06514,0.02261212,0.54428
415.27,23.4937,-3.06854,0.01474252,0.54344
417.67,23.56259,-3.07943,0.01143177,0.5426
420.07,23.6315,-3.08632,-0.005171409,0.54175
422.47,23.7005,-3.09591,-0.01283802,0.54091
424.87,23.7696,-3.10587,-0.02031718,0.54006
427.27,23.83869,-3.11736,-0.02897228,0.53921
429.67,23.90795,-3.12906,-0.03184358,0.53836
432.07,23.9774,-3.13724,-0.04364896,0.53751
434.47,24.0469,-3.14527,-0.05405025,0.53666
436.87,24.11637,-3.15428,-0.06347202,0.5358
439.27,24.18594,-3.16092,-0.08022304,0.53495
441.67,24.25579,-3.16685,-0.08686307,0.53409
444.07,24.32565,-3.18315,-0.09769241,0.53323
446.47,24.39568,-3.18221,-0.11443,0.53238
448.87,24.46571,-3.19332,-0.12716,0.53152
451.27,24.5357,-3.19744,-0.14145,0.53066
453.67,24.60603,-3.20603,-0.1562,0.5298
456.07,24.67642,-3.21574,-0.16402,0.52893
458.47,24.74671,-3.22774,-0.17534,0.52807
460.87,24.8172,-3.23024,-0.1819,0.52721
463.27,24.8879,-3.23683,-0.19348,0.52634
465.67,24.95867,-3.24205,-0.2006,0.52548
468.07,25.02948,-3.249,-0.21099,0.52461
470.47,25.1006,-3.25277,-0.21969,0.52374
472.87,25.17165,-3.25928,-0.22796,0.52288
475.27,25.24295,-3.26664,-0.22826,0.52201
477.67,25.3142,-3.27591,-0.23558,0.52114
480.07,25.38564,-3.2783,-0.23906,0.52027
482.47,25.45733,-3.28781,-0.24217,0.5194
484.87,25.52896,-3.28985,-0.2428,0.51853
487.27,25.6008,-3.29486,-0.2462,0.51766
489.67,25.67267,-3.29791,-0.2483,0.51679
492.07,25.7446,-3.30516,-0.24945,0.51592
494.47,25.81666,-3.30946,-0.25059,0.51505
496.87,25.88876,-3.31505,-0.24929,0.51418
499.27,25.96098,-3.32017,-0.24611,0.51331
501.67,26.0335,-3.32296,-0.24695,0.51244
504.07,26.10596,-3.32493,-0.25103,0.51157
506.47,26.17845,-3.32744,-0.24886,0.5107
508.87,26.25099,-3.33046,-0.24829,0.50983
511.27,26.32327,-3.33436,-0.25221,0.50895
513.67,26.3965,-3.33913,-0.25011,0.50808
516.07,26.46937,-3.34692,-0.25464,0.50721
518.47,26.5427,-3.35039,-0.25317,0.50634
520.87,26.6158,-3.35303,-0.2531,0.50547
523.27,26.6892,-3.35925,-0.24908,0.5046
525.67,26.76255,-3.35992,-0.25164,0.50373
528.07,26.836,-3.36141,-0.25719,0.50286
530.47,26.90952,-3.36532,-0.25704,0.50199
532.87,26.98307,-3.37011,-0.25348,0.50112
535.27,27.0567,-3.37274,-0.25853,0.50025
537.67,27.1306,-3.37569,-0.26349,0.49938
540.07,27.20451,-3.37827,-0.26422,0.49851
542.47,27.27842,-3.37828,-0.26086,0.49765
544.87,27.3523,-3.38171,-0.26197,0.49678
547.27,27.42646,-3.38513,-0.26337,0.49591
549.67,27.50062,-3.38557,-0.25985,0.49505
552.07,27.5749,-3.38896,-0.26074,0.49418
554.47,27.6493,-3.38897,-0.26424,0.49332
556.87,27.72373,-3.3902,-0.26592,0.49245
559.27,27.7982,-3.39755,-0.26927,0.49159
561.67,27.87286,-3.40181,-0.27742,0.49073
564.07,27.9474,-3.40346,-0.27487,0.48987
566.47,28.0222,-3.405,-0.27766,0.489
568.87,28.09712,-3.40827,-0.2796,0.48814
571.27,28.172,-3.41266,-0.27496,0.48728
573.67,28.24703,-3.41815,-0.28029,0.48643
576.07,28.322,-3.41684,-0.28468,0.48557
578.47,28.3973,-3.41893,-0.28703,0.48471
580.87,28.47255,-3.42199,-0.28951,0.48386
583.27,28.54774,-3.42205,-0.29199,0.483
585.67,28.62319,-3.42563,-0.2893,0.48215
588.07,28.69875,-3.42812,-0.29031,0.4813
590.47,28.7744,-3.42949,-0.32992,0.48044
592.87,28.84988,-3.43429,-0.34192,0.47959
595.27,28.9256,-3.43689,-0.3462,0.47875
597.67,29.0013,-3.441,-0.35054,0.4779
600.07,29.07722,-3.44261,-0.34831,0.47705
602.47,29.1531,-3.44425,-0.35721,0.47621
604.87,29.22901,-3.44943,-0.35626,0.47536
607.27,29.305,-3.45117,-0.3589,0.47452
609.67,29.3813,-3.45264,-0.35914,0.47368
612.07,29.4575,-3.45549,-0.35096,0.47284
614.47,29.53394,-3.45893,-0.3572,0.472
616.87,29.61021,-3.46137,-0.38987,0.47116
619.27,29.68683,-3.46204,-0.42785,0.47032
621.67,29.76339,-3.46714,-0.45885,0.46949
624.07,29.84,-3.4685,-0.47395,0.46865
626.47,29.9167,-3.4685,-0.47146,0.46782
628.87,29.99349,-3.47092,-0.46698,0.46699
629.07,29.9998,-3.47092,-0.4671,0.46692