File: 01_Data/Cotton_Raw/STA/N2/30K_min/Cotton_Raw_STA_N2_30KData_210709_R2.csv
##Temp./Â°C,Time/min,Mass loss(subtr.2)/mg,DSC(subtr.2)/(mW/mg),Sensit./(uV/mW)
50.627,10.00667,-0.03796,-0.007389115,0.6235
53.127,11.4881,-0.04319949,0.08096997,0.62347
55.627,11.81734,-0.04332132,0.13914,0.62343
58.127,12.05286,-0.0453982,0.18678,0.62338
60.627,12.2484,-0.04475096,0.23552,0.62333
63.127,12.4202,-0.04605382,0.27591,0.62326
65.627,12.5779,-0.04765888,0.31234,0.62318
68.127,12.72513,-0.04805027,0.35071,0.6231
70.627,12.8649,-0.04963695,0.38313,0.623
73.127,12.9991,-0.04983574,0.41619,0.6229
75.627,13.1291,-0.05345964,0.44263,0.62278
78.127,13.25542,-0.05349983,0.47006,0.62266
80.627,13.37868,-0.05649088,0.50361,0.62253
83.127,13.4988,-0.05775076,0.53658,0.62238
85.627,13.61611,-0.0606604,0.56835,0.62223
88.127,13.73051,-0.06320624,0.59649,0.62207
90.627,13.84249,-0.06642948,0.62829,0.62191
93.127,13.95204,-0.06888671,0.65154,0.62173
95.627,14.05925,-0.07112538,0.67665,0.62154
98.127,14.1646,-0.07544656,0.697,0.62135
100.627,14.2673,-0.07815713,0.72443,0.62114
103.127,14.3683,-0.07939268,0.7444,0.62093
105.627,14.4683,-0.08245855,0.75677,0.62071
108.127,14.5657,-0.08467879,0.76748,0.62048
110.627,14.66189,-0.08797029,0.77255,0.62024
113.127,14.75649,-0.08955946,0.77621,0.62
115.627,14.8497,-0.09235219,0.77621,0.61974
118.127,14.9417,-0.09367491,0.77544,0.61948
120.627,15.03239,-0.09651973,0.76836,0.6192
123.127,15.1218,-0.09651925,0.75983,0.61892
125.627,15.2101,-0.09735024,0.7546,0.61863
128.127,15.2972,-0.09994652,0.74719,0.61834
130.627,15.38308,-0.10134,0.73939,0.61803
133.127,15.46826,-0.10267,0.73304,0.61772
135.627,15.5524,-0.10292,0.72961,0.6174
138.127,15.6356,-0.10281,0.72369,0.61707
140.627,15.71786,-0.10409,0.71823,0.61673
143.127,15.7997,-0.1054,0.71569,0.61638
145.627,15.88039,-0.10539,0.71316,0.61603
148.127,15.9608,-0.10541,0.71944,0.61567
150.627,16.04038,-0.10578,0.72261,0.6153
153.127,16.11946,-0.10672,0.72155,0.61492
155.627,16.19804,-0.10672,0.72657,0.61454
158.127,16.27628,-0.1084,0.73425,0.61414
160.627,16.35386,-0.10805,0.74712,0.61374
163.127,16.4311,-0.10673,0.74933,0.61334
165.627,16.50796,-0.10755,0.76103,0.61292
168.127,16.58455,-0.10872,0.76472,0.6125
170.627,16.6607,-0.1087,0.77462,0.61207
173.127,16.7365,-0.10936,0.76195,0.61163
175.627,16.81194,-0.10934,0.77244,0.61119
178.127,16.88671,-0.11068,0.79059,0.61074
180.627,16.9614,-0.10936,0.80045,0.61028
183.127,17.03556,-0.11029,0.81304,0.60981
185.627,17.1093,-0.11067,0.82653,0.60934
188.127,17.18272,-0.11067,0.84295,0.60886
190.627,17.2558,-0.11199,0.85668,0.60837
193.127,17.32852,-0.11199,0.86326,0.60788
195.627,17.40081,-0.11238,0.88963,0.60738
198.127,17.47306,-0.1133,0.90236,0.60687
200.627,17.54489,-0.11463,0.90828,0.60635
203.127,17.61671,-0.1144,0.91832,0.60583
205.627,17.688,-0.11571,0.92093,0.60531
208.127,17.75911,-0.11535,0.92163,0.60477
210.627,17.83023,-0.11638,0.93753,0.60423
213.127,17.90105,-0.11736,0.93448,0.60368
215.627,17.97181,-0.11933,0.94834,0.60313
218.127,18.0423,-0.12066,0.9537,0.60257
220.627,18.11273,-0.12197,0.95766,0.602
223.127,18.18287,-0.1233,0.96524,0.60143
225.627,18.25284,-0.12651,0.97424,0.60085
228.127,18.32268,-0.12592,0.9802,0.60027
230.627,18.3924,-0.12732,0.98798,0.59968
233.127,18.46207,-0.13268,0.99353,0.59908
235.627,18.53146,-0.13535,1.0076,0.59848
238.127,18.60097,-0.13931,1.01354,0.59787
240.627,18.67013,-0.14462,1.02717,0.59726
243.127,18.7394,-0.14906,1.04503,0.59664
245.627,18.80848,-0.15405,1.07392,0.59601
248.127,18.87734,-0.15844,1.10004,0.59538
250.627,18.9463,-0.16699,1.13115,0.59474
253.127,19.0151,-0.17278,1.16399,0.5941
255.627,19.08372,-0.182,1.16875,0.59345
258.127,19.1524,-0.19193,1.15138,0.5928
260.627,19.22104,-0.20121,1.12985,0.59214
263.127,19.28952,-0.21296,1.10056,0.59148
265.627,19.35795,-0.22387,1.09291,0.59081
268.127,19.42613,-0.23763,1.08345,0.59013
270.627,19.4944,-0.25154,1.083,0.58945
273.127,19.56275,-0.26533,1.08224,0.58877
275.627,19.63113,-0.28086,1.09127,0.58808
278.127,19.6993,-0.29903,1.09335,0.58739
280.627,19.76748,-0.31623,1.10423,0.58669
283.127,19.8357,-0.33517,1.11081,0.58598
285.627,19.904,-0.35647,1.12296,0.58527
288.127,19.97225,-0.37711,1.13085,0.58456
290.627,20.04051,-0.40185,1.14196,0.58384
293.127,20.1084,-0.42814,1.14858,0.58312
295.627,20.17691,-0.45476,1.15904,0.58239
298.127,20.2452,-0.48269,1.1726,0.58166
300.627,20.31345,-0.51504,1.1792,0.58092
303.127,20.38168,-0.54741,1.1941,0.58018
305.627,20.44997,-0.5842,1.21227,0.57944
308.127,20.51819,-0.62289,1.22902,0.57869
310.627,20.5864,-0.66561,1.26275,0.57794
313.127,20.6547,-0.71128,1.27939,0.57718
315.627,20.72299,-0.76263,1.30698,0.57642
318.127,20.79126,-0.81188,1.32972,0.57565
320.627,20.85954,-0.87095,1.35248,0.57488
323.127,20.92774,-0.93078,1.37817,0.57411
325.627,20.99611,-0.99507,1.4062,0.57333
328.127,21.06446,-1.06423,1.43414,0.57255
330.627,21.1329,-1.13964,1.47007,0.57177
333.127,21.20137,-1.21924,1.51033,0.57098
335.627,21.26981,-1.31215,1.55159,0.57019
338.127,21.3382,-1.40261,1.6004,0.56939
340.627,21.40664,-1.51099,1.65615,0.5686
343.127,21.47499,-1.62646,1.7134,0.56779
345.627,21.54334,-1.76137,1.75863,0.56699
348.127,21.61157,-1.90977,1.76062,0.56618
350.627,21.67987,-2.08014,1.65718,0.56537
353.127,21.7485,-2.25108,1.45745,0.56455
355.627,21.81725,-2.3831,1.23726,0.56374
358.127,21.88666,-2.49052,1.02634,0.56291
360.627,21.95644,-2.57313,0.84637,0.56209
363.127,22.0264,-2.62782,0.70213,0.56126
365.627,22.0965,-2.66487,0.59084,0.56043
368.127,22.1667,-2.69017,0.52488,0.5596
370.627,22.23675,-2.7101,0.47613,0.55877
373.127,22.307,-2.72765,0.44404,0.55793
375.627,22.3772,-2.74026,0.42151,0.55709
378.127,22.44741,-2.75536,0.40519,0.55624
380.627,22.51765,-2.76514,0.39375,0.5554
383.127,22.58813,-2.77713,0.38684,0.55455
385.627,22.65855,-2.78907,0.37602,0.5537
388.127,22.7289,-2.79993,0.36825,0.55284
390.627,22.7997,-2.81152,0.36503,0.55199
393.127,22.87041,-2.82074,0.35553,0.55113
395.627,22.94109,-2.83208,0.34534,0.55027
398.127,23.01216,-2.84255,0.34008,0.54941
400.627,23.08292,-2.8527,0.33709,0.54854
403.127,23.1542,-2.86477,0.3252,0.54768
405.627,23.22534,-2.87135,0.31777,0.54681
408.127,23.2966,-2.88487,0.31024,0.54594
410.627,23.36796,-2.89325,0.3013,0.54506
413.127,23.43937,-2.90279,0.29865,0.54419
415.627,23.51088,-2.91305,0.29213,0.54331
418.127,23.5825,-2.9218,0.28009,0.54243
420.627,23.65426,-2.93351,0.27558,0.54156
423.127,23.7261,-2.94292,0.26424,0.54067
425.627,23.79799,-2.95145,0.25669,0.53979
428.127,23.87005,-2.95905,0.2443,0.53891
430.627,23.94225,-2.97056,0.2378,0.53802
433.127,24.01444,-2.98089,0.23062,0.53713
435.627,24.08682,-2.98896,0.21791,0.53625
438.127,24.15942,-2.99953,0.19671,0.53536
440.627,24.23185,-3.008,0.18353,0.53446
443.127,24.3047,-3.01561,0.1622,0.53357
445.627,24.37746,-3.02296,0.14512,0.53268
448.127,24.4504,-3.03102,0.13036,0.53178
450.627,24.5234,-3.03868,0.1139,0.53089
453.127,24.59666,-3.04686,0.1039,0.52999
455.627,24.66999,-3.05516,0.09280346,0.52909
458.127,24.74344,-3.06271,0.0806512,0.52819
460.627,24.81693,-3.06941,0.06806048,0.52729
463.127,24.8906,-3.07527,0.055273,0.52639
465.627,24.96436,-3.0834,0.04312619,0.52549
468.127,25.03829,-3.08812,0.0358669,0.52459
470.627,25.11225,-3.09729,0.03096314,0.52369
473.127,25.18645,-3.10237,0.02161228,0.52278
475.627,25.26064,-3.10715,0.01432117,0.52188
478.127,25.3351,-3.11436,0.01385848,0.52098
480.627,25.4095,-3.11757,0.01141279,0.52007
483.127,25.484,-3.12696,0.005605415,0.51917
485.627,25.55859,-3.13046,0.00583652,0.51826
488.127,25.63349,-3.13438,0.006751627,0.51735
490.627,25.70844,-3.14091,0.009976476,0.51645
493.127,25.78342,-3.14636,0.00722032,0.51554
495.627,25.85867,-3.14985,0.005429853,0.51463
498.127,25.9338,-3.15516,0.00105528,0.51373
500.627,26.0092,-3.1594,-0.00235774,0.51282
503.127,26.0848,-3.16272,0.000868286,0.51191
505.627,26.16037,-3.16743,-0.004838418,0.511
508.127,26.236,-3.17146,-0.00294394,0.5101
510.627,26.3119,-3.17494,-0.001247662,0.50919
513.127,26.38768,-3.17826,0.001842725,0.50828
515.627,26.4638,-3.18276,0.004888863,0.50737
518.127,26.54,-3.18595,0.00364815,0.50647
520.627,26.6162,-3.19222,0.00294697,0.50556
523.127,26.6926,-3.19372,0.002640514,0.50465
525.627,26.76894,-3.19749,-0.00890649,0.50374
528.127,26.84543,-3.20071,-0.008702859,0.50284
530.627,26.92199,-3.20258,-0.00305161,0.50193
533.127,26.99878,-3.20368,-0.005357262,0.50103
535.627,27.07553,-3.20864,0.0003095489,0.50012
538.127,27.1526,-3.21214,-0.003625245,0.49922
540.627,27.22956,-3.21347,-0.00216509,0.49831
543.127,27.30671,-3.21764,-0.004818606,0.49741
545.627,27.38368,-3.21899,-0.002433181,0.49651
548.127,27.46112,-3.22347,-0.007358929,0.4956
550.627,27.53844,-3.2262,-0.007692114,0.4947
553.127,27.61597,-3.22753,-0.006736045,0.4938
555.627,27.6936,-3.23169,-0.008567564,0.4929
558.127,27.7713,-3.23309,-0.00521521,0.492
560.627,27.8491,-3.23469,-0.006210635,0.4911
563.127,27.9269,-3.23872,-0.01160609,0.4902
565.627,28.00478,-3.24064,-0.0109014,0.48931
568.127,28.08291,-3.24328,-0.01586955,0.48841
570.627,28.1611,-3.24739,-0.01818306,0.48752
573.127,28.23925,-3.2496,-0.02070592,0.48662
575.627,28.3172,-3.25062,-0.02153127,0.48573
578.127,28.39568,-3.25486,-0.02118021,0.48483
580.627,28.4743,-3.2554,-0.02237046,0.48394
583.127,28.5526,-3.25801,-0.02376079,0.48305
585.627,28.63145,-3.26109,-0.02340831,0.48216
588.127,28.7099,-3.26437,-0.02908086,0.48128
590.627,28.78896,-3.26692,-0.03495882,0.48039
593.127,28.8678,-3.27023,-0.03202707,0.4795
595.627,28.94678,-3.2715,-0.02730977,0.47862
598.127,29.0258,-3.27721,-0.02917928,0.47774
600.627,29.1049,-3.2784,-0.02884831,0.47685
603.127,29.18406,-3.28118,-0.02515094,0.47597
605.627,29.26339,-3.28375,-0.02886603,0.4751
608.127,29.34272,-3.28457,-0.02799834,0.47422
610.627,29.422,-3.28869,-0.01346862,0.47334
613.127,29.50158,-3.29005,-0.01229377,0.47247
615.627,29.5811,-3.29313,-0.02446629,0.47159
618.127,29.6605,-3.29738,-0.05073653,0.47072
620.627,29.74022,-3.30233,-0.09060436,0.46985
623.127,29.81959,-3.30437,-0.11499,0.46898
625.627,29.8997,-3.30715,-0.12196,0.46811
628.127,29.9795,-3.30715,-0.1156,0.46725
628.727,29.99871,-3.30715,-0.1158,0.46704