File: 01_Data/MDF/HFM/MDF_Density_Wet_R1.csv
,MDF_WET_1
Length,20.36
Width,20.24
Thickness,1.904
Volume,0.000784613
Mass,580.9
Sample Density [kg/m3],740.365