File: 01_Data/MDF/HFM/MDF_Density_Dry_210312_R3.csv
Length,20.48
Width,20.24
Thickness,1.91
Volume,0.000791724
Mass,556.43
Sample Density [kg/m3],702.808