File: 01_Data/MDF/HFM/MDF_Density_Dry_210312_R2.csv
Length,20.48
Width,20.24
Thickness,1.91
Volume,0.000791724
Mass,555.32
Sample Density [kg/m3],701.406