File: 01_Data/MDF/HFM/MDF_Density_Wet_210302_R2.csv
Length,20.32
Width,20.4
Thickness,1.906
Volume,0.00079009
Mass,580.382
Sample Density [kg/m3],734.577