File: 01_Data/MDF/HFM/MDF_Density_Wet_R3.csv
,MDF_WET_3
Length,20.48
Width,20.24
Thickness,1.91
Volume,0.000791724
Mass,582.183
Sample Density [kg/m3],735.336