File: 01_Data/Polyester_Felt/STA/N2/10K_min/Polyester_Felt_STA_N2_10KData_210720_R2.csv
##Temp./Â°C,Time/min,Mass loss(subtr.2)/mg,DSC(subtr.2)/(mW/mg),Sensit./(uV/mW)
49.254,10.01,0.034,-0.008114492,0.61828
51.854,12.2463,0.04133333,0.04125953,0.61965
54.454,12.88381,0.04159844,0.06374,0.62101
57.054,13.38976,0.04179767,0.07756867,0.62233
59.654,13.83424,0.04311779,0.08774418,0.62364
62.254,14.2434,0.0435603,0.09771297,0.62492
64.854,14.62829,0.04367512,0.10757,0.62618
67.454,14.9917,0.04496296,0.11605,0.62741
70.054,15.3393,0.0475996,0.12165,0.62862
72.654,15.67265,0.04613912,0.12663,0.62981
75.254,15.9951,0.04624274,0.12685,0.63097
77.854,16.30861,0.04748523,0.12767,0.63211
80.454,16.6117,0.04816751,0.12767,0.63322
83.054,16.9082,0.04648927,0.12729,0.63431
85.654,17.19816,0.04839582,0.12946,0.63538
88.254,17.4825,0.04826181,0.13206,0.63643
90.854,17.76127,0.0495821,0.13399,0.63745
93.454,18.03554,0.04949255,0.13367,0.63844
96.054,18.30529,0.05000988,0.13377,0.63941
98.654,18.57241,0.05067031,0.13662,0.64036
101.254,18.83612,0.05070866,0.13925,0.64129
103.854,19.09804,0.05066961,0.14196,0.64219
106.454,19.35728,0.05067021,0.1468,0.64307
109.054,19.61512,0.04971487,0.15183,0.64392
111.654,19.87088,0.05182961,0.15615,0.64475
114.254,20.12568,0.05154402,0.16255,0.64556
116.854,20.3793,0.05282636,0.16621,0.64634
119.454,20.63136,0.05286003,0.17392,0.6471
122.054,20.88176,0.05265005,0.18071,0.64784
124.654,21.1308,0.05196996,0.18527,0.64855
127.254,21.3784,0.05265137,0.19064,0.64924
129.854,21.62435,0.05412914,0.19467,0.6499
132.454,21.8693,0.05396919,0.19806,0.65054
135.054,22.1125,0.05396093,0.20245,0.65116
137.654,22.3546,0.05427086,0.20475,0.65176
140.254,22.59486,0.05655956,0.20801,0.65233
142.854,22.8344,0.05395908,0.21406,0.65287
145.454,23.0734,0.05527879,0.21636,0.6534
148.054,23.31166,0.05526778,0.21623,0.6539
150.654,23.549,0.05659001,0.22128,0.65438
153.254,23.7851,0.05528002,0.22988,0.65484
155.854,24.02182,0.05723922,0.22692,0.65527
158.454,24.2573,0.05593,0.24025,0.65568
161.054,24.49296,0.0495521,0.24532,0.65606
163.654,24.72825,0.05505759,0.24624,0.65643
166.254,24.96406,0.0550082,0.2493,0.65677
168.854,25.19933,0.05536183,0.25237,0.65709
171.454,25.43402,0.05539007,0.25631,0.65738
174.054,25.66788,0.05538435,0.25926,0.65766
176.654,25.9022,0.05473,0.26217,0.65791
179.254,26.13674,0.0560505,0.26057,0.65814
181.854,26.37033,0.0553527,0.26101,0.65835
184.454,26.60325,0.05472788,0.2624,0.65853
187.054,26.83628,0.05341,0.26418,0.65869
189.654,27.0687,0.05396341,0.2626,0.65883
192.254,27.3005,0.05472778,0.26804,0.65895
194.854,27.5321,0.05472919,0.26748,0.65905
197.454,27.7637,0.05578838,0.26716,0.65913
200.054,27.99383,0.05308,0.2733,0.65918
202.654,28.22515,0.0520926,0.27374,0.65921
205.254,28.45673,0.05344419,0.28129,0.65922
207.854,28.68795,0.05159336,0.28252,0.65921
210.454,28.91964,0.05308002,0.28555,0.65918
213.054,29.15152,0.05205904,0.28476,0.65913
215.654,29.38304,0.0534207,0.28805,0.65906
218.254,29.61497,0.0520959,0.29304,0.65897
220.854,29.84638,0.05276,0.29752,0.65885
223.454,30.07817,0.05276,0.30402,0.65872
226.054,30.3098,0.05177,0.31547,0.65857
228.654,30.5414,0.05176753,0.32327,0.65839
231.254,30.7733,0.04928897,0.33704,0.6582
233.854,31.005,0.05143997,0.35013,0.65798
236.454,31.237,0.05144,0.36472,0.65775
239.054,31.46906,0.05045032,0.3867,0.65749
241.654,31.70145,0.05011969,0.42258,0.65722
244.254,31.9335,0.05012,0.47347,0.65693
246.854,32.16594,0.0514392,0.55523,0.65662
249.454,32.39972,0.05012,0.68753,0.65629
252.054,32.63358,0.05011812,0.84713,0.65594
254.654,32.8685,0.04879981,0.96694,0.65557
257.254,33.10302,0.04880074,0.9081,0.65518
259.854,33.33565,0.0488,0.62662,0.65477
262.454,33.56675,0.04745781,0.44914,0.65435
265.054,33.7976,0.04879999,0.3807,0.65391
267.654,34.02952,0.04687078,0.35594,0.65345
270.254,34.26121,0.04790759,0.34638,0.65297
272.854,34.49366,0.0471598,0.34497,0.65248
275.454,34.72605,0.04846999,0.34427,0.65196
278.054,34.95863,0.04870915,0.34319,0.65143
280.654,35.19234,0.04847,0.3424,0.65089
283.254,35.4257,0.04847049,0.34759,0.65032
285.854,35.6599,0.04715386,0.34641,0.64974
288.454,35.8934,0.04847355,0.34849,0.64914
291.054,36.12782,0.04618029,0.35098,0.64853
293.654,36.36206,0.04617997,0.35733,0.6479
296.254,36.5968,0.04551999,0.35501,0.64725
298.854,36.8316,0.04487306,0.35646,0.64659
301.454,37.0653,0.04483448,0.35671,0.64591
304.054,37.30138,0.04254997,0.35786,0.64522
306.654,37.536,0.04253661,0.35824,0.64451
309.254,37.77084,0.04025005,0.36146,0.64378
311.854,38.00645,0.04244547,0.36351,0.64304
314.454,38.24317,0.03992,0.36517,0.64229
317.054,38.48016,0.0412401,0.36595,0.64152
319.654,38.7164,0.03993,0.36878,0.64073
322.254,38.9527,0.03851934,0.37187,0.63994
324.854,39.1894,0.03864072,0.37032,0.63912
327.454,39.427,0.03467497,0.36947,0.6383
330.054,39.66407,0.03531965,0.37126,0.63746
332.654,39.9016,0.03563885,0.37579,0.6366
335.254,40.13893,0.03227151,0.37723,0.63574
337.854,40.3761,0.03169006,0.37625,0.63486
340.454,40.6154,0.03037885,0.37876,0.63396
343.054,40.85331,0.02938969,0.38008,0.63306
345.654,41.0918,0.02708585,0.38161,0.63214
348.254,41.33088,0.02567,0.38539,0.63121
350.854,41.56966,0.02565999,0.38974,0.63026
353.454,41.8088,0.02160997,0.39169,0.62931
356.054,42.0481,0.02126728,0.39182,0.62834
358.654,42.28781,0.01894865,0.39663,0.62736
361.254,42.52839,0.01766739,0.39451,0.62637
363.854,42.76874,0.01428709,0.4019,0.62537
366.454,43.00939,0.009862756,0.40262,0.62436
369.054,43.24981,0.007119778,0.40743,0.62333
371.654,43.49108,0.004509165,0.41243,0.6223
374.254,43.7325,-0.002526276,0.42317,0.62125
376.854,43.97417,-0.006305775,0.43665,0.6202
379.454,44.2162,-0.01546381,0.44831,0.61913
382.054,44.45708,-0.01831548,0.46045,0.61806
384.654,44.6993,-0.03694525,0.47607,0.61697
387.254,44.94317,-0.05181552,0.48785,0.61588
389.854,45.18585,-0.06906236,0.50366,0.61478
392.454,45.42899,-0.08907798,0.51709,0.61366
395.054,45.6721,-0.11532,0.53189,0.61254
397.654,45.91531,-0.14488,0.55284,0.61141
400.254,46.15955,-0.18051,0.56635,0.61027
402.854,46.40354,-0.2202,0.57926,0.60913
405.454,46.64845,-0.2667,0.61942,0.60797
408.054,46.8929,-0.3193,0.61816,0.60681
410.654,47.1382,-0.38172,0.64672,0.60564
413.254,47.38317,-0.4512,0.68965,0.60446
415.854,47.6293,-0.53545,0.75685,0.60327
418.454,47.87511,-0.63839,0.82142,0.60208
421.054,48.1218,-0.75743,0.87371,0.60088
423.654,48.36872,-0.89472,0.93405,0.59967
426.254,48.61588,-1.05349,1.0084,0.59846
428.854,48.86295,-1.22749,1.06294,0.59724
431.454,49.1109,-1.4186,1.10205,0.59601
434.054,49.35861,-1.62301,1.12902,0.59478
436.654,49.60662,-1.83411,1.13323,0.59354
439.254,49.85268,-2.05034,1.11943,0.5923
441.854,50.10236,-2.26984,1.07091,0.59105
444.454,50.34997,-2.4563,1.00171,0.58979
447.054,50.5979,-2.62665,0.90801,0.58853
449.654,50.8457,-2.76207,0.79805,0.58727
452.254,51.09299,-2.87157,0.69534,0.586
454.854,51.34094,-2.95464,0.62289,0.58473
457.454,51.5894,-3.01545,0.56827,0.58345
460.054,51.8373,-3.06352,0.52319,0.58217
462.654,52.0861,-3.10413,0.49245,0.58088
465.254,52.33486,-3.13552,0.44896,0.57959
467.854,52.5839,-3.16312,0.41776,0.5783
470.454,52.8338,-3.18599,0.38646,0.577
473.054,53.08356,-3.20486,0.35914,0.5757
475.654,53.3341,-3.22128,0.34116,0.5744
478.254,53.58589,-3.23419,0.33093,0.57309
480.854,53.837,-3.24213,0.32079,0.57178
483.454,54.08825,-3.25167,0.29661,0.57047
486.054,54.3405,-3.26123,0.29788,0.56916
488.654,54.59151,-3.26799,0.29484,0.56784
491.254,54.8435,-3.27272,0.30565,0.56652
493.854,55.09568,-3.27845,0.3034,0.5652
496.454,55.34834,-3.28233,0.3023,0.56388
499.054,55.60079,-3.28777,0.28406,0.56256
501.654,55.8542,-3.29325,0.29062,0.56123
504.254,56.1084,-3.29783,0.28557,0.55991
506.854,56.3605,-3.30113,0.28462,0.55858
509.454,56.6142,-3.30377,0.28839,0.55725
512.054,56.86773,-3.30768,0.29758,0.55593
514.654,57.1218,-3.30901,0.29966,0.5546
517.254,57.3763,-3.31147,0.30727,0.55327
519.854,57.63072,-3.31439,0.31407,0.55194
522.454,57.88593,-3.3157,0.32043,0.55061
525.054,58.14025,-3.31966,0.32345,0.54928
527.654,58.39611,-3.32097,0.32633,0.54795
530.254,58.65164,-3.32492,0.33154,0.54662
532.854,58.9075,-3.32728,0.33742,0.54529
535.454,59.16271,-3.32596,0.3488,0.54397
538.054,59.4193,-3.33057,0.35936,0.54264
540.654,59.6759,-3.32986,0.36021,0.54131
543.254,59.93226,-3.33383,0.36775,0.53999
545.854,60.1884,-3.3348,0.36741,0.53867
548.454,60.4449,-3.33479,0.3714,0.53734
551.054,60.70176,-3.33742,0.37263,0.53602
553.654,60.95856,-3.33978,0.37197,0.5347
556.254,61.2146,-3.34043,0.37707,0.53339
558.854,61.47172,-3.34177,0.38182,0.53207
561.454,61.7293,-3.34401,0.38529,0.53076
564.054,61.98715,-3.34762,0.38502,0.52945
566.654,62.245,-3.34762,0.38894,0.52814
569.254,62.5034,-3.35025,0.39198,0.52683
571.854,62.7622,-3.35289,0.39375,0.52553
574.454,63.02061,-3.3542,0.40496,0.52423
577.054,63.2783,-3.35635,0.41121,0.52293
579.654,63.5372,-3.35945,0.41792,0.52164
582.254,63.79654,-3.36093,0.41871,0.52034
584.854,64.0545,-3.36409,0.42044,0.51905
587.454,64.31403,-3.36614,0.4303,0.51777
590.054,64.57364,-3.36908,0.43412,0.51649
592.654,64.83305,-3.37129,0.44069,0.51521
595.254,65.0929,-3.37382,0.44071,0.51393
597.854,65.35243,-3.3706,0.44553,0.51266
600.454,65.61184,-3.37878,0.45368,0.51139
603.054,65.87146,-3.3801,0.44825,0.51013
605.654,66.13202,-3.38306,0.46669,0.50887
608.254,66.3927,-3.37804,0.47037,0.50761
610.854,66.65398,-3.38604,0.4861,0.50636
613.454,66.9151,-3.38864,0.49324,0.50511
616.054,67.17615,-3.39132,0.49887,0.50387
618.654,67.43779,-3.39083,0.51363,0.50263
621.254,67.6994,-3.39207,0.52685,0.50139
623.854,67.9619,-3.39356,0.52803,0.50016
626.454,68.22369,-3.39589,0.25344,0.49894
629.054,68.48571,-3.39887,0.24661,0.49772
631.654,68.74812,-3.39881,0.25244,0.4965
634.254,69.00933,-3.40017,0.25784,0.49529
636.854,69.2715,-3.40016,0.25591,0.49409
639.454,69.5342,-3.40675,0.26504,0.49289
642.054,69.79696,-3.40642,0.27336,0.49169
644.054,69.9993,-3.40674,0.27458,0.49077