File: 01_Data/Polyester_Felt/STA/N2/10K_min/Polyester_Felt_STA_N2_10KData_210720_R1.csv
##Temp./Â°C,Time/min,Mass loss(subtr.2)/mg,DSC(subtr.2)/(mW/mg),Sensit./(uV/mW)
49.242,10.01,0.00624,-0.06108182,0.61827
52.242,12.3607,0.004151269,0.00410904,0.61986
55.242,13.04796,-0.0001215773,0.03233774,0.62141
58.242,13.5999,0.001089614,0.04838533,0.62293
61.242,14.08756,0.002622,0.06320996,0.62442
64.242,14.5385,0.000895989,0.07905398,0.62588
67.242,14.95948,-0.0003400842,0.09786282,0.62731
70.242,15.35949,-0.0006514495,0.10986,0.62871
73.242,15.7422,0.000586845,0.11644,0.63007
76.242,16.1103,-0.0009989203,0.11782,0.6314
79.242,16.4653,-0.00235524,0.11889,0.63271
82.242,16.81159,-0.0007791084,0.1221,0.63398
85.242,17.14765,-0.002529743,0.12051,0.63521
88.242,17.47617,-0.003953715,0.12442,0.63642
91.242,17.79714,-0.00400049,0.12746,0.6376
94.242,18.113,-0.0039597,0.12886,0.63874
97.242,18.42315,-0.005279361,0.13175,0.63985
100.242,18.72915,-0.00525933,0.13595,0.64093
103.242,19.03179,-0.00667851,0.14293,0.64198
106.242,19.3319,-0.006697909,0.14693,0.643
109.242,19.62912,-0.006700881,0.15792,0.64398
112.242,19.92462,-0.006693815,0.16457,0.64494
115.242,20.2182,-0.006757799,0.16701,0.64586
118.242,20.5103,-0.007140335,0.17432,0.64675
121.242,20.79935,-0.00740541,0.18347,0.64761
124.242,21.08788,-0.00802706,0.19183,0.64844
127.242,21.3731,-0.008115204,0.19874,0.64923
130.242,21.65793,-0.008050394,0.20929,0.65
133.242,21.93936,-0.01075652,0.21487,0.65073
136.242,22.2204,-0.01098639,0.2222,0.65144
139.242,22.49867,-0.009346003,0.22577,0.65211
142.242,22.77594,-0.009609527,0.23333,0.65275
145.242,23.05094,-0.01227726,0.24079,0.65336
148.242,23.3255,-0.009133532,0.24562,0.65394
151.242,23.59956,-0.01164,0.24897,0.65448
154.242,23.87322,-0.01163329,0.25303,0.655
157.242,24.14595,-0.01261564,0.25639,0.65549
160.242,24.41828,-0.01359971,0.26344,0.65595
163.242,24.68994,-0.01163,0.27664,0.65637
166.242,24.96216,-0.01168918,0.27791,0.65677
169.242,25.2336,-0.01280194,0.28194,0.65713
172.242,25.5049,-0.01317641,0.28619,0.65747
175.242,25.77562,-0.01447249,0.28604,0.65778
178.242,26.04637,-0.01462026,0.28721,0.65805
181.242,26.3158,-0.01316443,0.28928,0.6583
184.242,26.5853,-0.0144915,0.29091,0.65852
187.242,26.85432,-0.01567432,0.29336,0.6587
190.242,27.1221,-0.01591648,0.29183,0.65886
193.242,27.39038,-0.01700992,0.29473,0.65899
196.242,27.6575,-0.01723468,0.30003,0.65909
199.242,27.92458,-0.01866,0.30079,0.65917
202.242,28.1913,-0.01855156,0.30524,0.65921
205.242,28.4582,-0.02130695,0.30843,0.65922
208.242,28.7252,-0.02156806,0.31497,0.65921
211.242,28.992,-0.02128732,0.31961,0.65917
214.242,29.25923,-0.02260799,0.32701,0.6591
217.242,29.5263,-0.02338042,0.33194,0.65901
220.242,29.7935,-0.02307283,0.33884,0.65888
223.242,30.06107,-0.02535257,0.3503,0.65873
226.242,30.3284,-0.02538556,0.35898,0.65855
229.242,30.59628,-0.02557711,0.36843,0.65835
232.242,30.8634,-0.02490118,0.38053,0.65812
235.242,31.1311,-0.02622191,0.39616,0.65786
238.242,31.3989,-0.02854312,0.41572,0.65758
241.242,31.6673,-0.03450844,0.45358,0.65727
244.242,31.93546,-0.02850619,0.50655,0.65693
247.242,32.20406,-0.02879298,0.59149,0.65657
250.242,32.4735,-0.02933354,0.74539,0.65618
253.242,32.74277,-0.03083049,0.92078,0.65577
256.242,33.0139,-0.0301681,0.99817,0.65533
259.242,33.2833,-0.03591115,0.75565,0.65487
262.242,33.55049,-0.03389748,0.49367,0.65439
265.242,33.81756,-0.03225816,0.40676,0.65388
268.242,34.0845,-0.03356895,0.38076,0.65334
271.242,34.35219,-0.03586998,0.375,0.65279
274.242,34.62024,-0.03488,0.37321,0.6522
277.242,34.8886,-0.0368558,0.37108,0.6516
280.242,35.1575,-0.03785624,0.37458,0.65097
283.242,35.42671,-0.0377985,0.37598,0.65032
286.242,35.69685,-0.04022025,0.37418,0.64965
289.242,35.96671,-0.04049026,0.37836,0.64896
292.242,36.2378,-0.04065895,0.37995,0.64824
295.242,36.5087,-0.04049105,0.37906,0.6475
298.242,36.77949,-0.0431188,0.37572,0.64675
301.242,37.05082,-0.04443136,0.3763,0.64597
304.242,37.3221,-0.04443,0.37614,0.64517
307.242,37.5934,-0.04436448,0.37167,0.64434
310.242,37.86459,-0.04804934,0.36999,0.6435
313.242,38.13477,-0.04733594,0.37033,0.64264
316.242,38.40648,-0.04754481,0.3684,0.64176
319.242,38.6787,-0.05001594,0.37165,0.64086
322.242,38.95169,-0.05134,0.37274,0.63994
325.242,39.22529,-0.05233,0.3731,0.639
328.242,39.4992,-0.05232892,0.37528,0.63804
331.242,39.773,-0.05670184,0.37485,0.63707
334.242,40.0471,-0.05681956,0.37308,0.63608
337.242,40.3215,-0.06020724,0.37187,0.63506
340.242,40.5958,-0.06066998,0.37693,0.63404
343.242,40.87075,-0.06329,0.38108,0.63299
346.242,41.14573,-0.06461174,0.38242,0.63193
349.242,41.42119,-0.06429543,0.38439,0.63085
352.242,41.69705,-0.06790997,0.38438,0.62976
355.242,41.97327,-0.07054073,0.38483,0.62864
358.242,42.24925,-0.07249017,0.3875,0.62752
361.242,42.52595,-0.07653772,0.39254,0.62638
364.242,42.80288,-0.07910408,0.39328,0.62522
367.242,43.0805,-0.0821021,0.3979,0.62405
370.242,43.3577,-0.08566998,0.40451,0.62286
373.242,43.63588,-0.09123876,0.40921,0.62166
376.242,43.91442,-0.09971741,0.42296,0.62045
379.242,44.19331,-0.10641,0.43406,0.61922
382.242,44.4727,-0.11832,0.44747,0.61798
385.242,44.7521,-0.12896,0.45901,0.61673
388.242,45.03268,-0.14532,0.47111,0.61546
391.242,45.31292,-0.16388,0.48669,0.61418
394.242,45.5929,-0.18582,0.50255,0.61289
397.242,45.87318,-0.21722,0.52251,0.61159
400.242,46.15481,-0.24823,0.54108,0.61028
403.242,46.43638,-0.28773,0.52779,0.60895
406.242,46.71781,-0.33682,0.53273,0.60762
409.242,46.99969,-0.38831,0.53893,0.60627
412.242,47.28148,-0.45092,0.5668,0.60492
415.242,47.56544,-0.52539,0.61566,0.60355
418.242,47.84913,-0.61804,0.68114,0.60217
421.242,48.13345,-0.73042,0.75012,0.60079
424.242,48.41833,-0.86262,0.82597,0.5994
427.242,48.704,-1.01686,0.925,0.59799
430.242,48.99023,-1.2012,1.02348,0.59658
433.242,49.2761,-1.40247,1.06776,0.59516
436.242,49.56244,-1.61797,1.09406,0.59374
439.242,49.84815,-1.8441,1.09033,0.5923
442.242,50.13387,-2.07126,1.05018,0.59086
445.242,50.42023,-2.27835,0.97041,0.58941
448.242,50.70597,-2.46174,0.8577,0.58796
451.242,50.99183,-2.60003,0.70924,0.58649
454.242,51.27752,-2.70017,0.58259,0.58503
457.242,51.56394,-2.77081,0.50169,0.58355
460.242,51.85085,-2.82571,0.44775,0.58207
463.242,52.13625,-2.86934,0.39761,0.58059
466.242,52.42465,-2.90386,0.34576,0.5791
469.242,52.71252,-2.9322,0.30472,0.5776
472.242,53.0008,-2.95139,0.26735,0.57611
475.242,53.28932,-2.96974,0.24339,0.5746
478.242,53.5786,-2.98646,0.2286,0.5731
481.242,53.86809,-2.99808,0.21658,0.57159
484.242,54.15784,-3.00766,0.20116,0.57007
487.242,54.4482,-3.01638,0.19652,0.56855
490.242,54.73874,-3.02187,0.19604,0.56704
493.242,55.029,-3.02604,0.20606,0.56551
496.242,55.3199,-3.03074,0.21407,0.56399
499.242,55.61096,-3.03864,0.20918,0.56246
502.242,55.90144,-3.05402,0.22304,0.56093
505.242,56.19419,-3.04687,0.2292,0.5594
508.242,56.4866,-3.04634,0.23164,0.55787
511.242,56.77921,-3.04831,0.2415,0.55634
514.242,57.07255,-3.05024,0.24939,0.55481
517.242,57.36619,-3.05411,0.25425,0.55327
520.242,57.66,-3.05839,0.26204,0.55174
523.242,57.954,-3.06502,0.25931,0.55021
526.242,58.24734,-3.06366,0.26372,0.54867
529.242,58.5409,-3.06563,0.26418,0.54714
532.242,58.83503,-3.06655,0.26431,0.54561
535.242,59.1302,-3.06815,0.27099,0.54407
538.242,59.4249,-3.07416,0.27667,0.54254
541.242,59.72068,-3.07538,0.28226,0.54101
544.242,60.01681,-3.07951,0.28029,0.53949
547.242,60.3126,-3.07941,0.28266,0.53796
550.242,60.6082,-3.08306,0.27818,0.53644
553.242,60.90396,-3.08394,0.28667,0.53491
556.242,61.20013,-3.08448,0.28606,0.53339
559.242,61.49771,-3.08778,0.29007,0.53188
562.242,61.79589,-3.08669,0.29337,0.53036
565.242,62.09349,-3.08942,0.29816,0.52885
568.242,62.3908,-3.09182,0.30178,0.52734
571.242,62.6888,-3.0953,0.30167,0.52584
574.242,62.98698,-3.10041,0.30591,0.52434
577.242,63.28499,-3.10215,0.31182,0.52284
580.242,63.58418,-3.10034,0.31688,0.52134
583.242,63.88306,-3.10435,0.32827,0.51985
586.242,64.18251,-3.10566,0.32582,0.51837
589.242,64.4812,-3.10702,0.33136,0.51689
592.242,64.78005,-3.10928,0.34009,0.51541
595.242,65.07973,-3.11225,0.34513,0.51394
598.242,65.37925,-3.11641,0.34946,0.51247
601.242,65.67942,-3.11904,0.35882,0.51101
604.242,65.97888,-3.12168,0.36008,0.50955
607.242,66.28009,-3.12365,0.38102,0.5081
610.242,66.58104,-3.12497,0.40273,0.50665
613.242,66.88298,-3.12628,0.39819,0.50521
616.242,67.18386,-3.12858,0.4066,0.50378
619.242,67.48517,-3.12979,0.402,0.50235
622.242,67.7867,-3.1311,0.41177,0.50093
625.242,68.08836,-3.13431,0.42651,0.49951
628.242,68.39075,-3.13076,0.44553,0.4981
631.242,68.69291,-3.13714,0.45273,0.4967
634.242,68.9958,-3.14033,0.43662,0.4953
637.242,69.2993,-3.14255,0.43878,0.49391
640.242,69.60303,-3.14252,0.45446,0.49252
643.242,69.90685,-3.14382,0.46568,0.49115
646.242,70.20939,-3.15073,0.46068,0.48978
649.242,70.51371,-3.14572,0.46967,0.48841
652.242,70.81787,-3.14832,0.47163,0.48706
655.242,71.12179,-3.15012,0.46509,0.48571
658.242,71.4261,-3.15023,0.44918,0.48437
661.242,71.7294,-3.15118,0.45131,0.48303
664.242,72.03424,-3.15348,0.45495,0.48171
667.242,72.34022,-3.15217,0.45185,0.48039
670.242,72.6441,-3.15272,0.45014,0.47908
673.242,72.94918,-3.15531,0.34851,0.47778
676.242,73.25455,-3.15358,0.35219,0.47648
679.242,73.55917,-3.15756,0.36751,0.47519
682.242,73.86635,-3.15733,0.37611,0.47391
685.242,74.17321,-3.16197,0.37698,0.47264
688.242,74.47941,-3.16122,0.38469,0.47138
691.242,74.7859,-3.16348,0.38834,0.47012
694.242,75.0923,-3.16346,0.39659,0.46888
697.242,75.39855,-3.16478,0.40072,0.46764
700.242,75.7068,-3.1654,0.40354,0.46641
703.242,76.01428,-3.16681,0.40081,0.46518
706.242,76.3215,-3.16742,0.41949,0.46397
709.242,76.6287,-3.16741,0.42522,0.46276
712.242,76.93607,-3.17137,0.41764,0.46157
715.242,77.24332,-3.17268,0.40094,0.46038
718.242,77.55074,-3.16946,0.42121,0.4592
721.242,77.85876,-3.17174,0.44358,0.45802
724.242,78.16735,-3.17302,0.44711,0.45686
727.242,78.4751,-3.17424,0.42315,0.45571
730.242,78.7834,-3.17465,0.43984,0.45456
733.242,79.0919,-3.17729,0.43751,0.45342
736.242,79.4007,-3.18014,0.44275,0.45229
739.242,79.70944,-3.1832,0.44174,0.45117
742.042,79.9978,-3.18288,0.44327,0.45013