File: 01_Data/Cotton_Raw/MCC/Cotton_Raw_MCC_30K_min_210708_R2.txt
Sample ID:	C:\MCC\MCC Cal\Test\New folder\Cotton_Raw_MCC_30K_min_210708_R2.txt
Sample Weight (mg):	4.47
Heating Rate (C/s):	0.5
Combustor Temp (C):	900
N2 Flow Rate (cc/min):	80
O2 Flow Rate (cc/min):	20
Calibration File:	C:\MCC\MCC Cal\Coeff1 JN10440_30_210304.txt.txt
T Correction Coefficients:	0	1.024463	0
Time Shift (s):	14
*
Time (s)	Temperature (C)	N2 flow rate (cc/min)	O2 flow rate (cc/min)	Flow Rate (cc/min)	Oxygen (%)	HRR (W/g)	Heating rate (C/s)
0.000	109.880	79.995	19.996	99.917	20.199	-0.224	0.001
8.000	109.838	79.995	19.996	99.929	20.199	-0.164	0.013
16.001	109.803	79.999	19.995	99.909	20.195	0.067	0.022
24.001	109.779	79.996	19.996	99.977	20.184	0.875	0.014
32.000	110.039	79.994	19.996	100.047	20.175	1.467	0.037
40.000	110.755	79.994	19.996	100.114	20.162	2.394	0.136
48.000	112.007	79.995	19.996	100.145	20.154	2.948	0.183
56.000	113.692	79.995	19.996	100.168	20.149	3.273	0.223
64.000	115.875	79.996	19.997	100.169	20.150	3.218	0.262
72.000	118.399	79.998	19.995	100.171	20.145	3.586	0.343
80.000	121.176	79.996	19.995	100.168	20.150	3.260	0.343
88.000	124.226	79.995	19.995	100.176	20.144	3.625	0.386
96.000	127.401	79.996	19.995	100.185	20.153	3.046	0.384
104.000	130.824	79.995	19.996	100.186	20.148	3.338	0.428
112.000	134.396	79.995	19.995	100.148	20.151	3.130	0.475
120.000	138.100	79.994	19.996	100.174	20.149	3.295	0.455
128.000	141.904	79.996	19.996	100.177	20.148	3.346	0.470
136.000	145.872	79.996	19.996	100.172	20.150	3.206	0.522
144.000	149.807	79.995	19.995	100.170	20.147	3.412	0.502
152.000	153.826	79.998	19.996	100.248	20.150	3.235	0.492
160.001	157.788	79.995	19.995	100.171	20.149	3.283	0.480
168.000	161.863	79.994	19.996	100.173	20.149	3.271	0.497
176.000	165.956	79.994	19.995	100.166	20.147	3.438	0.498
184.000	169.964	79.995	19.995	100.178	20.151	3.165	0.463
192.000	174.030	79.996	19.995	100.160	20.153	2.985	0.514
200.000	178.022	79.996	19.996	100.139	20.155	2.903	0.519
208.000	182.040	79.997	19.996	100.219	20.152	3.074	0.473
216.000	186.019	79.996	19.996	100.159	20.152	3.071	0.510
224.000	189.971	79.996	19.995	100.133	20.154	2.966	0.527
232.000	193.861	79.996	19.996	100.135	20.152	3.079	0.473
240.000	197.786	79.995	19.995	100.131	20.149	3.322	0.474
248.000	201.700	79.995	19.996	100.130	20.151	3.186	0.501
256.000	205.545	79.995	19.995	100.130	20.150	3.253	0.485
264.000	209.442	79.997	19.995	100.130	20.147	3.422	0.493
272.000	213.341	79.995	19.995	100.131	20.138	4.048	0.486
280.000	217.280	79.995	19.995	100.136	20.129	4.697	0.504
288.000	221.169	79.996	19.995	100.162	20.125	4.971	0.488
296.000	225.108	79.995	19.996	100.131	20.119	5.411	0.516
304.000	229.157	79.996	19.995	100.141	20.109	6.130	0.528
312.000	233.132	79.998	19.996	100.139	20.102	6.556	0.510
320.000	237.129	79.993	19.997	100.152	20.089	7.512	0.518
328.000	241.155	79.995	19.996	100.152	20.081	8.041	0.532
336.000	245.130	79.993	19.995	100.168	20.064	9.215	0.497
344.000	249.191	79.994	19.996	100.171	20.049	10.277	0.496
352.000	253.282	79.995	19.995	100.173	20.029	11.698	0.488
360.000	257.301	79.993	19.995	100.172	20.022	12.175	0.500
368.000	261.232	79.998	19.995	100.180	20.008	13.157	0.499
376.000	265.280	79.997	19.994	100.177	19.987	14.661	0.479
384.000	269.298	79.995	19.995	100.203	19.968	15.984	0.488
392.000	273.362	79.997	19.995	100.203	19.950	17.228	0.518
400.000	277.362	79.994	19.995	100.211	19.918	19.445	0.492
408.000	281.388	79.994	19.996	100.223	19.891	21.353	0.513
416.001	285.329	79.995	19.996	100.241	19.856	23.794	0.499
424.000	289.357	79.995	19.995	100.256	19.818	26.463	0.495
432.000	293.361	79.994	19.996	100.276	19.778	29.334	0.502
440.000	297.392	79.997	19.995	100.215	19.727	32.871	0.490
448.000	301.436	79.995	19.994	100.310	19.671	36.780	0.518
456.000	305.442	79.995	19.996	100.329	19.608	41.183	0.531
464.000	309.408	79.997	19.994	100.359	19.546	45.594	0.502
472.000	313.445	79.997	19.996	100.460	19.463	51.384	0.516
480.000	317.410	79.993	19.995	100.434	19.372	57.806	0.536
488.000	321.382	79.994	19.995	100.487	19.259	65.778	0.518
496.000	325.339	79.994	19.997	100.546	19.109	76.404	0.492
504.000	329.373	79.994	19.996	100.616	18.917	89.782	0.522
512.000	333.376	79.993	19.996	100.621	18.747	101.432	0.507
520.000	337.415	79.996	19.995	100.404	18.787	98.528	0.485
528.000	341.501	79.995	19.995	100.177	19.095	76.945	0.505
536.000	345.547	79.996	19.995	100.130	19.464	51.186	0.520
544.000	349.620	79.997	19.995	100.129	19.736	32.153	0.516
552.000	353.711	79.997	19.995	100.130	19.895	21.037	0.505
560.001	357.877	79.996	19.997	100.127	19.969	15.900	0.525
568.000	362.019	79.995	19.997	100.117	20.001	13.652	0.524
576.000	366.159	79.996	19.996	100.118	20.016	12.562	0.529
584.000	370.252	79.994	19.997	100.116	20.027	11.828	0.519
592.000	374.328	79.994	19.996	100.110	20.032	11.449	0.499
600.000	378.394	79.997	19.995	100.116	20.035	11.296	0.490
608.000	382.435	79.997	19.995	100.107	20.036	11.180	0.489
616.000	386.374	79.996	19.998	100.119	20.040	10.885	0.484
624.000	390.323	80.036	20.011	100.148	20.051	10.159	0.460
632.000	394.344	79.997	19.995	100.112	20.052	10.087	0.517
640.000	398.310	79.996	19.996	100.112	20.058	9.680	0.488
648.000	402.273	79.995	19.996	100.099	20.058	9.625	0.526
656.000	406.338	79.996	19.996	100.099	20.065	9.166	0.538
664.000	410.224	79.994	19.996	100.103	20.065	9.179	0.513
672.000	414.228	79.994	19.996	100.098	20.069	8.898	0.463
680.000	418.224	79.995	19.996	100.093	20.075	8.469	0.504
688.000	422.250	79.994	19.995	100.088	20.082	7.969	0.498
696.000	426.292	79.997	19.995	100.089	20.086	7.669	0.523
704.000	430.355	79.997	19.995	100.086	20.096	6.972	0.495
712.000	434.484	79.996	19.995	100.088	20.095	7.054	0.522
720.000	438.609	79.995	19.995	100.087	20.102	6.547	0.480
728.000	442.676	79.994	19.996	100.079	20.101	6.629	0.473
736.000	446.768	79.996	19.996	100.077	20.108	6.135	0.471
744.000	450.781	79.993	19.996	100.083	20.112	5.884	0.522
752.000	454.844	79.994	19.995	100.074	20.116	5.571	0.522
760.000	458.910	79.996	19.998	100.075	20.125	4.992	0.528
768.000	462.905	79.995	19.996	100.060	20.124	5.032	0.523
776.001	466.886	79.996	19.995	100.075	20.130	4.660	0.498
784.000	470.932	79.997	19.996	100.062	20.132	4.481	0.516
792.000	475.014	79.995	19.993	100.081	20.137	4.169	0.490
800.000	479.088	79.994	19.993	100.071	20.141	3.825	0.499
808.000	483.178	79.994	19.992	100.071	20.141	3.875	0.509
816.000	487.281	79.995	19.995	100.067	20.145	3.545	0.525
824.000	491.383	79.994	19.995	100.063	20.147	3.434	0.474
832.000	495.577	79.995	19.995	100.059	20.147	3.458	0.522
840.000	499.638	79.995	19.996	100.065	20.152	3.075	0.509
848.000	503.735	79.994	19.996	100.068	20.152	3.096	0.510
856.000	507.828	79.997	19.995	100.054	20.152	3.090	0.491
864.000	511.885	79.997	19.995	100.058	20.152	3.069	0.489
872.001	516.037	79.996	19.996	100.054	20.154	2.956	0.515
880.000	520.147	79.994	19.997	100.063	20.158	2.680	0.520
888.001	524.216	79.996	19.994	100.054	20.157	2.734	0.514
896.000	528.357	79.995	19.997	100.056	20.157	2.768	0.543
904.000	532.460	79.993	19.996	100.055	20.157	2.751	0.481
912.000	536.700	79.996	19.997	100.053	20.157	2.713	0.535
920.000	540.779	79.996	19.994	100.052	20.155	2.862	0.524
928.000	544.881	79.996	19.996	100.059	20.161	2.474	0.503
936.000	548.962	79.997	19.997	100.053	20.158	2.638	0.538
944.000	553.017	79.996	19.996	100.047	20.160	2.506	0.505
952.000	557.090	79.994	19.995	100.051	20.156	2.789	0.505
960.000	561.145	79.995	19.996	100.053	20.158	2.654	0.522
968.000	565.231	79.996	19.996	100.058	20.158	2.682	0.539
976.000	569.258	79.994	19.993	100.054	20.157	2.745	0.506
984.000	573.328	79.993	19.996	100.069	20.157	2.730	0.508
992.000	577.480	79.994	19.993	100.059	20.152	3.086	0.533
1000.000	581.502	79.995	19.996	100.054	20.153	3.042	0.498
1008.000	585.530	79.995	19.996	100.051	20.148	3.337	0.469
1016.000	589.618	79.997	19.996	100.050	20.152	3.107	0.528
1024.000	593.695	79.996	19.998	100.050	20.151	3.168	0.544
1032.000	597.759	79.995	19.996	100.048	20.146	3.497	0.493
1040.000	601.900	79.994	19.996	100.054	20.149	3.319	0.490
1048.000	606.006	79.995	19.995	100.055	20.156	2.799	0.546
1056.000	610.064	79.994	19.996	100.055	20.158	2.649	0.501
1064.000	614.220	79.994	19.994	100.053	20.162	2.386	0.505
1072.000	618.384	79.997	19.995	100.049	20.166	2.139	0.520
1080.000	622.441	79.996	19.995	100.040	20.165	2.165	0.532
1088.001	626.459	79.996	19.996	100.043	20.164	2.270	0.508
1096.001	630.508	79.996	19.996	100.031	20.165	2.186	0.522
1104.000	634.491	79.996	19.996	100.026	20.159	2.573	0.529
1112.000	638.544	79.994	19.997	100.043	20.163	2.303	0.509
1120.000	642.522	79.994	19.995	100.052	20.163	2.309	0.528
1128.000	646.574	79.996	19.996	100.042	20.165	2.202	0.519
1136.000	650.614	79.993	19.995	100.034	20.164	2.255	0.476
1144.000	654.715	79.993	19.996	100.035	20.166	2.141	0.508
1152.000	658.807	79.995	19.997	100.036	20.166	2.112	0.556
1160.000	662.859	79.996	19.995	100.047	20.165	2.188	0.504
1168.000	666.896	79.995	19.996	100.047	20.160	2.500	0.484
1176.000	670.993	79.997	19.996	100.043	20.162	2.374	0.501
1184.000	675.040	79.997	19.996	100.047	20.164	2.265	0.499
1192.001	679.122	79.996	19.995	100.041	20.162	2.386	0.535
1200.000	683.118	79.995	19.996	100.036	20.163	2.353	0.503
1208.000	687.132	79.996	19.995	100.035	20.163	2.330	0.488
1216.000	691.199	79.993	19.995	100.042	20.161	2.473	0.504
1224.000	695.235	79.995	19.995	100.038	20.163	2.315	0.476
1232.000	699.361	79.995	19.994	100.039	20.163	2.328	0.476
1240.000	703.439	79.995	19.994	100.025	20.159	2.599	0.481
1248.000	707.542	79.995	19.995	100.042	20.163	2.341	0.511
1256.000	711.699	79.997	19.996	100.019	20.162	2.415	0.511
1264.000	715.766	79.995	19.996	100.018	20.160	2.535	0.478
1272.000	719.792	79.995	19.996	100.020	20.160	2.532	0.496
1280.000	723.810	79.995	19.996	100.039	20.156	2.779	0.505
1288.000	727.781	79.994	19.996	100.021	20.156	2.796	0.511
1296.000	731.742	79.993	19.996	100.030	20.158	2.634	0.525
1304.000	735.659	79.995	19.995	100.039	20.159	2.619	0.493
1312.000	739.709	79.996	19.996	100.033	20.159	2.615	0.520
1319.500	743.521	79.995	19.995	100.027	20.157	2.750	0.502