File: 01_Data/LDPE/STA/N2/30K_min/LDPE_STA_N2_30KData_210908_R2.csv
##Temp./Â°C,Time/min,Mass(subtr.2)/%,DSC(subtr.2)/(mW/mg),Sensit./(uV/mW)
49.265,10.01,99.5,-0.007516877,1.05401
51.665,11.5258,99.3832,0.15644,1.05405
54.065,11.87066,99.3429,0.27797,1.05406
56.465,12.121,99.36668,0.38512,1.05405
58.865,12.33008,99.36112,0.47834,1.05401
61.265,12.51634,99.38765,0.55366,1.05394
63.665,12.6869,99.3821,0.61271,1.05384
66.065,12.84688,99.38502,0.65757,1.05371
68.465,12.99858,99.35345,0.69594,1.05356
70.865,13.145,99.34778,0.7345,1.05338
73.265,13.28554,99.34607,0.77374,1.05317
75.665,13.4215,99.3354,0.81635,1.05294
78.065,13.5532,99.32927,0.86233,1.05267
80.465,13.682,99.3186,0.91323,1.05239
82.865,13.8064,99.32454,0.96739,1.05207
85.265,13.92738,99.33944,1.02664,1.05173
87.665,14.04461,99.29813,1.09399,1.05136
90.065,14.15879,99.3098,1.17166,1.05096
92.465,14.27019,99.3421,1.25206,1.05054
94.865,14.37875,99.36373,1.33643,1.0501
97.265,14.4851,99.36479,1.38455,1.04962
99.665,14.58881,99.3541,1.47637,1.04913
102.065,14.6905,99.2765,1.65989,1.0486
104.465,14.79062,99.30369,1.89573,1.04805
106.865,14.8893,99.34753,2.1862,1.04748
109.265,14.9857,99.35361,2.48962,1.04688
111.665,15.08234,99.29998,2.77249,1.04625
114.065,15.1767,99.32655,2.81538,1.04561
116.465,15.2694,99.32823,2.37353,1.04493
118.865,15.3598,99.327,1.90418,1.04423
121.265,15.449,99.32685,1.59531,1.04351
123.665,15.53635,99.3232,1.40709,1.04277
126.065,15.62279,99.30768,1.29715,1.042
128.465,15.70825,99.29205,1.23211,1.0412
130.865,15.79313,99.27741,1.19625,1.04039
133.265,15.87696,99.269,1.18087,1.03955
135.665,15.95996,99.26788,1.17552,1.03868
138.065,16.0418,99.2688,1.17965,1.0378
140.465,16.12351,99.25502,1.18448,1.03689
142.865,16.20436,99.26631,1.19537,1.03596
145.265,16.2846,99.2687,1.2062,1.035
147.665,16.3639,99.2672,1.21963,1.03403
150.065,16.4427,99.2633,1.23397,1.03303
152.465,16.52086,99.24299,1.24808,1.03201
154.865,16.59845,99.21677,1.26188,1.03097
157.265,16.6756,99.24302,1.27677,1.0299
159.665,16.75238,99.2454,1.29277,1.02882
162.065,16.82855,99.22555,1.30766,1.02772
164.465,16.90423,99.26398,1.32397,1.02659
166.865,16.97946,99.2427,1.33935,1.02544
169.265,17.05454,99.2398,1.35389,1.02428
171.665,17.12906,99.24059,1.3687,1.02309
174.065,17.203,99.21461,1.38324,1.02188
176.465,17.27655,99.24046,1.3972,1.02065
178.865,17.3497,99.21525,1.41278,1.01941
181.265,17.42243,99.25968,1.42828,1.01814
183.665,17.49459,99.2393,1.44223,1.01685
186.065,17.56651,99.23,1.45467,1.01555
188.465,17.6379,99.2033,1.4711,1.01423
190.865,17.709,99.2058,1.48507,1.01288
193.265,17.77983,99.20271,1.49962,1.01152
195.665,17.8503,99.17726,1.5135,1.01014
198.065,17.9206,99.20264,1.52886,1.00875
200.465,17.9905,99.1773,1.54341,1.00733
202.865,18.05994,99.17724,1.55749,1.0059
205.265,18.12963,99.20269,1.57201,1.00445
207.665,18.19877,99.19524,1.58942,1.00298
210.065,18.26784,99.19574,1.60394,1.0015
212.465,18.33664,99.17096,1.61614,1.0
214.865,18.40512,99.17794,1.63024,0.99848
217.265,18.47348,99.18638,1.64389,0.99695
219.665,18.5417,99.18996,1.65563,0.9954
222.065,18.6098,99.1773,1.66863,0.99383
224.465,18.6778,99.1519,1.68204,0.99225
226.865,18.7454,99.17641,1.6943,0.99065
229.265,18.81286,99.2025,1.70617,0.98904
231.665,18.8803,99.17654,1.71981,0.98742
234.065,18.94756,99.1508,1.73268,0.98577
236.465,19.01472,99.1349,1.74538,0.98412
238.865,19.08176,99.1519,1.75691,0.98245
241.265,19.14862,99.152,1.76872,0.98076
243.665,19.21523,99.12647,1.78068,0.97906
246.065,19.28181,99.12689,1.79114,0.97735
248.465,19.34848,99.10135,1.80267,0.97562
250.865,19.41489,99.12129,1.81074,0.97388
253.265,19.4813,99.10167,1.82154,0.97213
255.665,19.54745,99.15194,1.8321,0.97036
258.065,19.61361,99.10165,1.84063,0.96858
260.465,19.67963,99.10135,1.84857,0.96679
262.865,19.74569,99.0744,1.85956,0.96499
265.265,19.81149,99.07596,1.86755,0.96317
267.665,19.87721,99.07596,1.87501,0.96134
270.065,19.94293,99.07596,1.88459,0.95951
272.465,20.0085,99.07596,1.89282,0.95766
274.865,20.07403,99.07596,1.90129,0.95579
277.265,20.13989,99.07596,1.90687,0.95392
279.665,20.2054,99.07596,1.91726,0.95204
282.065,20.27086,99.07596,1.92593,0.95014
284.465,20.33638,99.0761,1.93092,0.94824
286.865,20.40176,99.09473,1.93697,0.94633
289.265,20.46718,99.09498,1.94466,0.9444
291.665,20.5326,99.07024,1.95387,0.94247
294.065,20.59797,99.095,1.95873,0.94052
296.465,20.66346,99.095,1.96374,0.93857
298.865,20.72879,99.095,1.96942,0.93661
301.265,20.79399,99.0955,1.97762,0.93464
303.665,20.85922,99.07589,1.98253,0.93266
306.065,20.92463,99.0603,1.98737,0.93067
308.465,20.98989,99.05062,1.99396,0.92868
310.865,21.05515,99.04423,1.99772,0.92667
313.265,21.12051,99.04423,2.00088,0.92466
315.665,21.18585,99.06495,2.0037,0.92264
318.065,21.25112,99.06365,2.00504,0.92062
320.465,21.31636,99.03789,2.00824,0.91858
322.865,21.38177,99.03834,2.01206,0.91654
325.265,21.44714,99.0254,2.01508,0.91449
327.665,21.51243,98.99911,2.01777,0.91244
330.065,21.57774,98.99385,2.02297,0.91038
332.465,21.64319,98.99385,2.02914,0.90831
334.865,21.70869,98.99387,2.03634,0.90624
337.265,21.77415,99.019,2.04436,0.90416
339.665,21.83955,99.00725,2.05039,0.90208
342.065,21.9054,98.99385,2.05628,0.89999
344.465,21.97109,98.99385,2.06299,0.8979
346.865,22.03685,98.995,2.0721,0.8958
349.265,22.10254,98.9431,2.08227,0.8937
351.665,22.16839,98.91804,2.09014,0.89159
354.065,22.2344,98.93463,2.09662,0.88948
356.465,22.30029,98.93692,2.10319,0.88736
358.865,22.3662,98.937,2.11114,0.88524
361.265,22.43219,98.9115,2.11966,0.88312
363.665,22.49822,98.91293,2.12635,0.88099
366.065,22.5645,98.88615,2.13451,0.87886
368.465,22.63066,98.88615,2.14173,0.87673
370.865,22.697,98.88615,2.14693,0.87459
373.265,22.7634,98.91339,2.15515,0.87245
375.665,22.8298,98.8841,2.16459,0.87031
378.065,22.89655,98.86522,2.1738,0.86816
380.465,22.96315,98.865,2.18129,0.86602
382.865,23.02978,98.85874,2.19135,0.86387
385.265,23.09659,98.83371,2.20167,0.86172
387.665,23.1635,98.80798,2.21213,0.85957
390.065,23.23048,98.7827,2.22682,0.85741
392.465,23.29768,98.75749,2.23573,0.85526
394.865,23.36476,98.7337,2.24523,0.8531
397.265,23.4319,98.73213,2.25792,0.85095
399.665,23.49929,98.68048,2.27048,0.84879
402.065,23.56672,98.65475,2.28515,0.84663
404.465,23.63428,98.6237,2.29984,0.84447
406.865,23.7021,98.59074,2.31323,0.84231
409.265,23.76972,98.54698,2.33236,0.84016
411.665,23.83749,98.52708,2.3503,0.838
414.065,23.90542,98.46974,2.37258,0.83584
416.465,23.97351,98.41063,2.39466,0.83368
418.865,24.04149,98.35562,2.41585,0.83152
421.265,24.10961,98.27314,2.4419,0.82937
423.665,24.178,98.1919,2.46924,0.82721
426.065,24.24636,98.08717,2.50489,0.82506
428.465,24.3149,97.98823,2.534,0.82291
430.865,24.38341,97.88462,2.58942,0.82076
433.265,24.45203,97.6917,2.68491,0.81861
435.665,24.52072,97.5908,2.6898,0.81646
438.065,24.5897,97.38291,2.70275,0.81431
440.465,24.6587,97.20766,2.72765,0.81217
442.865,24.7276,96.94431,2.75734,0.81003
445.265,24.79665,96.68689,2.80451,0.80789
447.665,24.8658,96.3874,2.85683,0.80575
450.065,24.935,96.0256,2.9188,0.80362
452.465,25.004,95.6191,2.98846,0.80149
454.865,25.07358,95.21194,3.07086,0.79936
457.265,25.14305,94.67,3.15722,0.79724
459.665,25.2127,94.10053,3.25767,0.79511
462.065,25.2823,93.42994,3.36864,0.793
464.465,25.35202,92.62804,3.49807,0.79088
466.865,25.42171,91.7138,3.61704,0.78877
469.265,25.49129,90.57927,3.76714,0.78666
471.665,25.5611,89.34271,3.9262,0.78456
474.065,25.6309,87.84813,4.08936,0.78246
476.465,25.70032,86.05221,4.29325,0.78037
478.865,25.7698,84.06137,4.49972,0.77828
481.265,25.83919,81.70997,4.71374,0.77619
483.665,25.90844,78.93804,4.96824,0.77411
486.065,25.97769,75.7867,5.23492,0.77203
488.465,26.04692,71.6414,5.50275,0.76996
490.865,26.11599,67.41956,5.76552,0.7679
493.265,26.1855,62.6009,6.00639,0.76584
495.665,26.2553,56.735,6.20391,0.76378
498.065,26.3252,50.66134,6.35116,0.76173
500.465,26.3949,44.13745,6.41579,0.75968
502.865,26.4642,37.32519,6.39349,0.75764
505.265,26.53316,30.3477,6.26282,0.75561
507.665,26.6017,23.63521,5.96647,0.75358
510.065,26.67292,18.10729,5.33833,0.75156
512.465,26.74755,12.3796,4.45316,0.74954
514.865,26.8213,7.49536,3.4408,0.74753
517.265,26.89443,4.16071,2.44658,0.74553
519.665,26.96775,1.81515,1.62837,0.74353
522.065,27.0425,0.32196,1.06085,0.74154
524.465,27.118,-0.48326,0.70907,0.73956
526.865,27.1928,-0.90299,0.49426,0.73758
529.265,27.26701,-1.02102,0.35751,0.73561
531.665,27.34048,-1.11459,0.26602,0.73364
534.065,27.41357,-1.16245,0.20258,0.73168
536.465,27.48668,-1.21294,0.17437,0.72973
538.865,27.55963,-1.24402,0.15753,0.72779
541.265,27.63277,-1.26774,0.15043,0.72585
543.665,27.70614,-1.24225,0.14725,0.72392
546.065,27.7795,-1.2423,0.14438,0.722
548.465,27.85292,-1.2423,0.13553,0.72009
550.865,27.92633,-1.24231,0.13035,0.71818
553.265,27.99992,-1.26769,0.12741,0.71628
555.665,28.0736,-1.24831,0.12902,0.71439
558.065,28.1473,-1.2928,0.13363,0.71251
560.465,28.2211,-1.26762,0.13628,0.71063
562.865,28.2951,-1.26771,0.13908,0.70876
565.265,28.369,-1.24894,0.14497,0.7069
567.665,28.44299,-1.24884,0.14268,0.70505
570.065,28.51707,-1.24909,0.14641,0.7032
572.465,28.59122,-1.27404,0.14554,0.70137
574.865,28.66532,-1.27435,0.14577,0.69954
577.265,28.7398,-1.29308,0.14716,0.69772
579.665,28.81417,-1.29461,0.14644,0.69591
582.065,28.8887,-1.2677,0.14849,0.6941
584.465,28.96317,-1.2677,0.14801,0.69231
586.865,29.03772,-1.26758,0.14852,0.69052
589.265,29.11225,-1.29308,0.14733,0.68874
591.665,29.18696,-1.29308,0.15014,0.68697
594.065,29.2614,-1.29308,0.14851,0.68521
596.465,29.33623,-1.29304,0.15004,0.68346
598.865,29.41102,-1.2684,0.14907,0.68172
601.265,29.486,-1.29308,0.15064,0.67998
603.665,29.56085,-1.29308,0.15166,0.67826
606.065,29.6359,-1.29315,0.1525,0.67654
608.465,29.71105,-1.26771,0.14583,0.67483
610.865,29.78626,-1.26743,0.14793,0.67313
613.265,29.86154,-1.31844,0.14768,0.67144
615.665,29.93683,-1.26774,0.14667,0.66976
617.665,29.99959,-1.2677,0.14668,0.66836