File: 01_Data/LDPE/STA/N2/30K_min/LDPE_STA_N2_30KData_210908_R1.csv
##Temp./Â°C,Time/min,Mass(subtr.2)/%,DSC(subtr.2)/(mW/mg),Sensit./(uV/mW)
49.277,10.01,98.9067,0.0204162,1.05401
51.677,11.5227,98.86392,0.16925,1.05405
54.077,11.86786,98.8635,0.28021,1.05406
56.477,12.11784,98.86219,0.37783,1.05405
58.877,12.32698,98.83757,0.45877,1.05401
61.277,12.512,98.76562,0.52743,1.05394
63.677,12.6828,98.7967,0.5746,1.05384
66.077,12.8432,98.7677,0.61391,1.05371
68.477,12.99455,98.77359,0.64746,1.05356
70.877,13.14051,98.74185,0.68331,1.05338
73.277,13.2812,98.75219,0.72138,1.05317
75.677,13.41724,98.72788,0.7615,1.05294
78.077,13.5495,98.7639,0.80484,1.05267
80.477,13.6776,98.77741,0.85225,1.05238
82.877,13.8022,98.73375,0.91041,1.05207
85.277,13.92293,98.72384,0.97639,1.05173
87.677,14.0402,98.72057,1.04836,1.05136
90.077,14.15449,98.67381,1.13365,1.05096
92.477,14.2658,98.70767,1.21981,1.05054
94.877,14.3743,98.7172,1.32389,1.05009
97.277,14.4801,98.74851,1.47554,1.04962
99.677,14.5839,98.70009,1.68379,1.04912
102.077,14.68581,98.67441,1.86938,1.0486
104.477,14.78549,98.7255,2.10077,1.04805
106.877,14.88385,98.70136,2.42206,1.04748
109.277,14.98064,98.60306,2.77423,1.04688
111.677,15.0759,98.66424,3.00265,1.04625
114.077,15.16983,98.66473,2.60066,1.0456
116.477,15.26193,98.7026,1.99432,1.04493
118.877,15.35224,98.62623,1.61445,1.04423
121.277,15.4413,98.6326,1.39681,1.04351
123.677,15.52929,98.61544,1.27684,1.04276
126.077,15.6159,98.5687,1.21179,1.04199
128.477,15.7018,98.58936,1.18087,1.0412
130.877,15.7864,98.60925,1.16692,1.04038
133.277,15.87079,98.6119,1.16767,1.03954
135.677,15.95379,98.5664,1.17026,1.03868
138.077,16.03635,98.59585,1.18132,1.03779
140.477,16.11798,98.56666,1.1912,1.03688
142.877,16.19892,98.61155,1.20661,1.03595
145.277,16.27929,98.60445,1.2212,1.035
147.677,16.3587,98.64496,1.23651,1.03402
150.077,16.43758,98.63539,1.2495,1.03302
152.477,16.51577,98.58685,1.26567,1.032
154.877,16.59367,98.60468,1.27878,1.03096
157.277,16.67095,98.56265,1.29513,1.0299
159.677,16.7477,98.60468,1.31368,1.02882
162.077,16.82408,98.6015,1.32636,1.02771
164.477,16.89989,98.626,1.34389,1.02658
166.877,16.97537,98.55972,1.3588,1.02544
169.277,17.05015,98.57234,1.37422,1.02427
171.677,17.12473,98.6037,1.38712,1.02308
174.077,17.19901,98.51682,1.40124,1.02187
176.477,17.27255,98.51727,1.42036,1.02065
178.877,17.34563,98.55075,1.43308,1.0194
181.277,17.41832,98.6039,1.45008,1.01813
183.677,17.4907,98.56269,1.46341,1.01685
186.077,17.56251,98.5202,1.47653,1.01554
188.477,17.634,98.52125,1.49148,1.01422
190.877,17.70512,98.56866,1.50599,1.01288
193.277,17.77594,98.56625,1.51667,1.01152
195.677,17.84639,98.5237,1.52995,1.01014
198.077,17.9164,98.48684,1.54336,1.00874
200.477,17.98636,98.48141,1.55555,1.00733
202.877,18.05612,98.48069,1.56826,1.00589
205.277,18.12562,98.50267,1.58113,1.00444
207.677,18.19504,98.482,1.59534,1.00298
210.077,18.26398,98.48141,1.60917,1.00149
212.477,18.3327,98.47112,1.62072,0.99999
214.877,18.4013,98.47083,1.63322,0.99847
217.277,18.46963,98.47083,1.64741,0.99694
219.677,18.53789,98.47072,1.65586,0.99539
222.077,18.60592,98.43915,1.66987,0.99382
224.477,18.67364,98.41609,1.67689,0.99224
226.877,18.7416,98.39712,1.69158,0.99065
229.277,18.8091,98.42917,1.70042,0.98903
231.677,18.8765,98.43598,1.71405,0.98741
234.077,18.94368,98.43938,1.72405,0.98576
236.477,19.0109,98.3971,1.73429,0.98411
238.877,19.07784,98.39712,1.74775,0.98244
241.277,19.14471,98.39711,1.75968,0.98075
243.677,19.21152,98.44118,1.76782,0.97905
246.077,19.27809,98.4391,1.77639,0.97734
248.477,19.34455,98.44181,1.78847,0.97561
250.877,19.411,98.3831,1.79694,0.97387
253.277,19.4774,98.39998,1.80824,0.97212
255.677,19.5436,98.39705,1.8184,0.97035
258.077,19.60967,98.39712,1.82381,0.96857
260.477,19.6756,98.39712,1.83778,0.96678
262.877,19.7417,98.3981,1.84601,0.96498
265.277,19.80728,98.35481,1.8539,0.96316
267.677,19.8732,98.35481,1.86685,0.96134
270.077,19.93891,98.3548,1.87416,0.9595
272.477,20.00464,98.31273,1.88492,0.95765
274.877,20.07035,98.35463,1.89284,0.95578
277.277,20.13586,98.39705,1.9016,0.95391
279.677,20.20139,98.35485,1.90897,0.95203
282.077,20.26686,98.3548,1.92003,0.95013
284.477,20.33233,98.31323,1.9246,0.94823
286.877,20.39776,98.32765,1.93606,0.94632
289.277,20.4632,98.3126,1.9429,0.94439
291.677,20.52863,98.32313,1.9483,0.94246
294.077,20.594,98.31905,1.95914,0.94051
296.477,20.65931,98.3125,1.96403,0.93856
298.877,20.72477,98.2706,1.96914,0.9366
301.277,20.79018,98.2705,1.9746,0.93463
303.677,20.85547,98.22842,1.9831,0.93265
306.077,20.92083,98.22853,1.98655,0.93066
308.477,20.98601,98.23169,1.99234,0.92867
310.877,21.0514,98.27131,1.99655,0.92666
313.277,21.11675,98.22853,2.00412,0.92465
315.677,21.182,98.22853,2.00784,0.92263
318.077,21.2473,98.2307,2.01076,0.92061
320.477,21.31273,98.24931,2.01094,0.91857
322.877,21.3781,98.24945,2.01903,0.91653
325.277,21.44343,98.20725,2.02258,0.91448
327.677,21.50903,98.20737,2.03068,0.91243
330.077,21.5745,98.20737,2.03746,0.91037
332.477,21.6398,98.20737,2.05062,0.9083
334.877,21.70535,98.1866,2.06391,0.90623
337.277,21.77084,98.1439,2.07866,0.90415
339.677,21.83655,98.1439,2.09204,0.90207
342.077,21.9022,98.1439,2.10865,0.89998
344.477,21.96783,98.14579,2.11774,0.89789
346.877,22.0335,98.05972,2.13381,0.89579
349.277,22.09937,98.1439,2.14434,0.89369
351.677,22.1652,98.102,2.15619,0.89158
354.077,22.23114,98.08396,2.17078,0.88947
356.477,22.29719,98.1016,2.17812,0.88735
358.877,22.3631,98.10211,2.19267,0.88523
361.277,22.42919,98.08077,2.20039,0.88311
363.677,22.4954,98.08077,2.21645,0.88098
366.077,22.56167,98.0808,2.22525,0.87885
368.477,22.62793,98.11211,2.23899,0.87671
370.877,22.6943,98.0929,2.24807,0.87458
373.277,22.76085,98.00675,2.26256,0.87244
375.677,22.82735,98.00673,2.27718,0.8703
378.077,22.89391,98.00668,2.2897,0.86815
380.477,22.9607,97.96477,2.30093,0.86601
382.877,23.02746,97.96474,2.31416,0.86386
385.277,23.0942,97.96474,2.33066,0.86171
387.677,23.16108,97.96474,2.3448,0.85956
390.077,23.22816,97.96474,2.36412,0.8574
392.477,23.2952,97.96474,2.38057,0.85525
394.877,23.3624,97.92785,2.39851,0.85309
397.277,23.42965,97.88051,2.41789,0.85093
399.677,23.49673,97.83808,2.43632,0.84878
402.077,23.56437,97.79594,2.45434,0.84662
404.477,23.63186,97.75265,2.47596,0.84446
406.877,23.69934,97.71155,2.50194,0.8423
409.277,23.76706,97.66898,2.52508,0.84014
411.677,23.83482,97.6133,2.54631,0.83799
414.077,23.9027,97.53445,2.569,0.83583
416.477,23.9706,97.4433,2.59379,0.83367
418.877,24.03848,97.414,2.62379,0.83151
421.277,24.10686,97.32275,2.64948,0.82936
423.677,24.17513,97.25318,2.6808,0.8272
426.077,24.2435,97.16609,2.71605,0.82505
428.477,24.31188,97.0484,2.75173,0.8229
430.877,24.38048,96.8847,2.79029,0.82075
433.277,24.44934,96.7173,2.83083,0.8186
435.677,24.51811,96.53817,2.8791,0.81645
438.077,24.58694,96.36665,2.94325,0.8143
440.477,24.65588,96.17484,3.00414,0.81216
442.877,24.72485,95.89228,3.04755,0.81002
445.277,24.794,95.5418,3.11065,0.80788
447.677,24.86305,95.21039,3.18076,0.80574
450.077,24.93235,94.8465,3.261,0.80361
452.477,25.0017,94.4269,3.34249,0.80148
454.877,25.07111,93.93856,3.43243,0.79935
457.277,25.1407,93.3193,3.56686,0.79722
459.677,25.2102,92.69255,3.79005,0.7951
462.077,25.27985,91.762,3.81072,0.79299
464.477,25.3495,90.80761,3.89192,0.79087
466.877,25.41941,89.73129,4.0065,0.78876
469.277,25.48925,88.4601,4.14662,0.78665
471.677,25.55902,86.97247,4.31989,0.78455
474.077,25.62885,85.3241,4.49046,0.78245
476.477,25.69876,83.28582,4.70619,0.78036
478.877,25.7685,80.99107,4.91484,0.77827
481.277,25.83834,78.34732,5.15349,0.77618
483.677,25.908,75.32253,5.38922,0.7741
486.077,25.97769,71.75222,5.63952,0.77202
488.477,26.04737,67.75829,5.84284,0.76995
490.877,26.1171,63.386,6.08809,0.76789
493.277,26.18685,58.52535,6.2771,0.76583
495.677,26.2565,52.41607,6.40819,0.76377
498.077,26.3263,46.40038,6.49162,0.76172
500.477,26.3964,39.87099,6.45394,0.75967
502.877,26.46688,33.21719,6.25499,0.75763
505.277,26.5378,26.34245,5.85143,0.7556
507.677,26.6091,19.8765,5.2354,0.75357
510.077,26.68073,13.90806,4.45001,0.75155
512.477,26.7531,9.16955,3.57004,0.74953
514.877,26.8266,5.13851,2.68802,0.74752
517.277,26.9011,2.2801,1.92884,0.74552
519.677,26.97595,0.37427,1.36834,0.74352
522.077,27.05054,-0.57494,0.99077,0.74153
524.477,27.1245,-1.13482,0.737,0.73955
526.877,27.1978,-1.37058,0.5571,0.73757
529.277,27.27082,-1.55651,0.43474,0.7356
531.677,27.3437,-1.6176,0.36117,0.73363
534.077,27.41633,-1.61523,0.32766,0.73167
536.477,27.48938,-1.5755,0.30069,0.72972
538.877,27.56222,-1.53333,0.28245,0.72778
541.277,27.6353,-1.51755,0.27053,0.72584
543.677,27.7085,-1.53421,0.27307,0.72391
546.077,27.78177,-1.53342,0.27815,0.72199
548.477,27.85502,-1.49906,0.28531,0.72008
550.877,27.9284,-1.5439,0.29317,0.71817
553.277,28.00191,-1.58583,0.29862,0.71627
555.677,28.0755,-1.62835,0.30878,0.71438
558.077,28.14923,-1.59646,0.31294,0.7125
560.477,28.22297,-1.59648,0.31674,0.71062
562.877,28.29665,-1.63781,0.32375,0.70875
565.277,28.3704,-1.63878,0.32719,0.70689
567.677,28.4443,-1.64021,0.32529,0.70504
570.077,28.5182,-1.55441,0.32283,0.70319
572.477,28.5923,-1.59667,0.32556,0.70136
574.877,28.6664,-1.62879,0.32955,0.69953
577.277,28.7405,-1.68149,0.32951,0.69771
579.677,28.81467,-1.63731,0.32854,0.6959
582.077,28.88895,-1.7229,0.33605,0.69409
584.477,28.9635,-1.69271,0.34148,0.6923
586.877,29.038,-1.67373,0.33732,0.69051
589.277,29.11255,-1.51115,0.33162,0.68873
591.677,29.18733,-1.3383,0.33332,0.68697
594.077,29.262,-1.23522,0.32899,0.6852
596.477,29.3366,-1.38688,0.34113,0.68345
598.877,29.4113,-1.62922,0.34525,0.68171
601.277,29.4861,-1.69652,0.34406,0.67997
603.677,29.56105,-1.65257,0.34912,0.67825
606.077,29.63598,-1.65174,0.35046,0.67653
608.477,29.71112,-1.61189,0.34853,0.67482
610.877,29.78622,-1.65256,0.35104,0.67312
613.277,29.86127,-1.69155,0.35648,0.67143
615.677,29.9365,-1.74527,0.35425,0.66975
617.677,29.99942,-1.68726,0.35749,0.66836