File: 01_Data/HDPE/MCC/HDPE_MCC_30K_min_210921_R1.txt
Sample ID:	C:\MCC\MCC Cal\Test\HDPE_MCC_30K_min_210921_R1.txt
Sample Weight (mg):	4.8
Heating Rate (C/s):	0.5
Combustor Temp (C):	900
N2 Flow Rate (cc/min):	80
O2 Flow Rate (cc/min):	20
Calibration File:	C:\MCC\MCC Cal\Coeff1 JN10440_30_210304.txt.txt
T Correction Coefficients:	0	1.024463	0
Time Shift (s):	14
*
Time (s)	Temperature (C)	N2 flow rate (cc/min)	O2 flow rate (cc/min)	Flow Rate (cc/min)	Oxygen (%)	HRR (W/g)	Heating rate (C/s)
-0.001	108.195	79.997	19.997	100.113	19.990	-0.112	-0.012
7.999	108.243	79.998	19.995	100.115	19.992	-0.200	0.024
15.999	108.147	79.996	19.996	100.115	19.991	-0.153	-0.008
23.999	108.127	79.995	19.995	100.123	19.990	-0.067	0.004
32.000	108.202	79.997	19.995	100.158	19.981	0.521	0.043
40.000	108.431	79.996	19.996	100.202	19.975	0.857	0.044
47.999	108.961	79.996	19.995	100.250	19.968	1.369	0.067
55.999	109.821	79.998	19.994	100.226	19.967	1.410	0.138
63.999	110.708	79.999	19.996	100.225	19.972	1.061	0.122
71.999	111.825	79.997	19.995	100.300	19.957	2.029	0.168
79.999	113.302	79.998	19.996	100.305	19.951	2.428	0.178
88.000	115.041	79.997	19.997	100.323	19.951	2.451	0.244
95.999	117.043	79.997	19.994	100.323	19.948	2.664	0.260
103.999	119.313	79.996	19.996	100.322	19.948	2.647	0.308
111.999	121.695	79.998	19.994	100.347	19.943	2.974	0.315
119.999	124.412	79.996	19.995	100.349	19.940	3.141	0.323
127.999	127.365	79.996	19.994	100.349	19.940	3.152	0.364
136.000	130.501	79.997	19.996	100.352	19.943	2.997	0.394
144.000	133.688	79.999	19.995	100.351	19.940	3.171	0.427
152.000	137.088	79.998	19.996	100.361	19.941	3.079	0.434
160.000	140.558	79.999	19.996	100.355	19.940	3.157	0.452
168.000	144.178	79.999	19.996	100.346	19.940	3.169	0.460
176.000	147.835	79.996	19.997	100.350	19.947	2.738	0.443
184.000	151.554	79.997	19.996	100.349	19.944	2.881	0.461
192.000	155.337	79.998	19.995	100.346	19.945	2.819	0.494
200.000	159.174	79.995	19.996	100.352	19.946	2.803	0.500
208.000	162.971	79.996	19.997	100.351	19.946	2.752	0.465
216.000	166.893	79.999	19.996	100.346	19.948	2.641	0.484
224.000	170.846	80.000	19.995	100.329	19.948	2.627	0.504
232.000	174.790	79.997	19.995	100.335	19.950	2.532	0.493
240.000	178.756	79.999	19.996	100.315	19.951	2.474	0.520
248.000	182.676	79.999	19.995	100.330	19.952	2.370	0.523
256.000	186.677	79.996	19.997	100.321	19.953	2.314	0.513
264.000	190.647	79.995	19.995	100.317	19.950	2.532	0.483
272.000	194.623	79.997	19.996	100.317	19.956	2.092	0.482
280.000	198.568	79.998	19.994	100.307	19.956	2.117	0.499
288.000	202.615	79.997	19.995	100.308	19.957	2.071	0.514
296.000	206.571	79.999	19.994	100.309	19.957	2.084	0.469
304.000	210.593	80.000	19.995	100.311	19.958	2.010	0.513
312.000	214.611	79.997	19.994	100.310	19.956	2.089	0.493
320.000	218.622	79.998	19.995	100.304	19.958	2.001	0.498
328.000	222.711	79.998	19.995	100.299	19.956	2.092	0.521
336.000	226.711	79.998	19.996	100.277	19.963	1.675	0.497
344.000	230.769	79.997	19.996	100.285	19.960	1.876	0.494
352.000	234.685	79.997	19.996	100.269	19.960	1.874	0.484
360.000	238.538	79.997	19.997	100.269	19.961	1.795	0.472
368.000	242.448	79.997	19.996	100.269	19.960	1.890	0.504
376.000	246.375	79.998	19.995	100.270	19.960	1.855	0.495
384.000	250.275	79.997	19.997	100.269	19.959	1.949	0.488
392.000	254.254	79.998	19.995	100.268	19.960	1.847	0.492
400.000	258.067	79.999	19.994	100.270	19.960	1.837	0.469
408.000	261.962	80.000	19.994	100.266	19.963	1.684	0.494
416.000	265.917	79.996	19.996	100.268	19.962	1.698	0.519
424.000	269.944	79.996	19.996	100.267	19.963	1.677	0.510
432.000	274.041	79.997	19.996	100.268	19.960	1.832	0.511
440.000	278.112	79.997	19.997	100.269	19.960	1.869	0.503
448.000	282.267	79.997	19.996	100.269	19.961	1.777	0.554
456.000	286.367	79.998	19.995	100.265	19.965	1.535	0.505
464.000	290.469	79.998	19.995	100.259	19.966	1.491	0.501
472.000	294.627	79.997	19.996	100.251	19.967	1.422	0.494
480.000	298.717	79.998	19.994	100.261	19.967	1.387	0.507
488.000	302.723	80.000	19.994	100.250	19.966	1.450	0.481
496.000	306.796	79.997	19.994	100.239	19.969	1.296	0.521
504.000	310.802	79.996	19.995	100.249	19.965	1.554	0.490
512.000	314.829	79.997	19.996	100.247	19.969	1.268	0.488
520.000	318.783	79.996	19.995	100.246	19.967	1.422	0.494
528.000	322.811	79.996	19.996	100.233	19.969	1.269	0.539
536.000	326.828	79.997	19.996	100.229	19.971	1.134	0.569
544.000	330.834	79.997	19.997	100.230	19.966	1.457	0.474
552.000	334.967	79.997	19.995	100.232	19.969	1.255	0.515
560.000	338.822	79.999	19.996	100.232	19.969	1.241	0.462
568.000	342.895	79.999	19.995	100.232	19.968	1.310	0.483
576.000	346.872	79.997	19.995	100.226	19.965	1.504	0.505
584.000	350.810	79.998	19.994	100.227	19.969	1.269	0.482
592.000	354.771	79.998	19.996	100.226	19.967	1.376	0.499
600.000	358.775	79.998	19.995	100.228	19.968	1.345	0.499
608.000	362.695	79.996	19.996	100.228	19.965	1.525	0.509
616.000	366.699	79.997	19.996	100.220	19.963	1.669	0.484
624.000	370.687	80.000	19.995	100.221	19.960	1.847	0.495
632.000	374.757	79.998	19.997	100.224	19.963	1.680	0.501
640.000	378.813	79.998	19.995	100.224	19.961	1.778	0.502
648.000	382.881	79.999	19.995	100.221	19.961	1.822	0.504
656.000	386.926	79.997	19.995	100.218	19.956	2.113	0.498
664.000	390.998	79.997	19.995	100.211	19.950	2.489	0.513
672.000	395.103	79.998	19.995	100.204	19.948	2.619	0.498
680.000	399.156	79.998	19.995	100.226	19.946	2.772	0.521
688.000	403.162	79.996	19.995	100.217	19.936	3.418	0.510
696.000	407.262	79.997	19.996	100.218	19.930	3.793	0.495
704.000	411.316	79.999	19.995	100.205	19.923	4.293	0.490
712.000	415.352	79.998	19.995	100.202	19.906	5.344	0.508
720.000	419.403	79.998	19.996	100.194	19.886	6.679	0.509
728.000	423.589	79.998	19.996	100.191	19.868	7.818	0.520
736.000	427.696	79.998	19.996	100.188	19.855	8.665	0.525
744.000	431.721	79.998	19.997	100.190	19.827	10.538	0.505
752.000	435.807	79.997	19.996	100.182	19.775	13.908	0.517
760.000	439.755	79.997	19.996	100.170	19.719	17.531	0.492
768.000	443.750	79.996	19.995	100.168	19.651	22.001	0.491
776.000	447.605	79.998	19.995	100.158	19.560	27.866	0.476
784.000	451.452	79.999	19.995	100.152	19.449	35.112	0.502
792.000	455.335	79.999	19.995	100.151	19.289	45.510	0.487
800.000	459.234	79.999	19.996	100.146	19.052	60.985	0.476
808.000	463.142	79.999	19.996	100.147	18.647	87.289	0.482
816.000	467.079	79.996	19.996	100.108	18.070	124.755	0.544
824.000	471.077	79.997	19.995	100.037	17.377	169.593	0.503
832.000	475.263	79.997	19.996	99.968	16.442	230.064	0.517
840.000	479.471	79.996	19.995	99.877	15.266	305.883	0.549
848.000	483.645	79.997	19.995	99.635	13.742	402.665	0.511
856.000	487.805	79.999	19.996	99.311	11.861	521.744	0.531
864.000	491.913	79.999	19.995	98.901	9.911	645.797	0.521
872.000	496.050	79.999	19.996	98.530	8.435	739.184	0.489
880.000	500.142	80.000	19.997	97.899	8.826	716.395	0.489
888.000	504.268	79.999	19.995	98.606	11.444	552.489	0.522
896.000	508.471	79.999	19.996	99.169	15.218	310.404	0.505
904.000	512.602	79.997	19.994	99.932	18.053	125.973	0.542
912.000	516.699	79.998	19.995	100.134	19.364	40.674	0.497
920.000	520.706	79.999	19.995	100.186	19.806	11.855	0.513
928.000	524.678	79.999	19.996	100.154	19.915	4.787	0.502
936.000	528.720	79.998	19.995	100.154	19.942	3.035	0.545
944.000	532.704	79.999	19.994	100.148	19.954	2.219	0.519
952.000	536.792	79.998	19.995	99.362	19.955	2.187	0.514
960.000	540.841	79.998	19.995	100.121	19.959	1.925	0.498
968.000	544.916	79.998	19.994	100.115	19.956	2.096	0.500
976.000	548.969	80.000	19.996	100.118	19.956	2.096	0.508
984.000	553.029	79.999	19.996	100.132	19.961	1.768	0.551
992.000	557.123	79.998	19.995	100.144	19.958	1.956	0.498
1000.000	561.215	79.998	19.996	100.150	19.961	1.763	0.489
1008.000	565.312	79.996	19.994	100.153	19.963	1.668	0.534
1016.000	569.428	79.998	19.995	100.159	19.961	1.765	0.538
1024.000	573.521	79.997	19.995	100.166	19.959	1.900	0.505
1031.999	577.627	79.997	19.995	100.166	19.967	1.426	0.501
1039.999	581.721	80.000	19.995	100.167	19.970	1.219	0.530
1048.000	585.714	79.999	19.995	100.157	19.962	1.744	0.488
1055.999	589.769	79.997	19.995	100.168	19.965	1.546	0.507
1063.999	593.819	79.998	19.996	100.167	19.966	1.444	0.527
1071.999	597.923	79.996	19.995	100.167	19.964	1.612	0.524
1079.999	601.995	79.995	19.995	100.168	19.966	1.442	0.477
1087.999	606.128	79.995	19.996	100.175	19.966	1.455	0.505
1095.999	610.285	79.998	19.994	100.190	19.963	1.645	0.549
1104.000	614.423	79.998	19.994	100.184	19.959	1.913	0.507
1111.999	618.527	79.999	19.995	100.178	19.960	1.872	0.518
1119.999	622.597	80.001	19.994	100.176	19.962	1.753	0.498
1127.999	626.675	80.001	19.995	100.189	19.964	1.620	0.516
1136.000	630.768	79.998	19.994	100.176	19.964	1.585	0.502
1143.999	634.856	79.996	19.996	100.198	19.964	1.614	0.531
1151.999	638.977	79.996	19.995	100.193	19.968	1.348	0.522
1159.999	643.022	79.997	19.995	100.205	19.961	1.806	0.532
1168.000	647.076	79.996	19.996	100.203	19.963	1.660	0.491
1175.999	651.209	79.998	19.996	100.208	19.970	1.186	0.512
1183.999	655.247	79.999	19.995	100.213	19.957	2.045	0.462
1192.000	659.496	79.999	19.995	100.223	19.964	1.606	0.502
1199.999	663.527	80.000	19.995	100.218	19.959	1.921	0.520
1207.999	667.620	80.002	19.995	100.237	19.961	1.798	0.490
1215.999	671.628	79.998	19.995	100.239	19.956	2.123	0.507
1223.999	675.739	79.998	19.994	100.240	19.955	2.165	0.510
1231.999	679.870	80.000	19.995	100.241	19.958	1.977	0.514
1239.999	683.888	79.999	19.994	100.256	19.954	2.272	0.498
1247.999	688.005	79.999	19.996	100.268	19.950	2.506	0.539
1255.999	692.086	79.998	19.995	100.268	19.951	2.475	0.511
1263.999	696.242	79.998	19.996	100.274	19.947	2.735	0.547
1271.999	700.302	80.000	19.997	100.280	19.949	2.568	0.495
1280.000	704.347	80.000	19.995	100.296	19.944	2.916	0.515
1288.000	708.360	80.000	19.995	100.289	19.938	3.308	0.484
1295.999	712.376	79.999	19.995	100.306	19.937	3.361	0.495
1303.999	716.381	79.998	19.995	100.307	19.944	2.936	0.515
1311.999	720.387	79.997	19.995	100.308	19.943	2.976	0.504
1319.999	724.321	79.998	19.996	100.311	19.938	3.328	0.511
1327.999	728.247	79.997	19.996	100.317	19.935	3.522	0.491
1335.999	732.195	79.998	19.995	100.341	19.933	3.596	0.462
1343.999	736.153	79.998	19.995	100.344	19.938	3.299	0.482
1351.999	740.149	79.998	19.996	100.347	19.927	3.998	0.492
1358.999	743.624	79.998	19.995	100.347	19.927	4.016	0.502