File: 01_Data/HDPE/MCC/HDPE_MCC_CorrectedDataDF.csv
Temperature (C),R1,R2,R3
150.00,0.00,0.00,0.00
152.00,-0.04,-0.09,-0.22
154.00,-0.17,-0.07,-0.02
156.00,-0.15,-0.01,-0.21
158.00,-0.28,-0.09,0.23
160.00,-0.11,-0.30,-0.03
162.00,-0.19,-0.19,-0.30
164.00,-0.29,-0.49,-0.29
166.00,-0.43,-0.63,-0.50
168.00,-0.48,-0.30,-0.18
170.00,-0.31,-0.70,-0.46
172.00,-0.35,-0.57,-0.65
174.00,-0.26,-0.43,-0.60
176.00,-0.30,-0.42,-0.47
178.00,-0.34,-0.38,-0.33
180.00,-0.43,-0.56,-0.58
182.00,-0.52,-0.54,-0.42
184.00,-0.46,-0.49,-0.58
186.00,-0.56,-0.41,-0.70
188.00,-0.45,-0.30,-0.68
190.00,-0.44,-0.50,-0.75
192.00,-0.54,-0.64,-0.89
194.00,-0.52,-0.51,-0.90
196.00,-0.66,-0.84,-1.06
198.00,-0.58,-0.70,-0.98
200.00,-0.82,-0.88,-1.07
202.00,-0.66,-0.83,-1.01
204.00,-0.68,-1.00,-1.06
206.00,-0.74,-0.89,-0.98
208.00,-0.77,-0.90,-0.87
210.00,-0.77,-0.90,-1.11
212.00,-0.80,-0.97,-0.91
214.00,-0.80,-1.03,-1.02
216.00,-0.83,-1.05,-1.30
218.00,-0.95,-1.15,-1.20
220.00,-0.77,-0.87,-1.37
222.00,-0.70,-0.91,-1.29
224.00,-0.65,-1.07,-1.03
226.00,-0.92,-1.03,-0.92
228.00,-0.93,-1.04,-1.12
230.00,-0.86,-1.19,-1.01
232.00,-1.07,-1.18,-1.14
234.00,-0.97,-1.08,-1.30
236.00,-1.01,-1.26,-1.11
238.00,-1.25,-1.14,-1.29
240.00,-1.15,-1.14,-1.27
242.00,-1.19,-1.27,-1.27
244.00,-1.10,-1.21,-1.35
246.00,-1.21,-1.28,-1.39
248.00,-1.39,-1.21,-1.37
250.00,-1.15,-1.25,-1.54
252.00,-1.08,-1.32,-1.35
254.00,-1.09,-1.28,-1.24
256.00,-1.17,-1.27,-1.31
258.00,-1.03,-1.49,-1.44
260.00,-1.11,-1.39,-1.56
262.00,-1.15,-1.45,-1.46
264.00,-1.11,-1.37,-1.58
266.00,-1.09,-1.31,-1.58
268.00,-0.97,-1.42,-1.66
270.00,-1.14,-1.25,-1.76
272.00,-1.32,-1.26,-1.81
274.00,-1.10,-1.26,-1.92
276.00,-1.14,-1.17,-1.69
278.00,-0.97,-1.40,-1.75
280.00,-1.00,-1.32,-1.94
282.00,-1.17,-1.34,-1.77
284.00,-1.25,-1.48,-1.81
286.00,-1.19,-1.46,-1.79
288.00,-1.27,-1.36,-1.74
290.00,-1.34,-1.23,-1.68
292.00,-1.33,-1.37,-1.83
294.00,-1.44,-1.60,-1.82
296.00,-1.28,-1.33,-1.98
298.00,-1.21,-1.37,-1.95
300.00,-1.54,-1.44,-1.94
302.00,-1.38,-1.43,-2.00
304.00,-1.73,-1.38,-1.92
306.00,-1.49,-1.54,-1.93
308.00,-1.47,-1.30,-1.89
310.00,-1.41,-1.62,-1.72
312.00,-1.34,-1.49,-1.96
314.00,-1.41,-1.56,-1.85
316.00,-1.47,-1.51,-1.91
318.00,-1.45,-1.44,-1.89
320.00,-1.41,-1.51,-2.05
322.00,-1.51,-1.60,-1.90
324.00,-1.70,-1.69,-1.76
326.00,-1.68,-1.79,-1.70
328.00,-1.60,-1.78,-1.82
330.00,-1.46,-1.69,-1.72
332.00,-1.56,-1.68,-1.97
334.00,-1.59,-1.68,-1.83
336.00,-1.69,-1.55,-1.98
338.00,-1.48,-1.66,-1.91
340.00,-1.60,-1.58,-1.87
342.00,-1.52,-1.59,-1.95
344.00,-1.48,-1.48,-1.99
346.00,-1.45,-1.51,-1.87
348.00,-1.27,-1.44,-1.86
350.00,-1.55,-1.52,-1.84
352.00,-1.40,-1.69,-2.12
354.00,-1.50,-1.64,-2.12
356.00,-1.22,-1.65,-2.06
358.00,-1.39,-1.79,-1.90
360.00,-1.32,-1.70,-1.97
362.00,-1.32,-1.62,-1.90
364.00,-1.24,-1.78,-2.09
366.00,-1.31,-1.70,-1.85
368.00,-0.98,-1.73,-2.00
370.00,-1.05,-1.54,-2.01
372.00,-1.04,-1.58,-1.93
374.00,-1.00,-1.50,-1.84
376.00,-0.92,-1.50,-1.81
378.00,-0.85,-1.56,-1.79
380.00,-1.03,-1.46,-1.84
382.00,-0.96,-1.47,-1.76
384.00,-0.87,-1.32,-1.83
386.00,-0.69,-1.46,-1.63
388.00,-0.59,-1.17,-1.64
390.00,-0.45,-1.36,-1.66
392.00,-0.48,-1.13,-1.40
394.00,-0.29,-0.97,-1.21
396.00,-0.00,-0.83,-1.09
398.00,-0.18,-0.81,-0.79
400.00,0.01,-0.67,-0.74
402.00,0.24,-0.49,-0.67
404.00,0.71,-0.58,-0.31
406.00,0.73,-0.18,-0.09
408.00,0.95,-0.13,0.07
410.00,1.29,0.10,0.39
412.00,1.82,0.27,0.62
414.00,2.10,0.71,0.91
416.00,2.57,0.93,1.43
418.00,3.23,1.29,2.00
420.00,3.97,1.83,2.71
422.00,4.47,2.26,3.33
424.00,5.06,2.98,4.29
426.00,5.52,3.46,5.18
428.00,6.21,4.04,6.62
430.00,6.92,4.84,8.35
432.00,8.06,5.75,10.01
434.00,9.41,7.07,11.65
436.00,11.24,8.34,13.65
438.00,13.00,10.60,15.32
440.00,14.86,13.02,17.40
442.00,17.31,15.48,20.08
444.00,19.80,17.95,22.91
446.00,22.51,19.97,25.95
448.00,25.67,22.92,30.02
450.00,29.07,26.73,34.67
452.00,33.80,31.14,40.25
454.00,38.73,36.60,46.78
456.00,44.90,41.84,54.94
458.00,53.10,48.73,65.03
460.00,62.77,58.18,78.89
462.00,76.03,69.50,95.22
464.00,91.99,87.07,112.49
466.00,110.87,105.81,133.57
468.00,130.95,125.88,155.89
470.00,153.23,147.33,183.15
472.00,178.73,173.28,215.25
474.00,208.80,203.23,247.97
476.00,238.18,237.65,287.55
478.00,275.38,274.35,330.59
480.00,316.61,320.89,380.38
482.00,358.00,368.76,434.64
484.00,410.41,421.48,495.58
486.00,461.29,477.35,556.15
488.00,522.94,541.39,617.67
490.00,586.49,598.02,665.24
492.00,646.67,647.58,711.97
494.00,695.01,703.15,752.65
496.00,733.60,732.88,742.69
498.00,752.44,715.64,692.18
500.00,716.75,660.64,608.46
502.00,651.47,596.21,510.38
504.00,569.96,495.43,387.61
506.00,453.94,391.50,283.77
508.00,329.94,274.99,195.07
510.00,232.79,188.91,118.74
512.00,144.90,114.41,71.96
514.00,84.20,69.59,37.84
516.00,46.05,36.57,20.25
518.00,23.73,17.56,8.98
520.00,11.52,8.76,3.63
522.00,5.27,3.57,1.21
524.00,2.70,1.17,0.02
526.00,1.01,-0.15,-0.87
528.00,0.24,-0.73,-1.27
530.00,-0.09,-1.20,-1.55
532.00,-0.42,-1.30,-1.69
534.00,-0.61,-1.56,-1.66
536.00,-0.60,-1.44,-1.75
538.00,-0.68,-1.73,-1.72
540.00,-0.60,-1.96,-2.07
542.00,-0.60,-1.88,-2.13
544.00,-0.68,-2.09,-2.07
546.00,-0.65,-2.07,-2.30
548.00,-0.85,-2.24,-1.98
550.00,-0.88,-1.94,-2.03
552.00,-0.84,-2.02,-2.30
554.00,-0.97,-1.92,-2.13
556.00,-0.97,-2.35,-2.17
558.00,-1.12,-1.96,-2.35
560.00,-1.07,-2.14,-2.40
562.00,-1.09,-1.84,-2.35
564.00,-1.06,-2.23,-2.18
566.00,-1.08,-2.15,-2.29
568.00,-0.99,-2.15,-2.34
570.00,-0.84,-2.47,-2.29
572.00,-1.01,-2.35,-2.26
574.00,-1.10,-2.28,-2.07
576.00,-0.92,-2.22,-2.23
578.00,-0.98,-2.33,-2.40
580.00,-1.04,-2.06,-2.46
582.00,-1.14,-2.11,-2.13
584.00,-1.06,-1.96,-2.27
586.00,-1.16,-2.16,-2.29
588.00,-1.15,-2.30,-2.28
590.00,-1.28,-2.14,-2.44
592.00,-1.36,-2.35,-2.28
594.00,-1.36,-2.25,-2.40
596.00,-1.42,-2.34,-2.39
598.00,-1.34,-2.80,-2.30
600.00,-1.31,-2.47,-2.28
602.00,-1.15,-2.32,-2.25
604.00,-1.30,-2.19,-2.19
606.00,-1.41,-2.18,-2.19
608.00,-1.40,-2.35,-2.28
610.00,-1.26,-2.45,-2.34
612.00,-1.11,-2.12,-2.51
614.00,-1.00,-2.20,-2.23
616.00,-1.07,-2.06,-2.30
618.00,-0.97,-2.01,-2.26
620.00,-1.00,-2.22,-2.26
622.00,-1.01,-2.10,-2.30
624.00,-1.21,-2.11,-2.18
626.00,-1.26,-2.13,-2.09
628.00,-1.21,-1.99,-2.11
630.00,-1.28,-2.07,-2.14
632.00,-1.29,-1.94,-2.07
634.00,-1.10,-1.86,-1.93
636.00,-1.02,-2.01,-1.97
638.00,-1.42,-2.05,-1.92
640.00,-0.89,-1.99,-1.87
642.00,-1.12,-1.57,-2.10
644.00,-1.16,-1.85,-2.22
646.00,-0.94,-1.57,-2.00
648.00,-0.90,-1.48,-1.84
650.00,-0.94,-1.40,-1.88
652.00,-1.22,-1.68,-1.46
654.00,-0.78,-1.56,-1.68
656.00,-0.76,-1.47,-1.52
658.00,-1.14,-1.68,-1.52
660.00,-0.91,-1.70,-1.54
662.00,-0.70,-1.33,-1.28
664.00,-0.85,-1.23,-1.51
666.00,-0.77,-1.06,-1.41
668.00,-0.83,-1.10,-1.19
670.00,-0.83,-1.03,-1.19
672.00,-0.62,-1.12,-1.28
674.00,-0.78,-1.08,-1.28
676.00,-0.38,-0.82,-1.13
678.00,-0.58,-0.92,-0.96
680.00,-0.66,-0.77,-0.78
682.00,-0.44,-0.70,-0.69
684.00,-0.28,-0.53,-0.60
686.00,-0.24,-0.35,-0.53
688.00,-0.27,-0.24,-0.36
690.00,-0.30,-0.32,-0.22
692.00,-0.26,-0.28,-0.43
694.00,-0.16,-0.30,-0.28
696.00,0.00,-0.34,0.03
698.00,0.13,-0.17,-0.11
700.00,0.00,0.00,0.00