File: 01_Data/HDPE/MCC/HDPE_MCC_30K_min_210921_R2.txt
Sample ID:	C:\MCC\MCC Cal\Test\HDPE_MCC_30K_min_210921_R2.txt
Sample Weight (mg):	4.75
Heating Rate (C/s):	0.5
Combustor Temp (C):	900
N2 Flow Rate (cc/min):	80
O2 Flow Rate (cc/min):	20
Calibration File:	C:\MCC\MCC Cal\Coeff1 JN10440_30_210304.txt.txt
T Correction Coefficients:	0	1.024463	0
Time Shift (s):	14
*
Time (s)	Temperature (C)	N2 flow rate (cc/min)	O2 flow rate (cc/min)	Flow Rate (cc/min)	Oxygen (%)	HRR (W/g)	Heating rate (C/s)
0.000	110.551	80.000	19.996	100.344	19.946	-0.297	-0.004
8.000	110.507	79.997	19.994	100.348	19.944	-0.188	0.001
16.000	110.503	79.997	19.995	100.355	19.942	-0.057	0.018
24.000	110.508	79.998	19.995	100.386	19.937	0.306	0.021
32.000	110.711	79.996	19.996	100.439	19.923	1.184	0.038
40.000	111.252	79.996	19.995	100.481	19.913	1.872	0.109
48.000	112.042	79.997	19.995	100.504	19.914	1.842	0.138
56.000	113.302	79.997	19.997	100.539	19.907	2.240	0.200
64.001	114.900	79.998	19.996	100.538	19.904	2.449	0.200
72.000	116.871	80.000	19.995	100.569	19.902	2.631	0.272
80.000	119.090	79.999	19.994	100.575	19.895	3.059	0.284
88.000	121.644	79.994	19.995	100.558	19.897	2.965	0.368
96.000	124.339	79.997	19.995	100.560	19.896	2.967	0.340
104.000	127.271	79.997	19.994	100.577	19.895	3.092	0.394
112.001	130.336	79.995	19.995	100.585	19.893	3.190	0.377
120.000	133.620	79.996	19.996	100.580	19.890	3.409	0.383
128.000	137.056	79.998	19.996	100.585	19.885	3.747	0.451
136.000	140.669	79.998	19.995	100.582	19.891	3.343	0.458
144.000	144.404	79.997	19.996	100.581	19.893	3.199	0.464
152.000	148.273	79.998	19.997	100.575	19.895	3.072	0.496
160.000	152.192	79.999	19.994	100.575	19.892	3.234	0.502
168.000	156.062	79.998	19.994	100.554	19.891	3.356	0.484
176.000	159.978	79.997	19.995	100.549	19.894	3.136	0.494
184.000	163.955	79.999	19.995	100.543	19.900	2.765	0.515
192.000	167.919	79.998	19.995	100.542	19.897	2.929	0.450
200.000	171.913	79.997	19.996	100.544	19.896	3.011	0.496
208.000	175.883	79.999	19.995	100.536	19.895	3.078	0.501
216.000	179.838	79.998	19.995	100.541	19.896	2.989	0.445
224.000	183.776	79.998	19.995	100.536	19.896	2.990	0.489
232.000	187.790	80.000	19.995	100.513	19.893	3.166	0.515
240.000	191.769	79.999	19.996	100.505	19.899	2.802	0.478
248.000	195.770	79.998	19.997	100.503	19.899	2.825	0.490
256.000	199.703	79.998	19.995	100.503	19.900	2.734	0.453
264.000	203.694	79.997	19.994	100.502	19.901	2.652	0.499
272.000	207.702	79.998	19.995	100.501	19.903	2.533	0.499
280.000	211.694	79.997	19.995	100.494	19.900	2.725	0.506
288.000	215.654	79.999	19.995	100.494	19.901	2.699	0.481
296.000	219.620	79.999	19.995	100.480	19.901	2.660	0.459
304.000	223.582	79.997	19.995	100.478	19.901	2.642	0.503
312.000	227.545	80.000	19.995	100.469	19.904	2.454	0.483
320.000	231.514	80.000	19.995	100.461	19.901	2.649	0.482
328.000	235.465	79.997	19.996	100.461	19.903	2.507	0.503
336.000	239.285	79.998	19.997	100.462	19.903	2.559	0.452
344.000	243.183	79.998	19.994	100.462	19.900	2.737	0.472
352.000	247.078	79.998	19.996	100.463	19.904	2.450	0.462
360.000	251.063	79.998	19.996	100.461	19.904	2.438	0.458
368.000	255.031	79.998	19.996	100.454	19.904	2.462	0.467
376.000	258.997	79.999	19.994	100.445	19.906	2.341	0.507
384.000	262.913	79.999	19.996	100.440	19.905	2.433	0.481
392.000	266.885	79.999	19.996	100.432	19.898	2.867	0.502
400.000	270.850	79.999	19.995	100.425	19.898	2.888	0.528
408.000	274.803	79.998	19.995	100.425	19.901	2.634	0.486
416.000	278.709	79.997	19.994	100.427	19.902	2.600	0.481
424.000	282.676	79.998	19.995	100.426	19.899	2.796	0.495
432.000	286.574	79.998	19.996	100.426	19.904	2.456	0.477
440.000	290.530	79.998	19.995	100.422	19.902	2.600	0.494
448.000	294.490	79.998	19.995	100.423	19.898	2.879	0.498
456.000	298.491	79.999	19.994	100.419	19.904	2.490	0.504
464.000	302.293	79.999	19.995	100.415	19.901	2.685	0.441
472.000	306.286	79.998	19.994	100.404	19.902	2.566	0.460
480.000	310.223	80.001	19.996	100.403	19.903	2.509	0.483
488.000	314.211	79.996	19.996	100.412	19.903	2.513	0.508
496.000	318.143	80.000	19.995	100.396	19.900	2.736	0.496
504.000	322.113	79.999	19.997	100.389	19.902	2.598	0.495
512.000	326.113	79.998	19.996	100.392	19.906	2.331	0.506
520.000	330.200	79.996	19.997	100.390	19.904	2.484	0.509
528.000	334.303	79.998	19.995	100.387	19.902	2.615	0.529
536.000	338.372	80.000	19.995	100.387	19.903	2.527	0.526
544.000	342.475	79.997	19.996	100.387	19.899	2.809	0.491
552.000	346.548	80.000	19.995	100.387	19.898	2.889	0.504
560.000	350.652	80.002	19.995	100.387	19.898	2.848	0.508
568.000	354.815	79.998	19.995	100.380	19.904	2.469	0.510
576.000	358.935	79.997	19.996	100.357	19.903	2.517	0.523
584.000	362.991	79.998	19.995	100.368	19.904	2.471	0.481
592.000	366.934	79.998	19.995	100.369	19.899	2.793	0.487
600.000	370.938	79.996	19.996	100.366	19.898	2.854	0.512
608.000	374.903	79.997	19.996	100.370	19.895	3.028	0.509
616.000	378.913	79.999	19.995	100.366	19.895	3.048	0.525
624.000	382.863	79.998	19.995	100.356	19.898	2.858	0.516
632.000	386.895	79.999	19.995	100.349	19.893	3.208	0.511
640.000	391.041	80.001	19.995	100.350	19.890	3.382	0.533
648.000	395.210	79.998	19.994	100.345	19.889	3.454	0.544
656.000	399.473	79.999	19.995	100.357	19.880	4.026	0.559
664.000	403.726	79.999	19.995	100.349	19.880	4.023	0.550
672.000	408.007	79.999	19.997	100.349	19.874	4.449	0.536
680.000	412.340	79.997	19.995	100.348	19.865	5.028	0.536
688.000	416.553	79.997	19.995	100.348	19.854	5.743	0.558
696.000	420.792	79.998	19.996	100.339	19.839	6.765	0.518
704.000	425.067	79.999	19.996	100.335	19.822	7.865	0.528
712.000	429.299	80.000	19.995	100.322	19.802	9.191	0.525
720.000	433.450	80.000	19.994	100.308	19.766	11.590	0.531
728.000	437.549	79.998	19.995	100.308	19.717	14.806	0.488
736.000	441.699	79.997	19.996	100.307	19.638	19.988	0.519
744.000	445.761	79.999	19.994	100.304	19.569	24.524	0.513
752.000	449.853	79.997	19.994	100.308	19.468	31.180	0.502
760.000	453.941	79.998	19.996	100.294	19.315	41.288	0.471
768.000	458.001	79.996	19.996	100.267	19.119	54.153	0.503
776.000	462.027	79.999	19.995	100.269	18.797	75.349	0.510
784.000	465.933	79.999	19.996	100.266	18.278	109.417	0.494
792.000	469.918	79.997	19.996	100.178	17.645	150.931	0.517
800.000	473.906	79.997	19.995	100.132	16.799	206.355	0.514
808.000	477.867	79.998	19.994	100.039	15.715	277.011	0.531
816.000	481.726	79.997	19.995	99.890	14.367	364.229	0.508
824.000	485.578	79.999	19.995	99.656	12.698	471.599	0.458
832.000	489.429	79.999	19.995	99.225	10.923	585.756	0.453
840.000	493.323	79.998	19.995	98.920	9.262	689.899	0.493
848.000	497.378	79.997	19.995	98.195	8.698	730.018	0.526
856.000	501.572	79.998	19.996	98.692	10.479	616.725	0.568
864.000	505.767	80.000	19.995	98.866	13.788	404.233	0.537
872.000	510.080	80.000	19.996	99.768	17.074	188.816	0.528
880.000	514.332	79.999	19.996	100.194	18.918	67.390	0.545
888.000	518.519	80.001	19.997	100.296	19.633	20.282	0.535
896.000	522.747	79.999	19.996	100.285	19.824	7.712	0.513
904.000	526.966	79.998	19.994	100.265	19.866	4.932	0.538
912.000	531.158	79.999	19.995	99.686	19.885	3.701	0.552
920.000	535.283	79.998	19.996	100.137	19.884	3.775	0.518
928.000	539.378	79.996	19.995	100.242	19.883	3.839	0.514
936.000	543.458	80.000	19.995	100.227	19.891	3.294	0.520
944.000	547.393	79.998	19.995	100.229	19.890	3.396	0.512
952.000	551.225	79.999	19.995	100.236	19.890	3.416	0.479
960.000	555.081	80.000	19.995	100.261	19.890	3.393	0.471
968.000	558.906	80.000	19.995	100.265	19.886	3.666	0.491
976.000	562.787	79.997	19.997	100.265	19.887	3.603	0.481
984.000	566.658	79.996	19.996	100.269	19.895	3.079	0.541
992.000	570.559	79.999	19.996	100.269	19.895	3.074	0.524
1000.000	574.607	79.999	19.995	100.274	19.891	3.335	0.491
1008.000	578.677	79.997	19.995	100.298	19.889	3.477	0.484
1016.000	582.842	79.998	19.994	100.291	19.890	3.355	0.495
1024.000	586.957	80.000	19.994	100.283	19.882	3.910	0.515
1032.000	591.063	80.000	19.994	100.272	19.891	3.291	0.503
1040.000	595.216	80.000	19.995	100.272	19.896	2.986	0.544
1048.000	599.294	80.002	19.996	100.294	19.893	3.189	0.515
1056.000	603.442	79.999	19.996	100.302	19.890	3.359	0.510
1064.000	607.687	79.998	19.996	100.307	19.892	3.270	0.515
1072.000	611.881	79.995	19.995	100.296	19.886	3.639	0.532
1080.000	616.065	79.999	19.996	100.303	19.887	3.572	0.492
1088.000	620.161	79.997	19.994	100.303	19.887	3.576	0.520
1096.001	624.266	80.010	19.999	100.316	19.885	3.692	0.509
1104.001	628.382	80.018	20.004	100.326	19.886	3.660	0.531
1112.000	632.522	80.019	20.003	100.341	19.885	3.717	0.507
1120.000	636.738	80.018	20.001	100.348	19.883	3.833	0.521
1128.000	640.869	80.000	19.995	100.342	19.879	4.115	0.491
1136.000	644.943	79.999	19.997	100.346	19.877	4.243	0.541
1144.000	648.935	79.999	19.995	100.347	19.875	4.392	0.505
1152.000	652.970	79.999	19.996	100.354	19.875	4.376	0.486
1160.000	657.028	79.997	19.996	100.366	19.876	4.298	0.522
1168.000	660.992	79.998	19.998	100.380	19.869	4.755	0.482
1176.001	665.033	79.998	19.996	100.385	19.872	4.555	0.504
1184.000	669.074	79.999	19.996	100.396	19.867	4.884	0.464
1192.001	673.202	80.000	19.996	100.402	19.866	5.004	0.505
1200.000	677.303	79.997	19.993	100.427	19.863	5.185	0.513
1208.001	681.284	80.000	19.994	100.426	19.863	5.202	0.489
1216.000	685.376	80.002	19.995	100.437	19.859	5.460	0.524
1224.000	689.572	80.000	19.997	100.459	19.854	5.751	0.523
1232.000	693.733	79.999	19.997	100.463	19.853	5.848	0.523
1240.000	697.929	79.998	19.997	100.463	19.850	6.037	0.497
1248.000	702.031	79.998	19.996	100.494	19.843	6.473	0.522
1256.000	706.183	79.997	19.997	100.505	19.847	6.251	0.528
1264.001	710.332	79.999	19.995	100.506	19.846	6.306	0.520
1272.000	714.444	80.001	19.996	100.508	19.844	6.412	0.549
1280.000	718.443	80.000	19.996	100.506	19.844	6.463	0.478
1288.000	722.326	80.000	19.997	100.527	19.842	6.561	0.484
1296.000	726.187	80.003	19.995	100.539	19.840	6.681	0.467
1304.000	730.141	80.001	19.996	100.543	19.839	6.786	0.495
1312.000	734.278	80.000	19.996	100.556	19.836	6.963	0.527
1320.000	738.436	79.996	19.996	100.569	19.833	7.158	0.540
1328.001	742.622	80.000	19.996	100.573	19.832	7.251	0.527
1329.500	743.411	79.999	19.995	100.575	19.828	7.491	0.507