File: 01_Data/HDPE/MCC/HDPE_MCC_DataDF.csv
Temperature (C),HRR (W/g),Time_copy_1,HRR correction,R1,HRR (W/g),Time_copy_2,HRR correction,R2,HRR (W/g),Time_copy_3,HRR correction,R3
150.00,2.90,180.75,2.90,0.00,3.29,155.75,3.29,0.00,2.96,158.25,2.96,0.00
155.00,2.77,191.25,2.90,-0.12,3.22,165.75,3.32,-0.10,2.90,168.75,2.94,-0.05
160.00,2.79,201.75,2.89,-0.11,3.04,176.25,3.34,-0.30,2.89,178.75,2.92,-0.03
165.00,2.59,212.25,2.89,-0.30,2.88,186.25,3.37,-0.49,2.66,188.75,2.90,-0.25
170.00,2.58,222.25,2.89,-0.31,2.70,196.25,3.40,-0.70,2.43,198.75,2.88,-0.46
175.00,2.44,232.25,2.89,-0.45,2.99,206.25,3.42,-0.44,2.42,208.75,2.86,-0.44
180.00,2.46,242.75,2.89,-0.43,2.89,216.25,3.45,-0.56,2.27,218.75,2.84,-0.58
185.00,2.42,252.75,2.89,-0.46,3.01,226.25,3.47,-0.46,2.32,228.75,2.82,-0.50
190.00,2.44,262.75,2.88,-0.44,3.00,236.25,3.50,-0.50,2.06,238.75,2.80,-0.75
195.00,2.33,272.75,2.88,-0.55,2.85,246.25,3.53,-0.68,2.07,248.75,2.78,-0.72
200.00,2.06,282.75,2.88,-0.82,2.67,256.25,3.55,-0.88,1.70,259.25,2.76,-1.07
205.00,2.17,292.75,2.88,-0.71,2.78,266.75,3.58,-0.80,1.80,269.25,2.74,-0.95
210.00,2.11,302.75,2.88,-0.77,2.71,276.75,3.61,-0.90,1.61,279.75,2.72,-1.11
215.00,2.07,312.75,2.88,-0.81,2.53,286.75,3.63,-1.10,1.48,289.75,2.70,-1.23
220.00,2.10,322.75,2.87,-0.77,2.79,296.75,3.66,-0.87,1.31,300.25,2.68,-1.37
225.00,2.01,332.75,2.87,-0.87,2.80,306.75,3.69,-0.88,1.64,310.25,2.66,-1.02
230.00,2.01,342.25,2.87,-0.86,2.52,316.75,3.71,-1.19,1.64,320.25,2.64,-1.01
235.00,1.92,352.75,2.87,-0.95,2.57,327.25,3.74,-1.17,1.38,330.75,2.62,-1.24
240.00,1.72,362.75,2.87,-1.15,2.62,337.25,3.77,-1.14,1.33,340.75,2.61,-1.27
245.00,1.54,373.25,2.86,-1.32,2.55,347.75,3.79,-1.25,1.13,351.25,2.59,-1.45
250.00,1.72,383.25,2.86,-1.15,2.57,357.75,3.82,-1.25,1.03,361.25,2.57,-1.54
255.00,1.75,393.75,2.86,-1.11,2.50,367.75,3.84,-1.35,1.40,371.25,2.55,-1.14
260.00,1.75,403.75,2.86,-1.11,2.48,378.25,3.87,-1.39,0.97,381.75,2.53,-1.56
265.00,1.87,414.25,2.86,-0.99,2.54,388.25,3.90,-1.35,0.92,391.75,2.51,-1.58
270.00,1.71,424.25,2.86,-1.14,2.67,398.25,3.92,-1.25,0.72,402.25,2.49,-1.76
275.00,1.56,433.75,2.85,-1.29,2.68,408.25,3.95,-1.27,0.50,412.25,2.47,-1.96
280.00,1.85,443.75,2.85,-1.00,2.65,418.75,3.98,-1.32,0.50,422.25,2.45,-1.94
285.00,1.57,453.25,2.85,-1.28,2.50,428.75,4.00,-1.50,0.46,432.75,2.43,-1.97
290.00,1.51,463.25,2.85,-1.34,2.80,438.75,4.03,-1.23,0.73,442.75,2.41,-1.68
295.00,1.63,472.75,2.85,-1.22,2.71,449.25,4.06,-1.34,0.40,452.75,2.39,-1.99
300.00,1.31,482.75,2.85,-1.54,2.64,459.00,4.08,-1.44,0.42,463.25,2.37,-1.94
305.00,1.37,492.75,2.84,-1.48,2.51,469.25,4.11,-1.60,0.42,473.25,2.35,-1.93
310.00,1.44,502.25,2.84,-1.41,2.52,479.75,4.14,-1.62,0.61,483.25,2.33,-1.72
315.00,1.45,512.25,2.84,-1.39,2.63,489.75,4.16,-1.53,0.51,492.75,2.31,-1.80
320.00,1.43,522.25,2.84,-1.41,2.68,499.75,4.19,-1.51,0.24,502.75,2.29,-2.05
325.00,1.19,532.25,2.84,-1.65,2.58,509.75,4.21,-1.63,0.47,512.75,2.27,-1.80
330.00,1.38,542.25,2.83,-1.46,2.55,519.75,4.24,-1.69,0.52,522.75,2.25,-1.72
335.00,1.19,552.25,2.83,-1.65,2.48,529.25,4.27,-1.79,0.45,532.25,2.23,-1.77
340.00,1.23,562.25,2.83,-1.60,2.72,539.25,4.29,-1.58,0.34,542.25,2.21,-1.87
345.00,1.39,572.25,2.83,-1.44,2.88,548.75,4.32,-1.44,0.28,551.75,2.19,-1.91
350.00,1.28,582.25,2.83,-1.55,2.83,558.75,4.35,-1.52,0.32,561.75,2.17,-1.84
355.00,1.48,592.75,2.83,-1.34,2.47,568.25,4.37,-1.91,0.11,571.25,2.15,-2.04
360.00,1.51,602.75,2.82,-1.32,2.70,578.25,4.40,-1.70,0.16,581.75,2.13,-1.97
365.00,1.59,612.75,2.82,-1.23,2.76,588.25,4.43,-1.67,0.04,591.75,2.11,-2.07
370.00,1.77,622.75,2.82,-1.05,2.91,598.25,4.45,-1.54,0.08,601.75,2.09,-2.01
375.00,1.71,632.25,2.82,-1.11,3.06,608.25,4.48,-1.42,0.34,611.75,2.07,-1.73
380.00,1.79,642.25,2.82,-1.03,3.04,618.25,4.51,-1.46,0.21,621.25,2.05,-1.84
385.00,1.95,652.25,2.81,-0.86,3.13,628.25,4.53,-1.40,0.34,631.25,2.03,-1.69
390.00,2.36,662.25,2.81,-0.45,3.20,638.25,4.56,-1.36,0.35,640.75,2.01,-1.66
395.00,2.49,671.75,2.81,-0.32,3.42,647.75,4.58,-1.16,0.91,650.25,1.99,-1.07
400.00,2.82,681.75,2.81,0.01,3.95,656.75,4.61,-0.67,1.23,660.25,1.97,-0.74
405.00,3.41,691.75,2.81,0.60,4.25,666.25,4.64,-0.39,1.62,670.25,1.95,-0.33
410.00,4.09,701.25,2.81,1.29,4.77,675.75,4.66,0.10,2.32,679.75,1.93,0.39
415.00,5.24,711.25,2.80,2.44,5.65,685.25,4.69,0.96,3.02,689.75,1.91,1.11
420.00,6.77,721.25,2.80,3.97,6.55,694.25,4.72,1.83,4.60,699.75,1.89,2.71
425.00,8.07,730.75,2.80,5.27,7.77,703.75,4.74,3.02,6.64,709.75,1.87,4.77
430.00,9.72,740.75,2.80,6.92,9.61,713.25,4.77,4.84,10.20,720.25,1.85,8.35
435.00,13.00,750.25,2.80,10.20,12.28,722.75,4.80,7.48,14.49,729.75,1.83,12.66
440.00,17.66,760.25,2.80,14.86,17.84,732.75,4.82,13.02,19.21,740.00,1.81,17.40
445.00,23.93,770.75,2.79,21.13,23.91,742.75,4.85,19.06,26.19,750.25,1.79,24.40
450.00,31.86,780.75,2.79,29.07,31.61,752.25,4.88,26.73,36.44,760.25,1.77,34.67
455.00,44.46,791.25,2.79,41.67,43.63,761.75,4.90,38.73,52.39,770.25,1.75,50.64
460.00,65.56,801.75,2.79,62.77,63.11,771.75,4.93,58.18,80.62,780.25,1.73,78.89
465.00,103.72,811.75,2.79,100.93,101.03,782.25,4.95,96.07,124.63,789.75,1.71,122.92
470.00,156.01,821.75,2.78,153.23,152.31,792.25,4.98,147.33,184.84,799.75,1.69,183.15
475.00,227.94,831.75,2.78,225.16,225.09,802.25,5.01,220.08,269.55,809.25,1.67,267.88
480.00,319.39,841.25,2.78,316.61,325.93,812.75,5.03,320.89,382.03,819.25,1.65,380.38
485.00,441.99,850.75,2.78,439.22,454.19,822.75,5.06,449.13,527.75,829.25,1.63,526.12
490.00,589.27,860.25,2.78,586.49,603.11,833.25,5.09,598.02,666.85,838.75,1.61,665.24
495.00,713.66,869.75,2.78,710.88,731.02,843.25,5.11,725.91,754.26,848.75,1.59,752.67
500.00,719.52,879.75,2.77,716.75,665.78,853.25,5.14,660.64,610.03,858.75,1.57,608.46
505.00,516.89,889.25,2.77,514.12,442.01,862.75,5.17,436.84,343.36,867.75,1.55,341.81
510.00,235.56,898.75,2.77,232.79,194.10,871.75,5.19,188.91,120.27,877.25,1.53,118.74
515.00,65.55,908.75,2.77,62.79,56.10,881.25,5.22,50.88,28.16,886.75,1.51,26.65
520.00,14.28,918.75,2.77,11.52,14.01,890.75,5.25,8.76,5.12,896.25,1.49,3.63
525.00,4.53,928.75,2.76,1.76,5.58,900.25,5.27,0.31,1.01,905.75,1.47,-0.46
530.00,2.67,938.75,2.76,-0.09,4.10,909.75,5.30,-1.20,-0.09,915.75,1.45,-1.55
535.00,1.97,948.75,2.76,-0.80,3.55,919.25,5.32,-1.78,-0.25,925.75,1.43,-1.68
540.00,2.16,958.25,2.76,-0.60,3.39,929.25,5.35,-1.96,-0.65,935.75,1.41,-2.07
545.00,2.15,968.25,2.76,-0.61,3.35,939.25,5.38,-2.03,-0.87,945.75,1.39,-2.26
550.00,1.87,978.25,2.76,-0.88,3.46,949.25,5.40,-1.94,-0.66,955.75,1.37,-2.03
555.00,1.94,987.75,2.75,-0.82,3.30,959.75,5.43,-2.13,-0.81,965.25,1.35,-2.16
560.00,1.68,997.75,2.75,-1.07,3.32,970.25,5.46,-2.14,-1.06,975.25,1.33,-2.40
565.00,1.66,1007.25,2.75,-1.09,3.27,980.75,5.48,-2.21,-0.86,984.75,1.31,-2.17
570.00,1.91,1017.25,2.75,-0.84,3.04,990.75,5.51,-2.47,-1.00,994.25,1.29,-2.29
575.00,1.62,1026.75,2.75,-1.13,3.48,1000.75,5.54,-2.06,-0.94,1003.75,1.27,-2.21
580.00,1.70,1036.75,2.75,-1.04,3.50,1010.75,5.56,-2.06,-1.21,1013.75,1.25,-2.46
585.00,1.59,1046.75,2.74,-1.15,3.10,1020.25,5.59,-2.49,-1.06,1023.75,1.23,-2.29
590.00,1.46,1056.75,2.74,-1.28,3.47,1029.75,5.62,-2.14,-1.22,1033.75,1.21,-2.44
595.00,1.62,1066.25,2.74,-1.12,3.14,1039.75,5.64,-2.50,-1.40,1043.75,1.19,-2.59
600.00,1.43,1076.25,2.74,-1.31,3.20,1049.25,5.67,-2.47,-1.11,1053.75,1.17,-2.28
605.00,1.24,1085.75,2.74,-1.50,3.49,1058.75,5.69,-2.20,-1.16,1063.75,1.15,-2.31
610.00,1.48,1095.25,2.73,-1.26,3.27,1068.25,5.72,-2.45,-1.20,1073.25,1.13,-2.34
615.00,1.71,1105.25,2.73,-1.03,3.53,1078.25,5.75,-2.22,-1.35,1083.25,1.11,-2.46
620.00,1.73,1114.75,2.73,-1.00,3.55,1087.75,5.77,-2.22,-1.17,1092.75,1.09,-2.26
625.00,1.59,1124.75,2.73,-1.14,3.57,1097.25,5.80,-2.23,-0.94,1102.25,1.07,-2.01
630.00,1.44,1134.25,2.73,-1.28,3.76,1107.25,5.83,-2.07,-1.09,1112.25,1.05,-2.14
635.00,1.61,1144.25,2.73,-1.12,3.72,1116.75,5.85,-2.13,-0.97,1121.75,1.03,-2.00
640.00,1.83,1154.25,2.72,-0.89,3.89,1126.25,5.88,-1.99,-0.86,1131.25,1.01,-1.87
645.00,1.70,1163.75,2.72,-1.02,4.32,1136.25,5.91,-1.58,-1.12,1140.75,0.99,-2.11
650.00,1.78,1173.75,2.72,-0.94,4.53,1146.25,5.93,-1.40,-0.91,1150.25,0.97,-1.88
655.00,1.89,1183.25,2.72,-0.82,4.60,1155.75,5.96,-1.36,-0.72,1159.75,0.95,-1.67
660.00,1.81,1193.25,2.72,-0.91,4.29,1165.75,5.99,-1.70,-0.61,1169.75,0.93,-1.54
665.00,2.06,1202.75,2.71,-0.66,4.77,1175.75,6.01,-1.24,-0.54,1179.75,0.91,-1.45
670.00,1.89,1212.75,2.71,-0.83,5.01,1185.75,6.04,-1.03,-0.29,1189.25,0.89,-1.19
675.00,2.22,1222.75,2.71,-0.49,5.28,1195.75,6.06,-0.79,-0.48,1199.75,0.87,-1.35
680.00,2.05,1232.25,2.71,-0.66,5.32,1205.25,6.09,-0.77,0.07,1209.75,0.85,-0.78
685.00,2.30,1242.25,2.71,-0.41,5.72,1215.25,6.12,-0.40,0.45,1219.75,0.83,-0.38
690.00,2.41,1251.75,2.71,-0.30,5.83,1224.75,6.14,-0.32,0.59,1229.75,0.81,-0.22
695.00,2.41,1261.75,2.70,-0.30,5.79,1234.25,6.17,-0.38,0.55,1240.25,0.79,-0.25
700.00,2.70,1271.25,2.70,0.00,6.20,1244.25,6.20,0.00,0.77,1250.25,0.77,0.00