File: 01_Data/Gypsum_Wallboard_Gypsum_Core/STA/N2/10K_min/Gypsum_Wallboard_Gypsum_Core_STA_N2_10KData_220218_R2.csv
##Temp./Â°C,Time/min,Mass loss(subtr.2)/mg,DSC(subtr.2)/(mW/mg),Sensit./(uV/mW)
49.47,10.01,-0.02523,0.009531197,1.07528
52.77,11.33194,-0.02706548,0.10336,1.07356
56.07,11.79311,-0.02889817,0.1476,1.07184
59.37,12.18941,-0.03092943,0.17423,1.07012
62.67,12.56316,-0.03109822,0.19224,1.06841
65.97,12.9244,-0.03147804,0.21144,1.06669
69.27,13.28089,-0.03180988,0.226,1.06498
72.57,13.63296,-0.03590093,0.23988,1.06327
75.87,13.9808,-0.03678551,0.25844,1.06157
79.17,14.3232,-0.03795,0.27394,1.05986
82.47,14.66257,-0.04210421,0.29716,1.05816
85.77,14.99915,-0.04744182,0.33512,1.05645
89.07,15.33266,-0.05180413,0.39188,1.05475
92.37,15.66436,-0.05176943,0.47127,1.05305
95.67,15.994,-0.07209814,0.58012,1.05136
98.97,16.3227,-0.0796376,0.71648,1.04966
102.27,16.65016,-0.08873091,0.85681,1.04797
105.57,16.9775,-0.11082,1.00313,1.04628
108.87,17.3053,-0.13546,1.18611,1.04459
112.17,17.6341,-0.16724,1.63027,1.0429
115.47,17.96624,-0.21111,2.2888,1.04121
118.77,18.30027,-0.27229,2.92274,1.03952
122.07,18.6344,-0.358,3.44102,1.03784
125.37,18.96702,-0.43724,3.50082,1.03616
128.67,19.2916,-0.49828,3.0041,1.03448
131.97,19.61345,-0.57346,3.14725,1.0328
135.27,19.9364,-0.6344,3.27375,1.03112
138.57,20.25327,-0.67891,1.81776,1.02944
141.87,20.55819,-0.6907,0.73139,1.02777
145.17,20.86204,-0.69864,0.42359,1.02609
148.47,21.16895,-0.70254,0.31983,1.02442
151.77,21.4784,-0.70042,0.27141,1.02275
155.07,21.78924,-0.70839,0.24509,1.02108
158.37,22.1019,-0.709,0.22619,1.01941
161.67,22.41539,-0.71733,0.21243,1.01774
164.97,22.7298,-0.71855,0.20569,1.01607
168.27,23.0441,-0.71703,0.19937,1.0144
171.57,23.35839,-0.70798,0.19081,1.01274
174.87,23.67312,-0.71833,0.18901,1.01107
178.17,23.98724,-0.71441,0.18037,1.00941
181.47,24.30226,-0.71449,0.17786,1.00774
184.77,24.61727,-0.71728,0.17394,1.00608
188.07,24.93134,-0.72214,0.17464,1.00442
191.37,25.24575,-0.71845,0.16954,1.00275
194.67,25.5606,-0.72382,0.17032,1.00109
197.97,25.87582,-0.7223,0.16697,0.99943
201.27,26.18983,-0.7224,0.16719,0.99776
204.57,26.5034,-0.72634,0.16661,0.9961
207.87,26.81885,-0.7214,0.16243,0.99444
211.17,27.13413,-0.7283,0.16207,0.99278
214.47,27.44855,-0.72305,0.16207,0.99111
217.77,27.7626,-0.7264,0.16146,0.98945
221.07,28.07455,-0.72797,0.15965,0.98779
224.37,28.3905,-0.72942,0.16016,0.98612
227.67,28.705,-0.72996,0.15908,0.98446
230.97,29.0192,-0.73226,0.15619,0.98279
234.27,29.33338,-0.72881,0.15283,0.98113
237.57,29.64811,-0.73114,0.1503,0.97946
240.87,29.9635,-0.72948,0.14832,0.97779
244.17,30.27849,-0.73533,0.14797,0.97612
247.47,30.594,-0.73225,0.1451,0.97445
250.77,30.90839,-0.73144,0.14403,0.97278
254.07,31.2226,-0.73588,0.14511,0.9711
257.37,31.53775,-0.73551,0.14703,0.96943
260.67,31.852,-0.73476,0.1399,0.96775
263.97,32.16695,-0.73574,0.13935,0.96607
267.27,32.48215,-0.73414,0.13797,0.96439
270.57,32.7971,-0.73098,0.13476,0.96271
273.87,33.11244,-0.74161,0.13229,0.96103
277.17,33.4275,-0.7313,0.13093,0.95934
280.47,33.7429,-0.7411,0.1309,0.95765
283.77,34.05748,-0.73774,0.1305,0.95596
287.07,34.3731,-0.7406,0.12919,0.95426
290.37,34.68817,-0.74094,0.1273,0.95257
293.67,35.00393,-0.74082,0.127,0.95087
296.97,35.31994,-0.74115,0.12597,0.94916
300.27,35.63555,-0.74267,0.12362,0.94746
303.57,35.95205,-0.74126,0.12523,0.94575
306.87,36.26882,-0.74455,0.12258,0.94404
310.17,36.58573,-0.74221,0.12315,0.94232
313.47,36.90258,-0.74095,0.12043,0.9406
316.77,37.2194,-0.74674,0.12048,0.93888
320.07,37.5362,-0.74051,0.1187,0.93716
323.37,37.85304,-0.74359,0.12147,0.93543
326.67,38.17071,-0.74884,0.119,0.93369
329.97,38.4889,-0.74544,0.11597,0.93195
333.27,38.8069,-0.74831,0.11372,0.93021
336.57,39.12636,-0.74628,0.10828,0.92846
339.87,39.44525,-0.7498,0.10314,0.92671
343.17,39.76382,-0.74922,0.10488,0.92496
346.47,40.08245,-0.75009,0.09613497,0.9232
349.77,40.40101,-0.75103,0.09264901,0.92143
353.07,40.71983,-0.74869,0.08402247,0.91966
356.37,41.03905,-0.74618,0.07737074,0.91789
359.67,41.3585,-0.74795,0.06451073,0.91611
362.97,41.6783,-0.75052,0.05487384,0.91432
366.27,41.99853,-0.75709,0.04244678,0.91253
369.57,42.3197,-0.74828,0.02238853,0.91073
372.87,42.64117,-0.75311,0.006296591,0.90893
376.17,42.96379,-0.75903,-0.01401028,0.90712
379.47,43.28535,-0.75298,-0.0329924,0.90531
382.77,43.60686,-0.756,-0.04781007,0.90349
386.07,43.92886,-0.74805,-0.05163046,0.90167
389.37,44.24967,-0.76341,-0.04415852,0.89983
392.67,44.57162,-0.75001,-0.03365468,0.898
395.97,44.894,-0.75826,-0.01840689,0.89615
399.27,45.21695,-0.75824,0.0004622781,0.8943
402.57,45.53953,-0.75629,0.007225609,0.89244
405.87,45.86251,-0.75629,0.02483655,0.89058
409.17,46.18572,-0.75889,0.03567479,0.88871
412.47,46.50959,-0.75891,0.04829154,0.88683
415.77,46.83275,-0.75882,0.05822274,0.88495
419.07,47.15483,-0.75392,0.06411591,0.88305
422.37,47.4799,-0.7622,0.07043637,0.88115
425.67,47.80253,-0.76117,0.07605397,0.87925
428.97,48.12553,-0.75771,0.08065991,0.87733
432.27,48.44918,-0.7582,0.07967534,0.87541
435.57,48.77299,-0.76142,0.07995785,0.87348
438.87,49.0977,-0.76165,0.08269551,0.87155
442.17,49.42279,-0.76469,0.08226375,0.8696
445.47,49.74726,-0.76225,0.0854194,0.86765
448.77,50.07195,-0.76418,0.08729585,0.86569
452.07,50.39604,-0.76152,0.08785652,0.86372
455.37,50.72031,-0.75958,0.08774656,0.86174
458.67,51.04486,-0.76113,0.08891903,0.85976
461.97,51.37076,-0.76779,0.08972173,0.85776
465.27,51.69641,-0.76169,0.09042921,0.85576
468.57,52.02275,-0.76477,0.09174688,0.85375
471.87,52.34843,-0.76333,0.08846326,0.85173
475.17,52.674,-0.76781,0.09114857,0.8497
478.47,52.9994,-0.76782,0.0917526,0.84767
481.77,53.32506,-0.76769,0.09273389,0.84562
485.07,53.6503,-0.76638,0.09406411,0.84357
488.37,53.97565,-0.76901,0.09834738,0.8415
491.67,54.3019,-0.76835,0.09514259,0.83943
494.97,54.62855,-0.77065,0.09750784,0.83735
498.27,54.9558,-0.76933,0.0939107,0.83526
501.57,55.2831,-0.76802,0.09024964,0.83316
504.87,55.6104,-0.76933,0.09085547,0.83105
508.17,55.9376,-0.77196,0.09077482,0.82893
511.47,56.2646,-0.77493,0.09093975,0.8268
514.77,56.5914,-0.77326,0.09302827,0.82467
518.07,56.9178,-0.76988,0.09148312,0.82252
521.37,57.24615,-0.77341,0.0934434,0.82036
524.67,57.57396,-0.77549,0.09304804,0.8182
527.97,57.90139,-0.77131,0.08947625,0.81602
531.27,58.2297,-0.77361,0.09147693,0.81384
534.57,58.5589,-0.77705,0.09117763,0.81164
537.87,58.88723,-0.76986,0.09122599,0.80943
541.17,59.2156,-0.77497,0.09078059,0.80722
544.47,59.54563,-0.77967,0.0960688,0.805
547.77,59.87601,-0.77322,0.09438068,0.80276
551.07,60.20616,-0.77151,0.09622788,0.80052
554.37,60.53539,-0.77679,0.09932286,0.79826
557.67,60.8644,-0.77712,0.10064,0.796
560.97,61.1937,-0.77844,0.10269,0.79372
564.27,61.5234,-0.77841,0.10357,0.79144
567.57,61.85455,-0.77844,0.10507,0.78914
570.87,62.1853,-0.77685,0.10796,0.78684
574.17,62.5161,-0.78107,0.10701,0.78452
577.47,62.8466,-0.78116,0.10892,0.7822
580.77,63.17719,-0.78043,0.11171,0.77986
584.07,63.506,-0.78297,0.11633,0.77752
587.37,63.8353,-0.78688,0.12025,0.77516
590.67,64.16499,-0.78382,0.12369,0.7728
593.97,64.495,-0.78643,0.12425,0.77042
597.27,64.82602,-0.78755,0.12832,0.76804
600.57,65.1567,-0.79148,0.12823,0.76564
603.87,65.48828,-0.78996,0.13139,0.76323
607.17,65.81949,-0.78732,0.13069,0.76082
610.47,66.15089,-0.79127,0.13743,0.75839
613.77,66.48216,-0.79318,0.14453,0.75596
617.07,66.81434,-0.79315,0.1493,0.75351
620.37,67.14758,-0.79468,0.15008,0.75105
623.67,67.47946,-0.7951,0.15814,0.74859
626.97,67.81267,-0.79868,0.16458,0.74611
630.27,68.14453,-0.79992,0.17244,0.74362
633.57,68.4762,-0.80493,0.18193,0.74113
636.87,68.8086,-0.80674,0.1896,0.73862
640.17,69.1413,-0.80673,0.19452,0.7361
643.47,69.47456,-0.80909,0.20851,0.73358
646.77,69.8082,-0.81167,0.21077,0.73104
650.07,70.1411,-0.81774,0.22215,0.72849
653.37,70.47284,-0.8164,0.22659,0.72594
656.67,70.8049,-0.82132,0.23478,0.72337
659.97,71.13678,-0.82813,0.24503,0.72079
663.27,71.4692,-0.83005,0.24976,0.71821
666.57,71.80199,-0.83274,0.25907,0.71561
669.87,72.134,-0.83663,0.26186,0.71301
673.17,72.4666,-0.8462,0.26477,0.7104
676.47,72.79884,-0.84731,0.26153,0.70777
679.77,73.1319,-0.84824,0.25767,0.70514
683.07,73.46518,-0.85693,0.2516,0.7025
686.37,73.79895,-0.85648,0.24196,0.69985
689.67,74.13324,-0.86104,0.23582,0.69719
692.97,74.46685,-0.87048,0.22482,0.69452
696.27,74.7994,-0.87162,0.21275,0.69184
699.57,75.13226,-0.87835,0.20058,0.68915
702.87,75.4647,-0.87925,0.17853,0.68645
706.17,75.79786,-0.87794,0.15909,0.68375
709.47,76.1318,-0.88331,0.14179,0.68103
712.77,76.46553,-0.88429,0.12174,0.67831
716.07,76.80089,-0.88795,0.11479,0.67558
719.37,77.13571,-0.88657,0.10886,0.67284
722.67,77.47065,-0.89021,0.11102,0.67009
725.97,77.8057,-0.89153,0.10437,0.66733
729.27,78.14012,-0.89153,0.10479,0.66457
732.57,78.47378,-0.8918,0.10582,0.66179
735.87,78.80762,-0.89147,0.10649,0.65901
739.17,79.14184,-0.89593,0.11146,0.65622
742.47,79.47726,-0.89328,0.11091,0.65343
745.77,79.81179,-0.8946,0.11454,0.65062
749.07,80.14511,-0.89891,0.11939,0.64781
752.37,80.47944,-0.8957,0.11982,0.64499
755.67,80.81415,-0.90185,0.12747,0.64216
758.97,81.1495,-0.89472,0.12859,0.63933
762.27,81.48644,-0.90359,0.12752,0.63648
765.57,81.82292,-0.90379,0.1396,0.63363
768.87,82.15852,-0.9082,0.14161,0.63078
772.17,82.49461,-0.90381,0.1482,0.62791
775.47,82.83216,-0.90689,0.14588,0.62504
778.77,83.16929,-0.91047,0.15012,0.62217
782.07,83.50583,-0.91265,0.16204,0.61928
785.37,83.84151,-0.90829,0.16549,0.61639
788.67,84.1767,-0.91272,0.17098,0.6135
791.97,84.5112,-0.91927,0.17435,0.61059
795.27,84.84604,-0.91797,0.18319,0.60769
798.57,85.18048,-0.92092,0.18287,0.60477
801.87,85.51525,-0.92771,0.18414,0.60185
805.17,85.85125,-0.92595,0.17753,0.59893
808.47,86.18721,-0.9322,0.17804,0.59599
811.77,86.52242,-0.92959,0.18239,0.59306
815.07,86.8583,-0.93901,0.19183,0.59011
818.37,87.19367,-0.94678,0.20023,0.58717
821.67,87.52809,-0.93347,0.19479,0.58421
824.97,87.86476,-0.93794,0.20095,0.58126
828.27,88.20174,-0.93926,0.1966,0.5783
831.57,88.53656,-0.95098,0.19913,0.57533
834.87,88.87119,-0.9454,0.19983,0.57236
838.17,89.20658,-0.9544,0.20228,0.56938
841.47,89.54221,-0.95833,0.20501,0.5664
844.77,89.87804,-0.96095,0.19865,0.56342
845.87,89.99014,-0.96238,0.194,0.56242