File: 01_Data/Gypsum_Wallboard_Gypsum_Core/STA/N2/10K_min/Gypsum_Wallboard_Gypsum_Core_STA_N2_10KData_220218_R1.csv
##Temp./Â°C,Time/min,Mass loss(subtr.2)/mg,DSC(subtr.2)/(mW/mg),Sensit./(uV/mW)
49.614,10.01,0.01887,0.01291763,1.0752
52.614,11.28482,0.02120477,0.10739,1.07364
55.614,11.72004,0.0202899,0.15032,1.07208
58.614,12.0863,0.01747082,0.17897,1.07051
61.614,12.4309,0.01413779,0.19976,1.06896
64.614,12.7621,0.01561545,0.21713,1.0674
67.614,13.08809,0.0171317,0.23321,1.06584
70.614,13.40939,0.01612807,0.2495,1.06429
73.614,13.72758,0.01347806,0.26485,1.06273
76.614,14.04222,0.0069568,0.27859,1.06118
79.614,14.3546,0.01361433,0.29256,1.05963
82.614,14.66395,0.01044331,0.31322,1.05808
85.614,14.9707,0.007305737,0.34692,1.05653
88.614,15.2745,0.00466887,0.39301,1.05499
91.614,15.576,0.00560002,0.46044,1.05344
94.614,15.8766,-0.007445628,0.54569,1.0519
97.614,16.17529,-0.02018416,0.65867,1.05036
100.614,16.47426,-0.02725813,0.79105,1.04882
103.614,16.7717,-0.03513437,0.91303,1.04728
106.614,17.0697,-0.05359323,1.04188,1.04574
109.614,17.36703,-0.08259197,1.21828,1.0442
112.614,17.6658,-0.10903,1.78528,1.04267
115.614,17.9673,-0.15308,2.37706,1.04114
118.614,18.27166,-0.21122,2.98898,1.0396
121.614,18.57672,-0.28424,3.54362,1.03807
124.614,18.8813,-0.36439,3.75756,1.03654
127.614,19.18151,-0.4347,3.23838,1.03501
130.614,19.47468,-0.48974,2.98151,1.03349
133.614,19.76803,-0.54344,3.258,1.03196
136.614,20.06038,-0.60266,3.15104,1.03044
139.614,20.34309,-0.62874,1.37813,1.02891
142.614,20.6197,-0.6357,0.66789,1.02739
145.614,20.89633,-0.63931,0.44447,1.02587
148.614,21.17602,-0.64513,0.35617,1.02435
151.614,21.4585,-0.6514,0.3136,1.02283
154.614,21.7411,-0.64782,0.28581,1.02131
157.614,22.02494,-0.65509,0.26858,1.01979
160.614,22.31035,-0.6523,0.2582,1.01827
163.614,22.59522,-0.6593,0.25117,1.01676
166.614,22.88168,-0.6591,0.24553,1.01524
169.614,23.16756,-0.65767,0.24054,1.01372
172.614,23.45402,-0.6486,0.23356,1.01221
175.614,23.74004,-0.6569,0.23116,1.0107
178.614,24.02635,-0.66089,0.23002,1.00918
181.614,24.31215,-0.66075,0.22702,1.00767
184.614,24.59818,-0.66117,0.22608,1.00616
187.614,24.8831,-0.66273,0.22502,1.00465
190.614,25.16848,-0.66327,0.22437,1.00313
193.614,25.45399,-0.66109,0.22194,1.00162
196.614,25.73966,-0.65768,0.22005,1.00011
199.614,26.02532,-0.66316,0.21687,0.9986
202.614,26.3117,-0.6619,0.21896,0.99709
205.614,26.59828,-0.66586,0.21742,0.99558
208.614,26.88438,-0.65858,0.21616,0.99406
211.614,27.17013,-0.66382,0.2187,0.99255
214.614,27.4564,-0.66516,0.21693,0.99104
217.614,27.74223,-0.66956,0.21521,0.98953
220.614,28.02938,-0.6636,0.21213,0.98802
223.614,28.31601,-0.66524,0.21147,0.9865
226.614,28.6024,-0.67127,0.20837,0.98499
229.614,28.88895,-0.66311,0.20759,0.98348
232.614,29.17522,-0.6626,0.20886,0.98196
235.614,29.4609,-0.67017,0.20822,0.98045
238.614,29.74656,-0.66809,0.20816,0.97893
241.614,30.03175,-0.66386,0.20746,0.97741
244.614,30.316,-0.67033,0.20835,0.9759
247.614,30.6029,-0.66733,0.20795,0.97438
250.614,30.88901,-0.67005,0.20232,0.97286
253.614,31.17616,-0.66871,0.20334,0.97133
256.614,31.46326,-0.66992,0.2001,0.96981
259.614,31.75,-0.67127,0.19826,0.96829
262.614,32.03718,-0.66174,0.19648,0.96676
265.614,32.32353,-0.6737,0.19885,0.96524
268.614,32.61011,-0.66787,0.19821,0.96371
271.614,32.896,-0.66908,0.19917,0.96218
274.614,33.18257,-0.66868,0.20376,0.96065
277.614,33.46911,-0.67346,0.20224,0.95911
280.614,33.75533,-0.67083,0.20072,0.95758
283.614,34.04238,-0.67002,0.19908,0.95604
286.614,34.33025,-0.66459,0.19671,0.9545
289.614,34.61796,-0.6743,0.19679,0.95296
292.614,34.9067,-0.671,0.19357,0.95141
295.614,35.1952,-0.66728,0.18881,0.94986
298.614,35.48392,-0.66733,0.18999,0.94832
301.614,35.7718,-0.67261,0.19167,0.94676
304.614,36.05988,-0.67599,0.19326,0.94521
307.614,36.3475,-0.67597,0.19624,0.94365
310.614,36.63579,-0.67687,0.19319,0.94209
313.614,36.92395,-0.67099,0.18952,0.94053
316.614,37.2126,-0.67942,0.19432,0.93896
319.614,37.50203,-0.67223,0.19267,0.93739
322.614,37.79099,-0.67075,0.19024,0.93582
325.614,38.08025,-0.66974,0.18798,0.93425
328.614,38.36907,-0.6806,0.19097,0.93267
331.614,38.6576,-0.67348,0.19054,0.93109
334.614,38.94724,-0.67667,0.18954,0.9295
337.614,39.23706,-0.67719,0.18812,0.92791
340.614,39.52753,-0.67761,0.18472,0.92632
343.614,39.81713,-0.67785,0.17942,0.92472
346.614,40.10727,-0.68018,0.17729,0.92312
349.614,40.39739,-0.67393,0.17081,0.92152
352.614,40.68745,-0.67616,0.16431,0.91991
355.614,40.97781,-0.67764,0.15883,0.91829
358.614,41.26658,-0.67839,0.1502,0.91668
361.614,41.55753,-0.68529,0.14156,0.91506
364.614,41.84859,-0.6841,0.13015,0.91343
367.614,42.13967,-0.67994,0.11247,0.9118
370.614,42.43088,-0.67531,0.09888296,0.91016
373.614,42.72292,-0.68308,0.08238476,0.90853
376.614,43.01657,-0.67874,0.06378153,0.90688
379.614,43.3086,-0.68082,0.04751405,0.90523
382.614,43.60095,-0.68309,0.03558439,0.90358
385.614,43.89328,-0.68543,0.0287731,0.90192
388.614,44.18522,-0.68422,0.03010523,0.90025
391.614,44.4782,-0.68718,0.04356372,0.89859
394.614,44.77111,-0.67775,0.05603558,0.89691
397.614,45.06426,-0.68761,0.07568361,0.89523
400.614,45.35722,-0.68083,0.08932294,0.89355
403.614,45.65041,-0.68674,0.10758,0.89185
406.614,45.94451,-0.68406,0.12134,0.89016
409.614,46.23778,-0.68899,0.13546,0.88846
412.614,46.5314,-0.69398,0.14275,0.88675
415.614,46.82547,-0.67556,0.14916,0.88503
418.614,47.11919,-0.68544,0.15377,0.88332
421.614,47.41444,-0.68672,0.15823,0.88159
424.614,47.70836,-0.68017,0.16409,0.87986
427.614,48.0032,-0.68667,0.17127,0.87812
430.614,48.29745,-0.68707,0.17137,0.87638
433.614,48.59214,-0.68806,0.1784,0.87463
436.614,48.8872,-0.6866,0.17486,0.87287
439.614,49.18176,-0.67803,0.17571,0.87111
442.614,49.47724,-0.68356,0.17872,0.86934
445.614,49.77258,-0.68545,0.18352,0.86756
448.614,50.06805,-0.69045,0.18372,0.86578
451.614,50.36452,-0.6874,0.18497,0.86399
454.614,50.6608,-0.68313,0.18501,0.86219
457.614,50.95694,-0.69254,0.19208,0.86039
460.614,51.25294,-0.67971,0.18923,0.85858
463.614,51.54714,-0.68683,0.19054,0.85677
466.614,51.84458,-0.68597,0.19148,0.85494
469.614,52.1421,-0.68807,0.19028,0.85311
472.614,52.4397,-0.68356,0.19083,0.85127
475.614,52.73624,-0.68203,0.19123,0.84943
478.614,53.0337,-0.69281,0.19329,0.84758
481.614,53.3311,-0.69395,0.1963,0.84572
484.614,53.6281,-0.68703,0.19732,0.84385
487.614,53.92539,-0.67532,0.19126,0.84198
490.614,54.22245,-0.68632,0.19896,0.84009
493.614,54.51948,-0.69383,0.20382,0.83821
496.614,54.8172,-0.68486,0.20218,0.83631
499.614,55.11481,-0.69489,0.20558,0.8344
502.614,55.4127,-0.6863,0.20089,0.83249
505.614,55.711,-0.69678,0.20425,0.83057
508.614,56.00914,-0.69018,0.2,0.82865
511.614,56.3072,-0.68586,0.20122,0.82671
514.614,56.6061,-0.6948,0.20558,0.82477
517.614,56.9046,-0.692,0.20394,0.82282
520.614,57.20304,-0.68713,0.20323,0.82086
523.614,57.50229,-0.69968,0.20608,0.81889
526.614,57.8004,-0.69091,0.20516,0.81692
529.614,58.0984,-0.6852,0.2063,0.81493
532.614,58.3962,-0.68267,0.2075,0.81294
535.614,58.6946,-0.68956,0.20998,0.81094
538.614,58.9924,-0.69878,0.21493,0.80894
541.614,59.29079,-0.69106,0.21104,0.80692
544.614,59.5907,-0.6942,0.21277,0.8049
547.614,59.88941,-0.68727,0.21307,0.80287
550.614,60.18799,-0.69184,0.21081,0.80083
553.614,60.4864,-0.69192,0.21549,0.79878
556.614,60.7847,-0.69313,0.21548,0.79672
559.614,61.08399,-0.69283,0.21838,0.79466
562.614,61.38445,-0.69014,0.22115,0.79259
565.614,61.68467,-0.69177,0.22362,0.7905
568.614,61.98568,-0.69035,0.22332,0.78842
571.614,62.28676,-0.69313,0.22704,0.78632
574.614,62.58701,-0.69475,0.23046,0.78421
577.614,62.8871,-0.68971,0.23206,0.7821
580.614,63.18773,-0.69804,0.23548,0.77997
583.614,63.4873,-0.69443,0.23539,0.77784
586.614,63.78807,-0.69694,0.2381,0.7757
589.614,64.08925,-0.69365,0.24463,0.77356
592.614,64.39013,-0.70154,0.2491,0.7714
595.614,64.6914,-0.70064,0.24621,0.76924
598.614,64.9926,-0.69289,0.25103,0.76706
601.614,65.29371,-0.70166,0.25864,0.76488
604.614,65.59545,-0.7034,0.25888,0.76269
607.614,65.8961,-0.70206,0.26473,0.76049
610.614,66.19754,-0.70537,0.26696,0.75829
613.614,66.49842,-0.70594,0.27044,0.75607
616.614,66.8001,-0.70496,0.27686,0.75385
619.614,67.10138,-0.70725,0.28319,0.75162
622.614,67.4032,-0.71087,0.28634,0.74938
625.614,67.70434,-0.7153,0.29313,0.74713
628.614,68.0061,-0.70594,0.29499,0.74487
631.614,68.3079,-0.71581,0.3062,0.74261
634.614,68.60933,-0.71405,0.30669,0.74033
637.614,68.9111,-0.71663,0.31604,0.73805
640.614,69.21335,-0.72451,0.3269,0.73576
643.614,69.51639,-0.725,0.33083,0.73346
646.614,69.81827,-0.72604,0.33591,0.73116
649.614,70.12042,-0.7271,0.33803,0.72884
652.614,70.4222,-0.72871,0.34756,0.72652
655.614,70.72411,-0.73247,0.35203,0.72419
658.614,71.02625,-0.73669,0.3595,0.72185
661.614,71.32896,-0.73641,0.36258,0.71951
664.614,71.6323,-0.73944,0.37113,0.71715
667.614,71.9353,-0.74878,0.3751,0.71479
670.614,72.23898,-0.74869,0.37662,0.71242
673.614,72.5424,-0.75486,0.37416,0.71004
676.614,72.845,-0.75769,0.37151,0.70766
679.614,73.1473,-0.76287,0.36708,0.70526
682.614,73.4498,-0.7611,0.35975,0.70286
685.614,73.75203,-0.76893,0.35122,0.70046
688.614,74.05449,-0.77175,0.34051,0.69804
691.614,74.35582,-0.77545,0.33595,0.69561
694.614,74.6575,-0.77526,0.32373,0.69318
697.614,74.9602,-0.77966,0.31593,0.69074
700.614,75.26345,-0.78211,0.30127,0.6883
703.614,75.56655,-0.78238,0.2903,0.68584
706.614,75.8697,-0.78314,0.28009,0.68338
709.614,76.17322,-0.79379,0.26701,0.68092
712.614,76.47717,-0.78552,0.25733,0.67844
715.614,76.78154,-0.7936,0.25116,0.67596
718.614,77.08578,-0.78729,0.24784,0.67347
721.614,77.39066,-0.79686,0.24503,0.67097
724.614,77.69451,-0.80069,0.24686,0.66847
727.614,77.9997,-0.79292,0.24423,0.66596
730.614,78.30381,-0.79653,0.24542,0.66344
733.614,78.60744,-0.79759,0.24841,0.66092
736.614,78.9106,-0.80312,0.25607,0.65839
739.614,79.2127,-0.80126,0.25622,0.65585
742.614,79.51546,-0.79577,0.2534,0.6533
745.614,79.81855,-0.80957,0.26289,0.65075
747.314,79.99045,-0.80411,0.26489,0.64931