File: 01_Data/Overstuffed_Chair_Polyester_Fabric/Cone/Overstuffed_Chair_Polyester_Fabric_Cone_HF50Scan_210326_R1.csv
Names,Time,Stack TC,Smoke TC,Exh Press,Smoke Comp,Smoke Meas,CO Meter,CO2 Meter,O2 Meter,Sample Mass,Ext Coeff,Start Test,Flame Verif
Chan Gain,,500,500,1,1,1,1,1,1,1,1,1.0,1.0
Offset,,0,0,0.138348,0,0,0,0,0,0,0,0.0,0.0
Gain,,1,1,25.011,13.5067,16.616,1,1,1,1.00091,1.04608,1.0,1.0
Units,sec,C,C,Pa,%,%,%,%,%,g,/m,,
Baseline,,33.069,35.2162,162.117,102.365,99.5025,-0.00140775,0.0476228,20.9575,-0.00788218,0.260305,,
7,1.5,31.2642,32.9945,162.148,102.718,99.5731,-0.00102591,0.0499098,20.9524,470.138,0.285341,0.0,0.0
14,3.25,30.7671,32.8199,157.838,102.72,99.6405,-0.00106508,0.0514376,20.9478,469.217,0.279276,0.0,0.0
21,5,31.3782,33.6143,160.568,102.73,99.6633,-0.00120671,0.0535345,20.9436,468.897,0.278132,0.0,0.0
28,6.75,30.6171,33.4002,162.493,102.749,99.6953,-0.00135459,0.055321,20.9416,468.907,0.276848,0.0,0.0
35,8.5,31.4944,33.6119,164.63,102.762,100.021,-0.00148539,0.0567969,20.9401,468.897,0.248075,0.0,0.0
42,10.25,31.4164,33.3583,159.966,102.768,99.82,-0.00154473,0.0580666,20.939,468.887,0.267067,0.0,0.0
49,12,31.32,33.1165,163.351,102.768,100.236,-0.0015621,0.059451,20.9385,468.877,0.228923,0.0,0.0
56,13.75,31.5881,33.9276,161.832,102.791,99.6649,-0.00154129,0.0601178,20.9383,468.877,0.283403,0.0,0.0
63,15.5,31.1783,33.5516,162.145,102.803,100.123,-0.00146381,0.0603806,20.9382,468.877,0.242398,0.0,0.0
70,17.25,31.0666,33.7436,158.117,102.808,99.6958,-0.00133641,0.0602188,20.9394,468.877,0.282064,0.0,0.0
77,19,31.3414,34.5067,161.284,102.808,98.9504,-0.00109669,0.0597166,20.9399,468.887,0.35093,0.0,0.0
84,20.75,31.3479,33.9612,154.763,102.825,97.457,-0.0007611,0.0618209,20.9353,468.827,0.492016,0.0,1.0
91,22.5,31.5542,34.5015,159.559,102.851,91.7641,-0.000109719,0.0714174,20.9088,468.817,1.04662,0.0,1.0
98,24.25,30.7661,33.9305,155.363,102.857,89.0618,0.00104319,0.0931536,20.8705,468.707,1.32144,0.0,1.0
105,26,32.1422,34.9792,159.066,102.884,87.3226,0.0024657,0.125879,20.8221,468.587,1.5048,0.0,0.0
112,27.75,32.9304,36.6986,157.508,102.882,83.2644,0.0041712,0.168201,20.7706,468.436,1.94129,0.0,0.0
119,29.5,34.4248,38.4461,140.327,102.89,78.1733,0.00680106,0.218342,20.712,468.226,2.52097,0.0,0.0
126,31.25,35.7742,41.7704,152.595,102.909,76.9148,0.00908909,0.273029,20.6294,467.986,2.67156,0.0,0.0
133,33,37.36,43.8101,149.36,102.918,77.2951,0.0103845,0.328904,20.5701,467.746,2.62711,0.0,0.0
140,34.75,38.4244,45.3378,147.172,102.925,78.0912,0.0104125,0.365693,20.5406,467.556,2.53378,0.0,0.0
147,36.5,39.0134,45.7615,156.995,102.94,85.706,0.00921617,0.369382,20.5493,467.426,1.68126,0.0,0.0
154,38.25,39.7293,46.306,152.81,102.935,88.7622,0.00757133,0.353841,20.5959,467.325,1.35931,0.0,0.0
161,40,39.0134,45.5614,154.292,102.934,91.5704,0.00585959,0.323548,20.6607,467.245,1.07347,0.0,0.0
168,41.75,38.7795,45.541,159.372,102.938,93.8081,0.00441992,0.290045,20.7127,467.175,0.852253,0.0,0.0
175,43.5,38.618,45.1355,157.325,102.927,95.1346,0.0032748,0.257066,20.754,467.155,0.722449,0.0,0.0
182,45.25,38.1536,44.5296,156.412,102.931,97.1001,0.0023762,0.227614,20.7908,467.125,0.535138,0.0,0.0
189,47,37.5989,43.7001,155.795,102.949,99.6618,0.00164566,0.195785,20.8301,467.125,0.297802,0.0,0.0
196,48.75,37.4378,42.8931,157.152,102.948,99.7141,0.0011388,0.16817,20.861,467.135,0.292884,0.0,0.0
203,50.5,36.8529,41.9226,163.268,102.936,99.5498,0.000879097,0.144388,20.8859,467.095,0.306914,0.0,0.0
210,52.25,36.3975,41.7521,160.236,102.932,100.518,0.000769109,0.125852,20.9006,467.125,0.217703,0.0,0.0
217,54,35.0938,40.563,161.771,102.937,100.002,0.000733544,0.112055,20.9098,467.125,0.265434,0.0,0.0
224,55.75,35.0655,39.9477,163.028,102.928,100.151,0.000760993,0.102316,20.9152,467.125,0.250984,0.0,0.0
231,57.5,34.9764,38.942,163.056,102.916,100.252,0.0008507,0.0936868,20.9194,467.105,0.240724,0.0,0.0
238,59.25,34.7852,38.6575,158.307,102.914,100.284,0.000959913,0.087372,20.9228,467.135,0.237579,0.0,0.0
245,61,34.4243,38.6546,162.135,102.911,100.223,0.00111231,0.0818134,20.9264,467.115,0.242855,0.0,0.0
252,62.75,34.0901,37.729,160.055,102.9,100.659,0.00131572,0.0773886,20.9291,467.115,0.202013,0.0,0.0
259,64.5,33.8683,37.3313,164.115,102.903,99.8687,0.00148263,0.0742947,20.931,467.115,0.274621,0.0,0.0
266,66.25,33.6449,37.0208,158.959,102.886,99.8246,0.00162804,0.0716671,20.9325,467.115,0.277167,0.0,0.0
273,68,33.1674,36.2949,161.8,102.879,99.8733,0.00173774,0.0696986,20.9332,467.095,0.272106,0.0,0.0
280,69.75,33.5629,36.7554,161.253,102.883,99.9975,0.00178502,0.0681617,20.9335,467.075,0.261067,0.0,0.0
287,71.5,33.0436,36.0282,164.775,102.866,100.974,0.0017895,0.0667344,20.9345,467.075,0.17042,0.0,0.0
294,73.25,32.3969,36.6008,157.762,102.844,99.8302,0.00187096,0.0650899,20.936,467.075,0.272904,0.0,0.0
301,75,32.8855,35.8541,160.381,102.827,100.151,0.00207094,0.0634684,20.9383,467.075,0.241987,0.0,0.0
308,76.75,32.3792,35.6395,163.793,102.819,100.287,0.00222168,0.06197,20.9396,467.065,0.228844,0.0,0.0
315,78.5,31.9602,35.4373,163.499,102.814,99.8469,0.00228362,0.0607296,20.9412,466.905,0.268681,0.0,0.0
322,80.25,32.092,34.8457,162.715,102.791,99.5345,0.00222955,0.0594613,20.9422,466.985,0.295372,0.0,0.0
329,82,32.4228,34.201,158.91,102.755,99.5832,0.00209706,0.0584725,20.9428,467.065,0.287683,0.0,0.0
336,83.75,31.9762,34.2885,160.165,102.759,100.387,0.00196297,0.0580153,20.943,467.075,0.21429,0.0,0.0
343,85.5,31.8388,34.5902,163.154,102.758,99.8292,0.00186189,0.057561,20.9431,467.075,0.265382,0.0,0.0
350,87.25,31.7101,34.032,163.05,102.737,99.9656,0.00185076,0.0571274,20.9432,467.055,0.250901,0.0,0.0
357,89,31.7538,34.3392,162.25,102.721,99.7607,0.00193905,0.0567887,20.9433,467.035,0.268363,0.0,0.0
364,90.75,31.5632,34.6239,158.976,102.705,99.7318,0.00202751,0.0564573,20.9437,467.035,0.269548,0.0,0.0
371,92.5,31.806,34.4663,159.62,102.707,99.785,0.00197796,0.0562394,20.9442,467.015,0.264872,0.0,0.0
378,94.25,31.8304,34.3947,157.776,102.693,100.05,0.00179645,0.056029,20.9454,467.025,0.239274,0.0,0.0
385,96,32.0053,34.2592,159.698,102.673,99.963,0.0016408,0.0556986,20.9459,467.015,0.245463,0.0,0.0
392,97.75,31.2698,33.9359,161.563,102.674,100.089,0.00151575,0.0554499,20.9462,467.005,0.233952,0.0,0.0
399,99.5,31.2878,34.2385,157.006,102.684,100.154,0.00140452,0.0551744,20.9463,467.015,0.228889,0.0,0.0
406,101.25,31.4952,33.4429,157.757,102.678,99.5974,0.00132037,0.0549669,20.9465,466.995,0.279564,0.0,0.0
413,103,31.6491,33.2439,157.467,102.669,100.262,0.00117535,0.0547006,20.9474,466.985,0.217709,0.0,0.0
420,104.75,32.2343,33.4972,158.182,102.656,100.617,0.000999047,0.0543731,20.9478,466.995,0.184065,0.0,0.0
427,106.5,31.623,34.4904,163.172,102.651,99.891,0.000865572,0.0541435,20.948,466.995,0.250085,0.0,0.0
434,108.25,31.7883,33.9303,161.621,102.646,99.89,0.000839895,0.0537742,20.9481,466.995,0.249773,0.0,0.0
441,110,31.7244,33.6791,166.88,102.638,99.9377,0.000809864,0.0534845,20.9481,466.955,0.244659,0.0,0.0
448,111.75,31.3899,34.4163,161.941,102.612,99.6684,0.000700368,0.0533161,20.9481,466.985,0.267056,0.0,0.0
455,113.5,31.9407,34.0629,156.934,102.594,99.6258,0.000539654,0.0533375,20.9481,466.975,0.269356,0.0,0.0
462,115.25,31.2409,34.4,162.235,102.589,99.6628,0.000415483,0.0534885,20.9481,466.975,0.265506,0.0,0.0
469,117,30.8313,33.4116,161.684,102.574,99.9164,0.000305127,0.0542386,20.9472,466.985,0.240864,0.0,0.0
476,118.75,31.7664,33.6102,160.959,102.551,99.6735,0.000207877,0.0554766,20.9463,466.975,0.261132,0.0,0.0
483,120.5,31.1937,33.2769,161.904,102.535,99.1989,0.000122408,0.0565353,20.944,466.995,0.303493,0.0,0.0
490,122.25,31.4956,33.2365,160.878,102.518,99.8185,0.000183563,0.0575163,20.9425,466.985,0.244876,0.0,0.0
497,124,30.9918,33.9104,165.763,102.489,100.041,0.00028757,0.0590458,20.9399,466.985,0.221862,0.0,0.0
504,125.75,31.5291,34.0089,158.143,102.475,99.6547,0.000359297,0.0607488,20.9378,466.945,0.25607,0.0,0.0
511,127.5,31.4165,33.8215,162.377,102.453,99.3571,0.000348522,0.0627208,20.9361,466.955,0.281526,0.0,0.0
518,129.25,31.1263,33.487,161.3,102.441,99.7232,0.000316196,0.0641491,20.935,466.945,0.246742,0.0,0.0
525,131,31.2764,34.3171,162.58,102.434,100.268,0.000376884,0.0649848,20.9346,466.965,0.196101,0.0,0.0
532,132.75,30.8949,33.9666,157.528,102.418,99.5198,0.000386444,0.065426,20.9348,466.955,0.263441,0.0,0.0
539,134.5,31.285,34.068,163.673,102.404,99.6963,0.000247188,0.0654171,20.9348,466.945,0.245929,0.0,0.0
546,136.25,31.375,33.9375,165.986,102.371,99.4296,0.000116679,0.0650897,20.9349,466.955,0.267519,0.0,0.0
553,138,31.4526,33.0988,160.554,102.371,99.6314,4.84012e-05,0.0648391,20.9351,466.945,0.248913,0.0,0.0
560,139.75,30.7347,33.6451,162.235,102.368,99.6126,1.64696e-05,0.0643826,20.9366,466.935,0.250345,0.0,0.0
567,141.5,31.7942,33.7099,157.972,102.326,99.8033,1.79457e-05,0.063888,20.9382,466.945,0.229104,0.0,0.0
574,143.25,31.4032,33.9956,159.41,102.301,100.004,8.45602e-05,0.0630997,20.9389,466.925,0.208331,0.0,0.0
581,145,30.659,33.6819,163.863,102.278,100.063,0.00013064,0.0624582,20.94,466.925,0.2009,0.0,0.0
588,146.75,31.0856,33.7133,161.421,102.265,99.7414,0.000134463,0.0621322,20.9406,466.915,0.22932,0.0,0.0
595,148.5,31.5385,33.9388,165.098,102.245,99.3434,3.95572e-05,0.0623254,20.9404,466.925,0.264164,0.0,0.0
602,150.25,31.2475,33.4251,162.101,102.21,99.8048,-8.74681e-05,0.0629449,20.9383,466.925,0.218533,0.0,0.0
609,152,31.5025,34.2011,160.393,102.196,99.9118,-0.000173739,0.0633807,20.9373,466.915,0.207406,0.0,0.0
616,153.75,31.1512,33.2945,161.303,102.176,99.422,-0.000202779,0.0633579,20.9378,466.915,0.250692,0.0,0.0
623,155.5,31.1094,33.3983,163.792,102.164,99.1649,-0.000248,0.062562,20.9387,466.925,0.273377,0.0,0.0
630,157.25,31.2337,33.5553,165.844,102.119,99.4838,-0.000298458,0.0617434,20.9409,466.915,0.23991,0.0,0.0
637,159,31.0613,33.695,162.464,102.085,99.3758,-0.000298418,0.0605182,20.9422,466.905,0.246804,0.0,0.0
644,160.75,30.8568,33.7278,162.193,102.076,99.388,-0.000210642,0.0595358,20.9435,466.925,0.244901,0.0,0.0
651,162.5,31.0485,32.9836,160.6,102.056,99.2714,,0.0587409,,466.915,0.253822,0.0,0.0
658,164.25,30.5864,33.3817,161.391,102.035,99.1715,,0.0578019,,466.915,0.261209,0.0,0.0
665,166,31.4316,33.4318,164.395,102.021,98.8855,,,,466.915,0.286448,0.0,0.0
672,167.75,30.8145,33.7277,160.521,101.993,98.9519,,,,466.915,0.277728,0.0,0.0
679,169.5,31.1178,33.4111,158.667,101.989,98.9179,,,,466.905,0.280582,0.0,0.0
686,171.25,31.3555,33.5314,160.726,101.994,99.4113,,,,466.925,0.235372,0.0,0.0
690,172.25,31.1198,33.7863,157.432,101.949,99.2917,,,,466.925,0.242345,0.0,0.0