File: 01_Data/Overstuffed_Chair_Polyester_Fabric/Cone/Overstuffed_Chair_Polyester_Fabric_Cone_HF25Scalar_210324_R2.csv
LABORATORY,FSRI
TEST IDENT,Fabric_H25_2
OPERATOR,Morrissey
MATERIAL,Polyester Microfiber Fabric
ORIENTATION,Horizontal
HEAT FLUX,35
SURF AREA,0.01
C FACTOR,0.0386052
SPEC HOLDER DIFF,-97.97
SPECIMEN MASS,1.93
SCAN TIME,0.25
O2 DELAY TIME,11
CO DELAY TIME,11
CO2 DELAY TIME,8
FLOW FACTOR,1
SCAN COUNT,816
TIME TO IGN,27.75
END OF TEST SCAN,336
END OF TEST TIME,84
TEST STATUS,1
PRE TEST CMT,test w/o retainer grid or frame
POST TEST CMT,Sample folded over spark igniter and the sample was ignited upon contact