File: 01_Data/Overstuffed_Chair_Polyester_Fabric/Cone/Overstuffed_Chair_Polyester_Fabric_Cone_HF75Scan_210325_R1.csv
Names,Time,Stack TC,Smoke TC,Exh Press,Smoke Comp,Smoke Meas,CO Meter,CO2 Meter,O2 Meter,Sample Mass,Ext Coeff,Start Test,Flame Verif
Chan Gain,,500,500,1,1,1,1,1,1,1,1,1.0,1.0
Offset,,0,0,0.138348,0,0,0,0,0,0,0,0.0,0.0
Gain,,1,1,25.011,13.5067,16.616,1,1,1,1.00091,1.04608,1.0,1.0
Units,sec,C,C,Pa,%,%,%,%,%,g,/m,,
Baseline,,40.6246,44.4532,156.728,101.979,99.6591,-0.000489724,0.0818589,20.8722,-0.0784881,0.211152,,
7,1.5,35.3425,37.5784,159.097,101.817,99.5092,-0.000299347,0.0850308,20.8705,483.67,0.210345,0.0,0.0
14,3.25,36.4927,38.5335,160.966,101.83,99.7729,-0.000286731,0.0854451,20.8694,478.125,0.187288,0.0,0.0
21,5,36.2062,39.016,153.258,101.822,99.3069,-0.000307375,0.085732,20.8688,477.875,0.229505,0.0,0.0
28,6.75,36.2912,39.4717,153.511,101.805,99.1187,-0.000365748,0.0859804,20.8681,477.875,0.245382,0.0,0.0
35,8.5,36.7834,39.8846,154.304,101.798,99.2227,-0.000227537,0.0869757,20.8646,477.875,0.235168,0.0,0.0
42,10.25,37.358,40.3621,149.75,101.793,95.3055,0.000256968,0.0928095,20.8452,477.815,0.604254,0.0,1.0
49,12,38.2707,41.2859,151.525,101.804,88.3514,0.00109588,0.107251,20.8148,477.795,1.30049,0.0,1.0
56,13.75,37.18,41.0956,148.966,101.787,84.5351,0.00286141,0.136056,20.7611,477.695,1.70414,0.0,1.0
63,15.5,37.7181,42.7541,148.107,101.786,77.7433,0.00524655,0.176215,20.6727,477.535,2.4726,0.0,0.0
70,17.25,39.2441,46.0055,139.994,101.789,73.9372,0.00742065,0.234833,20.5827,477.314,2.93348,0.0,0.0
77,19,42.29,48.3624,145.491,101.78,71.9611,0.00946222,0.295661,20.5083,477.054,3.18124,0.0,0.0
84,20.75,42.6307,50.3269,141.454,101.771,73.3987,0.0106618,0.351957,20.4651,476.844,2.99892,0.0,0.0
91,22.5,44.2224,52.7016,142.285,101.765,72.8566,0.0106826,0.39102,20.4523,476.554,3.06638,0.0,0.0
98,24.25,44.9017,53.1064,149.877,101.735,80.2088,0.00971838,0.40643,20.4815,476.404,2.18156,0.0,0.0
105,26,44.9057,53.9564,148.893,101.746,82.2629,0.00855194,0.400788,20.5143,476.364,1.95048,0.0,0.0
112,27.75,45.4661,53.762,148.562,101.743,87.0944,0.00671366,0.377556,20.5644,476.324,1.42652,0.0,0.0
119,29.5,45.3782,53.5184,148.532,101.722,88.8793,0.00520417,0.354406,20.6113,476.233,1.23843,0.0,0.0
126,31.25,45.1735,53.6288,152.111,101.728,88.6354,0.00402224,0.320849,20.6518,476.203,1.26417,0.0,0.0
133,33,45.3548,53.29,153.487,101.726,92.2301,0.00311777,0.292644,20.683,476.173,0.899186,0.0,0.0
140,34.75,44.5531,52.6022,151.353,101.736,96.7831,0.00229743,0.264643,20.7182,476.153,0.457986,0.0,0.0
147,36.5,44.3668,52.1821,152.172,101.704,98.9261,0.00170283,0.237182,20.7542,476.123,0.25413,0.0,0.0
154,38.25,43.6775,51.3312,152.248,101.703,99.3221,0.00134176,0.209707,20.7829,476.073,0.217358,0.0,0.0
161,40,42.7317,49.0136,157.73,101.697,99.5224,0.00109911,0.187307,20.7997,476.163,0.198351,0.0,0.0
168,41.75,41.8749,48.9282,157.683,101.71,99.4113,0.000892355,0.168362,20.8093,476.163,0.209786,0.0,0.0
175,43.5,41.8329,47.5477,154.779,101.718,99.5386,0.000762791,0.15563,20.8174,476.153,0.198715,0.0,0.0
182,45.25,41.396,47.4535,155.748,101.712,99.7115,0.000704897,0.14341,20.8247,476.103,0.182268,0.0,0.0
189,47,40.7552,46.5461,158.441,101.715,99.426,0.000671878,0.134258,20.83,476.083,0.208875,0.0,0.0
196,48.75,40.9214,46.2178,154.657,101.721,99.5401,0.000669194,0.12703,20.8344,476.093,0.198871,0.0,0.0
203,50.5,40.5149,45.8338,157.779,101.735,99.3662,0.000658381,0.121391,20.8384,476.103,0.216184,0.0,0.0
210,52.25,40.4445,45.7207,156.917,101.727,99.7212,0.000638574,0.116305,20.8424,476.093,0.182757,0.0,0.0
217,54,40.155,45.4799,156.496,101.718,99.4565,0.000681508,0.112528,20.8448,476.083,0.206328,0.0,0.0
224,55.75,39.886,45.4125,151.221,101.726,99.5102,0.000718192,0.108702,20.8481,476.073,0.202039,0.0,0.0
231,57.5,39.77,44.5547,155.957,101.74,99.6106,0.000732183,0.105607,20.85,476.043,0.194086,0.0,0.0
238,59.25,39.5527,44.5077,157.508,101.73,99.5168,0.00076241,0.103144,20.8533,476.083,0.201804,0.0,0.0
245,61,39.0867,44.5798,156.811,101.729,99.3495,0.000784773,0.100757,20.8549,476.063,0.217171,0.0,0.0
252,62.75,39.9508,44.4691,156.589,101.728,99.782,0.000740127,0.0987347,20.8556,476.103,0.177196,0.0,0.0
259,64.5,39.9359,44.0072,154.351,101.726,99.5685,0.000637563,0.0971403,20.857,476.053,0.196737,0.0,0.0
266,66.25,39.7437,43.9895,151.886,101.719,99.3687,0.000557258,0.0960546,20.8587,476.063,0.214499,0.0,0.0
273,68,39.0852,44.2085,157.751,101.712,99.5178,0.000528226,0.0949422,20.8599,476.063,0.200073,0.0,0.0
280,69.75,39.3728,43.7239,163.463,101.709,99.3079,0.00058254,0.0940878,20.8605,476.113,0.219265,0.0,0.0
287,71.5,38.746,43.3549,155.017,101.716,99.3926,0.000691055,0.0931785,20.8607,476.023,0.212001,0.0,0.0
294,73.25,38.6534,43.0712,153.485,101.708,99.7759,0.000767552,0.0928776,20.8604,476.023,0.176008,0.0,0.0
301,75,38.6242,43.3035,155.533,101.693,99.8337,0.000752407,0.0926447,20.8603,476.043,0.169317,0.0,0.0
308,76.75,39.0288,43.0943,155.89,101.684,99.4423,0.000658892,0.092339,20.8607,476.033,0.204551,0.0,0.0
315,78.5,39.2121,43.5802,159.071,101.672,99.7856,0.000555408,0.0919294,20.8616,476.053,0.171886,0.0,0.0
322,80.25,39.2502,43.1976,154.878,101.683,99.5325,0.000504867,0.0916373,20.8621,476.013,0.196188,0.0,0.0
329,82,39.1375,42.9842,156.801,101.666,99.3368,0.000561233,0.0914533,20.8623,475.983,0.212688,0.0,0.0
336,83.75,38.7169,43.1181,155.177,101.651,99.1005,0.000633904,0.0912276,20.8624,475.983,0.233204,0.0,0.0
343,85.5,38.701,42.6204,152.962,101.618,99.6988,0.000697234,0.0910544,20.8624,475.983,0.174989,0.0,0.0
350,87.25,38.6108,42.6317,155.165,101.611,98.9509,0.000729068,0.0907778,20.8635,476.013,0.243454,0.0,0.0
357,89,38.7669,42.881,161.258,101.609,99.4889,0.000693723,0.0904817,20.8649,475.973,0.193475,0.0,0.0
364,90.75,38.9444,42.5612,154.726,101.582,99.5371,0.00056262,0.0902489,20.8655,475.963,0.186575,0.0,0.0
371,92.5,38.7334,42.9904,153.703,101.574,99.1512,0.000427908,0.090033,20.8658,475.983,0.221512,0.0,0.0
378,94.25,38.8975,42.7123,154.277,101.558,99.3403,0.000350295,0.0896508,20.8659,475.943,0.202608,0.0,0.0
385,96,38.8849,42.8276,151.764,101.556,99.2531,0.000310965,0.0892846,20.866,475.983,0.210445,0.0,0.0
392,97.75,38.6311,42.71,157.874,101.528,99.2846,0.000290361,0.0888679,20.8671,475.963,0.205043,0.0,0.0
399,99.5,38.5936,42.5923,155.254,101.511,99.1015,0.00029268,0.0884987,20.8678,475.983,0.220413,0.0,0.0
406,101.25,38.2487,42.8778,152.539,101.509,99.0391,0.000346831,0.0882949,20.8681,475.983,0.226003,0.0,0.0
413,103,39.1562,42.5581,160.561,101.509,98.8622,0.000389761,0.0879307,20.8682,475.983,0.242452,0.0,0.0
420,104.75,38.4512,42.5783,152.704,101.5,98.9479,0.00041765,0.08764,20.8683,476.013,0.233643,0.0,0.0
427,106.5,38.5223,42.3828,155.793,101.484,99.3479,0.000509368,0.0873545,20.8684,475.993,0.1952,0.0,0.0
434,108.25,38.1489,42.9345,157.416,101.466,98.848,0.000681138,0.0870774,20.8696,476.013,0.239857,0.0,0.0
441,110,38.2143,42.766,161.421,101.454,99.2222,0.00082534,0.0869335,20.8702,475.993,0.204101,0.0,0.0
448,111.75,38.3716,42.1078,159.165,101.461,98.9869,0.000817356,0.0866036,20.8702,475.993,0.226519,0.0,0.0
455,113.5,38.1966,41.9899,166.117,101.454,98.9225,0.000670157,0.0864186,20.8701,475.993,0.231858,0.0,0.0
462,115.25,38.6057,42.0599,155.648,101.416,98.9631,0.00052268,0.0861949,20.8701,475.973,0.224702,0.0,0.0
469,117,38.3322,42.7037,157.331,101.435,98.7156,0.000477543,0.0859879,20.8701,475.973,0.249355,0.0,0.0
476,118.75,38.3969,42.2089,155.449,101.43,98.9088,0.000533628,0.0858285,20.87,475.953,0.230965,0.0,0.0
483,120.5,38.2606,41.8647,154.717,101.414,98.9291,0.000576302,0.0856319,20.87,475.973,0.227629,0.0,0.0
490,122.25,37.9677,42.8552,156.128,101.405,98.9783,0.000563248,0.0854893,20.87,475.933,0.222285,0.0,0.0
497,124,37.9513,42.0743,153.337,101.403,98.9671,0.000547932,0.0853418,20.87,475.933,0.223133,0.0,0.0
504,125.75,38.1954,41.9173,157.172,101.416,98.7724,0.000561872,0.0852322,20.8701,475.923,0.242324,0.0,0.0
511,127.5,38.362,42.3705,158.687,101.411,98.997,0.000559353,0.085107,20.8713,475.933,0.221031,0.0,0.0
518,129.25,38.3191,42.1567,155.929,101.404,98.9012,0.000541852,0.0848999,20.8723,475.933,0.229322,0.0,0.0
525,131,38.2688,42.0976,156.095,101.401,98.991,0.000481233,0.0845776,20.8728,475.903,0.2207,0.0,0.0
532,132.75,37.5022,41.8769,158.598,101.41,98.9717,0.000363617,0.0844352,20.873,475.903,0.223306,0.0,0.0
539,134.5,38.4661,41.7615,157.136,101.418,98.6827,0.000276236,0.0843917,20.8729,475.913,0.250927,0.0,0.0
546,136.25,37.9799,42.3632,156.51,101.4,98.5569,0.000210429,0.0843464,20.8725,475.943,0.260949,0.0,0.0
553,138,38.053,41.7426,156.403,101.388,98.7663,0.00016876,0.0840818,20.872,475.893,0.240427,0.0,0.0
560,139.75,38.4106,41.3549,160.236,101.4,98.9169,9.80446e-05,0.0839357,20.8717,475.913,0.227527,0.0,0.0
567,141.5,38.4182,42.4427,157.864,101.409,99.2075,2.85578e-05,0.0839399,20.8716,475.973,0.201359,0.0,0.0
574,143.25,38.0202,41.9316,156.85,101.411,99.0143,2.3315e-05,0.0838834,20.8715,475.933,0.219432,0.0,0.0
581,145,38.2764,42.0666,151.786,101.409,98.6913,7.72047e-05,0.0838791,20.8715,475.923,0.249305,0.0,0.0
588,146.75,37.9291,41.8111,158.242,101.409,98.919,0.000121108,0.083932,20.8715,475.913,0.228123,0.0,0.0
595,148.5,38.5939,41.9692,157.14,101.422,99.0898,,0.0839009,,475.923,0.213441,0.0,0.0
602,150.25,38.2391,42.0635,153.739,101.432,99.1862,,0.0837327,,475.943,0.205418,0.0,0.0
609,152,38.4199,42.2571,155.825,101.424,99.1187,,,,475.933,0.210988,0.0,0.0
616,153.75,38.5088,42.1672,158.706,101.413,98.8307,,,,475.943,0.236647,0.0,0.0
623,155.5,38.0619,42.2351,150.626,101.417,99.2612,,,,475.893,0.197136,0.0,0.0
630,157.25,37.9269,42.0962,153.234,101.412,98.7313,,,,475.913,0.245805,0.0,0.0
637,159,38.4312,42.1196,155.831,101.43,99.0706,,,,475.903,0.216008,0.0,0.0
638,159.25,38.4552,42.3236,157.632,101.421,99.0716,,,,475.933,0.215094,0.0,0.0