File: 01_Data/Cedar_Shingle/STA/N2/10K_min/Cedar_Shingle_STA_N2_10KData_220401_R1.csv
##Temp./Â°C,Time/min,Mass loss(subtr.2)/mg,DSC(subtr.2)/(mW/mg),Sensit./(uV/mW)
49.703,10.01,-0.02029,0.02630663,1.06052
52.903,11.32553,-0.01947018,0.14289,1.05985
56.103,11.7772,-0.02014659,0.19816,1.05917
59.303,12.16416,-0.02453504,0.23517,1.05847
62.503,12.527,-0.02030939,0.25712,1.05774
65.703,12.87771,-0.02484754,0.27765,1.057
68.903,13.22211,-0.02242763,0.29355,1.05624
72.103,13.5625,-0.02288436,0.31105,1.05546
75.303,13.89936,-0.02893956,0.3238,1.05467
78.503,14.23422,-0.02774811,0.33748,1.05385
81.703,14.56502,-0.03517918,0.34789,1.05302
84.903,14.8912,-0.03442438,0.35513,1.05216
88.103,15.21589,-0.03605226,0.35974,1.05129
91.303,15.5378,-0.03937799,0.35922,1.0504
94.503,15.85719,-0.04216943,0.35315,1.04949
97.703,16.1748,-0.0411248,0.34896,1.04857
100.903,16.4912,-0.04505792,0.34235,1.04762
104.103,16.80641,-0.05050181,0.33624,1.04666
107.303,17.12066,-0.04672309,0.32821,1.04568
110.503,17.4341,-0.04542347,0.32282,1.04468
113.703,17.74707,-0.04966104,0.31916,1.04367
116.903,18.06074,-0.05298,0.32021,1.04263
120.103,18.37286,-0.05559947,0.31786,1.04158
123.303,18.6846,-0.05396008,0.3203,1.04051
126.503,18.99608,-0.05649866,0.32105,1.03943
129.703,19.30723,-0.06316996,0.32257,1.03832
132.903,19.61838,-0.05889944,0.32387,1.0372
136.103,19.92844,-0.06119985,0.32461,1.03606
139.303,20.23781,-0.0646389,0.32828,1.03491
142.503,20.54638,-0.06653302,0.33165,1.03374
145.703,20.8542,-0.06734195,0.33254,1.03255
148.903,21.16219,-0.07249772,0.33476,1.03134
152.103,21.46966,-0.07118295,0.3379,1.03012
155.303,21.77735,-0.07545551,0.34169,1.02888
158.503,22.08556,-0.07673264,0.34287,1.02763
161.703,22.39358,-0.07775303,0.34327,1.02636
164.903,22.70141,-0.08038778,0.3479,1.02507
168.103,23.0086,-0.08499968,0.3527,1.02376
171.303,23.3143,-0.08698,0.35818,1.02244
174.503,23.62177,-0.0941831,0.35983,1.02111
177.703,23.92839,-0.09246503,0.36342,1.01975
180.903,24.23499,-0.09058392,0.36526,1.01839
184.103,24.54113,-0.09478023,0.36652,1.017
187.303,24.8475,-0.10058,0.37262,1.0156
190.503,25.15427,-0.09781642,0.37081,1.01419
193.703,25.46046,-0.10314,0.37681,1.01275
196.903,25.76666,-0.10767,0.37787,1.01131
200.103,26.07313,-0.11165,0.38328,1.00985
203.303,26.37925,-0.11308,0.38851,1.00837
206.503,26.686,-0.12046,0.39312,1.00688
209.703,26.99209,-0.12164,0.39836,1.00537
212.903,27.2979,-0.12833,0.40299,1.00385
216.103,27.60378,-0.12984,0.41007,1.00231
219.303,27.90943,-0.13524,0.4151,1.00076
222.503,28.2146,-0.13921,0.42308,0.99919
225.703,28.5194,-0.15052,0.42857,0.99761
228.903,28.82462,-0.15822,0.4349,0.99602
232.103,29.12981,-0.16309,0.43818,0.99441
235.303,29.43484,-0.17704,0.44331,0.99278
238.503,29.73995,-0.17197,0.44386,0.99114
241.703,30.045,-0.19383,0.45042,0.98949
244.903,30.34978,-0.20827,0.45303,0.98782
248.103,30.6551,-0.21914,0.45302,0.98614
251.303,30.9595,-0.23611,0.45321,0.98445
254.503,31.266,-0.25236,0.45283,0.98274
257.703,31.5715,-0.27041,0.44913,0.98102
260.903,31.87797,-0.28047,0.44744,0.97929
264.103,32.1845,-0.30191,0.4455,0.97754
267.303,32.4911,-0.32421,0.44168,0.97578
270.503,32.79716,-0.34904,0.44172,0.974
273.703,33.1035,-0.37336,0.4351,0.97221
276.903,33.41062,-0.39735,0.43141,0.97041
280.103,33.71783,-0.42247,0.42757,0.9686
283.303,34.02421,-0.45435,0.4248,0.96677
286.503,34.3304,-0.48484,0.42563,0.96493
289.703,34.63668,-0.50847,0.42107,0.96308
292.903,34.94393,-0.54739,0.42219,0.96122
296.103,35.25132,-0.58021,0.42089,0.95934
299.303,35.55863,-0.62209,0.42399,0.95745
302.503,35.86723,-0.66588,0.427,0.95555
305.703,36.17524,-0.70918,0.43406,0.95364
308.903,36.48346,-0.75753,0.43848,0.95171
312.103,36.7917,-0.80552,0.45098,0.94977
315.303,37.09935,-0.86749,0.46036,0.94783
318.503,37.4074,-0.92644,0.46997,0.94586
321.703,37.71573,-0.98978,0.47928,0.94389
324.903,38.02397,-1.05836,0.48731,0.94191
328.103,38.333,-1.12538,0.49895,0.93991
331.303,38.64197,-1.19828,0.51197,0.93791
334.503,38.951,-1.2761,0.52658,0.93589
337.703,39.26,-1.35912,0.53856,0.93386
340.903,39.56912,-1.43751,0.55809,0.93182
344.103,39.87904,-1.52262,0.57532,0.92977
347.303,40.1883,-1.62598,0.60561,0.92771
350.503,40.49803,-1.71315,0.63576,0.92563
353.703,40.80746,-1.8138,0.66501,0.92355
356.903,41.11776,-1.91826,0.69607,0.92146
360.103,41.428,-2.0304,0.71555,0.91935
363.303,41.73859,-2.13987,0.72335,0.91724
366.503,42.04997,-2.26391,0.71259,0.91511
369.703,42.36133,-2.36916,0.6725,0.91298
372.903,42.67273,-2.47581,0.60124,0.91083
376.103,42.9839,-2.5628,0.49993,0.90868
379.303,43.29469,-2.63408,0.38259,0.90651
382.503,43.60532,-2.6871,0.26306,0.90434
385.703,43.9162,-2.72135,0.16493,0.90216
388.903,44.22759,-2.7488,0.10405,0.89996
392.103,44.53868,-2.76363,0.07425277,0.89776
395.303,44.85082,-2.77649,0.0621383,0.89555
398.503,45.1622,-2.78216,0.05162799,0.89332
401.703,45.4741,-2.79704,0.04179157,0.89109
404.903,45.78632,-2.81325,0.03390003,0.88885
408.103,46.09792,-2.82065,0.02471929,0.88661
411.303,46.41064,-2.83989,0.01695909,0.88435
414.503,46.72417,-2.83969,0.007100397,0.88208
417.703,47.0379,-2.85567,-0.002596655,0.87981
420.903,47.35221,-2.86695,-0.01070746,0.87752
424.103,47.66623,-2.87016,-0.01859476,0.87523
427.303,47.98049,-2.88555,-0.02101239,0.87293
430.503,48.29469,-2.8967,-0.02176901,0.87062
433.703,48.60751,-2.90639,-0.02144831,0.8683
436.903,48.9209,-2.92086,-0.01896488,0.86598
440.103,49.234,-2.92931,-0.01668671,0.86364
443.303,49.5486,-2.93757,-0.007853262,0.8613
446.503,49.8635,-2.94695,0.001244481,0.85895
449.703,50.17923,-2.95641,0.01157469,0.8566
452.903,50.49465,-2.96228,0.02322186,0.85423
456.103,50.81048,-2.96989,0.03501338,0.85186
459.303,51.1257,-2.97854,0.04592926,0.84948
462.503,51.4411,-2.98413,0.0535511,0.8471
465.703,51.7565,-2.99449,0.06582047,0.8447
468.903,52.0727,-2.99772,0.07333427,0.8423
472.103,52.38903,-3.00707,0.07911599,0.83989
475.303,52.7053,-3.00835,0.08612332,0.83748
478.503,53.02174,-3.01372,0.0935134,0.83506
481.703,53.33784,-3.02514,0.10054,0.83263
484.903,53.65501,-3.02788,0.10612,0.83019
488.103,53.97185,-3.03196,0.11093,0.82775
491.303,54.28966,-3.03577,0.10901,0.8253
494.503,54.6073,-3.04127,0.11856,0.82285
497.703,54.9243,-3.04578,0.12366,0.82038
500.903,55.2407,-3.05103,0.14066,0.81792
504.103,55.55712,-3.05001,0.15528,0.81544
507.303,55.87333,-3.05381,0.16308,0.81296
510.503,56.18959,-3.06594,0.16691,0.81048
513.703,56.5061,-3.06776,0.17144,0.80799
516.903,56.82306,-3.06692,0.1717,0.80549
520.103,57.14089,-3.07343,0.1736,0.80299
523.303,57.459,-3.07663,0.16817,0.80048
526.503,57.77709,-3.07965,0.16623,0.79796
529.703,58.0962,-3.08393,0.16268,0.79545
532.903,58.41545,-3.09037,0.16615,0.79292
536.103,58.7346,-3.09144,0.16372,0.79039
539.303,59.053,-3.09663,0.15785,0.78786
542.503,59.37145,-3.10422,0.15238,0.78532
545.703,59.6892,-3.10531,0.15079,0.78277
548.903,60.0072,-3.10356,0.14617,0.78022
552.103,60.325,-3.10187,0.14326,0.77767
555.303,60.6435,-3.11069,0.14218,0.77511
558.503,60.96294,-3.11431,0.13697,0.77254
561.703,61.28233,-3.11516,0.13408,0.76997
564.903,61.6021,-3.12693,0.13276,0.7674
568.103,61.92103,-3.11804,0.12794,0.76482
571.303,62.24126,-3.12671,0.13758,0.76224
574.503,62.56094,-3.12758,0.13873,0.75966
577.703,62.88064,-3.13164,0.14136,0.75707
580.903,63.2008,-3.12978,0.14085,0.75447
584.103,63.52098,-3.13504,0.14527,0.75188
587.303,63.84163,-3.13865,0.14937,0.74928
590.503,64.1623,-3.13895,0.15845,0.74667
593.703,64.48301,-3.14722,0.15617,0.74406
596.903,64.8035,-3.1489,0.15366,0.74145
600.103,65.12389,-3.14985,0.15205,0.73883
603.303,65.4445,-3.15066,0.14772,0.73622
606.503,65.76589,-3.15763,0.14471,0.73359
609.703,66.08671,-3.15895,0.14494,0.73097
612.903,66.40867,-3.15748,0.14197,0.72834
616.103,66.72968,-3.16528,0.14385,0.72571
619.303,67.0521,-3.16564,0.14491,0.72307
622.503,67.37392,-3.16552,0.14148,0.72044
625.703,67.69553,-3.17245,0.14746,0.7178
628.903,68.01787,-3.17244,0.14345,0.71515
632.103,68.33844,-3.17112,0.14579,0.71251
635.303,68.65889,-3.17354,0.14602,0.70986
638.503,68.9816,-3.17746,0.14587,0.70721
641.703,69.30357,-3.17836,0.15019,0.70456
644.903,69.62471,-3.17865,0.15093,0.7019
648.103,69.94611,-3.18284,0.15597,0.69924
651.303,70.2674,-3.18529,0.15821,0.69658
654.503,70.58937,-3.18748,0.16052,0.69392
657.703,70.9118,-3.19043,0.16373,0.69126
660.903,71.23519,-3.19087,0.16398,0.6886
664.103,71.5582,-3.18369,0.16651,0.68593
667.303,71.88121,-3.18895,0.16887,0.68326
670.503,72.20467,-3.19465,0.17444,0.68059
673.703,72.5274,-3.19734,0.17661,0.67792
676.903,72.85004,-3.19603,0.18354,0.67525
680.103,73.17266,-3.19776,0.19051,0.67257
683.303,73.49549,-3.19855,0.19093,0.6699
686.503,73.8171,-3.19986,0.19541,0.66722
689.703,74.13929,-3.20177,0.19946,0.66454
692.903,74.46203,-3.20535,0.20852,0.66186
696.103,74.7851,-3.20536,0.21163,0.65918
699.303,75.10847,-3.2093,0.21491,0.6565
702.503,75.4318,-3.20865,0.21676,0.65382
705.703,75.75446,-3.20457,0.22119,0.65114
708.903,76.0783,-3.20702,0.22763,0.64845
712.103,76.4024,-3.21314,0.23367,0.64577
715.303,76.72704,-3.21577,0.23729,0.64309
718.503,77.04975,-3.21512,0.24035,0.6404
721.703,77.3742,-3.21818,0.24356,0.63772
724.903,77.69768,-3.21588,0.24757,0.63503
728.103,78.0215,-3.21723,0.24914,0.63235
731.303,78.346,-3.21873,0.2496,0.62966
734.503,78.67051,-3.21698,0.25453,0.62698
737.703,78.99425,-3.22214,0.25912,0.62429
740.903,79.31783,-3.22532,0.26037,0.62161
744.103,79.64102,-3.22314,0.26377,0.61892
747.303,79.9657,-3.22479,0.27173,0.61624
750.503,80.2899,-3.22652,0.27004,0.61355
753.703,80.6151,-3.22788,0.27317,0.61087
756.903,80.9396,-3.23158,0.27145,0.60819
760.103,81.26473,-3.22884,0.26918,0.60551
763.303,81.5891,-3.23264,0.27054,0.60282
766.503,81.91238,-3.23299,0.27189,0.60014
769.703,82.23608,-3.23561,0.27497,0.59746
772.903,82.5596,-3.23529,0.27544,0.59478
776.103,82.88368,-3.23562,0.27947,0.59211
779.303,83.20874,-3.23761,0.28101,0.58943
782.503,83.53366,-3.23677,0.28489,0.58675
785.703,83.85835,-3.24079,0.28579,0.58408
788.903,84.18207,-3.23967,0.2909,0.58141
792.103,84.50686,-3.23968,0.28407,0.57873
795.303,84.83161,-3.24361,0.28182,0.57606
796.903,84.9945,-3.24666,0.2873,0.57473