File: 01_Data/R30_Fiberglass_Insulation/Cone/R30_Fiberglass_Insulation_Cone_HF75Scan_220503_R2.csv
Names,Time,Stack TC,Smoke TC,Exh Press,Smoke Comp,Smoke Meas,CO Meter,CO2 Meter,O2 Meter,Sample Mass,Ext Coeff,Start Test,Flame Verif
Chan Gain,,500,500,1,1,1,1,1,1,1,1,1.0,1.0
Offset,,0,0,0.135741,0,0,0,0,0,0,0,0.0,0.0
Gain,,1,1,25.011,14.8585,16.6522,1,1,1,1.00087,1.0138,1.0,1.0
Units,sec,C,C,Pa,%,%,%,%,%,g,/m,,
Baseline,,46.2936,48.0322,131.988,113.361,118.958,0.00070459,0.0484402,21.0027,-4.38701,-0.428512,,
31,7.5,44.2481,46.0875,131.025,113.338,118.763,0.0037256,0.0582502,20.9959,492.217,-0.415796,0.0,0.0
62,15.25,44.8984,46.8216,129.24,113.298,119.105,0.00429508,0.0601121,20.9939,492.087,-0.4445,0.0,0.0
93,23,45.9621,47.2365,131.868,113.251,118.427,0.00382972,0.0602038,20.9927,492.046,-0.397439,0.0,0.0
124,30.75,46.5004,47.6704,127.916,113.216,119.03,0.00404425,0.0610193,20.9924,492.066,-0.445363,0.0,0.0
155,38.5,46.2141,48.2481,135.217,113.178,119.828,0.00414708,0.0626886,20.9903,491.946,-0.507693,0.0,0.0
186,46.25,46.5154,48.2878,133.783,113.13,119.328,0.00331566,0.0620752,20.9895,491.906,-0.474354,0.0,0.0
217,54,47.1283,48.9415,127.787,113.09,119.943,0.00201614,0.0589239,20.9951,491.916,-0.523237,0.0,0.0
248,61.75,47.2309,48.8897,131.654,113.068,118.2,0.00162466,0.0554801,20.9989,491.926,-0.394764,0.0,0.0
279,69.5,47.0129,48.5667,128.876,113.037,119.108,0.00126648,0.0523374,21.0055,491.986,-0.465253,0.0,0.0
310,77.25,47.0992,49.0074,129.339,113.006,119.109,0.00112967,0.0502964,21.0086,491.936,-0.467717,0.0,0.0
341,85,46.8549,49.0275,134.95,112.958,119.042,0.00112902,0.0490888,21.0111,491.936,-0.466526,0.0,0.0
372,92.75,46.4871,49.0071,129.229,112.908,118.466,0.000622033,0.0483259,21.0095,491.916,-0.427262,0.0,0.0
403,100.5,47.3007,48.6896,131.273,113.003,118.751,0.00034585,0.0481735,21.0095,491.916,-0.441214,0.0,0.0
434,108.25,46.8767,48.861,127.766,113.067,120.661,0.000657459,0.0480523,21.0107,491.886,-0.578064,0.0,0.0
465,116,47.3056,48.8088,130.583,113.137,119.101,0.000336883,0.0478879,21.0108,491.876,-0.456838,0.0,0.0
496,123.75,46.8292,49.6841,133.24,113.188,120.115,0.00058424,0.0477678,21.0103,491.876,-0.52823,0.0,0.0
527,131.5,46.8867,48.7269,133.137,113.243,119.801,0.000627783,0.0477195,21.0103,491.876,-0.5006,0.0,0.0
558,139.25,46.4395,48.7548,131.738,113.301,118.963,0.000849762,0.04737,21.0108,491.866,-0.433653,0.0,0.0
589,147,47.255,49.3633,132.503,113.341,120.45,0.000125308,0.0470239,21.0111,491.896,-0.54099,0.0,0.0
620,154.75,47.1863,49.0353,128.366,113.345,119.811,0.000398764,0.0471331,21.012,491.856,-0.493383,0.0,0.0
651,162.5,47.5579,48.9615,129.781,113.371,119.909,0.000305929,0.0471829,21.0113,491.856,-0.498669,0.0,0.0
682,170.25,46.4776,49.4504,130.831,113.368,119.032,0.000410829,0.0470304,21.0106,491.876,-0.433553,0.0,0.0
713,178,47.442,49.1602,130.726,113.374,119.867,0.000626164,0.0470418,21.01,491.866,-0.495253,0.0,0.0
744,185.75,47.3911,49.1969,131.175,113.382,119.357,0.000737904,0.0472914,21.0111,491.836,-0.456717,0.0,0.0
775,193.5,47.1915,49.2259,129.942,113.372,119.118,0.000570868,0.0470018,21.0104,491.876,-0.439647,0.0,0.0
806,201.25,47.2645,49.8043,126.992,113.36,119.981,0.000494035,0.0470229,21.0103,491.856,-0.504835,0.0,0.0
837,209,47.376,49.2041,134.748,113.331,119.205,0.000446077,0.0471139,21.0118,491.896,-0.449409,0.0,0.0
868,216.75,47.4759,49.6181,130.139,113.311,119.103,0.000491149,0.0469313,21.0139,491.876,-0.443388,0.0,0.0
899,224.5,47.4939,49.2981,128.887,113.326,119.491,0.000489275,0.0468406,21.0136,491.856,-0.471082,0.0,0.0
930,232.25,47.626,49.8272,131.247,113.327,119.769,0.000713818,0.0468855,21.0122,491.846,-0.491673,0.0,0.0
961,240,47.8015,49.4704,129.249,113.321,118.549,0.000296057,0.0469568,21.0109,491.846,-0.401111,0.0,0.0
992,247.75,47.2312,49.0817,131.178,113.314,119.575,0.000644511,0.0469433,21.0096,491.866,-0.478246,0.0,0.0
1023,255.5,47.9519,49.6532,129.654,113.303,118.598,0.000592247,0.0470067,21.012,491.866,-0.406158,0.0,0.0
1054,263.25,47.8904,49.6615,134.61,113.281,119.132,0.000376152,0.0469878,21.0116,491.816,-0.447825,0.0,0.0
1085,271,47.4335,49.358,132.911,113.28,120.403,0.000505179,0.0468318,21.0114,491.816,-0.542308,0.0,0.0
1116,278.75,47.8502,49.5577,131.983,113.275,120.559,0.000443747,0.0469723,21.0108,491.856,-0.554251,0.0,0.0
1147,286.5,47.641,49.6142,131.906,113.259,119.578,0.000374371,0.0472032,21.0112,491.846,-0.482817,0.0,0.0
1178,294.25,47.6595,49.4072,132.863,113.242,118.661,0.000299056,0.0471561,21.0116,491.846,-0.415726,0.0,0.0
1209,302,47.7481,49.5906,132.457,113.22,118.768,0.000545663,0.0472046,21.0121,491.816,-0.425432,0.0,0.0
1240,309.75,47.309,49.7746,127.748,113.184,119.675,0.000512271,0.0473189,21.0093,491.826,-0.495943,0.0,0.0
1271,317.5,47.4904,49.397,128.201,113.124,118.571,0.000390754,0.047545,21.011,491.846,-0.418171,0.0,0.0
1302,325.25,47.6309,49.3964,128.347,113.067,118.157,0.00060766,0.0474499,21.0147,491.866,-0.391582,0.0,0.0
1333,333,47.5607,49.7637,126.268,112.997,118.554,0.000365502,0.0473027,21.0143,491.846,-0.4269,0.0,0.0
1364,340.75,47.785,49.8112,132.229,112.973,118.691,0.000393597,0.0474813,21.012,491.856,-0.439076,0.0,0.0
1395,348.5,47.8693,49.4773,133.067,112.917,118.548,0.000431975,0.0475749,21.0118,491.826,-0.432797,0.0,0.0
1426,356.25,47.3555,49.5647,131.681,112.934,119.946,0.000598572,0.0476139,21.0123,491.856,-0.535665,0.0,0.0
1457,364,47.2167,49.2661,133.036,112.942,118.914,0.000532736,0.0476473,21.0123,491.816,-0.458203,0.0,0.0
1488,371.75,47.6095,49.4358,131.244,112.977,118.697,0.000367593,0.0476454,21.0094,491.836,-0.439247,0.0,0.0
1519,379.5,47.4975,49.5657,131.334,113.016,119.195,0.000314744,0.0476009,21.0111,491.846,-0.473415,0.0,0.0
1550,387.25,47.8153,48.9608,131.4,113.05,119.236,0.000266183,0.0475384,21.0116,491.826,-0.473737,0.0,0.0
1581,395,47.9979,49.6384,127.806,113.093,119.445,0.000311794,0.0475463,21.0097,491.826,-0.486022,0.0,0.0
1612,402.75,47.7784,49.6372,131.639,113.128,119.728,0.000233252,0.0472686,21.0114,491.836,-0.504288,0.0,0.0
1643,410.5,47.5509,49.7849,128.487,113.172,119.013,0.000619159,0.0474262,21.0115,491.816,-0.447492,0.0,0.0
1674,418.25,48.0573,49.2871,133.772,113.196,119.578,0.00049781,0.0474764,21.0125,491.796,-0.487801,0.0,0.0
1705,426,47.6146,50.2414,131.164,113.227,118.844,0.000524145,0.0477339,21.0124,491.816,-0.430566,0.0,0.0
1736,433.75,47.7492,49.8243,127.788,113.24,120.391,0.000312076,0.0477437,21.0128,491.796,-0.544576,0.0,0.0
1767,441.5,47.5143,49.4728,129.948,113.267,119.227,0.000464926,0.0478804,21.0106,491.816,-0.456021,0.0,0.0
1798,449.25,47.4703,49.6097,132.973,113.334,118.953,0.000395482,0.0478212,21.0106,491.846,-0.430336,0.0,0.0
1829,457,47.7872,49.7705,130.054,113.388,119.166,0.00028364,0.0478902,21.0104,491.846,-0.442044,0.0,0.0
1860,464.75,47.7149,49.9191,132.994,113.45,119.817,0.000277538,0.0476503,21.0093,491.816,-0.485586,0.0,0.0
1891,472.5,48.3758,49.7967,130.922,113.507,119.414,0.000475031,0.0475431,21.0106,491.826,-0.451219,0.0,0.0
1922,480.25,47.8527,49.5838,129.279,113.542,119.404,0.000374779,0.0475146,21.0108,491.816,-0.447655,0.0,0.0
1953,488,47.8959,49.8494,131.963,113.605,119.679,0.000570008,0.0475277,21.012,491.836,-0.463244,0.0,0.0
1984,495.75,47.7624,49.5902,135.743,113.661,120.578,0.000492451,0.0476802,21.0105,491.776,-0.525358,0.0,0.0
2015,503.5,47.9033,49.7411,132.18,113.722,119.617,0.000398964,0.0476087,21.0109,491.836,-0.449374,0.0,0.0
2046,511.25,47.3235,49.2377,132.036,113.785,119.998,0.000440608,0.0477788,21.0115,491.816,-0.472737,0.0,0.0
2077,519,47.4126,49.349,131.273,113.813,119.75,0.000511267,0.0478108,21.0109,491.816,-0.452251,0.0,0.0
2108,526.75,47.4326,49.9871,130.858,113.836,120.327,0.000247991,0.0478435,21.0114,491.816,-0.49314,0.0,0.0
2139,534.5,48.1414,49.4957,134.436,113.853,119.993,0.000437755,0.0477854,21.0118,491.826,-0.467118,0.0,0.0
2170,542.25,47.6002,49.6075,128.96,113.872,121.802,0.000282344,0.047867,21.011,491.816,-0.598674,0.0,0.0
2201,550,48.3951,49.9954,130.419,113.879,121.276,0.000375056,0.0476737,21.0118,491.806,-0.559658,0.0,0.0
2232,557.75,48.5455,49.7689,135.289,113.889,119.492,0.000346555,0.047576,21.0124,491.826,-0.427073,0.0,0.0
2263,565.5,48.202,50.124,128.371,113.913,120.883,0.000537665,0.0476815,21.0124,491.826,-0.528113,0.0,0.0
2294,573.25,48.3555,49.8311,127.907,113.919,120.492,0.000749279,0.0480862,21.0133,491.856,-0.498893,0.0,0.0
2325,581,47.5755,50.1164,133.383,113.901,119.992,0.000800142,0.0485016,21.015,491.836,-0.463253,0.0,0.0
2356,588.75,47.9858,50.0088,132.144,113.915,119.807,0.000422882,0.0487939,21.0138,491.846,-0.448471,0.0,0.0
2387,596.5,47.6207,49.6592,128.937,113.907,119.951,0.000257356,0.048833,21.0113,491.836,-0.459779,0.0,0.0
2418,604.25,46.2825,47.7794,131.221,113.912,119.834,9.27631e-05,0.0486873,21.0085,491.846,-0.450718,0.0,0.0
2449,612,46.1076,47.9766,129.79,113.911,119.653,0.000336011,0.0490183,21.0078,491.836,-0.437355,0.0,0.0
2480,619.75,46.4749,48.1657,130.504,113.92,120.018,0.000310982,0.049442,21.0077,491.846,-0.463724,0.0,0.0
2511,627.5,45.9807,48.1792,135.012,113.917,120.321,0.000192342,0.0497509,21.0086,491.876,-0.486388,0.0,0.0
2542,635.25,46.0062,47.7214,130.537,113.92,120.064,0.00033768,0.0494288,21.0079,491.866,-0.467148,0.0,0.0
2573,643,46.5626,47.6589,131.534,113.921,120.121,0.000328859,0.0490877,21.0095,491.856,-0.471257,0.0,0.0
2604,650.75,46.1479,47.995,129.648,113.915,120.759,0.000368144,0.049186,21.0118,491.876,-0.518882,0.0,0.0
2635,658.5,46.0909,47.8401,128.043,113.901,120.499,0.000356382,0.0492624,21.0108,491.846,-0.500797,0.0,0.0
2666,666.25,46.1396,48.3008,129.245,113.875,120.878,0.000279198,0.0489179,21.0093,491.876,-0.530714,0.0,0.0
2697,674,46.2914,48.162,132.93,113.872,120.753,5.29251e-05,0.0487097,21.0085,491.836,-0.521833,0.0,0.0
2728,681.75,45.912,47.6511,129.69,113.863,120.748,0.000310257,0.0485445,21.0106,491.866,-0.522132,0.0,0.0
2759,689.5,46.1299,48.1622,130.454,113.843,120.026,0.000174263,0.0481338,21.0131,491.896,-0.470309,0.0,0.0
2790,697.25,45.8222,48.1679,129.698,113.832,120.382,0.000209276,0.0480483,21.0118,491.866,-0.497515,0.0,0.0
2821,705,46.4233,48.1929,130.986,113.825,120.1,0.000699584,0.0480355,21.0114,491.806,-0.477186,0.0,0.0
2852,712.75,46.2799,48.3314,131.156,113.822,119.892,,0.0478228,,491.826,-0.462066,0.0,0.0
2883,720.5,46.752,47.6643,134.316,113.829,120.556,,,,491.836,-0.510628,0.0,0.0
2885,721,46.2026,47.8317,130.11,113.808,120.273,,,,491.826,-0.491352,0.0,0.0