File: 01_Data/R30_Fiberglass_Insulation/Cone/R30_Fiberglass_Insulation_Cone_HF50Scalar_220503_R2.csv
LABORATORY,FSRI
TEST IDENT,R30Insulation_HF50_2
OPERATOR,Dow
MATERIAL,R30 Fiberglass Insulation
ORIENTATION,Horizontal
HEAT FLUX,50
SURF AREA,0.01
C FACTOR,0.0417509
SPEC HOLDER DIFF,-566
SPECIMEN MASS,4.28
SCAN TIME,0.25
O2 DELAY TIME,11
CO DELAY TIME,11
CO2 DELAY TIME,8
FLOW FACTOR,1
SCAN COUNT,2887
TIME TO IGN,0
END OF TEST SCAN,2407
END OF TEST TIME,601.75
TEST STATUS,1
PRE TEST CMT,Dimensions: 109 x 99 x 50 mm
POST TEST CMT,No ignition. Test ended after 10 minutes. No mass loss after 10 minutes in replicate R1.