File: 01_Data/R30_Fiberglass_Insulation/Cone/R30_Fiberglass_Insulation_Cone_HF25Scan_220502_R2.csv
Names,Time,Stack TC,Smoke TC,Exh Press,Smoke Comp,Smoke Meas,CO Meter,CO2 Meter,O2 Meter,Sample Mass,Ext Coeff,Start Test,Flame Verif
Chan Gain,,500,500,1,1,1,1,1,1,1,1,1.0,1.0
Offset,,0,0,0.134537,0,0,0,0,0,0,0,0.0,0.0
Gain,,1,1,25.011,14.8585,16.6522,1,1,1,1.00087,1.0138,1.0,1.0
Units,sec,C,C,Pa,%,%,%,%,%,g,/m,,
Baseline,,21.9505,22.5205,140.097,112.015,113.977,0.000311038,0.0507932,21.0078,-834.187,-0.154393,,
31,7.5,19.8145,20.3581,139.708,112.004,113.551,0.000582116,0.0561264,21.0002,-331.667,-0.121958,0.0,0.0
62,15.25,20.5488,20.6444,137.92,112.008,114.468,0.000924068,0.0519682,21.0075,-331.728,-0.193185,0.0,0.0
93,23,20.4884,21.1319,138.097,112.014,113.971,0.000777194,0.0510879,21.01,-331.778,-0.15398,0.0,0.0
124,30.75,20.7763,21.2436,139.707,112.02,114.133,0.000586681,0.0509911,21.0098,-331.828,-0.166189,0.0,0.0
155,38.5,20.8689,21.1284,142.78,112.022,114.103,0.000817578,0.0511875,21.0108,-331.838,-0.163712,0.0,0.0
186,46.25,20.8338,21.1601,139.323,112.047,114.302,0.0010547,0.0512356,21.0131,-331.868,-0.177169,0.0,0.0
217,54,21.1749,21.2053,139.809,112.041,114.186,0.00072263,0.0515036,21.0116,-331.888,-0.16865,0.0,0.0
248,61.75,21.4622,21.4288,138.447,112.025,114.11,0.00087464,0.0513644,21.0099,-331.908,-0.16405,0.0,0.0
279,69.5,21.6873,21.5053,142.44,112.02,113.646,0.000908565,0.0513426,21.0101,-331.918,-0.128177,0.0,0.0
310,77.25,21.2499,22.0992,141.115,112.006,114.365,0.000703785,0.0509933,21.0103,-331.938,-0.185381,0.0,0.0
341,85,21.7706,22.6104,140.367,112.002,114.046,0.000841199,0.0508411,21.0098,-331.928,-0.160819,0.0,0.0
372,92.75,21.5547,22.3007,137.595,111.987,114.274,0.000867243,0.0507669,21.0099,-331.948,-0.179782,0.0,0.0
403,100.5,21.6051,22.104,139.325,111.998,114.023,0.00054344,0.0504796,21.0119,-331.948,-0.159284,0.0,0.0
434,108.25,22.1391,22.3998,137.671,112.003,113.956,0.00044816,0.0503812,21.0126,-331.948,-0.153734,0.0,0.0
465,116,22.3594,22.4928,137.913,112.004,114.209,0.000168018,0.0503289,21.0105,-331.938,-0.173347,0.0,0.0
496,123.75,21.7449,22.559,138.139,112.022,114.652,0.000436906,0.0502417,21.0141,-331.958,-0.206345,0.0,0.0
527,131.5,21.9846,22.4106,141.799,112.038,114.238,0.000564696,0.0501951,21.0113,-331.958,-0.172981,0.0,0.0
558,139.25,21.8909,22.7564,141.966,112.046,113.865,0.000589225,0.0500378,21.011,-331.968,-0.143213,0.0,0.0
589,147,21.9774,22.7172,139.834,112.05,114.012,0.000238311,0.0499593,21.0102,-331.968,-0.154424,0.0,0.0
620,154.75,22.1458,22.7657,141.193,112.087,113.972,0.000372515,0.0499697,21.0144,-331.958,-0.148305,0.0,0.0
651,162.5,21.9793,23.1827,137.907,112.104,114.127,0.000371597,0.0498581,21.0148,-331.978,-0.15906,0.0,0.0
682,170.25,21.9824,22.8237,138.677,112.137,114.879,0.000300985,0.0498717,21.014,-331.978,-0.214848,0.0,0.0
713,178,22.3638,23.1457,137.745,112.18,114.287,-0.000104498,0.0497355,21.0111,-331.988,-0.165483,0.0,0.0
744,185.75,22.388,22.6381,144.441,112.215,114.93,0.000207984,0.0497687,21.0127,-331.968,-0.212598,0.0,0.0
775,193.5,22.2214,22.717,139.626,112.223,114.833,0.000348362,0.0496857,21.0132,-331.998,-0.204398,0.0,0.0
806,201.25,21.7753,22.5789,136.568,112.209,114.46,0.000385121,0.0497284,21.0117,-332.008,-0.176578,0.0,0.0
837,209,22.1852,23.2521,139.332,112.197,114.293,-9.59506e-05,0.0497249,21.0116,-331.988,-0.164625,0.0,0.0
868,216.75,22.3567,23.1371,137.836,112.205,114.247,0.00020591,0.0495102,21.0098,-331.998,-0.160382,0.0,0.0
899,224.5,22.2454,23.0759,141.148,112.185,114.24,0.000145934,0.0497229,21.01,-331.998,-0.16137,0.0,0.0
930,232.25,22.2667,22.9745,140.134,112.134,114.409,0.000157445,0.0496696,21.01,-331.998,-0.1786,0.0,0.0
961,240,22.4557,23.0951,140.615,112.064,114.317,0.000534131,0.0496037,21.0093,-331.998,-0.177023,0.0,0.0
992,247.75,22.1297,23.4102,136.485,111.99,114.895,0.000488153,0.0496941,21.0124,-332.008,-0.227762,0.0,0.0
1023,255.5,22.3103,23.2105,140.11,111.916,113.837,0.000430208,0.0495546,21.0117,-332.008,-0.151285,0.0,0.0
1054,263.25,21.8368,23.1813,140.078,111.848,113.816,0.000377398,0.0495345,21.0115,-331.988,-0.155104,0.0,0.0
1085,271,22.3836,23.0868,139.375,111.782,113.718,3.78737e-05,0.0495585,21.0126,-331.998,-0.152738,0.0,0.0
1116,278.75,22.1516,23.1428,136.416,111.714,113.672,6.13589e-05,0.0496093,21.0138,-332.008,-0.154573,0.0,0.0
1147,286.5,22.2925,22.7715,138.781,111.629,114.001,0.000103106,0.0495945,21.0118,-332.008,-0.186972,0.0,0.0
1178,294.25,22.527,23.2014,136.699,111.56,113.572,-8.19408e-05,0.0495712,21.0097,-331.998,-0.158943,0.0,0.0
1209,302,22.2264,23.5553,136.659,111.486,113.364,6.78028e-05,0.0495871,21.0095,-332.018,-0.148586,0.0,0.0
1240,309.75,22.3906,23.1801,138.139,111.431,113.614,0.000182305,0.0495637,21.01,-332.028,-0.172593,0.0,0.0
1271,317.5,22.3462,23.2145,139.658,111.379,113.567,0.000225895,0.0495339,21.012,-332.028,-0.172983,0.0,0.0
1302,325.25,22.7126,23.0975,136.042,111.352,113.043,0.000431769,0.0495655,21.0121,-332.038,-0.134029,0.0,0.0
1333,333,22.5732,23.3809,139.833,111.327,113.287,0.000159153,0.0494586,21.0128,-332.038,-0.155194,0.0,0.0
1364,340.75,22.4255,23.2332,139.933,111.314,113.796,0.000466354,0.0494591,21.0124,-332.018,-0.196127,0.0,0.0
1395,348.5,22.2957,23.4262,137.407,111.306,113.423,-5.87086e-05,0.049359,21.0115,-332.018,-0.167545,0.0,0.0
1426,356.25,22.5101,23.1724,138.917,111.34,113.076,0.00040186,0.049384,21.0111,-332.028,-0.137569,0.0,0.0
1457,364,22.1459,23.3311,143.252,111.381,113.301,0.000102918,0.0494376,21.0104,-332.028,-0.151961,0.0,0.0
1488,371.75,22.4115,22.9828,137.387,111.402,113.811,0.00010746,0.0495893,21.0084,-332.028,-0.19029,0.0,0.0
1519,379.5,22.2128,23.4599,137.491,111.42,113.707,0.000287971,0.0496246,21.0107,-332.038,-0.180698,0.0,0.0
1550,387.25,22.4715,23.0853,142.808,111.461,113.374,7.03538e-05,0.0496291,21.011,-332.058,-0.151293,0.0,0.0
1581,395,22.6985,23.2864,138.794,111.501,113.33,-7.33244e-05,0.0495929,21.011,-332.048,-0.144682,0.0,0.0
1612,402.75,22.5357,23.3206,137.889,111.526,113.919,-0.000185122,0.0497272,21.0109,-332.028,-0.188795,0.0,0.0
1643,410.5,22.7014,23.1651,139.328,111.375,113.583,-0.000130512,0.0493223,21.0096,-332.048,-0.174618,0.0,0.0
1674,418.25,22.3079,22.6429,141.193,111.396,113.735,0.000132935,0.0494276,21.0109,-332.018,-0.184805,0.0,0.0
1705,426,22.3243,23.7091,135.731,111.392,114.062,0.00036932,0.049453,21.0117,-332.038,-0.21068,0.0,0.0
1736,433.75,22.7254,23.1285,137.997,111.394,113.437,3.39194e-05,0.0495635,21.0115,-332.048,-0.161592,0.0,0.0
1767,441.5,21.9452,23.7303,140.119,111.392,114.022,0.000245067,0.0496686,21.0101,-332.048,-0.207513,0.0,0.0
1798,449.25,22.8208,23.2026,138.924,111.389,113.44,0.000164289,0.0495621,21.009,-332.048,-0.162229,0.0,0.0
1829,457,22.5159,23.4311,140.951,111.405,113.539,0.000207286,0.0495703,21.0095,-332.058,-0.168727,0.0,0.0
1860,464.75,22.5501,23.285,140.056,111.422,113.323,-4.82985e-05,0.0494909,21.0097,-332.038,-0.150454,0.0,0.0
1891,472.5,22.5076,23.2789,137.257,111.458,113.154,-0.000188035,0.0494679,21.0109,-332.048,-0.13431,0.0,0.0
1922,480.25,22.9512,23.3633,135.573,111.496,113.733,-0.000142761,0.0494807,21.0113,-332.028,-0.176686,0.0,0.0
1953,488,22.6453,23.1044,137.304,111.54,113.604,0.000148753,0.0494517,21.0118,-332.048,-0.163044,0.0,0.0
1984,495.75,22.3387,23.1646,138.934,111.61,113.64,0.000123252,0.0495574,21.0096,-332.058,-0.160298,0.0,0.0
2015,503.5,22.486,23.1922,136.246,111.69,114.129,-6.01986e-05,0.0492294,21.0087,-332.048,-0.192157,0.0,0.0
2046,511.25,23.3028,23.1846,140.496,111.755,114.172,0.000193754,0.0492937,21.0085,-332.068,-0.190288,0.0,0.0
2077,519,22.2863,23.4047,138.54,111.835,113.91,9.69158e-05,0.0494421,21.0096,-332.078,-0.163488,0.0,0.0
2108,526.75,22.627,23.4724,139.085,111.914,113.729,-0.000128391,0.0493535,21.01,-332.068,-0.143085,0.0,0.0
2139,534.5,22.8117,23.4919,141.879,112.016,113.974,0.000440177,0.0496438,21.01,-332.068,-0.154113,0.0,0.0
2170,542.25,22.9815,23.595,138.924,112.118,114.403,0.000502612,0.0494924,21.0078,-332.048,-0.179421,0.0,0.0
2201,550,22.642,23.2072,140.333,112.223,114.579,5.90176e-05,0.0495852,21.0086,-332.058,-0.184813,0.0,0.0
2232,557.75,22.3838,23.2612,140.231,112.327,114.258,0.000166387,0.0492998,21.0094,-332.058,-0.151626,0.0,0.0
2263,565.5,22.7015,23.1561,139.024,112.414,114.537,0.00033763,0.049243,21.0099,-332.058,-0.166349,0.0,0.0
2294,573.25,22.2007,23.0707,138.084,112.461,114.715,-2.12422e-05,0.0493278,21.01,-332.058,-0.176494,0.0,0.0
2325,581,22.1007,23.7569,140.183,112.528,114.024,-0.00012165,0.0492377,21.0092,-332.058,-0.117409,0.0,0.0
2356,588.75,22.3191,23.2512,136.541,112.602,114.823,-0.000136502,0.0493196,21.0094,-332.068,-0.173733,0.0,0.0
2387,596.5,22.1856,23.3616,141.019,112.653,115.103,-9.03155e-05,0.0492826,21.0095,-332.068,-0.191347,0.0,0.0
2418,604.25,21.6465,22.1422,136.656,112.696,114.957,-0.000179824,0.0494285,21.0089,-332.068,-0.176632,0.0,0.0
2449,612,22.1271,22.1225,137.932,112.731,114.79,0.000175983,0.0494124,21.008,-332.058,-0.160974,0.0,0.0
2480,619.75,21.8463,22.0221,137.256,112.733,114.721,0.000292565,0.0495809,21.0064,-332.078,-0.155442,0.0,0.0
2511,627.5,21.7917,22.9143,138.484,112.75,114.841,0.000133421,0.0494164,21.0071,-332.068,-0.163411,0.0,0.0
2542,635.25,21.3151,22.3866,137.793,112.752,115.027,0.00037925,0.0493656,21.0087,-332.068,-0.177696,0.0,0.0
2573,643,21.8692,22.3298,139.716,112.741,114.992,-5.08518e-05,0.0493741,21.009,-332.058,-0.175842,0.0,0.0
2604,650.75,21.2182,22.6215,138.333,112.685,115.003,0.000166837,0.0493526,21.0095,-332.058,-0.181032,0.0,0.0
2635,658.5,21.7816,22.2635,138.193,112.613,114.781,0.000405304,0.0493588,21.0073,-332.058,-0.16961,0.0,0.0
2666,666.25,21.82,22.1186,139.579,112.538,114.741,0.000107419,0.049199,21.007,-332.048,-0.17237,0.0,0.0
2697,674,21.397,22.4125,139.43,112.445,114.658,-0.000146264,0.0491609,21.0063,-332.078,-0.173332,0.0,0.0
2728,681.75,21.5655,22.2384,138.358,112.407,114.025,0.000432419,0.049208,21.0069,-332.058,-0.127025,0.0,0.0
2759,689.5,21.6881,22.5729,137.733,112.38,114.87,-4.22978e-05,0.0492558,21.007,-332.058,-0.194847,0.0,0.0
2790,697.25,21.5238,22.28,140.605,112.324,114.251,-3.2185e-05,0.0490435,21.007,-332.058,-0.151252,0.0,0.0
2821,705,21.6288,22.438,138.078,112.244,114.186,-6.40919e-06,0.0491077,21.0089,-332.048,-0.152544,0.0,0.0
2852,712.75,21.725,22.5902,141.712,112.192,114.314,,0.0491201,,-332.068,-0.16668,0.0,0.0
2883,720.5,21.5083,22.2494,140.026,112.158,114.163,,,,-332.068,-0.157552,0.0,0.0
2885,721,21.9814,22.4132,137.841,112.183,114.233,,,,-332.078,-0.161,0.0,0.0