File: 01_Data/LW_GypBoard_Unpainted_Paper/STA/N2/30K_min/Lw_Gypsum_Paper_STA_N2_30KData_220303_R2.csv
##Temp./Â°C,Time/min,DSC(subtr.2)/(mW/mg),Mass loss(subtr.2)/mg,Sensit./(uV/mW)
48.763,10.01,0.01327913,-0.00054,1.08892
51.763,10.85845,0.15727,-0.000319406,1.08639
54.763,11.08425,0.26127,-8.734713e-05,1.08388
57.763,11.2574,0.3433,-0.00172017,1.08139
60.763,11.40618,0.41056,1.075435e-05,1.07891
63.763,11.54145,0.47143,-0.00253414,1.07644
66.763,11.66741,0.52414,-0.00149019,1.07399
69.763,11.78754,0.57362,-0.003564486,1.07156
72.763,11.90342,0.61821,-0.003777718,1.06914
75.763,12.01629,0.66016,-0.00402048,1.06674
78.763,12.1264,0.70113,-0.001812333,1.06435
81.763,12.2348,0.73733,-0.003312771,1.06198
84.763,12.3413,0.77648,-0.00569575,1.05962
87.763,12.44645,0.81871,-0.007104905,1.05728
90.763,12.55076,0.8581,-0.008609664,1.05495
93.763,12.6538,0.90265,-0.01022224,1.05264
96.763,12.75666,0.95039,-0.01155455,1.05035
99.763,12.85858,0.9947,-0.01337089,1.04807
102.763,12.96015,1.03302,-0.0154676,1.0458
105.763,13.06156,1.06133,-0.01814251,1.04355
108.763,13.1619,1.07993,-0.02201949,1.04132
111.763,13.263,1.08675,-0.02335783,1.0391
114.763,13.3635,1.08991,-0.02586797,1.03689
117.763,13.46379,1.08339,-0.02868866,1.0347
120.763,13.56365,1.07921,-0.02997544,1.03253
123.763,13.66296,1.067,-0.03286098,1.03037
126.763,13.76172,1.06143,-0.03388754,1.02822
129.763,13.86005,1.05562,-0.03652999,1.02609
132.763,13.9579,1.05284,-0.03881258,1.02397
135.763,14.05546,1.05054,-0.04047015,1.02187
138.763,14.1524,1.03783,-0.04047006,1.01978
141.763,14.2488,1.02327,-0.04178959,1.0177
144.763,14.34491,1.00903,-0.0417416,1.01564
147.763,14.4405,0.99444,-0.04408354,1.01359
150.763,14.5362,0.984,-0.0454,1.01156
153.763,14.6313,0.97584,-0.04531027,1.00954
156.763,14.72587,0.97398,-0.04443351,1.00754
159.763,14.82045,0.96911,-0.04573196,1.00554
162.763,14.9148,0.97055,-0.04704999,1.00356
165.763,15.0092,0.97242,-0.04643855,1.0016
168.763,15.10312,0.97701,-0.0464,0.99964
171.763,15.19696,0.98059,-0.0464,0.9977
174.763,15.2904,0.9892,-0.04640013,0.99578
177.763,15.3836,0.99473,-0.04846081,0.99386
180.763,15.4764,1.00013,-0.0479888,0.99196
183.763,15.5692,1.00895,-0.04804007,0.99007
186.763,15.66156,1.0159,-0.04900233,0.98819
189.763,15.7538,1.02156,-0.04902,0.98633
192.763,15.846,1.03075,-0.04902,0.98447
195.763,15.93784,1.04177,-0.04896039,0.98263
198.763,16.02972,1.04923,-0.04903035,0.9808
201.763,16.1214,1.05798,-0.04949587,0.97899
204.763,16.21296,1.069,-0.05165999,0.97718
207.763,16.30441,1.07575,-0.0530762,0.97538
210.763,16.39582,1.08709,-0.05408037,0.9736
213.763,16.48704,1.09581,-0.05429034,0.97182
216.763,16.57825,1.10573,-0.05395711,0.97006
219.763,16.6692,1.11493,-0.05424945,0.96831
222.763,16.76025,1.11992,-0.05560103,0.96657
225.763,16.8509,1.13267,-0.05823731,0.96484
228.763,16.94214,1.13634,-0.05708132,0.96311
231.763,17.0329,1.14368,-0.05824109,0.9614
234.763,17.12355,1.15295,-0.06233975,0.9597
237.763,17.2141,1.15808,-0.06350515,0.95801
240.763,17.30467,1.16448,-0.0656433,0.95632
243.763,17.39535,1.17093,-0.07016892,0.95465
246.763,17.48583,1.17514,-0.07146742,0.95298
249.763,17.57614,1.17862,-0.0759403,0.95133
252.763,17.66667,1.18232,-0.07947118,0.94968
255.763,17.75675,1.17931,-0.08332884,0.94804
258.763,17.84734,1.18379,-0.08956899,0.94641
261.763,17.9377,1.18131,-0.09416565,0.94479
264.763,18.02794,1.18093,-0.10085,0.94317
267.763,18.11819,1.18184,-0.10868,0.94156
270.763,18.20828,1.18593,-0.1157,0.93996
273.763,18.29866,1.18713,-0.1259,0.93837
276.763,18.38867,1.19302,-0.13489,0.93678
279.763,18.4792,1.20246,-0.14488,0.9352
282.763,18.56956,1.21151,-0.15784,0.93363
285.763,18.66,1.22599,-0.17352,0.93206
288.763,18.75036,1.24813,-0.19138,0.9305
291.763,18.84082,1.27242,-0.21474,0.92895
294.763,18.93126,1.30146,-0.23435,0.9274
297.763,19.02177,1.33724,-0.25984,0.92586
300.763,19.1124,1.37477,-0.28641,0.92432
303.763,19.2031,1.41627,-0.31831,0.92279
306.763,19.294,1.45967,-0.35237,0.92127
309.763,19.3846,1.50518,-0.39225,0.91974
312.763,19.47561,1.55396,-0.43612,0.91823
315.763,19.5666,1.59899,-0.48635,0.91671
318.763,19.6575,1.64535,-0.53899,0.9152
321.763,19.74894,1.68932,-0.59311,0.9137
324.763,19.83999,1.73282,-0.65054,0.9122
327.763,19.93145,1.7747,-0.71306,0.9107
330.763,20.02311,1.81198,-0.78131,0.90921
333.763,20.11455,1.85487,-0.85123,0.90772
336.763,20.20618,1.89427,-0.92242,0.90623
339.763,20.29815,1.93406,-1.00187,0.90474
342.763,20.38999,1.97618,-1.08446,0.90326
345.763,20.482,2.01993,-1.1657,0.90178
348.763,20.57405,2.06977,-1.25598,0.9003
351.763,20.6661,2.12381,-1.34912,0.89882
354.763,20.7584,2.1835,-1.44501,0.89735
357.763,20.85071,2.24705,-1.5495,0.89588
360.763,20.9432,2.30721,-1.66076,0.8944
363.763,21.0356,2.35518,-1.77038,0.89293
366.763,21.12803,2.37916,-1.88662,0.89146
369.763,21.22045,2.36006,-2.00497,0.88999
372.763,21.31325,2.28496,-2.11748,0.88852
375.763,21.4058,2.14107,-2.22581,0.88705
378.763,21.49844,1.93588,-2.32778,0.88558
381.763,21.59105,1.6862,-2.41139,0.88411
384.763,21.68362,1.40595,-2.48223,0.88265
387.763,21.77615,1.12367,-2.53861,0.88117
390.763,21.8685,0.86291,-2.57675,0.8797
393.763,21.9607,0.64953,-2.60216,0.87823
396.763,22.05326,0.50042,-2.62154,0.87676
399.763,22.14571,0.40798,-2.63367,0.87528
402.763,22.2387,0.34612,-2.64167,0.87381
405.763,22.33138,0.30709,-2.65169,0.87233
408.763,22.42458,0.27897,-2.65975,0.87085
411.763,22.51782,0.25693,-2.66765,0.86936
414.763,22.61117,0.24041,-2.67602,0.86788
417.763,22.70456,0.22237,-2.68203,0.86639
420.763,22.7982,0.20818,-2.68934,0.8649
423.763,22.8916,0.19463,-2.69577,0.86341
426.763,22.98555,0.18397,-2.70591,0.86191
429.763,23.07923,0.17026,-2.71401,0.86041
432.763,23.1733,0.16606,-2.72087,0.85891
435.763,23.26727,0.15445,-2.72861,0.8574
438.763,23.36169,0.15118,-2.73439,0.85589
441.763,23.45628,0.14662,-2.74099,0.85437
444.763,23.55109,0.14464,-2.75029,0.85285
447.763,23.6458,0.146,-2.7564,0.85133
450.763,23.74106,0.14525,-2.76325,0.8498
453.763,23.83652,0.15214,-2.76972,0.84827
456.763,23.93198,0.15421,-2.77643,0.84673
459.763,24.02753,0.16163,-2.78531,0.84518
462.763,24.12313,0.1684,-2.79161,0.84363
465.763,24.219,0.17328,-2.79676,0.84208
468.763,24.31476,0.18368,-2.79962,0.84052
471.763,24.41065,0.18492,-2.80695,0.83895
474.763,24.5066,0.19058,-2.81444,0.83738
477.763,24.60264,0.19354,-2.81859,0.8358
480.763,24.69882,0.19687,-2.82269,0.83421
483.763,24.79469,0.20039,-2.82705,0.83262
486.763,24.89086,0.20188,-2.83118,0.83102
489.763,24.9867,0.20522,-2.83567,0.82942
492.763,25.08278,0.20709,-2.84009,0.82781
495.763,25.17875,0.20948,-2.84135,0.82619
498.763,25.27484,0.20763,-2.84499,0.82456
501.763,25.3709,0.21166,-2.84896,0.82292
504.763,25.46651,0.2105,-2.85273,0.82128
507.763,25.56307,0.21134,-2.85577,0.81963
510.763,25.65931,0.21365,-2.85974,0.81797
513.763,25.75546,0.21181,-2.86438,0.81631
516.763,25.85193,0.21673,-2.86872,0.81463
519.763,25.9482,0.21515,-2.87237,0.81295
522.763,26.04451,0.21505,-2.87557,0.81126
525.763,26.14108,0.21465,-2.87693,0.80956
528.763,26.2376,0.21236,-2.87863,0.80785
531.763,26.33428,0.21375,-2.88328,0.80614
534.763,26.4309,0.2105,-2.88614,0.80441
537.763,26.5275,0.21068,-2.88947,0.80268
540.763,26.62414,0.20761,-2.892,0.80093
543.763,26.7211,0.21011,-2.89209,0.79918
546.763,26.81805,0.21307,-2.89579,0.79742
549.763,26.9151,0.21808,-2.89819,0.79565
552.763,27.0122,0.22631,-2.89889,0.79386
555.763,27.1093,0.2346,-2.89889,0.79207
558.763,27.20703,0.23415,-2.9022,0.79027
561.763,27.3046,0.23613,-2.90768,0.78846
564.763,27.40209,0.23945,-2.91008,0.78664
567.763,27.49977,0.23873,-2.91271,0.78481
570.763,27.5975,0.23487,-2.91403,0.78296
573.763,27.69544,0.22619,-2.91668,0.78111
576.763,27.79324,0.21759,-2.91888,0.77925
579.763,27.8913,0.21026,-2.92111,0.77738
582.763,27.98915,0.20478,-2.92238,0.77549
585.763,28.08715,0.19839,-2.92432,0.7736
588.763,28.1851,0.19618,-2.92561,0.7717
591.763,28.28312,0.19064,-2.92829,0.76978
594.763,28.38125,0.18876,-2.93095,0.76785
597.763,28.4793,0.18759,-2.93224,0.76592
600.763,28.57755,0.18368,-2.93357,0.76397
603.763,28.6757,0.18655,-2.93422,0.76201
606.763,28.77416,0.18308,-2.9363,0.76004
609.763,28.87241,0.18208,-2.93893,0.75806
612.763,28.97087,0.18155,-2.94024,0.75606
615.763,29.0693,0.18302,-2.94194,0.75406
618.763,29.16757,0.18083,-2.94312,0.75204
621.763,29.2661,0.18468,-2.94719,0.75002
624.763,29.36458,0.19109,-2.95108,0.74798
627.763,29.4635,0.19644,-2.95126,0.74593
630.763,29.56203,0.20021,-2.95437,0.74387
633.763,29.66099,0.20252,-2.95649,0.7418
636.763,29.76,0.20886,-2.95812,0.73971
639.763,29.8591,0.21417,-2.9597,0.73762
642.763,29.9582,0.21765,-2.96175,0.73551
645.763,30.0574,0.22584,-2.96303,0.73339
648.763,30.15645,0.23252,-2.96703,0.73126
651.763,30.2558,0.23794,-2.96931,0.72912
654.763,30.35502,0.23924,-2.97168,0.72696
657.763,30.4541,0.24612,-2.97405,0.7248
660.763,30.5535,0.24878,-2.97739,0.72262
663.763,30.65294,0.25856,-2.97874,0.72043
666.763,30.7522,0.26861,-2.98134,0.71823
669.763,30.85146,0.28035,-2.984,0.71602
672.763,30.9507,0.30135,-2.98768,0.71379
675.763,31.05022,0.31985,-2.98743,0.71156
678.763,31.1494,0.34781,-2.99356,0.70931
681.763,31.2489,0.37188,-2.99502,0.70705
684.763,31.34827,0.40356,-2.9994,0.70478
687.763,31.44783,0.43825,-3.00393,0.7025
690.763,31.5474,0.47092,-3.00822,0.7002
693.763,31.647,0.50775,-3.01078,0.6979
696.763,31.74665,0.53571,-3.0167,0.69558
699.763,31.84638,0.56025,-3.01927,0.69325
702.763,31.946,0.57818,-3.02284,0.69091
705.763,32.0458,0.58698,-3.02828,0.68856
708.763,32.14565,0.59242,-3.03297,0.6862
711.763,32.24569,0.586,-3.03853,0.68382
714.763,32.346,0.57559,-3.04348,0.68144
717.763,32.44601,0.55567,-3.04634,0.67904
720.763,32.54633,0.50871,-3.05176,0.67663
723.763,32.6467,0.4514,-3.05668,0.67421
726.763,32.74708,0.38555,-3.06044,0.67178
729.763,32.8476,0.33898,-3.06396,0.66934
732.763,32.9482,0.30824,-3.06567,0.66688
735.763,33.04878,0.2896,-3.06992,0.66442
738.763,33.1495,0.27971,-3.07237,0.66194
741.763,33.24991,0.2666,-3.07274,0.65946
744.163,33.33193,0.25295,-3.07406,0.65746