File: 01_Data/LW_GypBoard_Unpainted_Paper/STA/N2/30K_min/Lw_Gypsum_Paper_STA_N2_30KData_220203_R1.csv
##Temp./Â°C,Time/min,DSC(subtr.2)/(mW/mg),Mass loss(subtr.2)/mg,Sensit./(uV/mW)
48.727,10.01,0.01695375,-0.01536,1.08895
51.727,10.85811,0.15119,-0.01727354,1.08642
54.727,11.0844,0.25121,-0.01618282,1.08391
57.727,11.25721,0.33083,-0.01700035,1.08142
60.727,11.40617,0.40129,-0.01787507,1.07893
63.727,11.54092,0.46083,-0.0164547,1.07647
66.727,11.6667,0.51241,-0.01657675,1.07402
69.727,11.7866,0.55939,-0.01642636,1.07159
72.727,11.90198,0.60196,-0.01683426,1.06917
75.727,12.01474,0.6461,-0.01702663,1.06677
78.727,12.12492,0.68392,-0.01830043,1.06438
81.727,12.23316,0.72143,-0.01941665,1.06201
84.727,12.33998,0.7591,-0.02227083,1.05965
87.727,12.44515,0.79844,-0.02236322,1.05731
90.727,12.54927,0.83789,-0.02360356,1.05498
93.727,12.6527,0.88109,-0.02492391,1.05267
96.727,12.75527,0.92702,-0.02710363,1.05038
99.727,12.85719,0.97419,-0.02884858,1.0481
102.727,12.95824,1.01432,-0.03141058,1.04583
105.727,13.05993,1.0457,-0.03412037,1.04358
108.727,13.1608,1.06617,-0.03675312,1.04134
111.727,13.2614,1.07331,-0.04068354,1.03912
114.727,13.362,1.07561,-0.04183225,1.03692
117.727,13.4622,1.06801,-0.04463906,1.03473
120.727,13.56204,1.06117,-0.04561812,1.03255
123.727,13.66128,1.0495,-0.04979609,1.03039
126.727,13.76007,1.03729,-0.05134002,1.02825
129.727,13.8586,1.02841,-0.0526519,1.02611
132.727,13.9566,1.02385,-0.05396873,1.024
135.727,14.0542,1.02028,-0.05538625,1.02189
138.727,14.1511,1.00792,-0.05529268,1.0198
141.727,14.24779,0.99182,-0.05652092,1.01773
144.727,14.3441,0.97297,-0.05759,1.01567
147.727,14.44006,0.95842,-0.0582547,1.01362
150.727,14.53563,0.9438,-0.0574225,1.01159
153.727,14.63105,0.93911,-0.05857012,1.00957
156.727,14.72623,0.93102,-0.05988971,1.00756
159.727,14.8207,0.93111,-0.05955384,1.00557
162.727,14.9154,0.93294,-0.06121333,1.00359
165.727,15.00964,0.93822,-0.06151054,1.00162
168.727,15.1037,0.94444,-0.06253245,0.99967
171.727,15.1974,0.94942,-0.06251734,0.99773
174.727,15.2911,0.95607,-0.06117002,0.9958
177.727,15.38429,0.96573,-0.05985654,0.99389
180.727,15.47734,0.97161,-0.06121002,0.99198
183.727,15.5701,0.98122,-0.06253049,0.99009
186.727,15.66278,0.98757,-0.06252924,0.98822
189.727,15.75504,0.99382,-0.06186968,0.98635
192.727,15.84715,1.00231,-0.06386806,0.9845
195.727,15.93914,1.00908,-0.06385305,0.98266
198.727,16.03121,1.018,-0.06255996,0.98083
201.727,16.12298,1.02536,-0.06252676,0.97901
204.727,16.21465,1.03193,-0.06384816,0.9772
207.727,16.3062,1.03937,-0.06557702,0.9754
210.727,16.3979,1.04688,-0.06581152,0.97362
213.727,16.48926,1.05245,-0.06712965,0.97185
216.727,16.5806,1.06029,-0.06713283,0.97008
219.727,16.67175,1.0698,-0.06894466,0.96833
222.727,16.7631,1.07663,-0.07108802,0.96659
225.727,16.8541,1.08464,-0.07282765,0.96486
228.727,16.94509,1.09064,-0.07468712,0.96313
231.727,17.036,1.09849,-0.07464343,0.96142
234.727,17.12697,1.10162,-0.0760136,0.95972
237.727,17.21779,1.10903,-0.07601001,0.95803
240.727,17.30835,1.11524,-0.07997141,0.95634
243.727,17.39903,1.1204,-0.08314237,0.95467
246.727,17.48945,1.12443,-0.08508471,0.953
249.727,17.58021,1.12735,-0.08807592,0.95135
252.727,17.67076,1.12561,-0.09383953,0.9497
255.727,17.76105,1.12237,-0.09856443,0.94806
258.727,17.85136,1.12634,-0.10299,0.94643
261.727,17.9418,1.12789,-0.10705,0.9448
264.727,18.03204,1.13011,-0.11347,0.94319
267.727,18.12239,1.13073,-0.12028,0.94158
270.727,18.21259,1.13242,-0.12663,0.93998
273.727,18.303,1.13854,-0.13658,0.93839
276.727,18.39325,1.14632,-0.14663,0.9368
279.727,18.48359,1.15607,-0.15901,0.93522
282.727,18.57399,1.16723,-0.17225,0.93365
285.727,18.66452,1.18339,-0.18696,0.93208
288.727,18.75515,1.20551,-0.20614,0.93052
291.727,18.8455,1.23182,-0.22401,0.92897
294.727,18.93616,1.26191,-0.24578,0.92742
297.727,19.02691,1.29955,-0.27268,0.92588
300.727,19.11768,1.33926,-0.30093,0.92434
303.727,19.20844,1.3841,-0.33254,0.92281
306.727,19.29949,1.42994,-0.369,0.92128
309.727,19.39037,1.47521,-0.40653,0.91976
312.727,19.4812,1.52395,-0.45087,0.91824
315.727,19.57228,1.57161,-0.50125,0.91673
318.727,19.6635,1.62063,-0.55168,0.91522
321.727,19.75453,1.66799,-0.60402,0.91372
324.727,19.8457,1.71139,-0.66216,0.91222
327.727,19.93701,1.75631,-0.72605,0.91072
330.727,20.02826,1.79675,-0.79223,0.90922
333.727,20.11979,1.83944,-0.86,0.90773
336.727,20.2111,1.88081,-0.93533,0.90625
339.727,20.3026,1.92211,-1.01594,0.90476
342.727,20.3944,1.96952,-1.09548,0.90328
345.727,20.4859,2.01628,-1.18001,0.9018
348.727,20.57787,2.06795,-1.27099,0.90032
351.727,20.66976,2.12497,-1.36419,0.89884
354.727,20.76181,2.18518,-1.46169,0.89737
357.727,20.8538,2.25521,-1.56402,0.89589
360.727,20.94592,2.31975,-1.67576,0.89442
363.727,21.0382,2.36829,-1.78766,0.89295
366.727,21.1305,2.39927,-1.9058,0.89148
369.727,21.223,2.38364,-2.02603,0.89001
372.727,21.31549,2.30845,-2.1411,0.88854
375.727,21.40789,2.16724,-2.25214,0.88707
378.727,21.50044,1.95709,-2.35674,0.8856
381.727,21.59264,1.70077,-2.44334,0.88413
384.727,21.68519,1.4113,-2.51672,0.88266
387.727,21.7774,1.11505,-2.57557,0.88119
390.727,21.8699,0.83349,-2.61686,0.87972
393.727,21.9622,0.60793,-2.64527,0.87825
396.727,22.05469,0.44832,-2.6648,0.87678
399.727,22.14733,0.34237,-2.67762,0.8753
402.727,22.24006,0.27894,-2.68952,0.87382
405.727,22.33301,0.23437,-2.69566,0.87235
408.727,22.42625,0.20452,-2.70088,0.87087
411.727,22.51942,0.17998,-2.71295,0.86938
414.727,22.61285,0.16348,-2.72027,0.8679
417.727,22.7064,0.14338,-2.72773,0.86641
420.727,22.8,0.12937,-2.73514,0.86492
423.727,22.89359,0.11638,-2.74377,0.86343
426.727,22.9875,0.10043,-2.75082,0.86193
429.727,23.0812,0.08881721,-2.75808,0.86043
432.727,23.1752,0.08232406,-2.76421,0.85893
435.727,23.26951,0.07283901,-2.77229,0.85742
438.727,23.36394,0.06855106,-2.7812,0.85591
441.727,23.45828,0.06652974,-2.78442,0.85439
444.727,23.5528,0.06800764,-2.79655,0.85287
447.727,23.64741,0.06561295,-2.80129,0.85135
450.727,23.7422,0.07212659,-2.80884,0.84982
453.727,23.83707,0.07737594,-2.81724,0.84828
456.727,23.93202,0.08131143,-2.82346,0.84675
459.727,24.02705,0.09136303,-2.83113,0.8452
462.727,24.1223,0.09734476,-2.83781,0.84365
465.727,24.2176,0.1053,-2.84135,0.8421
468.727,24.31269,0.10827,-2.84745,0.84054
471.727,24.40837,0.1119,-2.85341,0.83897
474.727,24.50401,0.11477,-2.85834,0.8374
477.727,24.59982,0.11559,-2.86478,0.83582
480.727,24.69576,0.11696,-2.86936,0.83423
483.727,24.79174,0.11711,-2.8739,0.83264
486.727,24.88776,0.11845,-2.8782,0.83104
489.727,24.98372,0.1186,-2.88182,0.82944
492.727,25.08006,0.1197,-2.88705,0.82782
495.727,25.17619,0.1176,-2.89035,0.82621
498.727,25.2726,0.1194,-2.89295,0.82458
501.727,25.36893,0.11911,-2.89717,0.82294
504.727,25.4651,0.12063,-2.89992,0.8213
507.727,25.5618,0.11844,-2.90455,0.81965
510.727,25.65837,0.11887,-2.90719,0.81799
513.727,25.7549,0.11887,-2.91246,0.81633
516.727,25.85146,0.11763,-2.91578,0.81465
519.727,25.9482,0.11877,-2.91983,0.81297
522.727,26.04466,0.11886,-2.92104,0.81128
525.727,26.1413,0.12031,-2.9233,0.80958
528.727,26.2378,0.1164,-2.92711,0.80788
531.727,26.3346,0.11452,-2.92702,0.80616
534.727,26.4314,0.11572,-2.93074,0.80443
537.727,26.5281,0.11327,-2.93297,0.8027
540.727,26.625,0.12246,-2.93635,0.80095
543.727,26.72198,0.13168,-2.93854,0.7992
546.727,26.8188,0.13862,-2.94124,0.79744
549.727,26.91592,0.14676,-2.94431,0.79567
552.727,27.013,0.15192,-2.94728,0.79388
555.727,27.11005,0.15649,-2.9499,0.79209
558.727,27.2075,0.15597,-2.95121,0.79029
561.727,27.3049,0.15853,-2.95409,0.78848
564.727,27.4021,0.15369,-2.95692,0.78666
567.727,27.49982,0.14644,-2.95955,0.78483
570.727,27.5975,0.13916,-2.96228,0.78299
573.727,27.6951,0.13,-2.96225,0.78113
576.727,27.79311,0.12239,-2.96475,0.77927
579.727,27.89112,0.11558,-2.96698,0.7774
582.727,27.98915,0.10511,-2.96913,0.77552
585.727,28.0873,0.10402,-2.96957,0.77362
588.727,28.1854,0.10034,-2.97347,0.77172
591.727,28.28336,0.09784962,-2.97752,0.7698
594.727,28.38188,0.09197051,-2.97764,0.76788
597.727,28.4803,0.08834582,-2.97886,0.76594
600.727,28.57875,0.08702986,-2.98174,0.76399
603.727,28.67732,0.08279075,-2.98326,0.76203
606.727,28.7759,0.08281138,-2.98599,0.76006
609.727,28.8744,0.08039773,-2.9861,0.75808
612.727,28.97327,0.07911243,-2.98722,0.75609
615.727,29.07198,0.07837627,-2.98862,0.75408
618.727,29.17075,0.07964363,-2.99136,0.75207
621.727,29.26963,0.07763545,-2.99232,0.75004
624.727,29.36843,0.08665677,-2.99496,0.748
627.727,29.46722,0.09208236,-2.99697,0.74595
630.727,29.5661,0.09697432,-2.99906,0.74389
633.727,29.6652,0.09818761,-3.00179,0.74182
636.727,29.7643,0.10327,-3.00457,0.73974
639.727,29.8635,0.10548,-3.00713,0.73764
642.727,29.96255,0.11495,-3.01111,0.73553
645.727,30.0616,0.1206,-3.01243,0.73341
648.727,30.16106,0.1272,-3.01572,0.73128
651.727,30.2604,0.1319,-3.01801,0.72914
654.727,30.3598,0.1352,-3.01967,0.72699
657.727,30.4589,0.13883,-3.02252,0.72482
660.727,30.55817,0.14406,-3.02465,0.72265
663.727,30.6575,0.15578,-3.02681,0.72046
666.727,30.7568,0.16316,-3.02934,0.71826
669.727,30.8562,0.17549,-3.03373,0.71604
672.727,30.95546,0.19875,-3.03686,0.71382
675.727,31.0547,0.21867,-3.04126,0.71159
678.727,31.1541,0.24208,-3.0413,0.70934
681.727,31.25344,0.27481,-3.04499,0.70708
684.727,31.35277,0.30491,-3.0489,0.70481
687.727,31.45236,0.33797,-3.05197,0.70253
690.727,31.5519,0.37094,-3.05734,0.70023
693.727,31.65168,0.40255,-3.06062,0.69793
696.727,31.7515,0.43365,-3.06845,0.69561
699.727,31.851,0.45897,-3.07312,0.69328
702.727,31.95102,0.47041,-3.07804,0.69094
705.727,32.05087,0.47611,-3.07962,0.68859
708.727,32.15074,0.47709,-3.08406,0.68623
711.727,32.2508,0.47343,-3.09007,0.68385
714.727,32.35062,0.46168,-3.09552,0.68147
717.727,32.45092,0.43227,-3.10109,0.67907
720.727,32.55089,0.38164,-3.10435,0.67666
723.727,32.65096,0.31071,-3.1078,0.67424
726.727,32.75101,0.22587,-3.11007,0.67181
729.727,32.85107,0.17164,-3.11484,0.66937
732.727,32.95115,0.1321,-3.11674,0.66691
735.727,33.05129,0.1013,-3.11936,0.66445
738.727,33.15146,0.08128761,-3.12376,0.66197
741.727,33.25144,0.06524846,-3.1265,0.65949
744.127,33.33262,0.05056394,-3.13039,0.65749