File: 01_Data/PMMA/Cone/PMMA_Cone_HF25Scalar_220225_R3.csv
LABORATORY,FSRI
TEST IDENT,PMMA_HF25_3
OPERATOR,Dow
MATERIAL,PMMA
ORIENTATION,Horizontal
HEAT FLUX,25
SURF AREA,0.01
C FACTOR,0.0385692
SPEC HOLDER DIFF,299.79
SPECIMEN MASS,33.5
SCAN TIME,0.25
O2 DELAY TIME,11
CO DELAY TIME,11
CO2 DELAY TIME,8
FLOW FACTOR,1
SCAN COUNT,1619
TIME TO IGN,96.5
END OF TEST SCAN,1139
END OF TEST TIME,284.75
TEST STATUS,1
PRE TEST CMT,Dimensions: 99.06 x 99.42 x 2.82 mm