File: 01_Data/PMMA/Cone/PMMA_Cone_HF25Scan_220225_R1.csv
Names,Time,Stack TC,Smoke TC,Exh Press,Smoke Comp,Smoke Meas,CO Meter,CO2 Meter,O2 Meter,Sample Mass,Ext Coeff,Start Test,Flame Verif
Chan Gain,,500,500,1,1,1,1,1,1,1,1,1.0,1.0
Offset,,0,0,0.136092,0,0,0,0,0,0,0,0.0,0.0
Gain,,1,1,25.011,15.4219,15.1528,1,1,1,1.00089,1.02113,1.0,1.0
Units,sec,C,C,Pa,%,%,%,%,%,g,/m,,
Baseline,,16.1345,16.9627,166.808,116.121,116.43,-0.00877716,0.108452,20.7776,-0.0990877,-0.0238113,,
17,4,15.011,14.9501,169.165,116.296,116.404,-0.00913783,0.1213,20.7528,906.052,-0.00825833,0.0,0.0
34,8.25,14.7982,15.5792,167.105,116.288,116.695,-0.00913687,0.120765,20.7507,905.992,-0.0312284,0.0,0.0
51,12.5,14.691,15.4978,168.395,116.278,116.705,-0.00923482,0.118291,20.7575,906.012,-0.0328433,0.0,0.0
68,16.75,14.6767,15.6312,164.544,116.256,116.592,-0.00917937,0.118773,20.7617,905.982,-0.0258108,0.0,0.0
85,21,14.9277,15.3433,164.907,116.219,116.766,-0.00927253,0.115248,20.7694,905.992,-0.0420599,0.0,0.0
102,25.25,14.9893,15.8493,170.624,116.172,116.503,-0.00921526,0.112558,20.775,906.002,-0.025481,0.0,0.0
119,29.5,15.3898,15.9681,171.808,116.095,116.52,-0.0089456,0.113214,20.775,905.972,-0.0327485,0.0,0.0
136,33.75,15.5233,15.8946,165.002,115.997,116.115,-0.0091395,0.114131,20.7741,905.962,-0.00911125,0.0,0.0
153,38,15.8604,16.6666,165.207,115.892,116.336,-0.00934779,0.113606,20.7736,905.962,-0.0342538,0.0,0.0
170,42.25,15.5384,16.6976,164.529,115.718,115.723,-0.00937291,0.112105,20.7709,905.952,-0.000385479,0.0,0.0
187,46.5,15.6214,16.5478,169.247,115.552,115.721,-0.00895699,0.111964,20.7704,905.962,-0.0130755,0.0,0.0
204,50.75,15.6656,16.405,165.888,115.512,115.809,-0.00900661,0.112214,20.7684,905.952,-0.0230115,0.0,0.0
221,55,15.5407,16.5675,164.002,115.542,115.701,-0.00935334,0.111819,20.7665,905.932,-0.0123035,0.0,0.0
238,59.25,15.1102,16.6256,169.477,115.578,115.885,-0.0092626,0.111795,20.7658,905.932,-0.0237673,0.0,0.0
255,63.5,15.9123,16.5679,166.807,115.638,115.822,-0.00937953,0.112588,20.7648,905.912,-0.0142385,0.0,0.0
272,67.75,16.1074,16.8982,169.177,115.671,115.997,-0.00920316,0.113251,20.7656,905.912,-0.025194,0.0,0.0
289,72,16.2691,16.5977,167.329,115.703,115.987,-0.00910864,0.112951,20.7665,905.942,-0.0219303,0.0,0.0
306,76.25,16.0242,16.5551,162.641,115.76,115.881,-0.00906299,0.113208,20.7667,905.912,-0.00934159,0.0,0.0
323,80.5,15.7778,16.8075,164.316,115.807,115.991,-0.00911892,0.112679,20.7667,905.912,-0.0142037,0.0,0.0
340,84.75,15.8901,16.9182,165.545,115.822,116.085,-0.00915934,0.111743,20.7685,905.912,-0.020357,0.0,0.0
357,89,15.9845,17.2801,167.754,115.859,116.221,-0.00925643,0.111161,20.769,905.882,-0.0279668,0.0,0.0
374,93.25,16.4925,17.5627,168.781,115.895,116.142,-0.00917507,0.11229,20.7673,905.852,-0.0190321,0.0,0.0
391,97.5,16.4949,17.0925,164.188,115.919,116.148,-0.00900796,0.114601,20.7641,905.822,-0.0176406,0.0,0.0
408,101.75,16.4811,17.527,162.329,115.94,114.323,-0.00854058,0.149825,20.7018,905.502,0.125835,0.0,1.0
425,106,17.712,18.4287,151.347,115.949,109.023,-0.00811283,0.254697,20.5447,905.402,0.551669,0.0,0.0
442,110.25,20.0867,21.3683,144.216,115.942,107.793,-0.00714745,0.401308,20.3317,905.032,0.65276,0.0,0.0
459,114.5,24.0404,26.1587,140.012,115.952,104.763,-0.00590922,0.540133,20.1482,904.611,0.908974,0.0,0.0
476,118.75,28.3451,30.839,142.996,115.947,105.102,-0.00486948,0.648794,20.0043,904.121,0.879677,0.0,0.0
493,123,32.7245,36.2929,130.208,115.929,103.354,-0.00431721,0.737702,19.8815,903.54,1.02848,0.0,0.0
510,127.25,36.5076,41.3327,130.017,115.908,102.478,-0.00369739,0.822836,19.7746,902.87,1.10311,0.0,0.0
527,131.5,42.0462,47.4092,130.308,115.884,100.584,-0.00327653,0.888276,19.6999,902.249,1.26829,0.0,0.0
544,135.75,46.728,53.3492,119.479,115.846,102.185,-0.00294195,0.952287,19.6121,901.548,1.12401,0.0,0.0
561,140,51.2917,58.6047,127.41,115.789,101.633,-0.00301573,1.0119,19.5296,900.878,1.16802,0.0,0.0
578,144.25,55.9133,64.3244,126.652,115.729,101.801,-0.00273391,1.08432,19.4278,900.097,1.14857,0.0,0.0
595,148.5,61.0261,70.4249,115.24,115.666,100.006,-0.00189898,1.15052,19.3431,899.276,1.30309,0.0,0.0
612,152.75,65.8869,76.1577,120.99,115.602,98.1618,-0.00108635,1.19073,19.2964,898.426,1.46485,0.0,0.0
629,157,69.4036,81.2115,120.106,115.575,99.3091,-0.000779661,1.24302,19.2206,897.605,1.35869,0.0,0.0
646,161.25,73.8347,87.0128,112.47,115.544,98.2691,-0.000347305,1.32201,19.1201,896.774,1.45054,0.0,0.0
663,165.5,78.263,92.141,108.35,115.496,97.4395,-0.000101959,1.38362,19.0345,895.823,1.52279,0.0,0.0
680,169.75,82.7377,97.7085,114.326,115.472,99.8062,-7.15905e-05,1.43969,18.9698,894.993,1.30593,0.0,0.0
697,174,87.0063,102.972,117.138,115.447,99.2943,9.04105e-05,1.46758,18.945,894.042,1.35009,0.0,0.0
714,178.25,91.4443,107.925,104.748,115.414,98.7635,0.000498282,1.48888,18.9324,893.061,1.39548,0.0,0.0
731,182.5,94.9298,111.755,123.675,115.376,96.7191,0.000583698,1.49255,18.9272,892.15,1.57995,0.0,0.0
748,186.75,97.8339,115.714,105.632,115.345,97.4959,0.000361449,1.50325,18.921,891.239,1.50585,0.0,0.0
765,191,100.515,118.81,109.966,115.307,98.6599,0.00067809,1.49687,18.9269,890.268,1.39659,0.0,0.0
782,195.25,103.803,122.145,110.621,115.28,99.1727,0.000904271,1.50062,18.9275,889.388,1.3481,0.0,0.0
799,199.5,105.827,125.004,115.792,115.27,98.2363,0.000933228,1.50513,18.9164,888.437,1.43227,0.0,0.0
816,203.75,108.592,128.479,115.265,115.301,100.73,0.000829347,1.52937,18.8922,887.536,1.21014,0.0,0.0
833,208,110.626,131.169,106.925,115.325,99.2786,0.000636134,1.51806,18.8995,886.615,1.34198,0.0,0.0
850,212.25,113.183,133.742,104.162,115.359,98.8148,0.000523029,1.51839,18.8995,885.684,1.38659,0.0,0.0
867,216.5,114.798,136.007,112.5,115.403,98.824,0.00089496,1.53064,18.8734,884.714,1.38915,0.0,0.0
884,220.75,116.954,137.963,101.44,115.428,99.2296,0.00119313,1.55319,18.8482,883.843,1.3544,0.0,0.0
901,225,118.195,139.69,113.158,115.472,98.2886,0.00167206,1.56071,18.8422,882.892,1.44318,0.0,0.0
918,229.25,119.98,141.785,104.787,115.519,98.4638,0.00185276,1.56355,18.8404,881.861,1.43091,0.0,0.0
935,233.5,121.419,143.09,108.908,115.573,99.114,0.00179473,1.56009,18.8439,880.98,1.37612,0.0,0.0
952,237.75,122.639,144.375,109.01,115.621,99.4862,0.00149371,1.54582,18.8679,880.059,1.34626,0.0,0.0
969,242,123.95,146.265,110.336,115.707,99.6818,0.00126782,1.52058,18.8958,879.119,1.33534,0.0,0.0
986,246.25,124.753,146.879,117.638,115.784,99.3683,0.00106903,1.49482,18.9277,878.178,1.36953,0.0,0.0
1003,250.5,125.691,146.931,108.321,115.852,100.426,0.000590857,1.44838,18.9902,877.357,1.27991,0.0,0.0
1020,254.75,125.638,147.203,120.516,115.921,99.1598,0.000179451,1.40137,19.0617,876.506,1.3989,0.0,0.0
1037,259,124.353,145.059,111.916,115.94,99.4109,-0.000312577,1.34796,19.1274,875.676,1.3777,0.0,0.0
1054,263.25,124.837,145.762,113.62,115.922,95.5672,-0.000655179,1.28059,19.2116,874.965,1.72952,0.0,0.0
1071,267.5,123.6,143.921,121.931,115.873,98.326,-0.0004815,1.24192,19.2585,874.164,1.47086,0.0,0.0
1088,271.75,121.625,141.382,121.641,115.756,98.0703,-0.000796566,1.14881,19.382,873.504,1.48509,0.0,0.0
1105,276,119.816,138.992,129.221,115.631,94.7316,-0.00159889,0.984654,19.6543,872.913,1.78572,0.0,0.0
1122,280.25,114.872,133.131,141.828,115.478,101.831,-0.00335894,0.741565,20.0106,872.573,1.12646,0.0,0.0
1139,284.5,108.777,125.725,153.878,115.876,109.585,-0.00536669,0.467708,20.3889,872.483,0.499991,0.0,0.0
1156,288.75,102.118,116.922,155.325,116.176,112.792,-0.00760232,0.272077,20.6347,872.463,0.264806,0.0,0.0
1173,293,94.8875,107.887,158.001,116.228,112.864,-0.00891058,0.174972,20.731,872.473,0.263033,0.0,0.0
1190,297.25,88.6225,100.774,161.261,115.93,113.126,-0.00917825,0.139438,20.7649,872.473,0.219332,0.0,0.0
1207,301.5,83.3411,93.4719,160.946,115.436,111.904,-0.00944894,0.124222,20.7767,872.493,0.278331,0.0,0.0
1224,305.75,77.8769,87.9785,160.326,115.702,112.951,-0.00943969,0.118966,20.7822,872.493,0.215493,0.0,0.0
1241,310,73.7173,82.315,161.499,116.065,113.12,-0.00936751,0.114936,20.7867,872.493,0.230238,0.0,0.0
1258,314.25,69.5848,77.1649,164.129,116.233,113.051,-0.00942776,0.110996,20.7913,872.483,0.248618,0.0,0.0
1275,318.5,65.9159,72.89,161.042,116.12,112.965,-0.00946609,0.10828,20.792,872.473,0.246762,0.0,0.0
1292,322.75,62.5161,68.455,161.871,115.622,113.353,-0.00960167,0.106439,20.7932,872.483,0.177522,0.0,0.0
1309,327,58.9759,64.1761,160.955,114.921,113.089,-0.00929824,0.105217,20.7952,872.473,0.143958,0.0,0.0
1326,331.25,56.0851,60.5674,160.566,114.183,111.386,-0.00943025,0.10426,20.7957,872.493,0.222101,0.0,0.0
1343,335.5,53.9133,57.5704,161.369,113.697,111.289,-0.00953824,0.1041,20.7957,872.483,0.191732,0.0,0.0
1360,339.75,52.096,55.7534,164.426,113.719,110.747,-0.00969697,0.103893,20.7958,872.503,0.237202,0.0,0.0
1377,344,50.3908,52.6866,158.482,114.171,111.848,-0.00947782,0.103419,20.7958,872.493,0.184069,0.0,0.0
1394,348.25,48.26,50.9544,162.132,114.924,112.486,-0.00945401,0.103127,20.7958,872.473,0.191992,0.0,0.0
1411,352.5,46.4265,48.9985,162.941,115.518,112.931,-0.00900768,0.102808,20.7976,872.483,0.202922,0.0,0.0
1428,356.75,45.4425,46.5738,161.68,115.866,113.744,-0.00898126,0.102149,20.798,872.503,0.165601,0.0,0.0
1445,361,42.9482,44.8969,162.395,115.842,113.936,-0.00921608,0.101688,20.7981,872.473,0.148646,0.0,0.0
1462,365.25,41.8313,43.3662,156.141,115.584,113.341,-0.00950546,0.101498,20.7986,872.483,0.175483,0.0,0.0
1479,369.5,41.0732,41.8577,160.54,115.731,113.884,-0.00940782,0.101419,20.7987,872.503,0.14409,0.0,0.0
1496,373.75,39.8083,40.2412,160.225,116.24,113.784,-0.00940126,0.101563,20.7973,872.513,0.191312,0.0,0.0
1513,378,38.7124,39.2142,162.452,115.975,114.622,-0.00948508,0.101566,20.7969,872.493,0.10515,0.0,0.0
1530,382.25,38.0513,37.9053,163.178,115.547,113.648,-0.0095992,0.101851,20.7965,872.443,0.148477,0.0,0.0
1547,386.5,36.8805,36.7835,160.652,116.015,113.822,-0.00932739,0.101733,20.7978,872.483,0.170938,0.0,0.0
1564,390.75,35.9134,35.4116,161.944,116.258,113.928,-0.00935851,0.101687,20.7988,872.503,0.181339,0.0,0.0
1581,395,35.6187,35.0481,157.021,115.942,113.407,-0.00954851,0.101756,20.799,872.503,0.197971,0.0,0.0
1598,399.25,34.5146,33.7241,159.826,115.088,113.12,,0.101776,,872.513,0.15448,0.0,0.0
1615,403.5,34.7096,33.3172,163.755,114.095,112.116,,,,872.443,0.156706,0.0,0.0
1632,407.75,33.3557,32.9561,159.402,113.71,111.984,,,,872.483,0.137003,0.0,0.0
1637,409,33.7114,32.4345,157.967,113.756,111.149,,,,872.503,0.207686,0.0,0.0