File: 01_Data/PMMA/Cone/PMMA_Cone_HF50Scan_210826_R2.csv
Names,Time,Stack TC,Smoke TC,Exh Press,Smoke Comp,Smoke Meas,CO Meter,CO2 Meter,O2 Meter,Sample Mass,Ext Coeff,Start Test,Flame Verif
Chan Gain,,500,500,1,1,1,1,1,1,1,1,1.0,1.0
Offset,,0,0,0.141443,0,0,0,0,0,0,0,0.0,0.0
Gain,,1,1,25.011,13.1742,16.6938,1,1,1,1.00099,1.02845,1.0,1.0
Units,sec,C,C,Pa,%,%,%,%,%,g,/m,,
Baseline,,43.2534,45.7153,165.3,101.502,112.167,0.00154087,0.0539933,20.9778,-506.551,-0.901359,,
12,2.75,41.1466,43.0045,164.492,101.862,112.636,0.00167467,0.0538335,20.9796,36.426,-0.907037,0.0,0.0
24,5.75,40.7855,43.3233,164.162,101.816,112.631,0.0017221,0.0541632,20.9796,36.3559,-0.910765,0.0,0.0
36,8.75,41.0269,42.9014,162.704,101.773,112.409,0.00176515,0.0540217,20.9796,36.1957,-0.896774,0.0,0.0
48,11.75,41.1364,43.4184,166.922,101.713,112.474,0.00172322,0.0536662,20.979,36.3559,-0.907277,0.0,0.0
60,14.75,41.1726,43.0107,162.831,101.657,112.567,0.00159571,0.0535176,20.9795,36.4059,-0.91971,0.0,0.0
72,17.75,41.102,43.4426,165.742,101.673,112.323,0.00157976,0.0532487,20.9796,36.3359,-0.898663,0.0,0.0
84,20.75,41.5387,43.4293,166.872,101.692,112.454,0.00155109,0.0529532,20.98,36.3159,-0.907532,0.0,0.0
96,23.75,41.109,44.0157,164.865,101.737,112.591,0.00162194,0.052945,20.9807,36.3559,-0.914526,0.0,0.0
108,26.75,41.3092,43.9616,162.862,101.781,112.557,0.00190049,0.0531,20.9809,36.3259,-0.907874,0.0,0.0
120,29.75,41.1949,44.3478,163.937,101.832,112.191,0.00189639,0.0567611,20.9711,36.2058,-0.87402,0.0,0.0
132,32.75,42.2743,44.9351,151.648,101.862,111.321,0.00216567,0.124896,20.8671,36.1057,-0.801064,0.0,1.0
144,35.75,43.089,48.2027,148.983,101.906,108.134,0.00313615,0.292351,20.6321,35.8054,-0.535161,0.0,1.0
156,38.75,47.3714,54.5223,146.476,101.955,106.002,0.00460711,0.483776,20.4116,35.435,-0.351095,0.0,0.0
168,41.75,52.5029,62.5275,134.099,102.014,103.174,0.00575226,0.64663,20.1874,34.9345,-0.101951,0.0,0.0
180,44.75,58.3312,70.6067,130.41,102.05,102.649,0.00661502,0.790651,20.0259,34.2438,-0.0528321,0.0,0.0
192,47.75,63.1821,78.9295,140.061,102.099,100.493,0.00778864,0.88693,19.8951,33.7333,0.143016,0.0,0.0
204,50.75,67.6617,85.8377,123.897,102.146,101.249,0.00866967,0.982118,19.7588,33.3129,0.0796256,0.0,0.0
216,53.75,72.6047,94.3122,127.126,102.175,99.7516,0.00953841,1.09612,19.6018,32.4821,0.216555,0.0,0.0
228,56.75,78.433,102.875,120.637,102.212,97.6608,0.0104613,1.22812,19.4254,31.9115,0.410957,0.0,0.0
240,59.75,83.5076,111.711,126.317,102.236,98.3592,0.0116945,1.35406,19.276,31.1708,0.348724,0.0,0.0
252,62.75,89.2986,120.701,111.154,102.26,96.0738,0.0127834,1.47046,19.1178,30.2299,0.56298,0.0,0.0
264,65.75,95.0379,128.815,123.391,102.268,96.5104,0.0140371,1.56301,19.0098,29.5091,0.522749,0.0,0.0
276,68.75,100.162,136.538,123.52,102.302,94.2989,0.0157115,1.66261,18.8969,28.6983,0.734932,0.0,0.0
288,71.75,105.128,144.285,115.008,102.305,93.9616,0.0173173,1.75102,18.7855,27.7074,0.767503,0.0,0.0
300,74.75,109.125,150.432,112.919,102.324,93.9489,0.0185567,1.83704,18.6634,26.7664,0.770393,0.0,0.0
312,77.75,113.834,158.03,114.662,102.329,92.6768,0.019546,1.94746,18.5278,25.8255,0.893808,0.0,0.0
324,80.75,118.603,165.04,101.226,102.327,89.7979,0.0211696,2.07075,18.379,24.7845,1.17832,0.0,0.0
336,83.75,123.582,172.583,101.251,102.35,90.9029,0.0230479,2.2159,18.1819,23.6634,1.07001,0.0,0.0
348,86.75,128.81,179.949,100.04,102.357,91.0491,0.0254595,2.33348,18.0425,22.6424,1.05614,0.0,0.0
360,89.75,133.196,187.773,101.221,102.366,90.3644,0.0275835,2.46872,17.8909,21.5513,1.12506,0.0,0.0
372,92.75,138.992,197.118,105.647,102.371,89.7607,0.0289086,2.62882,17.7049,20.24,1.18596,0.0,0.0
384,95.75,144.099,204.141,103.461,102.378,89.8732,0.0296437,2.7371,17.5602,19.1589,1.17522,0.0,0.0
396,98.75,149.052,211.27,97.4437,102.382,89.8559,0.0291279,2.80842,17.4681,17.9377,1.17738,0.0,0.0
408,101.75,152.887,217.208,95.7301,102.387,90.6206,0.0276241,2.85627,17.4143,16.2961,1.10136,0.0,0.0
420,104.75,156.498,221.623,92.132,102.401,89.1442,0.02757,2.88698,17.3914,15.3351,1.25075,0.0,0.0
432,107.75,159.009,225.15,93.1327,102.411,90.9299,0.0287602,2.83512,17.4355,14.2841,1.07275,0.0,0.0
444,110.75,161.297,226.928,112.678,102.398,91.0119,0.0295929,2.77115,17.5145,13.143,1.06344,0.0,0.0
456,113.75,163.403,229.136,95.2195,102.396,91.3481,0.0291569,2.71994,17.5658,11.9818,1.02996,0.0,0.0
468,116.75,164.721,229.881,100.069,102.393,91.019,0.0279909,2.66428,17.6494,11.0709,1.06231,0.0,0.0
480,119.75,166.544,230.643,97.23,102.402,90.8641,0.0266942,2.60023,17.7312,9.96985,1.07845,0.0,0.0
492,122.75,167.486,230.793,104.251,102.397,92.0934,0.0254976,2.52656,17.8172,8.88878,0.956759,0.0,0.0
504,125.75,166.962,229.09,105.812,102.402,92.8811,0.0239503,2.41128,17.9856,7.8978,0.880392,0.0,0.0
516,128.75,166.773,225.858,104.236,102.414,93.2066,0.0213497,2.26377,18.1593,6.93685,0.84989,0.0,0.0
528,131.75,165.515,221.625,114.157,102.397,91.7918,0.0187082,2.06948,18.4106,6.06599,0.986352,0.0,0.0
540,134.75,163.244,216.01,108.325,102.394,95.1288,0.0164713,1.8716,18.6178,5.2652,0.663963,0.0,0.0
552,137.75,159.805,209.421,110.132,102.39,95.5878,0.0144947,1.69295,18.8355,4.61456,0.620148,0.0,0.0
564,140.75,156.696,202.643,120.021,102.384,97.5125,0.0128201,1.47888,19.1522,4.12407,0.439802,0.0,0.0
576,143.75,152.491,194.364,121.117,102.376,97.1314,0.0114098,1.27518,19.3959,3.52348,0.474454,0.0,0.0
588,146.75,147.337,185.397,130.854,102.36,98.4738,0.0100873,1.05932,19.6798,3.01298,0.349172,0.0,0.0
600,149.75,141.707,175.262,135.717,102.358,102.606,0.00846487,0.829508,20.0071,2.79276,-0.0217605,0.0,0.0
612,152.75,135.826,163.623,142.043,102.351,105.419,0.00677224,0.586043,20.3212,2.6326,-0.266382,0.0,0.0
624,155.75,127.864,151.088,145.728,102.339,108.361,0.00492736,0.358447,20.5919,2.6326,-0.515854,0.0,0.0
636,158.75,120.598,139.304,149.491,102.331,111.061,0.00357211,0.219013,20.762,2.58255,-0.738561,0.0,0.0
648,161.75,112.762,128.039,154.437,102.317,111.809,0.00269754,0.136817,20.87,2.52249,-0.800425,0.0,0.0
660,164.75,106.802,118.947,154.593,102.306,112.171,0.00216575,0.0947837,20.9287,2.61258,-0.830444,0.0,0.0
672,167.75,101.812,110.922,153.773,102.304,111.832,0.00171171,0.0759,20.9556,2.51248,-0.803408,0.0,0.0
684,170.75,97.5668,103.821,152.505,102.265,112.014,0.00158131,0.0672967,20.9665,2.52249,-0.821437,0.0,0.0
696,173.75,94.2341,98.8405,151.6,102.252,111.717,0.00147102,0.0625998,20.9724,2.58255,-0.798655,0.0,0.0
708,176.75,90.7102,93.8755,153.477,102.229,111.805,0.00145978,0.0598606,20.9751,2.51248,-0.807792,0.0,0.0
720,179.75,88.344,90.3652,155.034,102.21,111.862,0.00152378,0.057849,20.977,2.54251,-0.814092,0.0,0.0
732,182.75,85.5617,86.358,159.357,102.199,112.19,0.00159717,0.0562945,20.9796,2.5325,-0.841436,0.0,0.0
744,185.75,83.9453,83.344,156.375,102.183,111.996,0.00154126,0.0550536,20.9815,2.56253,-0.82724,0.0,0.0
756,188.75,81.3558,80.8322,156.114,102.172,112.111,0.00138537,0.0542727,20.9821,2.52249,-0.837497,0.0,0.0
768,191.75,79.59,78.616,151.95,102.153,111.621,0.00141686,0.0535228,20.9839,2.49246,-0.799648,0.0,0.0
780,194.75,78.3844,76.3506,151.28,102.135,112.054,0.00146043,0.0531178,20.9839,2.49246,-0.836136,0.0,0.0
792,197.75,77.1113,74.2298,155.128,102.121,111.839,0.00132129,0.0528401,20.9822,2.5325,-0.82013,0.0,0.0
804,200.75,75.8938,72.9422,163.975,102.125,111.965,0.00113223,0.0526052,20.9833,2.57254,-0.829879,0.0,0.0
816,203.75,74.3452,71.0764,153.1,102.117,111.994,0.00112588,0.0523367,20.9837,2.49246,-0.832899,0.0,0.0
828,206.75,73.0661,70.4501,159.051,102.129,111.83,0.00138349,0.0522887,20.983,2.5325,-0.818639,0.0,0.0
840,209.75,72.2742,69.0248,153.547,102.105,111.987,0.00148015,0.0519173,20.9819,2.54251,-0.833384,0.0,0.0
852,212.75,71.2888,68.4901,156.527,102.107,112.362,0.00160691,0.0517667,20.9821,2.48245,-0.863327,0.0,0.0
864,215.75,70.9805,66.8946,158.939,102.104,111.849,0.00163256,0.0517033,20.9837,2.45242,-0.822367,0.0,0.0
876,218.75,69.9885,66.7376,157.324,102.105,112.186,0.00154868,0.0516048,20.9844,2.55252,-0.849416,0.0,0.0
888,221.75,68.5921,65.2876,157.126,102.096,112.223,0.0015194,0.0516321,20.9846,2.50247,-0.853266,0.0,0.0
900,224.75,68.1668,64.6567,154.82,102.093,111.977,0.00146725,0.0514197,20.9846,2.60257,-0.833705,0.0,0.0
912,227.75,67.2376,64.4854,160.918,102.075,112.121,0.00143119,0.0511511,20.9843,2.50247,-0.846877,0.0,0.0
924,230.75,66.9324,63.5012,154.761,102.081,112.492,0.00122857,0.0509659,20.985,2.3323,-0.876177,0.0,0.0
936,233.75,66.5034,62.9164,158.193,102.054,112.145,0.00112038,0.051152,20.9853,2.54251,-0.850575,0.0,0.0
948,236.75,65.9148,62.4964,159.095,102.054,111.905,0.00125644,0.0511892,20.9843,2.52249,-0.831292,0.0,0.0
960,239.75,65.6597,62.2275,160.467,102.039,112.272,0.00130755,0.0511106,20.9846,2.5325,-0.862201,0.0,0.0
972,242.75,64.5742,61.404,160.553,102.029,112.224,0.00126067,0.0511254,20.9857,2.44241,-0.859206,0.0,0.0
984,245.75,64.4198,61.1237,157.901,102.015,112.229,0.00129711,0.0508556,20.9854,2.51248,-0.860819,0.0,0.0
996,248.75,63.5429,60.5541,161.691,102.001,112.203,0.00133362,0.0509194,20.9849,2.37234,-0.859938,0.0,0.0
1008,251.75,63.5515,60.2418,153.238,102.015,112.119,0.00150448,0.0507116,20.9844,2.54251,-0.852045,0.0,0.0
1020,254.75,62.5829,59.616,161.137,102.018,112.355,0.00159611,0.0505543,20.984,2.56253,-0.87072,0.0,0.0
1032,257.75,62.1729,59.226,154.554,102.022,112.059,0.0015906,0.0504912,20.9835,2.54251,-0.846531,0.0,0.0
1044,260.75,61.9724,58.9805,160.641,102.031,112.2,0.00147814,0.0505405,20.9831,2.49246,-0.857103,0.0,0.0
1056,263.75,61.1937,58.5158,159.982,102.042,112.137,0.00141292,0.050619,20.983,2.46243,-0.851098,0.0,0.0
1068,266.75,61.2769,58.4907,160.213,102.053,112.29,0.00133464,0.050581,20.983,2.49246,-0.862431,0.0,0.0
1080,269.75,60.1999,57.9052,161.477,102.071,112.409,0.00137036,0.0504584,20.983,2.49246,-0.870368,0.0,0.0
1092,272.75,60.0792,57.4758,157.582,102.068,112.29,,0.0502458,,2.5325,-0.86104,0.0,0.0
1104,275.75,59.4544,57.8442,161.185,102.085,111.952,,,,2.54251,-0.832405,0.0,0.0
1116,278.75,58.9591,57.6474,161.127,102.092,112.407,,,,2.50247,-0.868352,0.0,0.0
1124,280.75,59.0832,56.7819,156.859,102.094,112.129,,,,2.51248,-0.845787,0.0,0.0