File: 01_Data/PMMA/Cone/PMMA_Cone_HF15-noSparkScan_210827_R3.csv
Names,Time,Stack TC,Smoke TC,Exh Press,Smoke Comp,Smoke Meas,CO Meter,CO2 Meter,O2 Meter,Sample Mass,Ext Coeff,Start Test,Flame Verif
Chan Gain,,500,500,1,1,1,1,1,1,1,1,1.0,1.0
Offset,,0,0,0.145697,0,0,0,0,0,0,0,0.0,0.0
Gain,,1,1,25.011,13.1742,16.6938,1,1,1,1.00099,1.02845,1.0,1.0
Units,sec,C,C,Pa,%,%,%,%,%,g,/m,,
Baseline,,27.4558,28.1946,194.217,101.23,108.703,0.000865632,0.0672597,20.9432,-507.626,-0.642499,,
56,13.75,25.8417,26.0905,189.149,101.755,109.254,0.000874891,0.0659501,20.9485,34.8945,-0.641544,0.0,0.0
112,27.75,26.1835,26.8259,198.118,101.833,109.466,0.00140761,0.0647872,20.9487,34.9845,-0.652073,0.0,0.0
168,41.75,25.5574,26.667,194.157,101.807,109.308,0.000871168,0.0642857,20.9504,34.9045,-0.641407,0.0,0.0
224,55.75,25.7267,26.676,187.998,101.718,109.259,0.000817053,0.0645802,20.9508,34.8644,-0.64521,0.0,0.0
280,69.75,25.9054,26.9584,193.659,101.491,108.949,0.00045619,0.0636791,20.9502,34.8144,-0.63976,0.0,0.0
336,83.75,26.4703,27.0455,189.779,101.207,108.174,0.00117638,0.0631721,20.9519,34.8644,-0.600634,0.0,0.0
392,97.75,25.8585,26.7773,196.595,100.967,107.97,0.00124308,0.0625823,20.953,34.8844,-0.605,0.0,0.0
448,111.75,25.8404,26.4265,193.788,101.179,108.253,0.000892829,0.0624747,20.9526,34.8544,-0.609683,0.0,0.0
504,125.75,26.3809,26.6403,197.958,101.327,108.269,0.000903248,0.0619829,20.9532,34.7844,-0.597781,0.0,0.0
560,139.75,25.7937,27.3045,193.24,101.444,108.317,0.000654445,0.0614698,20.9551,34.8945,-0.591367,0.0,0.0
616,153.75,26.134,26.6377,193.35,101.353,108.743,0.000782933,0.060984,20.9551,34.8144,-0.63489,0.0,0.0
672,167.75,26.0884,26.9445,193.402,101.325,108.541,0.00081472,0.0603127,20.9571,34.8144,-0.620636,0.0,0.0
728,181.75,26.2846,26.6997,191.89,101.603,108.58,0.00110085,0.0604365,20.9572,34.8144,-0.599123,0.0,0.0
784,195.75,26.4407,27.4797,189.516,101.841,109.113,0.000753896,0.0601231,20.9587,34.7443,-0.622224,0.0,0.0
840,209.75,26.3104,27.1542,197.065,101.955,109.261,0.000814181,0.059645,20.9564,34.7343,-0.624322,0.0,0.0
896,223.75,26.4116,27.3164,194.276,101.99,109.083,0.00078447,0.0592216,20.9574,34.7443,-0.606564,0.0,0.0
952,237.75,26.5018,26.9687,195.38,101.985,108.865,0.000693049,0.059472,20.9587,34.6843,-0.588982,0.0,0.0
1008,251.75,26.7646,27.4695,191.235,101.967,108.72,0.00095191,0.0593706,20.9599,34.6342,-0.578542,0.0,0.0
1064,265.75,26.3152,27.4367,196.849,101.92,109.122,0.000946112,0.0588282,20.9601,34.4941,-0.616041,0.0,0.0
1120,279.75,25.9374,27.4907,194.873,101.832,108.791,0.000850233,0.0588253,20.9572,34.384,-0.596305,0.0,0.0
1176,293.75,25.9873,27.0114,194.808,101.574,108.664,0.000932687,0.0582775,20.957,34.3539,-0.608718,0.0,0.0
1232,307.75,26.5432,27.7057,193.102,101.172,108.114,0.000955002,0.058263,20.9609,34.2238,-0.598659,0.0,0.0
1288,321.75,26.7817,27.035,195.502,100.806,107.03,0.000857388,0.0577044,20.9622,34.2238,-0.540457,0.0,0.0
1344,335.75,26.227,27.835,193.656,100.589,107.49,0.000405961,0.057451,20.9632,33.9836,-0.598644,0.0,0.0
1400,349.75,26.6969,27.4429,194.657,100.809,107.624,0.00084897,0.0570449,20.9621,33.8735,-0.59018,0.0,0.0
1456,363.75,26.7455,27.9094,189.838,101.308,107.757,0.000753983,0.0568279,20.962,33.7934,-0.556778,0.0,0.0
1512,377.75,26.7513,27.6483,200.646,101.744,108.201,0.000618134,0.0569409,20.9616,33.5832,-0.555168,0.0,0.0
1568,391.75,26.749,27.6948,196.437,101.896,108.429,0.00095894,0.0563521,20.9626,33.443,-0.560556,0.0,0.0
1624,405.75,26.5979,27.858,190.964,101.684,108.162,0.00125307,0.0561154,20.9631,33.393,-0.557209,0.0,0.0
1680,419.75,26.9794,27.9921,191.789,101.254,107.465,0.000619787,0.0559819,20.9602,33.1427,-0.537097,0.0,0.0
1736,433.75,26.1128,27.7165,194.157,101.228,107.521,0.000699668,0.0555655,20.9622,32.9425,-0.544094,0.0,0.0
1792,447.75,26.488,27.8228,189.762,101.418,107.442,0.000837452,0.0553119,20.9611,32.8424,-0.520612,0.0,0.0
1848,461.75,27.2603,27.4373,191.962,101.461,107.537,0.000724832,0.0553437,20.9618,32.5321,-0.524703,0.0,0.0
1904,475.75,26.7404,28.3891,189.856,101.438,107.48,0.00101114,0.0548349,20.9616,32.392,-0.522031,0.0,0.0
1960,489.75,26.5004,27.0604,194.401,101.301,107.141,0.000656402,0.054859,20.9672,32.0717,-0.505637,0.0,0.0
2016,503.75,27.2137,27.9122,197.042,101.248,107.25,0.000890925,0.0546302,20.9667,32.0416,-0.519532,0.0,0.0
2072,517.75,26.5905,27.9757,193.118,101.305,106.97,0.000840435,0.0544331,20.9659,31.6813,-0.49089,0.0,0.0
2128,531.75,26.2072,28.4908,193.885,101.36,107.088,0.000666132,0.0543307,20.9676,31.5011,-0.49587,0.0,0.0
2184,545.75,26.7861,27.5856,197.887,101.439,107.162,0.000738473,0.0539235,20.9691,31.2809,-0.495116,0.0,0.0
2240,559.75,27.1374,28.3499,194.865,101.461,107.142,0.000727423,0.0538283,20.9663,31.0807,-0.49152,0.0,0.0
2296,573.75,26.8271,28.5444,191.537,101.483,107.285,0.000784633,0.0535746,20.9658,30.9005,-0.501564,0.0,0.0
2352,587.75,26.683,27.6655,199.695,101.408,107.02,0.00088262,0.0536243,20.9641,30.5602,-0.485981,0.0,0.0
2408,601.75,26.9374,28.0616,194.806,101.283,106.715,0.000822778,0.0531402,20.9642,30.37,-0.471272,0.0,0.0
2464,615.75,26.6595,27.6877,195.961,101.303,106.914,0.000562633,0.0528998,20.9643,30.1398,-0.486419,0.0,0.0
2520,629.75,26.7255,27.3496,188.655,101.49,107.497,0.000599251,0.052773,20.966,29.8595,-0.51876,0.0,0.0
2576,643.75,27.091,27.4175,192.545,101.774,107.44,0.000657988,0.0527846,20.9669,29.5892,-0.488767,0.0,0.0
2632,657.75,27.3246,28.2838,192.186,101.963,107.132,0.000716176,0.0527489,20.9655,29.4291,-0.446114,0.0,0.0
2688,671.75,27.3286,28.2345,202.96,101.956,107.361,0.000620672,0.0525103,20.9669,29.1588,-0.466004,0.0,0.0
2744,685.75,26.7292,27.6857,192.826,101.701,106.959,0.000855699,0.0519834,20.9692,28.8485,-0.454747,0.0,0.0
2800,699.75,26.9281,27.2989,192.645,101.179,106.4,0.00101553,0.0520396,20.9696,28.6083,-0.453975,0.0,0.0
2856,713.75,26.6321,27.7992,192.459,100.675,106.12,0.000955611,0.0518747,20.9696,28.5582,-0.475172,0.0,0.0
2912,727.75,27.0968,27.986,196.01,100.722,105.491,0.000599476,0.0517356,20.969,27.9976,-0.417275,0.0,0.0
2968,741.75,27.1658,27.7714,196.565,101.183,106.383,0.000878423,0.0513579,20.969,27.9076,-0.452104,0.0,0.0
3024,755.75,26.6653,27.8477,193.076,101.619,106.736,0.000655856,0.0513138,20.969,27.6673,-0.443192,0.0,0.0
3080,769.75,27.1382,28.3019,193.8,101.873,106.833,0.000585337,0.0512053,20.9703,27.5172,-0.428919,0.0,0.0
3136,783.75,27.275,27.8363,196.206,101.94,107.116,0.000666878,0.0511668,20.97,27.327,-0.446776,0.0,0.0
3192,797.75,26.7861,27.6359,198.277,101.849,106.984,0.000546879,0.0512171,20.9681,26.9066,-0.443745,0.0,0.0
3248,811.75,26.7556,28.2611,192.728,101.557,106.622,0.000517642,0.0507823,20.9699,26.8165,-0.439032,0.0,0.0
3304,825.75,27.2387,27.6475,190.126,101.202,106.058,0.000644071,0.0506817,20.9696,26.4261,-0.422857,0.0,0.0
3360,839.75,25.9079,27.7664,195.646,101.323,106.312,0.000618773,0.0504257,20.9708,26.366,-0.433603,0.0,0.0
3416,853.75,26.8124,27.7857,196.608,101.461,105.973,0.00102008,0.0504639,20.9696,26.0357,-0.392566,0.0,0.0
3472,867.75,25.857,26.7622,191.033,101.445,106.519,0.00077945,0.0503518,20.9699,25.8555,-0.440334,0.0,0.0
3528,881.75,26.7692,27.3993,194.959,101.319,106.829,0.000710921,0.0503732,20.9691,25.6954,-0.477728,0.0,0.0
3584,895.75,27.199,27.5163,193.66,101.329,105.992,0.000893088,0.0502415,20.9691,25.3851,-0.405911,0.0,0.0
3640,909.75,26.9543,28.0007,192.008,101.463,106.28,0.0012779,0.049991,20.9697,25.2449,-0.418501,0.0,0.0
3696,923.75,26.871,27.5682,191.619,101.611,106.195,0.00068129,0.0498891,20.9692,24.9146,-0.398096,0.0,0.0
3752,937.75,27.0681,28.0916,192.757,101.799,107.091,0.000914601,0.0498434,20.971,24.7344,-0.457207,0.0,0.0
3808,951.75,26.9182,27.8441,192.26,101.952,106.599,0.000954289,0.0495602,20.969,24.4241,-0.402132,0.0,0.0
3864,965.75,26.4518,27.6099,193.041,101.988,106.836,0.0012286,0.0494462,20.9701,24.314,-0.418878,0.0,0.0
3920,979.75,27.4317,27.4073,192.609,101.837,106.528,0.000939967,0.0495844,20.971,23.9537,-0.406274,0.0,0.0
3976,993.75,26.8321,27.7947,199.804,101.598,106.28,0.000692758,0.0493796,20.9725,23.8235,-0.406462,0.0,0.0
4032,1007.75,26.7818,27.3632,189.32,101.319,106.093,0.000968394,0.0492526,20.9726,23.6534,-0.415388,0.0,0.0
4088,1021.75,26.7555,27.9774,198.633,101.171,105.744,0.000440663,0.0494999,20.9734,23.323,-0.39884,0.0,0.0
4144,1035.75,26.9098,28.0523,195.808,101.161,105.531,0.000566754,0.0492136,20.9722,23.1629,-0.381522,0.0,0.0
4200,1049.75,26.7468,28.2798,195.143,101.149,106.138,0.000847604,0.0498665,20.9728,22.9527,-0.434276,0.0,0.0
4256,1063.75,26.7438,28.0817,197.036,101.167,106.463,0.000668342,0.0505984,20.9719,22.6023,-0.460247,0.0,0.0
4312,1077.75,26.7702,27.5025,192.864,101.136,105.994,0.000613066,0.0516298,20.9685,22.4922,-0.423319,0.0,0.0
4368,1091.75,26.9677,27.3675,201.616,101.119,105.722,0.000817214,0.052871,20.9674,22.3521,-0.40164,0.0,0.0
4424,1105.75,27.2251,27.6355,195.146,101.155,106.064,0.000702309,0.0535356,20.9649,22.0818,-0.427572,0.0,0.0
4480,1119.75,26.7412,28.2179,194.973,101.196,105.751,0.000740099,0.0544207,20.9644,21.8115,-0.397226,0.0,0.0
4536,1133.75,26.7084,27.9365,196.795,101.211,105.993,0.000831163,0.0550166,20.9615,21.5313,-0.416484,0.0,0.0
4592,1147.75,27.1309,28.0537,196.149,101.297,106.001,0.000771789,0.0559532,20.959,21.3211,-0.409505,0.0,0.0
4648,1161.75,27.1079,27.7014,197.79,101.48,106.576,0.000882612,0.0564363,20.9597,21.1809,-0.442012,0.0,0.0
4704,1175.75,26.9443,28.1402,193.174,101.652,106.661,0.000689472,0.0569979,20.9578,21.0208,-0.433926,0.0,0.0
4760,1189.75,26.7429,28.2196,194.99,101.846,106.96,0.00102908,0.0576178,20.9558,20.7004,-0.442046,0.0,0.0
4816,1203.75,25.6102,26.9386,203.73,101.975,107.192,0.000786356,0.0579553,20.9566,20.4202,-0.450108,0.0,0.0
4872,1217.75,25.2971,26.2872,190.26,101.968,107.1,0.00089229,0.0586186,20.9569,20.3401,-0.442999,0.0,0.0
4928,1231.75,25.4804,26.6961,194.131,101.817,107.168,0.000693838,0.0591216,20.9548,20.0698,-0.462046,0.0,0.0
4984,1245.75,25.4482,26.4183,190.793,101.629,106.478,0.00112724,0.0593772,20.9543,19.7295,-0.420513,0.0,0.0
5040,1259.75,25.667,26.9099,195.494,101.384,106.718,0.000998236,0.0598605,20.9535,19.6494,-0.462582,0.0,0.0
5096,1273.75,25.924,26.7293,195.743,101.31,106.379,0.000917083,0.0603279,20.9547,19.4592,-0.440403,0.0,0.0
5152,1287.75,25.5967,26.6751,192.441,101.433,106.451,0.000907467,0.060732,20.9537,19.0288,-0.435623,0.0,0.0
5208,1301.75,25.8317,26.9435,197.516,101.377,106.826,0.00107097,0.061029,20.9516,18.8786,-0.472316,0.0,0.0
5264,1315.75,25.7544,26.7869,191.377,101.028,106.214,,,,18.6784,-0.451568,0.0,0.0
5284,1320.75,25.6238,26.6747,189.999,101.095,106.489,,,,18.6584,-0.468984,0.0,0.0