File: 01_Data/PMMA/Cone/PMMA_Cone_HF75Scalar_220225_R1.csv
LABORATORY,FSRI
TEST IDENT,PMMA_HF75_1
OPERATOR,Dow
MATERIAL,PMMA
ORIENTATION,Horizontal
HEAT FLUX,75
SURF AREA,0.01
C FACTOR,0.0385692
SPEC HOLDER DIFF,298.97
SPECIMEN MASS,33.1
SCAN TIME,0.25
O2 DELAY TIME,11
CO DELAY TIME,11
CO2 DELAY TIME,8
FLOW FACTOR,1
SCAN COUNT,923
TIME TO IGN,20.75
END OF TEST SCAN,443
END OF TEST TIME,110.75
TEST STATUS,1
PRE TEST CMT,Dimensions: 99.00 x 99.26 x 2.74 mm