File: 01_Data/PMMA/Cone/PMMA_Cone_HF50Scan_210826_R1.csv
Names,Time,Stack TC,Smoke TC,Exh Press,Smoke Comp,Smoke Meas,CO Meter,CO2 Meter,O2 Meter,Sample Mass,Ext Coeff,Start Test,Flame Verif
Chan Gain,,500,500,1,1,1,1,1,1,1,1,1.0,1.0
Offset,,0,0,0.141443,0,0,0,0,0,0,0,0.0,0.0
Gain,,1,1,25.011,13.1742,16.6938,1,1,1,1.00099,1.02845,1.0,1.0
Units,sec,C,C,Pa,%,%,%,%,%,g,/m,,
Baseline,,36.9075,39.4061,168.196,101.448,111.068,0.00156766,0.0629051,20.9665,-506.026,-0.817357,,
12,2.75,34.3082,36.2973,170.799,101.428,110.928,0.0016078,0.0638707,20.9663,33.2628,-0.807715,0.0,0.0
24,5.75,34.4777,36.2972,168.112,101.571,110.988,0.00168459,0.0636443,20.9657,33.2328,-0.799839,0.0,0.0
36,8.75,34.7091,36.767,171.89,101.714,111.108,0.00165284,0.0636106,20.9654,33.1327,-0.796981,0.0,0.0
48,11.75,35.1601,37.4513,164.387,101.812,111.234,0.00167283,0.0634178,20.9654,33.1527,-0.798419,0.0,0.0
60,14.75,35.6696,37.7937,166.387,101.879,111.196,0.00163543,0.0635312,20.967,32.9726,-0.78949,0.0,0.0
72,17.75,35.8547,38.0448,162.169,101.891,111.565,0.00150945,0.0649764,20.9663,33.2428,-0.818256,0.0,0.0
84,20.75,35.6798,38.0649,167.661,101.836,111.196,0.00156271,0.065042,20.9661,33.1227,-0.793294,0.0,0.0
96,23.75,35.9525,38.147,165.766,101.727,111.78,0.00174661,0.0642281,20.966,32.9525,-0.85016,0.0,0.0
108,26.75,36.3683,39.4912,169.475,101.584,111.135,0.00196274,0.0638129,20.966,33.0927,-0.810663,0.0,0.0
120,29.75,36.3921,38.9359,165.087,101.42,111.437,0.00222494,0.0783118,20.922,32.9726,-0.849763,0.0,1.0
132,32.75,37.6896,41.0913,159.751,101.222,108.823,0.00291813,0.176863,20.7999,32.6723,-0.653275,0.0,1.0
144,35.75,39.1697,44.2396,142.341,101.03,104.656,0.0040588,0.361377,20.5782,32.5321,-0.31812,0.0,0.0
156,38.75,43.9833,52.3722,146.148,100.857,103.042,0.00535307,0.544119,20.3503,32.0917,-0.193326,0.0,0.0
168,41.75,49.2424,60.8078,134.631,100.724,100.804,0.00656147,0.701304,20.1248,31.5912,-0.00716965,0.0,0.0
180,44.75,55.3552,69.5403,124.397,100.619,98.9899,0.00758652,0.840504,19.9395,30.9806,0.147302,0.0,0.0
192,47.75,60.2278,78.0608,140.576,100.588,99.641,0.00849913,0.945053,19.8078,30.36,0.0853461,0.0,0.0
204,50.75,65.2654,85.2393,132.782,100.625,97.3688,0.00948821,1.0335,19.6704,29.7794,0.296732,0.0,0.0
216,53.75,70.383,93.4889,124.228,100.719,96.6189,0.0106792,1.18215,19.4984,29.0587,0.374949,0.0,0.0
228,56.75,76.7383,103.193,123.881,100.859,95.1344,0.0115548,1.33151,19.3025,28.2979,0.527201,0.0,0.0
240,59.75,82.0098,111.415,120.695,101.048,94.4125,0.0123045,1.46594,19.1457,27.307,0.612804,0.0,0.0
252,62.75,86.8447,119.075,128.427,101.258,92.2478,0.013246,1.58175,19.0098,26.5662,0.840738,0.0,0.0
264,65.75,92.335,127.2,120.078,101.47,91.7353,0.0142164,1.66043,18.8987,25.5853,0.909858,0.0,0.0
276,68.75,96.3328,133.597,100.739,101.69,89.9537,0.0162455,1.81128,18.7015,24.5643,1.10632,0.0,0.0
288,71.75,102.515,142.896,119.642,101.829,92.4597,0.0182802,1.96998,18.5085,23.6934,0.870757,0.0,0.0
300,74.75,107.938,151.084,110.193,101.926,91.9126,0.0198811,2.08771,18.3513,22.6324,0.932884,0.0,0.0
312,77.75,113.988,160.092,109.652,101.956,91.1229,0.0212522,2.1795,18.2482,21.5313,1.01343,0.0,0.0
324,80.75,118.17,166.489,117.4,101.939,89.2293,0.0227578,2.22768,18.1797,20.3801,1.20139,0.0,0.0
336,83.75,122.835,173.547,101.171,101.855,90.4362,0.024781,2.36802,18.0336,19.5493,1.07274,0.0,0.0
348,86.75,128.895,182.805,108.897,101.717,88.6709,0.0267727,2.50148,17.8503,17.9878,1.23832,0.0,0.0
360,89.75,132.716,187.806,105.096,101.555,87.4696,0.0290696,2.66245,17.6454,17.0669,1.347,0.0,0.0
372,92.75,139.214,198.711,97.0254,101.375,91.3955,0.0311243,2.92943,17.3078,15.8356,0.934861,0.0,0.0
384,95.75,146.268,210.818,83.2658,101.223,91.7587,0.0326807,3.0978,17.1377,14.5644,0.885543,0.0,0.0
396,98.75,152.006,219.803,97.2841,101.375,90.319,0.0323198,3.07624,17.142,13.2431,1.04175,0.0,0.0
408,101.75,155.509,224.73,87.4463,101.452,92.9616,0.031257,3.05314,17.19,12.0719,0.788489,0.0,0.0
420,104.75,158.918,229.43,98.4703,101.409,88.2124,0.0305944,2.98392,17.2576,10.5404,1.25777,0.0,0.0
432,107.75,160.819,229.876,92.5511,101.36,90.0531,0.0310742,2.94745,17.2806,9.64953,1.0671,0.0,0.0
444,110.75,164.21,234.154,100.201,101.303,89.133,0.0312059,2.97656,17.2781,8.28818,1.15463,0.0,0.0
456,113.75,166.651,235.654,101.046,101.128,86.3147,0.0308192,2.94412,17.3298,6.90682,1.42886,0.0,0.0
468,116.75,167.336,236.16,88.8164,101.015,89.9385,0.0292967,2.89082,17.3858,5.92585,1.0478,0.0,0.0
480,119.75,168.571,235.889,108.111,101.221,88.9822,0.0269969,2.77537,17.5421,4.79473,1.16263,0.0,0.0
492,122.75,167.727,232.018,97.1048,101.432,89.4188,0.0237444,2.52323,17.8468,3.65361,1.13727,0.0,0.0
504,125.75,163.991,223.532,115.905,101.633,91.879,0.0207617,2.25111,18.1698,2.78275,0.910241,0.0,0.0
516,128.75,162.082,218.805,112.599,101.777,91.8779,0.0189217,2.07796,18.3448,2.07205,0.923073,0.0,0.0
528,131.75,158.971,212.076,106.856,101.855,94.9301,0.016496,1.86915,18.609,1.37135,0.635234,0.0,0.0
540,134.75,154.719,203.549,119.708,101.842,98.1386,0.0143617,1.59444,18.9788,0.670662,0.334215,0.0,0.0
552,137.75,150.948,195.265,120.278,101.751,97.702,0.0119925,1.36349,19.297,0.130129,0.366317,0.0,0.0
564,140.75,145.104,183.954,135.361,101.571,100.689,0.00961598,1.04651,19.7175,-0.280277,0.078696,0.0,0.0
576,143.75,137.383,170.134,138.885,101.34,104.055,0.00760704,0.736605,20.1201,-0.300297,-0.238521,0.0,0.0
588,146.75,129.457,156.349,151.593,101.06,106.623,0.00560172,0.463335,20.4857,-0.510504,-0.483449,0.0,0.0
600,149.75,120.95,142.798,157.836,100.816,108.521,0.00382355,0.278162,20.7126,-0.410405,-0.664417,0.0,0.0
612,152.75,113.799,131.382,153.712,100.648,109.253,0.00274483,0.177536,20.8195,-0.320316,-0.740123,0.0,0.0
624,155.75,106.323,119.211,154.774,100.595,109.804,0.00215414,0.123188,20.8914,-0.440435,-0.790285,0.0,0.0
636,158.75,100.506,111.465,157.165,100.665,109.893,0.00198801,0.0973056,20.9247,-0.430425,-0.791258,0.0,0.0
648,161.75,95.7047,104.015,157.841,100.84,109.779,0.00188638,0.0853776,20.9412,-0.600593,-0.76623,0.0,0.0
660,164.75,91.7369,97.528,156.234,101.116,110.157,0.00171107,0.0794045,20.9499,-0.490484,-0.772637,0.0,0.0
672,167.75,88.1472,92.1718,153.123,101.368,110.912,0.0016359,0.075583,20.955,-0.450445,-0.811719,0.0,0.0
684,170.75,85.276,87.91,155.499,101.598,111.413,0.00166265,0.0728116,20.9572,-0.350346,-0.832036,0.0,0.0
696,173.75,82.8981,84.4847,151.478,101.796,111.655,0.00162982,0.0710021,20.9589,-0.490484,-0.83395,0.0,0.0
708,176.75,80.5045,80.6307,155.511,101.945,111.481,0.00158715,0.0695605,20.96,-0.530524,-0.806652,0.0,0.0
720,179.75,78.9952,78.234,157.558,101.991,112.076,0.00166849,0.0684645,20.9611,-0.620613,-0.850657,0.0,0.0
732,182.75,76.4497,75.3389,159.408,101.931,111.464,0.00193986,0.0676179,20.9622,-0.500494,-0.806578,0.0,0.0
744,185.75,74.9129,73.2306,158.007,101.829,111.064,0.00201642,0.0672354,20.9628,-0.450445,-0.783188,0.0,0.0
756,188.75,74.1873,71.4529,157.453,101.65,111.34,0.00173538,0.0670756,20.9625,-0.510504,-0.821412,0.0,0.0
768,191.75,71.7773,69.8582,157.704,101.432,111.036,0.00153069,0.0668202,20.9625,-0.480474,-0.816214,0.0,0.0
780,194.75,70.6725,68.4541,160.583,101.253,110.275,0.00150217,0.0663028,20.9624,-0.460455,-0.77001,0.0,0.0
792,197.75,70.1521,66.5456,159.72,101.425,111.476,0.00150846,0.0658258,20.964,-0.310306,-0.852396,0.0,0.0
804,200.75,69.1674,65.9539,159,101.5,111.475,0.00147755,0.0655927,20.9655,-0.430425,-0.845705,0.0,0.0
816,203.75,68.0485,64.7775,155.379,101.414,111.019,0.00148475,0.065319,20.9653,-0.530524,-0.816303,0.0,0.0
828,206.75,66.7118,63.4163,160.876,101.323,111.028,0.00155207,0.0649508,20.9641,-0.530524,-0.825211,0.0,0.0
840,209.75,65.8559,62.5401,153.995,101.217,110.651,0.00154337,0.0648577,20.9638,-0.610603,-0.804019,0.0,0.0
852,212.75,65.378,61.3259,156.779,100.982,110.594,0.00142093,0.0647433,20.9637,-0.600593,-0.820317,0.0,0.0
864,215.75,64.6384,61.3098,159.662,101.106,110.385,0.00142679,0.0649209,20.9643,-0.420415,-0.792206,0.0,0.0
876,218.75,63.6876,60.7413,156.836,101.316,111.002,0.00144527,0.0650494,20.9645,-0.660652,-0.823709,0.0,0.0
888,221.75,63.3174,59.7617,160.572,101.516,111.504,0.0014134,0.0650999,20.9649,-0.540534,-0.84655,0.0,0.0
900,224.75,62.3506,59.0926,161.321,101.707,111.151,0.00135185,0.0652114,20.9651,-0.580573,-0.801096,0.0,0.0
912,227.75,61.4915,58.0768,158.958,101.818,111.812,0.00141107,0.0652888,20.9642,-0.440435,-0.844772,0.0,0.0
924,230.75,61.432,58.1473,155.715,101.866,111.546,0.00140066,0.0651119,20.9639,-0.600593,-0.81898,0.0,0.0
936,233.75,60.7005,57.4632,159.35,101.83,111.696,0.00142623,0.0652798,20.9647,-0.740731,-0.834255,0.0,0.0
948,236.75,60.7487,57.1574,161.133,101.725,111.415,0.00145436,0.0652946,20.9645,-0.630623,-0.820886,0.0,0.0
960,239.75,60.3083,57.1718,159.367,101.545,111.27,0.00142368,0.065364,20.9638,-0.480474,-0.825073,0.0,0.0
972,242.75,59.5071,56.3838,160.802,101.325,111.053,0.00135368,0.065369,20.9651,-0.500494,-0.827025,0.0,0.0
984,245.75,58.273,55.4777,159.064,101.11,111.234,0.00133009,0.065492,20.9663,-0.530524,-0.860948,0.0,0.0
996,248.75,58.6554,56.0682,166.163,100.917,110.561,0.00148312,0.0654083,20.9656,-0.430425,-0.823394,0.0,0.0
1008,251.75,57.8231,54.9809,156.836,100.761,110.518,0.00162193,0.0653098,20.965,-0.620613,-0.833899,0.0,0.0
1020,254.75,57.7239,54.8742,162.74,100.636,110.461,0.00170474,0.0650525,20.9661,-0.500494,-0.84037,0.0,0.0
1032,257.75,57.4552,54.4388,161.609,100.604,110.598,0.00165804,0.0649894,20.9668,-0.700692,-0.854439,0.0,0.0
1044,260.75,56.3254,54.0798,161.488,100.669,109.93,0.00138479,0.0649213,20.967,-0.490484,-0.793991,0.0,0.0
1056,263.75,56.4045,53.8428,160.867,100.788,110.704,,0.0649148,,-0.670662,-0.846576,0.0,0.0
1068,266.75,55.9992,53.5017,161.509,100.96,110.777,,,,-0.590583,-0.837085,0.0,0.0
1080,269.75,55.7974,53.5518,158.246,101.179,111.048,,,,-0.800791,-0.839609,0.0,0.0
1090,272.25,55.522,53.2861,161.782,101.372,111.075,,,,-0.700692,-0.824648,0.0,0.0