File: 01_Data/PMMA/Cone/PMMA_Cone_HF75Scan_220225_R2.csv
Names,Time,Stack TC,Smoke TC,Exh Press,Smoke Comp,Smoke Meas,CO Meter,CO2 Meter,O2 Meter,Sample Mass,Ext Coeff,Start Test,Flame Verif
Chan Gain,,500,500,1,1,1,1,1,1,1,1,1.0,1.0
Offset,,0,0,0.136092,0,0,0,0,0,0,0,0.0,0.0
Gain,,1,1,25.011,15.4219,15.1528,1,1,1,1.00089,1.02113,1.0,1.0
Units,sec,C,C,Pa,%,%,%,%,%,g,/m,,
Baseline,,45.4028,46.3004,151.007,115.635,111.536,-0.00917167,0.102459,20.7975,-0.120398,0.323424,,
10,2.25,41.1814,42.0885,152.244,115.311,110.01,-0.00905849,0.103899,20.8016,900.107,0.421558,0.0,0.0
20,4.75,41.2253,41.8484,152.093,115.58,111.361,-0.00900335,0.104447,20.7998,900.127,0.333023,0.0,0.0
30,7.25,40.7348,41.1498,148.856,115.97,112.051,-0.00891824,0.105108,20.7979,900.127,0.307885,0.0,0.0
40,9.75,41.1904,41.9904,152.044,116.195,111.584,-0.00899208,0.105211,20.798,900.157,0.362658,0.0,0.0
50,12.25,41.6054,42.3695,153.605,116.252,111.311,-0.00900688,0.104348,20.7983,900.127,0.389085,0.0,0.0
60,14.75,41.698,42.3388,152.275,116.178,111.994,-0.00884804,0.108389,20.7935,900.127,0.328487,0.0,0.0
70,17.25,41.5012,42.6102,138.797,115.993,108.129,-0.00811352,0.169128,20.679,899.887,0.628829,0.0,1.0
80,19.75,43.4592,44.3752,129.955,115.665,101.239,-0.00663838,0.353167,20.3932,899.557,1.19327,0.0,1.0
90,22.25,46.0589,46.9534,121.922,115.611,97.3503,-0.00449684,0.600503,20.0727,899.226,1.5399,0.0,0.0
100,24.75,50.0234,52.7355,118.907,115.765,93.6347,-0.00236198,0.835842,19.7223,898.726,1.90039,0.0,0.0
110,27.25,54.5634,58.4281,105.078,115.924,96.0042,-0.00084181,1.05568,19.4277,898.236,1.68884,0.0,0.0
120,29.75,59.7383,64.8239,106.572,116.094,94.6557,0.000455531,1.2381,19.2251,897.655,1.82866,0.0,0.0
130,32.25,64.8991,71.9758,96.8936,116.22,93.6365,0.00206044,1.43038,18.9876,897.055,1.93535,0.0,0.0
140,34.75,71.0796,79.116,91.5507,116.347,93.6125,0.00363998,1.61546,18.7594,896.374,1.94741,0.0,0.0
150,37.25,77.432,86.79,86.6886,116.422,94.2072,0.00519681,1.79661,18.5194,895.703,1.89644,0.0,0.0
160,39.75,84.0617,95.1331,101.985,116.464,91.7475,0.00667681,1.99228,18.2373,894.943,2.13668,0.0,0.0
170,42.25,89.6725,103.364,97.144,116.474,91.9103,0.00841101,2.21123,17.9664,894.082,2.12156,0.0,0.0
180,44.75,97.3135,113.346,90.9645,116.402,90.9364,0.0103908,2.43105,17.673,893.251,2.21147,0.0,0.0
190,47.25,104.651,123.111,84.1156,116.311,90.8069,0.0121967,2.6686,17.3628,892.35,2.21724,0.0,0.0
200,49.75,112.132,132.417,87.2618,116.181,91.4363,0.0140751,2.89175,17.094,891.369,2.14533,0.0,0.0
210,52.25,119.39,142.38,74.6098,116.004,90.099,0.0162456,3.16838,16.7317,890.439,2.26365,0.0,0.0
220,54.75,127.414,152.908,81.6571,115.793,90.049,0.0181592,3.42466,16.4618,889.338,2.25229,0.0,0.0
230,57.25,134.958,163.217,75.986,115.598,88.6229,0.0199021,3.66601,16.2141,888.147,2.38019,0.0,0.0
240,59.75,142.74,174.371,81.6151,115.353,89.8872,0.0208224,3.94247,15.8535,887.156,2.23433,0.0,0.0
250,62.25,150.634,185.367,63.8209,115.155,89.348,0.0215542,4.18034,15.5025,885.815,2.27279,0.0,0.0
260,64.75,158.332,196.141,73.9015,114.933,88.6076,0.0228933,4.46557,15.1741,884.613,2.3301,0.0,0.0
270,67.25,166.08,207.64,60.4114,114.732,87.3887,0.024757,4.69801,14.8655,883.492,2.43843,0.0,0.0
280,69.75,173.218,217.966,75.3799,114.547,85.7757,0.0267163,4.9428,14.5807,882.101,2.59088,0.0,0.0
290,72.25,180.531,228.735,72.7489,114.38,85.1422,0.0284204,5.15106,14.3439,880.81,2.64425,0.0,0.0
300,74.75,186.838,237.58,71.3552,114.266,84.1295,0.0299596,5.27689,14.1723,879.439,2.74246,0.0,0.0
310,77.25,194.156,247.146,81.4892,114.157,85.76,0.0309521,5.36957,14.0812,878.148,2.562,0.0,0.0
320,79.75,200.575,255.884,60.9655,114.125,87.7064,0.0310016,5.4416,14.005,876.756,2.35843,0.0,0.0
330,82.25,205.706,263.965,70.2584,114.083,85.5741,0.0309187,5.55435,13.8853,875.505,2.57556,0.0,0.0
340,84.75,212.16,272.057,75.9906,114.097,87.6425,0.0310052,5.56055,13.8596,874.174,2.36277,0.0,0.0
350,87.25,216.467,279.105,77.4606,114.145,87.5519,0.0311819,5.47674,13.989,872.883,2.37581,0.0,0.0
360,89.75,220.696,285.051,65.2253,114.221,86.6391,0.0308282,5.33495,14.1533,871.622,2.47563,0.0,0.0
370,92.25,224.062,289.443,68.2296,114.311,87.6943,0.0292077,5.06666,14.4968,870.461,2.37428,0.0,0.0
380,94.75,226.894,291.636,75.4502,114.455,87.4987,0.0266656,4.63786,15.1204,869.64,2.40556,0.0,0.0
390,97.25,227.264,292.245,80.3916,114.586,86.259,0.0238478,4.14267,15.709,868.689,2.54358,0.0,0.0
400,99.75,227.18,290.923,86.3299,114.763,86.5586,0.0204509,3.61981,16.2174,867.809,2.52634,0.0,0.0
410,102.25,225.768,287.353,96.0349,114.885,89.3679,0.0154421,3.09614,16.9357,867.138,2.24976,0.0,0.0
420,104.75,221.654,281.532,99.8734,115.034,93.1491,0.0100148,2.43955,17.792,866.698,1.89022,0.0,0.0
430,107.25,216.578,273.912,123.128,115.166,97.391,0.00457364,1.7631,18.6964,866.497,1.50163,0.0,0.0
440,109.75,209.055,263.064,136.737,115.299,104.289,-0.000121729,1.12815,19.5855,866.407,0.899024,0.0,0.0
450,112.25,200.576,251.136,142.691,115.423,106.886,-0.00379985,0.67227,20.1184,866.407,0.68835,0.0,0.0
460,114.75,191.542,238.992,142.676,115.527,106.403,-0.00597082,0.417922,20.4456,866.377,0.736928,0.0,0.0
470,117.25,183.002,227.628,141.334,115.599,106.428,-0.00713243,0.284912,20.6044,866.387,0.740447,0.0,0.0
480,119.75,175.72,217.428,139.027,115.657,106.892,-0.00782442,0.220201,20.6799,866.377,0.705942,0.0,0.0
490,122.25,169.266,208.349,142.147,115.709,106.915,-0.00817257,0.185592,20.7136,866.367,0.708012,0.0,0.0
500,124.75,162.387,198.983,141.335,115.735,107.224,-0.00844146,0.167138,20.7268,866.377,0.68421,0.0,0.0
510,127.25,156.464,190.77,144.133,115.74,107.028,-0.00875067,0.155811,20.7389,866.387,0.70093,0.0,0.0
520,129.75,150.849,183.234,138.36,115.723,106.964,-0.00891966,0.146629,20.7504,866.387,0.705001,0.0,0.0
530,132.25,145.741,176.091,145.993,115.718,106.466,-0.00902579,0.139497,20.7592,866.407,0.746477,0.0,0.0
540,134.75,140.842,169.108,144.084,115.698,106.798,-0.00911845,0.133986,20.767,866.387,0.716982,0.0,0.0
550,137.25,136.298,163.202,142.157,115.701,107.192,-0.00916471,0.128947,20.7719,866.357,0.684256,0.0,0.0
560,139.75,132.558,157.769,141.447,115.675,107.089,-0.00899869,0.124735,20.7774,866.347,0.690759,0.0,0.0
570,142.25,128.029,151.933,141.122,115.661,106.497,-0.00887536,0.121152,20.7799,866.357,0.739426,0.0,0.0
580,144.75,123.685,146.346,141.002,115.621,106.504,-0.00893636,0.117989,20.7809,866.367,0.735668,0.0,0.0
590,147.25,121.029,141.929,141.156,115.579,106.957,-0.00904838,0.115916,20.777,866.377,0.694427,0.0,0.0
600,149.75,117.474,137.609,140.672,115.542,106.046,-0.00917529,0.113967,20.7781,866.387,0.768201,0.0,0.0
610,152.25,114.849,133.55,140.749,115.51,106.793,-0.00902084,0.112316,20.7792,866.347,0.702897,0.0,0.0
620,154.75,111.894,129.403,140.187,115.469,106.867,-0.00872768,0.111031,20.7816,866.377,0.693444,0.0,0.0
630,157.25,108.915,125.923,148.159,115.432,106.752,-0.00875006,0.109889,20.783,866.367,0.700176,0.0,0.0
640,159.75,106.29,122.105,141.333,115.44,106.843,-0.00898764,0.109015,20.7845,866.377,0.693194,0.0,0.0
650,162.25,103.88,118.821,140.412,115.39,107.773,-0.00909675,0.108463,20.7851,866.367,0.611659,0.0,0.0
660,164.75,101.803,115.141,144.235,115.453,106.414,-0.00912485,0.107906,20.7864,866.377,0.730266,0.0,0.0
670,167.25,99.362,112.871,143.895,115.628,106.455,-0.00924676,0.107669,20.7872,866.357,0.7403,0.0,0.0
680,169.75,97.3392,109.558,145,115.79,107.175,-0.00938446,0.107452,20.7872,866.357,0.692533,0.0,0.0
690,172.25,95.4435,107.142,140.95,115.909,107.905,-0.00943931,0.107164,20.786,866.377,0.640921,0.0,0.0
700,174.75,94.1548,104.712,145.082,116.037,107.892,-0.00932272,0.106994,20.7853,866.377,0.651845,0.0,0.0
710,177.25,92.0241,102.305,144.317,116.116,107.077,-0.00926451,0.106688,20.7859,866.347,0.725922,0.0,0.0
720,179.75,89.7329,99.2578,143.364,116.191,107.154,-0.00931846,0.106596,20.7868,866.347,0.725273,0.0,0.0
730,182.25,88.8894,97.976,141.94,116.255,107.813,-0.00924685,0.106582,20.7873,866.327,0.67529,0.0,0.0
740,184.75,87.0683,95.4617,144.575,116.303,108.046,-0.00920445,0.106309,20.7888,866.357,0.65961,0.0,0.0
750,187.25,85.4405,93.3073,144.894,116.327,107.781,-0.00913841,0.106126,20.7893,866.347,0.683487,0.0,0.0
760,189.75,84.7353,92.1348,143.47,116.346,107.501,-0.00909971,0.105945,20.7882,866.337,0.708294,0.0,0.0
770,192.25,83.9505,90.4447,146.411,116.363,107.371,-0.0091004,0.105978,20.7881,866.347,0.720394,0.0,0.0
780,194.75,82.4382,88.7767,145.846,116.343,107.461,-0.00917332,0.10616,20.7882,866.307,0.71128,0.0,0.0
790,197.25,81.7053,87.0065,140.934,116.319,107.919,-0.0093183,0.106214,20.7883,866.357,0.671465,0.0,0.0
800,199.75,79.8454,85.8406,144.669,116.293,107.601,-0.00939015,0.106418,20.7883,866.347,0.695803,0.0,0.0
810,202.25,79.0838,84.1983,144.436,116.254,108.179,-0.00930424,0.106322,20.7885,866.337,0.644807,0.0,0.0
820,204.75,78.2435,83.3426,143.289,116.192,107.745,-0.00921373,0.106243,20.7889,866.327,0.676042,0.0,0.0
830,207.25,77.5291,81.4271,146.943,116.156,108.032,-0.00911973,0.105994,20.789,866.357,0.649445,0.0,0.0
840,209.75,76.4971,80.4561,142.879,116.084,107.384,-0.00902805,0.105921,20.7891,866.327,0.697804,0.0,0.0
850,212.25,75.4817,79.496,143.228,116.037,107.497,-0.00901891,0.10606,20.789,866.317,0.684727,0.0,0.0
860,214.75,74.7016,78.9048,144.798,115.953,107.707,-0.00912334,0.106005,20.7854,866.337,0.660781,0.0,0.0
870,217.25,73.9846,77.4279,145.991,115.887,108.137,-0.00924276,0.106037,20.7839,866.337,0.61996,0.0,0.0
880,219.75,73.6724,76.8971,146.899,115.794,107.35,-0.00919878,0.106073,20.7844,866.327,0.678224,0.0,0.0
890,222.25,72.365,75.808,143.005,115.733,107.573,,0.105818,,866.317,0.654873,0.0,0.0
900,224.75,72.4505,74.7248,144.049,115.673,107.286,,,,866.317,0.674226,0.0,0.0
910,227.25,71.3266,74.5292,146.526,115.688,107.743,,,,866.327,0.637329,0.0,0.0
920,229.75,71.1884,73.1666,145.899,115.716,107.463,,,,866.297,0.662769,0.0,0.0
930,232.25,70.5783,72.2384,148.675,115.729,107.637,,,,866.297,0.649307,0.0,0.0
931,232.5,70.622,72.4609,144.844,115.73,107.13,,,,866.317,0.691654,0.0,0.0