File: 01_Data/PMMA/Cone/PMMA_Cone_HF50Scalar_210826_R3.csv
LABORATORY,FSRI
TEST IDENT,PMMA_HF50_3
OPERATOR,Dow
MATERIAL,"PMMA, clear, 0.12 in. thick"
ORIENTATION,Horizontal
HEAT FLUX,50
SURF AREA,0.01
C FACTOR,0.0366558
SPEC HOLDER DIFF,-61.2
SPECIMEN MASS,33.3
SCAN TIME,0.25
O2 DELAY TIME,11
CO DELAY TIME,11
CO2 DELAY TIME,8
FLOW FACTOR,1
SCAN COUNT,1104
TIME TO IGN,30
END OF TEST SCAN,624
END OF TEST TIME,156
TEST STATUS,1
PRE TEST CMT,no retainer frame or grid