File: 01_Data/PMMA/Cone/PMMA_Cone_HF25Scan_220225_R2.csv
Names,Time,Stack TC,Smoke TC,Exh Press,Smoke Comp,Smoke Meas,CO Meter,CO2 Meter,O2 Meter,Sample Mass,Ext Coeff,Start Test,Flame Verif
Chan Gain,,500,500,1,1,1,1,1,1,1,1,1.0,1.0
Offset,,0,0,0.136092,0,0,0,0,0,0,0,0.0,0.0
Gain,,1,1,25.011,15.4219,15.1528,1,1,1,1.00089,1.02113,1.0,1.0
Units,sec,C,C,Pa,%,%,%,%,%,g,/m,,
Baseline,,20.6247,20.6987,165.244,115.557,114.833,-0.00913272,0.109598,20.7725,0.00246051,0.0563425,,
17,4,18.0916,18.0536,166.597,114.189,113.805,-0.00933004,0.114258,20.7688,899.206,0.0301409,0.0,0.0
34,8.25,18.247,18.5371,164.988,114.097,113.665,-0.0092259,0.114323,20.7648,899.176,0.0339733,0.0,0.0
51,12.5,17.631,18.3235,165.886,114.024,113.787,-0.00910617,0.113206,20.7642,899.146,0.0186306,0.0,0.0
68,16.75,18.4798,18.3264,165.496,113.953,113.608,-0.00911322,0.111999,20.7691,899.146,0.0271447,0.0,0.0
85,21,18.2303,18.5371,164.061,113.87,113.318,-0.00913968,0.110374,20.7738,899.146,0.0434824,0.0,0.0
102,25.25,18.4403,18.2626,166.6875,113.817,113.226,-0.00931941,0.109047,20.7764,899.136,0.0465751,0.0,0.0
119,29.5,18.0797,18.9908,167.2,113.797,113.146,-0.00919288,0.108553,20.7777,899.136,0.0513508,0.0,0.0
136,33.75,19.0627,18.6148,168.665,113.746,113.338,-0.00926491,0.108215,20.7798,899.126,0.032169,0.0,0.0
153,38,19.2523,19.1855,160.76,113.731,113.341,-0.00896852,0.107896,20.7807,899.096,0.0307645,0.0,0.0
170,42.25,18.8402,18.8159,166.384,113.765,113.18,-0.00917352,0.108885,20.7814,899.096,0.0461587,0.0,0.0
187,46.5,18.3828,18.9946,159.604,113.835,113.415,-0.00913882,0.108877,20.7831,899.116,0.0331063,0.0,0.0
204,50.75,18.8771,18.9469,162.013,113.925,113.535,-0.00899606,0.107488,20.7856,899.086,0.0306868,0.0,0.0
221,55,19.1322,19.4554,163.312,114.053,113.556,-0.00909325,0.106623,20.7843,899.106,0.0391044,0.0,0.0
238,59.25,19.1182,19.5371,163.386,114.209,114.012,-0.00924277,0.106862,20.784,899.066,0.0154376,0.0,0.0
255,63.5,18.8349,19.5786,167.149,114.395,113.834,-0.00936566,0.106723,20.7865,899.096,0.0440764,0.0,0.0
272,67.75,19.336,19.6243,162.628,114.618,114.027,-0.00919035,0.106651,20.7874,899.076,0.0462936,0.0,0.0
289,72,19.1157,19.7075,164.637,114.825,114.425,-0.00924277,0.106374,20.7878,899.066,0.031204,0.0,0.0
306,76.25,19.0797,19.7944,166.68,115.06,114.24,-0.0095138,0.106521,20.787,899.056,0.0640692,0.0,0.0
323,80.5,19.4621,19.5137,167.35,115.26,114.68,-0.00921741,0.106987,20.7844,899.046,0.045176,0.0,0.0
340,84.75,18.9271,19.5402,163.373,115.469,114.95,-0.00900535,0.107551,20.7824,899.026,0.0403322,0.0,0.0
357,89,19.517,19.5109,165.24,115.649,115.403,-0.00906849,0.108894,20.7767,899.006,0.0191324,0.0,0.0
374,93.25,19.4308,19.9436,164.188,115.806,114.988,-0.00892817,0.116129,20.7609,898.936,0.0634797,0.0,0.0
391,97.5,20.1261,20.5871,149.303,115.967,112.762,-0.00841438,0.18614,20.6474,898.776,0.251031,0.0,1.0
408,101.75,21.9389,22.3747,145.02,116.093,106.582,-0.00729941,0.317386,20.4485,898.476,0.765668,0.0,0.0
425,106,24.864,25.9065,142.347,116.173,106.514,-0.00630348,0.449742,20.2854,898.095,0.777518,0.0,0.0
442,110.25,28.4399,30.296,134.979,116.239,105.502,-0.00567503,0.572613,20.1191,897.605,0.868127,0.0,0.0
459,114.5,33.1507,35.4455,138.016,116.268,105.41,-0.00500386,0.66976,19.9903,897.145,0.878154,0.0,0.0
476,118.75,37.6071,41.0874,136.086,116.272,104.695,-0.00434638,0.754034,19.883,896.584,0.939399,0.0,0.0
493,123,40.8014,45.9349,132.162,116.259,101.775,-0.00379214,0.823215,19.7801,895.913,1.19185,0.0,0.0
510,127.25,46.3601,52.0497,129.495,116.229,103.11,-0.00322717,0.894596,19.6949,895.273,1.0728,0.0,0.0
527,131.5,51.3083,57.6612,127.123,116.162,102.052,-0.00294433,0.960132,19.6146,894.552,1.15999,0.0,0.0
544,135.75,55.5908,63.4938,131.258,116.08,100.807,-0.00248467,1.02785,19.5151,893.862,1.26365,0.0,0.0
561,140,60.3552,68.7422,119.046,116.005,100.493,-0.00209968,1.09594,19.4311,893.071,1.28578,0.0,0.0
578,144.25,65.0345,73.872,117.849,115.928,102.283,-0.00173392,1.15556,19.3469,892.34,1.12167,0.0,0.0
595,148.5,69.6849,79.8569,115.54,115.845,100.562,-0.00136243,1.21668,19.2653,891.47,1.26728,0.0,0.0
612,152.75,74.3415,86.2346,115.697,115.773,101.157,-0.00092975,1.297,19.1662,890.729,1.20886,0.0,0.0
629,157,78.9827,92.2237,115.228,115.681,100.966,-0.000348111,1.35908,19.0931,889.738,1.2186,0.0,0.0
646,161.25,84.0082,97.7795,108.44,115.591,99.0252,-5.9309e-05,1.41047,19.0217,888.837,1.38554,0.0,0.0
663,165.5,88.25,103.302,112.206,115.535,100.015,0.000159336,1.47374,18.9456,887.926,1.29208,0.0,0.0
680,169.75,92.1915,108.14,116.308,115.464,97.6763,0.000151686,1.49069,18.9261,886.945,1.49857,0.0,0.0
697,174,95.9711,112.86,111.22,115.419,99.7734,0.000211099,1.50346,18.9127,886.035,1.30475,0.0,0.0
714,178.25,99.6478,117.493,106.546,115.567,99.0992,0.000538909,1.52149,18.8937,885.114,1.37702,0.0,0.0
731,182.5,102.442,120.713,107.088,115.758,99.409,0.000951639,1.51961,18.8957,884.113,1.36382,0.0,0.0
748,186.75,105.255,124.506,114.25,115.906,99.951,0.000724661,1.52488,18.8885,883.272,1.32655,0.0,0.0
765,191,107.995,127.494,107.428,116.02,98.9716,0.000869003,1.53196,18.8828,882.281,1.42355,0.0,0.0
782,195.25,110.81,130.702,119.513,116.122,100.691,0.00073324,1.53466,18.8723,881.381,1.27716,0.0,0.0
799,199.5,113.34,133.28,109.44,116.184,99.7244,0.000753688,1.54823,18.8562,880.35,1.36835,0.0,0.0
816,203.75,115.362,136.085,108.356,116.192,99.9149,0.000873092,1.55813,18.8455,879.439,1.3519,0.0,0.0
833,208,117.35,138.393,108.792,116.199,99.8788,0.000947371,1.58029,18.8186,878.458,1.35568,0.0,0.0
850,212.25,119.546,141.03,110.608,116.193,97.9232,0.00119034,1.58668,18.809,877.537,1.5323,0.0,0.0
867,216.5,121.04,142.792,102.048,116.154,99.2666,0.00134358,1.60272,18.7842,876.556,1.40724,0.0,0.0
884,220.75,123.022,145.044,117.326,116.125,98.8869,0.0011038,1.6217,18.7594,875.565,1.43931,0.0,0.0
901,225,124.053,146.314,105.104,116.091,100.19,0.000992426,1.62788,18.7549,874.655,1.31947,0.0,0.0
918,229.25,126.28,148.76,111.576,116.016,98.455,0.00143029,1.61404,18.7746,873.634,1.47013,0.0,0.0
935,233.5,127.789,150.445,108.768,115.983,99.4733,0.00146592,1.61098,18.7833,872.673,1.37546,0.0,0.0
952,237.75,128.918,151.363,111.291,115.927,98.6344,0.00118613,1.58872,18.8101,871.732,1.44692,0.0,0.0
969,242,130.115,152.662,113.151,115.837,100.554,0.000794921,1.56373,18.8465,870.801,1.2674,0.0,0.0
986,246.25,130.022,152.52,107.981,115.742,99.4886,0.000512235,1.49851,18.9283,869.95,1.35542,0.0,0.0
1003,250.5,129.983,152.244,111.315,115.683,98.2164,-0.00011345,1.43478,19.0226,869.13,1.46614,0.0,0.0
1020,254.75,129.489,151.812,124.623,115.562,96.0939,-0.000197977,1.35519,19.1227,868.359,1.65246,0.0,0.0
1037,259,127.661,148.712,120.958,115.452,98.4985,-0.000770458,1.21539,19.3303,867.658,1.4225,0.0,0.0
1054,263.25,124.059,144.676,125.179,115.347,97.7956,-0.00188636,1.00712,19.621,867.088,1.4785,0.0,0.0
1071,267.5,120.598,140.045,135.289,115.376,99.6934,-0.00286295,0.824551,19.8508,866.608,1.30861,0.0,0.0
1088,271.75,115.994,133.403,142.005,115.363,102.031,-0.00389731,0.642921,20.0888,866.277,1.10002,0.0,0.0
1105,276,110.637,127.106,144.186,115.399,104.61,-0.00586365,0.475768,20.3426,866.047,0.879171,0.0,0.0
1122,280.25,104.215,119.747,151.64,115.392,108.83,-0.00723135,0.334763,20.5233,865.947,0.52445,0.0,0.0
1139,284.5,97.6941,111.376,154.084,115.401,110.768,-0.0081978,0.22661,20.6657,865.937,0.367076,0.0,0.0
1156,288.75,91.6468,103.425,162.481,115.424,112.332,-0.00897953,0.161452,20.7417,865.927,0.243246,0.0,0.0
1173,293,86.761,97.0615,157.881,115.428,111.421,-0.00905671,0.131927,20.7672,865.927,0.316511,0.0,0.0
1190,297.25,80.5688,90.9727,160.925,115.439,112.16,-0.00900053,0.120444,20.7772,865.937,0.258179,0.0,0.0
1207,301.5,76.3569,85.3501,157.861,115.45,111.041,-0.00921145,0.115325,20.7805,865.957,0.348763,0.0,0.0
1224,305.75,72.2898,80.0042,156.323,115.478,112.228,-0.00950379,0.112855,20.7807,865.957,0.255634,0.0,0.0
1241,310,69.0393,75.8334,155.146,115.47,112.084,-0.00961234,0.111427,20.7814,865.937,0.26661,0.0,0.0
1258,314.25,65.1847,71.3793,157.013,115.465,112.497,-0.00951648,0.110202,20.7839,865.957,0.233268,0.0,0.0
1275,318.5,62.3314,67.5197,160.713,115.482,112.52,-0.00947478,0.10898,20.7834,865.957,0.232742,0.0,0.0
1292,322.75,59.813,64.1166,159.136,115.501,112.472,-0.00928024,0.108273,20.784,865.947,0.238068,0.0,0.0
1309,327,56.7822,61.0447,162.723,115.49,113.188,-0.00928013,0.108076,20.7829,865.947,0.180326,0.0,0.0
1326,331.25,54.4652,58.7642,160.939,115.503,112.123,-0.00925796,0.10735,20.785,865.947,0.266061,0.0,0.0
1343,335.5,53.1853,55.8975,157.329,115.512,112.441,-0.00925212,0.106888,20.7862,865.957,0.241338,0.0,0.0
1360,339.75,50.9011,53.1774,160.116,115.509,112.157,-0.00933754,0.10645,20.7891,865.947,0.263803,0.0,0.0
1377,344,48.7787,51.1804,156.12,115.525,113.056,-0.00934769,0.106289,20.7888,865.967,0.193499,0.0,0.0
1394,348.25,47.7196,49.1567,161.592,115.537,113.209,-0.00966253,0.106129,20.7879,865.957,0.182366,0.0,0.0
1411,352.5,46.2149,47.6002,157.965,115.534,113.419,-0.00969092,0.106048,20.7897,865.957,0.165515,0.0,0.0
1428,356.75,45.0821,45.6436,160.449,115.55,113.515,-0.00967519,0.105769,20.7895,865.967,0.159125,0.0,0.0
1445,361,43.4743,44.1581,158.671,115.561,113.86,-0.00969179,0.106051,20.7874,865.947,0.132822,0.0,0.0
1462,365.25,41.6608,42.078,160.316,115.582,113.587,-0.00950598,0.10674,20.7839,865.947,0.155989,0.0,0.0
1479,369.5,41.0531,40.631,162.398,115.565,113.066,-0.00952975,0.107413,20.7816,865.957,0.19583,0.0,0.0
1496,373.75,39.4319,39.7933,160.757,115.587,113.413,-0.00951696,0.107641,20.7804,865.947,0.170075,0.0,0.0
1513,378,39.7915,39.5117,155.594,115.585,113.522,-0.00945282,0.107227,20.7821,865.957,0.161314,0.0,0.0
1530,382.25,38.7032,38.3174,154.347,115.57,113.43,-0.0095058,0.106909,20.7843,865.957,0.16741,0.0,0.0
1547,386.5,38.3588,37.6777,161.784,115.583,112.821,-0.00942405,0.106848,20.7833,865.947,0.216691,0.0,0.0
1564,390.75,37.5817,36.8032,160.412,115.59,113.706,-0.0094407,0.10716,20.7821,865.927,0.147169,0.0,0.0
1581,395,36.9598,35.4013,164.218,115.58,113.721,,0.10703,,865.947,0.145274,0.0,0.0
1598,399.25,36.2503,35.0614,159.299,115.589,113.409,,,,865.967,0.170514,0.0,0.0
1615,403.5,35.4536,34.1591,159.729,115.594,114.108,,,,865.957,0.115897,0.0,0.0
1624,405.75,35.6002,34.3746,157.655,115.597,113.394,,,,865.967,0.172339,0.0,0.0