File: 01_Data/PMMA/Cone/PMMA_Cone_HF15-noSparkScalar_210827_R3.csv
LABORATORY,FSRI
TEST IDENT,PMMA_NoSpark_HF15_3
OPERATOR,Dow
MATERIAL,"PMMA, clear, 0.12 in."
ORIENTATION,Horizontal
HEAT FLUX,15
SURF AREA,0.01
C FACTOR,0.0367036
SPEC HOLDER DIFF,-57.7
SPECIMEN MASS,33.3
SCAN TIME,0.25
O2 DELAY TIME,11
CO DELAY TIME,11
CO2 DELAY TIME,8
FLOW FACTOR,1
SCAN COUNT,5284
TIME TO IGN,0
END OF TEST SCAN,4804
END OF TEST TIME,1201
TEST STATUS,1
PRE TEST CMT,no spark ignitor. end test at 20 min