File: 01_Data/PMMA/Cone/PMMA_Cone_HF75Scan_220225_R3.csv
Names,Time,Stack TC,Smoke TC,Exh Press,Smoke Comp,Smoke Meas,CO Meter,CO2 Meter,O2 Meter,Sample Mass,Ext Coeff,Start Test,Flame Verif
Chan Gain,,500,500,1,1,1,1,1,1,1,1,1.0,1.0
Offset,,0,0,0.136092,0,0,0,0,0,0,0,0.0,0.0
Gain,,1,1,25.011,15.4219,15.1528,1,1,1,1.00089,1.02113,1.0,1.0
Units,sec,C,C,Pa,%,%,%,%,%,g,/m,,
Baseline,,46.1187,47.0268,150.616,115.968,111.438,-0.00907406,0.114241,20.7598,-0.218485,0.357036,,
10,2.25,41.7912,42.5035,150.37,115.51,110.689,-0.00919006,0.11268,20.7651,510.452,0.381869,0.0,0.0
20,4.75,41.3425,41.9286,149.54,115.512,110.852,-0.00914581,0.112975,20.7649,510.482,0.368815,0.0,0.0
30,7.25,41.8816,41.8146,149.099,115.534,110.896,-0.00916354,0.113376,20.7638,510.462,0.366945,0.0,0.0
40,9.75,41.8667,42.2755,150.366,115.54,111.573,-0.0091784,0.113384,20.7642,510.472,0.312941,0.0,0.0
50,12.25,42.1811,42.9005,150.792,115.546,110.949,-0.00906563,0.11321,20.7646,510.442,0.363599,0.0,0.0
60,14.75,42.2673,43.168,152.309,115.56,110.814,-0.00862325,0.122066,20.7548,510.402,0.375602,0.0,0.0
70,17.25,42.7968,43.3199,140.229,115.559,105.949,-0.0077445,0.194335,20.6501,510.362,0.777757,0.0,1.0
80,19.75,44.5058,45.2565,127.752,115.561,100.9,-0.00630353,0.377756,20.3873,509.952,1.21521,0.0,1.0
90,22.25,47.0114,48.2931,127.9,115.582,100.664,-0.00490596,0.559814,20.1456,509.601,1.23778,0.0,0.0
100,24.75,50.209,52.5358,121.518,115.592,98.5091,-0.00337853,0.767778,19.8378,509.171,1.43241,0.0,0.0
110,27.25,54.2174,57.8813,114.426,115.616,96.5961,-0.00188773,0.960027,19.5577,508.681,1.60997,0.0,0.0
120,29.75,59.1514,63.8754,111.147,115.607,95.4312,-0.000249505,1.14584,19.3491,508.15,1.71791,0.0,0.0
130,32.25,64.4753,69.7707,105.3,115.622,93.4927,0.00118237,1.3074,19.1104,507.62,1.90286,0.0,0.0
140,34.75,69.7129,76.5993,98.8835,115.643,94.9845,0.00248644,1.44973,18.9226,506.959,1.76275,0.0,0.0
150,37.25,74.7492,83.3426,101.943,115.636,94.0962,0.00410958,1.60113,18.7302,506.338,1.84636,0.0,0.0
160,39.75,80.6568,90.326,101.921,115.665,93.4247,0.00594881,1.75583,18.5179,505.638,1.91277,0.0,0.0
170,42.25,86.917,98.1769,88.4777,115.647,91.403,0.00723678,1.93313,18.3315,504.927,2.10731,0.0,0.0
180,44.75,91.9821,105.688,84.092,115.668,91.5861,0.0088132,2.124,18.108,504.177,2.09103,0.0,0.0
190,47.25,99.1856,114.542,100.578,115.655,91.1783,0.0105352,2.34083,17.7854,503.326,2.13002,0.0,0.0
200,49.75,105.598,123.384,83.6859,115.676,90.2368,0.0119012,2.54269,17.5366,502.465,2.22456,0.0,0.0
210,52.25,112.237,132.313,80.2733,115.678,91.1736,0.0130422,2.74536,17.2793,501.544,2.13226,0.0,0.0
220,54.75,119.185,141.625,83.073,115.696,89.329,0.0142804,2.93509,17.0235,500.613,2.31669,0.0,0.0
230,57.25,126.787,150.008,85.3834,115.692,90.6798,0.0164937,3.1692,16.7505,499.492,2.18197,0.0,0.0
240,59.75,133.536,159.989,76.5088,115.692,88.2053,0.0190062,3.39119,16.4506,498.552,2.42979,0.0,0.0
250,62.25,140.397,169.594,76.5134,115.716,88.3149,0.0207809,3.63348,16.1631,497.471,2.42049,0.0,0.0
260,64.75,147.679,179.543,73.2214,115.721,89.661,0.0220475,3.8624,15.9345,496.37,2.28543,0.0,0.0
270,67.25,155.064,189.555,77.8232,115.734,86.2044,0.0235781,4.11994,15.6042,495.199,2.63857,0.0,0.0
280,69.75,162.117,200.358,68.5975,115.739,88.0208,0.0246981,4.37391,15.2722,493.917,2.45219,0.0,0.0
290,72.25,169.161,210.151,70.2591,115.747,85.9635,0.025573,4.56182,15.0576,492.786,2.66462,0.0,0.0
300,74.75,175.577,219.011,82.0548,115.758,87.114,0.0265631,4.64776,14.9682,491.655,2.54641,0.0,0.0
310,77.25,181.691,227.929,79.739,115.777,86.0749,0.0276174,4.66567,14.9159,490.504,2.65534,0.0,0.0
320,79.75,187.97,235.819,77.6515,115.768,86.2409,0.0283157,4.72607,14.8308,489.153,2.63743,0.0,0.0
330,82.25,193.331,242.879,83.0478,115.785,85.7433,0.0283711,4.78451,14.7712,487.982,2.69053,0.0,0.0
340,84.75,197.606,250.577,66.1428,115.782,86.3926,0.0287398,4.84114,14.7017,486.751,2.62275,0.0,0.0
350,87.25,203.339,257.186,77.8011,115.781,87.0691,0.0295653,4.94743,14.5876,485.53,2.55277,0.0,0.0
360,89.75,208.221,263.902,68.1471,115.771,88.1433,0.0300643,5.05844,14.4519,484.279,2.4422,0.0,0.0
370,92.25,213.007,271.405,75.5463,115.784,88.4083,0.0296049,5.11604,14.3985,483.068,2.41634,0.0,0.0
380,94.75,217.38,276.965,82.2861,115.788,85.4765,0.0293643,5.04453,14.4783,481.867,2.7187,0.0,0.0
390,97.25,221.108,281.362,70.8324,115.78,85.9108,0.0288205,4.96713,14.5785,480.716,2.67266,0.0,0.0
400,99.75,223.416,285.071,77.1027,115.8,89.6282,0.0273361,4.72453,14.8829,479.625,2.29479,0.0,0.0
410,102.25,226.314,286.924,79.3162,115.783,85.5898,0.0240517,4.26014,15.5661,478.704,2.70648,0.0,0.0
420,104.75,225.886,286.716,92.0087,115.804,89.9232,0.0188171,3.64599,16.3108,477.943,2.26564,0.0,0.0
430,107.25,223.688,282.644,104.652,115.783,92.234,0.0125656,2.84025,17.32,477.453,2.03681,0.0,0.0
440,109.75,218.499,275.388,130.007,115.813,99.2846,0.00601919,1.9565,18.4212,477.273,1.37926,0.0,0.0
450,112.25,210.619,264.231,133.168,115.798,103.487,0.000639052,1.20971,19.282,477.213,1.00676,0.0,0.0
460,114.75,201.507,251.534,135.036,115.813,105.017,-0.00327566,0.741091,19.9412,477.173,0.876523,0.0,0.0
470,117.25,192.791,240.222,141.814,115.798,106.517,-0.00531204,0.478658,20.3139,477.143,0.748351,0.0,0.0
480,119.75,185.143,229.458,139.674,115.836,107.251,-0.00653095,0.336845,20.5002,477.133,0.689723,0.0,0.0
490,122.25,176.899,218.118,140.919,115.806,107.362,-0.00741086,0.25461,20.6171,477.163,0.678168,0.0,0.0
500,124.75,169.566,208.894,143.601,115.807,106.513,-0.00804481,0.205088,20.6802,477.133,0.749354,0.0,0.0
510,127.25,162.96,199.813,146.509,115.821,107.137,-0.00857779,0.178157,20.7152,477.173,0.698105,0.0,0.0
520,129.75,157.133,191.309,143.369,115.814,107.128,-0.00880368,0.160417,20.7355,477.173,0.69833,0.0,0.0
530,132.25,151.077,183.936,141.459,115.8,107.093,-0.00884719,0.149096,20.7492,477.153,0.700175,0.0,0.0
540,134.75,145.489,175.683,140.863,115.797,107.457,-0.00884251,0.141617,20.7541,477.153,0.669496,0.0,0.0
550,137.25,140.821,169.081,142.367,115.811,107.184,-0.00875611,0.13609,20.7564,477.133,0.693396,0.0,0.0
560,139.75,135.96,163.112,141.312,115.806,107.353,-0.00864333,0.131594,20.7593,477.173,0.678938,0.0,0.0
570,142.25,131.97,156.676,143.477,115.807,106.726,-0.0086783,0.127455,20.7644,477.103,0.731484,0.0,0.0
580,144.75,127.87,151.824,142.532,115.798,106.628,-0.00880154,0.124094,20.7666,477.103,0.738989,0.0,0.0
590,147.25,124.602,146.756,147.51,115.815,106.452,-0.00891774,0.121727,20.7695,477.113,0.755107,0.0,0.0
600,149.75,120.73,141.869,141.98,115.798,107.072,-0.00893532,0.119649,20.7713,477.113,0.701769,0.0,0.0
610,152.25,117.486,136.974,141.893,115.801,107.549,-0.00904146,0.118018,20.7714,477.143,0.662231,0.0,0.0
620,154.75,113.991,132.948,140.771,115.796,107.189,-0.00939912,0.116974,20.7715,477.133,0.691769,0.0,0.0
630,157.25,111.154,128.908,141.92,115.811,107.635,-0.0096478,0.116243,20.7701,477.113,0.65576,0.0,0.0
640,159.75,108.266,125.007,141.08,115.786,107.607,-0.00966252,0.115677,20.7661,477.123,0.65614,0.0,0.0
650,162.25,105.477,121.051,144.066,115.798,107.213,-0.00947438,0.115343,20.7644,477.113,0.689978,0.0,0.0
660,164.75,103.362,118.138,144.618,115.773,107.206,-0.00930074,0.115089,20.7633,477.093,0.688555,0.0,0.0
670,167.25,100.632,114.542,143.91,115.782,107.573,-0.00924641,0.114989,20.763,477.103,0.658735,0.0,0.0
680,169.75,98.9232,111.047,146.288,115.76,106.874,-0.00921909,0.114618,20.7616,477.113,0.715431,0.0,0.0
690,172.25,96.5658,108.682,141.609,115.76,108.836,-0.00915496,0.114287,20.7621,477.113,0.552516,0.0,0.0
700,174.75,94.552,105.541,145.423,115.758,107.793,-0.00917474,0.113487,20.7634,477.143,0.638494,0.0,0.0
710,177.25,92.4786,102.788,143.757,115.742,107.799,-0.00922228,0.112742,20.7654,477.113,0.636794,0.0,0.0
720,179.75,90.9774,101.666,142.772,115.744,108.151,-0.00928564,0.112,20.7668,477.123,0.607781,0.0,0.0
730,182.25,89.5809,98.9205,146.877,115.724,107.58,-0.00925886,0.111401,20.7669,477.123,0.653604,0.0,0.0
740,184.75,87.7279,96.7449,144.902,115.721,107.963,-0.00931243,0.110875,20.7687,477.093,0.62156,0.0,0.0
750,187.25,86.0818,94.5201,146.576,115.688,107.326,-0.00954263,0.110552,20.7705,477.133,0.672073,0.0,0.0
760,189.75,84.7439,92.6835,150.3,115.678,107.877,-0.0097476,0.110436,20.7712,477.083,0.625387,0.0,0.0
770,192.25,83.4622,90.6188,146.91,115.651,107.769,-0.00974054,0.110602,20.7714,477.103,0.632258,0.0,0.0
780,194.75,82.0919,88.7692,146.551,115.644,107.901,-0.00963503,0.11065,20.7715,477.073,0.620803,0.0,0.0
790,197.25,80.6559,87.1706,147.171,115.606,107.81,-0.00944694,0.110352,20.7731,477.103,0.625338,0.0,0.0
800,199.75,79.8064,85.797,149.501,115.61,107.155,-0.00935196,0.109889,20.7751,477.103,0.680237,0.0,0.0
810,202.25,78.914,84.3689,148.59,115.576,108.049,-0.00939232,0.109363,20.7771,477.103,0.603163,0.0,0.0
820,204.75,77.1555,82.6865,142.579,115.568,107.71,-0.00935444,0.108791,20.778,477.093,0.6308,0.0,0.0
830,207.25,76.4381,81.3698,141.608,115.531,107.426,-0.00929185,0.108338,20.779,477.083,0.651486,0.0,0.0
840,209.75,75.2663,80.1138,141.904,115.512,107.811,-0.0092541,0.108507,20.7794,477.133,0.61804,0.0,0.0
850,212.25,75.287,78.82,145.214,115.479,107.698,-0.00920704,0.108844,20.7795,477.113,0.624829,0.0,0.0
860,214.75,74.3323,77.9457,144.585,115.448,107.625,-0.00913388,0.109031,20.7795,477.093,0.628497,0.0,0.0
870,217.25,73.2039,76.7174,145.442,115.43,108.08,-0.00912207,0.109062,20.7795,477.083,0.589244,0.0,0.0
880,219.75,72.8167,75.5823,145.186,115.387,107.12,-0.00915527,0.109428,20.7795,477.083,0.665875,0.0,0.0
890,222.25,72.5088,74.7523,148.116,115.362,106.939,-0.00899679,0.109785,20.7795,477.083,0.679145,0.0,0.0
900,224.75,71.2009,73.7906,144.811,115.308,107.411,-0.0088879,0.109697,20.7791,477.103,0.635446,0.0,0.0
910,227.25,70.6271,72.6464,146.667,115.277,108.425,-0.00895297,0.109323,20.7795,477.093,0.548935,0.0,0.0
920,229.75,70.1399,71.7824,144.185,115.213,107.938,-0.00911241,0.109036,20.7799,477.103,0.584279,0.0,0.0
930,232.25,69.0398,71.0916,143.564,115.177,107.47,,0.108458,,477.113,0.620381,0.0,0.0
940,234.75,68.7418,69.9665,145.736,115.099,108.462,,,,477.103,0.532008,0.0,0.0
950,237.25,68.0633,69.9188,141.246,115.068,107.458,,,,477.093,0.612887,0.0,0.0
960,239.75,67.7188,68.841,145.085,115.006,108.334,,,,477.073,0.5353,0.0,0.0
968,241.75,67.8109,68.4974,147.433,114.978,107.636,,,,477.073,0.591096,0.0,0.0