File: 01_Data/PMMA/Cone/PMMA_Cone_HF25Scalar_220225_R1.csv
LABORATORY,FSRI
TEST IDENT,PMMA_HF25_1
OPERATOR,Dow
MATERIAL,PMMA
ORIENTATION,Horizontal
HEAT FLUX,25
SURF AREA,0.01
C FACTOR,0.0385692
SPEC HOLDER DIFF,305.8
SPECIMEN MASS,33.3
SCAN TIME,0.25
O2 DELAY TIME,11
CO DELAY TIME,11
CO2 DELAY TIME,8
FLOW FACTOR,1
SCAN COUNT,1637
TIME TO IGN,100.5
END OF TEST SCAN,1157
END OF TEST TIME,289.25
TEST STATUS,1
PRE TEST CMT,Dimensions: 98.88 x 99.47 x 2.72 mm