File: 01_Data/PMMA/Cone/PMMA_Cone_HF15-noSparkScan_210827_R2.csv
Names,Time,Stack TC,Smoke TC,Exh Press,Smoke Comp,Smoke Meas,CO Meter,CO2 Meter,O2 Meter,Sample Mass,Ext Coeff,Start Test,Flame Verif
Chan Gain,,500,500,1,1,1,1,1,1,1,1,1.0,1.0
Offset,,0,0,0.145697,0,0,0,0,0,0,0,0.0,0.0
Gain,,1,1,25.011,13.1742,16.6938,1,1,1,1.00099,1.02845,1.0,1.0
Units,sec,C,C,Pa,%,%,%,%,%,g,/m,,
Baseline,,26.6048,27.5075,194.533,101.376,106.568,0.000864231,0.0567876,20.9646,-507.743,-0.450517,,
56,13.75,24.782,25.6462,196.523,100.612,105.995,0.00072107,0.0564256,20.964,30.9606,-0.470257,0.0,0.0
112,27.75,24.802,25.747,194.485,100.861,106.246,0.00110178,0.0556241,20.9703,30.8705,-0.469242,0.0,0.0
168,41.75,24.8476,25.6155,194.005,101.124,106.036,0.000808351,0.055024,20.9675,30.9305,-0.427906,0.0,0.0
224,55.75,25.0407,26.1107,196.788,101.453,106.621,0.00091248,0.0549049,20.9684,30.9305,-0.44828,0.0,0.0
280,69.75,25.271,26.2783,190.658,101.672,106.456,0.000850974,0.0549979,20.9677,30.9606,-0.414882,0.0,0.0
336,83.75,25.1637,26.0124,194.587,101.756,106.294,0.000800633,0.0546591,20.9686,30.9406,-0.39369,0.0,0.0
392,97.75,24.9818,26.0625,198.194,101.721,106.825,0.000903157,0.0544689,20.9705,30.9305,-0.441691,0.0,0.0
448,111.75,24.7117,25.7987,191.51,101.541,106.332,0.000489372,0.054139,20.97,30.8905,-0.4159,0.0,0.0
504,125.75,25.1934,26.2327,192.445,101.32,106.155,0.000740482,0.0540174,20.97,30.8405,-0.420521,0.0,0.0
560,139.75,25.0901,26.1174,193.542,101.139,106.087,0.000721153,0.0538911,20.9731,30.8204,-0.430884,0.0,0.0
616,153.75,25.2558,26.4675,191.452,101.043,106.242,0.000718591,0.0534057,20.9717,30.8905,-0.45262,0.0,0.0
672,167.75,25.0073,25.8073,190.801,100.968,106.094,0.00118551,0.0532363,20.9677,30.8104,-0.446781,0.0,0.0
728,181.75,25.4745,26.3871,192.872,100.974,105.406,0.000525781,0.05302,20.9704,30.8905,-0.387525,0.0,0.0
784,195.75,25.3053,26.3171,191.218,100.9,105.384,0.000956867,0.0528005,20.9685,30.8405,-0.392255,0.0,0.0
840,209.75,25.0445,26.2625,196.267,100.957,105.485,0.000712704,0.0526531,20.97,30.6603,-0.39587,0.0,0.0
896,223.75,25.3708,26.5337,196.721,101.019,105.423,0.000570979,0.0523446,20.9723,30.8104,-0.384985,0.0,0.0
952,237.75,25.4942,26.6235,193.712,101.005,105.284,0.000562069,0.0525351,20.973,30.6202,-0.374368,0.0,0.0
1008,251.75,25.2677,26.4216,194.416,100.969,105.272,0.000725513,0.0519711,20.9714,30.5702,-0.376481,0.0,0.0
1064,265.75,25.5375,26.5494,192.057,100.945,105.521,0.000549446,0.0519607,20.9719,30.5101,-0.399953,0.0,0.0
1120,279.75,25.5983,26.7062,195.845,101.028,105.611,0.000808346,0.0516511,20.9736,30.5001,-0.400189,0.0,0.0
1176,293.75,25.8326,27.0137,191.815,101.12,105.324,0.000789787,0.0516661,20.9732,30.2799,-0.36748,0.0,0.0
1232,307.75,25.6263,26.6138,195.103,101.129,105.313,0.000900114,0.0514765,20.9748,30.1898,-0.365723,0.0,0.0
1288,321.75,25.6451,26.6585,198.58,101.136,105.332,0.00050217,0.0512639,20.9727,29.9996,-0.366693,0.0,0.0
1344,335.75,25.8519,26.8942,194.635,101.176,105.649,0.000977332,0.0510721,20.9731,30.0196,-0.39025,0.0,0.0
1400,349.75,25.8974,26.9671,194.253,101.213,105.537,0.000735069,0.0511516,20.9759,29.8795,-0.377377,0.0,0.0
1456,363.75,25.8878,26.9788,192.565,101.23,105.426,0.00109692,0.0510291,20.9754,29.7494,-0.366373,0.0,0.0
1512,377.75,25.7111,26.8541,196.318,101.224,105.516,0.000823811,0.0523702,20.9713,29.5592,-0.374659,0.0,0.0
1568,391.75,26.1278,27.269,193.224,101.168,105.108,0.00088924,0.0539023,20.9688,29.329,-0.344684,0.0,0.0
1624,405.75,26.0804,27.118,196.789,101.169,105.007,0.000784759,0.0549738,20.9652,29.1288,-0.335914,0.0,0.0
1680,419.75,26.7594,28.0008,199.254,101.145,105.436,0.000670197,0.0556817,20.9665,28.9186,-0.37488,0.0,0.0
1736,433.75,26.185,27.0821,192.356,101.003,105.252,0.000913935,0.0565271,20.9647,28.8385,-0.371762,0.0,0.0
1792,447.75,26.3573,27.2909,189.265,100.894,105.234,0.00106286,0.0573291,20.9641,28.6983,-0.379926,0.0,0.0
1848,461.75,26.1198,27.0841,195.538,101.063,104.984,0.00080715,0.0580085,20.9639,28.4381,-0.343378,0.0,0.0
1904,475.75,26.0881,27.0021,191.262,101.239,105.63,0.000642059,0.0587158,20.9615,28.2079,-0.383006,0.0,0.0
1960,489.75,25.9605,26.896,199.656,101.449,105.731,0.000954486,0.0594186,20.9592,28.1078,-0.372979,0.0,0.0
2016,503.75,26.5037,27.5745,194.14,101.649,105.87,0.000748417,0.0602368,20.9589,27.8475,-0.367086,0.0,0.0
2072,517.75,26.4884,27.329,192.051,101.738,106.158,0.000917536,0.0607856,20.9588,27.5272,-0.38367,0.0,0.0
2128,531.75,26.432,27.3732,192.718,101.704,106.397,0.000727663,0.0608837,20.9547,27.357,-0.406976,0.0,0.0
2184,545.75,26.5167,27.586,195.758,101.567,105.643,0.000421768,0.0612282,20.9545,27.0667,-0.354993,0.0,0.0
2240,559.75,26.2572,27.3923,194.78,101.327,106.131,0.000936665,0.0618467,20.9542,26.8966,-0.417921,0.0,0.0
2296,573.75,26.4047,27.5869,192.142,100.978,105.422,0.000519446,0.0620408,20.9567,26.5963,-0.388554,0.0,0.0
2352,587.75,26.5279,27.4844,192.627,100.611,105.062,0.000850851,0.0627139,20.9558,26.2159,-0.390504,0.0,0.0
2408,601.75,26.6285,27.6032,190.253,100.381,105.228,0.00096894,0.0632767,20.9526,26.0757,-0.425435,0.0,0.0
2464,615.75,26.823,27.9088,192.18,100.578,104.775,0.000592034,0.0639404,20.9533,25.8055,-0.368754,0.0,0.0
2520,629.75,26.4396,27.5562,193.845,101.154,105.677,0.000598041,0.0638315,20.9524,25.5953,-0.394571,0.0,0.0
2576,643.75,26.7469,27.7582,190.162,101.631,105.753,0.00105704,0.0642571,20.9501,25.335,-0.35863,0.0,0.0
2632,657.75,26.7424,27.4257,192.184,101.653,106.17,0.00114745,0.0648062,20.9516,25.1248,-0.392184,0.0,0.0
2688,671.75,26.3203,27.5069,197.52,101.264,105.776,0.00106854,0.0652774,20.9485,24.9546,-0.393308,0.0,0.0
2744,685.75,26.453,27.5283,194.981,101.045,105.415,0.000767822,0.0655686,20.9499,24.7144,-0.381954,0.0,0.0
2800,699.75,26.4424,27.3942,193.773,101.195,105.588,0.000784348,0.06553,20.9497,24.4041,-0.383388,0.0,0.0
2856,713.75,26.7606,27.726,191.241,101.06,105.142,0.000953152,0.0657757,20.9487,24.274,-0.357183,0.0,0.0
2912,727.75,26.5992,27.3786,192.634,100.901,105.328,0.000854859,0.0658893,20.9508,23.9036,-0.387427,0.0,0.0
2968,741.75,25.7449,27.0571,189.049,101.245,105.749,0.000857884,0.066571,20.9478,23.7034,-0.392724,0.0,0.0
3024,755.75,26.824,27.4965,195.726,101.587,106.629,0.00100355,0.0671142,20.9456,23.3431,-0.437036,0.0,0.0
3080,769.75,27.0553,27.9793,192.891,101.669,106.342,0.000857718,0.0677003,20.9489,23.2229,-0.40542,0.0,0.0
3136,783.75,26.5763,27.7034,194.846,101.303,106.397,0.000999285,0.0678169,20.9467,22.9126,-0.442638,0.0,0.0
3192,797.75,26.595,27.9354,185.539,100.685,105.222,0.000781035,0.0681459,20.9464,22.7725,-0.397671,0.0,0.0
3248,811.75,26.8182,27.7835,194.506,100.383,105.193,0.00103744,0.0681436,20.9459,22.4922,-0.422275,0.0,0.0
3304,825.75,26.6734,27.9879,192.668,100.651,105.358,0.000725165,0.0678153,20.9468,22.2119,-0.412316,0.0,0.0
3360,839.75,27.263,28.0482,194.633,101.192,105.837,0.000854162,0.0681012,20.9459,22.0217,-0.40489,0.0,0.0
3416,853.75,26.7635,27.3568,191.371,101.656,106.276,0.0011797,0.0686161,20.9434,21.7415,-0.400977,0.0,0.0
3472,867.75,26.304,27.3596,192.886,101.668,106.432,0.000877249,0.0689348,20.9427,21.5413,-0.413123,0.0,0.0
3528,881.75,26.5127,27.6291,194.635,101.328,106.574,0.000813303,0.0696384,20.9417,21.221,-0.455367,0.0,0.0
3584,895.75,27.0735,28.0752,193.927,100.97,105.652,0.000886183,0.0696666,20.9392,21.0908,-0.408956,0.0,0.0
3640,909.75,26.4652,27.0495,193.505,101.157,106.092,0.00111795,0.0697886,20.9423,20.8106,-0.42974,0.0,0.0
3696,923.75,26.586,27.495,197.645,101.174,106.409,0.000898795,0.0699992,20.9404,20.4802,-0.455139,0.0,0.0
3752,937.75,26.7012,27.3082,191.963,101.098,105.789,0.00127207,0.0702812,20.9374,20.4001,-0.409119,0.0,0.0
3808,951.75,26.7348,27.7352,194.97,100.787,105.725,0.000940943,0.0700348,20.9412,20.0198,-0.431498,0.0,0.0
3864,965.75,26.4732,27.2496,194.714,101.094,106.293,0.00115574,0.0703635,20.9413,19.8997,-0.452466,0.0,0.0
3920,979.75,27.3725,28.0189,193.96,101.526,106.898,0.00104479,0.0705961,20.9379,19.7295,-0.465159,0.0,0.0
3976,993.75,26.807,28.1199,195.389,101.662,106.971,0.000950189,0.0706349,20.9374,19.3591,-0.459231,0.0,0.0
4032,1007.75,26.8403,27.7339,188.688,101.346,106.399,0.00079579,0.0712479,20.9391,19.1389,-0.438909,0.0,0.0
4088,1021.75,27.0565,27.5582,191.951,100.798,105.791,0.00100614,0.0714061,20.9382,18.7785,-0.43614,0.0,0.0
4144,1035.75,27.0342,27.7524,188.989,100.394,105.619,0.000808344,0.0713835,20.9363,18.7785,-0.45768,0.0,0.0
4200,1049.75,26.3976,27.3859,197.076,100.467,105.57,0.000924361,0.071499,20.9372,18.4782,-0.446958,0.0,0.0
4256,1063.75,26.5875,27.6566,192.82,101.081,106.063,0.000941784,0.0714323,20.9386,18.1279,-0.43397,0.0,0.0
4312,1077.75,26.9071,27.8768,198.38,101.613,106.806,0.000909492,0.0712506,20.9389,17.9177,-0.449739,0.0,0.0
4368,1091.75,26.6984,27.6607,192.958,101.705,107.018,0.000965751,0.0716747,20.9374,17.8476,-0.459416,0.0,0.0
4424,1105.75,26.2114,28.008,193.498,101.522,107.195,0.0010057,0.0719795,20.936,17.4873,-0.490583,0.0,0.0
4480,1119.75,26.7783,27.9098,194.482,101.166,106.709,0.000952763,0.0718426,20.9366,17.3071,-0.481225,0.0,0.0
4536,1133.75,26.525,27.5758,193.666,101.143,106.464,0.00118143,0.0719862,20.9385,17.0368,-0.462556,0.0,0.0
4592,1147.75,27.0593,27.6738,189.605,101.194,107.039,0.000903822,0.0721543,20.9373,16.8767,-0.506611,0.0,0.0
4648,1161.75,26.8496,27.9078,195.199,101.05,106.68,0.00122295,0.0723932,20.936,16.6264,-0.489137,0.0,0.0
4704,1175.75,26.7734,27.9719,195.849,100.883,106.13,0.001011,0.0727671,20.9367,16.4262,-0.457474,0.0,0.0
4760,1189.75,27.0034,27.6012,197.016,101.289,107.04,0.000909082,0.0726217,20.9381,16.156,-0.49825,0.0,0.0
4816,1203.75,25.0301,25.9605,191.144,101.598,107.285,0.00105499,0.0720036,20.939,15.8657,-0.491384,0.0,0.0
4872,1217.75,25.6247,26.2605,190.403,101.695,107.43,0.000907847,0.0725141,20.9383,15.6555,-0.494978,0.0,0.0
4928,1231.75,25.865,26.6944,193.168,101.579,107.149,0.00104118,0.0725915,20.9389,15.3652,-0.481652,0.0,0.0
4984,1245.75,25.5546,26.2089,197.025,101.256,106.803,0.00111712,0.0727286,20.9387,15.215,-0.481234,0.0,0.0
5040,1259.75,24.8868,25.7443,189.961,100.901,106.577,0.000984029,0.0726171,20.9411,14.9548,-0.493713,0.0,0.0
5096,1273.75,25.4206,25.9957,196.012,100.599,106.226,0.000988566,0.073384,20.9375,14.6445,-0.491032,0.0,0.0
5152,1287.75,25.4065,26.4634,194.662,100.448,106.503,0.00112543,0.0728678,20.9373,14.4543,-0.528068,0.0,0.0
5208,1301.75,25.9672,26.9444,193.992,100.537,105.846,0.00100261,0.0736547,20.9363,14.184,-0.464171,0.0,0.0
5264,1315.75,25.429,26.6169,190.253,100.888,106.519,,,,13.9738,-0.489953,0.0,0.0
5285,1321,25.4007,26.6709,192.363,101.037,107.023,,,,13.8337,-0.519312,0.0,0.0