File: 01_Data/PMMA/Cone/PMMA_Cone_HF25Scalar_220225_R2.csv
LABORATORY,FSRI
TEST IDENT,PMMA_HF25_2
OPERATOR,Dow
MATERIAL,PMMA
ORIENTATION,Horizontal
HEAT FLUX,25
SURF AREA,0.01
C FACTOR,0.0385692
SPEC HOLDER DIFF,-534
SPECIMEN MASS,866.19
SCAN TIME,0.25
O2 DELAY TIME,11
CO DELAY TIME,11
CO2 DELAY TIME,8
FLOW FACTOR,1
SCAN COUNT,1624
TIME TO IGN,94
END OF TEST SCAN,1144
END OF TEST TIME,286
TEST STATUS,1
PRE TEST CMT,Dimensions: 98.89 x 99.63 x 2.77 mm