File: 01_Data/PMMA/Cone/PMMA_Cone_HF25Scan_220225_R3.csv
Names,Time,Stack TC,Smoke TC,Exh Press,Smoke Comp,Smoke Meas,CO Meter,CO2 Meter,O2 Meter,Sample Mass,Ext Coeff,Start Test,Flame Verif
Chan Gain,,500,500,1,1,1,1,1,1,1,1,1.0,1.0
Offset,,0,0,0.136092,0,0,0,0,0,0,0,0.0,0.0
Gain,,1,1,25.011,15.4219,15.1528,1,1,1,1.00089,1.02113,1.0,1.0
Units,sec,C,C,Pa,%,%,%,%,%,g,/m,,
Baseline,,21.6997,21.4434,163.198,115.453,115.433,-0.00916287,0.107833,20.7783,-0.00162644,0.00158484,,
17,4,19.9891,19.672,158.069,115.729,115.868,-0.0091684,0.115951,20.7666,900.367,-0.0107083,0.0,0.0
34,8.25,19.3615,19.4404,164.942,115.729,115.983,-0.00915692,0.114929,20.7661,900.357,-0.0196416,0.0,0.0
51,12.5,19.7872,19.4201,161.98,115.725,115.936,-0.00893113,0.111831,20.7714,900.337,-0.0162895,0.0,0.0
68,16.75,20.0097,19.6077,167.907,115.732,116.039,-0.00921709,0.109084,20.7761,900.307,-0.0237427,0.0,0.0
85,21,19.9355,19.5107,162.123,115.729,116.116,-0.00918607,0.106807,20.7817,900.307,-0.0298484,0.0,0.0
102,25.25,19.6431,19.942,161.332,115.741,115.851,-0.00905496,0.10493,20.788,900.337,-0.00851056,0.0,0.0
119,29.5,20.045,20.0875,165.311,115.71,115.646,-0.00915393,0.104007,20.7911,900.327,0.0049745,0.0,0.0
136,33.75,19.998,20.1937,162.424,115.711,116.046,-0.00941068,0.104035,20.7893,900.347,-0.0258815,0.0,0.0
153,38,19.9479,20.5499,157.31,115.692,115.823,-0.00939321,0.104592,20.7879,900.327,-0.0101903,0.0,0.0
170,42.25,19.7131,20.1241,162.211,115.648,115.577,-0.00927112,0.104991,20.7868,900.317,0.0054654,0.0,0.0
187,46.5,20.4109,19.7619,165.489,115.613,115.922,-0.00929109,0.105609,20.7853,900.287,-0.0239274,0.0,0.0
204,50.75,19.6241,19.3556,160.4,115.581,115.792,-0.00934144,0.106605,20.7818,900.307,-0.0163617,0.0,0.0
221,55,20.2555,20.0993,161.448,115.537,115.446,-0.00913151,0.10715,20.7778,900.287,0.00707983,0.0,0.0
238,59.25,20.1694,20.2498,166.165,115.493,115.669,-0.00921422,0.107893,20.7754,900.217,-0.0136647,0.0,0.0
255,63.5,20.315,19.8722,163.404,115.423,115.564,-0.00951822,0.108816,20.7729,900.257,-0.0109355,0.0,0.0
272,67.75,20.4397,20.1289,162.363,115.357,115.691,-0.00945074,0.108782,20.7735,900.287,-0.025866,0.0,0.0
289,72,20.5262,20.7672,165.202,115.289,114.931,-0.00912893,0.109046,20.7724,900.267,0.0278888,0.0,0.0
306,76.25,20.5256,20.5559,161.149,115.215,115.347,-0.00917399,0.109806,20.7704,900.247,-0.0102673,0.0,0.0
323,80.5,20.6989,20.4685,160.342,115.138,115.283,-0.00919243,0.110896,20.765,900.237,-0.0112765,0.0,0.0
340,84.75,20.6727,20.6166,161.531,115.021,115.017,-0.00890908,0.111912,20.7622,900.237,0.000321398,0.0,0.0
357,89,20.4018,19.7849,160.464,114.939,114.961,-0.00904681,0.111258,20.7666,900.207,-0.00173639,0.0,0.0
374,93.25,20.2444,20.0595,163.463,114.829,114.891,-0.00934658,0.110146,20.7709,900.177,-0.0048074,0.0,0.0
391,97.5,20.5492,20.4083,158.296,114.693,113.829,-0.00897641,0.132792,20.7284,900.107,0.0677367,0.0,1.0
408,101.75,21.1442,21.444,144.553,114.598,110.389,-0.00832577,0.228448,20.5863,899.877,0.335215,0.0,0.0
425,106,23.2997,24.3935,140.526,114.472,106.993,-0.00730075,0.386242,20.347,899.487,0.605208,0.0,0.0
442,110.25,27.8068,29.0298,136.369,114.352,104.297,-0.00629213,0.547139,20.1453,899.046,0.824365,0.0,0.0
459,114.5,31.9993,34.1858,139.716,114.252,103.755,-0.00518746,0.673888,19.974,898.476,0.86325,0.0,0.0
476,118.75,36.7066,39.9932,134.048,114.152,102.645,-0.00437184,0.77601,19.8454,897.885,0.951719,0.0,0.0
493,123,41.7906,46.2888,119.534,114.035,100.539,-0.00384448,0.869561,19.7189,897.275,1.12824,0.0,0.0
510,127.25,47.2355,52.1413,122.327,113.962,101.275,-0.00297124,0.952045,19.5993,896.604,1.05716,0.0,0.0
527,131.5,51.9155,58.5974,113.927,113.882,98.9373,-0.00252562,1.04731,19.4746,895.893,1.26007,0.0,0.0
544,135.75,57.6951,65.582,121.091,113.81,99.0821,-0.0020413,1.13859,19.3739,895.093,1.24132,0.0,0.0
561,140,62.7557,72.2911,116.121,113.753,97.625,-0.00126135,1.22084,19.2587,894.202,1.3695,0.0,0.0
578,144.25,68.508,79.0964,108.334,113.74,98.1799,-0.000810549,1.32038,19.1296,893.351,1.31777,0.0,0.0
595,148.5,74.1758,85.6867,103.139,113.716,97.9098,-0.000218423,1.41283,19.0041,892.34,1.34051,0.0,0.0
612,152.75,79.6105,93.0424,109.309,113.693,96.5956,0.000669279,1.5018,18.8924,891.43,1.45978,0.0,0.0
629,157,85.4022,99.95,102.612,113.696,96.295,0.00146211,1.58013,18.7947,890.439,1.48791,0.0,0.0
646,161.25,89.7445,105.578,111.919,113.679,94.6076,0.00172271,1.63712,18.7248,889.408,1.64489,0.0,0.0
663,165.5,95.5664,111.666,114.332,113.675,96.584,0.00185851,1.68782,18.6598,888.357,1.4594,0.0,0.0
680,169.75,100.305,118.123,101.037,113.715,96.2234,0.00188958,1.72182,18.621,887.306,1.49607,0.0,0.0
697,174,104.43,123.6,106.352,113.68,95.9158,0.00179821,1.70979,18.6395,886.315,1.52196,0.0,0.0
714,178.25,108.064,127.762,95.1343,113.7,97.5612,0.00173317,1.70425,18.6482,885.284,1.3712,0.0,0.0
731,182.5,111.753,132.408,111.823,113.725,97.5145,0.00183149,1.70755,18.6469,884.283,1.37746,0.0,0.0
748,186.75,114.285,135.749,105.042,113.742,97.4053,0.00177639,1.68924,18.6652,883.212,1.38886,0.0,0.0
765,191,116.773,138.504,110.877,113.771,97.1246,0.00164442,1.71155,18.6296,882.301,1.41693,0.0,0.0
782,195.25,119.513,141.9,98.7904,113.787,96.6113,0.00207793,1.73345,18.6013,881.2,1.46569,0.0,0.0
799,199.5,122.864,145.604,100.403,113.796,97.5625,0.00234389,1.76358,18.5602,880.16,1.37867,0.0,0.0
816,203.75,125.091,148.387,110.91,113.839,96.5059,0.00277739,1.77482,18.5457,879.169,1.47955,0.0,0.0
833,208,127.238,150.901,98.6285,113.839,96.5138,0.00307185,1.79289,18.526,878.068,1.47886,0.0,0.0
850,212.25,129.708,153.378,100.223,113.872,96.4934,0.00296562,1.82788,18.4879,877.037,1.4833,0.0,0.0
867,216.5,131.419,155.952,107.597,113.903,96.1581,0.00262394,1.82,18.4998,875.956,1.51692,0.0,0.0
884,220.75,132.963,157.942,104.833,113.912,96.1188,0.00216312,1.80867,18.5117,874.945,1.52132,0.0,0.0
901,225,135.174,159.884,110.759,113.965,96.745,0.00237994,1.80229,18.5295,873.954,1.4673,0.0,0.0
918,229.25,136.483,161.419,106.769,113.996,96.492,0.00255983,1.76886,18.5654,872.883,1.49323,0.0,0.0
935,233.5,137.33,162.095,107.436,114.033,97.4751,0.00214407,1.6955,18.676,871.942,1.40532,0.0,0.0
952,237.75,137.038,161.835,109.819,114.074,96.0985,0.00104503,1.57192,18.8433,871.001,1.5359,0.0,0.0
969,242,136.488,160.848,109.091,114.08,96.7547,0.000828843,1.47313,18.9713,870.221,1.47546,0.0,0.0
986,246.25,135.068,158.408,110.289,114.109,97.1575,0.000191844,1.36688,19.1145,869.42,1.44051,0.0,0.0
1003,250.5,133.205,156.054,115.646,114.127,96.6677,-0.000798684,1.24029,19.2813,868.689,1.48721,0.0,0.0
1020,254.75,130.405,152.43,121.183,114.143,97.9209,-0.00214756,1.09268,19.4598,868.059,1.37309,0.0,0.0
1037,259,127.097,147.837,128.377,114.114,98.4606,-0.00333577,0.911788,19.725,867.588,1.32157,0.0,0.0
1054,263.25,122.677,141.924,130.893,114.04,101.276,-0.00421922,0.734492,19.9534,867.158,1.06325,0.0,0.0
1071,267.5,117.559,135.847,146.627,113.965,100.957,-0.00541605,0.564637,20.2101,866.918,1.08556,0.0,0.0
1088,271.75,111.188,127.892,148.448,113.915,105.013,-0.00683675,0.401643,20.4329,866.768,0.728822,0.0,0.0
1105,276,104.856,120.387,149.701,113.852,108.529,-0.00796566,0.271186,20.5863,866.718,0.428883,0.0,0.0
1122,280.25,98.4147,111.497,153.559,113.797,110.871,-0.00872011,0.193224,20.6861,866.678,0.233372,0.0,0.0
1139,284.5,92.7697,104.988,155.595,113.725,111.083,-0.00901045,0.150651,20.7298,866.678,0.210534,0.0,0.0
1156,288.75,86.8402,97.4319,153.25,113.687,110.188,-0.00914595,0.129932,20.756,866.698,0.279976,0.0,0.0
1173,293,81.4756,91.2169,154.577,113.67,110.17,-0.00922548,0.12082,20.7632,866.688,0.280107,0.0,0.0
1190,297.25,77.415,86.0118,153.661,113.727,110.533,-0.009078,0.118062,20.7628,866.708,0.255128,0.0,0.0
1207,301.5,73.3922,81.3246,157.594,113.852,111.042,-0.00930643,0.116818,20.7617,866.718,0.223819,0.0,0.0
1224,305.75,69.3753,76.3365,157.395,113.969,110.087,-0.00942252,0.114252,20.7665,866.718,0.310396,0.0,0.0
1241,310,66.5563,72.4523,158.197,114.168,110.593,-0.00940458,0.112222,20.7715,866.738,0.284961,0.0,0.0
1258,314.25,63.435,68.5371,154.919,114.417,112.269,-0.00936722,0.111141,20.7734,866.708,0.169796,0.0,0.0
1275,318.5,60.6742,65.2408,153.465,114.704,112.317,-0.00951165,0.110913,20.7725,866.708,0.18837,0.0,0.0
1292,322.75,58.3313,62.2256,153.319,115.045,112.388,-0.00944673,0.111083,20.7728,866.728,0.209262,0.0,0.0
1309,327,56.5174,59.5429,157.937,115.332,111.678,-0.00931966,0.111068,20.7724,866.698,0.288413,0.0,0.0
1326,331.25,54.1265,56.5857,155.923,115.514,113.439,-0.00925084,0.111655,20.768,866.708,0.162375,0.0,0.0
1343,335.5,52.1837,54.4612,157.033,115.676,113.251,-0.00932466,0.111878,20.7662,866.698,0.189721,0.0,0.0
1360,339.75,50.6251,52.148,157.456,115.737,112.939,-0.00931034,0.111165,20.7681,866.708,0.219216,0.0,0.0
1377,344,48.9989,50.1483,159.277,115.67,113.171,-0.00927946,0.110317,20.7704,866.708,0.195613,0.0,0.0
1394,348.25,47.6441,48.3614,161.004,115.505,112.974,-0.00917826,0.110401,20.7723,866.708,0.198417,0.0,0.0
1411,352.5,46.5576,46.3415,157.465,115.367,112.325,-0.00934374,0.109456,20.7744,866.708,0.239414,0.0,0.0
1428,356.75,44.7277,45.7486,156.557,115.666,113.274,-0.00955858,0.108945,20.7762,866.718,0.1872,0.0,0.0
1445,361,43.4195,43.9313,157.888,116.06,113.592,-0.0095961,0.108423,20.7782,866.718,0.192532,0.0,0.0
1462,365.25,42.6588,42.7241,157.672,116.162,113.395,-0.00935595,0.108092,20.7799,866.708,0.215958,0.0,0.0
1479,369.5,42.2678,41.7538,155.414,115.886,113.437,-0.00902943,0.108768,20.7775,866.688,0.191342,0.0,0.0
1496,373.75,40.8206,40.8519,157.985,115.412,113.204,-0.00913865,0.109562,20.7734,866.698,0.173021,0.0,0.0
1513,378,40.2539,39.9667,160.048,115.681,113.963,-0.00928323,0.110024,20.7718,866.678,0.134083,0.0,0.0
1530,382.25,39.3811,38.2328,154.968,116.02,113.832,-0.00944972,0.109479,20.7732,866.718,0.170575,0.0,0.0
1547,386.5,38.74,38.0979,155.367,116.228,113.963,-0.00965085,0.10837,20.7767,866.708,0.176292,0.0,0.0
1564,390.75,37.6767,37.0578,158.937,116.213,114.744,-0.00986133,0.107116,20.7811,866.728,0.113952,0.0,0.0
1581,395,37.1955,35.9151,161.527,115.931,113.292,,0.106283,,866.708,0.206197,0.0,0.0
1598,399.25,36.3009,35.2518,154.609,115.341,113.803,,,,866.678,0.120244,0.0,0.0
1615,403.5,35.7756,34.8957,158.809,114.669,112.381,,,,866.698,0.180563,0.0,0.0
1619,404.5,35.9461,34.7823,157.163,114.514,112.86,,,,866.708,0.130356,0.0,0.0