File: 01_Data/PMMA/Cone/PMMA_Cone_HF50Scalar_210826_R2.csv
LABORATORY,FSRI
TEST IDENT,PMMA_HF50_2
OPERATOR,Dow
MATERIAL,"PMMA, clear, 0.12 in. thick"
ORIENTATION,Horizontal
HEAT FLUX,50
SURF AREA,0.01
C FACTOR,0.0366558
SPEC HOLDER DIFF,-58.4
SPECIMEN MASS,33.5
SCAN TIME,0.25
O2 DELAY TIME,11
CO DELAY TIME,11
CO2 DELAY TIME,8
FLOW FACTOR,1
SCAN COUNT,1124
TIME TO IGN,30.75
END OF TEST SCAN,644
END OF TEST TIME,161
TEST STATUS,1
PRE TEST CMT,no retainer frame or grid