File: 01_Data/PMMA/Cone/PMMA_Cone_HF50Scan_210826_R3.csv
Names,Time,Stack TC,Smoke TC,Exh Press,Smoke Comp,Smoke Meas,CO Meter,CO2 Meter,O2 Meter,Sample Mass,Ext Coeff,Start Test,Flame Verif
Chan Gain,,500,500,1,1,1,1,1,1,1,1,1.0,1.0
Offset,,0,0,0.141443,0,0,0,0,0,0,0,0.0,0.0
Gain,,1,1,25.011,13.1742,16.6938,1,1,1,1.00099,1.02845,1.0,1.0
Units,sec,C,C,Pa,%,%,%,%,%,g,/m,,
Baseline,,45.8888,47.5495,164.507,101.322,111.955,0.00151943,0.0474149,20.9874,-507.06,-0.900313,,
12,2.75,42.5444,44.1758,162.585,100.934,111.563,0.00113572,0.0489872,20.9881,32.2118,-0.903249,0.0,0.0
24,5.75,43.1064,44.8224,165.381,100.968,111.695,0.00107085,0.0488711,20.9881,32.0416,-0.910936,0.0,0.0
36,8.75,43.2685,44.4362,167.548,100.991,111.721,0.00113147,0.0485549,20.9881,32.2018,-0.910911,0.0,0.0
48,11.75,43.4553,44.5237,163.113,101.007,111.772,0.00148668,0.0481408,20.9881,32.2118,-0.913592,0.0,0.0
60,14.75,42.8792,45.1495,165.345,101.03,111.613,0.00170321,0.0479729,20.9893,32.1517,-0.898742,0.0,0.0
72,17.75,43.4522,45.5248,164.146,101.055,111.936,0.001725,0.0476494,20.9897,32.0617,-0.922509,0.0,0.0
84,20.75,43.6084,45.0821,164.919,101.07,111.893,0.00159115,0.0474272,20.9895,31.9415,-0.917732,0.0,0.0
96,23.75,43.4037,45.427,166.909,101.099,111.858,0.00163598,0.0472956,20.9894,32.0717,-0.91235,0.0,0.0
108,26.75,43.1647,45.0233,164.685,101.134,111.791,0.00181545,0.0472864,20.9885,32.1417,-0.903845,0.0,0.0
120,29.75,43.6347,45.67,165.772,101.165,111.24,0.00206045,0.0597047,20.9758,32.0617,-0.856418,0.0,1.0
132,32.75,44.6781,47.4966,152.541,101.218,108.408,0.00272769,0.160157,20.8235,31.8515,-0.619069,0.0,1.0
144,35.75,46.2281,50.9748,142.926,101.294,106.107,0.00390538,0.359466,20.5681,31.4911,-0.41882,0.0,0.0
156,38.75,51.1941,58.3977,139.056,101.348,103.183,0.00541127,0.549393,20.3591,31.0707,-0.16186,0.0,0.0
168,41.75,56.4754,67.2205,136.46,101.427,101.318,0.00651306,0.708054,20.153,30.5702,0.00975122,0.0,0.0
180,44.75,61.6138,75.4328,134.205,101.508,100.844,0.00751282,0.849458,19.9583,30.1197,0.0591864,0.0,0.0
192,47.75,67.5364,84.1724,124.066,101.578,98.7479,0.00855626,0.96663,19.786,29.359,0.254948,0.0,0.0
204,50.75,72.8422,93.1728,133.076,101.656,99.4393,0.0093618,1.06008,19.6654,28.8084,0.198862,0.0,0.0
216,53.75,78.6612,101.209,126.157,101.721,96.6673,0.0106898,1.19544,19.4816,28.1578,0.459693,0.0,0.0
228,56.75,84.2056,110.41,113.827,101.785,96.3408,0.0122349,1.3477,19.2881,27.4071,0.49596,0.0,0.0
240,59.75,89.6116,119.348,113.752,101.833,96.2103,0.0136145,1.49002,19.1263,26.4962,0.51242,0.0,0.0
252,62.75,95.9754,128.865,110.685,101.888,93.848,0.0147251,1.5991,18.9726,25.6854,0.741578,0.0,0.0
264,65.75,101.268,137.277,116.113,101.934,94.5587,0.0155934,1.70985,18.842,24.8145,0.677574,0.0,0.0
276,68.75,106.734,145.318,105.171,101.971,93.6193,0.0169449,1.81155,18.6974,23.8235,0.770923,0.0,0.0
288,71.75,112.32,153.512,106.389,101.99,92.5193,0.0183387,1.92176,18.5672,22.9126,0.879216,0.0,0.0
300,74.75,117.023,160.661,99.4847,102.023,93.3956,0.0200417,2.01504,18.4419,21.9116,0.797124,0.0,0.0
312,77.75,121.654,168.195,106.031,102.044,92.2835,0.0220162,2.12475,18.2938,20.9407,0.906974,0.0,0.0
324,80.75,126.947,175.939,96.7819,102.075,90.8759,0.0237301,2.2463,18.1622,19.7895,1.04841,0.0,0.0
336,83.75,131.375,183.407,108.562,102.085,91.0939,0.0257448,2.36198,18.0066,18.7485,1.02772,0.0,0.0
348,86.75,136.846,191.639,126.456,102.102,91.2697,0.0278499,2.54238,17.8225,17.5974,1.01182,0.0,0.0
360,89.75,142.602,200.703,117.211,102.11,90.7006,0.0300183,2.70078,17.6193,16.3161,1.06895,0.0,0.0
372,92.75,147.534,208.842,96.3896,102.121,89.1391,0.0318479,2.81809,17.4654,15.145,1.22658,0.0,0.0
384,95.75,153.109,215.392,93.4174,102.117,90.4128,0.0319824,2.91335,17.3447,13.8537,1.09823,0.0,0.0
396,98.75,157.604,223.229,95.5439,102.126,91.5412,0.0307858,3.00192,17.2396,12.5924,0.987114,0.0,0.0
408,101.75,161.58,229.489,106.795,102.124,91.0852,0.0296782,3.02547,17.2122,11.3812,1.03199,0.0,0.0
420,104.75,165.685,234.387,88.1111,102.128,91.5809,0.0291513,2.9792,17.2601,10.0599,0.983342,0.0,0.0
432,107.75,167.699,236.587,96.1118,102.126,89.97,0.0293634,2.93381,17.3104,8.98888,1.1433,0.0,0.0
444,110.75,169.504,238.118,103.461,102.136,90.7301,0.0295829,2.89734,17.3559,7.81772,1.06825,0.0,0.0
456,113.75,171.439,239.723,100.879,102.134,91.4286,0.0289688,2.82797,17.4273,6.5865,0.998963,0.0,0.0
468,116.75,171.849,238.033,95.6385,102.141,90.9115,0.0266332,2.68386,17.616,5.50544,1.0507,0.0,0.0
480,119.75,171.921,236.424,108.202,102.141,93.1052,0.0241506,2.53292,17.8099,4.49444,0.835629,0.0,0.0
492,122.75,170.775,233.017,103.541,102.133,91.4979,0.0228344,2.39003,17.9703,3.51347,0.992023,0.0,0.0
504,125.75,170.316,229.793,106.8,102.13,91.5886,0.0211396,2.24838,18.1724,2.69266,0.982837,0.0,0.0
516,128.75,167.735,224.321,99.7091,102.135,92.6442,0.0190682,2.03108,18.4229,1.84182,0.879882,0.0,0.0
528,131.75,165.075,218.251,121.251,102.144,95.1298,0.0169263,1.81815,18.6776,1.15114,0.641807,0.0,0.0
540,134.75,162.471,211.209,110.498,102.153,96.4661,0.0148483,1.6251,18.8959,0.400395,0.516744,0.0,0.0
552,137.75,158.287,203.521,118.754,102.143,95.2577,0.0129204,1.43184,19.156,-0.200198,0.629617,0.0,0.0
564,140.75,153.248,194.474,123.373,102.143,98.1432,0.0112655,1.19902,19.4899,-0.570563,0.360359,0.0,0.0
576,143.75,148.329,185.047,129.513,102.124,99.2258,0.00971192,0.968033,19.7346,-0.950939,0.259756,0.0,0.0
588,146.75,142.668,174.479,136.003,102.119,102.945,0.00778646,0.752138,20.0717,-1.24123,-0.0726882,0.0,0.0
600,149.75,135.71,161.955,148.82,102.11,107.398,0.00594532,0.487177,20.4108,-1.34132,-0.455557,0.0,0.0
612,152.75,127.98,149.724,150.484,102.068,110.757,0.00423788,0.288124,20.6738,-1.50148,-0.737073,0.0,0.0
624,155.75,120.459,137.827,151.465,102.037,111.581,0.00316476,0.170131,20.826,-1.40138,-0.806585,0.0,0.0
636,158.75,112.789,126.836,155.553,101.993,111.812,0.00228165,0.108419,20.9049,-1.47145,-0.829176,0.0,0.0
648,161.75,107.1,118.18,153.73,101.943,111.576,0.00175132,0.0798506,20.95,-1.61159,-0.814648,0.0,0.0
660,164.75,102.216,110.853,157.022,101.885,111.819,0.00167964,0.067083,20.9678,-1.65163,-0.839359,0.0,0.0
672,167.75,98.1431,104.211,153.493,101.827,111.394,0.00141899,0.0605598,20.9774,-1.49147,-0.810101,0.0,0.0
684,170.75,94.8201,99.128,157.691,101.775,111.404,0.00128331,0.0565432,20.9817,-1.50148,-0.815558,0.0,0.0
696,173.75,91.4864,94.2687,154.734,101.753,111.414,0.00127015,0.054392,20.9841,-1.40138,-0.818313,0.0,0.0
708,176.75,88.981,90.4492,153.728,101.69,111.642,0.00136422,0.0527011,20.9862,-1.41139,-0.842332,0.0,0.0
720,179.75,86.3738,87.1055,156.601,101.651,111.169,0.00144528,0.051413,20.9867,-1.43141,-0.807508,0.0,0.0
732,182.75,84.041,83.7316,155.707,101.604,111.572,0.00147356,0.0507034,20.9869,-1.50148,-0.844249,0.0,0.0
744,185.75,82.7736,81.4977,152.399,101.54,111.513,0.00136606,0.0499063,20.9866,-1.48146,-0.845218,0.0,0.0
756,188.75,80.9796,79.3969,154.231,101.474,111.299,0.00118264,0.0493701,20.9863,-1.4214,-0.833757,0.0,0.0
768,191.75,79.335,77.6271,156.437,101.433,111.318,0.000992171,0.0488862,20.9864,-1.37135,-0.838931,0.0,0.0
780,194.75,78.2097,75.427,155.488,101.401,111.118,0.00100887,0.0484116,20.9879,-1.37135,-0.825594,0.0,0.0
792,197.75,76.9397,74.3865,157.595,101.341,111.459,0.00112554,0.0482646,20.9887,-1.57155,-0.858512,0.0,0.0
804,200.75,75.5094,72.6923,156.354,101.311,111.318,0.00130952,0.0481033,20.9889,-1.43141,-0.849732,0.0,0.0
816,203.75,74.3973,71.4645,154.839,101.284,110.606,0.00139907,0.0480025,20.9874,-1.53151,-0.794345,0.0,0.0
828,206.75,73.7738,70.5639,154.562,101.234,110.605,0.00127173,0.0477914,20.9879,-1.67165,-0.798661,0.0,0.0
840,209.75,72.6763,69.1104,157.603,101.196,111.32,0.00109266,0.0478104,20.9885,-1.48146,-0.860219,0.0,0.0
852,212.75,71.8807,68.0796,159.09,101.182,110.595,0.00112841,0.0476544,20.9886,-1.35133,-0.80253,0.0,0.0
864,215.75,70.6851,67.6936,154.217,101.169,111.241,0.00142751,0.0476632,20.9886,-1.39137,-0.856142,0.0,0.0
876,218.75,70.1935,66.6578,157.715,101.158,110.822,0.00171565,0.0475076,20.9886,-1.34132,-0.823155,0.0,0.0
888,221.75,69.2661,66.2668,153.794,101.157,110.951,0.00144014,0.0474839,20.9886,-1.48146,-0.833714,0.0,0.0
900,224.75,68.8599,65.7804,158.276,101.122,111.037,0.00118231,0.0473318,20.9886,-1.4214,-0.843868,0.0,0.0
912,227.75,68.3746,64.4126,156.547,101.099,110.895,0.0013765,0.0471084,20.9896,-1.4214,-0.83432,0.0,0.0
924,230.75,67.3828,64.0753,158.568,101.074,110.952,0.00160341,0.0469868,20.9898,-1.51149,-0.841221,0.0,0.0
936,233.75,67.1086,64.1677,155.215,101.046,111.144,0.00161166,0.0470262,20.9895,-1.4214,-0.859379,0.0,0.0
948,236.75,66.1664,63.6299,153.919,101.005,110.756,0.00149103,0.0472103,20.9903,-1.49147,-0.831403,0.0,0.0
960,239.75,65.9415,63.148,153.908,101.007,110.564,0.00132443,0.0473447,20.9908,-1.40138,-0.815602,0.0,0.0
972,242.75,65.4816,62.634,162.479,100.967,111.127,0.00122073,0.0472331,20.9909,-1.61159,-0.864934,0.0,0.0
984,245.75,64.492,61.6489,157.871,100.954,110.911,0.00106656,0.0472833,20.9909,-1.47145,-0.848572,0.0,0.0
996,248.75,63.7194,61.4972,157.383,100.939,111.075,0.00115544,0.0470191,20.9909,-1.44142,-0.863228,0.0,0.0
1008,251.75,63.689,60.9715,157.394,100.904,111.06,0.0012188,0.046901,20.9909,-1.41139,-0.865155,0.0,0.0
1020,254.75,63.3852,60.6717,160.966,100.897,110.655,0.00120146,0.0468343,20.9909,-1.6216,-0.832848,0.0,0.0
1032,257.75,63.2607,60.306,163.614,100.882,111.113,0.00120996,0.0468208,20.9909,-1.54152,-0.8714,0.0,0.0
1044,260.75,62.5047,59.2822,159.804,100.89,111.019,0.00127615,0.0466737,20.9909,-1.56154,-0.863102,0.0,0.0
1056,263.75,61.8297,59.4313,157.164,100.879,110.729,0.00152639,0.0466876,20.9909,-1.56154,-0.840522,0.0,0.0
1068,266.75,61.7857,59.3325,157.071,100.888,110.609,,0.0466764,,-1.53151,-0.829931,0.0,0.0
1080,269.75,61.5866,59.086,159.197,100.873,110.746,,,,-1.47145,-0.842354,0.0,0.0
1092,272.75,60.7515,58.2864,161.492,100.892,110.899,,,,-1.46144,-0.853183,0.0,0.0
1104,275.75,60.0768,58.0607,157.791,100.899,111.21,,,,-1.49147,-0.877823,0.0,0.0