File: 01_Data/PMMA/Cone/PMMA_Cone_HF75Scalar_220225_R2.csv
LABORATORY,FSRI
TEST IDENT,PMMA_HF75_2
OPERATOR,Dow
MATERIAL,PMMA
ORIENTATION,Horizontal
HEAT FLUX,75
SURF AREA,0.01
C FACTOR,0.0385692
SPEC HOLDER DIFF,299.83
SPECIMEN MASS,33.5
SCAN TIME,0.25
O2 DELAY TIME,11
CO DELAY TIME,11
CO2 DELAY TIME,8
FLOW FACTOR,1
SCAN COUNT,931
TIME TO IGN,16.25
END OF TEST SCAN,451
END OF TEST TIME,112.75
TEST STATUS,1
PRE TEST CMT,Dimensions: 99.09 x 97.67 x 2.85 mm