File: 01_Data/PMMA/Cone/PMMA_Cone_HF75Scan_220225_R1.csv
Names,Time,Stack TC,Smoke TC,Exh Press,Smoke Comp,Smoke Meas,CO Meter,CO2 Meter,O2 Meter,Sample Mass,Ext Coeff,Start Test,Flame Verif
Chan Gain,,500,500,1,1,1,1,1,1,1,1,1.0,1.0
Offset,,0,0,0.136092,0,0,0,0,0,0,0,0.0,0.0
Gain,,1,1,25.011,15.4219,15.1528,1,1,1,1.00089,1.02113,1.0,1.0
Units,sec,C,C,Pa,%,%,%,%,%,g,/m,,
Baseline,,37.3956,39.4709,152.748,115.897,113.631,-0.00931337,0.108344,20.7756,-0.161059,0.176951,,
10,2.25,34.8067,36.5897,154.077,115.586,113.721,-0.00945603,0.110065,20.7707,898.956,0.145748,0.0,0.0
20,4.75,34.9114,36.451,151.201,115.514,112.973,-0.00953075,0.110625,20.7689,898.926,0.19922,0.0,0.0
30,7.25,34.9039,36.3144,154.242,115.427,112.736,-0.00940177,0.111153,20.7681,898.896,0.211332,0.0,0.0
40,9.75,34.9113,37.1915,152.02,115.385,113.35,-0.00920019,0.111636,20.7679,898.906,0.159347,0.0,0.0
50,12.25,35.5923,37.5876,155.823,115.399,112.923,-0.00914578,0.111713,20.7669,898.886,0.194272,0.0,0.0
60,14.75,35.3214,37.5262,157.758,115.396,113.225,-0.00890889,0.119923,20.7526,898.846,0.170169,0.0,0.0
70,17.25,35.3611,37.1211,139.039,115.419,107.078,-0.00801279,0.193197,20.61,898.696,0.671877,0.0,1.0
80,19.75,37.9413,39.3917,130.338,115.43,102.401,-0.00662292,0.377102,20.3705,898.326,1.07275,0.0,1.0
90,22.25,40.5603,43.1679,122.201,115.454,100.521,-0.00494704,0.59575,20.0629,897.985,1.24061,0.0,1.0
100,24.75,44.4936,47.9459,114.45,115.468,99.2837,-0.00338699,0.840516,19.6949,897.545,1.35262,0.0,1.0
110,27.25,49.435,53.7817,121.788,115.491,97.4525,-0.00194577,1.0533,19.4519,897.055,1.52116,0.0,0.0
120,29.75,54.8329,60.2434,104.123,115.507,95.7138,-0.000204865,1.24841,19.2238,896.484,1.6837,0.0,0.0
130,32.25,59.2371,66.6234,112.395,115.512,91.7323,0.00142035,1.41262,18.96,895.853,2.06464,0.0,0.0
140,34.75,65.9501,74.8045,97.2959,115.551,94.6534,0.00286283,1.57557,18.7653,895.243,1.78691,0.0,0.0
150,37.25,71.7847,82.0121,104.993,115.553,94.3283,0.00472826,1.75044,18.5172,894.442,1.81784,0.0,0.0
160,39.75,77.4917,89.4067,99.7483,115.587,93.9607,0.00631675,1.93997,18.2885,893.802,1.85548,0.0,0.0
170,42.25,84.8008,98.6701,88.0633,115.596,94.4134,0.0080782,2.12841,18.0435,893.001,1.81308,0.0,0.0
180,44.75,91.9796,107.978,91.7354,115.632,91.4372,0.0100615,2.34804,17.7458,892.15,2.10283,0.0,0.0
190,47.25,98.844,117.674,100.075,115.621,89.9542,0.0121513,2.57605,17.454,891.199,2.24839,0.0,0.0
200,49.75,105.946,127.144,80.4061,115.658,90.511,0.0141319,2.81869,17.1945,890.248,2.196,0.0,0.0
210,52.25,113.615,136.651,78.933,115.679,90.4079,0.0161987,3.08798,16.872,889.278,2.20788,0.0,0.0
220,54.75,121.7,147.003,78.4781,115.688,89.4127,0.0185186,3.35559,16.5355,888.267,2.30768,0.0,0.0
230,57.25,129.359,158.102,76.4501,115.691,87.7614,0.0207427,3.60784,16.1639,887.156,2.47488,0.0,0.0
240,59.75,137.444,168.304,74.6312,115.706,88.1022,0.0227211,3.89227,15.8014,886.025,2.44132,0.0,0.0
250,62.25,144.508,179.107,80.8625,115.712,87.6139,0.0247906,4.1735,15.4947,884.934,2.49158,0.0,0.0
260,64.75,152.649,190.944,77.05,115.717,88.1669,0.0297543,4.43698,15.166,883.603,2.43558,0.0,0.0
270,67.25,160.83,202.076,67.6663,115.734,87.403,0.0560662,4.8283,14.6307,882.261,2.51484,0.0,0.0
280,69.75,169.559,214.849,83.2203,115.724,87.0594,0.0866293,5.1746,14.2142,880.96,2.54936,0.0,0.0
290,72.25,176.889,225.728,72.9741,115.74,85.2518,0.0785654,5.35536,14.0205,879.599,2.73854,0.0,0.0
300,74.75,184.391,235.755,72.9001,115.727,88.5045,0.0603706,5.47055,13.9218,878.228,2.40219,0.0,0.0
310,77.25,191.432,246.475,80.1451,115.753,86.3884,0.0452316,5.52454,13.8794,877.027,2.62096,0.0,0.0
320,79.75,197.788,255.204,71.3842,115.752,87.7101,0.0384339,5.51812,13.8621,875.676,2.48485,0.0,0.0
330,82.25,203.905,264.033,67.8823,115.752,87.9977,0.0355254,5.5529,13.8362,874.294,2.45556,0.0,0.0
340,84.75,209.879,272.106,66.4969,115.742,89.9135,0.0337239,5.59103,13.8057,872.973,2.26184,0.0,0.0
350,87.25,215.258,279.53,78.8994,115.753,87.1833,0.0321329,5.57161,13.8552,871.832,2.53887,0.0,0.0
360,89.75,219.679,286.511,64.3926,115.743,88.4504,0.0307861,5.42638,14.0441,870.611,2.40891,0.0,0.0
370,92.25,224.043,291.081,72.8352,115.731,89.0252,0.0290627,5.21655,14.3498,869.41,2.3499,0.0,0.0
380,94.75,226.215,293.923,79.6123,115.753,85.5117,0.0261441,4.81282,14.8808,868.379,2.71233,0.0,0.0
390,97.25,227.221,294.734,78.7513,115.721,88.2909,0.0225553,4.29578,15.3834,867.438,2.42336,0.0,0.0
400,99.75,226.856,293.387,88.6724,115.728,90.6775,0.0180221,3.6761,16.2031,866.567,2.18497,0.0,0.0
410,102.25,224.628,289.465,96.1578,115.715,92.9249,0.0129104,2.95917,17.2227,866.077,1.96469,0.0,0.0
420,104.75,220.187,282.486,114.754,115.718,93.6948,0.00739064,2.23383,18.1229,865.767,1.89103,0.0,0.0
430,107.25,213.947,272.646,132.015,115.701,103.281,0.0017945,1.49248,19.1426,865.607,1.01716,0.0,0.0
440,109.75,204.201,260.171,137.471,115.703,107.668,-0.00249609,0.881104,19.9145,865.617,0.644651,0.0,0.0
450,112.25,195.017,247.249,140.261,115.689,107.377,-0.00518083,0.529245,20.3177,865.597,0.667902,0.0,0.0
460,114.75,186.513,235.051,139.523,115.71,107.757,-0.00662812,0.34678,20.5163,865.627,0.637852,0.0,0.0
470,117.25,178.419,223.795,138.614,115.676,108.681,-0.00761961,0.260945,20.6255,865.617,0.558679,0.0,0.0
480,119.75,170.741,213.483,146.474,115.675,107.476,-0.00816667,0.209983,20.6748,865.607,0.658481,0.0,0.0
490,122.25,164.187,204.005,143.034,115.653,108.512,-0.00831606,0.185235,20.7026,865.627,0.57089,0.0,0.0
500,124.75,157.691,195.002,143.02,115.636,108.134,-0.00831909,0.166977,20.7214,865.607,0.600821,0.0,0.0
510,127.25,151.88,186.683,145.148,115.625,108.396,-0.0084291,0.155946,20.7343,865.597,0.57825,0.0,0.0
520,129.75,146.151,178.952,142.292,115.604,108.221,-0.00861924,0.14802,20.7434,865.617,0.59114,0.0,0.0
530,132.25,140.706,172.063,146.464,115.6,108.796,-0.00883278,0.141566,20.7514,865.607,0.543363,0.0,0.0
540,134.75,135.682,165.419,142.501,115.573,107.705,-0.0090163,0.136437,20.7578,865.627,0.631588,0.0,0.0
550,137.25,131.964,159.329,145.76,115.556,107.645,-0.00895972,0.131709,20.7643,865.597,0.635198,0.0,0.0
560,139.75,127.566,153.263,146.132,115.545,108.224,-0.0088348,0.127779,20.7699,865.617,0.586351,0.0,0.0
570,142.25,123.545,148.06,142.94,115.542,107.212,-0.00885484,0.124444,20.7718,865.617,0.670231,0.0,0.0
580,144.75,119.947,143.202,144.908,115.516,107.759,-0.00888044,0.12138,20.7704,865.717,0.622675,0.0,0.0
590,147.25,116.022,138.436,144.731,115.506,107.64,-0.00880308,0.118606,20.7736,865.647,0.631757,0.0,0.0
600,149.75,112.866,133.097,144.585,115.473,107.028,-0.00875419,0.116348,20.7765,865.607,0.680293,0.0,0.0
610,152.25,110.176,129.826,142.896,115.466,108.857,-0.00881401,0.114595,20.7778,865.587,0.527977,0.0,0.0
620,154.75,106.793,125.416,143.988,115.438,108.554,-0.00884848,0.113458,20.7794,865.647,0.550782,0.0,0.0
630,157.25,104.529,122.102,142.546,115.43,107.842,-0.00897091,0.112403,20.7814,865.637,0.609077,0.0,0.0
640,159.75,101.923,118.567,144.635,115.413,108.307,-0.0091076,0.111744,20.7822,865.607,0.569208,0.0,0.0
650,162.25,99.1154,114.835,142.318,115.407,107.798,-0.00924013,0.111384,20.7822,865.597,0.610936,0.0,0.0
660,164.75,97.1927,111.702,143.569,115.393,108.918,-0.00943119,0.111748,20.781,865.587,0.517294,0.0,0.0
670,167.25,94.768,108.376,141.066,115.436,108.637,-0.00953584,0.112117,20.7772,865.587,0.543734,0.0,0.0
680,169.75,92.6209,105.627,143.985,115.509,108.775,-0.00933705,0.112212,20.7752,865.617,0.537961,0.0,0.0
690,172.25,90.5182,102.909,145.951,115.594,108.655,-0.00920192,0.112104,20.7745,865.597,0.554471,0.0,0.0
700,174.75,89.0709,100.434,142.547,115.665,108.988,-0.00914061,0.111424,20.7762,865.567,0.532645,0.0,0.0
710,177.25,87.5211,98.1207,146.354,115.738,109.483,-0.00921776,0.11071,20.7781,865.577,0.497682,0.0,0.0
720,179.75,86.1347,96.4557,147.681,115.818,108.351,-0.00926448,0.110058,20.78,865.597,0.59697,0.0,0.0
730,182.25,84.3327,94.0826,141.007,115.873,109.583,-0.00931736,0.109392,20.7807,865.567,0.499924,0.0,0.0
740,184.75,83.1354,91.9125,140.075,115.938,108.783,-0.0093971,0.109204,20.7817,865.607,0.570573,0.0,0.0
750,187.25,82.2124,90.0497,146.015,115.991,109.106,-0.0093324,0.10894,20.7828,865.597,0.54807,0.0,0.0
760,189.75,80.3388,88.5338,143.055,116.042,109.766,-0.00938532,0.108558,20.7794,865.577,0.498057,0.0,0.0
770,192.25,79.1242,86.9715,146.287,116.052,108.648,-0.00941638,0.108104,20.7786,865.597,0.590495,0.0,0.0
780,194.75,78.0172,84.7272,148.728,116.11,108.753,-0.00934351,0.107761,20.7789,865.597,0.586311,0.0,0.0
790,197.25,76.8933,83.6548,145.1,116.121,109.067,-0.0092388,0.107529,20.7801,865.567,0.561359,0.0,0.0
800,199.75,75.75,81.9437,142.533,116.159,110.005,-0.00909041,0.107533,20.781,865.577,0.487646,0.0,0.0
810,202.25,74.9427,80.9875,143.587,116.183,108.75,-0.00898694,0.107686,20.78,865.557,0.59224,0.0,0.0
820,204.75,74.4455,79.4117,145.403,116.213,108.732,-0.00898301,0.10795,20.778,865.597,0.595936,0.0,0.0
830,207.25,73.1787,78.291,144.861,116.232,109.406,-0.00910575,0.108459,20.7772,865.567,0.542165,0.0,0.0
840,209.75,72.3473,77.3082,144.637,116.247,108.451,-0.0093474,0.108683,20.7769,865.567,0.621849,0.0,0.0
850,212.25,71.6577,76.1918,144.585,116.26,110.223,-0.009488,0.108684,20.777,865.567,0.477619,0.0,0.0
860,214.75,70.9224,74.7394,144.634,116.257,109.258,-0.009372,0.108665,20.7771,865.577,0.556137,0.0,0.0
870,217.25,70.3598,74.1504,149.359,116.266,110.491,-0.00928118,0.108658,20.7767,865.567,0.456394,0.0,0.0
880,219.75,69.2881,73.1904,144.807,116.237,110.371,,0.108718,,865.547,0.463861,0.0,0.0
890,222.25,69.0119,72.401,146.76,116.236,109.941,,0.108842,,865.557,0.498759,0.0,0.0
900,224.75,68.0857,71.2726,145.884,116.21,110.308,,,,865.557,0.466862,0.0,0.0
910,227.25,67.8089,70.7159,146.232,116.183,110.019,,,,865.567,0.488294,0.0,0.0
920,229.75,66.7542,69.619,143.906,116.145,110.039,,,,865.597,0.483772,0.0,0.0
923,230.5,67.0565,69.6953,142.424,116.142,110.067,,,,865.587,0.481186,0.0,0.0