File: 01_Data/PMMA/Cone/PMMA_Cone_HF15-noSparkScan_210827_R1.csv
Names,Time,Stack TC,Smoke TC,Exh Press,Smoke Comp,Smoke Meas,CO Meter,CO2 Meter,O2 Meter,Sample Mass,Ext Coeff,Start Test,Flame Verif
Chan Gain,,500,500,1,1,1,1,1,1,1,1,1.0,1.0
Offset,,0,0,0.145697,0,0,0,0,0,0,0,0.0,0.0
Gain,,1,1,25.011,13.1742,16.6938,1,1,1,1.00099,1.02845,1.0,1.0
Units,sec,C,C,Pa,%,%,%,%,%,g,/m,,
Baseline,,25.7251,26.6322,194.842,100.731,104.219,0.000786293,0.0465156,20.9829,-507.829,-0.30712,,
56,13.75,24.0875,24.9976,194.52,100.217,103.613,0.000414726,0.0476532,20.981,33.9936,-0.300695,0.0,0.0
112,27.75,23.9318,25.2892,197.084,100.198,103.517,0.000929781,0.0463797,20.9823,34.0436,-0.293973,0.0,0.0
168,41.75,24.1047,24.885,194.187,100.209,103.673,0.000771405,0.0466327,20.9842,34.0336,-0.306535,0.0,0.0
224,55.75,24.1459,24.9322,195.231,100.202,103.477,0.000995361,0.0466148,20.9852,33.9936,-0.290147,0.0,0.0
280,69.75,24.4617,25.0586,197.861,100.197,103.326,0.000387963,0.0463809,20.984,33.9535,-0.277424,0.0,0.0
336,83.75,24.2106,25.2121,193.661,100.206,103.909,0.000787394,0.0489763,20.981,34.0036,-0.327371,0.0,0.0
392,97.75,24.3148,25.5132,199.034,100.223,103.658,0.00106759,0.0470062,20.9839,33.8134,-0.304055,0.0,0.0
448,111.75,24.4742,25.1139,198.624,100.262,103.348,0.000428368,0.0463434,20.9833,33.7233,-0.273466,0.0,0.0
504,125.75,24.5163,25.3728,195.472,100.342,103.747,0.000714979,0.0462127,20.9827,33.8935,-0.301024,0.0,0.0
560,139.75,24.6212,25.563,191.101,100.488,104.078,0.000791361,0.0461837,20.9864,33.8634,-0.316743,0.0,0.0
616,153.75,24.5284,25.6642,193.914,100.535,103.613,0.000678196,0.0463436,20.9867,33.9735,-0.272112,0.0,0.0
672,167.75,24.8917,25.9585,194.692,100.577,103.807,0.000868377,0.0464759,20.9855,33.7433,-0.285165,0.0,0.0
728,181.75,24.7339,25.4774,194.155,100.722,104.098,0.000696367,0.0462082,20.9847,33.8534,-0.297437,0.0,0.0
784,195.75,24.8959,25.9018,196.021,100.851,104.135,0.000628513,0.0466403,20.9831,33.8634,-0.289072,0.0,0.0
840,209.75,24.7177,25.5955,188.993,101.055,104.341,0.000996906,0.0465265,20.9829,33.8234,-0.288678,0.0,0.0
896,223.75,25.0008,25.8278,197.603,101.16,104.865,0.000468833,0.0464236,20.9837,33.6833,-0.324528,0.0,0.0
952,237.75,25.0016,26.146,194.562,101.241,104.456,0.000529108,0.0465051,20.9859,33.7633,-0.282052,0.0,0.0
1008,251.75,24.8234,26.1708,190.155,101.245,104.375,0.000589434,0.0465437,20.9836,33.6933,-0.274659,0.0,0.0
1064,265.75,24.5509,25.9139,198.161,101.297,104.542,0.000746407,0.0466457,20.9828,33.6132,-0.28455,0.0,0.0
1120,279.75,24.7458,25.9987,193.266,101.317,104.273,0.000357651,0.046533,20.9823,33.5531,-0.259446,0.0,0.0
1176,293.75,24.9603,26.2192,192.396,101.324,104.32,0.000529697,0.0464237,20.9828,33.413,-0.262892,0.0,0.0
1232,307.75,24.3701,25.4005,196.506,101.362,104.449,0.000509103,0.0465471,20.9829,33.3329,-0.270667,0.0,0.0
1288,321.75,25.0213,26.1185,193.012,101.32,104.026,0.000450455,0.0469286,20.9827,33.2228,-0.237784,0.0,0.0
1344,335.75,25.0098,26.1436,191.794,101.224,103.984,0.000767088,0.047469,20.9849,33.0727,-0.242641,0.0,0.0
1400,349.75,24.636,25.9013,192.704,100.983,104.252,0.000899035,0.0491108,20.9787,32.9525,-0.287428,0.0,0.0
1456,363.75,24.9423,25.9861,192.856,100.696,103.484,0.000569156,0.0501462,20.9758,32.8024,-0.246391,0.0,0.0
1512,377.75,25.0092,25.7524,191.422,100.402,103.338,0.000775739,0.0511555,20.977,32.7323,-0.260005,0.0,0.0
1568,391.75,25.0924,26.0125,190.416,100.211,103.12,0.00103831,0.0521038,20.9748,32.5021,-0.25808,0.0,0.0
1624,405.75,24.9492,26.3302,195.078,100.201,103.285,0.000662972,0.0525614,20.9733,32.3319,-0.273458,0.0,0.0
1680,419.75,24.977,26.2984,189.645,100.346,103.221,0.000425569,0.0536325,20.972,32.1517,-0.254865,0.0,0.0
1736,433.75,25.2857,26.1188,187.749,100.645,103.573,0.000857935,0.0542484,20.9724,31.9415,-0.258692,0.0,0.0
1792,447.75,25.4629,26.5872,188.13,101.019,103.78,0.000832999,0.054732,20.971,31.8314,-0.243237,0.0,0.0
1848,461.75,25.1686,26.2534,193.434,101.294,104.187,0.000505887,0.0549375,20.9712,31.5912,-0.254026,0.0,0.0
1904,475.75,25.0813,26.3157,193.199,101.433,104.443,0.000811652,0.055918,20.9687,31.391,-0.263844,0.0,0.0
1960,489.75,25.1775,26.2776,196.227,101.274,103.874,0.000276835,0.0566896,20.9676,31.1207,-0.228683,0.0,0.0
2016,503.75,25.6615,26.6836,197.347,100.832,103.65,0.00112246,0.0568804,20.9669,30.9105,-0.248648,0.0,0.0
2072,517.75,25.6309,26.7872,196.837,100.942,103.407,0.000782952,0.0577517,20.968,30.7604,-0.217665,0.0,0.0
2128,531.75,25.6227,26.5426,193.139,101.11,104.041,0.000683308,0.0579291,20.9659,30.4801,-0.257781,0.0,0.0
2184,545.75,25.3131,26.3963,189.661,100.798,103.787,0.000636923,0.0582771,20.9647,30.2699,-0.26359,0.0,0.0
2240,559.75,25.5393,26.7718,191.631,101.243,103.831,0.000873337,0.0590143,20.9643,30.0597,-0.227651,0.0,0.0
2296,573.75,25.8112,26.9506,192.407,101.572,104.969,0.000710557,0.0596255,20.9663,29.7794,-0.296814,0.0,0.0
2352,587.75,26.0584,26.9567,195.133,101.456,104.129,0.000723289,0.059928,20.962,29.5292,-0.234614,0.0,0.0
2408,601.75,25.8264,26.9887,195.316,100.786,104.007,0.000908977,0.060252,20.9608,29.2189,-0.283807,0.0,0.0
2464,615.75,25.8617,27.0469,197.858,100.193,103.085,0.000765187,0.060804,20.9601,28.9986,-0.256678,0.0,0.0
2520,629.75,26.4034,27.2848,195.494,100.52,103.883,0.000622615,0.0612063,20.9614,28.8185,-0.296882,0.0,0.0
2576,643.75,26.0759,27.1557,192.818,101.182,104.176,0.00118192,0.0617043,20.9593,28.6083,-0.263096,0.0,0.0
2632,657.75,25.6579,26.7182,191.464,101.427,104.496,0.000713076,0.0622322,20.9595,28.2879,-0.268911,0.0,0.0
2688,671.75,25.8253,27.1249,195.914,101.268,105.042,0.000652399,0.0625652,20.9585,28.1278,-0.330039,0.0,0.0
2744,685.75,26.0559,27.154,193.52,100.833,103.597,0.000575034,0.0627804,20.9593,27.9076,-0.243927,0.0,0.0
2800,699.75,25.7317,27.2021,192.795,100.913,103.868,0.000751482,0.0632178,20.9561,27.5772,-0.260387,0.0,0.0
2856,713.75,26.1058,26.8914,189.271,101.02,104.325,0.000886547,0.0629598,20.9567,27.337,-0.290435,0.0,0.0
2912,727.75,26.1576,26.9614,191.158,100.826,104.035,0.0005042,0.0633576,20.9574,27.1268,-0.282683,0.0,0.0
2968,741.75,25.7405,26.9608,194.194,101.285,104.583,0.000907228,0.0634181,20.9578,26.9266,-0.289025,0.0,0.0
3024,755.75,25.6386,26.9292,193.434,101.549,104.746,0.000763068,0.0636261,20.957,26.6463,-0.279696,0.0,0.0
3080,769.75,26.4686,27.3302,192.47,101.405,104.923,0.00087004,0.0641316,20.9567,26.346,-0.307705,0.0,0.0
3136,783.75,25.9208,27.3087,196.832,100.913,104.49,0.00109542,0.064207,20.956,26.1658,-0.314325,0.0,0.0
3192,797.75,26.4649,27.517,192.122,100.364,103.955,0.000582825,0.0647526,20.9548,25.8355,-0.317174,0.0,0.0
3248,811.75,25.9187,26.8552,191.81,100.177,103.418,0.000957607,0.0655437,20.9533,25.7654,-0.287274,0.0,0.0
3304,825.75,26.1635,26.8026,193.635,100.687,104.001,0.000800545,0.0662501,20.9534,25.4451,-0.292223,0.0,0.0
3360,839.75,26.5928,27.4833,193.645,101.287,104.648,0.00056824,0.0661689,20.953,25.2049,-0.29455,0.0,0.0
3416,853.75,26.0172,27.2466,190.775,101.418,104.747,0.000494639,0.0663878,20.9518,25.0347,-0.291391,0.0,0.0
3472,867.75,26.7208,27.4314,193.879,101.106,104.658,0.000900406,0.0668233,20.9524,24.7344,-0.311433,0.0,0.0
3528,881.75,26.3193,27.4981,194.913,100.714,104.345,0.00100189,0.0668107,20.9513,24.5142,-0.319518,0.0,0.0
3584,895.75,26.1323,27.4256,187.388,100.978,105.048,0.000530593,0.0675379,20.9493,24.2139,-0.356461,0.0,0.0
3640,909.75,26.1586,27.4641,190.551,100.979,104.782,0.00109488,0.0681577,20.9483,24.0337,-0.333564,0.0,0.0
3696,923.75,26.6021,27.4423,193.205,100.739,105.207,0.00083478,0.068402,20.9481,23.8836,-0.391507,0.0,0.0
3752,937.75,26.3927,27.3686,193.754,101.233,105.521,0.00113065,0.0690317,20.9463,23.6033,-0.374263,0.0,0.0
3808,951.75,26.1401,27.0323,196.012,101.54,105.564,0.00111831,0.0695202,20.9454,23.323,-0.350632,0.0,0.0
3864,965.75,26.5328,27.4828,188.824,101.198,105.507,0.00081266,0.07018,20.9453,23.0828,-0.376176,0.0,0.0
3920,979.75,26.5268,27.5225,194.311,100.504,105.145,0.000805014,0.0703028,20.9458,22.8426,-0.407254,0.0,0.0
3976,993.75,26.5952,27.3484,196.505,100.161,104.224,0.000833075,0.0705799,20.9437,22.7024,-0.358676,0.0,0.0
4032,1007.75,26.0945,27.2018,195.796,100.552,104.433,0.000785688,0.0706692,20.9442,22.272,-0.34166,0.0,0.0
4088,1021.75,26.6022,27.671,192.234,101.142,105.643,0.000637352,0.0712326,20.9461,22.232,-0.392812,0.0,0.0
4144,1035.75,25.9902,27.3232,197.067,101.457,106.132,0.00111297,0.07177,20.9444,21.7815,-0.406488,0.0,0.0
4200,1049.75,26.3484,27.3351,193.279,101.269,105.404,0.00111032,0.0722157,20.9428,21.6714,-0.361067,0.0,0.0
4256,1063.75,26.5414,27.6193,194.756,100.798,105.04,0.000790974,0.0721726,20.9426,21.4812,-0.371867,0.0,0.0
4312,1077.75,26.5804,27.445,195.952,100.926,105.588,0.000995661,0.0723254,20.945,21.281,-0.40739,0.0,0.0
4368,1091.75,26.1749,27.1159,196.316,100.945,105.327,0.000394666,0.0723178,20.9425,21.0107,-0.383307,0.0,0.0
4424,1105.75,26.4873,27.3854,192.664,100.859,105.805,0.000678326,0.0722771,20.9444,20.6404,-0.431925,0.0,0.0
4480,1119.75,26.7842,27.327,197.325,101.404,106.039,0.00101459,0.0722942,20.9434,20.4802,-0.403165,0.0,0.0
4536,1133.75,26.4449,27.4986,196.049,101.367,105.534,0.00111248,0.0724623,20.9432,20.29,-0.363444,0.0,0.0
4592,1147.75,26.3528,27.347,193.009,100.679,105.226,0.000869717,0.072426,20.9422,20.1599,-0.398489,0.0,0.0
4648,1161.75,26.5038,27.2434,196.936,100.152,105.179,0.00102949,0.0720953,20.9412,19.8396,-0.441779,0.0,0.0
4704,1175.75,26.396,27.4848,191.847,100.433,104.892,0.000620574,0.0727438,20.9413,19.6294,-0.391945,0.0,0.0
4760,1189.75,26.5906,27.7539,195.806,101.1,105.394,0.000706725,0.0727029,20.9422,19.3391,-0.37525,0.0,0.0
4816,1203.75,25.3907,25.5462,191.661,101.471,106.049,0.000754906,0.0734615,20.9394,19.1389,-0.39814,0.0,0.0
4872,1217.75,24.7293,26.2007,193.272,101.164,106.132,0.000884775,0.0738228,20.9391,18.8987,-0.432509,0.0,0.0
4928,1231.75,25.001,25.9707,194.548,100.813,105.824,0.00154055,0.0736023,20.9402,18.6384,-0.437632,0.0,0.0
4984,1245.75,25.0044,26.2668,189.942,100.958,105.515,0.000722758,0.0736715,20.9412,18.4983,-0.398324,0.0,0.0
5040,1259.75,25.1283,26.0659,192.215,100.847,105.835,0.00148385,0.0733541,20.9422,18.2881,-0.435603,0.0,0.0
5096,1273.75,24.9291,25.844,193.471,100.772,105.442,0.000940431,0.073562,20.9419,17.9778,-0.408663,0.0,0.0
5152,1287.75,25.4587,25.7057,195.764,101.196,106.365,0.000799559,0.0738062,20.9415,17.8276,-0.449452,0.0,0.0
5208,1301.75,25.1042,26.0175,196.593,101.481,106.301,0.00102846,0.0735941,20.9377,17.5673,-0.418666,0.0,0.0
5264,1315.75,24.6434,26.0859,193.118,101.375,106.94,,,,17.3672,-0.482091,0.0,0.0
5290,1322.25,25.6273,25.6242,195.745,101.306,106.554,,,,17.0869,-0.45561,0.0,0.0