File: 01_Data/Polyester_Bed_Skirt/HFM/Polyester_Bed_Skirt_Density_Wet_R1.csv
,Polyester_Bed_Skirt_WET_1
Sample Mass [g],3.8
Sample Volume [cm3],8.9
Sample Density [kg/m3],430