File: 01_Data/Polyester_Bed_Skirt/HFM/Polyester_Bed_Skirt_Density_Wet_R2.csv
,Polyester_Bed_Skirt_WET_2
Sample Mass [g],3.9
Sample Volume [cm3],9.3
Sample Density [kg/m3],419