File: 01_Data/Polyester_Bed_Skirt/HFM/Polyester_Bed_Skirt_Density_Wet_R3.csv
,Polyester_Bedskirt_WET_3
Sample Mass [g],3.8
Sample Volume [cm3],8.5
Sample Density [kg/m3],446