File: 01_Data/FDNY_LDF/STA/N2/10K_min/FDNY_LDF_STA_N2_10KData_22254_R2.csv
##Temp./Â°C,Time/min,DSC(subtr.)/(mW/mg),Mass loss(subtr.)/mg,Sensit./(uV/mW)
49.843,10.00917,0.008134211,0.01481,1.06049
53.043,11.32,0.12279,0.01666402,1.05982
56.243,11.77102,0.1784,0.02128286,1.05914
59.443,12.15599,0.20679,0.01676735,1.05843
62.643,12.51713,0.23294,0.0167371,1.05771
65.843,12.86806,0.24861,0.01677079,1.05697
69.043,13.21186,0.26554,0.01682795,1.05621
72.243,13.5527,0.2787,0.01550392,1.05543
75.443,13.8888,0.29493,0.01415997,1.05463
78.643,14.2219,0.30388,0.01283,1.05381
81.843,14.5515,0.31094,0.01119425,1.05298
85.043,14.87708,0.31806,0.01020897,1.05212
88.243,15.20026,0.31851,0.009589924,1.05125
91.443,15.5212,0.31998,0.008876387,1.05036
94.643,15.8391,0.31547,0.007570006,1.04945
97.843,16.15624,0.31352,0.006855005,1.04853
101.043,16.47099,0.30569,0.00626,1.04758
104.243,16.78568,0.30047,0.006254703,1.04662
107.443,17.0984,0.29268,0.00599022,1.04564
110.643,17.412,0.29026,0.005168575,1.04464
113.843,17.7255,0.28566,0.005269141,1.04362
117.043,18.03706,0.28633,0.006240079,1.04259
120.243,18.34846,0.28523,0.00533169,1.04153
123.443,18.6605,0.28611,0.004961898,1.04047
126.643,18.9699,0.28812,0.00560004,1.03938
129.843,19.28039,0.28988,0.006250164,1.03827
133.043,19.59,0.29322,0.00657999,1.03715
136.243,19.899,0.29901,0.006579988,1.03601
139.443,20.20649,0.30076,0.00518099,1.03486
142.643,20.5144,0.30069,0.007899067,1.03369
145.843,20.8231,0.30585,0.006372905,1.0325
149.043,21.1305,0.30927,0.00768,1.03129
152.243,21.43809,0.31418,0.007571139,1.03007
155.443,21.74522,0.31639,0.00746049,1.02883
158.643,22.05211,0.3208,0.007500951,1.02757
161.843,22.3584,0.32553,0.007460191,1.0263
165.043,22.66556,0.32844,0.00679993,1.02501
168.243,22.97233,0.32958,0.00681036,1.02371
171.443,23.27822,0.33552,0.005800109,1.02239
174.643,23.5851,0.33679,0.00458083,1.02105
177.843,23.89007,0.34274,0.004466241,1.01969
181.043,24.19567,0.34635,0.00451,1.01833
184.243,24.501,0.35055,0.003140374,1.01694
187.443,24.80595,0.35313,0.00157202,1.01554
190.643,25.11076,0.3603,0.004165886,1.01412
193.843,25.41583,0.36732,0.0005517819,1.01269
197.043,25.72061,0.37108,0.0005502773,1.01124
200.243,26.02465,0.37632,-0.0006654438,1.00978
203.443,26.32978,0.3816,-0.00471,1.0083
206.643,26.63492,0.38628,-0.005698204,1.00681
209.843,26.93905,0.39016,-0.008339995,1.0053
213.043,27.24425,0.39698,-0.008782996,1.00378
216.243,27.54897,0.40354,-0.01228382,1.00224
219.443,27.85435,0.40562,-0.01621723,1.00069
222.643,28.15902,0.41076,-0.01984678,0.99912
225.843,28.4634,0.4164,-0.02481679,0.99754
229.043,28.7684,0.4214,-0.02873957,0.99595
232.243,29.07413,0.41765,-0.03466283,0.99433
235.443,29.3793,0.42037,-0.03958995,0.99271
238.643,29.68425,0.42634,-0.04420469,0.99107
241.843,29.9885,0.42946,-0.05221819,0.98942
245.043,30.29389,0.43217,-0.06134654,0.98775
248.243,30.59876,0.43879,-0.06863871,0.98607
251.443,30.9039,0.43985,-0.07918985,0.98438
254.643,31.20915,0.44692,-0.09026062,0.98267
257.843,31.51496,0.44848,-0.10316,0.98095
261.043,31.8198,0.45205,-0.11637,0.97921
264.243,32.1248,0.45759,-0.13173,0.97746
267.443,32.43117,0.45967,-0.14939,0.9757
270.643,32.737,0.46166,-0.16767,0.97392
273.843,33.04316,0.4658,-0.18864,0.97214
277.043,33.34973,0.4678,-0.21274,0.97033
280.243,33.65555,0.47238,-0.23945,0.96852
283.443,33.96133,0.47686,-0.26723,0.96669
286.643,34.26719,0.4828,-0.2974,0.96485
289.843,34.5723,0.49063,-0.33011,0.963
293.043,34.87751,0.49844,-0.36664,0.96114
296.243,35.18388,0.5031,-0.40604,0.95926
299.443,35.48965,0.51523,-0.44946,0.95737
302.643,35.79594,0.52818,-0.49647,0.95547
305.843,36.10223,0.53983,-0.54722,0.95355
309.043,36.40808,0.55027,-0.60226,0.95163
312.243,36.71569,0.56647,-0.661,0.94969
315.443,37.0227,0.57843,-0.72524,0.94774
318.643,37.3298,0.59394,-0.79326,0.94578
321.843,37.63734,0.60164,-0.86484,0.94381
325.043,37.94534,0.61298,-0.93868,0.94182
328.243,38.25353,0.62073,-1.0176,0.93982
331.443,38.5618,0.62646,-1.09584,0.93782
334.643,38.86978,0.63684,-1.17502,0.9358
337.843,39.17773,0.64281,-1.25763,0.93377
341.043,39.48563,0.6587,-1.33958,0.93173
344.243,39.79437,0.67367,-1.4272,0.92968
347.443,40.1034,0.70044,-1.51506,0.92762
350.643,40.41173,0.73833,-1.60681,0.92554
353.843,40.72193,0.77714,-1.70704,0.92346
357.043,41.03204,0.81609,-1.81077,0.92136
360.243,41.34196,0.84919,-1.92014,0.91926
363.443,41.6535,0.87233,-2.03506,0.91715
366.643,41.96457,0.8768,-2.15189,0.91502
369.843,42.2757,0.85121,-2.26811,0.91288
373.043,42.58663,0.78348,-2.37431,0.91074
376.243,42.89755,0.6796,-2.47318,0.90858
379.443,43.20789,0.54817,-2.55479,0.90642
382.643,43.5177,0.40298,-2.61628,0.90424
385.843,43.8274,0.26909,-2.65901,0.90206
389.043,44.13778,0.17063,-2.68477,0.89987
392.243,44.44801,0.11454,-2.70399,0.89766
395.443,44.7584,0.09105132,-2.7169,0.89545
398.643,45.0704,0.07906759,-2.72683,0.89323
401.843,45.3834,0.06817269,-2.7372,0.891
405.043,45.69607,0.06246124,-2.74803,0.88876
408.243,46.00908,0.0527486,-2.75772,0.88651
411.443,46.32162,0.04653213,-2.76726,0.88425
414.643,46.63414,0.04286751,-2.77818,0.88198
417.843,46.9467,0.03756455,-2.78724,0.87971
421.043,47.25884,0.028764,-2.79709,0.87742
424.243,47.5718,0.02128789,-2.80794,0.87513
427.443,47.88487,0.0146965,-2.81638,0.87283
430.643,48.19815,0.01504398,-2.82732,0.87052
433.843,48.51174,0.01252636,-2.83748,0.8682
437.043,48.82509,0.01511546,-2.84552,0.86588
440.243,49.1386,0.01916322,-2.85454,0.86354
443.443,49.45169,0.02763972,-2.8643,0.8612
446.643,49.766,0.03375156,-2.87228,0.85885
449.843,50.0799,0.04076545,-2.88144,0.85649
453.043,50.39459,0.04812236,-2.88987,0.85413
456.243,50.70913,0.05806579,-2.8967,0.85176
459.443,51.02393,0.06699223,-2.90295,0.84938
462.643,51.33862,0.075253,-2.90832,0.84699
465.843,51.65339,0.08577321,-2.9167,0.8446
469.043,51.96873,0.09375094,-2.92193,0.8422
472.243,52.2836,0.09920481,-2.92632,0.83979
475.443,52.59964,0.10576,-2.93146,0.83737
478.643,52.9149,0.10837,-2.93783,0.83495
481.843,53.2307,0.11573,-2.94331,0.83252
485.043,53.5464,0.12158,-2.94463,0.83008
488.243,53.86215,0.12148,-2.95041,0.82764
491.443,54.1785,0.12515,-2.95593,0.82519
494.643,54.4947,0.12569,-2.95727,0.82274
497.843,54.8109,0.13135,-2.96295,0.82028
501.043,55.12778,0.13331,-2.96678,0.81781
504.243,55.445,0.1327,-2.9704,0.81534
507.443,55.762,0.13689,-2.97337,0.81286
510.643,56.0786,0.13634,-2.97699,0.81037
513.843,56.39516,0.14194,-2.98258,0.80788
517.043,56.7123,0.15333,-2.98548,0.80538
520.243,57.0295,0.15789,-2.98685,0.80288
523.443,57.3461,0.1736,-2.99264,0.80037
526.643,57.6633,0.18048,-2.99518,0.79785
529.843,57.98085,0.18704,-2.99765,0.79533
533.043,58.29863,0.18961,-3.00106,0.79281
536.243,58.61505,0.19154,-3.00375,0.79028
539.443,58.9337,0.19393,-3.00575,0.78774
542.643,59.252,0.19773,-3.00935,0.7852
545.843,59.57054,0.19793,-3.01178,0.78266
549.043,59.88836,0.1955,-3.01527,0.78011
552.243,60.2075,0.1969,-3.01724,0.77755
555.443,60.52604,0.19883,-3.02119,0.77499
558.643,60.84474,0.19066,-3.02382,0.77243
561.843,61.1623,0.1868,-3.0271,0.76986
565.043,61.4814,0.18582,-3.02876,0.76729
568.243,61.80019,0.18435,-3.03073,0.76471
571.443,62.11999,0.18309,-3.03369,0.76213
574.643,62.43948,0.18079,-3.03501,0.75954
577.843,62.76011,0.17979,-3.03896,0.75695
581.043,63.0809,0.17863,-3.04258,0.75436
584.243,63.40155,0.1799,-3.04389,0.75176
587.443,63.72186,0.17958,-3.04653,0.74916
590.643,64.04223,0.17708,-3.04786,0.74656
593.843,64.36282,0.17481,-3.04937,0.74395
597.043,64.6832,0.17131,-3.05048,0.74134
600.243,65.00386,0.17415,-3.05343,0.73872
603.443,65.32509,0.16903,-3.05575,0.7361
606.643,65.64602,0.16725,-3.05804,0.73348
609.843,65.96595,0.16935,-3.06067,0.73085
613.043,66.28744,0.16552,-3.06265,0.72822
616.243,66.60837,0.1643,-3.06264,0.72559
619.443,66.9297,0.15924,-3.06695,0.72296
622.643,67.25089,0.15784,-3.06824,0.72032
625.843,67.57202,0.15178,-3.07087,0.71768
629.043,67.89304,0.15529,-3.07088,0.71504
632.243,68.2136,0.14993,-3.0722,0.71239
635.443,68.53413,0.14693,-3.07351,0.70974
638.643,68.85639,0.14718,-3.07483,0.70709
641.843,69.1788,0.14255,-3.07615,0.70444
645.043,69.50053,0.13659,-3.07746,0.70179
648.243,69.82264,0.13618,-3.07874,0.69913
651.443,70.14523,0.13599,-3.08211,0.69647
654.643,70.46771,0.13375,-3.08206,0.69381
657.843,70.7902,0.13091,-3.08207,0.69114
661.043,71.11191,0.13226,-3.0847,0.68848
664.243,71.4345,0.12957,-3.08602,0.68581
667.443,71.75699,0.13178,-3.08733,0.68314
670.643,72.0799,0.12891,-3.08739,0.68047
673.843,72.40207,0.13289,-3.08733,0.6778
677.043,72.72453,0.13373,-3.08928,0.67513
680.243,73.04711,0.13435,-3.09194,0.67245
683.443,73.3699,0.13277,-3.09194,0.66978
686.643,73.69311,0.13496,-3.09291,0.6671
689.843,74.01684,0.13708,-3.09391,0.66442
693.043,74.34009,0.13456,-3.09454,0.66174
696.243,74.66476,0.13828,-3.09721,0.65906
699.443,74.98829,0.13798,-3.09786,0.65638
702.643,75.31143,0.14088,-3.09852,0.6537
705.843,75.636,0.15076,-3.09983,0.65102
709.043,75.9593,0.14843,-3.10072,0.64834
712.243,76.28353,0.15149,-3.10105,0.64565
715.443,76.60823,0.15404,-3.10203,0.64297
718.643,76.93247,0.1577,-3.10367,0.64028
721.843,77.25633,0.15764,-3.10631,0.6376
725.043,77.5804,0.16295,-3.10499,0.63491
728.243,77.90436,0.16352,-3.10499,0.63223
731.443,78.22886,0.16509,-3.10597,0.62954
734.643,78.55322,0.16723,-3.1063,0.62686
737.843,78.87776,0.16686,-3.10899,0.62417
741.043,79.2028,0.16067,-3.10894,0.62149
744.243,79.52717,0.1578,-3.10927,0.61881
747.443,79.85123,0.16072,-3.11058,0.61612
750.643,80.17545,0.16525,-3.11157,0.61344
753.843,80.4999,0.17241,-3.11453,0.61075
757.043,80.82497,0.16492,-3.11322,0.60807
760.243,81.1493,0.16308,-3.11354,0.60539
763.443,81.4738,0.16695,-3.11486,0.60271
766.643,81.7976,0.16785,-3.11553,0.60003
769.843,82.12144,0.16595,-3.11849,0.59735
773.043,82.4458,0.15803,-3.11841,0.59467
776.243,82.77068,0.16425,-3.1198,0.59199
779.443,83.0954,0.16411,-3.12039,0.58931
782.643,83.4196,0.17038,-3.12243,0.58664
785.843,83.7445,0.17785,-3.12178,0.58396
789.043,84.06907,0.18138,-3.12309,0.58129
792.243,84.39404,0.18139,-3.12309,0.57862
795.443,84.71925,0.1877,-3.1244,0.57595
798.143,84.9932,0.1935,-3.12441,0.57369