File: 01_Data/FDNY_LDF/STA/N2/10K_min/LDF_STA_N2_10KData_22224_R1.csv
##Temp./Â°C,Time/min,DSC(subtr.)/(mW/mg),Mass loss(subtr.)/mg,Sensit./(uV/mW)
49.718,10.01,0.007835105,0.00592,1.06051
53.018,11.3415,0.11085,0.005112338,1.05983
56.318,11.80206,0.1533,0.00780823,1.05912
59.618,12.19903,0.18116,0.006552513,1.0584
62.918,12.57126,0.20029,0.006138719,1.05765
66.218,12.9316,0.2129,0.00614944,1.05688
69.518,13.28614,0.22505,0.006160704,1.05609
72.818,13.63618,0.23629,0.00483194,1.05529
76.118,13.98345,0.24989,0.00352128,1.05446
79.418,14.32605,0.26027,0.003402843,1.05361
82.718,14.665,0.26791,0.0020493,1.05275
86.018,15.00048,0.2721,0.000769227,1.05186
89.318,15.33301,0.27273,-0.000787112,1.05095
92.618,15.66305,0.27111,-0.004699328,1.05003
95.918,15.9902,0.26608,-0.003505357,1.04909
99.218,16.31656,0.25936,-0.005171567,1.04812
102.518,16.64105,0.25393,-0.007463211,1.04714
105.818,16.9646,0.24658,-0.00701995,1.04614
109.118,17.28719,0.24244,-0.006909317,1.04512
112.418,17.61025,0.24128,-0.008221445,1.04408
115.718,17.9313,0.23601,-0.00625,1.04302
119.018,18.25333,0.23428,-0.007138555,1.04194
122.318,18.57471,0.2361,-0.006894955,1.04084
125.618,18.89554,0.2371,-0.006602588,1.03973
128.918,19.21554,0.23822,-0.00657817,1.0386
132.218,19.53556,0.23922,-0.006916511,1.03744
135.518,19.8554,0.2431,-0.008880261,1.03627
138.818,20.17399,0.24532,-0.00822999,1.03509
142.118,20.49311,0.24819,-0.00821999,1.03388
145.418,20.81136,0.24931,-0.00822,1.03266
148.718,21.12881,0.25272,-0.00959341,1.03141
152.018,21.44629,0.25571,-0.007598843,1.03015
155.318,21.7634,0.25753,-0.00773942,1.02888
158.618,22.0806,0.2593,-0.00757008,1.02758
161.918,22.39734,0.26,-0.006569357,1.02627
165.218,22.71335,0.26177,-0.009208735,1.02494
168.518,23.03076,0.26341,-0.007899999,1.02359
171.818,23.34625,0.26861,-0.009204771,1.02223
175.118,23.66207,0.27134,-0.0111804,1.02085
178.418,23.9773,0.27383,-0.01053007,1.01945
181.718,24.29211,0.27991,-0.01120052,1.01803
185.018,24.60745,0.28188,-0.01514008,1.0166
188.318,24.92211,0.28511,-0.01461482,1.01515
191.618,25.2372,0.28884,-0.01727368,1.01369
194.918,25.552,0.29235,-0.01777005,1.01221
198.218,25.867,0.29962,-0.02083355,1.01071
201.518,26.18154,0.30321,-0.0233638,1.00919
204.818,26.49573,0.30943,-0.02456818,1.00766
208.118,26.8095,0.3115,-0.02313492,1.00612
211.418,27.1231,0.31696,-0.02986561,1.00456
214.718,27.43733,0.32331,-0.033656,1.00298
218.018,27.75098,0.32537,-0.03700348,1.00138
221.318,28.0649,0.32732,-0.03894,0.99977
224.618,28.37935,0.32984,-0.0415693,0.99815
227.918,28.6943,0.33397,-0.04744545,0.99651
231.218,29.0086,0.33148,-0.05340948,0.99485
234.518,29.3231,0.33184,-0.05751287,0.99318
237.818,29.63873,0.33371,-0.06393572,0.9915
241.118,29.95369,0.33528,-0.07021866,0.98979
244.418,30.26783,0.3408,-0.08107933,0.98808
247.718,30.58292,0.3466,-0.09105777,0.98635
251.018,30.8972,0.34894,-0.10179,0.9846
254.318,31.21095,0.35254,-0.11335,0.98284
257.618,31.52627,0.35512,-0.12635,0.98107
260.918,31.84102,0.35768,-0.14014,0.97928
264.218,32.1556,0.36317,-0.1552,0.97747
267.518,32.47033,0.36293,-0.17747,0.97566
270.818,32.78563,0.3688,-0.19698,0.97383
274.118,33.10131,0.37075,-0.22106,0.97198
277.418,33.4168,0.37464,-0.24551,0.97012
280.718,33.73258,0.37874,-0.27349,0.96825
284.018,34.0488,0.3833,-0.30455,0.96636
287.318,34.36448,0.38681,-0.34006,0.96446
290.618,34.68025,0.39774,-0.37615,0.96255
293.918,34.99664,0.40011,-0.4146,0.96062
297.218,35.31281,0.4105,-0.46189,0.95868
300.518,35.63004,0.4226,-0.50818,0.95673
303.818,35.94642,0.43345,-0.56068,0.95477
307.118,36.26335,0.44592,-0.6179,0.95279
310.418,36.58032,0.45885,-0.68142,0.9508
313.718,36.89712,0.47424,-0.74994,0.94879
317.018,37.21416,0.49168,-0.82028,0.94678
320.318,37.5311,0.49978,-0.89161,0.94475
323.618,37.84856,0.51041,-0.97346,0.94271
326.918,38.16594,0.51743,-1.05165,0.94065
330.218,38.48395,0.52076,-1.13817,0.93859
333.518,38.80188,0.5275,-1.22248,0.93651
336.818,39.11945,0.53126,-1.30919,0.93442
340.118,39.43761,0.54217,-1.39522,0.93232
343.418,39.75594,0.56177,-1.48749,0.93021
346.718,40.07447,0.59125,-1.58518,0.92808
350.018,40.3936,0.62438,-1.68139,0.92595
353.318,40.7125,0.66473,-1.78749,0.9238
356.618,41.03164,0.70994,-1.89587,0.92164
359.918,41.35163,0.75176,-2.01496,0.91947
363.218,41.6723,0.77811,-2.13631,0.91729
366.518,41.9923,0.78008,-2.26207,0.9151
369.818,42.3116,0.74814,-2.38517,0.9129
373.118,42.63159,0.67124,-2.50081,0.91069
376.418,42.951,0.55115,-2.60201,0.90847
379.718,43.2699,0.39973,-2.68662,0.90623
383.018,43.5889,0.23831,-2.74962,0.90399
386.318,43.90784,0.09436493,-2.79111,0.90173
389.618,44.22664,0.001179264,-2.81509,0.89947
392.918,44.54615,-0.04442253,-2.83357,0.8972
396.218,44.8665,-0.06374292,-2.84293,0.89491
399.518,45.18698,-0.07616344,-2.85505,0.89262
402.818,45.50824,-0.08605784,-2.86625,0.89031
406.118,45.82926,-0.0925085,-2.87999,0.888
409.418,46.1498,-0.10018,-2.88674,0.88568
412.718,46.47166,-0.10715,-2.89696,0.88335
416.018,46.7928,-0.11861,-2.90388,0.881
419.318,47.11497,-0.12721,-2.91611,0.87865
422.618,47.43765,-0.13413,-2.9268,0.87629
425.918,47.7607,-0.13697,-2.93798,0.87393
429.218,48.0843,-0.14614,-2.94849,0.87155
432.518,48.408,-0.1485,-2.95479,0.86916
435.818,48.7316,-0.15388,-2.9616,0.86677
439.118,49.05592,-0.14781,-2.97578,0.86436
442.418,49.37965,-0.14614,-2.98202,0.86195
445.718,49.70303,-0.14318,-2.99227,0.85953
449.018,50.02684,-0.13588,-3.00053,0.8571
452.318,50.35203,-0.12897,-3.00812,0.85467
455.618,50.67647,-0.12165,-3.0129,0.85222
458.918,51.0013,-0.11131,-3.01988,0.84977
462.218,51.32581,-0.10233,-3.02647,0.84731
465.518,51.64974,-0.09722181,-3.03312,0.84484
468.818,51.97452,-0.08905505,-3.0384,0.84236
472.118,52.29916,-0.08406788,-3.04598,0.83988
475.418,52.62461,-0.08473606,-3.0477,0.83739
478.718,52.95006,-0.07781257,-3.05389,0.83489
482.018,53.27548,-0.07716838,-3.05958,0.83239
485.318,53.60122,-0.07531531,-3.06254,0.82987
488.618,53.92675,-0.07909977,-3.06622,0.82736
491.918,54.2524,-0.07910951,-3.07143,0.82483
495.218,54.5785,-0.07892141,-3.07538,0.8223
498.518,54.90404,-0.07388365,-3.07698,0.81976
501.818,55.23039,-0.06842629,-3.08174,0.81721
505.118,55.5566,-0.06317322,-3.08606,0.81466
508.418,55.88341,-0.05441454,-3.0876,0.8121
511.718,56.2092,-0.04681786,-3.09321,0.80953
515.018,56.5357,-0.03877662,-3.09688,0.80696
518.318,56.86232,-0.03904504,-3.09743,0.80438
521.618,57.1889,-0.03821869,-3.1041,0.8018
524.918,57.51675,-0.03771866,-3.10582,0.79921
528.218,57.84389,-0.04168873,-3.1083,0.79662
531.518,58.17255,-0.04553212,-3.11236,0.79401
534.818,58.50169,-0.04399933,-3.11497,0.79141
538.118,58.8297,-0.04889837,-3.11694,0.7888
541.418,59.1579,-0.05504267,-3.12023,0.78618
544.718,59.48497,-0.06183347,-3.12425,0.78355
548.018,59.81366,-0.07027936,-3.12679,0.78093
551.318,60.14155,-0.07895622,-3.13142,0.77829
554.618,60.47099,-0.08141589,-3.13186,0.77566
557.918,60.80013,-0.08647987,-3.13604,0.77301
561.218,61.1304,-0.08988714,-3.13997,0.77036
564.518,61.46011,-0.09125373,-3.14129,0.76771
567.818,61.7898,-0.1005,-3.14338,0.76505
571.118,62.11914,-0.10109,-3.1447,0.76239
574.418,62.4481,-0.10223,-3.14855,0.75973
577.718,62.77763,-0.10313,-3.14963,0.75706
581.018,63.10702,-0.10693,-3.15086,0.75438
584.318,63.43626,-0.10918,-3.15151,0.7517
587.618,63.76595,-0.11282,-3.15657,0.74902
590.918,64.0959,-0.11327,-3.15868,0.74633
594.218,64.4264,-0.11759,-3.16137,0.74364
597.518,64.75667,-0.11988,-3.164,0.74095
600.818,65.08699,-0.12553,-3.16729,0.73825
604.118,65.4181,-0.12318,-3.16779,0.73555
607.418,65.75009,-0.12601,-3.17124,0.73284
610.718,66.0814,-0.12762,-3.1719,0.73013
614.018,66.41238,-0.12653,-3.17585,0.72742
617.318,66.74305,-0.12845,-3.17654,0.72471
620.618,67.07446,-0.12873,-3.17914,0.72199
623.918,67.4049,-0.12823,-3.18078,0.71927
627.218,67.73732,-0.13446,-3.18209,0.71654
630.518,68.0683,-0.12906,-3.18474,0.71382
633.818,68.40005,-0.13092,-3.18781,0.71109
637.118,68.73187,-0.13304,-3.1888,0.70836
640.418,69.06359,-0.13874,-3.18449,0.70562
643.718,69.39564,-0.14501,-3.1909,0.70288
647.018,69.72775,-0.14497,-3.19,0.70015
650.318,70.06023,-0.14871,-3.19395,0.6974
653.618,70.39288,-0.15171,-3.19394,0.69466
656.918,70.72454,-0.15839,-3.19461,0.69191
660.218,71.05586,-0.15355,-3.19658,0.68917
663.518,71.3879,-0.15391,-3.19824,0.68642
666.818,71.72113,-0.1581,-3.19692,0.68366
670.118,72.05414,-0.15842,-3.20098,0.68091
673.418,72.38675,-0.15836,-3.2013,0.67816
676.718,72.71948,-0.15942,-3.20129,0.6754
680.018,73.05201,-0.16316,-3.20261,0.67264
683.318,73.38511,-0.1596,-3.20491,0.66988
686.618,73.71794,-0.16316,-3.20385,0.66712
689.918,74.0506,-0.16175,-3.2081,0.66436
693.218,74.3838,-0.16803,-3.2037,0.6616
696.518,74.717,-0.16194,-3.20603,0.65883
699.818,75.04995,-0.16061,-3.21007,0.65607
703.118,75.3836,-0.16101,-3.21385,0.6533
706.418,75.718,-0.1594,-3.2127,0.65054
709.718,76.0517,-0.15876,-3.21138,0.64777
713.018,76.38584,-0.16099,-3.21277,0.645
716.318,76.7202,-0.1594,-3.21138,0.64223
719.618,77.05448,-0.16146,-3.21362,0.63947
722.918,77.38835,-0.15816,-3.21369,0.6367
726.218,77.72171,-0.15981,-3.215,0.63393
729.518,78.05535,-0.16213,-3.21238,0.63116
732.818,78.38923,-0.16435,-3.21313,0.62839
736.118,78.7233,-0.16577,-3.21841,0.62562
739.418,79.05912,-0.16064,-3.22269,0.62285
742.718,79.39514,-0.16105,-3.21808,0.62008
746.018,79.73014,-0.16336,-3.22071,0.61732
749.318,80.06446,-0.1619,-3.22071,0.61455
752.618,80.39774,-0.16256,-3.22202,0.61178
755.918,80.73091,-0.16338,-3.22203,0.60901
759.218,81.0641,-0.16461,-3.22334,0.60625
762.518,81.3977,-0.16475,-3.22586,0.60348
765.818,81.73219,-0.16369,-3.22712,0.60072
769.118,82.06746,-0.16087,-3.22445,0.59795
772.418,82.40313,-0.1615,-3.22597,0.59519
775.718,82.7385,-0.1606,-3.22729,0.59243
779.018,83.07313,-0.15664,-3.22722,0.58967
782.318,83.4081,-0.15194,-3.22993,0.58691
785.618,83.74206,-0.16074,-3.22861,0.58415
788.918,84.07558,-0.15476,-3.2286,0.58139
792.218,84.40985,-0.15502,-3.22861,0.57864
795.518,84.75645,-0.15208,-3.23519,0.57588
797.818,84.99146,-0.16452,-3.23332,0.57397