File: 01_Data/Roof_Felt/HFM/Roof_Felt_Density_Dry_R3.csv
,Roof_Felt_DRY_3
Sample Mass [g],27.8
Sample Volume [cm3],41.2
Sample Density [kg/m3],674