File: 01_Data/Roof_Felt/HFM/Roof_Felt_Density_Wet_R1.csv
,Roof_Felt_WET_1
Sample Mass [g],29.1
Sample Volume [cm3],39.3
Sample Density [kg/m3],740