File: 01_Data/Roof_Felt/HFM/Roof_Felt_Density_Wet_R2.csv
,Roof_Felt_WET_2
Sample Mass [g],28.4
Sample Volume [cm3],38.9
Sample Density [kg/m3],731