File: 01_Data/Roof_Felt/HFM/Roof_Felt_Density_Dry_R2.csv
,Roof_Felt_DRY_2
Sample Mass [g],27.5
Sample Volume [cm3],38.9
Sample Density [kg/m3],708