File: 01_Data/Roof_Felt/HFM/Roof_Felt_Density_Dry_R1.csv
,Roof_Felt_DRY_1
Sample Mass [g],28.1
Sample Volume [cm3],39.3
Sample Density [kg/m3],714