File: 01_Data/Roof_Felt/HFM/Roof_Felt_Density_Wet_R3.csv
,Roof_Felt_WET_3
Sample Mass [g],29.2
Sample Volume [cm3],41.2
Sample Density [kg/m3],708