File: 01_Data/Pressure_Treated_Deck/MCC/Pressure_Treated_Deck_30K_min_210608_R2.txt
Sample ID:	C:\MCC\MCC Cal\Test\Pressure_Treated_Deck\Pressure_Treated_Deck_30_2.txt
Sample Weight (mg):	4.01
Heating Rate (C/s):	0.5
Combustor Temp (C):	900
N2 Flow Rate (cc/min):	80
O2 Flow Rate (cc/min):	20
Calibration File:	C:\MCC\MCC Cal\Coeff1 JN10440_30_210304.txt.txt
T Correction Coefficients:	0	1.024463	0
Time Shift (s):	14
*
Time (s)	Temperature (C)	N2 flow rate (cc/min)	O2 flow rate (cc/min)	Flow Rate (cc/min)	Oxygen (%)	HRR (W/g)	Heating rate (C/s)
0.000	111.745	79.986	19.992	99.911	20.010	0.448	-0.004
8.000	111.646	79.988	19.992	99.904	20.003	1.031	-0.006
16.000	111.561	79.988	19.991	99.921	20.001	1.155	-0.002
24.000	111.614	79.985	19.992	99.985	19.993	1.783	0.017
32.000	112.004	79.985	19.992	100.023	19.992	1.819	0.069
40.000	112.662	79.985	19.991	100.072	19.983	2.579	0.100
48.000	113.689	79.988	19.992	100.087	19.971	3.471	0.169
56.000	115.096	79.986	19.992	100.094	19.970	3.575	0.197
64.001	116.840	79.986	19.992	100.122	19.970	3.605	0.238
72.000	118.853	79.989	19.993	100.136	19.960	4.363	0.254
80.000	121.175	79.986	19.993	100.138	19.956	4.674	0.283
88.000	123.748	79.986	19.992	100.143	19.956	4.662	0.330
96.001	126.563	79.987	19.990	100.166	19.951	5.021	0.375
104.000	129.563	79.985	19.990	100.160	19.953	4.908	0.383
112.000	132.751	79.986	19.992	100.169	19.947	5.330	0.427
120.001	136.146	79.986	19.992	100.167	19.946	5.479	0.453
128.000	139.582	79.986	19.991	100.174	19.943	5.710	0.419
136.000	143.210	79.987	19.992	100.171	19.941	5.845	0.418
144.000	146.961	79.984	19.993	100.170	19.942	5.786	0.470
152.000	150.814	79.987	19.992	100.168	19.943	5.664	0.487
160.000	154.646	79.986	19.993	100.165	19.936	6.216	0.498
168.000	158.568	79.986	19.992	100.155	19.938	6.062	0.494
176.000	162.531	79.988	19.992	100.145	19.938	6.081	0.513
184.000	166.572	79.989	19.992	100.138	19.939	5.960	0.485
192.000	170.565	79.986	19.991	100.147	19.936	6.204	0.495
200.000	174.565	79.987	19.991	100.143	19.937	6.162	0.512
208.000	178.559	79.985	19.993	100.142	19.933	6.431	0.514
216.000	182.553	79.985	19.991	100.140	19.936	6.257	0.511
224.000	186.606	79.985	19.992	100.141	19.937	6.170	0.516
232.000	190.583	79.987	19.993	100.142	19.937	6.143	0.492
240.000	194.542	79.987	19.993	100.131	19.936	6.223	0.465
248.000	198.535	79.987	19.992	100.130	19.932	6.497	0.539
256.000	202.436	79.988	19.992	100.133	19.931	6.589	0.484
264.001	206.385	79.985	19.993	100.135	19.929	6.731	0.473
272.000	210.353	79.985	19.992	100.133	19.923	7.206	0.459
280.000	214.315	79.986	19.993	100.137	19.925	7.042	0.471
288.000	218.245	79.986	19.991	100.139	19.918	7.652	0.494
296.000	222.250	79.983	19.990	100.133	19.911	8.186	0.518
304.000	226.160	79.986	19.992	100.140	19.907	8.450	0.491
312.000	230.198	79.986	19.990	100.137	19.899	9.086	0.503
320.000	234.196	79.986	19.991	100.127	19.887	10.012	0.491
328.000	238.166	79.987	19.994	100.143	19.884	10.243	0.465
336.000	242.145	79.989	19.992	100.135	19.871	11.270	0.491
344.000	246.190	79.988	19.991	100.126	19.863	11.910	0.499
352.000	250.218	79.985	19.992	100.136	19.856	12.441	0.536
360.000	254.196	79.984	19.994	100.136	19.850	12.909	0.535
368.000	258.152	79.985	19.991	100.136	19.834	14.175	0.490
376.000	262.194	79.983	19.992	100.136	19.818	15.452	0.508
384.000	266.148	79.985	19.992	100.146	19.803	16.558	0.466
392.000	270.176	79.987	19.992	100.135	19.785	17.972	0.511
400.000	274.194	79.985	19.990	100.157	19.765	19.568	0.517
408.000	278.205	79.988	19.993	100.158	19.740	21.509	0.514
416.000	282.155	79.986	19.991	100.174	19.716	23.395	0.523
424.000	286.115	79.988	19.992	100.177	19.696	24.949	0.510
432.000	290.201	79.983	19.991	100.175	19.665	27.355	0.529
440.000	294.226	79.986	19.992	100.177	19.642	29.146	0.489
448.000	298.265	79.986	19.993	100.185	19.615	31.241	0.520
456.000	302.297	79.986	19.991	100.206	19.591	33.130	0.479
464.000	306.330	79.986	19.991	100.214	19.560	35.565	0.496
472.000	310.367	79.987	19.991	100.216	19.533	37.680	0.524
480.000	314.446	79.987	19.991	100.218	19.503	40.017	0.499
488.000	318.473	79.984	19.991	100.227	19.474	42.284	0.522
496.000	322.477	79.988	19.992	100.232	19.447	44.352	0.487
504.000	326.523	79.989	19.992	100.234	19.418	46.651	0.507
512.001	330.539	79.986	19.992	100.246	19.378	49.766	0.594
520.000	334.278	79.986	19.992	100.252	19.350	51.964	0.274
528.000	338.536	79.986	19.993	100.255	19.318	54.439	0.538
536.000	342.552	79.986	19.992	100.265	19.283	57.175	0.482
544.000	346.524	79.986	19.992	100.277	19.247	60.034	0.476
552.000	350.526	79.986	19.992	100.296	19.222	61.967	0.484
560.000	354.562	79.987	19.991	100.284	19.197	63.854	0.489
568.000	358.500	79.987	19.991	100.281	19.182	65.034	0.486
576.000	362.457	79.989	19.991	100.253	19.204	63.328	0.479
584.000	366.466	79.988	19.990	100.213	19.240	60.458	0.525
592.000	370.439	79.987	19.992	100.176	19.320	54.230	0.491
600.000	374.524	79.985	19.992	100.125	19.430	45.603	0.524
608.000	378.541	79.986	19.991	100.085	19.558	35.613	0.504
616.000	382.632	79.986	19.992	100.064	19.667	27.151	0.514
624.000	386.672	79.985	19.994	100.057	19.741	21.369	0.501
632.000	390.714	79.987	19.992	100.058	19.788	17.772	0.519
640.000	394.802	79.988	19.991	100.053	19.805	16.406	0.516
648.000	398.822	79.988	19.991	100.057	19.823	14.984	0.484
656.000	402.863	79.989	19.993	100.053	19.830	14.496	0.482
664.000	406.910	79.990	19.990	100.048	19.834	14.130	0.489
672.000	410.937	79.987	19.991	100.057	19.842	13.543	0.502
680.000	414.957	79.986	19.991	100.059	19.849	13.005	0.507
688.000	419.036	79.986	19.993	100.054	19.852	12.753	0.507
696.000	423.149	79.987	19.992	100.056	19.857	12.387	0.515
704.000	427.219	79.987	19.993	100.054	19.856	12.405	0.504
712.000	431.275	79.986	19.993	100.052	19.864	11.847	0.512
720.000	435.372	79.987	19.993	100.034	19.867	11.597	0.524
728.000	439.405	79.989	19.992	100.048	19.871	11.311	0.487
736.000	443.461	79.987	19.993	100.036	19.874	11.058	0.496
744.000	447.494	79.988	19.991	100.032	19.881	10.475	0.532
752.000	451.531	79.988	19.992	100.031	19.884	10.267	0.539
760.000	455.579	79.988	19.993	100.039	19.884	10.297	0.513
768.000	459.656	79.987	19.992	100.023	19.883	10.356	0.494
776.000	463.653	79.987	19.992	100.043	19.885	10.165	0.507
784.000	467.749	79.986	19.993	100.036	19.889	9.889	0.522
792.000	471.809	79.986	19.992	100.033	19.893	9.592	0.494
800.000	475.983	79.987	19.993	100.024	19.898	9.169	0.512
808.000	480.109	79.987	19.993	100.033	19.899	9.126	0.520
816.000	484.237	79.989	19.992	100.027	19.899	9.129	0.512
824.000	488.373	79.989	19.992	100.022	19.906	8.541	0.545
832.000	492.419	79.988	19.991	100.018	19.901	8.932	0.510
840.000	496.574	79.987	19.992	100.034	19.904	8.718	0.492
848.000	500.623	79.986	19.991	100.029	19.907	8.454	0.509
856.000	504.715	79.988	19.992	100.037	19.904	8.670	0.514
864.000	508.808	79.986	19.992	100.023	19.905	8.639	0.546
872.000	512.796	79.986	19.991	100.025	19.905	8.619	0.480
880.000	516.872	79.988	19.992	100.026	19.904	8.698	0.500
888.000	520.974	79.988	19.993	100.023	19.906	8.525	0.501
896.000	525.072	79.987	19.993	100.040	19.908	8.388	0.544
904.000	529.190	79.990	19.992	100.028	19.907	8.491	0.499
912.000	533.294	79.989	19.992	100.026	19.908	8.380	0.524
920.000	537.405	79.987	19.992	100.035	19.909	8.322	0.528
928.000	541.441	79.986	19.992	100.024	19.909	8.346	0.487
936.000	545.532	79.988	19.992	100.024	19.905	8.654	0.514
944.000	549.498	79.988	19.992	100.023	19.911	8.191	0.522
952.000	553.525	79.987	19.992	100.021	19.908	8.430	0.523
960.000	557.589	79.987	19.992	100.019	19.904	8.698	0.478
968.000	561.684	79.987	19.992	100.027	19.910	8.237	0.526
976.000	565.719	79.987	19.991	100.021	19.906	8.510	0.494
984.000	569.795	79.988	19.993	100.028	19.906	8.571	0.514
992.000	573.919	79.990	19.992	100.020	19.904	8.714	0.540
1000.000	577.967	79.987	19.991	100.031	19.905	8.644	0.502
1008.000	582.050	79.986	19.991	100.022	19.903	8.764	0.538
1016.000	586.089	79.988	19.992	100.035	19.905	8.606	0.488
1024.000	590.139	79.987	19.991	100.026	19.906	8.510	0.496
1032.000	594.289	79.986	19.992	100.023	19.907	8.449	0.516
1040.000	598.324	79.987	19.991	100.019	19.907	8.461	0.508
1048.000	602.400	79.987	19.991	100.022	19.907	8.482	0.523
1056.000	606.474	79.988	19.992	100.030	19.909	8.350	0.479
1064.000	610.595	79.987	19.992	100.027	19.904	8.681	0.528
1072.000	614.735	79.989	19.992	100.016	19.907	8.434	0.517
1080.000	618.795	79.987	19.992	100.025	19.906	8.559	0.510
1088.000	622.938	79.985	19.992	100.018	19.911	8.134	0.518
1096.000	626.995	79.987	19.992	100.022	19.908	8.422	0.499
1104.000	631.104	79.986	19.992	100.023	19.907	8.461	0.528
1112.000	635.163	79.986	19.993	100.021	19.900	8.978	0.542
1120.001	639.201	79.986	19.991	100.079	19.907	8.480	0.490
1128.000	643.309	79.988	19.992	100.024	19.906	8.553	0.534
1136.000	647.317	79.987	19.994	100.015	19.905	8.652	0.528
1144.001	651.385	79.988	19.992	100.018	19.913	8.010	0.541
1152.000	655.413	79.989	19.992	100.014	19.907	8.503	0.485
1160.000	659.529	79.986	19.994	100.093	19.900	9.032	0.503
1168.000	663.551	79.987	19.993	100.022	19.903	8.757	0.475
1176.001	667.564	79.988	19.992	100.020	19.903	8.759	0.501
1184.001	671.668	79.986	19.991	100.080	19.901	8.969	0.510
1192.001	675.820	79.987	19.993	100.023	19.899	9.078	0.514
1200.001	679.908	79.987	19.992	100.029	19.902	8.856	0.520
1208.001	684.040	79.991	19.992	100.021	19.901	8.920	0.549
1216.001	688.063	79.989	19.993	100.023	19.899	9.063	0.482
1224.000	692.214	79.989	19.993	100.016	19.900	8.988	0.530
1232.001	696.404	79.993	19.992	100.018	19.901	8.910	0.541
1240.001	700.496	79.986	19.993	100.019	19.899	9.105	0.512
1248.000	704.581	79.986	19.994	100.022	19.897	9.245	0.524
1256.001	708.596	79.988	19.992	100.020	19.896	9.327	0.493
1264.000	712.616	79.988	19.991	100.016	19.894	9.515	0.512
1272.000	716.644	79.985	19.992	100.022	19.896	9.351	0.514
1280.000	720.628	79.988	19.993	100.017	19.893	9.533	0.501
1288.000	724.634	79.992	19.991	100.016	19.896	9.332	0.503
1296.000	728.623	79.985	19.992	100.021	19.895	9.388	0.499
1304.000	732.678	79.988	19.991	100.021	19.897	9.227	0.494
1312.000	736.740	79.988	19.992	100.019	19.896	9.359	0.491
1320.000	740.912	79.985	19.992	100.014	19.895	9.385	0.548
1325.001	743.528	79.987	19.992	100.018	19.892	9.673	0.524