File: 01_Data/Pressure_Treated_Deck/MCC/Pressure_Treated_Deck_30K_min_210608_R1.txt
Sample ID:	C:\MCC\MCC Cal\Test\Pressure_Treated_Deck\Pressure_Treated_Deck_30_1.txt
Sample Weight (mg):	3.21
Heating Rate (C/s):	0.5
Combustor Temp (C):	900
N2 Flow Rate (cc/min):	80
O2 Flow Rate (cc/min):	20
Calibration File:	C:\MCC\MCC Cal\Coeff1 JN10440_30_210304.txt.txt
T Correction Coefficients:	0	1.024463	0
Time Shift (s):	14
*
Time (s)	Temperature (C)	N2 flow rate (cc/min)	O2 flow rate (cc/min)	Flow Rate (cc/min)	Oxygen (%)	HRR (W/g)	Heating rate (C/s)
0.000	112.360	79.986	19.993	99.866	19.972	0.123	0.010
7.500	112.315	79.986	19.992	99.905	19.967	0.574	-0.012
15.000	112.381	79.988	19.993	99.947	19.961	1.190	0.000
22.500	112.759	79.986	19.992	100.020	19.952	2.073	0.070
30.000	113.519	79.988	19.994	100.061	19.938	3.439	0.117
37.500	114.760	79.988	19.993	100.058	19.932	4.053	0.181
45.000	116.301	79.987	19.992	100.099	19.929	4.344	0.232
52.500	118.212	79.986	19.992	100.121	19.930	4.253	0.273
60.000	120.535	79.986	19.991	100.123	19.930	4.254	0.314
67.501	123.104	79.987	19.992	100.128	19.927	4.487	0.360
75.001	125.964	79.985	19.992	100.139	19.926	4.619	0.399
82.500	128.973	79.985	19.992	100.138	19.926	4.592	0.402
90.001	132.184	79.987	19.991	100.146	19.927	4.503	0.428
97.500	135.560	79.987	19.993	100.130	19.921	5.075	0.454
105.001	139.042	79.986	19.992	100.134	19.924	4.770	0.455
112.500	142.632	79.987	19.992	100.134	19.926	4.610	0.479
120.000	146.236	79.988	19.992	100.119	19.925	4.654	0.459
127.500	150.016	79.985	19.992	100.115	19.932	3.972	0.484
135.000	153.743	79.986	19.992	100.105	19.923	4.916	0.518
142.500	157.479	79.986	19.993	100.105	19.929	4.295	0.486
150.000	161.272	79.986	19.992	100.110	19.929	4.287	0.527
157.500	165.085	79.986	19.994	100.099	19.932	3.998	0.502
165.001	168.805	79.987	19.992	100.100	19.932	3.990	0.506
172.500	172.596	79.989	19.991	100.092	19.933	3.932	0.504
180.000	176.319	79.987	19.992	100.096	19.936	3.641	0.487
187.500	180.053	79.989	19.993	100.089	19.931	4.154	0.491
195.000	183.780	79.989	19.992	100.076	19.930	4.169	0.469
202.500	187.507	79.987	19.993	100.054	19.935	3.745	0.464
210.000	191.239	79.986	19.993	100.081	19.935	3.706	0.492
217.500	194.904	79.987	19.992	100.068	19.936	3.669	0.447
225.000	198.610	79.988	19.992	100.071	19.936	3.630	0.476
232.500	202.299	79.988	19.993	100.061	19.936	3.638	0.486
240.000	205.946	79.985	19.992	100.065	19.930	4.172	0.479
247.500	209.637	79.987	19.993	100.072	19.931	4.099	0.477
255.000	213.339	79.987	19.991	100.065	19.928	4.369	0.484
262.500	217.037	79.986	19.991	100.067	19.927	4.508	0.499
270.000	220.718	79.987	19.992	100.064	19.921	5.061	0.497
277.500	224.484	79.988	19.993	100.067	19.919	5.296	0.509
285.000	228.222	79.987	19.992	100.062	19.912	5.918	0.528
292.500	231.996	79.985	19.993	100.062	19.914	5.813	0.482
300.000	235.764	79.987	19.993	100.062	19.904	6.782	0.504
307.500	239.484	79.986	19.992	100.062	19.903	6.882	0.478
315.000	243.234	79.985	19.991	100.061	19.895	7.647	0.483
322.500	246.995	79.987	19.992	100.063	19.890	8.127	0.453
330.000	250.808	79.987	19.992	100.059	19.883	8.793	0.498
337.500	254.549	79.987	19.991	100.063	19.874	9.698	0.495
345.000	258.240	79.988	19.992	100.060	19.870	10.077	0.481
352.500	261.961	79.989	19.992	100.124	19.861	10.961	0.506
360.000	265.781	79.986	19.993	100.060	19.848	12.181	0.502
367.500	269.546	79.987	19.992	100.077	19.836	13.406	0.525
375.000	273.322	79.986	19.992	100.084	19.819	15.011	0.504
382.500	277.067	79.987	19.994	100.094	19.794	17.398	0.499
390.000	280.788	79.986	19.993	100.113	19.783	18.555	0.510
397.500	284.526	79.984	19.992	100.103	19.764	20.412	0.470
405.000	288.269	79.987	19.992	100.103	19.741	22.605	0.483
412.500	292.021	79.986	19.993	100.107	19.724	24.274	0.493
420.000	295.766	79.988	19.992	100.117	19.704	26.235	0.486
427.500	299.502	79.989	19.992	100.122	19.682	28.322	0.503
435.000	303.228	79.988	19.992	100.134	19.660	30.464	0.485
442.500	306.905	79.986	19.992	100.135	19.638	32.656	0.506
450.000	310.672	79.987	19.993	100.144	19.619	34.535	0.504
457.500	314.468	79.985	19.992	100.210	19.597	36.647	0.490
465.000	318.235	79.985	19.993	100.140	19.575	38.813	0.487
472.500	322.016	79.983	19.995	100.148	19.548	41.393	0.473
480.000	325.834	79.987	19.991	100.153	19.524	43.771	0.551
487.500	329.653	79.987	19.994	100.154	19.503	45.830	0.508
495.000	333.400	79.987	19.993	100.176	19.476	48.420	0.507
502.500	337.225	79.987	19.992	100.177	19.449	51.017	0.538
510.001	340.972	79.989	19.992	100.184	19.423	53.572	0.520
517.500	344.758	79.986	19.992	100.183	19.396	56.235	0.502
525.000	348.550	79.985	19.992	100.204	19.370	58.804	0.535
532.500	352.325	79.986	19.995	100.205	19.348	60.902	0.517
540.000	356.185	79.987	19.993	100.196	19.329	62.772	0.508
547.500	359.958	79.985	19.991	100.184	19.322	63.364	0.505
555.000	363.782	79.985	19.992	100.177	19.342	61.438	0.523
562.500	367.558	79.987	19.993	100.141	19.381	57.616	0.519
570.000	371.341	79.988	19.991	100.101	19.452	50.658	0.513
577.500	375.117	79.986	19.992	100.032	19.546	41.585	0.500
585.000	378.908	79.987	19.990	100.108	19.653	31.137	0.507
592.500	382.719	79.988	19.991	99.998	19.743	22.354	0.465
600.000	386.477	79.986	19.992	100.008	19.813	15.612	0.515
607.500	390.251	79.986	19.992	99.989	19.856	11.438	0.521
615.001	394.016	79.985	19.992	99.987	19.876	9.485	0.484
622.500	397.837	79.987	19.994	99.988	19.888	8.244	0.544
630.000	401.575	79.985	19.993	100.001	19.902	6.940	0.486
637.500	405.331	79.985	19.993	99.993	19.899	7.197	0.475
645.000	409.255	79.986	19.993	99.987	19.907	6.461	0.507
652.500	413.011	79.984	19.992	99.999	19.909	6.269	0.521
660.000	416.693	79.987	19.992	99.985	19.910	6.154	0.519
667.500	420.772	79.988	19.992	99.983	19.918	5.405	0.756
675.000	424.342	79.986	19.993	99.981	19.920	5.135	0.538
682.500	428.061	79.987	19.993	99.982	19.930	4.250	0.478
690.000	431.787	79.986	19.992	99.984	19.928	4.363	0.505
697.500	435.456	79.985	19.992	99.926	19.932	4.054	0.441
705.000	439.244	79.985	19.993	99.985	19.942	3.080	0.519
712.500	442.928	79.985	19.993	99.981	19.943	2.948	0.482
720.000	446.731	79.986	19.993	99.979	19.946	2.687	0.500
727.500	450.480	79.987	19.994	99.979	19.949	2.351	0.488
735.000	454.286	79.988	19.992	99.977	19.948	2.443	0.530
742.500	458.068	79.988	19.992	99.978	19.958	1.487	0.478
750.000	461.877	79.986	19.993	99.981	19.958	1.495	0.491
757.500	465.722	79.985	19.992	99.985	19.960	1.309	0.513
765.000	469.585	79.984	19.991	99.979	19.963	0.985	0.504
772.500	473.428	79.986	19.991	99.985	19.970	0.296	0.524
780.000	477.259	79.985	19.991	99.975	19.966	0.681	0.491
787.500	481.102	79.986	19.993	99.980	19.965	0.835	0.503
795.000	484.882	79.986	19.993	99.981	19.968	0.503	0.533
802.501	488.648	79.987	19.993	99.975	19.972	0.118	0.507
810.000	492.534	79.985	19.993	99.966	19.971	0.209	0.525
817.500	496.461	79.987	19.992	99.976	19.976	-0.304	0.524
825.000	500.326	79.989	19.992	99.975	19.972	0.097	0.515
832.500	504.161	79.987	19.991	99.981	19.971	0.183	0.512
840.000	507.980	79.986	19.992	99.975	19.975	-0.183	0.502
847.500	511.816	79.985	19.991	99.981	19.977	-0.354	0.506
855.000	515.715	79.985	19.991	99.982	19.979	-0.584	0.540
862.500	519.649	79.986	19.992	99.979	19.977	-0.369	0.557
870.000	523.498	79.985	19.993	99.979	19.981	-0.725	0.530
877.500	527.329	79.987	19.993	99.971	19.981	-0.699	0.518
885.000	531.257	79.985	19.992	99.984	19.978	-0.498	0.518
892.500	535.144	79.986	19.993	99.987	19.980	-0.691	0.522
900.000	538.964	79.989	19.993	99.980	19.981	-0.715	0.506
907.500	542.836	79.986	19.993	99.909	19.973	0.037	0.520
915.000	546.619	79.986	19.992	99.981	19.977	-0.377	0.509
922.500	550.466	79.987	19.993	99.974	19.978	-0.414	0.533
930.000	554.303	79.986	19.994	99.979	19.977	-0.333	0.533
937.500	558.153	79.985	19.992	99.981	19.979	-0.542	0.529
945.000	561.942	79.987	19.991	99.985	19.981	-0.780	0.510
952.500	565.750	79.988	19.991	99.981	19.982	-0.872	0.510
960.000	569.565	79.986	19.993	99.977	19.981	-0.754	0.498
967.500	573.398	79.986	19.992	99.975	19.983	-0.964	0.527
975.000	577.248	79.989	19.992	99.979	19.982	-0.812	0.500
982.500	581.091	79.986	19.992	99.978	19.978	-0.458	0.504
990.000	584.931	79.988	19.994	99.976	19.978	-0.422	0.534
997.500	588.752	79.986	19.992	99.980	19.976	-0.259	0.536
1005.000	592.582	79.985	19.991	99.984	19.978	-0.495	0.507
1012.500	596.497	79.987	19.993	99.983	19.981	-0.699	0.508
1020.000	600.366	79.985	19.993	99.981	19.980	-0.647	0.513
1027.500	604.245	79.986	19.992	99.978	19.981	-0.728	0.529
1035.000	608.060	79.987	19.991	99.982	19.981	-0.715	0.500
1042.500	611.877	79.986	19.993	99.971	19.982	-0.809	0.541
1050.001	615.708	79.988	19.993	99.971	19.978	-0.497	0.473
1057.501	619.543	79.989	19.992	99.961	19.977	-0.387	0.494
1065.000	623.354	79.985	19.993	99.973	19.981	-0.770	0.479
1072.500	627.132	79.986	19.993	99.964	19.979	-0.584	0.531
1080.001	630.954	79.985	19.992	99.974	19.984	-1.024	0.511
1087.500	634.808	79.987	19.992	99.977	19.975	-0.162	0.523
1095.000	638.589	79.985	19.993	99.976	19.980	-0.697	0.489
1102.500	642.367	79.984	19.992	99.969	19.978	-0.419	0.506
1110.000	646.106	79.985	19.992	99.978	19.981	-0.731	0.482
1117.501	649.937	79.987	19.992	99.978	19.981	-0.733	0.482
1125.001	653.791	79.985	19.992	99.974	19.980	-0.605	0.525
1132.500	657.663	79.989	19.992	99.971	19.981	-0.783	0.538
1140.000	661.517	79.987	19.992	99.975	19.977	-0.374	0.471
1147.500	665.336	79.985	19.993	99.983	19.980	-0.639	0.538
1155.000	669.136	79.985	19.993	99.965	19.980	-0.626	0.487
1162.500	672.966	79.986	19.994	99.978	19.985	-1.176	0.513
1170.001	676.792	79.986	19.993	99.964	19.983	-0.971	0.508
1177.501	680.645	79.986	19.993	99.972	19.984	-1.074	0.523
1185.001	684.460	79.987	19.992	99.979	19.984	-1.013	0.496
1192.501	688.254	79.986	19.992	99.982	19.985	-1.181	0.501
1200.000	692.071	79.985	19.992	99.983	19.980	-0.652	0.489
1207.500	695.825	79.987	19.991	99.984	19.983	-0.937	0.500
1215.000	699.586	79.989	19.992	99.978	19.981	-0.728	0.529
1222.500	703.402	79.987	19.994	99.978	19.980	-0.613	0.522
1230.000	707.112	79.985	19.993	99.978	19.982	-0.854	0.490
1237.500	710.900	79.986	19.992	99.972	19.979	-0.518	0.519
1245.001	714.745	79.986	19.993	99.976	19.977	-0.343	0.520
1252.501	718.515	79.984	19.993	99.981	19.984	-0.992	0.512
1260.000	722.307	79.985	19.992	99.985	19.983	-0.982	0.542
1267.500	726.088	79.987	19.991	99.984	19.983	-0.911	0.507
1275.000	729.856	79.987	19.993	99.979	19.979	-0.589	0.503
1282.500	733.653	79.987	19.992	99.976	19.983	-0.896	0.485
1290.000	737.393	79.989	19.991	99.979	19.978	-0.416	0.500
1297.500	741.171	79.988	19.991	99.980	19.978	-0.471	0.489
1302.500	743.653	79.986	19.992	99.976	19.981	-0.728	0.505