File: 01_Data/Luan_Panel/HFM/Luan_Panel_Density_Wet_R1.csv
,Luan_Panel_WET_1
Sample Mass [g],70.7
Sample Volume [cm3],210.5
Sample Density [kg/m3],336