File: 01_Data/Luan_Panel/HFM/Luan_Panel_Density_Wet_R3.csv
,Luan_Panel_WET_3
Sample Mass [g],72.9
Sample Volume [cm3],208.6
Sample Density [kg/m3],349