File: 01_Data/Polyolefin_Carpet_Low_Pile/Cone/Polyolefin_Carpet_Low_Pile_Cone_HF75Scan_220411_R1.csv
Names,Time,Stack TC,Smoke TC,Exh Press,Smoke Comp,Smoke Meas,CO Meter,CO2 Meter,O2 Meter,Sample Mass,Ext Coeff,Start Test,Flame Verif
Chan Gain,,500,500,1,1,1,1,1,1,1,1,1.0,1.0
Offset,,0,0,0.133936,0,0,0,0,0,0,0,0.0,0.0
Gain,,1,1,25.011,13.0656,13.5076,1,1,1,1.00089,1.01037,1.0,1.0
Units,sec,C,C,Pa,%,%,%,%,%,g,/m,,
Baseline,,42.6386,44.5669,142.559,98.9478,95.1481,0.000747664,0.0538677,20.9958,-839.815,0.347122,,
16,3.75,40.5974,42.351,140.821,98.8103,93.7265,0.000945318,0.0615729,20.9858,194.023,0.468145,0.0,0.0
32,7.75,40.909,43.2301,132.222,98.7923,86.9146,0.00308507,0.124745,20.814,193.883,1.13529,0.0,1.0
48,11.75,43.4108,44.9342,116.418,98.768,68.5837,0.00910091,0.332578,20.4599,193.533,3.23248,0.0,1.0
64,15.75,48.2964,50.0273,115.826,98.7273,59.474,0.0167693,0.537377,20.1471,193.032,4.49193,0.0,0.0
80,19.75,54.5267,57.0126,102.854,98.707,50.268,0.029153,0.814274,19.6076,192.342,5.9806,0.0,0.0
96,23.75,63.9184,67.2684,87.157,98.6635,48.2864,0.0405279,1.19035,18.9436,191.571,6.33314,0.0,0.0
112,27.75,74.9268,80.246,102.012,98.6185,50.6884,0.0430712,1.42505,18.6473,190.84,5.89882,0.0,0.0
128,31.75,85.0391,91.53,102.124,98.5734,53.8291,0.0387709,1.41419,18.7363,190.23,5.36196,0.0,0.0
144,35.75,90.8138,98.7589,103.132,98.5188,57.4105,0.0316859,1.20833,19.0896,189.609,4.78616,0.0,0.0
160,39.75,93.6244,102.489,118.239,98.4562,66.0951,0.0232335,0.951928,19.5632,189.199,3.53203,0.0,0.0
176,43.75,93.4876,102.844,119.489,98.3669,71.3756,0.0164982,0.688272,20.0242,188.858,2.84277,0.0,0.0
192,47.75,92.5748,101.786,125.798,98.278,79.0787,0.0110879,0.506474,20.3216,188.618,1.92641,0.0,0.0
208,51.75,89.9368,99.2823,132.701,98.1839,82.4276,0.00785943,0.379314,20.5346,188.458,1.55032,0.0,0.0
224,55.75,87.918,96.9024,131.229,98.0722,85.781,0.00562589,0.291841,20.6725,188.278,1.18681,0.0,0.0
240,59.75,85.1872,94.2098,133.901,97.9817,89.2576,0.00386438,0.234086,20.7497,188.188,0.826501,0.0,0.0
256,63.75,82.5203,90.9224,138.049,97.8677,92.285,0.00274682,0.191104,20.8224,188.088,0.520564,0.0,0.0
272,67.75,79.3205,88.0219,138.387,97.7668,92.1151,0.00192655,0.157274,20.8676,188.068,0.527749,0.0,0.0
288,71.75,76.7606,84.9382,140.028,97.6424,92.3406,0.00171395,0.139853,20.8922,188.008,0.494796,0.0,0.0
304,75.75,74.41,82.2831,136.911,97.5483,91.198,0.00186017,0.130842,20.903,187.938,0.596609,0.0,0.0
320,79.75,71.8831,79.8886,138.173,97.4454,90.9214,0.00202874,0.126095,20.9046,187.868,0.614179,0.0,0.0
336,83.75,70.1958,77.7789,135.052,97.3489,90.8187,0.00172087,0.124307,20.9045,187.808,0.61541,0.0,0.0
352,87.75,68.8239,76.1801,136.14,97.2556,90.4844,0.00139258,0.122248,20.9057,187.747,0.639596,0.0,0.0
368,91.75,67.3144,74.2903,139.068,97.1731,91.0207,0.00124114,0.120621,20.9065,187.707,0.579697,0.0,0.0
384,95.75,65.533,72.0896,136.449,97.1101,90.1184,0.00142953,0.120992,20.9028,187.657,0.66225,0.0,0.0
400,99.75,64.2798,71.0168,137.212,97.0611,90.0911,0.0015409,0.125056,20.8965,187.557,0.66045,0.0,0.0
416,103.75,62.8068,69.5151,138.406,97.0427,90.6357,0.00149144,0.124106,20.8986,187.527,0.605365,0.0,0.0
432,107.75,62.2104,68.657,139.346,97.0335,90.6753,0.00156761,0.121712,20.9033,187.497,0.600658,0.0,0.0
448,111.75,61.1389,67.423,141.016,97.0614,90.0149,0.00180027,0.120626,20.9044,187.397,0.667992,0.0,0.0
464,115.75,60.6784,66.7901,134.921,97.0894,90.3484,0.00159261,0.120449,20.9046,187.367,0.637765,0.0,0.0
480,119.75,60.0231,65.5181,138.122,97.1448,90.6011,0.00146871,0.11879,20.9072,187.317,0.61807,0.0,0.0
496,123.75,59.438,64.9385,139.533,97.1914,91.3921,0.0013787,0.11653,20.9122,187.257,0.545278,0.0,0.0
512,127.75,58.5065,63.511,138.718,97.2516,90.8913,0.00172465,0.112607,20.9191,187.217,0.59947,0.0,0.0
528,131.75,58.0194,63.4949,136.097,97.3386,90.7804,0.00184109,0.108849,20.9234,187.167,0.618208,0.0,0.0
544,135.75,57.1938,61.8613,134.31,97.4271,92.3126,0.00180941,0.105763,20.9291,187.147,0.477921,0.0,0.0
560,139.75,57.0566,61.3658,142.317,97.5136,92.1646,0.00135767,0.102794,20.9326,187.067,0.500008,0.0,0.0
576,143.75,56.0732,60.7252,137.45,97.6033,92.8707,0.00127155,0.0997025,20.9371,187.057,0.440513,0.0,0.0
592,147.75,55.203,59.7036,141.501,97.6898,93.4676,0.00112722,0.0968854,20.9418,187.017,0.391586,0.0,0.0
608,151.75,54.6372,58.6624,139.053,97.7792,93.0509,0.000993923,0.0943442,20.9445,186.967,0.439292,0.0,0.0
624,155.75,54.2643,58.767,136.676,97.8406,93.3015,0.00115644,0.0918916,20.9477,186.947,0.421015,0.0,0.0
640,159.75,53.7654,57.763,139.383,97.9115,93.6111,0.00113019,0.0898636,20.9507,186.907,0.398085,0.0,0.0
656,163.75,53.3403,57.6924,140.977,97.9686,93.5406,0.0010954,0.087756,20.9539,186.897,0.40992,0.0,0.0
672,167.75,53.0754,56.8436,142.896,98.0363,93.7154,0.00124634,0.0847765,20.9579,186.867,0.399506,0.0,0.0
688,171.75,52.8812,56.6704,139.95,98.0838,93.7529,0.00122091,0.0826843,20.9606,186.837,0.400247,0.0,0.0
704,175.75,52.1172,55.4158,139.984,98.1332,94.161,0.00138346,0.0802295,20.9661,186.777,0.366218,0.0,0.0
720,179.75,51.9639,55.6149,138.222,98.1851,93.893,0.00151025,0.0777452,20.9711,186.767,0.396154,0.0,0.0
736,183.75,51.3481,55.1345,139.743,98.2245,93.7784,0.00155158,0.0743276,20.9757,186.747,0.41054,0.0,0.0
752,187.75,51.413,54.76,140.137,98.2576,94.2142,0.00102891,0.0710242,20.9795,186.717,0.372443,0.0,0.0
768,191.75,50.7384,54.0381,139.115,98.2728,93.8803,0.00113895,0.0680578,20.983,186.707,0.405275,0.0,0.0
784,195.75,50.7033,53.5341,146.641,98.3039,94.121,0.00130649,0.0653799,20.9854,186.707,0.385382,0.0,0.0
800,199.75,50.008,53.5439,139.35,98.3386,93.623,0.00125306,0.0633073,20.9881,186.657,0.435524,0.0,0.0
816,203.75,49.8764,52.6717,141.498,98.3222,93.8704,0.00103057,0.0616025,20.9899,186.626,0.410667,0.0,0.0
832,207.75,49.6308,52.7646,139.428,98.3242,93.6,0.000921602,0.0606533,20.9902,186.626,0.436415,0.0,0.0
848,211.75,49.249,51.6939,141.34,98.3135,94.0938,0.000934366,0.0601559,20.9917,186.646,0.388807,0.0,0.0
864,215.75,49.1746,51.7333,136.903,98.3023,94.487,0.000805083,0.0596167,20.9931,186.606,0.350836,0.0,0.0
880,219.75,48.9328,51.2556,143.166,98.2788,93.919,0.000789935,0.05894,20.9958,186.566,0.402156,0.0,0.0
896,223.75,48.6857,51.1625,138.41,98.2437,94.2587,0.000715715,0.0583909,20.9975,186.556,0.366997,0.0,0.0
912,227.75,48.8145,51.0813,139.798,98.215,93.9982,0.000774055,0.0577964,20.9971,186.536,0.388936,0.0,0.0
928,231.75,48.3869,51.2396,140.511,98.1536,93.8852,0.00104785,0.0574848,20.9971,186.566,0.394049,0.0,0.0
944,235.75,48.0239,50.3881,141.314,98.1201,93.7751,0.00118229,0.0574147,20.997,186.506,0.401421,0.0,0.0
960,239.75,47.9808,50.1913,148.65,98.0734,93.4132,0.00108426,0.057134,20.997,186.516,0.431478,0.0,0.0
976,243.75,47.9912,50.0923,141.679,98.0443,94.2525,0.00130701,0.0573354,20.9984,186.506,0.349573,0.0,0.0
992,247.75,47.9254,50.1404,140.113,98.0176,93.6564,0.00114252,0.0572601,20.999,186.466,0.403387,0.0,0.0
1008,251.75,47.0958,49.1768,142.56,97.9701,93.7854,0.00112378,0.0570869,20.9992,186.436,0.386894,0.0,0.0
1024,255.75,47.1181,49.0423,142.662,97.9323,93.56,0.00117671,0.0568465,20.999,186.426,0.404801,0.0,0.0
1040,259.75,47.0604,48.6355,143.024,97.9171,94.2488,0.000864782,0.0565861,20.998,186.416,0.338418,0.0,0.0
1056,263.75,46.911,49.0515,140.414,97.8772,93.7191,0.000813955,0.0562508,20.9978,186.386,0.38476,0.0,0.0
1072,267.75,46.9705,48.8683,139.515,97.8469,93.553,0.000918713,0.056086,20.9995,186.366,0.397739,0.0,0.0
1088,271.75,46.6358,48.6479,139.755,97.843,94.3947,0.00112355,0.0558983,20.9998,186.326,0.317991,0.0,0.0
1104,275.75,46.3801,48.4534,141.546,97.8266,93.6704,0.000825475,0.0557311,21.0012,186.366,0.384774,0.0,0.0
1120,279.75,46.7944,48.0709,139.755,97.8103,93.7187,0.000847922,0.0554405,21.0015,186.326,0.378731,0.0,0.0
1136,283.75,46.65,48.421,139.288,97.8186,93.4462,0.000703039,0.0553695,20.9994,186.336,0.405296,0.0,0.0
1152,287.75,46.425,48.0748,143.083,97.8123,93.4705,0.000440893,0.0555991,20.9991,186.316,0.402411,0.0,0.0
1168,291.75,46.4704,48.1513,141.719,97.8597,93.2953,0.00076271,0.0557418,21.0007,186.306,0.423337,0.0,0.0
1184,295.75,46.392,48.1485,141.501,97.9139,93.6247,0.000810855,0.0558342,21.0011,186.306,0.397013,0.0,0.0
1200,299.75,45.9072,48.298,143.73,98.0024,93.7393,0.000741791,0.0559823,21.0011,186.246,0.394179,0.0,0.0
1216,303.75,46.4375,48.2666,138.882,98.0806,94.337,0.000765643,0.0560442,20.9997,186.236,0.34491,0.0,0.0
1232,307.75,46.0614,48.3231,145.1,98.1679,94.1301,0.000606703,0.0559042,20.999,186.196,0.372261,0.0,0.0
1248,311.75,45.9605,48.1039,141.34,98.2489,94.8143,0.000943709,0.0559726,20.9995,186.206,0.31537,0.0,0.0
1264,315.75,45.978,48.0607,141.791,98.3139,93.778,0.00115858,0.055913,20.9997,186.176,0.418635,0.0,0.0
1280,319.75,46.1699,48.1916,140.93,98.3924,93.8625,0.000948602,0.0558364,20.9998,186.156,0.41773,0.0,0.0
1296,323.75,45.8572,48.0018,139.459,98.4562,94.7138,0.000865312,0.0557682,21.0004,186.166,0.34346,0.0,0.0
1312,327.75,45.8988,48.0463,137.837,98.5001,94.1878,0.000921485,0.0557465,21.0018,186.136,0.396764,0.0,0.0
1328,331.75,45.4333,47.7473,142.704,98.5419,94.2991,0.000929904,0.0556034,21.0016,186.096,0.390064,0.0,0.0
1344,335.75,45.6805,47.6759,137.949,98.5866,94.6255,0.00100462,0.05564,21.001,186.106,0.363448,0.0,0.0
1360,339.75,45.7046,47.767,141.539,98.6093,94.5138,0.000745213,0.0556334,21,186.106,0.37596,0.0,0.0
1376,343.75,45.9714,47.7492,143.781,98.6388,94.6412,0.00075431,0.0556157,20.9999,186.066,0.366675,0.0,0.0
1392,347.75,45.4643,47.5168,137.666,98.6655,94.5048,0.000842775,0.0558542,20.9998,186.046,0.381863,0.0,0.0
1408,351.75,45.3517,47.8129,144.81,98.6871,94.0076,0.000864822,0.055702,21.0003,186.006,0.430542,0.0,0.0
1424,355.75,45.5977,47.4766,142.111,98.6675,94.438,0.000803003,0.0556662,21.0006,186.016,0.388307,0.0,0.0
1440,359.75,45.4444,47.2302,140.822,98.6659,94.3931,,0.0556827,,186.026,0.392381,0.0,0.0
1456,363.75,45.2227,47.5776,142.372,98.6683,94.3691,,,,185.966,0.394841,0.0,0.0
1472,367.75,45.4841,47.0833,139.004,98.6416,94.4574,,,,185.966,0.38416,0.0,0.0
1482,370.25,45.3001,47.3523,141.846,98.6181,94.3778,,,,185.946,0.389514,0.0,0.0