File: 01_Data/Lightweight_Gypsum_Wallboard_Painted_Paper/MCC/Lightweight_Gypsum_Wallboard_Painted_Paper_MCC_30K_min_211202_O3.txt
Sample ID:	C:\MCC\MCC Cal\Test\LW_GypBoard_Painted_Paper_MCC_30K_min_211202_R3.txt
Sample Weight (mg):	4.37
Heating Rate (C/s):	0.5
Combustor Temp (C):	900
N2 Flow Rate (cc/min):	80
O2 Flow Rate (cc/min):	20
Calibration File:	C:\MCC\MCC Cal\Coeff1 JN10440_30_210304.txt.txt
T Correction Coefficients:	0	1.024463	0
Time Shift (s):	14
*
Time (s)	Temperature (C)	N2 flow rate (cc/min)	O2 flow rate (cc/min)	Flow Rate (cc/min)	Oxygen (%)	HRR (W/g)	Heating rate (C/s)
0.000	108.339	80.001	19.995	103.012	20.102	0.195	-0.037
8.000	108.318	80.002	19.995	103.001	20.098	0.483	-0.032
16.000	108.361	80.002	19.995	103.028	20.100	0.354	0.000
24.000	108.515	80.003	19.995	103.105	20.091	1.038	0.025
32.000	108.995	80.003	19.996	103.134	20.083	1.578	0.080
40.000	109.710	80.002	19.995	103.155	20.081	1.764	0.112
48.001	110.792	80.004	19.995	103.207	20.067	2.802	0.135
56.001	112.333	80.004	19.995	103.248	20.063	3.056	0.213
64.000	114.277	80.001	19.996	103.267	20.058	3.450	0.255
72.001	116.564	80.002	19.995	103.262	20.056	3.582	0.315
80.001	119.173	80.001	19.995	103.260	20.056	3.625	0.352
88.001	122.050	80.000	19.997	103.265	20.055	3.670	0.373
96.000	125.217	79.999	19.998	103.273	20.056	3.576	0.407
104.000	128.637	80.003	19.995	103.278	20.052	3.896	0.445
112.000	132.150	80.003	19.996	103.270	20.053	3.786	0.448
120.000	135.831	80.003	19.996	103.265	20.052	3.910	0.458
128.000	139.634	80.003	19.995	103.267	20.053	3.780	0.469
136.000	143.528	80.002	19.995	103.314	20.055	3.702	0.509
144.000	147.518	80.003	19.995	103.262	20.055	3.696	0.483
152.000	151.553	80.001	19.996	103.260	20.055	3.641	0.509
160.000	155.569	80.001	19.996	103.258	20.052	3.864	0.508
168.000	159.630	80.002	19.995	103.243	20.050	4.051	0.517
176.001	163.655	80.001	19.996	103.237	20.053	3.778	0.495
184.000	167.740	80.002	19.996	103.233	20.055	3.638	0.483
192.000	171.749	80.002	19.995	103.224	20.053	3.845	0.516
200.000	175.755	80.001	19.994	103.224	20.049	4.103	0.487
208.000	179.705	80.005	19.995	103.218	20.047	4.242	0.451
216.000	183.678	80.002	19.996	103.218	20.048	4.156	0.498
224.000	187.625	80.002	19.996	103.220	20.049	4.105	0.473
232.000	191.605	80.001	19.995	103.219	20.047	4.274	0.530
240.000	195.525	80.001	19.995	103.213	20.038	4.899	0.491
248.000	199.424	80.001	19.995	103.217	20.040	4.801	0.498
256.000	203.367	80.000	19.994	103.220	20.041	4.734	0.462
264.000	207.356	80.001	19.995	103.208	20.037	4.986	0.511
272.000	211.319	80.001	19.997	103.214	20.032	5.383	0.519
280.000	215.271	80.001	19.997	103.211	20.028	5.630	0.508
288.000	219.219	80.004	19.995	103.200	20.031	5.412	0.473
296.000	223.192	80.002	19.995	103.207	20.029	5.589	0.491
304.000	227.136	80.000	19.995	103.194	20.027	5.697	0.461
312.000	231.251	80.002	19.994	103.209	20.028	5.690	0.500
320.000	235.246	80.002	19.994	103.195	20.028	5.643	0.487
328.000	239.257	80.001	19.996	103.205	20.025	5.849	0.508
336.000	243.291	80.001	19.997	103.188	20.022	6.114	0.510
344.000	247.280	80.003	19.995	103.185	20.021	6.177	0.488
352.000	251.360	80.002	19.995	103.188	20.020	6.280	0.519
360.000	255.375	80.002	19.996	103.191	20.011	6.894	0.499
368.000	259.444	80.003	19.996	103.202	20.001	7.643	0.481
376.000	263.418	80.002	19.994	103.196	19.992	8.284	0.511
384.000	267.381	80.003	19.994	103.191	19.981	9.097	0.512
392.000	271.430	80.001	19.995	103.204	19.972	9.762	0.503
400.000	275.400	80.002	19.995	103.211	19.963	10.452	0.487
408.000	279.455	80.001	19.995	103.196	19.942	11.968	0.494
416.000	283.493	80.003	19.995	103.215	19.927	13.110	0.490
424.000	287.462	80.003	19.995	103.219	19.906	14.618	0.489
432.000	291.467	80.002	19.994	103.223	19.892	15.665	0.518
440.000	295.559	80.003	19.994	103.228	19.872	17.169	0.536
448.000	299.563	80.002	19.995	103.229	19.849	18.875	0.510
456.000	303.588	79.999	19.997	103.254	19.828	20.371	0.500
464.001	307.609	80.001	19.996	103.257	19.805	22.111	0.498
472.000	311.728	80.002	19.994	103.259	19.779	24.041	0.523
480.000	315.842	80.001	19.995	103.260	19.750	26.157	0.504
488.000	319.860	79.999	19.996	103.284	19.724	28.048	0.515
496.000	323.951	80.003	19.995	103.298	19.690	30.569	0.499
504.000	327.970	80.003	19.994	103.300	19.653	33.291	0.471
512.000	332.092	80.001	19.995	103.306	19.613	36.290	0.524
520.000	336.172	80.004	19.995	103.334	19.565	39.834	0.505
528.000	340.210	80.004	19.994	103.345	19.511	43.810	0.500
536.000	344.244	80.003	19.995	103.362	19.453	48.107	0.528
544.000	348.288	80.002	19.996	103.377	19.392	52.579	0.498
552.000	352.387	80.002	19.995	103.388	19.343	56.243	0.530
560.000	356.436	80.001	19.995	103.389	19.296	59.703	0.506
568.000	360.462	80.002	19.994	103.378	19.275	61.231	0.494
576.000	364.503	80.002	19.993	103.368	19.286	60.351	0.508
584.000	368.535	80.001	19.995	103.317	19.341	56.289	0.491
592.001	372.580	80.002	19.994	103.260	19.423	50.267	0.506
600.000	376.649	80.004	19.995	103.209	19.533	42.108	0.523
608.000	380.681	80.005	19.995	103.189	19.627	35.169	0.516
616.000	384.729	80.003	19.995	103.180	19.690	30.538	0.498
624.000	388.807	80.002	19.996	103.176	19.702	29.668	0.534
632.000	392.865	80.002	19.996	103.180	19.683	31.053	0.521
640.000	396.938	80.000	19.995	103.182	19.645	33.901	0.523
648.000	400.954	80.000	19.996	103.183	19.603	36.980	0.512
656.000	404.968	80.003	19.995	103.176	19.574	39.059	0.502
664.000	408.972	80.002	19.995	103.159	19.579	38.749	0.500
672.000	412.967	80.002	19.995	103.140	19.619	35.741	0.463
680.000	417.027	80.004	19.995	103.142	19.700	29.792	0.519
688.000	421.022	80.004	19.995	103.149	19.794	22.850	0.487
696.000	425.057	80.000	19.996	103.153	19.875	16.911	0.488
704.000	429.159	80.002	19.995	103.147	19.924	13.340	0.503
712.000	433.202	80.001	19.995	103.144	19.956	10.985	0.492
720.000	437.340	80.001	19.996	103.140	19.974	9.605	0.542
728.000	441.451	80.001	19.996	103.188	19.986	8.774	0.533
736.000	445.532	80.004	19.994	103.139	19.989	8.511	0.513
744.000	449.599	80.003	19.994	103.139	19.996	7.975	0.503
752.000	453.646	80.003	19.994	103.132	20.003	7.460	0.530
760.000	457.745	80.004	19.995	103.141	20.006	7.282	0.532
768.000	461.858	80.003	19.994	103.137	20.009	7.066	0.528
776.000	465.889	80.002	19.995	103.139	20.013	6.777	0.474
784.000	469.954	80.001	19.995	103.138	20.017	6.487	0.510
792.000	474.066	80.001	19.995	103.140	20.020	6.265	0.541
800.000	478.220	80.001	19.996	103.139	20.021	6.135	0.515
808.000	482.321	80.001	19.996	103.136	20.020	6.230	0.511
816.000	486.489	80.003	19.997	103.130	20.021	6.155	0.552
824.000	490.562	80.002	19.995	103.142	20.023	6.038	0.517
832.000	494.664	80.002	19.994	103.138	20.023	6.047	0.551
840.000	498.788	80.004	19.994	103.140	20.025	5.856	0.496
848.000	502.951	80.001	19.995	103.138	20.028	5.643	0.531
856.000	507.070	80.001	19.995	103.141	20.028	5.683	0.528
864.000	511.180	80.003	19.994	103.132	20.027	5.722	0.511
872.000	515.306	80.002	19.995	103.138	20.030	5.491	0.540
880.000	519.469	80.000	19.996	103.141	20.028	5.678	0.529
888.000	523.595	80.002	19.994	103.142	20.028	5.623	0.519
896.000	527.735	80.002	19.996	103.133	20.031	5.417	0.506
904.001	531.982	80.002	19.995	103.137	20.031	5.455	0.559
912.000	536.106	80.001	19.995	103.133	20.028	5.657	0.521
920.000	540.244	80.005	19.994	103.130	20.034	5.191	0.535
928.000	544.329	80.002	19.995	103.134	20.031	5.409	0.516
936.000	548.451	80.001	19.995	103.127	20.033	5.305	0.532
944.000	552.557	80.002	19.994	103.129	20.028	5.648	0.528
952.000	556.668	80.001	19.994	103.131	20.030	5.516	0.508
960.000	560.760	80.002	19.996	103.131	20.029	5.543	0.532
968.000	564.834	80.004	19.996	103.136	20.031	5.420	0.541
976.000	568.858	80.004	19.996	103.125	20.029	5.551	0.499
984.000	572.818	80.002	19.995	103.131	20.034	5.246	0.472
992.000	576.954	80.003	19.996	103.123	20.031	5.449	0.492
1000.000	580.907	80.003	19.995	103.134	20.033	5.305	0.487
1008.000	584.880	80.002	19.994	103.116	20.037	4.990	0.481
1016.000	588.899	80.001	19.994	103.123	20.032	5.353	0.495
1024.000	592.940	80.001	19.995	103.125	20.033	5.312	0.527
1032.000	597.026	80.003	19.994	103.114	20.034	5.181	0.498
1040.001	601.037	80.001	19.994	103.121	20.028	5.678	0.459
1048.000	605.245	80.003	19.994	103.139	20.033	5.301	0.538
1056.000	608.890	80.003	19.996	103.131	20.028	5.650	1.097
1064.000	613.501	80.002	19.994	103.124	20.025	5.854	0.591
1072.000	617.724	80.004	19.996	103.128	20.024	5.978	0.558
1080.000	621.863	80.004	19.994	103.126	20.024	5.941	0.497
1088.000	626.090	80.002	19.995	103.129	20.037	4.961	0.510
1096.000	630.218	80.003	19.993	103.133	20.037	5.000	0.511
1104.000	634.403	80.004	19.995	103.116	20.027	5.752	0.531
1112.000	638.520	80.002	19.995	103.126	20.025	5.850	0.539
1120.001	642.603	80.001	19.995	103.137	20.025	5.840	0.505
1128.000	646.606	80.003	19.994	103.139	20.022	6.098	0.482
1136.000	650.669	80.003	19.995	103.131	20.016	6.549	0.489
1144.000	654.684	80.002	19.995	103.133	20.023	6.015	0.501
1152.000	658.893	80.003	19.996	103.141	20.026	5.836	0.518
1160.000	662.817	80.002	19.995	103.133	20.020	6.271	0.536
1168.000	666.854	80.003	19.995	103.138	20.022	6.075	0.498
1176.000	670.824	80.002	19.996	103.135	20.023	6.019	0.431
1184.001	674.864	80.004	19.995	103.125	20.021	6.174	0.503
1192.000	678.959	80.001	19.995	103.119	20.017	6.469	0.558
1200.000	682.853	80.002	19.994	103.127	20.018	6.386	1.149
1208.000	686.942	80.003	19.995	103.116	20.022	6.097	0.490
1216.001	691.095	80.002	19.995	103.130	20.020	6.241	0.537
1224.001	695.291	80.003	19.995	103.125	20.021	6.129	0.510
1232.000	699.555	80.003	19.995	103.115	20.022	6.064	0.558
1240.001	703.688	80.003	19.995	103.115	20.023	6.007	0.499
1248.000	707.869	80.002	19.995	103.103	20.019	6.310	0.544
1256.001	712.026	80.002	19.995	103.126	20.021	6.194	0.519
1264.000	716.137	80.002	19.995	103.114	20.017	6.446	0.502
1272.000	720.270	80.001	19.995	103.109	20.018	6.389	0.490
1280.000	724.370	80.001	19.994	103.108	20.020	6.255	0.508
1288.001	728.417	80.004	19.994	103.114	20.020	6.210	0.522
1296.000	732.458	80.003	19.996	103.105	20.020	6.217	0.522
1304.001	736.440	80.003	19.995	103.108	20.015	6.594	0.485
1312.001	740.510	80.004	19.995	103.103	20.018	6.356	0.548
1318.001	743.552	80.004	19.994	103.105	20.019	6.282	0.537