File: 01_Data/PVC/HFM/PVC_Density_Wet_R2.csv
,PVC_WET_2
Sample Mass [g],181.4
Sample Volume [cm3],130.7
Sample Density [kg/m3],1388