File: 01_Data/PVC/HFM/PVC_Density_Wet_R3.csv
,PVC_WET_3
Sample Mass [g],180.4
Sample Volume [cm3],129.7
Sample Density [kg/m3],1391