File: 01_Data/PVC/HFM/PVC_Density_Wet_R1.csv
,PVC_WET_1
Sample Mass [g],182.3
Sample Volume [cm3],131.6
Sample Density [kg/m3],1385