File: 01_Data/LatexPillow_B_Inner_Fabric/MCC/LatexPillow_B_Inner_Fabric_MCC_30K_min_211213_R3.txt
Sample ID:	C:\MCC\MCC Cal\Test\LatexPillow_B_Inner_Fabric_MCC_30K_min_211213_R3.txt
Sample Weight (mg):	4.1
Heating Rate (C/s):	0.5
Combustor Temp (C):	900
N2 Flow Rate (cc/min):	80
O2 Flow Rate (cc/min):	20
Calibration File:	C:\MCC\MCC Cal\Coeff1 JN10440_30_210304.txt.txt
T Correction Coefficients:	0	1.024463	0
Time Shift (s):	14
*
Time (s)	Temperature (C)	N2 flow rate (cc/min)	O2 flow rate (cc/min)	Flow Rate (cc/min)	Oxygen (%)	HRR (W/g)	Heating rate (C/s)
-0.001	107.444	80.014	19.995	103.053	19.920	-0.013	-0.018
8.000	107.457	80.007	19.994	103.051	19.922	-0.150	0.038
16.000	107.455	80.007	19.993	103.043	19.917	0.210	0.014
24.000	107.432	80.007	19.994	103.077	19.917	0.210	-0.001
32.000	107.592	80.008	19.993	103.132	19.906	1.046	0.042
39.999	107.956	80.008	19.994	103.246	19.890	2.341	0.059
48.001	108.890	80.010	19.993	103.267	19.879	3.173	0.145
55.999	110.310	80.010	19.995	103.285	19.877	3.351	0.182
63.999	112.237	80.007	19.993	103.305	19.869	3.971	0.268
71.999	114.532	80.010	19.995	103.322	19.866	4.188	0.304
79.999	117.195	80.009	19.994	103.314	19.871	3.830	0.329
87.999	120.181	80.009	19.995	103.325	19.873	3.652	0.403
95.999	123.415	80.008	19.995	103.330	19.871	3.803	0.402
103.999	126.976	80.010	19.995	103.331	19.867	4.169	0.413
111.999	130.620	80.009	19.994	103.332	19.866	4.182	0.473
120.000	134.466	80.009	19.994	103.326	19.867	4.152	0.460
127.999	138.450	80.010	19.995	103.327	19.867	4.130	0.511
136.000	142.526	80.011	19.993	103.321	19.869	4.018	0.507
144.000	146.690	80.010	19.995	103.297	19.863	4.421	0.507
152.000	150.803	80.008	19.995	103.293	19.870	3.889	0.512
160.000	154.830	80.010	19.994	103.293	19.868	4.020	0.501
168.000	158.905	80.010	19.994	103.290	19.870	3.867	0.505
176.000	162.982	80.007	19.994	103.291	19.872	3.782	0.373
184.000	167.084	80.007	19.996	103.288	19.879	3.192	0.546
192.000	171.020	80.010	19.995	103.275	19.877	3.345	0.489
200.000	175.010	80.007	19.994	103.256	19.878	3.303	0.491
208.000	178.879	80.011	19.994	103.264	19.880	3.101	0.515
216.000	182.808	80.011	19.995	103.268	19.880	3.082	0.480
224.000	186.809	80.009	19.995	103.273	19.881	3.054	0.517
232.000	190.735	80.026	19.994	103.262	19.885	2.728	0.513
240.000	194.656	80.010	19.993	103.259	19.887	2.597	0.509
248.000	198.551	80.003	19.995	103.253	19.883	2.852	0.459
256.000	202.464	79.999	19.996	103.244	19.882	2.955	0.475
264.000	206.385	80.010	19.995	103.255	19.888	2.520	0.468
272.000	210.369	80.012	19.994	103.250	19.886	2.672	0.548
280.000	214.361	80.012	19.994	103.244	19.887	2.578	0.512
288.000	218.244	80.008	19.995	103.249	19.887	2.561	0.509
296.000	222.257	80.010	19.994	103.250	19.892	2.203	0.491
304.000	226.216	80.010	19.993	103.239	19.889	2.424	0.507
312.000	230.234	80.008	19.994	103.252	19.895	1.967	0.532
320.000	234.270	80.010	19.994	103.246	19.894	2.018	0.522
328.000	238.257	80.004	19.996	103.236	19.892	2.162	0.468
336.000	242.253	80.012	19.994	103.246	19.894	2.022	0.481
344.000	246.232	79.998	19.996	103.232	19.897	1.785	0.483
352.000	250.221	80.002	19.995	103.231	19.897	1.789	0.524
360.000	254.197	80.009	19.994	103.216	19.899	1.590	0.495
368.000	258.196	80.018	19.993	103.218	19.903	1.285	0.488
376.000	262.101	79.998	19.997	103.215	19.900	1.542	0.471
384.000	266.092	80.013	19.996	103.209	19.903	1.330	0.496
392.000	270.064	80.006	19.995	103.215	19.906	1.058	0.497
400.000	274.090	80.008	19.994	103.228	19.903	1.290	0.479
408.000	278.109	80.010	19.994	103.217	19.909	0.857	0.512
416.000	282.071	80.011	19.993	103.210	19.908	0.915	0.508
424.000	286.028	80.006	19.995	103.216	19.914	0.428	0.523
432.000	290.099	80.014	19.994	103.215	19.914	0.450	0.524
440.000	294.146	80.012	19.994	103.213	19.915	0.403	0.518
448.000	298.192	80.014	19.994	103.210	19.913	0.550	0.496
456.000	302.205	80.004	19.996	103.209	19.911	0.715	0.469
464.000	306.224	80.012	19.994	103.203	19.918	0.122	0.481
472.000	310.230	80.006	19.995	103.188	19.921	-0.114	0.503
480.000	314.334	80.006	19.997	103.200	19.925	-0.416	0.512
488.000	318.393	80.007	19.995	103.191	19.925	-0.458	0.512
496.000	322.468	80.009	19.993	103.200	19.930	-0.801	0.530
504.000	326.589	80.012	19.994	103.195	19.930	-0.795	0.557
512.000	330.641	80.002	19.996	103.209	19.934	-1.092	0.523
520.000	334.830	80.012	19.994	103.208	19.930	-0.846	0.527
528.000	339.035	80.012	19.992	103.202	19.928	-0.647	0.569
536.000	343.099	80.012	19.994	103.182	19.927	-0.574	0.487
544.000	347.243	80.017	19.994	103.183	19.934	-1.146	0.523
552.000	351.315	80.016	19.994	103.184	19.939	-1.514	0.516
560.000	355.556	80.011	19.994	103.178	19.935	-1.169	0.514
568.000	359.584	79.994	19.996	103.175	19.935	-1.178	0.495
576.000	363.627	80.005	19.995	103.190	19.927	-0.546	0.496
584.000	367.597	80.006	19.995	103.177	19.921	-0.131	0.507
592.000	371.558	80.012	19.994	103.179	19.910	0.737	0.480
600.000	375.633	80.010	19.995	103.200	19.888	2.489	0.488
608.000	379.709	80.002	19.995	103.207	19.863	4.454	0.523
616.000	383.814	80.007	19.994	103.206	19.847	5.725	0.483
624.000	387.969	80.012	19.995	103.215	19.838	6.426	0.478
632.000	392.040	80.002	19.995	103.228	19.799	9.459	0.493
640.000	396.159	80.007	19.994	103.250	19.729	15.019	0.503
648.000	400.144	80.003	19.995	103.224	19.680	18.841	0.488
656.000	404.226	80.005	19.996	103.294	19.610	24.372	0.519
664.000	408.190	80.014	19.995	103.330	19.516	31.741	0.490
672.000	412.091	80.008	19.996	103.368	19.386	42.023	0.481
680.000	416.030	80.010	19.994	103.420	19.218	55.317	0.506
688.000	420.020	80.008	19.995	103.515	19.021	70.832	0.519
696.000	424.079	80.008	19.994	103.565	18.805	87.934	0.503
704.000	428.087	80.015	19.993	103.676	18.557	107.631	0.498
712.000	432.150	80.014	19.994	103.751	18.317	126.673	0.513
720.000	436.286	80.007	19.995	103.845	18.110	143.089	0.519
728.000	440.371	80.016	19.994	103.908	17.909	159.113	0.510
736.000	444.459	80.006	19.994	103.946	17.762	170.713	0.529
744.000	448.492	79.992	19.996	103.970	17.719	174.009	0.523
752.000	452.630	80.010	19.996	103.940	17.840	164.260	0.552
760.000	456.734	80.013	19.996	103.832	18.143	140.131	0.545
768.000	460.906	80.015	19.995	103.702	18.553	107.665	0.532
776.000	465.063	80.008	19.994	103.550	19.033	69.765	0.530
784.000	469.254	79.996	19.995	103.433	19.392	41.478	0.532
792.000	473.465	80.017	19.993	103.344	19.608	24.494	0.519
800.000	477.658	80.016	19.994	103.280	19.746	13.636	0.515
808.000	481.846	80.009	19.995	103.252	19.834	6.694	0.542
816.000	485.958	80.013	19.994	103.228	19.889	2.433	0.535
824.000	490.009	79.997	19.996	103.192	19.930	-0.797	0.503
832.000	494.230	80.005	19.995	103.187	19.957	-2.910	0.524
840.000	498.346	80.013	19.994	103.183	19.977	-4.464	0.511
848.000	502.459	80.007	19.996	103.163	19.986	-5.211	0.528
856.000	506.493	80.003	19.997	103.150	19.992	-5.649	0.478
864.000	510.590	80.008	19.994	103.151	19.988	-5.358	0.462
872.000	514.660	79.998	19.996	103.141	19.996	-5.998	0.529
880.000	518.735	79.996	19.995	103.135	20.003	-6.546	0.508
888.000	522.864	80.005	19.994	103.142	20.003	-6.520	0.520
896.000	526.954	80.011	19.994	103.132	20.015	-7.471	0.493
904.000	531.092	80.008	19.994	103.142	20.012	-7.231	0.526
912.000	535.161	80.007	19.994	103.142	20.014	-7.394	0.490
920.000	539.250	80.007	19.996	103.132	20.017	-7.621	0.530
928.000	543.338	80.012	19.994	103.127	20.020	-7.854	0.518
936.000	547.519	80.006	19.996	103.125	20.020	-7.884	0.518
944.000	551.598	80.009	19.994	103.134	20.019	-7.835	0.500
952.000	555.737	80.013	19.994	103.136	20.017	-7.612	0.511
960.000	559.824	80.011	19.994	103.127	20.021	-7.939	0.491
968.000	563.937	80.005	19.995	103.137	20.022	-8.023	0.509
976.000	568.094	80.006	19.995	103.133	20.022	-8.027	0.540
984.000	572.202	80.009	19.996	103.132	20.026	-8.340	0.525
992.000	576.466	80.005	19.994	103.131	20.030	-8.676	0.519
1000.000	580.614	80.009	19.994	103.127	20.030	-8.700	0.520
1008.000	584.754	80.010	19.995	103.128	20.027	-8.454	0.517
1016.000	588.898	80.013	19.993	103.129	20.027	-8.389	0.551
1024.000	592.968	80.009	19.994	103.136	20.026	-8.322	0.507
1031.999	597.067	80.012	19.995	103.130	20.027	-8.446	0.490
1040.000	601.166	80.008	19.994	103.115	20.030	-8.649	0.532
1047.999	605.218	80.007	19.995	103.121	20.033	-8.896	0.492
1055.999	609.279	80.009	19.994	103.110	20.035	-9.014	0.487
1063.999	613.368	80.008	19.994	103.110	20.035	-9.026	0.531
1071.999	617.551	80.006	19.994	103.128	20.042	-9.628	0.548
1079.999	621.654	80.009	19.995	103.117	20.041	-9.543	0.550
1087.999	625.716	80.011	19.994	103.119	20.044	-9.735	0.486
1095.999	629.884	80.008	19.995	103.118	20.046	-9.905	0.514
1103.999	634.114	80.011	19.994	103.108	20.049	-10.151	0.547
1111.999	638.308	80.009	19.995	103.104	20.051	-10.318	0.518
1119.999	642.493	80.006	19.996	103.096	20.059	-10.913	0.522
1127.999	646.633	80.008	19.995	103.093	20.064	-11.322	0.558
1135.999	650.751	80.009	19.994	103.096	20.067	-11.564	0.507
1143.999	654.823	80.008	19.994	103.095	20.070	-11.804	0.492
1151.999	658.827	80.006	19.993	103.103	20.072	-11.946	0.512
1160.000	662.876	80.009	19.994	103.096	20.077	-12.336	0.516
1168.000	666.886	80.010	19.994	103.094	20.077	-12.368	0.531
1175.999	671.087	80.009	19.994	103.094	20.081	-12.693	0.498
1183.999	675.357	80.009	19.995	103.096	20.088	-13.228	0.538
1192.000	679.641	80.009	19.995	103.093	20.091	-13.429	0.559
1199.999	683.850	80.008	19.994	103.099	20.091	-13.412	0.521
1207.999	688.068	80.006	19.995	103.094	20.099	-14.036	0.504
1215.999	692.259	80.007	19.996	103.096	20.100	-14.168	0.529
1223.999	696.365	80.007	19.995	103.093	20.102	-14.291	0.536
1231.999	700.377	80.008	19.995	103.094	20.106	-14.642	0.490
1239.999	704.271	80.009	19.995	103.086	20.106	-14.589	0.513
1248.000	708.176	80.007	19.993	103.091	20.109	-14.862	0.450
1255.999	712.034	80.008	19.995	103.094	20.110	-14.938	0.464
1263.999	716.126	80.010	19.993	103.097	20.109	-14.824	0.498
1272.000	720.211	80.007	19.994	103.095	20.113	-15.178	0.519
1280.000	724.266	80.006	19.994	103.087	20.117	-15.513	0.481
1287.999	728.355	80.007	19.995	103.086	20.115	-15.291	0.523
1295.999	732.351	80.006	19.996	103.092	20.119	-15.642	0.492
1304.000	736.292	80.006	19.996	103.091	20.118	-15.554	0.499
1312.000	740.319	80.007	19.996	103.092	20.119	-15.644	0.491
1318.499	743.661	80.009	19.994	103.082	20.118	-15.548	0.514