File: 01_Data/Ext_Plywood/STA/N2/10K_min/Ext_Plywood_STA_N2_10KData_22243_R1.csv
##Temp./°C,Time/min,Mass loss(subtr.)/mg,DSC(subtr.2)/(mW/mg),Integral(DSC (subtr.2), 2, 199.3..406.4°C)/%,DTG(subtr.)/(mg/min),Sensit./(uV/mW)
49.94,10.00917,0.00439,0.0006957784,            ,0.0,1.07503,,
55.14,11.59765,0.004038642,0.15199,            ,-0.02157818,1.07232,,
60.34,12.23323,0.002507789,0.20901,            ,-0.00746658,1.06962,,
65.54,12.81289,0.00170613,0.2404,            ,-0.01761159,1.06692,,
70.74,13.37302,0.00244999,0.26707,            ,-0.01851471,1.06422,,
75.94,13.9213,-0.000218866,0.28971,            ,0.005616974,1.06153,,
81.14,14.4607,-0.001548909,0.30545,            ,-0.02176495,1.05884,,
86.34,14.9917,-0.003848867,0.31786,            ,-0.01005322,1.05616,,
91.54,15.51551,-0.005489604,0.32058,            ,-0.005636476,1.05348,,
96.74,16.03366,-0.008126922,0.31166,            ,-0.01826827,1.05081,,
101.94,16.54663,-0.009439495,0.30274,            ,-0.001887066,1.04814,,
107.14,17.05695,-0.01206923,0.2927,            ,-0.008966732,1.04547,,
112.34,17.56655,-0.01174002,0.2838,            ,-0.0002787563,1.04281,,
117.54,18.07534,-0.01140993,0.27976,            ,0.0001227217,1.04015,,
122.74,18.58316,-0.01078079,0.28119,            ,-0.02461155,1.0375,,
127.94,19.08945,-0.01009003,0.28625,            ,-0.0005743214,1.03485,,
133.14,19.59378,-0.01042001,0.29224,            ,-3.779619e-05,1.0322,,
138.34,20.09672,-0.01065978,0.29883,            ,-0.01296956,1.02956,,
143.54,20.59927,-0.009754531,0.30356,            ,0.002369575,1.02692,,
148.74,21.10106,-0.01371266,0.30915,            ,-0.00484347,1.02428,,
153.94,21.602,-0.0150488,0.31914,            ,-0.01844245,1.02165,,
159.14,22.10128,-0.01701011,0.32806,            ,0.0004061658,1.01902,,
164.34,22.60074,-0.01799736,0.33253,            ,-0.00339518,1.01639,,
169.54,23.09885,-0.01964,0.34067,            ,4.81191e-08,1.01376,,
174.74,23.5965,-0.02092935,0.34871,            ,-0.02233416,1.01114,,
179.94,24.09439,-0.01978531,0.3563,            ,-0.03347579,1.00851,,
185.14,24.5916,-0.02393051,0.36321,            ,-0.02499797,1.00589,,
190.34,25.08742,-0.02655,0.36909,            ,-3.21439e-11,1.00327,,
195.54,25.5824,-0.0311779,0.37144,            ,-0.02092386,1.00065,,
200.74,26.0785,-0.03642002,0.37007,2.785563e-03,-0.003146047,0.99803,,
205.94,26.57617,-0.04706243,0.36794,8.748810e-02,-0.01266877,0.99541,,
211.14,27.07334,-0.05518012,0.37001,     0.34787,-0.00167047,0.99279,,
216.34,27.57002,-0.06575911,0.37235,     0.86464,-0.0391036,0.99017,,
221.54,28.067,-0.07772944,0.37534,     1.63117,-0.02619039,0.98755,,
226.74,28.56349,-0.09399186,0.38288,     2.66738,0.01658367,0.98493,,
231.94,29.05882,-0.11101,0.38475,     3.93768,-0.03722584,0.9823,,
237.14,29.5548,-0.12913,0.38748,     5.45085,-0.05237878,0.97968,,
242.34,30.0507,-0.14707,0.39112,     7.20564,-0.04445236,0.97705,,
247.54,30.5467,-0.16955,0.39268,     9.18909,-0.04476741,0.97441,,
252.74,31.04291,-0.19458,0.39446,    11.37409,-0.04002612,0.97178,,
257.94,31.53939,-0.22244,0.3934,    13.74907,-0.02231429,0.96914,,
263.14,32.03754,-0.25035,0.38908,    16.27598,-0.08836202,0.9665,,
268.34,32.53425,-0.28766,0.39267,    19.00510,-0.08199177,0.96385,,
273.54,33.03025,-0.33268,0.39175,    21.91895,-0.1175,0.96119,,
278.74,33.52621,-0.3821,0.39167,    25.02660,-0.1114,0.95854,,
283.94,34.0232,-0.44335,0.38734,    28.27101,-0.12737,0.95587,,
289.14,34.5212,-0.5175,0.38696,    31.68293,-0.16255,0.9532,,
294.34,35.02,-0.59608,0.38922,    35.29393,-0.17544,0.95052,,
299.54,35.51893,-0.68955,0.39818,    39.18552,-0.19153,0.94784,,
304.74,36.01728,-0.79234,0.41196,    43.47346,-0.22122,0.94514,,
309.94,36.51574,-0.9056,0.41982,    48.12501,-0.23779,0.94244,,
315.14,37.01449,-1.03036,0.42637,    53.08951,-0.26198,0.93973,,
320.34,37.51512,-1.16706,0.42486,    58.31485,-0.26867,0.93701,,
325.54,38.0152,-1.31537,0.42482,    63.75040,-0.30941,0.93429,,
330.74,38.51678,-1.47432,0.42007,    69.33915,-0.35472,0.93155,,
335.94,39.01855,-1.6399,0.40755,    74.93449,-0.3346,0.9288,,
341.14,39.52037,-1.80942,0.38044,    80.37569,-0.34489,0.92604,,
346.34,40.02174,-1.97618,0.34129,    85.42889,-0.3259,0.92327,,
351.54,40.52178,-2.12893,0.28986,    89.87378,-0.26826,0.92048,,
356.74,41.02132,-2.26252,0.23112,    93.49770,-0.22939,0.91769,,
361.94,41.5229,-2.37071,0.16866,    96.20264,-0.1764,0.91488,,
367.14,42.02665,-2.45068,0.11296,    98.03706,-0.11351,0.91206,,
372.34,42.53148,-2.50752,0.06718559,    99.12958,-0.07782467,0.90922,,
377.54,43.03752,-2.54693,0.03037478,    99.68951,-0.06176477,0.90637,,
382.74,43.5424,-2.57329,0.01059379,    99.95295,-0.04356312,0.90351,,
387.94,44.04842,-2.59624,-0.00592603,   100.071,-0.04036573,0.90063,,
393.14,44.55365,-2.61769,-0.02017839,   100.08,-0.04632711,0.89773,,
398.34,45.05829,-2.63876,-0.03246146,   100.047,-0.03033954,0.89482,,
403.54,45.5644,-2.66073,-0.04580158,   100.013,-0.03514382,0.8919,,
408.74,46.07221,-2.67929,-0.05301378,            ,-0.02104172,0.88895,,
413.94,46.58041,-2.69939,-0.05128304,            ,-0.01339747,0.88599,,
419.14,47.0901,-2.71785,-0.05265418,            ,-0.06514709,0.88301,,
424.34,47.60069,-2.73327,-0.04835243,            ,-0.027706,0.88002,,
429.54,48.11135,-2.75018,-0.03435023,            ,-0.02467049,0.877,,
434.74,48.62307,-2.76634,-0.02446654,            ,-0.02537115,0.87397,,
439.94,49.13391,-2.78045,-0.01162237,            ,-0.03482951,0.87092,,
445.14,49.64403,-2.79283,-0.0009348542,            ,-0.03271843,0.86784,,
450.34,50.15462,-2.80847,0.01084226,            ,-0.04168829,0.86475,,
455.54,50.66686,-2.81971,0.01789512,            ,-0.04531106,0.86164,,
460.74,51.17967,-2.83082,0.02176832,            ,-0.03010975,0.85851,,
465.94,51.69187,-2.84141,0.02435061,            ,-0.03044158,0.85535,,
471.14,52.2031,-2.84947,0.0305696,            ,-0.01216382,0.85218,,
476.34,52.716,-2.86128,0.03020218,            ,-0.02539543,0.84898,,
481.54,53.23036,-2.86861,0.03337861,            ,-0.01525133,0.84576,,
486.74,53.7455,-2.8766,0.03581706,            ,-0.02486547,0.84252,,
491.94,54.26086,-2.8842,0.03257976,            ,-0.02758302,0.83926,,
497.14,54.7773,-2.89273,0.03204208,            ,-0.04661233,0.83598,,
502.34,55.29218,-2.9016,0.03057457,            ,0.008120256,0.83267,,
507.54,55.8072,-2.90746,0.03193072,            ,-0.04806233,0.82934,,
512.74,56.3226,-2.91392,0.02559791,            ,-0.00208801,0.82598,,
517.94,56.8396,-2.92087,0.02618726,            ,-0.01694416,0.8226,,
523.14,57.35723,-2.92574,0.03537678,            ,0.001052685,0.8192,,
528.34,57.87389,-2.93458,0.0559696,            ,-0.02343219,0.81578,,
533.54,58.39085,-2.94025,0.0681981,            ,-0.02330626,0.81233,,
538.74,58.9076,-2.94748,0.07949725,            ,-0.02198821,0.80885,,
543.94,59.42471,-2.95204,0.08967346,            ,-0.01988516,0.80535,,
549.14,59.94248,-2.95782,0.09928502,            ,0.0238975,0.80183,,
554.34,60.4612,-2.96197,0.10112,            ,-0.008722101,0.79828,,
559.54,60.9803,-2.96501,0.09011634,            ,-0.006579837,0.79471,,
564.74,61.50113,-2.97151,0.0798053,            ,-0.000189804,0.79111,,
569.94,62.02189,-2.97376,0.07683871,            ,-0.0197461,0.78749,,
575.14,62.54232,-2.97875,0.08003312,            ,-0.01650621,0.78384,,
580.34,63.06386,-2.98401,0.07533329,            ,8.65645e-07,0.78017,,
585.54,63.5858,-2.98764,0.06936762,            ,-5.683252e-06,0.77647,,
590.74,64.10802,-2.99125,0.06435189,            ,-0.01203341,0.77275,,
595.94,64.62947,-2.99586,0.06445141,            ,-0.01419453,0.769,,
601.14,65.15199,-2.99784,0.0627456,            ,-0.0006930225,0.76523,,
606.34,65.6745,-3.00177,0.06022911,            ,-0.0197805,0.76143,,
611.54,66.19758,-3.00474,0.06490198,            ,0.0005494956,0.7576,,
616.74,66.72066,-3.00738,0.06679738,            ,-0.01010872,0.75375,,
621.94,67.24386,-3.01001,0.07077782,            ,0.002718935,0.74988,,
627.14,67.7685,-3.01495,0.07622844,            ,-0.01536286,0.74598,,
632.34,68.29211,-3.01857,0.08045474,            ,-0.0002972208,0.74206,,
637.54,68.81531,-3.01988,0.08468502,            ,-0.002821367,0.73811,,
642.74,69.33932,-3.02448,0.08934907,            ,0.004584165,0.73413,,
647.94,69.8618,-3.02515,0.08961072,            ,-0.0041101,0.73014,,
653.14,70.38484,-3.02914,0.08921071,            ,-0.01912273,0.72611,,
658.34,70.90901,-3.03041,0.09014916,            ,-0.00176469,0.72207,,
663.54,71.43479,-3.03371,0.08588449,            ,-0.01009022,0.718,,
668.74,71.9592,-3.03502,0.08853449,            ,-1.659672e-05,0.7139,,
673.94,72.4841,-3.03663,0.08349287,            ,-0.008577568,0.70979,,
679.14,73.01023,-3.03962,0.08633303,            ,1.134174e-07,0.70564,,
684.34,73.5351,-3.04324,0.08423131,            ,0.00863011,0.70148,,
689.54,74.0595,-3.04588,0.08557188,            ,0.00830017,0.69729,,
694.74,74.58487,-3.04719,0.08102453,            ,0.00213422,0.69308,,
699.94,75.11151,-3.04851,0.08140375,            ,-0.004869898,0.68885,,
705.14,75.63817,-3.04983,0.07560387,            ,0.003490055,0.68459,,
710.34,76.1648,-3.05283,0.07540015,            ,-0.01871768,0.68032,,
715.54,76.68929,-3.05444,0.07217127,            ,-0.01874874,0.67602,,
720.74,77.21476,-3.05707,0.07279559,            ,-4.718256e-12,0.6717,,
725.94,77.74211,-3.06036,0.0699821,            ,-5.750781e-08,0.66736,,
731.14,78.27036,-3.06167,0.0628227,            ,0.0015836,0.663,,
736.34,78.79789,-3.063,0.05472806,            ,-0.00537212,0.65862,,
741.54,79.32677,-3.06431,0.04294236,            ,0.009253653,0.65422,,
746.74,79.85374,-3.06496,0.03437183,            ,2.175984e-07,0.6498,,
751.94,80.38186,-3.066,0.02608158,            ,0.01735224,0.64536,,
757.14,80.91011,-3.06693,0.0210504,            ,-3.899968e-05,0.6409,,
762.34,81.43933,-3.06826,0.00966394,            ,-1.504319e-05,0.63642,,
767.54,81.96802,-3.0699,0.007752576,            ,-0.0003315504,0.63193,,
772.74,82.49562,-3.0725,-0.004121324,            ,-0.00585289,0.62742,,
777.94,83.0248,-3.07449,-0.01178932,            ,-0.01211098,0.62289,,
783.14,83.5526,-3.07648,-0.02369988,            ,-0.0002000936,0.61835,,
788.34,84.0809,-3.07581,-0.0284385,            ,-0.01360423,0.61379,,
793.54,84.60941,-3.0778,-0.03625862,            ,-0.001108803,0.60921,,
797.34,84.99571,-3.07846,-0.04063048,            ,3.817384e-08,0.60586,,