File: 01_Data/Ext_Plywood/STA/N2/10K_min/Ext_Plywood_STA_N2_10KData_22243_R2.csv
##Temp./°C,Time/min,Mass loss(subtr.)/mg,DSC(subtr.2)/(mW/mg),Integral(DSC (subtr.2), 2, 199.3..406.4°C)/%,DTG(subtr.)/(mg/min),Sensit./(uV/mW)
49.866,10.01,-0.06833,0.03956125,             ,0.0,1.07507,,
55.266,11.63187,-0.07618084,0.18909,             ,0.01648017,1.07226,,
60.666,12.2869,-0.07688747,0.23996,             ,0.004307882,1.06945,,
66.066,12.8865,-0.08150014,0.274,             ,-3.1161e-05,1.06664,,
71.466,13.4673,-0.08410967,0.29838,             ,-0.0009172169,1.06385,,
76.866,14.0355,-0.08961628,0.31992,             ,-0.0175502,1.06105,,
82.266,14.59295,-0.09355637,0.33902,             ,-0.0125737,1.05826,,
87.666,15.1432,-0.09870175,0.34473,             ,-0.02522789,1.05548,,
93.066,15.68583,-0.10277,0.33883,             ,-0.01031217,1.0527,,
98.466,16.22229,-0.10738,0.32675,             ,0.005872624,1.04992,,
103.866,16.75434,-0.11142,0.31519,             ,-0.02157229,1.04715,,
109.266,17.28389,-0.11264,0.30281,             ,-2.960318e-06,1.04438,,
114.666,17.81237,-0.11495,0.29507,             ,-0.00025712,1.04162,,
120.066,18.33974,-0.11396,0.29034,             ,-0.002598125,1.03886,,
125.466,18.86651,-0.11528,0.29129,             ,-0.00115061,1.03611,,
130.866,19.39151,-0.11659,0.29751,             ,3.195738e-07,1.03336,,
136.266,19.9151,-0.11659,0.30008,             ,0.002566915,1.03061,,
141.666,20.43658,-0.11791,0.30258,             ,6.49359e-05,1.02787,,
147.066,20.95744,-0.11791,0.3055,             ,-3.703925e-06,1.02513,,
152.466,21.47905,-0.12028,0.31191,             ,0.01810569,1.0224,,
157.866,21.99815,-0.12171,0.32282,             ,-0.02140144,1.01966,,
163.266,22.51716,-0.12483,0.33053,             ,0.01205321,1.01693,,
168.666,23.03507,-0.12705,0.34008,             ,-0.001472789,1.0142,,
174.066,23.5517,-0.12734,0.3431,             ,-0.01538826,1.01148,,
179.466,24.06868,-0.13394,0.34993,             ,-0.01843909,1.00875,,
184.866,24.5851,-0.13731,0.35605,             ,-0.02112578,1.00603,,
190.266,25.10281,-0.14215,0.35673,             ,-0.002079122,1.00331,,
195.666,25.61985,-0.14796,0.36093,             ,-0.01239856,1.00059,,
201.066,26.1345,-0.15356,0.36109, 7.771373e-03,-0.00262022,0.99787,,
206.466,26.6498,-0.16209,0.35954,      0.17191,-0.02480438,0.99515,,
211.866,27.166,-0.1713,0.36215,      0.54617,-0.0475142,0.99243,,
217.266,27.68185,-0.18349,0.36308,      1.16305,-0.03145737,0.9897,,
222.666,28.1976,-0.1973,0.36775,      2.06314,-0.02528698,0.98698,,
228.066,28.7124,-0.21016,0.36969,      3.21874,-0.01183589,0.98426,,
233.466,29.2271,-0.22995,0.37203,      4.62659,-0.01544793,0.98153,,
238.866,29.742,-0.24769,0.37419,      6.28671,-0.0912662,0.9788,,
244.266,30.25735,-0.26935,0.3763,      8.19090,-0.06042516,0.97607,,
249.666,30.77427,-0.29299,0.37682,     10.35829,-0.04458511,0.97334,,
255.066,31.28997,-0.31852,0.37553,     12.73465,-0.06336866,0.9706,,
260.466,31.8062,-0.3504,0.37908,     15.33197,-0.06245338,0.96786,,
265.866,32.32181,-0.38652,0.37861,     18.15308,-0.07673533,0.96511,,
271.266,32.83708,-0.42809,0.37684,     21.19212,-0.10036,0.96235,,
276.666,33.35203,-0.47789,0.37347,     24.37669,-0.1157,0.9596,,
282.066,33.8681,-0.53736,0.37067,     27.72834,-0.13259,0.95683,,
287.466,34.38564,-0.60914,0.3661,     31.19983,-0.14728,0.95406,,
292.866,34.90291,-0.69023,0.37121,     34.90313,-0.18112,0.95128,,
298.266,35.4206,-0.78393,0.37699,     38.92569,-0.17587,0.9485,,
303.666,35.93835,-0.88915,0.38362,     43.27197,-0.2174,0.9457,,
309.066,36.4564,-1.00447,0.39097,     47.97889,-0.24722,0.9429,,
314.466,36.9744,-1.13404,0.39299,     52.98594,-0.2439,0.94008,,
319.866,37.49391,-1.2751,0.3937,     58.22703,-0.28511,0.93726,,
325.266,38.01359,-1.427,0.38731,     63.65147,-0.29092,0.93443,,
330.666,38.53306,-1.5901,0.37994,     69.18108,-0.32571,0.93159,,
336.066,39.05444,-1.76596,0.36473,     74.75897,-0.33663,0.92873,,
341.466,39.5762,-1.94139,0.3407,     80.20874,-0.33552,0.92586,,
346.866,40.09964,-2.11499,0.30242,     85.29010,-0.32527,0.92299,,
352.266,40.62233,-2.27306,0.24915,     89.72756,-0.26262,0.92009,,
357.666,41.14481,-2.41167,0.1858,     93.31941,-0.23914,0.91719,,
363.066,41.6661,-2.52005,0.12568,     95.97011,-0.19407,0.91427,,
368.466,42.18756,-2.59861,0.06873191,     97.77544,-0.12626,0.91134,,
373.866,42.71222,-2.65181,0.0232135,     98.85865,-0.09820186,0.90839,,
379.266,43.23718,-2.68749,-0.009484372,     99.44898,-0.04814355,0.90542,,
384.666,43.76101,-2.71119,-0.03091062,     99.77971,-0.04733715,0.90244,,
390.066,44.2862,-2.73884,-0.05174913,     99.94839,-0.007319438,0.89945,,
395.466,44.81046,-2.75377,-0.06601976,    100.006,-0.05293805,0.89643,,
400.866,45.33598,-2.77975,-0.08232007,    100.009,-0.03466622,0.8934,,
406.266,45.86187,-2.79985,-0.09062861,     99.99940,-0.04591999,0.89036,,
411.666,46.38827,-2.82018,-0.09751806,             ,-0.04302743,0.88729,,
417.066,46.9163,-2.83958,-0.09345061,             ,-0.02712246,0.8842,,
422.466,47.4444,-2.85782,-0.09348331,             ,-0.0356524,0.8811,,
427.866,47.97276,-2.87664,-0.08281165,             ,-0.02968334,0.87797,,
433.266,48.50071,-2.89123,-0.07411405,             ,-0.02352045,0.87483,,
438.666,49.02888,-2.90682,-0.06080446,             ,-0.02460539,0.87167,,
444.066,49.55741,-2.92008,-0.05099125,             ,-0.03060233,0.86848,,
449.466,50.08632,-2.93312,-0.04187782,             ,-0.03424984,0.86527,,
454.866,50.6181,-2.94475,-0.03599032,             ,-0.01868778,0.86204,,
460.266,51.14996,-2.95593,-0.02802986,             ,-0.00942573,0.85879,,
465.666,51.68234,-2.96782,-0.0243737,             ,-0.03341085,0.85552,,
471.066,52.216,-2.97739,-0.01731188,             ,-0.02286971,0.85222,,
476.466,52.75085,-2.98665,-0.01833259,             ,-0.00404964,0.8489,,
481.866,53.28527,-2.99463,-0.02029147,             ,-0.02104225,0.84556,,
487.266,53.82094,-3.00255,-0.01967063,             ,-0.008293043,0.84219,,
492.666,54.3558,-3.00945,-0.01981845,             ,-0.005604569,0.8388,,
498.066,54.8908,-3.01571,-0.0222024,             ,-0.02354306,0.83539,,
503.466,55.4255,-3.02242,-0.02331638,             ,-0.02625324,0.83195,,
508.866,55.9613,-3.02984,-0.02647594,             ,-0.02324954,0.82848,,
514.266,56.4976,-3.03179,-0.03016032,             ,0.08776792,0.82499,,
519.666,57.0342,-3.04016,-0.02836762,             ,-5.196277e-05,0.82148,,
525.066,57.57107,-3.04886,-0.01784625,             ,-0.02319655,0.81794,,
530.466,58.1086,-3.05377,0.00190962,             ,-0.001651302,0.81437,,
535.866,58.64603,-3.05728,0.007546495,             ,0.06167963,0.81078,,
541.266,59.1834,-3.06357,0.01318829,             ,-0.01683915,0.80716,,
546.666,59.72094,-3.06813,0.02262255,             ,-0.008588911,0.80351,,
552.066,60.25789,-3.0747,0.01080987,             ,-0.01053495,0.79984,,
557.466,60.79614,-3.07893,-0.001959034,             ,-0.02492698,0.79614,,
562.866,61.33651,-3.08229,-0.008562567,             ,-0.0008550195,0.79241,,
568.266,61.87667,-3.08755,-0.01300153,             ,-0.00263165,0.78866,,
573.666,62.41701,-3.09155,-0.02037188,             ,-0.005201947,0.78488,,
579.066,62.95678,-3.09512,-0.02122645,             ,-0.0007104305,0.78107,,
584.466,63.49771,-3.09709,-0.0263572,             ,-0.01258884,0.77724,,
589.866,64.03871,-3.10038,-0.03182631,             ,-0.00277619,0.77338,,
595.266,64.58078,-3.10467,-0.03684306,             ,-0.003375752,0.76949,,
600.666,65.12365,-3.1085,-0.03636611,             ,-0.0005523098,0.76557,,
606.066,65.6654,-3.11376,-0.03605195,             ,-0.0032618,0.76163,,
611.466,66.2068,-3.11541,-0.03798629,             ,-2.78952e-07,0.75766,,
616.866,66.74906,-3.11804,-0.03587844,             ,-0.00445137,0.75366,,
622.266,67.2916,-3.12199,-0.04049133,             ,-1.366554e-05,0.74964,,
627.666,67.83589,-3.12265,-0.03887898,             ,-6.296171e-07,0.74559,,
633.066,68.3801,-3.12934,-0.03448385,             ,-0.02615001,0.74151,,
638.466,68.9235,-3.12991,-0.03186977,             ,0.009294543,0.7374,,
643.866,69.46847,-3.13125,-0.03255911,             ,0.0002773624,0.73327,,
649.266,70.01312,-3.1335,-0.03506322,             ,-0.00599294,0.72911,,
654.666,70.55634,-3.13647,-0.03492155,             ,-6.429993e-05,0.72493,,
660.066,71.10115,-3.13812,-0.036885,             ,-5.016734e-08,0.72072,,
665.466,71.64663,-3.14108,-0.04241574,             ,-0.001102511,0.71648,,
670.866,72.1914,-3.14503,-0.04019815,             ,-0.004645098,0.71222,,
676.266,72.73625,-3.14635,-0.04475845,             ,-0.00706115,0.70794,,
681.666,73.28179,-3.14911,-0.05164905,             ,-0.02288171,0.70362,,
687.066,73.82794,-3.15153,-0.05229708,             ,-0.02165137,0.69929,,
692.466,74.372,-3.15512,-0.05419489,             ,-0.002920368,0.69492,,
697.866,74.91804,-3.15699,-0.05446138,             ,5.400889e-05,0.69054,,
703.266,75.46497,-3.15962,-0.0593108,             ,-0.006408175,0.68613,,
708.666,76.01408,-3.16017,-0.06187286,             ,-0.01887397,0.6817,,
714.066,76.5634,-3.1629,-0.06976786,             ,-0.004411074,0.67724,,
719.466,77.11075,-3.16554,-0.07416995,             ,-0.002240217,0.67276,,
724.866,77.6584,-3.16817,-0.08545041,             ,-0.0005470281,0.66826,,
730.266,78.20486,-3.16883,-0.09063484,             ,-2.024977e-06,0.66373,,
735.666,78.75203,-3.17173,-0.10038,             ,-0.00454608,0.65919,,
741.066,79.30119,-3.17475,-0.1062,             ,-0.00146109,0.65462,,
746.466,79.8503,-3.17442,-0.11342,             ,-0.000140909,0.65003,,
751.866,80.39909,-3.17837,-0.11778,             ,0.0002379604,0.64542,,
757.266,80.94631,-3.17838,-0.12112,             ,2.68357e-08,0.64079,,
762.666,81.49455,-3.18231,-0.12563,             ,-0.01052531,0.63614,,
768.066,82.0431,-3.18287,-0.13062,             ,-0.00599319,0.63147,,
773.466,82.5916,-3.1832,-0.13784,             ,0.0001081644,0.62679,,
778.866,83.14101,-3.18572,-0.14229,             ,-0.000522502,0.62208,,
784.266,83.69081,-3.18934,-0.14886,             ,0.02140203,0.61736,,
789.666,84.24021,-3.18956,-0.15448,             ,-0.01855549,0.61262,,
795.066,84.7898,-3.19088,-0.1549,             ,-3.91932e-08,0.60787,,
797.066,84.99369,-3.18933,-0.1624,             ,0.03237367,0.6061,,