File: 01_Data/Wood_Stud/MCC/Wood_Stud_MCC_30K_min_211004_R2.txt
Sample ID:	C:\MCC\MCC Cal\Test\Wood_Stud_MCC_30K_min_211004_R2.txt
Sample Weight (mg):	4.27
Heating Rate (C/s):	0.5
Combustor Temp (C):	900
N2 Flow Rate (cc/min):	80
O2 Flow Rate (cc/min):	20
Calibration File:	C:\MCC\MCC Cal\Coeff1 JN10440_30_210304.txt.txt
T Correction Coefficients:	0	1.024463	0
Time Shift (s):	14
*
Time (s)	Temperature (C)	N2 flow rate (cc/min)	O2 flow rate (cc/min)	Flow Rate (cc/min)	Oxygen (%)	HRR (W/g)	Heating rate (C/s)
0.000	107.895	79.996	19.996	100.702	20.049	0.312	0.019
8.000	107.851	79.995	19.997	100.706	20.047	0.469	-0.027
16.000	107.844	79.996	19.995	100.742	20.044	0.656	0.009
24.000	108.017	79.995	19.995	100.792	20.032	1.535	0.031
32.000	108.550	79.995	19.996	100.862	20.018	2.619	0.043
39.999	109.546	79.996	19.995	100.904	20.008	3.300	0.123
47.999	110.954	79.997	19.995	100.922	20.004	3.643	0.194
56.000	112.846	79.994	19.995	100.944	20.002	3.800	0.282
64.000	114.996	79.995	19.996	100.954	20.006	3.472	0.302
71.999	117.525	79.997	19.996	100.967	20.004	3.659	0.353
79.999	120.340	79.996	19.996	100.966	19.998	4.082	0.342
87.999	123.422	79.995	19.998	100.970	20.001	3.867	0.398
96.000	126.642	79.995	19.996	100.974	19.994	4.345	0.429
103.999	130.047	79.996	19.996	100.974	19.995	4.287	0.429
111.999	133.587	79.994	19.997	100.976	19.992	4.550	0.449
119.999	137.318	79.996	19.996	100.980	19.995	4.283	0.458
127.999	141.167	79.996	19.996	100.976	19.996	4.201	0.481
136.000	145.114	79.995	19.995	100.974	19.997	4.146	0.478
144.000	149.125	79.996	19.996	100.969	19.996	4.208	0.508
152.000	153.118	79.997	19.997	100.962	20.001	3.881	0.491
160.000	157.147	79.994	19.995	100.952	19.994	4.360	0.513
168.000	161.151	79.995	19.995	100.949	19.998	4.103	0.511
176.000	165.188	79.995	19.996	100.941	20.000	3.956	0.515
184.000	169.221	79.996	19.995	100.939	19.997	4.119	0.485
192.000	173.213	79.994	19.997	100.935	20.000	3.908	0.482
200.000	177.237	79.996	19.996	100.931	19.998	4.082	0.498
208.000	181.195	79.996	19.997	100.935	20.002	3.759	0.465
216.000	185.108	79.996	19.996	100.927	20.007	3.376	0.472
224.000	189.092	79.997	19.994	100.927	20.002	3.761	0.459
232.000	193.072	79.997	19.997	100.918	20.003	3.711	0.452
240.000	196.985	79.996	19.995	100.908	20.001	3.848	0.497
248.000	200.854	79.996	19.995	100.926	20.001	3.823	0.511
256.000	204.736	79.996	19.995	100.926	19.997	4.120	0.501
264.000	208.687	79.997	19.997	100.923	19.997	4.134	0.461
272.000	212.592	79.996	19.995	100.927	19.995	4.290	0.491
280.000	216.506	79.997	19.996	100.916	19.992	4.494	0.487
288.000	220.380	79.996	19.997	100.922	19.991	4.616	0.498
296.000	224.269	79.995	19.997	100.916	19.987	4.901	0.496
304.000	228.162	79.997	19.995	100.920	19.982	5.265	0.524
312.000	232.090	79.997	19.995	100.934	19.972	6.018	0.461
320.000	235.939	79.996	19.995	100.931	19.968	6.298	0.485
328.000	239.813	79.995	19.995	100.932	19.959	6.929	0.488
336.000	243.805	79.998	19.996	100.985	19.948	7.756	0.502
344.000	247.739	79.997	19.995	100.935	19.940	8.341	0.542
352.000	251.654	79.994	19.997	100.943	19.926	9.361	0.482
360.000	255.678	79.996	19.997	100.944	19.914	10.295	0.511
368.000	259.620	79.998	19.996	100.942	19.902	11.167	0.516
376.000	263.557	79.996	19.996	100.967	19.884	12.483	0.464
384.000	267.570	79.997	19.996	100.957	19.865	13.894	0.467
392.000	271.584	79.998	19.996	100.970	19.847	15.249	0.505
400.000	275.598	79.995	19.996	100.971	19.824	16.898	0.513
408.000	279.590	79.996	19.996	100.975	19.808	18.130	0.479
416.000	283.623	79.995	19.995	100.975	19.784	19.859	0.496
424.000	287.732	79.996	19.995	101.001	19.761	21.621	0.497
432.000	291.778	79.995	19.995	101.042	19.736	23.388	0.499
440.000	295.907	79.997	19.996	101.012	19.704	25.797	0.520
448.000	299.848	79.996	19.996	101.010	19.672	28.144	0.487
456.000	303.796	79.997	19.995	101.029	19.636	30.771	0.510
464.000	307.776	79.999	19.994	101.025	19.595	33.860	0.476
472.000	311.627	79.999	19.996	101.046	19.558	36.577	0.447
480.000	315.604	79.994	19.997	101.058	19.517	39.615	0.473
488.000	319.573	79.994	19.995	101.077	19.474	42.783	0.482
496.000	323.518	79.996	19.995	101.084	19.437	45.483	0.514
504.000	327.391	79.995	19.996	101.094	19.403	48.013	0.493
512.000	331.279	79.994	19.996	101.103	19.369	50.570	0.462
520.000	335.243	79.996	19.994	101.128	19.343	52.490	0.471
528.000	339.165	79.997	19.995	101.128	19.319	54.247	0.473
536.000	343.174	79.996	19.996	101.130	19.286	56.706	0.511
544.000	347.331	79.997	19.995	101.128	19.252	59.223	0.508
552.000	351.588	79.998	19.995	101.162	19.207	62.510	0.548
560.000	355.941	79.995	19.996	101.160	19.146	67.054	0.555
568.000	360.279	79.994	19.997	101.207	19.081	71.931	0.559
576.000	364.577	79.995	19.997	101.221	19.023	76.168	0.517
584.000	368.885	79.999	19.995	101.224	18.978	79.499	0.523
592.000	373.164	79.993	19.996	101.208	18.971	79.955	0.540
600.000	377.398	79.994	20.000	101.154	19.032	75.419	0.532
608.000	381.630	79.999	19.995	101.090	19.157	66.160	0.545
616.000	385.849	79.998	19.994	101.015	19.331	53.273	0.531
624.000	390.006	79.995	19.998	100.958	19.516	39.585	0.507
632.000	394.195	79.997	19.994	100.913	19.678	27.690	0.494
640.000	398.341	79.997	19.996	100.899	19.785	19.771	0.529
648.000	402.442	79.998	19.995	100.900	19.852	14.860	0.520
656.000	406.462	79.996	19.994	100.894	19.880	12.773	0.513
664.000	410.466	79.997	19.996	100.903	19.894	11.731	0.499
672.000	414.398	79.998	19.993	100.898	19.903	11.075	0.489
680.000	418.322	79.997	19.993	100.902	19.909	10.619	0.463
688.000	422.260	79.997	19.997	100.907	19.913	10.329	0.499
696.000	426.234	80.002	19.992	100.909	19.912	10.390	0.487
704.000	430.131	79.998	19.992	100.898	19.917	10.005	0.459
712.000	434.162	80.000	19.996	100.901	19.918	9.951	0.510
720.000	438.154	79.998	19.994	100.899	19.924	9.523	0.460
728.000	442.154	79.996	19.995	100.897	19.931	9.018	0.522
736.000	446.118	79.994	19.997	100.902	19.929	9.142	0.488
744.000	450.105	79.996	19.995	100.894	19.935	8.726	0.514
752.000	453.942	79.996	19.996	100.898	19.937	8.579	0.112
760.000	458.192	79.995	19.995	100.901	19.945	7.990	0.539
768.000	462.248	79.998	19.997	100.919	19.944	8.036	0.539
776.000	466.277	79.996	19.997	100.908	19.950	7.603	0.514
784.000	470.302	79.996	19.995	100.915	19.954	7.308	0.528
792.000	474.445	79.999	19.994	100.919	19.956	7.177	0.499
800.000	478.535	79.996	19.996	100.923	19.957	7.119	0.524
808.000	482.648	79.995	19.997	100.911	19.960	6.869	0.511
816.000	486.665	79.993	19.997	100.902	19.961	6.785	0.490
824.000	490.736	79.995	19.995	100.916	19.959	6.955	0.502
832.000	494.672	79.995	19.996	100.908	19.961	6.807	0.463
840.000	498.581	79.996	19.996	100.909	19.958	7.057	0.446
848.000	502.473	79.996	19.997	100.929	19.958	7.037	0.482
856.000	506.585	79.997	19.995	100.927	19.958	7.015	0.522
864.000	510.833	79.997	19.995	100.935	19.960	6.876	0.534
872.000	515.192	80.000	19.995	100.930	19.961	6.817	0.553
880.000	519.525	79.997	19.995	100.935	19.960	6.907	0.531
888.000	523.784	79.996	19.996	100.936	19.960	6.895	0.504
896.000	528.165	79.996	19.995	100.928	19.957	7.091	0.549
904.000	532.496	79.996	19.996	100.929	19.958	6.997	0.536
912.000	536.911	79.996	19.996	100.931	19.957	7.111	0.496
920.000	541.317	79.996	19.997	100.929	19.953	7.368	0.572
928.000	545.655	79.996	19.996	100.925	19.954	7.340	0.544
936.000	549.951	79.997	19.996	100.929	19.954	7.318	0.546
944.000	554.254	79.996	19.996	100.927	19.959	6.981	0.566
952.000	558.490	79.999	19.994	100.930	19.956	7.139	0.540
960.000	562.729	79.998	19.995	100.928	19.951	7.503	0.539
968.000	566.792	79.996	19.995	100.929	19.953	7.406	0.480
976.000	570.866	79.996	19.997	100.928	19.949	7.696	0.463
984.000	575.040	79.998	19.995	100.928	19.949	7.713	0.537
992.000	579.123	79.995	19.995	100.926	19.947	7.800	0.517
1000.000	583.127	79.996	19.997	100.933	19.951	7.563	0.494
1008.000	587.193	79.997	19.995	100.930	19.948	7.737	0.511
1016.000	591.310	79.998	19.996	100.930	19.949	7.659	0.521
1024.000	595.413	79.996	19.997	100.930	19.949	7.663	0.515
1032.000	599.456	79.998	19.997	100.930	19.943	8.129	0.493
1040.000	603.514	79.999	19.996	100.930	19.941	8.257	0.538
1047.999	607.478	79.995	19.996	100.930	19.946	7.929	0.509
1055.999	611.481	79.995	19.996	100.934	19.940	8.336	0.522
1063.999	615.597	79.998	19.996	100.934	19.940	8.324	0.538
1071.999	619.621	79.996	19.996	100.935	19.938	8.517	0.505
1080.000	623.641	79.997	19.996	100.936	19.937	8.599	0.508
1087.999	627.656	79.997	19.996	100.932	19.936	8.616	0.522
1095.999	631.641	79.999	19.997	100.929	19.937	8.536	0.469
1103.999	635.665	79.997	19.996	100.929	19.935	8.741	0.506
1111.999	639.694	79.998	19.997	100.932	19.937	8.542	0.513
1119.999	643.733	79.997	19.996	100.933	19.939	8.450	0.525
1127.999	647.767	79.995	19.995	100.935	19.934	8.810	0.515
1135.999	651.840	79.996	19.994	100.935	19.934	8.820	0.520
1143.999	655.865	79.997	19.996	100.930	19.936	8.615	0.493
1151.999	659.939	79.998	19.996	100.931	19.931	9.024	0.492
1159.999	663.993	79.998	19.996	100.933	19.934	8.793	0.493
1167.999	668.075	79.997	19.996	100.934	19.928	9.217	0.561
1176.000	672.083	80.000	19.996	100.929	19.930	9.097	0.480
1183.999	676.126	79.998	19.997	100.937	19.929	9.183	0.493
1192.000	680.091	79.998	19.997	100.936	19.925	9.421	0.502
1199.999	683.905	79.999	19.996	100.938	19.924	9.516	0.450
1208.000	687.608	79.997	19.997	100.935	19.925	9.456	0.449
1215.999	691.444	79.997	19.998	100.931	19.922	9.642	0.481
1223.999	695.443	79.996	19.996	100.931	19.922	9.663	0.504
1231.999	699.519	79.999	19.996	100.938	19.920	9.860	0.491
1239.999	703.696	79.997	19.995	100.937	19.921	9.745	0.514
1247.999	707.917	79.998	19.995	100.943	19.915	10.217	0.518
1255.999	712.157	80.000	19.995	100.951	19.915	10.205	0.462
1264.000	716.463	79.998	19.994	100.953	19.911	10.519	0.560
1271.999	720.588	79.997	19.997	100.945	19.910	10.542	0.511
1279.999	724.773	80.000	19.995	100.939	19.908	10.705	0.521
1287.999	728.929	79.999	19.996	100.935	19.903	11.071	0.534
1295.999	733.102	79.997	19.998	100.956	19.909	10.655	0.529
1303.999	737.180	79.997	19.997	100.943	19.902	11.159	0.503
1311.999	741.328	79.997	19.995	100.942	19.902	11.123	0.511
1316.499	743.647	79.997	19.994	100.959	19.903	11.077	0.522