File: 01_Data/Wood_Stud/MCC/Wood_Stud_MCC_30K_min_211004_R1.txt
Sample ID:	C:\MCC\MCC Cal\Test\Wood_Stud_MCC_30K_min_211004_R1.txt
Sample Weight (mg):	4.95
Heating Rate (C/s):	0.5
Combustor Temp (C):	900
N2 Flow Rate (cc/min):	80
O2 Flow Rate (cc/min):	20
Calibration File:	C:\MCC\MCC Cal\Coeff1 JN10440_30_210304.txt.txt
T Correction Coefficients:	0	1.024463	0
Time Shift (s):	14
*
Time (s)	Temperature (C)	N2 flow rate (cc/min)	O2 flow rate (cc/min)	Flow Rate (cc/min)	Oxygen (%)	HRR (W/g)	Heating rate (C/s)
0.000	108.476	79.997	19.995	100.649	20.040	-0.262	-0.012
8.000	108.475	79.997	19.996	100.637	20.040	-0.302	-0.009
16.000	108.452	79.996	19.996	100.662	20.036	-0.003	-0.012
24.000	108.628	79.994	19.995	100.797	20.021	0.955	0.053
32.000	109.351	79.996	19.995	100.852	20.009	1.690	0.123
40.001	110.595	79.995	19.995	100.853	20.005	1.948	0.174
48.000	112.102	79.995	19.994	100.866	20.000	2.262	0.195
56.000	114.049	79.998	19.994	100.874	19.999	2.349	0.241
64.000	116.353	79.998	19.995	100.894	19.998	2.380	0.301
72.001	118.907	79.997	19.996	100.894	19.997	2.465	0.315
80.000	121.865	79.998	19.996	100.897	19.994	2.628	0.387
88.000	124.975	79.997	19.997	100.897	19.992	2.773	0.360
96.000	128.358	79.996	19.997	100.905	19.992	2.763	0.454
104.001	131.863	79.996	19.996	100.904	19.994	2.643	0.470
112.000	135.552	79.995	19.995	100.908	19.990	2.896	0.463
120.000	139.322	79.995	19.996	100.901	19.990	2.887	0.451
128.000	143.273	79.996	19.995	100.900	19.990	2.929	0.488
136.000	147.201	79.997	19.995	100.893	19.994	2.620	0.485
144.000	151.181	79.998	19.995	100.894	19.997	2.454	0.496
152.000	155.178	79.998	19.996	100.888	19.996	2.515	0.495
160.000	159.179	79.998	19.994	100.882	19.999	2.312	0.488
168.000	163.151	79.998	19.995	100.874	19.998	2.371	0.496
176.000	167.139	79.996	19.995	100.875	19.996	2.511	0.454
184.000	171.092	79.996	19.995	100.858	20.001	2.183	0.489
192.000	175.033	79.996	19.996	100.862	20.001	2.218	0.506
200.000	178.981	79.997	19.995	100.857	19.998	2.362	0.482
208.000	182.993	79.996	19.996	100.858	20.001	2.171	0.514
216.000	186.910	79.997	19.995	100.858	20.004	2.012	0.501
224.000	190.908	79.996	19.994	100.859	20.003	2.054	0.494
232.000	194.795	79.997	19.995	100.858	20.007	1.810	0.474
240.000	198.702	79.998	19.994	100.857	20.000	2.280	0.513
248.000	202.605	79.999	19.994	100.853	20.001	2.223	0.495
256.000	206.501	79.996	19.995	100.856	20.000	2.265	0.483
264.000	210.431	79.996	19.995	100.854	19.999	2.334	0.470
272.000	214.419	79.995	19.996	100.854	19.991	2.844	0.494
280.000	218.355	79.996	19.996	100.850	19.994	2.664	0.471
288.000	222.366	79.995	19.996	100.855	19.990	2.924	0.496
296.000	226.365	79.998	19.995	100.857	19.984	3.251	0.513
304.000	230.439	79.998	19.994	100.849	19.983	3.325	0.510
312.000	234.383	79.998	19.994	100.847	19.975	3.848	0.493
320.000	238.451	79.997	19.994	100.855	19.963	4.640	0.514
328.000	242.435	79.998	19.995	100.854	19.955	5.109	0.537
336.000	246.471	79.996	19.996	100.857	19.944	5.824	0.528
344.000	250.527	79.995	19.995	100.862	19.931	6.622	0.513
352.000	254.483	79.996	19.996	100.859	19.921	7.312	0.478
360.000	258.534	79.995	19.996	100.862	19.904	8.346	0.520
368.000	262.566	79.996	19.995	100.865	19.894	9.012	0.504
376.000	266.587	79.996	19.996	100.873	19.872	10.392	0.513
384.000	270.583	79.997	19.995	100.881	19.854	11.537	0.517
392.000	274.627	79.997	19.995	100.890	19.835	12.746	0.501
400.000	278.631	79.998	19.995	100.893	19.815	14.044	0.512
408.000	282.621	79.998	19.994	100.891	19.793	15.456	0.465
416.000	286.549	79.997	19.996	100.907	19.771	16.824	0.490
424.000	290.612	79.996	19.995	100.923	19.740	18.794	0.520
432.000	294.647	79.995	19.995	100.932	19.712	20.589	0.524
440.000	298.584	79.998	19.996	100.933	19.677	22.824	0.506
448.000	302.556	79.996	19.997	100.944	19.642	25.023	0.520
456.000	306.509	79.997	19.995	100.964	19.606	27.340	0.512
464.000	310.414	79.997	19.996	100.971	19.561	30.197	0.499
472.000	314.338	79.997	19.995	100.976	19.516	33.046	0.494
480.000	318.105	79.999	19.995	100.983	19.472	35.878	0.469
488.000	321.801	79.998	19.994	101.011	19.428	38.655	0.457
496.000	325.596	79.995	19.995	101.022	19.384	41.461	0.461
504.000	329.433	79.996	19.997	101.032	19.351	43.615	0.503
512.000	333.367	79.998	19.995	101.053	19.317	45.775	0.494
520.000	337.387	79.997	19.995	101.042	19.286	47.736	0.504
528.000	341.351	79.996	19.996	101.046	19.253	49.867	0.470
536.000	345.377	79.996	19.996	101.060	19.216	52.217	0.495
544.000	349.427	79.998	19.995	101.072	19.181	54.478	0.509
552.000	353.518	79.997	19.996	101.099	19.131	57.656	0.538
560.000	357.641	79.999	19.997	101.134	19.074	61.318	0.525
568.000	361.842	79.997	19.997	101.149	19.011	65.307	0.561
576.000	366.045	79.997	19.996	101.145	18.951	69.135	0.538
584.000	370.199	79.996	19.995	101.139	18.913	71.533	0.510
592.000	374.319	79.996	19.995	101.131	18.908	71.782	0.468
600.000	378.690	79.996	19.994	101.074	18.967	68.028	0.580
608.000	382.611	79.996	19.995	100.997	19.091	60.093	0.484
616.000	386.573	79.997	19.997	100.914	19.276	48.268	0.488
624.001	390.511	79.996	19.996	100.866	19.474	35.700	0.496
632.000	394.551	79.996	19.994	100.819	19.652	24.371	0.497
640.000	398.592	79.997	19.997	100.791	19.781	16.161	0.518
648.000	402.589	79.999	19.996	100.789	19.857	11.329	0.515
656.000	406.583	79.995	19.996	100.785	19.894	8.967	0.492
664.000	410.574	79.996	19.996	100.803	19.905	8.267	0.493
672.000	414.616	79.995	19.996	100.802	19.917	7.502	0.494
680.000	418.685	79.997	19.995	100.801	19.925	7.042	0.508
688.000	422.790	79.995	19.995	100.804	19.926	6.958	0.511
696.000	426.946	79.998	19.995	100.801	19.933	6.499	0.525
704.000	431.121	79.998	19.996	100.805	19.939	6.138	0.536
712.000	435.309	79.996	19.996	100.799	19.945	5.760	0.536
720.000	439.495	79.998	19.996	100.791	19.952	5.293	0.532
728.000	443.650	79.998	19.995	100.785	19.962	4.680	0.502
736.000	447.787	79.995	19.996	100.788	19.964	4.552	0.499
744.000	451.904	79.995	19.997	100.787	19.968	4.300	0.487
752.000	456.029	79.996	19.996	100.790	19.979	3.567	0.515
760.000	460.243	79.995	19.995	100.791	19.984	3.254	0.521
768.000	464.517	79.995	19.996	100.785	19.989	2.970	0.529
776.000	468.786	79.998	19.996	100.781	19.994	2.611	0.531
784.000	473.039	79.997	19.995	100.782	19.999	2.325	0.566
792.000	477.235	79.997	19.996	100.782	20.006	1.897	0.521
800.000	481.450	79.998	19.995	100.782	20.006	1.859	0.530
808.000	485.568	79.999	19.995	100.786	20.011	1.540	0.547
816.000	489.666	79.995	19.996	100.788	20.014	1.381	0.498
824.001	493.823	79.997	19.996	100.782	20.016	1.215	0.502
832.001	497.951	79.996	19.997	100.777	20.012	1.521	0.489
840.000	502.057	79.996	19.996	100.779	20.015	1.319	0.481
848.000	506.088	79.995	19.995	100.780	20.019	1.079	0.506
856.000	510.100	79.996	19.994	100.781	20.016	1.214	0.467
864.000	514.154	79.997	19.996	100.783	20.015	1.310	0.492
872.000	518.245	79.997	19.995	100.780	20.016	1.274	0.468
880.000	522.325	79.999	19.994	100.780	20.024	0.745	0.518
888.000	526.385	79.998	19.995	100.776	20.022	0.889	0.496
896.000	530.423	79.996	19.995	100.770	20.019	1.077	0.459
904.000	534.291	79.995	19.996	100.769	20.023	0.819	0.490
912.000	537.927	79.995	19.997	100.765	20.022	0.866	0.458
920.000	541.511	79.995	19.997	100.764	20.022	0.882	0.437
928.000	545.016	79.996	19.996	100.774	20.025	0.643	0.451
936.000	548.578	79.998	19.995	100.773	20.026	0.602	0.426
944.000	552.258	79.997	19.997	100.780	20.030	0.356	0.473
952.000	556.262	79.998	19.995	100.779	20.025	0.645	0.533
960.000	560.212	79.998	19.996	100.782	20.023	0.792	0.506
968.000	564.279	79.998	19.995	100.777	20.025	0.648	0.528
976.000	568.337	79.997	19.996	100.779	20.023	0.785	0.534
984.000	572.395	79.996	19.996	100.780	20.025	0.690	0.484
992.000	576.636	79.996	19.995	100.782	20.029	0.427	0.528
1000.000	580.846	79.995	19.996	100.793	20.026	0.583	0.535
1008.000	585.112	79.996	19.996	100.780	20.027	0.562	0.539
1016.000	589.213	79.998	19.996	100.775	20.027	0.567	0.501
1024.000	593.224	79.998	19.994	100.775	20.027	0.572	0.489
1032.000	597.067	79.998	19.996	100.777	20.031	0.271	0.455
1040.001	600.960	79.999	19.995	100.777	20.027	0.558	0.484
1048.001	604.786	79.998	19.996	100.789	20.026	0.605	0.501
1056.000	608.843	79.997	19.995	100.787	20.027	0.517	0.531
1064.000	612.953	79.997	19.995	100.782	20.024	0.754	0.496
1072.000	616.995	79.996	19.996	100.776	20.038	-0.126	0.509
1080.000	620.974	79.997	19.995	100.783	20.018	1.124	0.506
1088.000	625.167	79.995	19.996	100.789	20.021	0.932	0.519
1096.001	629.403	79.998	19.996	100.776	20.025	0.693	0.525
1104.000	633.633	79.996	19.996	100.785	20.022	0.880	0.550
1112.000	637.964	79.998	19.995	100.782	20.025	0.641	0.540
1120.001	642.189	79.999	19.997	100.779	20.025	0.681	0.513
1128.001	646.306	79.997	19.996	100.782	20.029	0.443	0.492
1136.000	650.308	79.997	19.995	100.783	20.024	0.730	0.541
1144.000	654.361	79.997	19.997	100.784	20.025	0.683	0.495
1152.001	658.433	79.997	19.995	100.780	20.026	0.619	0.521
1160.000	662.804	79.994	19.997	100.779	20.022	0.852	0.534
1168.001	667.376	79.996	19.996	100.786	20.025	0.666	0.578
1176.000	671.990	79.999	19.996	100.781	20.024	0.766	0.580
1184.000	676.634	79.997	19.996	100.780	20.027	0.524	0.558
1192.000	681.228	79.997	19.995	100.783	20.024	0.704	0.563
1200.000	685.713	79.999	19.995	100.777	20.024	0.730	0.551
1208.000	690.125	79.997	19.995	100.780	20.024	0.726	0.550
1216.000	694.526	79.996	19.996	100.777	20.028	0.474	0.581
1224.000	698.868	79.996	19.996	100.778	20.022	0.877	0.560
1232.000	703.130	79.996	19.995	100.784	20.025	0.650	0.507
1240.000	707.364	79.996	19.995	100.782	20.021	0.927	0.534
1248.000	711.541	79.997	19.997	100.782	20.025	0.700	0.478
1256.000	715.741	79.999	19.996	100.781	20.029	0.422	0.520
1264.000	719.892	79.999	19.995	100.779	20.029	0.415	0.523
1272.001	723.986	80.000	19.996	100.777	20.024	0.743	0.514
1280.001	727.988	79.999	19.995	100.777	20.027	0.546	0.508
1288.000	732.009	79.997	19.995	100.779	20.026	0.586	0.501
1296.000	736.038	79.995	19.996	100.780	20.020	1.011	0.511
1304.000	740.039	79.996	19.995	100.786	20.023	0.790	0.496
1311.000	743.599	79.997	19.996	100.783	20.019	1.036	0.496