File: 01_Data/PVC_R01/MCC/PVC_MCC_30K_min_210920_R3.txt
Sample ID:	C:\MCC\PVC_MCC_30K_min_210920_R3.txt
Sample Weight (mg):	4.42
Heating Rate (C/s):	0.5
Combustor Temp (C):	900
N2 Flow Rate (cc/min):	80
O2 Flow Rate (cc/min):	20
Calibration File:	C:\MCC\MCC Cal\Coeff1 JN10440_30_210304.txt.txt
T Correction Coefficients:	0	1.024463	0
Time Shift (s):	14
*
Time (s)	Temperature (C)	N2 flow rate (cc/min)	O2 flow rate (cc/min)	Flow Rate (cc/min)	Oxygen (%)	HRR (W/g)	Heating rate (C/s)
0.000	110.506	80.005	19.994	100.257	20.219	-0.407	0.009
8.000	110.458	80.003	19.995	100.260	20.221	-0.579	-0.030
16.000	110.476	80.003	19.994	100.263	20.221	-0.568	0.016
24.000	110.515	80.002	19.995	100.324	20.212	0.075	0.045
31.999	110.753	80.001	19.996	100.347	20.202	0.793	0.067
40.000	111.304	80.001	19.995	100.434	20.194	1.342	0.061
48.000	112.434	80.003	19.994	100.452	20.190	1.626	0.193
55.999	113.879	80.003	19.995	100.454	20.187	1.878	0.199
64.001	115.656	80.002	19.995	100.482	20.182	2.175	0.255
71.999	117.801	80.005	19.994	100.495	20.176	2.629	0.316
79.999	120.304	80.005	19.995	100.504	20.179	2.432	0.337
87.999	123.156	80.001	19.995	100.511	20.174	2.773	0.347
95.999	126.269	80.000	19.996	100.527	20.177	2.556	0.368
104.001	129.631	80.003	19.994	100.515	20.174	2.794	0.419
111.999	133.124	80.004	19.994	100.524	20.179	2.407	0.427
120.001	136.885	80.001	19.995	100.527	20.178	2.461	0.470
127.999	140.702	80.003	19.995	100.514	20.179	2.420	0.485
136.000	144.649	80.003	19.995	100.505	20.176	2.615	0.530
144.000	148.627	80.003	19.994	100.501	20.180	2.327	0.491
151.999	152.675	80.003	19.995	100.498	20.182	2.222	0.541
159.999	156.683	80.004	19.995	100.489	20.184	2.058	0.483
168.000	160.739	80.002	19.992	100.482	20.181	2.290	0.505
176.000	164.828	80.002	19.994	100.476	20.186	1.910	0.538
183.999	168.843	80.003	19.995	100.460	20.185	1.980	0.511
191.999	172.807	80.005	19.995	100.458	20.187	1.837	0.477
199.999	176.834	80.003	19.995	100.458	20.188	1.783	0.505
208.000	180.808	80.004	19.995	100.441	20.189	1.717	0.522
215.999	184.751	80.004	19.996	100.454	20.189	1.744	0.502
224.000	188.681	80.002	19.995	100.437	20.190	1.655	0.469
232.000	192.648	80.005	19.995	100.432	20.185	1.970	0.495
239.999	196.495	80.004	19.994	100.440	20.195	1.307	0.477
248.001	200.409	80.004	19.995	100.419	20.195	1.285	0.513
256.000	204.352	80.002	19.995	100.421	20.193	1.409	0.473
264.000	208.268	80.003	19.995	100.426	20.191	1.546	0.477
272.000	212.178	80.003	19.994	100.418	20.188	1.807	0.479
280.000	216.072	80.002	19.994	100.421	20.192	1.504	0.497
288.000	220.000	80.003	19.994	100.420	20.189	1.743	0.516
296.000	223.965	80.004	19.995	100.419	20.186	1.904	0.493
304.000	227.936	80.003	19.995	100.421	20.185	2.010	0.488
312.000	231.917	80.003	19.995	100.416	20.184	2.080	0.505
320.000	235.931	80.006	19.995	100.412	20.173	2.857	0.487
328.000	239.963	80.004	19.995	100.411	20.167	3.257	0.482
336.000	243.958	80.001	19.996	100.417	20.156	4.052	0.512
344.000	247.911	80.002	19.996	100.433	20.147	4.701	0.483
352.000	252.041	80.004	19.995	100.421	20.122	6.439	0.528
360.000	256.087	80.002	19.994	100.422	20.101	7.960	0.491
368.000	260.127	80.002	19.995	100.419	20.092	8.617	0.501
376.000	264.133	80.004	19.995	100.416	20.089	8.769	0.517
384.000	268.143	80.005	19.995	100.413	20.088	8.881	0.508
392.000	272.179	80.004	19.995	100.416	20.099	8.084	0.508
400.000	276.192	80.005	19.995	100.417	20.105	7.680	0.473
408.000	280.157	80.004	19.994	100.426	20.105	7.636	0.469
416.000	284.128	80.003	19.995	100.459	20.098	8.174	0.484
424.000	288.082	80.001	19.995	100.465	20.089	8.790	0.488
432.000	291.963	80.001	19.996	100.474	20.074	9.865	0.494
440.000	295.990	80.004	19.995	100.478	20.060	10.892	0.530
448.000	299.963	80.002	19.994	100.476	20.048	11.729	0.529
456.000	303.866	80.004	19.994	100.461	20.039	12.332	0.475
464.000	307.881	80.005	19.995	100.453	20.038	12.443	0.458
472.000	311.983	80.005	19.994	100.430	20.039	12.372	0.552
480.000	316.066	80.006	19.995	100.417	20.045	11.924	0.531
488.000	320.091	80.005	19.993	100.390	20.057	11.077	0.507
496.000	324.144	80.002	19.996	100.382	20.065	10.501	0.500
504.000	328.265	80.003	19.996	100.345	20.077	9.642	0.520
512.000	332.351	80.004	19.995	100.339	20.084	9.142	0.510
520.000	336.428	80.002	19.996	100.304	20.085	9.053	0.515
528.000	340.485	80.000	19.995	100.313	20.093	8.524	0.500
536.000	344.518	80.002	19.994	100.342	20.091	8.637	0.527
544.000	348.579	80.004	19.995	100.388	20.087	8.968	0.475
552.000	352.657	80.003	19.995	100.427	20.089	8.778	0.516
560.000	356.785	80.004	19.993	100.464	20.083	9.211	0.537
568.000	360.820	80.007	19.994	100.486	20.080	9.452	0.510
576.000	364.787	80.003	19.994	100.496	20.079	9.531	0.479
584.000	368.789	80.004	19.995	100.496	20.074	9.868	0.474
592.000	372.848	80.003	19.995	100.496	20.077	9.693	0.519
600.000	376.855	80.003	19.995	100.494	20.074	9.896	0.491
608.000	380.877	80.002	19.994	100.492	20.068	10.298	0.512
616.000	384.890	80.002	19.996	100.472	20.061	10.773	0.493
624.000	388.948	80.005	19.995	100.462	20.050	11.548	0.485
632.000	393.001	80.004	19.995	100.458	20.031	12.895	0.512
640.000	397.065	80.004	19.994	100.458	20.012	14.289	0.506
648.000	401.121	80.003	19.993	100.456	19.981	16.428	0.498
656.000	405.217	80.003	19.995	100.448	19.950	18.637	0.543
664.000	409.230	80.003	19.994	100.433	19.907	21.687	0.469
672.000	413.230	80.004	19.995	100.450	19.855	25.375	0.494
680.000	417.226	80.003	19.995	100.427	19.787	30.215	0.508
688.000	421.252	80.002	19.995	100.424	19.710	35.637	0.507
696.000	425.254	80.005	19.995	100.437	19.622	41.904	0.496
704.000	429.298	80.004	19.996	100.417	19.525	48.799	0.487
712.000	433.357	80.005	19.996	100.417	19.431	55.418	0.534
720.000	437.364	80.005	19.995	100.420	19.348	61.316	0.525
728.000	441.345	80.005	19.995	100.417	19.270	66.870	0.475
736.001	445.397	80.003	19.995	100.414	19.227	69.884	0.519
744.000	449.388	80.004	19.994	100.412	19.246	68.549	0.486
752.000	453.420	80.004	19.995	100.418	19.255	67.900	0.541
760.000	457.468	80.003	19.995	100.412	19.266	67.083	0.488
768.000	461.566	80.001	19.995	100.376	19.343	61.690	0.513
776.000	465.643	80.004	19.996	100.389	19.489	51.306	0.516
784.000	469.774	80.007	19.995	100.382	19.602	43.310	0.527
792.000	473.871	80.002	19.994	100.372	19.664	38.910	0.529
800.000	478.007	80.004	19.996	100.411	19.698	36.486	0.496
808.000	482.052	80.005	19.995	100.411	19.752	32.687	0.520
816.000	486.177	80.003	19.994	100.381	19.815	28.224	0.527
824.000	490.184	80.001	19.995	100.380	19.876	23.910	0.473
832.000	494.265	80.002	19.994	100.361	19.933	19.827	0.521
840.000	498.332	80.005	19.995	100.368	19.978	16.658	0.474
848.000	502.482	80.002	19.994	100.361	20.022	13.541	0.540
856.000	506.543	80.002	19.996	100.365	20.058	10.993	0.553
864.000	510.588	80.003	19.996	100.361	20.083	9.211	0.525
872.000	514.693	80.003	19.994	100.364	20.105	7.682	0.553
880.000	518.779	80.003	19.994	100.351	20.122	6.482	0.508
888.000	522.855	80.003	19.995	100.352	20.139	5.271	0.524
896.000	526.909	80.003	19.996	100.340	20.153	4.245	0.515
904.000	530.984	80.002	19.995	100.341	20.167	3.262	0.505
912.000	535.044	80.003	19.995	100.340	20.179	2.410	0.528
920.000	539.093	80.003	19.994	100.339	20.194	1.375	0.504
928.000	543.134	80.003	19.996	100.342	20.200	0.898	0.518
936.000	547.116	80.004	19.994	100.347	20.204	0.628	0.495
944.000	551.175	80.006	19.993	100.345	20.208	0.355	0.488
952.000	555.223	80.003	19.996	100.344	20.212	0.114	0.505
960.000	559.295	80.004	19.996	100.340	20.219	-0.402	0.510
968.000	563.437	80.005	19.994	100.339	20.221	-0.525	0.551
976.000	567.653	80.006	19.995	100.337	20.221	-0.572	0.526
984.000	571.954	80.003	19.995	100.339	20.224	-0.782	0.531
992.000	576.261	80.004	19.994	100.336	20.226	-0.892	0.548
1000.000	580.528	80.004	19.993	100.341	20.229	-1.114	0.512
1008.000	584.768	80.001	19.996	100.343	20.228	-1.060	0.537
1016.000	588.920	80.005	19.993	100.344	20.228	-1.031	0.503
1024.000	593.026	80.003	19.996	100.342	20.234	-1.462	0.513
1031.999	597.153	80.005	19.997	100.339	20.232	-1.369	0.504
1040.000	601.206	80.004	19.995	100.336	20.233	-1.396	0.539
1047.999	605.321	80.007	19.995	100.336	20.238	-1.748	0.568
1056.001	609.306	80.003	19.994	100.338	20.238	-1.748	0.484
1064.000	613.315	80.004	19.994	100.338	20.239	-1.846	0.490
1071.999	617.312	80.002	19.995	100.341	20.243	-2.082	0.499
1080.001	621.159	80.002	19.995	100.338	20.241	-1.968	0.478
1088.000	625.016	80.003	19.996	100.338	20.243	-2.099	0.502
1095.999	628.942	80.003	19.995	100.339	20.244	-2.175	0.517
1104.000	632.915	80.006	19.995	100.335	20.247	-2.393	0.505
1111.999	636.987	80.004	19.994	100.336	20.246	-2.348	0.485
1119.999	641.020	80.004	19.994	100.336	20.246	-2.337	0.478
1127.999	645.026	80.004	19.994	100.335	20.244	-2.219	0.479
1135.999	649.088	80.005	19.994	100.334	20.246	-2.300	0.494
1144.000	653.155	80.003	19.995	100.341	20.248	-2.463	0.533
1152.000	657.270	80.003	19.995	100.339	20.248	-2.493	0.538
1160.000	661.346	80.003	19.995	100.340	20.250	-2.594	0.511
1168.000	665.352	80.001	19.996	100.334	20.248	-2.460	0.492
1176.000	669.412	80.002	19.996	100.335	20.250	-2.636	0.510
1184.000	673.480	80.005	19.994	100.337	20.249	-2.557	0.506
1192.000	677.577	80.004	19.994	100.340	20.248	-2.451	0.485
1200.000	681.645	80.003	19.994	100.342	20.248	-2.492	0.501
1208.000	685.687	80.005	19.993	100.339	20.251	-2.658	0.488
1216.000	689.757	80.006	19.994	100.337	20.249	-2.509	0.532
1224.000	693.764	80.005	19.994	100.328	20.252	-2.723	0.510
1232.001	697.756	80.004	19.995	100.338	20.253	-2.800	0.485
1240.000	701.751	80.002	19.996	100.336	20.252	-2.729	0.507
1248.000	705.703	80.003	19.993	100.340	20.254	-2.891	0.470
1256.000	709.740	80.003	19.996	100.340	20.253	-2.835	0.486
1264.000	713.812	80.004	19.996	100.340	20.252	-2.756	0.524
1272.000	717.890	80.004	19.995	100.341	20.253	-2.843	0.491
1280.000	721.884	80.004	19.995	100.338	20.255	-2.994	0.480
1288.001	725.903	80.006	19.995	100.339	20.253	-2.835	0.509
1296.000	729.895	80.008	19.995	100.338	20.251	-2.652	0.528
1304.001	733.857	80.006	19.995	100.353	20.252	-2.781	0.507
1312.000	737.851	80.003	19.994	100.339	20.252	-2.766	0.533
1320.000	741.825	80.003	19.994	100.343	20.253	-2.795	0.490
1323.500	743.627	80.004	19.995	100.341	20.251	-2.677	0.505