File: 01_Data/PVC_R01/MCC/PVC_MCC_30K_min_210924_R4.txt
Sample ID:	C:\MCC\MCC Cal\Test\PVC_MCC_30K_min_210924_R4.txt
Sample Weight (mg):	4.81
Heating Rate (C/s):	0.5
Combustor Temp (C):	900
N2 Flow Rate (cc/min):	80
O2 Flow Rate (cc/min):	20
Calibration File:	C:\MCC\MCC Cal\Coeff1 JN10440_30_210304.txt.txt
T Correction Coefficients:	0	1.024463	0
Time Shift (s):	14
*
Time (s)	Temperature (C)	N2 flow rate (cc/min)	O2 flow rate (cc/min)	Flow Rate (cc/min)	Oxygen (%)	HRR (W/g)	Heating rate (C/s)
0.000	108.176	80.018	19.996	100.028	20.215	-0.140	0.025
8.000	108.134	80.008	19.997	100.035	20.218	-0.327	0.003
16.000	108.147	80.005	19.997	100.065	20.211	0.126	0.004
24.000	108.358	80.006	19.996	100.145	20.203	0.644	0.036
32.000	108.922	80.008	19.995	100.160	20.195	1.167	0.109
40.000	109.794	80.009	19.995	100.209	20.188	1.605	0.157
48.000	110.988	80.007	19.995	100.214	20.184	1.858	0.156
56.000	112.570	80.009	19.995	100.229	20.185	1.848	0.229
64.000	114.450	80.008	19.995	100.221	20.181	2.077	0.257
72.000	116.575	80.008	19.994	100.255	20.179	2.207	0.296
80.001	118.900	80.007	19.996	100.261	20.176	2.411	0.312
88.000	121.617	80.006	19.995	100.288	20.174	2.570	0.384
96.000	124.556	80.007	19.996	100.294	20.175	2.453	0.364
104.000	127.669	80.009	19.995	100.292	20.176	2.439	0.409
112.001	130.938	80.009	19.997	100.281	20.174	2.515	0.397
120.000	134.416	80.010	19.996	100.280	20.176	2.395	0.437
128.000	137.951	80.008	19.995	100.283	20.175	2.501	0.419
136.000	141.636	80.011	19.994	100.288	20.174	2.537	0.461
144.000	145.387	80.008	19.996	100.294	20.175	2.506	0.475
152.000	149.226	80.007	19.995	100.292	20.176	2.432	0.457
160.000	153.150	80.010	19.995	100.281	20.176	2.423	0.510
168.000	157.077	80.008	19.995	100.277	20.177	2.369	0.498
176.000	161.128	80.007	19.995	100.264	20.179	2.236	0.497
184.000	165.142	80.007	19.996	100.256	20.181	2.073	0.516
192.000	169.218	80.008	19.995	100.259	20.179	2.188	0.520
200.000	173.278	80.007	19.996	100.257	20.182	2.025	0.486
208.000	177.362	80.007	19.996	100.258	20.183	1.972	0.532
216.000	181.346	80.006	19.996	100.249	20.181	2.086	0.489
224.000	185.345	80.008	19.994	100.250	20.185	1.810	0.460
232.000	189.377	80.007	19.995	100.247	20.185	1.849	0.508
240.001	193.324	80.007	19.995	100.223	20.187	1.679	0.505
248.000	197.233	80.007	19.996	100.230	20.188	1.605	0.503
256.000	201.095	80.005	19.994	100.229	20.191	1.426	0.474
264.000	204.989	80.007	19.995	100.220	20.187	1.697	0.455
272.000	208.941	80.008	19.995	100.230	20.187	1.670	0.498
280.000	212.806	80.007	19.996	100.221	20.186	1.738	0.484
288.000	216.672	80.008	19.996	100.237	20.189	1.534	0.485
296.000	220.574	80.009	19.994	100.226	20.189	1.537	0.489
304.000	224.512	80.009	19.996	100.223	20.181	2.104	0.476
312.000	228.476	80.005	19.997	100.215	20.176	2.416	0.527
320.000	232.400	80.006	19.996	100.215	20.170	2.769	0.480
328.000	236.331	80.006	19.995	100.217	20.160	3.438	0.515
336.000	240.246	80.007	19.995	100.246	20.147	4.276	0.525
344.000	244.173	80.006	19.995	100.260	20.121	6.005	0.485
352.000	248.120	80.008	19.995	100.261	20.078	8.761	0.481
360.000	252.163	80.008	19.994	100.249	20.062	9.804	0.516
368.000	256.132	80.008	19.995	100.225	20.065	9.595	0.513
376.000	260.119	80.008	19.996	100.223	20.084	8.362	0.495
384.000	264.116	80.010	19.996	100.247	20.102	7.240	0.508
392.000	268.158	80.010	19.996	100.257	20.108	6.805	0.495
400.000	272.245	80.006	19.995	100.257	20.108	6.852	0.497
408.000	276.225	80.006	19.996	100.279	20.107	6.883	0.481
416.000	280.178	80.006	19.996	100.296	20.101	7.261	0.494
424.000	284.176	80.006	19.995	100.300	20.086	8.292	0.499
432.000	288.161	80.007	19.995	100.298	20.070	9.282	0.498
440.000	292.171	80.008	19.995	100.309	20.054	10.358	0.523
448.000	296.117	80.009	19.995	100.297	20.043	11.054	0.511
456.000	300.077	80.009	19.995	100.293	20.036	11.518	0.505
464.000	304.023	80.010	19.995	100.256	20.033	11.685	0.479
472.000	307.976	80.010	19.996	100.256	20.040	11.250	0.474
480.000	312.065	80.007	19.996	100.225	20.047	10.799	0.521
488.001	316.097	80.006	19.995	100.218	20.058	10.107	0.480
496.000	320.180	80.008	19.995	100.218	20.062	9.847	0.491
504.000	324.250	80.006	19.996	100.218	20.060	9.961	0.508
512.000	328.269	80.006	19.997	100.255	20.056	10.212	0.499
520.000	332.327	80.010	19.995	100.294	20.056	10.213	0.498
528.000	336.416	80.008	19.996	100.303	20.047	10.810	0.538
536.000	340.445	80.008	19.996	100.330	20.049	10.693	0.500
544.000	344.451	80.009	19.995	100.345	20.052	10.504	0.484
552.000	348.509	80.009	19.994	100.370	20.051	10.527	0.484
560.000	352.602	80.007	19.994	100.372	20.051	10.531	0.530
568.000	356.656	80.006	19.996	100.366	20.055	10.274	0.499
576.000	360.617	80.007	19.998	100.353	20.063	9.775	0.500
584.000	364.579	80.007	19.997	100.336	20.066	9.553	0.491
592.000	368.589	80.005	19.996	100.335	20.067	9.513	0.521
600.000	372.591	80.006	19.997	100.329	20.064	9.670	0.491
608.000	376.648	80.008	19.997	100.307	20.054	10.352	0.527
616.000	380.658	80.008	19.996	100.298	20.038	11.377	0.504
624.000	384.669	80.009	19.996	100.299	20.024	12.302	0.526
632.000	388.676	80.009	19.995	100.290	20.004	13.587	0.502
640.000	392.675	80.005	19.997	100.283	19.979	15.241	0.499
648.000	396.638	80.007	19.995	100.283	19.946	17.360	0.491
656.000	400.525	80.008	19.995	100.267	19.912	19.584	0.495
664.000	404.441	80.008	19.995	100.270	19.864	22.705	0.478
672.000	408.406	80.007	19.996	100.263	19.802	26.739	0.518
680.000	412.332	80.007	19.995	100.270	19.739	30.850	0.506
688.000	416.273	80.007	19.995	100.262	19.652	36.517	0.469
696.000	420.313	80.008	19.996	100.268	19.554	42.855	0.545
704.000	424.317	80.010	19.997	100.259	19.463	48.783	0.470
712.000	428.354	80.009	19.996	100.257	19.378	54.317	0.543
720.000	432.448	80.011	19.995	100.254	19.292	59.876	0.513
728.000	436.590	80.006	19.995	100.255	19.243	63.084	0.548
736.000	440.590	80.005	19.995	100.238	19.244	62.986	0.524
744.000	444.647	80.009	19.995	100.254	19.274	61.035	0.519
752.000	448.729	80.006	19.994	100.249	19.264	61.708	0.545
760.000	452.751	80.008	19.996	100.252	19.263	61.780	0.493
768.000	456.853	80.009	19.996	100.228	19.303	59.170	0.549
776.000	460.993	80.010	19.995	100.273	19.375	54.500	0.520
784.000	465.053	80.008	19.996	100.195	19.451	49.548	0.473
792.000	469.187	80.010	19.996	100.217	19.522	44.881	0.519
800.000	473.337	80.006	19.996	100.197	19.640	37.234	0.521
808.000	477.469	80.011	19.995	100.273	19.700	33.335	0.513
816.000	481.599	80.008	19.996	100.207	19.771	28.709	0.535
824.000	485.703	80.007	19.995	100.208	19.820	25.551	0.543
832.000	489.824	80.007	19.996	100.217	19.884	21.372	0.498
840.001	493.973	80.010	19.996	100.205	19.939	17.805	0.539
848.000	498.073	80.006	19.996	100.212	19.982	15.049	0.504
856.000	502.204	80.011	19.995	100.188	20.027	12.060	0.561
864.000	506.202	80.010	19.996	100.189	20.057	10.140	0.541
872.000	510.223	80.006	19.995	100.186	20.078	8.758	0.504
880.000	514.268	80.011	19.996	100.196	20.099	7.391	0.497
888.000	518.359	80.008	19.996	100.184	20.117	6.219	0.518
896.000	522.384	80.001	19.996	100.183	20.129	5.473	0.503
904.000	526.437	80.009	19.996	100.193	20.145	4.443	0.517
912.000	530.457	80.006	19.995	100.182	20.149	4.161	0.499
920.000	534.562	80.006	19.997	100.187	20.162	3.340	0.517
928.000	538.618	80.007	19.996	100.181	20.176	2.403	0.465
936.000	542.728	80.011	19.995	100.183	20.177	2.325	0.509
944.000	546.769	80.008	19.995	100.182	20.189	1.571	0.504
952.000	550.833	80.007	19.995	100.191	20.191	1.429	0.484
960.000	554.924	80.011	19.994	100.186	20.196	1.091	0.520
968.000	558.986	80.008	19.995	100.180	20.198	0.992	0.496
976.000	563.039	80.008	19.996	100.181	20.204	0.579	0.506
984.000	567.081	80.008	19.996	100.182	20.206	0.430	0.508
992.000	571.141	80.005	19.995	100.193	20.207	0.377	0.530
1000.000	575.235	80.007	19.997	100.189	20.214	-0.051	0.508
1008.000	579.257	80.007	19.996	100.184	20.214	-0.060	0.527
1016.000	583.293	80.006	19.995	100.185	20.222	-0.568	0.510
1024.000	587.314	80.007	19.994	100.185	20.221	-0.506	0.485
1032.000	591.373	80.008	19.996	100.187	20.222	-0.586	0.503
1040.000	595.461	80.011	19.995	100.187	20.224	-0.719	0.534
1048.000	599.539	80.009	19.995	100.187	20.228	-0.981	0.494
1056.000	603.580	80.009	19.995	100.194	20.228	-0.958	0.478
1064.000	607.753	80.007	19.996	100.188	20.229	-1.032	0.539
1072.000	611.737	80.006	19.995	100.180	20.226	-0.830	0.481
1080.000	615.865	80.007	19.995	100.179	20.226	-0.827	0.517
1088.000	619.893	80.006	19.995	100.180	20.231	-1.183	0.506
1096.000	623.956	80.007	19.997	100.181	20.229	-1.034	0.509
1104.001	628.021	80.009	19.995	100.177	20.227	-0.940	0.482
1112.000	632.147	80.008	19.995	100.182	20.228	-0.995	0.517
1120.000	636.199	80.010	19.996	100.178	20.232	-1.202	0.507
1128.000	640.243	80.010	19.995	100.176	20.233	-1.289	0.477
1136.001	644.303	80.006	19.995	100.181	20.229	-1.018	0.509
1144.001	648.293	80.008	19.994	100.179	20.229	-1.043	0.488
1152.000	652.273	80.010	19.995	100.187	20.231	-1.174	0.486
1160.000	656.299	80.006	19.995	100.181	20.231	-1.167	0.496
1168.000	660.325	80.007	19.996	100.176	20.234	-1.385	0.495
1176.001	664.390	80.006	19.996	100.185	20.234	-1.335	0.480
1184.000	668.490	80.008	19.995	100.175	20.236	-1.514	0.485
1192.000	672.607	80.007	19.997	100.175	20.235	-1.434	0.472
1200.001	676.654	80.008	19.997	100.177	20.236	-1.471	0.520
1208.001	680.676	80.009	19.995	100.177	20.238	-1.620	0.500
1216.000	684.736	80.009	19.995	100.178	20.240	-1.726	0.464
1224.000	688.678	80.007	19.996	100.183	20.240	-1.772	0.504
1232.000	692.716	80.008	19.995	100.179	20.238	-1.643	0.498
1240.000	696.782	80.008	19.994	100.175	20.235	-1.406	0.538
1248.000	700.813	80.007	19.996	100.177	20.235	-1.406	0.528
1256.000	704.852	80.009	19.996	100.176	20.238	-1.629	0.512
1264.000	708.945	80.008	19.996	100.176	20.236	-1.498	0.530
1272.000	713.032	80.007	19.996	100.178	20.238	-1.648	0.549
1280.000	717.073	80.009	19.995	100.177	20.238	-1.592	0.512
1288.000	721.027	80.008	19.996	100.177	20.237	-1.540	0.502
1296.001	725.057	80.009	19.996	100.182	20.238	-1.654	0.502
1304.000	729.045	80.008	19.996	100.177	20.241	-1.818	0.487
1312.000	733.064	80.008	19.996	100.178	20.241	-1.834	0.525
1320.000	737.042	80.007	19.996	100.177	20.239	-1.702	0.466
1328.001	741.058	80.008	19.996	100.177	20.235	-1.420	0.481
1333.000	743.568	80.008	19.996	100.177	20.234	-1.342	0.474