File: 01_Data/Overstuffed_Chair/Cone/Overstuffed_Chair_Cone_HF50Scan_210326_R3.csv
Names,Time,Stack TC,Smoke TC,Exh Press,Smoke Comp,Smoke Meas,CO Meter,CO2 Meter,O2 Meter,Sample Mass,Ext Coeff,Start Test,Flame Verif
Chan Gain,,500,500,1,1,1,1,1,1,1,1,1.0,1.0
Offset,,0,0,0.138348,0,0,0,0,0,0,0,0.0,0.0
Gain,,1,1,25.011,13.5067,16.616,1,1,1,1.00091,1.04608,1.0,1.0
Units,sec,C,C,Pa,%,%,%,%,%,g,/m,,
Baseline,,32.5547,34.4848,159.52,101.528,98.2471,-0.00087822,0.0655892,20.9217,-0.0235631,0.301445,,
10,2.25,28.4589,30.2843,155.909,100.534,97.1148,-0.000723666,0.0751571,20.9127,487.404,0.317505,0.0,0.0
20,4.75,29.6455,30.8038,161.094,100.512,97.2973,-0.000757187,0.0759154,20.911,486.173,0.29824,0.0,0.0
30,7.25,28.9585,31.3701,157.202,100.476,97.0473,-0.000757545,0.0769586,20.9102,484.841,0.318573,0.0,0.0
40,9.75,30.4735,31.5647,158.149,100.484,96.7243,-0.000601873,0.0797032,20.9052,485.122,0.349918,0.0,0.0
50,12.25,30.4565,32.1103,154.748,100.457,94.4592,0.000186915,0.091994,20.8919,485.222,0.564917,0.0,0.0
60,14.75,30.9848,34.6242,147.729,100.44,92.0972,0.0011813,0.158616,20.7967,484.861,0.795704,0.0,1.0
70,17.25,32.211,36.1554,150.506,100.446,92.8533,0.00194249,0.248697,20.6667,484.531,0.721247,0.0,1.0
80,19.75,33.9149,38.8398,138.801,100.425,88.1501,0.00281287,0.317218,20.5777,484.471,1.19626,0.0,0.0
90,22.25,35.3984,41.8329,145.017,100.439,88.3332,0.00368323,0.37204,20.5196,484.141,1.17858,0.0,0.0
100,24.75,36.7047,43.9314,141.03,100.412,87.5969,0.00404738,0.388291,20.5045,483.941,1.25286,0.0,0.0
110,27.25,38.0974,44.8732,150.99,100.425,92.9506,0.0041399,0.377543,20.5163,483.7,0.709747,0.0,0.0
120,29.75,38.7712,46.6763,145.597,100.413,87.8788,0.00429156,0.371513,20.5221,483.61,1.22349,0.0,0.0
130,32.25,39.5658,47.9012,148.256,100.435,88.9838,0.00453678,0.373417,20.5217,483.3,1.11083,0.0,0.0
140,34.75,40.9168,49.4225,145.831,100.423,88.3585,0.00481523,0.382161,20.5132,483.11,1.17444,0.0,0.0
150,37.25,42.1381,50.1079,158.538,100.441,88.427,0.00546612,0.397899,20.4849,482.82,1.16895,0.0,0.0
160,39.75,42.6159,51.7474,146.182,100.431,83.3106,0.00698281,0.435434,20.4207,482.539,1.715,0.0,0.0
170,42.25,44.9131,56.0336,128.038,100.448,77.7474,0.00946319,0.527583,20.2786,482.049,2.35071,0.0,0.0
180,44.75,48.4301,62.1058,135.974,100.475,81.1179,0.011613,0.677862,20.0349,481.658,1.96376,0.0,0.0
190,47.25,53.3796,68.8353,124.746,100.475,81.0333,0.0129872,0.854993,19.7958,481.048,1.97331,0.0,0.0
200,49.75,58.5057,78.2333,116.79,100.481,80.0987,0.0145804,1.0449,19.522,480.397,2.08032,0.0,0.0
210,52.25,65.059,87.5225,126.222,100.486,78.4335,0.016563,1.21418,19.2597,479.697,2.27359,0.0,0.0
220,54.75,69.8692,95.8711,113.257,100.511,77.2971,0.0185422,1.33993,19.1017,478.996,2.40977,0.0,0.0
230,57.25,74.29,103.469,107.801,100.52,71.8805,0.0206529,1.43261,19.0043,478.295,3.07725,0.0,0.0
240,59.75,78.9765,110.249,122.979,100.533,69.6351,0.0230083,1.50476,18.9346,477.505,3.36959,0.0,0.0
250,62.25,82.233,115.654,109.093,100.544,64.9426,0.0255504,1.54097,18.9131,476.794,4.01082,0.0,0.0
260,64.75,85.4112,119.992,111.116,100.574,65.2961,0.027807,1.56644,18.9112,476.003,3.96376,0.0,0.0
270,67.25,88.1451,123.745,108.824,100.572,66.1814,0.0293521,1.56586,18.94,475.223,3.83995,0.0,0.0
280,69.75,89.8879,125.755,128.634,100.609,67.4882,0.0301095,1.52898,19.0056,474.522,3.66395,0.0,0.0
290,72.25,91.7301,126.677,118.605,100.618,67.9947,0.0297254,1.46818,19.1137,473.811,3.59609,0.0,0.0
300,74.75,91.5992,126.723,133.256,100.65,69.5079,0.0280069,1.35586,19.2737,473.251,3.39709,0.0,0.0
310,77.25,90.299,122.945,130.599,100.665,73.1715,0.0242064,1.20007,19.4863,472.82,2.92707,0.0,0.0
320,79.75,88.7206,120.053,130.034,100.701,79.3756,0.0201592,1.02287,19.7408,472.37,2.18361,0.0,0.0
330,82.25,85.964,114.705,136.329,100.707,79.7554,0.017437,0.868747,19.8989,472.06,2.1403,0.0,0.0
340,84.75,83.3187,109.706,144.379,100.742,82.336,0.0148022,0.742284,20.061,471.749,1.85133,0.0,0.0
350,87.25,81.4582,105.082,140.42,100.761,82.7345,0.0124492,0.635721,20.2115,471.549,1.80875,0.0,0.0
360,89.75,78.0775,100.172,137.61,100.77,85.4291,0.0106966,0.557111,20.3114,471.349,1.51544,0.0,0.0
370,92.25,75.9568,95.6458,143.418,100.79,87.5163,0.00924378,0.495966,20.39,471.199,1.29582,0.0,0.0
380,94.75,73.6281,91.1683,148.061,100.786,89.9026,0.00818357,0.438495,20.4707,471.179,1.04859,0.0,0.0
390,97.25,70.8978,87.0332,149.431,100.792,93.7467,0.00700187,0.378402,20.5376,471.129,0.66491,0.0,0.0
400,99.75,68.8244,83.3873,148.855,100.789,94.0353,0.00544998,0.311337,20.6218,471.049,0.636412,0.0,0.0
410,102.25,66.2149,78.8452,148.599,100.797,95.8836,0.00387356,0.247035,20.6989,471.059,0.458552,0.0,0.0
420,104.75,64.4541,75.3973,155.354,100.794,97.6203,0.00269106,0.197506,20.7532,471.019,0.293607,0.0,0.0
430,107.25,61.7799,71.5667,154.661,100.806,98.8018,0.00224089,0.160731,20.798,471.019,0.184266,0.0,0.0
440,109.75,60.132,68.0173,155.794,100.783,98.5437,0.00224788,0.133497,20.8329,470.738,0.206204,0.0,0.0
450,112.25,57.0855,65.063,155.256,100.781,98.0463,0.00234661,0.114761,20.8542,470.909,0.252417,0.0,0.0
460,114.75,55.7863,62.7117,152.138,100.751,98.4311,0.00229699,0.1023,20.87,470.759,0.213765,0.0,0.0
470,117.25,54.7345,59.9869,153.7,100.744,98.3647,0.00202828,0.095909,20.8765,470.648,0.21936,0.0,0.0
480,119.75,52.8196,58.2155,154.444,100.726,98.1462,0.00165705,0.0925816,20.8817,470.939,0.238118,0.0,0.0
490,122.25,51.6576,56.8639,154.19,100.716,98.3003,0.00156682,0.0891619,20.8873,471.009,0.222778,0.0,0.0
500,124.75,50.8839,54.4077,151.617,100.693,98.2765,0.00143698,0.0849606,20.8932,470.849,0.222862,0.0,0.0
510,127.25,49.7068,53.1357,153.542,100.684,98.1376,0.00125158,0.080951,20.8967,470.769,0.235092,0.0,0.0
520,129.75,48.6019,52.3359,155.379,100.662,98.0934,0.000989372,0.0773703,20.9034,470.698,0.237152,0.0,0.0
530,132.25,48.2726,50.6601,150.901,100.64,98.3211,0.000714477,0.0744859,20.9074,470.749,0.213925,0.0,0.0
540,134.75,47.7574,50.0967,151.991,100.625,98.1842,0.00060231,0.0722047,20.9103,470.568,0.225358,0.0,0.0
550,137.25,46.6274,48.9007,151.423,100.595,98.3247,0.000581492,0.0708959,20.9126,470.598,0.209458,0.0,0.0
560,139.75,46.3148,48.3071,151.94,100.599,97.92,0.000464398,0.0697944,20.9139,470.428,0.247676,0.0,0.0
570,142.25,45.7833,47.4463,156.494,100.566,98.1776,0.000462561,0.0692947,20.9156,470.468,0.22056,0.0,0.0
580,144.75,45.0613,46.4437,153.995,100.564,97.7273,0.000454367,0.068766,20.9152,470.338,0.262554,0.0,0.0
590,147.25,44.2609,46.3707,157.311,100.553,98.1269,0.000268376,0.0683913,20.9149,470.418,0.224134,0.0,0.0
600,149.75,44.8345,45.879,156.704,100.56,98.2745,0.000237525,0.0682165,20.9147,470.839,0.210986,0.0,0.0
610,152.25,44.3167,45.1688,154.681,100.524,97.7669,0.000230026,0.0679759,20.9152,470.769,0.25523,0.0,0.0
620,154.75,43.4125,44.862,156.036,100.531,97.6548,0.000162119,0.0676951,20.9159,470.598,0.266356,0.0,0.0
630,157.25,43.0358,44.1724,154.508,100.515,97.7983,0.000221043,0.067777,20.9173,470.608,0.251451,0.0,0.0
640,159.75,42.8268,43.8967,151.081,100.515,97.6158,0.000325912,0.0678383,20.9176,470.538,0.268596,0.0,0.0
650,162.25,42.4283,43.7378,153.816,100.499,97.9043,0.000398806,0.0677014,20.9183,470.468,0.240008,0.0,0.0
660,164.75,42.2634,43.5285,155.709,100.501,97.847,0.000312136,0.0675095,20.9186,470.438,0.245605,0.0,0.0
670,167.25,42.1376,43.2824,157.419,100.484,97.7278,2.89569e-05,0.0674061,20.9187,470.348,0.255169,0.0,0.0
680,169.75,41.7039,42.6483,156.735,100.498,98.2329,-0.000167552,0.0673413,20.9187,470.338,0.209187,0.0,0.0
690,172.25,41.3211,42.7076,155.628,100.479,97.7441,-0.000236939,0.0673392,20.9186,470.849,0.253195,0.0,0.0
700,174.75,41.1832,41.96,152.472,100.472,97.6188,-0.000320107,0.0671895,20.9185,470.668,0.264395,0.0,0.0
710,177.25,41.3135,42.395,156.217,100.485,97.8272,-0.000210906,0.067196,20.9174,470.618,0.245993,0.0,0.0
720,179.75,41.0162,41.7902,155.247,100.449,97.7801,-9.77619e-05,0.0674855,20.9186,470.518,0.247067,0.0,0.0
730,182.25,40.3536,41.9048,153.01,100.45,97.9205,-4.33525e-05,0.0674295,20.9203,470.488,0.234045,0.0,0.0
740,184.75,41.1392,41.6646,154.099,100.45,97.6021,-3.74843e-05,0.0674289,20.9201,470.528,0.263936,0.0,0.0
750,187.25,40.293,41.1419,155.195,100.441,97.5204,-5.78939e-05,0.0674052,20.9201,470.488,0.270748,0.0,0.0
760,189.75,39.2515,41.5561,155.99,100.434,97.7522,-3.45642e-05,0.0672065,20.9201,470.448,0.248367,0.0,0.0
770,192.25,39.8138,40.7107,154.223,100.442,97.4854,-3.35549e-05,0.0671493,20.9201,470.548,0.274191,0.0,0.0
780,194.75,39.8641,40.9232,156.033,100.429,97.7755,-0.000175396,0.0670241,20.9195,470.488,0.245687,0.0,0.0
790,197.25,39.2682,40.8165,150.711,100.434,97.7496,-0.0002732,0.0669622,20.9202,470.518,0.248567,0.0,0.0
800,199.75,39.4058,40.7454,155.053,100.426,97.5965,-0.000206232,0.0669086,20.9187,470.378,0.262276,0.0,0.0
810,202.25,39.5631,41.0247,155.132,100.425,98.2917,3.52672e-05,0.0668688,20.9182,470.418,0.19703,0.0,0.0
820,204.75,39.5126,39.8599,155.467,100.422,97.7096,0.000187239,0.0666522,20.9196,470.418,0.251274,0.0,0.0
830,207.25,39.4914,40.1815,158.707,100.427,97.3627,8.13805e-05,0.0664219,20.9206,470.358,0.284356,0.0,0.0
840,209.75,39.4228,40.0414,154.866,100.428,97.3779,-0.000121971,0.0664871,20.9209,470.348,0.282959,0.0,0.0
850,212.25,38.8322,39.8879,152.756,100.414,97.7045,-0.00030527,0.0664985,20.921,470.218,0.250959,0.0,0.0
860,214.75,39.0492,40.0957,152.523,100.429,97.5559,-0.000280059,0.0663005,20.9207,470.238,0.266316,0.0,0.0
870,217.25,38.7682,40.0743,158.447,100.421,97.564,-0.00013778,0.0662212,20.9204,470.318,0.2648,0.0,0.0
880,219.75,38.6394,40.0157,158.834,100.421,97.3201,,0.0659541,,470.298,0.287844,0.0,0.0
890,222.25,38.8533,39.3559,154.463,100.421,97.6376,,,,470.358,0.257887,0.0,0.0
900,224.75,38.3812,39.8473,160.076,100.433,97.3942,,,,470.478,0.281958,0.0,0.0
910,227.25,37.9927,39.51,152.585,100.418,97.6117,,,,470.408,0.26013,0.0,0.0
920,229.75,37.8801,39.5108,156.191,100.436,97.6234,,,,470.508,0.260653,0.0,0.0