File: 01_Data/Overstuffed_Chair/Cone/Overstuffed_Chair_Cone_HF75Scalar_210325_R3.csv
LABORATORY,FSRI
TEST IDENT,Stack_HF75_3
OPERATOR,Dow
MATERIAL,"1"" PUF, 1.75"" PE Batting, PE Fabric"
ORIENTATION,Horizontal
HEAT FLUX,75
SURF AREA,0.01
C FACTOR,0.0386052
SPEC HOLDER DIFF,-94.94
SPECIMEN MASS,16.16
SCAN TIME,0.25
O2 DELAY TIME,11
CO DELAY TIME,11
CO2 DELAY TIME,8
FLOW FACTOR,1
SCAN COUNT,786
TIME TO IGN,11
END OF TEST SCAN,306
END OF TEST TIME,76.5
TEST STATUS,1
PRE TEST CMT,without retainer frame or grid