File: 02_Data/Polyurethane_Foam/Cone/Polyurethane_Foam_Cone_HF25Scan_210324_R3.csv
Names,Time,Stack TC,Smoke TC,Exh Press,Smoke Comp,Smoke Meas,CO Meter,CO2 Meter,O2 Meter,Sample Mass,Ext Coeff,Start Test,Flame Verif
Chan Gain,,500,500,1,1,1,1,1,1,1,1,1.0,1.0
Offset,,0,0,0.194005,0,0,0,0,0,0,0,0.0,0.0
Gain,,1,1,25.011,13.5067,16.616,1,1,1,1.00091,1.04608,1.0,1.0
Units,sec,C,C,Pa,%,%,%,%,%,g,/m,,
Baseline,,19.5398,20.245,168.229,101.469,100.747,0.000317232,0.0634395,20.914,-1.20147,0.0655853,,
10,2.25,16.7087,17.2598,167.868,101.387,100.576,0.00018234,0.0681243,20.9092,486.953,0.0736976,0.0,0.0
20,4.75,16.9734,17.7647,166.662,101.441,97.9428,0.000265329,0.068849,20.9062,486.903,0.32203,0.0,0.0
30,7.25,18.2019,20.5555,152.776,101.481,94.7285,0.00113465,0.0837016,20.8225,486.713,0.631812,0.0,1.0
40,9.75,19.957,22.5544,155.426,101.53,91.3214,0.00223103,0.126334,20.712,486.493,0.972362,0.0,1.0
50,12.25,22.3846,26.6134,154.104,101.563,89.6805,0.00344526,0.175868,20.6255,486.273,1.14172,0.0,0.0
60,14.75,24.1508,29.4251,154.678,101.609,88.1902,0.00455854,0.227693,20.5613,486.032,1.29966,0.0,0.0
70,17.25,26.3109,32.2457,151.857,101.631,88.5375,0.00521412,0.270229,20.5133,485.822,1.2656,0.0,0.0
80,19.75,27.4953,34.3855,157.809,101.664,89.5101,0.00555161,0.305978,20.4883,485.492,1.16833,0.0,0.0
90,22.25,29.0116,36.1896,155.049,101.682,86.7729,0.00586607,0.335434,20.4615,485.262,1.45491,0.0,0.0
100,24.75,30.4495,38.1896,151.496,101.709,87.3292,0.00631109,0.360735,20.443,485.001,1.39873,0.0,0.0
110,27.25,31.2102,39.8696,147.222,101.722,87.387,0.0069462,0.381722,20.4116,484.711,1.39381,0.0,0.0
120,29.75,32.8375,41.9214,141.66,101.73,90.7352,0.00742912,0.404224,20.3699,484.451,1.04958,0.0,0.0
130,32.25,34.6266,45.2541,140.546,101.735,91.8422,0.00755215,0.433282,20.2942,484.121,0.938752,0.0,0.0
140,34.75,38.2448,50.2678,148.609,101.748,95.1194,0.00717754,0.472358,20.2292,483.82,0.618176,0.0,0.0
150,37.25,40.6533,54.127,137.37,101.731,93.5348,0.00667119,0.512777,20.1329,483.45,0.770807,0.0,0.0
160,39.75,44.4689,59.5588,140.336,101.729,96.6432,0.00639291,0.561863,20.0523,483.11,0.470596,0.0,0.0
170,42.25,47.1785,64.159,139.461,101.729,95.3851,0.00618153,0.603845,19.9832,482.789,0.590869,0.0,0.0
180,44.75,50.4691,68.8726,127.399,101.688,97.9246,0.00591898,0.648765,19.9478,482.409,0.346048,0.0,0.0
190,47.25,52.4099,72.5682,132.504,101.69,98.099,0.00572068,0.678663,19.9352,482.059,0.32994,0.0,0.0
200,49.75,54.7047,74.6752,139.986,101.66,99.1497,0.00559622,0.696164,19.9387,481.688,0.229431,0.0,0.0
210,52.25,56.5813,76.6558,141.943,101.651,98.1908,0.00541421,0.703294,19.9591,481.408,0.317825,0.0,0.0
220,54.75,56.6494,78.3059,135.585,101.613,98.669,0.00532377,0.69988,19.9931,481.088,0.269785,0.0,0.0
230,57.25,57.4444,77.9195,136.346,101.612,98.0782,0.0053564,0.688262,20.0157,480.778,0.324815,0.0,0.0
240,59.75,58.2761,78.7822,148.645,101.594,97.0691,0.00539271,0.679726,20.0229,480.477,0.418039,0.0,0.0
250,62.25,58.7944,79.2018,135.806,101.571,97.5301,0.00532689,0.676311,20.026,480.127,0.372521,0.0,0.0
260,64.75,58.8322,78.8054,140.215,101.556,97.0047,0.00535398,0.670357,20.0488,479.887,0.42074,0.0,0.0
270,67.25,58.3362,77.4269,138.554,101.543,97.2902,0.00513325,0.653717,20.1091,479.657,0.392546,0.0,0.0
280,69.75,57.5107,75.279,154.611,101.553,98.2714,0.00464605,0.623719,20.1877,479.426,0.301396,0.0,0.0
290,72.25,55.109,72.5865,145.227,101.539,97.4819,0.0042101,0.584061,20.2707,479.126,0.374186,0.0,0.0
300,74.75,54.052,70.0231,154.62,101.526,97.2015,0.00402166,0.540519,20.3547,479.156,0.399466,0.0,0.0
310,77.25,52.6222,65.1279,162.117,101.526,99.6015,0.0039845,0.481901,20.4971,479.156,0.175576,0.0,0.0
320,79.75,48.2031,60.573,166.553,101.516,100.454,0.00367513,0.40927,20.6236,479.116,0.096523,0.0,0.0
330,82.25,46.0712,55.4842,162.193,101.51,100.743,0.00285214,0.34865,20.6954,479.096,0.0695992,0.0,0.0
340,84.75,43.608,51.891,158.897,101.508,101.017,0.00211264,0.294957,20.746,479.086,0.0444959,0.0,0.0
350,87.25,41.6244,48.055,160.672,101.518,100.906,0.00160116,0.249073,20.7904,479.086,0.0555297,0.0,0.0
360,89.75,39.6956,45.3672,161.747,101.516,100.979,0.00121297,0.214314,20.8176,479.076,0.0487056,0.0,0.0
370,92.25,37.1589,42.4966,165.619,101.507,101.02,0.000901511,0.185514,20.8403,479.066,0.0441541,0.0,0.0
380,94.75,36.4101,40.3592,164.636,101.507,100.946,0.000810425,0.162739,20.8578,479.036,0.0509196,0.0,0.0
390,97.25,34.5411,37.5156,162.565,101.504,100.981,0.000930286,0.144407,20.872,479.046,0.0474412,0.0,0.0
400,99.75,33.5074,36.3385,161.224,101.527,100.944,0.000876797,0.129087,20.8807,479.026,0.052846,0.0,0.0
410,102.25,32.54,34.2582,166.748,101.507,100.981,0.000686604,0.116698,20.8863,479.026,0.0477394,0.0,0.0
420,104.75,31.7436,33.3027,161.377,101.51,101.046,0.000569733,0.107416,20.8912,479.036,0.042104,0.0,0.0
430,107.25,30.5764,32.002,165.203,101.505,100.88,0.00069582,0.099914,20.896,479.026,0.05668,0.0,0.0
440,109.75,30.3121,30.8939,165.469,101.505,100.934,0.000818115,0.0928831,20.9007,479.046,0.051718,0.0,0.0
450,112.25,29.4866,30.1846,169.353,101.497,100.791,0.00080445,0.0876029,20.9048,479.046,0.0640664,0.0,0.0
460,114.75,28.4203,28.8539,166.955,101.5,100.902,0.00058724,0.0826412,20.9079,479.056,0.0542227,0.0,0.0
470,117.25,27.7217,28.4341,167.741,101.507,100.828,0.000472852,0.0791388,20.9093,479.016,0.0616187,0.0,0.0
480,119.75,27.688,28.0059,161.362,101.492,101.051,0.000532346,0.0763841,20.9098,479.026,0.0400033,0.0,0.0
490,122.25,27.5205,27.0427,160.557,101.513,100.928,0.000522595,0.0740828,20.91,479.016,0.0530167,0.0,0.0
500,124.75,26.1067,26.5894,164.417,101.479,100.954,0.000448887,0.0723374,20.9101,479.016,0.0475641,0.0,0.0
510,127.25,26.2082,26.4421,170.342,101.503,100.775,0.000458257,0.0709603,20.9097,479.006,0.0660931,0.0,0.0
520,129.75,26.2216,25.959,165.911,101.48,100.794,0.000422145,0.0700006,20.9093,479.016,0.0622152,0.0,0.0
530,132.25,26.1141,25.4017,159.705,101.489,100.979,0.000399162,0.0690454,20.9092,479.036,0.0462462,0.0,0.0
540,134.75,25.9299,25.477,165.093,101.477,100.844,0.000318806,0.0682757,20.9091,479.016,0.0573932,0.0,0.0
550,137.25,25.6167,25.1153,162.034,101.496,100.848,0.000217074,0.0674656,20.9093,479.016,0.0587769,0.0,0.0
560,139.75,25.2788,24.463,165.988,101.491,100.895,0.000241391,0.0670002,20.9105,478.996,0.0540477,0.0,0.0
570,142.25,25.0653,24.7661,164.849,101.498,100.854,0.000291595,0.0663176,20.9116,479.016,0.0583725,0.0,0.0
580,144.75,24.9241,24.2139,162.324,101.484,100.918,0.00033243,0.0659638,20.912,479.036,0.0512927,0.0,0.0
590,147.25,24.4669,24.5077,167.766,101.491,100.718,0.000409647,0.065648,20.9121,479.026,0.0701485,0.0,0.0
600,149.75,24.246,24.3155,166.285,101.478,100.917,0.000517102,0.0653478,20.9117,479.016,0.0508174,0.0,0.0
610,152.25,24.3977,24.0666,168.313,101.486,100.908,0.000550645,0.0651526,20.9117,479.006,0.0524762,0.0,0.0
620,154.75,24.3049,24.2445,160.001,101.487,100.793,0.000505456,0.0647873,20.9128,479.026,0.0629865,0.0,0.0
630,157.25,23.9816,24.0798,164.583,101.48,100.843,0.000398719,0.0645353,20.9136,479.016,0.0577377,0.0,0.0
640,159.75,23.7973,23.7353,165.26,101.5,100.868,0.000327834,0.0644222,20.9139,479.026,0.0572671,0.0,0.0
650,162.25,24.4358,23.958,168.457,101.482,100.773,0.000277524,0.0644986,20.9127,479.016,0.0643401,0.0,0.0
660,164.75,23.9595,23.1155,164.151,101.504,100.851,0.000173818,0.0646215,20.9121,479.026,0.0591616,0.0,0.0
670,167.25,23.3192,23.773,163.136,101.496,100.867,1.90605e-05,0.0646908,20.9119,479.006,0.0569855,0.0,0.0
680,169.75,23.6148,23.2033,171.17,101.512,100.898,-2.3372e-05,0.0644923,20.9114,479.016,0.0557091,0.0,0.0
690,172.25,23.5827,22.4628,164.399,101.507,100.745,-5.57313e-05,0.0644874,20.9111,479.006,0.0691443,0.0,0.0
700,174.75,23.3551,22.992,162.46,101.525,100.835,-6.07412e-05,0.0643835,20.9118,479.026,0.0625389,0.0,0.0
710,177.25,23.0547,23.4057,163.965,101.553,100.811,5.62304e-05,0.0644037,20.9133,479.026,0.0672855,0.0,0.0
720,179.75,23.7395,23.0663,165.474,101.558,100.926,0.000197592,0.0643696,20.9148,479.026,0.0572997,0.0,0.0
730,182.25,23.0497,23.0512,163.347,101.572,100.915,0.000206113,0.0642384,20.9157,479.056,0.0594964,0.0,0.0
740,184.75,23.0467,22.7122,166.146,101.568,100.833,0.000165461,0.0639841,20.916,479.036,0.0665959,0.0,0.0
750,187.25,23.1169,23.3696,163.665,101.576,100.89,0.000197134,0.0638311,20.9162,479.046,0.0621282,0.0,0.0
760,189.75,22.713,22.613,164.294,101.572,100.776,0.000193277,0.0638651,20.9162,479.046,0.0721848,0.0,0.0
770,192.25,22.6303,22.0761,167.634,101.595,101.005,0.000208641,0.0637647,20.9162,479.056,0.0534702,0.0,0.0
780,194.75,22.6865,22.6623,161.282,101.57,100.887,0.000413748,0.0637302,20.9162,479.046,0.0618914,0.0,0.0
790,197.25,22.5004,22.2732,165.16,101.585,100.711,0.000487612,0.0638509,20.916,479.046,0.0792875,0.0,0.0
800,199.75,22.5014,22.5559,164.167,101.58,100.988,0.000467887,0.0638064,20.917,479.056,0.0536127,0.0,0.0
810,202.25,22.5546,22.4093,169.877,101.592,100.87,0.000403434,0.0637894,20.9165,479.036,0.0654252,0.0,0.0
820,204.75,22.3209,22.5238,164.167,101.581,100.863,0.000397713,0.0638814,20.9158,479.036,0.0651493,0.0,0.0
830,207.25,22.265,22.5649,162.182,101.589,100.828,0.000403622,0.0640244,20.9157,479.036,0.0689945,0.0,0.0
840,209.75,22.4968,22.2076,165.659,101.589,100.874,0.000200985,0.0638914,20.917,479.066,0.0648419,0.0,0.0
850,212.25,22.3453,22.4604,170.413,101.605,100.951,-4.52733e-06,0.0638524,20.9162,479.036,0.0592855,0.0,0.0
860,214.75,21.7945,22.9484,167.798,101.599,100.816,-3.70394e-05,0.0637405,20.9157,479.046,0.0709485,0.0,0.0
870,217.25,21.925,22.3945,165.895,101.622,100.867,7.08439e-05,0.0636538,20.9155,479.036,0.0684658,0.0,0.0
880,219.75,21.5585,21.9782,164.726,101.652,100.936,0.000204885,0.0636763,20.9154,479.036,0.0649103,0.0,0.0
890,222.25,21.9706,22.2357,167.56,101.635,100.839,0.00018877,0.0636593,20.915,479.036,0.0721479,0.0,0.0
900,224.75,21.7348,22.3574,168.475,101.639,100.879,,0.0636138,,479.046,0.0688382,0.0,0.0
910,227.25,22.0839,22.1884,166.34,101.654,101.044,,,,479.036,0.0552003,0.0,0.0
920,229.75,20.8389,22.4345,167.095,101.659,100.915,,,,479.016,0.0673496,0.0,0.0
930,232.25,21.5842,22.1478,170.854,101.655,100.964,,,,479.046,0.0626356,0.0,0.0
937,234,21.2441,21.4471,167.774,101.662,100.932,,,,479.016,0.0661355,0.0,0.0