File: 02_Data/Polyurethane_Foam/Cone/Polyurethane_Foam_Cone_HF50Scalar_210326_R3.csv
LABORATORY,FSRI
TEST IDENT,PUF_HF50_3
OPERATOR,Dow
MATERIAL,"1"" PUF"
ORIENTATION,Horizontal
HEAT FLUX,50
SURF AREA,0.01
C FACTOR,0.0386052
SPEC HOLDER DIFF,-99.19
SPECIMEN MASS,7.8
SCAN TIME,0.25
O2 DELAY TIME,11
CO DELAY TIME,11
CO2 DELAY TIME,8
FLOW FACTOR,1
SCAN COUNT,671
TIME TO IGN,1.75
END OF TEST SCAN,191
END OF TEST TIME,47.75
TEST STATUS,1
PRE TEST CMT,without retainer frame or grid