File: 02_Data/Polyurethane_Foam/Cone/Polyurethane_Foam_Cone_HF75Scan_210325_R2.csv
Names,Time,Stack TC,Smoke TC,Exh Press,Smoke Comp,Smoke Meas,CO Meter,CO2 Meter,O2 Meter,Sample Mass,Ext Coeff,Start Test,Flame Verif
Chan Gain,,500,500,1,1,1,1,1,1,1,1,1.0,1.0
Offset,,0,0,0.138348,0,0,0,0,0,0,0,0.0,0.0
Gain,,1,1,25.011,13.5067,16.616,1,1,1,1.00091,1.04608,1.0,1.0
Units,sec,C,C,Pa,%,%,%,%,%,g,/m,,
Baseline,,40.3956,43.8617,157.652,100.585,98.2033,-0.000648244,0.0835779,20.8606,-1.35628,0.21992,,
7,1.5,35.0768,37.2837,147.75,100.509,87.6714,0.00111732,0.101774,20.7999,486.293,1.2539,0.0,1.0
14,3.25,37.3862,41.3018,134.825,100.521,79.006,0.00308483,0.130499,20.7131,486.313,2.20998,0.0,1.0
21,5,40.4211,46.4512,135.956,100.521,72.9053,0.00629423,0.182202,20.5378,485.702,2.94739,0.0,1.0
28,6.75,41.6435,49.5239,134.377,100.531,71.7618,0.00952915,0.262136,20.3665,485.422,3.09343,0.0,1.0
35,8.5,44.5302,54.0355,138.537,100.501,71.3354,0.0122444,0.347264,20.227,485.042,3.14534,0.0,0.0
42,10.25,47.4034,57.8701,133.285,100.509,68.6413,0.0139645,0.424465,20.1359,484.761,3.49936,0.0,0.0
49,12,49.3376,60.9586,138.344,100.526,71.2406,0.0155738,0.487613,20.0723,484.481,3.15984,0.0,0.0
56,13.75,51.5498,64.4737,125.042,100.527,70.6366,0.0179087,0.545353,19.9906,484.071,3.23807,0.0,0.0
63,15.5,55.2537,72.9279,108.776,100.508,71.6153,0.0214163,0.640055,19.6498,483.59,3.11008,0.0,0.0
70,17.25,66.0854,92.4175,94.1024,100.518,85.2233,0.0244786,0.842421,19.1545,482.709,1.51461,0.0,0.0
77,19,79.2334,119.548,84.1951,100.529,90.8665,0.0262009,1.13799,18.3896,481.959,0.927243,0.0,0.0
84,20.75,92.015,144.426,62.9104,100.515,95.235,0.0264981,1.56837,17.6346,481.108,0.495166,0.0,0.0
91,22.5,103.668,166.286,86.5162,100.512,94.4485,0.0260577,1.98949,17.0875,480.337,0.570996,0.0,0.0
98,24.25,113.044,182.489,83.2501,100.519,94.2401,0.0251524,2.33931,16.8127,479.597,0.591905,0.0,0.0
105,26,120.076,194.095,104.491,100.538,93.1814,0.0230202,2.56723,16.7178,479.086,0.697313,0.0,0.0
112,27.75,122.79,193.946,108.689,100.534,88.2723,0.0200134,2.61678,17.1607,478.616,1.19356,0.0,0.0
119,29.5,118.688,182.647,146.42,100.505,98.8728,0.0169392,2.44368,18.066,478.786,0.150281,0.0,0.0
126,31.25,111.546,168.133,149.897,100.521,98.9387,0.0145993,2.11411,18.8114,478.776,0.145558,0.0,0.0
133,33,104.985,155.272,145.192,100.515,99.0797,0.0124635,1.73718,19.4184,478.746,0.132004,0.0,0.0
140,34.75,99.2629,143.291,148.757,100.533,98.9286,0.0108006,1.39252,19.8776,478.746,0.147589,0.0,0.0
147,36.5,93.7289,133.694,153.088,100.538,99.0777,0.0093021,1.10944,20.1767,478.766,0.134261,0.0,0.0
154,38.25,88.7554,124.881,151.992,100.519,98.9113,0.00773742,0.886163,20.3555,478.746,0.147909,0.0,0.0
161,40,84.6243,117.234,150.892,100.527,98.7105,0.00616174,0.718349,20.4765,478.736,0.16731,0.0,0.0
168,41.75,81.5529,109.908,156.041,100.537,98.7592,0.00478618,0.587149,20.5705,478.736,0.163688,0.0,0.0
175,43.5,78.0405,103.711,153.561,100.533,98.8475,0.00368254,0.479755,20.6445,478.736,0.155156,0.0,0.0
182,45.25,75.5534,98.2931,155.293,100.53,99.3246,0.00274098,0.400643,20.6921,478.746,0.110704,0.0,0.0
189,47,72.7877,94.0342,154.516,100.533,98.9595,0.0020478,0.339174,20.723,478.736,0.144797,0.0,0.0
196,48.75,70.5577,89.1087,153.835,100.544,98.9377,0.00140808,0.291791,20.7503,478.726,0.147758,0.0,0.0
203,50.5,68.6249,85.2193,150.024,100.547,98.8267,0.000973225,0.254508,20.7714,478.756,0.158327,0.0,0.0
210,52.25,66.8289,82.1578,151.956,100.484,99.1223,0.000694226,0.222152,20.7895,478.726,0.125199,0.0,0.0
217,54,65.3545,79.3698,156.482,100.541,98.7394,0.000495082,0.198178,20.8021,478.756,0.16594,0.0,0.0
224,55.75,63.5205,75.8621,149.712,100.529,98.6071,0.000265965,0.177843,20.8131,478.766,0.177081,0.0,0.0
231,57.5,61.9259,73.8236,151.133,100.551,99.0047,7.54096e-05,0.161565,20.8212,478.726,0.142192,0.0,0.0
238,59.25,61.0647,70.8496,152.688,100.532,98.5625,-7.53349e-05,0.15013,20.8283,478.746,0.181536,0.0,0.0
245,61,59.869,69.0937,151.909,100.552,98.6953,-0.000244436,0.139218,20.8328,478.756,0.171018,0.0,0.0
252,62.75,58.9536,66.844,152.684,100.556,99.2298,-0.000383697,0.130047,20.8375,478.776,0.121801,0.0,0.0
259,64.5,57.4888,65.7223,154.126,100.548,98.7151,-0.000413488,0.122454,20.8419,478.716,0.168804,0.0,0.0
266,66.25,57.0188,64.1848,153.774,100.547,98.7116,-0.000420957,0.116367,20.845,478.766,0.169096,0.0,0.0
273,68,56.0345,63.1959,152.776,100.558,99.0564,-0.000512362,0.111308,20.8475,478.726,0.138078,0.0,0.0
280,69.75,55.5624,61.9215,154.686,100.54,98.4317,-0.000616779,0.107366,20.8493,478.716,0.194438,0.0,0.0
287,71.5,54.2158,60.5848,154.234,100.559,98.8251,-0.000689088,0.103935,20.8522,478.706,0.159559,0.0,0.0
294,73.25,53.8488,58.6959,150.551,100.555,99.6786,-0.000715377,0.101316,20.8539,478.736,0.0803578,0.0,0.0
301,75,53.5816,58.0292,153.98,100.549,98.6264,-0.000680318,0.0988626,20.8556,478.746,0.177169,0.0,0.0
308,76.75,52.695,57.688,157.446,100.54,98.9169,-0.000591719,0.0969129,20.8567,478.736,0.149311,0.0,0.0
315,78.5,52.2874,57.0548,152.137,100.542,98.7755,-0.000477937,0.0951323,20.8573,478.746,0.162671,0.0,0.0
322,80.25,51.5671,56.6562,153.061,100.555,98.9671,-0.000407444,0.0935766,20.8575,478.706,0.146086,0.0,0.0
329,82,51.4554,55.7241,157.156,100.54,98.5544,-0.000388582,0.0924203,20.8576,478.726,0.183082,0.0,0.0
336,83.75,51.2974,55.1464,156.041,100.541,98.5539,-0.000373604,0.0914062,20.8584,478.716,0.183166,0.0,0.0
343,85.5,50.9211,54.3092,157.042,100.541,98.603,-0.000400512,0.0904253,20.858,478.726,0.178588,0.0,0.0
350,87.25,50.2977,54.2302,149.325,100.545,99.1588,-0.000454144,0.0896961,20.8579,478.726,0.12739,0.0,0.0
357,89,50.2644,53.3619,153.993,100.561,98.6132,-0.000475135,0.089145,20.8578,478.706,0.179524,0.0,0.0
364,90.75,49.7411,53.1422,154.948,100.534,98.3444,-0.00049171,0.08871,20.8579,478.706,0.202084,0.0,0.0
371,92.5,49.7268,52.9641,153.532,100.522,98.9225,-0.000507679,0.0882132,20.8583,478.736,0.147213,0.0,0.0
378,94.25,49.3193,52.3109,153.445,100.531,98.673,-0.000484457,0.0877809,20.8589,478.706,0.171137,0.0,0.0
385,96,48.8837,52.2616,153.594,100.564,98.4991,-0.000476501,0.0873635,20.8595,478.736,0.190373,0.0,0.0
392,97.75,48.8497,51.2926,155.751,100.54,98.8201,-0.000543382,0.0869486,20.8598,478.756,0.1583,0.0,0.0
399,99.5,48.5807,51.2088,152.646,100.524,98.4641,-0.000615026,0.0867248,20.8599,478.766,0.190022,0.0,0.0
406,101.25,48.9373,51.1717,157.866,100.516,98.5899,-0.000680386,0.0864765,20.86,478.736,0.177558,0.0,0.0
413,103,47.969,50.8495,152.58,100.532,98.4788,-0.000747176,0.086349,20.8596,478.686,0.189366,0.0,0.0
420,104.75,48.4878,50.683,152.868,100.524,98.707,-0.000740544,0.0863759,20.8594,478.716,0.167377,0.0,0.0
427,106.5,48.1547,50.309,155.283,100.51,98.7886,-0.000686936,0.0863548,20.8593,478.726,0.158511,0.0,0.0
434,108.25,47.8873,50.6231,153.674,100.507,98.565,-0.000578292,0.0862118,20.8602,478.716,0.179004,0.0,0.0
441,110,47.9277,50.4577,156.023,100.513,98.9098,-0.000440962,0.0858804,20.8609,478.676,0.147524,0.0,0.0
448,111.75,47.1431,49.5267,156.205,100.527,98.6659,-0.000328923,0.085683,20.8614,478.676,0.171497,0.0,0.0
455,113.5,46.8284,49.7925,151.966,100.525,98.8312,-0.000265278,0.0855156,20.8619,478.716,0.15591,0.0,0.0
462,115.25,46.7308,50.2674,157.292,100.508,98.8723,-0.000354366,0.085104,20.8621,478.736,0.150592,0.0,0.0
469,117,46.721,50.2281,153.842,100.525,98.4783,-0.000558941,0.084787,20.8624,478.736,0.188775,0.0,0.0
476,118.75,46.8888,49.3336,156.197,100.514,98.4256,-0.000766813,0.0844426,20.8627,478.756,0.192673,0.0,0.0
483,120.5,46.4772,49.4183,153.254,100.505,98.671,-0.000896906,0.0841481,20.8629,478.736,0.168993,0.0,0.0
490,122.25,46.4019,49.5785,152.795,100.507,98.3216,-0.000880426,0.0839538,20.8629,478.726,0.201768,0.0,0.0
497,124,46.545,49.0701,155.041,100.495,98.8515,-0.000746551,0.0837615,20.863,478.706,0.151317,0.0,0.0
504,125.75,45.3573,48.8857,148.543,100.514,98.5823,-0.00058741,0.0835721,20.8638,478.756,0.178039,0.0,0.0
511,127.5,45.6823,48.5897,153.056,100.514,98.816,-0.000479871,0.0835011,20.8641,478.726,0.156344,0.0,0.0
518,129.25,46.2824,48.6587,153.229,100.496,98.8287,-0.000472432,0.0833532,20.8643,478.736,0.153511,0.0,0.0
525,131,46.1052,48.7319,153.742,100.492,98.5001,-0.000514679,0.083271,20.8644,478.736,0.183732,0.0,0.0
532,132.75,45.5127,48.5492,154.858,100.498,98.4301,-0.000550492,0.0831112,20.8632,478.716,0.190818,0.0,0.0
539,134.5,45.9848,48.5349,153.889,100.518,99.171,-0.000584253,0.0829125,20.864,478.706,0.12378,0.0,0.0
546,136.25,45.5166,48.7071,155.549,100.508,98.3287,-0.000625513,0.0827809,20.8647,478.706,0.201181,0.0,0.0
553,138,45.461,48.8721,157.746,100.498,98.3896,-0.000586717,0.0827406,20.865,478.736,0.1946,0.0,0.0
560,139.75,45.9674,48.211,154.866,100.506,98.4453,-0.000518469,0.0826628,20.8652,478.726,0.190077,0.0,0.0
567,141.5,45.2644,48.6968,152.481,100.496,98.5762,-0.000458128,0.082726,20.8653,478.706,0.177026,0.0,0.0
574,143.25,45.6309,47.9521,157.98,100.504,98.4296,-0.000433143,0.0827633,20.8644,478.716,0.191354,0.0,0.0
581,145,45.2535,48.1026,152.791,100.505,98.564,-0.000418321,0.0827609,20.8634,478.696,0.178948,0.0,0.0
588,146.75,45.6336,47.7755,155.269,100.493,98.5858,,0.0827596,,478.706,0.175827,0.0,0.0
595,148.5,44.9437,47.909,153.667,100.497,98.955,,0.0828679,,478.706,0.141909,0.0,0.0
602,150.25,44.5842,47.0998,160.26,100.512,98.8064,,,,478.726,0.157013,0.0,0.0
609,152,45.2222,47.2641,151.809,100.501,98.4215,,,,478.726,0.191885,0.0,0.0
616,153.75,44.6592,47.6696,158.584,100.491,98.6147,,,,478.706,0.172987,0.0,0.0
623,155.5,44.7371,47.5474,153.945,100.499,98.6583,,,,478.686,0.169607,0.0,0.0
629,157,44.6237,47.3113,156.15,100.5,98.6715,,,,478.696,0.168495,0.0,0.0