File: 02_Data/Polyurethane_Foam/Cone/Polyurethane_Foam_Cone_HF25Scan_210324_R2.csv
Names,Time,Stack TC,Smoke TC,Exh Press,Smoke Comp,Smoke Meas,CO Meter,CO2 Meter,O2 Meter,Sample Mass,Ext Coeff,Start Test,Flame Verif
Chan Gain,,500,500,1,1,1,1,1,1,1,1,1.0,1.0
Offset,,0,0,0.194005,0,0,0,0,0,0,0,0.0,0.0
Gain,,1,1,25.011,13.5067,16.616,1,1,1,1.00091,1.04608,1.0,1.0
Units,sec,C,C,Pa,%,%,%,%,%,g,/m,,
Baseline,,18.65,19.4235,169.027,100.366,99.7423,0.000350679,0.0655348,20.9078,-1.19188,0.0572315,,
10,2.25,16.2965,16.6954,167.267,99.9902,99.4128,0.00060917,0.0688789,20.904,483.56,0.0531363,0.0,0.0
20,4.75,16.3396,16.9288,170.561,99.9955,97.0534,0.000776811,0.0698896,20.8873,483.59,0.274037,0.0,0.0
30,7.25,17.5981,19.7703,155.888,100.026,93.5693,0.00139848,0.0857367,20.8053,483.26,0.612271,0.0,1.0
40,9.75,19.4222,22.6448,152.987,100.048,89.1719,0.0025848,0.123978,20.7098,483.05,1.05602,0.0,0.0
50,12.25,22.1514,25.5837,163.754,100.063,86.7379,0.0040298,0.17517,20.6113,482.809,1.31136,0.0,0.0
60,14.75,23.3151,28.3522,155.351,100.103,88.1476,0.00522693,0.225548,20.5489,482.589,1.16706,0.0,0.0
70,17.25,24.9356,31.2188,156.016,100.134,87.6978,0.00648439,0.269051,20.5044,482.279,1.21691,0.0,0.0
80,19.75,26.5048,32.7337,152.332,100.153,84.2253,0.00809547,0.308534,20.4495,481.959,1.58934,0.0,0.0
90,22.25,28.2988,35.6669,152.12,100.2,82.2386,0.00950057,0.346407,20.403,481.668,1.81272,0.0,0.0
100,24.75,29.9189,38.1688,149.816,100.226,83.9231,0.0103197,0.380546,20.3731,481.418,1.62904,0.0,0.0
110,27.25,31.151,40.0201,147.321,100.266,87.4296,0.0102848,0.408636,20.3349,481.178,1.25706,0.0,0.0
120,29.75,33.5168,43.311,155.655,100.286,91.5455,0.00950359,0.435824,20.2996,480.838,0.836743,0.0,0.0
130,32.25,35.0613,46.3816,157.494,100.326,92.3006,0.00858078,0.461871,20.2574,480.527,0.765067,0.0,0.0
140,34.75,38.5844,51.0907,142.166,100.352,93.798,0.00787426,0.498107,20.1689,480.157,0.619733,0.0,0.0
150,37.25,41.9252,56.4526,142.139,100.363,96.0093,0.00732484,0.543596,20.0724,479.787,0.406964,0.0,0.0
160,39.75,45.1092,60.6867,135.564,100.404,95.7274,0.0068091,0.586008,20.0289,479.486,0.437681,0.0,0.0
170,42.25,47.0751,63.7871,143.408,100.428,95.701,0.00638084,0.616307,20.0087,479.136,0.442355,0.0,0.0
180,44.75,49.1739,66.9489,142.218,100.455,98.529,0.00585684,0.639646,19.9896,478.806,0.177613,0.0,0.0
190,47.25,51.2547,69.9797,142.226,100.483,98.6842,0.00557235,0.659731,19.975,478.506,0.165734,0.0,0.0
200,49.75,53.0825,72.0518,136.791,100.517,97.059,0.00544675,0.674692,19.9678,478.145,0.321234,0.0,0.0
210,52.25,54.7119,73.9799,141.785,100.543,99.283,0.00538342,0.684479,19.9816,477.795,0.115713,0.0,0.0
220,54.75,54.9841,74.7978,144.928,100.586,96.5798,0.00534904,0.682261,20.009,477.595,0.372969,0.0,0.0
230,57.25,55.9012,75.0634,139.512,100.6,95.915,0.00548018,0.676301,20.0252,477.204,0.43759,0.0,0.0
240,59.75,56.1139,74.9263,141.964,100.637,96.4231,0.00562393,0.66765,20.0474,476.974,0.392492,0.0,0.0
250,62.25,56.1164,75.0195,150.074,100.667,96.7436,0.0056041,0.656431,20.0648,476.634,0.364751,0.0,0.0
260,64.75,56.171,74.6104,140.875,100.686,97.1518,0.00555761,0.647446,20.0757,476.274,0.32788,0.0,0.0
270,67.25,55.2499,73.2018,148.939,100.706,97.887,0.00529327,0.63552,20.131,476.103,0.260498,0.0,0.0
280,69.75,53.9512,70.251,145.225,100.721,97.3901,0.00492843,0.599088,20.2449,475.953,0.308589,0.0,0.0
290,72.25,52.6106,65.9584,148.035,100.721,98.2623,0.00459826,0.554081,20.3517,475.783,0.226741,0.0,0.0
300,74.75,50.4587,64.0677,155.676,100.725,97.4555,0.00425987,0.50332,20.4473,475.703,0.302766,0.0,0.0
310,77.25,47.6816,59.7983,162.939,100.753,97.885,0.00393161,0.450548,20.517,475.743,0.265005,0.0,0.0
320,79.75,45.62,55.971,160.366,100.752,100.56,0.00318123,0.397887,20.6202,475.743,0.0174712,0.0,0.0
330,82.25,42.6688,51.6054,161.01,100.779,100.637,0.00262449,0.333621,20.7262,475.743,0.0129096,0.0,0.0
340,84.75,39.7727,47.5444,166.811,100.783,100.436,0.00221453,0.276518,20.7803,475.733,0.0316209,0.0,0.0
350,87.25,38.1868,43.5877,163.578,100.801,100.376,0.00166876,0.22999,20.8174,475.603,0.0388237,0.0,0.0
360,89.75,36.7253,41.2863,169.71,100.808,100.404,0.001229,0.196956,20.8427,475.723,0.0367909,0.0,0.0
370,92.25,34.8038,38.5584,164.191,100.821,100.407,0.00116941,0.169407,20.8551,475.713,0.0377605,0.0,0.0
380,94.75,33.5294,36.9074,163.482,100.821,100.536,0.00118967,0.149428,20.8624,475.713,0.0259505,0.0,0.0
390,97.25,32.3245,34.9715,162.79,100.827,100.492,0.00108934,0.134436,20.8668,475.703,0.0305787,0.0,0.0
400,99.75,31.5064,33.5276,162.052,100.848,100.472,0.000916046,0.125084,20.8701,475.703,0.0342978,0.0,0.0
410,102.25,30.5886,32.4599,161.504,100.874,100.549,0.000697866,0.11652,20.8736,475.703,0.0296312,0.0,0.0
420,104.75,29.8519,31.2965,169.255,100.885,100.755,0.00048938,0.110073,20.8801,475.713,0.0118369,0.0,0.0
430,107.25,29.0366,29.9136,162.906,100.884,100.622,0.000396759,0.104031,20.8848,475.693,0.0239073,0.0,0.0
440,109.75,28.3254,28.8523,166.988,100.915,100.52,0.0002783,0.0985354,20.8901,475.683,0.0359346,0.0,0.0
450,112.25,27.6823,28.6251,165.165,100.908,100.489,0.000310022,0.0929761,20.895,475.703,0.0381211,0.0,0.0
460,114.75,26.8366,27.4048,164.334,100.93,100.601,0.000381765,0.0883305,20.8997,475.693,0.0299191,0.0,0.0
470,117.25,26.0476,27.1169,163.548,100.929,100.561,0.000374978,0.0838836,20.9029,475.723,0.0334608,0.0,0.0
480,119.75,26.0828,26.7255,163.945,100.964,100.546,0.000438104,0.0803843,20.9055,475.713,0.038071,0.0,0.0
490,122.25,25.7532,25.8649,164.611,100.975,100.553,0.000470019,0.0772389,20.9066,475.703,0.0383978,0.0,0.0
500,124.75,25.3222,24.7784,163.509,101.003,100.627,0.000512025,0.0747643,20.9065,475.713,0.0342739,0.0,0.0
510,127.25,25.7547,24.9408,168.874,101.017,100.563,0.000592968,0.07299,20.9062,475.683,0.0412917,0.0,0.0
520,129.75,24.5432,24.8967,163.048,101.056,100.714,0.000531297,0.0714016,20.9062,475.673,0.0311619,0.0,0.0
530,132.25,24.8227,24.2711,166.079,101.07,100.476,0.000450215,0.0701989,20.9075,475.693,0.0540825,0.0,0.0
540,134.75,23.9455,24.1677,164.07,101.099,100.572,0.000485761,0.0692266,20.908,475.713,0.0479994,0.0,0.0
550,137.25,23.7403,23.9156,167.224,101.127,100.866,0.000427767,0.0685253,20.9081,475.713,0.0237022,0.0,0.0
560,139.75,23.629,23.9496,168.569,101.159,100.795,0.000360015,0.0679332,20.9082,475.713,0.0330423,0.0,0.0
570,142.25,23.8797,24.0626,164.193,101.182,100.648,0.000388839,0.0675199,20.9082,475.723,0.0486153,0.0,0.0
580,144.75,23.3169,23.6316,166.862,101.218,100.643,0.000389051,0.0671989,20.907,475.733,0.0522934,0.0,0.0
590,147.25,23.8574,22.8241,167.868,101.244,100.764,0.000313845,0.0669317,20.9063,475.733,0.0435945,0.0,0.0
600,149.75,23.6657,23.0122,163.193,101.275,100.777,0.000186096,0.0666526,20.9069,475.733,0.0452416,0.0,0.0
610,152.25,23.1056,23.1147,162.57,101.306,100.938,0.000208123,0.0663329,20.9077,475.713,0.0334543,0.0,0.0
620,154.75,23.4858,22.9835,167.988,101.327,100.869,0.000235066,0.066199,20.9089,475.713,0.0415476,0.0,0.0
630,157.25,22.9095,22.858,166.085,101.348,100.842,0.000246334,0.0660082,20.9087,475.713,0.0459045,0.0,0.0
640,159.75,22.635,23.0225,166.942,101.345,100.916,0.00022497,0.0658685,20.9077,475.693,0.0389839,0.0,0.0
650,162.25,23.1888,23.1873,165.46,101.374,100.926,9.33384e-05,0.0657186,20.9068,475.693,0.0405533,0.0,0.0
660,164.75,23.0344,22.8966,160.285,101.371,100.914,0.000101825,0.065632,20.9065,475.703,0.0414354,0.0,0.0
670,167.25,22.6942,22.5413,169.803,101.392,101.006,0.000236137,0.065416,20.9064,475.703,0.0349964,0.0,0.0
680,169.75,22.3644,23.3676,164.782,101.397,100.896,0.000276036,0.0653443,20.9064,475.693,0.0454832,0.0,0.0
690,172.25,23.2614,22.9118,164.45,101.413,100.948,0.000236128,0.0654759,20.9075,475.693,0.0421976,0.0,0.0
700,174.75,22.2775,22.6848,162.268,101.419,100.919,0.000321406,0.0656525,20.9082,475.733,0.0453483,0.0,0.0
710,177.25,22.5681,22.2516,164.209,101.439,100.856,0.000441159,0.0658544,20.9084,475.713,0.0528938,0.0,0.0
720,179.75,22.3454,22.4741,165.315,101.434,100.928,0.000495669,0.0658502,20.9085,475.693,0.0458609,0.0,0.0
730,182.25,22.7062,22.9151,165.04,101.428,101.011,0.000442607,0.0655785,20.9085,475.713,0.0377802,0.0,0.0
740,184.75,22.1987,22.4743,167.736,101.423,101.017,0.000315711,0.0654727,20.9085,475.723,0.0368639,0.0,0.0
750,187.25,22.2051,22.4504,165.962,101.43,100.972,0.000129837,0.0653023,20.9085,475.683,0.0415138,0.0,0.0
760,189.75,22.0842,22.3583,171.197,101.424,100.883,6.91117e-05,0.0650803,20.9085,475.703,0.0490233,0.0,0.0
770,192.25,21.594,22.5951,166.362,101.421,100.9,0.000241504,0.0649221,20.9085,475.693,0.0472866,0.0,0.0
780,194.75,21.7851,22.1259,163.901,101.424,100.869,0.000378968,0.0648363,20.9083,475.683,0.0503605,0.0,0.0
790,197.25,22.1852,22.1262,162.666,101.42,100.973,0.000338286,0.0647448,20.908,475.693,0.040611,0.0,0.0
800,199.75,21.6197,22.0227,168.294,101.418,100.886,0.00025905,0.0646413,20.9079,475.693,0.0482247,0.0,0.0
810,202.25,22.1587,21.7194,160.908,101.384,101.033,0.000271776,0.0645953,20.9079,475.683,0.0318465,0.0,0.0
820,204.75,21.1138,21.7713,168.638,101.393,100.875,0.000378959,0.0647459,20.9079,475.703,0.0469634,0.0,0.0
830,207.25,21.2679,21.8695,165.261,101.402,100.951,0.000445767,0.0647984,20.9079,475.703,0.0409051,0.0,0.0
840,209.75,21.5362,21.9437,165.238,101.395,100.953,0.000444601,0.0647881,20.9079,475.703,0.0400959,0.0,0.0
850,212.25,21.014,21.3141,166.138,101.398,100.908,0.000333169,0.0648149,20.9079,475.713,0.0444513,0.0,0.0
860,214.75,20.9807,20.7153,160.831,101.407,100.818,,0.0648891,,475.703,0.0534452,0.0,0.0
870,217.25,21.3118,21.4316,169.816,101.399,100.906,,0.0647884,,475.673,0.0447104,0.0,0.0
880,219.75,20.7436,21.6955,167.614,101.391,100.831,,,,475.693,0.0507912,0.0,0.0
890,222.25,20.8919,21.4027,166.155,101.406,100.853,,,,475.673,0.0501418,0.0,0.0
900,224.75,21.0188,21.0521,163.549,101.4,100.868,,,,475.683,0.048327,0.0,0.0
903,225.5,20.8372,21.4329,164.611,101.406,100.886,,,,475.663,0.047143,0.0,0.0