File: 01_Data/Rebond_Foam_Carpet_Pad/MCC/Rebond_Foam_Carpet_Pad_MCC_30K_min_211101_R1.txt
Sample ID:	C:\MCC\MCC Cal\Test\Rebond_Foam_Carpet_Pad_MCC_30K_min_211101_R1.txt
Sample Weight (mg):	4.62
Heating Rate (C/s):	0.5
Combustor Temp (C):	900
N2 Flow Rate (cc/min):	80
O2 Flow Rate (cc/min):	20
Calibration File:	C:\MCC\MCC Cal\Coeff1 JN10440_30_210304.txt.txt
T Correction Coefficients:	0	1.024463	0
Time Shift (s):	14
*
Time (s)	Temperature (C)	N2 flow rate (cc/min)	O2 flow rate (cc/min)	Flow Rate (cc/min)	Oxygen (%)	HRR (W/g)	Heating rate (C/s)
0.000	107.080	80.000	19.996	102.958	20.401	0.202	0.001
8.000	107.100	80.002	19.994	102.957	20.400	0.263	-0.005
16.000	107.037	80.001	19.996	102.980	20.399	0.311	0.003
24.000	107.142	80.002	19.996	103.014	20.392	0.822	0.019
32.000	107.437	80.000	19.995	103.121	20.378	1.820	0.046
40.001	108.195	80.002	19.995	103.148	20.371	2.278	0.100
48.000	109.317	80.002	19.994	103.168	20.369	2.412	0.171
56.000	110.838	80.002	19.994	103.185	20.361	2.992	0.208
64.000	112.725	80.003	19.994	103.197	20.362	2.914	0.295
72.000	114.886	80.005	19.993	103.209	20.359	3.100	0.290
80.000	117.381	80.002	19.995	103.232	20.354	3.501	0.309
88.000	120.274	80.002	19.995	103.234	20.352	3.592	0.392
96.000	123.301	80.002	19.994	103.244	20.355	3.439	0.368
104.000	126.601	80.002	19.994	103.245	20.348	3.866	0.431
112.000	130.065	80.000	19.993	103.258	20.348	3.902	0.456
120.001	133.674	80.002	19.995	103.233	20.348	3.869	0.438
128.000	137.505	80.002	19.995	103.232	20.347	3.991	0.492
136.000	141.364	80.001	19.996	103.231	20.347	3.994	0.486
144.000	145.301	80.004	19.994	103.201	20.348	3.891	0.518
152.000	149.161	80.004	19.994	103.190	20.345	4.099	0.517
160.000	152.988	80.002	19.994	103.198	20.344	4.197	0.465
168.000	156.782	80.000	19.994	103.191	20.341	4.373	0.466
176.000	160.554	80.002	19.995	103.191	20.335	4.802	0.467
184.000	164.395	80.001	19.995	103.207	20.337	4.688	0.506
192.000	168.243	80.001	19.995	103.215	20.340	4.435	0.480
200.000	172.097	80.003	19.995	103.206	20.341	4.387	0.469
208.000	176.079	80.003	19.995	103.195	20.334	4.872	0.500
216.000	180.079	80.002	19.997	103.200	20.323	5.664	0.556
224.000	184.042	80.005	19.994	103.176	20.314	6.290	0.505
232.000	188.045	80.003	19.994	103.184	20.304	6.970	0.494
240.000	192.068	80.002	19.995	103.186	20.294	7.641	0.499
248.000	196.038	80.001	19.994	103.173	20.281	8.537	0.506
256.000	200.036	80.001	19.994	103.190	20.273	9.114	0.543
264.000	204.063	80.001	19.995	103.172	20.265	9.713	0.512
272.000	208.216	80.001	19.995	103.180	20.251	10.679	0.533
280.000	212.352	80.004	19.996	103.170	20.237	11.629	0.534
288.000	216.446	80.003	19.996	103.165	20.220	12.809	0.525
296.000	220.557	80.001	19.996	103.155	20.203	13.969	0.491
304.000	224.629	80.003	19.995	103.173	20.185	15.226	0.502
312.000	228.683	80.003	19.995	103.172	20.162	16.827	0.538
320.000	232.702	80.002	19.994	103.167	20.141	18.296	0.498
328.000	236.637	80.002	19.995	103.153	20.114	20.231	0.469
336.000	240.446	80.002	19.994	103.154	20.086	22.136	0.476
344.000	244.215	80.001	19.994	103.182	20.054	24.416	0.473
352.000	247.989	80.001	19.995	103.184	20.016	27.067	0.431
360.000	251.883	80.003	19.996	103.185	19.977	29.778	0.476
368.001	255.682	80.003	19.995	103.193	19.931	32.985	0.457
376.000	259.597	80.002	19.995	103.216	19.878	36.678	0.469
384.000	263.481	80.002	19.996	103.276	19.823	40.501	0.503
392.000	267.440	80.005	19.996	103.235	19.760	44.881	0.552
400.000	271.419	80.001	19.995	103.239	19.697	49.298	0.490
408.000	275.386	80.002	19.995	103.251	19.665	51.559	0.502
416.000	279.349	80.002	19.994	103.223	19.687	49.965	0.502
424.000	283.413	80.001	19.995	103.231	19.777	43.686	0.519
432.000	287.354	80.000	19.995	103.234	19.845	38.948	0.468
440.000	291.407	80.005	19.994	103.222	19.899	35.173	0.511
448.000	295.408	80.002	19.996	103.209	19.940	32.304	0.527
456.000	299.506	80.003	19.995	103.217	19.986	29.126	0.523
464.000	303.632	80.004	19.995	103.193	20.021	26.690	0.514
472.000	307.793	80.004	19.995	103.185	20.039	25.429	0.523
480.000	312.005	80.002	19.997	103.187	20.052	24.526	0.525
488.000	316.127	80.002	19.995	103.173	20.051	24.597	0.492
496.000	320.316	80.002	19.994	103.169	20.051	24.576	0.477
504.000	324.470	80.001	19.994	103.156	20.053	24.479	0.533
512.000	328.578	79.999	19.994	103.175	20.054	24.385	0.525
520.000	332.674	80.004	19.994	103.176	20.056	24.222	0.525
528.000	336.762	80.004	19.994	103.156	20.057	24.169	0.529
536.000	340.787	80.002	19.995	103.155	20.054	24.404	0.508
544.000	344.767	80.003	19.995	103.156	20.053	24.449	0.504
552.000	348.723	80.003	19.995	103.173	20.039	25.431	0.529
560.000	352.332	80.001	19.995	103.149	20.014	27.130	0.097
568.000	356.729	80.000	19.996	103.193	19.975	29.850	0.460
576.000	360.791	80.001	19.995	103.151	19.920	33.706	0.532
584.000	364.860	80.001	19.994	103.165	19.835	39.648	0.518
592.000	368.941	80.002	19.995	103.161	19.718	47.817	0.510
600.000	373.119	80.005	19.994	103.186	19.568	58.270	0.552
608.000	377.269	80.004	19.994	103.187	19.388	70.815	0.541
616.000	381.385	80.003	19.994	103.189	19.174	85.740	0.495
624.000	385.486	80.005	19.994	103.191	18.937	102.233	0.513
632.000	389.589	80.004	19.994	103.186	18.685	119.735	0.491
640.000	393.632	80.001	19.994	103.181	18.446	136.373	0.513
648.000	397.681	80.000	19.995	103.144	18.266	148.847	0.497
656.000	401.641	80.002	19.996	103.111	18.172	155.328	0.486
664.000	405.574	80.000	19.996	103.101	18.172	155.329	0.463
672.000	409.504	79.999	19.994	103.049	18.292	146.945	0.498
680.000	413.397	80.004	19.994	103.051	18.520	131.109	0.484
688.000	417.318	80.002	19.995	103.087	18.807	111.150	0.481
696.000	421.314	80.002	19.995	103.084	19.091	91.383	0.484
704.000	425.414	80.005	19.993	103.089	19.346	73.644	0.516
712.000	429.647	80.002	19.994	103.081	19.556	59.035	0.557
720.000	433.795	80.003	19.995	103.078	19.731	46.847	0.505
728.000	438.024	80.002	19.995	103.079	19.865	37.548	0.523
736.000	442.158	80.003	19.995	103.086	19.959	30.954	0.538
744.000	446.232	80.001	19.995	103.085	20.031	25.930	0.525
752.000	450.287	79.999	19.997	103.075	20.082	22.441	0.476
760.000	454.348	80.005	19.995	103.075	20.102	21.034	0.524
768.000	458.395	80.003	19.995	103.078	20.123	19.539	0.500
776.000	462.382	80.002	19.994	103.071	20.130	19.051	0.513
784.000	466.387	80.005	19.993	103.054	20.135	18.713	0.505
792.000	470.398	80.004	19.994	103.054	20.138	18.486	0.499
800.000	474.475	80.003	19.995	103.069	20.147	17.882	0.513
808.000	478.494	80.001	19.994	103.066	20.168	16.396	0.509
816.000	482.541	80.002	19.995	103.070	20.198	14.336	0.471
824.000	486.519	80.002	19.995	103.073	20.227	12.298	0.472
832.000	490.657	80.000	19.994	103.072	20.259	10.119	0.525
840.000	494.725	80.003	19.995	103.076	20.279	8.726	0.501
848.000	498.723	80.001	19.995	103.074	20.298	7.341	0.506
856.000	502.749	80.003	19.994	103.078	20.311	6.475	0.514
864.000	506.792	80.005	19.994	103.075	20.317	6.055	0.496
872.000	510.898	80.003	19.994	103.069	20.316	6.089	0.518
880.000	514.995	80.001	19.994	103.078	20.323	5.649	0.516
888.000	519.021	80.000	19.994	103.082	20.318	5.966	0.513
896.000	523.200	80.003	19.994	103.100	20.324	5.587	0.530
904.000	527.550	80.001	19.995	103.093	20.321	5.742	0.566
912.000	531.979	80.002	19.995	103.075	20.320	5.839	0.572
920.000	536.532	80.002	19.995	103.085	20.324	5.552	0.576
928.000	541.009	80.001	19.996	103.081	20.326	5.447	0.563
936.000	545.455	80.000	19.996	103.085	20.326	5.400	0.548
944.000	549.910	80.005	19.994	103.079	20.330	5.120	0.569
952.000	554.275	80.001	19.995	103.073	20.335	4.781	0.550
960.000	558.563	80.002	19.995	103.076	20.338	4.593	0.524
968.000	562.831	80.002	19.995	103.066	20.339	4.504	0.506
976.000	566.995	80.002	19.994	103.075	20.347	3.959	0.514
984.000	571.144	80.001	19.995	103.074	20.345	4.072	0.518
992.000	575.361	80.003	19.996	103.071	20.344	4.188	0.496
1000.000	579.391	80.002	19.995	103.073	20.348	3.904	0.491
1008.000	583.391	80.004	19.995	103.073	20.349	3.810	0.516
1016.000	587.407	80.003	19.996	103.075	20.352	3.588	0.492
1024.000	591.366	80.002	19.995	103.083	20.353	3.514	0.475
1032.001	595.329	80.001	19.996	103.072	20.354	3.477	0.469
1040.000	599.263	80.002	19.995	103.076	20.357	3.292	0.492
1048.000	603.148	80.001	19.994	103.074	20.357	3.245	0.473
1056.001	607.107	80.003	19.995	103.074	20.356	3.334	0.473
1064.000	611.032	80.002	19.995	103.074	20.357	3.237	0.498
1072.001	615.025	80.002	19.994	103.083	20.359	3.158	0.515
1080.000	619.031	80.005	19.995	103.076	20.355	3.437	0.504
1088.000	623.118	80.001	19.995	103.076	20.359	3.126	0.510
1096.001	627.180	80.003	19.994	103.074	20.355	3.384	0.510
1104.000	631.213	80.004	19.995	103.072	20.359	3.139	0.484
1112.000	635.334	79.998	19.997	103.071	20.357	3.250	0.525
1120.000	639.351	80.001	19.997	103.076	20.353	3.512	0.500
1128.001	643.377	80.002	19.994	103.072	20.358	3.231	0.515
1136.000	647.406	80.001	19.994	103.074	20.354	3.460	0.500
1144.000	651.365	79.999	19.994	103.075	20.359	3.105	0.492
1152.000	655.373	80.002	19.994	103.080	20.354	3.504	0.517
1160.000	659.318	80.003	19.994	103.072	20.354	3.510	0.519
1168.001	663.270	80.003	19.994	103.068	20.358	3.183	0.525
1176.000	667.186	80.003	19.994	103.067	20.357	3.265	0.506
1184.000	671.121	80.005	19.995	103.060	20.354	3.464	0.466
1192.000	675.189	80.003	19.995	103.051	20.354	3.477	0.531
1200.000	679.174	80.001	19.995	103.053	20.355	3.391	0.495
1208.001	683.158	80.001	19.996	103.057	20.358	3.219	0.498
1216.000	687.108	80.001	19.994	103.061	20.356	3.355	0.493
1224.001	691.148	80.001	19.994	103.060	20.354	3.442	0.494
1232.000	695.324	80.003	19.995	103.067	20.349	3.857	0.539
1240.000	699.593	80.003	19.994	103.039	20.355	3.391	0.516
1248.000	703.950	80.005	19.994	103.041	20.352	3.581	0.576
1256.000	708.184	80.005	19.993	103.066	20.352	3.622	0.534
1264.000	712.406	80.003	19.994	103.048	20.355	3.426	0.504
1272.001	716.643	80.001	19.995	103.049	20.357	3.272	0.503
1280.000	720.801	80.000	19.995	103.058	20.354	3.444	0.514
1288.000	724.772	80.002	19.995	103.046	20.356	3.369	0.492
1296.000	728.661	80.001	19.995	103.051	20.352	3.645	0.479
1304.000	732.504	80.001	19.995	103.057	20.348	3.917	0.484
1312.001	736.308	80.005	19.995	103.058	20.350	3.727	0.478
1320.000	740.296	80.002	19.994	103.049	20.349	3.803	0.527
1325.500	743.220	80.002	19.995	103.067	20.347	3.935	0.555