File: 01_Data/Coffee_Machine/STA/N2/10K_min/Coffee_Machine_STA_N2_10KData_220201_R1.csv
##Temp./Â°C,Time/min,Mass loss(subtr.2)/mg,DSC(subtr.2)/(mW/mg),Sensit./(uV/mW)
49.342,10.00917,0.02041,-0.01474056,1.07447
52.042,11.22898,0.02073038,0.12798,1.07427
54.742,11.63495,0.0219287,0.20484,1.07406
57.442,11.97513,0.02020091,0.24591,1.07384
60.142,12.28969,0.02243248,0.27457,1.07359
62.842,12.5914,0.02344827,0.29172,1.07333
65.542,12.88636,0.02287116,0.29824,1.07305
68.242,13.1776,0.02349576,0.30593,1.07276
70.942,13.466,0.02242155,0.30811,1.07245
73.642,13.75126,0.02215722,0.3095,1.07212
76.342,14.03408,0.02346085,0.31423,1.07177
79.042,14.31431,0.02222104,0.32074,1.07141
81.742,14.59206,0.0234792,0.32302,1.07103
84.442,14.86674,0.02347994,0.32834,1.07063
87.142,15.1394,0.02346897,0.3326,1.07022
89.842,15.40979,0.02348126,0.3359,1.06979
92.542,15.67919,0.0231399,0.33921,1.06934
95.242,15.9476,0.02467844,0.34021,1.06888
97.942,16.2147,0.02324674,0.34535,1.0684
100.642,16.4821,0.02352914,0.3511,1.0679
103.342,16.74715,0.02314573,0.3559,1.06739
106.042,17.01195,0.02210685,0.35676,1.06686
108.742,17.2762,0.02479002,0.36265,1.06631
111.442,17.54068,0.02350758,0.36604,1.06575
114.142,17.80317,0.02344941,0.37219,1.06517
116.842,18.06654,0.02347829,0.37689,1.06457
119.542,18.32917,0.02281961,0.37833,1.06396
122.242,18.59202,0.02215999,0.38398,1.06333
124.942,18.85405,0.02083998,0.39304,1.06268
127.642,19.1159,0.02215125,0.3995,1.06202
130.342,19.3773,0.02215999,0.4091,1.06134
133.042,19.638,0.02221737,0.41749,1.06065
135.742,19.89935,0.02086134,0.42896,1.05994
138.442,20.1613,0.02056833,0.44291,1.05921
141.142,20.42323,0.02051001,0.46214,1.05847
143.842,20.68458,0.02060413,0.49184,1.05771
146.542,20.94559,0.02083998,0.5274,1.05694
149.242,21.20635,0.02084384,0.57864,1.05615
151.942,21.4675,0.02182627,0.65354,1.05534
154.642,21.7282,0.02120338,0.76555,1.05452
157.342,21.9893,0.02117006,0.92649,1.05368
160.042,22.25074,0.02117046,1.13437,1.05283
162.742,22.51318,0.0215,1.36647,1.05196
165.442,22.77564,0.02156136,1.52094,1.05108
168.142,23.0372,0.02117039,1.27729,1.05018
170.842,23.2946,0.01985,0.72901,1.04926
173.542,23.54946,0.02018989,0.54081,1.04833
176.242,23.80549,0.01886913,0.4997,1.04738
178.942,24.06167,0.01985016,0.49081,1.04642
181.642,24.31926,0.01986,0.48682,1.04544
184.342,24.57638,0.01849082,0.48604,1.04445
187.042,24.8338,0.01985643,0.48614,1.04344
189.742,25.0918,0.0192,0.48923,1.04242
192.442,25.34921,0.01951909,0.49039,1.04138
195.142,25.60609,0.01956249,0.49281,1.04033
197.842,25.86306,0.01865078,0.49537,1.03926
200.542,26.1196,0.01927362,0.49491,1.03818
203.242,26.3765,0.01865002,0.49936,1.03708
205.942,26.63325,0.01962982,0.49936,1.03597
208.642,26.89105,0.01831995,0.50053,1.03484
211.342,27.14882,0.01964042,0.49853,1.0337
214.042,27.4064,0.01762088,0.501,1.03254
216.742,27.6638,0.01766493,0.5038,1.03137
219.442,27.92117,0.01768004,0.50882,1.03019
222.142,28.17898,0.01732197,0.50888,1.02899
224.842,28.43664,0.01799003,0.51125,1.02777
227.542,28.6943,0.01667,0.51471,1.02654
230.242,28.95161,0.01534368,0.51683,1.0253
232.942,29.20897,0.01601,0.51945,1.02404
235.642,29.46667,0.01536007,0.52018,1.02277
238.342,29.72445,0.01634673,0.52162,1.02149
241.042,29.98181,0.01668,0.52459,1.02019
243.742,30.2394,0.01635001,0.5253,1.01888
246.442,30.4967,0.01503006,0.52622,1.01755
249.142,30.75419,0.01666113,0.52696,1.01621
251.842,31.0127,0.01666997,0.53008,1.01486
254.542,31.2705,0.01531712,0.53147,1.01349
257.242,31.529,0.01404,0.53347,1.01211
259.942,31.7868,0.01535848,0.53451,1.01071
262.642,32.0452,0.01404,0.53427,1.0093
265.342,32.3033,0.01340818,0.53912,1.00788
268.042,32.5617,0.0133801,0.53964,1.00645
270.742,32.8202,0.0140598,0.53879,1.005
273.442,33.0788,0.01175097,0.54238,1.00354
276.142,33.33761,0.01306,0.54587,1.00207
278.842,33.59578,0.01305819,0.54762,1.00058
281.542,33.8534,0.01042,0.55052,0.99908
284.242,34.11077,0.01140886,0.5524,0.99757
286.942,34.36935,0.01074946,0.55594,0.99604
289.642,34.628,0.01008996,0.55194,0.9945
292.342,34.88615,0.01075,0.55602,0.99295
295.042,35.1447,0.009446335,0.55772,0.99139
297.742,35.40354,0.00943,0.55912,0.98982
300.442,35.66194,0.008762286,0.56085,0.98823
303.142,35.92044,0.008770001,0.56147,0.98663
305.842,36.1801,0.00746562,0.56064,0.98502
308.542,36.43864,0.00615,0.56478,0.98339
311.242,36.6973,0.006473244,0.56669,0.98176
313.942,36.95683,0.00516,0.56613,0.98011
316.642,37.2166,0.003090576,0.57184,0.97845
319.342,37.47602,0.003159039,0.57573,0.97678
322.042,37.73559,0.00382982,0.57442,0.97509
324.742,37.99583,0.002190085,0.5793,0.9734
327.442,38.25598,0.001210003,0.58107,0.97169
330.142,38.51631,-0.0001099651,0.57949,0.96997
332.842,38.77708,-0.002090766,0.58286,0.96824
335.542,39.03775,-0.0034,0.58451,0.9665
338.242,39.29835,-0.00472,0.58819,0.96475
340.942,39.55888,-0.00603997,0.59198,0.96299
343.642,39.81913,-0.00766999,0.59118,0.96121
346.342,40.07954,-0.009976646,0.59385,0.95943
349.042,40.33947,-0.01162008,0.59767,0.95763
351.742,40.5995,-0.01294,0.59974,0.95582
354.442,40.8597,-0.01623,0.60276,0.95401
357.142,41.12063,-0.01758443,0.60625,0.95218
359.842,41.38153,-0.02149508,0.60671,0.95034
362.542,41.64288,-0.02311408,0.61009,0.94849
365.242,41.9041,-0.02578102,0.6099,0.94663
367.942,42.165,-0.02872441,0.61803,0.94476
370.642,42.42707,-0.03332597,0.61782,0.94288
373.342,42.68855,-0.03525898,0.62212,0.94099
376.042,42.95028,-0.03859913,0.6228,0.93909
378.742,43.21125,-0.04386561,0.62709,0.93718
381.442,43.4743,-0.04882928,0.62927,0.93526
384.142,43.73748,-0.05222906,0.62844,0.93333
386.842,44.00059,-0.05813722,0.63193,0.93139
389.542,44.26386,-0.06503528,0.63625,0.92944
392.242,44.52708,-0.0710613,0.64252,0.92748
394.942,44.79053,-0.07765387,0.64816,0.92551
397.642,45.05365,-0.08608306,0.65889,0.92353
400.342,45.31708,-0.0967383,0.66592,0.92154
403.042,45.5809,-0.10663,0.68007,0.91955
405.742,45.84381,-0.11855,0.70028,0.91754
408.442,46.10727,-0.13043,0.71744,0.91553
411.142,46.37143,-0.147,0.73947,0.9135
413.842,46.63592,-0.16351,0.76616,0.91147
416.542,46.90031,-0.18495,0.79863,0.90943
419.242,47.16509,-0.20707,0.83629,0.90738
421.942,47.4294,-0.23464,0.8767,0.90532
424.642,47.6945,-0.27065,0.93517,0.90326
427.342,47.95909,-0.30919,0.99854,0.90118
430.042,48.2238,-0.35446,1.07892,0.8991
432.742,48.48915,-0.41384,1.16619,0.89701
435.442,48.75396,-0.48593,1.30055,0.89491
438.142,49.0192,-0.56951,1.42613,0.8928
440.842,49.28475,-0.67053,1.57241,0.89068
443.542,49.55125,-0.79635,1.74266,0.88856
446.242,49.81759,-0.94592,1.92164,0.88643
448.942,50.08461,-1.1294,2.11555,0.88429
451.642,50.35147,-1.34431,2.30319,0.88214
454.342,50.6192,-1.59498,2.43924,0.87999
457.042,50.8867,-1.88168,2.54113,0.87782
459.742,51.1532,-2.1922,2.56115,0.87566
462.442,51.41943,-2.51762,2.45038,0.87348
465.142,51.68507,-2.85032,2.25216,0.8713
467.842,51.9494,-3.15224,1.89325,0.86911
470.542,52.2127,-3.41499,1.43256,0.86691
473.242,52.47517,-3.61483,0.93431,0.8647
475.942,52.7367,-3.74539,0.52299,0.86249
478.642,52.9991,-3.82222,0.25307,0.86027
481.342,53.26316,-3.86058,0.10546,0.85805
484.042,53.52844,-3.8784,0.03529338,0.85582
486.742,53.79449,-3.88639,-0.002094135,0.85358
489.442,54.06114,-3.89035,-0.0212839,0.85134
492.142,54.3258,-3.89167,0.00416349,0.84909
494.842,54.5935,-3.89134,-0.02063185,0.84683
497.542,54.8623,-3.89163,-0.0212665,0.84457
500.242,55.1307,-3.89292,-0.02228517,0.8423
502.942,55.39886,-3.89298,-0.02593231,0.84003
505.642,55.66656,-3.89265,-0.02732372,0.83775
508.342,55.9347,-3.89298,-0.02764698,0.83546
511.042,56.20326,-3.89206,-0.04118177,0.83317
513.742,56.47056,-3.89166,-0.04697446,0.83087
516.442,56.73725,-3.89326,-0.04728612,0.82857
519.142,57.00434,-3.89467,-0.04739077,0.82626
521.842,57.27135,-3.89232,-0.04435529,0.82395
524.542,57.5384,-3.89363,-0.04734878,0.82163
527.242,57.80568,-3.89363,-0.04880797,0.8193
529.942,58.07356,-3.89423,-0.04889308,0.81698
532.642,58.3421,-3.89295,-0.05119516,0.81464
535.342,58.61079,-3.89331,-0.04879749,0.8123
538.042,58.8809,-3.89402,-0.05087348,0.80996
540.742,59.1505,-3.89232,-0.05385834,0.80761
543.442,59.4206,-3.89364,-0.052237,0.80526
546.142,59.69016,-3.89495,-0.04986111,0.8029
548.842,59.95949,-3.89363,-0.048769,0.80054
551.542,60.2286,-3.89363,-0.05151045,0.79817
554.242,60.49745,-3.89496,-0.055923,0.7958
556.942,60.7669,-3.89363,-0.05278331,0.79343
559.642,61.0362,-3.89462,-0.05324903,0.79105
562.342,61.30621,-3.89462,-0.05273712,0.78867
565.042,61.5754,-3.89462,-0.05501873,0.78628
567.742,61.8455,-3.89583,-0.05253135,0.78389
570.442,62.11566,-3.89593,-0.05491137,0.7815
573.142,62.38539,-3.89692,-0.05321973,0.7791
575.842,62.65449,-3.89463,-0.05196822,0.7767
578.542,62.9235,-3.89594,-0.05255579,0.7743
581.242,63.1925,-3.89529,-0.05296978,0.77189
583.942,63.46207,-3.89618,-0.05121504,0.76948
586.642,63.73183,-3.89657,-0.05186564,0.76706
589.342,64.00208,-3.89496,-0.04899772,0.76464
592.042,64.27202,-3.8966,-0.05046184,0.76222
594.742,64.54298,-3.89561,-0.05191911,0.7598
597.442,64.81373,-3.89459,-0.04684619,0.75737
600.142,65.08499,-3.89528,-0.05175521,0.75494
602.842,65.3566,-3.89629,-0.05385177,0.75251
605.542,65.62777,-3.89561,-0.05428816,0.75008
608.242,65.89952,-3.89495,-0.05225635,0.74764
610.942,66.17107,-3.89495,-0.05038644,0.7452
613.642,66.44198,-3.89561,-0.05199132,0.74276
616.342,66.71225,-3.89585,-0.05311855,0.74031
619.042,66.98258,-3.89525,-0.05192675,0.73786
621.742,67.2534,-3.89528,-0.05226033,0.73542
624.442,67.5237,-3.89494,-0.05337001,0.73296
627.142,67.79483,-3.89495,-0.04987634,0.73051
629.842,68.0658,-3.89426,-0.04343643,0.72806
632.542,68.33765,-3.89547,-0.04798794,0.7256
635.242,68.6098,-3.89594,-0.04337851,0.72314
637.942,68.8814,-3.89495,-0.04660731,0.72068
640.642,69.15361,-3.88847,-0.0483803,0.71822
643.342,69.42634,-3.8933,-0.04226536,0.71576
646.042,69.69906,-3.89944,-0.03625681,0.71329
648.742,69.97116,-3.89714,-0.0379178,0.71082
648.942,69.9913,-3.89714,-0.03688451,0.71064