File: 01_Data/Polyester_Microfiber_Sheet/Cone/Polyester_Microfiber_Sheet_Cone_HF75Scan_220523_R2.csv
Names,Time,Stack TC,Smoke TC,Exh Press,Smoke Comp,Smoke Meas,CO Meter,CO2 Meter,O2 Meter,Sample Mass,Ext Coeff,Start Test,Flame Verif
Chan Gain,,500,500,1,1,1,1,1,1,1,1,1.0,1.0
Offset,,0,0,0.135828,0,0,0,0,0,0,0,0.0,0.0
Gain,,1,1,25.011,13.8491,15.2622,1,1,1,1.00087,1.03118,1.0,1.0
Units,sec,C,C,Pa,%,%,%,%,%,g,/m,,
Baseline,,52.0171,53.9066,127.074,105.116,112.604,0.00021481,0.0445042,20.9954,-450.693,-0.622357,,
13,3,48.8819,50.6743,124.866,104.708,111.668,2.60588e-05,0.0455387,20.9977,608.65,-0.58214,0.0,0.0
26,6.25,48.8381,51.2568,128.068,104.608,112.248,-9.86662e-05,0.0454542,20.9972,608.58,-0.637648,0.0,0.0
39,9.5,49.0914,50.6664,127.747,104.501,112.308,-7.22389e-05,0.0452436,20.9986,608.73,-0.651665,0.0,0.0
52,12.75,49.1686,51.0128,124.249,104.423,111.154,5.98611e-05,0.0446855,20.997,608.72,-0.565034,0.0,0.0
65,16,49.173,51.0187,132.512,104.358,110.95,0.00104836,0.0458313,20.9889,608.7,-0.554094,0.0,0.0
78,19.25,49.5329,51.414,124.096,104.311,95.5451,0.00459477,0.132538,20.8981,608.52,0.793954,0.0,1.0
91,22.5,50.0776,51.3897,110.928,104.294,70.5964,0.0148089,0.388734,20.6379,608.089,3.52989,0.0,1.0
104,25.75,56.7761,54.9953,93.0518,104.276,58.4824,0.0309125,0.98237,19.9153,606.788,5.23113,0.0,0.0
117,29,66.2451,62.8482,102.103,104.285,68.8885,0.03536,1.25798,19.6469,605.958,3.75062,0.0,0.0
130,32.25,70.1083,66.9832,116.423,104.292,86.765,0.0256926,0.941017,20.0097,605.687,1.66428,0.0,0.0
143,35.5,69.617,68.5971,117.641,104.308,102.3,0.0146201,0.56373,20.3848,605.487,0.175818,0.0,0.0
156,38.75,68.2268,68.5032,123.41,104.324,107.383,0.00816396,0.364308,20.6369,605.347,-0.261452,0.0,0.0
169,42,66.8791,67.8409,124.164,104.358,109.518,0.00521772,0.259346,20.7561,605.237,-0.43653,0.0,0.0
182,45.25,65.8239,66.9274,123.096,104.402,110.012,0.00438644,0.206816,20.8135,604.887,-0.473408,0.0,0.0
195,48.5,64.2514,67.1815,121.23,104.443,111.825,0.00426263,0.181918,20.8388,604.917,-0.61773,0.0,0.0
208,51.75,63.3483,66.3621,123.494,104.52,112.873,0.00437091,0.162377,20.863,604.977,-0.695446,0.0,0.0
221,55,62.6694,65.4355,123.949,104.623,111.244,0.00479949,0.147289,20.8787,604.877,-0.555046,0.0,0.0
234,58.25,61.4942,65.2147,127.38,104.728,112.415,0.00536745,0.136653,20.8905,604.827,-0.640738,0.0,0.0
247,61.5,60.8598,64.6095,123.68,104.847,113.202,0.00597186,0.129045,20.8975,604.827,-0.693494,0.0,0.0
260,64.75,59.742,63.1596,121.405,104.983,113.492,0.00644101,0.124687,20.9014,604.837,-0.704953,0.0,0.0
273,68,59.928,62.6908,124.961,105.116,113.701,0.00687885,0.120128,20.9055,604.626,-0.710178,0.0,0.0
286,71.25,58.9765,62.7818,124.967,105.223,113.356,0.00731632,0.11589,20.9094,604.616,-0.673446,0.0,0.0
299,74.5,58.352,62.4036,122.691,105.33,113.458,0.00729499,0.111958,20.9133,604.476,-0.672359,0.0,0.0
312,77.75,57.6659,61.8311,123.437,105.395,113.684,0.00737634,0.106281,20.9197,604.356,-0.6848,0.0,0.0
325,81,57.3574,61.7151,129.613,105.425,113.169,0.00720039,0.10128,20.9254,604.526,-0.641216,0.0,0.0
338,84.25,56.8441,61.3847,123.559,105.365,113.686,0.00704375,0.0981356,20.9281,604.386,-0.687559,0.0,0.0
351,87.5,56.7454,60.2653,123.366,105.282,112.755,0.00682927,0.0954491,20.9321,604.336,-0.620252,0.0,0.0
364,90.75,55.8582,60.3648,124.306,105.154,113.049,0.0065661,0.0928104,20.9367,604.146,-0.654918,0.0,0.0
377,94,55.4878,59.371,123.398,105.007,112.966,0.00629276,0.0915073,20.9392,604.306,-0.660833,0.0,0.0
390,97.25,55.4928,59.0732,123.035,104.878,112.685,0.00606402,0.090198,20.941,604.046,-0.6495,0.0,0.0
403,100.5,55.1282,59.577,126.071,104.738,112.568,0.00595113,0.090356,20.9413,604.186,-0.652148,0.0,0.0
416,103.75,55.1342,59.0629,125.312,104.653,111.131,0.00597413,0.0886019,20.943,604.146,-0.543207,0.0,0.0
429,107,55.1238,59.0669,123.912,104.817,113.126,0.00563553,0.0861677,20.9473,604.106,-0.690088,0.0,0.0
442,110.25,54.858,58.7848,128.096,104.994,112.539,0.00527377,0.0828219,20.9518,603.916,-0.627734,0.0,0.0
455,113.5,54.8865,58.176,125.18,105.204,113.506,0.00509014,0.0792866,20.9552,603.966,-0.687042,0.0,0.0
468,116.75,54.4374,57.9038,123.485,105.372,113.251,0.00491973,0.0756034,20.9601,603.846,-0.652264,0.0,0.0
481,120,54.1825,58.4183,124.625,105.466,113.379,0.00494563,0.072311,20.964,603.966,-0.654474,0.0,0.0
494,123.25,54.074,57.8165,127.894,105.457,113.658,0.00476081,0.0685911,20.9688,603.625,-0.67743,0.0,0.0
507,126.5,53.5581,57.9999,121.954,105.398,113.591,0.00455237,0.066408,20.9715,603.756,-0.677203,0.0,0.0
520,129.75,54.4311,57.7337,126.856,105.297,113.136,0.00441334,0.0638605,20.9754,603.706,-0.649495,0.0,0.0
533,133,53.5859,57.343,124.063,105.119,113.003,0.00447651,0.0617509,20.977,603.656,-0.654172,0.0,0.0
546,136.25,53.4181,57.0398,121.62,105.045,112.174,0.00450713,0.0590595,20.9798,603.676,-0.593969,0.0,0.0
559,139.5,53.6129,57.2714,127.008,105.174,113.239,0.0042654,0.0570205,20.9815,603.726,-0.668291,0.0,0.0
572,142.75,53.5536,57.0792,126.86,105.332,113.191,0.00415013,0.055812,20.9825,603.525,-0.650875,0.0,0.0
585,146,53.3299,56.678,127.579,105.506,113.588,0.00424198,0.0547688,20.9842,603.535,-0.6677,0.0,0.0
598,149.25,53.0985,56.1661,125.548,105.659,113.007,0.00397408,0.053967,20.9849,603.595,-0.608111,0.0,0.0
611,152.5,53.1369,56.2977,127.689,105.825,113.426,0.00366448,0.0533641,20.9851,603.525,-0.627467,0.0,0.0
624,155.75,53.0122,56.5686,125.21,105.931,113.719,0.00355252,0.0526248,20.9865,603.385,-0.6417,0.0,0.0
637,159,52.8907,55.6953,128.356,105.934,113.492,0.00333276,0.0521952,20.9876,603.445,-0.62335,0.0,0.0
650,162.25,53.0005,56.0211,125.876,105.879,112.758,0.00320361,0.051393,20.9894,603.415,-0.569387,0.0,0.0
663,165.5,52.8261,55.7558,126.754,105.737,113.945,0.00312622,0.0506943,20.9909,603.415,-0.676232,0.0,0.0
676,168.75,52.5754,55.4208,128.178,105.454,111.9,0.00287711,0.0506563,20.9898,603.465,-0.536733,0.0,0.0
689,172,53.1266,55.8494,124.258,105.136,113.247,0.0026357,0.0504576,20.9888,603.285,-0.672159,0.0,0.0
702,175.25,52.4607,55.752,125.866,104.813,112.736,0.0025352,0.0500175,20.9884,603.355,-0.659191,0.0,0.0
715,178.5,52.8279,54.8549,124.873,104.493,112.832,0.00249179,0.0497114,20.9883,603.245,-0.694576,0.0,0.0
728,181.75,52.478,55.1168,127.493,104.299,111.853,0.00247596,0.0491169,20.9892,603.135,-0.632555,0.0,0.0
741,185,50.7686,53.7463,125.065,104.185,112.739,0.0024465,0.0482774,20.9917,603.235,-0.713778,0.0,0.0
754,188.25,50.4627,53.6013,125.119,104.138,112.787,0.00252335,0.0480889,20.9938,603.065,-0.721738,0.0,0.0
767,191.5,50.1342,53.3649,124.448,104.13,113.216,0.00240938,0.0479688,20.9949,603.195,-0.756773,0.0,0.0
780,194.75,50.6211,52.8729,124.061,104.174,111.279,0.002239,0.0476623,20.9952,603.095,-0.596811,0.0,0.0
793,198,50.4233,53.1244,126.576,104.238,112.157,0.00208839,0.047525,20.9953,602.985,-0.662285,0.0,0.0
806,201.25,50.4675,52.9745,128.047,104.295,112.794,0.00206577,0.0474424,20.9948,603.305,-0.708615,0.0,0.0
819,204.5,49.9976,52.6225,126.607,104.36,112.049,0.00211339,0.047619,20.9945,603.125,-0.642974,0.0,0.0
832,207.75,50.4485,52.788,126.16,104.466,112.675,0.00203695,0.0474026,20.9965,603.045,-0.684251,0.0,0.0
845,211,50.7444,53.1413,128.47,104.549,112.818,0.00190183,0.0473741,20.9976,603.065,-0.688516,0.0,0.0
858,214.25,50.3369,52.9005,128.136,104.608,111.422,0.00186135,0.0472759,20.9979,602.915,-0.570817,0.0,0.0
871,217.5,50.3144,52.8573,126.647,104.672,112.36,0.00175442,0.0471467,20.998,602.875,-0.641097,0.0,0.0
884,220.75,49.787,52.583,126.586,104.715,112.668,0.00167903,0.0470495,20.9983,602.955,-0.662124,0.0,0.0
897,224,49.5573,52.4991,128.256,104.736,112.661,0.00154408,0.0467785,20.9987,602.785,-0.659775,0.0,0.0
910,227.25,49.6282,52.6662,125.334,104.759,113.793,0.00133905,0.0468926,20.9971,602.895,-0.74826,0.0,0.0
923,230.5,49.8919,52.79,128.033,104.843,112.255,0.00128286,0.0468323,20.9968,602.745,-0.617915,0.0,0.0
936,233.75,49.7977,52.419,126.254,104.82,112.043,0.00136533,0.0467291,20.9963,602.985,-0.60279,0.0,0.0
949,237,49.7435,52.4894,126.459,104.826,112.791,0.00143906,0.0467465,20.9962,602.905,-0.662505,0.0,0.0
962,240.25,49.9165,52.0064,125.658,104.822,112.758,0.00143125,0.046951,20.9962,602.815,-0.660107,0.0,0.0
975,243.5,50.6253,52.7749,124.946,104.776,113.553,0.00114403,0.0467897,20.9962,602.675,-0.727639,0.0,0.0
988,246.75,49.9453,52.1687,123.706,104.701,112.129,0.00102002,0.0465003,20.9957,602.855,-0.619998,0.0,0.0
1001,250,50.1802,52.3944,125.758,104.655,112.983,0.00119035,0.0464332,20.9943,602.735,-0.692627,0.0,0.0
1014,253.25,49.6347,53.0809,128.374,104.591,111.662,0.00129643,0.046661,20.9961,602.805,-0.591769,0.0,0.0
1027,256.5,50.1472,52.0353,127.605,104.458,112.944,0.00106644,0.0465003,20.9973,602.665,-0.706533,0.0,0.0
1040,259.75,50.4034,52.4676,126.02,104.344,112.836,0.000893593,0.0463245,20.9976,602.755,-0.707725,0.0,0.0
1053,263,50.6168,52.6999,126.83,104.265,112.028,0.000917485,0.046257,20.9977,602.675,-0.649528,0.0,0.0
1066,266.25,50.6167,52.1052,127.311,104.174,112.336,0.00106401,0.0460345,20.996,602.715,-0.682276,0.0,0.0
1079,269.5,50.5452,52.3229,122.096,104.133,111.362,0.00123936,0.0459813,20.9955,602.635,-0.607111,0.0,0.0
1092,272.75,50.2194,52.6663,127.845,104.105,111.788,0.00141331,0.0460143,20.9971,602.635,-0.644046,0.0,0.0
1105,276,49.8935,52.6019,127.336,104.089,112.131,0.00138673,0.0461469,20.9969,602.565,-0.673174,0.0,0.0
1118,279.25,50.2871,52.8778,124.957,104.121,112.253,0.00093814,0.0461137,20.998,602.334,-0.680185,0.0,0.0
1131,282.5,50.2873,52.7985,130.803,104.185,111.182,0.000663825,0.0458324,20.9987,602.404,-0.58798,0.0,0.0
1144,285.75,49.6612,52.775,128.661,104.283,111.445,0.000868247,0.0458843,20.9981,602.434,-0.600818,0.0,0.0
1157,289,49.7791,51.8591,125.276,104.418,112.858,0.00112858,0.0459655,20.9971,602.234,-0.70307,0.0,0.0
1170,292.25,49.8707,51.878,128.313,104.613,112.812,,0.0459659,,602.274,-0.682512,0.0,0.0
1183,295.5,50.0289,52.1338,126.914,104.828,113.399,,,,602.114,-0.710864,0.0,0.0
1196,298.75,49.582,52.2634,123.423,105.049,113.03,,,,602.254,-0.662337,0.0,0.0
1205,301,49.462,51.9359,128.964,105.192,113.294,,,,602.214,-0.671228,0.0,0.0