File: 01_Data/Polyester_Microfiber_Sheet/Cone/Polyester_Microfiber_Sheet_Cone_HF50Scan_220512_R1.csv
Names,Time,Stack TC,Smoke TC,Exh Press,Smoke Comp,Smoke Meas,CO Meter,CO2 Meter,O2 Meter,Sample Mass,Ext Coeff,Start Test,Flame Verif
Chan Gain,,500,500,1,1,1,1,1,1,1,1,1.0,1.0
Offset,,0,0,0.135828,0,0,0,0,0,0,0,0.0,0.0
Gain,,1,1,25.011,13.8491,15.2622,1,1,1,1.00087,1.03118,1.0,1.0
Units,sec,C,C,Pa,%,%,%,%,%,g,/m,,
Baseline,,37.1656,38.4777,133.091,104.246,107.103,0.000633279,0.0491941,20.9909,-445.944,-0.244475,,
11,2.5,34.2266,35.7541,136.558,104.983,108.036,0.000283525,0.0510659,20.9924,619.9,-0.259304,0.0,0.0
22,5.25,33.9964,35.2502,132.641,104.93,107.848,0.000480243,0.0496341,20.9917,619.87,-0.248089,0.0,0.0
33,8,34.0385,36.1484,137.54,104.854,108.179,0.000593511,0.0487146,20.992,619.86,-0.282421,0.0,0.0
44,10.75,34.3104,35.6781,132.344,104.807,107.567,0.000632709,0.0481974,20.9927,619.88,-0.235186,0.0,0.0
55,13.5,34.8863,35.6687,129.133,104.764,107.098,0.000592876,0.0480645,20.9939,619.85,-0.199305,0.0,0.0
66,16.25,34.8352,36.0268,136.007,104.729,108.131,0.000586644,0.0475665,20.9943,619.86,-0.289131,0.0,0.0
77,19,34.6485,36.087,130.464,104.677,107.207,0.000615964,0.0470559,20.9939,619.87,-0.215989,0.0,0.0
88,21.75,35.0141,36.1695,133.007,104.629,107.649,0.000533308,0.0465678,20.9937,619.89,-0.257371,0.0,0.0
99,24.5,35.0329,36.2137,131.641,104.627,107.222,0.000480805,0.0462643,20.9936,619.87,-0.221632,0.0,0.0
110,27.25,35.2418,36.1698,132.929,104.628,108.114,0.000397256,0.0463036,20.9966,619.9,-0.296418,0.0,0.0
121,30,35.0354,36.2236,132.601,104.62,107.453,0.000425985,0.0464437,20.9979,619.88,-0.241646,0.0,0.0
132,32.75,34.9989,36.3347,137.174,104.608,106.566,0.000566916,0.0465368,20.9983,619.81,-0.167741,0.0,0.0
143,35.5,35.3014,36.4579,130.751,104.63,106.94,0.000646395,0.0469017,20.9982,619.83,-0.197571,0.0,0.0
154,38.25,34.9774,36.3535,135.793,104.666,105.26,0.000612274,0.0474937,20.9969,619.78,-0.0512338,0.0,0.0
165,41,35.5701,36.5489,134.191,104.694,106.549,0.000839953,0.0524318,20.9903,619.78,-0.158905,0.0,1.0
176,43.75,35.7554,36.8666,127.385,104.716,106.28,0.00154179,0.0787545,20.9456,619.77,-0.134122,0.0,1.0
187,46.5,35.1957,35.376,126.44,104.756,101.835,0.00311852,0.13573,20.8827,619.559,0.255815,0.0,0.0
198,49.25,36.0058,35.9652,120.095,104.793,93.1371,0.00674548,0.23123,20.7895,619.259,1.06657,0.0,0.0
209,52,38.9991,37.718,105.136,104.863,80.0775,0.0140461,0.399297,20.5689,618.849,2.43923,0.0,0.0
220,54.75,43.4216,41.0612,101.582,104.901,65.4022,0.0238747,0.716132,20.1821,618.038,4.27367,0.0,0.0
231,57.5,49.1524,45.5866,112.56,104.951,77.2913,0.0273721,0.860699,20.065,617.478,2.7671,0.0,0.0
242,60.25,52.6188,47.9783,118.825,104.988,77.9201,0.0248132,0.811648,20.1376,617.017,2.69698,0.0,0.0
253,63,53.6448,50.6237,119.595,105.052,85.2904,0.0191133,0.680271,20.32,616.757,1.88504,0.0,0.0
264,65.75,53.3513,52.0664,123.338,105.11,94.5936,0.0135378,0.532865,20.4911,616.557,0.953533,0.0,0.0
275,68.5,52.7076,51.7748,126.622,105.157,101.609,0.0089162,0.415134,20.6103,616.387,0.31047,0.0,0.0
286,71.25,52.3895,51.9007,127.793,105.204,104.444,0.0060445,0.324892,20.7013,616.276,0.0655408,0.0,0.0
297,74,52.1137,51.3316,129.751,105.246,106.952,0.00476896,0.262901,20.7636,616.206,-0.145439,0.0,0.0
308,76.75,50.5801,51.4694,128.353,105.291,107.288,0.00473175,0.213769,20.8206,616.136,-0.169952,0.0,0.0
319,79.5,50.0848,51.5229,128.088,105.322,108.457,0.00524622,0.177723,20.8574,616.096,-0.265331,0.0,0.0
330,82.25,49.3339,50.2019,127.598,105.335,108.137,0.00588977,0.151999,20.8823,616.056,-0.237516,0.0,0.0
341,85,48.5071,50.2199,131.487,105.305,108.881,0.0066236,0.13317,20.902,616.006,-0.3021,0.0,0.0
352,87.75,47.809,49.0417,131.843,105.296,108.493,0.0074839,0.120113,20.9151,615.966,-0.270536,0.0,0.0
363,90.5,46.5645,49.1547,129.723,105.251,108.981,0.00828909,0.112023,20.9228,615.946,-0.315065,0.0,0.0
374,93.25,46.1104,48.6565,127.168,105.207,108.583,0.00866093,0.105543,20.9276,615.856,-0.285728,0.0,0.0
385,96,45.2097,48.0667,133.734,105.124,108.548,0.00873511,0.09948,20.9319,615.726,-0.289982,0.0,0.0
396,98.75,44.607,47.3631,127.547,105.03,108.372,0.00873225,0.0942285,20.9365,615.766,-0.283336,0.0,0.0
407,101.5,44.2489,47.0105,129.496,104.957,108.839,0.00900541,0.0901008,20.9392,615.776,-0.328547,0.0,0.0
418,104.25,43.4304,46.4671,130.848,104.879,108.362,0.00952229,0.0871072,20.942,615.806,-0.295526,0.0,0.0
429,107,43.0611,46.179,131.113,104.756,108.38,0.00975813,0.084343,20.9454,615.716,-0.307653,0.0,0.0
440,109.75,42.9943,46.1549,132.07,104.674,107.564,0.00969741,0.0821018,20.9478,615.666,-0.246373,0.0,0.0
451,112.5,41.7281,45.1043,130.745,104.614,108.044,0.00951085,0.0802356,20.9493,615.646,-0.291816,0.0,0.0
462,115.25,42.1086,44.9603,129.695,104.572,108.255,0.00950549,0.0779549,20.9521,615.616,-0.31308,0.0,0.0
473,118,41.3887,44.8426,129.239,104.54,107.138,0.00957868,0.0763224,20.9543,615.626,-0.222045,0.0,0.0
484,120.75,40.9684,44.3113,132.836,104.506,108.318,0.00925291,0.0739469,20.9575,615.596,-0.324076,0.0,0.0
495,123.5,41.1439,44.2259,136.468,104.472,107.102,0.00902224,0.0712176,20.9605,615.526,-0.224873,0.0,0.0
506,126.25,41.1023,43.6883,132.165,104.456,107.408,0.00902094,0.0694104,20.9632,615.536,-0.252108,0.0,0.0
517,129,40.4732,44.0004,131.065,104.448,107.383,0.00876322,0.0682574,20.9645,615.496,-0.250724,0.0,0.0
528,131.75,40.2301,42.9285,128.771,104.449,107.936,0.0085112,0.0675431,20.9661,615.436,-0.297065,0.0,0.0
539,134.5,39.6151,43.2853,131.502,104.433,108.632,0.00835537,0.067146,20.9665,615.466,-0.356621,0.0,0.0
550,137.25,39.4881,42.6387,137.257,104.453,108.141,0.00814678,0.0668154,20.9667,615.406,-0.313857,0.0,0.0
561,140,39.538,42.6218,132.515,104.488,108.06,0.00795806,0.0665583,20.9667,615.326,-0.304073,0.0,0.0
572,142.75,37.0956,40.6905,131.351,104.519,108.516,0.00770946,0.0659092,20.9671,615.316,-0.339419,0.0,0.0
583,145.5,37.9713,41.2042,130.45,104.517,107.431,0.00741154,0.0650868,20.968,615.286,-0.2488,0.0,0.0
594,148.25,37.3425,40.5491,125.919,104.511,107.592,0.00726084,0.0650942,20.9692,615.326,-0.262792,0.0,0.0
605,151,37.0433,39.9728,132.676,104.509,107.706,0.00712935,0.064979,20.97,615.296,-0.272566,0.0,0.0
616,153.75,36.9097,40.1522,127.703,104.489,108.479,0.00665208,0.0640711,20.9714,615.256,-0.338987,0.0,0.0
627,156.5,36.8613,39.4999,131.191,104.486,107.737,0.00630184,0.0626433,20.973,615.206,-0.277199,0.0,0.0
638,159.25,37.0521,38.8848,132.477,104.453,108.417,0.00597127,0.061392,20.9749,615.186,-0.336889,0.0,0.0
649,162,36.8894,40.0234,131.235,104.45,107.351,0.0056369,0.0605254,20.9761,615.276,-0.24787,0.0,0.0
660,164.75,36.4634,39.9241,129.365,104.46,107.521,0.00547561,0.0600373,20.9765,615.246,-0.261268,0.0,0.0
671,167.5,37.3063,39.4993,132.158,104.492,107.63,0.00528535,0.0593597,20.9774,615.256,-0.267652,0.0,0.0
682,170.25,37.1071,39.6329,131.647,104.528,107.832,0.00511637,0.0586343,20.9785,615.206,-0.281473,0.0,0.0
693,173,36.5238,39.0342,131.756,104.555,107.904,0.00498231,0.0580074,20.98,615.196,-0.285186,0.0,0.0
704,175.75,36.7664,39.0402,132.535,104.593,107.545,0.00487823,0.0575747,20.9814,615.186,-0.251782,0.0,0.0
715,178.5,36.8549,38.8486,128.926,104.654,108.016,0.00470014,0.0572918,20.9819,615.196,-0.286039,0.0,0.0
726,181.25,36.6248,39.131,134.658,104.684,107.556,0.00464063,0.0570695,20.983,615.146,-0.244831,0.0,0.0
737,184,36.7649,39.1321,130.578,104.721,108.23,0.00438476,0.0565231,20.9839,615.075,-0.298081,0.0,0.0
748,186.75,36.7378,38.7382,132.173,104.754,108.525,0.00402295,0.0556459,20.9838,615.025,-0.31988,0.0,0.0
759,189.5,35.936,38.5189,131.954,104.807,107.337,0.0039459,0.0552585,20.9848,615.025,-0.215778,0.0,0.0
770,192.25,36.6376,39.0603,132.928,104.868,108.083,0.00382012,0.0550021,20.9851,615.005,-0.273077,0.0,0.0
781,195,36.1776,38.5821,133.234,104.938,108.744,0.00367891,0.0548391,20.9852,615.055,-0.322322,0.0,0.0
792,197.75,36.5177,38.0678,128.344,104.999,108.391,0.00358099,0.0546797,20.9852,614.975,-0.28759,0.0,0.0
803,200.5,36.4173,38.351,130.326,105.035,108.343,0.00345491,0.0543724,20.9852,614.945,-0.280528,0.0,0.0
814,203.25,35.7661,38.7449,130.255,105.089,108.969,0.00326582,0.0541274,20.9852,614.955,-0.32798,0.0,0.0
825,206,36.4941,38.6581,127.079,105.13,108.19,0.00331393,0.054156,20.9852,614.935,-0.259539,0.0,0.0
836,208.75,36.0106,38.4239,132.522,105.177,108.034,0.00359914,0.0539505,20.9864,614.905,-0.242412,0.0,0.0
847,211.5,36.145,37.839,138.215,105.214,108.435,0.00365418,0.0538714,20.9866,614.875,-0.272766,0.0,0.0
858,214.25,36.4322,38.7265,131.219,105.231,107.721,0.00336111,0.0539053,20.9866,614.865,-0.211514,0.0,0.0
869,217,36.5702,38.273,129.681,105.256,108.65,0.00317492,0.0538301,20.9865,614.845,-0.287138,0.0,0.0
880,219.75,36.5824,38.5443,125.347,105.293,108.508,0.00314446,0.0536276,20.9865,614.845,-0.272033,0.0,0.0
891,222.5,36.1209,38.049,131.098,105.32,108.405,0.00302115,0.0535219,20.9865,614.835,-0.2612,0.0,0.0
902,225.25,36.9102,38.8985,132.985,105.325,108.11,0.00288826,0.0533976,20.9865,614.835,-0.236091,0.0,0.0
913,228,36.3304,38.0037,131.635,105.34,108.633,0.00269428,0.0531617,20.9865,614.785,-0.27844,0.0,0.0
924,230.75,36.6442,38.3229,132.407,105.361,108.124,0.00250303,0.053151,20.9879,614.775,-0.234136,0.0,0.0
935,233.5,36.4106,38.1752,132.598,105.375,108.744,0.0024395,0.0530675,20.9885,614.785,-0.284656,0.0,0.0
946,236.25,36.4903,38.2319,131.545,105.369,108.989,0.00249739,0.0531234,20.9885,614.765,-0.305556,0.0,0.0
957,239,36.3696,38.2646,133.646,105.348,109.096,0.00262342,0.0530987,20.9885,614.755,-0.316217,0.0,0.0
968,241.75,35.8503,37.9256,133.394,105.337,110.094,0.00285564,0.0531782,20.9885,614.685,-0.399507,0.0,0.0
979,244.5,36.2096,37.9653,135.534,105.337,108.327,0.0028321,0.0531383,20.9898,614.705,-0.253217,0.0,0.0
990,247.25,36.0639,38.4057,131.241,105.319,109.088,0.00267292,0.053065,20.9905,614.675,-0.318032,0.0,0.0
1001,250,36.3022,38.2916,130.433,105.296,108.495,,0.0529971,,614.665,-0.270727,0.0,0.0
1012,252.75,36.4028,37.746,128.469,105.252,108.685,,,,614.645,-0.290333,0.0,0.0
1023,255.5,36.748,37.8949,130.837,105.23,108.782,,,,614.625,-0.300284,0.0,0.0
1034,258.25,36.2267,38.0275,130.208,105.194,108.978,,,,614.615,-0.319625,0.0,0.0
1042,260.25,36.555,37.4967,130.513,105.165,108.245,,,,614.625,-0.261077,0.0,0.0