File: 01_Data/Polyester_Microfiber_Sheet/Cone/Polyester_Microfiber_Sheet_Cone_HF25Scalar_220512_R3.csv
LABORATORY,FSRI
TEST IDENT,MicrofiberSheet_25_3
OPERATOR,Dow
MATERIAL,Microfiber Sheet
ORIENTATION,Horizontal
HEAT FLUX,25
SURF AREA,0.00884
C FACTOR,0.0412455
SPEC HOLDER DIFF,-566
SPECIMEN MASS,4.81
SCAN TIME,0.25
O2 DELAY TIME,11
CO DELAY TIME,11
CO2 DELAY TIME,8
FLOW FACTOR,1
SCAN COUNT,2158
TIME TO IGN,356.25
END OF TEST SCAN,1678
END OF TEST TIME,419.5
TEST STATUS,1
PRE TEST CMT,Dimensions: 102 x 102 x 1 mm; with frame and grid; with calcium silicate substrate; sample includes 5 layers of sheet
POST TEST CMT,Intermittent flashes of flames prior to ignition.