File: 01_Data/Polyester_Microfiber_Sheet/Cone/Polyester_Microfiber_Sheet_Cone_HF50Scan_220512_R3.csv
Names,Time,Stack TC,Smoke TC,Exh Press,Smoke Comp,Smoke Meas,CO Meter,CO2 Meter,O2 Meter,Sample Mass,Ext Coeff,Start Test,Flame Verif
Chan Gain,,500,500,1,1,1,1,1,1,1,1,1.0,1.0
Offset,,0,0,0.135828,0,0,0,0,0,0,0,0.0,0.0
Gain,,1,1,25.011,13.8491,15.2622,1,1,1,1.00087,1.03118,1.0,1.0
Units,sec,C,C,Pa,%,%,%,%,%,g,/m,,
Baseline,,40.2986,41.627,132.045,104.698,108.817,0.000443894,0.0432727,20.9986,-448.015,-0.348903,,
10,2.25,37.2829,39.1846,133.619,104.426,107.681,0.000764633,0.0436751,20.9963,586.13,-0.277626,0.0,0.0
20,4.75,37.081,39.0522,133.811,104.403,108.236,0.000780977,0.0439232,20.9983,586.14,-0.326194,0.0,0.0
30,7.25,37.2024,38.4858,128.233,104.389,108.415,0.000636839,0.043912,20.999,586.16,-0.342301,0.0,0.0
40,9.75,37.1207,38.3215,131.408,104.385,108.077,0.00026871,0.0442179,20.9983,586.21,-0.314411,0.0,0.0
50,12.25,36.7203,38.3251,132.625,104.376,107.844,4.91198e-05,0.0449405,20.9967,586.13,-0.295592,0.0,0.0
60,14.75,36.9137,38.1684,130.079,104.382,108.446,0.000183422,0.0455922,20.9955,586.14,-0.345488,0.0,0.0
70,17.25,36.8312,38.0438,133.334,104.385,108.678,0.000239524,0.0458166,20.9962,586.19,-0.364597,0.0,0.0
80,19.75,36.5224,38.0195,133.873,104.409,109.167,0.000287136,0.0458024,20.9968,586.08,-0.403121,0.0,0.0
90,22.25,36.8554,38.3971,135.469,104.396,108.67,0.000288868,0.0455532,20.997,586.17,-0.362911,0.0,0.0
100,24.75,37.1,38.0405,134.819,104.455,109.023,0.000271877,0.0453228,20.9971,586.12,-0.387199,0.0,0.0
110,27.25,37.7452,38.879,132.348,104.46,107.778,0.000284969,0.0451117,20.9964,586.12,-0.282832,0.0,0.0
120,29.75,37.3086,38.4774,130.324,104.488,107.286,0.000371517,0.0452064,20.9956,586.1,-0.238968,0.0,0.0
130,32.25,37.5205,38.5961,129.68,104.534,106.847,0.000595158,0.0459341,20.9934,586.1,-0.19795,0.0,0.0
140,34.75,37.7361,38.7003,131.118,104.583,105.604,0.00128256,0.0641202,20.9707,586.04,-0.0878902,0.0,1.0
150,37.25,37.7495,39.2014,126.315,104.625,97.1334,0.00331223,0.123328,20.9029,585.87,0.672016,0.0,1.0
160,39.75,37.4788,38.049,122.856,104.687,92.5777,0.00727267,0.234021,20.7945,585.62,1.11193,0.0,0.0
170,42.25,40.1726,39.4821,114.638,104.725,76.3775,0.0136681,0.409782,20.5253,585.219,2.85518,0.0,0.0
180,44.75,43.558,42.389,106.321,104.788,74.2694,0.0202786,0.650974,20.2516,584.639,3.11378,0.0,0.0
190,47.25,48.7763,45.6142,104.818,104.833,73.2862,0.0248234,0.814196,20.101,584.099,3.23827,0.0,0.0
200,49.75,52.3055,48.2401,108.78,104.866,71.5773,0.026944,0.877539,20.0387,583.518,3.4545,0.0,0.0
210,52.25,54.8426,51.5101,117.686,104.896,78.527,0.0250154,0.838271,20.097,583.138,2.6189,0.0,0.0
220,54.75,56.3551,53.5573,118.031,104.909,83.3966,0.0198707,0.706205,20.2493,582.847,2.07577,0.0,0.0
230,57.25,56.3838,54.5935,123.529,104.936,94.6956,0.014084,0.548555,20.4226,582.607,0.928822,0.0,0.0
240,59.75,55.9243,54.6557,125.567,104.897,100.917,0.00984447,0.416313,20.5761,582.537,0.349873,0.0,0.0
250,62.25,55.4802,54.6017,126.28,104.89,104.636,0.00712744,0.320086,20.6969,582.467,0.0218976,0.0,0.0
260,64.75,54.2346,54.5897,126.549,104.84,106.519,0.00581109,0.249703,20.7735,582.357,-0.143748,0.0,0.0
270,67.25,53.2509,54.0281,128.425,104.815,108.351,0.00551854,0.202336,20.8205,582.257,-0.300096,0.0,0.0
280,69.75,51.839,53.3618,128.932,104.743,109.435,0.00580585,0.169363,20.8569,582.217,-0.39637,0.0,0.0
290,72.25,50.9795,52.3833,131.751,104.696,108.885,0.00618624,0.145068,20.8823,582.187,-0.354839,0.0,0.0
300,74.75,50.4681,52.3896,127.801,104.612,108.549,0.0067214,0.129519,20.8977,582.177,-0.33417,0.0,0.0
310,77.25,49.5607,52.1184,131.358,104.557,109.127,0.00736108,0.1171,20.9116,582.127,-0.386997,0.0,0.0
320,79.75,48.7572,51.4331,127.866,104.482,107.976,0.00811561,0.107388,20.9223,582.117,-0.297564,0.0,0.0
330,82.25,48.2221,50.4987,126.69,104.43,108.381,0.0087858,0.0991044,20.9319,582.077,-0.335873,0.0,0.0
340,84.75,47.2455,49.7969,128.341,104.367,109.693,0.00929197,0.0917188,20.9399,582.027,-0.450177,0.0,0.0
350,87.25,47.0306,49.81,129.258,104.314,108.318,0.0097479,0.0865275,20.9458,582.037,-0.340699,0.0,0.0
360,89.75,46.066,49.7436,127.202,104.29,108.381,0.0101621,0.0829703,20.9491,581.987,-0.348074,0.0,0.0
370,92.25,45.5083,48.8451,130.619,104.245,108.538,0.0104701,0.0795463,20.952,581.977,-0.365051,0.0,0.0
380,94.75,45.2367,48.3312,132.445,104.243,108.574,0.0105741,0.0772726,20.9543,581.937,-0.368262,0.0,0.0
390,97.25,45.0379,48.0899,131.103,104.204,108.096,0.0106006,0.0755791,20.9538,581.937,-0.331622,0.0,0.0
400,99.75,44.5644,47.9419,133.205,104.197,107.781,0.0105533,0.0747581,20.9537,581.877,-0.305896,0.0,0.0
410,102.25,43.8384,47.9614,133.428,104.173,108.818,0.0102993,0.0748708,20.9536,581.877,-0.394662,0.0,0.0
420,104.75,43.506,47.4845,130.991,104.182,108.309,0.00994529,0.0753228,20.9536,581.887,-0.351475,0.0,0.0
430,107.25,43.285,46.7108,130.371,104.168,107.8,0.00978775,0.0751182,20.9536,581.867,-0.310031,0.0,0.0
440,109.75,42.6934,47.0575,130.613,104.17,108.574,0.00970051,0.0744403,20.953,581.827,-0.374569,0.0,0.0
450,112.25,42.536,46.1349,128.86,104.151,108.413,0.00962333,0.0741733,20.9534,581.766,-0.362749,0.0,0.0
460,114.75,42.1601,45.7422,131.189,104.181,108.252,0.00953983,0.0737178,20.9544,581.726,-0.346724,0.0,0.0
470,117.25,40.6794,43.8434,129.239,104.171,108.168,0.00940694,0.0724506,20.9552,581.706,-0.340562,0.0,0.0
480,119.75,39.6962,43.7223,128.973,104.193,107.684,0.00914845,0.0710444,20.9577,581.656,-0.298092,0.0,0.0
490,122.25,39.9766,43.2286,131.579,104.209,108.023,0.00875721,0.0696927,20.9603,581.656,-0.325173,0.0,0.0
500,124.75,38.9764,42.8813,128.396,104.231,108.916,0.00848237,0.0685233,20.9612,581.686,-0.397689,0.0,0.0
510,127.25,39.5428,42.6466,130.003,104.252,107.511,0.00821803,0.0671065,20.9636,581.626,-0.27843,0.0,0.0
520,129.75,39.2219,42.4988,129.897,104.259,108.281,0.00783082,0.0655759,20.9669,581.606,-0.342352,0.0,0.0
530,132.25,39.5087,42.6343,131.411,104.293,109.052,0.00737846,0.0641518,20.9696,581.596,-0.403624,0.0,0.0
540,134.75,38.6881,42.3053,127.254,104.295,109.464,0.00688866,0.0632671,20.9705,581.586,-0.43749,0.0,0.0
550,137.25,38.9842,42.3978,132.356,104.326,108.806,0.00654941,0.0623764,20.9722,581.546,-0.38038,0.0,0.0
560,139.75,38.611,41.8327,130.226,104.333,108.785,0.00641842,0.0614292,20.9729,581.526,-0.37794,0.0,0.0
570,142.25,38.7784,41.9104,131.929,104.376,109.138,0.00631012,0.0606631,20.9734,581.516,-0.403547,0.0,0.0
580,144.75,38.6359,41.5295,126.115,104.4,109.369,0.00618068,0.0601758,20.9744,581.526,-0.420549,0.0,0.0
590,147.25,38.607,41.2103,131.809,104.43,108.791,0.00596182,0.0595446,20.9766,581.516,-0.370092,0.0,0.0
600,149.75,38.08,41.2807,130.712,104.433,109.314,0.00564,0.0588152,20.9779,581.486,-0.413146,0.0,0.0
610,152.25,38.4332,40.4273,131.525,104.467,108.666,0.00520947,0.0586004,20.9784,581.486,-0.35645,0.0,0.0
620,154.75,37.942,41.0453,132.089,104.458,107.607,0.00497871,0.0579688,20.9798,581.456,-0.268655,0.0,0.0
630,157.25,37.9966,40.8395,135.746,104.482,109.688,0.00474056,0.0573356,20.9813,581.456,-0.439796,0.0,0.0
640,159.75,38.3889,41.2379,131.944,104.486,108.254,0.00442443,0.0567409,20.9826,581.426,-0.320502,0.0,0.0
650,162.25,37.9489,40.518,130.406,104.489,108.476,0.00422374,0.0558442,20.9841,581.386,-0.338713,0.0,0.0
660,164.75,37.651,40.4472,133.251,104.503,108.901,0.00402514,0.0550364,20.985,581.356,-0.372935,0.0,0.0
670,167.25,38.2627,40.733,130.813,104.5,107.745,0.00380172,0.0545525,20.9847,581.366,-0.276581,0.0,0.0
680,169.75,37.9708,40.1201,128.963,104.518,108.081,0.00355408,0.0543463,20.9843,581.316,-0.303268,0.0,0.0
690,172.25,37.1425,40.0522,129.435,104.495,108.546,0.00340492,0.0541883,20.9839,581.316,-0.344103,0.0,0.0
700,174.75,37.7122,40.7504,132.141,104.515,108.592,0.00328344,0.0539531,20.984,581.276,-0.346185,0.0,0.0
710,177.25,38.2,40.0589,128.135,104.492,108.727,0.00310617,0.0535001,20.9853,581.266,-0.35933,0.0,0.0
720,179.75,37.8369,39.7306,130.002,104.493,107.758,0.00297595,0.0532343,20.9852,581.276,-0.278334,0.0,0.0
730,182.25,37.0138,39.8576,129.815,104.483,109.718,0.00286518,0.052903,20.9862,581.246,-0.442221,0.0,0.0
740,184.75,37.6952,39.6479,127.502,104.472,108.803,0.0027632,0.052655,20.9866,581.216,-0.367439,0.0,0.0
750,187.25,37.5347,39.9927,132.348,104.46,108.33,0.00267827,0.0524906,20.9867,581.226,-0.329073,0.0,0.0
760,189.75,37.5125,39.486,131.331,104.452,108.716,0.0026534,0.0523125,20.9868,581.206,-0.36199,0.0,0.0
770,192.25,37.7641,39.592,128.52,104.42,108.88,0.00261805,0.0521538,20.9868,581.196,-0.378328,0.0,0.0
780,194.75,37.0024,39.8961,132.14,104.431,107.923,0.00252282,0.0518482,20.9868,581.156,-0.297583,0.0,0.0
790,197.25,37.0107,39.0779,132.663,104.407,108.364,0.00242724,0.0516201,20.988,581.146,-0.336527,0.0,0.0
800,199.75,37.1432,39.8242,132.997,104.398,108.378,0.00238419,0.0515616,20.9887,581.146,-0.338422,0.0,0.0
810,202.25,37.7629,39.491,131.29,104.396,108.24,0.00230248,0.0514392,20.989,581.126,-0.327092,0.0,0.0
820,204.75,37.5122,39.9049,131.829,104.388,109.651,0.00225506,0.0511451,20.9891,581.146,-0.444963,0.0,0.0
830,207.25,38.008,39.4394,132.256,104.392,107.331,0.00231413,0.0508207,20.9891,581.076,-0.251122,0.0,0.0
840,209.75,37.3794,39.5255,129.189,104.39,108.884,0.00231216,0.0507232,20.9891,581.086,-0.381239,0.0,0.0
850,212.25,37.7254,39.3505,130.745,104.385,108.596,0.0021221,0.0506592,20.9894,581.116,-0.357772,0.0,0.0
860,214.75,37.5548,39.5838,132.99,104.385,108.774,0.0018776,0.0505905,20.9896,581.086,-0.372579,0.0,0.0
870,217.25,37.6091,39.6578,130.363,104.401,108.49,0.00175675,0.0505378,20.9897,581.046,-0.347455,0.0,0.0
880,219.75,38.0006,39.5246,130.442,104.401,108.1,0.0017846,0.0503608,20.9898,581.006,-0.314931,0.0,0.0
890,222.25,37.6605,39.1912,131.673,104.406,108.563,0.00185067,0.050299,20.9898,581.016,-0.353183,0.0,0.0
900,224.75,37.2313,38.8222,129.544,104.39,107.748,,0.0503331,,580.976,-0.286408,0.0,0.0
910,227.25,37.7603,39.6276,132.652,104.406,108.829,,0.0502776,,580.956,-0.375242,0.0,0.0
920,229.75,37.5478,39.5248,133.257,104.389,108.312,,,,580.936,-0.333709,0.0,0.0
930,232.25,37.1402,39.0952,130.681,104.376,108.333,,,,580.956,-0.336594,0.0,0.0
940,234.75,37.5024,39.4659,134.295,104.375,108.294,,,,580.946,-0.3334,0.0,0.0
943,235.5,37.27,39.0095,130.802,104.382,107.745,,,,580.956,-0.28683,0.0,0.0