File: 01_Data/Polyester_Microfiber_Sheet/Cone/Polyester_Microfiber_Sheet_Cone_HF25Scan_220512_R2.csv
Names,Time,Stack TC,Smoke TC,Exh Press,Smoke Comp,Smoke Meas,CO Meter,CO2 Meter,O2 Meter,Sample Mass,Ext Coeff,Start Test,Flame Verif
Chan Gain,,500,500,1,1,1,1,1,1,1,1,1.0,1.0
Offset,,0,0,0.138628,0,0,0,0,0,0,0,0.0,0.0
Gain,,1,1,25.011,13.1256,14.6231,1,1,1,1.001,0.958019,1.0,1.0
Units,sec,C,C,Pa,%,%,%,%,%,g,/m,,
Baseline,,24.0993,24.8206,140.499,99.379,101.599,0.000571712,0.0448616,20.999,-444.368,-0.185596,,
25,6,20.8294,22.1525,140.195,99.0919,101.461,0.000577889,0.047605,20.9995,620.612,-0.198522,0.0,0.0
50,12.25,20.8751,21.978,137.572,99.0855,101.425,0.000771898,0.0464742,20.9996,620.652,-0.196108,0.0,0.0
75,18.5,21.4842,22.1205,147.915,99.0751,100.926,0.000430498,0.0455241,21,620.662,-0.155587,0.0,0.0
100,24.75,21.4418,22.1131,139.174,99.0595,101.061,0.000440456,0.0455961,21.0001,620.632,-0.16809,0.0,0.0
125,31,21.5095,22.3052,140.347,99.0827,100.593,0.000808267,0.0463437,20.9984,620.652,-0.127102,0.0,0.0
150,37.25,21.8065,21.9173,139.613,99.1384,101.287,0.000411392,0.0456335,21.0004,620.602,-0.180191,0.0,0.0
175,43.5,21.4214,22.2552,142.192,99.1604,100.953,0.000524145,0.0448743,21.0002,620.552,-0.150546,0.0,0.0
200,49.75,21.6087,22.7747,139.898,99.2069,100.867,0.000535025,0.04484,21.0002,620.602,-0.139474,0.0,0.0
225,56,21.6191,22.0428,139.098,99.2273,100.957,0.000408815,0.0464802,20.9984,620.572,-0.145214,0.0,0.0
250,62.25,21.8391,22.1549,140.757,99.2449,101.208,0.00047335,0.0474305,20.9987,620.562,-0.164609,0.0,0.0
275,68.5,21.7609,22.7144,140.029,99.263,101.295,0.00065163,0.0474988,20.9983,620.622,-0.170268,0.0,0.0
300,74.75,21.7225,22.5712,139.018,99.2565,101.641,0.000391062,0.0460757,21,620.592,-0.199491,0.0,0.0
325,81,21.6723,22.5605,144.021,99.2325,101.491,0.000492028,0.0447977,21.0024,620.612,-0.189157,0.0,0.0
350,87.25,21.9691,22.6083,139.032,99.2141,101.692,0.000445258,0.0444262,21.0024,620.602,-0.207329,0.0,0.0
375,93.5,22.1848,23.3003,142.628,99.1704,101.31,0.00048445,0.0455105,21.0023,620.612,-0.179401,0.0,0.0
400,99.75,22.2051,22.923,142.377,99.1348,101.522,0.000199624,0.0458155,21.0009,620.612,-0.19995,0.0,0.0
425,106,22.5928,22.9312,135.93,99.1436,101.109,0.000279509,0.044386,21.0022,620.562,-0.164964,0.0,0.0
450,112.25,22.2862,23.1633,140.062,99.1596,100.888,0.00041183,0.0437301,21.0032,620.582,-0.145226,0.0,0.0
475,118.5,22.2722,23.4497,139.263,99.2201,100.796,0.000503695,0.0451151,21.0026,620.572,-0.132441,0.0,0.0
500,124.75,22.4522,23.2625,141.709,99.3158,101.267,0.000704515,0.0445456,21.0033,620.552,-0.163497,0.0,0.0
525,131,22.6594,23.0585,141.223,99.3491,101.669,0.000403457,0.0439419,21.0037,620.552,-0.193948,0.0,0.0
550,137.25,22.31,22.8564,139.622,99.3995,101.536,0.000382111,0.0438015,21.0007,620.522,-0.17868,0.0,0.0
575,143.5,22.599,22.951,141.07,99.4849,101.302,0.000464705,0.0470567,20.9944,620.562,-0.152094,0.0,0.0
600,149.75,22.4943,23.1529,142.056,99.547,101.59,0.000794172,0.0499127,20.9933,620.532,-0.170695,0.0,0.0
625,156,22.8745,23.3585,140.034,99.6066,101.934,0.000656242,0.0480952,20.9951,620.502,-0.194109,0.0,0.0
650,162.25,22.5341,23.6222,139.273,99.6663,102.161,0.000497883,0.0464995,20.9988,620.532,-0.207744,0.0,0.0
675,168.5,22.2327,23.283,144.305,99.7056,101.533,0.000273843,0.0444315,21.0021,620.522,-0.152663,0.0,0.0
700,174.75,22.6983,23.2522,140.864,99.7276,102.269,0.00038626,0.0429174,21.0039,620.452,-0.211457,0.0,0.0
725,181,22.8431,23.9141,139.334,99.7653,102.105,0.000303993,0.0425368,21.0039,620.522,-0.194853,0.0,0.0
750,187.25,22.5117,23.765,138.747,99.7821,101.502,0.000664819,0.042374,21.004,620.472,-0.143594,0.0,0.0
775,193.5,23.3692,23.2479,138.965,99.7625,102.552,0.000615885,0.0423846,21.004,620.472,-0.231738,0.0,0.0
800,199.75,22.849,23.8305,140.282,99.7717,102.174,0.000505965,0.0422393,21.004,620.422,-0.199931,0.0,0.0
825,206,22.5781,23.8009,140.467,99.7669,101.826,0.000243213,0.0421733,21.0037,620.452,-0.171657,0.0,0.0
850,212.25,22.945,23.5716,140.59,99.7496,102.025,0.000240476,0.041989,21.0038,620.442,-0.189555,0.0,0.0
875,218.5,23.3209,23.8988,139.34,99.7444,101.665,0.000108973,0.0420764,21.0033,620.442,-0.160277,0.0,0.0
900,224.75,23.4625,23.6794,136.446,99.744,101.425,0.000168039,0.0422148,21.0047,620.462,-0.140442,0.0,0.0
925,231,23.1387,23.9729,136.959,99.6908,102.114,0.00030891,0.0423759,21.005,620.412,-0.201828,0.0,0.0
950,237.25,23.6625,23.6034,135.957,99.692,101.777,0.000289803,0.0422767,21.005,620.432,-0.173953,0.0,0.0
975,243.5,23.2842,24.0545,139.903,99.6611,101.798,0.000123287,0.0437846,21.0029,620.392,-0.178286,0.0,0.0
1000,249.75,23.0416,24.0214,141.037,99.6547,101.637,0.000350996,0.0437916,21.0033,620.362,-0.165516,0.0,0.0
1025,256,23.9207,24.0435,138.515,99.6615,101.741,0.000349684,0.0432262,21.0044,620.382,-0.173535,0.0,0.0
1050,262.25,22.5868,24.1477,140.983,99.6451,101.697,0.000124069,0.042855,21.0048,620.312,-0.171307,0.0,0.0
1075,268.5,23.2505,24.1194,137.681,99.6439,102.056,0.000246823,0.0423772,21.0054,620.322,-0.201005,0.0,0.0
1100,274.75,23.6231,23.7141,138.844,99.6747,102.346,0.000618101,0.0424178,21.006,620.312,-0.222256,0.0,0.0
1125,281,23.5375,23.7771,140.379,99.7012,101.769,0.000438895,0.0424206,21.0068,620.312,-0.172513,0.0,0.0
1150,287.25,22.5437,23.6831,140.568,99.7452,101.754,0.000566237,0.0430222,21.0061,620.261,-0.167547,0.0,0.0
1175,293.5,23.0004,24.1455,140.537,99.7737,102.06,0.000445631,0.0438936,21.0032,620.281,-0.19036,0.0,0.0
1200,299.75,22.7214,23.7786,140.393,99.8189,102.436,0.000474535,0.0435329,21.0035,620.271,-0.217469,0.0,0.0
1225,306,23.0497,24.2144,140.3,99.841,102.045,0.000406364,0.0436442,21.0036,620.201,-0.183481,0.0,0.0
1250,312.25,22.8228,23.7981,139.571,99.8686,101.802,0.000364409,0.0443537,21.0019,620.211,-0.161102,0.0,0.0
1275,318.5,22.9658,23.9061,140.15,99.8866,102.085,0.00040373,0.0441262,21.0001,620.181,-0.182982,0.0,0.0
1300,324.75,23.1591,24.104,142.964,99.9002,102.035,0.000526103,0.0431935,20.9996,620.141,-0.177721,0.0,0.0
1325,331,23.2413,23.9192,141.086,99.8954,101.952,0.000324742,0.043698,21.0013,620.191,-0.17125,0.0,0.0
1350,337.25,23.7178,24.012,137.62,99.8778,101.907,0.000550552,0.0438155,21.0005,620.211,-0.169054,0.0,0.0
1375,343.5,23.2141,24.0118,141.483,99.8362,101.668,0.000841705,0.0451539,21.0029,620.171,-0.152774,0.0,0.0
1400,349.75,23.8279,24.5888,139.158,99.8057,102.209,0.00100894,0.0445806,21.0043,620.211,-0.199926,0.0,0.0
1425,356,23.0241,24.1267,142.263,99.75,101.638,0.000422798,0.0437231,21.0044,620.141,-0.157554,0.0,0.0
1450,362.25,23.7317,24.3517,140.928,99.6499,100.959,0.000542256,0.0431229,21.0042,620.121,-0.109648,0.0,0.0
1475,368.5,23.4479,24.2288,137.565,99.5337,101.83,0.000455909,0.043182,21.004,620.101,-0.191684,0.0,0.0
1500,374.75,23.5761,24.6402,139.762,99.4276,101.204,0.000425549,0.0436112,21.0026,620.101,-0.148859,0.0,0.0
1525,381,23.6861,24.7729,138.981,99.4696,101.449,0.000661,0.0436729,21.003,620.071,-0.16555,0.0,0.0
1550,387.25,23.8148,24.5515,137.133,99.5221,101.837,0.000711374,0.0441759,21.0011,620.031,-0.193255,0.0,0.0
1575,393.5,23.5541,24.5365,138.496,99.5818,101.059,0.000698955,0.0452854,20.9997,620.011,-0.123746,0.0,0.0
1600,399.75,23.4853,24.6966,141.042,99.6034,100.949,0.000880008,0.0458404,20.9992,620.001,-0.112787,0.0,0.0
1625,406,22.3242,22.8016,135.626,99.6735,95.416,0.00266315,0.0924948,20.9465,619.851,0.366849,0.0,0.0
1650,412.25,24.7886,24.3725,125.478,99.708,82.3116,0.00989536,0.290724,20.7179,619.32,1.61127,0.0,0.0
1675,418.5,30.0113,28.8532,121.843,99.752,74.5042,0.0174617,0.557225,20.4131,618.33,2.45246,0.0,0.0
1700,424.75,34.0236,33.1909,126.514,99.7949,86.8532,0.014974,0.506124,20.4795,617.579,1.16725,0.0,0.0
1725,431,35.0728,34.9979,131.859,99.8378,95.1974,0.00860288,0.377248,20.6361,617.118,0.399966,0.0,0.0
1750,437.25,35.2801,35.376,136.062,99.8554,100.76,0.0043296,0.246747,20.7844,616.818,-0.0758274,0.0,0.0
1775,443.5,34.0223,34.8379,137.622,99.8722,102.386,0.00343531,0.17464,20.8638,616.668,-0.208883,0.0,0.0
1800,449.75,33.082,34.4351,139.033,99.8818,103.331,0.00322466,0.125114,20.9199,616.558,-0.285334,0.0,0.0
1825,456,32.2187,34.0141,137.807,99.9159,101.965,0.0026438,0.0861363,20.9591,616.468,-0.170598,0.0,0.0
1850,462.25,30.526,32.4264,138.592,99.9523,102.591,0.00236416,0.0623307,20.9856,616.508,-0.219013,0.0,0.0
1875,468.5,28.194,30.0684,136.353,99.9679,101.874,0.00205186,0.0537222,20.9945,616.468,-0.158713,0.0,0.0
1900,474.75,27.0535,29.9297,141.076,99.9916,102.647,0.00178272,0.0502018,20.9977,616.448,-0.220281,0.0,0.0
1925,481,26.5887,28.8215,140.49,100.028,102.559,0.00186882,0.0483623,21.0005,616.408,-0.209948,0.0,0.0
1950,487.25,25.9567,28.0311,135.502,100.045,102.28,0.00185348,0.0483502,21.0014,616.398,-0.18572,0.0,0.0
1975,493.5,25.5579,27.5773,137.23,100.057,102.592,0.00191309,0.0475542,21.0036,616.368,-0.210267,0.0,0.0
2000,499.75,24.3566,26.6589,140.693,100.095,103.257,0.0017208,0.0468889,21.0034,616.287,-0.261397,0.0,0.0
2025,506,24.5468,26.4171,139.015,100.108,102.51,0.00144395,0.0463134,21.003,616.328,-0.199265,0.0,0.0
2050,512.25,23.6667,25.9537,136.554,100.144,102.822,0.0012413,0.0461698,21.0004,616.318,-0.221775,0.0,0.0
2075,518.5,24.0557,25.5251,141.86,100.174,102.448,0.00110331,0.0460378,21.0012,616.257,-0.188668,0.0,0.0
2100,524.75,23.4234,25.4648,143.025,100.204,102.944,0.000922378,0.0460729,21.0017,616.267,-0.226686,0.0,0.0
2125,531,23.3339,24.6819,136.472,100.232,102.752,0.000793313,0.0461166,21.0033,616.197,-0.208689,0.0,0.0
2150,537.25,23.112,24.6023,139.09,100.256,102.533,0.00115612,0.0459891,21.0038,616.117,-0.188737,0.0,0.0
2175,543.5,22.3875,24.0316,137.153,100.269,102.845,0.00084588,0.0455124,21.0033,616.207,-0.21319,0.0,0.0
2200,549.75,22.7933,24.399,140.032,100.289,102.624,0.000851186,0.0450609,21.0015,616.187,-0.19337,0.0,0.0
2225,556,22.7348,24.2846,138.342,100.281,103.181,0.000924283,0.0448483,21.0013,616.227,-0.239557,0.0,0.0
2250,562.25,22.1088,23.7744,139.941,100.266,102.935,0.000970627,0.0450505,21.0007,616.167,-0.220715,0.0,0.0
2275,568.5,22.3816,23.54,139.282,100.238,102.335,0.00124743,0.0455578,20.9997,616.197,-0.173956,0.0,0.0
2300,574.75,22.1554,23.3079,141.805,100.181,102.863,,0.0454048,,616.137,-0.221968,0.0,0.0
2325,581,21.7601,23.6397,139.22,100.087,102.893,,,,616.137,-0.23231,0.0,0.0
2340,584.75,22.5297,23.1522,135.205,100.042,102.726,,,,616.097,-0.222435,0.0,0.0