File: 01_Data/Polyester_Microfiber_Sheet/Cone/Polyester_Microfiber_Sheet_Cone_HF25Scan_220512_R3.csv
Names,Time,Stack TC,Smoke TC,Exh Press,Smoke Comp,Smoke Meas,CO Meter,CO2 Meter,O2 Meter,Sample Mass,Ext Coeff,Start Test,Flame Verif
Chan Gain,,500,500,1,1,1,1,1,1,1,1,1.0,1.0
Offset,,0,0,0.138628,0,0,0,0,0,0,0,0.0,0.0
Gain,,1,1,25.011,13.1256,14.6231,1,1,1,1.001,0.958019,1.0,1.0
Units,sec,C,C,Pa,%,%,%,%,%,g,/m,,
Baseline,,24.0741,24.7434,140.522,99.4426,101.967,0.000484174,0.0429005,21.0044,-444.236,-0.210641,,
23,5.5,21.1678,21.8563,141.043,99.408,101.966,0.000406193,0.0477867,20.9999,595.927,-0.213537,0.0,0.0
46,11.25,21.32,21.8594,142.424,99.3983,101.748,0.000357942,0.0470077,21.0002,595.897,-0.196308,0.0,0.0
69,17,21.8068,22.3476,137.099,99.4068,102.263,0.000339394,0.0452556,21.0038,595.917,-0.238025,0.0,0.0
92,22.75,21.9493,22.3336,138.844,99.4192,102.858,0.00022701,0.0442476,21.0047,595.897,-0.285754,0.0,0.0
115,28.5,21.3413,22.8148,138.029,99.4496,101.99,0.000273377,0.043449,21.0064,595.877,-0.211965,0.0,0.0
138,34.25,21.9851,22.5455,138.569,99.4945,102.051,0.000431657,0.0430724,21.0071,595.917,-0.213174,0.0,0.0
161,40,22.0461,22.5443,142.673,99.5293,101.541,0.000411683,0.0428631,21.0088,595.897,-0.168196,0.0,0.0
184,45.75,22.19,22.3024,141.891,99.5401,101.892,0.000327386,0.0428183,21.0077,595.897,-0.196224,0.0,0.0
207,51.5,22.272,22.5074,141.031,99.5281,102.157,0.000258407,0.043208,21.0074,595.877,-0.21911,0.0,0.0
230,57.25,22.263,22.5956,138.672,99.5097,102.369,0.00034498,0.0432651,21.0073,595.887,-0.23805,0.0,0.0
253,63,22.0563,22.6987,142.223,99.4973,101.816,0.000333697,0.0432833,21.0053,595.867,-0.193585,0.0,0.0
276,68.75,22.4259,22.7174,139.476,99.4881,102.087,0.000520887,0.044137,21.004,595.847,-0.216728,0.0,0.0
299,74.5,22.4605,22.922,141.287,99.4416,102.458,0.000470308,0.0481818,21.0003,595.827,-0.251162,0.0,0.0
322,80.25,22.6326,23.3142,139.642,99.3987,101.871,0.000509775,0.0552896,20.9926,595.797,-0.206478,0.0,0.0
345,86,22.7484,22.9897,140.154,99.3595,101.727,0.000785959,0.054702,20.993,595.827,-0.197898,0.0,0.0
368,91.75,22.6638,22.9447,143.979,99.3046,102.147,0.000610971,0.0537772,20.9946,595.817,-0.237123,0.0,0.0
391,97.5,22.7598,22.5973,138.462,99.2393,101.582,0.00100572,0.0510064,20.9971,595.787,-0.196041,0.0,0.0
414,103.25,22.5495,23.3116,138.573,99.1832,101.4,0.000879999,0.0534158,20.9939,595.807,-0.185715,0.0,0.0
437,109,22.4711,22.9175,147.186,99.1168,102.057,0.000678274,0.0521587,20.9977,595.847,-0.24569,0.0,0.0
460,114.75,22.8009,23.584,145.18,99.0467,101.433,0.000646357,0.0509024,20.9982,595.747,-0.200106,0.0,0.0
483,120.5,22.9198,23.1414,141.222,98.9798,101.346,0.000518198,0.0507635,20.9982,595.827,-0.198497,0.0,0.0
506,126.25,22.7934,23.1774,139.528,98.9145,101.36,0.000514744,0.0502878,20.9999,595.767,-0.205264,0.0,0.0
529,132,23.2011,23.723,135.665,98.8436,101.704,0.00044334,0.0517212,20.9977,595.787,-0.239768,0.0,0.0
552,137.75,22.3036,23.6667,140.564,98.8091,101.059,0.000413655,0.0552781,20.9948,595.787,-0.189244,0.0,0.0
575,143.5,22.6873,23.7072,139.976,98.7566,101.414,0.000245821,0.0530738,20.9968,595.727,-0.223159,0.0,0.0
598,149.25,23.0913,23.9121,141.589,98.7026,101.271,0.000355699,0.0496426,21.0012,595.747,-0.215883,0.0,0.0
621,155,22.9638,23.6906,139.202,98.6709,101.218,0.00023989,0.0479857,21.0012,595.707,-0.214169,0.0,0.0
644,160.75,23.2351,23.4687,138.91,98.6329,101.396,0.000350615,0.0475194,21.0028,595.787,-0.232218,0.0,0.0
667,166.5,23.1072,23.2438,144.639,98.6209,100.986,0.000439573,0.0475097,21.0033,595.687,-0.199146,0.0,0.0
690,172.25,22.3474,23.6361,137.958,98.614,100.802,0.000741476,0.0506511,20.9999,595.727,-0.18445,0.0,0.0
713,178,23.3425,23.2378,135.737,98.5972,101.595,0.000579884,0.0479796,21.0029,595.747,-0.251661,0.0,0.0
736,183.75,23.1128,23.4375,140.202,98.5972,101.175,0.00056427,0.0465996,21.0034,595.697,-0.216854,0.0,0.0
759,189.5,23.0692,23.5411,141.23,98.6016,101.253,0.000661262,0.0457299,21.0027,595.737,-0.222962,0.0,0.0
782,195.25,23.0384,23.9503,139.975,98.5712,101.016,0.000664276,0.0451717,21.0038,595.707,-0.205904,0.0,0.0
805,201,23.246,23.598,143.159,98.5632,101.157,0.000536045,0.0450641,21.0046,595.737,-0.21831,0.0,0.0
828,206.75,23.1125,23.9698,138.404,98.5463,100.859,0.00038357,0.0442074,21.0055,595.697,-0.194944,0.0,0.0
851,212.5,23.3021,23.8149,138.1,98.5255,101.071,0.000151198,0.0440275,21.0059,595.657,-0.214326,0.0,0.0
874,218.25,23.4597,24.1393,139.606,98.5071,100.372,0.000172568,0.0433607,21.006,595.557,-0.157627,0.0,0.0
897,224,22.9463,23.9144,144.721,98.4999,100.804,0.000386015,0.0430997,21.0064,595.567,-0.194295,0.0,0.0
920,229.75,23.3808,23.4839,136.274,98.455,100.736,0.000400847,0.042792,21.0058,595.607,-0.192504,0.0,0.0
943,235.5,23.4758,23.6321,138.726,98.4482,100.474,0.000707505,0.0427813,21.0075,595.657,-0.171166,0.0,0.0
966,241.25,22.9739,23.7706,143.412,98.4494,100.723,0.000565845,0.043011,21.0065,595.637,-0.191865,0.0,0.0
989,247,23.5874,23.7876,138.078,98.4558,100.679,0.000495731,0.0439458,21.0033,595.567,-0.187669,0.0,0.0
1012,252.75,23.1051,23.6423,141.377,98.4646,100.29,0.00052887,0.0444138,21.0025,595.547,-0.154372,0.0,0.0
1035,258.5,23.4431,23.4598,139.387,98.4819,100.877,0.0003092,0.0435335,21.004,595.547,-0.201969,0.0,0.0
1058,264.25,23.0259,24.0424,139.274,98.5095,101.081,0.000493849,0.0427321,21.006,595.537,-0.216547,0.0,0.0
1081,270,23.3255,24.0719,140.408,98.5608,100.898,0.00064074,0.0424168,21.0069,595.557,-0.196948,0.0,0.0
1104,275.75,23.8181,24.2245,140.3,98.6108,100.972,0.00024983,0.0426078,21.0071,595.497,-0.198885,0.0,0.0
1127,281.5,23.5374,23.7119,139.986,98.6613,100.382,0.000496961,0.0427432,21.0062,595.497,-0.14534,0.0,0.0
1150,287.25,23.3056,24.2128,137.257,98.725,100.671,0.000490808,0.0427079,21.0041,595.477,-0.164017,0.0,0.0
1173,293,23.5543,24.0003,137.065,98.8023,100.789,0.000545139,0.0428385,21.007,595.447,-0.167268,0.0,0.0
1196,298.75,23.2386,24.2595,142.795,98.872,100.488,0.000390057,0.042974,21.0079,595.457,-0.136263,0.0,0.0
1219,304.5,23.798,24.482,140.969,98.9501,100.035,0.000499792,0.0428703,21.0072,595.417,-0.0916606,0.0,0.0
1242,310.25,23.6171,24.3633,142.076,99.0174,101.453,0.000441181,0.043001,21.0071,595.427,-0.204178,0.0,0.0
1265,316,23.7005,24.1753,137.404,99.0975,100.669,0.00042968,0.0430728,21.0051,595.377,-0.132217,0.0,0.0
1288,321.75,23.6625,24.2616,138.12,99.1508,100.728,0.000517412,0.0430801,21.0048,595.407,-0.132617,0.0,0.0
1311,327.5,23.8253,24.1286,137.818,99.2057,101.111,0.00053345,0.043409,21.0048,595.397,-0.159888,0.0,0.0
1334,333.25,23.3812,24.7067,138.427,99.281,101.084,0.00034592,0.0444413,21.0028,595.386,-0.151248,0.0,0.0
1357,339,23.8775,24.7115,140.464,99.3603,101.488,0.000572116,0.0456334,21.0033,595.286,-0.178084,0.0,0.0
1380,344.75,23.9438,24.3897,135.803,99.412,100.672,0.000782631,0.044772,21.005,595.266,-0.105856,0.0,0.0
1403,350.5,23.1638,24.5412,138.271,99.4664,101.126,0.00060134,0.044958,21.0037,595.296,-0.139089,0.0,0.0
1426,356.25,23.7585,24.3925,141.615,99.4997,101.457,0.000671084,0.046935,21.0001,595.256,-0.163678,0.0,1.0
1449,362,22.7333,22.7666,134.895,99.5217,93.6069,0.00370804,0.122039,20.9077,595.086,0.514909,0.0,0.0
1472,367.75,25.9606,25.1877,124.088,99.5578,78.8905,0.0121221,0.360726,20.6273,594.426,1.95534,0.0,0.0
1495,373.5,31.2958,29.5283,123.088,99.6066,80.1191,0.019616,0.610817,20.3586,593.485,1.8296,0.0,0.0
1518,379.25,34.6946,33.4913,128.072,99.6347,84.3724,0.0167416,0.545094,20.4391,592.734,1.39728,0.0,0.0
1541,385,35.711,35.3843,131.79,99.6615,91.3046,0.00979007,0.391726,20.6004,592.263,0.735978,0.0,0.0
1564,390.75,36.4902,35.8402,137.001,99.6683,97.3162,0.00552438,0.289249,20.7266,591.903,0.200698,0.0,0.0
1587,396.5,35.3154,35.732,137.851,99.6735,101.462,0.00356935,0.204065,20.824,591.713,-0.149489,0.0,0.0
1610,402.25,34.5691,35.3337,134.977,99.6912,103.112,0.00301969,0.142894,20.8973,591.653,-0.283552,0.0,0.0
1633,408,32.9685,34.8443,138.299,99.692,102.593,0.00271756,0.0986682,20.9432,591.593,-0.241042,0.0,0.0
1656,413.75,31.5777,33.8403,137.957,99.6563,101.898,0.00224804,0.0702209,20.9765,591.573,-0.186903,0.0,0.0
1679,419.5,28.8712,30.9549,135.821,99.6134,102.07,0.00180485,0.0539457,20.9924,591.543,-0.204748,0.0,0.0
1702,425.25,28.6091,30.504,141.151,99.5381,101.815,0.00168067,0.0491389,20.9981,591.493,-0.190061,0.0,0.0
1725,431,27.1901,29.2863,141.262,99.4584,101.865,0.00168165,0.047118,21.0017,591.443,-0.200955,0.0,0.0
1748,436.75,26.7573,28.7324,139.796,99.3859,101.46,0.00124223,0.0457802,21.0037,591.483,-0.173551,0.0,0.0
1771,442.5,25.7275,27.7075,139.844,99.3074,102.202,0.00106806,0.045268,21.0032,591.473,-0.241474,0.0,0.0
1794,448.25,25.6694,27.4715,137.543,99.2329,101.861,0.00104397,0.044863,21.0052,591.423,-0.219663,0.0,0.0
1817,454,24.4864,27.2125,139.189,99.2025,101.026,0.000870829,0.0446684,21.0025,591.433,-0.15311,0.0,0.0
1840,459.75,23.996,26.6057,136.543,99.174,101.825,0.00093133,0.0446902,21.0023,591.403,-0.221705,0.0,0.0
1863,465.5,23.9449,26.1275,139.772,99.1428,102.115,0.000870596,0.0445677,21.0022,591.342,-0.248259,0.0,0.0
1886,471.25,23.867,25.9773,140.029,99.14,101.954,0.000953802,0.0445064,21.0018,591.393,-0.235191,0.0,0.0
1909,477,23.7952,25.0172,140.864,99.1155,101.137,0.000970569,0.0445326,21.0047,591.403,-0.16964,0.0,0.0
1932,482.75,23.1069,25.0706,139.955,99.0903,102.23,0.000870022,0.0447286,21.0047,591.393,-0.262104,0.0,0.0
1955,488.5,23.1212,24.2245,138.839,99.0775,102.19,0.00114307,0.0448254,21.0048,591.372,-0.259925,0.0,0.0
1978,494.25,22.5153,24.5359,141.349,99.0531,101.449,0.00131946,0.0446787,21.0053,591.322,-0.200856,0.0,0.0
2001,500,22.9507,24.4111,142.157,99.0767,101.511,0.00116101,0.044494,21.0039,591.302,-0.203988,0.0,0.0
2024,505.75,22.4977,24.2477,138.618,99.1576,101.65,0.000961699,0.0446291,21.0032,591.302,-0.208647,0.0,0.0
2047,511.5,22.4076,23.9201,144.672,99.2349,101.62,0.00123436,0.0446905,21.0036,591.292,-0.199551,0.0,0.0
2070,517.25,22.0944,23.9871,140.093,99.3611,102.019,0.00111812,0.044663,21.0024,591.292,-0.221875,0.0,0.0
2093,523,22.0692,23.6927,136.927,99.4829,102.039,0.00128767,0.0445559,21.0041,591.252,-0.213199,0.0,0.0
2116,528.75,22.3238,23.3764,136.875,99.5458,102.04,,0.044588,,591.262,-0.207998,0.0,0.0
2139,534.5,22.1797,23.4049,138.145,99.6026,101.8,,,,591.172,-0.183402,0.0,0.0
2158,539.25,22.219,23.3413,138.476,99.6423,102.318,,,,591.232,-0.222683,0.0,0.0