File: 01_Data/Polyester_Microfiber_Sheet/Cone/Polyester_Microfiber_Sheet_Cone_HF50Scan_220512_R2.csv
Names,Time,Stack TC,Smoke TC,Exh Press,Smoke Comp,Smoke Meas,CO Meter,CO2 Meter,O2 Meter,Sample Mass,Ext Coeff,Start Test,Flame Verif
Chan Gain,,500,500,1,1,1,1,1,1,1,1,1.0,1.0
Offset,,0,0,0.135828,0,0,0,0,0,0,0,0.0,0.0
Gain,,1,1,25.011,13.8491,15.2622,1,1,1,1.00087,1.03118,1.0,1.0
Units,sec,C,C,Pa,%,%,%,%,%,g,/m,,
Baseline,,36.99,38.1895,132.3,105.325,108.459,0.000360682,0.0470996,20.9951,-446.641,-0.265196,,
11,2.5,38.1347,39.641,130.941,103.719,106.298,0.000328839,0.0529598,20.9913,611.592,-0.222203,0.0,0.0
22,5.25,38.2272,39.4327,134.716,103.713,107.033,0.00031771,0.0523858,20.9909,611.672,-0.285011,0.0,0.0
33,8,38.6241,39.8083,129.663,103.727,106.33,0.000400119,0.0511589,20.9924,611.723,-0.224199,0.0,0.0
44,10.75,38.3326,39.3306,132.85,103.74,106.139,0.000322732,0.0499129,20.9943,611.642,-0.206836,0.0,0.0
55,13.5,38.185,39.5439,128.757,103.761,106.9,0.000220531,0.049073,20.9951,611.662,-0.269579,0.0,0.0
66,16.25,38.1602,39.2152,129.766,103.769,107.825,0.000265293,0.0486548,20.9953,611.672,-0.346892,0.0,0.0
77,19,38.3922,39.8336,131.341,103.8,106.794,0.000376528,0.0490555,20.9941,611.672,-0.257202,0.0,0.0
88,21.75,38.4712,39.9967,132.899,103.835,106.931,0.000381749,0.0496848,20.9934,611.642,-0.265701,0.0,0.0
99,24.5,38.7444,39.4266,130.909,103.88,106,0.000431437,0.0496455,20.9932,611.632,-0.182729,0.0,0.0
110,27.25,39.0992,40.3431,130.921,103.917,106.449,0.000431325,0.0490333,20.9944,611.632,-0.217766,0.0,0.0
121,30,38.9204,40.1884,132.105,104,105.967,0.000429095,0.0482037,20.9951,611.632,-0.169462,0.0,0.0
132,32.75,38.6195,39.9001,132.251,104.056,106.791,0.000359325,0.0476916,20.9953,611.622,-0.234677,0.0,0.0
143,35.5,38.3765,40.1513,132.109,104.134,105.779,0.000374378,0.047545,20.9954,611.622,-0.141819,0.0,0.0
154,38.25,38.8711,39.7096,131.061,104.214,105.493,0.000513815,0.047794,20.9941,611.622,-0.110355,0.0,0.0
165,41,38.7383,40.1806,126.205,104.282,104.428,0.00142795,0.0661037,20.9745,611.612,-0.0126547,0.0,1.0
176,43.75,39.5043,40.4383,125.041,104.375,95.1851,0.00501322,0.147029,20.8704,611.392,0.833672,0.0,1.0
187,46.5,40.4364,39.4332,117.186,104.456,81.1767,0.0129344,0.342652,20.6354,610.942,2.28069,0.0,0.0
198,49.25,44.6215,42.5152,105.431,104.538,62.7623,0.0252003,0.671549,20.2682,610.151,4.615,0.0,0.0
209,52,50.8997,46.4106,110.848,104.636,77.9611,0.0307332,0.894451,20.0489,609.481,2.66184,0.0,0.0
220,54.75,54.2337,51.0404,117.722,104.696,81.8535,0.0272322,0.839513,20.1279,609.07,2.22636,0.0,0.0
231,57.5,56.0823,53.2251,116.026,104.772,88.6388,0.0203935,0.686954,20.2868,608.74,1.51253,0.0,0.0
242,60.25,56.4068,54.1509,121.061,104.832,96.2759,0.0139632,0.52324,20.4746,608.54,0.770181,0.0,0.0
253,63,55.7276,54.6498,124.474,104.887,102.751,0.00940543,0.398416,20.6082,608.44,0.186072,0.0,0.0
264,65.75,55.3007,54.7854,126.324,104.926,106.839,0.00685161,0.305973,20.7063,608.34,-0.163444,0.0,0.0
275,68.5,54.5439,54.658,129.547,104.947,107.826,0.00562485,0.247352,20.7803,608.27,-0.244832,0.0,0.0
286,71.25,53.5251,54.1223,127.804,104.962,108.38,0.00522261,0.203939,20.8191,608.209,-0.289859,0.0,0.0
297,74,52.8852,53.9659,127.926,104.994,108.036,0.00549148,0.176604,20.8513,608.159,-0.258282,0.0,0.0
308,76.75,51.4779,53.9152,127.969,104.98,108.642,0.00602345,0.157698,20.8712,608.089,-0.310191,0.0,0.0
319,79.5,50.9068,52.9161,129.107,104.971,108.926,0.00686885,0.145139,20.8837,608.089,-0.334542,0.0,0.0
330,82.25,50.1138,52.5936,128.204,104.953,108.331,0.00750307,0.137543,20.8911,607.989,-0.286542,0.0,0.0
341,85,49.6493,51.9604,127.488,104.97,108.676,0.00799517,0.13314,20.8953,607.999,-0.313859,0.0,0.0
352,87.75,49.1057,51.8903,132.038,104.971,108.294,0.00840311,0.128692,20.9005,607.859,-0.281942,0.0,0.0
363,90.5,48.6433,51.2565,131.496,104.964,108.119,0.00867959,0.123126,20.9062,607.859,-0.267885,0.0,0.0
374,93.25,48.3857,51.3604,131.028,104.966,108.123,0.00873639,0.118503,20.9107,607.859,-0.267975,0.0,0.0
385,96,48.0058,51.1642,130.896,104.953,108.641,0.00865114,0.114939,20.9141,607.809,-0.31233,0.0,0.0
396,98.75,47.5189,49.8864,127.879,104.955,108.913,0.00839512,0.111101,20.919,607.829,-0.33484,0.0,0.0
407,101.5,46.7895,49.8412,130.726,104.962,108.867,0.00810181,0.106963,20.9243,607.709,-0.330393,0.0,0.0
418,104.25,46.6359,49.2252,133.004,104.945,108.553,0.00798306,0.10327,20.9283,607.679,-0.305804,0.0,0.0
429,107,46.3453,49.3877,129.111,104.917,108.832,0.00789961,0.100783,20.9307,607.629,-0.331352,0.0,0.0
440,109.75,45.4387,48.7107,133.131,104.919,108.676,0.00765184,0.0978871,20.9342,607.649,-0.318267,0.0,0.0
451,112.5,45.3799,48.9679,130.845,104.897,108.42,0.00740703,0.094752,20.9374,607.569,-0.298812,0.0,0.0
462,115.25,45.5168,48.3767,134.479,104.86,108.324,0.0072291,0.0921014,20.9403,607.539,-0.29405,0.0,0.0
473,118,44.7159,47.9436,126.857,104.797,107.369,0.00721257,0.0883244,20.9441,607.499,-0.219328,0.0,0.0
484,120.75,45.0158,47.989,131.014,104.731,107.772,0.00717786,0.0847864,20.9481,607.519,-0.258896,0.0,0.0
495,123.5,44.6936,47.4472,130.666,104.657,108.575,0.0071066,0.0814688,20.9517,607.489,-0.332434,0.0,0.0
506,126.25,44.1653,47.7709,131.232,104.564,107.878,0.0068936,0.0788482,20.9545,607.449,-0.282195,0.0,0.0
517,129,44.0463,47.0606,136.613,104.41,107.603,0.00664072,0.0762019,20.9575,607.409,-0.272481,0.0,0.0
528,131.75,43.5792,46.9617,125.685,104.298,108.191,0.00632048,0.0732724,20.9623,607.439,-0.331503,0.0,0.0
539,134.5,43.5415,46.8645,128.569,104.165,106.196,0.00588135,0.0704861,20.9651,607.369,-0.17468,0.0,0.0
550,137.25,43.5455,46.3718,130.309,104.025,107.075,0.00564638,0.0676181,20.9679,607.349,-0.261426,0.0,0.0
561,140,41.1606,45.0009,132.441,103.905,106.39,0.00538931,0.0649602,20.9707,607.359,-0.213765,0.0,0.0
572,142.75,41.5703,43.9901,129.751,103.789,107.024,0.00500286,0.0626396,20.9736,607.389,-0.277664,0.0,0.0
583,145.5,41.3369,44.207,129.283,103.701,106.385,0.00465952,0.0606735,20.9768,607.319,-0.231161,0.0,0.0
594,148.25,41.0618,43.7483,129.847,103.675,105.506,0.00438918,0.0593516,20.9785,607.329,-0.15837,0.0,0.0
605,151,40.1664,43.2318,132.484,103.669,106.95,0.00417572,0.0584,20.9799,607.329,-0.281871,0.0,0.0
616,153.75,40.839,43.2977,130.724,103.688,105.678,0.00398902,0.0575673,20.981,607.319,-0.17191,0.0,0.0
627,156.5,40.5354,42.9117,135.766,103.742,106.765,0.00396479,0.0566485,20.9826,607.259,-0.259879,0.0,0.0
638,159.25,40.1747,42.88,129.832,103.837,106.485,0.00376846,0.0560278,20.9837,607.239,-0.227729,0.0,0.0
649,162,39.8479,42.8623,130.984,103.984,106.942,0.00334888,0.0554399,20.9854,607.239,-0.253732,0.0,0.0
660,164.75,39.6209,42.3265,132.409,104.162,107.329,0.00312634,0.0547669,20.9838,607.259,-0.270946,0.0,0.0
671,167.5,39.9854,42.2882,131.784,104.299,106.935,0.00300707,0.0545867,20.9829,607.229,-0.225795,0.0,0.0
682,170.25,39.2302,41.9741,130.744,104.446,106.703,0.00283816,0.0541294,20.9842,607.199,-0.193328,0.0,0.0
693,173,39.5177,41.6986,130.632,104.586,107.608,0.00277665,0.053805,20.9846,607.149,-0.257693,0.0,0.0
704,175.75,39.3437,42.0844,130.593,104.736,108.165,0.00275174,0.0535846,20.9848,607.128,-0.29139,0.0,0.0
715,178.5,39.0379,41.2809,131.887,104.835,107.142,0.00279065,0.0532639,20.9856,607.089,-0.19691,0.0,0.0
726,181.25,39.0455,42.256,128.812,104.931,107.279,0.00274344,0.0527941,20.9866,607.058,-0.200228,0.0,0.0
737,184,39.4502,41.8018,132.363,105.005,107.55,0.00233408,0.0525052,20.987,607.058,-0.216606,0.0,0.0
748,186.75,39.1745,42.0235,131.246,105.061,108.358,0.00203736,0.0524692,20.9873,607.048,-0.279513,0.0,0.0
759,189.5,39.9727,41.6624,130.463,105.117,107.998,0.00210426,0.0523673,20.9879,607.048,-0.244608,0.0,0.0
770,192.25,39.5007,41.4317,132.853,105.155,108.637,0.00213697,0.0521397,20.9893,607.028,-0.2947,0.0,0.0
781,195,39.3803,41.4123,128.443,105.18,108.648,0.00204506,0.0521675,20.9901,606.978,-0.293373,0.0,0.0
792,197.75,38.7499,41.6731,127.385,105.22,108.512,0.00207581,0.0520196,20.9903,607.008,-0.278741,0.0,0.0
803,200.5,39.7704,41.1928,132.786,105.261,108.764,0.00203292,0.0519621,20.9904,606.958,-0.29612,0.0,0.0
814,203.25,39.2883,41.1902,131.019,105.301,108.192,0.00191127,0.0519605,20.9895,606.968,-0.245055,0.0,0.0
825,206,39.0191,41.1715,130.665,105.323,108.256,0.00185384,0.0519955,20.9886,606.958,-0.248461,0.0,0.0
836,208.75,38.9246,40.6654,130.123,105.317,108.718,0.00194123,0.0523228,20.9883,606.948,-0.287458,0.0,0.0
847,211.5,38.7908,41.1277,132.806,105.341,108.235,0.00201296,0.0525695,20.9885,606.928,-0.245152,0.0,0.0
858,214.25,38.6719,40.9339,132.001,105.378,109.107,0.0019389,0.0526094,20.9887,606.918,-0.314532,0.0,0.0
869,217,39.086,40.6486,132.515,105.387,108.495,0.0017163,0.052607,20.9888,606.908,-0.262925,0.0,0.0
880,219.75,39.0756,40.7251,132.767,105.393,108.126,0.00162381,0.0525236,20.9888,606.888,-0.231538,0.0,0.0
891,222.5,38.3644,40.5494,129.497,105.384,108.931,0.00167827,0.0523052,20.9888,606.838,-0.299455,0.0,0.0
902,225.25,38.8842,40.3243,131.851,105.397,108.643,0.00175719,0.0521315,20.9888,606.848,-0.274433,0.0,0.0
913,228,38.8893,40.7766,129.713,105.409,108.786,0.00165598,0.0518792,20.9901,606.848,-0.285276,0.0,0.0
924,230.75,38.8643,40.6399,130.601,105.414,108.395,0.00156392,0.0518588,20.9908,606.838,-0.252214,0.0,0.0
935,233.5,38.7354,40.7836,130.442,105.411,109.116,0.00152045,0.0515729,20.991,606.828,-0.312475,0.0,0.0
946,236.25,38.7535,40.9094,133.74,105.417,108.021,0.00161105,0.0514294,20.9911,606.818,-0.22066,0.0,0.0
957,239,39.183,40.491,130.344,105.423,108.715,0.00181402,0.0513741,20.9911,606.788,-0.278155,0.0,0.0
968,241.75,38.6533,40.471,131.601,105.424,108.386,0.00203786,0.0512939,20.9911,606.788,-0.250606,0.0,0.0
979,244.5,39.2365,41.0369,134.264,105.441,107.767,0.00204521,0.0512768,20.9911,606.778,-0.19735,0.0,0.0
990,247.25,39.3969,40.7586,131.003,105.436,108.952,0.00194737,0.0513349,20.9926,606.748,-0.296698,0.0,0.0
1001,250,38.7983,40.5829,129.669,105.433,108.621,,0.0511434,,606.748,-0.269527,0.0,0.0
1012,252.75,38.7276,40.1947,131.022,105.447,108.025,,,,606.748,-0.218436,0.0,0.0
1023,255.5,38.7932,40.4157,132.734,105.436,109.306,,,,606.728,-0.326,0.0,0.0
1034,258.25,38.3174,40.6535,131.969,105.448,108.198,,,,606.718,-0.232896,0.0,0.0
1036,258.75,38.6842,40.6291,132.337,105.443,109.221,,,,606.738,-0.318441,0.0,0.0