File: 01_Data/Polyester_Microfiber_Sheet/Cone/Polyester_Microfiber_Sheet_Cone_HF75Scan_220523_R1.csv
Names,Time,Stack TC,Smoke TC,Exh Press,Smoke Comp,Smoke Meas,CO Meter,CO2 Meter,O2 Meter,Sample Mass,Ext Coeff,Start Test,Flame Verif
Chan Gain,,500,500,1,1,1,1,1,1,1,1,1.0,1.0
Offset,,0,0,0.135828,0,0,0,0,0,0,0,0.0,0.0
Gain,,1,1,25.011,13.8491,15.2622,1,1,1,1.00087,1.03118,1.0,1.0
Units,sec,C,C,Pa,%,%,%,%,%,g,/m,,
Baseline,,47.6213,49.5674,127.01,105.995,112.215,0.000448941,0.0464401,20.9929,-450.236,-0.515696,,
10,2.25,47.6362,50.1214,129.14,105.073,112.546,0.000599843,0.0586571,20.9831,615.546,-0.621488,0.0,0.0
20,4.75,47.6317,50.0541,127.153,105.155,110.777,0.0006712,0.0582766,20.9823,615.646,-0.471165,0.0,0.0
30,7.25,48.5187,49.8183,125.641,105.193,111.403,0.000561614,0.0571477,20.9823,615.706,-0.518829,0.0,0.0
40,9.75,47.8726,50.39,122.281,105.252,111.859,0.000431348,0.0569799,20.9814,615.736,-0.550728,0.0,0.0
50,12.25,48.5505,50.5256,126.922,105.283,111.279,0.000271219,0.0589241,20.9793,615.726,-0.501025,0.0,0.0
60,14.75,48.3844,50.303,125.729,105.331,110.67,0.000500595,0.0604368,20.978,615.746,-0.447304,0.0,0.0
70,17.25,48.1685,50.425,121.452,105.354,106.67,0.00182417,0.078202,20.9428,615.576,-0.11232,0.0,1.0
80,19.75,49.5148,50.3986,116.708,105.379,95.5926,0.00566608,0.172436,20.8249,615.456,0.881637,0.0,1.0
90,22.25,49.6555,50.0434,109.015,105.371,80.1334,0.0127856,0.357588,20.5981,615.025,2.47659,0.0,1.0
100,24.75,53.5282,52.1404,97.5482,105.39,66.0617,0.0241884,0.666028,20.1587,614.325,4.22498,0.0,0.0
110,27.25,60.0312,56.8474,96.0316,105.379,60.6146,0.0331971,1.04927,19.8173,613.504,5.00243,0.0,0.0
120,29.75,65.6731,61.8476,100.687,105.404,72.8461,0.0345132,1.19109,19.6851,612.954,3.34186,0.0,0.0
130,32.25,69.2938,66.0392,112.403,105.412,81.2447,0.0289485,1.06211,19.9095,612.453,2.35557,0.0,0.0
140,34.75,70.3544,68.5914,115.952,105.412,88.3341,0.0213194,0.806373,20.1615,612.233,1.59878,0.0,0.0
150,37.25,70.6033,69.5061,121.448,105.417,98.234,0.0147008,0.602953,20.3899,612.033,0.63839,0.0,0.0
160,39.75,69.8289,68.6579,121.335,105.414,104.567,0.0101428,0.44499,20.5676,611.873,0.0730185,0.0,0.0
170,42.25,69.3057,69.3057,121.207,105.414,107.389,0.00717468,0.340064,20.677,611.853,-0.167908,0.0,0.0
180,44.75,67.8845,68.8031,123.879,105.405,108.62,0.00574676,0.271916,20.7517,611.743,-0.271768,0.0,0.0
190,47.25,66.4496,68.2728,122.639,105.42,110.709,0.00533222,0.226599,20.7973,611.682,-0.44281,0.0,0.0
200,49.75,66.1103,68.1764,122.75,105.412,110.471,0.00538087,0.197053,20.8266,611.592,-0.424032,0.0,0.0
210,52.25,65.1624,67.4703,121.544,105.424,111.698,0.00560104,0.176134,20.8451,611.552,-0.522952,0.0,0.0
220,54.75,63.9475,66.9979,125.986,105.415,111.204,0.00594166,0.160369,20.8616,611.452,-0.483568,0.0,0.0
230,57.25,63.4211,66.8812,122.242,105.431,110.959,0.00634546,0.148324,20.875,611.452,-0.462314,0.0,0.0
240,59.75,62.7534,65.6671,125.64,105.42,112.334,0.00683803,0.139995,20.8854,611.412,-0.574654,0.0,0.0
250,62.25,61.698,65.3946,124.163,105.433,111.602,0.00729748,0.132548,20.8911,611.362,-0.514418,0.0,0.0
260,64.75,61.1282,64.7644,125.351,105.403,112.464,0.00769253,0.127721,20.897,611.312,-0.586489,0.0,0.0
270,67.25,60.3709,64.6579,124.79,105.406,112.184,0.00793069,0.123256,20.9015,611.242,-0.563693,0.0,0.0
280,69.75,60.0691,64.2193,123.282,105.392,112.007,0.00798429,0.118742,20.9068,611.212,-0.550681,0.0,0.0
290,72.25,59.2663,62.8524,123.695,105.411,112.956,0.00804814,0.115011,20.9109,611.062,-0.62531,0.0,0.0
300,74.75,58.7955,62.9517,126.402,105.377,112.449,0.00803741,0.113169,20.9124,611.122,-0.587541,0.0,0.0
310,77.25,58.4624,62.9427,127.73,105.368,112.157,0.00788912,0.111092,20.9136,611.092,-0.564743,0.0,0.0
320,79.75,57.8973,62.5353,124.822,105.369,111.508,0.00785367,0.109193,20.9175,611.102,-0.512228,0.0,0.0
330,82.25,57.8992,61.9462,123.909,105.345,112.567,0.00777765,0.107101,20.9205,611.012,-0.599772,0.0,0.0
340,84.75,56.9387,61.8785,125.701,105.331,113.374,0.00758753,0.104929,20.923,611.042,-0.665636,0.0,0.0
350,87.25,56.9855,60.8647,123.19,105.313,111.638,0.00746207,0.103082,20.9253,610.922,-0.527627,0.0,0.0
360,89.75,56.4922,60.9781,124.599,105.292,112.103,0.00748305,0.100664,20.9281,610.842,-0.566955,0.0,0.0
370,92.25,56.0189,60.3403,126.597,105.25,112.537,0.00756544,0.0975115,20.9319,610.882,-0.605508,0.0,0.0
380,94.75,55.5819,59.9901,125.846,105.239,112.107,0.00775635,0.0942237,20.9363,610.822,-0.571868,0.0,0.0
390,97.25,55.4911,59.7921,122.919,105.201,112.743,0.00786446,0.0909259,20.9395,610.782,-0.626291,0.0,0.0
400,99.75,55.0434,60.0221,126.829,105.18,111.969,0.00782326,0.0876421,20.9449,610.752,-0.565752,0.0,0.0
410,102.25,55.2319,58.8707,124.449,105.107,112.894,0.00774934,0.0841823,20.9488,610.692,-0.646499,0.0,0.0
420,104.75,54.7565,58.8717,126.674,105.035,112.189,0.00775473,0.0817042,20.9516,610.692,-0.596007,0.0,0.0
430,107.25,54.3693,58.8322,122.936,104.954,111.274,0.007835,0.0796651,20.9538,610.692,-0.528902,0.0,0.0
440,109.75,54.3396,58.2788,125.047,104.865,111.532,0.00789156,0.0776789,20.9562,610.632,-0.557507,0.0,0.0
450,112.25,54.0409,58.1456,125.575,104.775,111.945,0.00766967,0.0757882,20.958,610.612,-0.598719,0.0,0.0
460,114.75,54.1347,57.7338,127.21,104.701,110.829,0.00731881,0.0738981,20.9604,610.572,-0.514554,0.0,0.0
470,117.25,53.9407,57.524,124.611,104.617,111.533,0.00719459,0.0726816,20.9614,610.491,-0.579045,0.0,0.0
480,119.75,53.7409,57.2033,125.043,104.551,112.679,0.0070694,0.0720527,20.9624,610.461,-0.677198,0.0,0.0
490,122.25,51.6037,55.4934,122.285,104.503,111.614,0.00685561,0.0711032,20.9642,610.391,-0.595489,0.0,0.0
500,124.75,51.9998,55.4991,125.902,104.429,110.552,0.00659904,0.069734,20.9664,610.451,-0.515378,0.0,0.0
510,127.25,51.7268,55.5253,125.889,104.386,110.657,0.00629417,0.0687774,20.9682,610.401,-0.527723,0.0,0.0
520,129.75,51.2786,55.3211,129.175,104.318,111.044,0.00604778,0.0679589,20.9703,610.361,-0.565205,0.0,0.0
530,132.25,51.7602,54.8814,125.965,104.275,111.436,0.00560401,0.0667784,20.9715,610.361,-0.600795,0.0,0.0
540,134.75,51.4007,55.1959,124.209,104.239,110.473,0.00526976,0.0656087,20.9719,610.311,-0.525426,0.0,0.0
550,137.25,51.7184,54.1101,120.728,104.23,110.744,0.00522565,0.0649708,20.9721,610.241,-0.548363,0.0,0.0
560,139.75,51.3379,54.4928,127.043,104.218,111.663,0.00501683,0.0640782,20.9721,610.211,-0.624104,0.0,0.0
570,142.25,51.071,54.0118,126.121,104.204,111.339,0.00476134,0.0633883,20.9722,610.271,-0.599016,0.0,0.0
580,144.75,50.5355,54.1302,121.517,104.193,111.732,0.00471714,0.0632626,20.9729,610.211,-0.631925,0.0,0.0
590,147.25,51.2685,54.44,126.233,104.191,111.058,0.00461106,0.0632894,20.9752,610.171,-0.577344,0.0,0.0
600,149.75,51.0689,53.9875,125.16,104.179,111.909,0.00444983,0.0625504,20.9762,610.101,-0.647452,0.0,0.0
610,152.25,50.4331,54.5851,125.592,104.175,111.044,0.0043372,0.0617416,20.9766,610.111,-0.577563,0.0,0.0
620,154.75,50.5852,53.7905,123.634,104.182,110.918,0.00420627,0.0612845,20.9767,610.071,-0.566726,0.0,0.0
630,157.25,51.1925,54.0296,128.9,104.18,111.244,0.0039612,0.0614625,20.9767,610.081,-0.593421,0.0,0.0
640,159.75,50.7876,53.7928,125.42,104.185,111.347,0.00366867,0.061417,20.9767,610.031,-0.601422,0.0,0.0
650,162.25,50.6851,53.9064,123.259,104.184,111.1,0.00355372,0.0609048,20.9767,610.001,-0.581419,0.0,0.0
660,164.75,50.7755,53.6383,124.973,104.204,110.999,0.00346391,0.0604111,20.978,609.951,-0.57135,0.0,0.0
670,167.25,50.7133,53.5006,125.765,104.174,111.134,0.0032935,0.0598501,20.9799,609.941,-0.585029,0.0,0.0
680,169.75,50.5882,53.6485,125.839,104.207,110.389,0.00322595,0.0594902,20.9809,609.921,-0.521309,0.0,0.0
690,172.25,50.3153,53.2693,130.002,104.201,110.043,0.00315276,0.0586359,20.9812,609.871,-0.493382,0.0,0.0
700,174.75,50.9131,53.6469,123.874,104.215,111.325,0.00311173,0.0579905,20.9815,609.881,-0.596927,0.0,0.0
710,177.25,51.2062,53.5353,124.371,104.204,112.004,0.00297052,0.0576279,20.9829,609.871,-0.652928,0.0,0.0
720,179.75,51.3591,53.1977,121.986,104.228,111.131,0.00270243,0.0572247,20.9834,609.811,-0.580031,0.0,0.0
730,182.25,50.8176,52.7889,130.172,104.239,111.27,0.00243375,0.0568563,20.9836,609.811,-0.590442,0.0,0.0
740,184.75,50.6627,53.5454,126.7,104.252,112.463,0.0022747,0.0566061,20.9836,609.801,-0.685796,0.0,0.0
750,187.25,50.0061,53.3231,122.929,104.266,111.836,0.00224748,0.0565039,20.9837,609.751,-0.633947,0.0,0.0
760,189.75,50.4357,53.4106,126.077,104.283,111.774,0.00223768,0.0562091,20.9837,609.741,-0.627543,0.0,0.0
770,192.25,50.1539,54.0112,126.204,104.293,111.159,0.00217324,0.0558812,20.9841,609.681,-0.576733,0.0,0.0
780,194.75,50.4213,53.1976,123.566,104.301,111.922,0.00218337,0.0555304,20.9847,609.711,-0.637871,0.0,0.0
790,197.25,50.4349,53.2043,121.82,104.326,110.931,0.00203805,0.055357,20.986,609.661,-0.555247,0.0,0.0
800,199.75,50.4751,53.336,126.393,104.327,111.427,0.00200138,0.0552496,20.9864,609.611,-0.595532,0.0,0.0
810,202.25,50.4701,53.134,126.118,104.355,111.556,0.00207382,0.055065,20.9865,609.601,-0.603581,0.0,0.0
820,204.75,51.0206,53.1354,127.982,104.348,112.183,0.00210141,0.0547841,20.9866,609.551,-0.654858,0.0,0.0
830,207.25,50.3473,53.328,124.021,104.381,112.135,0.00214849,0.0545697,20.9866,609.521,-0.648169,0.0,0.0
840,209.75,50.8182,52.9861,126.966,104.393,111.71,0.00222491,0.0543241,20.9866,609.501,-0.61274,0.0,0.0
850,212.25,50.1742,53.0034,125.832,104.43,110.451,0.00220687,0.0541146,20.9866,609.511,-0.506995,0.0,0.0
860,214.75,50.4845,53.5516,126.315,104.471,110.442,0.002173,0.0538978,20.988,609.491,-0.502795,0.0,0.0
870,217.25,50.6242,52.87,126.302,104.508,110.53,0.00221811,0.054152,20.9872,609.451,-0.506782,0.0,0.0
880,219.75,50.4961,53.372,123.319,104.564,111.55,0.00226752,0.0545478,20.9868,609.451,-0.58501,0.0,0.0
890,222.25,51.0552,53.1966,126.849,104.624,111.128,0.00213597,0.0546374,20.9867,609.431,-0.545501,0.0,0.0
900,224.75,50.4836,52.884,126.392,104.666,112.167,0.00201088,0.0544514,20.9867,609.401,-0.626146,0.0,0.0
910,227.25,51.0448,53.244,127.383,104.719,112.596,0.00193216,0.0544612,20.9866,609.35,-0.656035,0.0,0.0
920,229.75,51.2912,53.324,128.804,104.763,112.212,,0.0543362,,609.36,-0.621354,0.0,0.0
930,232.25,50.4621,53.0354,125.837,104.806,112.29,,0.0544919,,609.33,-0.623901,0.0,0.0
940,234.75,50.67,52.6477,126.75,104.879,111.095,,,,609.3,-0.520839,0.0,0.0
950,237.25,50.354,53.1055,126.448,104.933,110.655,,,,609.26,-0.480228,0.0,0.0
960,239.75,50.5594,52.7935,126.601,105.007,112.706,,,,609.23,-0.639962,0.0,0.0
962,240.25,50.8746,53.0741,121.618,105.017,112.335,,,,609.23,-0.609356,0.0,0.0