File: 01_Data/Polyester_Carpet_MedPile/MCC/Polyester_Carpet_MedPile_MCC_30K_min_211029_R1.txt
Sample ID:	C:\MCC\MCC Cal\Test\Polyester_Carpet_MedPile_MCC_30K_min_211029_R1.txt
Sample Weight (mg):	4.64
Heating Rate (C/s):	0.5
Combustor Temp (C):	900
N2 Flow Rate (cc/min):	80
O2 Flow Rate (cc/min):	20
Calibration File:	C:\MCC\MCC Cal\Coeff1 JN10440_30_210304.txt.txt
T Correction Coefficients:	0	1.024463	0
Time Shift (s):	14
*
Time (s)	Temperature (C)	N2 flow rate (cc/min)	O2 flow rate (cc/min)	Flow Rate (cc/min)	Oxygen (%)	HRR (W/g)	Heating rate (C/s)
0.000	109.447	79.992	19.998	102.897	20.040	0.172	-0.023
8.000	109.403	79.994	19.995	102.902	20.037	0.392	-0.003
16.000	109.376	79.992	19.996	102.920	20.041	0.099	0.009
24.000	109.422	79.992	19.995	102.911	20.034	0.639	0.040
32.001	109.689	79.992	19.996	103.007	20.024	1.285	0.045
40.000	110.295	79.991	19.996	103.053	20.013	2.035	0.093
48.000	111.277	79.991	19.995	103.081	20.008	2.435	0.155
56.000	112.600	79.992	19.995	103.086	20.004	2.688	0.189
64.000	114.350	79.992	19.996	103.124	20.000	2.982	0.240
72.000	116.371	79.992	19.995	103.137	19.996	3.280	0.269
80.001	118.697	79.993	19.995	103.205	19.993	3.423	0.346
88.000	121.346	79.993	19.995	103.154	19.990	3.683	0.352
96.000	124.296	79.993	19.996	103.165	19.988	3.793	0.383
104.000	127.483	79.993	19.995	103.197	19.987	3.904	0.389
112.000	130.884	79.992	19.995	103.138	19.986	3.918	0.438
120.001	134.473	79.992	19.996	103.189	19.986	3.919	0.417
128.000	138.291	79.991	19.998	103.150	19.991	3.571	0.476
136.000	142.138	79.992	19.997	103.141	19.989	3.738	0.468
144.000	146.110	79.994	19.996	103.177	19.993	3.479	0.516
152.000	150.075	79.992	19.996	103.154	19.992	3.493	0.493
160.000	154.151	79.992	19.995	103.156	19.997	3.194	0.513
168.000	158.156	79.993	19.995	103.125	19.991	3.611	0.521
176.000	162.208	79.991	19.996	103.168	19.996	3.267	0.530
184.000	166.199	79.992	19.996	103.125	19.998	3.110	0.503
192.000	170.152	79.992	19.995	103.115	19.995	3.302	0.486
200.000	174.105	79.993	19.995	103.128	19.999	3.008	0.497
208.000	178.023	79.991	19.995	103.105	20.002	2.839	0.496
216.000	181.989	79.993	19.996	103.093	20.001	2.925	0.498
224.000	185.892	79.993	19.996	103.099	20.000	2.946	0.478
232.000	189.875	79.992	19.997	103.104	20.002	2.831	0.522
240.000	193.736	79.993	19.998	103.088	20.003	2.766	0.525
248.000	197.625	79.995	19.995	103.087	20.007	2.476	0.478
256.000	201.548	79.992	19.996	103.094	20.002	2.818	0.482
264.000	205.554	79.991	19.996	103.089	20.003	2.768	0.513
272.000	209.536	79.991	19.996	103.094	20.008	2.384	0.488
280.000	213.496	79.993	19.995	103.120	20.006	2.563	0.495
288.000	217.503	79.994	19.995	103.081	20.008	2.408	0.495
296.000	221.463	79.991	19.996	103.161	20.014	2.029	0.490
304.000	225.441	79.995	19.995	103.070	20.008	2.440	0.497
312.000	229.442	79.995	19.995	103.117	20.011	2.198	0.502
320.000	233.487	79.994	19.994	103.086	20.009	2.318	0.489
328.000	237.567	79.994	19.995	103.103	20.011	2.204	0.554
336.000	241.578	79.993	19.995	103.117	20.014	2.030	0.498
344.000	245.666	79.994	19.996	103.095	20.015	1.956	0.514
352.000	249.705	79.993	19.996	103.086	20.013	2.095	0.510
360.000	253.693	79.992	19.996	103.071	20.013	2.099	0.482
368.000	257.654	79.992	19.995	103.082	20.017	1.782	0.495
376.000	261.564	79.992	19.997	103.080	20.017	1.788	0.499
384.000	265.516	79.995	19.995	103.045	20.013	2.034	0.499
392.000	269.408	79.991	19.995	103.076	20.017	1.790	0.511
400.000	273.401	79.994	19.995	103.076	20.015	1.914	0.509
408.000	277.343	79.994	19.995	103.066	20.011	2.182	0.475
416.000	281.250	79.992	19.998	103.086	20.015	1.899	0.515
424.000	285.212	79.996	19.997	103.086	20.017	1.817	0.494
432.000	289.216	79.995	19.995	103.050	20.013	2.067	0.462
440.000	293.237	79.992	19.996	103.049	20.017	1.786	0.516
448.000	297.151	79.991	19.996	103.063	20.011	2.206	0.528
456.000	301.105	79.993	19.996	103.066	20.011	2.174	0.471
464.000	305.049	79.994	19.995	103.051	20.010	2.308	0.520
472.000	309.067	79.993	19.996	103.063	20.005	2.596	0.517
480.000	313.023	79.995	19.996	103.056	20.010	2.310	0.458
488.000	316.968	79.994	19.997	103.046	20.012	2.110	0.496
496.000	320.957	79.992	19.996	103.048	19.999	3.039	0.488
504.000	324.937	79.994	19.995	103.070	20.001	2.876	0.480
512.000	329.041	79.993	19.995	103.079	19.998	3.092	0.526
520.000	333.167	79.991	19.996	103.054	19.993	3.434	0.533
528.000	337.341	79.991	19.996	103.047	19.985	3.979	0.499
536.001	341.432	79.993	19.995	103.075	19.985	4.006	0.490
544.000	345.517	79.995	19.994	103.049	19.975	4.701	0.508
552.000	349.598	79.994	19.997	103.039	19.965	5.359	0.551
560.000	353.636	79.996	19.996	103.048	19.960	5.755	0.501
568.000	357.574	79.993	19.995	103.062	19.943	6.902	0.491
576.000	361.564	79.990	19.995	103.050	19.931	7.749	0.506
584.000	365.461	79.991	19.996	103.050	19.913	8.976	0.469
592.000	369.391	79.993	19.996	103.059	19.895	10.271	0.508
600.000	373.267	79.991	19.996	103.055	19.873	11.780	0.504
608.000	377.199	79.992	19.995	103.075	19.847	13.595	0.499
616.000	381.097	79.992	19.995	103.086	19.817	15.641	0.446
624.000	385.139	79.993	19.995	103.096	19.783	18.024	0.491
632.000	389.215	79.993	19.996	103.087	19.750	20.306	0.506
640.000	393.277	79.995	19.996	103.089	19.705	23.420	0.503
648.000	397.339	79.992	19.995	103.097	19.665	26.216	0.499
656.001	401.333	79.991	19.996	103.131	19.616	29.621	0.484
664.000	405.397	79.991	19.996	103.158	19.559	33.581	0.490
672.000	409.593	79.993	19.997	103.164	19.489	38.402	0.537
680.000	413.916	79.991	19.997	103.165	19.402	44.485	0.553
688.000	418.300	79.993	19.995	103.218	19.302	51.401	0.565
696.000	422.695	79.994	19.994	103.214	19.187	59.433	0.522
704.000	427.177	79.991	19.994	103.238	19.064	67.989	0.567
712.000	431.512	79.991	19.995	103.261	18.939	76.675	0.503
720.000	435.944	79.995	19.994	103.337	18.824	84.718	0.546
728.000	440.289	79.994	19.995	103.347	18.714	92.372	0.552
736.000	444.450	79.991	19.998	103.360	18.637	97.684	0.531
744.000	448.660	79.992	19.997	103.362	18.615	99.222	0.521
752.000	452.795	79.992	19.995	103.338	18.681	94.557	0.539
760.000	456.875	79.991	19.996	103.291	18.860	82.094	0.502
768.000	460.952	79.992	19.996	103.225	19.084	66.528	0.482
776.000	464.993	79.992	19.995	103.160	19.311	50.746	0.511
784.000	469.025	79.994	19.996	103.104	19.430	42.435	0.518
792.000	473.038	79.995	19.995	103.072	19.442	41.651	0.507
800.000	477.095	79.994	19.994	103.017	19.396	44.774	0.487
808.000	481.178	79.993	19.995	103.003	19.350	47.974	0.516
816.000	485.172	79.993	19.995	102.932	19.444	41.481	0.472
824.000	489.150	79.993	19.996	102.968	19.652	27.095	0.490
832.000	493.003	79.992	19.997	103.003	19.831	14.669	0.476
840.000	496.931	79.991	19.995	103.027	19.934	7.543	0.469
848.000	500.810	79.993	19.996	103.043	19.978	4.514	0.461
856.000	504.655	79.993	19.997	103.038	19.992	3.539	0.488
864.000	508.494	79.992	19.995	103.010	19.990	3.651	0.487
872.000	512.444	79.995	19.995	103.023	19.994	3.354	0.492
880.000	516.431	79.994	19.996	103.035	19.996	3.247	0.513
888.000	520.482	79.992	19.997	103.019	20.003	2.753	0.506
896.000	524.491	79.993	19.995	103.013	19.998	3.123	0.512
904.000	528.515	79.993	19.995	103.037	19.997	3.184	0.497
912.000	532.571	79.992	19.995	103.064	19.995	3.336	0.498
920.000	536.643	79.991	19.996	103.052	20.001	2.921	0.510
928.000	540.655	79.995	19.996	103.041	20.006	2.583	0.507
936.000	544.688	79.992	19.996	103.028	20.009	2.313	0.508
944.000	548.678	79.993	19.996	103.011	20.004	2.695	0.496
952.000	552.693	79.993	19.996	103.015	20.000	2.962	0.466
960.000	556.756	79.994	19.996	103.032	19.996	3.233	0.509
968.000	560.872	79.991	19.995	103.037	19.994	3.410	0.526
976.000	564.980	79.991	19.996	103.044	19.991	3.589	0.533
984.000	569.153	79.994	19.996	103.025	19.987	3.886	0.538
992.000	573.351	79.993	19.995	103.010	19.979	4.391	0.521
1000.000	577.540	79.992	19.996	103.050	19.970	5.015	0.540
1008.000	581.631	79.991	19.996	103.061	19.957	5.979	0.518
1016.000	585.739	79.994	19.996	103.076	19.935	7.456	0.525
1024.001	589.875	79.993	19.997	103.082	19.905	9.559	0.526
1032.000	594.039	79.994	19.996	103.082	19.863	12.452	0.544
1040.000	598.108	79.993	19.996	103.069	19.821	15.372	0.538
1048.000	602.200	79.993	19.995	103.087	19.775	18.544	0.542
1056.000	606.347	79.992	19.997	103.088	19.740	20.970	0.520
1064.000	610.405	79.993	19.996	103.098	19.717	22.615	0.505
1072.000	614.572	79.993	19.996	103.090	19.720	22.407	0.527
1080.000	618.828	79.992	19.994	103.092	19.744	20.737	0.547
1088.000	623.107	79.994	19.995	103.080	19.819	15.518	0.522
1096.001	627.433	79.991	20.000	103.052	19.925	8.132	0.544
1104.001	631.696	79.994	19.995	103.047	19.979	4.424	0.549
1112.001	635.939	79.994	19.996	103.025	19.999	3.063	0.545
1120.000	640.047	79.992	19.997	103.030	20.004	2.709	0.496
1128.000	643.962	79.993	19.996	103.025	20.003	2.764	0.472
1136.001	647.829	79.992	19.996	103.015	20.002	2.848	0.464
1144.000	651.708	79.993	19.995	103.049	20.004	2.665	0.474
1152.001	655.632	79.990	19.996	103.055	20.002	2.820	0.473
1160.001	659.481	79.994	19.994	103.053	20.003	2.757	0.447
1168.000	663.366	79.994	19.993	103.049	20.000	2.994	0.510
1176.000	667.382	79.993	19.996	103.078	20.000	2.976	0.541
1184.000	671.439	79.994	19.997	103.050	19.999	3.045	0.504
1192.000	675.545	79.995	19.996	103.072	19.997	3.157	0.540
1200.000	679.718	79.990	19.997	103.076	19.998	3.113	0.503
1208.000	683.922	79.991	19.997	103.127	19.990	3.661	0.507
1216.000	688.136	79.991	19.995	103.113	19.988	3.791	0.547
1224.000	692.208	79.992	19.995	103.129	19.979	4.430	0.457
1232.001	696.437	79.991	19.996	103.153	19.979	4.458	0.487
1240.000	700.506	79.992	19.996	103.157	19.972	4.882	0.505
1248.000	704.441	79.995	19.995	103.149	19.974	4.742	0.493
1256.000	708.410	79.994	19.995	103.168	19.977	4.548	0.502
1264.000	712.330	79.994	19.996	103.173	19.975	4.707	0.498
1272.000	716.373	79.995	19.995	103.169	19.975	4.693	0.500
1280.000	720.181	79.991	19.996	103.203	19.975	4.679	0.459
1288.001	723.998	79.991	19.996	103.165	19.977	4.554	0.461
1296.001	727.826	79.991	19.998	103.151	19.984	4.056	0.472
1304.000	731.659	79.992	19.997	103.104	19.990	3.687	0.497
1312.000	735.577	79.993	19.996	103.046	20.005	2.612	0.495
1320.000	739.560	79.993	19.995	103.043	20.011	2.177	0.517
1328.000	743.587	79.994	19.997	102.976	20.012	2.165	0.500