File: 01_Data/Polyester_Carpet_MedPile/MCC/Polyester_Carpet_MedPile_MCC_30K_min_211029_R2.txt
Sample ID:	C:\MCC\MCC Cal\Test\Polyester_Carpet_MedPile_MCC_30K_min_211029_R2.txt
Sample Weight (mg):	4.17
Heating Rate (C/s):	0.5
Combustor Temp (C):	900
N2 Flow Rate (cc/min):	80
O2 Flow Rate (cc/min):	20
Calibration File:	C:\MCC\MCC Cal\Coeff1 JN10440_30_210304.txt.txt
T Correction Coefficients:	0	1.024463	0
Time Shift (s):	14
*
Time (s)	Temperature (C)	N2 flow rate (cc/min)	O2 flow rate (cc/min)	Flow Rate (cc/min)	Oxygen (%)	HRR (W/g)	Heating rate (C/s)
0.000	108.847	79.996	19.996	102.883	20.094	0.099	0.019
8.001	108.843	79.999	19.995	102.881	20.094	0.136	-0.006
16.000	108.804	79.967	19.997	102.903	20.090	0.388	-0.020
24.000	108.950	79.992	19.994	102.909	20.090	0.462	0.048
32.001	109.141	79.997	19.993	102.957	20.083	0.991	0.040
40.000	109.538	80.005	19.996	103.035	20.068	2.150	0.043
48.000	110.403	80.000	19.993	103.088	20.061	2.698	0.125
56.000	111.685	79.989	19.996	103.086	20.054	3.190	0.211
64.000	113.336	80.002	19.995	103.086	20.056	3.058	0.216
72.000	115.371	79.995	19.994	103.128	20.051	3.446	0.270
80.000	117.676	79.998	19.995	103.128	20.049	3.625	0.294
88.000	120.301	79.996	19.994	103.126	20.047	3.781	0.352
96.000	123.205	79.989	19.995	103.136	20.049	3.570	0.372
104.000	126.329	79.987	19.995	103.149	20.048	3.679	0.409
112.000	129.698	80.001	19.993	103.144	20.045	3.895	0.485
120.000	133.098	79.990	19.996	103.130	20.047	3.710	0.413
128.001	136.714	79.991	19.995	103.160	20.044	4.015	0.470
136.001	140.510	79.997	19.996	103.173	20.046	3.857	0.468
144.000	144.562	79.996	19.995	103.147	20.041	4.175	0.504
152.001	148.597	79.990	19.994	103.145	20.045	3.899	0.507
160.000	152.732	79.994	19.996	103.133	20.050	3.513	0.487
168.000	156.815	79.998	19.995	103.132	20.050	3.550	0.515
176.000	160.954	79.994	19.995	103.126	20.052	3.384	0.496
184.001	165.005	79.991	19.996	103.124	20.054	3.195	0.489
192.000	169.107	79.991	19.996	103.097	20.054	3.226	0.491
200.000	173.122	79.992	19.994	103.102	20.053	3.250	0.473
208.000	177.142	79.992	19.995	103.094	20.051	3.401	0.504
216.001	181.059	79.993	19.995	103.098	20.054	3.232	0.481
224.000	185.042	79.994	19.995	103.086	20.052	3.343	0.501
232.000	188.950	79.995	19.997	103.092	20.050	3.483	0.473
240.000	192.825	79.993	19.996	103.097	20.055	3.113	0.476
248.001	196.671	79.995	19.996	103.082	20.053	3.312	0.479
256.000	200.625	79.991	19.995	103.082	20.053	3.267	0.443
264.000	204.537	79.993	19.995	103.077	20.055	3.104	0.501
272.000	208.445	79.991	19.996	103.074	20.052	3.392	0.473
280.000	212.390	79.991	19.997	103.086	20.053	3.254	0.480
288.000	216.308	79.991	19.996	103.086	20.056	3.012	0.503
296.000	220.279	79.991	19.995	103.057	20.055	3.092	0.496
304.000	224.206	79.993	19.995	103.068	20.053	3.314	0.487
312.000	228.177	79.992	19.995	103.071	20.057	2.985	0.513
320.000	232.178	79.995	19.995	103.067	20.056	3.080	0.504
328.000	236.174	79.995	19.995	103.050	20.059	2.825	0.519
336.000	240.171	79.991	19.996	103.054	20.063	2.532	0.497
344.000	244.208	79.991	19.995	103.057	20.062	2.581	0.495
352.000	248.221	79.993	19.996	103.045	20.059	2.842	0.489
360.000	252.296	79.992	19.997	103.048	20.061	2.665	0.518
368.000	256.289	79.990	19.996	103.048	20.059	2.823	0.518
376.000	260.270	79.993	19.995	103.034	20.061	2.650	0.501
384.000	264.272	79.995	19.995	103.039	20.064	2.430	0.503
392.000	268.232	79.993	19.995	103.058	20.058	2.862	0.478
400.000	272.314	79.994	19.996	103.046	20.062	2.603	0.529
408.001	276.291	79.994	19.995	103.047	20.057	2.935	0.481
416.000	280.303	79.992	19.995	103.047	20.058	2.866	0.491
424.000	284.332	79.993	19.995	103.035	20.053	3.263	0.529
432.000	288.359	79.994	19.995	103.040	20.059	2.824	0.543
440.000	292.310	79.993	19.997	103.036	20.057	2.932	0.488
448.000	296.340	79.991	19.996	103.020	20.056	3.017	0.495
456.000	300.361	79.993	19.996	103.020	20.055	3.106	0.492
464.000	304.387	79.991	19.997	103.032	20.058	2.920	0.522
472.000	308.379	79.993	19.994	103.030	20.053	3.265	0.519
480.000	312.500	79.994	19.995	103.024	20.055	3.162	0.506
488.000	316.534	79.995	19.995	103.036	20.048	3.656	0.503
496.000	320.545	79.993	19.995	103.025	20.050	3.496	0.505
504.000	324.599	79.993	19.995	103.014	20.045	3.884	0.465
512.000	328.618	79.992	19.995	103.014	20.043	4.055	0.502
520.000	332.643	79.991	19.996	103.036	20.040	4.271	0.526
528.000	336.659	79.991	19.996	103.033	20.038	4.441	0.482
536.000	340.714	79.993	19.996	103.022	20.026	5.387	0.512
544.001	344.659	79.993	19.996	103.023	20.020	5.787	0.487
552.000	348.659	79.992	19.995	103.027	20.014	6.289	0.493
560.000	352.681	79.996	19.995	103.008	20.004	7.027	0.494
568.000	356.775	79.995	19.996	103.041	19.996	7.684	0.515
576.000	360.840	79.991	19.994	103.037	19.981	8.794	0.506
584.000	364.871	79.993	19.995	103.007	19.963	10.243	0.514
592.000	368.994	79.992	19.996	103.027	19.946	11.540	0.524
600.000	373.005	79.992	19.996	103.028	19.925	13.147	0.498
608.000	377.060	79.993	19.995	103.027	19.899	15.114	0.492
616.000	381.099	79.995	19.996	103.035	19.873	17.174	0.504
624.000	385.141	79.994	19.995	103.052	19.840	19.678	0.548
632.000	389.154	79.993	19.996	103.049	19.807	22.229	0.495
640.000	393.203	79.994	19.995	103.047	19.773	24.870	0.496
648.000	397.267	79.994	19.995	103.053	19.734	27.869	0.491
656.000	401.320	79.992	19.996	103.068	19.691	31.199	0.512
664.000	405.377	79.992	19.996	103.083	19.642	34.965	0.530
672.000	409.414	79.992	19.996	103.091	19.584	39.466	0.524
680.000	413.393	79.992	19.995	103.123	19.517	44.621	0.503
688.000	417.422	79.994	19.996	103.130	19.437	50.862	0.538
696.000	421.484	79.994	19.994	103.165	19.348	57.690	0.520
704.000	425.515	79.994	19.995	103.172	19.248	65.451	0.522
712.000	429.573	79.993	19.997	103.202	19.155	72.626	0.508
720.000	433.607	79.995	19.996	103.233	19.071	79.144	0.504
728.000	437.649	79.992	19.995	103.246	18.981	86.098	0.489
736.000	441.713	79.994	19.995	103.274	18.906	91.891	0.505
744.001	445.744	79.994	19.995	103.283	18.866	95.044	0.478
752.000	449.726	79.991	19.995	103.283	18.888	93.298	0.491
760.000	453.767	79.993	19.996	103.245	18.989	85.401	0.499
768.000	457.789	79.993	19.994	103.207	19.164	71.859	0.512
776.000	461.850	79.993	19.995	103.133	19.345	57.892	0.491
784.000	465.922	79.993	19.995	103.101	19.502	45.742	0.493
792.000	470.025	79.994	19.994	103.045	19.552	41.897	0.535
800.000	474.173	79.996	19.995	103.023	19.530	43.593	0.531
808.000	478.249	79.991	19.997	102.998	19.473	47.973	0.547
816.000	482.320	79.993	19.996	102.941	19.484	47.110	0.487
824.000	486.374	79.994	19.996	102.935	19.602	37.994	0.506
832.000	490.485	79.993	19.996	102.969	19.760	25.819	0.505
840.000	494.582	79.991	19.996	102.988	19.900	15.075	0.530
848.000	498.649	79.993	19.996	102.999	19.977	9.100	0.508
856.000	502.691	79.994	19.995	102.985	20.009	6.644	0.504
864.000	506.688	79.992	19.995	103.009	20.020	5.788	0.500
872.000	510.729	79.995	19.996	102.989	20.022	5.690	0.506
880.000	514.807	79.995	19.995	103.012	20.019	5.905	0.554
888.000	518.904	79.992	19.995	102.993	20.019	5.872	0.499
896.000	522.975	79.992	19.995	103.008	20.018	6.007	0.506
904.000	527.131	79.994	19.995	103.012	20.021	5.771	0.494
912.000	531.203	79.990	19.996	103.021	20.022	5.643	0.492
920.000	535.345	79.992	19.996	103.013	20.017	6.023	0.529
928.000	539.457	79.994	19.996	103.009	20.015	6.170	0.502
936.000	543.565	79.994	19.994	103.012	20.018	5.940	0.488
944.000	547.663	79.994	19.996	103.010	20.020	5.842	0.544
952.000	551.779	79.994	19.996	103.009	20.020	5.810	0.511
960.000	555.824	79.995	19.996	103.006	20.016	6.121	0.487
968.000	559.936	79.992	19.995	103.010	20.017	6.030	0.515
976.000	564.027	79.991	19.995	103.020	20.013	6.391	0.510
984.000	568.104	79.992	19.996	103.012	20.010	6.596	0.521
992.001	572.165	79.991	19.995	103.008	20.006	6.888	0.505
1000.000	576.338	79.991	19.994	103.015	19.997	7.587	0.493
1008.000	580.453	79.993	19.995	103.017	19.985	8.499	0.530
1016.000	584.495	79.993	19.997	103.041	19.971	9.583	0.517
1024.000	588.521	79.992	19.996	103.022	19.943	11.733	0.485
1032.000	592.557	79.995	19.994	103.044	19.906	14.635	0.527
1040.001	596.617	79.994	19.996	103.049	19.860	18.185	0.538
1048.001	600.663	79.992	19.996	103.052	19.824	20.913	0.508
1056.000	604.733	79.993	19.996	103.068	19.786	23.890	0.523
1064.000	608.802	79.993	19.996	103.078	19.764	25.535	0.509
1072.001	612.944	79.991	19.997	103.075	19.754	26.363	0.530
1080.000	617.083	79.993	19.996	103.070	19.776	24.656	0.531
1088.000	621.158	79.993	19.995	103.059	19.829	20.532	0.517
1096.000	625.256	79.993	19.996	103.044	19.918	13.651	0.513
1104.000	629.310	79.993	19.996	103.039	19.988	8.289	0.556
1112.000	633.316	79.995	19.995	102.996	20.015	6.233	0.512
1120.001	637.348	79.993	19.995	103.010	20.020	5.806	0.491
1128.000	641.292	79.992	19.996	103.005	20.024	5.547	0.493
1136.000	645.251	79.991	19.996	103.016	20.024	5.521	0.496
1144.000	649.219	79.991	19.996	103.027	20.023	5.628	0.484
1152.000	653.213	79.990	19.996	103.012	20.015	6.227	0.457
1160.001	657.177	79.991	19.997	103.033	20.013	6.337	0.502
1168.000	661.169	79.994	19.994	103.035	20.016	6.130	0.483
1176.000	665.201	79.995	19.995	103.044	20.014	6.307	0.497
1184.000	669.151	79.995	19.995	103.050	20.012	6.420	0.500
1192.000	673.066	79.995	19.995	103.057	20.010	6.559	0.480
1200.001	676.974	79.992	19.994	103.070	20.014	6.273	0.481
1208.000	680.834	79.993	19.994	103.087	20.010	6.599	0.448
1216.000	684.741	79.993	19.995	103.095	20.008	6.773	0.493
1224.001	688.606	79.991	19.996	103.099	20.008	6.767	0.435
1232.000	692.644	79.989	19.997	103.110	20.002	7.183	0.512
1240.000	696.789	79.996	19.991	103.127	20.001	7.289	0.500
1248.001	700.929	79.994	19.996	103.125	20.000	7.408	0.536
1256.000	704.976	79.993	19.999	103.138	19.995	7.735	0.498
1264.000	709.012	79.994	19.994	103.159	19.992	8.020	0.507
1272.001	713.035	79.996	19.995	103.166	19.989	8.193	0.491
1280.001	717.086	79.992	19.995	103.166	19.986	8.427	0.519
1288.000	721.077	79.991	19.994	103.162	19.985	8.535	0.512
1296.000	725.007	79.994	19.996	103.152	19.988	8.275	0.509
1304.000	729.243	79.993	19.996	103.128	19.994	7.827	0.589
1312.000	733.737	79.991	19.996	103.065	19.999	7.423	0.564
1320.000	738.444	79.992	19.996	103.041	20.013	6.362	0.590
1327.000	742.579	79.994	19.995	103.008	20.017	6.059	0.617