File: 01_Data/Pine_Siding/Cone/Pine_Siding_Cone_HF25Scan_221004_R3.csv
Names,Time,Stack TC,Smoke TC,Exh Press,Smoke Comp,Smoke Meas,CO Meter,CO2 Meter,O2 Meter,Sample Mass,Ext Coeff,Start Test,Flame Verif
Chan Gain,,500,500,1,1,1,1,1,1,1,1,1.0,1.0
Offset,,0,0,0.13918,0,0,0,0,0,0,0,0.0,0.0
Gain,,1,1,25.011,14.0162,15.5607,1,1,1,1.0009,1.02981,1.0,1.0
Units,sec,C,C,Pa,%,%,%,%,%,g,/m,,
Baseline,,21.9973,22.4144,162.089,103.427,4.19938,0.000337346,0.0864183,20.961,-2.45021,28.9426,,
67,16.5,21.3666,21.1209,158.998,104.247,4.27673,0.000124865,0.0865045,20.9615,578.112,28.849,0.0,0.0
134,33.25,21.8918,21.7372,160.851,104.622,4.215,0.000524134,0.0854967,20.9633,577.952,29.0127,0.0,0.0
201,50,22.0297,21.9751,157.672,104.278,4.19458,0.000436482,0.0865521,20.9597,577.711,29.0268,0.0,0.0
268,66.75,21.6785,22.6833,161.86,104.697,4.18365,0.00054526,0.0866945,20.9605,577.431,29.0867,0.0,0.0
335,83.5,30.238,28.7739,137.243,104.623,4.77155,0.00582336,0.494896,20.462,575.82,27.8925,0.0,0.0
402,100.25,37.768,37.7307,146.264,105.217,4.5721,0.00460482,0.394818,20.5714,573.898,28.3294,0.0,0.0
469,117,39.696,40.7419,151.098,104.624,4.38168,0.00368977,0.315084,20.6734,572.437,28.6626,0.0,0.0
536,133.75,39.1655,41.314,150.287,103.313,4.42822,0.00310093,0.28292,20.7129,571.196,28.4532,0.0,0.0
603,150.5,38.3749,41.6684,152.599,104.598,4.42584,0.00297737,0.262871,20.7392,570.055,28.5697,0.0,0.0
670,167.25,37.538,40.6194,150.427,104.372,4.42774,0.00306509,0.253337,20.7519,569.014,28.5463,0.0,0.0
737,184,37.1865,40.239,149.566,104.871,4.44294,0.00269827,0.253334,20.7533,567.933,28.5584,0.0,0.0
804,200.75,36.7812,39.6962,155.392,104.381,4.46098,0.0029196,0.246561,20.7628,566.952,28.4796,0.0,0.0
871,217.5,36.7117,39.2736,153.475,103.992,4.45006,0.0028242,0.243167,20.766,565.971,28.4679,0.0,0.0
938,234.25,36.8387,39.1989,150.465,104.067,4.44816,0.00279359,0.239895,20.7712,564.99,28.4783,0.0,0.0
1005,251,36.5725,38.999,153.207,104.77,4.4681,0.00294787,0.235755,20.7783,563.989,28.4987,0.0,0.0
1072,267.75,36.4821,38.7118,148.769,104.551,4.4871,0.00240834,0.235016,20.7755,563.028,28.4415,0.0,0.0
1139,284.5,35.743,38.492,147.628,103.449,4.44816,0.00244346,0.232442,20.7788,562.137,28.4245,0.0,0.0
1206,301.25,35.739,38.3911,155.521,104.573,4.44626,0.00251843,0.226831,20.786,561.176,28.526,0.0,0.0
1273,318,35.271,37.7913,150.914,104.349,4.46241,0.00234305,0.222903,20.7911,560.286,28.4739,0.0,0.0
1340,334.75,34.752,37.4871,152.369,104.269,4.48567,0.00246531,0.221432,20.7923,559.415,28.42,0.0,0.0
1407,351.5,34.4131,37.0787,153.335,104.891,4.4757,0.00247969,0.222163,20.7918,558.574,28.4938,0.0,0.0
1474,368.25,34.4701,37.5256,158.158,104.422,4.52224,0.00287929,0.219383,20.7953,557.693,28.3599,0.0,0.0
1541,385,34.498,36.5717,152.821,104.638,4.46098,0.00258979,0.217226,20.7972,556.863,28.5018,0.0,0.0
1608,401.75,34.3573,36.3745,153.428,104.87,4.49185,0.00293044,0.217892,20.7952,556.002,28.4594,0.0,0.0
1675,418.5,34.0514,36.5611,155.9,105.072,4.50562,0.00289365,0.217977,20.7945,555.161,28.4492,0.0,0.0
1742,435.25,34.3242,35.9961,152.339,105.22,4.4776,0.00309912,0.219176,20.7966,554.34,28.5182,0.0,0.0
1809,452,34.4111,35.9976,152.366,105.268,4.50847,0.00269082,0.218312,20.7968,553.469,28.4604,0.0,0.0
1876,468.75,34.3419,36.0631,152.189,105.289,4.4947,0.00312817,0.219122,20.7952,552.639,28.4897,0.0,0.0
1943,485.5,34.1565,35.8764,157.233,105.272,4.48567,0.00310744,0.219766,20.7911,551.828,28.5065,0.0,0.0
2010,502.25,34.1384,35.8091,155.273,105.239,4.45861,0.00270728,0.219028,20.794,550.987,28.5583,0.0,0.0
2077,519,34.0574,35.8864,150.211,105.181,4.43629,0.0027799,0.219795,20.7941,550.207,28.5987,0.0,0.0
2144,535.75,34.113,35.9243,152.958,105.101,4.4795,0.00296649,0.220161,20.7945,549.336,28.5042,0.0,0.0
2211,552.5,34.2841,36.2626,153.693,104.959,4.52082,0.00289998,0.221596,20.7931,548.545,28.4091,0.0,0.0
2278,569.25,34.1648,36.2076,156.793,104.767,4.44958,0.00305639,0.22233,20.7919,547.724,28.536,0.0,0.0
2345,586,34.2073,36.6629,155.338,104.505,4.48473,0.00317655,0.223205,20.7882,546.924,28.4423,0.0,0.0
2412,602.75,34.2743,36.2379,158.145,104.678,4.46383,0.00256817,0.224163,20.7893,546.133,28.4994,0.0,0.0
2479,619.5,34.4552,36.3526,152.441,104.897,4.45766,0.00261639,0.226065,20.7875,545.322,28.5308,0.0,0.0
2546,636.25,34.4058,36.7024,152.518,104.717,4.50799,0.00267283,0.225179,20.7884,544.521,28.4138,0.0,0.0
2613,653,34.8781,36.3323,157.564,104.003,4.45196,0.00273828,0.229243,20.783,543.711,28.465,0.0,0.0
2680,669.75,35.0136,36.6724,152.722,104.228,4.4852,0.00270193,0.234682,20.777,542.86,28.4173,0.0,0.0
2747,686.5,35.7021,36.9938,147.52,104.587,4.49707,0.00247421,0.238727,20.7712,542.039,28.4246,0.0,0.0
2814,703.25,35.4975,37.314,151.878,104.654,4.54361,0.0023268,0.243764,20.7648,541.178,28.3373,0.0,0.0
2881,720,36.1874,37.8415,154.403,104.258,4.52509,0.00189538,0.245571,20.7625,540.288,28.34,0.0,0.0
2948,736.75,36.2051,38.0518,152.681,103.626,4.48662,0.00220195,0.245825,20.7636,539.447,28.3622,0.0,0.0
3015,753.5,36.395,38.1682,152.906,103.35,4.45718,0.00180275,0.247903,20.76,538.516,28.3976,0.0,0.0
3082,770.25,36.4246,38.5335,151.917,103.873,4.47095,0.00223184,0.251107,20.7558,537.605,28.4153,0.0,0.0
3149,787,36.7695,38.9106,153.729,104.898,4.56118,0.00206655,0.256108,20.7506,536.704,28.3235,0.0,0.0
3216,803.75,37.0317,39.044,154.596,105.313,4.61722,0.00193705,0.259501,20.7467,535.774,28.2489,0.0,0.0
3283,820.5,37.5775,39.2741,151.477,104.834,4.57163,0.00173097,0.265035,20.7406,534.783,28.2973,0.0,0.0
3350,837.25,37.4026,39.6514,150.558,104.757,4.52224,0.00186203,0.26646,20.7404,533.782,28.3888,0.0,0.0
3417,854,38.4628,39.5159,151.184,104.635,4.53601,0.00166683,0.271496,20.735,532.791,28.3508,0.0,0.0
3484,870.75,38.4193,40.3325,151.262,104.238,4.53269,0.00189458,0.274046,20.7271,531.79,28.3231,0.0,0.0
3551,887.5,38.5732,40.9686,153.237,104.645,4.57685,0.00281116,0.288899,20.7058,530.729,28.2707,0.0,0.0
3618,904.25,39.5677,41.6798,154.48,104.128,4.59537,0.00255427,0.287816,20.71,529.668,28.1895,0.0,0.0
3685,921,39.8305,41.9392,151.567,103.355,4.50325,0.00264742,0.290052,20.7066,528.637,28.3052,0.0,0.0
3752,937.75,39.701,41.8694,149.917,103.633,4.54693,0.00241516,0.286823,20.7099,527.536,28.2422,0.0,0.0
3819,954.5,39.5094,42.4622,147.222,104.631,3.74487,0.00262786,0.28657,20.7077,526.525,30.0819,0.0,0.0
3886,971.25,39.5648,41.9924,149.087,105.297,3.77146,0.00274655,0.281703,20.7154,525.484,30.0753,0.0,0.0
3953,988,39.6462,42.3265,151.371,105.092,3.76149,0.00238001,0.279167,20.7172,524.483,30.0815,0.0,0.0
4020,1004.75,39.6815,42.0404,149.185,104.518,3.74914,0.00268615,0.27523,20.7215,523.472,30.0618,0.0,0.0
4087,1021.5,39.24,41.9897,150.53,104.933,3.77431,0.002764,0.268233,20.73,522.522,30.0371,0.0,0.0
4154,1038.25,39.2922,41.0788,153.422,104.51,3.66651,0.0036212,0.266967,20.7313,521.611,30.2624,0.0,0.0
4221,1055,38.6261,41.0542,152.515,104.236,3.70023,0.00454568,0.263566,20.7339,520.68,30.156,0.0,0.0
4288,1071.75,38.9242,40.2241,153.665,104.59,3.78428,0.00413596,0.257061,20.7427,519.799,29.9837,0.0,0.0
4355,1088.5,37.6684,40.4755,155.85,104.512,3.75057,0.00456052,0.254408,20.7455,518.928,30.0578,0.0,0.0
4422,1105.25,37.6147,39.8557,152.243,103.886,3.65132,0.00415498,0.248266,20.7521,518.118,30.2458,0.0,0.0
4489,1122,37.3955,39.5578,152.077,103.32,3.69691,0.00429462,0.241592,20.763,517.307,30.0844,0.0,0.0
4556,1138.75,36.9168,38.734,150.075,103.513,3.67221,0.00465985,0.235773,20.7692,516.556,30.1618,0.0,0.0
4623,1155.5,36.6965,38.1484,152.642,104.338,3.70783,0.0045517,0.230936,20.7761,515.836,30.1463,0.0,0.0
4690,1172.25,35.8477,37.9889,152.087,105.075,3.74392,0.00484393,0.225648,20.7804,515.155,30.1224,0.0,0.0
4757,1189,35.6481,37.4599,155.373,105.338,3.72967,0.00503438,0.22358,20.7844,514.474,30.1794,0.0,0.0
4824,1205.75,35.6275,36.9568,153.726,105.109,3.73015,0.00505526,0.220824,20.7886,513.834,30.1586,0.0,0.0
4891,1222.5,35.4207,36.7218,155.018,104.711,3.71543,0.00524589,0.218439,20.7915,513.243,30.16,0.0,0.0
4958,1239.25,34.1264,36.8554,154.626,104.529,3.76481,0.00579076,0.216378,20.7905,512.603,30.025,0.0,0.0
5025,1256,34.3353,36.4409,152.1,104.944,3.72255,0.00614775,0.213564,20.7928,511.972,30.1628,0.0,0.0
5092,1272.75,33.9747,35.9104,152.897,104.833,3.68788,0.0069245,0.209856,20.7976,511.402,30.2378,0.0,0.0
5159,1289.5,34.3026,35.0259,154.072,104.056,3.7083,0.0070737,0.207449,20.8008,510.821,30.1207,0.0,0.0
5226,1306.25,32.9269,35.3691,152.645,104.219,3.67791,0.0077559,0.203615,20.806,510.271,30.2092,0.0,0.0
5293,1323,32.531,35.2255,151.418,104.453,3.70308,0.00759459,0.199004,20.8105,509.73,30.1678,0.0,0.0
5360,1339.75,32.676,34.3506,154.505,104.614,3.65797,0.00744201,0.196221,20.8164,509.19,30.2925,0.0,0.0
5427,1356.5,32.3071,33.663,152.69,104.504,3.69976,0.0085485,0.19125,20.8194,508.689,30.1803,0.0,0.0
5494,1373.25,32.0325,33.2628,156.608,104.181,3.63897,0.0082751,0.185274,20.8271,508.229,30.302,0.0,0.0
5561,1390,31.4415,32.8585,151.564,103.722,3.67079,0.0088934,0.181779,20.8315,507.758,30.1835,0.0,0.0
5628,1406.75,31.1187,32.4026,157.726,103.601,3.67886,0.00934401,0.17888,20.8339,507.348,30.1531,0.0,0.0
5695,1423.5,30.5128,32.1456,157.749,103.803,3.64467,0.00869827,0.172589,20.8406,507.008,30.2551,0.0,0.0
5762,1440.25,30.3961,32.0306,157.481,104.321,3.71685,0.00945337,0.167819,20.8484,506.657,30.1229,0.0,0.0
5829,1457,30.42,31.2331,154.193,104.613,3.72682,0.0104802,0.160392,20.8573,506.347,30.1239,0.0,0.0
5896,1473.75,29.5039,30.8558,156.053,104.187,3.7121,0.0125453,0.146763,20.8729,506.047,30.1228,0.0,0.0
5963,1490.5,28.5673,30.4738,154.789,104.776,3.70355,0.0135012,0.139903,20.8831,505.797,30.1945,0.0,0.0
6030,1507.25,28.0957,28.9015,159.447,104.543,3.69928,0.0140235,0.131988,20.8917,505.636,30.1849,0.0,0.0
6097,1524,26.9155,27.767,159.59,105.155,3.69026,0.0146753,0.126576,20.9006,505.406,30.2596,0.0,0.0
6164,1540.75,25.8253,27.4828,157.743,104.846,3.70403,0.0149439,0.126756,20.9008,505.266,30.1994,0.0,0.0
6231,1557.5,25.4698,26.4749,159.454,103.302,3.57866,0.0150857,0.125433,20.9021,505.066,30.3765,0.0,0.0
6298,1574.25,25.502,25.6696,160.185,104.281,3.63565,0.0144799,0.124159,20.9022,504.916,30.319,0.0,0.0
6365,1591,24.3293,25.8865,157.61,104.244,3.61903,0.0144337,0.123814,20.9044,504.796,30.3572,0.0,0.0
6432,1607.75,24.2215,25.5328,156.889,104.791,3.6347,0.0149721,0.123435,20.9056,504.595,30.3654,0.0,0.0
6499,1624.5,24.3045,24.8576,157.144,105.317,3.66984,0.0146864,0.122607,20.9071,504.475,30.3237,0.0,0.0
6565,1641,24.2175,24.8522,161.857,103.373,3.61998,,,,504.315,30.279,0.0,0.0