File: 01_Data/Pine_Siding/Cone/Pine_Siding_Cone_HF25Scalar_221004_R3.csv
LABORATORY,FSRI
TEST IDENT,Pine_Siding_HF25_3
OPERATOR,Dow
MATERIAL,Pine Siding
ORIENTATION,Horizontal
HEAT FLUX,25
SURF AREA,0.01
C FACTOR,0.0397745
SPEC HOLDER DIFF,-566
SPECIMEN MASS,85.52
SCAN TIME,0.25
O2 DELAY TIME,11
CO DELAY TIME,11
CO2 DELAY TIME,8
FLOW FACTOR,1
SCAN COUNT,6565
TIME TO IGN,71.75
END OF TEST SCAN,6085
END OF TEST TIME,1521.25
TEST STATUS,1
PRE TEST CMT,Dimensions: 101.75 x 101.22 x 17.97 mm
POST TEST CMT,Some minor warping in last minute prior to extinguishment.