File: 01_Data/Pine_Siding/Cone/Pine_Siding_Cone_HF25Scan_221004_R2.csv
Names,Time,Stack TC,Smoke TC,Exh Press,Smoke Comp,Smoke Meas,CO Meter,CO2 Meter,O2 Meter,Sample Mass,Ext Coeff,Start Test,Flame Verif
Chan Gain,,500,500,1,1,1,1,1,1,1,1,1.0,1.0
Offset,,0,0,0.13918,0,0,0,0,0,0,0,0.0,0.0
Gain,,1,1,25.011,14.0162,15.5607,1,1,1,1.0009,1.02981,1.0,1.0
Units,sec,C,C,Pa,%,%,%,%,%,g,/m,,
Baseline,,21.7138,22.3699,162.22,103.698,4.18244,0.000648926,0.088725,20.9565,-2.54542,29.0028,,
52,12.75,19.725,20.7391,158.62,105.162,4.17511,0.000346243,0.0952644,20.9481,560.806,29.1451,0.0,0.0
104,25.75,20.1582,21.1037,162.488,105.319,4.18508,0.000591387,0.0883368,20.959,560.666,29.1371,0.0,0.0
156,38.75,20.2296,21.0643,162.286,105.106,4.18365,0.000725334,0.0881968,20.9611,560.536,29.1219,0.0,0.0
208,51.75,20.5375,21.2931,160.374,104.693,4.17986,0.000652967,0.0881888,20.9621,560.366,29.0945,0.0,0.0
260,64.75,23.6792,23.2176,147.847,104.524,4.71979,0.00324172,0.30396,20.7028,559.585,27.9825,0.0,1.0
312,77.75,33.5497,32.9483,148.34,104.962,4.64333,0.00458482,0.464694,20.4878,557.853,28.1677,0.0,0.0
364,90.75,37.1077,37.1421,144.913,104.804,4.48425,0.00332404,0.36274,20.6197,556.572,28.4691,0.0,0.0
416,103.75,37.5163,38.9015,143.891,104.091,4.41302,0.00262071,0.307186,20.6912,555.491,28.5521,0.0,0.0
468,116.75,37.3983,39.434,153.974,104.231,4.43106,0.00230988,0.275789,20.7314,554.581,28.5274,0.0,0.0
520,129.75,36.7965,39.3135,155.015,104.433,4.42869,0.00213808,0.253929,20.7587,553.75,28.5497,0.0,0.0
572,142.75,35.8588,38.5536,152.533,104.554,4.42062,0.00248016,0.242441,20.7707,553.019,28.5766,0.0,0.0
624,155.75,35.4957,38.3814,153.928,104.568,4.42347,0.0023217,0.234634,20.7806,552.268,28.572,0.0,0.0
676,168.75,34.8963,37.8388,153.73,104.553,4.43391,0.00265275,0.22929,20.7882,551.548,28.5494,0.0,0.0
728,181.75,34.6354,37.7727,154.18,104.448,4.47238,0.00291471,0.225622,20.7936,550.917,28.4623,0.0,0.0
780,194.75,34.3459,36.9088,152.967,104.237,4.45861,0.00305947,0.219624,20.7999,550.156,28.4718,0.0,0.0
832,207.75,34.2645,36.9396,153.838,104.15,4.46288,0.0033658,0.215724,20.8053,549.476,28.4557,0.0,0.0
884,220.75,33.4909,36.7092,158.999,104.955,4.49565,0.00358573,0.211853,20.8097,548.825,28.4591,0.0,0.0
936,233.75,33.4958,36.0607,154.521,104.477,4.48947,0.00343558,0.208917,20.8145,548.205,28.4303,0.0,0.0
988,246.75,33.7873,35.9193,153.415,104.964,4.54978,0.00334585,0.206716,20.8183,547.564,28.3518,0.0,0.0
1040,259.75,33.5238,35.4693,153.588,105.313,4.52984,0.00387381,0.208798,20.8159,546.904,28.4214,0.0,0.0
1092,272.75,33.5013,35.423,154.84,104.537,4.50799,0.00325593,0.211111,20.8121,546.233,28.3984,0.0,0.0
1144,285.75,33.3817,33.7774,153.251,103.338,4.44056,0.0027298,0.212084,20.8112,545.552,28.4302,0.0,0.0
1196,298.75,33.0534,35.3261,149.56,103.672,4.4814,0.00296847,0.209353,20.8151,544.892,28.3767,0.0,0.0
1248,311.75,32.0559,36.0774,156.588,104.601,4.5023,0.0032011,0.20847,20.8136,544.251,28.4153,0.0,0.0
1300,324.75,33.0016,34.2233,151.581,104.202,4.50752,0.00379811,0.207145,20.8147,543.651,28.3702,0.0,0.0
1352,337.75,32.9072,35.0261,153.387,104.962,4.52082,0.00324497,0.205254,20.8189,543.01,28.4093,0.0,0.0
1404,350.75,32.5724,34.7863,152.335,104.861,4.51702,0.00343053,0.204701,20.8206,542.359,28.4082,0.0,0.0
1456,363.75,33.0007,34.8574,149.902,105.117,4.51702,0.0031924,0.212392,20.8119,541.709,28.4303,0.0,0.0
1508,376.75,33.222,35.3508,154.929,103.385,4.4947,0.00327699,0.208275,20.8158,541.028,28.3249,0.0,0.0
1560,389.75,32.6624,34.9391,154.06,104.1,4.52699,0.00295758,0.21031,20.8128,540.438,28.3225,0.0,0.0
1612,402.75,32.9056,34.6516,153.747,104.36,4.5645,0.00334491,0.207297,20.817,539.837,28.2705,0.0,0.0
1664,415.75,32.6339,34.698,151.118,104.951,4.52224,0.0038079,0.206354,20.8182,539.197,28.4056,0.0,0.0
1716,428.75,32.5361,34.687,151.952,105.268,4.51227,0.00366777,0.205407,20.8201,538.626,28.4527,0.0,0.0
1768,441.75,32.3099,34.9348,155.182,103.935,4.46668,0.00403823,0.203914,20.821,538.006,28.4294,0.0,0.0
1820,454.75,32.7826,34.5439,152.745,103.888,4.44056,0.0040141,0.204454,20.8204,537.445,28.4782,0.0,0.0
1872,467.75,32.5406,34.5088,158.357,104.47,4.54076,0.00386488,0.203272,20.8222,536.834,28.3271,0.0,0.0
1924,480.75,32.7508,34.6844,156,104.851,4.50515,0.0044237,0.203892,20.8206,536.224,28.4311,0.0,0.0
1976,493.75,32.6374,34.7164,154.453,104.679,4.50135,0.00389589,0.206039,20.82,535.643,28.4239,0.0,0.0
2028,506.75,33.0146,34.4011,152.233,105.312,4.52461,0.00411094,0.209641,20.8157,535.043,28.4318,0.0,0.0
2080,519.75,33.1126,35.1383,153.7,104.62,4.48615,0.00363263,0.210012,20.8127,534.422,28.4494,0.0,0.0
2132,532.75,33.469,35.5464,156.224,103.592,4.51464,0.00423603,0.213067,20.8058,533.862,28.3029,0.0,0.0
2184,545.75,32.9423,35.0402,151.985,103.359,4.44531,0.00395908,0.213873,20.8073,533.211,28.4224,0.0,0.0
2236,558.75,33.3581,35.2682,152.666,103.752,4.44199,0.00402051,0.21573,20.8059,532.631,28.4635,0.0,0.0
2288,571.75,33.0518,35.7497,153.273,104.297,4.47143,0.00355381,0.216481,20.8037,532.04,28.4511,0.0,0.0
2340,584.75,33.6698,35.4401,152.171,104.623,4.4928,0.0030906,0.219803,20.7986,531.42,28.4362,0.0,0.0
2392,597.75,33.5954,35.5245,156.665,104.625,4.44436,0.00352614,0.222205,20.795,530.789,28.5343,0.0,0.0
2444,610.75,33.8314,35.2498,153.152,104.367,4.489,0.003737,0.225026,20.7935,530.179,28.4218,0.0,0.0
2496,623.75,34.1543,35.9672,156.783,104.119,4.46193,0.00350135,0.227571,20.7895,529.578,28.4549,0.0,0.0
2548,636.75,33.6417,36.2826,155.946,104.014,4.45623,0.00331114,0.226645,20.7914,528.977,28.4574,0.0,0.0
2600,649.75,34.7543,35.7198,148.637,104.161,4.42679,0.00353622,0.230038,20.7887,528.367,28.53,0.0,0.0
2652,662.75,34.6037,36.003,153.564,104.343,4.4928,0.00320583,0.232017,20.7837,527.716,28.4121,0.0,0.0
2704,675.75,34.5001,36.1793,154.786,104.394,4.50372,0.00295279,0.235182,20.781,527.096,28.3945,0.0,0.0
2756,688.75,34.3036,37.2703,150.146,104.444,4.5987,0.00314985,0.23838,20.7778,526.425,28.2103,0.0,0.0
2808,701.75,34.5108,37.3424,153.121,104.488,4.52034,0.00269775,0.2431,20.773,525.805,28.3694,0.0,0.0
2860,714.75,35.2323,37.9799,151.092,104.494,4.50182,0.00221319,0.245115,20.7705,525.154,28.407,0.0,0.0
2912,727.75,36.0007,37.5223,151.46,104.455,4.50515,0.00300569,0.248453,20.7637,524.473,28.3969,0.0,0.0
2964,740.75,35.6899,38.3647,153.893,104.359,4.5042,0.00304345,0.250589,20.761,523.793,28.3905,0.0,0.0
3016,753.75,36.6092,38.115,153.545,104.039,4.43866,0.00238172,0.254625,20.7566,523.062,28.4952,0.0,0.0
3068,766.75,36.176,38.7014,150.941,104.076,4.4795,0.00269038,0.260462,20.7491,522.331,28.4157,0.0,0.0
3120,779.75,36.8032,39.0487,156.914,104.263,4.5042,0.00241186,0.26381,20.7446,521.621,28.3822,0.0,0.0
3172,792.75,37.2957,39.4866,153.232,104.463,4.48757,0.00259215,0.267201,20.7418,520.86,28.433,0.0,0.0
3224,805.75,37.3669,40.0063,150.864,104.583,4.48947,0.00254342,0.272935,20.7344,520.099,28.4395,0.0,0.0
3276,818.75,38.2085,40.3216,149.927,104.65,4.52509,0.00271679,0.27987,20.7267,519.269,28.3739,0.0,0.0
3328,831.75,38.7029,40.1699,151.415,104.651,4.5816,0.00255306,0.283455,20.7226,518.478,28.2619,0.0,0.0
3380,844.75,38.6466,41.4692,153.326,104.567,4.51607,0.00272911,0.287407,20.7213,517.617,28.3848,0.0,0.0
3432,857.75,39.4881,41.261,152.945,104.344,4.55596,0.00238072,0.291427,20.7168,516.746,28.2861,0.0,0.0
3484,870.75,39.463,41.5497,144.553,103.981,4.5721,0.00261308,0.297262,20.7061,515.886,28.2226,0.0,0.0
3536,883.75,39.9731,42.4266,152.403,103.574,4.50325,0.00241601,0.30118,20.7021,514.995,28.3242,0.0,0.0
3588,896.75,40.677,42.7023,151.276,103.364,4.52984,0.00252302,0.304979,20.6972,514.044,28.2527,0.0,0.0
3640,909.75,40.5792,43.3792,152.547,103.416,4.52272,0.00267011,0.310649,20.6905,513.133,28.2715,0.0,0.0
3692,922.75,41.283,43.5882,154.041,103.892,4.57068,0.00272256,0.309399,20.6896,512.182,28.2177,0.0,0.0
3744,935.75,41.3009,43.7071,148.245,104.489,4.56925,0.00306645,0.306933,20.696,511.261,28.2723,0.0,0.0
3796,948.75,41.2957,44.1371,148.607,105.037,4.57353,0.00288307,0.307838,20.6937,510.331,28.3111,0.0,0.0
3848,961.75,41.4311,43.7211,151.26,105.313,4.56118,0.00307707,0.295686,20.7083,509.49,28.3592,0.0,0.0
3900,974.75,41.2162,43.627,153.818,105.166,4.59632,0.00320494,0.287241,20.7159,508.689,28.2772,0.0,0.0
3952,987.75,40.4401,43.4128,152.435,104.677,4.61722,0.00472521,0.280501,20.7231,507.898,28.1942,0.0,0.0
4004,1000.75,40.0488,42.331,152.435,104.73,4.53079,0.00478337,0.255397,20.7522,507.238,28.3694,0.0,0.0
4056,1013.75,38.9406,41.5704,151.403,104.884,4.57068,0.0053856,0.240934,20.7686,506.637,28.3035,0.0,0.0
4108,1026.75,38.0583,40.0197,154.44,104.16,4.52746,0.00721096,0.228427,20.7847,506.087,28.3268,0.0,0.0
4160,1039.75,36.7768,39.5905,156.504,104.256,4.4795,0.00781678,0.218222,20.7961,505.576,28.4313,0.0,0.0
4212,1052.75,36.1653,37.8986,152.945,104.598,4.49042,0.00836944,0.209405,20.8039,505.106,28.4389,0.0,0.0
4264,1065.75,34.9888,37.0721,156.32,104.583,4.53269,0.00971607,0.207779,20.8058,504.615,28.353,0.0,0.0
4316,1078.75,34.474,36.0467,157.111,104.127,4.36981,0.00947187,0.21005,20.7995,504.135,28.644,0.0,0.0
4368,1091.75,34.076,35.2934,157.354,103.556,4.44246,0.0108414,0.194791,20.816,503.745,28.4454,0.0,0.0
4420,1104.75,32.7564,34.2734,153.552,103.328,4.39307,0.0124499,0.173946,20.8397,503.434,28.5265,0.0,0.0
4472,1117.75,31.4085,33.4074,156.04,103.771,4.3812,0.0145482,0.162985,20.8503,503.174,28.5896,0.0,0.0
4524,1130.75,30.3589,32.2533,157.136,104.552,4.43439,0.0163519,0.153447,20.8625,502.964,28.5483,0.0,0.0
4576,1143.75,28.9566,30.0938,164.421,105.166,4.42679,0.0222229,0.13833,20.8759,502.744,28.6167,0.0,0.0
4628,1156.75,27.8571,29.4137,161.54,105.33,4.48378,0.0228138,0.136036,20.8789,502.534,28.5153,0.0,0.0
4680,1169.75,26.7013,28.2536,156.959,105.045,4.42299,0.0234272,0.136125,20.8816,502.293,28.614,0.0,0.0
4732,1182.75,26.2532,27.6118,161.344,104.58,4.33609,0.0241815,0.135458,20.8814,502.083,28.7532,0.0,0.0
4784,1195.75,25.8752,26.8076,156.282,104.788,4.38025,0.0249001,0.135285,20.8791,501.883,28.6797,0.0,0.0
4836,1208.75,25.6538,26.4823,163.031,104.903,4.44816,0.0250512,0.135935,20.8781,501.723,28.5506,0.0,0.0
4888,1221.75,25.5431,26.5376,156.664,104.233,4.3831,0.0249319,0.135667,20.8804,501.533,28.6258,0.0,0.0
4940,1234.75,25.4069,26.1572,158.826,104.245,4.33656,0.0240432,0.134767,20.8833,501.363,28.7233,0.0,0.0
4992,1247.75,25.0684,25.8536,163.054,104.591,4.3831,0.0234888,0.134307,20.8849,501.192,28.6568,0.0,0.0
5038,1259.25,25.2949,25.5485,155.814,104.62,4.43439,,,,501.062,28.5542,0.0,0.0