File: 01_Data/Pine_Siding/Cone/Pine_Siding_Cone_HF50Scan_221004_R3.csv
Names,Time,Stack TC,Smoke TC,Exh Press,Smoke Comp,Smoke Meas,CO Meter,CO2 Meter,O2 Meter,Sample Mass,Ext Coeff,Start Test,Flame Verif
Chan Gain,,500,500,1,1,1,1,1,1,1,1,1.0,1.0
Offset,,0,0,0.13918,0,0,0,0,0,0,0,0.0,0.0
Gain,,1,1,25.011,14.0162,15.5607,1,1,1,1.0009,1.02981,1.0,1.0
Units,sec,C,C,Pa,%,%,%,%,%,g,/m,,
Baseline,,33.9236,35.0386,155.368,103.703,3.48137,0.000425024,0.0839442,20.9604,-2.56603,30.6606,,
38,9.25,31.6723,33.3813,160.111,105.362,3.49461,0.00113097,0.0922147,20.9437,553.159,30.7696,0.0,0.0
76,18.75,40.3228,40.0695,130.839,105.24,3.88163,0.00542872,0.554504,20.3743,551.618,29.8102,0.0,0.0
114,28.25,48.7022,48.2551,141.589,104.971,3.7216,0.00603075,0.548472,20.3935,550.086,30.1675,0.0,0.0
152,37.75,51.4103,52.2287,141.642,104.669,3.67079,0.00444581,0.435022,20.5307,548.945,30.2656,0.0,0.0
190,47.25,53.4452,54.9056,141.453,104.533,3.70118,0.00330892,0.391124,20.5902,547.955,30.1794,0.0,0.0
228,56.75,52.8297,55.2358,138.936,104.9,3.78143,0.00274486,0.357251,20.6319,547.034,30.0173,0.0,0.0
266,66.25,53.4099,56.3677,145.032,104.908,3.72207,0.00267108,0.335731,20.6569,546.173,30.1609,0.0,0.0
304,75.75,53.3401,56.799,139.804,104.553,3.73205,0.00236244,0.32037,20.6782,545.332,30.1061,0.0,0.0
342,85.25,52.8445,56.7478,146.606,104.081,3.70783,0.00210838,0.309828,20.6897,544.541,30.1241,0.0,0.0
380,94.75,52.5859,56.5031,145.5,104.296,3.76766,0.00214646,0.296486,20.7055,543.801,29.9981,0.0,0.0
418,104.25,52.2635,56.3272,148.747,104.607,3.85884,0.00171836,0.284966,20.7205,543.07,29.809,0.0,0.0
456,113.75,51.6347,56.1302,145.177,104.749,3.83225,0.00171232,0.274537,20.7307,542.42,29.8837,0.0,0.0
494,123.25,51.418,55.6429,148.927,104.698,3.82797,0.00222665,0.272624,20.7332,541.749,29.8893,0.0,0.0
532,132.75,51.0807,55.2356,144.735,104.388,3.89113,0.00171455,0.266967,20.7431,541.078,29.7148,0.0,0.0
570,142.25,50.7534,54.8588,147.022,103.983,3.95191,0.00134729,0.263265,20.7468,540.428,29.5396,0.0,0.0
608,151.75,50.3161,54.5438,150.934,103.637,3.85789,0.00179672,0.258089,20.7541,539.797,29.727,0.0,0.0
646,161.25,50.1231,53.8172,145.614,103.442,3.84032,0.00152594,0.255435,20.7593,539.147,29.7512,0.0,0.0
684,170.75,49.7817,53.7585,147.574,103.627,3.84602,0.00187057,0.253264,20.7612,538.536,29.754,0.0,0.0
722,180.25,49.9502,54.1907,143.562,104.086,4.007,0.00206101,0.251403,20.7625,537.915,29.4235,0.0,0.0
760,189.75,49.6904,53.303,145.268,104.661,3.93007,0.00213165,0.25095,20.762,537.325,29.6483,0.0,0.0
798,199.25,49.4483,53.0378,146.474,105.126,3.89351,0.00190697,0.247309,20.7673,536.674,29.7729,0.0,0.0
836,208.75,49.2291,53.0125,143.246,105.339,3.92865,0.00200044,0.247717,20.7652,536.144,29.71,0.0,0.0
874,218.25,49.2329,52.9396,146.402,105.4,3.95904,0.00207776,0.246621,20.7648,535.573,29.6456,0.0,0.0
912,227.75,48.8381,52.5072,147.062,105.316,3.92532,0.00197922,0.246842,20.7675,534.933,29.7157,0.0,0.0
950,237.25,48.9419,52.19,149.981,105.09,3.88781,0.00173031,0.243721,20.772,534.332,29.783,0.0,0.0
988,246.75,48.6302,52.2497,144.565,104.814,3.85979,0.00194759,0.244798,20.7694,533.752,29.8245,0.0,0.0
1026,256.25,48.6136,52.1017,148.543,104.547,3.86264,0.00171658,0.244975,20.7695,533.171,29.7949,0.0,0.0
1064,265.75,49.0361,51.9029,145.31,104.784,3.90253,0.0014941,0.246997,20.7672,532.601,29.7225,0.0,0.0
1102,275.25,48.7739,52.1701,149.088,104.992,3.92865,0.00180104,0.245107,20.7682,532.03,29.6802,0.0,0.0
1140,284.75,48.7914,52.2289,150.407,104.831,3.92105,0.00203703,0.245717,20.7684,531.45,29.6838,0.0,0.0
1178,294.25,48.4529,52.1231,146.184,104.344,3.8992,0.00167165,0.245162,20.7684,530.879,29.6922,0.0,0.0
1216,303.75,48.5231,51.874,145.572,104.173,3.88686,0.00191614,0.245641,20.7684,530.279,29.706,0.0,0.0
1254,313.25,48.6058,52.2417,151.586,104.369,3.93245,0.00198342,0.247029,20.7679,529.728,29.6177,0.0,0.0
1292,322.75,48.5025,50.7895,146.679,104.641,3.88828,0.00191831,0.24755,20.7669,529.158,29.7432,0.0,0.0
1330,332.25,48.9292,52.1478,148.099,104.752,3.91155,0.00145805,0.247164,20.7648,528.607,29.6989,0.0,0.0
1368,341.75,49.307,52.5174,147.773,104.661,4.01412,0.00192579,0.247587,20.764,528.087,29.4572,0.0,0.0
1406,351.25,49.7301,52.1231,143.627,104.461,3.97756,0.00200288,0.246541,20.7667,527.516,29.5226,0.0,0.0
1444,360.75,49.7499,51.2329,145.421,104.164,3.96569,0.00210856,0.247563,20.7658,526.936,29.5239,0.0,0.0
1482,370.25,49.2914,52.2316,139.845,103.85,3.87783,0.00163501,0.247575,20.7673,526.385,29.6989,0.0,0.0
1520,379.75,48.802,52.0372,146.751,103.565,3.94194,0.00229863,0.250494,20.7653,525.815,29.5261,0.0,0.0
1558,389.25,49.3117,52.3804,151.591,103.421,3.86406,0.00219632,0.252761,20.759,525.284,29.6937,0.0,0.0
1596,398.75,49.3016,52.1517,149.463,103.483,3.89351,0.00197634,0.255504,20.7563,524.694,29.6305,0.0,0.0
1634,408.25,49.3036,52.3767,148.389,103.663,3.89303,0.00225872,0.259083,20.7529,524.123,29.6473,0.0,0.0
1672,417.75,49.8806,52.4343,144.867,103.943,3.90538,0.00219384,0.260253,20.7497,523.553,29.6431,0.0,0.0
1710,427.25,50.1287,52.8814,145.548,104.317,3.9277,0.00215287,0.265314,20.7429,522.952,29.6241,0.0,0.0
1748,436.75,49.9929,53.1665,147.231,104.679,3.97898,0.00217141,0.266599,20.7421,522.341,29.5382,0.0,0.0
1786,446.25,50.3686,53.0087,144.046,105.013,3.98088,0.00225459,0.271026,20.7353,521.741,29.5627,0.0,0.0
1824,455.75,50.4556,53.5928,141.051,105.262,3.95191,0.00220369,0.275501,20.7337,521.12,29.65,0.0,0.0
1862,465.25,50.7485,53.7982,141.143,105.374,4.0013,0.00200833,0.278057,20.7301,520.57,29.5474,0.0,0.0
1900,474.75,51.1224,54.0489,143.933,105.402,4.00985,0.00243395,0.279992,20.728,519.929,29.5306,0.0,0.0
1938,484.25,51.4716,53.6348,143.63,105.302,3.95144,0.00238755,0.286325,20.7169,519.319,29.6546,0.0,0.0
1976,493.75,51.1636,54.6816,140.589,105.088,3.97281,0.00216,0.287185,20.7168,518.688,29.5875,0.0,0.0
2014,503.25,51.6677,54.9235,145.12,104.857,3.97138,0.00215676,0.29156,20.7149,518.038,29.5708,0.0,0.0
2052,512.75,52.0461,54.9533,141.64,104.637,3.95951,0.00208742,0.294996,20.7099,517.387,29.5789,0.0,0.0
2090,522.25,52.4412,55.4775,147.827,104.482,3.95049,0.00228945,0.299178,20.7033,516.716,29.5861,0.0,0.0
2128,531.75,52.8337,55.8869,139.308,104.832,4.01697,0.00246759,0.307047,20.6942,516.066,29.4655,0.0,0.0
2166,541.25,52.9832,56.1349,142.341,104.975,3.99655,0.00208069,0.307786,20.6935,515.375,29.5239,0.0,0.0
2204,550.75,53.5272,56.6559,142.615,104.988,3.97281,0.002124,0.310994,20.6883,514.665,29.5789,0.0,0.0
2242,560.25,53.6484,57.2585,146.254,104.829,3.93245,0.00187523,0.309053,20.6917,513.964,29.6574,0.0,0.0
2280,569.75,54.3696,57.5219,142.018,104.474,3.95856,0.00203913,0.309258,20.6888,513.293,29.5669,0.0,0.0
2318,579.25,54.0908,57.354,139.748,104.102,3.95999,0.00185724,0.311583,20.688,512.633,29.5315,0.0,0.0
2356,588.75,54.2043,57.5469,144.955,104.207,3.97946,0.00217254,0.314508,20.6844,511.872,29.4963,0.0,0.0
2394,598.25,54.5994,57.6453,142.498,104.319,3.95856,0.00191898,0.317177,20.6822,511.211,29.5535,0.0,0.0
2432,607.75,54.8828,57.8958,144.683,104.445,3.95666,0.00204704,0.317282,20.6803,510.501,29.5688,0.0,0.0
2470,617.25,54.6866,58.2256,144.61,104.578,3.94479,0.00189328,0.315542,20.6815,509.81,29.6075,0.0,0.0
2508,626.75,54.93,58.498,141.118,104.669,3.94052,0.00232488,0.317706,20.6785,509.12,29.6251,0.0,0.0
2546,636.25,55.0946,58.4414,139.654,104.708,3.97044,0.00223986,0.315475,20.6794,508.429,29.5601,0.0,0.0
2584,645.75,54.9447,58.8776,137.646,104.689,3.92342,0.0024304,0.313794,20.6852,507.768,29.6661,0.0,0.0
2622,655.25,55.1322,58.7351,143.563,104.667,3.94004,0.0024217,0.312568,20.6875,507.118,29.626,0.0,0.0
2660,664.75,55.3383,58.7598,144.116,104.565,3.97233,0.00311629,0.320315,20.6782,506.487,29.5434,0.0,0.0
2698,674.25,55.2342,58.9341,143.811,104.353,3.93007,0.00355848,0.311865,20.6866,505.867,29.6217,0.0,0.0
2736,683.75,55.0976,58.7858,147.243,104.169,3.9258,0.00363163,0.299087,20.7016,505.246,29.6156,0.0,0.0
2774,693.25,54.7439,58.3298,144.107,104.393,3.94147,0.00354458,0.288422,20.7167,504.625,29.5991,0.0,0.0
2812,702.75,54.8284,58.2846,144.329,104.93,3.93577,0.00355401,0.28628,20.717,504.085,29.6584,0.0,0.0
2850,712.25,53.9776,57.6312,144.498,104.845,3.99038,0.00307843,0.277055,20.726,503.585,29.5267,0.0,0.0
2888,721.75,53.271,56.9152,141.558,104.639,3.97851,0.0036348,0.259741,20.7459,503.114,29.5358,0.0,0.0
2926,731.25,52.7359,55.7008,146.49,105.174,3.99228,0.00475416,0.246451,20.7592,502.704,29.5507,0.0,0.0
2964,740.75,51.4187,55.303,150.262,105.378,3.95951,0.00433617,0.227822,20.7832,502.363,29.6426,0.0,0.0
3002,750.25,50.4689,54.2197,144.594,104.825,3.98421,0.00495677,0.215608,20.7986,501.993,29.5389,0.0,0.0
3040,759.75,49.6896,53.1324,147.341,103.835,3.89113,0.00565329,0.200193,20.8164,501.723,29.6668,0.0,0.0
3078,769.25,47.966,51.7241,150.035,103.415,3.98848,0.00730401,0.182775,20.8363,501.493,29.4069,0.0,0.0
3116,778.75,46.7533,50.1511,150.768,104.032,3.88448,0.00853722,0.171584,20.8492,501.312,29.6993,0.0,0.0
3154,788.25,45.4295,48.6173,150.957,104.687,3.85979,0.0103877,0.161355,20.8611,501.192,29.8137,0.0,0.0
3192,797.75,44.0654,47.058,151.18,104.531,3.90823,0.0108811,0.156658,20.8677,501.082,29.6875,0.0,0.0
3230,807.25,43.6005,46.4771,152.855,104.082,3.90015,0.0113229,0.155204,20.8694,500.922,29.6673,0.0,0.0
3268,816.75,41.7385,44.275,149.988,104.979,3.9106,0.0112974,0.152516,20.8713,500.802,29.7206,0.0,0.0
3306,826.25,41.5503,44.1441,149.041,104.623,3.85979,0.011719,0.150931,20.8738,500.702,29.8081,0.0,0.0
3344,835.75,40.4901,42.8499,156.569,105.349,3.88781,0.0116649,0.149681,20.8761,500.522,29.8052,0.0,0.0
3382,845.25,40.2093,42.4387,152.174,104.96,3.87498,0.0113927,0.148677,20.8773,500.432,29.8017,0.0,0.0
3420,854.75,39.6547,41.9165,148.504,103.693,3.80043,0.0113848,0.147848,20.8793,500.262,29.8674,0.0,0.0
3458,864.25,39.7798,41.6233,153.386,103.714,3.80755,0.0117603,0.147193,20.8815,500.201,29.8524,0.0,0.0
3496,873.75,39.1237,40.6317,150.259,104.651,3.84032,0.0110816,0.146886,20.8806,500.091,29.8562,0.0,0.0
3534,883.25,38.3415,40.6312,148.24,104.492,3.85362,0.0112235,0.145816,20.8817,499.991,29.8113,0.0,0.0
3572,892.75,39.2783,40.2768,154.732,104.497,3.88781,0.011163,0.144445,20.884,499.861,29.7319,0.0,0.0
3610,902.25,38.3489,40.2096,156.465,104.716,3.85884,0.0112371,0.144496,20.887,499.791,29.8184,0.0,0.0
3648,911.75,38.769,39.8096,149.404,105.119,3.83367,0.0113574,0.144277,20.8858,499.601,29.9122,0.0,0.0
3686,921.25,38.4866,39.8912,150.48,105.317,3.86976,,,,499.551,29.8445,0.0,0.0
3711,927.5,38.1891,40.1947,153.251,104.826,3.85979,,,,499.441,29.8257,0.0,0.0