File: 01_Data/Pine_Siding/Cone/Pine_Siding_Cone_HF50Scan_221004_R1.csv
Names,Time,Stack TC,Smoke TC,Exh Press,Smoke Comp,Smoke Meas,CO Meter,CO2 Meter,O2 Meter,Sample Mass,Ext Coeff,Start Test,Flame Verif
Chan Gain,,500,500,1,1,1,1,1,1,1,1,1.0,1.0
Offset,,0,0,0.13918,0,0,0,0,0,0,0,0.0,0.0
Gain,,1,1,25.011,14.0162,15.5607,1,1,1,1.0009,1.02981,1.0,1.0
Units,sec,C,C,Pa,%,%,%,%,%,g,/m,,
Baseline,,27.6404,28.9139,158.104,104.944,3.56957,0.000761789,0.0868108,20.9557,-2.49408,30.5421,,
40,9.75,27.1008,27.9664,158.724,104.549,3.51693,0.00132184,0.091728,20.9472,558.934,30.6421,0.0,0.0
80,19.75,35.4862,34.4682,133.533,104.187,3.74439,0.00600409,0.573894,20.3738,557.443,30.0446,0.0,0.0
120,29.75,44.0257,43.7836,140.921,103.725,3.66794,0.00617271,0.546659,20.3799,555.832,30.1908,0.0,0.0
160,39.75,47.22,48.0435,141.595,103.351,3.67411,0.00521145,0.444512,20.5108,554.611,30.143,0.0,0.0
200,49.75,49.0996,50.2001,142.93,103.316,3.67649,0.00438979,0.393141,20.5786,553.49,30.1341,0.0,0.0
240,59.75,48.991,51.8781,150.52,103.612,3.66557,0.0031042,0.358013,20.6255,552.499,30.1868,0.0,0.0
280,69.75,49.2124,52.2894,142.259,104.11,3.72492,0.00275955,0.336076,20.6521,551.608,30.0849,0.0,0.0
320,79.75,49.2937,52.8771,147.839,104.631,3.92722,0.0025097,0.314824,20.6791,550.737,29.6524,0.0,0.0
360,89.75,49.1074,52.8669,143.597,105.075,3.91108,0.00219447,0.30169,20.6955,549.906,29.7278,0.0,0.0
400,99.75,48.5378,52.7282,144.596,105.31,3.9163,0.00208658,0.293985,20.7068,549.166,29.736,0.0,0.0
440,109.75,48.3114,52.4006,145.033,105.313,3.84174,0.00214091,0.288975,20.7131,548.395,29.9098,0.0,0.0
480,119.75,47.9251,52.665,146.062,105.112,3.93197,0.00221001,0.286048,20.7162,547.604,29.6828,0.0,0.0
520,129.75,48.0138,52.12,143.825,104.812,3.87973,0.0021808,0.279383,20.7257,546.854,29.7778,0.0,0.0
560,139.75,47.7695,52.4804,146.831,104.511,3.8973,0.00255619,0.276099,20.7288,546.113,29.711,0.0,0.0
600,149.75,47.8661,52.0496,144.906,104.681,3.92532,0.0024413,0.273461,20.7315,545.432,29.661,0.0,0.0
640,159.75,47.1817,51.9802,148.25,104.936,3.92532,0.00229294,0.273453,20.7305,544.682,29.683,0.0,0.0
680,169.75,47.193,51.2263,152.023,104.929,3.98801,0.00219669,0.269127,20.737,543.991,29.5393,0.0,0.0
720,179.75,46.7893,51.1723,150.127,104.669,3.88923,0.00234709,0.267114,20.7412,543.31,29.7435,0.0,0.0
760,189.75,46.504,51.0327,146.032,104.176,3.95761,0.00225981,0.263965,20.7439,542.6,29.5433,0.0,0.0
800,199.75,46.7368,50.5777,147.559,104.121,3.93767,0.00189739,0.265417,20.7417,541.879,29.5842,0.0,0.0
840,209.75,46.8139,50.6442,148.073,104.287,3.91915,0.00231004,0.263202,20.7469,541.269,29.6412,0.0,0.0
880,219.75,47.0489,50.6776,146.416,104.43,3.92437,0.00188899,0.262977,20.7489,540.568,29.6415,0.0,0.0
920,229.75,46.8671,50.4608,146.303,104.559,3.95856,0.00177803,0.262269,20.747,539.897,29.5743,0.0,0.0
960,239.75,47.1666,49.8903,145.252,104.615,4.01697,0.00189965,0.261445,20.7475,539.217,29.4468,0.0,0.0
1000,249.75,46.6051,50.7562,147.783,104.58,3.91203,0.0021021,0.259137,20.7498,538.536,29.683,0.0,0.0
1040,259.75,46.5624,51.1723,148.456,104.453,3.86834,0.00213615,0.259298,20.7532,537.885,29.7734,0.0,0.0
1080,269.75,46.8273,50.464,146.266,104.254,3.94764,0.00221029,0.259272,20.7523,537.255,29.5729,0.0,0.0
1120,279.75,47.1342,50.3148,148.247,104.021,3.95239,0.00205867,0.259624,20.7513,536.564,29.5418,0.0,0.0
1160,289.75,47.9733,51.2998,146.392,103.761,4.07158,0.00234982,0.261261,20.7496,535.904,29.2508,0.0,0.0
1200,299.75,47.4175,50.9079,144.729,103.523,3.92295,0.00237845,0.262385,20.7489,535.283,29.566,0.0,0.0
1240,309.75,47.0842,50.7513,144.03,103.344,3.97044,0.00248986,0.260953,20.7475,534.633,29.4417,0.0,0.0
1280,319.75,47.4016,50.957,151.426,103.257,3.91582,0.00193642,0.261365,20.7443,533.962,29.5592,0.0,0.0
1320,329.75,47.5726,50.6044,149.925,103.254,3.92105,0.00252886,0.264486,20.7453,533.301,29.5469,0.0,0.0
1360,339.75,47.5269,50.6429,140.728,103.289,3.94859,0.0020818,0.261903,20.7459,532.651,29.4867,0.0,0.0
1400,349.75,48.1218,50.4087,142.851,103.294,3.95856,0.00221182,0.260901,20.7465,532.02,29.4644,0.0,0.0
1440,359.75,48.2405,50.7714,148.745,103.244,3.92437,0.00239196,0.261892,20.744,531.4,29.5384,0.0,0.0
1480,369.75,48.0425,51.2121,146.111,103.228,3.89303,0.00216674,0.26218,20.7457,530.789,29.6093,0.0,0.0
1520,379.75,48.1063,51.233,144.763,103.385,3.99845,0.00154806,0.261804,20.7457,530.118,29.3817,0.0,0.0
1560,389.75,47.8582,51.8068,146.476,103.76,4.03834,0.00192299,0.262785,20.7448,529.538,29.3248,0.0,0.0
1600,399.75,48.3705,51.2233,145.826,104.231,3.99608,0.00140149,0.264637,20.742,528.877,29.4608,0.0,0.0
1640,409.75,48.1971,51.7667,146.552,104.577,4.06873,0.00161612,0.264708,20.7419,528.287,29.3279,0.0,0.0
1680,419.75,48.6639,51.5826,144.998,104.531,3.94479,0.00159003,0.267447,20.7391,527.636,29.6034,0.0,0.0
1720,429.75,49.4972,52.1869,145.809,104.204,3.99323,0.00197226,0.269038,20.7365,526.996,29.4648,0.0,0.0
1760,439.75,49.2136,52.298,143.827,104.43,4.00463,0.00185185,0.269412,20.7381,526.365,29.4587,0.0,0.0
1800,449.75,49.532,52.3131,147.279,104.966,4.07681,0.00187145,0.271547,20.7354,525.685,29.3435,0.0,0.0
1840,459.75,49.435,52.8586,144.76,104.419,4.04784,0.00191071,0.274991,20.7293,525.044,29.3607,0.0,0.0
1880,469.75,49.8737,52.9834,148.435,105.01,4.08441,0.00165791,0.275865,20.7292,524.443,29.3305,0.0,0.0
1920,479.75,50.2127,52.8658,146.56,105.313,4.03549,0.00205183,0.281175,20.7251,523.753,29.4653,0.0,0.0
1960,489.75,50.5339,53.2012,141.87,104.652,4.03882,0.00180988,0.282532,20.7244,523.102,29.4011,0.0,0.0
2000,499.75,50.3578,53.9063,150.026,103.548,3.99133,0.00173151,0.284579,20.7206,522.482,29.412,0.0,0.0
2040,509.75,50.905,53.8889,146.875,103.415,3.98136,0.00180042,0.287493,20.7165,521.791,29.4231,0.0,0.0
2080,519.75,50.628,54.0266,148.544,104.323,4.01032,0.00165381,0.289955,20.7127,521.13,29.4365,0.0,0.0
2120,529.75,51.1325,54.4183,145.68,104.545,4.04689,0.00166824,0.296745,20.7062,520.43,29.3738,0.0,0.0
2160,539.75,50.9359,54.6114,145.706,104.052,4.03929,0.00162657,0.297429,20.7052,519.729,29.3481,0.0,0.0
2200,549.75,51.2633,54.413,148.366,104.892,4.01175,0.0017521,0.300497,20.7023,519.008,29.4825,0.0,0.0
2240,559.75,51.4968,55.1018,148.382,104.945,4.02505,0.00208158,0.306299,20.6952,518.278,29.4572,0.0,0.0
2280,569.75,52.1126,55.3082,147.393,105.204,4.08488,0.00158829,0.311044,20.6911,517.537,29.3461,0.0,0.0
2320,579.75,52.5445,55.4209,141.282,103.804,3.98516,0.00214256,0.312637,20.6877,516.826,29.4483,0.0,0.0
2360,589.75,52.4868,56.106,142.23,103.511,3.96521,0.00209513,0.31357,20.6874,516.096,29.4681,0.0,0.0
2400,599.75,52.9572,56.2764,140.699,104.572,4.05544,0.00224905,0.319417,20.6791,515.295,29.357,0.0,0.0
2440,609.75,53.5652,56.6551,147.412,104.177,3.99893,0.0020229,0.319643,20.6817,514.594,29.4496,0.0,0.0
2480,619.75,53.2184,56.9422,144.881,104.924,4.02884,0.00185782,0.321638,20.6769,513.804,29.4468,0.0,0.0
2520,629.75,53.379,57.291,140.57,104.953,3.98278,0.00218702,0.320754,20.6764,513.053,29.5532,0.0,0.0
2560,639.75,54.1701,57.0277,142.073,105.054,3.96949,0.0021804,0.322203,20.6745,512.282,29.5921,0.0,0.0
2600,649.75,53.8927,57.378,148.423,103.478,3.91915,0.00223617,0.325272,20.6728,511.572,29.5708,0.0,0.0
2640,659.75,54.5926,58.0694,144.855,103.889,3.97471,0.00214072,0.323543,20.6728,510.801,29.4795,0.0,0.0
2680,669.75,54.5106,57.942,142.529,104.66,3.94527,0.00221249,0.317603,20.6787,509.99,29.6134,0.0,0.0
2720,679.75,54.1535,57.7298,140.95,104.101,3.96616,0.00229541,0.309212,20.6892,509.32,29.5173,0.0,0.0
2760,689.75,53.5513,57.5042,143.519,104.835,3.99655,0.00216819,0.30169,20.6974,508.619,29.5118,0.0,0.0
2800,699.75,53.6022,57.0026,143.153,104.408,3.92342,0.00227641,0.300023,20.7003,507.958,29.6418,0.0,0.0
2840,709.75,53.0216,57.1112,144.348,104.976,3.96901,0.00265778,0.293723,20.7053,507.288,29.5864,0.0,0.0
2880,719.75,52.6887,56.4681,146.19,105.311,3.98326,0.00289282,0.287591,20.7163,506.697,29.5829,0.0,0.0
2920,729.75,52.5329,56.1109,145.206,105.054,4.0165,0.00281936,0.284833,20.7213,506.077,29.4857,0.0,0.0
2960,739.75,52.1981,55.7649,138.964,104.369,3.93577,0.00268848,0.279177,20.7251,505.506,29.61,0.0,0.0
3000,749.75,51.8007,55.3506,145.77,103.759,3.90918,0.00283682,0.269733,20.7372,504.976,29.6183,0.0,0.0
3040,759.75,51.0026,54.5587,144.981,103.396,3.88733,0.00291179,0.254241,20.7551,504.475,29.6373,0.0,0.0
3080,769.75,50.2824,53.6187,145.132,103.453,3.88021,0.00316938,0.239532,20.7734,504.015,29.6589,0.0,0.0
3120,779.75,49.6113,52.484,152.414,103.725,3.85457,0.00377293,0.224293,20.7892,503.655,29.7425,0.0,0.0
3160,789.75,47.9592,51.6002,149.456,104.051,3.94289,0.00394828,0.21277,20.8013,503.264,29.5661,0.0,0.0
3200,799.75,46.5857,50.8557,144.391,104.302,3.9296,0.0051461,0.206008,20.8071,502.994,29.6184,0.0,0.0
3240,809.75,46.312,49.2992,147.341,104.504,3.84602,0.00600867,0.196634,20.8186,502.724,29.8301,0.0,0.0
3280,819.75,44.9394,48.5721,147.286,104.631,3.84032,0.00688125,0.187561,20.8274,502.484,29.8545,0.0,0.0
3320,829.75,43.992,47.4244,148.405,104.676,3.83937,0.00905949,0.174273,20.8432,502.273,29.8606,0.0,0.0
3360,839.75,43.051,45.9462,152.357,104.681,3.85409,0.0103661,0.167012,20.8531,502.113,29.8265,0.0,0.0
3400,849.75,42.1934,44.6973,152.706,104.655,3.8123,0.0110831,0.168566,20.8512,501.923,29.9227,0.0,0.0
3440,859.75,40.9233,43.2566,150.991,104.6,3.81135,0.0109674,0.163653,20.8575,501.853,29.9202,0.0,0.0
3480,869.75,39.95,42.4309,153.536,104.504,3.81325,0.0110539,0.159589,20.8631,501.673,29.9074,0.0,0.0
3520,879.75,39.4785,41.7655,156.351,104.425,3.79378,0.011405,0.158037,20.8637,501.533,29.9468,0.0,0.0
3560,889.75,39.5381,41.2105,149.5,104.366,3.81753,0.0111788,0.158029,20.8622,501.383,29.8854,0.0,0.0
3600,899.75,39.0486,39.962,157.491,104.298,3.79283,0.011187,0.156147,20.8656,501.272,29.9381,0.0,0.0
3640,909.75,38.6947,40.3446,152.221,104.233,3.818,0.0111755,0.1552,20.8662,501.132,29.8727,0.0,0.0
3680,919.75,38.1946,40.1878,150.872,104.195,3.81847,0.0114799,0.154463,20.8678,501.002,29.8683,0.0,0.0
3720,929.75,37.7089,39.2454,151.736,104.198,3.78903,0.0109611,0.153816,20.8703,500.912,29.9384,0.0,0.0
3760,939.75,37.9041,39.3851,151.162,104.229,3.81278,0.0105278,0.153444,20.8707,500.782,29.8848,0.0,0.0
3800,949.75,37.7667,39.2807,153.586,104.301,3.70973,0.0105927,0.152032,20.8706,500.652,30.1385,0.0,0.0
3840,959.75,37.2741,38.6501,157.941,104.375,3.73252,0.0106099,0.152584,20.8685,500.502,30.0896,0.0,0.0
3880,969.75,36.9854,38.2988,148.613,104.479,3.77811,,,,500.402,29.9889,0.0,0.0
3885,971,37.083,38.6487,153.455,104.494,3.73822,,,,500.402,30.0861,0.0,0.0