File: 01_Data/Pine_Siding/Cone/Pine_Siding_Cone_HF75Scan_221004_R2.csv
Names,Time,Stack TC,Smoke TC,Exh Press,Smoke Comp,Smoke Meas,CO Meter,CO2 Meter,O2 Meter,Sample Mass,Ext Coeff,Start Test,Flame Verif
Chan Gain,,500,500,1,1,1,1,1,1,1,1,1.0,1.0
Offset,,0,0,0.13918,0,0,0,0,0,0,0,0.0,0.0
Gain,,1,1,25.011,14.0162,15.5607,1,1,1,1.0009,1.02981,1.0,1.0
Units,sec,C,C,Pa,%,%,%,%,%,g,/m,,
Baseline,,45.229,46.7061,150.209,103.992,3.6521,0.000257236,0.0794638,20.96875,-3.39265,30.2535,,
39,9.5,46.7769,47.0971,124.699,105.375,3.76149,0.00584393,0.421853,20.5388,569.844,30.1059,0.0,1.0
78,19.25,60.1614,59.7628,127.869,105.294,3.58816,0.011566,0.726148,20.1444,567.853,30.525,0.0,0.0
117,29,67.3828,68.3352,127.864,105.166,3.47372,0.0113414,0.644707,20.2355,566.121,30.8069,0.0,0.0
156,38.75,71.1204,73.8114,126.687,105.03,3.57059,0.011325,0.585766,20.315,564.549,30.5467,0.0,0.0
195,48.5,73.4032,76.5881,132.268,104.85,3.64799,0.0099579,0.536278,20.3747,563.098,30.3374,0.0,0.0
234,58.25,74.3937,79.1244,135.146,104.684,3.53212,0.00854775,0.502864,20.4184,561.737,30.6148,0.0,0.0
273,68,74.0149,79.3117,130.397,104.541,3.44095,0.00749546,0.474692,20.4569,560.436,30.8387,0.0,0.0
312,77.75,74.4245,79.9707,129.53,104.532,3.6233,0.00686703,0.453993,20.4826,559.225,30.3714,0.0,0.0
351,87.5,73.7958,79.8654,134.701,104.762,3.70261,0.00622656,0.426665,20.5209,558.064,30.1957,0.0,0.0
390,97.25,73.5434,79.5764,132.022,104.895,3.69453,0.00590319,0.411244,20.5418,556.893,30.2268,0.0,0.0
429,107,72.6283,79.8521,131.824,104.935,3.77146,0.00569152,0.397585,20.5612,555.792,30.0441,0.0,0.0
468,116.75,72.7482,78.9922,135.105,104.916,3.78048,0.00546484,0.391361,20.5679,554.741,30.0209,0.0,0.0
507,126.5,72.3,78.7361,136.786,104.807,3.71828,0.00473239,0.384349,20.5776,553.77,30.1614,0.0,0.0
546,136.25,71.7878,77.9996,138.547,104.612,3.78096,0.00521856,0.374811,20.5899,552.749,29.9935,0.0,0.0
585,146,71.7189,77.847,133.293,104.359,3.62947,0.00484681,0.363884,20.6062,551.768,30.3411,0.0,0.0
624,155.75,71.3195,77.2981,138.742,104.135,3.81183,0.00442528,0.360517,20.609,550.837,29.8788,0.0,0.0
663,165.5,70.4552,76.5881,138.741,104.108,3.68836,0.00405587,0.353454,20.6177,549.836,30.1739,0.0,0.0
702,175.25,69.9699,76.2085,132.856,104.182,3.75674,0.00378434,0.352,20.6198,548.885,30.0144,0.0,0.0
741,185,70.2308,75.9897,139.455,104.245,3.77669,0.00403658,0.345981,20.6274,548.015,29.972,0.0,0.0
780,194.75,69.6927,75.4474,139.493,104.311,3.77431,0.00359828,0.343746,20.6302,547.054,29.9834,0.0,0.0
819,204.5,69.7828,75.1563,136.594,104.404,3.75294,0.0035811,0.341358,20.6351,546.193,30.0428,0.0,0.0
858,214.25,69.4162,74.633,134.944,104.511,3.84459,0.00384963,0.340887,20.6352,545.272,29.8341,0.0,0.0
897,224,69.042,74.6065,136.14,104.625,3.86264,0.00378619,0.339294,20.6366,544.411,29.8016,0.0,0.0
936,233.75,69.2351,74.2936,138.684,104.7,3.78761,0.00321469,0.336822,20.6403,543.491,29.9853,0.0,0.0
975,243.5,69.2149,74.1165,136.298,104.747,3.79758,0.00346863,0.338161,20.64,542.64,29.9656,0.0,0.0
1014,253.25,68.969,73.9851,135.588,104.765,3.84982,0.00316725,0.335301,20.6451,541.739,29.8438,0.0,0.0
1053,263,68.6877,73.7831,138.745,104.753,3.89493,0.00305061,0.334508,20.6456,540.858,29.7374,0.0,0.0
1092,272.75,68.8424,73.7617,135.914,104.719,3.84839,0.00309201,0.334733,20.6431,539.997,29.8431,0.0,0.0
1131,282.5,68.9532,73.676,135.081,104.68,3.9011,0.00313478,0.335544,20.6435,539.167,29.7168,0.0,0.0
1170,292.25,68.9873,73.4872,133.779,104.611,3.87166,0.00307118,0.337676,20.6412,538.246,29.7793,0.0,0.0
1209,302,68.8006,73.4149,141.533,104.524,3.86216,0.0028449,0.335409,20.643,537.385,29.794,0.0,0.0
1248,311.75,68.8333,73.8261,140.969,104.439,3.86929,0.00326798,0.340174,20.6373,536.514,29.77,0.0,0.0
1287,321.5,69.025,73.6349,133.855,104.316,3.84649,0.00295083,0.339333,20.6389,535.683,29.8127,0.0,0.0
1326,331.25,69.0325,73.6234,133.318,104.18,3.82892,0.00307112,0.338169,20.6403,534.773,29.8423,0.0,0.0
1365,341,68.9916,73.8479,136.517,104.033,3.89445,0.00285185,0.338502,20.6416,533.952,29.6762,0.0,0.0
1404,350.75,69.3074,73.9333,139.341,103.872,3.80755,0.00319898,0.34173,20.6383,533.091,29.8661,0.0,0.0
1443,360.5,69.0487,73.7011,137.674,103.746,3.74962,0.00277201,0.342848,20.6367,532.22,29.9937,0.0,0.0
1482,370.25,69.867,74.4282,136.419,103.689,3.83652,0.00323725,0.340934,20.6374,531.34,29.7817,0.0,0.0
1521,380,69.72,74.1345,134.931,103.723,3.8973,0.00297669,0.347468,20.629,530.489,29.6427,0.0,0.0
1560,389.75,69.631,74.2025,138.569,103.821,3.79236,0.0028694,0.349819,20.6257,529.698,29.8978,0.0,0.0
1599,399.5,69.6139,74.2294,136.772,104.03,3.93672,0.00303778,0.349776,20.625,528.717,29.5784,0.0,0.0
1638,409.25,70.0744,74.5636,136.161,104.322,3.86881,0.00309805,0.352963,20.6215,527.876,29.761,0.0,0.0
1677,419,69.9623,74.6569,137.623,104.588,3.91772,0.00291184,0.356254,20.6182,527.046,29.6705,0.0,0.0
1716,428.75,69.6169,74.357,138.476,104.742,3.9315,0.00311614,0.357919,20.616,526.195,29.6521,0.0,0.0
1755,438.5,70.3128,74.3883,136.73,104.65,3.86406,0.00341421,0.360365,20.6131,525.284,29.8004,0.0,0.0
1794,448.25,70.6205,74.7458,132.802,104.279,3.82702,0.00314117,0.362753,20.6116,524.353,29.8554,0.0,0.0
1833,458,70.748,75.388,135.016,104.182,3.83082,0.00311377,0.363387,20.6116,523.543,29.838,0.0,0.0
1872,467.75,70.8665,75.2557,140.449,104.881,3.88353,0.00333028,0.364841,20.6084,522.642,29.775,0.0,0.0
1911,477.5,70.8592,75.4449,135.125,104.791,3.95429,0.00314853,0.366997,20.6064,521.811,29.6041,0.0,0.0
1950,487.25,71.224,76.251,135.691,104.646,3.78096,0.00339095,0.368481,20.6039,520.89,29.9965,0.0,0.0
1989,497,71.6984,76.1197,138.706,105.184,3.90775,0.00356014,0.37072,20.6015,519.989,29.7449,0.0,0.0
2028,506.75,71.4758,76.4323,129.446,105.363,3.86216,0.00357398,0.368672,20.603,519.078,29.8662,0.0,0.0
2067,516.5,72.0156,76.5997,135.015,104.787,3.84792,0.00289742,0.36948,20.6011,518.258,29.8501,0.0,0.0
2106,526.25,71.7244,76.4918,136.497,103.877,3.84317,0.00346937,0.365713,20.6062,517.337,29.7824,0.0,0.0
2145,536,71.5572,76.7762,134.736,103.465,3.86454,0.00364059,0.368911,20.6029,516.506,29.6965,0.0,0.0
2184,545.75,71.7329,76.7583,137.21,103.888,3.86406,0.00381898,0.371581,20.601,515.605,29.7344,0.0,0.0
2223,555.5,71.7121,76.6642,138.955,104.633,3.81895,0.00357426,0.368871,20.6009,514.735,29.9051,0.0,0.0
2262,565.25,71.6273,76.7847,137.191,104.668,3.80185,0.00376143,0.364243,20.6083,513.914,29.9486,0.0,0.0
2301,575,71.8892,76.5363,135.317,104.096,3.78001,0.00428627,0.36269,20.6089,513.073,29.9511,0.0,0.0
2340,584.75,71.4786,76.6918,132.951,104.927,3.86596,0.00414174,0.355658,20.6183,512.242,29.8199,0.0,0.0
2379,594.5,71.5711,76.1875,132.728,104.638,3.86026,0.00393404,0.347086,20.6327,511.432,29.8083,0.0,0.0
2418,604.25,70.8226,75.8981,135.291,105.329,3.89778,0.0038622,0.335457,20.645,510.731,29.7804,0.0,0.0
2457,614,70.2578,75.2412,134.973,104.879,3.94004,0.00381197,0.330632,20.6506,509.98,29.6443,0.0,0.0
2496,623.75,69.7403,74.8177,140.666,103.675,3.77241,0.00359376,0.322025,20.659,509.29,29.9328,0.0,0.0
2535,633.5,69.3697,74.2434,135.914,103.773,3.86074,0.00335502,0.31408,20.6686,508.679,29.7322,0.0,0.0
2574,643.25,68.5171,74.1229,135.396,104.554,3.81847,0.0031013,0.301317,20.6853,507.938,29.8993,0.0,0.0
2613,653,68.3487,73.3975,140.794,104.758,3.90158,0.00346081,0.29137,20.6949,507.368,29.7224,0.0,0.0
2652,662.75,67.9728,72.2123,140.354,104.151,3.82702,0.00359587,0.281343,20.7091,506.827,29.8442,0.0,0.0
2691,672.5,67.3819,71.987,140.859,104.852,3.91108,0.00360226,0.268674,20.7223,506.277,29.7086,0.0,0.0
2730,682.25,66.4436,71.1212,139.897,104.629,3.93339,0.00328006,0.257417,20.7391,505.816,29.638,0.0,0.0
2769,692,65.3711,70.0291,138.566,104.919,3.84887,0.00361437,0.251101,20.7465,505.326,29.8592,0.0,0.0
2808,701.75,65.073,69.3998,139.39,105.405,3.91013,0.00326331,0.244505,20.7549,504.876,29.7583,0.0,0.0
2847,711.5,64.1331,68.3464,143.512,105.291,3.903,0.00323372,0.236647,20.7635,504.445,29.765,0.0,0.0
2886,721.25,63.9468,67.3503,144.526,104.78,3.89493,0.00361793,0.230879,20.7702,504.025,29.7398,0.0,0.0
2925,731,62.8696,66.6219,144.797,104.204,3.83035,0.00386271,0.22451,20.7787,503.695,29.841,0.0,0.0
2964,740.75,61.8992,65.3957,141.526,103.814,3.82702,0.00370082,0.217238,20.7871,503.344,29.815,0.0,0.0
3003,750.5,61.449,64.9167,143.21,103.656,3.90253,0.00385811,0.209698,20.7969,503.034,29.6248,0.0,0.0
3042,760.25,60.3103,64.1423,144.068,103.677,3.80755,0.0037307,0.201276,20.8081,502.744,29.8492,0.0,0.0
3081,770,59.6554,62.9961,142.721,103.831,3.90253,0.00427852,0.190902,20.823,502.474,29.64,0.0,0.0
3120,779.75,58.6544,62.4639,144.684,104.057,3.98088,0.00410768,0.179626,20.8375,502.283,29.48,0.0,0.0
3159,789.5,58.4094,61.6079,142.147,103.925,3.91677,0.00456263,0.170228,20.8519,502.103,29.6152,0.0,0.0
3198,799.25,57.4017,60.5927,144.194,104.127,3.94812,0.00520129,0.159651,20.8645,501.903,29.5608,0.0,0.0
3237,809,55.6091,59.1575,150.467,104.382,3.94194,0.00618707,0.150374,20.8755,501.813,29.5971,0.0,0.0
3276,818.75,55.3335,58.1066,146.896,104.61,3.93197,0.00620541,0.146344,20.8814,501.663,29.6396,0.0,0.0
3315,828.5,54.6694,57.4436,145.842,104.768,3.88971,0.00605942,0.144567,20.8846,501.553,29.7509,0.0,0.0
3354,838.25,54.0804,56.8702,144.971,104.817,4.03597,0.00622505,0.143094,20.8852,501.443,29.4217,0.0,0.0
3393,848,52.7819,54.9387,149.256,104.874,3.92247,0.00671476,0.142039,20.8887,501.363,29.6842,0.0,0.0
3432,857.75,51.5663,54.421,144.676,104.921,3.93292,0.00657784,0.141683,20.8876,501.262,29.6642,0.0,0.0
3471,867.5,51.5644,53.8098,148.053,104.947,3.88401,0.00668498,0.140471,20.8853,501.162,29.7795,0.0,0.0
3510,877.25,51.1766,53.4418,146.584,104.948,3.9125,0.00677777,0.140258,20.8853,501.072,29.7136,0.0,0.0
3549,887,51.1303,53.0001,146.835,104.957,3.85504,0.00669607,0.140782,20.8873,500.942,29.848,0.0,0.0
3588,896.75,50.2977,53.0305,142.855,104.952,3.85124,0.00687347,0.139804,20.8894,500.882,29.8565,0.0,0.0
3627,906.5,50.3136,52.7275,144.562,104.946,3.89398,0.0067662,0.139071,20.8899,500.762,29.7563,0.0,0.0
3666,916.25,50.4067,52.5651,146.748,104.931,3.85077,0.00677547,0.13898,20.8899,500.672,29.8558,0.0,0.0
3705,926,50.1471,52.2749,144.567,104.895,3.87926,0.0067374,0.13874,20.8899,500.562,29.7861,0.0,0.0
3744,935.75,49.8725,51.7022,147.92,104.848,3.88448,0.00696365,0.138214,20.8905,500.472,29.7699,0.0,0.0
3783,945.5,50.1207,52.2943,150.838,104.777,3.86311,0.00686773,0.137911,20.8923,500.392,29.8136,0.0,0.0
3822,955.25,50.1295,51.9487,148.294,104.706,3.85931,,,,500.362,29.8164,0.0,0.0
3834,958.25,49.6332,51.9183,148.17,104.676,3.83747,,,,500.292,29.8651,0.0,0.0