File: 01_Data/Pine_Siding/Cone/Pine_Siding_Cone_HF25Scan_221004_R1.csv
Names,Time,Stack TC,Smoke TC,Exh Press,Smoke Comp,Smoke Meas,CO Meter,CO2 Meter,O2 Meter,Sample Mass,Ext Coeff,Start Test,Flame Verif
Chan Gain,,500,500,1,1,1,1,1,1,1,1,1.0,1.0
Offset,,0,0,0.13918,0,0,0,0,0,0,0,0.0,0.0
Gain,,1,1,25.011,14.0162,15.5607,1,1,1,1.0009,1.02981,1.0,1.0
Units,sec,C,C,Pa,%,%,%,%,%,g,/m,,
Baseline,,22.0776,22.8906,161.972,104.646,4.20137,0.00075447,0.0885314,20.9523,-2.65453,29.0441,,
57,14,20.1658,21.0206,159.269,104.044,4.16086,0.000750428,0.0936259,20.9468,556.392,29.0795,0.0,0.0
114,28.25,20.705,21.3425,160.829,104.388,4.17036,0.00063092,0.0891375,20.954,556.232,29.0887,0.0,0.0
171,42.5,20.3423,21.2516,161.849,104.632,4.16846,0.000691051,0.0892578,20.9541,556.062,29.1139,0.0,0.0
228,56.75,20.6872,21.2928,161.638,104.313,4.15754,0.000946795,0.0886392,20.9538,555.852,29.11,0.0,0.0
285,71,21.2337,21.4037,160.993,103.638,4.08868,0.00153563,0.0894457,20.9538,555.591,29.2022,0.0,0.0
342,85.25,31.0319,29.6379,138.481,103.286,4.77915,0.00468629,0.53415,20.4081,553.76,27.7619,0.0,0.0
399,99.5,36.724,37.0229,147.819,103.716,4.51987,0.00351072,0.39198,20.5905,552.148,28.3033,0.0,0.0
456,113.75,37.5052,38.9666,152.654,104.643,4.47238,0.00244357,0.30235,20.6995,551.037,28.4792,0.0,0.0
513,128,37.0349,39.1801,153.997,105.287,4.46478,0.00202956,0.263848,20.7447,550.046,28.5499,0.0,0.0
570,142.25,36.3662,38.668,153.609,105.223,4.44626,0.0019504,0.239181,20.7785,549.216,28.582,0.0,0.0
627,156.5,34.9574,37.7178,150.061,104.763,4.35888,0.00207988,0.223381,20.7956,548.455,28.7217,0.0,0.0
684,170.75,33.3294,37.1046,152.202,104.616,4.42774,0.00259061,0.212012,20.8085,547.734,28.5675,0.0,0.0
741,185,32.8637,36.2981,156.83,104.971,4.44056,0.00295767,0.207854,20.8139,547.054,28.5719,0.0,0.0
798,199.25,32.7928,35.3238,155.724,104.443,4.41824,0.00326955,0.207132,20.8132,546.353,28.5718,0.0,0.0
855,213.5,32.0451,34.7681,157.137,104.147,4.36268,0.00361449,0.20439,20.8161,545.643,28.6606,0.0,0.0
912,227.75,31.9357,34.5931,154.718,104.429,4.39877,0.00415287,0.204242,20.8168,544.972,28.6105,0.0,0.0
969,242,31.2245,34.1233,156.217,104.605,4.42442,0.00429092,0.20417,20.8159,544.261,28.5733,0.0,0.0
1026,256.25,32.1774,33.4796,154.584,104.42,4.44246,0.00406382,0.207005,20.8128,543.541,28.5205,0.0,0.0
1083,270.5,32.0274,33.9894,155.125,103.909,4.42252,0.00389402,0.208268,20.8108,542.84,28.5168,0.0,0.0
1140,284.75,32.2247,33.6183,157.393,103.462,4.37645,0.00402306,0.20989,20.8091,542.119,28.5724,0.0,0.0
1197,299,31.7002,33.7692,156.927,103.25,4.40922,0.00373161,0.207535,20.8128,541.399,28.4865,0.0,0.0
1254,313.25,31.8504,33.6913,157.146,103.404,4.41539,0.00388404,0.207902,20.8118,540.658,28.4874,0.0,0.0
1311,327.5,31.9709,34.0932,157.594,103.951,4.34654,0.00365132,0.209989,20.8108,539.987,28.677,0.0,0.0
1368,341.75,31.5726,34.2472,152.196,104.596,4.43391,0.0039453,0.206719,20.8151,539.257,28.5531,0.0,0.0
1425,356,31.3932,33.9438,152.049,105.09,4.43154,0.00409109,0.204569,20.8186,538.546,28.6005,0.0,0.0
1482,370.25,31.4654,33.7054,154.522,105.32,4.54788,0.00386191,0.205225,20.8163,537.875,28.3861,0.0,0.0
1539,384.5,31.6025,33.6671,152.948,105.187,4.49185,0.0040921,0.205671,20.8126,537.165,28.4867,0.0,0.0
1596,398.75,31.684,33.6226,158.195,104.841,4.46051,0.00414695,0.205971,20.8142,536.454,28.5203,0.0,0.0
1653,413,32.1682,33.0955,154.343,104.498,4.43344,0.00448406,0.208072,20.8119,535.784,28.5456,0.0,0.0
1710,427.25,32.1096,33.3609,157.18,104.877,4.46573,0.00411521,0.208614,20.8094,535.083,28.5127,0.0,0.0
1767,441.5,31.775,33.6562,159.194,104.915,4.45671,0.00441277,0.206985,20.8136,534.412,28.5343,0.0,0.0
1824,455.75,32.3096,33.1648,155.718,104.227,4.46573,0.00471999,0.206234,20.8124,533.752,28.4566,0.0,0.0
1881,470,31.8466,33.5645,154.319,104.231,4.43344,0.00495055,0.208341,20.809,533.081,28.5225,0.0,0.0
1938,484.25,31.9951,33.5209,151.09,104.468,4.4757,0.00459805,0.206874,20.8099,532.421,28.4573,0.0,0.0
1995,498.5,31.9785,33.8266,154.941,104.59,4.47333,0.00473341,0.205641,20.8106,531.8,28.4726,0.0,0.0
2052,512.75,31.7848,34.0633,152.515,104.474,4.47523,0.00474633,0.206561,20.8121,531.109,28.4587,0.0,0.0
2109,527,32.3734,33.3905,160.191,104.183,4.48045,0.00442757,0.207469,20.8106,530.479,28.423,0.0,0.0
2166,541.25,32.5351,33.2941,158.839,103.753,4.45053,0.00499329,0.207645,20.8163,529.838,28.4462,0.0,0.0
2223,555.5,32.4638,33.3892,154.062,103.369,4.48473,0.00408872,0.210355,20.8114,529.198,28.3436,0.0,0.0
2280,569.75,32.0559,33.8318,153.065,103.196,4.43819,0.00496318,0.210698,20.8075,528.547,28.4227,0.0,0.0
2337,584,32.6647,34.0247,155.616,103.217,4.43961,0.00388757,0.214196,20.8058,527.906,28.4216,0.0,0.0
2394,598.25,32.7211,34.1589,153.744,103.192,4.42252,0.0041228,0.219952,20.7978,527.316,28.4543,0.0,0.0
2451,612.5,32.7895,35.1062,153.211,103.219,4.4738,0.00440488,0.223291,20.794,526.605,28.3525,0.0,0.0
2508,626.75,33.8673,34.6059,154.167,103.509,4.5778,0.00434068,0.224982,20.7914,525.935,28.1703,0.0,0.0
2565,641,33.979,35.5977,152.623,104.119,4.58635,0.00428599,0.227985,20.7874,525.284,28.2065,0.0,0.0
2622,655.25,34.2584,35.9931,149.527,104.568,4.62814,0.00386213,0.230644,20.7888,524.593,28.1634,0.0,0.0
2679,669.5,34.9552,36.5664,151.997,104.327,4.5702,0.00288584,0.232518,20.7847,523.913,28.2563,0.0,0.0
2736,683.75,35.3727,37.2432,149.801,104.622,4.67895,0.0035724,0.239975,20.7771,523.132,28.0694,0.0,0.0
2793,698,35.7356,37.3501,152.958,104.711,4.58207,0.00279778,0.243038,20.7753,522.411,28.2661,0.0,0.0
2850,712.25,35.9653,38.1947,152.345,105.11,4.59015,0.00269435,0.249228,20.7671,521.631,28.2846,0.0,0.0
2907,726.5,36.4144,38.8039,149.022,105.009,4.61057,0.00283581,0.254178,20.7608,520.88,28.2358,0.0,0.0
2964,740.75,36.7202,38.8078,147.936,103.452,4.62481,0.00259031,0.259624,20.7556,520.079,28.0729,0.0,0.0
3021,755,37.4448,39.0076,148.978,103.784,4.65948,0.00265196,0.265523,20.7493,519.259,28.0344,0.0,0.0
3078,769.25,37.4454,39.6136,153.819,104.578,4.65805,0.00192495,0.266916,20.7498,518.368,28.106,0.0,0.0
3135,783.5,37.64,40.1879,152.717,104.678,4.65046,0.00230537,0.273034,20.7412,517.497,28.1295,0.0,0.0
3192,797.75,38.4177,40.4725,152.742,104.699,4.63669,0.00283981,0.277017,20.7341,516.606,28.158,0.0,0.0
3249,812,38.5765,41.1135,149.272,105.042,4.63953,0.00244795,0.282557,20.726,515.695,28.182,0.0,0.0
3306,826.25,38.9718,41.7506,149.227,103.283,4.5835,0.00235946,0.289889,20.7176,514.775,28.1393,0.0,0.0
3363,840.5,39.5068,42.0984,148.27,104.584,4.6666,0.00215245,0.291688,20.7182,513.784,28.0901,0.0,0.0
3420,854.75,40.1963,42.5633,146.224,104.483,4.68227,0.00228059,0.297627,20.7106,512.843,28.051,0.0,0.0
3477,869,40.3201,43.3083,150.129,104.864,4.68607,0.00223664,0.297714,20.7103,511.852,28.0766,0.0,0.0
3534,883.25,41.137,43.3548,148.627,104.555,4.72549,0.00214368,0.301192,20.7069,510.811,27.9742,0.0,0.0
3591,897.5,40.8152,43.9032,150.702,103.465,4.66043,0.0022378,0.295257,20.7107,509.88,28.0048,0.0,0.0
3648,911.75,40.6887,44.1766,149.119,104.645,4.73498,0.00279069,0.294035,20.7157,508.929,27.9639,0.0,0.0
3705,926,40.8334,43.5512,151.323,104.078,4.63526,0.00352928,0.286497,20.7236,507.999,28.1071,0.0,0.0
3762,940.25,40.612,43.1283,151.897,104.929,4.65378,0.00333667,0.279805,20.7305,507.098,28.1446,0.0,0.0
3819,954.5,40.4068,42.8239,154.476,104.587,4.62149,0.00348901,0.273596,20.7351,506.287,28.178,0.0,0.0
3876,968.75,39.7907,42.7981,152.506,105.241,4.63289,0.00338503,0.268082,20.7403,505.456,28.2121,0.0,0.0
3933,983,38.9827,41.7287,150.537,105.172,4.60867,0.00414972,0.25174,20.759,504.756,28.2535,0.0,0.0
3990,997.25,38.2477,40.863,153.119,104.477,4.57543,0.00440642,0.243016,20.7711,504.025,28.259,0.0,0.0
4047,1011.5,37.5387,40.1124,154.106,103.693,4.52034,0.00613849,0.232971,20.7808,503.454,28.3004,0.0,0.0
4104,1025.75,36.2161,39.3492,152.213,103.358,4.50182,0.00776322,0.213876,20.8023,502.904,28.3082,0.0,0.0
4161,1040,34.9703,37.3662,157.449,103.508,4.51892,0.00884345,0.202027,20.8157,502.363,28.2871,0.0,0.0
4218,1054.25,33.6932,36.5271,155.347,103.883,4.48473,0.0103695,0.189019,20.8308,501.943,28.3884,0.0,0.0
4275,1068.5,32.8728,35.6355,158.77,104.232,4.45338,0.0122964,0.179605,20.8388,501.563,28.482,0.0,0.0
4332,1082.75,31.7641,33.7236,153.823,104.443,4.48283,0.012492,0.168951,20.8521,501.192,28.4408,0.0,0.0
4389,1097,31.1787,33.0238,159.75,104.526,4.47665,0.010946,0.173467,20.8419,500.872,28.4604,0.0,0.0
4446,1111.25,30.4539,32.5508,161.841,104.557,4.41729,0.0146108,0.168463,20.8447,500.562,28.5836,0.0,0.0
4503,1125.5,30.0419,31.1664,158.212,104.56,4.43724,0.0194006,0.168744,20.8434,500.231,28.5433,0.0,0.0
4560,1139.75,29.8433,30.941,158.416,104.531,4.45243,0.0198988,0.168305,20.8418,499.931,28.5098,0.0,0.0
4617,1154,28.8179,30.434,158.937,104.488,4.41064,0.0221028,0.163851,20.8454,499.641,28.5913,0.0,0.0
4674,1168.25,28.1796,29.3964,156.827,104.464,4.35318,0.0223687,0.164048,20.8456,499.411,28.7077,0.0,0.0
4731,1182.5,27.9282,28.9782,160.666,104.385,4.385,0.0230223,0.160981,20.8504,499.191,28.635,0.0,0.0
4788,1196.75,27.0943,28.5803,160.661,104.24,4.37076,0.0225906,0.159264,20.8529,498.96,28.6519,0.0,0.0
4845,1211,27.1816,28.2338,158.681,104.154,4.3755,0.0231873,0.159238,20.8505,498.76,28.6347,0.0,0.0
4902,1225.25,26.896,28.1534,160.976,103.978,4.3907,0.0239082,0.155894,20.8545,498.57,28.5881,0.0,0.0
4959,1239.5,26.8788,27.47,159.406,103.893,4.33087,0.0243712,0.156109,20.8562,498.34,28.7046,0.0,0.0
5016,1253.75,26.2324,27.1709,158.559,103.799,4.33419,0.0243938,0.150706,20.8607,498.15,28.6895,0.0,0.0
5073,1268,25.4027,26.2963,160.42,103.49,4.33751,0.0239689,0.154529,20.8565,497.919,28.6556,0.0,0.0
5130,1282.25,25.2551,26.1005,158.581,103.344,4.31709,0.0232781,0.14899,20.868,497.779,28.6855,0.0,0.0
5187,1296.5,25.0868,25.9791,160.516,103.5625,4.36648,0.0233163,0.147298,20.8694,497.579,28.6018,0.0,0.0
5244,1310.75,24.8992,26.252,157.86,104.194,4.3869,0.0218621,0.146163,20.8688,497.419,28.6146,0.0,0.0
5301,1325,25.1489,25.6457,157.989,104.898,4.38168,0.0221233,0.146697,20.8665,497.219,28.6862,0.0,0.0
5358,1339.25,24.6572,25.3657,159.717,105.289,4.40115,0.0219495,0.145207,20.8695,497.019,28.6798,0.0,0.0
5415,1353.5,24.7827,25.5817,157.942,105.268,4.3926,0.0215314,0.144297,20.8727,496.858,28.6955,0.0,0.0
5472,1367.75,25.1846,25.0215,162.705,104.853,4.35793,0.0218891,0.143279,20.8713,496.688,28.7314,0.0,0.0
5528,1381.75,24.506,24.713,159.077,104.426,4.32374,,,,496.528,28.7657,0.0,0.0