File: 01_Data/Pine_Siding/Cone/Pine_Siding_Cone_HF75Scalar_221004_R3.csv
LABORATORY,FSRI
TEST IDENT,Pine_Siding_HF75_3
OPERATOR,Dow
MATERIAL,Pine Siding
ORIENTATION,Horizontal
HEAT FLUX,75
SURF AREA,0.01
C FACTOR,0.0397745
SPEC HOLDER DIFF,-566
SPECIMEN MASS,67.71
SCAN TIME,0.25
O2 DELAY TIME,11
CO DELAY TIME,11
CO2 DELAY TIME,8
FLOW FACTOR,1
SCAN COUNT,3219
TIME TO IGN,4.25
END OF TEST SCAN,2739
END OF TEST TIME,684.75
TEST STATUS,1
PRE TEST CMT,Dimensions: 101.74 x 101.64 x 18.06 mm