File: 01_Data/Pine_Siding/Cone/Pine_Siding_Cone_HF50Scalar_221004_R1.csv
LABORATORY,FSRI
TEST IDENT,Pine_Siding_HF50_1
OPERATOR,Dow
MATERIAL,Pine Siding
ORIENTATION,Horizontal
HEAT FLUX,50
SURF AREA,0.01
C FACTOR,0.0397745
SPEC HOLDER DIFF,-566
SPECIMEN MASS,66.86
SCAN TIME,0.25
O2 DELAY TIME,11
CO DELAY TIME,11
CO2 DELAY TIME,8
FLOW FACTOR,1
SCAN COUNT,3885
TIME TO IGN,11
END OF TEST SCAN,3405
END OF TEST TIME,851.25
TEST STATUS,1
PRE TEST CMT,Dimensions: 101.79 x 101.37 x 17.93 mm