File: 01_Data/Pine_Siding/Cone/Pine_Siding_Cone_HF75Scan_221004_R1.csv
Names,Time,Stack TC,Smoke TC,Exh Press,Smoke Comp,Smoke Meas,CO Meter,CO2 Meter,O2 Meter,Sample Mass,Ext Coeff,Start Test,Flame Verif
Chan Gain,,500,500,1,1,1,1,1,1,1,1,1.0,1.0
Offset,,0,0,0.13918,0,0,0,0,0,0,0,0.0,0.0
Gain,,1,1,25.011,14.0162,15.5607,1,1,1,1.0009,1.02981,1.0,1.0
Units,sec,C,C,Pa,%,%,%,%,%,g,/m,,
Baseline,,43.1243,45.3237,149.852,103.662,3.71992,0.00054751,0.0826681,20.9598,-3.24205,30.0585,,
33,8,44.593,45.0457,119.664,104.624,3.98611,0.00457839,0.357094,20.5719,554.09,29.5173,0.0,1.0
66,16.25,56.8207,56.7014,119.811,104.998,3.96094,0.00950054,0.775245,20.0998,552.349,29.6067,0.0,0.0
99,24.5,62.8229,64.3888,136.172,104.697,3.8294,0.00861069,0.647525,20.2696,550.867,29.8859,0.0,0.0
132,32.75,65.9991,68.4515,134.434,104.778,3.86739,0.00732152,0.545173,20.3922,549.566,29.8037,0.0,0.0
165,41,67.384,70.3608,132.182,105.278,3.86739,0.00572203,0.480528,20.4703,548.505,29.8467,0.0,0.0
198,49.25,68.2188,72.2849,135.137,105.319,4.04072,0.00457323,0.431493,20.5367,547.504,29.4542,0.0,0.0
231,57.5,68.3395,72.9878,138.913,104.694,3.96094,0.00357478,0.40075,20.5732,546.613,29.5806,0.0,0.0
264,65.75,68.0641,72.5951,137.113,103.762,4.0013,0.00319299,0.376374,20.6055,545.803,29.4082,0.0,0.0
297,74,67.4768,73.1316,134.627,103.425,4.01175,0.00307702,0.3589,20.6283,545.002,29.3553,0.0,0.0
330,82.25,67.0125,72.6134,137.076,104.042,4.04974,0.00280004,0.345632,20.6443,544.221,29.3238,0.0,0.0
363,90.5,66.8315,72.6217,135.613,104.668,4.14804,0.00256433,0.342755,20.6502,543.471,29.1614,0.0,0.0
396,98.75,66.2526,72.4436,133.251,104.563,4.06683,0.00240363,0.336762,20.6583,542.7,29.3309,0.0,0.0
429,107,66.3824,72.082,138.316,104.089,4.04309,0.00266803,0.332055,20.6637,542.009,29.3428,0.0,0.0
462,115.25,65.68,72.1386,139.521,104.961,4.07776,0.00252018,0.325812,20.6711,541.309,29.341,0.0,0.0
495,123.5,65.6656,71.7325,135.569,104.574,4.0901,0.00202853,0.323901,20.6723,540.578,29.2803,0.0,0.0
528,131.75,65.2171,71.0983,135.611,105.326,4.22924,0.00226024,0.320601,20.6771,539.857,29.0429,0.0,0.0
561,140,65.2129,71.1396,143.821,105.039,4.09485,0.00228117,0.318517,20.6812,539.127,29.3099,0.0,0.0
594,148.25,65.1699,70.9294,134.455,103.834,4.08773,0.00175727,0.315332,20.6852,538.496,29.2214,0.0,0.0
627,156.5,65.2644,70.7159,138.535,103.553,4.04594,0.00179479,0.314437,20.686,537.815,29.2897,0.0,0.0
660,164.75,65.3923,70.867,141.494,104.441,4.1034,0.00199628,0.312396,20.6875,537.135,29.2395,0.0,0.0
693,173,65.1112,70.7828,139.797,104.686,4.08393,0.0021228,0.307551,20.6936,536.474,29.3036,0.0,0.0
726,181.25,64.8944,70.7834,134.389,104.068,4.07443,0.0020061,0.304034,20.699,535.784,29.2712,0.0,0.0
759,189.5,64.5151,69.7106,139.608,104.942,4.13949,0.00194336,0.301182,20.7022,535.143,29.2037,0.0,0.0
792,197.75,64.8936,70.6124,138.953,104.678,4.06541,0.00207651,0.302153,20.7004,534.512,29.344,0.0,0.0
825,206,64.8366,70.3838,138.338,105.322,4.12809,0.00175272,0.301809,20.7003,533.822,29.2612,0.0,0.0
858,214.25,64.6339,69.9305,140.925,105.125,4.14092,0.00166322,0.304262,20.6982,533.191,29.2163,0.0,0.0
891,222.5,64.3614,69.9987,136.949,104.181,4.10957,0.00167448,0.305529,20.6967,532.531,29.2034,0.0,0.0
924,230.75,64.4234,70.0972,142.082,103.516,4.08251,0.0020758,0.299698,20.7048,531.92,29.2052,0.0,0.0
957,239,65.0616,69.837,140.002,103.626,4.08725,0.00206494,0.296651,20.7101,531.269,29.2043,0.0,0.0
990,247.25,65.1169,70.152,138.188,104.174,4.05686,0.00185209,0.293478,20.7099,530.659,29.3194,0.0,0.0
1023,255.5,64.4751,69.7778,136.062,104.646,4.13854,0.00209667,0.295285,20.7086,530.028,29.1801,0.0,0.0
1056,263.75,64.3019,69.3525,142.788,104.758,4.16608,0.00192199,0.294911,20.7089,529.398,29.1299,0.0,0.0
1089,272,64.8937,69.2248,135.648,104.516,4.1091,0.00220624,0.297124,20.706,528.817,29.2334,0.0,0.0
1122,280.25,64.5757,69.7023,142.586,104.165,4.06826,0.00187107,0.298535,20.7059,528.177,29.2933,0.0,0.0
1155,288.5,64.4736,69.5928,138.138,104.243,4.07443,0.00214654,0.300124,20.7031,527.506,29.2864,0.0,0.0
1188,296.75,65.0572,69.9646,136.707,104.713,4.16039,0.00180551,0.301237,20.7011,526.936,29.1384,0.0,0.0
1221,305,64.8052,69.5663,140.49,104.901,4.13854,0.00174952,0.302663,20.6997,526.265,29.2022,0.0,0.0
1254,313.25,64.9655,69.7249,138.991,104.866,4.06304,0.00178326,0.302382,20.7,525.654,29.3655,0.0,0.0
1287,321.5,65.1529,70.0398,138.296,104.647,4.04689,0.00184774,0.301567,20.6993,525.034,29.3826,0.0,0.0
1320,329.75,65.1328,69.6486,138.252,104.476,4.16846,0.00188811,0.30357,20.6959,524.443,29.1004,0.0,0.0
1353,338,65.1306,69.5994,136.027,104.627,4.20977,0.0020919,0.303261,20.6958,523.793,29.0244,0.0,0.0
1386,346.25,65.491,70.1062,138.809,104.798,4.11242,0.0021752,0.305107,20.6969,523.192,29.2505,0.0,0.0
1419,354.5,65.6036,70.1351,137.524,105.005,4.10672,0.00209496,0.306692,20.6922,522.582,29.2808,0.0,0.0
1452,362.75,65.5863,70.4228,135.835,105.136,4.13949,0.00196282,0.307786,20.6902,521.951,29.2203,0.0,0.0
1485,371,65.9189,69.9778,139.773,105.09,4.13474,0.00157558,0.308967,20.6885,521.331,29.2267,0.0,0.0
1518,379.25,65.9231,70.4558,137.084,105.181,4.15754,0.00170748,0.310928,20.688,520.71,29.1849,0.0,0.0
1551,387.5,66.3452,70.3803,137.293,105.254,4.06161,0.00162089,0.311825,20.6866,520.089,29.402,0.0,0.0
1584,395.75,65.993,70.552,139.77,105.324,4.1148,0.00195115,0.315069,20.6841,519.469,29.2905,0.0,0.0
1617,404,66.0786,70.8561,137.074,105.373,4.14376,0.0019623,0.314792,20.6842,518.848,29.2313,0.0,0.0
1650,412.25,66.5896,70.997,138.137,105.377,4.11195,0.00208493,0.318277,20.6802,518.208,29.3013,0.0,0.0
1683,420.5,66.6464,71.0817,136.014,105.376,4.25109,0.00186665,0.32082,20.6749,517.567,29.0006,0.0,0.0
1716,428.75,66.6507,71.6726,135.85,105.36,4.17131,0.00192623,0.32363,20.6723,516.927,29.1704,0.0,0.0
1749,437,67.0498,71.3909,139.83,105.333,4.0882,0.00249257,0.326237,20.6674,516.286,29.3498,0.0,0.0
1782,445.25,67.0901,71.4678,134.492,105.307,4.05639,0.00202274,0.329784,20.6625,515.695,29.4182,0.0,0.0
1815,453.5,67.4593,71.9688,138.482,105.275,4.04167,0.00222558,0.3322,20.6582,515.045,29.4483,0.0,0.0
1848,461.75,67.4531,72.0917,137.019,105.251,4.13949,0.00217467,0.333847,20.657,514.404,29.2302,0.0,0.0
1881,470,67.5387,71.7783,137.225,105.259,4.03264,0.00248624,0.336978,20.654,513.784,29.4671,0.0,0.0
1914,478.25,67.9828,72.4245,136.038,105.255,4.09343,0.00253908,0.339031,20.6529,513.083,29.3316,0.0,0.0
1947,486.5,67.4557,72.653,136.901,105.241,4.12857,0.00235352,0.341076,20.6503,512.412,29.2531,0.0,0.0
1980,494.75,68.1003,72.6944,136.745,105.253,4.06968,0.0024563,0.344358,20.6452,511.732,29.384,0.0,0.0
2013,503,68.3788,72.8818,135.015,105.235,4.12382,0.0023149,0.349433,20.64,511.111,29.2631,0.0,0.0
2046,511.25,68.0571,73.0003,145.433,105.24,4.10245,0.00228205,0.350991,20.6366,510.371,29.3104,0.0,0.0
2079,519.5,68.7651,73.0758,139.154,105.238,4.12572,0.00221279,0.350321,20.6359,509.72,29.2592,0.0,0.0
2112,527.75,68.6739,73.2076,138.884,105.227,4.19125,0.00211143,0.347668,20.6399,509.039,29.1159,0.0,0.0
2145,536,69.1804,74.447,138.185,105.246,4.07206,0.0022584,0.350151,20.6367,508.399,29.3781,0.0,0.0
2178,544.25,69.2002,74.197,138.874,105.23,4.10767,0.00243598,0.350028,20.6382,507.678,29.2981,0.0,0.0
2211,552.5,69.292,73.8929,135.256,105.256,4.10008,0.00244428,0.349702,20.6371,507.018,29.3171,0.0,0.0
2244,560.75,68.9449,74.5944,134.986,105.283,4.05781,0.00223972,0.345363,20.6419,506.377,29.4129,0.0,0.0
2277,569,69.2235,73.9593,137.744,105.284,4.06778,0.00230044,0.344457,20.6442,505.736,29.3909,0.0,0.0
2310,577.25,68.9465,74.0095,135.632,105.3,4.07348,0.00218005,0.337436,20.6509,505.066,29.3796,0.0,0.0
2343,585.5,68.2072,73.5814,136.615,105.317,4.05496,0.00248477,0.328892,20.6602,504.475,29.4222,0.0,0.0
2376,593.75,68.8519,73.736,135.042,105.299,4.10198,0.00240026,0.324862,20.6653,503.935,29.3165,0.0,0.0
2409,602,68.0815,72.8414,137.62,105.304,4.06589,0.00259714,0.317843,20.6774,503.354,29.3968,0.0,0.0
2442,610.25,67.435,72.449,139.725,105.294,4.13094,0.00248805,0.305076,20.6921,502.824,29.2526,0.0,0.0
2475,618.5,66.9436,71.7014,139.247,105.284,4.06541,0.00299655,0.291155,20.7076,502.363,29.3961,0.0,0.0
2508,626.75,66.2542,71.0976,139.167,105.309,4.06019,0.00301198,0.275143,20.7249,501.903,29.4099,0.0,0.0
2541,635,65.5834,70.0533,142.572,105.308,4.10103,0.00334916,0.256489,20.7502,501.503,29.3194,0.0,0.0
2574,643.25,64.0665,68.934,139.868,105.307,4.05354,0.00322684,0.240504,20.7662,501.172,29.4245,0.0,0.0
2607,651.5,62.9479,67.6451,142.201,105.33,4.10435,0.00430217,0.221554,20.7896,500.922,29.314,0.0,0.0
2640,659.75,61.4135,66.1495,144.868,105.326,3.98706,0.0054337,0.20233,20.8103,500.732,29.5756,0.0,0.0
2673,668,59.7209,64.5168,145.074,105.36,4.00937,0.00686541,0.182135,20.8336,500.542,29.528,0.0,0.0
2706,676.25,57.7662,62.6362,147.7,105.375,4.00558,0.0082012,0.170368,20.8504,500.412,29.5379,0.0,0.0
2739,684.5,57.0018,61.2354,143.959,105.369,4.02979,0.00814484,0.164786,20.8562,500.292,29.4829,0.0,0.0
2772,692.75,55.5607,59.7022,149.6,105.368,4.02077,0.00861315,0.161501,20.8586,500.151,29.5031,0.0,0.0
2805,701,54.87,58.4199,149.446,105.333,4.08583,0.00863581,0.160995,20.8606,500.051,29.3551,0.0,0.0
2838,709.25,53.524,57.1308,144.488,105.279,3.98801,0.00852186,0.158103,20.8651,499.981,29.5694,0.0,0.0
2871,717.5,53.3539,56.7887,146.497,105.217,3.96474,0.00881495,0.156888,20.8686,499.841,29.6169,0.0,0.0
2904,725.75,52.5676,55.6163,145.945,105.121,3.98326,0.00863349,0.155919,20.8685,499.731,29.5665,0.0,0.0
2937,734,52.1885,55.4442,146.595,104.998,3.97044,0.00839766,0.155024,20.8681,499.681,29.5851,0.0,0.0
2970,742.25,51.4221,54.8916,145.913,104.913,3.96521,0.00849721,0.15446,20.8703,499.541,29.5897,0.0,0.0
3003,750.5,51.9887,54.0519,143.297,104.823,3.89635,0.0085136,0.153385,20.8708,499.441,29.7402,0.0,0.0
3036,758.75,50.9302,53.3489,142.248,104.727,3.8973,0.00876751,0.151256,20.8738,499.371,29.7297,0.0,0.0
3069,767,50.6169,53.4124,149.44,104.633,3.94242,0.00866225,0.150086,20.8763,499.281,29.6176,0.0,0.0
3102,775.25,49.8717,52.6904,145.998,104.509,3.91867,0.00904242,0.150018,20.8769,499.161,29.6615,0.0,0.0
3135,783.5,50.5747,52.3149,150.912,104.447,3.9296,0.00842145,0.149078,20.8768,499.09,29.631,0.0,0.0
3168,791.75,49.8282,51.5735,149.353,104.658,3.92437,0.00845458,0.147409,20.8789,499.04,29.6613,0.0,0.0
3201,800,49.6125,52.4068,144.612,104.802,3.91155,0.00855703,0.146194,20.881,498.93,29.7032,0.0,0.0
3234,808.25,49.7719,51.6209,143.816,104.905,3.97423,,,,498.81,29.5684,0.0,0.0
3245,811,49.5183,51.8637,148.013,104.908,3.95144,,,,498.78,29.6207,0.0,0.0