File: 01_Data/Pine_Siding/Cone/Pine_Siding_Cone_HF50Scalar_221004_R2.csv
LABORATORY,FSRI
TEST IDENT,Pine_Siding_HF50_2
OPERATOR,Dow
MATERIAL,Pine Siding
ORIENTATION,Horizontal
HEAT FLUX,50
SURF AREA,0.01
C FACTOR,0.0397745
SPEC HOLDER DIFF,-566
SPECIMEN MASS,61.8
SCAN TIME,0.25
O2 DELAY TIME,11
CO DELAY TIME,11
CO2 DELAY TIME,8
FLOW FACTOR,1
SCAN COUNT,3676
TIME TO IGN,11.75
END OF TEST SCAN,3196
END OF TEST TIME,799
TEST STATUS,1
PRE TEST CMT,Dimensions: 101.67 x 101.57 x 18.02 mm