File: 01_Data/Pine_Siding/Cone/Pine_Siding_Cone_HF75Scalar_221004_R2.csv
LABORATORY,FSRI
TEST IDENT,Pine_Siding_HF75_2
OPERATOR,Dow
MATERIAL,Pine Siding
ORIENTATION,Horizontal
HEAT FLUX,75
SURF AREA,0.01
C FACTOR,0.0397745
SPEC HOLDER DIFF,-566
SPECIMEN MASS,79.71
SCAN TIME,0.25
O2 DELAY TIME,11
CO DELAY TIME,11
CO2 DELAY TIME,8
FLOW FACTOR,1
SCAN COUNT,3834
TIME TO IGN,4.5
END OF TEST SCAN,3354
END OF TEST TIME,838.5
TEST STATUS,1
PRE TEST CMT,Dimensions: 101.79 x 101.74 x 18.09 mm