File: 01_Data/Pine_Siding/Cone/Pine_Siding_Cone_HF50Scan_221004_R2.csv
Names,Time,Stack TC,Smoke TC,Exh Press,Smoke Comp,Smoke Meas,CO Meter,CO2 Meter,O2 Meter,Sample Mass,Ext Coeff,Start Test,Flame Verif
Chan Gain,,500,500,1,1,1,1,1,1,1,1,1.0,1.0
Offset,,0,0,0.13918,0,0,0,0,0,0,0,0.0,0.0
Gain,,1,1,25.011,14.0162,15.5607,1,1,1,1.0009,1.02981,1.0,1.0
Units,sec,C,C,Pa,%,%,%,%,%,g,/m,,
Baseline,,33.2183,34.2132,155.636,104.546,3.56746,0.000438654,0.0860646,20.9578,-2.53266,30.5131,,
38,9.25,31.4588,32.8749,155.963,104.588,3.49224,0.000667055,0.0904213,20.9511,552.158,30.709,0.0,0.0
76,18.75,38.94,37.5669,132.826,104.298,3.74202,0.00500016,0.478781,20.4253,550.817,30.0599,0.0,0.0
114,28.25,48.1696,47.555,133.159,103.958,3.75769,0.00581326,0.582136,20.3491,549.296,29.9926,0.0,0.0
152,37.75,51.544,51.8602,142.44,103.601,3.66651,0.00490337,0.469677,20.4948,548.085,30.1835,0.0,0.0
190,47.25,53.1112,54.9153,141.831,103.369,3.69406,0.0040841,0.408188,20.5668,547.014,30.0956,0.0,0.0
228,56.75,53.3581,55.4581,142.776,103.41,3.68788,0.00292645,0.37038,20.6132,546.033,30.1143,0.0,0.0
266,66.25,53.6527,56.5187,145.78,103.664,3.75674,0.00235085,0.352598,20.6364,545.142,29.9694,0.0,0.0
304,75.75,53.1296,56.7257,144.513,104.104,3.82655,0.00268108,0.330646,20.6653,544.271,29.8414,0.0,0.0
342,85.25,53.0582,56.6733,141.731,104.578,3.8142,0.00205706,0.313532,20.6868,543.521,29.9116,0.0,0.0
380,94.75,52.7148,56.7182,142.713,104.961,3.87261,0.00203321,0.29914,20.7023,542.73,29.8073,0.0,0.0
418,104.25,52.4546,56.5367,141.476,105.231,3.89588,0.00177323,0.289652,20.7171,542.019,29.7763,0.0,0.0
456,113.75,51.5909,55.7694,144.499,105.349,3.84602,0.00189026,0.277762,20.7321,541.329,29.9028,0.0,0.0
494,123.25,51.327,55.5164,147.148,105.279,3.83937,0.00184925,0.275203,20.734,540.678,29.9125,0.0,0.0
532,132.75,50.9335,55.1313,145.545,105.113,3.83415,0.00181358,0.27209,20.7375,539.997,29.9105,0.0,0.0
570,142.25,50.7075,54.9338,145.091,104.807,3.95239,0.00180375,0.265432,20.744,539.307,29.6098,0.0,0.0
608,151.75,49.9815,54.4118,142.604,104.554,3.86644,0.00174199,0.265316,20.7457,538.676,29.7866,0.0,0.0
646,161.25,49.9708,54.0603,147.703,104.574,3.88686,0.00173537,0.264662,20.7471,538.036,29.7407,0.0,0.0
684,170.75,49.9325,53.7787,146.045,104.873,3.93339,0.00212084,0.260611,20.7486,537.365,29.659,0.0,0.0
722,180.25,49.4472,53.7315,150.809,104.941,3.94907,0.00199503,0.258694,20.7503,536.774,29.6289,0.0,0.0
760,189.75,49.5843,53.3607,147.907,104.738,3.90728,0.00222919,0.257226,20.7541,536.144,29.7076,0.0,0.0
798,199.25,49.1161,52.9628,146.34,104.285,3.87404,0.00173892,0.257564,20.7536,535.493,29.7456,0.0,0.0
836,208.75,49.2225,52.914,145.824,104.069,3.85836,0.00202505,0.255645,20.7569,534.893,29.7634,0.0,0.0
874,218.25,49.4157,52.7389,146.392,104.213,3.85409,0.00193212,0.254788,20.759,534.242,29.7859,0.0,0.0
912,227.75,49.2964,52.722,143.45,104.37,3.92437,0.00178504,0.253742,20.7585,533.632,29.6364,0.0,0.0
950,237.25,48.7742,52.8845,148.423,104.56,3.92485,0.00225651,0.253302,20.759,533.031,29.6516,0.0,0.0
988,246.75,49.0438,52.5187,147.118,104.646,3.94242,0.00203288,0.253769,20.76,532.411,29.6188,0.0,0.0
1026,256.25,49.0951,52.6437,150.839,104.648,3.86501,0.00219739,0.254208,20.7578,531.82,29.798,0.0,0.0
1064,265.75,49.1381,52.239,145.165,104.513,4.00178,0.00225033,0.254483,20.7587,531.209,29.4723,0.0,0.0
1102,275.25,49.3233,52.5024,144.492,104.282,3.94907,0.00265214,0.255487,20.7556,530.619,29.572,0.0,0.0
1140,284.75,49.2253,52.3248,144.967,104.039,3.85884,0.00214281,0.255217,20.7541,530.008,29.7598,0.0,0.0
1178,294.25,49.2168,51.9085,142.906,103.777,3.87024,0.00207522,0.252151,20.7589,529.428,29.7103,0.0,0.0
1216,303.75,49.6635,52.5392,148.7,103.565,3.8992,0.0020575,0.254299,20.7576,528.827,29.6245,0.0,0.0
1254,313.25,48.8962,52.4556,145.255,103.417,3.91392,0.00210288,0.250831,20.7608,528.237,29.5776,0.0,0.0
1292,322.75,48.9344,52.3018,142.819,103.316,3.94717,0.00216742,0.253985,20.7568,527.656,29.4923,0.0,0.0
1330,332.25,49.5274,52.2335,143.663,103.358,3.93529,0.00212626,0.252665,20.759,527.076,29.5232,0.0,0.0
1368,341.75,49.063,52.027,146.801,103.507,3.87831,0.00198686,0.254703,20.7548,526.525,29.668,0.0,0.0
1406,351.25,49.1311,52.1333,146.171,103.742,3.92722,0.00196255,0.255492,20.7548,525.905,29.5752,0.0,0.0
1444,360.75,49.5961,52.2519,150.658,104.084,3.9125,0.00190898,0.255783,20.7551,525.324,29.6389,0.0,0.0
1482,370.25,49.2708,52.2388,150.332,104.408,3.86121,0.00189319,0.258764,20.7529,524.744,29.7862,0.0,0.0
1520,379.75,49.6586,52.6214,147.543,104.743,3.96996,0.00154734,0.258311,20.7525,524.213,29.5643,0.0,0.0
1558,389.25,49.4736,52.7926,143.93,105.03,3.99798,0.00195738,0.26086,20.751,523.593,29.5254,0.0,0.0
1596,398.75,50.0101,52.7581,149.516,105.229,3.95951,0.00186484,0.261304,20.7512,523.022,29.6299,0.0,0.0
1634,408.25,50.0055,52.6798,143.644,105.322,4.01602,0.0018702,0.264832,20.7474,522.411,29.5098,0.0,0.0
1672,417.75,50.0291,52.8333,143.129,105.311,3.94384,0.00180344,0.267823,20.7427,521.801,29.6727,0.0,0.0
1710,427.25,49.9743,53.5977,145.354,105.186,3.9937,0.00167305,0.268162,20.7403,521.21,29.5485,0.0,0.0
1748,436.75,50.444,52.9818,144.039,105.022,4.01175,0.00196082,0.272402,20.7356,520.65,29.4937,0.0,0.0
1786,446.25,50.994,53.3834,142.464,104.757,4.00083,0.00191173,0.27737,20.7317,519.979,29.4954,0.0,0.0
1824,455.75,51.2585,54.2066,147.299,104.624,3.97091,0.002096,0.280861,20.7259,519.379,29.5518,0.0,0.0
1862,465.25,51.1219,54.2738,143.5,104.571,3.96901,0.00186449,0.282632,20.7233,518.748,29.5515,0.0,0.0
1900,474.75,51.7007,54.7513,148.223,104.591,3.9918,0.0023926,0.28844,20.7179,518.138,29.5015,0.0,0.0
1938,484.25,51.9342,54.8339,143.3,104.721,3.95951,0.00176791,0.29024,20.7165,517.487,29.5861,0.0,0.0
1976,493.75,52.1131,55.6862,149.804,104.963,3.94384,0.00171959,0.296453,20.7079,516.836,29.6428,0.0,0.0
2014,503.25,52.6749,55.79,141.915,105.196,3.99275,0.00184606,0.29854,20.7042,516.236,29.5515,0.0,0.0
2052,512.75,52.6622,56.813,142.787,105.327,4.10862,0.00222825,0.305286,20.6966,515.545,29.3043,0.0,0.0
2090,522.25,53.5699,56.492,140.223,105.191,3.97328,0.00174475,0.310357,20.691,514.845,29.5952,0.0,0.0
2128,531.75,54.2479,57.4178,138.317,104.736,4.06826,0.00200908,0.319523,20.6782,514.164,29.3427,0.0,0.0
2166,541.25,54.605,57.9421,141.475,104.083,3.97898,0.00244052,0.325767,20.6733,513.443,29.4866,0.0,0.0
2204,550.75,54.6348,58.8726,140.118,103.48,3.92817,0.00205095,0.326611,20.6725,512.723,29.5502,0.0,0.0
2242,560.25,55.266,58.63,139.837,103.352,4.02172,0.00224509,0.330824,20.6667,511.912,29.3264,0.0,0.0
2280,569.75,56.1772,59.0262,138.452,103.854,3.93434,0.00245014,0.335172,20.6601,511.201,29.5686,0.0,0.0
2318,579.25,55.9046,59.4467,139.151,104.462,3.97708,0.00211148,0.337462,20.6569,510.431,29.5238,0.0,0.0
2356,588.75,56.0377,60.0462,141.26,104.63,4.02267,0.00257659,0.336399,20.6578,509.71,29.4353,0.0,0.0
2394,598.25,56.4711,60.2377,143.246,104.186,3.98801,0.00230291,0.335149,20.6601,508.959,29.4751,0.0,0.0
2432,607.75,56.7057,60.4248,147.444,104.674,4.03549,0.00234805,0.3369,20.6598,508.199,29.4104,0.0,0.0
2470,617.25,56.7472,60.5647,143.676,104.779,4.01697,0.00234368,0.332815,20.6636,507.458,29.4609,0.0,0.0
2508,626.75,56.6246,60.3776,138.514,104.817,3.98516,0.00273213,0.332542,20.6656,506.727,29.5361,0.0,0.0
2546,636.25,56.4924,60.4603,141.609,105.325,4.01555,0.00249248,0.326651,20.6702,506.027,29.5111,0.0,0.0
2584,645.75,55.9653,60.0813,143.469,104.821,4.03597,0.00232433,0.320245,20.6788,505.336,29.422,0.0,0.0
2622,655.25,55.7497,59.8147,142.55,103.666,3.97946,0.00261439,0.314075,20.6847,504.625,29.4493,0.0,0.0
2660,664.75,55.7115,59.4779,140.037,103.453,3.99465,0.002366,0.309397,20.6927,504.035,29.3963,0.0,0.0
2698,674.25,55.2864,59.5789,142.333,104.323,4.03169,0.00240532,0.305018,20.6959,503.374,29.3885,0.0,0.0
2736,683.75,54.6119,59.1692,142.717,104.632,3.98658,0.00322188,0.299372,20.7055,502.814,29.5169,0.0,0.0
2774,693.25,54.0994,58.6534,146.106,104.064,4.00653,0.00309073,0.28697,20.7177,502.223,29.4227,0.0,0.0
2812,702.75,54.5378,57.1742,145.745,104.905,4.01792,0.00335087,0.276627,20.7293,501.773,29.4697,0.0,0.0
2850,712.25,53.1337,56.8857,143.918,104.643,3.98326,0.00327153,0.263315,20.7441,501.272,29.5254,0.0,0.0
2888,721.75,52.3549,55.6977,149.104,105.332,3.99133,0.00309072,0.244763,20.7683,500.852,29.5664,0.0,0.0
2926,731.25,51.47,55.4278,142.849,104.536,3.97138,0.00445764,0.239324,20.774,500.402,29.5431,0.0,0.0
2964,740.75,50.1772,53.9743,145.975,103.417,3.94337,0.00547234,0.221522,20.7932,500.071,29.5099,0.0,0.0
3002,750.25,49.6245,52.3882,144.738,104.083,3.92247,0.00680944,0.206757,20.8107,499.771,29.6158,0.0,0.0
3040,759.75,48.3485,51.7395,145.707,104.678,4.02125,0.00760421,0.189622,20.8321,499.601,29.4427,0.0,0.0
3078,769.25,47.0462,49.7866,150.94,104.037,3.93672,0.00857096,0.179548,20.8426,499.421,29.5791,0.0,0.0
3116,778.75,46.02,48.6633,151.745,104.849,4.02125,0.00981928,0.175606,20.8488,499.191,29.4574,0.0,0.0
3154,788.25,44.8705,47.6227,148.283,104.758,3.92247,0.0106443,0.172151,20.8496,498.98,29.6742,0.0,0.0
3192,797.75,43.6485,47.2007,151.366,105.308,3.90965,0.0105492,0.170365,20.8517,498.82,29.7511,0.0,0.0
3230,807.25,42.4434,45.2577,152.196,105.09,3.92675,0.0103021,0.165996,20.8564,498.69,29.693,0.0,0.0
3268,816.75,41.9062,44.5555,152.973,104.341,3.87356,0.0105336,0.163905,20.8609,498.53,29.7515,0.0,0.0
3306,826.25,41.7902,43.5682,148.828,103.67,3.8351,0.0106451,0.162515,20.8613,498.36,29.7834,0.0,0.0
3344,835.75,40.8236,42.811,153.819,103.447,3.84934,0.0102365,0.161727,20.8594,498.24,29.7304,0.0,0.0
3382,845.25,40.4763,42.6617,148.471,103.636,3.84364,0.0104824,0.160685,20.8592,498.09,29.7603,0.0,0.0
3420,854.75,40.1725,41.9349,152.411,103.946,3.84174,0.0103081,0.159959,20.8606,498.029,29.7918,0.0,0.0
3458,864.25,39.9137,41.3118,154.429,104.288,3.83082,0.0103648,0.159587,20.863,497.859,29.8472,0.0,0.0
3496,873.75,39.9089,41.084,154.115,104.562,3.76671,0.0101393,0.158456,20.863,497.749,30.0233,0.0,0.0
3534,883.25,39.6471,41.1797,153.495,104.707,3.82275,0.00999494,0.158127,20.8653,497.619,29.9024,0.0,0.0
3572,892.75,38.7829,41.0414,153.441,104.758,3.77146,0.0100601,0.156277,20.8661,497.459,30.0289,0.0,0.0
3610,902.25,38.8714,40.7788,158.509,104.684,3.78238,0.0104983,0.156394,20.8669,497.369,29.9964,0.0,0.0
3648,911.75,38.9195,40.0821,152.958,104.51,3.8047,,,,497.259,29.9282,0.0,0.0
3676,918.75,38.5596,39.9938,156.098,104.36,3.74962,,,,497.189,30.047,0.0,0.0