File: 01_Data/Cotton_Sheet/Cone/Cotton_Sheet_Cone_HF50Scan_220429_R2.csv
Names,Time,Stack TC,Smoke TC,Exh Press,Smoke Comp,Smoke Meas,CO Meter,CO2 Meter,O2 Meter,Sample Mass,Ext Coeff,Start Test,Flame Verif
Chan Gain,,500,500,1,1,1,1,1,1,1,1,1.0,1.0
Offset,,0,0,0.138979,0,0,0,0,0,0,0,0.0,0.0
Gain,,1,1,25.011,14.099,15.1965,1,1,1,1.00087,0.986176,1.0,1.0
Units,sec,C,C,Pa,%,%,%,%,%,g,/m,,
Baseline,,29.7967,30.8535,149.34,105.37,102.121,0.000607553,0.0493121,21.0315,-835.101,0.270958,,
6,1.25,27.9039,28.7263,145.889,106.375,102.008,0.000930529,0.0508864,21.0175,180.467,0.362653,0.0,0.0
12,2.75,27.9675,28.7582,139.537,106.356,106.464,0.00137412,0.0956143,20.9518,180.317,-0.00880611,0.0,1.0
18,4.25,28.6325,29.519,122.919,106.304,108.734,0.00198012,0.215226,20.8279,179.826,-0.195489,0.0,1.0
24,5.75,30.2439,30.7369,112.958,106.185,107.981,0.00262987,0.352658,20.7337,179.626,-0.145066,0.0,1.0
30,7.25,33.2132,33.4065,142.801,106.055,104.972,0.0034587,0.413342,20.7074,179.596,0.0887791,0.0,1.0
36,8.75,34.245,34.6073,146.659,105.847,102.891,0.00441019,0.380874,20.7525,179.586,0.24502,0.0,0.0
42,10.25,34.6105,35.2165,145.589,105.635,102.894,0.00536912,0.313298,20.8098,179.566,0.227392,0.0,0.0
48,11.75,34.2837,35.4568,145.582,105.373,102.3,0.00624263,0.246157,20.866,179.566,0.255997,0.0,0.0
54,13.25,34.301,35.4232,148.975,105.135,101.942,0.00676645,0.189532,20.9153,179.546,0.26677,0.0,0.0
60,14.75,34.2438,35.5651,148.759,104.866,101.75,0.00682017,0.148518,20.9516,179.526,0.260927,0.0,0.0
66,16.25,34.0658,35.0566,152.682,104.653,101.766,0.00642577,0.120334,20.9762,179.496,0.241992,0.0,0.0
72,17.75,33.8155,35.1013,150.463,104.469,101.146,0.00555433,0.100819,20.9914,179.526,0.279629,0.0,0.0
78,19.25,33.5369,34.8096,149.402,104.339,101.04,0.00467479,0.0869856,21.0013,179.506,0.277945,0.0,0.0
84,20.75,33.5038,34.6133,151.357,104.256,100.81,0.0035589,0.0766311,21.0079,179.486,0.290814,0.0,0.0
90,22.25,32.5367,34.1603,151.14,104.242,100.972,0.00277085,0.068525,21.0133,179.476,0.275758,0.0,0.0
96,23.75,32.6139,33.974,151.189,104.266,101.088,0.00212876,0.0621664,21.0184,179.486,0.267714,0.0,0.0
102,25.25,32.4093,33.546,150.659,104.365,101.2,0.0017488,0.0586227,21.0211,179.486,0.266437,0.0,0.0
108,26.75,32.4758,33.7807,148.974,104.5,101.292,0.00149724,0.0556824,21.0234,179.476,0.269783,0.0,0.0
114,28.25,32.2006,34.2306,151.367,104.673,101.501,0.00126017,0.0537206,21.0248,179.466,0.266206,0.0,0.0
120,29.75,32.38,33.2338,147.435,104.838,102.269,0.00103997,0.0526358,21.0256,179.486,0.214647,0.0,0.0
126,31.25,31.8701,33.5247,146.401,105.015,101.94,0.000855471,0.0519794,21.0252,179.466,0.25708,0.0,0.0
132,32.75,31.8525,33.1612,149.852,105.185,101.829,0.000700573,0.0515147,21.0248,179.496,0.280484,0.0,0.0
138,34.25,31.8457,33.1843,148.868,105.318,102.06,0.00056904,0.051176,21.0245,179.476,0.271774,0.0,0.0
144,35.75,32.2731,33.5065,149.184,105.462,102.241,0.000501163,0.0509668,21.0244,179.476,0.268328,0.0,0.0
150,37.25,31.7325,33.0174,148.156,105.549,102.478,0.000473772,0.0509056,21.0243,179.446,0.255462,0.0,0.0
156,38.75,31.7767,33.4526,147.144,105.627,102.485,0.00043012,0.0509726,21.0235,179.486,0.26118,0.0,0.0
162,40.25,32.0191,33.1329,151.28,105.643,102.57,0.000366644,0.0509789,21.0227,179.456,0.255359,0.0,0.0
168,41.75,31.7024,33.1042,147.596,105.643,102.443,0.000337942,0.0510983,21.0223,179.466,0.266047,0.0,0.0
174,43.25,31.7821,33.0415,149.228,105.587,102.625,0.000389359,0.0510928,21.0237,179.466,0.246088,0.0,0.0
180,44.75,31.6727,33.3203,148.902,105.514,102.42,0.000451854,0.0510991,21.0244,179.456,0.257499,0.0,0.0
186,46.25,31.6174,33.0672,150.377,105.449,101.975,0.000507899,0.0511178,21.0247,179.476,0.289818,0.0,0.0
192,47.75,31.3925,32.9865,151.025,105.413,102.278,0.000569263,0.051133,21.0249,179.466,0.261126,0.0,0.0
198,49.25,31.4614,33.2337,147.175,105.385,102.227,0.000655087,0.0512325,21.025,179.456,0.263182,0.0,0.0
204,50.75,30.8087,32.2627,149.614,105.384,102.411,0.000702197,0.0513729,21.024,179.446,0.247513,0.0,0.0
210,52.25,31.2163,32.5048,148.361,105.303,102.06,0.000711708,0.0513635,21.0235,179.446,0.270611,0.0,0.0
216,53.75,31.0913,32.2,148.106,105.253,101.951,0.000745749,0.0513408,21.0232,179.416,0.275792,0.0,0.0
222,55.25,31.1792,32.4962,147.447,105.223,102.018,0.000808596,0.0513626,21.0233,179.436,0.267573,0.0,0.0
228,56.75,30.6451,32.3121,150.374,105.221,102.189,0.000852754,0.0515236,21.0242,179.456,0.252937,0.0,0.0
234,58.25,30.6796,31.9387,147.542,105.272,102.317,0.000837518,0.0516162,21.0246,179.436,0.246282,0.0,0.0
240,59.75,30.5858,31.7505,153.038,105.244,101.915,0.000762507,0.0514758,21.0249,179.426,0.278044,0.0,0.0
246,61.25,30.2922,32.2269,151.406,105.216,101.908,0.000723778,0.0513362,21.025,179.416,0.276336,0.0,0.0
252,62.75,30.8267,31.5411,149.161,105.197,101.969,0.000770824,0.0513017,21.0251,179.416,0.26966,0.0,0.0
258,64.25,30.1923,31.4231,148.238,105.328,102.326,0.000824197,0.0511665,21.0251,179.406,0.250163,0.0,0.0
264,65.75,30.0813,31.6742,149.631,105.511,102.719,0.000886455,0.0510443,21.0248,179.416,0.231985,0.0,0.0
270,67.25,31.0656,31.8039,145.038,105.678,102.44,0.000863624,0.0509947,21.0245,179.396,0.26921,0.0,0.0
276,68.75,29.7761,31.8024,147.938,105.805,102.508,0.000783476,0.0509284,21.0243,179.416,0.273839,0.0,0.0
282,70.25,30.1086,31.775,148.148,105.919,102.867,0.000691057,0.0509736,21.0243,179.476,0.252878,0.0,0.0
288,71.75,30.5354,31.9882,147.511,106.009,103.003,0.000634876,0.0510213,21.0236,179.416,0.248874,0.0,0.0
294,73.25,30.7389,31.803,148.852,106.078,102.678,0.000639554,0.0509181,21.0228,179.416,0.281837,0.0,0.0
300,74.75,30.4807,32.301,148.94,106.118,103.03,0.000666563,0.0508945,21.0223,179.406,0.255494,0.0,0.0
306,76.25,30.7476,31.8267,150.915,106.143,103.153,0.000711595,0.0509368,21.0221,179.406,0.247216,0.0,0.0
312,77.75,30.0516,31.7902,151.322,106.134,103.041,0.000707985,0.0509275,21.022,179.396,0.255822,0.0,0.0
318,79.25,30.2746,31.5688,149.442,106.14,102.962,0.000660285,0.0510244,21.0219,179.386,0.262932,0.0,0.0
324,80.75,30.1424,31.7398,146.335,106.12,103.204,0.000585685,0.0510571,21.0219,179.406,0.241041,0.0,0.0
330,82.25,30.3585,31.7171,151.179,106.092,102.736,0.000499897,0.0511534,21.0219,179.436,0.278037,0.0,0.0
336,83.75,30.5519,32.0137,149.281,106.033,103.015,0.00044398,0.0511754,21.0223,179.426,0.249828,0.0,0.0
342,85.25,30.0893,31.5083,148.292,105.99,103.12,0.000426136,0.0512587,21.0225,179.416,0.237445,0.0,0.0
348,86.75,30.319,31.3745,147.788,105.893,102.577,0.000437435,0.0513099,21.0226,179.426,0.275218,0.0,0.0
354,88.25,30.4875,31.6959,143.09,105.811,102.594,0.000478449,0.0512985,21.0227,179.416,0.267094,0.0,0.0
360,89.75,30.1786,31.8689,149.668,105.701,102.745,0.000502912,0.0512835,21.0228,179.446,0.245341,0.0,0.0
366,91.25,30.1477,31.8741,146.99,105.592,102.497,0.000516495,0.0513336,21.0219,179.426,0.257343,0.0,0.0
372,92.75,30.0238,31.1757,145.181,105.594,102.664,0.000546669,0.051378,21.0213,179.416,0.243409,0.0,0.0
378,94.25,29.898,31.3637,147.867,105.649,102.513,0.000647481,0.0514189,21.0206,179.406,0.260704,0.0,0.0
384,95.75,30.0584,31.1487,150.572,105.684,102.448,0.00072562,0.0514238,21.0202,179.396,0.269033,0.0,0.0
390,97.25,30.3057,31.1211,150.581,105.748,102.59,0.00074774,0.0515313,21.0199,179.366,0.262309,0.0,0.0
396,98.75,30.0388,31.0391,147.504,105.802,102.796,0.000689737,0.0516367,21.0198,179.396,0.249319,0.0,0.0
402,100.25,30.0052,31.2322,146.939,105.869,103.036,0.00064871,0.0516041,21.0198,179.396,0.23469,0.0,0.0
408,101.75,29.8961,31.2822,149.188,105.918,103.057,0.000659145,0.0515936,21.0197,179.396,0.236907,0.0,0.0
414,103.25,29.3215,30.903,148.687,105.985,102.959,0.000711997,0.0514791,21.0197,179.396,0.250569,0.0,0.0
420,104.75,29.8066,31.5292,144.693,106.057,103.205,0.000777834,0.051522,21.0197,179.376,0.235732,0.0,0.0
426,106.25,30.2914,30.9522,149.437,106.118,102.726,0.000808837,0.0515766,21.0206,179.346,0.280997,0.0,0.0
432,107.75,29.7359,31.0662,148.587,106.182,103.34,0.000717305,0.0515156,21.0213,179.376,0.234669,0.0,0.0
438,109.25,29.4888,31.2566,149.4,106.23,102.967,0.000575731,0.0514305,21.0216,179.376,0.269941,0.0,0.0
444,110.75,29.9606,31.2492,147.731,106.286,103.327,0.000448868,0.051459,21.0214,179.366,0.244312,0.0,0.0
450,112.25,29.4625,31.4332,153.627,106.324,103.229,0.000418717,0.0514423,21.021,179.356,0.25559,0.0,0.0
456,113.75,29.938,31.4172,149.566,106.379,103.663,0.000463408,0.0515634,21.0219,179.346,0.223696,0.0,0.0
462,115.25,29.489,31.0289,151.827,106.387,103.391,0.00063306,0.0516499,21.0223,179.336,0.247146,0.0,0.0
468,116.75,30.5352,31.3265,145.14,106.447,103.419,0.000753108,0.0516201,21.0226,179.336,0.249638,0.0,0.0
474,118.25,29.6663,31.1714,147.773,106.448,103.703,0.00078093,0.0514882,21.0227,179.346,0.226003,0.0,0.0
480,119.75,30.1548,31.3366,147.036,106.468,103.48,0.000694744,0.0514232,21.0228,179.346,0.246275,0.0,0.0
486,121.25,29.5157,30.4489,151.43,106.485,103.41,0.000565457,0.0515226,21.0228,179.326,0.253565,0.0,0.0
492,122.75,30.2662,31.1958,151.599,106.478,103.535,0.00046161,0.051518,21.0228,179.346,0.242463,0.0,0.0
498,124.25,29.9634,31.0643,149.4,106.479,103.351,0.000471069,0.0514867,21.0229,179.336,0.257968,0.0,0.0
504,125.75,30.2361,31.3788,144.384,106.484,103.504,0.000594828,0.0515683,21.0233,179.326,0.245553,0.0,0.0
510,127.25,29.6384,31.3567,148.654,106.463,103.304,0.000767092,0.051529,21.0235,179.346,0.260522,0.0,0.0
516,128.75,29.7657,31.5227,149.33,106.458,103.532,0.000925855,0.0515093,21.0236,179.316,0.241091,0.0,0.0
522,130.25,29.6715,30.9244,150.321,106.424,103.414,,0.0515429,,179.336,0.248212,0.0,0.0
528,131.75,30.6266,30.9389,150.059,106.413,103.477,,0.0516581,,179.326,0.242028,0.0,0.0
534,133.25,30.1913,31.2484,148.829,106.379,103.362,,,,179.316,0.248923,0.0,0.0
540,134.75,29.8152,31.2045,148.471,106.348,103.275,,,,179.316,0.25363,0.0,0.0
546,136.25,29.8662,30.9008,147.928,106.308,103.711,,,,179.306,0.214009,0.0,0.0
552,137.75,30.4329,31.4597,149.463,106.271,103.261,,,,179.296,0.248562,0.0,0.0
558,139.25,29.7215,30.7412,148.654,106.223,103.163,,,,179.286,0.252876,0.0,0.0
564,140.75,29.6502,31.3325,149.574,106.19,102.986,,,,179.306,0.26505,0.0,0.0