File: 01_Data/Cotton_Sheet/Cone/Cotton_Sheet_Cone_HF25Scan_220429_R3.csv
Names,Time,Stack TC,Smoke TC,Exh Press,Smoke Comp,Smoke Meas,CO Meter,CO2 Meter,O2 Meter,Sample Mass,Ext Coeff,Start Test,Flame Verif
Chan Gain,,500,500,1,1,1,1,1,1,1,1,1.0,1.0
Offset,,0,0,0.138979,0,0,0,0,0,0,0,0.0,0.0
Gain,,1,1,25.011,14.099,15.1965,1,1,1,1.00087,0.986176,1.0,1.0
Units,sec,C,C,Pa,%,%,%,%,%,g,/m,,
Baseline,,18.0819,18.5897,157.129,104.481,100.702,0.00084799,0.0510948,21.0233,-833.995,0.318729,,
6,1.25,16.7489,17.3772,156.803,106.16,102.332,0.000932423,0.0570855,21.0143,181.788,0.317698,0.0,0.0
12,2.75,16.9833,17.6616,154.549,106.199,102.194,0.00101923,0.0567032,21.014,181.698,0.332464,0.0,0.0
18,4.25,16.7513,17.9787,149.694,106.214,102.045,0.00104206,0.0561608,21.0138,181.738,0.346416,0.0,0.0
24,5.75,16.6953,17.7449,154.494,106.242,101.775,0.00101732,0.0556046,21.0137,181.718,0.37157,0.0,0.0
30,7.25,16.7584,18.0329,154.439,106.264,101.668,0.00101137,0.0556385,21.0121,181.708,0.382463,0.0,0.0
36,8.75,17.0341,17.5193,160.29,106.276,100.851,0.00110789,0.0671926,21.002,181.668,0.453178,0.0,0.0
42,10.25,16.8655,17.3842,147.864,106.288,103.88,0.00137237,0.110627,20.955,181.508,0.198221,0.0,1.0
48,11.75,17.8523,18.1259,141.291,106.303,105.179,0.0016734,0.175859,20.8888,181.458,0.0919744,0.0,1.0
54,13.25,18.2672,18.4997,138.966,106.312,105.34,0.00193021,0.248536,20.8014,181.077,0.0794141,0.0,1.0
60,14.75,19.6928,19.3452,140.546,106.309,105.27,0.00213743,0.301022,20.7496,181.097,0.0849945,0.0,0.0
66,16.25,20.758,20.2303,140.066,106.321,104.014,0.00241559,0.312022,20.7334,180.897,0.189725,0.0,0.0
72,17.75,21.7515,21.956,153.688,106.318,102.892,0.00296833,0.287817,20.7527,180.907,0.283287,0.0,0.0
78,19.25,21.4404,22.3353,153.429,106.308,102.867,0.00354259,0.238202,20.8117,180.897,0.284626,0.0,0.0
84,20.75,21.7139,22.2833,154.356,106.303,102.491,0.00407366,0.186831,20.8606,180.937,0.315894,0.0,0.0
90,22.25,22.2518,22.653,154.575,106.294,102.564,0.00452334,0.146217,20.9026,180.917,0.309016,0.0,0.0
96,23.75,21.5453,21.6619,158.051,106.284,102.508,0.0049951,0.119012,20.934,180.917,0.312979,0.0,0.0
102,25.25,21.2559,22.5235,152.36,106.266,102.445,0.00538103,0.0992026,20.9575,180.897,0.316793,0.0,0.0
108,26.75,21.6285,22.0178,156.561,106.239,102.406,0.00559798,0.0861828,20.9767,180.907,0.317802,0.0,0.0
114,28.25,20.7545,21.3998,157.035,106.228,102.4375,0.00558206,0.0780448,20.9881,180.877,0.314301,0.0,0.0
120,29.75,20.9172,21.5943,156.403,106.205,102.42,0.00539934,0.0727331,20.9966,180.837,0.313859,0.0,0.0
126,31.25,20.8079,21.4048,156.853,106.171,102.554,0.00496807,0.0687028,21.0029,180.817,0.299885,0.0,0.0
132,32.75,20.6245,21.0473,153.588,106.149,102.423,0.00445081,0.065375,21.0081,180.867,0.309066,0.0,0.0
138,34.25,20.9069,21.0402,157.694,106.121,102.309,0.00392114,0.0624112,21.0134,180.847,0.316502,0.0,0.0
144,35.75,20.6003,20.5397,154.09,106.081,102.37,0.00340216,0.0595684,21.018,180.837,0.3081,0.0,0.0
150,37.25,19.6446,20.7924,160.166,106.069,102.169,0.00285279,0.0574283,21.0209,180.857,0.324065,0.0,0.0
156,38.75,20.185,20.6792,155.708,106.023,102.386,0.00227094,0.055523,21.0236,180.857,0.301956,0.0,0.0
162,40.25,20.4829,20.5223,158.208,106.001,102.148,0.00178317,0.0538618,21.026,180.847,0.320289,0.0,0.0
168,41.75,19.9636,20.6261,158.274,105.96,102.09,0.00144626,0.0524751,21.0281,180.857,0.321903,0.0,0.0
174,43.25,19.798,20.6334,158.209,105.949,102.016,0.00122359,0.0515816,21.0295,180.857,0.327165,0.0,0.0
180,44.75,19.7018,20.137,156.127,105.902,102.139,0.00108472,0.05092,21.0298,180.847,0.312955,0.0,0.0
186,46.25,19.3073,20.3508,156.006,105.882,102.232,0.00101138,0.0504143,21.0294,180.827,0.303526,0.0,0.0
192,47.75,19.4624,20.5588,159.126,105.851,102.232,0.00101612,0.050142,21.0292,180.847,0.300995,0.0,0.0
198,49.25,19.2048,19.5872,153.398,105.834,102.047,0.00105264,0.0500001,21.0291,180.847,0.315259,0.0,0.0
204,50.75,19.1825,19.938,155.903,105.794,102.021,0.00105488,0.0498606,21.029,180.837,0.314077,0.0,0.0
210,52.25,19.1401,19.9836,157.58,105.769,101.977,0.000974178,0.0500298,21.029,180.827,0.315851,0.0,0.0
216,53.75,19.3524,19.8742,152.057,105.742,102.029,0.000890246,0.0502043,21.029,180.837,0.309259,0.0,0.0
222,55.25,19.0129,19.6032,154.053,105.747,102.036,0.00085314,0.0503555,21.029,180.827,0.308982,0.0,0.0
228,56.75,18.9129,20.0052,156.99,105.692,101.891,0.000840005,0.050492,21.029,180.827,0.316792,0.0,0.0
234,58.25,18.3246,19.2913,152.898,105.681,101.963,0.000779533,0.0505784,21.029,180.837,0.30981,0.0,0.0
240,59.75,18.7157,19.7824,155.294,105.65,102.02,0.000673252,0.0504793,21.029,180.837,0.302471,0.0,0.0
246,61.25,19.1661,19.1798,153.179,105.642,101.948,0.000538634,0.0504026,21.029,180.827,0.307903,0.0,0.0
252,62.75,18.2687,19.1717,157.748,105.606,101.76,0.000422269,0.0502388,21.03,180.837,0.32093,0.0,0.0
258,64.25,18.4624,19.1926,153.762,105.584,101.931,0.000366063,0.0500164,21.0306,180.827,0.304562,0.0,0.0
264,65.75,18.9459,18.7956,157.017,105.573,101.813,0.000414581,0.0496947,21.0309,180.827,0.313683,0.0,0.0
270,67.25,18.8663,19.3869,154.192,105.543,101.81,0.000494105,0.0494244,21.0311,180.827,0.311566,0.0,0.0
276,68.75,18.4742,19.1149,157.586,105.536,101.819,0.000568414,0.0491648,21.0308,180.817,0.310178,0.0,0.0
282,70.25,18.7049,19.0784,154.019,105.507,101.826,0.000585155,0.0488839,21.0306,180.817,0.307149,0.0,0.0
288,71.75,18.0805,18.5816,158.565,105.495,101.765,0.000578814,0.048628,21.031,180.837,0.311398,0.0,0.0
294,73.25,18.5228,18.9085,157.437,105.47,101.779,0.000612968,0.0484095,21.0317,180.837,0.308165,0.0,0.0
300,74.75,17.7716,19.0882,158.693,105.471,101.712,0.000641017,0.0482349,21.0321,180.807,0.313993,0.0,0.0
306,76.25,17.8334,19.2759,158.844,105.486,101.816,0.000605338,0.0481724,21.0327,180.827,0.306397,0.0,0.0
312,77.75,18.4847,18.8035,154.968,105.547,101.759,0.000572108,0.048167,21.0323,180.827,0.316179,0.0,0.0
318,79.25,17.9318,18.7883,156.459,105.584,101.875,0.000617291,0.0481131,21.0327,180.827,0.309325,0.0,0.0
324,80.75,17.9832,18.8807,161.055,105.655,102.032,0.000724306,0.0480844,21.033,180.817,0.301802,0.0,0.0
330,82.25,17.678,18.7032,158.131,105.699,102.002,0.000806383,0.0480095,21.0324,180.807,0.307989,0.0,0.0
336,83.75,17.82,18.7889,156.109,105.745,102.106,0.000848564,0.0479959,21.0329,180.807,0.302871,0.0,0.0
342,85.25,17.6364,19.07,157.106,105.79,101.867,0.000816679,0.0480173,21.0331,180.817,0.326864,0.0,0.0
348,86.75,18.1365,18.4721,153.869,105.814,102.073,0.000722916,0.0481724,21.0333,180.817,0.311363,0.0,0.0
354,88.25,17.5023,18.5686,163.112,105.845,102.34,0.000657284,0.0483989,21.0333,180.817,0.291324,0.0,0.0
360,89.75,18.0946,18.6291,156.79,105.899,102.2,0.000606917,0.048702,21.0323,180.847,0.30757,0.0,0.0
366,91.25,17.9514,18.697,156.67,105.915,102.13,0.000545227,0.0489655,21.032,180.817,0.314721,0.0,0.0
372,92.75,17.8045,18.3179,160.405,105.958,102.126,0.000500944,0.0490669,21.0315,180.837,0.318698,0.0,0.0
378,94.25,17.9019,18.6006,162.016,105.978,102.193,0.000472259,0.0490346,21.0309,180.827,0.314584,0.0,0.0
384,95.75,17.4009,18.2426,157.923,106.009,102.297,0.00044707,0.0490978,21.0306,180.817,0.308319,0.0,0.0
390,97.25,17.2979,18.4343,162.378,106.024,102.38,0.000430219,0.0491759,21.0305,180.797,0.30253,0.0,0.0
396,98.75,17.4013,18.9582,155.655,106.044,102.196,0.000418579,0.0491102,21.0304,180.807,0.319752,0.0,0.0
402,100.25,17.531,18.008,158.966,106.066,102.486,0.000413323,0.049056,21.0303,180.817,0.297045,0.0,0.0
408,101.75,17.1487,17.9675,161.147,106.063,102.315,0.0004286,0.0491452,21.0303,180.807,0.311182,0.0,0.0
414,103.25,17.5094,18.3145,160.782,106.086,102.398,0.000445833,0.0490268,21.0303,180.797,0.306096,0.0,0.0
420,104.75,17.7785,18.0049,158.437,106.075,102.459,0.000488554,0.0489762,21.0303,180.807,0.300014,0.0,0.0
426,106.25,17.4624,18.0139,156.439,106.092,102.349,0.000542115,0.0488828,21.0303,180.807,0.310702,0.0,0.0
432,107.75,17.751,18.6759,154.238,106.089,102.476,0.000604346,0.0488135,21.0303,180.827,0.299766,0.0,0.0
438,109.25,17.882,18.198,154.818,106.103,102.35,0.000692443,0.0487502,21.0303,180.807,0.31154,0.0,0.0
444,110.75,17.6049,18.1245,156.638,106.078,102.469,0.000774498,0.0485989,21.0313,180.817,0.299472,0.0,0.0
450,112.25,17.4511,18.5054,159.031,106.1,102.425,0.000818965,0.0484905,21.0319,180.807,0.304907,0.0,0.0
456,113.75,17.4559,17.6246,157.64,106.078,102.416,0.000830695,0.0485241,21.0326,180.807,0.303906,0.0,0.0
462,115.25,17.2867,17.7836,161.046,106.087,102.328,0.000928334,0.0485702,21.0332,180.807,0.312049,0.0,0.0
468,116.75,16.7565,17.8626,159.076,106.075,102.362,0.00103985,0.0485366,21.0325,180.797,0.308275,0.0,0.0
474,118.25,17.6302,18.1892,157.819,106.072,102.456,0.00109891,0.048535,21.0316,180.797,0.300042,0.0,0.0
480,119.75,17.2143,18.1609,158.974,106.047,102.376,0.00100185,0.0485087,21.0321,180.777,0.304744,0.0,0.0
486,121.25,17.5963,17.3517,158.137,106.047,102.493,0.000777021,0.0484688,21.0325,180.777,0.294948,0.0,0.0
492,122.75,17.6042,18.3865,157.507,106.033,102.451,0.000582554,0.0484102,21.032,180.797,0.297314,0.0,0.0
498,124.25,16.5959,17.98,160.801,106.017,102.337,0.0005038,0.0482953,21.0314,180.787,0.305614,0.0,0.0
504,125.75,17.3877,17.6582,157.192,106.002,102.284,0.000534518,0.0483711,21.0311,180.787,0.308895,0.0,0.0
510,127.25,17.012,17.6124,153.176,106.005,102.271,0.000615149,0.0485776,21.0309,180.797,0.310239,0.0,0.0
516,128.75,16.7087,17.7844,156.94,105.966,102.27,0.000659995,0.0487498,21.0308,180.807,0.307086,0.0,0.0
522,130.25,16.9827,17.1149,161.667,105.955,102.266,0.000655026,0.048929,21.0308,180.787,0.306558,0.0,0.0
528,131.75,16.8576,18.0355,161.649,105.934,102.148,0.000623463,0.0491093,21.0307,180.777,0.314884,0.0,0.0
534,133.25,17.3865,17.9017,158.115,105.915,102.164,0.000578404,0.0491802,21.0299,180.797,0.311963,0.0,0.0
540,134.75,17.0178,18.3626,155.21,105.896,102.158,0.000494375,0.0494387,21.0292,180.787,0.310853,0.0,0.0
546,136.25,17.4882,17.6265,158.695,105.854,102.238,0.000374074,0.0498431,21.0293,180.787,0.30073,0.0,0.0
552,137.75,17.073,17.1292,155.142,105.838,102.266,,0.0500168,,180.777,0.297036,0.0,0.0
558,139.25,17.0694,17.8536,155.368,105.804,102.045,,0.0499895,,180.787,0.312951,0.0,0.0
564,140.75,17.1935,17.8302,156.839,105.794,102.004,,,,180.787,0.315601,0.0,0.0
570,142.25,17.4487,17.7632,158.183,105.739,102.016,,,,180.777,0.310114,0.0,0.0
576,143.75,17.3554,17.7505,157.794,105.73,102.082,,,,180.777,0.303792,0.0,0.0
582,145.25,17.1866,17.8811,155.123,105.674,101.998,,,,180.777,0.306221,0.0,0.0
588,146.75,17.2101,17.9896,162.172,105.673,101.894,,,,180.787,0.315001,0.0,0.0
590,147.25,17.2098,17.8222,154.264,105.634,101.951,,,,180.797,0.306918,0.0,0.0