File: 01_Data/Cotton_Sheet/Cone/Cotton_Sheet_Cone_HF50Scan_220429_R1.csv
Names,Time,Stack TC,Smoke TC,Exh Press,Smoke Comp,Smoke Meas,CO Meter,CO2 Meter,O2 Meter,Sample Mass,Ext Coeff,Start Test,Flame Verif
Chan Gain,,500,500,1,1,1,1,1,1,1,1,1.0,1.0
Offset,,0,0,0.138979,0,0,0,0,0,0,0,0.0,0.0
Gain,,1,1,25.011,14.099,15.1965,1,1,1,1.00087,0.986176,1.0,1.0
Units,sec,C,C,Pa,%,%,%,%,%,g,/m,,
Baseline,,28.4617,29.526,150.523,105.857,102.552,0.000905541,0.0496726,21.0311,-834.625,0.274385,,
6,1.25,26.4835,27.3747,150.474,104.366,100.388,0.00116006,0.0599257,20.9975,186.212,0.336203,0.0,0.0
12,2.75,25.962,27.1643,128.529,104.357,104.709,0.00142043,0.107316,20.9106,186.012,-0.0291367,0.0,1.0
18,4.25,26.7315,27.3708,118.102,104.367,106.265,0.00178054,0.211151,20.7882,185.721,-0.155877,0.0,1.0
24,5.75,29.2166,28.9277,126.862,104.343,104.7,0.0024392,0.32963,20.7166,185.621,-0.0295469,0.0,1.0
30,7.25,31.8434,31.7909,138.551,104.36,102.933,0.00321479,0.380131,20.7047,185.431,0.119119,0.0,1.0
36,8.75,32.1345,33.1196,144.865,104.357,102.011,0.00431879,0.360433,20.7532,185.461,0.196698,0.0,0.0
42,10.25,32.886,33.782,151.589,104.357,101.311,0.00541435,0.300906,20.8145,185.471,0.256291,0.0,0.0
48,11.75,32.4308,33.2958,147.806,104.339,101.264,0.00644302,0.238415,20.8711,185.431,0.258753,0.0,0.0
54,13.25,32.6874,33.8727,149.229,104.353,101.233,0.00703145,0.190244,20.9128,185.431,0.26255,0.0,0.0
60,14.75,32.7309,33.6031,147.318,104.345,101.235,0.00703435,0.153025,20.9445,185.441,0.261784,0.0,0.0
66,16.25,32.5842,33.7995,142.893,104.363,101.199,0.00612197,0.125622,20.9728,185.421,0.266302,0.0,0.0
72,17.75,31.7411,33.1462,148.887,104.336,101.153,0.00528004,0.104533,20.9895,185.421,0.268013,0.0,0.0
78,19.25,32.2256,33.0068,152.07,104.349,101.011,0.00432395,0.0866627,21.004,185.421,0.281268,0.0,0.0
84,20.75,31.6576,32.3099,149.737,104.346,101.337,0.00335218,0.0765187,21.0146,185.411,0.253105,0.0,0.0
90,22.25,31.4773,32.7338,150.465,104.355,101.263,0.00256171,0.0677391,21.022,185.411,0.260192,0.0,0.0
96,23.75,31.2437,32.1797,146.575,104.342,100.863,0.00190352,0.0619275,21.0259,185.401,0.293375,0.0,0.0
102,25.25,30.7453,32.4165,157.16,104.36,101.125,0.00145767,0.0581379,21.029,185.411,0.27243,0.0,0.0
108,26.75,31.2123,32.0074,151.871,104.334,101.282,0.00116064,0.0558996,21.0307,185.411,0.256855,0.0,0.0
114,28.25,30.6711,32.2016,151.57,104.362,101.125,0.00102161,0.0545143,21.0317,185.401,0.272573,0.0,0.0
120,29.75,30.1707,31.2408,147.936,104.348,101.154,0.000957932,0.0533741,21.0322,185.401,0.268897,0.0,0.0
126,31.25,30.1585,31.6521,150.864,104.361,101.18,0.000867627,0.0523754,21.033,185.381,0.267782,0.0,0.0
132,32.75,30.725,31.5925,152.503,104.363,101.122,0.00071796,0.0515707,21.034,185.401,0.272958,0.0,0.0
138,34.25,30.5389,31.6766,150.639,104.367,101.119,0.000578401,0.051,21.0342,185.401,0.273477,0.0,0.0
144,35.75,30.5083,31.6744,144.22,104.347,101.311,0.000528713,0.0506214,21.0339,185.411,0.255427,0.0,0.0
150,37.25,29.7261,31.0263,155.228,104.346,101.227,0.000592778,0.0501942,21.0337,185.391,0.262529,0.0,0.0
156,38.75,30.152,31.3501,152.442,104.363,101.01,0.000650214,0.0498453,21.0342,185.391,0.282564,0.0,0.0
162,40.25,29.827,31.4278,152.735,104.368,101.19,0.00065573,0.0495418,21.035,185.391,0.267444,0.0,0.0
168,41.75,29.6742,30.6787,148.746,104.368,101.188,0.00060751,0.0493093,21.0354,185.381,0.267682,0.0,0.0
174,43.25,29.6876,31.0979,147.222,104.361,101.211,0.000538884,0.0489963,21.0356,185.391,0.265165,0.0,0.0
180,44.75,29.7356,31.1534,150.379,104.363,101.074,0.000480794,0.0486896,21.0357,185.381,0.276973,0.0,0.0
186,46.25,29.7488,30.9115,151.372,104.353,101.102,0.000444632,0.0482896,21.036,185.381,0.273772,0.0,0.0
192,47.75,29.6994,30.9386,148.069,104.357,101.29,0.000442723,0.0479005,21.0363,185.361,0.258108,0.0,0.0
198,49.25,29.4606,31.0094,148.614,104.342,101.165,0.000462296,0.0476632,21.0365,185.351,0.267445,0.0,0.0
204,50.75,29.3691,31.1897,149.092,104.349,101.118,0.000495902,0.0476048,21.0358,185.371,0.272101,0.0,0.0
210,52.25,29.6612,30.8959,149.362,104.338,101.243,0.000529961,0.0475416,21.0351,185.381,0.2605,0.0,0.0
216,53.75,29.0858,30.4473,149.72,104.342,101.149,0.000584732,0.0474121,21.0348,185.371,0.268909,0.0,0.0
222,55.25,28.8469,30.7764,149.495,104.338,101.209,0.000649484,0.0472721,21.0346,185.381,0.263397,0.0,0.0
228,56.75,29.0472,29.641,150.992,104.353,101.5,0.000720477,0.0471246,21.0346,185.361,0.239752,0.0,0.0
234,58.25,28.8946,30.0942,147.511,104.343,101.213,0.00080707,0.0471,21.0347,185.371,0.263509,0.0,0.0
240,59.75,29.0952,30.3411,144.996,104.363,101.407,0.000869014,0.0470738,21.0347,185.361,0.248556,0.0,0.0
246,61.25,28.705,29.7154,147.513,104.35,101.317,0.000851703,0.0470602,21.0348,185.361,0.255204,0.0,0.0
252,62.75,29.3004,30.3268,148.942,104.356,101.041,0.000793911,0.0470309,21.0348,185.351,0.279261,0.0,0.0
258,64.25,29.0529,29.8869,151.379,104.34,101.002,0.000746985,0.0470281,21.0348,185.321,0.281238,0.0,0.0
264,65.75,29.0557,30.4519,150.308,104.354,101.062,0.000673912,0.0470216,21.0348,185.331,0.277367,0.0,0.0
270,67.25,29.2584,29.5276,150.791,104.347,101.089,0.000601206,0.0469312,21.0348,185.351,0.274344,0.0,0.0
276,68.75,28.6504,29.7341,150.739,104.361,101.286,0.000503834,0.0468796,21.0348,185.351,0.25871,0.0,0.0
282,70.25,28.695,29.8769,149.173,104.356,101.055,0.000452314,0.0468318,21.0348,185.351,0.278066,0.0,0.0
288,71.75,28.5754,30.2757,148.807,104.36,101.217,0.000434541,0.0467224,21.0359,185.351,0.264543,0.0,0.0
294,73.25,28.8563,29.7059,147.868,104.356,101.158,0.000405778,0.0465771,21.0365,185.351,0.269297,0.0,0.0
300,74.75,28.5042,29.9761,154.398,104.365,101.228,0.000381743,0.046529,21.0367,185.331,0.264024,0.0,0.0
306,76.25,28.3937,29.5408,151.535,104.366,101.342,0.000343955,0.0466215,21.0369,185.351,0.254351,0.0,0.0
312,77.75,28.8072,29.7996,152.525,104.367,101.031,0.000336417,0.0467224,21.037,185.341,0.281057,0.0,0.0
318,79.25,28.5428,30.1831,152.399,104.376,101.104,0.000401337,0.0469215,21.036,185.321,0.275535,0.0,0.0
324,80.75,28.3683,30.0494,150.706,104.363,101.235,0.00052506,0.0470837,21.0354,185.331,0.263243,0.0,0.0
330,82.25,28.1416,29.6623,151.831,104.385,101.266,0.000652212,0.0472434,21.0351,185.331,0.26245,0.0,0.0
336,83.75,28.5894,29.875,150.983,104.369,101.381,0.000760396,0.0473692,21.035,185.331,0.251312,0.0,0.0
342,85.25,28.2154,29.76,146.666,104.397,101.114,0.000791794,0.0475293,21.0341,185.311,0.276337,0.0,0.0
348,86.75,28.4767,29.9698,151.892,104.383,101.301,0.000693797,0.0477229,21.0334,185.311,0.259262,0.0,0.0
354,88.25,28.5175,30.0241,150.173,104.394,101.178,0.000562799,0.047878,21.033,185.311,0.27069,0.0,0.0
360,89.75,28.0418,29.4499,153.267,104.386,100.959,0.000438733,0.0480983,21.0328,185.301,0.288749,0.0,0.0
366,91.25,28.4135,29.7249,149.218,104.405,101.194,0.000457794,0.0482144,21.0326,185.301,0.270269,0.0,0.0
372,92.75,28.1078,30.0312,147.914,104.401,101.435,0.000572041,0.0482135,21.0315,185.281,0.249321,0.0,0.0
378,94.25,27.8439,29.592,151.223,104.413,101.334,0.000670822,0.0483455,21.0309,185.301,0.258982,0.0,0.0
384,95.75,27.7996,29.7462,155.113,104.41,101.202,0.000686453,0.048514,21.0306,185.291,0.269943,0.0,0.0
390,97.25,28.0256,29.3209,150.159,104.436,101.239,0.000610278,0.0487193,21.0304,185.311,0.268916,0.0,0.0
396,98.75,28.4142,29.5317,147.285,104.416,101.272,0.000494914,0.0489272,21.0303,185.301,0.264502,0.0,0.0
402,100.25,28.1622,29.6197,149.706,104.452,101.453,0.000427513,0.0491008,21.0303,185.301,0.252017,0.0,0.0
408,101.75,28.5165,29.7377,152.444,104.436,101.109,0.000437016,0.0494066,21.0302,185.301,0.280094,0.0,0.0
414,103.25,28.3946,30.0111,151.858,104.462,101.093,0.000555039,0.0497516,21.0294,185.301,0.283546,0.0,0.0
420,104.75,28.2629,29.7669,151.572,104.459,101.457,0.000632524,0.0499754,21.0287,185.291,0.25227,0.0,0.0
426,106.25,28.3481,29.3529,147.61,104.483,101.235,0.000640323,0.0501637,21.0283,185.281,0.273187,0.0,0.0
432,107.75,28.3463,29.2639,153.227,104.487,101.369,0.000611928,0.0503563,21.0281,185.291,0.262106,0.0,0.0
438,109.25,28.2493,29.9351,151.394,104.488,101.355,0.00055445,0.0505081,21.028,185.281,0.263325,0.0,0.0
444,110.75,28.2733,29.8209,152.335,104.501,101.443,0.000454571,0.0506343,21.0273,185.271,0.256877,0.0,0.0
450,112.25,27.8413,29.4947,149.214,104.493,101.461,0.000425176,0.0506988,21.0265,185.271,0.254769,0.0,0.0
456,113.75,28.4119,29.1506,151.422,104.517,101.242,0.000474005,0.0506853,21.0261,185.261,0.275411,0.0,0.0
462,115.25,27.8572,29.3633,149.543,104.522,101.536,0.00052769,0.0506794,21.0259,185.261,0.250716,0.0,0.0
468,116.75,28.4312,29.5037,155.192,104.541,101.234,0.000486087,0.0508205,21.0257,185.271,0.278039,0.0,0.0
474,118.25,28.4707,29.7535,149.058,104.554,101.267,0.000444386,0.0509337,21.0252,185.271,0.276337,0.0,0.0
480,119.75,28.4588,29.4124,149.638,104.573,101.342,0.000454521,0.0509733,21.0246,185.251,0.271489,0.0,0.0
486,121.25,28.1752,29.4252,150.668,104.57,101.345,0.000492331,0.050922,21.0253,185.251,0.270958,0.0,0.0
492,122.75,28.263,29.5521,152.25,104.598,101.469,0.00051901,0.0508158,21.0258,185.261,0.262749,0.0,0.0
498,124.25,28.579,29.1912,153.009,104.604,101.431,0.000553337,0.0507208,21.0261,185.261,0.266413,0.0,0.0
504,125.75,28.3851,29.2575,146.22,104.634,101.585,0.000532717,0.0507882,21.0262,185.251,0.255893,0.0,0.0
510,127.25,27.8685,29.3288,150.05,104.638,101.582,0.000393345,0.0508451,21.0262,185.241,0.256375,0.0,0.0
516,128.75,27.6925,29.3581,145.542,104.661,101.56,,0.050824,,185.231,0.260192,0.0,0.0
522,130.25,28.1732,29.8089,147.81,104.672,101.377,,0.0508693,,185.241,0.276734,0.0,0.0
528,131.75,28.7107,29.2792,147.136,104.69,101.713,,,,185.241,0.249624,0.0,0.0
534,133.25,28.1981,29.1203,149.896,104.708,101.446,,,,185.231,0.273751,0.0,0.0
540,134.75,27.9647,28.4792,149.158,104.725,101.529,,,,185.231,0.268176,0.0,0.0
546,136.25,28.3644,29.2489,151.501,104.728,101.87,,,,185.231,0.239316,0.0,0.0
552,137.75,28.5004,29.7065,149.424,104.769,101.72,,,,185.241,0.255535,0.0,0.0
555,138.5,28.1586,29.043,146.334,104.775,101.666,,,,185.241,0.260534,0.0,0.0