File: 01_Data/Cotton_Sheet/Cone/Cotton_Sheet_Cone_HF50Scalar_220429_R2.csv
LABORATORY,FSRI
TEST IDENT,Cotton_Sheet_HF_50_2
OPERATOR,Dow
MATERIAL,Cotton Sheet
ORIENTATION,Horizontal
HEAT FLUX,50
SURF AREA,0.00884
C FACTOR,0.0415476
SPEC HOLDER DIFF,-566
SPECIMEN MASS,1.06
SCAN TIME,0.25
O2 DELAY TIME,11
CO DELAY TIME,11
CO2 DELAY TIME,8
FLOW FACTOR,1
SCAN COUNT,564
TIME TO IGN,3
END OF TEST SCAN,84
END OF TEST TIME,21
TEST STATUS,1
PRE TEST CMT,Thickness: 0.19 mm; with frame; with calcium silicate substrate