File: 01_Data/Cotton_Sheet/Cone/Cotton_Sheet_Cone_HF75Scan_220429_R3.csv
Names,Time,Stack TC,Smoke TC,Exh Press,Smoke Comp,Smoke Meas,CO Meter,CO2 Meter,O2 Meter,Sample Mass,Ext Coeff,Start Test,Flame Verif
Chan Gain,,500,500,1,1,1,1,1,1,1,1,1.0,1.0
Offset,,0,0,0.138979,0,0,0,0,0,0,0,0.0,0.0
Gain,,1,1,25.011,14.099,15.1965,1,1,1,1.00087,0.986176,1.0,1.0
Units,sec,C,C,Pa,%,%,%,%,%,g,/m,,
Baseline,,39.6371,41.1356,144.86,104.591,102.064,0.000629212,0.0498065,21.0219,-836.667,0.211615,,
6,1.25,37.0368,38.5975,157.135,104.774,100.23,0.00151307,0.0746056,20.9847,187.133,0.383545,0.0,0.0
12,2.75,37.1702,38.9633,113.11,104.78,107.17,0.00220129,0.216032,20.831,186.882,-0.195087,0.0,1.0
18,4.25,39.593,40.6019,115.334,104.773,104.209,0.00300171,0.393208,20.7307,186.632,0.0467628,0.0,1.0
24,5.75,43.6191,43.6369,134.417,104.793,103.701,0.00387493,0.453262,20.6774,186.552,0.0906203,0.0,1.0
30,7.25,43.9841,44.3642,140.902,104.808,102.418,0.00497696,0.398646,20.7177,186.532,0.199577,0.0,0.0
36,8.75,43.2746,45.0978,142.079,104.784,102.163,0.00595053,0.318721,20.7929,186.522,0.219117,0.0,0.0
42,10.25,43.7605,44.9303,144.158,104.782,102.539,0.00657626,0.244438,20.8643,186.502,0.187229,0.0,0.0
48,11.75,43.2637,45.3243,136.406,104.78,102.543,0.00670278,0.185288,20.915,186.452,0.18666,0.0,0.0
54,13.25,43.0971,45.1357,141.778,104.789,102.28,0.00629864,0.144345,20.948,186.482,0.209653,0.0,0.0
60,14.75,42.5661,44.7295,142.502,104.787,102.132,0.00530806,0.114551,20.9749,186.482,0.221962,0.0,0.0
66,16.25,42.8594,44.4793,146.64,104.802,102.161,0.00424973,0.094075,20.9947,186.482,0.220809,0.0,0.0
72,17.75,42.9819,44.5068,147.035,104.795,102.294,0.00337089,0.0793824,21.0081,186.482,0.209012,0.0,0.0
78,19.25,42.7006,43.914,143.976,104.819,102.395,0.00274332,0.069305,21.0127,186.502,0.202457,0.0,0.0
84,20.75,42.3267,43.8389,148.874,104.818,102.35,0.00221662,0.0630293,21.0146,186.482,0.206112,0.0,0.0
90,22.25,41.4289,43.5226,145.791,104.838,102.479,0.00179136,0.0586122,21.0172,186.482,0.196859,0.0,0.0
96,23.75,41.5406,43.5632,142.327,104.827,102.114,0.0014679,0.0556758,21.0201,186.482,0.226831,0.0,0.0
102,25.25,41.6865,43.6778,142.257,104.849,102.34,0.00130062,0.0535724,21.0218,186.482,0.209534,0.0,0.0
108,26.75,41.129,43.2247,146.769,104.85,102.286,0.0011947,0.0520427,21.024,186.462,0.214186,0.0,0.0
114,28.25,41.5867,43.5306,142.093,104.868,102.123,0.00110726,0.0511699,21.0252,186.472,0.229458,0.0,0.0
120,29.75,41.1752,43.4571,144.999,104.867,102.533,0.000976531,0.0504303,21.0259,186.472,0.19469,0.0,0.0
126,31.25,41.24,43.2187,140.637,104.894,102.32,0.000832378,0.0497631,21.0262,186.442,0.214946,0.0,0.0
132,32.75,41.513,43.0531,143.204,104.891,102.18,0.000731684,0.0493114,21.0264,186.462,0.226583,0.0,0.0
138,34.25,41.1315,42.8712,144.517,104.924,102.478,0.000725049,0.0490942,21.0265,186.422,0.20407,0.0,0.0
144,35.75,41.3745,43.2624,142.983,104.918,102.4,0.000769873,0.0489155,21.0265,186.452,0.21015,0.0,0.0
150,37.25,40.9467,43.1651,147.038,104.95,102.457,0.000774819,0.0488604,21.0266,186.432,0.207957,0.0,0.0
156,38.75,40.773,43.1581,147.189,104.934,102.109,0.000709289,0.0487528,21.0266,186.412,0.236069,0.0,0.0
162,40.25,41.0745,42.5647,145.206,104.943,102.323,0.000649165,0.0486017,21.0266,186.402,0.218642,0.0,0.0
168,41.75,40.729,42.82,144.23,104.944,102.734,0.000628718,0.0485709,21.0266,186.412,0.184116,0.0,0.0
174,43.25,40.3432,42.7008,141.51,104.959,102.451,0.000619755,0.0485968,21.0255,186.412,0.209211,0.0,0.0
180,44.75,41.1878,42.5663,142.358,104.963,102.382,0.000577461,0.0486299,21.0241,186.422,0.21537,0.0,0.0
186,46.25,40.2639,42.2679,146.414,104.981,102.638,0.000585531,0.0486908,21.0231,186.422,0.195253,0.0,0.0
192,47.75,40.1092,42.3841,146.621,104.983,102.472,0.000605785,0.0488434,21.0221,186.422,0.209437,0.0,0.0
198,49.25,40.1423,42.2758,146.907,104.99,102.776,0.00061386,0.0490675,21.021,186.392,0.1844,0.0,0.0
204,50.75,41.0379,41.572,143.007,104.984,102.793,0.000624633,0.0492242,21.0204,186.392,0.182455,0.0,0.0
210,52.25,39.8967,41.7884,145.571,104.996,102.964,0.000669327,0.0492448,21.02,186.362,0.169058,0.0,0.0
216,53.75,40.2924,42.2563,147.171,105.001,102.81,0.00073013,0.0493049,21.0208,186.352,0.182468,0.0,0.0
222,55.25,40.3987,41.8729,143.789,105.012,102.644,0.000754704,0.0493482,21.0214,186.382,0.197261,0.0,0.0
228,56.75,39.7918,42.0302,144.68,105.052,102.412,0.000757658,0.0493568,21.0216,186.362,0.220156,0.0,0.0
234,58.25,40.0711,42.0875,140.025,105.014,102.486,0.000772165,0.0492239,21.0219,186.352,0.210812,0.0,0.0
240,59.75,40.2272,42.0707,144.438,105.029,102.278,0.000775934,0.0490233,21.0223,186.392,0.229607,0.0,0.0
246,61.25,39.5139,41.7849,142.031,105.024,102.584,0.000755457,0.048838,21.0226,186.352,0.203375,0.0,0.0
252,62.75,40.4494,41.5998,144.332,105.038,102.439,0.000709658,0.0487651,21.0227,186.362,0.216751,0.0,0.0
258,64.25,39.9115,42.2181,139.391,105.037,102.405,0.000680064,0.0486768,21.023,186.342,0.219508,0.0,0.0
264,65.75,39.5723,40.7976,142.821,105.051,103.026,0.000673172,0.0485923,21.0242,186.312,0.168304,0.0,0.0
270,67.25,40.0747,41.4322,142.886,105.024,102.606,0.000658491,0.0483679,21.0249,186.322,0.201495,0.0,0.0
276,68.75,39.7366,41.1986,144.871,105.047,102.56,0.000628228,0.0483379,21.0252,186.322,0.207244,0.0,0.0
282,70.25,39.6355,41.5544,142.023,105.038,102.737,0.000615482,0.0483939,21.025,186.322,0.191649,0.0,0.0
288,71.75,38.9337,41.4044,140.972,105.062,102.636,0.000699474,0.0484364,21.0241,186.352,0.202072,0.0,0.0
294,73.25,39.7591,41.7403,143.377,105.061,102.343,0.000824049,0.0485604,21.0243,186.352,0.22674,0.0,0.0
300,74.75,39.4919,41.353,146.939,105.069,102.252,0.000980299,0.0487302,21.0245,186.372,0.235028,0.0,0.0
306,76.25,39.4092,41.1768,147.166,105.063,102.577,0.00103525,0.0488827,21.0246,186.362,0.207187,0.0,0.0
312,77.75,39.4523,41.7018,142.883,105.082,102.399,0.00103413,0.0490296,21.0247,186.332,0.223738,0.0,0.0
318,79.25,39.6117,41.3759,145.079,105.082,102.535,0.000974297,0.0489563,21.0236,186.322,0.212265,0.0,0.0
324,80.75,39.5688,41.3777,145.252,105.084,102.704,0.000896449,0.0488737,21.0231,186.332,0.198212,0.0,0.0
330,82.25,39.632,41.2162,146.191,105.089,102.911,0.000819723,0.0489086,21.0228,186.302,0.181194,0.0,0.0
336,83.75,38.8695,40.9161,140.723,105.095,102.521,0.000744231,0.0490296,21.0226,186.282,0.214499,0.0,0.0
342,85.25,39.4305,41.4598,143.29,105.093,102.587,0.000669093,0.0490589,21.0225,186.302,0.208767,0.0,0.0
348,86.75,38.9453,41.1883,145.437,105.102,102.58,0.000608764,0.0491002,21.0225,186.282,0.210096,0.0,0.0
354,88.25,39.3649,41.0328,144.601,105.1,102.697,0.000591087,0.0492369,21.0235,186.272,0.200105,0.0,0.0
360,89.75,39.6491,41.0116,143.048,105.107,102.559,0.000611408,0.0493248,21.024,186.282,0.212246,0.0,0.0
366,91.25,39.8506,41.4211,148.984,105.119,102.447,0.000630794,0.0493609,21.0243,186.292,0.222749,0.0,0.0
372,92.75,39.4688,41.2422,145.055,105.11,102.672,0.000643127,0.049472,21.0244,186.292,0.203068,0.0,0.0
378,94.25,39.7713,41.2007,146.283,105.119,102.592,0.000696901,0.049503,21.0245,186.292,0.210461,0.0,0.0
384,95.75,39.7776,41.1251,142.858,105.122,102.172,0.000783461,0.0494844,21.0245,186.302,0.246246,0.0,0.0
390,97.25,38.9714,41.5477,144.748,105.143,102.559,0.000774535,0.0495576,21.0246,186.292,0.215334,0.0,0.0
396,98.75,39.7269,40.9792,141.635,105.129,102.64,0.000675724,0.0496299,21.0246,186.272,0.207323,0.0,0.0
402,100.25,38.9771,41.0237,145.94,105.156,102.244,0.000545603,0.0496297,21.0246,186.252,0.242958,0.0,0.0
408,101.75,39.8296,41.4791,146.387,105.164,102.376,0.000476068,0.0495869,21.0246,186.252,0.232385,0.0,0.0
414,103.25,40.0384,40.7054,142.194,105.176,102.593,0.00050144,0.0494219,21.0246,186.262,0.215094,0.0,0.0
420,104.75,39.3624,41.1301,144.92,105.166,102.558,0.000564163,0.0491912,21.0246,186.262,0.217214,0.0,0.0
426,106.25,40.0872,41.1263,146.298,105.187,103.006,0.000566468,0.0489314,21.0246,186.272,0.181278,0.0,0.0
432,107.75,39.1506,41.3576,141.893,105.18,102.469,0.00052613,0.0486688,21.0252,186.262,0.225931,0.0,0.0
438,109.25,39.3729,41.0067,142.242,105.2,102.879,0.000517303,0.048486,21.026,186.272,0.193057,0.0,0.0
444,110.75,39.611,41.2831,145.601,105.194,102.779,0.000619512,0.0483115,21.0262,186.242,0.200949,0.0,0.0
450,112.25,39.9026,40.9359,146.379,105.206,102.815,0.00078154,0.0482656,21.0266,186.242,0.198899,0.0,0.0
456,113.75,39.9104,41.1506,143.838,105.206,102.931,0.000877439,0.0482465,21.0268,186.292,0.189071,0.0,0.0
462,115.25,39.1528,41.1395,143.056,105.232,102.509,0.00089705,0.0481782,21.027,186.272,0.226774,0.0,0.0
468,116.75,39.6423,40.8262,139.215,105.206,102.612,0.000870526,0.0480905,21.027,186.272,0.215968,0.0,0.0
474,118.25,39.1772,41.1609,142.181,105.23,103.054,0.000803513,0.0480285,21.0271,186.262,0.18077,0.0,0.0
480,119.75,39.0899,41.1967,144.918,105.218,102.633,0.000755226,0.0480832,21.0271,186.192,0.215201,0.0,0.0
486,121.25,39.5768,40.5375,144.248,105.245,102.971,0.000751447,0.0480221,21.0271,186.212,0.188975,0.0,0.0
492,122.75,39.2655,41.5154,140.39,105.236,102.866,,0.0481451,,186.202,0.19712,0.0,0.0
498,124.25,39.6139,41.1535,145.914,105.248,103.102,,0.0482023,,186.182,0.178211,0.0,0.0
504,125.75,39.3844,40.8276,142.457,105.264,102.9,,,,186.172,0.196498,0.0,0.0
510,127.25,39.5609,40.8309,146.807,105.259,103.12,,,,186.192,0.177649,0.0,0.0
516,128.75,39.5504,40.8401,142.633,105.27,102.715,,,,186.172,0.21256,0.0,0.0
522,130.25,39.7147,41.2453,141.494,105.268,102.996,,,,186.182,0.188749,0.0,0.0
528,131.75,39.349,40.7934,145.905,105.288,102.825,,,,186.152,0.204795,0.0,0.0
531,132.5,39.458,41.6585,146.808,105.279,102.87,,,,186.202,0.20027,0.0,0.0