File: 01_Data/Cotton_Felt/STA/N2/30K_min/Cotton_Felt_STA_N2_30KData_210719_R2.csv
##Temp./Â°C,Time/min,Mass loss(subtr.2)/mg,DSC(subtr.2)/(mW/mg),Sensit./(uV/mW)
50.645,10.00917,-0.05825,0.03928898,0.6235
53.645,11.56989,-0.06287754,0.1345,0.62346
56.645,11.92143,-0.0639498,0.21042,0.62341
59.645,12.1771,-0.06774911,0.26794,0.62335
62.645,12.39151,-0.0678692,0.31872,0.62327
65.645,12.58199,-0.06495753,0.36316,0.62318
68.645,12.7582,-0.07019299,0.40755,0.62308
71.645,12.92407,-0.07321269,0.44913,0.62296
74.645,13.083,-0.07586302,0.48743,0.62283
77.645,13.23531,-0.07941044,0.52603,0.62268
80.645,13.3838,-0.07806966,0.56597,0.62253
83.645,13.52716,-0.08619297,0.60705,0.62235
86.645,13.66681,-0.08811881,0.65499,0.62217
89.645,13.80277,-0.09164186,0.6932,0.62197
92.645,13.9349,-0.09630629,0.7328,0.62176
95.645,14.06359,-0.10007,0.77194,0.62154
98.645,14.18946,-0.10258,0.80547,0.62131
101.645,14.3125,-0.11003,0.83418,0.62106
104.645,14.4329,-0.11276,0.86136,0.6208
107.645,14.55078,-0.11816,0.88186,0.62053
110.645,14.66634,-0.12406,0.89948,0.62024
113.645,14.77989,-0.12801,0.91175,0.61994
116.645,14.89153,-0.13078,0.91921,0.61963
119.645,15.0009,-0.13595,0.92242,0.61931
122.645,15.10885,-0.13884,0.91886,0.61898
125.645,15.215,-0.14261,0.91374,0.61863
128.645,15.3193,-0.14534,0.90385,0.61827
131.645,15.4219,-0.1494,0.89506,0.61791
134.645,15.5232,-0.14939,0.88323,0.61752
137.645,15.62333,-0.15219,0.8619,0.61713
140.645,15.72226,-0.15307,0.84832,0.61673
143.645,15.8199,-0.15609,0.83582,0.61631
146.645,15.91663,-0.15872,0.82721,0.61588
149.645,16.01233,-0.15804,0.81821,0.61544
152.645,16.10759,-0.15867,0.81513,0.61499
155.645,16.20195,-0.15873,0.81233,0.61453
158.645,16.29557,-0.15873,0.81692,0.61406
161.645,16.38844,-0.15872,0.81648,0.61358
164.645,16.48086,-0.15972,0.82409,0.61309
167.645,16.57264,-0.16004,0.8336,0.61258
170.645,16.66347,-0.16,0.84227,0.61207
173.645,16.75432,-0.16035,0.85762,0.61154
176.645,16.845,-0.16135,0.87081,0.611
179.645,16.93435,-0.15995,0.88343,0.61046
182.645,17.02342,-0.16135,0.89476,0.6099
185.645,17.11206,-0.16147,0.90326,0.60933
188.645,17.20068,-0.16136,0.91421,0.60876
191.645,17.2882,-0.16268,0.92514,0.60817
194.645,17.37528,-0.16333,0.93823,0.60757
197.645,17.46201,-0.16333,0.94824,0.60697
200.645,17.5481,-0.16467,0.95372,0.60635
203.645,17.634,-0.16465,0.96293,0.60572
206.645,17.71981,-0.16465,0.97017,0.60509
209.645,17.80516,-0.1653,0.97788,0.60444
212.645,17.89036,-0.16794,0.9802,0.60379
215.645,17.97496,-0.16794,0.98614,0.60313
218.645,18.05965,-0.16794,0.98979,0.60245
221.645,18.14378,-0.17023,0.98894,0.60177
224.645,18.22789,-0.1721,0.9903,0.60108
227.645,18.31182,-0.17298,0.98878,0.60038
230.645,18.39538,-0.17567,0.98486,0.59967
233.645,18.47899,-0.17956,0.9811,0.59896
236.645,18.5623,-0.18256,0.98049,0.59823
239.645,18.6452,-0.18739,0.97763,0.5975
242.645,18.72805,-0.19252,0.969,0.59676
245.645,18.81108,-0.20105,0.96387,0.59601
248.645,18.89387,-0.19756,0.95903,0.59525
251.645,18.97639,-0.2193,0.95812,0.59448
254.645,19.05866,-0.225,0.94616,0.59371
257.645,19.14111,-0.23683,0.9407,0.59293
260.645,19.22312,-0.24762,0.94505,0.59214
263.645,19.30528,-0.26104,0.92533,0.59134
266.645,19.38731,-0.27857,0.9319,0.59053
269.645,19.46924,-0.29596,0.93086,0.58972
272.645,19.5512,-0.31313,0.92861,0.5889
275.645,19.63308,-0.33351,0.93479,0.58807
278.645,19.71503,-0.35708,0.93882,0.58724
281.645,19.79683,-0.3817,0.94113,0.5864
284.645,19.8786,-0.40868,0.94358,0.58555
287.645,19.96015,-0.43807,0.94659,0.5847
290.645,20.0419,-0.47112,0.94785,0.58384
293.645,20.1238,-0.50824,0.95282,0.58297
296.645,20.20576,-0.54916,0.94616,0.58209
299.645,20.28785,-0.59519,0.94458,0.58121
302.645,20.36975,-0.64425,0.93934,0.58033
305.645,20.45157,-0.69664,0.94594,0.57943
308.645,20.53325,-0.75965,0.94628,0.57853
311.645,20.61496,-0.8256,0.95187,0.57763
314.645,20.69674,-0.90113,0.95519,0.57672
317.645,20.7786,-0.9801,0.96277,0.5758
320.645,20.86049,-1.07094,0.96935,0.57488
323.645,20.94235,-1.16742,0.97611,0.57395
326.645,21.02386,-1.25911,0.98571,0.57302
329.645,21.1056,-1.39071,1.0,0.57208
332.645,21.1879,-1.49847,1.01249,0.57113
335.645,21.27009,-1.62356,1.02985,0.57018
338.645,21.35225,-1.76086,1.04479,0.56923
341.645,21.43441,-1.90488,1.06874,0.56827
344.645,21.51647,-2.0585,1.09145,0.56731
347.645,21.59883,-2.22012,1.11519,0.56634
350.645,21.68113,-2.3928,1.12523,0.56536
353.645,21.76352,-2.57234,1.12497,0.56438
356.645,21.84638,-2.7561,1.09694,0.5634
359.645,21.92921,-2.94156,1.03351,0.56241
362.645,22.01221,-3.11802,0.91955,0.56142
365.645,22.0955,-3.2864,0.75072,0.56043
368.645,22.17916,-3.42627,0.54052,0.55943
371.645,22.26315,-3.535,0.35095,0.55842
374.645,22.3477,-3.60814,0.22049,0.55742
377.645,22.43234,-3.65424,0.1439,0.55641
380.645,22.51695,-3.68124,0.10056,0.55539
383.645,22.6018,-3.70119,0.08565579,0.55437
386.645,22.68668,-3.71833,0.06743722,0.55335
389.645,22.77146,-3.73101,0.06648282,0.55232
392.645,22.85652,-3.74455,0.05406649,0.55129
395.645,22.94164,-3.75506,0.04341816,0.55026
398.645,23.02688,-3.76654,0.03810901,0.54923
401.645,23.11232,-3.7767,0.03032473,0.54819
404.645,23.19804,-3.78414,0.02353033,0.54715
407.645,23.28359,-3.79337,0.01524263,0.5461
410.645,23.36934,-3.80317,0.00754894,0.54506
413.645,23.45502,-3.81002,0.00124937,0.54401
416.645,23.54113,-3.81958,-0.003966708,0.54296
419.645,23.62736,-3.82637,-0.007132227,0.5419
422.645,23.714,-3.83559,-0.01591952,0.54084
425.645,23.80068,-3.84239,-0.02691741,0.53978
428.645,23.88727,-3.84953,-0.02710972,0.53872
431.645,23.97421,-3.85795,-0.03260313,0.53766
434.645,24.06115,-3.86577,-0.03666267,0.53659
437.645,24.1482,-3.87315,-0.04077823,0.53553
440.645,24.2354,-3.8831,-0.04524889,0.53446
443.645,24.32287,-3.89099,-0.04816797,0.53339
446.645,24.4103,-3.89839,-0.05191209,0.53231
449.645,24.498,-3.90591,-0.05525845,0.53124
452.645,24.58592,-3.9134,-0.05859039,0.53016
455.645,24.67399,-3.92132,-0.05715799,0.52909
458.645,24.76216,-3.92834,-0.05803304,0.52801
461.645,24.8505,-3.93458,-0.05819566,0.52693
464.645,24.93906,-3.94168,-0.05749178,0.52585
467.645,25.02771,-3.94929,-0.06275474,0.52476
470.645,25.11672,-3.95522,-0.06047959,0.52368
473.645,25.20571,-3.96118,-0.05491568,0.5226
476.645,25.2952,-3.96763,-0.05047632,0.52151
479.645,25.38469,-3.97501,-0.05022996,0.52043
482.645,25.4742,-3.98078,-0.04924298,0.51934
485.645,25.56404,-3.98485,-0.04700271,0.51825
488.645,25.6539,-3.99094,-0.04623078,0.51717
491.645,25.7441,-3.99486,-0.04438349,0.51608
494.645,25.83425,-3.99986,-0.04257999,0.51499
497.645,25.92464,-4.00667,-0.04841616,0.5139
500.645,26.01521,-4.01149,-0.04642158,0.51281
503.645,26.10599,-4.01624,-0.03756673,0.51172
506.645,26.19667,-4.02112,-0.03685763,0.51063
509.645,26.28792,-4.02535,-0.03547793,0.50954
512.645,26.3791,-4.02965,-0.03889169,0.50846
515.645,26.47045,-4.03343,-0.05138889,0.50737
518.645,26.56193,-4.0382,-0.05370409,0.50628
521.645,26.65349,-4.04062,-0.05019975,0.50519
524.645,26.7453,-4.04358,-0.04413167,0.5041
527.645,26.83714,-4.04822,-0.04122363,0.50301
530.645,26.9291,-4.05105,-0.04173637,0.50193
533.645,27.02119,-4.05582,-0.03985629,0.50084
536.645,27.1135,-4.05707,-0.03469089,0.49975
539.645,27.20591,-4.06141,-0.03327149,0.49867
542.645,27.2985,-4.06289,-0.03536331,0.49758
545.645,27.39123,-4.06437,-0.0337876,0.4965
548.645,27.48398,-4.07009,-0.03686649,0.49542
551.645,27.57702,-4.07155,-0.0384349,0.49434
554.645,27.67008,-4.07392,-0.03769744,0.49325
557.645,27.76325,-4.07548,-0.0376333,0.49217
560.645,27.85649,-4.07886,-0.04564139,0.4911
563.645,27.95011,-4.08013,-0.04589305,0.49002
566.645,28.0437,-4.08143,-0.04887212,0.48894
569.645,28.13747,-4.08271,-0.04592396,0.48787
572.645,28.2313,-4.08631,-0.04424532,0.48679
575.645,28.3252,-4.08871,-0.04265006,0.48572
578.645,28.41925,-4.0935,-0.04202935,0.48465
581.645,28.51332,-4.09347,-0.04309396,0.48358
584.645,28.6076,-4.09481,-0.04286426,0.48251
587.645,28.7019,-4.09729,-0.04043647,0.48145
590.645,28.79638,-4.10005,-0.03790286,0.48038
593.645,28.89115,-4.09924,-0.03649991,0.47932
596.645,28.98596,-4.10179,-0.0371643,0.47826
599.645,29.08107,-4.1027,-0.0389376,0.4772
602.645,29.17615,-4.10487,-0.03984366,0.47614
605.645,29.27103,-4.10633,-0.03925881,0.47509
608.645,29.36607,-4.10795,-0.04094279,0.47404
611.645,29.46143,-4.10797,-0.03734485,0.47298
614.645,29.55698,-4.10928,-0.03365061,0.47194
617.645,29.6527,-4.11146,-0.03370851,0.47089
620.645,29.74861,-4.1132,-0.02893769,0.46984
623.645,29.8444,-4.11324,-0.02709081,0.4688
626.645,29.9404,-4.11455,-0.01966601,0.46776
629.645,30.0361,-4.1173,-0.01517737,0.46672
632.645,30.1324,-4.1173,-0.0167591,0.46569
635.645,30.2287,-4.1173,-0.01079216,0.46466
638.645,30.3249,-4.11993,-0.01269442,0.46362
641.645,30.4215,-4.12124,-0.01024342,0.4626
644.645,30.5176,-4.12124,-0.01094284,0.46157
647.645,30.61458,-4.12265,-0.003591835,0.46055
650.645,30.71133,-4.12256,0.003010138,0.45953
653.645,30.80808,-4.12387,0.008884355,0.45851
656.645,30.90523,-4.12519,0.00906386,0.45749
659.645,31.0023,-4.12673,0.01023543,0.45648
662.645,31.09977,-4.12804,0.01053244,0.45547
665.645,31.1973,-4.12804,0.02166218,0.45446
668.645,31.29474,-4.12804,0.02335722,0.45346
671.645,31.39228,-4.13092,0.03440532,0.45246
674.645,31.48997,-4.1309,0.0302997,0.45146
677.645,31.5877,-4.13221,0.03586946,0.45046
680.645,31.6855,-4.13317,0.02631705,0.44947
683.645,31.7834,-4.13293,0.0459317,0.44848
686.645,31.8813,-4.13287,0.0448599,0.44749
689.645,31.97922,-4.13484,0.04329146,0.44651
692.645,32.0773,-4.13473,0.02139357,0.44553
695.645,32.17515,-4.13758,0.02682975,0.44455
698.645,32.2734,-4.13594,0.02159647,0.44357
701.645,32.37162,-4.1372,0.00279575,0.4426
704.645,32.46999,-4.13989,0.00862785,0.44163
707.645,32.56836,-4.13988,0.01156834,0.44067
710.645,32.66713,-4.1385,0.01635387,0.43971
713.645,32.76567,-4.1412,0.02732532,0.43875
716.645,32.86438,-4.1413,0.01737634,0.43779
719.645,32.963,-4.14121,0.0146876,0.43684
722.645,33.06177,-4.14107,0.00844759,0.43589
725.645,33.16069,-4.14121,0.00303878,0.43494
728.645,33.25953,-4.1429,0.009165966,0.434
730.845,33.33243,-4.14482,0.02282626,0.43331