File: 01_Data/Cotton_Felt/STA/N2/30K_min/Cotton_Felt_STA_N2_30KData_210716_R1.csv
##Temp./Â°C,Time/min,Mass loss(subtr.2)/mg,DSC(subtr.2)/(mW/mg),Sensit./(uV/mW)
50.586,10.00917,-0.03619,-0.02077874,0.6235
53.586,11.57088,-0.04048366,0.08351381,0.62347
56.586,11.92051,-0.04136031,0.15436,0.62342
59.586,12.17644,-0.04011262,0.21227,0.62335
62.586,12.3903,-0.04413086,0.26612,0.62327
65.586,12.58108,-0.04240454,0.30866,0.62318
68.586,12.7567,-0.04415339,0.35344,0.62308
71.586,12.9223,-0.0452439,0.39502,0.62296
74.586,13.08107,-0.04815792,0.43411,0.62283
77.586,13.2334,-0.05123234,0.47326,0.62269
80.586,13.3814,-0.05296159,0.5135,0.62253
83.586,13.5253,-0.05450281,0.55053,0.62236
86.586,13.665,-0.05957069,0.59057,0.62217
89.586,13.80066,-0.06173137,0.6304,0.62198
92.586,13.93299,-0.06388555,0.66725,0.62177
95.586,14.06184,-0.06811802,0.70055,0.62155
98.586,14.1875,-0.06991079,0.73287,0.62131
101.586,14.3106,-0.08057484,0.75514,0.62106
104.586,14.4306,-0.07872665,0.78232,0.6208
107.586,14.5483,-0.08097508,0.80624,0.62053
110.586,14.66411,-0.0856636,0.82585,0.62025
113.586,14.7774,-0.08829951,0.83597,0.61995
116.586,14.88915,-0.09157865,0.84417,0.61964
119.586,14.9985,-0.09449367,0.84369,0.61932
122.586,15.10634,-0.09746703,0.84216,0.61899
125.586,15.2125,-0.09882702,0.83188,0.61864
128.586,15.317,-0.10146,0.82336,0.61828
131.586,15.41973,-0.10422,0.81154,0.61791
134.586,15.52108,-0.10552,0.79556,0.61753
137.586,15.62129,-0.10587,0.77838,0.61714
140.586,15.72045,-0.09896486,0.7689,0.61673
143.586,15.8181,-0.11071,0.7583,0.61632
146.586,15.91491,-0.10945,0.75715,0.61589
149.586,16.01101,-0.11011,0.74824,0.61545
152.586,16.10611,-0.1104,0.74341,0.615
155.586,16.20024,-0.11019,0.74502,0.61454
158.586,16.29397,-0.11045,0.74568,0.61407
161.586,16.38716,-0.11045,0.75155,0.61359
164.586,16.47958,-0.11012,0.75767,0.6131
167.586,16.5715,-0.11113,0.7655,0.61259
170.586,16.66283,-0.11009,0.77927,0.61208
173.586,16.75371,-0.11144,0.78818,0.61155
176.586,16.844,-0.11139,0.80324,0.61101
179.586,16.93375,-0.11134,0.81359,0.61047
182.586,17.0229,-0.11044,0.83091,0.60991
185.586,17.1114,-0.11309,0.84495,0.60935
188.586,17.19953,-0.11246,0.85995,0.60877
191.586,17.28704,-0.11309,0.87714,0.60818
194.586,17.37397,-0.11441,0.88865,0.60758
197.586,17.46061,-0.11311,0.89818,0.60698
200.586,17.5469,-0.1144,0.90358,0.60636
203.586,17.6328,-0.1144,0.9149,0.60574
206.586,17.7184,-0.115,0.93307,0.6051
209.586,17.8036,-0.11463,0.9358,0.60446
212.586,17.88873,-0.11703,0.95074,0.6038
215.586,17.97342,-0.11703,0.95001,0.60314
218.586,18.05779,-0.1173,0.95576,0.60247
221.586,18.1422,-0.1183,0.9592,0.60179
224.586,18.22628,-0.12083,0.94788,0.60109
227.586,18.31012,-0.12097,0.95038,0.6004
230.586,18.39366,-0.12502,0.9668,0.59969
233.586,18.477,-0.12609,0.95869,0.59897
236.586,18.56028,-0.12916,0.96171,0.59825
239.586,18.64326,-0.13257,0.96051,0.59751
242.586,18.7262,-0.13721,0.95547,0.59677
245.586,18.80891,-0.14268,0.95133,0.59602
248.586,18.89169,-0.14831,0.9531,0.59526
251.586,18.9742,-0.15581,0.95118,0.5945
254.586,19.05647,-0.16263,0.94531,0.59372
257.586,19.1387,-0.17097,0.93016,0.59294
260.586,19.22087,-0.18213,0.92378,0.59215
263.586,19.30293,-0.19529,0.9328,0.59135
266.586,19.38498,-0.20735,0.93622,0.59055
269.586,19.4669,-0.22043,0.92868,0.58974
272.586,19.5487,-0.23451,0.93206,0.58892
275.586,19.63055,-0.25271,0.94467,0.58809
278.586,19.71234,-0.27157,0.94969,0.58726
281.586,19.7942,-0.29285,0.95348,0.58642
284.586,19.87619,-0.31415,0.95748,0.58557
287.586,19.95805,-0.33933,0.95197,0.58471
290.586,20.03976,-0.36535,0.95546,0.58385
293.586,20.12132,-0.39431,0.96184,0.58299
296.586,20.2033,-0.4288,0.96994,0.58211
299.586,20.28516,-0.46528,0.97194,0.58123
302.586,20.36693,-0.50446,0.97533,0.58034
305.586,20.4487,-0.54876,0.97732,0.57945
308.586,20.53054,-0.60005,0.98319,0.57855
311.586,20.61233,-0.65338,0.98269,0.57765
314.586,20.69409,-0.71502,0.99285,0.57674
317.586,20.7758,-0.78339,0.99862,0.57582
320.586,20.8576,-0.85446,1.01404,0.5749
323.586,20.93962,-0.93407,1.02293,0.57397
326.586,21.02143,-1.01868,1.03374,0.57304
329.586,21.1034,-1.10986,1.05015,0.5721
332.586,21.18529,-1.20818,1.06732,0.57115
335.586,21.26744,-1.31472,1.08521,0.5702
338.586,21.34956,-1.42963,1.11117,0.56925
341.586,21.4316,-1.55372,1.13661,0.56829
344.586,21.51375,-1.68064,1.16702,0.56732
347.586,21.59611,-1.81131,1.19711,0.56636
350.586,21.6785,-1.95012,1.22202,0.56538
353.586,21.7609,-2.09658,1.22993,0.5644
356.586,21.84354,-2.24691,1.21143,0.56342
359.586,21.92626,-2.39642,1.15116,0.56243
362.586,22.00946,-2.54504,1.04755,0.56144
365.586,22.09256,-2.68558,0.90093,0.56045
368.586,22.1762,-2.80947,0.68054,0.55945
371.586,22.2602,-2.90655,0.46074,0.55844
374.586,22.34456,-2.97384,0.2894,0.55744
377.586,22.42905,-3.01522,0.18185,0.55643
380.586,22.51362,-3.04181,0.11608,0.55541
383.586,22.59838,-3.06115,0.07917056,0.55439
386.586,22.68297,-3.07287,0.05710651,0.55337
389.586,22.768,-3.08402,0.04120797,0.55234
392.586,22.85289,-3.09555,0.03232687,0.55131
395.586,22.9379,-3.10472,0.0265624,0.55028
398.586,23.02306,-3.11265,0.01898997,0.54925
401.586,23.10856,-3.12101,0.01315429,0.54821
404.586,23.19391,-3.12911,0.00181649,0.54717
407.586,23.27947,-3.13784,0.0009927951,0.54612
410.586,23.36526,-3.14504,-0.00706695,0.54508
413.586,23.4511,-3.15195,-0.01529018,0.54403
416.586,23.53718,-3.15958,-0.02032003,0.54298
419.586,23.62319,-3.16561,-0.02467208,0.54192
422.586,23.7094,-3.17324,-0.0329721,0.54086
425.586,23.79583,-3.17953,-0.03592407,0.53981
428.586,23.88233,-3.18662,-0.0466238,0.53874
431.586,23.9689,-3.19348,-0.05317407,0.53768
434.586,24.05561,-3.20042,-0.05474678,0.53662
437.586,24.14278,-3.20874,-0.06116693,0.53555
440.586,24.22993,-3.2129,-0.06126398,0.53448
443.586,24.31723,-3.21757,-0.06847231,0.53341
446.586,24.40482,-3.22474,-0.06665721,0.53233
449.586,24.4924,-3.23259,-0.06947104,0.53126
452.586,24.5802,-3.23861,-0.06798887,0.53018
455.586,24.66816,-3.24519,-0.07033631,0.52911
458.586,24.75637,-3.24985,-0.06910919,0.52803
461.586,24.84468,-3.25509,-0.07031377,0.52695
464.586,24.93317,-3.26006,-0.06846496,0.52587
467.586,25.02185,-3.26687,-0.06533811,0.52479
470.586,25.11078,-3.27318,-0.06276573,0.5237
473.586,25.19973,-3.27689,-0.05958624,0.52262
476.586,25.28894,-3.28091,-0.06384925,0.52153
479.586,25.37818,-3.2871,-0.06380558,0.52045
482.586,25.46773,-3.29249,-0.05910506,0.51936
485.586,25.5574,-3.29778,-0.05574994,0.51827
488.586,25.64718,-3.30195,-0.05025789,0.51719
491.586,25.7373,-3.30662,-0.04875034,0.5161
494.586,25.8274,-3.31109,-0.04191314,0.51501
497.586,25.91778,-3.3157,-0.04135859,0.51392
500.586,26.0081,-3.31925,-0.03963951,0.51283
503.586,26.0988,-3.3233,-0.03071198,0.51174
506.586,26.18964,-3.32572,-0.03128841,0.51065
509.586,26.2805,-3.33076,-0.02671219,0.50957
512.586,26.37155,-3.33354,-0.02063696,0.50848
515.586,26.4626,-3.33714,-0.0201987,0.50739
518.586,26.55402,-3.33929,-0.02091632,0.5063
521.586,26.6454,-3.34149,-0.01611884,0.50521
524.586,26.7369,-3.34487,-0.01131919,0.50412
527.586,26.8289,-3.34748,-0.01072213,0.50303
530.586,26.92087,-3.35128,-0.0093384,0.50195
533.586,27.0129,-3.35377,-0.00982423,0.50086
536.586,27.1052,-3.3567,-0.003961263,0.49977
539.586,27.19762,-3.35902,0.001133258,0.49869
542.586,27.29028,-3.35923,-0.0003088521,0.4976
545.586,27.38295,-3.36206,-0.00276617,0.49652
548.586,27.47568,-3.36573,-0.0002678479,0.49544
551.586,27.56855,-3.36714,0.007226415,0.49436
554.586,27.66165,-3.36973,0.01105746,0.49328
557.586,27.7549,-3.3724,0.01076006,0.4922
560.586,27.8482,-3.37497,0.01096421,0.49112
563.586,27.94166,-3.37576,0.01576349,0.49004
566.586,28.03515,-3.37633,0.02216235,0.48896
569.586,28.12882,-3.37767,0.02363532,0.48789
572.586,28.2226,-3.37899,0.02194272,0.48681
575.586,28.3164,-3.3803,0.03032514,0.48574
578.586,28.41054,-3.38459,0.03158836,0.48467
581.586,28.50465,-3.38577,0.0352722,0.4836
584.586,28.599,-3.38579,0.04063054,0.48253
587.586,28.6933,-3.3884,0.04634029,0.48147
590.586,28.78792,-3.38942,0.04432714,0.4804
593.586,28.8825,-3.39117,0.04626114,0.47934
596.586,28.97751,-3.39249,0.04814951,0.47828
599.586,29.0724,-3.39248,0.0462785,0.47722
602.586,29.1674,-3.39513,0.04125743,0.47616
605.586,29.26255,-3.39643,0.04327513,0.47511
608.586,29.35789,-3.39809,0.04217916,0.47406
611.586,29.4532,-3.39939,0.04313286,0.47301
614.586,29.5487,-3.40071,0.0453795,0.47196
617.586,29.6441,-3.40202,0.03912392,0.47091
620.586,29.73975,-3.40333,0.03855968,0.46986
623.586,29.83532,-3.40202,0.03786092,0.46882
626.586,29.93129,-3.40334,0.0355992,0.46778
629.586,30.02727,-3.40464,0.03461947,0.46674
632.586,30.1232,-3.40533,0.02614565,0.46571
635.586,30.21937,-3.40597,0.02278232,0.46468
638.586,30.3156,-3.40861,0.01211188,0.46364
641.586,30.41191,-3.40729,0.00977222,0.46262
644.586,30.50828,-3.40862,0.00346127,0.46159
647.586,30.605,-3.41125,-0.002113528,0.46057
650.586,30.70165,-3.41255,-0.00591787,0.45955
653.586,30.7984,-3.41256,-0.0026817,0.45853
656.586,30.89541,-3.41369,-0.002353338,0.45751
659.586,30.9925,-3.41288,-0.007006312,0.4565
662.586,31.0896,-3.4142,-0.01039486,0.45549
665.586,31.1869,-3.41552,-0.01364872,0.45448
668.586,31.28438,-3.41519,-0.00750847,0.45348
671.586,31.3818,-3.41421,-0.01032153,0.45248
674.586,31.4793,-3.41683,-0.00756793,0.45148
677.586,31.5771,-3.41814,-0.0006948478,0.45048
680.586,31.67478,-3.41855,0.001038028,0.44949
683.586,31.77267,-3.41847,0.006941836,0.4485
686.586,31.8705,-3.41979,0.002468604,0.44751
689.586,31.9685,-3.42074,0.00676455,0.44653
692.586,32.06657,-3.42078,0.0003848141,0.44555
695.586,32.1646,-3.42209,0.0001759359,0.44457
698.586,32.26282,-3.42194,-0.00150885,0.44359
701.586,32.36078,-3.42014,-0.01405925,0.44262
704.586,32.4589,-3.42144,-0.02323423,0.44165
707.586,32.55717,-3.42275,-0.03160872,0.44069
710.586,32.65528,-3.42472,-0.03757318,0.43972
713.586,32.7537,-3.42473,-0.05487432,0.43877
716.586,32.85196,-3.42617,-0.06032523,0.43781
719.586,32.95055,-3.42604,-0.06031975,0.43686
722.586,33.04912,-3.42736,-0.06562234,0.43591
725.586,33.148,-3.42872,-0.09011539,0.43496
728.586,33.24686,-3.42736,-0.09285168,0.43402
731.186,33.33245,-3.42604,-0.11257,0.4332