File: 01_Data/Oak_HWF/Cone/Oak_Flooring_Cone_HF75Scan_220526_R2.csv
Names,Time,Stack TC,Smoke TC,Exh Press,Smoke Comp,Smoke Meas,CO Meter,CO2 Meter,O2 Meter,Sample Mass,Ext Coeff,Start Test,Flame Verif
Chan Gain,,500,500,1,1,1,1,1,1,1,1,1.0,1.0
Offset,,0,0,0.137018,0,0,0,0,0,0,0,0.0,0.0
Gain,,1,1,25.011,13.1636,15.082,1,1,1,1.00086,1.04368,1.0,1.0
Units,sec,C,C,Pa,%,%,%,%,%,g,/m,,
Baseline,,47.6432,49.8646,136.37,99.3352,106.276,0.000679744,0.0434222,21.002,-449.786,-0.618292,,
55,13.5,44.8811,46.7796,127.244,98.6104,97.579,0.00389952,0.0572522,20.923,206.278,0.096258,0.0,1.0
110,27.25,69.0484,66.1222,105.827,98.6723,75.2189,0.0340188,0.578559,19.5925,201.964,2.48472,0.0,0.0
165,41,79.1876,79.5219,122.384,98.6988,98.3389,0.0115597,0.652953,20.2672,198.591,0.0334387,0.0,0.0
220,54.75,80.8764,83.3255,115.531,98.6534,100.568,0.00925483,0.573475,20.4477,196.029,-0.175934,0.0,0.0
275,68.5,80.6315,84.3565,124.808,98.5807,101.023,0.00826297,0.512195,20.5175,193.787,-0.224072,0.0,0.0
330,82.25,79.829,85.4461,120.324,98.4983,101.161,0.00747222,0.472066,20.5555,191.746,-0.244186,0.0,0.0
385,96,78.4759,84.7878,122.623,98.4573,102.456,0.00603138,0.43729,20.591,189.744,-0.364426,0.0,0.0
440,109.75,77.8298,83.9655,124.39,98.4589,101.987,0.00614324,0.410037,20.6176,187.922,-0.322312,0.0,0.0
495,123.5,76.7782,83.4035,124.058,98.481,102.96,0.00583475,0.387412,20.6391,186.131,-0.407228,0.0,0.0
550,137.25,75.6167,82.1012,120.788,98.5216,102.811,0.00541011,0.37054,20.654,184.409,-0.390187,0.0,0.0
605,151,74.3208,81.1077,120.643,98.5734,103.008,0.00461898,0.360532,20.6564,182.708,-0.402858,0.0,0.0
660,164.75,74.4373,80.9075,120.736,98.6574,102.607,0.00411578,0.352337,20.6621,181.086,-0.359404,0.0,0.0
715,178.5,74.6948,80.728,129.821,98.6895,103.482,0.00370359,0.345424,20.6729,179.435,-0.43416,0.0,0.0
770,192.25,73.7852,79.6178,124.836,98.6586,103.222,0.00369747,0.337919,20.6796,177.964,-0.413994,0.0,0.0
825,206,73.6101,79.6803,127.353,98.6421,104.077,0.00386798,0.331769,20.6873,176.322,-0.491018,0.0,0.0
880,219.75,73.2806,78.8685,129.081,98.6907,103.517,0.00369981,0.328772,20.6853,174.781,-0.437142,0.0,0.0
935,233.5,73.179,78.8271,123.947,98.7518,103.853,0.00369341,0.327885,20.6822,173.23,-0.461147,0.0,0.0
990,247.25,73.0814,78.4832,118.86,98.751,103.823,0.00392098,0.326465,20.6875,171.638,-0.458544,0.0,0.0
1045,261,73.4254,78.371,125.777,98.753,104.277,0.00386024,0.327653,20.6835,169.997,-0.498287,0.0,0.0
1100,274.75,73.5105,78.1789,121.753,98.794,103.648,0.00382287,0.330282,20.6821,168.475,-0.439123,0.0,0.0
1155,288.5,73.7255,78.4158,124.33,98.8317,104.202,0.00388031,0.33369,20.6732,166.724,-0.484402,0.0,0.0
1210,302.25,74.0674,78.3924,125.467,98.8972,104.211,0.00366444,0.335665,20.6733,165.283,-0.479188,0.0,0.0
1265,316,74.2956,79.2467,124.125,98.9004,103.532,0.00369012,0.334037,20.6789,163.671,-0.419013,0.0,0.0
1320,329.75,74.272,78.9269,123.294,98.8679,103.932,0.00379321,0.332982,20.6764,162.12,-0.457325,0.0,0.0
1375,343.5,74.0766,78.8064,122.572,98.9414,103.673,0.00410702,0.332055,20.6795,160.529,-0.427706,0.0,0.0
1430,357.25,74.4923,79.2248,119.676,99.0896,104.047,0.00330223,0.329854,20.681,158.987,-0.446904,0.0,0.0
1485,371,74.348,78.9985,119.694,99.2624,104.833,0.00321177,0.325412,20.6913,157.416,-0.49987,0.0,0.0
1540,384.75,74.3135,79.0212,127.072,99.5094,105.044,0.00313158,0.317882,20.7023,155.985,-0.495544,0.0,0.0
1595,398.5,74.0897,78.5717,121.657,99.6834,104.681,0.00355615,0.31418,20.7015,154.473,-0.447849,0.0,0.0
1650,412.25,73.476,78.2251,121.834,99.7645,105.571,0.0029748,0.31418,20.6948,153.032,-0.51792,0.0,0.0
1705,426,73.4578,78.6703,124.88,99.734,105.076,0.00301772,0.315037,20.6974,151.511,-0.477714,0.0,0.0
1760,439.75,73.4024,78.1178,123.929,99.5673,105.374,0.00312814,0.315428,20.6941,150.05,-0.5189,0.0,0.0
1815,453.5,74.4862,78.2524,122.126,99.399,105.043,0.00345318,0.316441,20.6961,148.458,-0.505593,0.0,0.0
1870,467.25,73.9169,78.0191,125.393,99.2371,104.753,0.00397932,0.316214,20.6934,147.007,-0.495249,0.0,0.0
1925,481,74.249,78.8057,121.941,99.9586,105.493,0.00332111,0.316707,20.6943,145.365,-0.493384,0.0,0.0
1980,494.75,74.2499,78.421,124.687,100.118,106.497,0.00315781,0.315766,20.6972,143.834,-0.565492,0.0,0.0
2035,508.5,74.7936,79.0158,125.478,100.011,105.957,0.00277594,0.3196,20.6883,142.353,-0.5287,0.0,0.0
2090,522.25,74.7451,79.111,123.317,99.7641,105.303,0.00259404,0.32741,20.6777,140.882,-0.494698,0.0,0.0
2145,536,75.6873,80.0075,120.68,99.644,104.893,0.00409585,0.335941,20.6662,139.08,-0.469964,0.0,0.0
2200,549.75,76.097,80.8511,122.333,99.7541,105.221,0.00317166,0.34317,20.6591,137.449,-0.488494,0.0,0.0
2255,563.5,76.8856,81.2246,120.829,99.912,105.866,0.00257497,0.350399,20.6518,135.887,-0.52991,0.0,0.0
2310,577.25,77.7839,81.6596,122.994,100.079,105.311,0.00251714,0.358475,20.6372,134.226,-0.466518,0.0,0.0
2365,591,77.9308,82.1026,120.352,100.265,105.745,0.00267042,0.364693,20.637,132.494,-0.487177,0.0,0.0
2420,604.75,79.0586,83.3523,117.492,100.384,105.876,0.00274872,0.372767,20.6242,130.883,-0.487635,0.0,0.0
2475,618.5,78.9566,83.3529,120.401,100.442,105.676,0.00301251,0.378109,20.617,129.182,-0.465035,0.0,0.0
2530,632.25,79.6706,84.2108,116.064,100.343,105.294,0.00249333,0.387702,20.6009,127.36,-0.440851,0.0,0.0
2585,646,80.2171,84.8117,117.884,100.234,104.846,0.00264998,0.395331,20.5949,125.618,-0.411882,0.0,0.0
2640,659.75,80.9935,85.8143,120.525,100.143,104.316,0.00282414,0.401875,20.5923,123.667,-0.373801,0.0,0.0
2695,673.5,81.5149,86.5237,117.032,99.9614,104.757,0.00264115,0.409836,20.5739,121.935,-0.428992,0.0,0.0
2750,687.25,81.5185,86.3748,120.054,99.6348,104.594,0.00281931,0.409756,20.5842,120.194,-0.444744,0.0,0.0
2805,701,81.5315,86.5741,121.804,99.2266,103.897,0.00264517,0.408022,20.5888,118.422,-0.421045,0.0,0.0
2860,714.75,82.0821,86.8375,117.815,98.8337,103.639,0.00265649,0.407523,20.5882,116.521,-0.434626,0.0,0.0
2915,728.5,82.3583,87.105,120.546,98.5859,103.572,0.00245326,0.411554,20.5798,114.839,-0.451717,0.0,0.0
2970,742.25,82.5334,87.041,119.615,98.4863,103.331,0.00273014,0.413019,20.5783,113.068,-0.439671,0.0,0.0
3025,756,82.6074,87.4877,126.06,98.6473,103.782,0.00293909,0.413281,20.58,111.326,-0.464545,0.0,0.0
3080,769.75,82.8364,87.6905,121.821,99.035,103.574,0.00273077,0.416872,20.5704,109.515,-0.410266,0.0,0.0
3135,783.5,83.0324,88.409,116.648,99.2981,103.764,0.0027612,0.419682,20.5658,107.813,-0.402761,0.0,0.0
3190,797.25,83.3806,88.1353,120.863,99.4472,103.688,0.00290991,0.421483,20.5625,106.092,-0.382327,0.0,0.0
3245,811,83.2128,88.7129,122.129,99.6155,104.133,0.00293733,0.419812,20.5685,104.38,-0.406018,0.0,0.0
3300,824.75,83.3378,88.8806,118.173,99.7035,103.884,0.00275211,0.420752,20.5634,102.639,-0.376059,0.0,0.0
3355,838.5,83.7385,88.4376,120.929,99.7698,103.207,0.00299349,0.416062,20.5701,100.997,-0.310071,0.0,0.0
3410,852.25,83.5736,88.6556,119.915,99.7549,102.751,0.00310331,0.413851,20.5698,99.3958,-0.270925,0.0,0.0
3465,866,83.7532,88.2791,120.391,99.685,102.869,0.00316516,0.408321,20.578,97.8244,-0.287835,0.0,0.0
3520,879.75,83.3459,88.2179,120.372,99.5765,102.373,0.00316832,0.402599,20.5824,96.3232,-0.253538,0.0,0.0
3575,893.5,82.5743,87.8626,124.411,99.499,102.115,0.00327436,0.394411,20.5912,94.7618,-0.237589,0.0,0.0
3630,907.25,81.3807,86.8575,124.34,99.4604,101.507,0.00351754,0.380154,20.6085,93.4407,-0.186465,0.0,0.0
3685,921,80.7744,86.0293,124.34,99.4215,102.166,0.00349149,0.356413,20.6445,92.1295,-0.249263,0.0,0.0
3740,934.75,77.957,83.9181,130.568,99.4315,104.316,0.0032224,0.298305,20.7426,91.3088,-0.439035,0.0,0.0
3795,948.5,73.8476,80.1847,127.434,99.4263,105.491,0.00309851,0.238493,20.805,90.8284,-0.542105,0.0,0.0
3850,962.25,71.2166,76.8559,126.157,99.3708,106.05,0.00385907,0.203811,20.8271,90.4081,-0.595577,0.0,0.0
3905,976,68.8901,74.0243,127.887,99.3198,106.531,0.00321946,0.182255,20.8412,90.0277,-0.641706,0.0,0.0
3960,989.75,67.2193,71.8215,130.979,99.2608,106.61,0.00329263,0.169393,20.8509,89.7675,-0.653912,0.0,0.0
4015,1003.5,65.6997,70.3774,130.966,99.2367,106.5,0.00339631,0.160278,20.8565,89.4172,-0.646724,0.0,0.0
4070,1017.25,64.4868,68.2453,127.666,99.2351,106.83,0.00368982,0.153367,20.8619,89.177,-0.675158,0.0,0.0
4125,1031,63.3453,67.3083,127.45,99.2817,106.753,0.00374524,0.148423,20.8653,88.9368,-0.664231,0.0,0.0
4180,1044.75,62.6726,65.7973,130.318,99.2873,106.468,0.00387044,0.145092,20.8683,88.6766,-0.639286,0.0,0.0
4235,1058.5,61.8581,64.4956,131.848,99.2254,106.984,0.00382814,0.141465,20.873,88.4864,-0.689212,0.0,0.0
4290,1072.25,61.4292,63.992,130.199,99.3118,106.754,0.0041513,0.139132,20.8729,88.1961,-0.661611,0.0,0.0
4345,1086,60.6632,63.3169,131.934,99.7408,107.293,0.00419323,0.13721,20.8758,87.996,-0.66825,0.0,0.0
4400,1099.75,60.1302,62.1456,130.498,100.059,108.098,0.00428331,0.135224,20.878,87.7458,-0.707523,0.0,0.0
4455,1113.5,59.9899,62.1542,127.241,100.048,107.741,0.00471332,0.134198,20.8808,87.4955,-0.678255,0.0,0.0
4510,1127.25,58.7064,61.9652,131.146,99.8569,107.611,0.00502376,0.133231,20.8834,87.3654,-0.684619,0.0,0.0
4565,1141,59.1327,61.5293,129.433,99.5693,106.977,0.0050273,0.13197,20.884,87.1853,-0.656987,0.0,0.0
4620,1154.75,58.7311,61.3388,133.598,99.6179,107.464,0.00520285,0.130431,20.8875,86.9751,-0.69406,0.0,0.0
4675,1168.5,58.3324,60.2142,134.023,99.6597,107.419,0.00537532,0.129947,20.8893,86.7649,-0.686417,0.0,0.0
4730,1182.25,58.1272,60.8123,132.163,99.738,107.711,0.00576047,0.128635,20.8913,86.6448,-0.70406,0.0,0.0
4785,1196,58.0575,60.1961,130.935,99.7477,107.226,0.00559979,0.12837,20.8924,86.4446,-0.661848,0.0,0.0
4840,1209.75,55.5035,58.1592,130.197,99.7589,107.414,0.00543013,0.127529,20.892,86.2545,-0.676913,0.0,0.0
4895,1223.5,55.9541,58.0667,133.622,99.7541,107.458,0.00584397,0.126836,20.8937,86.0343,-0.681082,0.0,0.0
4950,1237.25,55.6012,57.9973,133.411,99.7011,107.272,0.00631785,0.127333,20.8954,85.9442,-0.670094,0.0,0.0
5005,1251,55.7022,57.9198,132.15,99.593,107.078,0.00585603,0.126865,20.8977,85.8741,-0.663431,0.0,0.0
5060,1264.75,55.1501,58.0087,127.946,99.6954,107.65,0.00614626,0.126183,20.8986,85.754,-0.702765,0.0,0.0
5115,1278.5,55.205,57.3215,127.273,99.9485,107.698,0.00673683,0.126265,20.8971,85.5238,-0.683701,0.0,0.0
5170,1292.25,54.6013,57.0785,132.254,100.059,107.883,0.00643276,0.125681,20.8986,85.3637,-0.689266,0.0,0.0
5225,1306,55.0305,56.7178,131.089,99.9955,107.937,0.0067361,0.126153,20.898,85.1835,-0.699642,0.0,0.0
5280,1319.75,54.6735,56.7095,133.335,99.7424,106.984,,,,84.9834,-0.641633,0.0,0.0
5301,1325,54.4268,57.1551,136.417,99.5898,107.439,,,,84.9533,-0.694527,0.0,0.0