File: 01_Data/Oak_HWF/Cone/Oak_Flooring_Cone_HF25Scan_220913_R3.csv
Names,Time,Stack TC,Smoke TC,Exh Press,Smoke Comp,Smoke Meas,CO Meter,CO2 Meter,O2 Meter,Sample Mass,Ext Coeff,Start Test,Flame Verif
Chan Gain,,500,500,1,1,1,1,1,1,1,1,1.0,1.0
Offset,,0,0,0.139139,0,0,0,0,0,0,0,0.0,0.0
Gain,,1,1,25.011,13.0826,14.7555,1,1,1,1.00088,1.03743,1.0,1.0
Units,sec,C,C,Pa,%,%,%,%,%,g,/m,,
Baseline,,38.6677,39.4173,151.651,100.371,104.419,0.000466507,0.0497186,20.988,-447.414,-0.359737,,
56,13.75,37.5776,38.3678,151.092,99.3925,103.815,0.000193518,0.0500086,20.9965,202.618,-0.396205,0.0,0.0
112,27.75,37.6989,38.682,150.417,99.7072,103.744,0.000178617,0.0495625,20.9965,202.558,-0.361167,0.0,0.0
168,41.75,37.9383,38.3729,149.928,99.8078,104.81,0.000269753,0.0501715,20.9967,202.458,-0.445048,0.0,0.0
224,55.75,37.8195,38.8769,151.179,99.8792,104.124,0.000418432,0.0499413,20.9946,202.288,-0.378752,0.0,0.0
280,69.75,37.8688,38.721,150.586,99.8293,103.743,0.000100703,0.0497443,20.996,202.098,-0.349984,0.0,0.0
336,83.75,37.9882,38.5382,152.622,99.7694,103.708,0.000108156,0.0498878,20.9983,201.868,-0.352363,0.0,0.0
392,97.75,37.6338,38.3251,149.477,99.7782,103.909,0.000326989,0.0501608,20.9966,201.688,-0.369128,0.0,0.0
448,111.75,38.1324,39.1577,151.778,99.7227,103.527,0.000448776,0.0508634,20.9958,201.477,-0.340726,0.0,0.0
504,125.75,38.2697,39.1156,151.559,99.5067,102.958,0.000832752,0.0519021,20.9948,201.197,-0.310248,0.0,0.0
560,139.75,38.2382,39.1844,147.436,99.1762,102.453,0.00129917,0.0530343,20.9967,200.827,-0.295844,0.0,0.0
616,153.75,38.4888,38.7789,150.473,99.1554,101.623,0.00151,0.0538144,20.9974,200.376,-0.223693,0.0,0.0
672,167.75,38.2248,39.1421,149.481,99.3414,101.533,0.00222194,0.0547822,20.9952,200.076,-0.198565,0.0,0.0
728,181.75,40.4953,40.2375,137.179,99.5666,100.337,0.00281709,0.130249,20.7744,199.275,-0.0701693,0.0,1.0
784,195.75,53.4311,49.1114,135.18,99.7115,100.231,0.00436066,0.422723,20.4568,196.923,-0.0473302,0.0,0.0
840,209.75,61.0016,58.0202,130.327,99.7315,101.273,0.00449954,0.473841,20.4876,194.671,-0.139545,0.0,0.0
896,223.75,63.8346,62.3446,138.294,99.4752,103.226,0.00335353,0.448024,20.5588,192.5,-0.336824,0.0,0.0
952,237.75,64.3441,64.9919,142.364,98.9322,102.881,0.00288853,0.401826,20.6213,190.658,-0.356174,0.0,0.0
1008,251.75,64.0336,65.6299,134.777,98.5222,102.629,0.00218819,0.367638,20.6579,188.966,-0.371676,0.0,0.0
1064,265.75,62.8862,65.976,139.035,98.7286,103.355,0.00242177,0.343272,20.6855,187.345,-0.416769,0.0,0.0
1120,279.75,62.4531,65.7959,142.885,99.3167,103.616,0.00228128,0.324479,20.7068,185.784,-0.38561,0.0,0.0
1176,293.75,60.9138,65.1923,141.115,99.88,105.106,0.00233578,0.304997,20.7285,184.322,-0.464151,0.0,0.0
1232,307.75,60.0164,64.0451,137.229,100.264,104.388,0.00249845,0.29054,20.7442,182.761,-0.366785,0.0,0.0
1288,321.75,59.5947,63.0886,138.575,100.345,105.172,0.00252224,0.281321,20.7505,181.49,-0.427523,0.0,0.0
1344,335.75,58.6418,62.5975,141.741,100.146,104.752,0.0022826,0.273695,20.7548,180.129,-0.409257,0.0,0.0
1400,349.75,58.7014,61.7479,138.788,99.803,104.699,0.00216196,0.265129,20.7676,178.787,-0.435861,0.0,0.0
1456,363.75,57.678,61.6267,139.434,99.4912,104.217,0.00246495,0.255131,20.7803,177.546,-0.422322,0.0,0.0
1512,377.75,56.9775,60.5732,138.53,99.9311,104.599,0.00278841,0.244599,20.7911,176.185,-0.41549,0.0,0.0
1568,391.75,56.4963,60.0471,138.021,99.807,104.29,0.0023852,0.239504,20.7956,175.124,-0.39981,0.0,0.0
1624,405.75,56.1919,59.2811,143.941,99.2009,103.696,0.00246171,0.232996,20.8014,173.893,-0.403302,0.0,0.0
1680,419.75,55.2279,58.5713,141.773,99.264,103.603,0.00236253,0.22543,20.8097,172.872,-0.389373,0.0,0.0
1736,433.75,54.7852,57.8037,141.202,99.4987,104.473,0.00293908,0.219398,20.8163,171.721,-0.443974,0.0,0.0
1792,447.75,54.1115,56.8015,143.01,99.6688,104.332,0.00280636,0.214363,20.8231,170.5,-0.416107,0.0,0.0
1848,461.75,53.6159,56.3658,144.806,99.698,104.396,0.00286502,0.212073,20.8235,169.449,-0.419023,0.0,0.0
1904,475.75,53.493,56.1416,145.34,99.6541,104.011,0.00282208,0.211617,20.8251,168.418,-0.389408,0.0,0.0
1960,489.75,53.1254,55.8034,146.624,99.496,104.363,0.00302685,0.211133,20.8241,167.347,-0.434655,0.0,0.0
2016,503.75,53.0835,55.2476,144.904,99.3235,104.25,0.002901,0.2123,20.8218,166.246,-0.440582,0.0,0.0
2072,517.75,52.9524,55.1451,146.754,99.2009,102.882,0.00270557,0.209885,20.8245,165.085,-0.331571,0.0,0.0
2128,531.75,52.9077,54.9376,142.353,99.1698,103.278,0.00285863,0.208914,20.8259,164.034,-0.369373,0.0,0.0
2184,545.75,52.8898,54.6536,147.174,99.4464,103.953,0.00275593,0.209025,20.8242,163.044,-0.403303,0.0,0.0
2240,559.75,53.3144,55.1345,144.087,99.6612,104.662,0.00271895,0.208557,20.8246,161.993,-0.445506,0.0,0.0
2296,573.75,52.7654,55.0478,140.227,99.7654,104.359,0.00239907,0.210088,20.8222,160.932,-0.409646,0.0,0.0
2352,587.75,53.2364,54.7531,141.238,99.8385,104.746,0.00311916,0.210662,20.8213,159.871,-0.436652,0.0,0.0
2408,601.75,53.1886,55.0177,142.377,99.9595,104.416,0.00269084,0.210866,20.822,158.79,-0.39691,0.0,0.0
2464,615.75,53.7125,55.0149,144.66,99.9503,104.515,0.00267233,0.212802,20.8195,157.829,-0.406415,0.0,0.0
2520,629.75,53.5529,55.2873,140.961,99.591,103.94,0.00211734,0.213169,20.8187,156.788,-0.388983,0.0,0.0
2576,643.75,52.9654,54.8424,141.831,99.8034,104.775,0.00227389,0.216095,20.8133,155.767,-0.442359,0.0,0.0
2632,657.75,53.8249,55.5974,146.396,100.195,104.746,0.00221416,0.218184,20.8134,154.706,-0.404215,0.0,0.0
2688,671.75,54.0416,55.8004,146.114,100.371,105.628,0.00222364,0.219958,20.8123,153.595,-0.464593,0.0,0.0
2744,685.75,54.3029,55.9151,138.262,100.143,105.092,0.00237088,0.222862,20.807,152.654,-0.439,0.0,0.0
2800,699.75,54.5262,56.0947,141.361,99.478,103.621,0.00237456,0.225636,20.804,151.594,-0.371357,0.0,0.0
2856,713.75,54.8306,56.4347,137.071,98.7721,103.851,0.00199715,0.229823,20.798,150.553,-0.456347,0.0,0.0
2912,727.75,55.1769,56.4984,138.764,98.5705,103.815,0.00187111,0.23546,20.7943,149.482,-0.471706,0.0,0.0
2968,741.75,55.9723,57.3569,144.73,99.0181,103.857,0.0020162,0.240858,20.7879,148.311,-0.434229,0.0,0.0
3024,755.75,56.33,57.899,142.032,99.5966,104.665,0.00203295,0.24826,20.7794,147.24,-0.451727,0.0,0.0
3080,769.75,56.3812,58.2199,139.717,99.7842,105.333,0.00217719,0.257975,20.7684,146.089,-0.492436,0.0,0.0
3136,783.75,57.6434,59.0529,136.956,99.4704,104.493,0.00217599,0.268312,20.7551,144.878,-0.448254,0.0,0.0
3192,797.75,58.2245,59.639,141.325,99.1231,104.162,0.00205233,0.281265,20.7403,143.576,-0.451257,0.0,0.0
3248,811.75,59.3096,61.047,139.958,99.8617,104.375,0.00197919,0.29955,20.7182,142.165,-0.402248,0.0,0.0
3304,825.75,60.8801,62.097,135.37,99.8134,104.327,0.00189863,0.32083,20.6913,140.704,-0.402449,0.0,0.0
3360,839.75,62.3812,64.0905,137.018,99.6381,103.449,0.00233971,0.345632,20.6615,139.113,-0.341563,0.0,0.0
3416,853.75,64.6871,66.0175,132.453,99.9567,104.492,0.00243365,0.376235,20.6229,137.421,-0.403795,0.0,0.0
3472,867.75,67.0124,68.2904,137.603,100.233,102.961,0.00280114,0.406612,20.5879,135.599,-0.244391,0.0,0.0
3528,881.75,69.1636,70.6952,133.731,100.327,103.079,0.0031743,0.439616,20.5501,133.568,-0.246262,0.0,0.0
3584,895.75,71.8615,73.2388,131.914,100.271,101.958,0.00334577,0.481014,20.4963,131.316,-0.151837,0.0,0.0
3640,909.75,74.4873,75.9187,130.622,100.15,101.636,0.00347085,0.523234,20.4451,128.974,-0.134041,0.0,0.0
3696,923.75,77.9045,79.5175,126.652,99.9739,101.468,0.00423198,0.55194,20.4188,126.541,-0.135042,0.0,0.0
3752,937.75,78.6848,81.4082,130.49,99.8401,99.9676,0.00406547,0.532643,20.4597,124.209,-0.0116141,0.0,0.0
3808,951.75,78.8751,82.4632,131.083,99.773,101.763,0.00355781,0.516199,20.4713,121.917,-0.179716,0.0,0.0
3864,965.75,78.6024,83.081,135.27,99.777,101.904,0.00343216,0.504211,20.481,119.715,-0.191987,0.0,0.0
3920,979.75,78.9768,83.1801,130.487,99.7591,101.758,0.00321193,0.500136,20.4875,117.584,-0.180587,0.0,0.0
3976,993.75,79.143,83.6017,131.143,99.7479,101.984,0.00358033,0.496623,20.4894,115.552,-0.20176,0.0,0.0
4032,1007.75,78.7683,83.2362,129.396,99.69,101.503,0.00418093,0.489557,20.4934,113.49,-0.163988,0.0,0.0
4088,1021.75,78.4305,83.0076,132.788,99.7479,101.965,0.00360129,0.472391,20.5206,111.498,-0.200032,0.0,0.0
4144,1035.75,76.7016,81.838,134.78,99.8221,102.524,0.00368314,0.434351,20.5702,109.737,-0.242999,0.0,0.0
4200,1049.75,74.5881,79.7394,136.017,99.9359,103.414,0.00381942,0.40474,20.596,108.175,-0.311312,0.0,0.0
4256,1063.75,72.6086,77.9267,135.235,100.116,103.408,0.00406114,0.378034,20.6279,106.744,-0.294417,0.0,0.0
4312,1077.75,70.3616,75.6121,136.498,100.257,103.462,0.00380273,0.347848,20.663,105.423,-0.286291,0.0,0.0
4368,1091.75,68.1418,72.8874,144.105,100.295,104.508,0.00321149,0.316443,20.7011,104.242,-0.374435,0.0,0.0
4424,1105.75,65.8727,71.0698,139.975,100.166,104.968,0.00363568,0.283755,20.7403,103.201,-0.426091,0.0,0.0
4480,1119.75,62.883,67.9174,142.593,99.9599,104.105,0.00382926,0.24551,20.7829,102.35,-0.369754,0.0,0.0
4536,1133.75,60.5398,65.0026,139.846,99.7267,104.816,0.0042441,0.209773,20.8234,101.85,-0.452988,0.0,0.0
4592,1147.75,57.4285,61.9916,141.131,99.5187,104.451,0.00399444,0.176068,20.8615,101.329,-0.440226,0.0,0.0
4648,1161.75,54.9679,58.7991,143.947,99.5271,105.081,0.00445209,0.149643,20.8899,100.989,-0.494142,0.0,0.0
4704,1175.75,52.1845,55.9763,150.199,99.8357,104.915,0.00566442,0.131918,20.9071,100.669,-0.451605,0.0,0.0
4760,1189.75,50.4342,53.7564,147.342,99.8677,104.916,0.00706552,0.11863,20.9219,100.348,-0.448772,0.0,0.0
4816,1203.75,48.9914,51.3139,147.158,99.4413,103.819,0.00785907,0.110396,20.9258,100.248,-0.392062,0.0,0.0
4872,1217.75,47.2973,49.7075,151.726,99.1386,103.496,0.00754624,0.106168,20.9308,100.068,-0.391415,0.0,0.0
4928,1231.75,44.8345,46.468,147.871,99.5063,104.001,0.00755003,0.103819,20.9314,99.8479,-0.402002,0.0,0.0
4984,1245.75,43.6023,45.7362,149.57,99.71,104.367,0.00706921,0.103259,20.9299,99.6778,-0.415377,0.0,0.0
5040,1259.75,43.4557,44.2383,148.696,99.6002,104.043,0.0065126,0.102907,20.9328,99.4676,-0.397168,0.0,0.0
5096,1273.75,42.2178,43.9653,149.884,99.373,104.461,0.00638081,0.101793,20.933,99.2574,-0.454426,0.0,0.0
5152,1287.75,42.3906,43.2087,146.875,99.2049,103.94,0.00658751,0.101873,20.9319,99.1573,-0.42429,0.0,0.0
5208,1301.75,41.8982,42.6788,149.432,99.2073,103.844,0.00615207,0.101324,20.9357,99.0072,-0.415709,0.0,0.0
5264,1315.75,41.6235,42.1568,150.569,99.3235,103.555,0.00630335,0.101441,20.9344,98.8571,-0.379648,0.0,0.0
5320,1329.75,41.3483,41.7925,150.533,99.4429,103.879,,0.101632,,98.6969,-0.397164,0.0,0.0
5354,1338.25,41.1793,42.1342,149.59,99.4808,104.059,,,,98.6269,-0.40942,0.0,0.0