File: 01_Data/Oak_HWF/Cone/Oak_Flooring_Cone_HF50Scan_220526_R1.csv
Names,Time,Stack TC,Smoke TC,Exh Press,Smoke Comp,Smoke Meas,CO Meter,CO2 Meter,O2 Meter,Sample Mass,Ext Coeff,Start Test,Flame Verif
Chan Gain,,500,500,1,1,1,1,1,1,1,1,1.0,1.0
Offset,,0,0,0.138731,0,0,0,0,0,0,0,0.0,0.0
Gain,,1,1,25.011,13.8491,15.2622,1,1,1,1.00087,1.03118,1.0,1.0
Units,sec,C,C,Pa,%,%,%,%,%,g,/m,,
Baseline,,39.1827,40.6469,140.009,105.606,106.058,0.00120305,0.0489773,20.9854,-451.935,-0.0385633,,
110,27.25,37.0649,38.5277,135.632,104.701,103.793,0.00219672,0.0554231,20.9824,208.191,0.0787638,0.0,0.0
220,54.75,57.6508,54.3737,116.664,104.797,87.5065,0.0230822,0.795122,20.0478,203.307,1.63104,0.0,0.0
330,82.25,66.8101,68.3084,124.918,104.8,104.56,0.00799085,0.438065,20.539,198.313,0.0207282,0.0,0.0
440,109.75,65.6917,69.461,126.196,104.686,105.551,0.006766,0.374257,20.6122,194.449,-0.0743857,0.0,0.0
550,137.25,64.2945,70.0919,126.89,105.314,106.385,0.00593002,0.351542,20.6384,190.936,-0.0915646,0.0,0.0
660,164.75,63.1667,68.7298,126.759,105.422,107.468,0.00462969,0.32395,20.6724,187.683,-0.17381,0.0,0.0
770,192.25,61.8267,66.9122,128.378,105.811,108.182,0.00442142,0.287371,20.7133,184.871,-0.200408,0.0,0.0
880,219.75,59.7903,64.9066,128.492,105.261,107.216,0.00414156,0.262128,20.7438,182.189,-0.166402,0.0,0.0
990,247.25,58.0712,62.9828,131.021,103.971,106.488,0.00457958,0.245213,20.7634,179.726,-0.216342,0.0,0.0
1100,274.75,57.2986,60.8973,131.259,105.189,107.96,0.00419707,0.241731,20.7677,177.284,-0.235153,0.0,0.0
1210,302.25,57.0247,60.2954,132.295,104.783,106.878,0.00450208,0.239835,20.7721,174.782,-0.179073,0.0,0.0
1320,329.75,56.7424,59.7381,127.592,105.544,108.218,0.00529133,0.243669,20.7646,172.33,-0.226344,0.0,0.0
1430,357.25,56.7518,60.3707,130.693,105.686,108.195,0.00480699,0.238664,20.7717,169.838,-0.212275,0.0,0.0
1540,384.75,57.0898,59.6414,132.213,105.541,108.002,0.0048766,0.24065,20.7667,167.546,-0.20848,0.0,0.0
1650,412.25,57.0475,59.9353,132.96,104.488,106.835,0.00460066,0.242677,20.7652,165.044,-0.200912,0.0,0.0
1760,439.75,57.0711,59.8851,129.939,104.174,106.875,0.00450225,0.243324,20.7655,162.531,-0.231565,0.0,0.0
1870,467.25,56.4954,59.4283,130.66,104.338,107.122,0.0049195,0.232564,20.7769,160.119,-0.238206,0.0,0.0
1980,494.75,56.2023,59.0149,135.3,104.948,107.107,0.00475564,0.225153,20.7856,157.747,-0.184192,0.0,0.0
2090,522.25,55.7738,58.5178,130.516,105.669,108.313,0.00428386,0.223043,20.7869,155.485,-0.223493,0.0,0.0
2200,549.75,55.2553,58.1391,131.318,105.721,108.722,0.0043828,0.224156,20.7877,153.203,-0.25317,0.0,0.0
2310,577.25,55.3665,57.7927,129.557,105.166,107.648,0.00404476,0.22485,20.7871,150.971,-0.210969,0.0,0.0
2420,604.75,55.4126,57.9494,131.695,104.6875,108.102,0.00375949,0.227466,20.7838,148.82,-0.290331,0.0,0.0
2530,632.25,55.6134,58.4967,133.664,105.141,108.219,0.00376295,0.230693,20.7783,146.628,-0.261044,0.0,0.0
2640,659.75,55.7905,58.5512,128.693,104.814,107.898,0.003429,0.239648,20.7721,144.416,-0.262332,0.0,0.0
2750,687.25,56.5432,59.4694,131.694,104.396,107.53,0.00314095,0.251273,20.7598,142.044,-0.267501,0.0,0.0
2860,714.75,57.4181,59.9287,124.083,104.549,107.263,0.00264869,0.26309,20.7446,139.612,-0.231813,0.0,0.0
2970,742.25,58.524,61.1612,130.276,104.702,107.272,0.00284479,0.289158,20.7137,136.949,-0.219295,0.0,0.0
3080,769.75,60.0702,62.9378,125.653,104.9,107.538,0.00271409,0.30887,20.6938,134.177,-0.224658,0.0,0.0
3190,797.25,62.6161,65.7406,124.789,105.175,107.363,0.00311648,0.340919,20.6568,131.174,-0.1863,0.0,0.0
3300,824.75,65.8651,68.0457,125.946,105.001,107.132,0.00309416,0.384242,20.608,127.881,-0.181764,0.0,0.0
3410,852.25,68.8644,72.0205,120.462,105.323,106.852,0.00320254,0.430692,20.552,124.168,-0.130357,0.0,0.0
3520,879.75,73.2334,76.3195,119.866,105.348,105.603,0.00388939,0.491125,20.4789,119.994,-0.0218875,0.0,0.0
3630,907.25,77.1121,81.1564,117.335,105.608,104.846,0.00478434,0.551206,20.4023,115.37,0.0655065,0.0,0.0
3740,934.75,82.0288,86.0405,120.988,103.923,102.845,0.00523677,0.59097,20.3531,110.516,0.0943464,0.0,0.0
3850,962.25,83.9829,89.4021,119.838,104.68,102.955,0.00543069,0.572695,20.3664,105.632,0.150331,0.0,0.0
3960,989.75,84.5163,90.2972,121.279,105.163,102.606,0.00569733,0.531264,20.4062,101.158,0.222684,0.0,0.0
4070,1017.25,81.7068,87.8652,119.611,105.17,102.866,0.00468827,0.466039,20.4823,97.2747,0.200379,0.0,0.0
4180,1044.75,76.4429,83.5655,129.964,105.135,105.59,0.0033155,0.323896,20.6488,94.3521,-0.039078,0.0,0.0
4290,1072.25,66.7424,73.5234,131.007,104.928,107.969,0.00278149,0.1806,20.8152,93.041,-0.258422,0.0,0.0
4400,1099.75,59.2104,64.9024,131.736,104.634,107.638,0.00391882,0.143811,20.8582,92.2503,-0.255993,0.0,0.0
4510,1127.25,54.4219,58.7471,133.552,104.073,107.346,0.00382905,0.130809,20.8726,91.6298,-0.280109,0.0,0.0
4620,1154.75,51.6128,54.8848,132.619,103.895,106.407,0.00409981,0.123853,20.8818,91.0493,-0.216153,0.0,0.0
4730,1182.25,49.5622,52.0173,138.401,104.972,107.317,0.00451612,0.118261,20.8891,90.5288,-0.199875,0.0,0.0
4840,1209.75,48.3314,50.2802,135.777,105.813,108.766,0.00462636,0.115906,20.8916,90.0784,-0.248969,0.0,0.0
4950,1237.25,47.1899,48.9876,136.539,105.351,107.485,0.00469058,0.11387,20.8968,89.7581,-0.181427,0.0,0.0
5060,1264.75,46.8276,48.1163,137.251,105.311,107.941,0.00487643,0.112828,20.8983,89.3778,-0.223134,0.0,0.0
5170,1292.25,46.5486,47.3189,137.808,105.565,107.849,0.00492398,0.11098,20.9001,89.0475,-0.193611,0.0,0.0
5280,1319.75,45.9012,46.7448,140.294,105.775,107.942,0.00498993,0.109494,20.9024,88.6972,-0.1834,0.0,0.0
5390,1347.25,45.4902,46.465,139.45,105.855,108.361,0.00534984,0.108572,20.9066,88.3669,-0.211669,0.0,0.0
5500,1374.75,45.2377,46.1829,134.841,105.859,108.553,0.00537396,0.107168,20.907,87.9766,-0.227309,0.0,0.0
5610,1402.25,44.3586,46.019,135.51,105.821,107.312,0.00578377,0.106686,20.9096,87.6563,-0.126539,0.0,0.0
5720,1429.75,44.1932,45.437,133.031,105.001,107.924,0.00577385,0.105285,20.911,87.4161,-0.248375,0.0,0.0
5830,1457.25,43.9,45.6905,135.416,103.898,106.152,0.00580577,0.105053,20.9146,87.2059,-0.194132,0.0,0.0
5940,1484.75,44.447,45.1963,136.192,104.662,107.256,0.00575157,0.105434,20.9147,86.9957,-0.221469,0.0,0.0
6050,1512.25,43.7901,45.0522,137.518,105.11,107.29,0.00578291,0.105139,20.9147,86.7956,-0.185699,0.0,0.0
6160,1539.75,43.3967,44.6876,134.194,105.182,106.61,0.00616492,0.104139,20.9182,86.5353,-0.122005,0.0,0.0
6270,1567.25,42.812,44.202,138.136,105.149,107.357,0.00615675,0.103393,20.9213,86.215,-0.188007,0.0,0.0
6380,1594.75,42.9591,44.1075,139.906,105.139,106.998,0.00660557,0.10314,20.918,85.9148,-0.158497,0.0,0.0
6490,1622.25,42.8387,44.0021,141.23,105.027,106.599,0.00699459,0.102014,20.9222,85.6646,-0.134369,0.0,0.0
6600,1649.75,41.7621,44.117,136.608,104.437,106.514,0.00700526,0.103076,20.9212,85.3943,-0.178167,0.0,0.0
6710,1677.25,42.4218,43.4365,141.749,103.853,106.379,0.00721818,0.102155,20.9246,85.2242,-0.217381,0.0,0.0
6820,1704.75,42.2213,43.1467,130.886,104.369,105.724,0.00709398,0.101894,20.925,85.054,-0.116652,0.0,0.0
6930,1732.25,41.8542,43.2232,136.11,105.76,107.787,0.00746193,0.101384,20.9247,84.8138,-0.171734,0.0,0.0
7040,1759.75,41.7719,43.52,139.094,105.138,106.647,0.00746331,0.100783,20.9254,84.5436,-0.128907,0.0,0.0
7150,1787.25,41.4692,43.1074,137.696,105.006,106.401,0.00777008,0.0999349,20.9278,84.3034,-0.119376,0.0,0.0
7260,1814.75,41.587,42.5907,139.5,105.113,107.347,0.00798937,0.100352,20.9288,84.0031,-0.190234,0.0,0.0
7370,1842.25,41.7019,42.8563,139.237,104.468,106.691,0.00816226,0.0993593,20.9277,83.7129,-0.190478,0.0,0.0
7480,1869.75,41.2579,42.7817,134.63,104.173,105.952,0.0082961,0.0990479,20.9308,83.5227,-0.153167,0.0,0.0
7590,1897.25,41.2469,43.0065,140.338,104.177,105.549,0.00865444,0.0983231,20.93,83.3426,-0.118375,0.0,0.0
7700,1924.75,41.1226,42.7076,139.434,104.266,105.112,0.00847108,0.0968802,20.9331,83.1424,-0.0731164,0.0,0.0
7810,1952.25,41.4284,43.1413,136.533,104.308,106.47,0.00899369,0.0979037,20.9291,82.9222,-0.185581,0.0,0.0
7920,1979.75,41.3342,42.9652,137.173,104.338,105.045,0.00880726,0.0962823,20.934,82.722,-0.0611119,0.0,0.0
8030,2007.25,41.2657,42.7281,138.596,104.651,106.368,0.00933318,0.0965628,20.9329,82.4718,-0.147235,0.0,0.0
8140,2034.75,41.2302,42.9731,137.378,105.162,107.301,0.00926019,0.0964965,20.9355,82.1615,-0.18209,0.0,0.0
8250,2062.25,41.1761,42.8698,135.326,104.854,106.529,0.00956737,0.0963623,20.9314,81.9413,-0.143375,0.0,0.0
8360,2089.75,41.1446,42.9247,135.897,105.258,106.827,0.00925465,0.0962016,20.9336,81.7211,-0.133859,0.0,0.0
8470,2117.25,41.3058,43.0619,140.706,105.02,107.024,0.00959259,0.0966216,20.9339,81.591,-0.171036,0.0,0.0
8580,2144.75,41.0803,43.4515,137.812,105.74,107.58,0.00931558,0.0964136,20.9338,81.4609,-0.156023,0.0,0.0
8690,2172.25,40.6524,42.9258,138.288,105.78,107.24,0.00910829,0.097126,20.9347,81.2707,-0.124067,0.0,0.0
8800,2199.75,41.025,42.686,137.488,105.737,106.415,0.00916404,0.0963356,20.9367,81.0105,-0.0578339,0.0,0.0
8910,2227.25,40.9827,42.4692,137.626,105.788,107.607,0.00932501,0.095668,20.9372,80.8304,-0.154207,0.0,0.0
9020,2254.75,40.9156,42.7366,133.334,105.709,107.087,0.00936583,0.0960616,20.9366,80.4801,-0.117131,0.0,0.0
9130,2282.25,40.8898,42.7214,138.077,105.242,106.655,0.00916205,0.0954017,20.9399,80.2699,-0.120602,0.0,0.0
9240,2309.75,40.6144,42.3807,134.996,105.165,106.598,0.00919266,0.0953279,20.9381,80.0997,-0.122428,0.0,0.0
9350,2337.25,40.7815,42.3879,144.27,105.082,106.816,0.00948684,0.0949838,20.937,79.9896,-0.148074,0.0,0.0
9460,2364.75,40.7304,41.9591,134.762,104.756,105.524,0.009253,0.0948236,20.9374,79.7694,-0.0660501,0.0,0.0
9570,2392.25,40.7523,42.8098,138.979,105.108,106.47,0.00957478,0.0951903,20.939,79.5493,-0.116501,0.0,0.0
9680,2419.75,40.6492,42.3799,140.362,104.456,105.906,0.00876222,0.0943899,20.9398,79.3591,-0.124714,0.0,0.0
9790,2447.25,40.7681,42.312,135.939,103.805,105.552,0.00903461,0.0946712,20.9403,79.0989,-0.151006,0.0,0.0
9900,2474.75,40.577,42.3377,138.066,104.813,105.963,0.00927015,0.0944172,20.9402,78.8386,-0.0986564,0.0,0.0
10010,2502.25,38.6166,40.6303,139.199,105.748,106.668,0.00942031,0.0948506,20.9419,78.6585,-0.0782907,0.0,0.0
10120,2529.75,39.1093,40.9911,137.685,105.174,106.335,0.00954254,0.0948004,20.9413,78.4383,-0.0993492,0.0,0.0
10230,2557.25,38.9068,40.6512,135.113,105.416,106.759,0.00923944,0.0942281,20.942,78.3382,-0.114489,0.0,0.0
10340,2584.75,39.316,41.1236,137.801,104.477,105.648,0.00920641,0.094124,20.942,78.118,-0.100782,0.0,0.0
10441,2610,39.4356,41.5447,137.732,104.974,106.004,,,,77.8278,-0.0883056,0.0,0.0