File: 01_Data/Oak_HWF/Cone/Oak_Flooring_Cone_HF50Scan_220914_R3.csv
Names,Time,Stack TC,Smoke TC,Exh Press,Smoke Comp,Smoke Meas,CO Meter,CO2 Meter,O2 Meter,Sample Mass,Ext Coeff,Start Test,Flame Verif
Chan Gain,,500,500,1,1,1,1,1,1,1,1,1.0,1.0
Offset,,0,0,0.139139,0,0,0,0,0,0,0,0.0,0.0
Gain,,1,1,25.011,13.0826,14.7555,1,1,1,1.00088,1.03743,1.0,1.0
Units,sec,C,C,Pa,%,%,%,%,%,g,/m,,
Baseline,,55.0473,56.5298,140.706,98.7674,104.964,-0.00102005,0.0477314,20.9914,-451.313,-0.553732,,
52,12.75,53.2655,54.0523,141.76,99.6692,105.881,-0.000866983,0.051197,20.9926,206.942,-0.550192,0.0,0.0
104,25.75,53.3622,54.9606,139.064,99.8345,104.641,-0.000511561,0.0501668,20.9927,206.632,-0.427935,0.0,0.0
156,38.75,61.5674,59.6347,115.971,99.904,98.3303,0.00272746,0.418007,20.4449,205.041,0.144488,0.0,0.0
208,51.75,76.0717,73.0773,116.845,99.8553,95.474,0.00512804,0.624745,20.2899,202.749,0.408308,0.0,0.0
260,64.75,82.718,81.4848,122.992,99.4508,98.1772,0.0046285,0.583424,20.3818,200.467,0.117297,0.0,0.0
312,77.75,85.4692,85.5911,121.601,99.3123,99.4615,0.00356777,0.51994,20.4645,198.415,-0.0136586,0.0,0.0
364,90.75,86.2091,88.0907,126.54,99.7112,101.561,0.00293518,0.467075,20.5324,196.453,-0.167263,0.0,0.0
416,103.75,84.4663,88.8495,125.167,99.8589,101.909,0.00256009,0.421505,20.5797,194.681,-0.184928,0.0,0.0
468,116.75,84.3304,88.9133,126.543,99.795,102.486,0.00215383,0.393063,20.6109,193.04,-0.242156,0.0,0.0
520,129.75,83.0054,87.942,130.857,99.6604,102.715,0.00244954,0.373535,20.6344,191.549,-0.274723,0.0,0.0
572,142.75,82.4479,87.7434,131.931,99.6281,102.95,0.00184809,0.36634,20.6401,190.027,-0.298479,0.0,0.0
624,155.75,82.1953,87.434,132.883,99.664,102.903,0.00176737,0.356309,20.6522,188.426,-0.291056,0.0,0.0
676,168.75,81.1346,86.9167,128.737,99.7531,103.078,0.0021712,0.347043,20.6628,186.905,-0.298368,0.0,0.0
728,181.75,80.3621,86.2263,127.334,99.8126,103.717,0.00168175,0.33897,20.6707,185.413,-0.349221,0.0,0.0
780,194.75,80.157,85.3199,127.993,99.7894,103.774,0.00163477,0.334515,20.6764,184.112,-0.356349,0.0,0.0
832,207.75,79.537,85.0446,126.21,99.5738,103.203,0.00139723,0.328731,20.6847,182.731,-0.325822,0.0,0.0
884,220.75,79.5602,83.956,130.871,99.1726,103.171,0.00143654,0.325007,20.6885,181.32,-0.359708,0.0,0.0
936,233.75,79.1964,83.9306,128.428,99.3394,103.312,0.00131244,0.319689,20.6936,179.878,-0.356871,0.0,0.0
988,246.75,78.4805,83.5567,132.31,99.6956,104.184,0.00138328,0.317885,20.6965,178.477,-0.400773,0.0,0.0
1040,259.75,78.7853,83.2644,127.438,99.8329,104.304,0.000985723,0.314444,20.6991,177.186,-0.398662,0.0,0.0
1092,272.75,78.2586,82.4463,128.622,99.5838,103.913,0.00129346,0.307677,20.7067,175.945,-0.387234,0.0,0.0
1144,285.75,77.5253,81.9422,129.247,99.0751,104.037,0.00116662,0.300919,20.715,174.544,-0.444673,0.0,0.0
1196,298.75,77.4604,81.748,127.983,98.7729,103.171,0.00136145,0.294088,20.723,173.273,-0.396455,0.0,0.0
1248,311.75,76.76,81.4946,133.035,98.7019,103.273,0.00127045,0.290271,20.7265,171.901,-0.411976,0.0,0.0
1300,324.75,76.8261,80.6195,130.887,98.6695,103.24,0.00146225,0.286806,20.7326,170.62,-0.412061,0.0,0.0
1352,337.75,76.6343,80.459,132.559,98.6859,103.501,0.00116665,0.282559,20.7362,169.399,-0.433545,0.0,0.0
1404,350.75,76.2453,80.7443,127.883,98.7022,103.934,0.00102833,0.276487,20.7453,168.158,-0.470005,0.0,0.0
1456,363.75,75.2797,79.9249,128.628,98.7362,103.869,0.00117163,0.27379,20.7467,166.927,-0.461197,0.0,0.0
1508,376.75,76.1031,79.9552,126.453,98.7601,104.005,0.00110628,0.271813,20.7483,165.646,-0.470896,0.0,0.0
1560,389.75,75.9133,79.5508,127.687,98.8224,103.868,0.000996368,0.269415,20.7542,164.385,-0.453134,0.0,0.0
1612,402.75,75.2857,79.0715,132.239,98.9394,103.999,0.00110818,0.265318,20.7531,163.144,-0.453841,0.0,0.0
1664,415.75,75.3179,79.1036,129.834,99.1606,104.325,0.000856503,0.264546,20.7542,162.033,-0.462043,0.0,0.0
1716,428.75,75.187,78.9097,126.049,99.4512,104.725,0.000702647,0.261646,20.7594,160.822,-0.470182,0.0,0.0
1768,441.75,75.1899,79.1142,131.22,99.7096,105.346,0.000955484,0.258781,20.7631,159.721,-0.500415,0.0,0.0
1820,454.75,74.7866,78.3892,132.061,99.8804,105.165,0.000872374,0.256708,20.7653,158.51,-0.469221,0.0,0.0
1872,467.75,74.6853,78.4632,133.674,99.8501,105.24,0.000426877,0.258086,20.7636,157.269,-0.478413,0.0,0.0
1924,480.75,74.9323,78.3094,129.677,99.5946,105.275,0.000711161,0.258716,20.7614,156.148,-0.504806,0.0,0.0
1976,493.75,74.9538,78.481,131.113,99.2109,104.686,0.000842538,0.260579,20.7615,155.017,-0.488836,0.0,0.0
2028,506.75,74.8863,78.181,132.57,99.5075,105.04,0.00079704,0.26314,20.7597,153.886,-0.492381,0.0,0.0
2080,519.75,75.4239,77.8844,131.193,99.8744,105.333,0.000687255,0.265093,20.7564,152.664,-0.484251,0.0,0.0
2132,532.75,74.8999,78.6745,132.09,99.6784,105.446,0.000612434,0.269063,20.7518,151.423,-0.511889,0.0,0.0
2184,545.75,75.7188,78.7973,128.203,99.6604,105.298,0.0003304,0.275635,20.7433,150.232,-0.500736,0.0,0.0
2236,558.75,76.2087,79.388,126.026,100.024,105.963,0.000837175,0.280476,20.7402,149.181,-0.524958,0.0,0.0
2288,571.75,76.7313,79.5626,130.924,100.26,105.665,0.000838972,0.283065,20.7359,147.9,-0.477879,0.0,0.0
2340,584.75,76.8865,79.4086,131.559,100.333,105.746,0.000357414,0.287819,20.7292,146.699,-0.478191,0.0,0.0
2392,597.75,77.546,80.0983,131.424,100.316,105.722,0.000508287,0.293584,20.7254,145.418,-0.477695,0.0,0.0
2444,610.75,77.5512,80.3623,127.284,100.316,105.421,0.000436771,0.299771,20.7176,144.067,-0.451687,0.0,0.0
2496,623.75,78.0459,80.7903,130.389,100.319,105.501,0.000663141,0.303634,20.7127,142.686,-0.458351,0.0,0.0
2548,636.75,77.8987,80.9124,131.514,100.294,105.555,0.0009324,0.310563,20.7067,141.535,-0.465258,0.0,0.0
2600,649.75,78.3956,81.7674,126.301,100.248,104.749,0.0010062,0.316513,20.7002,140.234,-0.399704,0.0,0.0
2652,662.75,79.3487,82.4223,128.832,100.143,104.335,0.000821015,0.324472,20.6908,138.832,-0.373175,0.0,0.0
2704,675.75,79.6426,82.776,126.077,99.916,104.543,0.000640097,0.33565,20.6738,137.371,-0.411934,0.0,0.0
2756,688.75,80.6832,83.4966,125.055,99.5914,104.204,0.00070054,0.343071,20.6649,135.89,-0.41202,0.0,0.0
2808,701.75,80.9213,84.4895,125.991,99.5143,103.788,0.00103155,0.359281,20.6486,134.398,-0.382616,0.0,0.0
2860,714.75,81.628,84.8503,124.981,99.8205,103.656,0.00112317,0.371524,20.6342,132.917,-0.343157,0.0,0.0
2912,727.75,82.5084,85.7679,129.574,99.6485,103.283,0.00112325,0.383442,20.6212,131.386,-0.325987,0.0,0.0
2964,740.75,83.3578,86.6341,123.637,99.3023,102.288,0.00118683,0.398068,20.6,129.804,-0.269543,0.0,0.0
3016,753.75,84.2568,87.4502,125.074,99.145,101.875,0.00173776,0.408013,20.5919,128.013,-0.2472,0.0,0.0
3068,766.75,85.4772,89.054,124.532,99.2496,101.709,0.0021279,0.428238,20.5672,126.331,-0.222789,0.0,0.0
3120,779.75,86.7236,90.0824,127.444,99.2772,101.766,0.00170936,0.439309,20.5555,124.63,-0.225338,0.0,0.0
3172,792.75,87.8131,91.5071,127.974,99.2085,100.947,0.00241021,0.448969,20.5431,122.948,-0.158051,0.0,0.0
3224,805.75,87.5161,91.7691,125.647,99.1454,100.411,0.0022793,0.44848,20.543,121.137,-0.115403,0.0,0.0
3276,818.75,88.3445,92.6263,127.894,99.1662,100.879,0.00253234,0.445715,20.5457,119.305,-0.155843,0.0,0.0
3328,831.75,88.6859,93.1054,124.366,99.3259,101.273,0.00229695,0.44709,20.541,117.564,-0.176634,0.0,0.0
3380,844.75,88.8517,93.7213,121.5,99.4608,101.106,0.00222896,0.447931,20.5431,115.922,-0.149335,0.0,0.0
3432,857.75,89.5354,93.9119,122.935,99.5343,100.885,0.0026672,0.449003,20.5376,114.261,-0.122693,0.0,0.0
3484,870.75,90.2022,93.8907,125.282,99.6656,100.674,0.00257883,0.446765,20.5403,112.599,-0.091581,0.0,0.0
3536,883.75,89.7871,94.4406,119.322,99.8062,100.212,0.00254747,0.441199,20.5456,110.958,-0.0369394,0.0,0.0
3588,896.75,89.7115,94.5294,127.032,99.8824,101.541,0.00259797,0.431034,20.5575,109.286,-0.149829,0.0,0.0
3640,909.75,89.11,94.2082,124.831,99.6916,101.108,0.00218224,0.415575,20.5704,107.735,-0.128367,0.0,0.0
3692,922.75,88.5671,93.5555,124.627,99.6724,100.814,0.00208271,0.393336,20.5969,106.354,-0.103652,0.0,0.0
3744,935.75,87.8994,92.4718,123.619,100.153,101.468,0.00211336,0.367517,20.6279,105.163,-0.118659,0.0,0.0
3796,948.75,86.3257,91.3451,125.214,100.375,103.805,0.00154439,0.342632,20.6538,103.952,-0.305738,0.0,0.0
3848,961.75,84.4565,89.9355,125.075,100.013,103.654,0.000952622,0.311483,20.6907,102.931,-0.325397,0.0,0.0
3900,974.75,83.2738,88.075,132.432,99.1845,103.882,0.000881311,0.285811,20.7151,101.91,-0.421071,0.0,0.0
3952,987.75,81.374,86.2645,132.346,98.7897,103.65,0.000818597,0.254981,20.7519,101.119,-0.437034,0.0,0.0
4004,1000.75,78.6357,83.7703,129.308,98.8464,104.035,0.000665501,0.221869,20.7885,100.468,-0.465593,0.0,0.0
4056,1013.75,76.7142,81.5323,130.13,99.3474,104.939,0.0008285,0.191278,20.8251,100.008,-0.498292,0.0,0.0
4108,1026.75,73.909,78.797,131.346,99.8205,105.584,0.000726004,0.163694,20.8523,99.5877,-0.510807,0.0,0.0
4160,1039.75,71.5276,76.0345,135.699,99.9303,105.946,0.000962469,0.142569,20.8769,99.2674,-0.531993,0.0,0.0
4212,1052.75,69.6366,73.5008,135.485,99.5926,105.875,0.0019237,0.132749,20.8887,98.9572,-0.55669,0.0,0.0
4264,1065.75,68.3506,70.6458,135.509,99.1953,105.309,0.00173027,0.128376,20.8938,98.6969,-0.544279,0.0,0.0
4316,1078.75,66.8945,70.0767,132.97,99.769,106.377,0.00147598,0.125761,20.8975,98.5168,-0.583596,0.0,0.0
4368,1091.75,66.1881,68.9338,138.488,99.8413,106.031,0.00200244,0.124861,20.8992,98.4367,-0.547412,0.0,0.0
4420,1104.75,65.2545,67.7651,139.018,99.5415,105.836,0.00203893,0.123275,20.9001,98.2565,-0.558032,0.0,0.0
4472,1117.75,64.3913,66.7287,136.743,99.7543,106.005,0.00213378,0.122382,20.9013,98.0463,-0.553067,0.0,0.0
4524,1130.75,62.653,64.5103,136.57,99.9651,105.993,0.00237477,0.120482,20.9058,97.8061,-0.532852,0.0,0.0
4576,1143.75,61.756,63.613,135.474,100.041,105.846,0.00218112,0.12027,20.9039,97.606,-0.513298,0.0,0.0
4628,1156.75,60.9557,62.9537,137.878,100.027,105.835,0.00245271,0.11903,20.9045,97.4458,-0.513639,0.0,0.0
4680,1169.75,61.0746,62.4456,139.959,99.9136,106.159,0.00237236,0.118163,20.9071,97.3858,-0.551796,0.0,0.0
4732,1182.75,60.6019,62.4609,139.66,99.7199,106.388,0.00261012,0.117091,20.9078,97.1556,-0.589077,0.0,0.0
4784,1195.75,60.5736,61.6343,137.776,99.4999,105.493,0.0021385,0.116497,20.9098,97.0455,-0.532238,0.0,0.0
4836,1208.75,60.035,61.3834,136.883,99.7471,106.017,0.00263859,0.11575,20.9091,96.8153,-0.554806,0.0,0.0
4888,1221.75,59.2092,61.5672,138.564,99.8509,106.081,0.00295747,0.115782,20.9072,96.6751,-0.550827,0.0,0.0
4940,1234.75,59.1108,60.6672,132.773,99.4261,105.8,,0.115497,,96.6251,-0.56545,0.0,0.0
4975,1243.5,58.8481,60.3378,142.145,99.2197,105.36,,,,96.4349,-0.546403,0.0,0.0