File: 01_Data/Oak_HWF/Cone/Oak_Flooring_Cone_HF50Scan_220526_R2.csv
Names,Time,Stack TC,Smoke TC,Exh Press,Smoke Comp,Smoke Meas,CO Meter,CO2 Meter,O2 Meter,Sample Mass,Ext Coeff,Start Test,Flame Verif
Chan Gain,,500,500,1,1,1,1,1,1,1,1,1.0,1.0
Offset,,0,0,0.138731,0,0,0,0,0,0,0,0.0,0.0
Gain,,1,1,25.011,13.8491,15.2622,1,1,1,1.00087,1.03118,1.0,1.0
Units,sec,C,C,Pa,%,%,%,%,%,g,/m,,
Baseline,,39.4162,40.94,140.268,104.56,105.039,0.00110028,0.0456002,21.0019,-451.917,-0.0412755,,
68,16.75,35.4905,37.0051,141.872,105.773,105.58,0.000924563,0.0467747,21.0041,186.833,0.0165013,0.0,0.0
136,33.75,40.3955,38.9613,112.583,105.445,82.9522,0.0172293,0.48551,20.478,185.001,2.17026,0.0,1.0
204,50.75,62.3106,60.6677,124.349,104.904,92.5796,0.0152487,0.690973,20.2111,180.887,1.13047,0.0,0.0
272,67.75,65.242,66.5411,123.777,105.432,105.419,0.00601038,0.425364,20.5606,178.075,0.00110735,0.0,0.0
340,84.75,64.1287,67.3721,124.933,105.246,105.853,0.00488617,0.358377,20.6466,175.903,-0.0520358,0.0,0.0
408,101.75,62.8344,66.9461,131.593,104.601,106.446,0.00462207,0.329502,20.6813,173.931,-0.158123,0.0,0.0
476,118.75,61.2785,65.9808,127.792,104.707,106.233,0.00471685,0.296365,20.7167,172.05,-0.130887,0.0,0.0
544,135.75,59.6521,64.5355,132.376,104.952,106.777,0.00443317,0.270963,20.7474,170.288,-0.1559,0.0,0.0
612,152.75,57.9657,63.6874,130.931,105.056,107.343,0.0045061,0.262277,20.7574,168.707,-0.194868,0.0,0.0
680,169.75,57.489,61.9125,130.249,104.797,106.602,0.00410449,0.259327,20.7604,167.166,-0.154469,0.0,0.0
748,186.75,56.6844,61.8563,126.807,104.353,106.036,0.00431728,0.258458,20.7644,165.644,-0.144742,0.0,0.0
816,203.75,56.1767,60.5918,129.479,103.948,106.093,0.00401255,0.250878,20.7684,163.973,-0.184755,0.0,0.0
884,220.75,56.3317,60.4565,133.627,103.688,106.377,0.00431735,0.247041,20.7742,162.401,-0.23163,0.0,0.0
952,237.75,55.7614,59.3037,132.469,103.77,105.845,0.00425462,0.242379,20.7785,160.97,-0.179059,0.0,0.0
1020,254.75,55.2523,59.3826,135.21,104.055,106.05,0.00442794,0.242476,20.7787,159.539,-0.171798,0.0,0.0
1088,271.75,55.3704,58.7723,132.389,104.731,106.176,0.00452484,0.239392,20.7827,158.128,-0.124,0.0,0.0
1156,288.75,55.0673,58.1821,128.93,105.358,107.647,0.00434392,0.238347,20.7833,156.596,-0.194441,0.0,0.0
1224,305.75,54.7042,57.7237,127.551,105.734,107.518,0.00426774,0.232228,20.7903,155.135,-0.151392,0.0,0.0
1292,322.75,55.0031,58.1915,130.324,105.643,108.105,0.00427965,0.23129,20.7901,153.854,-0.208407,0.0,0.0
1360,339.75,54.1391,57.1904,134.994,105.275,107.764,0.00423532,0.228467,20.7954,152.413,-0.211413,0.0,0.0
1428,356.75,54.0487,57.5223,126.126,104.9,106.573,0.00460301,0.225426,20.7967,150.971,-0.143195,0.0,0.0
1496,373.75,54.0283,57.9724,131.295,105.333,107.499,0.00415674,0.223818,20.7994,149.56,-0.184088,0.0,0.0
1564,390.75,54.01,56.9258,131.167,105.445,107.848,0.00417631,0.220148,20.8071,148.209,-0.203785,0.0,0.0
1632,407.75,53.4239,56.7053,132.9,105.179,107.873,0.00409369,0.219551,20.8066,146.888,-0.228727,0.0,0.0
1700,424.75,53.4822,56.5053,130.608,104.543,107.372,0.00393879,0.219184,20.8079,145.537,-0.241587,0.0,0.0
1768,441.75,53.5779,56.6496,132.995,104.674,106.675,0.00384765,0.220614,20.8043,144.095,-0.171294,0.0,0.0
1836,458.75,53.6104,56.6642,134.077,104.879,107.305,0.00377726,0.223916,20.8033,142.794,-0.206834,0.0,0.0
1904,475.75,53.8279,56.4959,130.593,105.006,107.407,0.00315333,0.228935,20.7948,141.483,-0.204538,0.0,0.0
1972,492.75,54.1178,56.9287,132.176,105.024,107.222,0.0030865,0.233493,20.7888,140.052,-0.187387,0.0,0.0
2040,509.75,54.332,57.2209,134.246,104.849,106.388,0.00352454,0.233039,20.79,138.591,-0.131746,0.0,0.0
2108,526.75,54.7729,57.4115,128.05,104.554,107.088,0.00355904,0.23607,20.7891,137.149,-0.216594,0.0,0.0
2176,543.75,54.8013,57.5595,129.938,104.381,106.198,0.00325008,0.239505,20.7838,135.708,-0.156064,0.0,0.0
2244,560.75,55.1324,57.4223,130.64,104.77,107.321,0.00363922,0.239683,20.7836,134.377,-0.21758,0.0,0.0
2312,577.75,54.9286,57.9092,129.149,105.056,107.674,0.00318089,0.241759,20.7832,132.926,-0.222616,0.0,0.0
2380,594.75,55.5667,58.2797,128.883,104.924,107.595,0.00306311,0.245137,20.7767,131.414,-0.227362,0.0,0.0
2448,611.75,55.5101,58.2095,131.427,104.674,106.866,0.00295927,0.253435,20.7675,129.963,-0.187432,0.0,0.0
2516,628.75,56.7581,58.7894,129.09,105.101,107.588,0.00274666,0.259042,20.7617,128.562,-0.211557,0.0,0.0
2584,645.75,57.5782,60.6618,132.548,105.458,107.588,0.00278364,0.269671,20.7489,127.021,-0.180873,0.0,0.0
2652,662.75,58.0629,61.4857,130.207,105.182,107.453,0.00280772,0.279638,20.7406,125.379,-0.193176,0.0,0.0
2720,679.75,59.1013,61.7756,126.521,105.788,108.245,0.00298075,0.293597,20.7251,123.698,-0.207688,0.0,0.0
2788,696.75,59.7256,62.6945,125.103,105.357,107.465,0.00269469,0.308257,20.7068,122.056,-0.179194,0.0,0.0
2856,713.75,60.7919,63.7265,128.02,104.013,106.423,0.00285664,0.321961,20.6907,120.245,-0.207162,0.0,0.0
2924,730.75,61.9476,64.8983,124.517,104.016,106.22,0.00278756,0.337159,20.6724,118.333,-0.189628,0.0,0.0
2992,747.75,63.7654,66.7096,124.216,104.981,106.516,0.00270762,0.353354,20.6533,116.461,-0.131336,0.0,0.0
3060,764.75,64.5302,67.2635,125.699,104.86,107.036,0.00298796,0.359801,20.6439,114.5,-0.185755,0.0,0.0
3128,781.75,65.7055,68.9003,128.794,105.012,106.944,0.00303779,0.370006,20.6315,112.458,-0.164955,0.0,0.0
3196,798.75,66.745,69.9521,126.454,105.264,106.932,0.00272393,0.385998,20.6137,110.426,-0.142147,0.0,0.0
3264,815.75,67.7604,71.2645,123.954,105.423,106.619,0.00312226,0.397396,20.5956,108.214,-0.102025,0.0,0.0
3332,832.75,68.438,72.5561,120.673,105.768,106.432,0.0032438,0.407392,20.5844,106.082,-0.0566234,0.0,0.0
3400,849.75,69.4745,73.6887,122.386,105.426,105.731,0.00352973,0.409065,20.5819,103.961,-0.026137,0.0,0.0
3468,866.75,69.9486,73.6417,122.094,104.821,105.779,0.00318286,0.402898,20.5859,101.869,-0.0822447,0.0,0.0
3536,883.75,70.102,74.7586,124.245,104.399,105.131,0.00354215,0.397466,20.5884,99.6968,-0.0631775,0.0,0.0
3604,900.75,69.9669,74.4769,129.629,104.147,104.668,0.00321164,0.390863,20.5911,97.7151,-0.0451067,0.0,0.0
3672,917.75,70.0138,74.2246,124.192,104.167,104.9,0.00311018,0.393216,20.5865,95.8034,-0.0633681,0.0,0.0
3740,934.75,69.824,73.834,124.99,104.196,104.67,0.00336798,0.378744,20.5978,93.8917,-0.0410914,0.0,0.0
3808,951.75,68.3996,72.9916,128.578,104.312,104.684,0.00315547,0.31346,20.6715,92.2603,-0.0322107,0.0,0.0
3876,968.75,63.9527,69.12,128.983,104.459,106.34,0.00265269,0.204825,20.7951,91.3495,-0.161383,0.0,0.0
3944,985.75,59.8131,64.9739,129.842,104.65,106.861,0.0027471,0.167411,20.8404,90.719,-0.189081,0.0,0.0
4012,1002.75,56.3027,60.8304,131.154,105.013,107.36,0.00325396,0.150454,20.8598,90.3286,-0.199921,0.0,0.0
4080,1019.75,53.9549,57.8754,136.65,105.44,107.324,0.0030638,0.138008,20.8729,89.9083,-0.160165,0.0,0.0
4148,1036.75,51.934,55.2482,133.604,105.736,108.644,0.00380211,0.131137,20.8821,89.4679,-0.245392,0.0,0.0
4216,1053.75,50.3975,53.6647,137.529,105.735,108.253,0.00402533,0.126566,20.8887,89.1376,-0.212831,0.0,0.0
4284,1070.75,48.89,51.5982,138.841,105.633,108.09,0.00386753,0.123409,20.8947,88.9675,-0.207995,0.0,0.0
4352,1087.75,48.3366,51.2446,141.09,105.485,108.226,0.00408962,0.120229,20.899,88.6472,-0.23204,0.0,0.0
4420,1104.75,47.248,49.2611,134.987,105.304,107.973,0.00393318,0.118252,20.9013,88.2969,-0.226405,0.0,0.0
4488,1121.75,47.1924,49.0603,135.682,105.132,106.927,0.00431335,0.116021,20.9009,88.0266,-0.153167,0.0,0.0
4556,1138.75,45.8577,48.2977,135.958,104.963,106.675,0.00421808,0.114678,20.9046,87.8765,-0.14634,0.0,0.0
4624,1155.75,45.6344,47.2179,131.957,105.145,107.619,0.00457411,0.112669,20.9089,87.6863,-0.210399,0.0,0.0
4692,1172.75,44.9331,46.8504,136.316,105.392,107.043,0.00440818,0.112149,20.9114,87.4261,-0.140636,0.0,0.0
4760,1189.75,44.4863,45.9106,140.627,105.33,107.946,0.00460221,0.110833,20.9129,87.0858,-0.221852,0.0,0.0
4828,1206.75,44.2709,45.9526,136.325,104.998,106.688,0.00495033,0.109447,20.9132,86.9157,-0.144426,0.0,0.0
4896,1223.75,44.2894,45.3703,138.164,104.502,106.123,0.00495961,0.109143,20.9165,86.8156,-0.139245,0.0,0.0
4964,1240.75,43.8855,45.2614,137.532,104.724,106.782,0.00487616,0.107834,20.9153,86.6354,-0.176061,0.0,0.0
5032,1257.75,43.0318,45.2276,131.299,104.942,106.843,0.00543288,0.106812,20.9163,86.2951,-0.162411,0.0,0.0
5100,1274.75,43.1415,44.4796,137.125,105.023,106.096,0.00540781,0.106069,20.9187,86.145,-0.0919835,0.0,0.0
5168,1291.75,43.2067,44.1575,135.788,104.958,105.963,0.00515826,0.106131,20.9177,86.0649,-0.0862271,0.0,0.0
5236,1308.75,42.9155,44.2478,134.761,104.791,106.335,0.00569732,0.104803,20.9242,85.9048,-0.132226,0.0,0.0
5304,1325.75,42.2041,43.9188,137.415,104.493,106.625,0.00568781,0.104477,20.9243,85.6546,-0.182707,0.0,0.0
5372,1342.75,42.4353,44.1185,136.574,104.099,105.658,0.00592539,0.104318,20.9238,85.4344,-0.134469,0.0,0.0
5440,1359.75,41.9996,43.9888,135.084,103.852,104.902,0.0060416,0.1037,20.9262,85.3343,-0.0910658,0.0,0.0
5508,1376.75,42.3784,43.5548,135.318,103.704,105.198,0.0056649,0.103365,20.9245,85.2342,-0.129426,0.0,0.0
5576,1393.75,41.5825,44.0435,137.374,103.663,105.485,0.00612868,0.103363,20.925,85.064,-0.157602,0.0,0.0
5644,1410.75,41.8101,43.5688,134.236,103.724,104.247,0.00633062,0.102573,20.9284,84.7538,-0.0455055,0.0,0.0
5712,1427.75,41.9254,43.9554,135.53,103.9,105.887,0.00645018,0.101614,20.9286,84.7538,-0.171379,0.0,0.0
5780,1444.75,42.1874,42.835,136.577,104.043,105.824,0.00679855,0.102044,20.9278,84.5836,-0.153536,0.0,0.0
5848,1461.75,41.8196,43.2624,138.951,104.358,106.043,0.00676174,0.101733,20.9273,84.4635,-0.144901,0.0,0.0
5916,1478.75,42.008,43.0227,139.535,104.68,105.746,0.00709949,0.101787,20.9314,84.1933,-0.0916458,0.0,0.0
5984,1495.75,41.4353,43.344,134.74,105.009,106.033,0.00713129,0.10051,20.9331,84.0331,-0.087747,0.0,0.0
6052,1512.75,39.5733,40.7722,133.557,105.424,106.286,0.00734461,0.100956,20.9313,83.9931,-0.073616,0.0,0.0
6120,1529.75,39.8978,41.3038,138.388,105.699,106.753,0.00739917,0.10024,20.9331,83.853,-0.089786,0.0,0.0
6188,1546.75,39.5487,41.3521,135.17,105.67,107.667,0.00763175,0.101255,20.9331,83.5627,-0.169309,0.0,0.0
6256,1563.75,39.4742,41.6442,140.556,105.373,106.787,0.00788494,0.100258,20.9321,83.4326,-0.12056,0.0,0.0
6324,1580.75,39.2144,41.0939,137.647,105.084,106.479,0.00769977,0.100229,20.9319,83.4126,-0.119293,0.0,0.0
6392,1597.75,39.1911,41.192,140.212,104.878,105.413,0.00783532,0.0995295,20.9334,83.2725,-0.0460756,0.0,0.0
6460,1614.75,39.8118,40.8734,139.85,105.211,106.538,,,,82.9822,-0.11337,0.0,0.0
6486,1621.25,39.366,40.9875,136.026,105.324,106.959,,,,82.9422,-0.139388,0.0,0.0