File: 01_Data/Oak_HWF/Cone/Oak_Flooring_Cone_HF75Scan_220526_R3.csv
Names,Time,Stack TC,Smoke TC,Exh Press,Smoke Comp,Smoke Meas,CO Meter,CO2 Meter,O2 Meter,Sample Mass,Ext Coeff,Start Test,Flame Verif
Chan Gain,,500,500,1,1,1,1,1,1,1,1,1.0,1.0
Offset,,0,0,0.137018,0,0,0,0,0,0,0,0.0,0.0
Gain,,1,1,25.011,13.1636,15.082,1,1,1,1.00086,1.04368,1.0,1.0
Units,sec,C,C,Pa,%,%,%,%,%,g,/m,,
Baseline,,49.0144,50.9425,135.873,99.732,107.296,0.000526804,0.0493176,21.0038,-450.181,-0.669249,,
56,13.75,46.4367,48.227,135.997,99.3576,102.822,0.00226633,0.0541871,20.9876,209.251,-0.313774,0.0,0.0
112,27.75,71.0974,67.9408,102.584,99.3821,77.6136,0.0347945,0.809543,19.5438,204.747,2.26341,0.0,0.0
168,41.75,80.9771,81.2645,114.536,99.3275,100.177,0.0121367,0.714938,20.2446,201.414,-0.0779898,0.0,0.0
224,55.75,82.4085,84.2096,118.673,99.2716,100.983,0.00952779,0.571178,20.4534,198.842,-0.156455,0.0,0.0
280,69.75,81.5555,85.4555,121.143,99.2584,101.237,0.00795682,0.484325,20.5464,196.71,-0.180682,0.0,0.0
336,83.75,79.8315,85.3709,126.041,99.2363,102.164,0.00770118,0.429332,20.5947,194.658,-0.266168,0.0,0.0
392,97.75,79.3058,85.3203,123.27,99.1957,103.033,0.00743064,0.407063,20.6032,192.696,-0.347495,0.0,0.0
448,111.75,78.2681,84.7163,119.216,99.1724,103.269,0.00624326,0.3885,20.626,190.795,-0.370561,0.0,0.0
504,125.75,77.2048,83.7173,120.47,99.5034,102.963,0.0055471,0.371873,20.6432,189.033,-0.312879,0.0,0.0
560,139.75,76.1261,83.146,125.79,99.8525,104.647,0.00445894,0.36068,20.6537,187.312,-0.42935,0.0,0.0
616,153.75,76.033,81.9163,121.389,100.077,104.354,0.00460121,0.34758,20.6687,185.7,-0.383135,0.0,0.0
672,167.75,75.4659,81.1572,119.862,99.967,104.688,0.00450704,0.341181,20.6697,184.009,-0.422442,0.0,0.0
728,181.75,74.8334,80.9926,125.575,99.5645,105.003,0.00414692,0.334454,20.6785,182.387,-0.486911,0.0,0.0
784,195.75,74.6248,80.1975,123.512,99.8136,105.11,0.00435542,0.333187,20.6765,180.776,-0.473343,0.0,0.0
840,209.75,73.7514,79.4475,124.954,100.055,105.316,0.00400667,0.33132,20.6792,179.015,-0.469126,0.0,0.0
896,223.75,74.3241,79.7942,130.55,100.15,105.457,0.00381243,0.331865,20.679,177.543,-0.472734,0.0,0.0
952,237.75,74.1799,79.6134,124.477,100.16,105.088,0.00432737,0.329111,20.6816,175.912,-0.439711,0.0,0.0
1008,251.75,74.2001,79.685,126.633,100.186,105.081,0.00368285,0.326904,20.6846,174.28,-0.436723,0.0,0.0
1064,265.75,74.0555,79.1739,122.517,100.161,104.699,0.00402483,0.328143,20.6828,172.679,-0.405655,0.0,0.0
1120,279.75,74.2449,79.5582,122.591,100.079,104.458,0.00372186,0.328893,20.6818,171.088,-0.392112,0.0,0.0
1176,293.75,74.3186,78.6333,122.687,100.084,105.106,0.00363864,0.327753,20.6828,169.516,-0.448254,0.0,0.0
1232,307.75,74.3371,78.4347,120.539,100.147,104.785,0.00372769,0.324733,20.6899,168.045,-0.414504,0.0,0.0
1288,321.75,74.0769,78.8169,123.308,100.248,105.557,0.00347431,0.323274,20.6884,166.384,-0.472442,0.0,0.0
1344,335.75,74.2508,78.9454,122.703,100.321,105.161,0.00312699,0.323448,20.686,164.912,-0.431372,0.0,0.0
1400,349.75,74.8349,79.1538,120.275,100.374,105.249,0.00302065,0.32527,20.6861,163.291,-0.434148,0.0,0.0
1456,363.75,74.3816,78.8179,121.545,100.399,105.584,0.00319399,0.323879,20.685,161.75,-0.461053,0.0,0.0
1512,377.75,74.4236,78.4889,122.902,100.414,105.035,0.00328286,0.318261,20.6945,160.268,-0.41192,0.0,0.0
1568,391.75,73.3418,78.6526,122.703,100.393,105.966,0.0030616,0.314209,20.6998,158.757,-0.494667,0.0,0.0
1624,405.75,74.3975,78.2517,123.039,100.398,105.912,0.00305943,0.313745,20.6997,157.186,-0.489534,0.0,0.0
1680,419.75,73.8175,78.4579,126.134,100.371,105.874,0.0030552,0.313122,20.6996,155.724,-0.488685,0.0,0.0
1736,433.75,73.6197,78.2074,125.547,100.328,105.924,0.00322252,0.310905,20.7026,154.183,-0.496904,0.0,0.0
1792,447.75,74.0167,78.0353,124.635,100.187,105.88,0.00326735,0.310634,20.7038,152.752,-0.506,0.0,0.0
1848,461.75,73.9705,78.0463,124.767,99.928,105.425,0.00330673,0.310578,20.7045,151.16,-0.490227,0.0,0.0
1904,475.75,74.4257,78.7419,124,99.8706,105.459,0.00285344,0.314012,20.6987,149.669,-0.498449,0.0,0.0
1960,489.75,74.3756,78.5744,126.486,99.9313,105.816,0.002759,0.313349,20.7018,148.158,-0.523845,0.0,0.0
2016,503.75,74.0165,78.4061,122.087,100.007,105.902,0.00275078,0.31562,20.6979,146.627,-0.524371,0.0,0.0
2072,517.75,74.199,78.5445,121.135,100.092,105.902,0.00305141,0.319595,20.6906,145.125,-0.516575,0.0,0.0
2128,531.75,74.7323,78.9545,122.752,100.097,105.298,0.0029698,0.322231,20.6895,143.504,-0.463784,0.0,0.0
2184,545.75,75.2649,79.2757,124.794,100.145,105.755,0.0032006,0.322447,20.693,141.933,-0.498988,0.0,0.0
2240,559.75,74.9063,79.0977,121.951,100.167,106.179,0.00282875,0.327241,20.6834,140.311,-0.533668,0.0,0.0
2296,573.75,75.4785,79.8384,121.448,100.09,105.77,0.00274393,0.335178,20.6683,138.74,-0.505412,0.0,0.0
2352,587.75,76.5353,80.6735,121.402,99.9799,105.532,0.00272586,0.343797,20.6569,137.078,-0.494788,0.0,0.0
2408,601.75,76.8093,81.4886,119.94,99.9939,105.694,0.00266299,0.351122,20.6506,135.397,-0.507545,0.0,0.0
2464,615.75,77.2456,81.8984,123.003,100.057,105.475,0.00265455,0.361753,20.6386,133.675,-0.482817,0.0,0.0
2520,629.75,78.0624,82.7403,123.832,100.153,105.451,0.00289267,0.375205,20.6227,131.994,-0.471882,0.0,0.0
2576,643.75,79.2835,83.1798,121.867,100.282,105.34,0.00251441,0.391161,20.6027,130.142,-0.450539,0.0,0.0
2632,657.75,79.7787,84.6535,124.399,100.304,105.166,0.0027895,0.407222,20.5831,128.251,-0.433275,0.0,0.0
2688,671.75,81.1739,85.4903,120.558,100.217,104.831,0.00315618,0.421483,20.5676,126.379,-0.412096,0.0,0.0
2744,685.75,81.7108,86.626,116.098,100.11,104.156,0.00309571,0.435664,20.553,124.387,-0.362709,0.0,0.0
2800,699.75,82.6125,87.659,121.683,99.9473,103.826,0.00334098,0.444823,20.5395,122.306,-0.348582,0.0,0.0
2856,713.75,84.2296,88.8912,124.838,99.7324,103.968,0.00358993,0.45652,20.527,120.274,-0.380823,0.0,0.0
2912,727.75,84.7652,89.787,119.826,99.3865,103.116,0.00370597,0.459039,20.5245,118.282,-0.3373,0.0,0.0
2968,741.75,85.5986,90.0691,117.879,99.0816,102.354,0.00328011,0.462343,20.5196,116.33,-0.297467,0.0,0.0
3024,755.75,85.8962,91.0498,115.966,98.7791,102.304,0.00359886,0.462163,20.5204,114.349,-0.321013,0.0,0.0
3080,769.75,86.0852,91.427,123.657,98.5698,101.837,0.00378322,0.45788,20.526,112.317,-0.29857,0.0,0.0
3136,783.75,85.7161,91.5422,117.084,98.4855,102.428,0.00369628,0.451617,20.5337,110.415,-0.359384,0.0,0.0
3192,797.75,85.8551,91.4771,118.002,98.4967,102.135,0.0029744,0.444941,20.5386,108.624,-0.332096,0.0,0.0
3248,811.75,85.3521,90.8342,117.412,98.573,101.919,0.00318706,0.432325,20.5555,106.812,-0.305634,0.0,0.0
3304,825.75,84.8081,90.6992,116.83,98.6915,102.56,0.00275392,0.412413,20.5798,105.131,-0.352047,0.0,0.0
3360,839.75,84.1078,89.5694,115.814,98.8679,102.738,0.00321016,0.398986,20.593,103.619,-0.351506,0.0,0.0
3416,853.75,83.3748,88.799,119.208,99.0688,103.216,0.00298411,0.384371,20.6082,102.068,-0.375482,0.0,0.0
3472,867.75,82.0847,88.0172,119.351,99.2411,103.733,0.00304391,0.369698,20.6255,100.657,-0.405301,0.0,0.0
3528,881.75,81.321,86.5574,119.716,99.4604,103.15,0.00270651,0.359118,20.6362,99.3358,-0.333436,0.0,0.0
3584,895.75,80.3257,85.9474,124.577,99.6171,103.372,0.00285889,0.350446,20.6421,98.0146,-0.338735,0.0,0.0
3640,909.75,79.7361,84.9043,120.359,99.7143,103.672,0.00291966,0.340034,20.6546,96.7635,-0.356344,0.0,0.0
3696,923.75,78.7261,84.1462,124.746,99.724,104.129,0.00300219,0.32612,20.6674,95.6226,-0.395731,0.0,0.0
3752,937.75,77.5455,82.9155,124.299,99.7308,103.503,0.00318357,0.297101,20.7088,94.6717,-0.339903,0.0,0.0
3808,951.75,74.3388,80.1242,128.218,99.7308,105.478,0.00330087,0.236114,20.7893,94.0312,-0.512912,0.0,0.0
3864,965.75,71.8058,76.9312,128.257,99.7312,106.227,0.00358624,0.1984,20.8224,93.6008,-0.577723,0.0,0.0
3920,979.75,69.2086,74.332,130.289,99.7115,107.025,0.00369982,0.177884,20.8399,93.2305,-0.647978,0.0,0.0
3976,993.75,67.0895,71.4538,130.842,99.6557,106.942,0.00351794,0.166308,20.8482,92.8401,-0.646055,0.0,0.0
4032,1007.75,65.5381,69.9353,132.957,99.5998,106.911,0.00394006,0.158278,20.8545,92.5799,-0.648508,0.0,0.0
4088,1021.75,64.5345,68.5469,126.93,99.5456,106.91,0.00441343,0.153013,20.8592,92.2396,-0.653375,0.0,0.0
4144,1035.75,63.9828,67.016,128.588,99.4504,107.002,0.00407781,0.148983,20.8612,92.0695,-0.670015,0.0,0.0
4200,1049.75,62.6685,66.0723,129.459,99.3548,106.608,0.00388243,0.145323,20.8666,91.8293,-0.645088,0.0,0.0
4256,1063.75,61.6192,64.7524,132.044,99.1941,106.616,0.00418383,0.142781,20.8692,91.539,-0.66058,0.0,0.0
4312,1077.75,61.2664,64.0589,128.855,98.9888,106.46,0.00446522,0.140559,20.8717,91.2688,-0.666136,0.0,0.0
4368,1091.75,60.5402,63.4866,130.104,98.7719,106.264,0.00470011,0.138809,20.8778,91.0686,-0.669345,0.0,0.0
4424,1105.75,59.9743,62.3739,134.266,98.7414,106.179,0.00491818,0.137476,20.8763,90.8084,-0.664836,0.0,0.0
4480,1119.75,59.7882,61.9775,131.743,98.7847,106.389,0.00515432,0.136187,20.8787,90.6583,-0.678894,0.0,0.0
4536,1133.75,59.5027,61.6365,130.161,98.7896,106.436,0.00515169,0.135097,20.8834,90.4581,-0.682525,0.0,0.0
4592,1147.75,58.8795,61.422,133.898,98.8072,106.3,0.00545734,0.134198,20.8839,90.2279,-0.669201,0.0,0.0
4648,1161.75,58.2674,61.0935,128.322,98.8502,106.505,0.00537085,0.132888,20.8854,90.0377,-0.682841,0.0,0.0
4704,1175.75,57.5745,60.4356,134.305,99.0081,106.926,0.00535378,0.131097,20.889,89.8376,-0.704362,0.0,0.0
4760,1189.75,57.7287,60.1711,130.73,99.1636,106.714,0.00569582,0.131317,20.8899,89.6474,-0.671811,0.0,0.0
4816,1203.75,57.322,59.3491,127.682,99.2134,107.158,0.00611172,0.129759,20.8912,89.5673,-0.70524,0.0,0.0
4872,1217.75,56.7594,59.2411,128.99,99.2174,106.67,0.00622772,0.129558,20.8906,89.2971,-0.663091,0.0,0.0
4928,1231.75,55.1056,57.3989,128.475,99.3078,107.239,0.00662789,0.128642,20.8964,89.157,-0.703411,0.0,0.0
4984,1245.75,55.4306,57.2634,132.5,99.3608,106.725,0.00648401,0.1282,20.8942,88.9968,-0.654567,0.0,0.0
5040,1259.75,54.6177,57.1639,137.621,99.4773,107.286,0.00659765,0.127741,20.8962,88.8267,-0.691803,0.0,0.0
5096,1273.75,54.8518,56.9981,130.893,99.5195,107.431,0.00679985,0.128018,20.8945,88.6866,-0.700285,0.0,0.0
5152,1287.75,54.65625,57.167,129.167,99.5115,107.341,0.00734951,0.126834,20.8976,88.4564,-0.693374,0.0,0.0
5208,1301.75,54.4492,56.6933,131.299,99.4279,107.132,0.00706958,0.126639,20.8981,88.2662,-0.683263,0.0,0.0
5264,1315.75,54.3394,56.9273,133.871,99.319,107.252,0.00762702,0.127168,20.8985,88.1461,-0.703553,0.0,0.0
5320,1329.75,54.0804,56.1287,135.533,99.2439,106.906,0.00748117,0.12656,20.9002,88.036,-0.680848,0.0,0.0
5364,1340.75,53.7241,56.1904,129.085,99.2503,106.897,,,,87.8959,-0.679467,0.0,0.0