File: 01_Data/Oak_HWF/Cone/Oak_Flooring_Cone_HF50Scan_220914_R1.csv
Names,Time,Stack TC,Smoke TC,Exh Press,Smoke Comp,Smoke Meas,CO Meter,CO2 Meter,O2 Meter,Sample Mass,Ext Coeff,Start Test,Flame Verif
Chan Gain,,500,500,1,1,1,1,1,1,1,1,1.0,1.0
Offset,,0,0,0.139139,0,0,0,0,0,0,0,0.0,0.0
Gain,,1,1,25.011,13.0826,14.7555,1,1,1,1.00088,1.03743,1.0,1.0
Units,sec,C,C,Pa,%,%,%,%,%,g,/m,,
Baseline,,45.0001,46.0844,142.25,99.2069,101.929,-0.00059237,0.0482917,20.9963,-445.825,-0.246303,,
57,14,44.2402,45.2341,144.252,99.7886,102.983,-0.000665314,0.049128,20.9943,217.632,-0.286735,0.0,0.0
114,28.25,44.9937,45.577,137.528,99.7251,102.71,0.000245496,0.0716685,20.958,217.311,-0.26842,0.0,1.0
171,42.5,57.552,54.0605,127.82,99.71,98.8058,0.00323568,0.489817,20.4243,215.159,0.0828936,0.0,0.0
228,56.75,69.676,66.2773,124.971,99.7032,97.0942,0.00458131,0.578438,20.3807,212.767,0.241299,0.0,0.0
285,71,74.85,73.3808,122.105,99.7235,99.0819,0.00386244,0.516976,20.4705,210.335,0.0587439,0.0,0.0
342,85.25,76.3103,77.0941,124.397,99.8082,99.9559,0.00311176,0.465388,20.5366,208.303,-0.0134603,0.0,0.0
399,99.5,76.9288,78.6119,130.163,99.8844,100.996,0.00292281,0.431894,20.5771,206.402,-0.100682,0.0,0.0
456,113.75,75.9462,79.0878,126.622,99.8229,100.93,0.00274827,0.399445,20.6117,204.39,-0.10036,0.0,0.0
513,128,74.9864,79.826,134.193,99.6237,101.013,0.00241122,0.375229,20.6383,202.699,-0.126008,0.0,0.0
570,142.25,74.0328,78.7809,127.28,99.274,101.389,0.00269925,0.360194,20.6561,200.897,-0.191864,0.0,0.0
627,156.5,72.9173,77.6558,128.604,99.0428,101.355,0.00255337,0.343252,20.6758,199.366,-0.209967,0.0,0.0
684,170.75,72.2315,77.7652,128.9,98.8488,100.419,0.00228672,0.331433,20.6855,197.714,-0.143407,0.0,0.0
741,185,71.1525,76.8727,131.808,98.8244,101.104,0.00212232,0.321991,20.6974,196.253,-0.207507,0.0,0.0
798,199.25,70.8588,76.1568,133.145,98.8599,101.051,0.00164274,0.314204,20.709,194.762,-0.199493,0.0,0.0
855,213.5,70.1181,74.8647,129.822,98.9111,101.355,0.00187566,0.305138,20.719,193.25,-0.222121,0.0,0.0
912,227.75,70.1794,74.0192,131.053,99.0308,101.733,0.00206863,0.297742,20.7252,191.889,-0.245007,0.0,0.0
969,242,69.58,73.8187,130.157,99.1462,101.814,0.00173406,0.290675,20.7315,190.358,-0.241658,0.0,0.0
1026,256.25,69.0938,73.0921,131.464,99.3494,103.058,0.00174363,0.285247,20.7366,189.036,-0.333557,0.0,0.0
1083,270.5,69.2527,72.5924,131.152,99.555,102.906,0.00196635,0.281072,20.7436,187.545,-0.301253,0.0,0.0
1140,284.75,68.2816,72.8609,126.387,99.7527,102.699,0.00173544,0.278686,20.7472,186.204,-0.26491,0.0,0.0
1197,299,68.5463,72.1158,131.326,99.8673,104.025,0.00174054,0.274463,20.7512,184.753,-0.371181,0.0,0.0
1254,313.25,68.1676,72.4319,133.247,99.8609,103.201,0.00184239,0.269894,20.7572,183.452,-0.299386,0.0,0.0
1311,327.5,68.6794,71.8818,128.383,99.6848,103.087,0.00190513,0.266286,20.7608,182.02,-0.305394,0.0,0.0
1368,341.75,68.4742,71.8198,129.526,99.4536,101.836,0.0018707,0.263255,20.7638,180.629,-0.215416,0.0,0.0
1425,356,68.066,71.5808,131.021,99.5319,102.651,0.0019894,0.262955,20.7642,179.318,-0.280802,0.0,0.0
1482,370.25,68.2821,71.5781,132.048,100.137,103.077,0.00158207,0.263992,20.7629,177.817,-0.263354,0.0,0.0
1539,384.5,68.0516,71.3172,129.479,99.8201,103.425,0.0019646,0.261783,20.7653,176.565,-0.322812,0.0,0.0
1596,398.75,68.1876,71.4987,128.883,100.013,103.401,0.00146838,0.259682,20.7699,175.074,-0.303148,0.0,0.0
1653,413,68.0939,70.9775,127.613,100.485,105.02,0.00169253,0.258431,20.7683,173.883,-0.401679,0.0,0.0
1710,427.25,68.6041,71.8747,130.208,100.393,104.64,0.00153089,0.256558,20.7706,172.462,-0.377046,0.0,0.0
1767,441.5,68.3305,71.3612,131.456,99.6988,103.674,0.00151458,0.25754,20.771,171.171,-0.355808,0.0,0.0
1824,455.75,68.2452,70.8382,129.653,98.917,102.856,0.00169283,0.258767,20.769,169.9,-0.355378,0.0,0.0
1881,470,68.1988,71.3404,129.709,98.6252,102.101,0.00138407,0.258908,20.7702,168.528,-0.315169,0.0,0.0
1938,484.25,69.0146,71.4562,131.246,98.8619,102.747,0.00156489,0.259939,20.7681,167.297,-0.350763,0.0,0.0
1995,498.5,68.6074,71.5478,126.948,99.2213,102.406,0.00175167,0.263007,20.7641,165.876,-0.287504,0.0,0.0
2052,512.75,69.043,71.657,133.041,99.4524,103.631,0.00152299,0.262786,20.7658,164.665,-0.374564,0.0,0.0
2109,527,69.1509,72.1083,129.269,99.5475,102.76,0.00134333,0.262447,20.7667,163.274,-0.289075,0.0,0.0
2166,541.25,69.1664,71.8422,129.317,99.5758,103.765,0.00119029,0.26378,20.7673,162.053,-0.37502,0.0,0.0
2223,555.5,68.9178,71.8299,128.775,99.5111,103.991,0.00126987,0.266502,20.765,160.712,-0.400736,0.0,0.0
2280,569.75,69.4711,72.4074,132.113,99.3135,103.044,0.0010742,0.268388,20.7621,159.3,-0.335576,0.0,0.0
2337,584,69.6614,72.5782,131.658,99.1139,102.851,0.00110176,0.270837,20.76,158.059,-0.33685,0.0,0.0
2394,598.25,69.6028,72.729,130.385,98.9242,102.63,0.00120829,0.27126,20.7588,156.668,-0.334695,0.0,0.0
2451,612.5,69.7848,72.551,132.362,98.8368,102.417,0.000903362,0.274453,20.7533,155.397,-0.323837,0.0,0.0
2508,626.75,70.4303,72.7992,128.996,98.8647,102.941,0.000941754,0.278687,20.7506,153.986,-0.367718,0.0,0.0
2565,641,70.0845,73.7193,127.903,99.0204,102.535,0.0011255,0.28005,20.7477,152.644,-0.31738,0.0,0.0
2622,655.25,69.9935,73.3206,131.801,99.2943,103.049,0.000975661,0.285243,20.7414,151.263,-0.33777,0.0,0.0
2679,669.5,70.9849,73.5242,127.021,99.6313,102.927,0.000980725,0.29046,20.7358,149.872,-0.296197,0.0,0.0
2736,683.75,71.4155,74.0543,129.161,99.8114,103.063,0.00102312,0.300013,20.7243,148.481,-0.29174,0.0,0.0
2793,698,71.9019,74.5445,130.166,99.8489,102.836,0.00108329,0.310848,20.712,146.989,-0.268297,0.0,0.0
2850,712.25,73.113,75.5803,129.457,99.7834,104.041,0.00114452,0.319878,20.7019,145.508,-0.380242,0.0,0.0
2907,726.5,73.688,76.4694,126.129,99.6313,103.226,0.00104557,0.335722,20.6835,143.877,-0.322594,0.0,0.0
2964,740.75,75.1285,77.8377,127.724,99.4832,103.451,0.00136137,0.351494,20.6676,142.315,-0.355882,0.0,0.0
3021,755,75.8636,78.3236,123.989,99.3375,102.142,0.00139963,0.36868,20.6481,140.564,-0.253334,0.0,0.0
3078,769.25,77.205,79.8004,127.117,99.3179,103.008,0.00156267,0.386962,20.6256,138.902,-0.331952,0.0,0.0
3135,783.5,78.1484,81.1085,127.37,99.9216,101.577,0.00177912,0.40397,20.6057,136.971,-0.149493,0.0,0.0
3192,797.75,78.6988,82.3941,125.688,100.071,102.102,0.00227565,0.41975,20.5867,135.149,-0.182902,0.0,0.0
3249,812,81.0016,84.0739,126.699,99.7028,100.771,0.00205229,0.435955,20.5666,133.227,-0.0969383,0.0,0.0
3306,826.25,82.2014,84.8827,125.942,100.295,101.579,0.00236311,0.451865,20.5473,131.156,-0.115723,0.0,0.0
3363,840.5,82.685,86.1024,122.039,100.421,101.758,0.0022592,0.466131,20.5286,129.194,-0.120357,0.0,0.0
3420,854.75,84.4099,87.4421,122.158,99.7303,99.7321,0.00231057,0.47934,20.5145,127.072,-0.000162727,0.0,0.0
3477,869,85.0044,88.5247,120.095,98.9059,99.4448,0.00239453,0.490113,20.4999,125,-0.0494537,0.0,0.0
3534,883.25,85.4819,89.3877,125.127,98.6491,99.1355,0.00312443,0.494056,20.4947,122.838,-0.044751,0.0,0.0
3591,897.5,85.8271,89.8662,117.504,99.1067,99.2755,0.00275027,0.494008,20.4911,120.796,-0.0154873,0.0,0.0
3648,911.75,86.6381,90.7884,124.713,99.6908,100.589,0.00264436,0.484718,20.4994,118.725,-0.0815883,0.0,0.0
3705,926,86.9161,90.6924,118.991,99.8409,99.4403,0.00278013,0.47592,20.511,116.853,0.0365874,0.0,0.0
3762,940.25,86.6843,91.3287,125.01,99.6916,99.3764,0.00246762,0.448347,20.5408,115.021,0.0288208,0.0,0.0
3819,954.5,85.3444,90.2167,121.814,99.4884,100.422,0.002407,0.418118,20.5752,113.23,-0.0849986,0.0,0.0
3876,968.75,84.5396,89.2408,126.49,99.3858,100.806,0.00181806,0.384207,20.611,111.718,-0.129131,0.0,0.0
3933,983,82.8664,88.1847,124.998,99.369,101.733,0.00154059,0.346207,20.653,110.397,-0.213944,0.0,0.0
3990,997.25,80.5443,85.7974,127.49,99.4233,102.337,0.00127903,0.318654,20.686,109.146,-0.26283,0.0,0.0
4047,1011.5,78.4951,84.0269,128.563,99.6077,103.205,0.00122038,0.283129,20.7289,108.075,-0.322879,0.0,0.0
4104,1025.75,75.8625,81.3798,130.685,99.7666,103.361,0.00103971,0.241697,20.7759,107.284,-0.322102,0.0,0.0
4161,1040,73.5138,78.5939,137.661,99.777,103.491,0.00116965,0.204817,20.8121,106.574,-0.332566,0.0,0.0
4218,1054.25,70.1392,75.5336,130.222,99.686,103.621,0.00122563,0.178279,20.8398,106.023,-0.352348,0.0,0.0
4275,1068.5,67.6948,72.7618,133.251,99.557,103.364,0.00172627,0.151713,20.8727,105.603,-0.341518,0.0,0.0
4332,1082.75,64.975,69.4306,136.164,99.5443,103.508,0.00237997,0.136279,20.8886,105.203,-0.355325,0.0,0.0
4389,1097,62.5628,66.7419,132.408,99.6497,102.736,0.00207643,0.129526,20.8961,104.952,-0.277543,0.0,0.0
4446,1111.25,61.3756,65.0285,132.462,99.7722,104.092,0.00201365,0.128591,20.8964,104.642,-0.385751,0.0,0.0
4503,1125.5,59.7858,63.3393,135.964,99.8026,103.439,0.00245262,0.128732,20.895,104.542,-0.325681,0.0,0.0
4560,1139.75,59.672,61.8568,138.008,99.6089,103.515,0.00268297,0.134765,20.8903,104.232,-0.350008,0.0,0.0
4617,1154,58.4893,61.1783,138.514,99.343,103.061,0.00248316,0.124424,20.9016,104.092,-0.334341,0.0,0.0
4674,1168.25,58.0448,60.0617,136.689,99.1897,103.184,0.00284911,0.118743,20.9099,103.922,-0.359245,0.0,0.0
4731,1182.5,57.8818,59.4128,136.486,99.6589,102.518,0.00277138,0.116841,20.9101,103.661,-0.257418,0.0,0.0
4788,1196.75,57.1803,58.5679,135.265,100.005,103.436,0.00295553,0.115941,20.9137,103.551,-0.307005,0.0,0.0
4845,1211,57.0509,58.6783,134.048,99.9279,104.036,0.00319659,0.113841,20.9157,103.281,-0.366637,0.0,0.0
4902,1225.25,56.5767,57.8593,138.395,99.5503,102.104,0.00345394,0.11348,20.9175,103.221,-0.230491,0.0,0.0
4959,1239.5,55.1927,55.9392,135.812,99.7443,103.737,0.00370416,0.113123,20.9171,102.961,-0.357186,0.0,0.0
5016,1253.75,54.8603,56.1389,137.737,100.051,103.791,0.00352984,0.113001,20.917,102.881,-0.333917,0.0,0.0
5073,1268,54.9079,56.2371,135.122,100.351,104.089,0.0036366,0.112201,20.9172,102.62,-0.332786,0.0,0.0
5130,1282.25,54.3528,55.4844,134.808,100.404,104.64,0.00343766,0.111581,20.9197,102.52,-0.376071,0.0,0.0
5187,1296.5,54.4891,55.7846,135.739,100.019,104.046,0.00413428,0.111465,20.9176,102.39,-0.359293,0.0,0.0
5244,1310.75,54.4242,55.9387,134.543,99.3055,103.628,0.00374851,0.110736,20.9194,102.14,-0.387703,0.0,0.0
5301,1325,54.4812,55.3579,138.497,98.6995,101.657,0.00407144,0.11165,20.9186,102.1,-0.268658,0.0,0.0
5358,1339.25,54.2318,55.1117,135.639,98.7637,102.575,0.0040217,0.110364,20.9206,101.83,-0.344599,0.0,0.0
5415,1353.5,53.909,55.1993,136.976,99.363,103.135,,,,101.82,-0.339071,0.0,0.0
5433,1358,53.6511,55.0549,138.337,99.5339,103.432,,,,101.64,-0.34962,0.0,0.0