File: 01_Data/Oak_HWF/Cone/Oak_Flooring_Cone_HF25Scan_220914_R4.csv
Names,Time,Stack TC,Smoke TC,Exh Press,Smoke Comp,Smoke Meas,CO Meter,CO2 Meter,O2 Meter,Sample Mass,Ext Coeff,Start Test,Flame Verif
Chan Gain,,500,500,1,1,1,1,1,1,1,1,1.0,1.0
Offset,,0,0,0.139139,0,0,0,0,0,0,0,0.0,0.0
Gain,,1,1,25.011,13.0826,14.7555,1,1,1,1.00088,1.03743,1.0,1.0
Units,sec,C,C,Pa,%,%,%,%,%,g,/m,,
Baseline,,39.9733,40.5004,151.103,99.3924,103.804,0.000426454,0.0505686,20.9957,-447.348,-0.395154,,
74,18.25,37.0121,37.7282,149.97,99.9583,103.409,0.000412702,0.0508342,20.9971,235.157,-0.308879,0.0,0.0
148,36.75,36.7697,37.945,156.96,100.318,103.802,0.000301074,0.0504278,20.9963,235.057,-0.310715,0.0,0.0
222,55.25,37.2714,37.9388,149.966,100.061,103.724,0.000405129,0.0505219,20.9953,234.967,-0.327201,0.0,0.0
296,73.75,37.5505,37.9457,153.833,99.5139,102.649,0.000194141,0.0504041,20.997,234.717,-0.282246,0.0,0.0
370,92.25,37.3094,38.0041,151.437,99.8988,102.958,3.6664e-05,0.0508079,20.9958,234.547,-0.274503,0.0,0.0
444,110.75,37.7561,38.3138,150.789,99.6537,102.899,0.000245648,0.05104,20.9971,234.346,-0.291645,0.0,0.0
518,129.25,37.2446,38.4285,151.369,99.1119,102.103,0.000556629,0.0519767,20.9969,234.066,-0.270572,0.0,0.0
592,147.75,37.6619,38.5082,150.714,99.4193,102,0.000801127,0.0533446,20.9975,233.726,-0.233194,0.0,0.0
666,166.25,37.8278,38.7348,152.789,99.6908,101.645,0.00112091,0.0541882,20.9963,233.396,-0.176664,0.0,0.0
740,184.75,38.1401,38.6779,154.361,99.2863,101.514,0.00162532,0.0555539,20.9975,232.975,-0.201919,0.0,0.0
814,203.25,38.5891,38.7729,149.657,98.6931,100.026,0.00239818,0.0569886,20.9958,232.425,-0.122058,0.0,0.0
888,221.75,38.2628,39.0434,148.527,98.5078,100.082,0.00257857,0.0594592,20.9914,231.794,-0.144275,0.0,0.0
962,240.25,39.7673,39.4217,136.486,98.9206,98.3141,0.00350331,0.194541,20.7115,230.773,0.0559702,0.0,1.0
1036,258.75,56.7479,52.47,128.599,99.1398,99.887,0.00414599,0.470333,20.4894,227.741,-0.0683291,0.0,0.0
1110,277.25,61.2338,59.6263,138.475,99.1318,100.85,0.00376045,0.408557,20.5989,225.238,-0.156353,0.0,0.0
1184,295.75,61.4261,62.3322,135.832,99.0344,102.097,0.00299366,0.356935,20.664,222.916,-0.277165,0.0,0.0
1258,314.25,60.5772,63.0729,140.774,98.9502,102.524,0.00288125,0.315449,20.7154,220.925,-0.322841,0.0,0.0
1332,332.75,58.7344,62.4072,140.268,98.7282,102.339,0.00286673,0.284063,20.7483,219.023,-0.326877,0.0,0.0
1406,351.25,57.6921,61.2759,135.542,98.513,102.229,0.00277239,0.265678,20.7648,217.271,-0.336998,0.0,0.0
1480,369.75,56.7671,60.7075,139.615,98.6943,102.639,0.00266615,0.249844,20.7831,215.57,-0.356634,0.0,0.0
1554,388.25,55.6107,58.6809,147.61,99.3287,103.138,0.00292711,0.235759,20.8008,213.958,-0.342494,0.0,0.0
1628,406.75,54.8888,58.1502,144.712,99.7419,104.506,0.00267084,0.22785,20.8052,212.477,-0.424626,0.0,0.0
1702,425.25,55.1621,58.034,138.524,99.3203,104.201,0.00236961,0.23331,20.8006,210.876,-0.436589,0.0,0.0
1776,443.75,54.0687,57.6129,142.404,99.8177,104.164,0.00233817,0.228486,20.8059,209.274,-0.387897,0.0,0.0
1850,462.25,54.3418,56.8398,141.329,99.5351,103.728,0.0031097,0.219756,20.8159,207.793,-0.375504,0.0,0.0
1924,480.75,53.304,55.9268,144.503,100.32,104.867,0.00281923,0.21351,20.8216,206.352,-0.403352,0.0,0.0
1998,499.25,53.2934,55.776,142.161,99.7064,103.857,0.00303744,0.208647,20.8269,204.92,-0.371149,0.0,0.0
2072,517.75,52.9139,55.4779,145.241,98.5409,102.413,0.00300451,0.203755,20.8316,203.479,-0.350717,0.0,0.0
2146,536.25,52.1739,54.4154,140.438,98.9518,103.36,0.00321139,0.198931,20.8379,202.118,-0.396618,0.0,0.0
2220,554.75,51.7973,54.385,143.789,99.6393,103.406,0.00342223,0.197017,20.8388,200.727,-0.33765,0.0,0.0
2294,573.25,51.9123,54.1395,148.586,99.6473,104.24,0.0032976,0.19526,20.8395,199.386,-0.410021,0.0,0.0
2368,591.75,51.4101,53.1788,143.875,99.3426,104.055,0.00317916,0.19421,20.8411,197.994,-0.421751,0.0,0.0
2442,610.25,52.0231,53.4574,143.763,99.1526,104.221,0.00345747,0.194398,20.8419,196.693,-0.453658,0.0,0.0
2516,628.75,51.7235,53.1372,143.408,99.0847,103.805,0.00336518,0.196054,20.8377,195.352,-0.423485,0.0,0.0
2590,647.25,51.5448,53.2612,147.141,99.0528,103.366,0.00311283,0.196508,20.8397,194.001,-0.387887,0.0,0.0
2664,665.75,51.5277,53.3323,146.307,99.0704,102.868,0.00294109,0.197115,20.838,192.57,-0.34236,0.0,0.0
2738,684.25,51.5288,53.2153,145.897,99.2576,103.769,0.00298984,0.19713,20.8411,191.258,-0.404503,0.0,0.0
2812,702.75,51.3908,53.3333,142.569,99.6289,103.742,0.00302887,0.1988,20.8374,189.957,-0.368154,0.0,0.0
2886,721.25,51.4294,53.2567,144.39,99.6708,103.768,0.00333456,0.199339,20.8338,188.616,-0.366616,0.0,0.0
2960,739.75,51.1374,53.1253,145.649,99.45,103.908,0.00292294,0.199537,20.836,187.235,-0.399031,0.0,0.0
3034,758.25,51.3161,53.5581,145.33,99.1913,103.167,0.00301572,0.200663,20.8354,185.984,-0.357588,0.0,0.0
3108,776.75,51.3163,53.2889,144.948,98.8528,102.977,0.00282872,0.201339,20.8344,184.613,-0.371965,0.0,0.0
3182,795.25,51.7909,53.028,145.35,98.598,102.712,0.00304501,0.201473,20.8326,183.301,-0.371976,0.0,0.0
3256,813.75,51.4192,53.7164,146.419,98.4695,102.45,0.0032734,0.20358,20.8327,181.91,-0.36064,0.0,0.0
3330,832.25,51.7005,53.7922,144.266,98.5809,103.076,0.00303447,0.205907,20.83,180.609,-0.405781,0.0,0.0
3404,850.75,52.2439,53.4612,143.28,98.9594,102.988,0.00282733,0.209725,20.8275,179.298,-0.363113,0.0,0.0
3478,869.25,51.8988,53.444,143.139,99.5838,104.485,0.00281337,0.214012,20.8207,177.947,-0.43722,0.0,0.0
3552,887.75,52.4343,53.8772,147.936,100.096,104.863,0.00289949,0.220252,20.8134,176.485,-0.423379,0.0,0.0
3626,906.25,53.4556,54.6027,140.628,100.28,104.901,0.00302309,0.226697,20.8054,175.054,-0.409943,0.0,0.0
3700,924.75,53.6068,55.3498,145.637,100.072,104.822,0.00260249,0.234971,20.7947,173.583,-0.422036,0.0,0.0
3774,943.25,53.9291,55.9702,140.725,99.5854,104.169,0.00268211,0.244564,20.7869,172.092,-0.40954,0.0,0.0
3848,961.75,55.3209,56.9524,142.335,99.7583,104.804,0.00281336,0.256997,20.7718,170.41,-0.449015,0.0,0.0
3922,980.25,55.993,57.713,137.45,99.8752,104.586,0.00263998,0.269274,20.7569,168.789,-0.419406,0.0,0.0
3996,998.75,57.173,58.8466,142.278,99.468,103.335,0.00300097,0.284553,20.7414,166.997,-0.347084,0.0,0.0
4070,1017.25,58.427,59.8667,142.179,99.0783,103.221,0.00246767,0.301847,20.7192,165.105,-0.372766,0.0,0.0
4144,1035.75,60.1016,61.7829,136.329,99.24,103.165,0.00278221,0.319853,20.6996,163.014,-0.353002,0.0,0.0
4218,1054.25,61.4772,63.1878,135.573,99.4644,103.287,0.00251807,0.340614,20.6771,160.962,-0.343168,0.0,0.0
4292,1072.75,63.057,65.0707,134.235,99.6744,103.474,0.00269266,0.359777,20.6549,158.67,-0.340464,0.0,0.0
4366,1091.25,64.5905,66.3074,136.731,99.601,103.478,0.00285486,0.381643,20.6264,156.238,-0.34753,0.0,0.0
4440,1109.75,66.3177,68.2853,136.569,99.3594,102.845,0.00325972,0.411264,20.5924,153.665,-0.313736,0.0,0.0
4514,1128.25,68.0116,69.5502,136.876,99.2708,102.245,0.00364096,0.433401,20.5674,151.023,-0.268668,0.0,0.0
4588,1146.75,69.2049,71.5111,131.877,99.3466,101.876,0.00313139,0.456141,20.5381,148.281,-0.228833,0.0,0.0
4662,1165.25,70.5036,73.1751,133.988,99.5518,100.568,0.00393225,0.460941,20.5315,145.478,-0.0924056,0.0,0.0
4736,1183.75,71.3631,74.1865,133.161,99.6828,101.577,0.00379761,0.448865,20.5484,142.776,-0.171303,0.0,0.0
4810,1202.25,70.7881,74.1901,135.367,99.7104,102.152,0.00276278,0.411676,20.5936,140.384,-0.220121,0.0,0.0
4884,1220.75,68.9663,72.991,139.997,99.7028,104.339,0.00265796,0.354132,20.6619,138.432,-0.413638,0.0,0.0
4958,1239.25,66.7984,70.9733,133.753,99.6201,104.052,0.00242996,0.315414,20.7041,136.64,-0.396092,0.0,0.0
5032,1257.75,64.7768,68.2138,142.541,99.3486,104.133,0.00231545,0.285364,20.7368,135.009,-0.428013,0.0,0.0
5106,1276.25,62.6759,66.6197,137.744,99.1071,103.382,0.00212815,0.272438,20.7492,133.598,-0.384328,0.0,0.0
5180,1294.75,61.6027,65.0236,137.931,99.908,105.127,0.002692,0.268169,20.7541,132.206,-0.463359,0.0,0.0
5254,1313.25,60.63,63.6917,138.757,99.6069,104.285,0.00359191,0.267879,20.7537,130.775,-0.417673,0.0,0.0
5328,1331.75,60.5981,63.4225,139.58,99.9898,104.517,0.00364754,0.273407,20.7426,129.284,-0.402935,0.0,0.0
5402,1350.25,60.7959,63.2682,143.184,100.329,105.314,0.00323174,0.279692,20.7344,127.833,-0.441312,0.0,0.0
5476,1368.75,60.807,63.0762,135.979,99.5934,103.988,0.00324,0.281433,20.7338,126.421,-0.392942,0.0,0.0
5550,1387.25,60.493,62.7655,142.984,98.5629,103.28,0.00313818,0.278584,20.7364,125.02,-0.42543,0.0,0.0
5624,1405.75,60.663,62.8746,139.318,98.9673,104.263,0.00309873,0.274603,20.741,123.559,-0.474411,0.0,0.0
5698,1424.25,59.8,62.5667,142.734,99.7115,103.978,0.00324725,0.266225,20.7529,122.378,-0.381322,0.0,0.0
5772,1442.75,59.4209,62.0653,142.915,99.3654,104.436,0.00317471,0.257978,20.76,121.137,-0.452923,0.0,0.0
5846,1461.25,58.8317,60.6155,137.839,99.3303,104.328,0.00304367,0.243578,20.7793,120.016,-0.446719,0.0,0.0
5920,1479.75,57.2322,59.6031,141.656,99.8701,104.625,0.00343473,0.227159,20.7948,118.915,-0.423286,0.0,0.0
5994,1498.25,56.3208,58.4645,144.966,99.45,104.422,0.00348184,0.207366,20.8194,118.044,-0.443919,0.0,0.0
6068,1516.75,54.6146,57.3222,146.412,99.8329,105.151,0.00345439,0.184278,20.8464,117.313,-0.472343,0.0,0.0
6142,1535.25,52.5853,54.7241,147.314,100.103,104.989,0.00431038,0.16189,20.8733,116.673,-0.433658,0.0,0.0
6216,1553.75,50.7456,53.4028,144.806,100.243,105.083,0.0054836,0.146073,20.8898,116.062,-0.429115,0.0,0.0
6290,1572.25,48.7095,51.0361,149.19,100.267,104.824,0.0068081,0.132047,20.9033,115.722,-0.404453,0.0,0.0
6364,1590.75,47.315,49.8641,146.4,100.258,104.991,0.0072079,0.120617,20.9157,115.342,-0.419817,0.0,0.0
6438,1609.25,45.8443,48.1893,142.676,100.223,104.703,0.00775996,0.112742,20.9224,115.021,-0.397921,0.0,0.0
6512,1627.75,45.01,46.2956,150.414,100.121,104.272,0.00774244,0.106594,20.9308,114.631,-0.369671,0.0,0.0
6586,1646.25,43.5028,45.5425,150.138,99.9747,104.773,0.00788628,0.104268,20.9325,114.461,-0.426637,0.0,0.0
6660,1664.75,41.5959,42.422,149.599,99.6537,104.002,0.00758188,0.100534,20.9345,114.271,-0.388696,0.0,0.0
6734,1683.25,41.2808,41.6903,148.14,99.4652,103.91,0.00748637,0.10098,20.9326,114,-0.397879,0.0,0.0
6808,1701.75,40.6403,41.4868,150.503,99.8014,103.679,0.00702384,0.0999788,20.9367,113.73,-0.346881,0.0,0.0
6882,1720.25,40.2735,41.1717,148.142,99.8237,104.277,0.00690355,0.100213,20.9362,113.54,-0.397181,0.0,0.0
6956,1738.75,40.0779,41.0337,149.744,99.1522,103.323,0.00669565,0.0997275,20.9357,113.39,-0.374992,0.0,0.0
7030,1757.25,40.0648,40.3477,151.959,99.1973,103.753,0.00640469,0.0992124,20.9366,113.18,-0.40861,0.0,0.0
7086,1771.25,39.7166,40.5336,146.441,99.4468,103.891,,,,113.02,-0.397825,0.0,0.0