File: 01_Data/Oak_HWF/Cone/Oak_Flooring_Cone_HF75Scalar_220526_R1.csv
LABORATORY,FSRI
TEST IDENT,Oak_Flooring_75_1
OPERATOR,Dow
MATERIAL,Oak Flooring
ORIENTATION,Horizontal
HEAT FLUX,75
SURF AREA,0.01
C FACTOR,0.0414514
SPEC HOLDER DIFF,-566
SPECIMEN MASS,157.28
SCAN TIME,0.25
O2 DELAY TIME,11
CO DELAY TIME,11
CO2 DELAY TIME,8
FLOW FACTOR,1
SCAN COUNT,26693
TIME TO IGN,14.25
END OF TEST SCAN,26213
END OF TEST TIME,6553.25
TEST STATUS,1
PRE TEST CMT,Dimensions: 100.08 x 100.07 x 14.15 mm; with tie wires