File: 01_Data/Eucalyptus_Flooring/Cone/Eucalyptus_Flooring_Cone_HF25Scan_220526_R1.csv
Names,Time,Stack TC,Smoke TC,Exh Press,Smoke Comp,Smoke Meas,CO Meter,CO2 Meter,O2 Meter,Sample Mass,Ext Coeff,Start Test,Flame Verif
Chan Gain,,500,500,1,1,1,1,1,1,1,1,1.0,1.0
Offset,,0,0,0.138596,0,0,0,0,0,0,0,0.0,0.0
Gain,,1,1,25.011,13.8491,15.2622,1,1,1,1.00087,1.03118,1.0,1.0
Units,sec,C,C,Pa,%,%,%,%,%,g,/m,,
Baseline,,27.0951,27.9137,140.433,105.407,109.758,0.000809672,0.0547066,20.9835,-452.881,-0.36588,,
91,22.5,24.7618,25.1022,141.064,104.917,108.922,0.000738105,0.0534294,20.988,209.152,-0.338856,0.0,0.0
182,45.25,25.2181,25.7285,140.927,104.895,108.931,0.000737884,0.0539757,20.9881,209.022,-0.341487,0.0,0.0
273,68,25.776,25.8702,141.85,104.78,109.083,0.000731085,0.0531975,20.9874,208.772,-0.36408,0.0,0.0
364,90.75,25.6996,26.6803,143.605,104.785,108.586,0.00033645,0.0547957,20.9874,208.411,-0.322299,0.0,0.0
455,113.5,25.0506,26.8332,141.673,105.349,109.653,0.00107669,0.0566729,20.9871,208.041,-0.362142,0.0,0.0
546,136.25,26.1799,27.2451,138.468,105.56,109.142,0.00141693,0.0589235,20.9843,207.591,-0.301805,0.0,0.0
637,159,26.3812,27.6054,137.175,105.434,108.524,0.00209928,0.0588934,20.9855,207.1,-0.26127,0.0,0.0
728,181.75,27.1437,27.4409,138.32,105.226,107.883,0.00306354,0.064205,20.9768,206.54,-0.225514,0.0,0.0
819,204.5,43.2987,39.6819,109.373,105.409,87.9327,0.0261897,0.760944,20.1133,202.867,1.63973,0.0,0.0
910,227.25,53.0424,52.804,123.78,105.496,109.746,0.00687075,0.453771,20.5159,198.933,-0.357277,0.0,0.0
1001,250,51.0828,53.3864,129.97,104.928,113.069,0.00346766,0.293965,20.7148,196.401,-0.675919,0.0,0.0
1092,272.75,46.2018,49.9558,131.383,104.853,112.204,0.00312222,0.2324,20.789,194.519,-0.612872,0.0,0.0
1183,295.5,41.9853,46.8748,132.136,105.31,111.251,0.00322752,0.205048,20.8212,192.918,-0.49643,0.0,0.0
1274,318.25,40.3394,44.0976,134.738,104.668,110.6,0.00376344,0.184926,20.8422,191.407,-0.498606,0.0,0.0
1365,341,38.2846,41.6748,134.455,104.256,110.232,0.00416265,0.172199,20.8552,190.015,-0.504108,0.0,0.0
1456,363.75,36.8473,40.2481,141.324,104.294,109.44,0.00432114,0.172579,20.8542,188.644,-0.435638,0.0,0.0
1547,386.5,37.5493,39.8803,137.194,104.367,110.121,0.00414414,0.171431,20.8575,187.323,-0.485443,0.0,0.0
1638,409.25,37.0878,39.5982,135.289,104.409,109.947,0.00477628,0.172375,20.8554,186.002,-0.467461,0.0,0.0
1729,432,36.1056,38.3538,133.093,104.497,109.975,0.00462151,0.174146,20.8539,184.671,-0.462185,0.0,0.0
1820,454.75,36.1276,38.0997,136.16,104.561,110.648,0.00539574,0.166985,20.8619,183.31,-0.511811,0.0,0.0
1911,477.5,35.6906,37.4459,136.806,104.748,110.87,0.0054258,0.167666,20.8646,181.868,-0.513774,0.0,0.0
2002,500.25,35.6779,37.3926,134.394,105.153,111.177,0.00505567,0.168266,20.8618,180.507,-0.503921,0.0,0.0
2093,523,35.8227,37.5704,137.392,105.354,111.788,0.00530092,0.166067,20.8621,179.146,-0.536141,0.0,0.0
2184,545.75,35.4203,37.6354,130.968,105.14,112.336,0.00511754,0.165398,20.8655,177.845,-0.59888,0.0,0.0
2275,568.5,35.3314,37.0242,139.563,104.9,111.284,0.00490379,0.167191,20.8628,176.504,-0.534437,0.0,0.0
2366,591.25,35.5941,37.0764,133.267,105.007,111.004,0.00544083,0.167258,20.8624,175.092,-0.502403,0.0,0.0
2457,614,34.8812,37.5486,135.264,105.16,111.04,0.00555628,0.168193,20.8611,173.691,-0.492153,0.0,0.0
2548,636.75,35.2323,37.0199,138.101,105.273,111.949,0.00557008,0.17103,20.8575,172.24,-0.55614,0.0,0.0
2639,659.5,35.139,36.664,136.824,105.259,111.925,0.00589026,0.171481,20.8604,170.809,-0.555382,0.0,0.0
2730,682.25,35.4472,36.8893,133.731,104.857,110.813,0.00634949,0.164352,20.8657,169.397,-0.499688,0.0,0.0
2821,705,35.0308,36.511,132.216,104.559,110.048,0.00513682,0.167212,20.8633,168.006,-0.46282,0.0,0.0
2912,727.75,35.2585,36.4335,136.445,104.671,109.893,0.00554302,0.160072,20.8715,166.665,-0.440341,0.0,0.0
3003,750.5,34.3845,36.3927,140.518,104.908,109.913,0.00526575,0.160354,20.8714,165.394,-0.421635,0.0,0.0
3094,773.25,34.6494,36.0069,135.66,105.018,110.777,0.00542836,0.15836,20.8732,164.123,-0.482916,0.0,0.0
3185,796,34.0139,35.6773,134.17,105.111,110.519,0.00553906,0.161572,20.8709,162.852,-0.453815,0.0,0.0
3276,818.75,34.3199,35.6657,140.613,105.168,110.86,0.00466303,0.163565,20.8659,161.601,-0.476807,0.0,0.0
3367,841.5,34.9637,36.795,130.452,105.257,111.432,0.00476508,0.166662,20.8643,160.31,-0.51565,0.0,0.0
3458,864.25,36.2454,37.6905,133.944,105.349,110.634,0.00478067,0.166926,20.8631,159.028,-0.442775,0.0,0.0
3549,887,35.1236,36.6064,134.284,104.943,111.512,0.00501571,0.16665,20.8638,157.667,-0.54914,0.0,0.0
3640,909.75,35.5816,36.5309,133.522,105.228,110.691,0.00472277,0.168167,20.8622,156.406,-0.457767,0.0,0.0
3731,932.5,35.7176,37.0733,132.403,105.514,112.564,0.00523861,0.17382,20.8567,155.075,-0.585079,0.0,0.0
3822,955.25,36.0042,37.1661,133.574,105.489,111.726,0.00502318,0.178983,20.8484,153.774,-0.519594,0.0,0.0
3913,978,36.1001,37.5214,135.249,105.433,111.057,0.00477049,0.180035,20.8481,152.333,-0.470103,0.0,0.0
4004,1000.75,36.3678,37.6417,134.304,104.812,110.579,0.00474487,0.185113,20.8435,151.082,-0.48452,0.0,0.0
4095,1023.5,36.5672,38.0991,134.297,105.085,110.468,0.00561884,0.184717,20.8425,149.76,-0.451916,0.0,0.0
4186,1046.25,36.5891,38.3084,136.45,105.239,111.599,0.00540696,0.186214,20.8405,148.399,-0.530812,0.0,0.0
4277,1069,36.8474,38.2485,136.095,104.608,110.292,0.00510806,0.186232,20.8406,147.008,-0.478655,0.0,0.0
4368,1091.75,37.2313,38.4324,135.76,104.219,110.312,0.00453916,0.192185,20.8356,145.667,-0.513943,0.0,0.0
4459,1114.5,37.7538,39.0369,132.245,104.22,110.145,0.00423996,0.198029,20.8284,144.196,-0.500114,0.0,0.0
4550,1137.25,37.9502,39.3843,132.245,104.301,110.178,0.00391949,0.204772,20.8212,142.774,-0.495787,0.0,0.0
4641,1160,38.5537,39.972,130.04,104.378,110.558,0.00436991,0.210685,20.8152,141.273,-0.520268,0.0,0.0
4732,1182.75,39.2957,40.728,133.816,104.505,110.918,0.00425197,0.221049,20.8052,139.692,-0.538696,0.0,0.0
4823,1205.5,40.0951,41.8758,129.342,104.854,111.212,0.00417472,0.232934,20.793,138.04,-0.532502,0.0,0.0
4914,1228.25,41.6837,43.0532,131.583,105.174,112.181,0.00366004,0.247611,20.7764,136.259,-0.583438,0.0,0.0
5005,1251,42.6403,44.5497,134.131,105.349,111.294,0.00436428,0.262447,20.7595,134.307,-0.4965,0.0,0.0
5096,1273.75,44.2744,45.8788,127.055,104.904,111.924,0.00389993,0.279833,20.7373,132.315,-0.585904,0.0,0.0
5187,1296.5,45.7536,47.6712,134.27,105.028,111.807,0.00361728,0.287535,20.7275,130.203,-0.565779,0.0,0.0
5278,1319.25,46.6669,48.7717,129.774,105.542,113.777,0.00367679,0.303048,20.7094,128.071,-0.679594,0.0,0.0
5369,1342,47.888,50.4608,125,105.304,111.723,0.00383356,0.327496,20.6813,125.719,-0.535219,0.0,0.0
5460,1364.75,50.6864,51.6188,124.754,105.793,112.673,0.00331675,0.361238,20.6402,123.267,-0.569952,0.0,0.0
5551,1387.5,53.5196,55.7909,126.219,105.897,112.929,0.003369,0.403945,20.5921,120.445,-0.581571,0.0,0.0
5642,1410.25,56.4911,58.9852,121.764,105.912,113.382,0.00343385,0.433771,20.554,117.382,-0.616461,0.0,0.0
5733,1433,59.2804,61.3952,123.272,105.735,112.405,0.00354835,0.456001,20.5268,114.209,-0.553342,0.0,0.0
5824,1455.75,60.7239,63.4332,129.14,105.225,111.707,0.00374477,0.461738,20.5168,110.907,-0.540728,0.0,0.0
5915,1478.5,60.6888,63.429,123.025,105.439,111.295,0.00336608,0.433515,20.5451,107.764,-0.488962,0.0,0.0
6006,1501.25,58.7481,62.5939,129.692,104.82,112.38,0.00282149,0.377868,20.6073,105.202,-0.629973,0.0,0.0
6097,1524,56.4579,60.5236,126.708,104.692,111.866,0.00295433,0.333343,20.6591,102.9,-0.599549,0.0,0.0
6188,1546.75,53.9543,57.8195,130.844,104.678,111.571,0.00317969,0.294007,20.7001,100.938,-0.576844,0.0,0.0
6279,1569.5,51.1959,55.4643,130.506,104.756,110.691,0.00301545,0.261026,20.7392,99.2764,-0.498475,0.0,0.0
6370,1592.25,48.5246,52.0802,129.166,104.855,111.613,0.0037284,0.229396,20.774,97.8652,-0.564952,0.0,0.0
6461,1615,45.7845,49.3803,134.662,104.844,110.805,0.00364786,0.200486,20.8069,96.6742,-0.500134,0.0,0.0
6552,1637.75,43.2283,46.3233,135.973,105.034,112.093,0.00462385,0.165503,20.8473,95.8034,-0.588414,0.0,0.0
6643,1660.5,39.9541,42.9073,137.468,105.419,111.335,0.00506614,0.134732,20.8814,95.1228,-0.493845,0.0,0.0
6734,1683.25,37.7248,39.758,136.943,105.556,110.693,0.00580756,0.122914,20.8987,94.6124,-0.429842,0.0,0.0
6825,1706,35.6929,37.5257,137.687,105.171,109.959,0.00536596,0.117213,20.9042,94.172,-0.402714,0.0,0.0
6916,1728.75,34.6602,35.9272,138.825,105.444,110.387,0.00545653,0.113234,20.9105,93.8217,-0.414407,0.0,0.0
7007,1751.5,33.5588,34.8723,137.352,105.938,111.052,0.00563572,0.111238,20.9133,93.4714,-0.426496,0.0,0.0
7098,1774.25,33.0029,33.9259,134.595,105.794,111.457,0.00588745,0.109297,20.9172,93.1911,-0.471608,0.0,0.0
7189,1797,32.5459,33.8968,137.533,105.383,110.182,0.0059907,0.106532,20.9211,92.9009,-0.402856,0.0,0.0
7280,1819.75,31.9198,32.5604,134.838,105.463,110.607,0.0060954,0.105389,20.9194,92.5105,-0.43077,0.0,0.0
7371,1842.5,30.4898,31.7422,140.361,105.611,110.539,0.00566218,0.105511,20.9204,92.2403,-0.412605,0.0,0.0
7462,1865.25,30.6873,30.9997,139.874,105.794,111.012,0.00643609,0.103544,20.9218,92.0101,-0.435475,0.0,0.0
7553,1888,30.1679,30.8594,135.664,105.883,111.112,0.00634489,0.101852,20.9258,91.6598,-0.436007,0.0,0.0
7644,1910.75,30.1044,30.7462,138.99,105.555,110.363,0.00601312,0.101988,20.9235,91.4296,-0.402892,0.0,0.0
7735,1933.5,29.4815,29.9786,139.767,105.188,108.613,0.00624074,0.104599,20.9208,91.1093,-0.28981,0.0,0.0
7826,1956.25,29.3368,29.8657,138.276,105.219,109.477,0.0060229,0.104171,20.9219,90.9191,-0.358828,0.0,0.0
7917,1979,29.0569,29.2686,138.562,105.318,109.536,0.0059996,0.101975,20.9247,90.6389,-0.355216,0.0,0.0
8008,2001.75,29.0628,29.1173,133.831,105.244,109.949,0.00599953,0.10482,20.9187,90.3887,-0.395622,0.0,0.0
8099,2024.5,28.6965,29.262,139.33,105.288,109.52,0.0056525,0.102565,20.9224,90.1685,-0.356485,0.0,0.0
8190,2047.25,28.804,29.6535,136.439,105.388,109.871,0.00593496,0.100343,20.926,89.9383,-0.376843,0.0,0.0
8281,2070,27.706,27.4203,140.335,105.529,109.554,0.00610604,0.0978631,20.9292,89.638,-0.338658,0.0,0.0
8372,2092.75,26.5327,27.4871,137.62,105.704,110.022,0.00608114,0.0972226,20.9312,89.3778,-0.362163,0.0,0.0
8463,2115.5,26.6868,27.9086,139.068,105.948,110.305,0.00603574,0.0969641,20.932,89.2177,-0.364498,0.0,0.0
8554,2138.25,26.8466,26.8617,141.872,105.332,110.077,0.00591453,0.0967115,20.9309,88.9775,-0.398604,0.0,0.0
8645,2161,26.5547,27.3034,140.374,104.506,108.721,,0.0967174,,88.8273,-0.357694,0.0,0.0
8681,2170,26.5079,27.5877,138.456,104.302,108.634,,,,88.7873,-0.368058,0.0,0.0