File: 01_Data/Eucalyptus_Flooring/Cone/Eucalyptus_Flooring_Cone_HF25Scalar_220526_R1.csv
LABORATORY,FSRI
TEST IDENT,Oak_Flooring_25_1
OPERATOR,Dow
MATERIAL,Engineered Hardwood Floor
ORIENTATION,Horizontal
HEAT FLUX,25
SURF AREA,0.01
C FACTOR,0.0412233
SPEC HOLDER DIFF,-566
SPECIMEN MASS,161.8
SCAN TIME,0.25
O2 DELAY TIME,11
CO DELAY TIME,11
CO2 DELAY TIME,8
FLOW FACTOR,1
SCAN COUNT,8681
TIME TO IGN,187
END OF TEST SCAN,8201
END OF TEST TIME,2050.25
TEST STATUS,1
PRE TEST CMT,Dimensions: 100.25 x 100.13 x 14.22 mm; with tie wires