File: 01_Data/Eucalyptus_Flooring/Cone/Eucalyptus_Flooring_Cone_HF25Scan_220526_R2.csv
Names,Time,Stack TC,Smoke TC,Exh Press,Smoke Comp,Smoke Meas,CO Meter,CO2 Meter,O2 Meter,Sample Mass,Ext Coeff,Start Test,Flame Verif
Chan Gain,,500,500,1,1,1,1,1,1,1,1,1.0,1.0
Offset,,0,0,0.138731,0,0,0,0,0,0,0,0.0,0.0
Gain,,1,1,25.011,13.8491,15.2622,1,1,1,1.00087,1.03118,1.0,1.0
Units,sec,C,C,Pa,%,%,%,%,%,g,/m,,
Baseline,,22.4162,22.9958,146.871,104.482,104.521,0.00110742,0.0470409,21.0024,-450.371,-0.00330719,,
81,20,21.1799,21.8078,147.762,105.021,105.044,0.0012399,0.0490132,21.002,209.122,-0.00201719,0.0,0.0
162,40.25,20.725,21.8639,147.965,105.008,105.019,0.00123493,0.0497599,20.9998,209.082,-0.000943566,0.0,0.0
243,60.5,21.5802,22.3812,146.335,104.926,105.281,0.000684107,0.0468651,21.0051,208.752,-0.0305671,0.0,0.0
324,80.75,21.8817,22.4789,147.664,104.772,105.168,0.00104632,0.0470229,21.0048,208.471,-0.0341453,0.0,0.0
405,101,21.8487,23.5471,142.337,104.6,105.137,0.00109814,0.0479744,21.0052,208.081,-0.0463249,0.0,0.0
486,121.25,22.9861,23.0423,145.502,105.089,105.02,0.00138192,0.0483697,21.0041,207.771,0.00596753,0.0,0.0
567,141.5,23.3436,23.8295,143.982,105.434,104.698,0.00183167,0.0495977,21.0018,207.351,0.0634037,0.0,0.0
648,161.75,23.3598,23.7226,144.883,105.414,104.159,0.00255462,0.0512206,21.0022,206.88,0.108417,0.0,0.0
729,182,31.0203,28.9511,126.534,105.366,90.5572,0.0161124,0.494987,20.4237,204.528,1.37003,0.0,0.0
810,202.25,46.8926,44.646,130.114,105.395,101.198,0.0124208,0.546897,20.4015,200.715,0.367529,0.0,0.0
891,222.5,47.4839,48.1129,135.806,105.327,109.144,0.00442804,0.317853,20.6956,198.213,-0.321975,0.0,0.0
972,242.75,44.4218,46.629,137.07,104.536,107.233,0.00349865,0.25136,20.773,196.271,-0.230435,0.0,0.0
1053,263,40.767,44.4474,138.61,104.818,107.21,0.0034594,0.203219,20.8307,194.71,-0.204071,0.0,0.0
1134,283.25,37.8468,41.6108,138.579,104.929,107.174,0.00436051,0.176306,20.8605,193.328,-0.191533,0.0,0.0
1215,303.5,35.2607,39.6514,142.592,104.861,106.818,0.00397149,0.162297,20.8761,192.127,-0.167281,0.0,0.0
1296,323.75,33.4902,36.8654,136.918,104.968,106.858,0.0041787,0.149707,20.8896,190.876,-0.161451,0.0,0.0
1377,344,32.2366,35.2123,141.568,104.979,107.135,0.00389389,0.14752,20.8927,189.875,-0.183933,0.0,0.0
1458,364.25,31.9062,34.4073,144.87,104.783,106.434,0.00401974,0.146525,20.8938,188.734,-0.141431,0.0,0.0
1539,384.5,31.5108,32.9411,142.468,104.573,106.053,0.00451746,0.145742,20.895,187.713,-0.127105,0.0,0.0
1620,404.75,30.8547,32.9174,137.146,105.301,107.202,0.00442777,0.147964,20.8916,186.572,-0.16185,0.0,0.0
1701,425,31.1752,33.1696,141.439,105.411,107.382,0.0044917,0.151029,20.8894,185.501,-0.167573,0.0,0.0
1782,445.25,31.6412,33.2278,140.471,105.045,107.165,0.00408088,0.156249,20.884,184.29,-0.180809,0.0,0.0
1863,465.5,31.4827,32.9657,140.685,105.007,106.645,0.0044954,0.160111,20.881,183.149,-0.140064,0.0,0.0
1944,485.75,31.8261,33.5987,141.133,105.395,106.948,0.00437659,0.163312,20.873,181.878,-0.13231,0.0,0.0
2025,506,32.5692,33.7084,139.311,105.722,107.88,0.00450796,0.165224,20.8717,180.647,-0.182839,0.0,0.0
2106,526.25,32.6016,33.4026,142.097,105.534,107.454,0.00486319,0.165588,20.8718,179.296,-0.163101,0.0,0.0
2187,546.5,32.7246,33.7254,145.183,104.769,106.027,0.00481617,0.165793,20.8723,177.985,-0.107896,0.0,0.0
2268,566.75,32.7597,34.2334,137.856,103.835,104.57,0.00465063,0.167544,20.8721,176.644,-0.0637845,0.0,0.0
2349,587,33.1751,34.159,140.748,103.707,105.2,0.00490019,0.163772,20.8752,175.293,-0.129329,0.0,0.0
2430,607.25,32.7636,34.254,143.965,104.365,106.135,0.00467806,0.162148,20.8758,174.001,-0.152098,0.0,0.0
2511,627.5,33.0587,34.4721,139.532,104.995,106.471,0.00486653,0.159497,20.8801,172.71,-0.126297,0.0,0.0
2592,647.75,32.7079,34.1579,139.95,104.783,105.673,0.0047214,0.170415,20.8673,171.419,-0.0765158,0.0,0.0
2673,668,32.6712,34.3299,134.386,104.933,107.412,0.00485499,0.165236,20.8727,170.098,-0.211271,0.0,0.0
2754,688.25,33.0663,33.9573,138.74,105.404,108.055,0.005116,0.16275,20.8763,168.837,-0.224667,0.0,0.0
2835,708.5,33.1957,34.6946,142.239,105.324,107.091,0.00528871,0.160724,20.8774,167.506,-0.150492,0.0,0.0
2916,728.75,33.112,34.4308,142.184,105.333,107.37,0.00554643,0.160398,20.8805,166.355,-0.173268,0.0,0.0
2997,749,32.8918,34.7995,143.77,105.362,107.635,0.00518969,0.157782,20.8814,164.994,-0.192984,0.0,0.0
3078,769.25,32.9874,34.2238,143.099,105.132,106.994,0.00509291,0.160417,20.8802,163.853,-0.158836,0.0,0.0
3159,789.5,33.0723,34.1676,141.927,104.506,105.821,0.00490228,0.160061,20.8791,162.612,-0.113118,0.0,0.0
3240,809.75,32.8683,33.9428,141.73,104.851,107.339,0.0048106,0.159542,20.881,161.441,-0.212069,0.0,0.0
3321,830,32.7778,34.1409,140.559,104.923,107.189,0.00493601,0.156535,20.8826,160.189,-0.193262,0.0,0.0
3402,850.25,32.576,33.9048,144.086,104.801,106.074,0.00507294,0.154497,20.8867,159.149,-0.109173,0.0,0.0
3483,870.5,31.9933,33.5887,140.453,104.892,106.965,0.0046853,0.153868,20.8871,157.9375,-0.17696,0.0,0.0
3564,890.75,32.3301,33.9595,143.54,105.007,106.484,0.00486041,0.152922,20.8881,156.947,-0.126346,0.0,0.0
3645,911,32.1684,33.4284,142.406,104.919,105.873,0.00468622,0.150151,20.8894,155.786,-0.0818628,0.0,0.0
3726,931.25,31.3461,32.8688,141.992,104.779,106.359,0.00487245,0.151252,20.8881,154.795,-0.135381,0.0,0.0
3807,951.5,31.9374,33.4519,141.762,104.633,105.597,0.00474922,0.15119,20.8885,153.674,-0.0829395,0.0,0.0
3888,971.75,31.5575,33.5355,140.609,104.523,105.822,0.00524119,0.154457,20.8871,152.673,-0.111731,0.0,0.0
3969,992,32.2294,33.5061,143.158,104.955,105.941,0.005361,0.156548,20.8829,151.552,-0.0845405,0.0,0.0
4050,1012.25,32.2022,34.0602,138.715,105.359,106.998,0.00492625,0.160263,20.8793,150.501,-0.139648,0.0,0.0
4131,1032.5,32.7924,34.1044,141.307,105.359,107.048,0.00513781,0.164919,20.8778,149.34,-0.143896,0.0,0.0
4212,1052.75,33.2084,34.1865,138.812,104.857,106.628,0.0047983,0.169062,20.8713,148.259,-0.151424,0.0,0.0
4293,1073,33.259,34.4443,136.616,105.266,107.188,0.0050934,0.178016,20.8611,147.068,-0.163721,0.0,0.0
4374,1093.25,33.8458,35.0605,137.91,105.675,107.797,0.00545382,0.181631,20.8545,145.877,-0.179785,0.0,0.0
4455,1113.5,34.887,36.1904,137.51,105.639,108.553,0.00504998,0.185324,20.8501,144.636,-0.24611,0.0,0.0
4536,1133.75,35.3902,36.4053,140.071,105.079,107.699,0.00534949,0.189546,20.8454,143.415,-0.222767,0.0,0.0
4617,1154,35.769,37.0669,137.043,104.294,106.467,0.00469558,0.193412,20.8408,142.124,-0.186589,0.0,0.0
4698,1174.25,36.1698,37.7352,138.058,103.799,105.924,0.00453866,0.198326,20.8391,140.883,-0.18332,0.0,0.0
4779,1194.5,37.0104,38.3128,136.153,103.67,106.406,0.00394757,0.205349,20.83,139.511,-0.235671,0.0,0.0
4860,1214.75,37.341,38.7641,140.875,103.664,107.007,0.00385544,0.209556,20.825,138.13,-0.287044,0.0,0.0
4941,1235,38.0467,39.161,136.629,103.748,107.595,0.00364925,0.219044,20.8145,136.679,-0.329335,0.0,0.0
5022,1255.25,39.0141,40.2589,135.446,103.928,107.426,0.00374915,0.222132,20.8101,135.248,-0.299465,0.0,0.0
5103,1275.5,39.4639,40.7813,135.849,104.398,107.542,0.00367007,0.229281,20.8028,133.736,-0.268413,0.0,0.0
5184,1295.75,39.9771,41.5821,137.317,105.104,108.312,0.00384277,0.239191,20.792,132.115,-0.271952,0.0,0.0
5265,1316,41.1437,42.8321,139.802,105.651,109.077,0.00390118,0.246754,20.7796,130.564,-0.288617,0.0,0.0
5346,1336.25,42.081,43.9288,134.841,105.48,108.083,0.00377051,0.261108,20.7659,128.762,-0.220483,0.0,0.0
5427,1356.5,42.6824,44.3818,132.756,105.499,108.839,0.003247,0.275677,20.7511,127.051,-0.281968,0.0,0.0
5508,1376.75,44.1256,45.8379,133.74,105.693,108.709,0.00375553,0.303553,20.7155,124.969,-0.254469,0.0,0.0
5589,1397,45.7991,47.3993,132.015,105.575,109.152,0.00293589,0.314982,20.7009,122.977,-0.301351,0.0,0.0
5670,1417.25,47.335,49.0739,133.013,105.144,108.88,0.00299959,0.329222,20.6862,120.715,-0.315867,0.0,0.0
5751,1437.5,48.8403,50.8795,132.146,104.67,108.82,0.00313191,0.357182,20.6554,118.453,-0.351686,0.0,0.0
5832,1457.75,52.1784,54.1773,125.77,104.287,108.487,0.00385735,0.409353,20.5909,115.821,-0.357113,0.0,0.0
5913,1478,55.4777,57.0538,130.458,104.042,107.373,0.00409866,0.451564,20.5374,112.938,-0.285065,0.0,0.0
5994,1498.25,57.2906,59.715,126.666,103.872,107.661,0.00419676,0.435875,20.5522,110.086,-0.324067,0.0,0.0
6075,1518.5,57.6795,60.4599,133.916,103.718,106.588,0.0036982,0.406172,20.5822,107.484,-0.246936,0.0,0.0
6156,1538.75,57.5267,60.1453,127.45,103.634,107.914,0.00305493,0.380996,20.6122,105.001,-0.366112,0.0,0.0
6237,1559,54.6051,58.7332,133.002,103.717,108.487,0.00252702,0.321694,20.6791,102.93,-0.406777,0.0,0.0
6318,1579.25,51.5974,55.6088,138.112,104.206,107.462,0.00259378,0.278103,20.7267,101.208,-0.278349,0.0,0.0
6399,1599.5,49.0326,52.8519,134.997,104.847,108.303,0.00249688,0.241858,20.7717,99.8169,-0.293355,0.0,0.0
6480,1619.75,46.4922,50.071,136.896,104.993,108.406,0.00364564,0.21312,20.8032,98.5858,-0.289377,0.0,0.0
6561,1640,44.0214,47.465,138.569,104.625,107.918,0.0042127,0.184902,20.8386,97.615,-0.280254,0.0,0.0
6642,1660.25,40.9699,44.1755,138.763,105.011,107.742,0.00518292,0.158497,20.87,96.8443,-0.232221,0.0,0.0
6723,1680.5,38.5072,41.4839,139.681,105.363,107.553,0.00594871,0.138484,20.892,96.1937,-0.186059,0.0,0.0
6804,1700.75,36.8232,38.9072,144.209,104.91,106.845,0.00667983,0.12598,20.9045,95.6833,-0.165298,0.0,0.0
6885,1721,34.9239,36.9564,145.715,105.357,107.338,0.00771999,0.115611,20.92,95.1428,-0.168488,0.0,0.0
6966,1741.25,33.275,34.8723,144.116,105.577,106.893,0.00804531,0.108566,20.9268,94.6924,-0.112041,0.0,0.0
7047,1761.5,31.6452,33.514,144.229,105.628,107.797,0.00834467,0.102373,20.9343,94.3321,-0.183841,0.0,0.0
7128,1781.75,30.8985,31.828,146.534,105.622,107.272,0.0082149,0.100144,20.9346,94.0319,-0.140225,0.0,0.0
7209,1802,30.2577,31.2767,144.424,105.482,107.341,0.00813224,0.0969085,20.9386,93.5915,-0.157989,0.0,0.0
7290,1822.25,27.8316,28.0127,146.364,105.205,106.356,0.00800431,0.0947916,20.9446,93.3813,-0.0984433,0.0,0.0
7371,1842.5,27.576,28.142,143.01,104.887,105.66,0.00756321,0.0938636,20.9453,93.001,-0.0663922,0.0,0.0
7452,1862.75,27.0458,27.2482,145.947,105.102,106.719,0.00739832,0.0944943,20.9429,92.7507,-0.13812,0.0,0.0
7533,1883,26.9315,27.1505,145.201,105.293,106.518,0.0072559,0.0942793,20.9456,92.4605,-0.104583,0.0,0.0
7614,1903.25,26.4676,26.7744,141.175,105.301,106.831,0.00737883,0.0933865,20.9464,92.2603,-0.130434,0.0,0.0
7695,1923.5,25.7579,26.7391,144.871,105.142,106.693,0.00753248,0.0954529,20.9414,91.93,-0.13245,0.0,0.0
7754,1938.25,26.0347,26.3795,146.158,104.936,106.015,,,,91.6898,-0.0925342,0.0,0.0