File: 01_Data/Eucalyptus_Flooring/Cone/Eucalyptus_Flooring_Cone_HF25Scan_220526_R3.csv
Names,Time,Stack TC,Smoke TC,Exh Press,Smoke Comp,Smoke Meas,CO Meter,CO2 Meter,O2 Meter,Sample Mass,Ext Coeff,Start Test,Flame Verif
Chan Gain,,500,500,1,1,1,1,1,1,1,1,1.0,1.0
Offset,,0,0,0.138731,0,0,0,0,0,0,0,0.0,0.0
Gain,,1,1,25.011,13.8491,15.2622,1,1,1,1.00087,1.03118,1.0,1.0
Units,sec,C,C,Pa,%,%,%,%,%,g,/m,,
Baseline,,25.856,26.7095,146.347,104.869,105.995,0.0010802,0.047864,20.9938,-450.995,-0.0966004,,
84,20.75,23.3818,24.1476,148.007,104.974,105.853,0.000889069,0.0480346,20.999,208.451,-0.0754588,0.0,0.0
168,41.75,23.3743,24.1021,144.657,104.941,106.058,0.000869607,0.0478287,20.997,208.291,-0.0957555,0.0,0.0
252,62.75,24.3798,24.5727,145.438,104.894,105.735,0.000805621,0.047873,20.9952,208.061,-0.0721898,0.0,0.0
336,83.75,24.1806,25.0932,145.719,104.794,106.329,0.00116915,0.0482585,20.9955,207.751,-0.131572,0.0,0.0
420,104.75,24.5917,25.0077,146.494,104.719,106.101,0.00134856,0.0488994,20.9994,207.361,-0.118595,0.0,0.0
504,125.75,24.693,25.2001,147.705,104.633,105.462,0.00185784,0.0500898,20.9971,207.01,-0.0713616,0.0,0.0
588,146.75,24.9846,25.6813,147.279,104.448,105.444,0.00220228,0.0511017,20.9978,206.62,-0.0858608,0.0,0.0
672,167.75,25.8611,26.433,144.557,105.09,105.108,0.00243975,0.0523753,20.9965,206.119,-0.00154265,0.0,0.0
756,188.75,31.5895,29.6341,126.58,105.353,85.4208,0.0158651,0.462768,20.4674,204.308,1.89706,0.0,0.0
840,209.75,49.3455,47.0082,125.44,104.983,101.791,0.0169859,0.582719,20.3386,200.124,0.279323,0.0,0.0
924,230.75,51.7909,52.7344,132.318,105.688,108.652,0.00511541,0.364821,20.6273,197.152,-0.250213,0.0,0.0
1008,251.75,49.1928,51.7441,131.635,105.229,109.012,0.00381658,0.256734,20.7619,195.04,-0.319469,0.0,0.0
1092,272.75,44.9342,48.6858,139.709,104.191,109.03,0.00394054,0.206937,20.8225,193.448,-0.410644,0.0,0.0
1176,293.75,42.1031,45.7522,137.164,103.67,107.351,0.00381595,0.184562,20.8471,192.027,-0.315613,0.0,0.0
1260,314.75,39.858,43.4025,140.804,103.609,107.168,0.00387214,0.173052,20.8628,190.716,-0.305528,0.0,0.0
1344,335.75,38.8634,41.6674,136.263,103.586,106.775,0.00377159,0.167614,20.8659,189.405,-0.274316,0.0,0.0
1428,356.75,37.2105,39.6923,142.22,103.604,107.3,0.0048204,0.158634,20.8757,188.244,-0.317089,0.0,0.0
1512,377.75,36.2459,39.2259,138.421,103.939,106.489,0.00456691,0.172547,20.8609,186.963,-0.219219,0.0,0.0
1596,398.75,36.093,38.6539,136.553,104.868,109.104,0.00469183,0.168284,20.8649,185.652,-0.358271,0.0,0.0
1680,419.75,35.8547,38.0804,143.045,105.59,109.546,0.00514183,0.165363,20.868,184.381,-0.332679,0.0,0.0
1764,440.75,35.6947,37.7288,143.145,105.306,108.994,0.00521027,0.16649,20.8667,183.119,-0.31135,0.0,0.0
1848,461.75,36.0625,37.34,144.132,105.015,108.408,0.00512063,0.170109,20.8643,181.738,-0.287679,0.0,0.0
1932,482.75,35.5467,37.4776,143.807,105.222,108.487,0.00570698,0.164745,20.8684,180.377,-0.276462,0.0,0.0
2016,503.75,34.8944,36.96,139.97,105.166,107.736,0.00565349,0.162415,20.8707,179.036,-0.218402,0.0,0.0
2100,524.75,34.8267,36.7934,142.572,105.316,108.498,0.00520358,0.160352,20.8724,177.825,-0.269294,0.0,0.0
2184,545.75,34.5953,36.465,139.792,105.269,107.668,0.00585913,0.156759,20.8779,176.494,-0.203825,0.0,0.0
2268,566.75,34.7301,35.7839,141.959,105.152,107.361,0.00615589,0.152347,20.8848,175.223,-0.187991,0.0,0.0
2352,587.75,34.1253,35.6126,143.025,104.948,107.716,0.00632766,0.153526,20.8823,173.951,-0.2355,0.0,0.0
2436,608.75,34.3178,35.7449,143.41,104.816,107.311,0.00681216,0.149114,20.8858,172.69,-0.21274,0.0,0.0
2520,629.75,33.8297,35.6845,141.947,104.846,107.666,0.00710419,0.147955,20.891,171.419,-0.240018,0.0,0.0
2604,650.75,33.4745,35.0319,141.975,104.939,107.414,0.00702231,0.14659,20.8876,170.218,-0.210844,0.0,0.0
2688,671.75,33.9101,35.2654,142.129,105.133,108.565,0.0065349,0.148243,20.8878,169.027,-0.290579,0.0,0.0
2772,692.75,33.8396,35.0086,143.273,105.465,108.43,0.0058086,0.15047,20.8865,167.786,-0.250856,0.0,0.0
2856,713.75,34.0705,34.8769,142.715,105.67,109.184,0.00658376,0.154376,20.8821,166.535,-0.295867,0.0,0.0
2940,734.75,33.9659,35.7585,142.463,105.372,108.264,0.00610825,0.153606,20.8807,165.344,-0.244952,0.0,0.0
3024,755.75,34.4827,35.9755,139.878,104.59,106.941,0.00561146,0.154666,20.8815,164.103,-0.201088,0.0,0.0
3108,776.75,34.628,35.9178,143.161,103.798,106.03,0.00586712,0.154601,20.8793,162.822,-0.192458,0.0,0.0
3192,797.75,34.7386,35.881,135.988,103.74,106.363,0.00585563,0.152783,20.8829,161.681,-0.225905,0.0,0.0
3276,818.75,34.6398,36.0243,137.78,104.455,108.283,0.00526975,0.155167,20.8814,160.49,-0.325622,0.0,0.0
3360,839.75,34.9335,36.3792,140.65,104.912,108.554,0.00604292,0.15517,20.8787,159.309,-0.308685,0.0,0.0
3444,860.75,35.133,35.8695,141.982,104.965,108.255,0.00552841,0.156554,20.8778,158.058,-0.279144,0.0,0.0
3528,881.75,34.8527,36.2249,140.252,104.935,108.003,0.0057588,0.158509,20.8782,156.947,-0.260651,0.0,0.0
3612,902.75,35.1919,36.1552,142.091,104.93,107.667,0.00577482,0.161612,20.8722,155.776,-0.23288,0.0,0.0
3696,923.75,35.2872,36.3975,137.221,104.715,107.872,0.0056616,0.16706,20.8656,154.525,-0.268684,0.0,0.0
3780,944.75,35.135,36.7845,140.804,104.32,107.449,0.00534941,0.169412,20.8647,153.303,-0.267315,0.0,0.0
3864,965.75,35.4847,36.7058,142.41,103.773,106.786,0.00525882,0.168542,20.8635,152.182,-0.258889,0.0,0.0
3948,986.75,35.5275,37.0729,140.394,103.576,105.929,0.00544492,0.172377,20.8616,150.941,-0.203225,0.0,0.0
4032,1007.75,35.759,36.8568,139.81,103.932,106.571,0.00522345,0.175549,20.8568,149.65,-0.226842,0.0,0.0
4116,1028.75,36.1547,37.5822,140.317,104.326,107.541,0.00433427,0.180236,20.8517,148.489,-0.274559,0.0,0.0
4200,1049.75,35.9413,37.312,141.244,104.374,106.709,0.00446173,0.183792,20.8504,147.218,-0.200181,0.0,0.0
4284,1070.75,36.5806,38.084,143.308,104.28,107.426,0.00444451,0.185974,20.8469,145.887,-0.268911,0.0,0.0
4368,1091.75,36.6721,37.9579,141.558,104.159,107.084,0.00471326,0.187415,20.8437,144.666,-0.250492,0.0,0.0
4452,1112.75,36.8495,38.2025,140.763,104.057,107.434,0.00490853,0.190819,20.8406,143.385,-0.288883,0.0,0.0
4536,1133.75,37.24,38.5161,139.218,103.949,106.871,0.00447172,0.194827,20.836,142.064,-0.250756,0.0,0.0
4620,1154.75,37.5845,39.4983,143.313,103.969,107.613,0.00440487,0.199265,20.8297,140.662,-0.311611,0.0,0.0
4704,1175.75,38.2452,40.1415,138.947,104.029,108.18,0.00432814,0.204413,20.8265,139.351,-0.353911,0.0,0.0
4788,1196.75,38.7786,40.3641,138.485,103.972,106.675,0.00436252,0.20903,20.819,137.89,-0.232162,0.0,0.0
4872,1217.75,39.3672,41.3151,137.678,103.703,107.754,0.00400694,0.216388,20.8125,136.429,-0.346585,0.0,0.0
4956,1238.75,40.1339,42.0222,135.752,103.631,107.517,0.00419718,0.22721,20.8003,134.937,-0.332967,0.0,0.0
5040,1259.75,41.6753,42.7059,136.557,103.961,107.71,0.00406278,0.242806,20.784,133.356,-0.320525,0.0,0.0
5124,1280.75,42.5637,43.9111,134.152,104.51,108.915,0.00360418,0.253918,20.7685,131.605,-0.373471,0.0,0.0
5208,1301.75,43.7647,45.221,138.293,104.953,109.926,0.00382023,0.268612,20.753,129.733,-0.418771,0.0,0.0
5292,1322.75,45.038,46.4554,137.114,104.847,109.668,0.00391816,0.282309,20.7365,127.891,-0.406661,0.0,0.0
5376,1343.75,46.5678,48.2271,137.203,104.53,108.718,0.0037491,0.303033,20.7113,125.85,-0.355338,0.0,0.0
5460,1364.75,48.5601,50.1916,134.363,105.228,110.879,0.00386448,0.327091,20.682,123.618,-0.473203,0.0,0.0
5544,1385.75,50.7811,52.6542,134.304,105.269,111.041,0.00378376,0.366429,20.636,121.236,-0.482821,0.0,0.0
5628,1406.75,53.9113,55.7551,125.17,105.651,110.641,0.00410856,0.416564,20.5768,118.453,-0.417471,0.0,0.0
5712,1427.75,56.8681,58.9254,126.579,105.338,110.986,0.0038597,0.466553,20.5164,115.41,-0.472461,0.0,0.0
5796,1448.75,60.0602,62.7321,129.621,105.026,110.206,0.00376755,0.489222,20.4825,112.058,-0.435551,0.0,0.0
5880,1469.75,62.1911,64.8441,127.627,104.966,108.565,0.00482979,0.481075,20.4931,108.915,-0.30499,0.0,0.0
5964,1490.75,62.7725,66.1143,125.412,104.83,109.295,0.00413449,0.45466,20.5182,105.872,-0.377371,0.0,0.0
6048,1511.75,60.5096,64.8741,135.959,104.923,109.49,0.00310135,0.356161,20.6341,103.33,-0.385413,0.0,0.0
6132,1532.75,57.0147,62.3513,140.186,105.291,109.602,0.00234295,0.294633,20.7065,101.398,-0.363002,0.0,0.0
6216,1553.75,53.3358,57.7839,133.326,105.574,110.63,0.00295038,0.264791,20.7418,99.8369,-0.423184,0.0,0.0
6300,1574.75,49.7298,54.4198,133.672,105.382,110.516,0.00305618,0.231881,20.7762,98.4257,-0.43023,0.0,0.0
6384,1595.75,46.9639,50.9687,137.196,104.775,109.061,0.00401326,0.200606,20.8099,97.1746,-0.362627,0.0,0.0
6468,1616.75,43.6968,47.8426,140.029,104.847,108.113,0.00479599,0.173451,20.8438,96.2738,-0.27747,0.0,0.0
6552,1637.75,41.2712,43.8019,140.646,104.954,107.326,0.00552172,0.144262,20.8757,95.6132,-0.20219,0.0,0.0
6636,1658.75,38.1331,41.1703,144.56,104.755,107.765,0.00606841,0.124474,20.8996,95.0527,-0.256228,0.0,0.0
6720,1679.75,36.4245,38.4017,144.309,104.793,107.311,0.00644211,0.114703,20.9107,94.6224,-0.214783,0.0,0.0
6804,1700.75,34.3032,36.8698,140.43,104.844,107.335,0.0062525,0.1099,20.9149,94.2521,-0.212372,0.0,0.0
6888,1721.75,33.8511,35.1132,140.937,104.911,107.321,0.00710895,0.10529,20.9248,93.9218,-0.205398,0.0,0.0
6972,1742.75,32.4999,33.7214,142.879,104.974,106.854,0.00762614,0.10119,20.9267,93.5014,-0.160625,0.0,0.0
7056,1763.75,31.8628,32.4386,142.14,105.182,108.088,0.00694763,0.100194,20.9282,93.2912,-0.24646,0.0,0.0
7140,1784.75,31.1473,31.7613,143.189,105.414,107.642,0.00716821,0.0992634,20.9314,92.991,-0.189224,0.0,0.0
7224,1805.75,30.6856,31.2077,142.168,105.643,107.862,0.00736173,0.0990319,20.9326,92.6907,-0.188044,0.0,0.0
7308,1826.75,29.7251,30.4906,141.768,105.431,108.307,0.00717254,0.0982479,20.9332,92.3304,-0.243379,0.0,0.0
7392,1847.75,29.852,30.5752,142.165,104.477,106.118,0.00680792,0.0978235,20.9327,92.1702,-0.141007,0.0,0.0
7476,1868.75,29.0854,30.1382,145.215,103.722,105.938,0.00724542,0.0951479,20.9336,91.91,-0.191257,0.0,0.0
7560,1889.75,27.5795,28.2111,140.839,103.817,105.88,0.00705958,0.0936124,20.9386,91.6198,-0.177918,0.0,0.0
7644,1910.75,27.2728,27.5479,141.064,104.341,106.69,0.00688182,0.0938275,20.9392,91.4096,-0.201343,0.0,0.0
7728,1931.75,27.5851,27.8601,140.615,104.786,106.866,0.00651129,0.0928628,20.9382,91.1994,-0.177793,0.0,0.0
7812,1952.75,26.9402,27.4164,144.208,105.002,107.588,0.00650403,0.0929981,20.9379,90.9792,-0.220075,0.0,0.0
7896,1973.75,26.6083,27.0212,145.063,104.655,106.805,0.00667431,0.0930811,20.9377,90.6789,-0.183946,0.0,0.0
7963,1990.5,26.9011,27.1173,143.614,104.352,106.6,,,,90.5388,-0.19284,0.0,0.0