File: 01_Data/Eucalyptus_Flooring/Cone/Eucalyptus_Flooring_Cone_HF50Scan_220526_R3.csv
Names,Time,Stack TC,Smoke TC,Exh Press,Smoke Comp,Smoke Meas,CO Meter,CO2 Meter,O2 Meter,Sample Mass,Ext Coeff,Start Test,Flame Verif
Chan Gain,,500,500,1,1,1,1,1,1,1,1,1.0,1.0
Offset,,0,0,0.138731,0,0,0,0,0,0,0,0.0,0.0
Gain,,1,1,25.011,13.8491,15.2622,1,1,1,1.00087,1.03118,1.0,1.0
Units,sec,C,C,Pa,%,%,%,%,%,g,/m,,
Baseline,,37.7058,39.1646,140.363,103.791,103.514,0.00110142,0.0469215,21.0021,-452.043,0.0241992,,
78,19.25,35.2337,35.9163,139.771,104.128,103.204,0.00115382,0.0472288,21.0002,208.061,0.0806418,0.0,0.0
156,38.75,36.5485,36.571,123.373,103.923,82.717,0.0155709,0.322741,20.6232,206.52,2.06443,0.0,1.0
234,58.25,62.1041,60.6392,115.497,103.868,89.0034,0.0210897,0.731177,20.1395,201.585,1.39707,0.0,0.0
312,77.75,67.6236,68.4093,127.16,103.91,102.398,0.00775075,0.480744,20.4904,198.082,0.132582,0.0,0.0
390,97.25,66.3096,69.9809,123.797,103.961,104.909,0.00593646,0.375581,20.6248,195.39,-0.0821762,0.0,0.0
468,116.75,63.6828,68.5937,128.248,104.026,104.992,0.00568068,0.328804,20.6772,192.968,-0.0835468,0.0,0.0
546,136.25,62.3397,67.5807,127.375,104.073,105.909,0.00554997,0.309804,20.6986,190.676,-0.158176,0.0,0.0
624,155.75,60.9425,66.3274,125.434,104.185,105.432,0.00482985,0.29725,20.7144,188.644,-0.107617,0.0,0.0
702,175.25,60.0136,64.5701,126.124,104.237,106.043,0.00448887,0.283136,20.7317,186.673,-0.155457,0.0,0.0
780,194.75,58.6852,63.3416,133.214,104.245,106.005,0.00497334,0.267758,20.7489,184.781,-0.151428,0.0,0.0
858,214.25,57.9127,62.4591,127.653,104.428,105.925,0.00426592,0.264409,20.7524,182.879,-0.128798,0.0,0.0
936,233.75,57.3221,61.961,131.707,104.555,106.7,0.00477899,0.259859,20.7571,181.018,-0.183688,0.0,0.0
1014,253.25,57.3374,60.8177,127.159,104.778,106.029,0.00432066,0.257713,20.7609,179.206,-0.107405,0.0,0.0
1092,272.75,57.1612,60.9614,131.451,104.938,106.519,0.0046253,0.253061,20.7673,177.394,-0.135289,0.0,0.0
1170,292.25,56.6557,60.1476,135.797,105.073,107.157,0.00440404,0.247659,20.7712,175.493,-0.177699,0.0,0.0
1248,311.75,56.1736,60.1689,126.908,105.276,106.957,0.00418035,0.242422,20.7787,173.701,-0.143293,0.0,0.0
1326,331.25,55.8004,59.3809,135.897,105.4,107.766,0.00470443,0.240762,20.78,172,-0.20079,0.0,0.0
1404,350.75,55.6363,59.6412,131.194,105.513,107.503,0.00523239,0.240438,20.7787,170.258,-0.168992,0.0,0.0
1482,370.25,55.7484,59.1474,130.105,105.499,107.06,0.00447519,0.243066,20.7791,168.457,-0.13284,0.0,0.0
1560,389.75,55.4988,58.8217,132.718,105.499,106.787,0.00469712,0.240637,20.7815,166.705,-0.109715,0.0,0.0
1638,409.25,55.3315,58.665,129.02,105.464,107.1,0.00450961,0.236904,20.7855,164.974,-0.139196,0.0,0.0
1716,428.75,55.3328,58.4008,131.32,105.348,107.294,0.00483996,0.231143,20.7933,163.262,-0.165596,0.0,0.0
1794,448.25,54.8728,58.0937,134.448,105.254,107.224,0.00457735,0.230047,20.7954,161.551,-0.167763,0.0,0.0
1872,467.75,54.7265,57.8591,130.331,105.306,106.629,0.00436071,0.230381,20.7953,159.799,-0.112942,0.0,0.0
1950,487.25,54.6313,57.7907,129.182,105.322,107.662,0.00433549,0.230372,20.7946,158.138,-0.198739,0.0,0.0
2028,506.75,54.8348,57.7858,134.107,105.261,106.855,0.00414807,0.231335,20.7919,156.476,-0.135937,0.0,0.0
2106,526.25,54.9397,57.4865,129.558,105.133,107.505,0.00417875,0.231575,20.7928,154.755,-0.201817,0.0,0.0
2184,545.75,54.4518,57.9965,132.263,104.979,107.221,0.00404275,0.23299,20.7902,153.043,-0.191168,0.0,0.0
2262,565.25,54.909,57.6106,130.918,104.886,107.197,0.0041177,0.235241,20.7893,151.382,-0.197139,0.0,0.0
2340,584.75,54.8503,58.0211,129.039,104.79,106.714,0.00401033,0.238811,20.783,149.7,-0.164606,0.0,0.0
2418,604.25,55.5863,58.0096,132.311,104.734,107.288,0.00437758,0.242721,20.7797,147.999,-0.217929,0.0,0.0
2496,623.75,55.5627,58.3267,129.989,104.648,106.978,0.00368922,0.243451,20.7792,146.247,-0.199154,0.0,0.0
2574,643.25,55.8603,58.6886,134.052,104.466,107.124,0.00338916,0.248128,20.7721,144.566,-0.227347,0.0,0.0
2652,662.75,56.202,58.8162,131.146,104.21,106.346,0.00330775,0.254995,20.766,142.924,-0.183556,0.0,0.0
2730,682.25,56.7586,59.5443,126.332,103.945,106.124,0.0032451,0.262555,20.7572,141.243,-0.18763,0.0,0.0
2808,701.75,57.155,60.4056,129.59,103.748,106.142,0.00292663,0.276949,20.7396,139.311,-0.206297,0.0,0.0
2886,721.25,58.1111,61.0994,131.512,103.594,106.326,0.00332694,0.288444,20.7281,137.42,-0.235461,0.0,0.0
2964,740.75,59.4993,62.0543,126.47,103.518,105.939,0.00307467,0.302265,20.7118,135.538,-0.209119,0.0,0.0
3042,760.25,59.898,62.9573,132.167,103.485,105.332,0.00318951,0.31719,20.6936,133.556,-0.160032,0.0,0.0
3120,779.75,61.5226,64.9722,130.158,103.474,105.374,0.00270793,0.336954,20.6702,131.374,-0.164552,0.0,0.0
3198,799.25,62.8801,66.3499,129.203,103.475,105.37,0.00277783,0.358936,20.6452,129.092,-0.164121,0.0,0.0
3276,818.75,64.9403,67.2664,125.756,103.53,104.656,0.00303095,0.381602,20.6204,126.79,-0.0978563,0.0,0.0
3354,838.25,66.7527,69.769,122.548,103.603,105.135,0.00305818,0.407246,20.5868,124.208,-0.13276,0.0,0.0
3432,857.75,68.3686,71.9631,119.859,103.589,104.762,0.00343357,0.428609,20.5618,121.546,-0.101782,0.0,0.0
3510,877.25,70.4189,73.6351,126.113,103.572,104.257,0.00377844,0.450858,20.5332,118.723,-0.0595954,0.0,0.0
3588,896.75,72.2885,75.6885,121.526,103.568,103.444,0.00386693,0.475006,20.5033,115.821,0.0107508,0.0,0.0
3666,916.25,74.1466,77.9566,122.405,103.564,102.484,0.00449749,0.491017,20.4807,112.818,0.0947903,0.0,0.0
3744,935.75,75.2529,79.966,122.332,103.536,102.286,0.00482136,0.512199,20.4543,109.706,0.109884,0.0,0.0
3822,955.25,77.5412,81.5136,118.705,103.545,101.34,0.00542413,0.542808,20.4151,106.393,0.194741,0.0,0.0
3900,974.75,79.3696,84.7916,121.573,103.548,100.63,0.00582531,0.548451,20.4044,103.14,0.258544,0.0,0.0
3978,994.25,80.6502,86.3224,121.881,103.613,100.572,0.00553725,0.536008,20.4107,100.067,0.26942,0.0,0.0
4056,1013.75,81.0921,86.7323,119.152,103.66,101.629,0.00618664,0.503743,20.4407,97.1346,0.178997,0.0,0.0
4134,1033.25,78.0447,84.7791,129.339,103.739,103.94,0.00374012,0.401152,20.5624,94.6624,-0.0174654,0.0,0.0
4212,1052.75,72.0644,78.8843,128.967,103.87,105.478,0.00305123,0.265048,20.7266,93.1711,-0.138911,0.0,0.0
4290,1072.25,65.9454,72.4129,131.108,104.08,106.421,0.00355862,0.183983,20.8234,92.3304,-0.201198,0.0,0.0
4368,1091.75,60.1668,66.2588,128.997,104.265,107.172,0.00401408,0.152177,20.8615,91.7299,-0.248759,0.0,0.0
4446,1111.25,55.4835,61.5026,137.599,104.483,107.252,0.00408154,0.136785,20.8795,91.1393,-0.23654,0.0,0.0
4524,1130.75,52.4174,56.5545,136.081,104.661,106.982,0.00428238,0.128972,20.8899,90.699,-0.198412,0.0,0.0
4602,1150.25,50.7734,54.8561,129.319,104.78,106.739,0.00427218,0.124033,20.896,90.4287,-0.167501,0.0,0.0
4680,1169.75,49.633,52.3873,133.641,104.817,106.712,0.00430741,0.12066,20.9028,90.0984,-0.162113,0.0,0.0
4758,1189.25,47.9396,51.0647,138.761,104.882,107.08,0.004449,0.116509,20.9073,89.6781,-0.187594,0.0,0.0
4836,1208.75,47.3995,49.7314,139.518,104.874,107.245,0.00475733,0.115323,20.9084,89.3478,-0.202205,0.0,0.0
4914,1228.25,46.8792,48.2711,136.122,104.848,106.552,0.00487963,0.113986,20.9116,89.0575,-0.145784,0.0,0.0
4992,1247.75,45.7957,47.8619,134.24,104.85,106.675,0.00481407,0.112316,20.9128,88.9174,-0.156034,0.0,0.0
5070,1267.25,45.4638,47.0818,145.476,104.846,106.634,0.00521172,0.110966,20.9158,88.6472,-0.152886,0.0,0.0
5148,1286.75,45.2004,46.6939,137.396,104.856,106.413,0.00512581,0.110048,20.9196,88.2268,-0.1333,0.0,0.0
5226,1306.25,44.8352,46.1878,137.519,104.864,106.312,0.00508757,0.109753,20.9184,87.9966,-0.124088,0.0,0.0
5304,1325.75,44.215,45.8242,136.036,104.873,106.559,0.00522994,0.108421,20.9217,87.8965,-0.144229,0.0,0.0
5382,1345.25,43.9191,45.2295,140.011,104.88,106.192,0.00560393,0.107513,20.922,87.6763,-0.112397,0.0,0.0
5460,1364.75,43.6101,44.9386,138.922,104.866,106.024,0.0052298,0.106067,20.9242,87.346,-0.0993056,0.0,0.0
5538,1384.25,42.9592,44.5429,139.031,104.849,106.551,0.00546551,0.106521,20.9234,87.1258,-0.145631,0.0,0.0
5616,1403.75,43.1406,44.5754,141.023,104.86,105.793,0.00569206,0.105661,20.9272,87.0258,-0.0801617,0.0,0.0
5694,1423.25,42.4962,44.0495,141.204,104.83,106.547,0.0060133,0.105592,20.9259,86.7655,-0.147033,0.0,0.0
5772,1442.75,42.5932,44.0332,136.171,104.813,106.191,0.0056163,0.104436,20.9259,86.5954,-0.11819,0.0,0.0
5850,1462.25,42.8126,44.215,138.492,104.765,106.388,0.00614511,0.104415,20.9271,86.2751,-0.139044,0.0,0.0
5928,1481.75,41.6616,43.3917,136.869,104.719,105.828,0.00611092,0.104608,20.9263,86.135,-0.0953322,0.0,0.0
6006,1501.25,41.4529,43.216,137.599,104.65,105.546,0.00631222,0.10421,20.9287,86.0249,-0.0771318,0.0,0.0
6084,1520.75,41.6605,43.1357,136.387,104.546,106.227,0.00625073,0.103607,20.9293,85.8147,-0.144254,0.0,0.0
6162,1540.25,41.1949,42.9912,138.743,104.312,105.025,0.00621899,0.1026,20.9287,85.5445,-0.0616259,0.0,0.0
6240,1559.75,41.2653,43.0555,137.257,104.163,105.367,0.00634999,0.103145,20.928,85.3443,-0.103932,0.0,0.0
6318,1579.25,41.1378,42.8164,138.515,104.063,105.499,0.00647785,0.102999,20.9284,85.2642,-0.123981,0.0,0.0
6396,1598.75,41.0139,42.7703,138.52,104.012,104.541,0.00679747,0.102945,20.9294,85.064,-0.0458691,0.0,0.0
6474,1618.25,40.9382,42.6455,135.429,103.891,104.82,0.00694638,0.102075,20.9313,84.7838,-0.0805354,0.0,0.0
6552,1637.75,40.9616,42.4915,139.448,103.814,105.638,0.00694629,0.101777,20.9299,84.6137,-0.157537,0.0,0.0
6630,1657.25,40.8241,42.3931,137.913,103.728,104.017,0.00691683,0.101544,20.9308,84.5636,-0.0251908,0.0,0.0
6708,1676.75,40.6981,42.4179,136.44,103.714,104.818,0.00723746,0.101213,20.9326,84.3735,-0.0958062,0.0,0.0
6786,1696.25,40.5002,42.4666,139.269,103.969,104.878,0.00739956,0.101103,20.9333,84.0432,-0.0787861,0.0,0.0
6864,1715.75,40.9434,42.3929,140.779,104.74,105.508,0.00741132,0.10183,20.9334,83.873,-0.0660799,0.0,0.0
6942,1735.25,40.8111,42.3607,133.278,104.814,105.325,0.00804826,0.100912,20.9331,83.823,-0.0439483,0.0,0.0
7020,1754.75,38.7114,40.4005,135.797,104.566,105.796,0.00769256,0.0998469,20.9362,83.6328,-0.105811,0.0,0.0
7098,1774.25,38.789,40.9272,135.797,105.301,106.51,0.00778022,0.10012,20.9345,83.3626,-0.103257,0.0,0.0
7176,1793.75,39.2552,39.999,137.081,105.518,106.782,0.00791299,0.0997724,20.9362,83.1524,-0.107726,0.0,0.0
7254,1813.25,39.0969,40.6243,137.922,104.787,105.594,0.0078477,0.0992617,20.9341,83.0223,-0.0694103,0.0,0.0
7332,1832.75,39.018,40.9706,138.279,103.707,104.182,0.00809491,0.0985388,20.9357,82.9422,-0.0412832,0.0,0.0
7410,1852.25,39.3438,41.0602,139.015,104.977,106.516,0.00839789,0.099011,20.936,82.7721,-0.131588,0.0,0.0
7467,1866.5,39.2214,40.7785,135.304,104.527,105.696,,,,82.6319,-0.100532,0.0,0.0