File: 01_Data/Fiberglas_Insulation3A/MCC/Fiberglas_Insulation3A_MCC_30K_min_220221_R3.txt
Sample ID:	C:\MCC\MCC Cal\Test\Fiberglas_Insulation3A_MCC_30K_min_220221_R3.txt
Sample Weight (mg):	4.46
Heating Rate (C/s):	0.5
Combustor Temp (C):	900
N2 Flow Rate (cc/min):	80
O2 Flow Rate (cc/min):	20
Calibration File:	C:\MCC\MCC Cal\Coeff1 JN10440_30_210304.txt.txt
T Correction Coefficients:	0	1.024463	0
Time Shift (s):	14
*
Time (s)	Temperature (C)	N2 flow rate (cc/min)	O2 flow rate (cc/min)	Flow Rate (cc/min)	Oxygen (%)	HRR (W/g)	Heating rate (C/s)
-0.001	114.143	80.009	19.994	103.667	19.896	-0.139	-0.022
7.500	114.118	80.009	19.994	103.665	19.892	0.098	0.007
15.000	114.185	80.007	19.992	103.738	19.886	0.589	0.051
22.500	114.425	80.010	19.993	103.776	19.880	1.008	0.053
30.000	115.006	80.010	19.992	103.809	19.872	1.565	0.097
37.499	115.885	80.007	19.993	103.845	19.869	1.789	0.141
44.999	117.153	80.007	19.993	103.880	19.861	2.401	0.203
52.499	118.842	80.009	19.993	103.908	19.858	2.565	0.222
60.000	120.876	80.007	19.994	103.911	19.854	2.850	0.292
67.499	123.172	80.004	19.994	103.938	19.855	2.815	0.303
74.999	125.829	80.005	19.995	103.940	19.854	2.868	0.386
82.500	128.684	80.007	19.995	103.941	19.856	2.738	0.414
89.999	131.820	80.009	19.994	103.935	19.852	3.025	0.439
97.499	135.063	80.007	19.993	103.939	19.849	3.259	0.445
104.999	138.470	80.011	19.992	103.944	19.851	3.116	0.444
112.499	142.006	80.009	19.993	103.945	19.850	3.159	0.421
119.999	145.684	80.008	19.993	103.934	19.855	2.828	0.481
127.499	149.466	80.008	19.992	103.930	19.854	2.903	0.517
135.000	153.239	80.009	19.991	103.928	19.855	2.814	0.473
142.500	156.989	80.006	19.994	103.906	19.858	2.602	0.492
150.000	160.821	80.007	19.993	103.909	19.860	2.444	0.548
157.500	164.734	80.008	19.993	103.903	19.859	2.540	0.547
165.000	168.514	80.008	19.994	103.903	19.859	2.534	0.481
172.500	172.267	80.006	19.993	103.895	19.860	2.408	0.479
180.000	176.082	80.007	19.994	103.885	19.862	2.268	0.496
187.500	179.828	80.010	19.992	103.889	19.863	2.204	0.515
195.000	183.553	80.009	19.992	103.871	19.862	2.296	0.498
202.500	187.275	80.008	19.993	103.867	19.859	2.534	0.484
210.000	190.972	80.009	19.992	103.868	19.860	2.439	0.507
217.500	194.659	80.007	19.993	103.866	19.858	2.591	0.516
225.000	198.290	80.008	19.993	103.867	19.856	2.764	0.474
232.500	201.940	80.009	19.992	103.861	19.851	3.122	0.466
240.000	205.613	80.010	19.993	103.867	19.850	3.157	0.493
247.500	209.292	80.007	19.993	103.865	19.845	3.515	0.472
255.000	212.989	80.007	19.993	103.869	19.844	3.577	0.474
262.500	216.652	80.007	19.994	103.857	19.841	3.836	0.465
270.000	220.383	80.009	19.993	103.845	19.841	3.846	0.490
277.500	224.064	80.006	19.993	103.839	19.834	4.347	0.500
285.000	227.792	80.008	19.993	103.850	19.830	4.613	0.500
292.500	231.579	80.007	19.993	103.852	19.826	4.935	0.503
300.000	235.307	80.007	19.993	103.853	19.817	5.576	0.456
307.500	239.046	80.007	19.993	103.857	19.810	6.089	0.478
315.000	242.770	80.008	19.993	103.857	19.804	6.502	0.502
322.500	246.575	80.009	19.992	103.863	19.798	6.933	0.514
330.000	250.423	80.010	19.993	103.841	19.792	7.369	0.542
337.500	254.180	80.008	19.993	103.850	19.782	8.120	0.502
345.000	257.974	80.011	19.994	103.857	19.778	8.401	0.520
352.500	261.772	80.010	19.993	103.858	19.767	9.176	0.529
360.000	265.510	80.007	19.993	103.848	19.759	9.783	0.481
367.500	269.242	80.006	19.994	103.849	19.748	10.584	0.492
375.000	273.016	80.007	19.993	103.868	19.738	11.337	0.474
382.500	276.731	80.008	19.994	103.875	19.726	12.168	0.479
390.000	280.514	80.008	19.993	103.881	19.709	13.409	0.503
397.500	284.275	80.008	19.992	103.883	19.693	14.603	0.501
405.000	287.968	80.009	19.993	103.876	19.676	15.850	0.511
412.500	291.805	80.009	19.993	103.898	19.653	17.505	0.503
420.000	295.571	80.008	19.994	103.905	19.632	19.036	0.523
427.500	299.325	80.009	19.993	103.907	19.609	20.713	0.519
435.000	303.100	80.008	19.994	103.909	19.583	22.567	0.517
442.500	306.890	80.006	19.994	103.929	19.555	24.658	0.523
450.000	310.678	80.007	19.993	103.945	19.525	26.823	0.523
457.500	314.451	80.008	19.993	103.943	19.489	29.455	0.507
465.000	318.217	80.008	19.994	103.955	19.454	32.015	0.534
472.500	321.948	80.006	19.993	103.960	19.417	34.666	0.497
480.000	325.757	80.009	19.993	103.981	19.371	38.016	0.520
487.500	329.544	80.008	19.993	103.991	19.322	41.615	0.508
495.000	333.282	80.009	19.992	104.006	19.273	45.131	0.500
502.500	337.044	80.009	19.994	104.024	19.217	49.236	0.479
510.000	340.836	80.010	19.992	104.050	19.156	53.693	0.516
517.500	344.594	80.009	19.992	104.063	19.087	58.719	0.513
525.000	348.331	80.008	19.993	104.062	19.028	63.026	0.496
532.500	352.131	80.006	19.993	104.072	18.969	67.333	0.514
540.000	355.938	80.007	19.992	104.066	18.920	70.894	0.493
547.500	359.697	80.008	19.994	104.062	18.905	71.934	0.513
555.000	363.517	80.004	19.995	104.034	18.920	70.798	0.534
562.500	367.328	80.004	19.995	103.991	18.980	66.383	0.514
570.000	371.177	80.008	19.993	103.932	19.094	58.086	0.516
577.500	375.033	80.007	19.992	103.868	19.246	47.059	0.522
585.000	378.898	80.008	19.994	103.827	19.409	35.208	0.529
592.500	382.724	80.010	19.993	103.787	19.538	25.827	0.520
600.000	386.503	80.009	19.992	103.786	19.614	20.299	0.506
607.500	390.287	80.008	19.993	103.784	19.648	17.858	0.489
615.000	394.092	80.008	19.993	103.786	19.656	17.280	0.503
622.500	397.916	80.008	19.995	103.789	19.656	17.264	0.521
630.000	401.609	80.008	19.993	103.781	19.644	18.137	0.480
637.500	405.377	80.006	19.993	103.792	19.638	18.595	0.484
645.000	409.121	80.006	19.994	103.772	19.621	19.780	0.516
652.500	412.849	80.008	19.993	103.782	19.608	20.720	0.501
660.000	416.558	80.006	19.993	103.768	19.589	22.120	0.538
667.500	420.284	80.007	19.994	103.777	19.566	23.763	0.500
675.000	424.000	80.011	19.993	103.773	19.548	25.119	0.505
682.500	427.814	80.011	19.994	103.772	19.529	26.460	0.532
690.000	431.604	80.007	19.993	103.762	19.510	27.877	0.533
697.500	435.443	80.009	19.994	103.771	19.490	29.299	0.498
705.000	439.353	80.007	19.993	103.769	19.471	30.701	0.512
712.500	443.336	80.007	19.994	103.757	19.454	31.939	0.528
720.000	447.292	80.009	19.994	103.752	19.439	32.974	0.553
727.500	451.298	80.010	19.994	103.759	19.430	33.681	0.535
735.000	455.250	80.008	19.994	103.747	19.429	33.701	0.542
742.500	459.208	80.007	19.993	103.743	19.437	33.135	0.543
750.000	463.163	80.008	19.994	103.741	19.460	31.460	0.522
757.500	467.069	80.009	19.993	103.747	19.489	29.354	0.501
765.000	470.542	80.009	19.994	103.746	19.531	26.323	0.454
772.500	474.798	80.006	19.993	103.750	19.577	23.007	0.545
780.000	478.587	80.008	19.994	103.755	19.625	19.516	0.520
787.500	482.387	80.007	19.995	103.756	19.665	16.600	0.510
795.000	486.227	80.007	19.992	103.752	19.709	13.375	0.539
802.500	490.095	80.007	19.994	103.752	19.738	11.290	0.512
810.000	493.950	80.008	19.993	103.754	19.765	9.312	0.537
817.500	497.779	80.009	19.993	103.755	19.783	8.013	0.496
825.000	501.561	80.008	19.994	103.750	19.802	6.642	0.486
832.500	505.248	80.007	19.993	103.766	19.815	5.735	0.501
840.000	508.971	80.009	19.994	103.757	19.825	5.017	0.448
847.500	512.747	80.008	19.994	103.756	19.828	4.768	0.498
855.000	516.611	80.008	19.994	103.758	19.835	4.232	0.517
862.500	520.447	80.008	19.994	103.757	19.838	4.049	0.539
870.000	524.268	80.009	19.994	103.749	19.845	3.556	0.494
877.500	528.197	80.008	19.993	103.754	19.845	3.519	0.543
885.000	532.121	80.007	19.993	103.753	19.847	3.379	0.497
892.500	536.009	80.008	19.993	103.752	19.852	3.016	0.506
900.000	539.896	80.009	19.992	103.751	19.855	2.831	0.488
907.500	543.835	80.008	19.994	103.754	19.853	2.934	0.489
915.000	547.704	80.009	19.994	103.749	19.855	2.820	0.541
922.500	551.518	80.009	19.994	103.761	19.855	2.782	0.485
930.000	555.398	80.007	19.994	103.748	19.855	2.820	0.513
937.500	559.159	80.006	19.994	103.747	19.854	2.867	0.523
945.000	562.974	80.005	19.995	103.749	19.855	2.828	0.498
952.500	566.763	80.007	19.993	103.759	19.856	2.749	0.533
960.000	570.628	80.008	19.993	103.754	19.858	2.571	0.519
967.500	574.594	80.008	19.994	103.765	19.861	2.394	0.563
975.000	578.486	80.008	19.994	103.758	19.858	2.562	0.543
982.500	582.495	80.010	19.994	103.758	19.858	2.555	0.553
990.000	586.428	80.009	19.993	103.751	19.860	2.427	0.537
997.500	590.399	80.010	19.993	103.754	19.860	2.474	0.531
1005.000	594.375	80.010	19.994	103.758	19.859	2.523	0.561
1012.500	598.306	80.008	19.993	103.748	19.857	2.692	0.533
1020.000	602.176	80.006	19.993	103.752	19.857	2.664	0.518
1027.499	606.030	80.008	19.993	103.741	19.858	2.557	0.528
1034.999	609.814	80.006	19.994	103.752	19.861	2.382	0.498
1042.499	613.675	80.008	19.995	103.750	19.860	2.464	0.539
1049.999	617.499	80.007	19.994	103.748	19.862	2.295	0.487
1057.499	621.260	80.010	19.992	103.751	19.861	2.378	0.526
1065.002	624.989	80.009	19.994	103.747	19.864	2.134	0.492
1072.500	628.715	80.009	19.993	103.747	19.863	2.242	0.526
1080.000	632.432	80.010	19.993	103.762	19.858	2.596	0.504
1087.500	636.152	80.011	19.994	103.752	19.859	2.500	0.475
1095.000	639.900	80.007	19.993	103.784	19.857	2.628	0.516
1102.500	643.703	80.007	19.995	103.760	19.861	2.380	0.510
1110.000	647.504	80.008	19.994	103.775	19.859	2.542	0.501
1117.500	651.339	80.008	19.994	103.776	19.858	2.593	0.531
1125.000	655.205	80.006	19.994	103.784	19.853	2.940	0.513
1132.500	659.070	80.007	19.995	103.786	19.855	2.772	0.498
1140.000	662.880	80.010	19.994	103.786	19.849	3.229	0.506
1147.500	666.722	80.010	19.992	103.789	19.850	3.167	0.490
1155.000	670.596	80.009	19.994	103.789	19.849	3.246	0.496
1162.500	674.476	80.009	19.993	103.817	19.853	2.928	0.543
1170.000	678.347	80.011	19.991	103.815	19.847	3.401	0.522
1177.500	682.143	80.009	19.992	103.818	19.843	3.657	0.526
1185.000	685.903	80.007	19.993	103.827	19.843	3.676	0.513
1192.500	689.598	80.008	19.993	103.828	19.842	3.773	0.498
1200.000	693.303	80.008	19.993	103.827	19.842	3.774	0.528
1207.500	697.043	80.006	19.994	103.843	19.841	3.856	0.517
1215.000	700.858	80.008	19.994	103.923	19.844	3.603	0.518
1222.500	704.687	80.009	19.994	103.847	19.839	4.001	0.513
1230.000	708.543	80.008	19.994	103.864	19.842	3.755	0.537
1237.500	712.351	80.008	19.993	103.847	19.841	3.853	0.492
1245.000	716.298	80.012	19.993	103.825	19.840	3.872	0.541
1252.500	720.125	80.010	19.991	103.799	19.840	3.898	0.483
1260.000	723.999	80.008	19.993	103.787	19.847	3.411	0.511
1267.500	727.835	80.009	19.994	103.767	19.849	3.205	0.512
1275.000	731.676	80.007	19.994	103.756	19.851	3.100	0.520
1282.500	735.534	80.007	19.993	103.752	19.849	3.271	0.495
1290.000	739.358	80.007	19.992	103.745	19.852	3.004	0.533
1297.500	743.253	80.007	19.994	103.749	19.852	3.029	0.507
1298.000	743.514	80.008	19.995	103.727	19.854	2.890	0.551