File: 01_Data/Fiberglas_Insulation3A/MCC/Fiberglas_Insulation3A_MCC_30K_min_220218_R2.txt
Sample ID:	C:\MCC\MCC Cal\Test\Fiberglas_Insulation3A_MCC_30K_min_220218_R2.txt
Sample Weight (mg):	4.78
Heating Rate (C/s):	0.5
Combustor Temp (C):	900
N2 Flow Rate (cc/min):	80
O2 Flow Rate (cc/min):	20
Calibration File:	C:\MCC\MCC Cal\Coeff1 JN10440_30_210304.txt.txt
T Correction Coefficients:	0	1.024463	0
Time Shift (s):	14
*
Time (s)	Temperature (C)	N2 flow rate (cc/min)	O2 flow rate (cc/min)	Flow Rate (cc/min)	Oxygen (%)	HRR (W/g)	Heating rate (C/s)
0.000	113.134	80.004	19.997	103.689	19.966	-0.087	-0.030
8.000	113.158	80.003	19.994	103.689	19.960	0.341	-0.019
16.001	113.217	80.006	19.995	103.777	19.951	0.957	0.017
24.000	113.541	80.007	19.993	103.855	19.933	2.132	0.063
32.000	114.404	80.008	19.993	103.894	19.925	2.706	0.136
40.000	115.761	80.007	19.992	103.889	19.919	3.087	0.187
48.001	117.442	80.007	19.995	103.906	19.917	3.235	0.224
56.000	119.384	80.005	19.994	103.946	19.913	3.530	0.266
64.001	121.757	80.005	19.993	103.950	19.909	3.813	0.320
72.000	124.388	80.005	19.995	103.962	19.899	4.488	0.331
80.000	127.360	80.005	19.994	103.956	19.896	4.652	0.364
88.000	130.551	80.004	19.994	103.993	19.899	4.495	0.422
96.000	133.966	80.006	19.996	103.977	19.896	4.669	0.434
104.000	137.541	80.006	19.994	103.953	19.894	4.771	0.470
112.000	141.285	80.004	19.992	103.955	19.894	4.790	0.478
120.000	145.163	80.006	19.992	103.957	19.897	4.593	0.483
128.000	149.116	80.009	19.993	103.954	19.895	4.702	0.521
136.000	153.129	80.005	19.995	104.013	19.894	4.796	0.513
144.000	157.093	80.006	19.994	103.955	19.891	4.992	0.502
152.000	161.129	80.005	19.994	103.945	19.892	4.923	0.544
160.000	165.205	80.004	19.993	103.933	19.889	5.148	0.495
168.000	169.275	80.004	19.995	103.918	19.894	4.817	0.482
176.000	173.285	80.005	19.993	103.949	19.893	4.842	0.477
184.000	177.304	80.007	19.993	103.904	19.895	4.739	0.512
192.000	181.266	80.006	19.995	103.939	19.893	4.899	0.492
200.000	185.280	80.007	19.995	103.932	19.889	5.139	0.520
208.000	189.297	80.008	19.991	103.915	19.887	5.278	0.511
216.001	193.214	80.006	19.992	103.916	19.886	5.368	0.530
224.000	197.128	80.004	19.992	103.916	19.878	5.852	0.528
232.000	201.014	80.004	19.993	103.914	19.879	5.817	0.498
240.000	204.946	80.005	19.994	103.924	19.872	6.284	0.484
248.000	208.924	80.005	19.994	103.907	19.865	6.793	0.493
256.000	212.856	80.005	19.994	103.918	19.861	7.054	0.504
264.000	216.789	80.005	19.995	103.893	19.855	7.445	0.512
272.000	220.830	80.007	19.996	103.900	19.848	7.935	0.483
280.000	224.810	80.006	19.993	103.913	19.842	8.344	0.510
288.000	228.840	80.008	19.994	103.888	19.840	8.486	0.541
296.000	232.848	80.007	19.992	103.872	19.830	9.110	0.495
304.000	236.910	80.005	19.994	103.883	19.820	9.830	0.564
312.000	240.822	80.006	19.993	103.918	19.815	10.167	0.469
320.000	244.884	80.007	19.994	103.902	19.814	10.216	0.522
328.000	248.935	80.006	19.995	103.868	19.795	11.506	0.533
336.000	252.991	80.005	19.993	103.876	19.786	12.125	0.489
344.000	256.991	80.005	19.994	103.914	19.778	12.662	0.514
352.000	260.944	80.006	19.994	103.897	19.763	13.654	0.505
360.000	264.980	80.005	19.995	103.917	19.754	14.304	0.527
368.000	268.906	80.007	19.994	103.881	19.742	15.099	0.464
376.000	272.927	80.008	19.994	103.904	19.723	16.380	0.499
384.000	276.894	80.004	19.993	103.913	19.708	17.422	0.482
392.000	280.850	80.006	19.994	103.920	19.690	18.640	0.506
400.000	284.788	80.005	19.995	103.934	19.666	20.242	0.509
408.000	288.751	80.005	19.993	103.949	19.649	21.459	0.506
416.000	292.696	80.004	19.994	103.958	19.620	23.366	0.473
424.000	296.700	80.003	19.993	103.960	19.595	25.092	0.491
432.000	300.758	80.006	19.994	103.975	19.564	27.207	0.527
440.000	304.762	80.006	19.994	103.991	19.530	29.492	0.479
448.000	308.830	80.007	19.994	103.988	19.496	31.852	0.526
456.000	312.892	80.005	19.994	104.010	19.454	34.699	0.525
464.000	316.979	80.005	19.994	104.008	19.411	37.588	0.519
472.000	321.012	80.006	19.993	104.035	19.362	40.911	0.573
480.000	325.037	80.004	19.993	104.043	19.310	44.499	0.474
488.000	329.185	80.004	19.994	104.075	19.249	48.631	0.533
496.000	333.256	80.004	19.994	104.073	19.184	53.061	0.523
504.000	337.266	80.005	19.994	104.076	19.113	57.894	0.485
512.000	341.334	80.008	19.994	104.155	19.042	62.719	0.562
520.000	345.287	80.006	19.993	104.123	18.966	67.890	0.455
528.000	349.360	80.006	19.994	104.136	18.903	72.174	0.474
536.000	353.415	80.008	19.994	104.149	18.856	75.358	0.536
544.000	357.441	80.006	19.994	104.148	18.834	76.788	0.501
552.000	361.519	80.004	19.994	104.099	18.852	75.539	0.527
560.000	365.579	80.005	19.994	104.041	18.929	70.280	0.513
568.000	369.662	80.006	19.993	103.984	19.050	62.030	0.503
576.000	373.773	80.006	19.993	103.944	19.205	51.494	0.527
584.000	377.822	80.005	19.994	103.863	19.366	40.575	0.536
592.000	381.879	80.006	19.993	103.834	19.494	31.883	0.476
600.000	385.955	80.007	19.993	103.845	19.573	26.550	0.503
608.000	389.942	80.006	19.993	103.841	19.608	24.193	0.504
616.000	394.006	80.007	19.993	103.840	19.607	24.235	0.499
624.000	398.099	80.009	19.994	103.837	19.602	24.595	0.497
632.000	402.167	80.005	19.994	103.834	19.589	25.493	0.522
640.000	406.159	80.005	19.994	103.849	19.575	26.389	0.480
648.000	410.289	80.005	19.995	103.854	19.555	27.779	0.522
656.000	414.362	80.006	19.995	103.824	19.532	29.296	0.485
664.000	418.389	80.004	19.995	103.868	19.514	30.593	0.517
672.000	422.545	80.006	19.993	103.889	19.489	32.277	0.490
680.000	426.718	80.008	19.994	103.833	19.464	33.924	0.512
688.000	430.806	80.007	19.994	103.834	19.440	35.585	0.485
696.000	434.905	80.007	19.993	103.841	19.418	37.063	0.519
704.000	438.964	80.009	19.994	103.808	19.392	38.803	0.503
712.000	442.923	80.006	19.993	103.809	19.382	39.514	0.494
720.000	446.830	80.007	19.995	103.833	19.374	40.065	0.475
728.000	450.787	80.006	19.994	103.805	19.375	39.970	0.520
736.000	454.801	80.006	19.992	103.805	19.379	39.721	0.535
744.000	458.758	80.003	19.992	103.826	19.403	38.055	0.511
752.000	462.783	80.023	20.002	103.837	19.428	36.387	0.492
760.000	466.857	80.014	19.996	103.851	19.460	34.210	0.510
768.000	470.923	80.007	19.993	103.832	19.503	31.269	0.530
776.000	475.009	80.006	19.993	103.827	19.546	28.367	0.517
784.000	479.065	80.008	19.993	103.850	19.597	24.932	0.490
792.000	483.207	80.007	19.993	103.822	19.631	22.592	0.490
800.000	487.388	80.006	19.993	103.811	19.667	20.214	0.496
808.000	491.553	80.005	19.992	103.847	19.693	18.447	0.524
816.000	495.725	80.005	19.993	103.862	19.717	16.815	0.559
824.000	499.837	80.005	19.993	103.839	19.737	15.448	0.529
832.000	503.929	80.004	19.993	103.831	19.745	14.900	0.496
840.000	507.943	80.005	19.994	103.837	19.756	14.180	0.474
848.000	512.061	80.008	19.994	103.832	19.764	13.638	0.509
856.000	516.108	80.008	19.995	103.816	19.770	13.202	0.489
864.000	520.158	80.010	19.993	103.870	19.774	12.951	0.471
872.001	524.278	80.009	19.993	103.844	19.778	12.634	0.513
880.000	528.391	80.006	19.993	103.852	19.775	12.857	0.523
888.000	532.491	80.006	19.993	103.835	19.778	12.667	0.516
896.000	536.595	80.006	19.992	103.828	19.782	12.383	0.527
904.000	540.673	80.005	19.992	103.844	19.781	12.463	0.502
912.000	544.780	80.007	19.994	103.840	19.779	12.581	0.529
920.000	548.933	80.006	19.995	103.842	19.777	12.694	0.550
928.000	553.025	80.008	19.993	103.833	19.780	12.542	0.492
936.000	557.229	80.006	19.994	103.833	19.780	12.535	0.518
944.000	561.401	80.006	19.994	103.845	19.778	12.636	0.535
952.000	565.529	80.008	19.993	103.837	19.776	12.771	0.505
960.000	569.681	80.006	19.993	103.835	19.786	12.129	0.554
968.000	573.854	80.007	19.993	103.836	19.787	12.018	0.540
976.000	578.053	80.005	19.994	103.821	19.785	12.215	0.484
984.000	582.182	80.007	19.994	103.838	19.781	12.430	0.506
992.000	586.232	80.006	19.992	103.838	19.779	12.607	0.497
1000.000	590.367	80.006	19.994	103.817	19.777	12.741	0.500
1008.000	594.494	80.008	19.994	103.817	19.780	12.518	0.537
1016.000	598.520	80.007	19.994	103.839	19.773	13.007	0.505
1024.000	602.587	80.006	19.993	103.827	19.776	12.763	0.500
1032.000	606.659	80.008	19.993	103.833	19.776	12.775	0.520
1040.000	610.688	80.007	19.995	103.827	19.775	12.868	0.497
1048.000	614.753	80.005	19.993	103.834	19.778	12.630	0.532
1056.000	618.763	80.007	19.995	103.825	19.776	12.782	0.505
1064.000	622.783	80.007	19.992	103.835	19.772	13.041	0.528
1072.001	626.835	80.008	19.994	103.843	19.771	13.142	0.526
1080.000	630.912	80.007	19.994	103.838	19.772	13.036	0.529
1088.000	635.068	80.007	19.993	103.839	19.768	13.358	0.548
1096.001	639.257	80.008	19.992	103.862	19.765	13.548	0.499
1104.000	643.319	80.008	19.992	103.860	19.763	13.697	0.504
1112.000	647.463	80.006	19.993	103.859	19.769	13.255	0.501
1120.000	651.590	80.009	19.993	103.843	19.761	13.792	0.517
1128.000	655.683	80.009	19.994	103.874	19.761	13.821	0.509
1136.000	659.801	80.007	19.995	103.905	19.760	13.913	0.525
1144.000	663.831	80.006	19.994	103.895	19.756	14.179	0.498
1152.000	667.940	80.005	19.993	103.911	19.753	14.381	0.534
1160.001	671.925	80.006	19.993	103.893	19.745	14.923	0.508
1168.000	675.990	80.008	19.993	103.901	19.745	14.875	0.527
1176.000	680.064	80.007	19.993	103.905	19.745	14.879	0.502
1184.001	684.083	80.008	19.993	103.921	19.743	15.025	0.523
1192.000	688.135	80.007	19.993	103.910	19.739	15.327	0.486
1200.000	692.112	80.007	19.993	103.921	19.741	15.204	0.448
1208.000	696.176	80.009	19.993	103.951	19.735	15.583	0.486
1216.000	700.312	80.007	19.994	103.953	19.732	15.823	0.517
1224.001	704.399	80.006	19.993	103.944	19.730	15.935	0.526
1232.001	708.487	80.006	19.993	103.937	19.726	16.201	0.527
1240.001	712.542	80.006	19.994	103.916	19.726	16.165	0.528
1248.000	716.644	80.006	19.994	103.891	19.729	16.006	0.489
1256.000	720.707	80.006	19.994	103.892	19.733	15.707	0.512
1264.000	724.822	80.008	19.993	103.836	19.744	14.956	0.516
1272.001	728.854	80.007	19.993	103.833	19.747	14.770	0.511
1280.000	732.943	80.007	19.994	103.843	19.748	14.676	0.527
1288.000	736.976	80.009	19.993	103.840	19.741	15.176	0.506
1296.000	740.993	80.008	19.992	103.831	19.742	15.111	0.492
1304.000	745.096	80.006	19.994	103.855	19.743	15.005	0.496
1304.500	745.326	80.007	19.993	103.856	19.743	15.010	0.504