File: 01_Data/Nylon_Carpet_LowPile/MCC/Nylon_Carpet_LowPile_MCC_30K_min_211028_R2.txt
Sample ID:	C:\MCC\MCC Cal\Test\Nylon_Carpet_LowPile_MCC_30K_min_211028_R2.txt
Sample Weight (mg):	4.96
Heating Rate (C/s):	0.5
Combustor Temp (C):	900
N2 Flow Rate (cc/min):	80
O2 Flow Rate (cc/min):	20
Calibration File:	C:\MCC\MCC Cal\Coeff1 JN10440_30_210304.txt.txt
T Correction Coefficients:	0	1.024463	0
Time Shift (s):	14
*
Time (s)	Temperature (C)	N2 flow rate (cc/min)	O2 flow rate (cc/min)	Flow Rate (cc/min)	Oxygen (%)	HRR (W/g)	Heating rate (C/s)
0.000	107.533	79.985	19.997	102.931	20.143	0.041	-0.012
8.000	107.497	80.003	19.996	102.933	20.139	0.295	0.010
16.000	107.505	79.984	19.996	102.950	20.139	0.329	-0.042
24.000	107.591	79.993	19.996	103.005	20.131	0.849	-0.003
32.000	107.979	80.007	19.994	103.011	20.128	1.025	0.054
40.000	108.480	79.986	19.995	103.027	20.123	1.351	0.092
48.000	109.217	80.003	19.994	103.135	20.106	2.436	0.086
56.000	110.499	80.011	19.995	103.160	20.101	2.766	0.186
64.000	112.173	80.003	19.995	103.186	20.096	3.075	0.260
72.000	114.340	79.997	19.996	103.207	20.092	3.369	0.298
80.000	116.827	80.002	19.996	103.215	20.089	3.584	0.361
88.000	119.646	79.998	19.997	103.210	20.085	3.813	0.376
96.000	122.806	80.008	19.995	103.199	20.089	3.564	0.416
104.001	126.120	80.003	19.995	103.215	20.089	3.568	0.414
112.000	129.633	80.002	19.996	103.215	20.091	3.452	0.455
120.000	133.273	79.995	19.995	103.205	20.088	3.628	0.455
128.000	136.984	79.999	19.994	103.213	20.087	3.697	0.468
136.000	140.827	79.987	19.996	103.219	20.085	3.812	0.492
144.000	144.770	79.995	19.995	103.205	20.083	3.927	0.437
152.000	148.764	80.002	19.994	103.210	20.085	3.798	0.476
160.000	152.871	79.998	19.995	103.193	20.089	3.533	0.528
168.000	156.891	79.990	19.995	103.195	20.089	3.551	0.512
176.000	160.958	80.004	19.994	103.190	20.087	3.673	0.524
184.000	165.072	79.996	19.997	103.179	20.085	3.808	0.539
192.000	169.036	79.998	19.994	103.170	20.088	3.611	0.505
200.000	172.992	79.990	19.997	103.191	20.090	3.484	0.460
208.000	177.000	79.990	19.996	103.154	20.084	3.863	0.531
216.000	180.944	80.015	19.993	103.167	20.091	3.457	0.499
224.000	184.889	79.998	19.995	103.157	20.091	3.416	0.519
232.000	188.803	80.000	19.994	103.162	20.088	3.650	0.460
240.000	192.748	79.993	19.996	103.154	20.093	3.289	0.494
248.000	196.621	79.996	19.996	103.150	20.093	3.316	0.509
256.000	200.542	79.999	19.998	103.145	20.092	3.387	0.517
264.000	204.399	79.992	19.996	103.155	20.095	3.140	0.466
272.000	208.331	79.995	19.996	103.156	20.095	3.195	0.494
280.000	212.304	80.006	19.995	103.149	20.092	3.387	0.506
288.000	216.244	80.004	19.994	103.139	20.093	3.279	0.485
296.000	220.150	79.997	19.995	103.134	20.097	3.013	0.467
304.000	224.050	80.000	19.996	103.132	20.094	3.262	0.504
312.000	227.993	79.999	19.995	103.130	20.094	3.226	0.514
320.000	231.927	79.999	19.995	103.132	20.088	3.637	0.461
328.000	235.930	79.997	19.996	103.127	20.088	3.614	0.511
336.000	239.865	79.998	19.996	103.131	20.092	3.377	0.479
344.000	243.837	79.999	19.995	103.121	20.094	3.238	0.498
352.000	247.800	79.999	19.997	103.129	20.092	3.386	0.481
360.000	251.887	79.995	19.997	103.124	20.093	3.291	0.493
368.000	255.923	79.997	19.995	103.117	20.092	3.338	0.535
376.000	259.871	80.000	19.995	103.112	20.089	3.567	0.489
384.000	263.853	79.998	19.995	103.115	20.091	3.411	0.498
392.000	267.808	80.000	19.996	103.113	20.094	3.219	0.478
400.000	271.838	80.001	19.995	103.114	20.092	3.375	0.517
408.000	275.821	79.998	19.996	103.112	20.090	3.472	0.481
416.000	279.747	79.997	19.996	103.114	20.093	3.300	0.511
424.000	283.690	79.999	19.995	103.109	20.090	3.495	0.473
432.000	287.612	79.997	19.995	103.109	20.089	3.565	0.484
440.000	291.553	79.998	19.996	103.115	20.083	3.925	0.532
448.000	295.452	79.998	19.996	103.105	20.081	4.105	0.497
456.000	299.450	79.999	19.997	103.105	20.076	4.403	0.482
464.000	303.502	79.999	19.997	103.099	20.072	4.629	0.525
472.000	307.630	80.001	19.994	103.115	20.063	5.227	0.542
480.000	311.792	80.001	19.994	103.102	20.054	5.807	0.522
488.000	315.984	80.000	19.995	103.158	20.042	6.634	0.498
496.000	320.123	79.999	19.994	103.109	20.030	7.363	0.516
504.000	324.203	79.997	19.995	103.110	20.011	8.603	0.504
512.000	328.353	79.998	19.995	103.093	19.988	10.096	0.502
520.000	332.419	79.997	19.995	103.107	19.966	11.534	0.540
528.000	336.474	79.998	19.996	103.112	19.937	13.382	0.505
536.000	340.532	80.000	19.996	103.102	19.894	16.226	0.497
544.000	344.558	79.996	19.996	103.109	19.848	19.165	0.487
552.000	348.479	79.999	19.996	103.115	19.797	22.514	0.478
560.000	352.475	80.000	19.994	103.117	19.739	26.252	0.492
568.000	356.487	79.998	19.996	103.115	19.669	30.779	0.509
576.000	360.478	79.998	19.995	103.115	19.595	35.628	0.486
584.000	364.430	79.998	19.995	103.115	19.514	40.852	0.491
592.000	368.454	79.997	19.995	103.114	19.419	47.007	0.522
600.000	372.499	79.998	19.994	103.116	19.322	53.283	0.533
608.000	376.486	79.999	19.995	103.123	19.207	60.791	0.478
616.000	380.487	80.000	19.996	103.117	19.081	68.946	0.513
624.000	384.483	79.998	19.994	103.130	18.952	77.316	0.507
632.000	388.377	80.000	19.994	103.137	18.808	86.658	0.522
640.000	392.366	80.000	19.996	103.128	18.657	96.460	0.515
648.000	396.436	79.999	19.996	103.113	18.530	104.687	0.491
656.000	400.491	79.999	19.996	103.112	18.424	111.542	0.520
664.000	404.611	79.998	19.995	103.088	18.377	114.542	0.527
672.000	408.741	79.997	19.995	103.048	18.424	111.475	0.527
680.000	412.878	79.998	19.995	103.033	18.584	101.032	0.495
688.000	417.069	79.997	19.995	103.005	18.827	85.304	0.519
696.000	421.173	79.999	19.995	103.011	19.086	68.531	0.522
704.000	425.257	79.999	19.996	103.033	19.270	56.653	0.483
712.000	429.316	79.998	19.997	103.035	19.374	49.922	0.479
720.000	433.259	80.002	19.995	103.034	19.420	46.885	0.516
728.000	437.284	79.998	19.995	103.035	19.440	45.606	0.537
736.000	441.210	79.998	19.996	103.031	19.447	45.161	0.490
744.000	445.165	79.999	19.994	103.028	19.438	45.745	0.475
752.000	449.018	79.997	19.995	103.032	19.429	46.342	0.469
760.000	452.956	79.998	19.995	103.004	19.418	47.056	0.534
768.000	456.842	79.997	19.996	103.006	19.405	47.898	0.499
776.000	460.839	79.999	19.995	103.001	19.392	48.707	0.501
784.000	464.896	79.999	19.994	102.999	19.380	49.478	0.479
792.000	469.166	79.999	19.995	102.996	19.384	49.231	0.545
800.000	473.434	79.998	19.995	102.977	19.406	47.793	0.557
808.000	477.782	79.998	19.995	102.975	19.474	43.380	0.554
816.000	482.128	79.997	19.995	102.971	19.607	34.794	0.533
824.000	486.402	79.997	19.996	103.000	19.787	23.153	0.529
832.000	490.703	79.996	19.997	103.036	19.945	12.858	0.542
840.000	495.013	79.997	19.996	103.040	20.026	7.615	0.536
848.000	499.280	79.997	19.995	103.048	20.057	5.617	0.553
856.000	503.454	79.998	19.995	103.062	20.073	4.620	0.518
864.000	507.632	79.999	19.994	103.058	20.077	4.312	0.534
872.000	511.792	79.998	19.995	103.049	20.079	4.219	0.534
880.000	515.905	79.999	19.995	103.061	20.081	4.075	0.504
888.000	519.993	80.000	19.995	103.055	20.083	3.939	0.534
896.000	524.112	79.999	19.995	103.041	20.080	4.109	0.521
904.000	528.138	79.997	19.995	103.051	20.087	3.654	0.524
912.000	532.199	79.998	19.995	103.051	20.087	3.688	0.511
920.000	536.216	79.997	19.996	103.053	20.086	3.746	0.526
928.000	540.134	79.996	19.995	103.057	20.088	3.620	0.490
936.000	543.927	79.996	19.995	103.057	20.087	3.692	0.487
944.000	547.754	79.999	19.995	103.046	20.084	3.867	0.469
952.000	551.561	79.999	19.996	103.054	20.092	3.355	0.475
960.000	555.436	80.001	19.995	103.070	20.083	3.926	0.500
968.000	559.345	80.001	19.993	103.061	20.084	3.867	0.532
976.000	563.398	79.999	19.996	103.072	20.086	3.761	0.500
984.000	567.487	79.999	19.996	103.063	20.083	3.934	0.511
992.000	571.552	79.998	19.996	103.053	20.084	3.854	0.514
1000.000	575.723	79.998	19.996	103.065	20.086	3.774	0.507
1008.000	579.875	79.996	19.996	103.077	20.085	3.798	0.523
1016.000	584.017	79.997	19.997	103.070	20.086	3.756	0.492
1024.000	588.181	80.000	19.996	103.077	20.084	3.885	0.528
1032.001	592.474	80.000	19.995	103.062	20.087	3.660	0.519
1040.001	596.896	80.000	19.995	103.073	20.085	3.796	0.550
1048.000	601.216	80.003	19.995	103.070	20.081	4.052	0.519
1056.000	605.560	79.999	19.994	103.076	20.082	4.037	0.563
1064.000	609.819	79.999	19.995	103.075	20.082	4.026	0.541
1072.000	614.101	80.000	19.995	103.076	20.078	4.298	0.525
1080.000	618.277	79.999	19.994	103.070	20.078	4.285	0.508
1088.000	622.412	79.998	19.996	103.076	20.078	4.273	0.532
1096.001	626.499	79.999	19.996	103.075	20.082	4.030	0.512
1104.000	630.626	80.000	19.995	103.077	20.080	4.125	0.508
1112.000	634.713	79.999	19.997	103.078	20.079	4.202	0.502
1120.000	638.805	80.001	19.994	103.080	20.082	4.038	0.532
1128.000	642.806	80.002	19.995	103.101	20.077	4.355	0.492
1136.000	646.837	80.000	19.996	103.109	20.074	4.509	0.504
1144.000	650.834	80.000	19.995	103.110	20.073	4.572	0.492
1152.000	654.831	79.999	19.994	103.106	20.073	4.597	0.518
1160.001	658.871	79.999	19.995	103.120	20.072	4.651	0.480
1168.000	662.866	80.000	19.997	103.138	20.069	4.838	0.503
1176.000	666.804	80.000	19.996	103.136	20.069	4.845	0.475
1184.000	670.860	80.002	19.999	103.148	20.067	4.992	0.539
1192.000	674.841	80.000	19.992	103.159	20.066	5.079	0.497
1200.001	678.883	80.001	19.996	103.153	20.066	5.039	0.495
1208.000	682.865	79.998	19.997	103.192	20.059	5.497	0.498
1216.000	686.880	80.000	19.993	103.192	20.057	5.660	0.519
1224.000	690.867	79.999	19.994	103.203	20.053	5.877	0.521
1232.000	694.883	79.998	19.999	103.217	20.048	6.250	0.500
1240.000	698.911	79.997	19.996	103.233	20.046	6.364	0.531
1248.000	702.987	79.993	19.994	103.240	20.044	6.474	0.540
1256.000	707.018	79.999	19.996	103.256	20.044	6.465	0.482
1264.000	711.096	80.000	19.994	103.284	20.041	6.679	0.503
1272.000	715.057	79.992	20.001	103.301	20.038	6.871	0.497
1280.000	719.120	79.997	19.998	103.308	20.036	7.019	0.515
1288.000	723.127	80.001	19.996	103.309	20.032	7.261	0.523
1296.000	727.145	79.998	19.997	103.312	20.033	7.179	0.539
1304.000	731.146	80.001	19.995	103.319	20.038	6.896	0.490
1312.000	735.143	79.997	19.996	103.310	20.032	7.277	0.494
1320.000	739.118	80.000	19.994	103.303	20.040	6.724	0.509
1328.000	743.085	80.001	19.991	103.299	20.039	6.817	0.510
1329.500	743.793	80.001	19.991	103.289	20.041	6.664	0.485