File: 01_Data/Nylon_Carpet_LowPile/MCC/Nylon_Carpet_LowPile_MCC_30K_min_211028_R3.txt
Sample ID:	C:\MCC\MCC Cal\Test\Nylon_Carpet_LowPile_MCC_30K_min_211028_R3.txt
Sample Weight (mg):	4.63
Heating Rate (C/s):	0.5
Combustor Temp (C):	900
N2 Flow Rate (cc/min):	80
O2 Flow Rate (cc/min):	20
Calibration File:	C:\MCC\MCC Cal\Coeff1 JN10440_30_210304.txt.txt
T Correction Coefficients:	0	1.024463	0
Time Shift (s):	14
*
Time (s)	Temperature (C)	N2 flow rate (cc/min)	O2 flow rate (cc/min)	Flow Rate (cc/min)	Oxygen (%)	HRR (W/g)	Heating rate (C/s)
0.000	107.823	80.001	19.994	102.950	20.100	0.052	0.001
8.000	107.786	80.002	19.996	102.947	20.100	0.101	0.001
16.000	107.810	80.003	19.996	102.958	20.095	0.452	-0.016
24.000	107.865	80.000	19.994	103.019	20.085	1.140	0.005
32.000	108.313	80.001	19.994	103.120	20.069	2.195	0.049
40.001	109.252	80.000	19.995	103.148	20.064	2.552	0.135
48.000	110.698	79.999	19.997	103.182	20.058	2.961	0.207
56.000	112.518	79.998	19.996	103.193	20.054	3.258	0.228
64.000	114.774	80.001	19.995	103.195	20.053	3.337	0.283
72.000	117.303	80.000	19.994	103.195	20.053	3.342	0.315
80.000	120.100	80.000	19.996	103.201	20.050	3.557	0.386
88.000	123.145	80.001	19.994	103.193	20.051	3.483	0.359
96.000	126.405	80.003	19.995	103.216	20.045	3.899	0.439
104.000	129.880	80.000	19.995	103.221	20.052	3.426	0.444
112.000	133.503	80.000	19.994	103.226	20.054	3.291	0.483
120.000	137.222	80.001	19.994	103.225	20.049	3.650	0.478
128.000	141.138	80.000	19.994	103.199	20.056	3.156	0.475
136.001	145.052	80.000	19.995	103.196	20.050	3.549	0.499
144.000	149.031	80.000	19.995	103.193	20.050	3.572	0.494
152.000	152.994	80.000	19.995	103.192	20.054	3.296	0.460
160.000	157.009	79.999	19.996	103.193	20.055	3.179	0.507
168.000	161.013	80.000	19.996	103.184	20.068	2.298	0.525
176.000	164.308	80.001	19.996	102.803	20.112	-0.730	0.304
184.000	166.040	80.001	19.993	102.801	20.124	-1.616	0.170
192.000	166.644	79.999	19.995	102.802	20.129	-1.916	0.043
200.000	166.288	80.000	19.995	102.800	20.132	-2.124	-0.071
208.000	165.424	80.000	19.995	102.799	20.129	-1.964	-0.126
216.000	163.978	79.999	19.995	102.790	20.132	-2.130	-0.199
224.000	162.293	79.999	19.993	102.791	20.132	-2.128	-0.229
232.000	160.379	80.000	19.995	102.800	20.131	-2.048	-0.255
240.000	158.315	80.002	19.996	102.800	20.134	-2.279	-0.287
248.000	156.210	79.998	19.995	102.802	20.133	-2.233	-0.266
256.000	154.113	80.000	19.995	102.807	20.133	-2.221	-0.297
264.000	152.199	80.003	19.995	103.490	20.044	3.948	-0.167
272.000	152.800	80.000	19.996	103.600	19.990	7.723	0.209
280.000	155.983	80.000	19.995	103.511	19.993	7.510	0.509
288.000	160.773	80.000	19.995	103.461	19.998	7.147	0.668
296.000	166.796	80.000	19.994	103.435	20.010	6.338	0.768
304.000	173.463	79.998	19.996	103.397	20.016	5.938	0.846
312.000	180.730	80.001	19.995	103.353	20.022	5.510	0.937
320.000	188.195	80.001	19.994	103.315	20.029	4.994	0.903
328.000	195.550	79.999	19.995	103.291	20.035	4.625	0.922
336.000	202.791	80.000	19.995	103.273	20.038	4.393	0.892
344.000	209.870	80.003	19.995	103.251	20.048	3.683	0.879
352.000	216.751	80.000	19.996	103.227	20.047	3.774	0.842
360.000	223.460	79.999	19.996	103.226	20.049	3.588	0.830
368.000	229.887	80.000	19.995	103.200	20.053	3.328	0.789
376.000	236.003	80.000	19.995	103.186	20.053	3.315	0.773
384.000	241.763	79.999	19.995	103.181	20.057	3.077	0.712
392.000	247.285	79.999	19.995	103.159	20.056	3.140	0.661
400.000	252.615	80.000	19.994	103.156	20.058	3.024	0.625
408.000	257.691	80.001	19.995	103.149	20.059	2.900	0.626
416.000	262.497	80.000	19.996	103.140	20.062	2.698	0.601
424.000	267.204	80.002	19.997	103.132	20.063	2.644	0.605
432.000	271.705	80.002	19.996	103.118	20.067	2.384	0.587
440.000	276.018	79.999	19.996	103.114	20.064	2.541	0.577
448.000	280.151	79.997	19.997	103.113	20.065	2.522	0.524
456.000	284.209	79.999	19.996	103.115	20.066	2.401	0.535
464.000	288.076	79.998	19.995	103.117	20.063	2.675	0.476
472.000	292.003	79.999	19.996	103.114	20.061	2.784	0.486
480.000	295.830	80.001	19.995	103.111	20.058	2.995	0.449
488.000	299.654	80.001	19.996	103.117	20.053	3.361	0.492
496.000	303.521	80.000	19.995	103.113	20.051	3.451	0.497
504.000	307.324	80.002	19.995	103.114	20.042	4.091	0.497
512.000	311.236	80.001	19.995	103.116	20.030	4.940	0.517
520.000	315.107	79.999	19.995	103.116	20.021	5.572	0.459
528.000	319.085	79.998	19.995	103.118	20.010	6.325	0.527
536.000	323.019	79.999	19.996	103.118	19.995	7.354	0.491
544.000	327.077	80.000	19.996	103.114	19.978	8.575	0.514
552.000	331.175	79.999	19.997	103.115	19.961	9.730	0.521
560.000	335.294	80.001	19.995	103.116	19.929	11.978	0.524
568.000	339.414	80.002	19.994	103.114	19.897	14.201	0.528
576.000	343.485	79.999	19.995	103.116	19.857	16.981	0.478
584.000	347.611	80.001	19.994	103.118	19.816	19.786	0.497
592.000	351.803	80.002	19.994	103.118	19.761	23.633	0.522
600.000	355.820	79.999	19.994	103.115	19.696	28.131	0.522
608.000	359.960	79.998	19.997	103.115	19.624	33.140	0.497
616.000	363.957	79.999	19.996	103.124	19.548	38.453	0.499
624.000	367.967	80.000	19.995	103.122	19.457	44.732	0.494
632.000	372.059	79.998	19.996	103.123	19.364	51.195	0.535
640.000	376.135	79.997	19.996	103.126	19.262	58.313	0.512
648.000	380.223	79.998	19.995	103.141	19.139	66.835	0.552
656.000	384.296	79.999	19.994	103.152	19.004	76.212	0.534
664.000	388.365	80.001	19.994	103.143	18.852	86.819	0.529
672.000	392.404	80.002	19.994	103.123	18.697	97.551	0.515
680.000	396.441	80.002	19.995	103.115	18.563	106.805	0.502
688.000	400.394	79.999	19.995	103.109	18.468	113.393	0.484
696.000	404.369	79.999	19.995	103.077	18.447	114.876	0.498
704.000	408.377	79.999	19.995	103.045	18.533	108.874	0.520
712.000	412.435	80.000	19.996	103.032	18.733	94.997	0.536
720.000	416.439	79.999	19.995	103.020	18.998	76.623	0.509
728.000	420.520	80.000	19.996	103.034	19.223	60.945	0.524
736.000	424.553	79.999	19.996	103.037	19.372	50.625	0.522
744.000	428.636	80.000	19.995	103.050	19.448	45.352	0.497
752.000	432.794	80.003	19.996	103.058	19.482	43.012	0.534
760.000	436.921	80.003	19.996	103.038	19.495	42.099	0.483
768.000	441.004	80.000	19.995	103.043	19.492	42.262	0.506
776.000	445.085	80.000	19.995	103.040	19.488	42.570	0.516
784.000	449.145	80.000	19.995	103.043	19.472	43.700	0.519
792.000	453.262	80.000	19.995	103.037	19.453	44.984	0.543
800.000	457.371	79.999	19.996	103.033	19.437	46.073	0.529
808.000	461.385	80.000	19.995	103.009	19.429	46.623	0.528
816.000	465.383	80.001	19.996	102.995	19.422	47.135	0.503
824.000	469.386	80.000	19.995	102.996	19.425	46.922	0.504
832.000	473.427	80.000	19.995	102.990	19.447	45.372	0.516
840.000	477.444	80.003	19.994	102.969	19.518	40.490	0.503
848.000	481.465	79.999	19.995	102.985	19.657	30.836	0.516
856.000	485.502	80.000	19.995	103.017	19.832	18.654	0.505
864.000	489.494	80.001	19.995	103.039	19.974	8.802	0.512
872.000	493.632	80.000	19.995	103.067	20.041	4.192	0.520
880.000	497.737	80.000	19.994	103.059	20.067	2.384	0.531
888.000	501.877	80.001	19.996	103.061	20.073	1.917	0.512
896.000	506.005	80.002	19.996	103.065	20.076	1.764	0.533
904.000	510.170	80.000	19.995	103.064	20.082	1.354	0.547
912.001	514.327	80.000	19.996	103.065	20.083	1.230	0.526
920.000	518.535	80.000	19.996	103.069	20.083	1.254	0.542
928.000	522.657	80.000	19.995	103.052	20.085	1.136	0.509
936.000	526.748	79.999	19.995	103.060	20.082	1.316	0.520
944.000	530.821	80.001	19.995	103.065	20.085	1.124	0.534
952.000	534.813	80.000	19.995	103.061	20.085	1.111	0.511
960.000	538.832	79.999	19.995	103.055	20.088	0.887	0.477
968.000	542.865	79.999	19.995	103.053	20.087	0.967	0.509
976.000	546.982	79.999	19.995	103.068	20.088	0.935	0.486
984.000	551.161	80.001	19.996	103.072	20.091	0.720	0.510
992.000	555.381	80.001	19.996	103.065	20.093	0.567	0.540
1000.000	559.575	80.002	19.994	103.054	20.091	0.726	0.505
1008.000	563.810	80.000	19.996	103.064	20.094	0.458	0.490
1016.000	567.914	80.000	19.996	103.062	20.090	0.741	0.525
1024.000	572.023	80.000	19.994	103.050	20.092	0.601	0.491
1032.000	576.191	80.000	19.996	103.049	20.088	0.883	0.511
1040.000	580.268	80.000	19.996	103.063	20.094	0.511	0.503
1048.001	584.271	79.999	19.996	103.068	20.090	0.793	0.513
1056.000	588.233	80.002	19.994	103.057	20.092	0.603	0.487
1064.000	592.113	80.001	19.995	103.054	20.093	0.546	0.497
1072.001	596.044	80.000	19.996	103.061	20.093	0.582	0.450
1080.001	599.993	80.001	19.994	103.071	20.091	0.712	0.478
1088.000	604.032	80.003	19.995	103.072	20.092	0.634	0.520
1096.000	608.078	80.001	19.995	103.075	20.091	0.718	0.539
1104.000	612.262	80.001	19.997	103.076	20.094	0.490	0.536
1112.000	616.360	79.998	19.995	103.075	20.092	0.600	0.547
1120.000	620.500	79.999	19.995	103.078	20.091	0.722	0.496
1128.000	624.532	80.000	19.995	103.073	20.089	0.826	0.490
1136.000	628.496	80.000	19.995	103.080	20.087	0.969	0.484
1144.000	632.548	80.002	19.995	103.080	20.091	0.678	0.551
1152.000	636.632	80.000	19.995	103.086	20.089	0.866	0.514
1160.001	640.740	80.003	19.996	103.096	20.084	1.152	0.512
1168.001	644.833	80.002	19.995	103.110	20.086	1.016	0.525
1176.000	648.922	79.999	19.996	103.108	20.086	1.037	0.524
1184.000	653.047	79.999	19.995	103.112	20.089	0.849	0.496
1192.000	657.101	79.998	19.996	103.111	20.084	1.173	0.520
1200.000	661.196	79.999	19.997	103.116	20.083	1.274	0.527
1208.000	665.228	80.000	19.995	103.128	20.082	1.340	0.554
1216.001	669.212	80.001	19.996	103.143	20.081	1.415	0.513
1224.000	673.200	79.999	19.995	103.152	20.079	1.507	0.468
1232.000	677.345	79.999	19.996	103.161	20.075	1.789	0.531
1240.000	681.287	80.001	19.995	103.192	20.072	2.050	0.478
1248.000	685.221	80.001	19.995	103.188	20.073	1.975	0.485
1256.000	689.195	79.999	19.996	103.191	20.071	2.087	0.497
1264.000	693.159	79.998	19.996	103.217	20.068	2.285	0.486
1272.000	697.198	79.998	19.996	103.227	20.064	2.567	0.522
1280.000	701.211	80.000	19.996	103.230	20.059	2.938	0.519
1288.001	705.175	79.998	19.997	103.247	20.056	3.148	0.497
1296.000	709.155	80.001	19.995	103.281	20.056	3.148	0.537
1304.000	713.167	80.001	19.995	103.278	20.056	3.154	0.531
1312.000	717.274	80.000	19.995	103.311	20.054	3.254	0.522
1320.000	721.441	80.001	19.995	103.315	20.052	3.420	0.523
1328.000	725.693	80.004	19.995	103.345	20.049	3.641	0.539
1336.000	729.946	79.999	19.995	103.350	20.048	3.672	0.531
1344.000	734.181	80.000	19.996	103.350	20.050	3.567	0.526
1352.001	738.389	79.999	19.997	103.328	20.050	3.515	0.501
1360.000	742.582	80.000	19.996	103.283	20.058	3.015	0.551
1361.500	743.352	80.000	19.995	103.271	20.062	2.735	0.508