File: 01_Data/PET/Cone/PET_Cone_HF50Scan_220207_R2.csv
Names,Time,Stack TC,Smoke TC,Exh Press,Smoke Comp,Smoke Meas,CO Meter,CO2 Meter,O2 Meter,Sample Mass,Ext Coeff,Start Test,Flame Verif
Chan Gain,,500,500,1,1,1,1,1,1,1,1,1.0,1.0
Offset,,0,0,0.134889,0,0,0,0,0,0,0,0.0,0.0
Gain,,1,1,25.011,12.9892,12.3331,1,1,1,1.00088,1.02973,1.0,1.0
Units,sec,C,C,Pa,%,%,%,%,%,g,/m,,
Baseline,,26.8673,28.796,156.242,96.8045,97.4984,-0.00128472,0.0909407,20.9341,-0.212895,-0.0644992,,
21,5,24.6351,26.0927,153.022,97.2077,97.9868,-0.00125543,0.0954009,20.9297,961.624,-0.0721103,0.0,0.0
42,10.25,24.7204,25.4973,152.709,97.2438,97.918,-0.00130691,0.095441,20.9298,961.604,-0.0624081,0.0,0.0
63,15.5,24.993,26.7501,155.076,97.2568,97.8701,-0.00102725,0.0949377,20.928,961.624,-0.056782,0.0,0.0
84,20.75,25.1505,26.9781,154.879,97.2909,97.8634,-0.00127144,0.0938151,20.9282,961.614,-0.0529908,0.0,0.0
105,26,25.7075,26.8895,153.295,97.2973,97.9138,-0.00153941,0.093063,20.9288,961.594,-0.0570567,0.0,0.0
126,31.25,25.5048,26.9809,155.85,97.3,97.9567,-0.00123901,0.0923992,20.9291,961.604,-0.0607564,0.0,0.0
147,36.5,25.3338,27.3952,154.046,97.3052,98.0798,-0.0011052,0.0913236,20.935,961.604,-0.0716202,0.0,0.0
168,41.75,25.9916,27.4968,154.585,97.3226,97.9721,-0.00104383,0.090404,20.9373,961.614,-0.060081,0.0,0.0
189,47,26.379,27.5377,157.381,97.3203,97.8299,-0.00124449,0.0900162,20.9364,961.574,-0.0471758,0.0,0.0
210,52.25,26.2796,28.0527,151.472,97.329,97.7113,-0.0012795,0.0901777,20.9358,961.534,-0.0354132,0.0,0.0
231,57.5,26.5489,28.0703,155.49,97.3353,97.2909,-0.00112273,0.0902518,20.9352,961.554,0.00412315,0.0,0.0
252,62.75,26.5412,28.3259,152.137,97.3448,96.9349,-0.00105703,0.0905608,20.9363,961.524,0.0381227,0.0,0.0
273,68,26.829,28.3905,157.477,97.3536,96.56,-0.000901123,0.0905788,20.9369,961.494,0.0739313,0.0,0.0
294,73.25,26.4033,28.456,152.827,97.3714,96.1418,-0.000344287,0.0906836,20.9373,961.474,0.114788,0.0,0.0
315,78.5,26.5798,28.6592,152.639,97.3682,95.7598,-4.62156e-05,0.0910871,20.9373,961.474,0.150458,0.0,0.0
336,83.75,26.8673,28.9719,156.165,97.3797,96.9499,0.000440445,0.0981769,20.9255,961.364,0.0399561,0.0,0.0
357,89,28.8347,31.093,142.811,97.3888,71.4715,0.00455474,0.222257,20.7332,960.844,2.79484,0.0,1.0
378,94.25,32.6601,36.5391,128.732,97.3829,59.8867,0.0116511,0.448126,20.4285,960.033,4.39168,0.0,0.0
399,99.5,37.8433,43.4171,136.502,97.4019,58.7455,0.0193958,0.648589,20.1818,959.022,4.56723,0.0,0.0
420,104.75,42.8726,50.9302,126.549,97.4198,56.5015,0.0289283,0.853588,19.9511,957.621,4.92068,0.0,0.0
441,110,49.7783,58.9842,117.005,97.4158,51.2982,0.037066,1.04666,19.7389,956.199,5.79299,0.0,0.0
462,115.25,55.6475,67.0414,117.067,97.419,52.27,0.03986,1.17113,19.611,954.588,5.62377,0.0,0.0
483,120.5,61.0273,73.749,130.675,97.4202,55.605,0.0404724,1.21841,19.5783,953.097,5.06519,0.0,0.0
504,125.75,65.1171,79.5188,125.625,97.4146,52.3776,0.0385575,1.23232,19.5699,951.625,5.60478,0.0,0.0
525,131,68.7949,83.7508,117.325,97.4198,53.9012,0.0393503,1.23606,19.5727,950.164,5.34626,0.0,0.0
546,136.25,71.269,87.3411,123.808,97.4198,57.0921,0.0376155,1.24645,19.5679,948.773,4.82676,0.0,0.0
567,141.5,73.4957,90.343,123.29,97.4233,58.4542,0.0350006,1.20939,19.6234,947.352,4.61412,0.0,0.0
588,146.75,75.0748,92.0687,129.291,97.417,58.336,0.0341011,1.15633,19.6823,946.071,4.63181,0.0,0.0
609,152,76.9281,94.0256,131.843,97.4075,59.6161,0.0329094,1.13884,19.6937,944.699,4.43487,0.0,0.0
630,157.25,77.3024,94.4855,122.956,97.4099,58.0319,0.0316237,1.12853,19.7007,943.338,4.67836,0.0,0.0
651,162.5,79.3679,96.8313,114.16,97.4023,56.3344,0.0336464,1.17514,19.6169,941.927,4.94582,0.0,0.0
672,167.75,82.913,101.735,122,97.4051,54.4202,0.0377579,1.36502,19.3571,940.205,5.25834,0.0,0.0
693,173,86.5804,106.486,115.406,97.3972,54.9467,0.039658,1.50725,19.2183,938.434,5.17063,0.0,0.0
714,178.25,90.9502,112.156,117.163,97.3825,53.0652,0.0410496,1.58485,19.1559,936.692,5.48399,0.0,0.0
735,183.5,94.0231,115.248,119.678,97.3801,52.9647,0.0401017,1.58865,19.1721,935.021,5.50089,0.0,0.0
756,188.75,95.327,117.68,115.563,97.3718,57.2626,0.0395925,1.56074,19.2028,933.409,4.79538,0.0,0.0
777,194,97.2604,119.688,122.251,97.3563,57.849,0.0386777,1.51467,19.2575,931.778,4.70192,0.0,0.0
798,199.25,98.7628,120.909,122.947,97.3726,53.5233,0.038934,1.47447,19.2977,930.307,5.40544,0.0,0.0
819,204.5,99.5022,121.971,111.531,97.3508,53.6283,0.0373978,1.44767,19.3316,928.775,5.38571,0.0,0.0
840,209.75,100.024,122.747,114,97.344,55.2072,0.03713,1.4241,19.357,927.214,5.12299,0.0,0.0
861,215,100.946,123.299,122.406,97.3544,56.4481,0.0363764,1.40781,19.3767,925.723,4.92316,0.0,0.0
882,220.25,101.109,123.02,115.435,97.3504,57.4459,0.034445,1.37361,19.4159,924.261,4.76453,0.0,0.0
903,225.5,101.42,122.643,116.462,97.3555,59.085,0.0336666,1.36134,19.4306,922.71,4.51088,0.0,0.0
924,230.75,101.594,122.938,120.018,97.3694,58.9416,0.0340809,1.34714,19.4483,921.309,4.53412,0.0,0.0
945,236,102.335,123.122,115.663,97.3777,58.3066,0.0346869,1.33898,19.4519,919.807,4.63272,0.0,0.0
966,241.25,101.816,122.503,109.265,97.3861,58.1971,0.0347683,1.34503,19.4426,918.386,4.65048,0.0,0.0
987,246.5,102.954,123.817,119.982,97.4087,59.6895,0.0339651,1.3449,19.4445,916.965,4.42387,0.0,0.0
1008,251.75,103.344,123.47,115.977,97.4237,57.7029,0.035303,1.3386,19.4492,915.484,4.731,0.0,0.0
1029,257,103.879,124.095,115.737,97.4249,57.0187,0.0368962,1.3915,19.3813,913.902,4.83886,0.0,0.0
1050,262.25,105.168,125.544,119.553,97.415,58.1087,0.0362452,1.40994,19.3687,912.401,4.6669,0.0,0.0
1071,267.5,105.481,126.144,123.307,97.3928,61.583,0.0352975,1.3951,19.3843,910.92,4.1403,0.0,0.0
1092,272.75,106.09,126.558,111.29,97.3421,58.3209,0.0377997,1.41575,19.361,909.368,4.62719,0.0,0.0
1113,278,108.608,128.784,117.912,97.2893,52.0614,0.0446475,1.52729,19.2072,907.517,5.64785,0.0,0.0
1134,283.25,110.225,131.499,115.077,97.2231,53.6844,0.0520638,1.62419,19.1033,905.565,5.36442,0.0,0.0
1155,288.5,111.937,133.263,110.589,97.1403,49.9978,0.0577128,1.75578,18.9532,903.533,5.99934,0.0,0.0
1176,293.75,115.24,138.194,102.11,97.0559,52.4608,0.0647546,1.93202,18.7599,901.261,5.55713,0.0,0.0
1197,299,119.114,143.255,108.844,96.9548,46.9864,0.0763298,2.10561,18.5637,898.909,6.54319,0.0,0.0
1218,304.25,121.507,146.294,116.923,96.8466,45.2212,0.0855821,2.19725,18.4857,896.557,6.87899,0.0,0.0
1239,309.5,122.164,145.912,110.138,96.7189,48.2382,0.0792479,2.07765,18.6436,894.355,6.28369,0.0,0.0
1260,314.75,121.384,144.884,116.925,96.5782,51.1393,0.0642213,1.89432,18.8628,892.474,5.74301,0.0,0.0
1281,320,120.205,142.858,114.369,96.4117,55.8497,0.0511242,1.71743,19.0684,890.742,4.93155,0.0,0.0
1302,325.25,117.404,139.184,120.757,96.2547,60.8389,0.0364344,1.50259,19.3497,889.381,4.14393,0.0,0.0
1323,330.5,114.563,134.218,121.939,96.0649,62.5548,0.0286964,1.28505,19.582,888.16,3.87487,0.0,0.0
1344,335.75,111.294,129.546,126.025,95.8746,65.5184,0.0236426,1.10774,19.7754,887.149,3.43885,0.0,0.0
1365,341,107.743,124.797,124.46,95.699,65.5741,0.0203564,0.977592,19.9107,886.188,3.41462,0.0,0.0
1386,346.25,103.764,119.033,130.282,95.54,68.5524,0.0176351,0.867185,20.0479,885.337,2.99839,0.0,0.0
1407,351.5,100.348,114.216,128.829,95.4041,71.8133,0.0150216,0.770595,20.1589,884.627,2.56577,0.0,0.0
1428,356.75,97.0443,109.435,137.99,95.3109,75.7261,0.0123279,0.687084,20.2534,884.016,2.07773,0.0,0.0
1449,362,93.9716,104.802,138.71,95.2709,78.7021,0.00998253,0.618915,20.3284,883.385,1.72575,0.0,0.0
1470,367.25,90.7064,100.416,138.1,95.2895,83.3387,0.00806254,0.539049,20.4256,882.965,1.21045,0.0,0.0
1491,372.5,87.3209,95.809,140.5,95.3367,88.3644,0.00651246,0.461019,20.5131,882.625,0.685995,0.0,0.0
1512,377.75,83.8939,91.1665,140.992,95.454,92.1756,0.00630495,0.367833,20.6304,882.445,0.315688,0.0,0.0
1533,383,80.3333,86.1117,140.97,95.5682,93.5802,0.00782437,0.279851,20.7173,882.355,0.189877,0.0,0.0
1554,388.25,76.5423,81.3642,145.614,95.7006,93.0115,0.00895769,0.221407,20.7727,882.265,0.257442,0.0,0.0
1575,393.5,73.7047,77.2051,145.67,95.919,93.8813,0.00989535,0.191595,20.8012,882.215,0.193957,0.0,0.0
1596,398.75,70.9759,73.5553,147.238,96.1648,94.1568,0.00995408,0.176504,20.8115,882.134,0.190602,0.0,0.0
1617,404,68.5506,70.5276,139.982,96.382,94.7244,0.0100641,0.167825,20.819,882.104,0.156697,0.0,0.0
1638,409.25,66.7038,67.8246,143.967,96.5834,95.0805,0.0102161,0.160043,20.8268,882.074,0.141661,0.0,0.0
1659,414.5,65.1405,65.8332,141.269,96.5639,94.3428,0.0102533,0.154674,20.8313,882.014,0.210199,0.0,0.0
1680,419.75,63.2585,63.8677,142.652,96.7023,95.6247,0.0102502,0.151119,20.8358,881.964,0.101219,0.0,0.0
1701,425,62.3136,61.5557,148.758,96.8367,95.1964,0.0101928,0.149062,20.8383,881.904,0.154314,0.0,0.0
1722,430.25,59.988,60.1409,143.857,96.9159,94.269,0.0100194,0.14741,20.8408,881.864,0.250132,0.0,0.0
1743,435.5,59.6033,59.1608,145.178,96.971,95.6416,0.0102935,0.146514,20.8428,881.794,0.12469,0.0,0.0
1764,440.75,58.5775,57.6788,149.022,96.9429,95.4459,0.0103297,0.145602,20.8444,881.744,0.14057,0.0,0.0
1785,446,57.7324,56.9585,144.159,96.8688,95.0714,0.0102764,0.14458,20.8459,881.724,0.169172,0.0,0.0
1806,451.25,57.2293,56.0754,148.84,96.7617,95.5637,0.0102478,0.144108,20.8473,881.694,0.112534,0.0,0.0
1827,456.5,56.2988,55.3095,144.996,96.6836,95.0462,0.0101468,0.143588,20.8494,881.614,0.15429,0.0,0.0
1848,461.75,54.8661,54.0972,144.09,96.8731,95.5129,0.0103346,0.143145,20.8506,881.584,0.12773,0.0,0.0
1869,467,54.2011,53.3831,144.415,97.1756,96.0383,0.0101684,0.142946,20.8508,881.544,0.106334,0.0,0.0
1890,472.25,53.7992,53.0372,147.027,97.3619,95.8584,0.00994372,0.142325,20.8508,881.514,0.140572,0.0,0.0
1911,477.5,53.5095,52.6337,148.247,97.4336,95.9431,0.0101226,0.141833,20.8509,881.434,0.139249,0.0,0.0
1932,482.75,53.2882,51.8857,147.804,97.3448,95.6699,0.00992349,0.141141,20.8523,881.414,0.156776,0.0,0.0
1953,488,52.2766,51.2956,146.714,97.1122,96.7098,0.0101775,0.140741,20.8524,881.334,0.037504,0.0,0.0
1974,493.25,51.3936,50.9804,151.841,96.8168,95.5457,0.010119,0.140983,20.8525,881.314,0.119383,0.0,0.0
1995,498.5,50.8966,50.3607,144.174,96.9191,96.5649,0.00990985,0.14131,20.8517,881.284,0.0330742,0.0,0.0
2016,503.75,50.9928,49.2309,146.413,97.0836,96.5995,0.00990642,0.140633,20.8538,881.234,0.045155,0.0,0.0
2037,509,50.1392,49.761,149.612,97.2537,96.6703,,,,881.174,0.0543484,0.0,0.0
2058,514.25,50.1605,49.1679,145.742,97.4007,96.467,,,,881.144,0.0870081,0.0,0.0
2067,516.5,49.9953,48.7882,152.33,97.4471,96.6876,,,,881.114,0.0706797,0.0,0.0