File: 01_Data/PET/Cone/PET_Cone_HF75Scan_220207_R1.csv
Names,Time,Stack TC,Smoke TC,Exh Press,Smoke Comp,Smoke Meas,CO Meter,CO2 Meter,O2 Meter,Sample Mass,Ext Coeff,Start Test,Flame Verif
Chan Gain,,500,500,1,1,1,1,1,1,1,1,1.0,1.0
Offset,,0,0,0.134889,0,0,0,0,0,0,0,0.0,0.0
Gain,,1,1,25.011,12.9892,12.3331,1,1,1,1.00088,1.02973,1.0,1.0
Units,sec,C,C,Pa,%,%,%,%,%,g,/m,,
Baseline,,35.866,38.6333,151.481,97.5528,97.6538,-0.00170076,0.045954,21.0288,-0.189041,-0.0093428,,
21,5,31.6569,33.1818,155.465,96.5386,96.5856,-0.00148401,0.0513374,21.0217,960.423,-0.00439759,0.0,0.0
42,10.25,31.9502,33.1106,157.557,96.8517,96.9917,-0.00176408,0.048845,21.0263,960.463,-0.0130444,0.0,0.0
63,15.5,32.1785,34.3105,154.488,97.1688,97.3447,-0.00175001,0.0481929,21.0256,960.423,-0.0163356,0.0,0.0
84,20.75,32.8731,35.3058,153.575,97.4669,97.604,-0.00117804,0.0484628,21.0254,960.323,-0.0126983,0.0,0.0
105,26,32.7169,34.6168,151.921,97.7167,97.4599,-0.00134533,0.0486033,21.0254,960.413,0.0237667,0.0,0.0
126,31.25,33.5362,35.3202,150.853,97.8871,96.4621,-0.000795461,0.0530744,21.0168,960.373,0.13246,0.0,0.0
147,36.5,33.3908,35.5713,151.496,97.9914,95.345,0.000162762,0.0650384,21.0028,960.273,0.24729,0.0,0.0
168,41.75,35.7071,38.0262,137.789,98.0096,69.3555,0.00645806,0.247045,20.7453,959.703,3.12369,0.0,0.0
189,47,41.2241,45.9756,121.684,97.9628,51.1642,0.0181939,0.586385,20.3087,958.632,5.8672,0.0,1.0
210,52.25,48.888,55.3691,124.582,97.8578,42.643,0.0344313,0.985618,19.8025,956.96,7.50305,0.0,0.0
231,57.5,57.5925,67.4712,111.971,97.7,46.5863,0.0446347,1.3372,19.4514,955.249,6.6896,0.0,0.0
252,62.75,66.4248,78.7987,107.25,97.5537,48.1072,0.0461573,1.49722,19.3006,953.427,6.38588,0.0,0.0
273,68,73.631,89.1979,111.489,97.4031,47.4595,0.0453746,1.53653,19.283,951.666,6.49437,0.0,0.0
294,73.25,78.9829,97.1243,121.226,97.3036,48.0591,0.0422498,1.5083,19.3267,949.894,6.37174,0.0,0.0
315,78.5,83.3617,102.39,120.048,97.5526,47.0428,0.0411965,1.4729,19.3678,948.182,6.58786,0.0,0.0
336,83.75,87.0395,107.392,118.97,97.7967,47.9409,0.0424866,1.44269,19.4042,946.601,6.43964,0.0,0.0
357,89,89.5698,110.454,119.677,97.9216,46.6586,0.0446723,1.43967,19.4055,944.839,6.69606,0.0,0.0
378,94.25,91.8494,113.535,112.967,97.9656,47.1806,0.0449712,1.45471,19.3802,943.208,6.59962,0.0,0.0
399,99.5,94.365,116.562,113.943,97.9109,48.668,0.0464074,1.48744,19.3339,941.457,6.3142,0.0,0.0
420,104.75,96.4538,119.844,112.017,97.7547,47.5781,0.0487591,1.4945,19.3378,939.595,6.50438,0.0,0.0
441,110,97.6599,120.536,122.453,97.4836,46.9284,0.0477545,1.43757,19.4064,938.054,6.60347,0.0,0.0
462,115.25,98.8747,121.047,116.103,97.2553,46.6849,0.0483123,1.44184,19.3975,936.302,6.62928,0.0,0.0
483,120.5,99.1632,122.134,124.61,97.3104,50.2831,0.0430043,1.39856,19.4857,934.671,5.96374,0.0,0.0
504,125.75,98.228,119.935,122.588,97.4099,54.9904,0.0347112,1.17605,19.7301,933.369,5.16463,0.0,0.0
525,131,97.0544,118.103,120.365,97.4903,52.6422,0.0329122,1.12783,19.7586,932.108,5.56629,0.0,0.0
546,136.25,97.2914,117.702,117.885,97.5541,53.4025,0.0333099,1.15994,19.7138,930.637,5.44268,0.0,0.0
567,141.5,97.6159,117.741,122.242,97.5787,52.757,0.0348713,1.19803,19.6624,929.166,5.5548,0.0,0.0
588,146.75,98.243,118.153,115.943,97.5712,51.1495,0.0365735,1.22289,19.6432,927.734,5.83361,0.0,0.0
609,152,98.5555,117.844,118.275,97.5113,49.213,0.0378075,1.23283,19.6341,926.243,6.17667,0.0,0.0
630,157.25,99.1229,118.708,122.931,97.4142,50.8521,0.0349479,1.22961,19.6441,924.712,5.87173,0.0,0.0
651,162.5,98.9089,117.843,119.176,97.3187,47.1129,0.03262,1.14971,19.7455,923.371,6.55275,0.0,0.0
672,167.75,98.0121,116.445,122.524,97.1879,49.621,0.0314764,1.11216,19.7849,921.959,6.07208,0.0,0.0
693,173,98.1549,116.024,125.147,97.0265,46.9217,0.0318566,1.11248,19.7804,920.618,6.56233,0.0,0.0
714,178.25,97.905,115.41,121.6,96.8815,50.5465,0.0331778,1.1333,19.7518,919.177,5.87664,0.0,0.0
735,183.5,98.1477,115.822,121.765,96.686,48.2273,0.0338094,1.14011,19.7462,917.776,6.28266,0.0,0.0
756,188.75,98.3496,115.893,119.989,96.5283,48.4686,0.0338252,1.15512,19.7283,916.304,6.22283,0.0,0.0
777,194,98.6298,115.912,118.035,96.3899,49.3504,0.0342581,1.1399,19.7522,914.973,6.04701,0.0,0.0
798,199.25,98.4402,115.654,123.34,96.246,51.6979,0.0330606,1.11702,19.7816,913.542,5.61376,0.0,0.0
819,204.5,98.514,115.555,120.341,96.1093,51.0757,0.0318395,1.07529,19.8382,912.291,5.71028,0.0,0.0
840,209.75,98.2738,114.419,117.886,95.9971,52.6866,0.0317298,1.04362,19.8665,910.97,5.41925,0.0,0.0
861,215,97.9819,113.969,124.097,95.9241,51.4325,0.0331804,1.04718,19.8601,909.629,5.62998,0.0,0.0
882,220.25,98.537,114.17,124.595,95.869,50.3565,0.0360629,1.07092,19.8289,908.207,5.81578,0.0,0.0
903,225.5,98.3393,113.95,117.612,95.8512,52.1811,0.0363355,1.0853,19.8042,906.866,5.49259,0.0,0.0
924,230.75,99.323,114.282,122.805,95.8342,47.4264,0.0396673,1.13666,19.7402,905.295,6.35399,0.0,0.0
945,236,99.5791,115.453,112.853,95.8409,48.4637,0.0444316,1.21535,19.6446,903.793,6.15919,0.0,0.0
966,241.25,101.493,118.255,119.272,95.8762,49.3376,0.0485534,1.32523,19.5183,902.082,6.00108,0.0,0.0
987,246.5,104.168,121.321,108.402,95.9345,45.6849,0.0498751,1.43439,19.3815,900.26,6.70136,0.0,0.0
1008,251.75,106.777,124.493,111.495,96.0058,50.6673,0.0470319,1.50352,19.3381,898.509,5.77306,0.0,0.0
1029,257,108.65,126.139,115.63,96.1049,51.4811,0.0442037,1.461,19.3949,896.847,5.63847,0.0,0.0
1050,262.25,109.306,127.688,114.767,96.1985,50.1909,0.0438766,1.41424,19.4471,895.206,5.87652,0.0,0.0
1071,267.5,109.906,128.439,118.145,96.2837,51.4367,0.042616,1.4096,19.4538,893.594,5.66305,0.0,0.0
1092,272.75,110.738,129.021,117.622,96.3844,54.3905,0.0421062,1.35423,19.5275,892.013,5.16812,0.0,0.0
1113,278,109.842,129.179,121.094,96.4636,51.4848,0.0417276,1.30195,19.5817,890.412,5.67146,0.0,0.0
1134,283.25,110.433,127.52,122.44,96.5576,48.5077,0.041909,1.28875,19.5871,888.81,6.21829,0.0,0.0
1155,288.5,108.9,125.507,122.804,96.6801,53.4736,0.0373793,1.15871,19.768,887.479,5.34936,0.0,0.0
1176,293.75,106.879,122.132,122.549,96.803,56.2802,0.0307748,1.00578,19.9411,886.258,4.89876,0.0,0.0
1197,299,104.32,118.78,131.885,96.9239,58.3748,0.0221545,0.898944,20.056,885.227,4.57997,0.0,0.0
1218,304.25,101.9,116.033,124.203,97.046,61.3681,0.0152808,0.812283,20.1537,884.346,4.13965,0.0,0.0
1239,309.5,99.8189,112.418,131.464,97.1875,65.2165,0.011504,0.73616,20.2371,883.506,3.60342,0.0,0.0
1260,314.75,96.6889,109.287,131.336,97.3155,69.9431,0.00891906,0.666146,20.3156,882.735,2.9833,0.0,0.0
1281,320,95.3232,106.841,129.662,97.4039,72.2164,0.00715646,0.618823,20.3633,882.034,2.70259,0.0,0.0
1302,325.25,94.2971,103.251,133.246,97.5153,75.7351,0.00576157,0.573414,20.4156,881.384,2.28318,0.0,0.0
1323,330.5,91.9511,101.767,131.033,97.6029,76.8864,0.00503872,0.533376,20.4578,880.773,2.15501,0.0,0.0
1344,335.75,90.6278,99.2535,128.671,97.6651,80.4202,0.00452774,0.480375,20.5268,880.313,1.75487,0.0,0.0
1365,341,89.167,97.221,135.049,97.7135,79.7687,0.00434431,0.431376,20.5819,879.852,1.83281,0.0,0.0
1386,346.25,86.6634,94.3428,135.97,97.7571,83.9868,0.00425179,0.382559,20.6338,879.482,1.37141,0.0,0.0
1407,351.5,84.7842,91.0767,139.848,97.7539,91.1104,0.00407729,0.318843,20.7094,879.222,0.635732,0.0,0.0
1428,356.75,82.0964,87.53,138.924,97.7793,93.7247,0.00414909,0.243936,20.7955,879.102,0.382542,0.0,0.0
1449,362,78.9729,84.6567,137.778,97.7971,95.0473,0.0041513,0.188585,20.8477,878.932,0.257616,0.0,0.0
1470,367.25,77.0458,81.4965,138.463,97.8336,95.3492,0.00412603,0.16261,20.8694,878.882,0.232343,0.0,0.0
1491,372.5,74.5931,79.2085,139.721,97.8292,95.6307,0.00386921,0.148972,20.8801,878.832,0.205309,0.0,0.0
1512,377.75,72.7243,76.4417,138.34,97.8677,95.4493,0.00378309,0.140427,20.8871,878.732,0.22601,0.0,0.0
1533,383,71.8901,74.4812,138.335,97.882,96.1896,0.00387225,0.133791,20.8947,878.701,0.157537,0.0,0.0
1554,388.25,70.2186,72.4359,138.15,97.8954,96.3729,0.00352531,0.129843,20.8989,878.621,0.141585,0.0,0.0
1575,393.5,68.4054,70.6758,144.114,97.9176,95.738,0.00359267,0.127621,20.9018,878.551,0.203342,0.0,0.0
1596,398.75,67.6246,69.4567,143.393,97.9109,96.5653,0.0037401,0.125379,20.9064,878.501,0.125003,0.0,0.0
1617,404,65.9289,67.4751,146.336,97.9109,95.922,0.00388485,0.123402,20.9123,878.451,0.185371,0.0,0.0
1638,409.25,65.1767,66.8363,138.784,97.9264,96.4505,0.00387065,0.119518,20.9184,878.411,0.137174,0.0,0.0
1659,414.5,64.1885,66.23,142.187,97.9145,96.3556,0.00391585,0.116801,20.9229,878.371,0.144963,0.0,0.0
1680,419.75,64.1403,64.6203,142.84,97.9331,95.7316,0.00397295,0.11567,20.9247,878.301,0.205371,0.0,0.0
1701,425,63.0619,63.796,145.221,97.9382,96.2337,0.00379012,0.115126,20.9259,878.281,0.158596,0.0,0.0
1722,430.25,62.9766,63.5023,138.089,97.9692,96.2024,0.00393874,0.11526,20.9279,878.251,0.164379,0.0,0.0
1743,435.5,61.3614,62.4499,145.572,97.9597,96.8453,0.00419775,0.114677,20.9288,878.151,0.103344,0.0,0.0
1764,440.75,60.5964,60.7463,139.582,97.9608,96.7772,0.0040169,0.114143,20.9309,878.111,0.10981,0.0,0.0
1785,446,60.5467,60.989,141.767,97.9632,96.4659,0.00423366,0.114607,20.9313,878.091,0.139128,0.0,0.0
1806,451.25,59.9061,60.6497,144.421,97.9482,96.4629,0.00424241,0.114549,20.9332,878.031,0.138021,0.0,0.0
1827,456.5,59.6049,59.6622,141.752,97.9482,96.7708,0.00445473,0.114424,20.9342,877.931,0.109237,0.0,0.0
1848,461.75,59.023,59.5376,139.563,97.9347,96.6191,0.0043235,0.114062,20.9359,877.921,0.122164,0.0,0.0
1869,467,58.491,58.6615,139.566,97.9125,96.4004,0.00420287,0.113422,20.9363,877.901,0.140583,0.0,0.0
1890,472.25,57.9829,58.6918,145.134,97.8867,96.8464,0.00416457,0.112694,20.9375,877.751,0.0965117,0.0,0.0
1911,477.5,57.7855,58.0576,144.081,97.8721,96.3808,0.00429515,0.112294,20.939,877.741,0.138686,0.0,0.0
1932,482.75,57.3051,58.1172,146.731,97.8483,96.6936,0.00413682,0.112186,20.9383,877.701,0.107225,0.0,0.0
1953,488,56.6569,57.119,139.701,97.8209,96.7064,0.00418437,0.112006,20.9395,877.711,0.103505,0.0,0.0
1974,493.25,55.9044,57.2688,143.081,97.7773,96.4403,,0.112013,,877.62,0.124367,0.0,0.0
1995,498.5,56.0125,56.7235,140.743,97.7198,96.7591,,,,877.6,0.0892463,0.0,0.0
2012,502.75,55.7388,56.2924,141.185,97.6941,96.2167,,,,877.53,0.137637,0.0,0.0