File: 01_Data/PET/Cone/PET_Cone_HF25Scan_220204_R2.csv
Names,Time,Stack TC,Smoke TC,Exh Press,Smoke Comp,Smoke Meas,CO Meter,CO2 Meter,O2 Meter,Sample Mass,Ext Coeff,Start Test,Flame Verif
Chan Gain,,500,500,1,1,1,1,1,1,1,1,1.0,1.0
Offset,,0,0,0.134889,0,0,0,0,0,0,0,0.0,0.0
Gain,,1,1,25.011,12.9892,12.3331,1,1,1,1.00088,1.02973,1.0,1.0
Units,sec,C,C,Pa,%,%,%,%,%,g,/m,,
Baseline,,19.2986,20.5036,143.578,98.2089,98.842,0.000520421,0.0710202,20.9657,-866.781,-0.0580324,,
38,9.25,17.9776,18.6354,146.249,97.5835,98.0561,0.000189351,0.0779271,20.9582,94.1026,-0.0436413,0.0,0.0
76,18.75,18.2807,19.0037,147.135,98.3148,98.5589,-8.97345e-05,0.0750997,20.9705,94.0926,-0.0223985,0.0,0.0
114,28.25,18.1497,19.2158,148.85,98.2078,98.5183,6.29616e-05,0.0712403,20.9755,94.1226,-0.0285108,0.0,0.0
152,37.75,17.9729,19.0771,144.55,98.7156,99.195,0.000151206,0.0706236,20.9728,94.0926,-0.0437603,0.0,0.0
190,47.25,18.3941,19.199,143.65,98.253,98.7178,0.000153598,0.0750386,20.9617,94.0926,-0.0426264,0.0,0.0
228,56.75,18.6257,20.0692,143.832,98.9487,98.8243,7.74146e-05,0.0727628,20.973,94.0926,0.0113637,0.0,0.0
266,66.25,18.6511,19.7199,143.941,98.4151,98.271,0.000160125,0.0718029,20.9706,94.1326,0.013238,0.0,0.0
304,75.75,18.9787,19.7103,140.016,97.0503,96.9691,-6.53737e-05,0.0697207,20.9755,94.1026,0.00756125,0.0,0.0
342,85.25,18.7141,19.9554,143.301,97.7107,97.3944,0.000308095,0.0696042,20.9735,94.1226,0.0292884,0.0,0.0
380,94.75,18.9769,20.5595,143.263,98.3077,98.1935,0.000135149,0.0694783,20.9759,94.1126,0.0105022,0.0,0.0
418,104.25,19.0425,20.5871,146.74,98.0191,97.3255,0.000453804,0.0678475,20.9786,94.1026,0.064143,0.0,0.0
456,113.75,19.3747,20.5687,145.189,98.7354,99.0806,0.000131178,0.0669183,20.9788,94.0626,-0.0315218,0.0,0.0
494,123.25,19.128,20.4723,140.81,98.5796,98.3244,7.33504e-05,0.0665494,20.9786,94.0526,0.0234134,0.0,0.0
532,132.75,19.522,19.9271,144.117,99.0097,98.5958,0.000170531,0.0705356,20.9738,94.0626,0.0378407,0.0,0.0
570,142.25,19.6961,19.8752,145.234,98.5527,98.4445,0.000120783,0.0686298,20.9792,94.0125,0.00991928,0.0,0.0
608,151.75,19.4531,20.3999,146.287,97.685,97.7768,0.000166793,0.067275,20.9799,94.0426,-0.00849013,0.0,0.0
646,161.25,19.0034,20.7574,148.991,97.084,96.6469,6.26887e-06,0.0667177,20.98,94.0325,0.040759,0.0,0.0
684,170.75,19.7538,20.3136,144.621,97.0265,96.5875,0.000108338,0.0681056,20.9747,94.0025,0.040968,0.0,0.0
722,180.25,18.9131,20.8568,144.155,97.3314,96.8961,0.000149548,0.0691769,20.9747,94.0225,0.0404867,0.0,0.0
760,189.75,19.7104,20.6796,144.133,97.7016,97.0722,0.000675521,0.068007,20.9755,94.0025,0.0583741,0.0,0.0
798,199.25,19.2532,20.7643,145.985,97.9965,97.3459,0.000423157,0.0675771,20.9765,93.9725,0.0601745,0.0,0.0
836,208.75,19.8649,21.3236,147.311,98.1991,97.8867,0.000183825,0.0674489,20.9486,95.9242,0.0287786,0.0,0.0
874,218.25,19.0242,20.4699,150.084,98.2926,97.7008,0.000426343,0.0687798,20.9615,96.6048,0.0545529,0.0,0.0
912,227.75,19.3906,21.0061,142.659,98.3307,97.4174,0.000240149,0.0700172,20.9727,96.4847,0.0842904,0.0,0.0
950,237.25,19.5755,20.375,143.284,98.3319,97.0463,0.000241056,0.071168,20.9726,96.6148,0.118875,0.0,0.0
988,246.75,19.2361,20.8714,143.058,98.3136,97.4129,0.000371096,0.0708604,20.971,96.6949,0.0831424,0.0,0.0
1026,256.25,20.002,21.1529,140.747,98.3287,97.1016,0.000475634,0.0702154,20.9723,96.7549,0.113435,0.0,0.0
1064,265.75,19.6662,20.802,140.362,98.3283,96.7674,0.000578665,0.0757664,20.9618,96.6749,0.144543,0.0,0.0
1102,275.25,20.1317,21.3476,143.947,98.3259,95.9913,0.000833711,0.0823754,20.9527,96.4947,0.21706,0.0,0.0
1140,284.75,21.0661,22.4279,139.621,98.3129,95.3492,0.00075764,0.0929186,20.9336,96.4347,0.276483,0.0,0.0
1178,294.25,21.6705,22.8546,136.781,98.2581,93.3822,0.00133392,0.120482,20.8883,95.1235,0.459738,0.0,0.0
1216,303.75,22.5177,24.8786,133.18,98.19,87.0046,0.00325573,0.193523,20.7715,93.412,1.09245,0.0,0.0
1254,313.25,26.3113,29.3152,131.437,98.0611,78.0182,0.00657188,0.296381,20.6329,91.5904,2.06532,0.0,0.0
1292,322.75,30.4264,34.7066,128.91,97.8935,71.0349,0.010805,0.406842,20.4952,91.16,2.89687,0.0,0.0
1330,332.25,35.8624,42.1543,118.69,97.6988,71.0534,0.0143314,0.527631,20.3479,89.8889,2.87655,0.0,0.0
1368,341.75,41.8309,49.7811,120.971,97.4729,65.6275,0.0195309,0.668776,20.16,88.2675,3.57316,0.0,0.0
1406,351.25,50.4843,61.4431,115.796,97.2342,61.4415,0.0299149,0.92509,19.7872,85.9555,4.14636,0.0,0.0
1444,360.75,57.6432,70.1116,122.598,97.0654,64.6079,0.0289273,1.04095,19.7901,83.7936,3.67675,0.0,0.0
1482,370.25,60.2934,74.2747,125.52,97,61.8954,0.0280624,0.995294,19.8865,81.6817,4.05809,0.0,0.0
1520,379.75,63.6875,77.2195,117.492,97.1744,66.8041,0.0285104,0.995508,19.8927,79.6299,3.38495,0.0,0.0
1558,389.25,64.6657,78.9492,116.185,97.6037,61.5589,0.0271423,0.962181,19.9371,77.6982,4.16337,0.0,0.0
1596,398.75,65.5196,79.6805,117.791,98.169,59.0067,0.031618,0.993838,19.8518,75.5563,4.59801,0.0,0.0
1634,408.25,68.4176,82.4568,121.499,98.6783,59.7199,0.0320051,1.02569,19.8569,73.3244,4.53623,0.0,0.0
1672,417.75,68.2229,82.13,117.241,98.9764,57.3375,0.0302667,0.982979,19.9342,71.2225,4.93121,0.0,0.0
1710,427.25,67.6078,81.2198,121.129,98.9388,61.6146,0.027417,0.95273,19.9601,69.2508,4.27792,0.0,0.0
1748,436.75,67.4491,80.1177,121.004,98.6129,64.1401,0.0243023,0.898036,20.0403,67.4492,3.88527,0.0,0.0
1786,446.25,66.1843,78.5878,121.345,98.2455,64.8725,0.020395,0.823941,20.1317,65.7878,3.74899,0.0,0.0
1824,455.75,64.775,76.4389,125.839,98.7231,67.7315,0.0177532,0.753485,20.2089,64.3665,3.40325,0.0,0.0
1862,465.25,63.4566,74.2936,126.062,98.7085,70.5095,0.0157257,0.698021,20.267,63.0253,3.03882,0.0,0.0
1900,474.75,62.1709,72.3663,121.007,98.1063,70.1813,0.0151529,0.662247,20.3001,61.7042,3.02569,0.0,0.0
1938,484.25,61.4696,70.5019,122.295,98.0691,70.8765,0.0148265,0.634116,20.3283,60.4831,2.93323,0.0,0.0
1976,493.75,60.6861,69.2727,124.777,98.232,72.3816,0.0146975,0.623304,20.3327,59.1719,2.75841,0.0,0.0
2014,503.25,60.3549,68.1471,123.54,98.3315,70.8821,0.0156057,0.62504,20.3189,57.8908,2.95665,0.0,0.0
2052,512.75,60.4887,68.4112,121.851,98.1892,69.9551,0.0165042,0.64724,20.2789,56.5296,3.06248,0.0,0.0
2090,522.25,61.7529,69.588,116.09,97.8078,67.7894,0.0187233,0.699325,20.207,54.9983,3.31138,0.0,0.0
2128,531.75,62.8101,71.0327,120.492,97.3306,65.4499,0.0220467,0.768507,20.1096,53.2768,3.58444,0.0,0.0
2166,541.25,64.8541,73.3505,124.306,97.0329,62.6177,0.0229665,0.807249,20.0933,51.5052,3.95636,0.0,0.0
2204,550.75,65.4955,74.8418,121.011,97.0166,57.1896,0.0252048,0.846855,20.0202,49.6035,4.7739,0.0,0.0
2242,560.25,71.1943,81.7278,109.293,97.3433,53.2892,0.0419122,1.11568,19.6017,46.9312,5.44231,0.0,0.0
2280,569.75,73.6674,85.8524,117.237,97.8788,62.332,0.0343697,1.13902,19.7647,44.439,4.07607,0.0,0.0
2318,579.25,73.2396,84.4253,118.441,98.4175,66.2448,0.0228423,0.95892,20.0387,42.6975,3.57571,0.0,0.0
2356,588.75,70.6488,80.4101,124.952,98.8321,71.3432,0.0149151,0.784382,20.2323,41.2963,2.94396,0.0,0.0
2394,598.25,67.2649,76.3166,123.032,99.0026,75.0098,0.0122175,0.671911,20.3419,40.0251,2.50682,0.0,0.0
2432,607.75,64.9655,72.9662,128.462,98.938,76.7506,0.0101112,0.607367,20.3944,38.9242,2.2937,0.0,0.0
2470,617.25,62.2299,69.8984,125.286,98.6867,77.8868,0.00913044,0.551224,20.455,37.9333,2.13798,0.0,0.0
2508,626.75,60.543,66.2764,128.416,98.3993,80.1635,0.00769602,0.507047,20.4986,36.9825,1.85139,0.0,0.0
2546,636.25,58.611,63.9498,129.303,98.3477,83.2246,0.00691908,0.467155,20.5413,36.1517,1.50816,0.0,0.0
2584,645.75,56.0283,60.8199,131.663,98.7501,86.7878,0.00693299,0.415217,20.6079,35.4611,1.16637,0.0,0.0
2622,655.25,54.1498,58.3143,135.68,98.7996,88.6934,0.00719048,0.359433,20.6717,34.9006,0.974712,0.0,0.0
2660,664.75,52.1226,55.5992,131.713,98.5075,90.4853,0.00611265,0.310412,20.7297,34.4603,0.767288,0.0,0.0
2698,674.25,49.4767,52.2298,131.517,98.0148,90.6746,0.00583222,0.270899,20.7712,34.0799,0.703114,0.0,0.0
2736,683.75,47.6058,49.6972,135.861,98.0948,92.6743,0.00548496,0.237945,20.7994,33.7797,0.513453,0.0,0.0
2774,693.25,45.8597,46.9308,135.131,98.234,93.925,0.00515037,0.21441,20.8224,33.4794,0.405169,0.0,0.0
2812,702.75,44.2556,44.8416,133.874,98.2918,94.0119,0.00510788,0.194454,20.8409,33.2292,0.402131,0.0,0.0
2850,712.25,42.7953,42.9721,135.219,98.3263,95.3409,0.00481123,0.17422,20.8638,33.079,0.278504,0.0,0.0
2888,721.75,41.1214,41.6613,133.678,98.2585,94.5441,0.00464932,0.159084,20.8766,32.8689,0.348081,0.0,0.0
2926,731.25,39.7807,39.7956,135.887,98.0714,94.957,0.00443046,0.146858,20.8861,32.7187,0.291504,0.0,0.0
2964,740.75,38.6352,38.8648,136.925,97.8625,95.3846,0.00488072,0.137342,20.8944,32.5986,0.231663,0.0,0.0
3002,750.25,38.1179,37.4137,139.533,97.5573,95.5238,0.00503863,0.13143,20.8996,32.4785,0.190268,0.0,0.0
3040,759.75,36.8363,36.4375,137.617,97.2909,95.4546,0.00466975,0.121831,20.9095,32.4085,0.172122,0.0,0.0
3078,769.25,35.583,35.4455,137.527,97.0682,95.3006,0.00536517,0.113964,20.9172,32.2984,0.165993,0.0,0.0
3116,778.75,34.816,33.7269,140.681,96.9651,94.8456,0.00545615,0.106068,20.9287,32.2183,0.199631,0.0,0.0
3154,788.25,34.1052,32.7637,138.197,96.9496,94.9905,0.00541672,0.100951,20.931,32.1783,0.184401,0.0,0.0
3192,797.75,33.307,32.7633,142.174,96.9389,95.3465,0.005172,0.0954632,20.9385,32.1382,0.14961,0.0,0.0
3230,807.25,32.5333,32.0028,137.048,96.9401,94.8701,0.00509987,0.0893907,20.9454,32.0481,0.194974,0.0,0.0
3268,816.75,31.3716,30.4087,140.132,96.9714,95.0763,0.00513527,0.0848417,20.9498,32.0481,0.178276,0.0,0.0
3306,826.25,31.2049,31.0864,138.887,97.0571,95.9111,0.00434489,0.0814748,20.9551,31.9881,0.107283,0.0,0.0
3344,835.75,30.7538,29.9535,137.17,97.3437,96.1968,0.00457078,0.0790239,20.9584,31.9681,0.107052,0.0,0.0
3382,845.25,30.3218,29.2341,133.648,97.83,96.3865,0.00402407,0.0771277,20.9567,31.9781,0.134278,0.0,0.0
3420,854.75,29.5243,29.5349,137.122,98.249,96.6996,0.00413627,0.0757159,20.9573,31.918,0.143583,0.0,0.0
3458,864.25,29.2595,28.5679,135.063,98.3109,97.0376,0.00374507,0.0746279,20.9592,31.898,0.117751,0.0,0.0
3496,873.75,29.3591,28.9773,135.28,98.1119,97.1046,0.0035003,0.073518,20.9608,31.858,0.0932149,0.0,0.0
3534,883.25,29.0628,28.4644,140.462,98.5372,97.3176,0.00326144,0.0736756,20.9612,31.848,0.112494,0.0,0.0
3572,892.75,28.4949,28.4287,139.572,98.6942,97.3078,0.00340858,0.0728489,20.964,31.8379,0.127781,0.0,0.0
3610,902.25,28.5263,28.1833,136.91,98.4892,97.6665,,,,31.8279,0.0757702,0.0,0.0
3616,903.75,28.563,28.3584,138.708,98.588,97.5423,,,,31.8179,0.0963125,0.0,0.0