File: 01_Data/PET/Cone/PET_Cone_HF25Scan_220204_R3.csv
Names,Time,Stack TC,Smoke TC,Exh Press,Smoke Comp,Smoke Meas,CO Meter,CO2 Meter,O2 Meter,Sample Mass,Ext Coeff,Start Test,Flame Verif
Chan Gain,,500,500,1,1,1,1,1,1,1,1,1.0,1.0
Offset,,0,0,0.134889,0,0,0,0,0,0,0,0.0,0.0
Gain,,1,1,25.011,12.9892,12.3331,1,1,1,1.00088,1.02973,1.0,1.0
Units,sec,C,C,Pa,%,%,%,%,%,g,/m,,
Baseline,,21.1442,21.6846,142.33,98.1438,97.3325,0.000419363,0.0719827,20.9612,-866.794,0.0749989,,
54,13.25,19.2552,19.3857,143.325,97.9561,97.3146,0.000539409,0.0757202,20.9614,95.5339,0.0593455,0.0,0.0
108,26.75,20.254,20.1129,143.562,98.6985,97.8532,0.000223306,0.0703394,20.9694,95.5339,0.0776974,0.0,0.0
162,40.25,19.643,20.6305,141.878,99.089,98.688,-2.87821e-05,0.0682926,20.9751,95.5339,0.0366268,0.0,0.0
216,53.75,20.2251,20.0188,143.474,98.8864,98.5638,0.000131124,0.0677751,20.9717,95.5439,0.0295181,0.0,0.0
270,67.25,19.4852,20.3543,146.089,98.3854,97.9605,-8.71e-05,0.0677045,20.9716,95.5339,0.0390952,0.0,0.0
324,80.75,20.1849,19.9043,143.506,98.8381,98.8205,0.000169831,0.0675838,20.9715,95.4938,0.00160642,0.0,0.0
378,94.25,19.8372,20.8745,141.209,98.4143,97.781,0.000215087,0.068312,20.9707,95.5038,0.0583206,0.0,0.0
432,107.75,19.8687,21.1606,144.406,98.1238,98.0222,-7.4945e-06,0.0687002,20.9698,95.4838,0.0093535,0.0,0.0
486,121.25,20.1212,21.0416,143.086,98.4191,98.1743,3.01555e-05,0.0690694,20.967,95.4838,0.0224972,0.0,0.0
540,134.75,20.0333,20.9521,140.746,98.3521,98.3764,0.000126991,0.0690485,20.9666,95.4438,-0.00222976,0.0,0.0
594,148.25,20.3959,20.9053,142.698,97.8304,97.7331,-7.35578e-05,0.0686675,20.9672,95.4638,0.00898669,0.0,0.0
648,161.75,19.5092,20.906,143.101,97.2224,96.9725,0.000346152,0.0691383,20.9654,95.4438,0.0232437,0.0,0.0
702,175.25,19.3655,21.2609,145.644,97.2981,97.4027,0.000185796,0.0691138,20.9672,95.4538,-0.00970813,0.0,0.0
756,188.75,19.6373,21.1946,141.696,98.0381,98.213,0.000187839,0.068726,20.9703,95.4438,-0.0160983,0.0,0.0
810,202.25,19.639,20.9871,142.667,98.8151,98.7016,0.000529386,0.0684145,20.9688,95.4238,0.0103829,0.0,0.0
864,215.75,19.8618,20.7974,142.274,99.1286,98.8288,-1.6107e-05,0.0690626,20.9678,95.4138,0.0273648,0.0,0.0
918,229.25,20.4983,21.2213,144.319,98.8107,98.4765,0.000202631,0.0697938,20.9667,95.3937,0.0306052,0.0,0.0
972,242.75,19.7569,20.8968,140.543,98.3624,97.6899,5.67384e-05,0.069444,20.9668,95.3637,0.0619713,0.0,0.0
1026,256.25,20.2279,21.46,143.488,98.8611,98.1581,7.003e-05,0.0698456,20.9663,95.3537,0.0644595,0.0,0.0
1080,269.75,20.3433,21.1164,138.72,98.6886,97.9153,0.00048481,0.0702321,20.9619,95.3137,0.0710589,0.0,0.0
1134,283.25,20.596,21.4675,141.255,98.0615,96.8317,0.000644652,0.0695685,20.9674,95.2636,0.113996,0.0,0.0
1188,296.75,20.2973,21.5963,143.86,98.2641,97.0128,0.000339905,0.0697705,20.968,95.2336,0.115764,0.0,0.0
1242,310.25,19.7882,21.8434,142.832,98.4508,96.8125,0.000352874,0.0705029,20.9665,95.1936,0.151573,0.0,0.0
1296,323.75,20.4321,21.687,145.692,98.2542,96.6883,0.000816225,0.070706,20.9654,95.1335,0.145112,0.0,0.0
1350,337.25,20.1778,21.7933,139.613,97.7377,95.715,0.000930031,0.0706649,20.9676,95.1035,0.188891,0.0,0.0
1404,350.75,19.8877,21.0078,143.034,97.2477,95.304,0.000949556,0.0711657,20.9665,95.0535,0.182367,0.0,0.0
1458,364.25,20.5564,21.9746,141.257,97.174,94.6781,0.00108365,0.0745226,20.9625,94.9934,0.235035,0.0,0.0
1512,377.75,20.553,21.9895,144.859,97.7638,95.8215,0.00131911,0.0838171,20.9485,94.8433,0.181261,0.0,0.0
1566,391.25,25.0436,27.3106,125.298,98.6078,79.2362,0.00891801,0.305401,20.569,93.9425,1.97561,0.0,0.0
1620,404.75,37.4265,43.6096,123.664,99.0775,69.9502,0.0177969,0.671029,20.1253,91.7005,3.14446,0.0,0.0
1674,418.25,51.5093,62.5462,108.519,99.0125,57.6134,0.0324952,1.07787,19.6009,88.4276,4.89115,0.0,0.0
1728,431.75,65.3049,80.9523,109.036,98.5721,61.1438,0.0367912,1.31251,19.4865,84.4842,4.31367,0.0,0.0
1782,445.25,69.7312,86.8085,114.014,98.6565,64.9726,0.032557,1.19717,19.6752,81.1112,3.77277,0.0,0.0
1836,458.75,70.7591,87.2315,122.53,98.8734,64.2801,0.0258461,1.05079,19.8548,78.2987,3.8894,0.0,0.0
1890,472.25,70.5999,86.2917,113.994,98.1281,64.9237,0.0229003,0.942486,19.9839,75.6164,3.73107,0.0,0.0
1944,485.75,69.5846,84.3882,119.527,98.2788,66.7107,0.0225798,0.891524,20.0198,73.0842,3.49966,0.0,0.0
1998,499.25,69.2007,83.0907,119.224,98.4361,66.4206,0.020867,0.867979,20.0561,70.622,3.55349,0.0,0.0
2052,512.75,67.3099,80.0563,125.48,98.3394,69.7364,0.0169165,0.761136,20.1999,68.4601,3.10457,0.0,0.0
2106,526.25,64.4537,75.0858,122.588,97.8673,74.2567,0.0148367,0.661874,20.306,66.6585,2.49379,0.0,0.0
2160,539.75,63.1067,72.6174,124.664,97.3226,74.1065,0.0132922,0.613067,20.3495,64.927,2.46167,0.0,0.0
2214,553.25,61.0652,69.798,125.158,97.0955,77.0569,0.012987,0.581393,20.3795,63.3056,2.08792,0.0,0.0
2268,566.75,60.2108,68.0703,125.06,97.3972,70.5614,0.013537,0.587927,20.3591,61.6241,2.91137,0.0,0.0
2322,580.25,60.4932,67.8464,125.526,98.0972,71.9623,0.014187,0.612843,20.327,59.8325,2.79849,0.0,0.0
2376,593.75,60.409,67.6461,123.323,98.7663,72.9127,0.0132734,0.609551,20.3435,58.071,2.74138,0.0,0.0
2430,607.25,60.0754,67.1698,124.043,99.0775,76.7758,0.0122706,0.573974,20.3884,56.4796,2.30346,0.0,0.0
2484,620.75,59.5007,66.0741,126.13,99.072,77.9452,0.0120017,0.546805,20.413,54.9482,2.16641,0.0,0.0
2538,634.25,59.493,66.0752,122.129,98.8646,69.0909,0.0146964,0.595452,20.3221,53.2267,3.23668,0.0,0.0
2592,647.75,63.6239,70.9925,117.753,98.5876,63.4197,0.0204186,0.778915,20.0863,50.7345,3.98497,0.0,0.0
2646,661.25,66.5681,75.5938,116.866,98.3545,72.4004,0.0207357,0.816758,20.087,48.4325,2.76732,0.0,0.0
2700,674.75,66.9913,75.5021,122.485,98.7473,72.041,0.0156272,0.711548,20.2507,46.4208,2.84828,0.0,0.0
2754,688.25,64.1249,71.7378,125.066,98.9094,78.6821,0.0117011,0.586853,20.4046,44.8494,2.06659,0.0,0.0
2808,701.75,60.9478,67.5021,124.615,98.8456,80.4616,0.00902611,0.492697,20.5129,43.4782,1.85874,0.0,0.0
2862,715.25,57.4617,63.0612,126.391,98.6763,80.584,0.00847193,0.435335,20.5627,42.3672,1.82954,0.0,0.0
2916,728.75,55.7112,60.3532,126.025,98.4524,82.3164,0.00812903,0.421784,20.5718,41.2462,1.61688,0.0,0.0
2970,742.25,53.583,57.4403,131.573,98.3378,82.9292,0.00742786,0.400736,20.5921,40.1352,1.53938,0.0,0.0
3024,755.75,52.4124,56.1549,129.522,98.3152,85.085,0.00696134,0.380565,20.6139,39.1444,1.30548,0.0,0.0
3078,769.25,51.2934,54.3532,131.681,98.4361,82.9352,0.00677649,0.371879,20.6257,38.2136,1.54774,0.0,0.0
3132,782.75,50.0353,52.9496,129.197,98.7041,84.5946,0.00651128,0.354034,20.6487,37.2927,1.39335,0.0,0.0
3186,796.25,49.3159,51.5823,128.536,98.9019,86.4257,0.00629172,0.326308,20.6855,36.3919,1.218,0.0,0.0
3240,809.75,47.6789,49.8871,131.631,98.6878,87.6658,0.00601112,0.305499,20.7055,35.6213,1.06974,0.0,0.0
3294,823.25,46.8217,49.1731,132.904,98.6109,88.2601,0.00541267,0.292317,20.7192,34.9006,1.00167,0.0,0.0
3348,836.75,45.2643,47.4742,132.408,99.0973,90.2275,0.00574054,0.277971,20.7345,34.2401,0.846986,0.0,0.0
3402,850.25,44.9581,46.5336,129.549,98.3798,90.2884,0.00523663,0.26327,20.7528,33.6095,0.775248,0.0,0.0
3456,863.75,43.7007,45.4836,136.215,97.1292,90.0005,0.00455308,0.256778,20.7594,32.979,0.688536,0.0,0.0
3510,877.25,43.0356,44.597,129.903,97.6501,91.4089,0.00411062,0.252109,20.7645,32.4185,0.596589,0.0,0.0
3564,890.75,42.4734,44.0934,132.394,98.406,92.3446,0.00415766,0.246,20.7719,31.848,0.574255,0.0,0.0
3618,904.25,41.4642,42.8448,131.912,98.3263,92.0194,0.0042211,0.244849,20.7722,31.2675,0.598803,0.0,0.0
3672,917.75,40.817,42.1257,132.64,98.3343,93.5309,0.0041913,0.241108,20.7787,30.747,0.452363,0.0,0.0
3726,931.25,40.4286,41.6172,132.664,99.0791,93.5377,0.0038388,0.232546,20.7896,30.2365,0.519869,0.0,0.0
3780,944.75,39.9614,41.6592,130.113,97.415,92.0627,0.00414602,0.234793,20.7869,29.6861,0.510446,0.0,0.0
3834,958.25,39.308,40.6108,132,97.8106,93.6954,0.00453711,0.223299,20.7983,29.1956,0.388263,0.0,0.0
3888,971.75,38.8824,40.2391,135.982,98.1725,95.3812,0.00404215,0.217198,20.8065,28.7252,0.26055,0.0,0.0
3942,985.25,38.731,39.9347,136.455,98.5788,94.4203,0.00406144,0.21473,20.8084,28.2548,0.389316,0.0,0.0
3996,998.75,37.8659,39.3192,136.059,99.0359,95.8422,0.00474744,0.207969,20.8165,27.8444,0.296081,0.0,0.0
4050,1012.25,37.1526,38.4918,132.858,97.1233,92.6547,0.00539294,0.199666,20.8249,27.4141,0.425451,0.0,0.0
4104,1025.75,37.0123,38.1955,137.415,98.4219,93.902,0.00571153,0.195806,20.8281,27.0437,0.424637,0.0,0.0
4158,1039.25,36.7916,37.8288,135.452,98.6078,94.7891,0.00596142,0.191609,20.8325,26.6034,0.356749,0.0,0.0
4212,1052.75,36.6709,37.8157,136.512,98.844,93.7515,0.00557594,0.18989,20.8325,26.243,0.477793,0.0,0.0
4266,1066.25,35.9997,37.3869,133.757,98.0913,93.5885,0.00566128,0.187719,20.839,25.8027,0.424455,0.0,0.0
4320,1079.75,35.7443,36.5376,138.14,97.3853,93.1327,0.00606192,0.18132,20.8446,25.4323,0.403308,0.0,0.0
4374,1093.25,35.3446,36.5013,137.757,98.4298,94.1414,0.00654816,0.173746,20.8529,25.092,0.402368,0.0,0.0
4428,1106.75,34.3499,35.1321,135.96,97.9521,93.762,0.00710216,0.165362,20.8611,24.7818,0.394902,0.0,0.0
4482,1120.25,33.5037,34.7686,133.06,98.8032,93.4602,0.00779866,0.156447,20.8718,24.4615,0.502173,0.0,0.0
4536,1133.75,32.949,33.3384,137.889,98.3941,94.3883,0.00800525,0.147487,20.8804,24.2213,0.375435,0.0,0.0
4590,1147.25,32.3509,32.8275,138.413,98.6502,94.266,0.00918417,0.135849,20.8934,23.9811,0.410626,0.0,0.0
4644,1160.75,31.7783,31.8818,138.708,99.0287,95.3699,0.00909953,0.129662,20.8962,23.7709,0.340057,0.0,0.0
4698,1174.25,30.9941,31.5611,138.84,99.1068,95.1124,0.00946745,0.129288,20.8923,23.5907,0.371594,0.0,0.0
4752,1187.75,29.845,30.5794,140.162,98.9542,95.2069,0.00973131,0.131703,20.8878,23.4106,0.348706,0.0,0.0
4806,1201.25,29.7393,29.9316,138.277,98.7402,96.1302,0.00933267,0.132396,20.8906,23.2504,0.241975,0.0,0.0
4860,1214.75,28.7012,29.0861,138.399,98.5535,95.735,0.0098796,0.114021,20.9146,23.1003,0.262089,0.0,0.0
4914,1228.25,28.8042,29.0508,142.922,98.4698,95.4572,0.0100889,0.10302,20.9245,22.9702,0.280665,0.0,0.0
4968,1241.75,28.1157,28.4076,143.239,98.5059,95.9642,0.0098328,0.0962881,20.9311,22.8601,0.236129,0.0,0.0
5022,1255.25,27.7075,27.6533,144.525,98.6383,95.7741,0.0105098,0.0898765,20.9381,22.76,0.266168,0.0,0.0
5076,1268.75,27.4387,27.6254,142.09,98.8242,96.2702,0.00954206,0.0859207,20.943,22.6899,0.236513,0.0,0.0
5130,1282.25,26.0539,26.8945,141.564,99.0216,96.6033,,,,22.6098,0.223339,0.0,0.0
5152,1287.75,26.9049,26.917,141.364,99.0787,95.6687,,,,22.6098,0.316352,0.0,0.0