File: 01_Data/PET/Cone/PET_Cone_HF50Scan_220207_R1.csv
Names,Time,Stack TC,Smoke TC,Exh Press,Smoke Comp,Smoke Meas,CO Meter,CO2 Meter,O2 Meter,Sample Mass,Ext Coeff,Start Test,Flame Verif
Chan Gain,,500,500,1,1,1,1,1,1,1,1,1.0,1.0
Offset,,0,0,0.134889,0,0,0,0,0,0,0,0.0,0.0
Gain,,1,1,25.011,12.9892,12.3331,1,1,1,1.00088,1.02973,1.0,1.0
Units,sec,C,C,Pa,%,%,%,%,%,g,/m,,
Baseline,,28.4744,30.5367,139.847,96.0875,96.4825,0.000144,0.070296,20.9629,-867.486,-0.0370483,,
22,5.25,25.5268,27.4849,137.938,96.7403,97.0975,0.000103144,0.0814871,20.9495,95.3537,-0.0332828,0.0,0.0
44,10.75,25.9383,27.7959,139.459,96.8244,97.0715,-0.000154773,0.0805969,20.9541,95.3337,-0.0230235,0.0,0.0
66,16.25,25.8932,27.65,135.444,96.91,97.4433,5.0667e-05,0.0765674,20.9633,95.2937,-0.0495759,0.0,0.0
88,21.75,27.4531,28.5518,142.716,97.0047,97.4911,-4.16617e-05,0.0734202,20.969,95.2736,-0.0451795,0.0,0.0
110,27.25,26.9612,28.5631,142.255,97.0761,97.1385,0.000144446,0.0713024,20.9701,95.2736,-0.00580358,0.0,0.0
132,32.75,27.2195,28.6013,140.827,97.1486,97.289,1.51054e-06,0.0703218,20.9699,95.3137,-0.0130444,0.0,0.0
154,38.25,27.3547,29.2204,136.548,97.2307,97.8694,6.37289e-05,0.0696974,20.9679,95.2736,-0.0591429,0.0,0.0
176,43.75,26.2889,28.6456,137.703,97.2937,97.6319,1.70831e-05,0.0695603,20.9668,95.2636,-0.0313435,0.0,0.0
198,49.25,27.3183,29.0146,134.616,97.3456,97.4926,0.000163791,0.0696392,20.966,95.2536,-0.0136311,0.0,0.0
220,54.75,27.2436,28.9217,139.616,97.4007,97.0433,0.000252964,0.0695371,20.9666,95.2536,0.0332137,0.0,0.0
242,60.25,27.0776,28.7545,135.155,97.4427,97.0609,0.000238379,0.0699116,20.9672,95.2036,0.0354621,0.0,0.0
264,65.75,27.3408,29.3828,143.144,97.4927,96.6195,0.000346715,0.0701815,20.9682,95.2436,0.0812709,0.0,0.0
286,71.25,27.5594,29.4146,139.535,97.5062,95.9981,0.000522461,0.0704526,20.9668,95.2036,0.140801,0.0,0.0
308,76.75,27.7681,29.5489,136.894,97.5323,95.7474,0.000794495,0.071449,20.9647,95.1435,0.166841,0.0,0.0
330,82.25,27.8175,29.5606,137.43,97.5656,95.0007,0.00116356,0.0745121,20.9603,95.0835,0.240645,0.0,0.0
352,87.75,27.8435,30.3725,135.535,97.614,95.5058,0.00215849,0.0891043,20.9349,94.9734,0.197224,0.0,0.0
374,93.25,30.8162,32.8452,122.432,97.6501,66.1838,0.00801166,0.244945,20.6529,94.3628,3.51332,0.0,1.0
396,98.75,34.8086,39.2653,118.867,97.6647,59.362,0.0151286,0.465765,20.3531,93.4721,4.49727,0.0,0.0
418,104.25,40.6603,46.6452,119.575,97.6976,50.7114,0.0217857,0.662981,20.1213,92.3511,5.92301,0.0,0.0
440,109.75,45.7703,53.7597,107.535,97.7182,51.8736,0.0323391,0.869238,19.8753,90.8798,5.72023,0.0,0.0
462,115.25,52.9347,64.0089,116.854,97.725,49.8732,0.0403166,1.11367,19.6008,89.2283,6.07608,0.0,0.0
484,120.75,60.6079,73.2144,105.492,97.7468,50.8958,0.0434708,1.28216,19.4347,87.5569,5.89476,0.0,0.0
506,126.25,65.9655,80.5987,106.952,97.7369,52.8808,0.0428987,1.34725,19.4094,85.9154,5.54825,0.0,0.0
528,131.75,70.287,86.5731,110.256,97.7432,54.3675,0.0410897,1.3601,19.429,84.3741,5.2984,0.0,0.0
550,137.25,73.0877,90.4591,110.912,97.7393,52.0543,0.04007,1.31317,19.5151,82.9028,5.69076,0.0,0.0
572,142.75,75.6417,93.7132,112.016,97.7238,53.0261,0.0401589,1.28539,19.5404,81.3714,5.52226,0.0,0.0
594,148.25,76.6966,95.222,112.853,97.6814,54.0758,0.03747,1.25149,19.5917,79.8801,5.34127,0.0,0.0
616,153.75,78.6627,96.7664,110.943,97.6449,53.7096,0.0365425,1.20994,19.6397,78.4188,5.39928,0.0,0.0
638,159.25,79.9686,98.7039,103.561,97.6049,52.6636,0.0386354,1.25553,19.5333,76.9576,5.57321,0.0,0.0
660,164.75,82.9709,103.048,103.56,97.543,52.6444,0.0419695,1.37738,19.3857,75.2961,5.57078,0.0,0.0
682,170.25,86.0212,106.373,107.35,97.5086,53.1127,0.0428109,1.42435,19.3545,73.6547,5.48761,0.0,0.0
704,175.75,88.0918,108.711,102.871,97.4459,51.5338,0.0412583,1.42881,19.3681,71.9532,5.75439,0.0,0.0
726,181.25,89.5538,110.193,108.181,97.4075,54.6001,0.0402615,1.40925,19.4024,70.4919,5.22875,0.0,0.0
748,186.75,90.7342,112.586,107.033,97.3603,51.3241,0.0411084,1.40747,19.39,68.8204,5.78328,0.0,0.0
770,192.25,92.6332,113.799,104.213,97.5553,52.4604,0.0436689,1.46493,19.3025,67.179,5.60355,0.0,0.0
792,197.75,94.5541,116.31,97.5015,97.7408,53.6385,0.0437108,1.49903,19.2773,65.4675,5.42012,0.0,0.0
814,203.25,95.2301,117.193,107.673,97.8451,54.5978,0.0408004,1.44727,19.3774,63.9562,5.26962,0.0,0.0
836,208.75,95.8213,116.202,108.284,97.968,55.0525,0.0372754,1.35979,19.5023,62.5349,5.20604,0.0,0.0
858,214.25,94.4081,114.575,107.704,98.0409,55.9264,0.0344665,1.26109,19.621,61.2237,5.0705,0.0,0.0
880,219.75,93.2281,112.66,113.265,98.052,53.7081,0.0332034,1.17587,19.7042,59.9126,5.43711,0.0,0.0
902,225.25,92.0311,111.623,112.589,98.0417,56.6623,0.0329194,1.14019,19.7303,58.5714,4.95251,0.0,0.0
924,230.75,91.7046,110.522,117.444,97.9747,57.6672,0.031856,1.12293,19.7391,57.3303,4.78754,0.0,0.0
946,236.25,91.7746,109.997,114.844,97.8728,56.0845,0.0318069,1.11977,19.7354,56.0292,5.02951,0.0,0.0
968,241.75,91.9922,109.896,111.592,97.6968,55.8064,0.0318638,1.12086,19.7276,54.718,5.05816,0.0,0.0
990,247.25,90.7023,109.499,110.972,97.4725,54.952,0.0323605,1.13491,19.7107,53.3268,5.17675,0.0,0.0
1012,252.75,91.9841,109.153,112.031,97.3797,54.841,0.0332173,1.16706,19.6638,51.9856,5.18642,0.0,0.0
1034,258.25,93.2185,109.749,105.932,97.4396,53.9768,0.033266,1.18937,19.6385,50.6044,5.33543,0.0,0.0
1056,263.75,93.731,110.645,103.602,97.5315,55.1443,0.0327192,1.19745,19.6375,49.2232,5.15066,0.0,0.0
1078,269.25,94.3334,111.343,106.963,97.6156,52.5579,0.0342082,1.22404,19.6011,47.7019,5.59236,0.0,0.0
1100,274.75,95.5268,112.386,106.765,97.7408,55.5542,0.0354168,1.25492,19.5646,46.2606,5.10313,0.0,0.0
1122,280.25,95.6737,113.12,106.182,97.8376,53.0069,0.0358866,1.2631,19.5629,44.7993,5.53604,0.0,0.0
1144,285.75,96.0031,113.149,100.018,97.9549,49.6839,0.0479882,1.3451,19.4165,43.0078,6.13166,0.0,0.0
1166,291.25,99.5776,117.136,103.589,98.0231,51.3968,0.059207,1.51469,19.208,41.0861,5.83178,0.0,0.0
1188,296.75,102.095,120.738,102.586,98.0548,47.449,0.070471,1.65141,19.059,38.9142,6.55661,0.0,0.0
1210,302.25,105.252,125.71,94.3637,98.0259,42.2674,0.0937694,1.89414,18.7248,36.432,7.59847,0.0,0.0
1232,307.75,110.82,132.861,95.0666,97.9347,45.7504,0.105082,2.14787,18.4735,33.8397,6.87482,0.0,0.0
1254,313.25,114.603,138.363,95.6742,97.8229,47.0485,0.102381,2.25862,18.399,31.2875,6.61178,0.0,0.0
1276,318.75,115.884,140.132,99.3532,97.6374,47.8287,0.0844314,2.18942,18.5424,29.0455,6.44607,0.0,0.0
1298,324.25,116.117,139.272,102.73,97.4166,51.1649,0.0653854,1.97412,18.85,27.1438,5.81656,0.0,0.0
1320,329.75,114.877,137.583,106.161,97.1566,49.3335,0.0579604,1.78193,19.0605,25.3322,6.12167,0.0,0.0
1342,335.25,113.775,135.756,108.438,96.843,53.2527,0.0542705,1.68258,19.1559,23.5206,5.40196,0.0,0.0
1364,340.75,111.94,132.713,109.133,96.556,58.3066,0.0432321,1.5312,19.3432,22.0293,4.55617,0.0,0.0
1386,346.25,109.311,128.682,115.165,96.288,64.4792,0.0325312,1.3189,19.6117,20.8083,3.62214,0.0,0.0
1408,351.75,106.082,124.341,115.502,96.0748,68.9916,0.0234156,1.11049,19.8549,19.8074,2.99112,0.0,0.0
1430,357.25,103.24,119.365,113.704,95.9321,70.776,0.0187959,0.942584,20.0362,19.0267,2.74704,0.0,0.0
1452,362.75,99.7367,114.794,115.058,95.875,76.3535,0.015262,0.823986,20.1555,18.266,2.05649,0.0,0.0
1474,368.25,96.0825,109.26,115.784,95.9075,78.0882,0.0123343,0.716113,20.2792,17.6155,1.85663,0.0,0.0
1496,373.75,93.3054,105.477,118.539,96.0439,80.5964,0.0100096,0.634382,20.3634,17.045,1.5839,0.0,0.0
1518,379.25,89.5743,100.762,117.832,96.2524,83.4177,0.00864076,0.561507,20.4458,16.5846,1.2927,0.0,0.0
1540,384.75,86.6576,96.0517,124.064,96.4858,89.1514,0.00783461,0.49173,20.5172,16.1742,0.71413,0.0,0.0
1562,390.25,83.9402,91.9537,120.504,96.7772,91.229,0.00836996,0.410542,20.624,15.934,0.53328,0.0,0.0
1584,395.75,80.9118,87.4127,125.936,97.0174,93.692,0.0113971,0.321047,20.7195,15.7738,0.31504,0.0,0.0
1606,401.25,76.9269,82.8513,128.039,97.2715,93.8821,0.0134849,0.252557,20.784,15.7038,0.320361,0.0,0.0
1628,406.75,74.2245,78.7401,124.426,97.4566,94.9559,0.0146258,0.206592,20.8232,15.6437,0.234807,0.0,0.0
1650,412.25,71.7919,75.4256,129.386,97.5704,94.9487,0.0151203,0.177578,20.8442,15.5537,0.246026,0.0,0.0
1672,417.75,68.3304,71.6434,129.201,97.6497,95.1998,0.0154983,0.158832,20.855,15.5136,0.229511,0.0,0.0
1694,423.25,67.0528,69.2384,129.484,97.6695,95.1599,0.0151045,0.149088,20.8604,15.4636,0.235131,0.0,0.0
1716,428.75,64.1701,66.0556,130.477,97.6346,95.9868,0.0152403,0.142976,20.8641,15.3735,0.153753,0.0,0.0
1738,434.25,63.4666,65.0195,132.518,97.543,94.715,0.0153442,0.138333,20.868,15.3435,0.265756,0.0,0.0
1760,439.75,61.9222,63.0368,123.905,97.4582,94.8076,0.0151439,0.13526,20.8721,15.2934,0.249072,0.0,0.0
1782,445.25,61.2296,61.7173,126.707,97.3702,95.598,0.0150733,0.13337,20.8731,15.2434,0.16592,0.0,0.0
1804,450.75,59.7192,60.163,131.625,97.3068,95.992,0.0144934,0.131933,20.874,15.2134,0.122877,0.0,0.0
1826,456.25,59.0589,59.2001,130.809,97.6132,96.0635,0.0144853,0.131196,20.874,15.1433,0.14455,0.0,0.0
1848,461.75,58.0426,57.6308,129.949,97.8296,95.9303,0.0144407,0.129992,20.8739,15.0933,0.177092,0.0,0.0
1870,467.25,57.362,57.0942,129.841,97.9739,95.1715,0.01407,0.129741,20.8739,15.0232,0.262134,0.0,0.0
1892,472.75,56.4931,55.5716,131.655,98.0104,96.5521,0.0141589,0.129353,20.8739,14.9631,0.13541,0.0,0.0
1914,478.25,56.105,55.014,130.8,97.9569,95.7003,0.014082,0.128689,20.8743,14.9031,0.210513,0.0,0.0
1936,483.75,54.9155,54.5208,132.395,97.7769,96.3756,0.0141465,0.127888,20.8758,14.8831,0.130395,0.0,0.0
1958,489.25,53.7632,52.9515,129.16,97.5141,95.8885,0.0141565,0.127395,20.8758,14.833,0.151846,0.0,0.0
1980,494.75,54.0459,52.4966,130.143,97.3555,96.5596,0.0143034,0.127237,20.8756,14.763,0.0741513,0.0,0.0
2002,500.25,53.0109,52.747,131.894,97.4701,95.2001,0.0139365,0.126581,20.8767,14.7029,0.21285,0.0,0.0
2024,505.75,52.9403,52.3549,129.567,97.6287,96.5096,0.0139608,0.125765,20.8789,14.7029,0.10414,0.0,0.0
2046,511.25,52.2737,52.3622,130.104,97.7769,96.5611,0.0141018,0.125539,20.8788,14.6529,0.113021,0.0,0.0
2068,516.75,51.6667,51.1621,132.365,97.9208,96.2924,0.013771,0.12538,20.8787,14.5728,0.151478,0.0,0.0
2090,522.25,51.2412,51.436,131.006,97.9937,97.1814,,0.12518,,14.5328,0.0751925,0.0,0.0
2112,527.75,50.8651,50.1698,128.652,98.0183,96.8291,,,,14.4927,0.110262,0.0,0.0
2128,531.75,50.7262,50.2065,133.67,98.0239,97.1885,,,,14.4427,0.0773045,0.0,0.0