File: 01_Data/PET/Cone/PET_Cone_HF25Scan_220204_R1.csv
Names,Time,Stack TC,Smoke TC,Exh Press,Smoke Comp,Smoke Meas,CO Meter,CO2 Meter,O2 Meter,Sample Mass,Ext Coeff,Start Test,Flame Verif
Chan Gain,,500,500,1,1,1,1,1,1,1,1,1.0,1.0
Offset,,0,0,0.14021,0,0,0,0,0,0,0,0.0,0.0
Gain,,1,1,25.011,13.3046,13.3037,1,1,1,1.00093,1.10262,1.0,1.0
Units,sec,C,C,Pa,%,%,%,%,%,g,/m,,
Baseline,,16.9133,18.0078,144.885,100.597,106.882,0.00115958,0.103895,20.9985,-871.305,-0.586147,,
43,10.5,15.4009,16.5866,142.176,98.892,104.957,0.00122346,0.12057,20.973,89.8734,-0.575717,0.0,0.0
86,21.25,15.939,16.5005,149.957,98.8964,104.984,0.00101863,0.111704,20.9991,89.8434,-0.577787,0.0,0.0
129,32,16.0525,16.9866,141.12,98.9618,105.327,0.00104121,0.104588,21.0212,89.8133,-0.602876,0.0,0.0
172,42.75,15.8622,17.6948,143.734,99.0438,105.192,0.000823954,0.0956875,21.0447,89.7933,-0.582515,0.0,0.0
215,53.5,16.7464,17.5341,147.003,99.1632,105.35,0.000849051,0.0849238,21.0671,89.7433,-0.585338,0.0,0.0
258,64.25,16.8877,18.4015,146.534,99.2066,105.501,0.000776901,0.0818734,21.072,89.7633,-0.594957,0.0,0.0
301,75,17.178,18.6609,144.54,99.2326,105.394,0.000410177,0.0838324,21.0671,89.7132,-0.582593,0.0,0.0
344,85.75,17.6204,18.8024,152.23,99.1624,105.346,0.000879329,0.0848713,21.0657,89.7833,-0.585119,0.0,0.0
387,96.5,17.6761,19.3392,141.555,98.9634,104.99,0.00068365,0.0842875,21.0629,89.7733,-0.571761,0.0,0.0
430,107.25,17.4389,19.4557,144.56,98.851,104.794,0.000751467,0.0847373,21.0641,89.7833,-0.564677,0.0,0.0
473,118,18.1849,19.2402,145.865,99.0799,105.185,0.000818098,0.083909,21.0689,89.7833,-0.578314,0.0,0.0
516,128.75,17.9836,19.3308,143.357,99.6975,105.75,0.000521886,0.0793708,21.0774,89.7333,-0.570081,0.0,0.0
559,139.5,17.6677,19.748,141.913,100.314,106.493,0.00110098,0.0789457,21.0773,89.7533,-0.578113,0.0,0.0
602,150.25,18.3463,19.7553,144.632,100.482,106.53,0.000979565,0.0847127,21.0691,89.7433,-0.565348,0.0,0.0
645,161,17.8145,19.7673,139.742,100.232,106.227,0.00111713,0.0829296,21.0728,89.7433,-0.561839,0.0,0.0
688,171.75,18.3051,20.1434,144.488,100.804,106.602,0.00103293,0.0862278,21.0619,89.5631,-0.54089,0.0,0.0
731,182.5,17.7871,19.6977,140.877,100.559,106.115,0.00129872,0.0932684,21.0486,89.7232,-0.520141,0.0,0.0
774,193.25,18.2446,19.3532,144.159,100.606,106.191,0.00159056,0.0935812,21.0453,89.7232,-0.52253,0.0,0.0
817,204,18.3323,19.9083,145.584,101,106.646,0.000990558,0.0936907,21.0408,89.7032,-0.526067,0.0,0.0
860,214.75,18.0508,19.5721,146.097,99.7117,105.227,0.00116958,0.0971746,21.037,89.7032,-0.520719,0.0,0.0
903,225.5,18.2751,20.0255,143.492,98.8095,104.264,0.000522979,0.101193,21.0222,89.6932,-0.519743,0.0,0.0
946,236.25,18.2939,20.5295,141.684,99.6833,104.844,0.000928996,0.100728,21.0271,89.6632,-0.488222,0.0,0.0
989,247,18.2647,19.4927,145.807,100.437,105.254,0.0013172,0.0971195,21.0344,89.6732,-0.453056,0.0,0.0
1032,257.75,18.3173,19.9796,144.354,100.801,106.005,0.00138719,0.0964424,21.033,89.5431,-0.486901,0.0,0.0
1075,268.5,18.2551,19.9355,144.179,100.499,105.259,0.00122649,0.0988575,21.0262,89.493,-0.447639,0.0,0.0
1118,279.25,18.9304,20.0473,144.746,100.833,105.383,0.000999694,0.0924927,21.0416,89.5331,-0.426902,0.0,0.0
1161,290,19.0201,20.0065,141.551,99.013,103.129,0.000937493,0.0947262,21.0418,89.6232,-0.393932,0.0,0.0
1204,300.75,19.321,19.6701,141.159,99.9963,103.945,0.000992272,0.0922574,21.0484,89.7533,-0.374539,0.0,0.0
1247,311.5,18.7955,20.3023,144.34,100.229,104.468,0.00112482,0.0944137,21.049,89.8834,-0.400597,0.0,0.0
1290,322.25,19.6203,20.4561,141.993,100.826,104.369,0.00156899,0.101381,21.0445,89.6131,-0.333995,0.0,0.0
1333,333,20.3952,21.597,145.617,100.968,103.084,0.00195182,0.125741,21.0109,89.423,-0.200552,0.0,0.0
1376,343.75,20.9457,22.5828,137.82,100.325,98.2845,0.00294125,0.184074,20.9286,89.0226,0.198766,0.0,1.0
1419,354.5,23.1546,25.4071,136.953,98.9935,84.5412,0.00590861,0.321613,20.7718,87.9216,1.5264,0.0,0.0
1462,365.25,29.5478,33.2523,129.245,99.5789,79.0054,0.0133815,0.557827,20.4704,86.8906,2.23845,0.0,0.0
1505,376,36.6159,42.7361,118.481,100.342,75.9788,0.0171303,0.706317,20.3114,85.3192,2.69014,0.0,0.0
1548,386.75,42.1282,50.0001,128.848,100.282,76.077,0.0203962,0.779083,20.2288,87.0808,2.6718,0.0,0.0
1591,397.5,48.5403,58.1673,112.611,100.078,71.8863,0.0250131,0.925081,20.0457,86.8306,3.20019,0.0,0.0
1634,408.25,57.889,70.8562,99.4453,100.856,62.4957,0.0378694,1.29466,19.6288,82.7768,4.62903,0.0,0.0
1677,419,64.9021,79.8617,122.85,100.557,67.3713,0.0388794,1.26556,19.6833,79.5938,3.87375,0.0,0.0
1720,429.75,67.874,83.2824,110.463,100.536,70.0281,0.0331346,1.14481,19.8241,77.602,3.49766,0.0,0.0
1763,440.5,68.1434,83.1526,117.141,100.975,70.1901,0.0277935,1.00866,19.9762,74.4791,3.51744,0.0,0.0
1806,451.25,67.6193,81.9665,122.836,101.015,78.2759,0.0222301,0.893963,20.1183,70.5254,2.46672,0.0,0.0
1849,462,65.5077,78.5335,119.306,100.561,77.7915,0.0191438,0.755048,20.2839,72.5974,2.48315,0.0,0.0
1892,472.75,62.6962,74.6841,124.888,99.8676,74.8818,0.0180247,0.697473,20.3413,76.3909,2.78494,0.0,0.0
1935,483.5,61.6592,72.5869,124.843,99.2229,74.507,0.0192378,0.724635,20.303,76.5911,2.77082,0.0,0.0
1978,494.25,61.1746,71.201,126.064,98.989,70.5096,0.0199444,0.740642,20.2781,78.4728,3.28136,0.0,0.0
2021,505,61.0587,70.6522,121.889,99.149,79.2324,0.0166304,0.718923,20.3161,80.0242,2.16886,0.0,0.0
2064,515.75,60.2897,69.3772,123.5,99.4714,76.578,0.0175341,0.70169,20.3326,83.0471,2.52983,0.0,0.0
2107,526.5,61.3803,70.8309,123.77,99.7913,79.3708,0.0204417,0.751773,20.2758,98.7816,2.21443,0.0,0.0
2150,537.25,61.246,70.3373,120.665,100.037,76.9008,0.0209656,0.730765,20.299,101.544,2.54395,0.0,0.0
2193,548,61.0425,69.8352,121.565,100.259,72.3041,0.0214448,0.706187,20.3303,113.936,3.16158,0.0,0.0
2236,558.75,62.7335,71.0943,115.467,100.367,60.8083,0.0427214,0.992795,19.9699,116.398,4.8468,0.0,0.0
2279,569.5,65.4006,75.2733,113.963,100.389,59.8936,0.050703,1.12876,19.8409,90.7042,4.99551,0.0,0.0
2322,580.25,66.3191,75.8172,122.732,100.365,64.5504,0.0341254,0.890056,20.1076,106.369,4.26899,0.0,0.0
2365,591,66.9391,76.0218,122.794,100.3,63.8902,0.0411322,0.961807,20.0169,157.666,4.36208,0.0,0.0
2408,601.75,70.149,80.7641,107.328,100.27,50.1453,0.0639058,1.32007,19.586,352.687,6.70217,0.0,0.0
2451,612.5,77.7239,90.7242,108.292,100.234,55.612,0.0924145,1.61881,19.2895,361.325,5.69795,0.0,0.0
2494,623.25,78.684,91.9268,113.242,100.203,48.2306,0.0841839,1.3668,19.5751,406.397,7.07229,0.0,0.0
2537,634,79.212,92.0188,120.554,100.16,60.0536,0.0488871,1.15314,19.846,352.607,4.94755,0.0,0.0
2580,644.75,74.4406,85.4035,121.575,100.128,75.2455,0.0225704,0.771233,20.2726,305.473,2.76328,0.0,0.0
2623,655.5,69.6601,78.9049,122.672,100.131,83.5546,0.0126932,0.590594,20.4721,272.463,1.75046,0.0,0.0
2666,666.25,64.8747,72.5173,124.466,100.165,87.0839,0.00903912,0.487989,20.5807,254.196,1.35356,0.0,0.0
2709,677,61.3584,67.4295,128.234,100.185,89.8407,0.0071811,0.433124,20.6381,248.22,1.05409,0.0,0.0
2752,687.75,58.0502,62.6922,125.775,100.23,90.8459,0.00614686,0.397426,20.6755,248.43,0.950817,0.0,0.0
2795,698.5,55.3756,59.2374,128.763,100.275,93.8831,0.00562939,0.365244,20.7099,252.204,0.637046,0.0,0.0
2838,709.25,52.6497,55.8972,132.424,100.339,95.2112,0.00502446,0.344192,20.737,254.376,0.507415,0.0,0.0
2881,720,51.1711,53.5571,129.653,100.37,96.3833,0.00469106,0.331765,20.749,258.039,0.392007,0.0,0.0
2924,730.75,49.402,51.1689,137.019,100.322,97.4799,0.00495703,0.324223,20.756,259.571,0.278006,0.0,0.0
2967,741.5,48.2462,49.8964,132.304,100.149,97.1924,0.00404542,0.315811,20.7649,265.306,0.28984,0.0,0.0
3010,752.25,46.8461,48.3292,129.305,99.8887,98.0012,0.00430692,0.301369,20.7799,271.051,0.184523,0.0,0.0
3053,763,45.6369,46.7465,135.615,99.6175,99.0356,0.00408193,0.287051,20.8017,262.383,0.056663,0.0,0.0
3096,773.75,44.3286,45.85,132.656,99.3167,98.8619,0.00374372,0.273985,20.8225,266.557,0.0443924,0.0,0.0
3139,784.5,43.7591,44.1419,130.008,99.0775,98.4283,0.00367049,0.267209,20.8275,267.288,0.0635886,0.0,0.0
3182,795.25,42.8924,43.2933,131.809,98.9906,99.4473,0.0038923,0.260369,20.8311,272.713,-0.0445184,0.0,0.0
3225,806,41.7572,42.0739,136.51,99.067,100.258,0.00374115,0.248547,20.8457,278.258,-0.115559,0.0,0.0
3268,816.75,40.5072,40.8747,135.378,99.3662,100.824,0.00395476,0.237382,20.8557,283.463,-0.140872,0.0,0.0
3311,827.5,39.5904,39.7289,138.506,99.8518,102.079,0.00409596,0.22299,20.8716,263.214,-0.213402,0.0,0.0
3354,838.25,38.9285,39.1014,135.99,100.402,103.468,0.00451701,0.202571,20.9034,264.916,-0.290932,0.0,0.0
3397,849,37.3226,37.0704,136.602,100.877,103.034,0.00497418,0.177752,20.9457,264.916,-0.204659,0.0,0.0
3440,859.75,36.5424,36.3497,138.036,101.061,104.075,0.0051506,0.158496,20.9729,259.891,-0.284231,0.0,0.0
3483,870.5,35.3719,35.1043,134.898,100.922,103.709,0.00566183,0.143912,20.9811,261.823,-0.263397,0.0,0.0
3526,881.25,33.8579,33.7112,137.932,100.562,103.463,0.00632977,0.134908,20.9768,261.372,-0.275116,0.0,0.0
3569,892,32.8546,32.1367,135.586,100.292,103.72,0.00678146,0.120357,20.9823,258.72,-0.325154,0.0,0.0
3612,902.75,31.8926,30.6066,139.815,100.828,104.621,0.00602124,0.113746,20.987,259.631,-0.357176,0.0,0.0
3655,913.5,30.0841,29.5718,141.677,100.798,104.975,0.00536403,0.110519,20.9889,260.692,-0.392656,0.0,0.0
3698,924.25,29.6994,29.0186,142.473,100.198,104.157,0.00492584,0.108548,20.9915,261.693,-0.374855,0.0,0.0
3741,935,28.9497,28.0488,138.68,100.164,104.752,0.00461301,0.111327,20.9828,262.393,-0.433185,0.0,0.0
3784,945.75,28.7906,26.9908,138.426,100.306,104.823,0.00408371,0.109238,20.9895,262.574,-0.425992,0.0,0.0
3827,956.5,27.7084,27.0082,140.884,100.362,104.999,0.0038413,0.10795,20.9911,263.084,-0.436911,0.0,0.0
3870,967.25,27.4125,26.6324,139.068,100.329,105.032,0.00332612,0.107982,20.9903,263.384,-0.443033,0.0,0.0
3913,978,26.9748,26.5981,142.423,100.043,105.029,0.00323708,0.108197,20.9883,264.886,-0.470409,0.0,0.0
3956,988.75,27.0032,25.7477,136.352,99.6196,105.05,0.00315045,0.107375,20.9913,264.495,-0.513417,0.0,0.0
3999,999.5,26.2831,26.1142,138.496,99.2192,104.083,0.00323112,0.105847,20.9938,263.905,-0.462836,0.0,0.0
4042,1010.25,25.7323,25.1985,141.833,98.9939,104.37,0.00339475,0.105889,20.9929,264.015,-0.511503,0.0,0.0
4085,1021,26.1412,25.5636,137.254,98.978,104.422,,0.104107,,264.425,-0.517865,0.0,0.0
4128,1031.75,25.7404,25.146,138.558,99.1912,104.69,,,,263.404,-0.521882,0.0,0.0