File: 01_Data/PET/Cone/PET_Cone_HF25Scan_220218_R5.csv
Names,Time,Stack TC,Smoke TC,Exh Press,Smoke Comp,Smoke Meas,CO Meter,CO2 Meter,O2 Meter,Sample Mass,Ext Coeff,Start Test,Flame Verif
Chan Gain,,500,500,1,1,1,1,1,1,1,1,1.0,1.0
Offset,,0,0,0.132436,0,0,0,0,0,0,0,0.0,0.0
Gain,,1,1,25.011,15.4219,15.1528,1,1,1,1.00089,1.02113,1.0,1.0
Units,sec,C,C,Pa,%,%,%,%,%,g,/m,,
Baseline,,24.3058,25.2007,164.206,114.189,113.212,-0.00711948,0.04862,20.9935,-479.077,0.0769372,,
82,20.25,22.4701,22.8591,166.574,113.996,113.126,-0.00726102,0.0506069,20.9934,490.715,0.0686914,0.0,0.0
164,40.75,22.3356,23.4324,161.744,113.971,113.168,-0.00703135,0.0459057,21,490.675,0.0633631,0.0,0.0
246,61.25,23.0465,23.4655,163.99,113.977,113.134,-0.00725294,0.0476643,20.9983,490.675,0.0665158,0.0,0.0
328,81.75,23.2484,24.0408,163.131,113.957,113.145,-0.00701187,0.0457732,20.9994,490.635,0.0640469,0.0,0.0
410,102.25,23.4031,24.2586,168.638,113.967,113.164,-0.00761451,0.0464557,21.0029,490.665,0.0632868,0.0,0.0
492,122.75,23.9354,24.2559,165.123,113.985,113.157,-0.00724797,0.0478742,20.998,490.615,0.0652777,0.0,0.0
574,143.25,23.7958,25.1058,164.508,114.02,112.724,-0.00735353,0.0471847,21.0014,490.615,0.102415,0.0,0.0
656,163.75,23.8287,24.5949,165.916,114.051,113.526,-0.00739784,0.0462889,21.0002,490.615,0.0414016,0.0,0.0
738,184.25,24.618,25.2811,163.795,114.095,113.281,-0.007349,0.0466917,21.0006,490.645,0.0641233,0.0,0.0
820,204.75,24.1357,25.5027,167.906,114.194,113.243,-0.00725297,0.0456104,21.0031,490.645,0.0749146,0.0,0.0
902,225.25,23.9133,25.5691,162.737,114.302,113.418,-0.00735451,0.0462348,21,490.625,0.0695116,0.0,0.0
984,245.75,23.7397,25.4079,164.105,114.359,113.427,-0.00753991,0.0466208,20.9982,490.564,0.0733166,0.0,0.0
1066,266.25,24.2541,25.5833,162.849,114.466,112.809,-0.00728596,0.0476177,20.9993,490.544,0.130601,0.0,0.0
1148,286.75,24.877,25.5958,163.148,114.506,112.964,-0.00738312,0.0476108,20.9979,490.574,0.12144,0.0,0.0
1230,307.25,24.3513,25.9022,164.181,114.553,112.41,-0.00696378,0.0478995,20.997,490.504,0.16912,0.0,0.0
1312,327.75,25.0873,25.8633,162.86,114.538,111.967,-0.00721066,0.0479319,20.9996,490.434,0.203385,0.0,0.0
1394,348.25,24.8418,26.463,165.682,114.732,112.044,-0.00703615,0.0480186,20.9994,490.414,0.21236,0.0,0.0
1476,368.75,25.1853,25.7605,161.742,114.957,113.146,-0.00679427,0.0482367,20.9995,490.424,0.142168,0.0,0.0
1558,389.25,25.261,26.0882,162.812,115.23,112.859,-0.00731936,0.0483779,20.9996,490.364,0.186248,0.0,0.0
1640,409.75,25.1809,25.9942,162.232,115.426,112.688,-0.00657101,0.0486791,21.0009,490.244,0.215044,0.0,0.0
1722,430.25,25.1519,26.2688,165.349,115.566,112.031,-0.00660649,0.0484286,20.9985,490.124,0.278268,0.0,0.0
1804,450.75,25.5163,26.5665,160.544,115.636,111.411,-0.00628311,0.0490606,20.9986,490.044,0.33342,0.0,0.0
1886,471.25,25.4568,26.4014,160.782,115.673,111.8,-0.00646276,0.0531627,20.9934,489.944,0.305014,0.0,0.0
1968,491.75,26.166,27.2728,162.002,115.699,110.788,-0.00595304,0.0532425,20.9952,489.734,0.388561,0.0,0.0
2050,512.25,25.6087,26.6134,162.125,115.72,111.338,-0.00634145,0.0527973,20.9955,489.604,0.34582,0.0,0.0
2132,532.75,25.3498,26.9022,161.175,115.757,111.795,-0.00559305,0.050058,20.9981,489.474,0.311943,0.0,0.0
2214,553.25,25.45,26.7276,162.261,115.816,111.859,-0.00571925,0.0503894,20.9963,489.263,0.311381,0.0,0.0
2296,573.75,25.7437,27.3559,160.634,115.81,112.069,-0.00564926,0.0523718,20.9946,489.063,0.294112,0.0,0.0
2378,594.25,25.9623,26.7949,164.162,115.761,111.545,-0.00575159,0.0520775,20.9949,488.853,0.3323,0.0,0.0
2460,614.75,26.143,27.1564,161.612,115.665,110.771,-0.0056237,0.0502675,20.9986,488.723,0.387284,0.0,0.0
2542,635.25,25.3567,27.293,160.939,115.55,111.362,-0.0055407,0.0502874,20.9974,488.573,0.330688,0.0,0.0
2624,655.75,26.1182,27.3818,164.852,115.46,110.837,-0.00559152,0.0506701,20.9986,488.332,0.366033,0.0,0.0
2706,676.25,25.9486,27.1657,162.022,115.78,111.421,-0.0053847,0.0500534,20.9978,488.172,0.343751,0.0,0.0
2788,696.75,26.313,27.4212,163.09,116.053,110.719,-0.0053495,0.0506251,20.9988,487.972,0.421418,0.0,0.0
2870,717.25,26.7435,27.5559,162.303,116.271,111.373,-0.00532631,0.050801,20.9989,487.722,0.38555,0.0,0.0
2952,737.75,26.1919,27.4735,164.035,116.328,112.12,-0.00504343,0.0509756,20.9967,487.572,0.329999,0.0,0.0
3034,758.25,26.432,27.5385,161.818,116.294,110.363,-0.00465484,0.050688,20.9978,487.332,0.468848,0.0,0.0
3116,778.75,26.4806,27.7091,162.001,116.167,110.551,-0.00517351,0.0511126,20.9966,487.121,0.443795,0.0,0.0
3198,799.25,26.7152,27.7657,161.862,115.938,110.638,-0.00502323,0.0594831,20.9885,486.881,0.4191,0.0,0.0
3280,819.75,26.5808,27.8649,161.632,115.718,110.892,-0.00522649,0.0509593,20.9974,486.671,0.381646,0.0,0.0
3362,840.25,26.9471,27.556,160.205,115.636,111.125,-0.00479063,0.0555908,20.9929,486.461,0.35639,0.0,0.0
3444,860.75,27.0176,28.11,164.001,115.799,110.549,-0.00519066,0.0526749,20.9946,486.181,0.415596,0.0,0.0
3526,881.25,26.869,27.7462,166.068,115.973,110.842,-0.0048229,0.0529073,20.9971,485.98,0.405294,0.0,0.0
3608,901.75,26.307,27.8532,164.443,116.127,110.812,-0.00483672,0.0534322,20.9983,485.68,0.419565,0.0,0.0
3690,922.25,27.1738,27.9602,160.535,116.255,110.792,-0.00443131,0.050827,20.9992,485.44,0.431116,0.0,0.0
3772,942.75,26.8092,28.4845,165.023,116.323,110.917,-0.00441985,0.0505055,20.9971,485.12,0.426284,0.0,0.0
3854,963.25,26.6161,28.2813,163.915,116.36,111.01,-0.00409008,0.0518182,20.9961,484.94,0.421569,0.0,0.0
3936,983.75,26.7573,28.1421,160.544,116.4,110.375,-0.00473322,0.0507612,21,484.669,0.476061,0.0,0.0
4018,1004.25,27.377,28.0218,161.412,116.418,111.25,-0.00482226,0.0502569,20.9968,484.459,0.40668,0.0,0.0
4100,1024.75,27.2756,28.0801,164.463,116.432,110.933,-0.00469982,0.053431,20.9941,484.149,0.433345,0.0,0.0
4182,1045.25,27.1822,28.7094,162.131,116.458,110.657,-0.00416859,0.050934,20.9964,483.879,0.457691,0.0,0.0
4264,1065.75,27.1629,28.499,158.723,116.418,110.322,-0.00396083,0.0511691,20.9962,483.648,0.481754,0.0,0.0
4346,1086.25,27.5187,28.4149,158.305,116.348,107.692,-0.00480093,0.0682966,20.9793,483.288,0.692503,0.0,0.0
4428,1106.75,27.7896,29.5927,158.745,116.244,107.02,-0.00401197,0.154233,20.8874,482.808,0.740515,0.0,1.0
4510,1127.25,45.393,50.4883,121.458,116.186,67.9653,0.0254872,1.16449,19.7039,479.084,4.80281,0.0,0.0
4592,1147.75,76.3652,88.9093,128.13,116.275,69.9866,0.0397481,1.62935,19.2214,471.818,4.54717,0.0,0.0
4674,1168.25,82.1027,95.2408,134.954,116.314,78.7316,0.0167263,0.988355,19.927,467.164,3.49558,0.0,0.0
4756,1188.75,78.5465,89.0808,138.207,116.353,81.8086,0.00905753,0.735064,20.2113,463.781,3.15519,0.0,0.0
4838,1209.25,76.1422,86.463,133.174,116.344,83.0261,0.00992115,0.752261,20.1917,460.598,3.02214,0.0,0.0
4920,1229.75,75.3798,85.0692,137.727,116.32,83.0502,0.00953808,0.752155,20.1881,457.245,3.01773,0.0,0.0
5002,1250.25,73.496,82.411,141.04,116.198,85.2069,0.00828359,0.631833,20.3349,454.222,2.77862,0.0,0.0
5084,1270.75,69.2748,76.5705,143.008,115.922,87.8909,0.00325525,0.489929,20.4997,451.9,2.47954,0.0,0.0
5166,1291.25,65.0973,71.5759,145.768,115.584,87.2051,0.00165941,0.472968,20.5172,449.788,2.52356,0.0,0.0
5248,1311.75,62.9779,68.3895,146.177,115.251,89.6388,0.00271087,0.500627,20.4836,447.536,2.25118,0.0,0.0
5330,1332.25,61.3802,66.1498,148.347,114.705,90.0402,0.000545289,0.419898,20.5834,445.455,2.16859,0.0,0.0
5412,1352.75,58.7294,62.8494,152.553,114.185,94.7884,-0.000726493,0.378024,20.6347,443.803,1.66757,0.0,0.0
5494,1373.25,55.3345,58.5452,148.619,113.974,96.4902,-0.00261748,0.280084,20.7416,442.532,1.49167,0.0,0.0
5576,1393.75,52.3588,55.3151,155.85,114.056,99.7535,-0.00283735,0.25745,20.7661,441.431,1.20017,0.0,0.0
5658,1414.25,49.5685,51.6952,155.685,114.355,101.811,-0.00301884,0.235482,20.7958,440.5,1.04075,0.0,0.0
5740,1434.75,47.868,49.5513,156.458,114.835,104.075,-0.00342794,0.211827,20.8201,439.669,0.881193,0.0,0.0
5822,1455.25,45.9852,47.8082,154.502,115.237,105.459,-0.00347963,0.196911,20.8365,438.879,0.794229,0.0,0.0
5904,1475.75,44.0918,45.5795,153.732,115.554,105.818,-0.00373518,0.178093,20.8551,438.208,0.788391,0.0,0.0
5986,1496.25,43.0487,44.1963,158.094,115.684,108.443,-0.00359624,0.163444,20.8706,437.598,0.578984,0.0,0.0
6068,1516.75,41.7184,42.6548,159.971,115.726,109.147,-0.00379748,0.142892,20.8952,437.097,0.524243,0.0,0.0
6150,1537.25,40.7781,41.4654,154.447,115.617,110.201,-0.00372522,0.14269,20.8925,436.637,0.429754,0.0,0.0
6232,1557.75,39.4784,40.1516,159.152,115.45,110.591,-0.00302463,0.125211,20.9134,436.186,0.385171,0.0,0.0
6314,1578.25,38.5238,39.0962,162.132,115.649,111.357,-0.00263077,0.116787,20.9213,435.826,0.338755,0.0,0.0
6396,1598.75,37.0912,37.685,156.23,116.207,111.28,-0.00329144,0.109034,20.9314,435.506,0.388061,0.0,0.0
6478,1619.25,36.5332,37.0946,157.401,116.252,112.353,-0.0027664,0.101694,20.939,435.185,0.305527,0.0,0.0
6560,1639.75,35.7942,36.38,157.857,115.763,112.233,-0.00284453,0.0971071,20.942,434.935,0.277435,0.0,0.0
6642,1660.25,34.9838,35.2216,157.773,115.725,111.614,-0.00307514,0.0947359,20.9439,434.675,0.323964,0.0,0.0
6724,1680.75,34.9423,35.4941,163.65,116.029,113.342,-0.00288979,0.0906026,20.9499,434.495,0.209882,0.0,0.0
6806,1701.25,34.624,35.0683,159.309,116.366,112.801,-0.00301019,0.0876223,20.9527,434.265,0.278682,0.0,0.0
6888,1721.75,33.3258,34.1644,159.713,116.472,113.91,-0.0029124,0.085443,20.9547,434.044,0.199242,0.0,0.0
6970,1742.25,33.7655,34.2835,161.504,116.399,113.792,-0.00288256,0.0867874,20.9522,433.854,0.202907,0.0,0.0
7052,1762.75,32.9993,33.465,159.149,116.075,113.393,-0.00270155,0.0801663,20.9603,433.674,0.209388,0.0,0.0
7134,1783.25,32.3087,33.0986,161.002,115.552,112.97,-0.00258743,0.0767823,20.962,433.524,0.202433,0.0,0.0
7216,1803.75,31.9426,32.466,159.865,115.041,112.825,-0.00271511,0.0768351,20.9621,433.354,0.174282,0.0,0.0
7298,1824.25,31.2625,32.2418,163.779,114.714,112.143,-0.00199827,0.0719906,20.9666,433.234,0.203019,0.0,0.0
7380,1844.75,31.5908,31.7843,163.607,114.456,111.67,-0.00188797,0.0707676,20.97,433.094,0.220686,0.0,0.0
7462,1865.25,31.0396,31.2632,162.087,114.218,111.189,-0.0016933,0.0685722,20.9699,432.993,0.240726,0.0,0.0
7544,1885.75,30.1831,31.6555,164.218,114.053,111.336,-0.00159874,0.0667583,20.9719,432.913,0.215923,0.0,0.0
7626,1906.25,30.119,31.0423,161.101,114.043,111.091,-0.00156629,0.0657667,20.9724,432.783,0.234887,0.0,0.0
7708,1926.75,30.1999,31.1247,163.546,114.079,111.394,-0.00175204,0.0650661,20.9761,432.713,0.213381,0.0,0.0
7766,1941.25,29.8741,30.7961,162.527,114.14,111.703,,,,432.613,0.193378,0.0,0.0