File: 01_Data/PET/Cone/PET_Cone_HF50Scan_220207_R3.csv
Names,Time,Stack TC,Smoke TC,Exh Press,Smoke Comp,Smoke Meas,CO Meter,CO2 Meter,O2 Meter,Sample Mass,Ext Coeff,Start Test,Flame Verif
Chan Gain,,500,500,1,1,1,1,1,1,1,1,1.0,1.0
Offset,,0,0,0.134889,0,0,0,0,0,0,0,0.0,0.0
Gain,,1,1,25.011,12.9892,12.3331,1,1,1,1.00088,1.02973,1.0,1.0
Units,sec,C,C,Pa,%,%,%,%,%,g,/m,,
Baseline,,28.8517,30.4125,155.51,98.0464,98.4532,-0.00153283,0.0556303,21.0123,-0.529799,-0.0373917,,
21,5,24.8179,25.7161,153.914,97.4344,97.9868,-0.00157101,0.0552439,21.0147,960.984,-0.0510658,0.0,0.0
42,10.25,25.4521,26.0044,153.914,97.3995,97.8596,-0.00159719,0.0536008,21.0168,961.054,-0.0425659,0.0,0.0
63,15.5,25.7807,27.0128,153.264,97.3337,97.6417,-0.00169734,0.0521985,21.0179,961.034,-0.0285335,0.0,0.0
84,20.75,26.053,26.7525,157.113,97.2037,97.7975,-0.00150801,0.0526248,21.0199,960.984,-0.0550095,0.0,0.0
105,26,25.9279,27.0152,156.723,96.9972,97.5811,-0.00150722,0.052494,21.0221,961.054,-0.0542111,0.0,0.0
126,31.25,26.7113,27.8837,157.422,96.755,97.3203,-0.00157495,0.0512322,21.0231,961.024,-0.0526183,0.0,0.0
147,36.5,26.3954,27.8452,152.845,96.5053,97.1859,-0.00172361,0.0499226,21.0249,960.984,-0.0634821,0.0,0.0
168,41.75,27.0106,27.8287,155.643,96.2567,96.7437,-0.00158529,0.0494496,21.0235,961.004,-0.0455783,0.0,0.0
189,47,26.9927,28.4432,151.915,96.0954,96.2762,-0.00154951,0.0502436,21.0221,961.024,-0.0169796,0.0,0.0
210,52.25,26.0982,27.7361,149.754,96.0336,96.1204,-0.00135233,0.0507406,21.0226,960.964,-0.00816249,0.0,0.0
231,57.5,27.1087,29.2452,153.448,96.0486,95.5265,-0.000871487,0.0507618,21.0228,960.954,0.0492394,0.0,0.0
252,62.75,26.8941,28.7812,155.417,96.1485,95.4745,-0.000813766,0.050876,21.0248,960.924,0.0635421,0.0,0.0
273,68,27.1694,29.3268,155.045,96.3756,95.0778,-0.000766745,0.0512485,21.0257,960.944,0.122464,0.0,0.0
294,73.25,27.172,28.3619,159.331,96.6698,94.8569,-0.000552012,0.0522148,21.0242,960.974,0.171003,0.0,0.0
315,78.5,27.529,29.0837,157.338,97.0428,94.3307,-0.000238233,0.0545911,21.0199,960.934,0.256034,0.0,0.0
336,83.75,28.179,29.6941,147.853,97.4289,80.5463,0.00195866,0.128557,20.8912,960.603,1.71884,0.0,1.0
357,89,31.2738,33.8638,142.21,97.7408,66.2568,0.00850088,0.3425,20.626,959.743,3.51175,0.0,0.0
378,94.25,36.466,40.4763,123.626,97.941,57.2874,0.0173464,0.601227,20.2808,958.902,4.84411,0.0,0.0
399,99.5,42.535,48.8356,132.333,98.0631,48.7697,0.0302591,0.867307,19.9721,957.611,6.30939,0.0,0.0
420,104.75,49.6428,58.1927,117.524,98.1079,50.4795,0.0390587,1.12195,19.69,955.919,6.00225,0.0,0.0
441,110,56.4502,67.3866,126.869,98.0492,55.9475,0.039127,1.22399,19.6227,954.428,5.06786,0.0,0.0
462,115.25,60.7089,72.3755,129.201,97.9402,48.2341,0.0385445,1.18302,19.7036,952.937,6.39781,0.0,0.0
483,120.5,63.6856,77.1368,125.67,97.8177,48.5145,0.038376,1.14656,19.7439,951.495,6.33415,0.0,0.0
504,125.75,66.671,80.2551,127.212,97.6521,51.1864,0.0354104,1.10576,19.7935,950.094,5.83458,0.0,0.0
525,131,68.236,83.0194,125.676,97.5335,52.1092,0.0368691,1.12558,19.751,948.673,5.6622,0.0,0.0
546,136.25,71.1972,87.1078,118.347,97.4317,51.8853,0.0406271,1.21945,19.6354,947.041,5.69167,0.0,0.0
567,141.5,74.8711,91.1504,124.75,97.3706,48.6172,0.0437713,1.29323,19.557,945.48,6.27365,0.0,0.0
588,146.75,77.9761,94.8392,120.285,97.6362,50.5104,0.0444025,1.34936,19.489,943.839,5.95319,0.0,0.0
609,152,81.2671,99.185,120.74,97.8308,49.9492,0.0461407,1.45767,19.3423,942.127,6.0721,0.0,0.0
630,157.25,85.0492,104.355,117.551,97.9149,53.2079,0.0466019,1.56401,19.2509,940.336,5.50899,0.0,0.0
651,162.5,88.0793,109,125.982,97.9644,52.9241,0.0431881,1.51376,19.3274,938.604,5.56186,0.0,0.0
672,167.75,90.9423,112.305,111.671,97.9743,52.9674,0.0421503,1.50661,19.333,936.933,5.55539,0.0,0.0
693,173,93.5894,114.428,120.246,97.9537,55.4131,0.0410511,1.47483,19.371,935.331,5.14576,0.0,0.0
714,178.25,95.0422,116.819,118.661,97.9161,56.9641,0.0383762,1.42195,19.4364,933.79,4.89293,0.0,0.0
735,183.5,96.0513,116.721,115.777,97.828,53.5308,0.038173,1.38023,19.4798,932.268,5.44632,0.0,0.0
756,188.75,96.6986,118.738,119.498,97.7095,54.8135,0.0392134,1.38219,19.4735,930.697,5.22148,0.0,0.0
777,194,97.5862,119.102,115.487,97.5914,52.1266,0.0391402,1.3752,19.4825,929.216,5.66456,0.0,0.0
798,199.25,98.825,119.809,119.386,97.484,55.8576,0.0379629,1.35322,19.5159,927.634,5.03017,0.0,0.0
819,204.5,98.6952,119.663,124.021,97.327,55.8835,0.0348581,1.29472,19.5826,926.203,5.01142,0.0,0.0
840,209.75,98.902,119.044,115.591,97.1974,53.8545,0.032815,1.24407,19.6376,924.812,5.33345,0.0,0.0
861,215,98.4533,118.91,125.824,97.2061,55.736,0.0314066,1.22997,19.6549,923.441,5.02407,0.0,0.0
882,220.25,99.035,118.926,117.36,97.2101,55.0514,0.0308586,1.21465,19.665,922.08,5.13608,0.0,0.0
903,225.5,99.4485,118.909,124.183,97.22,56.8674,0.0321768,1.22468,19.6492,920.698,4.84384,0.0,0.0
924,230.75,99.5899,119.366,120.763,97.2235,55.9885,0.0326456,1.24588,19.6265,919.297,4.98485,0.0,0.0
945,236,100.283,119.433,124.731,97.2303,56.4605,0.0321487,1.23356,19.6469,917.916,4.90966,0.0,0.0
966,241.25,100.445,119.678,117.183,97.2335,57.3172,0.0334276,1.24614,19.6202,916.485,4.77393,0.0,0.0
987,246.5,101.406,120.406,121.275,97.2418,57.7383,0.0338978,1.28495,19.5754,914.943,4.70858,0.0,0.0
1008,251.75,102.171,121.623,109.932,97.2525,55.3434,0.0367015,1.35179,19.5067,913.412,5.09222,0.0,0.0
1029,257,103.196,123.057,129.118,97.2473,56.8233,0.035288,1.34823,19.5139,911.891,4.85338,0.0,0.0
1050,262.25,103.912,123.108,119.596,97.2592,57.3446,0.0346926,1.35457,19.4936,910.359,4.772,0.0,0.0
1071,267.5,105.268,124.748,112.966,97.258,51.8529,0.0411934,1.43734,19.3821,908.718,5.68119,0.0,0.0
1092,272.75,107.7,127.349,117.674,97.2549,48.5201,0.0534269,1.63877,19.1502,906.726,6.28097,0.0,0.0
1113,278,110.667,131.794,107.782,97.2604,46.1241,0.0648482,1.90374,18.8432,904.604,6.73892,0.0,0.0
1134,283.25,114.357,136.555,113.483,97.2529,47.0417,0.0722508,2.09194,18.6597,902.152,6.56029,0.0,0.0
1155,288.5,117.778,140.993,107.573,97.2497,48.5845,0.0705128,2.12282,18.6527,899.98,6.26851,0.0,0.0
1176,293.75,119.771,143.489,109.285,97.2533,51.1325,0.061921,2.04396,18.7553,897.768,5.80712,0.0,0.0
1197,299,120.59,144.942,117.689,97.2426,57.9024,0.0489466,1.86364,19.0046,895.977,4.68301,0.0,0.0
1218,304.25,120.058,142.612,120.458,97.2307,60.0022,0.0393822,1.61186,19.2806,894.335,4.36014,0.0,0.0
1239,309.5,117.504,140.241,119.458,97.2208,60.9831,0.0333047,1.38861,19.5273,892.954,4.21276,0.0,0.0
1260,314.75,114.224,135.866,120.243,97.2204,63.201,0.0282782,1.19545,19.7464,891.683,3.89003,0.0,0.0
1281,320,111.388,130.519,126.018,97.2081,62.2274,0.0255035,1.069,19.8681,890.532,4.02913,0.0,0.0
1302,325.25,107.909,126.45,128.351,97.1902,64.8469,0.0227366,0.993942,19.9575,889.391,3.65501,0.0,0.0
1323,330.5,104.735,122.038,130.28,97.4352,64.2142,0.0208254,0.918967,20.0467,888.3,3.76631,0.0,0.0
1344,335.75,101.896,117.533,128.315,97.6088,69.4873,0.0183803,0.837256,20.1403,887.399,3.06954,0.0,0.0
1365,341,98.6902,112.884,129.997,97.7408,72.0564,0.0149214,0.736393,20.2548,886.608,2.75381,0.0,0.0
1386,346.25,95.5665,108.489,130.976,97.8459,75.3237,0.0118646,0.643107,20.3588,885.918,2.36295,0.0,0.0
1407,351.5,92.4474,103.784,129.773,97.9157,78.0016,0.00975137,0.563276,20.4488,885.327,2.05383,0.0,0.0
1428,356.75,88.8511,99.0145,136.844,97.9549,81.6246,0.00781372,0.498576,20.5191,884.797,1.64735,0.0,0.0
1449,362,86.095,95.6529,138.386,97.9727,86.0877,0.00665019,0.436344,20.5882,884.426,1.16814,0.0,0.0
1470,367.25,83.3471,91.3534,140.099,97.9676,91.1756,0.00604265,0.374064,20.6668,884.116,0.649,0.0,0.0
1491,372.5,80.4639,87.1618,143.833,97.9505,94.409,0.00627353,0.29049,20.7646,883.896,0.332642,0.0,0.0
1512,377.75,77.2846,82.2476,142.395,97.9093,95.5822,0.00850732,0.208844,20.8499,883.806,0.217287,0.0,0.0
1533,383,74.0404,78.4809,144.725,97.8828,94.3093,0.0108138,0.162191,20.888,883.756,0.335937,0.0,0.0
1554,388.25,71.335,74.5655,143.842,97.8015,95.715,0.0113609,0.142245,20.9029,883.686,0.194788,0.0,0.0
1575,393.5,68.2903,71.1399,144.676,97.7416,94.9619,0.0117923,0.133044,20.9093,883.656,0.260612,0.0,0.0
1596,398.75,66.6275,68.4173,147.375,97.6667,95.7376,0.0120644,0.12892,20.9109,883.616,0.180201,0.0,0.0
1617,404,64.8076,65.9201,145.347,97.5601,94.6073,0.0120638,0.124144,20.918,883.536,0.277606,0.0,0.0
1638,409.25,63.1147,63.9824,148.402,97.4598,95.9661,0.0119754,0.11993,20.9244,883.456,0.139514,0.0,0.0
1659,414.5,61.723,62.2415,146.459,97.3516,94.846,0.0119975,0.116741,20.9267,883.426,0.235526,0.0,0.0
1680,419.75,60.6348,61.0316,145.056,97.3758,94.4131,0.0118589,0.114942,20.9293,883.346,0.279085,0.0,0.0
1701,425,59.5786,59.1758,147.311,97.4051,94.1049,0.0117462,0.114177,20.931,883.265,0.311345,0.0,0.0
1722,430.25,58.7053,58.089,144.385,97.4344,96.0018,0.0113049,0.113682,20.9331,883.245,0.133796,0.0,0.0
1743,435.5,56.4291,56.1274,149.885,97.4602,95.9096,0.0114274,0.113143,20.9318,883.165,0.144866,0.0,0.0
1764,440.75,56.0961,56.0887,146.782,97.501,95.4975,0.0112748,0.113172,20.9317,883.135,0.187547,0.0,0.0
1785,446,56.05,54.9337,146.588,97.5767,95.8072,0.0114003,0.114197,20.931,883.085,0.165307,0.0,0.0
1806,451.25,54.8177,54.3639,146.393,97.6092,95.1234,0.0110963,0.114123,20.9303,883.045,0.233022,0.0,0.0
1827,456.5,54.4314,53.3481,147.766,97.6794,96.1919,0.0104913,0.1137,20.9318,882.975,0.138613,0.0,0.0
1848,461.75,53.6263,52.2077,146.158,97.7476,96.5897,0.0104196,0.112448,20.9351,882.925,0.107636,0.0,0.0
1869,467,52.7484,52.1127,148.447,97.7979,95.6149,0.0102663,0.110632,20.9403,882.875,0.203911,0.0,0.0
1890,472.25,51.9938,51.6219,148.327,97.8808,96.9138,0.0101678,0.109937,20.9406,882.795,0.0896813,0.0,0.0
1911,477.5,51.7282,51.0935,151.179,97.9422,96.6552,0.0105824,0.108826,20.9403,882.765,0.119481,0.0,0.0
1932,482.75,51.6153,50.164,148.868,97.9858,96.461,0.0104732,0.108097,20.9396,882.715,0.141669,0.0,0.0
1953,488,51.1259,49.6387,145.828,98.0203,96.5295,0.0104419,0.10776,20.9397,882.645,0.138436,0.0,0.0
1974,493.25,49.7084,48.8989,151.093,98.0552,96.732,0.010371,0.106489,20.9443,882.625,0.122722,0.0,0.0
1995,498.5,50.3411,48.7837,142.938,98.0786,96.6737,0.0102509,0.104718,20.9462,882.545,0.130325,0.0,0.0
2016,503.75,49.1933,48.0923,147.069,98.0722,96.3963,,,,882.505,0.155696,0.0,0.0
2037,509,49.0338,48.1408,146.228,98.0932,96.741,,,,882.545,0.125383,0.0,0.0
2041,510,49.416,47.8237,149.099,98.0889,96.5837,,,,882.525,0.139683,0.0,0.0