File: 01_Data/PET/Cone/PET_Cone_HF25Scan_220218_R4.csv
Names,Time,Stack TC,Smoke TC,Exh Press,Smoke Comp,Smoke Meas,CO Meter,CO2 Meter,O2 Meter,Sample Mass,Ext Coeff,Start Test,Flame Verif
Chan Gain,,500,500,1,1,1,1,1,1,1,1,1.0,1.0
Offset,,0,0,0.132436,0,0,0,0,0,0,0,0.0,0.0
Gain,,1,1,25.011,15.4219,15.1528,1,1,1,1.00089,1.02113,1.0,1.0
Units,sec,C,C,Pa,%,%,%,%,%,g,/m,,
Baseline,,19.4656,20.4973,166.263,116.529,116.12,-0.00693615,0.0511742,20.9888,-478.8,0.0314864,,
64,15.75,18.3936,19.6536,165.948,115.809,115.64,-0.00707644,0.0516239,20.9958,492.636,0.0130879,0.0,0.0
128,31.75,18.9624,19.8426,164.453,115.746,115.435,-0.00742871,0.049656,20.9944,492.616,0.0241261,0.0,0.0
192,47.75,19.3416,19.9909,162.717,115.719,115.039,-0.0071664,0.049467,20.9923,492.616,0.052854,0.0,0.0
256,63.75,19.544,20.7799,164.783,115.724,115.41,-0.0074242,0.0497089,20.9926,492.606,0.0243157,0.0,0.0
320,79.75,19.8329,20.6244,163.604,115.706,114.599,-0.00762684,0.0498906,20.9939,492.596,0.0861414,0.0,0.0
384,95.75,20.1074,21.5457,167.434,115.82,115.196,-0.00743787,0.049755,20.9948,492.576,0.0483765,0.0,0.0
448,111.75,20.1157,20.8115,164.575,115.96,114.888,-0.00725894,0.0495192,20.9968,492.576,0.0831966,0.0,0.0
512,127.75,20.7259,21.3184,164.201,116.082,114.57,-0.00752648,0.0496408,20.9955,492.556,0.117446,0.0,0.0
576,143.75,20.6622,21.1077,165.764,116.191,115.634,-0.00726692,0.0509914,20.993,492.536,0.0430265,0.0,0.0
640,159.75,20.6071,21.5176,164.735,116.289,115.572,-0.00714318,0.0511859,20.9938,492.526,0.0553705,0.0,0.0
704,175.75,20.7591,21.8513,168.235,116.359,115.407,-0.00722444,0.0501306,20.9942,492.536,0.073575,0.0,0.0
768,191.75,20.8369,22.0866,167.218,116.403,115.274,-0.00761676,0.0515583,20.9917,492.506,0.0873585,0.0,0.0
832,207.75,21.1809,22.1334,164.881,116.427,115.483,-0.00749378,0.0499147,20.9924,492.486,0.0728707,0.0,0.0
896,223.75,20.5728,22.0416,164.505,116.457,115.641,-0.00730167,0.0501277,20.9956,492.486,0.0630005,0.0,0.0
960,239.75,21.067,22.6795,165.203,116.48,115.649,-0.00726879,0.0511716,20.9931,492.476,0.0641296,0.0,0.0
1024,255.75,21.5259,22.6553,167.092,116.498,115.312,-0.0074589,0.0507598,20.9939,492.446,0.0916528,0.0,0.0
1088,271.75,21.6473,22.8507,162.076,116.499,115.178,-0.00725865,0.0504026,20.9944,492.426,0.102148,0.0,0.0
1152,287.75,22.1078,22.5997,165.809,116.505,114.935,-0.00720516,0.051245,20.9951,492.396,0.121555,0.0,0.0
1216,303.75,21.7605,23.6352,167.38,116.501,114.628,-0.00711807,0.050542,20.9951,492.376,0.145191,0.0,0.0
1280,319.75,22.3879,23.3168,163.393,116.505,114.24,-0.00724277,0.0517287,20.9923,492.336,0.175922,0.0,0.0
1344,335.75,22.336,23.46,166.877,116.485,114.295,-0.00713619,0.0526022,20.9948,492.286,0.169943,0.0,0.0
1408,351.75,22.3063,23.4213,163.166,116.391,114.079,-0.00684937,0.0529152,20.9941,492.266,0.179714,0.0,0.0
1472,367.75,22.294,23.5436,162.073,116.13,113.873,-0.0067597,0.0555498,20.9875,492.256,0.175762,0.0,0.0
1536,383.75,22.6554,23.8712,160.635,115.767,112.669,-0.00673455,0.0574158,20.9879,492.186,0.243027,0.0,0.0
1600,399.75,22.6743,23.7567,165.033,115.766,113.783,-0.00680916,0.0554699,20.9914,492.136,0.154717,0.0,0.0
1664,415.75,23.0483,23.9509,165.961,115.862,112.912,-0.00677953,0.0512152,20.9951,492.066,0.230953,0.0,0.0
1728,431.75,22.6278,23.7284,166.322,116.058,113.431,-0.00664149,0.051215,20.9959,491.996,0.205121,0.0,0.0
1792,447.75,23.1841,24.1562,164.133,116.215,112.929,-0.00676582,0.0544951,20.9893,491.936,0.256881,0.0,0.0
1856,463.75,22.8448,23.6264,161.159,116.357,113.194,-0.00664064,0.0550453,20.988,491.876,0.246873,0.0,0.0
1920,479.75,23.457,24.2279,161.982,116.457,112.506,-0.00612997,0.0556399,20.9913,491.766,0.30913,0.0,0.0
1984,495.75,23.4731,24.262,167.141,116.511,113.218,-0.00627286,0.0513867,20.9957,491.655,0.25681,0.0,0.0
2048,511.75,23.7801,24.8498,160.993,116.524,112.952,-0.00611126,0.0553171,20.9904,491.525,0.27892,0.0,0.0
2112,527.75,23.3953,25.1751,165.036,116.431,112.761,-0.00595992,0.0529973,20.993,491.465,0.286875,0.0,0.0
2176,543.75,23.9853,24.9174,163.638,116.308,112.563,-0.00601263,0.053759,20.9934,491.335,0.293156,0.0,0.0
2240,559.75,23.5634,24.4973,161.505,116.164,111.058,-0.00570178,0.0538712,20.9913,491.215,0.402606,0.0,0.0
2304,575.75,23.4748,24.6944,164.562,116.004,111.638,-0.00558326,0.0602655,20.9831,491.065,0.343574,0.0,0.0
2368,591.75,23.8646,24.8829,166.275,115.941,112.017,-0.00556072,0.052805,20.9943,490.945,0.308441,0.0,0.0
2432,607.75,24.4992,24.688,164.685,116.008,111.181,-0.00546405,0.0519569,20.997,490.775,0.380708,0.0,0.0
2496,623.75,24.4164,25.1594,163.604,116.064,111.175,-0.0052049,0.0526129,20.9959,490.605,0.385441,0.0,0.0
2560,639.75,24.0695,25.5721,162.027,116.064,111.368,-0.0048455,0.0522673,20.9959,490.404,0.369955,0.0,0.0
2624,655.75,24.3906,25.9424,159.174,115.993,110.664,-0.00467322,0.0658488,20.9791,490.214,0.421294,0.0,0.0
2688,671.75,30.2012,31.9207,144.476,115.917,81.6499,0.00511082,0.547323,20.4032,488.783,3.13889,0.0,0.0
2752,687.75,47.3921,53.0545,119.438,115.797,61.495,0.0291194,1.24053,19.5937,485.3,5.66885,0.0,0.0
2816,703.75,70.0709,80.9546,121.553,115.601,68.2349,0.0402266,1.63289,19.2218,479.975,4.72218,0.0,0.0
2880,719.75,78.9037,91.5553,126.927,115.203,66.1438,0.033896,1.30854,19.5699,475.451,4.97007,0.0,0.0
2944,735.75,79.5005,92.7625,130.909,114.738,73.3891,0.0209365,1.03303,19.8841,471.728,4.00278,0.0,0.0
3008,751.75,78.5945,90.4727,136.364,114.321,72.9327,0.0147093,0.873676,20.0657,468.635,4.02601,0.0,0.0
3072,767.75,75.6328,86.4848,137.63,114.026,77.1158,0.0113887,0.781138,20.1597,465.893,3.50331,0.0,0.0
3136,783.75,74.9574,84.7906,136.697,113.925,78.8217,0.00946161,0.753434,20.1922,463.32,3.29941,0.0,0.0
3200,799.75,73.8941,83.7333,138.302,114.059,82.1165,0.00901593,0.741477,20.2054,460.808,2.94314,0.0,0.0
3264,815.75,72.9814,81.5631,143.345,114.413,85.7346,0.0064854,0.684407,20.2723,458.436,2.58468,0.0,0.0
3328,831.75,71.5407,79.0507,138.991,114.927,85.729,0.00542753,0.643019,20.3106,456.354,2.62545,0.0,0.0
3392,847.75,71.4582,78.3873,138.845,115.411,85.6088,0.00673226,0.689251,20.2573,454.052,2.67565,0.0,0.0
3456,863.75,72.0009,79.9409,138.905,115.843,81.9635,0.00865218,0.742193,20.1963,451.6,3.09888,0.0,0.0
3520,879.75,73.5043,81.6374,134.853,116.084,81.0039,0.00912184,0.781207,20.1551,448.948,3.22294,0.0,0.0
3584,895.75,73.9818,81.4183,135.922,115.956,82.0957,0.00745671,0.697224,20.2562,446.485,3.09314,0.0,0.0
3648,911.75,71.8783,79.2006,143.578,115.683,83.6449,0.00550451,0.578469,20.3984,444.384,2.90458,0.0,0.0
3712,927.75,69.0858,75.4326,148.645,116.366,86.7709,0.00375073,0.504262,20.4792,442.632,2.62865,0.0,0.0
3776,943.75,64.9658,70.5319,149.132,116.25,93.7387,0.00180369,0.425929,20.5724,441.091,1.92791,0.0,0.0
3840,959.75,62.1027,66.4189,146.55,115.799,93.5232,0.00169318,0.400229,20.599,439.78,1.91371,0.0,0.0
3904,975.75,59.8716,63.5899,149.727,116.275,95.1588,0.00146908,0.403191,20.598,438.408,1.79514,0.0,0.0
3968,991.75,58.1587,61.5267,146.212,116.504,94.4536,0.00187203,0.400437,20.6019,437.117,1.87934,0.0,0.0
4032,1007.75,58.1359,60.3444,151.511,116.12,95.5302,0.00181372,0.402126,20.601,435.746,1.74829,0.0,0.0
4096,1023.75,56.1829,59.3904,151.337,115.157,99.4183,0.000562882,0.350516,20.6599,434.575,1.3164,0.0,0.0
4160,1039.75,54.3129,57.1802,152.045,114.209,99.5635,5.11899e-05,0.306863,20.71,433.614,1.22922,0.0,0.0
4224,1055.75,52.3563,54.4765,152.541,113.951,100.656,-0.00016438,0.260232,20.7619,432.773,1.11124,0.0,0.0
4288,1071.75,50.051,52.3629,156.715,114.287,103.104,0.000140007,0.228269,20.7963,432.073,0.922367,0.0,0.0
4352,1087.75,48.4999,49.8466,155.84,114.906,104.764,-0.000229148,0.201743,20.8251,431.492,0.827629,0.0,0.0
4416,1103.75,45.8191,47.8712,153.55,115.51,107.406,-1.86473e-05,0.17933,20.8519,430.932,0.651613,0.0,0.0
4480,1119.75,44.1631,45.4704,152.985,115.865,108.827,-0.000103516,0.168182,20.8614,430.521,0.56132,0.0,0.0
4544,1135.75,43.3628,44.4223,158.968,115.992,110.854,-0.000186936,0.15944,20.8708,430.151,0.405887,0.0,0.0
4608,1151.75,41.4608,42.2659,159.112,115.849,110.492,-0.000225171,0.151975,20.8754,429.801,0.424099,0.0,0.0
4672,1167.75,41.2319,42.1565,157.922,115.637,110.949,-0.000207409,0.143143,20.8891,429.44,0.370676,0.0,0.0
4736,1183.75,40.5467,40.8279,158.217,116.052,112.044,-0.00055887,0.13843,20.8975,429.06,0.314837,0.0,0.0
4800,1199.75,39.534,40.2769,155.952,116.408,111.918,-0.00022474,0.128451,20.9064,428.78,0.352318,0.0,0.0
4864,1215.75,38.4999,39.2717,155.58,116.351,112.944,-0.000424243,0.12129,20.9141,428.55,0.266147,0.0,0.0
4928,1231.75,38.3277,38.3366,155.205,115.798,112.164,-0.000939686,0.121365,20.9143,428.259,0.285666,0.0,0.0
4992,1247.75,37.7046,38.0356,161.789,115.908,111.574,-0.000559612,0.117909,20.9171,427.969,0.34139,0.0,0.0
5056,1263.75,37.307,37.5815,159.435,116.306,112.901,-0.00107113,0.113324,20.9251,427.739,0.266116,0.0,0.0
5120,1279.75,36.6124,37.2855,162.231,116.502,113.161,-0.00142082,0.108981,20.9297,427.519,0.260586,0.0,0.0
5184,1295.75,36.5188,36.6293,159.535,116.326,112.678,-0.00135684,0.106074,20.9317,427.318,0.285339,0.0,0.0
5248,1311.75,35.7512,36.3143,160.309,115.895,112.944,-0.00131284,0.103858,20.9324,427.108,0.231079,0.0,0.0
5312,1327.75,34.9831,34.9218,160.414,115.294,112.981,-0.000537899,0.0968353,20.938,426.928,0.181501,0.0,0.0
5376,1343.75,34.4988,35.1762,157.886,114.713,111.686,-0.000140359,0.093572,20.9431,426.748,0.239587,0.0,0.0
5440,1359.75,34.3682,34.6599,157.415,114.207,111.106,-0.000376256,0.0926604,20.9433,426.578,0.246585,0.0,0.0
5504,1375.75,34.2122,34.1478,160.103,113.959,110.836,7.34424e-05,0.0937984,20.944,426.408,0.248947,0.0,0.0
5568,1391.75,33.7524,33.5488,156.997,114.045,110.98,0.000258268,0.0932581,20.9436,426.237,0.244061,0.0,0.0
5632,1407.75,32.8025,33.5272,160.381,114.411,111.288,0.000301962,0.0958985,20.9392,426.097,0.247915,0.0,0.0
5696,1423.75,33.0805,33.0685,162.206,114.85,112.626,-0.000197713,0.0985353,20.9386,425.907,0.175155,0.0,0.0
5760,1439.75,33.1618,33.1274,156.848,115.233,112.237,-0.000488186,0.0988797,20.938,425.707,0.236004,0.0,0.0
5824,1455.75,32.7599,33.2151,158.693,115.566,113.477,-0.000520435,0.097659,20.9381,425.597,0.163396,0.0,0.0
5888,1471.75,32.4032,33.3901,156.799,115.768,113.692,-0.000864956,0.0989938,20.936,425.367,0.162037,0.0,0.0
5952,1487.75,32.8503,32.732,154.832,115.92,113.328,-0.000950947,0.0957017,20.9409,425.207,0.202546,0.0,0.0
6016,1503.75,31.3939,32.5234,157.827,115.924,113.243,,0.093558,,425.036,0.209564,0.0,0.0
6050,1512.25,32.3877,32.8386,158.907,115.906,113.904,,,,424.966,0.156103,0.0,0.0