File: 01_Data/PET/Cone/PET_Cone_HF75Scalar_220207_R1.csv
LABORATORY,FSRI
TEST IDENT,PET_HF75_1
OPERATOR,Dow
MATERIAL,PET
ORIENTATION,Horizontal
HEAT FLUX,75
SURF AREA,0.01
C FACTOR,0.0390564
SPEC HOLDER DIFF,303.2
SPECIMEN MASS,90.3
SCAN TIME,0.25
O2 DELAY TIME,11
CO DELAY TIME,11
CO2 DELAY TIME,8
FLOW FACTOR,1
SCAN COUNT,2012
TIME TO IGN,42.25
END OF TEST SCAN,1532
END OF TEST TIME,383
TEST STATUS,1
PRE TEST CMT,Dimensions: 99.15 x 97.98 x 6.62 mm