File: 01_Data/Bravo_OSB/MCC/Bravo_OSB_MCC_30K_min_211207_R2.txt
Sample ID:	C:\MCC\MCC Cal\Test\Bravo_OSB_MCC_30K_min_211207_R2.txt
Sample Weight (mg):	4.82
Heating Rate (C/s):	0.5
Combustor Temp (C):	900
N2 Flow Rate (cc/min):	80
O2 Flow Rate (cc/min):	20
Calibration File:	C:\MCC\MCC Cal\Coeff1 JN10440_30_210304.txt.txt
T Correction Coefficients:	0	1.024463	0
Time Shift (s):	14
*
Time (s)	Temperature (C)	N2 flow rate (cc/min)	O2 flow rate (cc/min)	Flow Rate (cc/min)	Oxygen (%)	HRR (W/g)	Heating rate (C/s)
0.000	108.129	80.005	19.997	103.114	20.045	-0.205	0.038
7.500	108.171	80.006	19.995	103.139	20.046	-0.242	0.023
15.000	108.266	80.007	19.995	103.201	20.021	1.413	0.053
22.500	108.684	80.007	19.995	103.281	20.007	2.355	0.033
30.000	109.581	80.007	19.996	103.308	20.003	2.600	0.146
37.500	110.863	80.006	19.994	103.327	19.998	2.969	0.194
45.000	112.437	80.008	19.994	103.326	19.996	3.071	0.213
52.500	114.387	80.008	19.995	103.350	19.986	3.736	0.275
60.001	116.559	80.009	19.994	103.370	19.985	3.853	0.298
67.500	119.047	80.010	19.994	103.375	19.984	3.897	0.358
75.000	121.806	80.007	19.995	103.375	19.990	3.503	0.407
82.500	124.823	80.006	19.995	103.380	19.985	3.849	0.413
90.000	128.033	80.007	19.993	103.370	19.985	3.835	0.436
97.500	131.346	80.006	19.994	103.372	19.987	3.671	0.467
105.000	134.729	80.005	19.996	103.370	19.985	3.822	0.451
112.500	138.343	80.006	19.996	103.374	19.986	3.763	0.508
120.000	141.952	80.008	19.994	103.372	19.984	3.873	0.486
127.500	145.745	80.008	19.994	103.366	19.991	3.446	0.522
135.000	149.481	80.008	19.994	103.362	19.988	3.654	0.540
142.500	153.234	80.008	19.995	103.364	19.986	3.768	0.483
150.000	156.980	80.010	19.994	103.350	19.990	3.522	0.503
157.500	160.696	80.006	19.993	103.332	19.992	3.399	0.519
165.000	164.546	80.005	19.995	103.336	19.991	3.405	0.510
172.501	168.347	80.007	19.994	103.330	19.988	3.634	0.525
180.000	172.078	80.006	19.995	103.329	19.992	3.347	0.484
187.500	175.819	80.006	19.993	103.331	19.991	3.423	0.521
195.000	179.535	80.007	19.995	103.330	20.000	2.825	0.475
202.500	183.242	80.007	19.995	103.330	19.997	3.048	0.488
210.000	187.057	80.007	19.995	103.329	19.991	3.459	0.529
217.500	190.724	80.007	19.995	103.315	19.988	3.630	0.506
225.000	194.435	80.007	19.993	103.320	19.987	3.703	0.491
232.500	198.084	80.009	19.994	103.314	19.990	3.497	0.474
240.000	201.759	80.007	19.994	103.323	19.984	3.869	0.478
247.500	205.467	80.007	19.994	103.313	19.987	3.716	0.500
255.000	209.198	80.006	19.993	103.322	19.980	4.168	0.502
262.500	212.906	80.007	19.994	103.321	19.975	4.488	0.474
270.000	216.575	80.006	19.994	103.325	19.974	4.594	0.480
277.500	220.341	80.005	19.994	103.315	19.963	5.284	0.517
285.001	223.994	80.009	19.994	103.308	19.959	5.545	0.515
292.500	227.649	80.007	19.995	103.323	19.956	5.747	0.495
300.000	231.492	80.006	19.995	103.311	19.949	6.219	0.491
307.500	235.177	80.008	19.994	103.317	19.940	6.848	0.504
315.000	238.857	80.009	19.993	103.309	19.932	7.403	0.467
322.500	242.551	80.005	19.993	103.330	19.924	7.941	0.505
330.000	246.293	80.006	19.995	103.330	19.911	8.783	0.450
337.500	250.153	80.007	19.994	103.331	19.898	9.650	0.541
345.000	253.847	80.007	19.995	103.331	19.884	10.578	0.513
352.500	257.546	80.007	19.994	103.331	19.864	11.929	0.452
360.000	261.287	80.007	19.994	103.336	19.845	13.210	0.490
367.500	265.059	80.008	19.995	103.363	19.822	14.758	0.499
375.000	268.888	80.008	19.994	103.367	19.793	16.669	0.540
382.500	272.709	80.006	19.994	103.377	19.760	18.894	0.516
390.000	276.445	80.007	19.995	103.389	19.731	20.831	0.510
397.500	280.229	80.009	19.994	103.405	19.703	22.728	0.474
405.000	284.021	80.005	19.993	103.409	19.674	24.685	0.525
412.500	287.827	80.007	19.994	103.410	19.645	26.601	0.458
420.000	291.642	80.006	19.993	103.408	19.615	28.627	0.513
427.500	295.384	80.006	19.993	103.428	19.592	30.159	0.500
435.000	299.204	80.006	19.994	103.436	19.577	31.157	0.498
442.500	302.919	80.007	19.994	103.430	19.551	32.887	0.449
450.000	306.934	80.008	19.993	103.443	19.538	33.765	0.534
457.500	310.514	80.006	19.995	103.443	19.514	35.347	0.495
465.000	314.346	80.007	19.995	103.448	19.491	36.919	0.459
472.500	318.274	80.007	19.995	103.466	19.465	38.666	0.487
480.000	322.078	80.010	19.995	103.472	19.439	40.441	0.543
487.500	325.902	80.006	19.995	103.480	19.404	42.758	0.542
495.000	329.784	80.006	19.995	103.485	19.366	45.306	0.537
502.500	333.628	80.008	19.994	103.516	19.317	48.586	0.529
510.000	337.484	80.007	19.994	103.531	19.264	52.174	0.513
517.500	341.297	80.007	19.994	103.556	19.198	56.620	0.525
525.000	345.095	80.006	19.993	103.585	19.126	61.496	0.523
532.500	348.890	80.008	19.994	103.609	19.043	67.040	0.484
540.000	352.640	80.009	19.993	103.644	18.965	72.274	0.532
547.500	356.373	80.009	19.994	103.646	18.887	77.486	0.514
555.000	360.102	80.009	19.995	103.669	18.824	81.717	0.481
562.500	363.798	80.008	19.994	103.653	18.791	83.939	0.489
570.001	367.437	80.008	19.994	103.632	18.800	83.229	0.447
577.500	371.277	80.007	19.994	103.564	18.872	78.395	0.511
585.000	375.019	80.005	19.996	103.491	19.006	69.342	0.505
592.500	378.755	80.006	19.995	103.411	19.192	56.879	0.451
600.000	382.633	80.008	19.995	103.332	19.400	42.930	0.550
607.500	386.416	80.006	19.995	103.292	19.587	30.406	0.527
615.000	390.222	80.009	19.995	103.251	19.743	20.029	0.532
622.500	394.138	80.008	19.993	103.239	19.834	13.924	0.530
630.000	397.953	80.009	19.994	103.239	19.886	10.459	0.459
637.500	401.817	80.008	19.994	103.238	19.907	9.027	0.511
645.000	405.616	80.010	19.994	103.252	19.922	8.058	0.543
652.500	409.392	80.007	19.994	103.244	19.926	7.803	0.510
660.000	413.202	80.006	19.995	103.246	19.935	7.192	0.508
667.500	416.927	80.007	19.994	103.246	19.935	7.174	0.482
675.000	420.786	80.007	19.995	103.249	19.942	6.726	0.526
682.500	424.617	80.006	19.995	103.242	19.947	6.357	0.492
690.000	428.571	80.006	19.996	103.250	19.947	6.373	0.547
697.500	432.464	80.008	19.994	103.247	19.955	5.830	0.523
705.000	436.425	80.008	19.993	103.244	19.955	5.859	0.518
712.500	440.318	80.007	19.994	103.243	19.958	5.646	0.493
720.000	444.163	80.008	19.995	103.239	19.964	5.206	0.521
727.500	447.973	80.008	19.993	103.233	19.966	5.116	0.515
735.000	451.857	80.007	19.994	103.228	19.966	5.127	0.513
742.500	455.659	80.007	19.994	103.221	19.969	4.871	0.524
750.000	459.465	80.007	19.994	103.224	19.970	4.855	0.532
757.500	463.236	80.008	19.994	103.211	19.979	4.264	0.513
765.000	466.929	80.008	19.995	103.220	19.980	4.184	0.559
772.500	470.620	80.006	19.995	103.215	19.982	4.049	0.476
780.000	474.453	80.007	19.996	103.223	19.982	4.064	0.520
787.500	478.235	80.009	19.994	103.224	19.981	4.107	0.493
795.000	482.203	80.007	19.994	103.223	19.987	3.676	0.531
802.500	486.056	80.007	19.993	103.215	19.987	3.685	0.537
810.000	489.972	80.010	19.994	103.214	19.992	3.345	0.542
817.500	493.817	80.009	19.994	103.215	19.992	3.355	0.528
825.000	497.765	80.007	19.995	103.219	19.990	3.463	0.499
832.500	501.637	80.007	19.994	103.215	19.993	3.290	0.517
840.000	505.469	80.007	19.994	103.220	19.996	3.099	0.508
847.500	509.360	80.008	19.996	103.215	19.998	2.975	0.532
855.000	513.211	80.006	19.994	103.215	20.000	2.824	0.512
862.500	517.136	80.006	19.995	103.218	20.003	2.657	0.517
870.000	521.007	80.009	19.995	103.216	19.998	2.966	0.509
877.500	524.837	80.008	19.995	103.211	20.001	2.771	0.529
885.000	528.648	80.008	19.994	103.214	19.999	2.912	0.546
892.500	532.532	80.010	19.993	103.215	20.001	2.777	0.534
900.000	536.445	80.009	19.994	103.212	20.000	2.802	0.529
907.500	540.392	80.006	19.994	103.215	19.998	2.937	0.532
915.000	544.258	80.008	19.994	103.214	19.997	3.015	0.489
922.500	548.031	80.006	19.995	103.215	20.003	2.602	0.507
930.000	551.796	80.007	19.995	103.216	20.002	2.724	0.484
937.500	555.645	80.006	19.995	103.214	20.003	2.611	0.483
945.000	559.440	80.008	19.994	103.214	20.000	2.810	0.501
952.500	563.286	80.008	19.994	103.210	20.005	2.476	0.508
960.000	567.187	80.008	19.995	103.210	20.000	2.833	0.489
967.500	571.114	80.008	19.995	103.210	20.002	2.702	0.512
975.000	575.032	80.011	19.993	103.216	20.004	2.529	0.541
982.500	578.983	80.005	19.993	103.214	20.003	2.604	0.549
990.000	582.886	80.007	19.995	103.214	20.005	2.511	0.494
997.500	586.771	80.007	19.994	103.214	20.001	2.793	0.488
1005.000	590.576	80.008	19.994	103.205	20.005	2.497	0.528
1012.500	594.433	80.007	19.994	103.212	20.009	2.236	0.521
1020.000	598.185	80.007	19.995	103.213	20.006	2.416	0.504
1027.500	601.977	80.009	19.995	103.212	20.006	2.424	0.480
1035.000	605.741	80.008	19.994	103.209	20.013	1.942	0.503
1042.500	609.510	80.008	19.995	103.214	20.014	1.918	0.505
1050.000	613.377	80.008	19.996	103.213	20.014	1.896	0.533
1057.500	617.203	80.009	19.995	103.214	20.011	2.118	0.514
1065.000	621.016	80.008	19.995	103.212	20.010	2.138	0.523
1072.500	624.776	80.007	19.993	103.209	20.011	2.061	0.514
1080.000	628.587	80.008	19.995	103.206	20.008	2.309	0.527
1087.500	632.372	80.007	19.995	103.210	20.005	2.486	0.509
1095.000	636.234	80.007	19.993	103.209	20.007	2.340	0.536
1102.500	640.129	80.008	19.993	103.212	20.011	2.078	0.515
1110.000	644.022	80.010	19.994	103.215	20.012	2.022	0.506
1117.500	647.941	80.008	19.994	103.213	20.015	1.809	0.512
1125.000	651.850	80.008	19.994	103.214	20.014	1.860	0.529
1132.500	655.757	80.011	19.994	103.210	20.014	1.882	0.529
1140.000	659.610	80.011	19.994	103.201	20.011	2.065	0.542
1147.500	663.381	80.008	19.995	103.209	20.017	1.707	0.548
1155.000	667.137	80.007	19.996	103.195	20.014	1.883	0.498
1162.500	670.969	80.007	19.995	103.201	20.015	1.830	0.519
1170.000	674.831	80.007	19.994	103.195	20.017	1.694	0.536
1177.500	678.706	80.006	19.995	103.205	20.016	1.761	0.509
1185.000	682.530	80.007	19.995	103.205	20.014	1.925	0.528
1192.500	686.353	80.010	19.993	103.204	20.012	2.016	0.508
1200.000	690.132	80.008	19.993	103.197	20.014	1.916	0.524
1207.500	693.910	80.009	19.994	103.194	20.016	1.780	0.490
1215.000	697.794	80.009	19.995	103.181	20.019	1.559	0.516
1222.500	701.594	80.010	19.994	103.182	20.018	1.606	0.513
1230.000	705.419	80.007	19.994	103.185	20.015	1.835	0.512
1237.501	709.144	80.007	19.996	103.189	20.012	1.996	0.508
1245.000	712.867	80.007	19.994	103.184	20.015	1.832	0.508
1252.501	716.644	80.007	19.995	103.186	20.012	2.014	0.499
1260.001	720.399	80.005	19.994	103.179	20.017	1.672	0.519
1267.500	724.220	80.008	19.993	103.192	20.016	1.787	0.521
1275.001	728.028	80.008	19.994	103.193	20.017	1.705	0.493
1282.500	731.891	80.008	19.995	103.186	20.017	1.697	0.521
1290.000	735.718	80.008	19.994	103.201	20.016	1.752	0.517
1297.500	739.629	80.009	19.993	103.180	20.015	1.796	0.513
1305.000	743.418	80.010	19.993	103.188	20.013	1.943	0.490