File: 01_Data/Bravo_OSB/MCC/Bravo_OSB_MCC_30K_min_211207_R1.txt
Sample ID:	C:\MCC\MCC Cal\Test\Bravo_OSB_MCC_30K_min_211207_R1.txt
Sample Weight (mg):	4.53
Heating Rate (C/s):	0.5
Combustor Temp (C):	900
N2 Flow Rate (cc/min):	80
O2 Flow Rate (cc/min):	20
Calibration File:	C:\MCC\MCC Cal\Coeff1 JN10440_30_210304.txt.txt
T Correction Coefficients:	0	1.024463	0
Time Shift (s):	14
*
Time (s)	Temperature (C)	N2 flow rate (cc/min)	O2 flow rate (cc/min)	Flow Rate (cc/min)	Oxygen (%)	HRR (W/g)	Heating rate (C/s)
-0.001	108.517	80.015	19.997	103.072	19.951	0.122	0.049
7.999	108.519	80.009	19.995	103.086	19.951	0.089	0.018
15.999	108.561	80.016	19.993	103.140	19.944	0.620	0.024
23.999	108.934	80.005	19.994	103.240	19.924	2.014	0.066
31.999	109.709	80.006	19.994	103.227	19.931	1.568	0.153
39.999	110.809	80.007	19.995	103.286	19.917	2.568	0.162
47.999	112.380	80.009	19.996	103.301	19.911	2.951	0.222
55.999	114.303	80.007	19.994	103.335	19.905	3.377	0.244
64.000	116.708	80.007	19.995	103.331	19.903	3.556	0.357
72.000	119.379	80.008	19.996	103.335	19.901	3.699	0.337
79.999	122.395	80.010	19.994	103.336	19.902	3.612	0.403
88.000	125.536	80.008	19.994	103.342	19.907	3.218	0.413
95.999	128.863	80.008	19.995	103.334	19.906	3.344	0.430
103.999	132.327	80.009	19.994	103.336	19.904	3.482	0.410
111.999	135.892	80.009	19.994	103.332	19.904	3.452	0.443
119.999	139.561	80.008	19.996	103.339	19.903	3.555	0.479
127.999	143.337	80.006	19.996	103.328	19.905	3.353	0.519
135.999	147.159	80.001	19.997	103.339	19.904	3.482	0.448
143.999	151.107	80.006	19.995	103.333	19.909	3.115	0.515
151.999	154.951	80.007	19.996	103.330	19.912	2.888	0.496
160.000	158.887	80.004	19.996	103.333	19.905	3.357	0.501
167.999	162.840	80.007	19.994	103.327	19.907	3.233	0.492
175.999	166.866	80.007	19.995	103.329	19.908	3.177	0.500
183.999	170.903	80.007	19.995	103.322	19.911	2.995	0.496
191.999	174.916	80.008	19.995	103.315	19.915	2.669	0.497
199.999	178.938	80.008	19.994	103.326	19.914	2.723	0.485
207.999	182.932	80.005	19.995	103.317	19.912	2.890	0.456
216.000	186.961	80.009	19.993	103.351	19.909	3.112	0.540
223.999	190.869	80.006	19.995	103.318	19.908	3.153	0.445
231.999	194.840	80.010	19.994	103.303	19.918	2.436	0.493
239.999	198.798	80.015	19.994	103.294	19.911	2.969	0.466
248.000	202.798	80.008	19.994	103.294	19.908	3.176	0.462
255.999	206.685	80.005	19.995	103.301	19.906	3.327	0.437
264.000	210.858	80.010	19.995	103.291	19.900	3.711	0.566
272.000	214.601	80.008	19.994	103.302	19.901	3.692	0.496
279.999	218.578	80.009	19.989	103.296	19.894	4.147	0.489
287.999	222.532	80.006	19.995	103.299	19.888	4.622	0.498
295.999	226.524	80.006	19.995	103.305	19.883	4.970	0.478
303.999	230.600	80.007	19.992	103.303	19.879	5.265	0.536
312.000	234.556	80.005	19.996	103.307	19.875	5.504	0.483
319.999	238.527	80.006	19.995	103.305	19.859	6.638	0.510
328.000	242.524	80.006	19.995	103.308	19.857	6.783	0.514
336.000	246.510	80.009	19.995	103.312	19.840	7.987	0.501
344.000	250.514	80.007	19.994	103.306	19.831	8.686	0.537
351.999	254.477	80.008	19.996	103.324	19.809	10.208	0.489
360.000	258.501	80.006	19.997	103.329	19.790	11.559	0.464
367.999	262.546	80.007	19.995	103.333	19.769	13.083	0.530
375.999	266.483	80.008	19.993	103.332	19.743	14.904	0.481
384.000	270.580	80.009	19.993	103.344	19.715	16.919	0.512
392.000	274.565	80.005	19.995	103.358	19.687	18.908	0.494
399.999	278.590	80.006	19.993	103.364	19.660	20.838	0.471
408.000	282.574	80.008	19.995	103.371	19.635	22.642	0.510
415.999	286.574	80.005	19.994	103.370	19.606	24.663	0.539
423.999	290.581	80.007	19.995	103.377	19.584	26.262	0.520
431.999	294.622	80.008	19.995	103.373	19.565	27.628	0.492
439.999	298.637	80.006	19.995	103.371	19.542	29.214	0.504
448.000	302.614	80.007	19.993	103.377	19.526	30.404	0.478
456.000	306.658	80.008	19.994	103.374	19.504	31.982	0.560
463.999	310.594	80.007	19.994	103.399	19.480	33.649	0.513
471.999	314.606	80.007	19.994	103.411	19.465	34.721	0.515
479.999	318.629	80.005	19.995	103.414	19.434	36.944	0.488
487.999	322.679	80.008	19.992	103.421	19.402	39.217	0.516
496.000	326.663	80.007	19.993	103.436	19.368	41.666	0.519
503.999	330.665	80.010	19.994	103.443	19.325	44.693	0.516
511.999	334.677	80.009	19.995	103.456	19.282	47.787	0.504
520.000	338.706	80.008	19.994	103.485	19.218	52.360	0.525
527.999	342.664	80.006	19.995	103.517	19.158	56.698	0.486
535.999	346.722	80.004	19.995	103.540	19.085	61.897	0.547
543.999	350.727	80.007	19.996	103.560	19.012	67.086	0.492
551.999	354.756	80.008	19.994	103.577	18.945	71.902	0.474
559.999	358.706	80.005	19.995	103.604	18.895	75.433	0.475
567.999	362.860	80.007	19.994	103.581	18.874	76.941	0.547
576.000	366.977	80.009	19.995	103.537	18.894	75.418	0.528
583.999	371.187	80.007	19.994	103.502	18.970	69.991	0.541
592.000	375.392	80.010	19.993	103.416	19.107	60.165	0.516
600.000	379.578	80.009	19.993	103.341	19.291	47.030	0.534
608.000	383.703	80.008	19.995	103.281	19.489	32.974	0.547
615.999	387.803	80.006	19.995	103.198	19.664	20.535	0.495
623.999	391.905	80.010	19.993	103.201	19.785	11.877	0.504
631.999	396.075	80.008	19.995	103.183	19.852	7.184	0.542
639.999	400.180	80.006	19.996	103.211	19.880	5.161	0.549
647.999	404.207	80.028	19.995	103.218	19.897	3.950	0.516
655.999	408.226	80.009	19.994	103.205	19.912	2.863	0.506
663.999	412.331	80.010	19.994	103.174	19.917	2.548	0.498
671.999	416.330	80.005	19.994	103.171	19.924	2.017	0.475
680.000	420.397	80.005	19.994	103.210	19.925	1.938	0.492
687.999	424.506	80.007	19.994	103.171	19.933	1.407	0.535
695.999	428.600	80.009	19.989	103.185	19.937	1.086	0.514
704.000	432.692	80.007	19.994	103.147	19.940	0.863	0.514
711.999	436.801	80.007	19.995	103.182	19.937	1.126	0.529
720.000	440.840	80.011	19.993	103.203	19.941	0.794	0.493
727.999	444.893	80.006	19.995	103.181	19.947	0.395	0.519
735.999	449.002	80.011	19.995	103.177	19.953	-0.029	0.509
743.999	453.055	80.006	19.995	103.202	19.957	-0.290	0.476
751.999	457.222	80.007	19.994	103.188	19.961	-0.598	0.495
760.000	461.343	80.011	19.994	103.176	19.966	-0.985	0.531
767.999	465.393	80.007	19.993	103.177	19.970	-1.254	0.507
775.999	469.509	80.005	19.997	103.175	19.976	-1.635	0.554
783.999	473.585	80.008	19.994	103.191	19.978	-1.806	0.525
791.999	477.749	80.007	19.995	103.180	19.981	-2.044	0.534
800.000	481.785	80.003	19.996	103.178	19.982	-2.098	0.527
807.999	485.775	80.006	19.994	103.176	19.986	-2.394	0.525
815.999	489.903	80.008	19.995	103.177	19.985	-2.317	0.516
824.000	493.959	80.006	19.996	103.189	19.988	-2.508	0.532
832.000	498.064	80.007	19.994	103.175	19.989	-2.590	0.507
839.999	502.219	80.008	19.993	103.172	19.994	-2.967	0.517
847.999	506.357	80.008	19.994	103.180	19.993	-2.849	0.528
855.999	510.611	80.006	19.998	103.171	19.997	-3.155	0.558
863.999	514.712	80.007	19.994	103.176	19.991	-2.745	0.562
872.000	518.851	80.006	19.994	103.178	19.999	-3.263	0.498
880.000	522.942	80.006	19.994	103.179	20.002	-3.538	0.515
887.999	527.113	80.007	19.995	103.175	20.005	-3.706	0.545
896.000	531.229	80.009	19.994	103.172	20.005	-3.728	0.536
903.999	535.371	80.009	19.994	103.172	20.004	-3.646	0.483
911.999	539.482	80.008	19.995	103.168	20.004	-3.631	0.538
919.999	543.557	80.009	19.995	103.168	20.004	-3.650	0.523
928.000	547.670	80.007	19.995	103.169	20.009	-4.012	0.516
935.999	551.776	80.004	19.992	103.166	20.005	-3.729	0.520
943.999	555.904	80.007	19.994	103.177	20.015	-4.416	0.487
951.999	560.064	80.005	19.993	103.176	20.013	-4.316	0.531
959.999	564.182	80.008	19.995	103.169	20.014	-4.393	0.536
967.999	568.251	80.008	19.994	103.173	20.017	-4.589	0.500
975.999	572.369	80.008	19.994	103.166	20.019	-4.745	0.523
983.999	576.491	80.012	19.995	103.167	20.018	-4.676	0.497
991.999	580.610	80.007	19.994	103.166	20.017	-4.600	0.509
999.999	584.629	80.010	19.994	103.166	20.018	-4.680	0.503
1007.999	588.640	80.010	19.996	103.175	20.021	-4.877	0.492
1015.999	592.749	80.006	19.997	103.166	20.023	-5.003	0.525
1023.999	596.869	80.005	19.995	103.166	20.022	-4.939	0.494
1031.999	601.064	80.002	19.994	103.172	20.024	-5.097	0.545
1040.000	605.054	80.004	19.995	103.159	20.026	-5.221	0.520
1047.999	609.154	80.008	19.995	103.163	20.029	-5.408	0.515
1055.999	613.296	80.007	19.994	103.148	20.031	-5.588	0.517
1064.000	617.403	80.008	19.994	103.163	20.029	-5.400	0.500
1071.999	621.487	80.006	19.994	103.161	20.030	-5.490	0.516
1080.000	625.542	80.006	19.993	103.160	20.031	-5.569	0.533
1088.000	629.655	80.014	19.993	103.146	20.033	-5.731	0.537
1095.999	633.776	80.008	19.993	103.167	20.036	-5.892	0.495
1104.000	637.918	80.013	19.995	103.156	20.037	-5.967	0.512
1112.000	642.115	80.012	19.994	103.147	20.033	-5.737	0.516
1120.000	646.211	80.008	19.993	103.143	20.035	-5.835	0.509
1127.999	650.310	80.015	19.993	103.139	20.040	-6.203	0.518
1135.999	654.379	80.007	19.994	103.141	20.038	-6.040	0.502
1143.999	658.416	80.003	19.995	103.146	20.039	-6.162	0.472
1151.999	662.417	79.994	19.995	103.146	20.046	-6.603	0.518
1160.000	666.475	80.004	19.993	103.141	20.043	-6.456	0.503
1167.999	670.558	80.005	19.995	103.136	20.047	-6.706	0.505
1175.999	674.704	79.999	19.994	103.134	20.046	-6.619	0.520
1183.999	678.753	80.003	19.996	103.138	20.050	-6.917	0.501
1191.999	682.789	80.003	19.994	103.128	20.055	-7.251	0.480
1199.999	686.746	80.003	19.995	103.140	20.055	-7.273	0.473
1208.000	690.862	80.003	19.994	103.135	20.056	-7.341	0.506
1216.000	694.977	80.009	19.995	103.134	20.060	-7.621	0.532
1223.999	699.051	80.003	19.995	103.134	20.061	-7.690	0.511
1231.999	703.206	80.009	19.994	103.129	20.063	-7.859	0.538
1240.000	707.236	80.008	19.993	103.119	20.061	-7.681	0.514
1247.999	711.285	80.008	19.993	103.136	20.061	-7.689	0.494
1256.000	715.330	80.009	19.994	103.139	20.057	-7.406	0.496
1263.999	719.408	80.007	19.996	103.126	20.064	-7.923	0.515
1271.999	723.380	80.005	19.995	103.128	20.060	-7.615	0.505
1279.999	727.454	80.007	19.994	103.129	20.059	-7.592	0.489
1287.999	731.508	80.013	19.995	103.130	20.061	-7.723	0.493
1295.999	735.561	80.011	19.995	103.136	20.062	-7.760	0.476
1303.999	739.650	80.011	19.994	103.121	20.062	-7.779	0.522
1311.499	743.479	80.010	19.994	103.129	20.066	-8.041	0.525