File: 01_Data/Bean_Bag_Chair_Beads/STA/N2/30K_min/Bean_Bag_Chair_Beads_STA_N2_30KData_220518_R1.csv
##Temp./Â°C,Time/min,Mass loss(subtr.2)/mg,DSC(subtr.2)/(mW/mg),Sensit./(uV/mW)
48.615,10.00667,-0.00593,0.00290269,1.05399
50.815,10.78844,-0.006456857,0.11614,1.05354
53.015,10.98575,-0.006396678,0.19773,1.05309
55.215,11.13393,-0.008363292,0.26331,1.05262
57.415,11.25976,-0.006584343,0.3194,1.05214
59.615,11.37176,-0.0063087,0.3638,1.05166
61.815,11.47451,-0.006040903,0.40569,1.05117
64.015,11.57221,-0.0064143,0.44029,1.05066
66.215,11.66485,-0.00636609,0.4697,1.05015
68.415,11.75404,-0.005686705,0.49878,1.04963
70.615,11.84089,-0.006150607,0.52048,1.04911
72.815,11.92548,-0.00692876,0.54401,1.04857
75.015,12.0084,-0.004970255,0.56498,1.04802
77.215,12.0901,-0.005719645,0.58451,1.04747
79.415,12.17049,-0.006593285,0.60292,1.04691
81.615,12.24973,-0.00607416,0.62639,1.04634
83.815,12.32819,-0.00580777,0.64761,1.04576
86.015,12.40528,-0.005936927,0.67036,1.04517
88.215,12.48269,-0.007465254,0.68203,1.04457
90.415,12.5586,-0.006150984,0.67645,1.04397
92.615,12.6343,-0.004572506,0.66484,1.04335
94.815,12.70958,-0.005944958,0.6591,1.04273
97.015,12.78448,-0.005945019,0.66542,1.0421
99.215,12.85904,-0.00604965,0.68165,1.04146
101.415,12.93319,-0.00736646,0.70487,1.04082
103.615,13.00734,-0.00643059,0.73443,1.04016
105.815,13.08141,-0.008385749,0.77037,1.0395
108.015,13.1555,-0.00733891,0.80216,1.03883
110.215,13.229,-0.006386565,0.81793,1.03815
112.415,13.3026,-0.00769393,0.83105,1.03746
114.615,13.37595,-0.00735928,0.8382,1.03676
116.815,13.44899,-0.006040057,0.84063,1.03606
119.015,13.52154,-0.00602697,0.84656,1.03534
121.215,13.59401,-0.007357509,0.85474,1.03462
123.415,13.6667,-0.00736,0.86165,1.0339
125.615,13.7395,-0.007359991,0.86741,1.03316
127.815,13.8116,-0.00725253,0.87179,1.03241
130.015,13.88321,-0.007360912,0.88176,1.03166
132.215,13.95471,-0.008680766,0.88601,1.0309
134.415,14.0259,-0.00768997,0.89143,1.03013
136.615,14.0968,-0.00769,0.89787,1.02936
138.815,14.1673,-0.00768926,0.90076,1.02857
141.015,14.2371,-0.00868,0.90695,1.02778
143.215,14.3076,-0.00735875,0.91258,1.02698
145.415,14.37778,-0.008350015,0.9214,1.02617
147.615,14.4477,-0.008339218,0.92375,1.02536
149.815,14.5173,-0.00868003,0.92972,1.02453
152.015,14.58675,-0.0099901,0.93334,1.0237
154.215,14.6562,-0.009990001,0.93954,1.02286
156.415,14.7256,-0.008732634,0.9424,1.02202
158.615,14.7945,-0.008670025,0.94806,1.02116
160.815,14.86359,-0.009993299,0.94856,1.0203
163.015,14.93256,-0.00999,0.94833,1.01943
165.215,15.0017,-0.00999004,0.94827,1.01855
167.415,15.0709,-0.01132649,0.94869,1.01767
169.615,15.1396,-0.01262101,0.94968,1.01678
171.815,15.208,-0.01245272,0.94588,1.01588
174.015,15.2764,-0.01197,0.9443,1.01497
176.215,15.34464,-0.01196998,0.94445,1.01406
178.415,15.41278,-0.01327789,0.94326,1.01314
180.615,15.48051,-0.01197272,0.94193,1.01221
182.815,15.5485,-0.009989968,0.94473,1.01127
185.015,15.61615,-0.009989968,0.94509,1.01033
187.215,15.6838,-0.01260637,0.94676,1.00938
189.415,15.7511,-0.01263007,0.95136,1.00842
191.615,15.8184,-0.01394169,0.95547,1.00746
193.815,15.8857,-0.01394,0.96253,1.00649
196.015,15.95263,-0.01394,0.97192,1.00551
198.215,16.01981,-0.01393682,0.98259,1.00452
200.415,16.08696,-0.01658027,0.99756,1.00353
202.615,16.1539,-0.01526003,1.0116,1.00253
204.815,16.22073,-0.01527521,1.02383,1.00152
207.015,16.28758,-0.01801589,1.03794,1.00051
209.215,16.35442,-0.01700968,1.04942,0.99949
211.415,16.4213,-0.0179,1.05626,0.99846
213.615,16.488,-0.01790001,1.06418,0.99742
215.815,16.55486,-0.01856163,1.06943,0.99638
218.015,16.62126,-0.01719955,1.07735,0.99534
220.215,16.68804,-0.01821662,1.07906,0.99428
222.415,16.7547,-0.01952837,1.08576,0.99322
224.615,16.8213,-0.01954,1.08957,0.99215
226.815,16.8877,-0.01987175,1.09324,0.99107
229.015,16.95403,-0.02086154,1.09771,0.98999
231.215,17.0202,-0.02218049,1.10329,0.9889
233.415,17.08709,-0.02251,1.10504,0.98781
235.615,17.15344,-0.0234996,1.10827,0.98671
237.815,17.2197,-0.02383237,1.11053,0.9856
240.015,17.28585,-0.02383,1.11222,0.98448
242.215,17.3524,-0.02381721,1.11731,0.98336
244.415,17.4188,-0.02647004,1.11955,0.98224
246.615,17.48511,-0.02646956,1.12546,0.9811
248.815,17.55141,-0.02580993,1.12874,0.97996
251.015,17.61757,-0.02715788,1.13266,0.97882
253.215,17.6839,-0.02712099,1.13415,0.97766
255.415,17.75,-0.02844025,1.13969,0.9765
257.615,17.81619,-0.02844,1.14133,0.97534
259.815,17.88232,-0.02843993,1.14663,0.97417
262.015,17.9485,-0.02976128,1.14664,0.97299
264.215,18.0147,-0.03112195,1.15213,0.9718
266.415,18.08049,-0.03238799,1.15334,0.97061
268.615,18.14685,-0.03273539,1.1545,0.96942
270.815,18.2131,-0.03272021,1.16023,0.96822
273.015,18.27913,-0.03404006,1.16349,0.96701
275.215,18.34543,-0.03404,1.1651,0.96579
277.415,18.41147,-0.03531271,1.16656,0.96457
279.615,18.4777,-0.0366704,1.16894,0.96335
281.815,18.5439,-0.03662943,1.17351,0.96212
284.015,18.61,-0.03799093,1.1763,0.96088
286.215,18.6764,-0.03931026,1.18127,0.95963
288.415,18.74268,-0.03931079,1.18214,0.95839
290.615,18.80905,-0.04063099,1.18589,0.95713
292.815,18.87519,-0.04194029,1.19066,0.95587
295.015,18.9415,-0.0432631,1.19607,0.9546
297.215,19.00798,-0.04371209,1.19945,0.95333
299.415,19.0744,-0.0459051,1.20443,0.95205
301.615,19.14092,-0.04722903,1.20858,0.95077
303.815,19.20738,-0.04986751,1.21474,0.94948
306.015,19.27374,-0.05115838,1.22048,0.94819
308.215,19.3401,-0.05258962,1.22519,0.94688
310.415,19.40663,-0.05532912,1.23069,0.94558
312.615,19.47276,-0.0578123,1.23391,0.94427
314.815,19.53908,-0.05826486,1.24082,0.94295
317.015,19.60599,-0.06120502,1.24535,0.94163
319.215,19.67261,-0.06377046,1.2494,0.9403
321.415,19.7391,-0.06654474,1.25596,0.93897
323.615,19.80579,-0.06950822,1.26259,0.93763
325.815,19.8724,-0.07324821,1.26915,0.93629
328.015,19.93904,-0.07494585,1.27464,0.93494
330.215,20.00571,-0.07773386,1.27824,0.93359
332.415,20.07249,-0.08047385,1.28863,0.93223
334.615,20.1392,-0.08376828,1.29484,0.93087
336.815,20.20603,-0.08674113,1.30426,0.9295
339.015,20.27316,-0.08981146,1.31047,0.92812
341.215,20.33989,-0.09287837,1.32007,0.92674
343.415,20.40675,-0.0971691,1.32995,0.92536
345.615,20.47402,-0.10043,1.33985,0.92397
347.815,20.54107,-0.10484,1.35585,0.92258
350.015,20.60807,-0.10948,1.36743,0.92118
352.215,20.6753,-0.11442,1.38334,0.91978
354.415,20.7425,-0.11962,1.40055,0.91837
356.615,20.8097,-0.12471,1.4154,0.91695
358.815,20.87708,-0.13067,1.43731,0.91554
361.015,20.94444,-0.13785,1.4559,0.91411
363.215,21.0118,-0.14456,1.47752,0.91269
365.415,21.07911,-0.15166,1.50416,0.91125
367.615,21.14659,-0.15874,1.53104,0.90982
369.815,21.2141,-0.16819,1.56121,0.90838
372.015,21.28172,-0.17793,1.60033,0.90693
374.215,21.34926,-0.18804,1.6433,0.90548
376.415,21.41699,-0.19849,1.68831,0.90403
378.615,21.48469,-0.21171,1.74396,0.90257
380.815,21.55242,-0.22375,1.80234,0.9011
383.015,21.62044,-0.23896,1.87528,0.89963
385.215,21.68835,-0.25476,1.95462,0.89816
387.415,21.7563,-0.27464,2.04403,0.89668
389.615,21.8242,-0.29423,2.14682,0.8952
391.815,21.8924,-0.31619,2.25861,0.89372
394.015,21.96048,-0.34019,2.38878,0.89223
396.215,22.0287,-0.36903,2.52887,0.89073
398.415,22.09701,-0.40077,2.69483,0.88923
400.615,22.16553,-0.43591,2.87549,0.88773
402.815,22.23405,-0.47593,3.08133,0.88622
405.015,22.3028,-0.51919,3.30364,0.88471
407.215,22.37141,-0.56981,3.55432,0.8832
409.415,22.44033,-0.62672,3.83766,0.88168
411.615,22.50937,-0.69159,4.15367,0.88016
413.815,22.5783,-0.7611,4.49846,0.87863
416.015,22.6476,-0.83966,4.88801,0.8771
418.215,22.71696,-0.93034,5.35185,0.87556
420.415,22.7865,-1.03117,5.81913,0.87403
422.615,22.8562,-1.14536,6.32529,0.87248
424.815,22.92609,-1.27186,6.9142,0.87094
427.015,22.99635,-1.41367,7.45978,0.86939
429.215,23.0665,-1.56774,7.93928,0.86783
431.415,23.1369,-1.73391,8.39952,0.86628
433.615,23.2072,-1.92859,8.87684,0.86471
435.815,23.27759,-2.11577,9.22696,0.86315
438.015,23.34783,-2.30781,9.35508,0.86158
440.215,23.41808,-2.49764,9.3818,0.86001
442.415,23.4882,-2.68822,9.27267,0.85843
444.615,23.55801,-2.87937,8.99724,0.85685
446.815,23.62745,-3.062,8.49026,0.85527
449.015,23.69639,-3.23271,7.77511,0.85368
451.215,23.76494,-3.37135,6.89835,0.85209
453.415,23.83322,-3.49915,5.90092,0.8505
455.615,23.90095,-3.60538,4.88667,0.8489
457.815,23.9683,-3.68874,3.92999,0.8473
460.015,24.03559,-3.75433,3.08659,0.8457
462.215,24.10278,-3.80192,2.38978,0.84409
464.415,24.17009,-3.83928,1.83577,0.84248
466.615,24.2374,-3.86663,1.41822,0.84087
468.815,24.30501,-3.88755,1.10571,0.83925
471.015,24.3728,-3.90435,0.87058,0.83763
473.215,24.44057,-3.91728,0.70021,0.83601
475.415,24.50917,-3.9255,0.57317,0.83439
477.615,24.5778,-3.9324,0.472,0.83276
479.815,24.64645,-3.9377,0.39754,0.83112
482.015,24.71525,-3.94257,0.33413,0.82949
484.215,24.78434,-3.94715,0.28559,0.82785
486.415,24.85356,-3.94871,0.24307,0.82621
488.615,24.92279,-3.95132,0.20279,0.82457
490.815,24.99211,-3.95264,0.17311,0.82292
493.015,25.06152,-3.95264,0.14834,0.82127
495.215,25.1311,-3.95396,0.13962,0.81962
497.415,25.20074,-3.95396,0.13003,0.81796
499.615,25.27039,-3.95396,0.12929,0.8163
501.815,25.34026,-3.95396,0.12748,0.81464
504.015,25.40999,-3.95396,0.13073,0.81298
506.215,25.47981,-3.95396,0.13362,0.81131
508.415,25.55007,-3.95429,0.13436,0.80964
510.615,25.62022,-3.95429,0.13419,0.80797
512.815,25.69027,-3.95501,0.13268,0.8063
515.015,25.76043,-3.95528,0.13376,0.80462
517.215,25.83069,-3.9566,0.13069,0.80294
519.415,25.90108,-3.9566,0.12956,0.80126
521.615,25.97133,-3.9566,0.1259,0.79957
523.815,26.04177,-3.9566,0.12323,0.79788
526.015,26.11231,-3.9566,0.11987,0.79619
528.215,26.18279,-3.9566,0.11754,0.7945
530.415,26.2535,-3.9566,0.11164,0.79281
532.615,26.324,-3.9566,0.10634,0.79111
534.815,26.39472,-3.95663,0.0996355,0.78941
537.015,26.46531,-3.95791,0.09270044,0.78771
539.215,26.53616,-3.95791,0.08988996,0.78601
541.415,26.6066,-3.95923,0.08655441,0.7843
543.215,26.6644,-3.95792,0.08515048,0.7829