File: 01_Data/Bean_Bag_Chair_Beads/STA/N2/30K_min/Bean_Bag_Chair_Beads_STA_N2_30KData_220519_R3.csv
##Temp./Â°C,Time/min,Mass loss(subtr.2)/mg,DSC(subtr.2)/(mW/mg),Sensit./(uV/mW)
48.646,10.00667,0.01152,-0.00893657,1.05399
50.846,10.78726,0.01056075,0.11008,1.05354
53.046,10.98628,0.009771715,0.19498,1.05308
55.246,11.1362,0.01081751,0.26407,1.05261
57.446,11.2621,0.01010464,0.32317,1.05214
59.646,11.37347,0.01053021,0.37536,1.05165
61.846,11.47838,0.0120436,0.41676,1.05116
64.046,11.57597,0.01061165,0.45566,1.05066
66.246,11.66877,0.01111979,0.48784,1.05015
68.446,11.75804,0.01159119,0.52041,1.04963
70.646,11.84477,0.01182648,0.54859,1.0491
72.846,11.92915,0.01131457,0.57278,1.04856
75.046,12.01194,0.0113178,0.59743,1.04802
77.246,12.09342,0.01283503,0.61958,1.04746
79.446,12.17341,0.01185473,0.63899,1.0469
81.646,12.25239,0.01160412,0.66353,1.04633
83.846,12.3306,0.01283726,0.68801,1.04575
86.046,12.40798,0.01330871,0.71205,1.04516
88.246,12.48439,0.01296134,0.73029,1.04456
90.446,12.5605,0.01174856,0.72988,1.04396
92.646,12.63596,0.01173938,0.72006,1.04335
94.846,12.71082,0.01178175,0.71269,1.04272
97.046,12.785,0.01186,0.71566,1.04209
99.246,12.8598,0.01183732,0.72728,1.04145
101.446,12.9336,0.01187093,0.749,1.04081
103.646,13.00775,0.01134583,0.77652,1.04015
105.846,13.08145,0.01272288,0.80985,1.03949
108.046,13.1549,0.01185356,0.84103,1.03882
110.246,13.2284,0.01185024,0.86488,1.03814
112.446,13.30137,0.01053978,0.88303,1.03745
114.646,13.3749,0.009723814,0.89447,1.03675
116.846,13.4482,0.01054,0.90877,1.03605
119.046,13.52095,0.01053999,0.91682,1.03533
121.246,13.5937,0.01185979,0.92721,1.03461
123.446,13.66601,0.01054,0.93233,1.03389
125.646,13.7378,0.01055956,0.94044,1.03315
127.846,13.80979,0.01052153,0.94763,1.0324
130.046,13.8811,0.01054,0.95587,1.03165
132.246,13.9533,0.01118891,0.96246,1.03089
134.446,14.0246,0.01186882,0.96945,1.03012
136.646,14.0957,0.01054,0.9782,1.02934
138.846,14.16642,0.01053586,0.98383,1.02856
141.046,14.23661,0.01054007,0.99109,1.02777
143.246,14.307,0.00952209,1.00027,1.02697
145.446,14.37715,0.00921499,1.00451,1.02616
147.646,14.44685,0.00790899,1.01546,1.02534
149.846,14.51665,0.009220002,1.02095,1.02452
152.046,14.5862,0.00921999,1.02935,1.02369
154.246,14.65565,0.007898644,1.036,1.02285
156.446,14.72502,0.00790008,1.04084,1.022
158.646,14.79365,0.00659009,1.04438,1.02115
160.846,14.863,0.006604131,1.05019,1.02029
163.046,14.93188,0.007580003,1.05372,1.01942
165.246,15.00065,0.00758,1.05871,1.01854
167.446,15.0694,0.00758,1.0612,1.01766
169.646,15.13795,0.00758,1.06153,1.01677
171.846,15.2063,0.00758,1.06484,1.01587
174.046,15.27466,0.007553528,1.06236,1.01496
176.246,15.3424,0.00659,1.06527,1.01405
178.446,15.4099,0.00535354,1.06349,1.01313
180.646,15.47861,0.00659,1.06592,1.0122
182.846,15.5465,0.0069344,1.06648,1.01126
185.046,15.61404,0.00659,1.06775,1.01032
187.246,15.68155,0.00658765,1.07212,1.00937
189.446,15.74874,0.005270026,1.07683,1.00841
191.646,15.81608,0.00527,1.08021,1.00745
193.846,15.88331,0.00556379,1.08885,1.00647
196.046,15.95041,0.005930589,1.10125,1.00549
198.246,16.01729,0.00501182,1.11474,1.00451
200.446,16.0842,0.003618981,1.12891,1.00351
202.646,16.1511,0.00326645,1.14562,1.00251
204.846,16.2182,0.00329,1.16202,1.00151
207.046,16.28507,0.00329,1.17424,1.00049
209.246,16.35184,0.00329,1.18624,0.99947
211.446,16.41864,0.00329,1.1935,0.99844
213.646,16.48515,0.002449031,1.2045,0.99741
215.846,16.55205,0.00198,1.21148,0.99637
218.046,16.61891,0.001970079,1.21486,0.99532
220.246,16.6856,0.000660707,1.22061,0.99427
222.446,16.75204,0.001980106,1.22601,0.9932
224.646,16.81832,0.00104535,1.2314,0.99213
226.846,16.8853,-0.0003299979,1.23551,0.99106
229.046,16.9517,-0.0003300318,1.24057,0.98998
231.246,17.01817,-0.000991032,1.24364,0.98889
233.446,17.0846,-0.0009899998,1.24923,0.98779
235.646,17.15097,-0.0008040478,1.2512,0.98669
237.846,17.21743,-0.000652608,1.25788,0.98558
240.046,17.28368,-0.001981182,1.26183,0.98447
242.246,17.3501,-0.00198,1.26444,0.98335
244.446,17.41633,-0.002072331,1.26843,0.98222
246.646,17.48254,-0.00329,1.27283,0.98109
248.846,17.54895,-0.004124851,1.27672,0.97995
251.046,17.61519,-0.004279945,1.27868,0.9788
253.246,17.6816,-0.00474075,1.28415,0.97765
255.446,17.74776,-0.004274044,1.28699,0.97649
257.646,17.814,-0.00692925,1.29252,0.97532
259.846,17.8802,-0.006920004,1.29313,0.97415
262.046,17.946,-0.008237433,1.2956,0.97297
264.246,18.01246,-0.009228963,1.30016,0.97179
266.446,18.0785,-0.0105377,1.30479,0.9706
268.646,18.1449,-0.01136273,1.30489,0.9694
270.846,18.21102,-0.01185998,1.30777,0.9682
273.046,18.277,-0.01284614,1.31128,0.96699
275.246,18.34338,-0.01284991,1.31497,0.96578
277.446,18.40954,-0.01417136,1.31586,0.96456
279.646,18.47571,-0.01415689,1.31923,0.96333
281.846,18.5419,-0.01679027,1.32293,0.9621
284.046,18.60815,-0.01676707,1.3266,0.96086
286.246,18.67437,-0.01680069,1.32878,0.95962
288.446,18.74065,-0.01812179,1.33212,0.95837
290.646,18.80696,-0.01812492,1.3339,0.95711
292.846,18.8733,-0.02073516,1.33719,0.95585
295.046,18.93947,-0.02173207,1.33952,0.95458
297.246,19.00607,-0.0230503,1.34496,0.95331
299.446,19.07239,-0.02336946,1.34904,0.95203
301.646,19.13831,-0.0251242,1.35118,0.95075
303.846,19.20506,-0.02758429,1.35482,0.94946
306.046,19.2716,-0.03025413,1.35833,0.94817
308.246,19.33801,-0.03161483,1.36538,0.94687
310.446,19.4044,-0.03416832,1.36664,0.94556
312.646,19.47071,-0.03610914,1.37355,0.94425
314.846,19.53732,-0.03867407,1.37702,0.94293
317.046,19.6039,-0.04139564,1.38318,0.94161
319.246,19.6704,-0.04269658,1.38858,0.94028
321.446,19.73697,-0.0455339,1.39242,0.93895
323.646,19.80344,-0.0488153,1.39893,0.93761
325.846,19.86978,-0.05168685,1.40463,0.93627
328.046,19.93681,-0.0548074,1.40978,0.93492
330.246,20.00359,-0.05876595,1.41605,0.93357
332.446,20.07024,-0.06055439,1.42196,0.93221
334.646,20.13705,-0.06479345,1.43084,0.93085
336.846,20.20385,-0.06750631,1.4365,0.92948
339.046,20.27065,-0.0708005,1.44574,0.9281
341.246,20.33765,-0.07420554,1.45488,0.92672
343.446,20.40457,-0.07753702,1.46637,0.92534
345.646,20.47167,-0.08214647,1.47852,0.92395
347.846,20.5386,-0.08662077,1.48734,0.92256
350.046,20.60572,-0.09158152,1.50141,0.92116
352.246,20.6729,-0.09610496,1.51738,0.91976
354.446,20.74005,-0.10145,1.5313,0.91835
356.646,20.80725,-0.10628,1.55,0.91693
358.846,20.8746,-0.11228,1.56771,0.91552
361.046,20.94181,-0.11809,1.59048,0.91409
363.246,21.00911,-0.12477,1.61309,0.91267
365.446,21.07667,-0.13249,1.64012,0.91123
367.646,21.14412,-0.14028,1.66821,0.9098
369.846,21.21187,-0.14985,1.70147,0.90836
372.046,21.27948,-0.15933,1.74057,0.90691
374.246,21.34695,-0.16921,1.78256,0.90546
376.446,21.41467,-0.18135,1.83098,0.904
378.646,21.4824,-0.19423,1.88553,0.90255
380.846,21.5502,-0.20701,1.94686,0.90108
383.046,21.61796,-0.22227,2.01801,0.89961
385.246,21.6859,-0.24089,2.09819,0.89814
387.446,21.75378,-0.25954,2.18549,0.89666
389.646,21.82176,-0.28074,2.28388,0.89518
391.846,21.88976,-0.30385,2.39278,0.8937
394.046,21.95802,-0.33001,2.51781,0.89221
396.246,22.0264,-0.35976,2.65956,0.89071
398.446,22.09456,-0.3897,2.8176,0.88921
400.646,22.16293,-0.42615,2.99391,0.88771
402.846,22.23142,-0.46745,3.19223,0.8862
405.046,22.30021,-0.51262,3.41977,0.88469
407.246,22.36883,-0.5634,3.67949,0.88318
409.446,22.43759,-0.61677,3.95691,0.88166
411.646,22.5067,-0.68496,4.28125,0.88014
413.846,22.57575,-0.75689,4.64333,0.87861
416.046,22.64494,-0.83823,5.03472,0.87708
418.246,22.7144,-0.92523,5.48456,0.87554
420.446,22.78386,-1.03095,5.99085,0.874
422.646,22.85371,-1.14513,6.46722,0.87246
424.846,22.92366,-1.27198,6.97474,0.87092
427.046,22.99377,-1.4106,7.47006,0.86937
429.246,23.06393,-1.55921,7.88025,0.86781
431.446,23.13404,-1.71476,8.24334,0.86625
433.646,23.20414,-1.87789,8.56475,0.86469
435.846,23.27444,-2.04289,8.51779,0.86313
438.046,23.34487,-2.25408,7.70701,0.86156
440.246,23.41451,-2.47934,7.75904,0.85999
442.446,23.48441,-2.66591,7.86313,0.85841
444.646,23.55436,-2.88507,7.70076,0.85683
446.846,23.624,-3.10128,7.22467,0.85525
449.046,23.693,-3.28473,6.49476,0.85366
451.246,23.76134,-3.42973,5.59884,0.85207
453.446,23.8292,-3.55695,4.63153,0.85048
455.646,23.89684,-3.66068,3.65435,0.84888
457.846,23.96389,-3.74148,2.75131,0.84728
460.046,24.03095,-3.80471,1.96581,0.84568
462.246,24.098,-3.85248,1.32695,0.84407
464.446,24.16522,-3.88621,0.82567,0.84246
466.646,24.2327,-3.91415,0.45033,0.84085
468.846,24.30001,-3.93365,0.17551,0.83923
471.046,24.3675,-3.94994,-0.02610824,0.83761
473.246,24.4358,-3.96102,-0.17729,0.83599
475.446,24.5041,-3.97011,-0.29123,0.83436
477.646,24.57287,-3.97806,-0.37986,0.83273
479.846,24.64166,-3.98394,-0.44766,0.8311
482.046,24.71045,-3.98845,-0.49987,0.82947
484.246,24.77956,-3.99242,-0.54656,0.82783
486.446,24.8486,-3.99487,-0.58393,0.82619
488.646,24.9179,-3.99711,-0.62347,0.82454
490.846,24.98696,-3.9971,-0.65758,0.8229
493.046,25.05658,-3.9971,-0.67852,0.82125
495.246,25.1262,-3.9971,-0.69522,0.81959
497.446,25.19556,-3.9971,-0.70142,0.81794
499.646,25.26559,-3.9971,-0.70816,0.81628
501.846,25.33533,-3.9971,-0.71083,0.81462
504.046,25.4052,-3.99809,-0.71343,0.81295
506.246,25.47504,-3.99809,-0.71649,0.81129
508.446,25.54504,-3.99809,-0.71672,0.80962
510.646,25.61494,-3.99815,-0.72016,0.80795
512.846,25.68516,-3.99644,-0.72071,0.80627
515.046,25.75529,-3.99643,-0.72363,0.80459
517.246,25.82544,-3.99776,-0.72579,0.80291
519.446,25.8958,-3.99776,-0.72848,0.80123
521.646,25.96614,-3.99776,-0.72915,0.79955
523.846,26.0363,-3.99776,-0.73329,0.79786
526.046,26.10689,-3.99776,-0.73751,0.79617
528.246,26.1775,-3.99743,-0.74298,0.79448
530.446,26.24788,-3.99842,-0.74794,0.79278
532.646,26.3185,-3.99842,-0.74756,0.79109
534.846,26.38907,-3.9971,-0.7546,0.78939
537.046,26.45978,-3.9971,-0.75857,0.78769
539.246,26.5307,-3.99709,-0.76123,0.78598
541.446,26.60112,-3.99678,-0.76576,0.78428
543.446,26.66586,-3.99545,-0.76848,0.78272