File: 01_Data/Polyester_Felt/MCC/Polyester_Felt_MCC_30K_min_211020_R4.txt
Sample ID:	C:\MCC\MCC Cal\Test\Polyester_Felt_MCC_30K_min_211020_R4.txt
Sample Weight (mg):	4.9
Heating Rate (C/s):	0.5
Combustor Temp (C):	900
N2 Flow Rate (cc/min):	80
O2 Flow Rate (cc/min):	20
Calibration File:	C:\MCC\MCC Cal\Coeff1 JN10440_30_210304.txt.txt
T Correction Coefficients:	0	1.024463	0
Time Shift (s):	14
*
Time (s)	Temperature (C)	N2 flow rate (cc/min)	O2 flow rate (cc/min)	Flow Rate (cc/min)	Oxygen (%)	HRR (W/g)	Heating rate (C/s)
0.000	107.515	80.003	19.994	102.992	20.006	-0.413	0.018
8.000	107.509	80.001	19.997	103.016	20.003	-0.206	-0.017
16.001	107.588	80.001	19.995	103.049	19.999	0.057	0.019
24.000	107.706	79.999	19.993	103.109	19.990	0.668	0.026
32.000	108.203	80.001	19.994	103.134	19.979	1.394	0.073
40.000	109.100	80.001	19.995	103.193	19.974	1.674	0.183
48.000	110.376	80.001	19.994	103.225	19.967	2.184	0.176
56.000	112.114	80.002	19.993	103.234	19.966	2.256	0.250
64.000	114.144	80.002	19.994	103.253	19.958	2.771	0.312
72.000	116.502	80.005	19.994	103.261	19.959	2.693	0.256
80.001	119.205	80.003	19.993	103.260	19.956	2.896	0.373
88.000	122.043	80.003	19.994	103.257	19.956	2.880	0.360
96.000	125.066	80.000	19.995	103.265	19.954	3.037	0.402
104.000	128.269	80.002	19.995	103.260	19.956	2.864	0.428
112.001	131.640	80.002	19.995	103.258	19.956	2.855	0.404
120.000	135.077	80.000	19.994	103.260	19.953	3.078	0.457
128.000	138.644	80.003	19.994	103.264	19.961	2.580	0.417
136.000	142.212	80.002	19.993	103.259	19.958	2.775	0.447
144.000	145.950	80.002	19.994	103.266	19.959	2.652	0.476
152.000	149.716	80.005	19.992	103.265	19.959	2.716	0.467
160.000	153.501	80.002	19.994	103.260	19.958	2.748	0.468
168.000	157.320	80.001	19.995	103.254	19.955	2.948	0.469
176.000	161.145	80.001	19.996	103.252	19.954	3.017	0.448
184.000	165.077	80.001	19.996	103.239	19.955	2.917	0.500
192.000	168.954	80.002	19.995	103.260	19.959	2.714	0.502
200.000	172.956	80.001	19.995	103.251	19.962	2.516	0.510
208.000	176.944	80.002	19.995	103.236	19.960	2.587	0.519
216.000	180.934	80.003	19.995	103.240	19.961	2.580	0.505
224.000	184.899	80.001	19.994	103.236	19.959	2.685	0.494
232.000	188.955	80.004	19.994	103.228	19.963	2.453	0.486
240.000	193.031	80.004	19.993	103.223	19.962	2.501	0.510
248.000	197.066	80.001	19.994	103.222	19.961	2.555	0.510
256.000	201.024	80.001	19.994	103.219	19.961	2.571	0.534
264.001	204.952	79.997	19.995	103.213	19.964	2.342	0.496
272.000	208.923	80.002	19.994	103.224	19.964	2.374	0.479
280.000	212.881	80.001	19.995	103.219	19.964	2.342	0.504
288.000	216.811	80.001	19.994	103.206	19.963	2.413	0.480
296.000	220.776	79.999	19.995	103.213	19.964	2.387	0.518
304.000	224.653	80.000	19.995	103.210	19.961	2.554	0.505
312.000	228.643	80.003	19.994	103.212	19.964	2.367	0.532
320.000	232.602	80.005	19.995	103.199	19.965	2.290	0.492
328.000	236.647	80.000	19.994	103.203	19.964	2.335	0.514
336.000	240.505	80.000	19.993	103.197	19.967	2.133	0.445
344.000	244.455	79.998	19.994	103.214	19.967	2.169	0.500
352.000	248.359	80.002	19.995	103.203	19.970	1.991	0.503
360.000	252.323	80.000	19.995	103.194	19.971	1.884	0.494
368.000	256.294	80.002	19.995	103.202	19.970	1.932	0.486
376.000	260.218	80.002	19.995	103.196	19.971	1.887	0.500
384.000	264.244	80.003	19.994	103.187	19.972	1.837	0.495
392.000	268.306	80.000	19.995	103.187	19.978	1.431	0.544
400.000	272.392	80.004	19.994	103.186	19.974	1.672	0.536
408.000	276.713	80.001	19.994	103.184	19.970	1.944	0.388
416.000	280.629	80.002	19.994	103.189	19.966	2.226	0.550
424.000	284.601	80.000	19.996	103.193	19.974	1.686	0.511
432.000	288.741	80.002	19.994	103.181	19.972	1.860	0.550
440.000	292.840	80.002	19.995	103.167	19.970	1.992	0.503
448.000	296.908	80.001	19.995	103.178	19.974	1.689	0.516
456.000	300.935	80.002	19.994	103.176	19.971	1.878	0.502
464.000	304.997	80.002	19.993	103.169	19.970	1.949	0.502
472.000	309.037	80.000	19.995	103.176	19.974	1.678	0.513
480.000	313.075	80.003	19.995	103.164	19.971	1.885	0.480
488.000	317.079	80.004	19.994	103.148	19.968	2.086	0.478
496.000	321.020	80.002	19.994	103.157	19.974	1.703	0.479
504.000	325.001	80.000	19.993	103.148	19.971	1.926	0.489
512.000	329.047	80.002	19.994	103.157	19.972	1.840	0.489
520.000	333.098	80.002	19.995	103.147	19.970	1.983	0.527
528.000	337.125	80.001	19.993	103.150	19.966	2.218	0.501
536.000	341.186	80.003	19.994	103.161	19.961	2.544	0.481
544.000	345.180	80.003	19.995	103.152	19.964	2.341	0.502
552.000	349.264	80.000	19.994	103.150	19.958	2.779	0.530
560.000	353.364	80.004	19.995	103.144	19.958	2.736	0.505
568.000	357.414	80.003	19.994	103.146	19.950	3.276	0.503
576.000	361.548	80.000	19.995	103.143	19.941	3.844	0.489
584.001	365.644	80.003	19.994	103.149	19.933	4.400	0.509
592.001	369.765	80.000	19.994	103.149	19.924	4.983	0.503
600.000	373.885	80.000	19.993	103.156	19.908	6.037	0.511
608.000	377.958	80.000	19.995	103.154	19.895	6.888	0.488
616.000	382.039	80.002	19.994	103.175	19.870	8.547	0.498
624.000	386.133	80.003	19.994	103.185	19.824	11.565	0.480
632.000	390.177	80.002	19.994	103.208	19.763	15.572	0.512
640.000	394.321	80.002	19.994	103.257	19.678	21.180	0.534
648.000	398.414	80.004	19.995	103.276	19.576	27.882	0.518
656.000	402.653	80.000	19.997	103.305	19.498	33.047	0.535
664.000	406.873	79.999	19.996	103.317	19.421	38.087	0.549
672.000	411.024	79.999	19.995	103.380	19.329	44.202	0.507
680.000	415.024	80.002	19.994	103.439	19.183	53.865	0.487
688.000	419.070	80.002	19.996	103.464	18.974	67.674	0.489
696.000	423.019	80.001	19.994	103.544	18.733	83.681	0.468
704.000	426.988	80.002	19.994	103.859	18.325	110.914	0.478
712.000	430.931	80.003	19.995	103.696	18.014	131.410	0.461
720.000	434.892	80.001	19.995	103.992	17.609	158.465	0.514
728.000	438.899	80.003	19.994	104.075	17.431	170.253	0.491
736.000	442.878	80.000	19.995	104.084	17.354	175.294	0.493
744.000	446.935	80.000	19.994	104.082	17.400	172.146	0.463
752.000	450.965	80.000	19.996	104.019	17.584	159.746	0.513
760.000	455.022	80.001	19.995	103.913	17.883	139.807	0.518
768.000	459.046	80.001	19.995	103.777	18.257	115.000	0.493
776.000	463.078	80.001	19.993	103.636	18.720	84.308	0.505
784.000	467.110	80.003	19.995	103.538	19.115	58.252	0.522
792.000	471.106	80.001	19.995	103.418	19.385	40.456	0.486
800.000	475.266	80.001	19.994	103.330	19.561	28.846	0.563
808.000	479.347	80.003	19.994	103.266	19.694	20.096	0.522
816.000	483.448	80.001	19.993	103.220	19.789	13.835	0.519
824.000	487.558	80.000	19.994	103.183	19.860	9.210	0.524
832.000	491.722	80.000	19.994	103.163	19.903	6.368	0.548
840.000	495.941	80.000	19.994	103.141	19.931	4.489	0.543
848.000	500.054	79.999	19.996	103.133	19.935	4.282	0.498
856.000	504.243	80.001	19.996	103.134	19.939	3.978	0.485
864.000	508.410	80.002	19.994	103.126	19.943	3.756	0.525
872.000	512.583	80.001	19.994	103.122	19.949	3.318	0.506
880.000	516.779	80.003	19.995	103.113	19.951	3.236	0.505
888.000	520.964	80.003	19.994	103.121	19.952	3.159	0.509
896.000	525.059	80.003	19.994	103.126	19.950	3.271	0.504
904.000	529.141	80.001	19.993	103.121	19.958	2.741	0.499
912.000	533.244	80.000	19.994	103.110	19.953	3.052	0.553
920.000	537.285	80.001	19.994	103.122	19.956	2.876	0.493
928.000	541.314	80.000	19.995	103.117	19.957	2.794	0.499
936.000	545.328	79.998	19.995	103.117	19.955	2.961	0.514
944.000	549.382	80.001	19.995	103.117	19.956	2.895	0.513
952.000	553.360	80.002	19.995	103.104	19.957	2.828	0.494
960.000	557.399	80.002	19.994	103.109	19.962	2.497	0.496
968.000	561.503	80.003	19.995	103.109	19.955	2.920	0.521
976.000	565.562	80.001	19.995	103.109	19.963	2.424	0.507
984.000	569.688	80.001	19.994	103.110	19.961	2.520	0.505
992.000	573.909	80.001	19.994	103.114	19.964	2.377	0.510
1000.000	578.174	80.002	19.994	103.107	19.961	2.529	0.511
1008.000	582.354	80.000	19.995	103.106	19.955	2.947	0.534
1016.000	586.468	79.999	19.994	103.104	19.956	2.874	0.524
1024.000	590.541	80.002	19.995	103.108	19.962	2.470	0.505
1032.000	594.656	80.001	19.994	103.106	19.963	2.438	0.541
1040.000	598.742	80.001	19.995	103.100	19.963	2.450	0.523
1048.001	602.787	80.004	19.994	103.104	19.957	2.824	0.457
1056.000	606.852	80.002	19.994	103.107	19.956	2.890	0.503
1064.000	610.964	80.002	19.995	103.106	19.958	2.721	0.525
1072.000	615.151	80.001	19.994	103.104	19.957	2.799	0.518
1080.000	619.396	80.002	19.994	103.106	19.956	2.853	0.532
1088.000	623.688	80.002	19.995	103.105	19.958	2.740	0.534
1096.000	627.934	79.999	19.993	103.106	19.964	2.343	0.523
1104.000	632.126	80.001	19.994	103.075	19.958	2.749	0.535
1112.000	636.351	80.002	19.994	103.099	19.965	2.256	0.530
1120.000	640.536	80.000	19.994	103.102	19.967	2.124	0.536
1128.000	644.632	80.003	19.994	103.097	19.959	2.665	0.498
1136.001	648.752	80.003	19.994	103.094	19.970	1.964	0.507
1144.001	652.836	80.002	19.993	103.087	19.968	2.078	0.530
1152.000	656.946	80.002	19.996	103.084	19.969	2.008	0.479
1160.001	661.069	80.001	19.994	103.084	19.975	1.611	0.522
1168.000	665.153	80.001	19.994	103.079	19.973	1.784	0.512
1176.001	669.249	80.001	19.994	103.078	19.973	1.784	0.525
1184.000	673.362	80.001	19.993	103.083	19.976	1.583	0.526
1192.000	677.453	80.002	19.995	103.078	19.978	1.412	0.523
1200.001	681.483	80.001	19.993	103.074	19.972	1.843	0.482
1208.001	685.482	80.003	19.994	103.081	19.981	1.205	0.498
1216.000	689.463	80.004	19.994	103.085	19.977	1.502	0.487
1224.001	693.500	80.000	19.994	103.075	19.980	1.285	0.488
1232.000	697.541	80.003	19.995	103.079	19.978	1.458	0.493
1240.000	701.505	80.003	19.994	103.081	19.984	1.020	0.475
1248.001	705.538	80.001	19.994	103.084	19.981	1.230	0.532
1256.000	709.546	80.001	19.994	103.074	19.977	1.519	0.472
1264.000	713.625	80.003	19.994	103.083	19.978	1.433	0.501
1272.000	717.686	80.003	19.992	103.077	19.975	1.632	0.510
1280.000	721.743	80.002	19.995	103.071	19.973	1.768	0.504
1288.000	725.862	80.004	19.995	103.073	19.978	1.426	0.529
1296.000	729.932	80.002	19.993	103.073	19.976	1.577	0.496
1304.000	734.021	80.000	19.994	103.070	19.975	1.625	0.530
1312.000	738.022	79.999	19.995	103.073	19.979	1.374	0.517
1320.000	742.084	80.000	19.994	103.079	19.974	1.725	0.514
1323.001	743.601	80.001	19.995	103.073	19.975	1.655	0.513