File: 01_Data/Polyester_Felt/MCC/Polyester_Felt_MCC_30K_min_210709_R1.txt
Sample ID:	C:\MCC\MCC Cal\Test\Polyester_Felt\Polyester_Felt_MCC_30K_min_21_07_09_R1.txt
Sample Weight (mg):	3.86
Heating Rate (C/s):	0.5
Combustor Temp (C):	900
N2 Flow Rate (cc/min):	80
O2 Flow Rate (cc/min):	20
Calibration File:	C:\MCC\MCC Cal\Coeff1 JN10440_30_210304.txt.txt
T Correction Coefficients:	0	1.024463	0
Time Shift (s):	14
*
Time (s)	Temperature (C)	N2 flow rate (cc/min)	O2 flow rate (cc/min)	Flow Rate (cc/min)	Oxygen (%)	HRR (W/g)	Heating rate (C/s)
0.000	109.089	79.998	19.995	99.936	20.131	0.018	-0.016
8.000	109.029	79.996	19.996	99.933	20.131	0.018	0.026
16.000	109.014	79.998	19.996	99.937	20.134	-0.229	-0.017
24.000	109.037	79.995	19.996	99.974	20.128	0.262	0.017
32.000	109.186	79.996	19.997	100.046	20.120	0.905	0.015
40.000	109.705	79.994	19.996	100.071	20.107	1.910	0.074
48.000	110.640	79.994	19.996	100.135	20.099	2.551	0.146
56.000	112.011	79.996	19.997	100.153	20.096	2.830	0.198
64.000	113.745	79.998	19.995	100.158	20.086	3.651	0.277
72.000	115.837	79.998	19.997	100.166	20.082	3.993	0.261
80.001	118.287	79.998	19.996	100.168	20.081	4.074	0.327
88.001	120.939	79.998	19.995	100.169	20.083	3.842	0.343
96.001	123.886	79.994	19.996	100.176	20.087	3.591	0.361
104.001	126.946	79.997	19.997	100.187	20.072	4.798	0.377
112.000	130.232	79.995	19.998	100.196	20.081	4.028	0.396
120.000	133.666	79.995	19.997	100.190	20.081	4.068	0.412
128.000	137.325	79.994	19.996	100.201	20.085	3.738	0.446
136.000	141.194	79.997	19.994	100.195	20.075	4.568	0.470
144.000	145.095	79.996	19.995	100.190	20.081	4.043	0.497
152.000	149.100	79.996	19.996	100.178	20.078	4.252	0.522
160.000	153.063	79.998	19.996	100.183	20.080	4.085	0.500
168.000	157.138	79.996	19.994	100.171	20.081	4.049	0.522
176.000	161.207	79.997	19.997	100.171	20.082	3.982	0.508
184.000	165.261	79.996	19.997	100.165	20.087	3.564	0.459
192.000	169.341	79.996	19.997	100.152	20.093	3.081	0.485
200.000	173.383	79.995	19.997	100.158	20.088	3.475	0.487
208.000	177.413	79.995	19.997	100.137	20.089	3.434	0.495
216.000	181.389	79.997	19.997	100.130	20.092	3.147	0.488
224.000	185.414	79.997	19.997	100.134	20.089	3.427	0.516
232.000	189.425	79.995	19.995	100.134	20.092	3.167	0.504
240.000	193.314	79.997	19.996	100.133	20.089	3.387	0.485
248.000	197.178	79.999	19.996	100.125	20.092	3.178	0.480
256.000	201.053	79.994	19.996	100.131	20.097	2.724	0.483
264.000	204.959	79.996	19.997	100.130	20.093	3.089	0.502
272.000	208.882	79.996	19.997	100.128	20.094	2.993	0.501
280.000	212.777	79.996	19.996	100.129	20.090	3.335	0.479
288.000	216.681	79.993	19.997	100.116	20.096	2.839	0.476
296.000	220.618	79.996	19.997	100.115	20.099	2.546	0.492
304.000	224.547	79.998	19.998	100.112	20.095	2.879	0.502
312.000	228.523	79.998	19.997	100.093	20.106	2.005	0.540
320.000	232.474	79.999	19.996	100.093	20.102	2.316	0.503
328.000	236.421	79.999	19.996	100.098	20.106	2.021	0.512
336.000	240.359	79.997	19.996	100.091	20.111	1.647	0.528
344.000	244.296	79.998	19.997	100.098	20.108	1.879	0.478
352.000	248.200	79.995	19.997	100.095	20.111	1.634	0.520
360.000	252.180	79.995	19.996	100.095	20.113	1.474	0.483
368.000	256.104	79.996	19.997	100.094	20.115	1.287	0.493
376.000	260.014	79.997	19.997	100.086	20.115	1.283	0.495
384.000	263.928	79.998	19.998	100.089	20.115	1.272	0.446
392.000	267.943	79.997	19.996	100.091	20.110	1.718	0.483
400.000	271.933	79.999	19.996	100.084	20.109	1.754	0.490
408.000	275.964	79.998	19.996	100.082	20.109	1.765	0.537
416.000	279.996	79.996	19.996	100.091	20.110	1.683	0.509
424.000	283.946	79.995	19.994	100.077	20.109	1.782	0.478
432.000	287.940	79.997	19.997	100.068	20.111	1.638	0.503
440.000	292.045	79.997	19.998	100.089	20.111	1.592	0.508
448.000	296.078	79.994	19.997	100.079	20.113	1.427	0.517
456.000	300.079	79.997	19.996	100.068	20.111	1.632	0.513
464.000	304.134	79.996	19.997	100.069	20.116	1.178	0.523
472.000	308.142	79.995	19.997	100.074	20.112	1.500	0.496
480.000	312.228	79.998	19.997	100.063	20.121	0.776	0.509
488.000	316.230	79.998	19.996	100.068	20.118	1.042	0.492
496.000	320.278	79.996	19.998	100.060	20.114	1.345	0.507
504.000	324.241	79.997	19.996	100.080	20.121	0.811	0.525
512.000	328.238	79.997	19.997	100.089	20.115	1.269	0.447
520.000	332.476	79.997	19.996	100.081	20.115	1.311	0.742
528.000	336.677	79.996	19.997	100.073	20.116	1.231	0.517
536.000	340.956	79.998	19.997	100.070	20.116	1.169	0.536
544.000	345.184	79.996	19.997	100.059	20.118	1.054	0.526
552.000	349.450	79.996	19.997	100.064	20.120	0.864	0.533
560.000	353.676	79.997	19.998	100.063	20.112	1.496	0.540
568.000	357.898	79.997	19.996	100.053	20.106	2.020	0.540
576.000	361.945	79.997	19.998	100.059	20.105	2.076	0.525
584.000	365.959	79.994	19.996	100.050	20.095	2.900	0.510
592.000	369.973	79.997	19.997	100.054	20.090	3.343	0.516
600.000	373.979	79.995	19.996	100.073	20.075	4.544	0.524
608.000	378.087	79.994	19.996	100.072	20.061	5.662	0.517
616.000	382.152	79.996	19.996	100.082	20.040	7.323	0.522
624.000	386.217	79.995	19.997	100.091	20.011	9.695	0.498
632.000	390.329	79.998	19.997	100.101	19.967	13.255	0.517
640.000	394.448	79.999	19.997	100.129	19.903	18.449	0.507
648.000	398.526	79.994	19.998	100.145	19.816	25.541	0.510
656.000	402.742	79.997	19.997	100.184	19.717	33.498	0.537
664.000	406.849	79.996	19.996	100.204	19.640	39.793	0.507
672.000	411.118	79.995	19.996	100.282	19.489	52.066	0.529
680.000	415.295	79.994	19.995	100.265	19.397	59.521	0.497
688.000	419.396	79.996	19.996	100.342	19.265	70.251	0.504
696.000	423.413	79.997	19.996	100.411	19.069	86.236	0.493
704.000	427.465	79.996	19.996	100.469	18.824	106.240	0.517
712.000	431.407	79.998	19.998	100.540	18.589	125.485	0.463
720.000	435.368	79.996	19.996	100.634	18.404	140.528	0.452
728.000	439.364	79.995	19.997	100.684	18.237	154.163	0.507
736.000	443.336	79.995	19.997	100.713	18.128	163.031	0.526
744.000	447.274	79.995	19.997	100.726	18.119	163.762	0.518
752.000	451.221	79.996	19.996	100.710	18.224	155.076	0.498
760.000	455.209	79.995	19.998	100.659	18.422	138.889	0.523
768.000	459.220	79.997	19.995	100.560	18.709	115.490	0.550
776.000	463.125	79.998	19.996	100.480	19.093	84.158	0.473
784.000	467.189	79.997	19.995	100.403	19.422	57.434	0.537
792.000	471.274	79.997	19.997	100.299	19.649	39.003	0.530
800.000	475.320	79.997	19.996	100.214	19.802	26.665	0.491
808.000	479.403	79.997	19.997	100.174	19.913	17.640	0.518
816.000	483.437	79.996	19.998	100.129	19.988	11.564	0.522
824.000	487.465	79.996	19.998	100.093	20.034	7.816	0.539
832.000	491.584	79.996	20.000	100.089	20.071	4.860	0.472
840.001	495.688	79.994	19.997	100.065	20.097	2.778	0.517
848.000	499.810	79.996	19.997	100.059	20.105	2.105	0.488
856.001	503.879	79.997	19.997	100.025	20.113	1.420	0.483
864.000	508.001	79.996	19.996	100.052	20.119	0.995	0.534
872.000	512.080	79.999	19.996	100.056	20.123	0.633	0.512
880.000	516.237	79.998	19.997	100.037	20.124	0.600	0.501
888.000	520.395	79.997	19.998	100.049	20.121	0.798	0.525
896.000	524.481	79.996	19.998	100.046	20.122	0.713	0.526
904.000	528.584	79.995	19.998	100.026	20.128	0.231	0.546
912.000	532.719	79.995	19.997	100.049	20.125	0.504	0.520
920.000	536.935	79.995	19.996	100.052	20.128	0.225	0.527
928.000	541.077	79.997	19.996	99.960	20.126	0.367	0.513
936.000	545.177	79.997	19.996	100.047	20.130	0.104	0.526
944.000	549.303	79.999	19.996	100.038	20.128	0.278	0.508
952.000	553.360	79.999	19.996	100.045	20.130	0.060	0.521
960.000	557.503	79.999	19.997	100.043	20.128	0.267	0.513
968.000	561.619	79.996	19.997	100.036	20.126	0.411	0.533
976.000	565.704	79.997	19.997	99.968	20.124	0.574	0.537
984.000	569.735	79.996	19.996	99.975	20.126	0.382	0.500
992.000	573.897	79.994	19.998	100.044	20.130	0.058	0.524
1000.000	578.019	79.996	19.997	100.046	20.123	0.662	0.512
1008.000	582.024	79.998	19.997	100.023	20.129	0.129	0.483
1016.000	586.032	79.997	19.996	100.027	20.128	0.204	0.482
1024.001	590.103	79.997	19.996	100.040	20.127	0.331	0.485
1032.000	594.280	80.002	19.996	100.045	20.132	-0.091	0.525
1040.000	598.405	79.997	19.996	100.047	20.126	0.380	0.523
1048.000	602.565	79.996	19.995	99.967	20.130	0.071	0.522
1056.001	606.645	79.997	19.997	100.035	20.129	0.153	0.509
1064.000	610.750	79.996	19.998	100.022	20.122	0.700	0.520
1072.001	614.770	79.994	19.998	100.029	20.122	0.738	0.487
1080.000	618.862	79.995	19.998	100.045	20.124	0.580	0.524
1088.000	623.028	79.997	19.997	100.032	20.126	0.369	0.528
1096.000	627.165	79.996	19.997	100.046	20.123	0.651	0.499
1104.000	631.410	79.997	19.996	100.050	20.124	0.571	0.515
1112.000	635.569	79.997	19.995	100.034	20.124	0.527	0.514
1120.000	639.758	79.995	19.994	100.041	20.130	0.078	0.496
1128.000	643.883	79.997	19.996	100.048	20.133	-0.189	0.513
1136.000	647.893	79.996	19.996	100.039	20.134	-0.220	0.499
1144.000	651.915	79.996	19.997	100.038	20.138	-0.551	0.526
1152.000	655.916	79.997	19.996	100.030	20.135	-0.335	0.526
1160.001	659.927	79.996	19.997	100.042	20.135	-0.320	0.503
1168.000	663.941	79.997	19.998	99.961	20.136	-0.438	0.512
1176.000	667.972	79.996	19.997	100.036	20.140	-0.762	0.491
1184.000	672.046	79.998	19.997	100.038	20.138	-0.584	0.487
1192.000	676.140	79.998	19.995	100.033	20.142	-0.858	0.478
1200.000	680.156	79.996	19.997	100.017	20.144	-1.035	0.523
1208.000	684.266	79.996	19.997	100.020	20.142	-0.880	0.539
1216.000	688.372	79.996	19.997	100.030	20.141	-0.849	0.518
1224.000	692.537	79.996	19.997	100.018	20.140	-0.702	0.530
1232.000	696.710	79.994	19.996	100.023	20.143	-1.002	0.519
1240.000	700.757	79.996	19.996	100.024	20.141	-0.829	0.514
1248.000	704.832	79.998	19.997	100.017	20.137	-0.520	0.476
1256.000	709.047	79.996	19.997	100.040	20.135	-0.367	0.551
1264.000	713.134	79.997	19.996	100.029	20.138	-0.542	0.500
1272.000	717.299	79.998	19.997	100.026	20.141	-0.811	0.507
1280.000	721.366	79.995	19.997	100.024	20.140	-0.713	0.494
1288.000	725.307	79.996	19.996	100.030	20.138	-0.535	0.511
1296.000	729.305	79.995	19.996	100.034	20.138	-0.569	0.484
1304.000	733.263	79.996	19.996	100.030	20.135	-0.353	0.500
1312.000	737.197	79.995	19.996	100.015	20.137	-0.507	0.480
1320.000	741.152	79.997	19.998	100.015	20.134	-0.267	0.518
1325.000	743.714	79.997	19.998	100.029	20.138	-0.538	0.541