File: 01_Data/Polyester_Felt/MCC/Polyester_Felt_MCC_30K_min_210709_R3.txt
Sample ID:	C:\MCC\MCC Cal\Test\Polyester_Felt\Polyester_Felt_MCC_30K_min_21_07_09_R3.txt
Sample Weight (mg):	4.94
Heating Rate (C/s):	1
Combustor Temp (C):	900
N2 Flow Rate (cc/min):	80
O2 Flow Rate (cc/min):	20
Calibration File:	C:\MCC\MCC Cal\Coeff1 JN10440_30_210304.txt.txt
T Correction Coefficients:	0	1.024463	0
Time Shift (s):	14
*
Time (s)	Temperature (C)	N2 flow rate (cc/min)	O2 flow rate (cc/min)	Flow Rate (cc/min)	Oxygen (%)	HRR (W/g)	Heating rate (C/s)
0.000	106.990	79.997	19.994	99.918	20.122	-0.007	-0.009
4.000	107.010	79.997	19.996	99.922	20.124	-0.088	-0.008
8.000	106.971	79.993	19.996	99.929	20.119	0.203	-0.024
12.000	106.977	79.993	19.995	100.039	20.102	1.305	0.008
16.000	107.159	79.993	19.996	100.193	20.082	2.554	0.043
20.000	107.583	79.993	19.995	100.293	20.060	3.958	0.128
24.000	108.294	79.994	19.995	100.358	20.048	4.670	0.242
28.000	109.256	79.992	19.997	100.290	20.037	5.399	0.238
32.000	110.567	79.992	19.996	100.429	20.036	5.461	0.326
36.000	112.002	79.992	19.995	100.365	20.033	5.633	0.382
40.001	113.738	79.994	19.997	100.367	20.036	5.476	0.428
44.000	115.676	79.994	19.996	100.379	20.032	5.733	0.494
48.000	117.776	79.994	19.995	100.371	20.031	5.775	0.545
52.000	120.008	79.995	19.996	100.391	20.030	5.816	0.561
56.000	122.470	79.995	19.996	100.388	20.028	5.956	0.611
60.000	125.109	79.995	19.997	100.395	20.027	6.065	0.674
64.000	127.821	79.996	19.997	100.392	20.024	6.231	0.702
68.001	130.698	79.995	19.996	100.402	20.025	6.180	0.712
72.001	133.710	79.995	19.996	100.400	20.024	6.195	0.755
76.000	136.861	79.996	19.995	100.397	20.024	6.212	0.827
80.001	140.120	79.995	19.995	100.409	20.024	6.212	0.830
84.000	143.441	79.993	19.996	100.399	20.023	6.279	0.838
88.000	146.923	79.993	19.995	100.403	20.024	6.243	0.882
92.001	150.477	79.993	19.995	100.399	20.023	6.286	0.915
96.001	154.106	79.993	19.995	100.400	20.025	6.160	0.907
100.000	157.719	79.994	19.995	100.401	20.022	6.335	0.923
104.001	161.479	79.993	19.995	100.395	20.022	6.339	0.935
108.000	165.257	79.994	19.996	100.392	20.024	6.212	0.996
112.000	169.091	79.992	19.995	100.383	20.026	6.073	0.945
116.000	173.048	79.992	19.996	100.384	20.028	5.952	0.992
120.000	176.986	79.993	19.996	100.368	20.023	6.270	0.995
124.000	181.025	79.994	19.996	100.360	20.026	6.071	1.023
128.000	185.086	79.996	19.995	100.356	20.024	6.206	1.055
132.000	189.173	79.995	19.996	100.411	20.027	6.037	1.004
136.000	193.310	79.994	19.996	100.351	20.028	5.953	1.024
140.000	197.440	79.992	19.997	100.327	20.028	5.984	1.055
144.000	201.637	79.994	19.997	100.327	20.033	5.671	1.043
148.001	205.807	79.994	19.997	100.323	20.032	5.696	1.052
152.000	210.028	79.996	19.996	100.317	20.032	5.717	1.071
156.001	214.204	79.997	19.995	100.239	20.030	5.856	1.055
160.001	218.330	79.995	19.994	100.375	20.033	5.644	1.026
164.001	222.513	79.993	19.995	100.289	20.032	5.727	1.036
168.001	226.622	79.994	19.996	100.279	20.039	5.254	1.031
172.000	230.788	79.993	19.996	100.280	20.037	5.389	1.029
176.000	234.912	79.993	19.996	100.203	20.041	5.158	1.043
180.001	239.064	79.995	19.995	100.275	20.048	4.670	1.021
184.000	243.182	79.995	19.995	100.270	20.052	4.415	1.047
188.000	247.256	79.993	19.996	100.247	20.053	4.355	1.018
192.000	251.352	79.994	19.995	100.246	20.053	4.349	1.034
196.000	255.392	79.993	19.994	100.250	20.054	4.303	1.039
200.001	259.380	79.992	19.995	100.246	20.057	4.130	1.008
204.000	263.284	79.992	19.995	100.235	20.056	4.204	0.982
208.000	267.275	79.993	19.996	100.244	20.056	4.170	1.002
212.000	271.261	79.995	19.996	100.246	20.055	4.225	1.000
216.001	275.215	79.994	19.995	100.244	20.058	4.051	1.014
220.000	279.192	79.993	19.995	100.243	20.058	4.071	1.029
224.000	283.074	79.993	19.995	100.244	20.052	4.463	0.990
228.000	286.980	79.993	19.996	100.220	20.056	4.171	0.961
232.000	290.915	79.995	19.997	100.243	20.057	4.133	0.968
236.001	294.914	79.996	19.997	100.240	20.055	4.233	0.987
240.000	298.833	79.996	19.996	100.236	20.057	4.102	0.966
244.000	302.803	79.993	19.994	100.238	20.055	4.278	0.992
248.001	306.747	79.991	19.995	100.231	20.053	4.380	0.983
252.000	310.729	79.993	19.997	100.235	20.054	4.307	0.994
256.000	314.755	79.993	19.995	100.221	20.055	4.273	1.000
260.000	318.763	79.993	19.996	100.236	20.054	4.290	1.023
264.000	322.751	79.995	19.995	100.226	20.050	4.598	1.030
268.000	326.789	79.994	19.995	100.211	20.048	4.695	1.018
272.000	330.829	79.995	19.996	100.216	20.046	4.797	1.010
276.000	334.893	79.994	19.996	100.219	20.048	4.722	1.029
280.000	338.933	79.992	19.995	100.217	20.046	4.794	1.024
284.000	342.952	79.994	19.995	100.210	20.045	4.904	1.012
288.000	347.006	79.996	19.996	100.210	20.045	4.909	1.022
292.001	351.062	79.995	19.996	100.207	20.044	4.940	1.007
296.000	355.182	79.992	19.996	100.203	20.039	5.287	1.018
300.000	359.207	79.995	19.996	100.211	20.035	5.540	0.999
304.001	363.301	79.994	19.996	100.211	20.031	5.752	1.024
308.000	367.401	79.994	19.996	100.207	20.024	6.234	1.046
312.000	371.462	79.996	19.995	100.208	20.011	7.027	1.012
316.000	375.544	79.997	19.996	100.203	19.997	7.894	1.026
320.000	379.602	79.995	19.997	100.212	19.982	8.882	0.972
324.000	383.709	79.993	19.996	100.229	19.957	10.438	1.030
328.000	387.732	79.993	19.995	100.231	19.932	12.044	1.040
332.000	391.832	79.994	19.995	100.248	19.900	14.045	1.019
336.000	395.968	79.993	19.996	100.263	19.856	16.857	1.044
340.000	400.049	79.994	19.996	100.288	19.782	21.561	1.033
344.000	404.057	79.993	19.995	100.333	19.681	28.012	0.998
348.000	408.119	79.995	19.995	100.385	19.544	36.721	1.018
352.000	412.175	79.992	19.995	100.444	19.384	46.881	0.985
356.000	416.316	79.993	19.996	100.484	19.194	58.923	1.040
360.000	420.475	79.994	19.996	100.550	18.974	73.135	1.045
364.000	424.593	79.994	19.996	100.533	18.804	84.023	1.026
368.000	428.735	79.998	19.995	100.633	18.600	97.164	1.020
372.000	432.889	79.994	19.995	100.873	18.244	120.127	1.015
376.001	437.005	79.995	19.996	100.966	17.814	148.256	1.050
380.000	441.078	79.995	19.996	101.070	17.287	181.576	1.015
384.000	445.116	79.994	19.996	101.453	16.426	237.070	1.037
388.000	449.133	79.996	19.995	101.659	15.700	284.637	1.013
392.000	453.132	79.996	19.995	101.083	15.361	306.192	1.001
396.000	457.157	79.998	19.996	101.780	15.165	318.483	1.011
400.000	461.122	79.995	19.996	101.927	15.086	323.103	0.994
404.000	465.110	79.993	19.996	101.764	15.202	315.159	0.971
408.000	469.102	79.992	19.996	101.669	15.555	292.141	0.961
412.000	473.085	79.993	19.997	101.556	16.099	256.863	0.973
416.000	477.135	79.994	19.996	101.382	16.768	213.874	0.980
420.000	481.138	79.994	19.995	101.226	17.452	169.956	0.977
424.000	485.136	79.995	19.995	101.053	18.077	129.955	0.988
428.000	489.194	79.992	19.996	100.902	18.598	96.701	1.018
432.000	493.231	79.995	19.994	100.723	19.015	70.220	0.997
436.000	497.322	79.996	19.996	100.574	19.329	50.271	1.027
440.000	501.354	79.995	19.996	100.454	19.558	35.718	1.025
444.000	505.438	79.996	19.995	100.358	19.715	25.760	1.026
448.000	509.492	79.996	19.995	100.307	19.823	18.956	1.048
452.000	513.505	79.996	19.995	100.242	19.889	14.732	1.013
456.000	517.604	79.996	19.995	100.212	19.938	11.657	1.034
460.000	521.702	79.994	19.995	100.192	19.965	9.940	1.001
464.000	525.819	79.995	19.995	100.168	19.978	9.091	1.053
468.000	529.920	79.994	19.996	100.169	19.987	8.524	1.002
472.000	534.004	79.997	19.996	100.166	19.997	7.904	1.015
476.000	538.136	79.997	19.995	100.165	19.999	7.783	1.004
480.000	542.163	79.997	19.995	100.121	19.997	7.928	0.958
484.000	546.209	79.998	19.995	100.230	20.000	7.740	0.770
488.000	550.490	79.994	19.997	100.154	20.002	7.621	1.100
492.000	554.498	79.995	19.996	100.160	20.002	7.578	0.960
496.000	558.611	79.995	19.996	100.162	20.000	7.732	1.016
500.000	562.690	79.993	19.997	100.148	20.003	7.515	1.041
504.000	566.757	79.994	19.996	100.155	19.999	7.786	0.981
508.000	570.868	79.994	19.996	100.160	19.997	7.892	1.022
512.000	575.009	79.994	19.996	100.155	19.999	7.768	1.054
516.001	579.109	79.995	19.994	100.151	19.997	7.896	1.055
520.000	583.171	79.994	19.995	100.136	19.997	7.896	0.996
524.000	587.216	79.997	19.997	100.156	19.997	7.890	1.019
528.000	591.346	79.996	19.996	100.141	19.986	8.604	1.022
532.000	595.411	79.995	19.996	100.151	19.994	8.082	0.988
536.000	599.457	79.995	19.996	100.149	19.994	8.107	0.988
540.000	603.529	79.994	19.995	100.140	19.994	8.102	1.003
544.000	607.585	79.995	19.996	100.132	19.991	8.267	1.082
548.000	611.637	79.996	19.995	100.131	19.992	8.221	1.008
552.000	615.729	79.996	19.995	100.140	19.989	8.423	1.041
556.000	619.811	79.996	19.995	100.135	19.988	8.499	1.051
560.000	623.859	79.995	19.995	100.142	19.992	8.247	1.021
564.000	627.966	79.995	19.996	100.140	19.991	8.274	1.055
568.000	632.057	79.994	19.997	100.133	19.990	8.385	1.169
572.000	636.160	79.996	19.996	100.140	19.989	8.421	1.029
576.000	640.219	79.995	19.995	100.132	19.993	8.190	1.023
580.000	644.248	79.992	19.996	100.134	19.991	8.292	1.014
584.000	648.311	79.994	19.995	100.140	19.997	7.935	1.027
588.000	652.402	79.993	19.997	100.124	20.002	7.614	1.005
592.000	656.502	79.994	19.996	100.125	20.005	7.414	1.000
596.000	660.572	79.994	19.994	100.114	20.010	7.114	1.023
600.000	664.639	79.993	19.996	100.126	20.011	7.048	0.995
604.000	668.624	79.994	19.996	100.128	20.013	6.878	0.958
608.000	672.704	79.997	19.996	100.113	20.018	6.591	1.016
612.000	676.775	79.997	19.996	100.122	20.022	6.353	1.008
616.000	680.818	79.997	19.995	100.117	20.021	6.395	0.994
620.000	684.827	79.995	19.997	100.093	20.025	6.134	1.011
624.000	688.913	79.996	19.996	100.118	20.029	5.867	1.028
628.000	692.932	79.997	19.996	100.107	20.028	5.924	1.023
632.000	696.876	79.997	19.995	100.099	20.032	5.675	0.963
636.000	700.992	79.998	19.995	100.102	20.036	5.415	1.123
640.000	705.014	79.996	19.995	100.108	20.033	5.621	1.019
644.000	709.032	79.994	19.996	100.098	20.034	5.558	1.010
648.000	713.135	79.994	19.996	100.090	20.036	5.420	1.039
652.000	717.208	79.993	19.996	100.095	20.041	5.127	1.031
656.000	721.245	79.993	19.995	100.089	20.041	5.110	1.003
660.000	725.254	79.995	19.995	100.094	20.040	5.170	1.027
664.000	729.310	79.993	19.996	100.091	20.040	5.193	1.012
668.000	733.334	79.993	19.997	100.093	20.042	5.066	0.998
672.000	737.324	79.994	19.996	100.085	20.037	5.394	1.010