File: 01_Data/Polyester_Felt/MCC/Polyester_Felt_MCC_30K_min_210709_R2.txt
Sample ID:	C:\MCC\MCC Cal\Test\Polyester_Felt\Polyester_Felt_MCC_30K_min_21_07_09_R2.txt
Sample Weight (mg):	5.01
Heating Rate (C/s):	1
Combustor Temp (C):	900
N2 Flow Rate (cc/min):	80
O2 Flow Rate (cc/min):	20
Calibration File:	C:\MCC\MCC Cal\Coeff1 JN10440_30_210304.txt.txt
T Correction Coefficients:	0	1.024463	0
Time Shift (s):	14
*
Time (s)	Temperature (C)	N2 flow rate (cc/min)	O2 flow rate (cc/min)	Flow Rate (cc/min)	Oxygen (%)	HRR (W/g)	Heating rate (C/s)
0.000	107.164	79.994	19.996	99.974	20.038	0.241	-0.003
4.000	107.179	79.995	19.997	99.976	20.038	0.236	-0.001
8.000	107.132	79.995	19.996	99.986	20.037	0.315	-0.002
12.000	107.167	79.994	19.995	100.095	20.021	1.305	0.022
16.000	107.306	79.997	19.995	100.202	20.003	2.409	0.056
20.000	107.646	79.995	19.994	100.287	19.988	3.368	0.130
24.000	108.218	79.992	19.996	100.321	19.975	4.173	0.184
28.000	109.093	79.991	19.996	100.332	19.972	4.373	0.258
32.000	110.177	79.997	19.996	100.365	19.968	4.616	0.291
36.001	111.443	79.997	19.995	100.368	19.962	4.979	0.346
40.000	112.940	79.995	19.996	100.379	19.962	5.022	0.383
44.001	114.618	79.995	19.996	100.385	19.960	5.111	0.431
48.001	116.476	79.997	19.996	100.405	19.957	5.288	0.489
52.001	118.480	79.995	19.997	100.404	19.954	5.522	0.495
56.001	120.655	79.995	19.997	100.400	19.955	5.448	0.549
60.000	122.993	79.992	19.995	100.399	19.956	5.383	0.598
64.000	125.430	79.997	19.996	100.401	19.954	5.504	0.648
68.001	127.978	79.998	19.995	100.408	19.949	5.810	0.653
72.000	130.657	79.997	19.995	100.402	19.950	5.754	0.652
76.000	133.490	79.996	19.995	100.402	19.945	6.037	0.720
80.000	136.338	79.995	19.995	100.407	19.949	5.782	0.719
84.000	139.358	79.994	19.995	100.418	19.949	5.812	0.794
88.001	142.406	79.994	19.995	100.417	19.943	6.173	0.766
92.000	145.628	79.995	19.995	100.374	19.948	5.899	0.789
96.000	148.799	79.996	19.995	100.489	19.951	5.685	0.814
100.000	152.160	79.995	19.995	100.411	19.951	5.656	0.841
104.001	155.571	79.994	19.996	100.409	19.947	5.963	0.849
108.001	159.011	79.994	19.996	100.412	19.944	6.129	0.904
112.000	162.557	79.991	19.995	100.419	19.946	5.970	0.900
116.000	166.087	79.996	19.997	100.414	19.943	6.186	0.878
120.001	169.787	79.993	19.996	100.407	19.939	6.460	0.910
124.000	173.524	79.997	19.996	100.402	19.943	6.207	0.925
128.000	177.254	79.998	19.996	100.400	19.940	6.347	0.948
132.000	181.070	79.996	19.997	100.398	19.941	6.308	0.963
136.000	184.951	79.996	19.997	100.395	19.945	6.035	0.951
140.000	188.934	79.994	19.996	100.393	19.948	5.891	0.984
144.000	192.892	79.995	19.996	100.389	19.949	5.827	0.958
148.000	196.851	79.996	19.997	100.368	19.950	5.730	1.000
152.000	200.895	79.997	19.996	100.363	19.948	5.876	0.992
156.000	204.943	79.996	19.996	100.360	19.951	5.699	0.988
160.001	209.039	79.995	19.996	100.362	19.952	5.593	1.018
164.000	213.087	79.995	19.996	100.363	19.950	5.765	0.996
168.000	217.185	79.995	19.995	100.352	19.955	5.406	1.024
172.000	221.239	79.993	19.996	100.346	19.955	5.416	1.020
176.000	225.360	79.995	19.995	100.333	19.951	5.669	1.023
180.000	229.460	79.994	19.995	100.328	19.958	5.270	1.049
184.001	233.525	79.996	19.995	100.325	19.960	5.122	1.027
188.000	237.661	79.996	19.995	100.322	19.963	4.951	1.025
192.000	241.704	79.994	19.996	100.319	19.967	4.678	0.988
196.000	245.796	79.995	19.996	100.318	19.969	4.539	1.021
200.000	249.922	79.997	19.996	100.308	19.966	4.724	1.048
204.000	253.957	79.997	19.996	100.290	19.971	4.428	1.014
208.000	257.924	79.997	19.996	100.296	19.972	4.334	1.004
212.000	261.875	79.995	19.995	100.283	19.976	4.144	0.959
216.000	265.906	79.996	19.996	100.283	19.978	4.013	0.998
220.000	269.844	79.996	19.996	100.282	19.976	4.085	0.966
224.000	273.832	79.997	19.996	100.278	19.975	4.204	0.930
228.000	277.844	79.997	19.996	100.283	19.984	3.593	1.001
232.000	281.754	79.997	19.997	100.270	19.979	3.953	0.952
236.000	285.735	79.995	19.996	100.272	19.977	4.031	0.996
240.000	289.665	79.993	19.995	100.276	19.979	3.909	0.998
244.000	293.622	79.995	19.996	100.274	19.981	3.801	0.981
248.000	297.589	79.995	19.995	100.275	19.977	4.029	0.994
252.001	301.470	79.995	19.995	100.264	19.978	4.003	0.974
256.001	305.455	79.996	19.996	100.265	19.975	4.166	1.001
260.000	309.405	79.995	19.995	100.264	19.973	4.321	0.994
264.000	313.430	79.994	19.995	100.249	19.976	4.090	1.045
268.000	317.394	79.995	19.996	100.246	19.974	4.246	0.998
272.001	321.402	79.994	19.996	100.249	19.973	4.292	1.037
276.000	325.376	79.995	19.996	100.246	19.972	4.341	0.966
280.000	329.342	79.995	19.995	100.250	19.971	4.455	1.002
284.000	333.326	79.998	19.996	100.248	19.968	4.643	0.998
288.000	337.346	79.998	19.995	100.245	19.972	4.356	0.981
292.001	341.384	79.996	19.995	100.245	19.964	4.883	1.004
296.000	345.408	79.997	19.997	100.243	19.964	4.867	1.002
300.001	349.459	79.995	19.996	100.247	19.966	4.727	1.041
304.001	353.521	79.997	19.996	100.246	19.955	5.453	1.032
308.000	357.569	79.999	19.995	100.237	19.951	5.645	1.042
312.000	361.608	79.998	19.996	100.235	19.948	5.866	1.005
316.000	365.575	79.996	19.996	100.241	19.942	6.228	1.029
320.000	369.744	79.995	19.997	100.243	19.936	6.639	1.166
324.001	373.668	79.993	19.997	100.250	19.918	7.736	0.851
328.001	377.702	79.995	19.996	100.247	19.901	8.825	0.961
332.000	381.825	79.995	19.996	100.256	19.881	10.066	1.004
336.000	385.830	79.995	19.996	100.267	19.851	11.917	0.990
340.000	389.872	79.995	19.997	100.263	19.812	14.350	0.997
344.000	394.029	79.995	19.997	100.286	19.771	16.937	1.039
348.000	398.119	79.994	19.996	100.316	19.701	21.323	0.996
352.000	402.193	79.995	19.996	100.349	19.618	26.508	0.982
356.000	406.318	79.993	19.996	100.406	19.496	34.215	1.040
360.001	410.416	79.994	19.995	100.461	19.320	45.225	1.035
364.000	414.487	79.996	19.997	100.495	19.138	56.577	1.043
368.001	418.631	79.997	19.995	100.580	18.914	70.828	1.046
372.000	422.778	79.998	19.996	100.550	18.760	80.567	1.011
376.000	426.947	79.996	19.996	100.629	18.564	93.042	1.043
380.000	431.098	79.997	19.996	100.876	18.264	112.141	1.021
384.000	435.240	79.998	19.996	100.962	17.857	138.092	1.003
388.001	439.334	80.000	19.997	101.157	17.312	172.637	1.018
392.000	443.395	79.997	19.996	101.355	16.636	215.279	0.997
396.000	447.303	79.996	19.996	101.510	15.915	261.703	0.995
400.000	451.317	79.995	19.997	101.528	15.458	290.863	1.028
404.000	455.327	79.995	19.996	101.533	15.202	306.776	1.003
408.001	459.344	79.996	19.997	101.921	15.067	314.897	1.015
412.001	463.414	79.996	19.997	101.860	15.118	311.195	1.016
416.000	467.472	79.995	19.996	101.755	15.409	292.323	1.036
420.000	471.611	79.995	19.997	101.609	15.939	258.517	1.040
424.000	475.750	79.995	19.995	101.435	16.636	214.238	1.062
428.000	479.889	79.995	19.996	101.286	17.353	168.815	1.029
432.000	484.079	79.995	19.996	101.135	18.006	127.629	1.060
436.001	488.265	79.995	19.995	100.967	18.545	93.741	1.060
440.001	492.428	79.997	19.996	100.783	18.966	67.274	1.054
444.000	496.579	79.997	19.995	100.630	19.275	47.893	1.017
448.000	500.749	79.999	19.996	100.499	19.499	33.910	1.045
452.001	504.822	79.996	19.995	100.400	19.651	24.417	1.031
456.000	508.903	79.997	19.996	100.324	19.752	18.102	1.017
460.000	513.011	79.997	19.996	100.271	19.823	13.660	1.021
464.000	517.090	79.997	19.995	100.238	19.864	11.076	1.013
468.001	521.189	79.998	19.996	100.207	19.893	9.295	1.034
472.000	525.223	79.997	19.995	100.203	19.907	8.420	1.020
476.000	529.294	79.996	19.996	100.174	19.918	7.740	1.001
480.000	533.337	79.995	19.996	100.189	19.927	7.167	0.995
484.001	537.422	79.993	19.996	100.191	19.928	7.118	1.005
488.001	541.445	79.994	19.996	100.174	19.933	6.800	1.019
492.000	545.478	79.994	19.995	100.171	19.931	6.890	1.016
496.001	549.558	79.995	19.997	100.175	19.933	6.799	1.030
500.001	553.549	79.995	19.996	100.167	19.931	6.896	1.012
504.001	557.602	79.995	19.997	100.162	19.932	6.824	0.986
508.001	561.645	79.995	19.997	100.172	19.935	6.668	1.034
512.000	565.659	79.995	19.996	100.168	19.933	6.780	0.979
516.000	569.759	79.995	19.995	100.165	19.934	6.756	1.043
520.000	573.796	79.995	19.996	100.167	19.932	6.839	1.050
524.000	577.905	79.997	19.997	100.164	19.938	6.498	0.997
528.000	581.920	79.997	19.997	100.165	19.934	6.727	1.021
532.000	585.939	79.998	19.996	100.161	19.932	6.882	0.989
536.000	589.984	79.995	19.996	100.167	19.934	6.714	1.024
540.000	594.001	79.997	19.995	100.166	19.928	7.126	1.014
544.000	598.116	79.996	19.995	100.163	19.924	7.350	1.026
548.000	602.146	79.997	19.994	100.165	19.923	7.417	0.972
552.000	606.226	79.998	19.995	100.166	19.926	7.220	1.025
556.000	610.277	79.996	19.996	100.161	19.920	7.620	1.006
560.000	614.409	79.995	19.996	100.165	19.918	7.714	1.049
564.000	618.493	79.994	19.996	100.155	19.916	7.848	1.030
568.000	622.707	79.996	19.997	100.152	19.918	7.701	1.077
572.000	626.794	79.995	19.995	100.163	19.915	7.911	1.033
576.000	630.909	79.995	19.997	100.139	19.913	8.022	1.025
580.000	635.084	79.995	19.996	100.150	19.916	7.873	1.042
584.000	639.289	79.995	19.997	100.145	19.918	7.740	1.065
588.000	643.446	79.993	19.997	100.148	19.914	7.951	1.067
592.000	647.501	79.992	19.997	100.132	19.920	7.570	1.026
596.000	651.663	79.996	19.997	100.133	19.925	7.270	1.033
600.000	655.834	79.996	19.995	100.133	19.924	7.372	1.032
604.000	659.971	79.996	19.995	100.120	19.929	7.063	1.034
608.000	664.045	79.996	19.996	100.125	19.934	6.750	1.022
612.000	668.087	79.996	19.996	100.129	19.933	6.799	1.017
616.000	672.209	79.995	19.995	100.130	19.943	6.167	1.040
620.000	676.267	79.995	19.995	100.114	19.948	5.876	1.049
624.000	680.318	79.997	19.995	100.114	19.952	5.575	1.019
628.000	684.215	79.997	19.995	100.104	19.952	5.616	0.971
632.000	688.182	79.998	19.996	100.109	19.952	5.620	0.985
636.000	692.084	79.997	19.995	100.091	19.952	5.608	0.976
640.000	696.057	79.995	19.996	100.104	19.955	5.412	0.967
644.000	699.997	79.995	19.996	100.111	19.962	4.982	0.980
648.000	703.973	79.995	19.996	100.104	19.960	5.097	1.012
652.000	707.933	79.995	19.997	100.091	19.969	4.554	1.010
656.001	711.930	79.995	19.997	100.099	19.965	4.763	1.000
660.000	716.018	79.996	19.996	100.113	19.968	4.583	1.055
664.000	720.082	79.995	19.995	100.116	19.967	4.656	1.022
668.000	724.156	79.994	19.996	100.097	19.963	4.915	1.002
672.000	728.283	79.994	19.997	100.104	19.967	4.654	1.012
676.000	732.344	79.993	19.995	100.099	19.967	4.647	1.031
680.000	736.394	79.997	19.997	100.092	19.964	4.844	1.025
683.500	740.041	79.996	19.996	100.093	19.965	4.772	1.021