File: 01_Data/Wood_Stud/HFM/Wood_Stud_Density_Wet_R2.csv
,Wood_Stud_WET_2
Sample Mass [g],322.7
Sample Volume [cm3],873.3
Sample Density [kg/m3],370