File: 01_Data/Wood_Stud/HFM/Wood_Stud_Ignition_Temp_Properties.csv
Thermal Conductivity (W/m-K),0.1
Heat Capacity (J/kg-K),1242.0
Density (kg/m3),379.0