File: 01_Data/Wood_Stud/HFM/Wood_Stud_Density_Wet_R3.csv
,Wood_Stud_WET_3
Sample Mass [g],356.1
Sample Volume [cm3],872.4
Sample Density [kg/m3],408