File: 01_Data/Wood_Stud/HFM/Wood_Stud_Density_Wet_R1.csv
,Wood_Stud_WET_1
Sample Mass [g],316.2
Sample Volume [cm3],880.2
Sample Density [kg/m3],359