File: 01_Data/Face_Shield/Cone/Face_Shield_Cone_HF100-FrameScalar_201103_R1.csv
LABORATORY,FSRI
TEST IDENT,FaceShield_HF100_1
OPERATOR,Dow
MATERIAL,Phoenix Arizona Face Shield
ORIENTATION,Horizontal
HEAT FLUX,100
SURF AREA,0.01
C FACTOR,0.0377677
SPEC HOLDER DIFF,332.67
SPECIMEN MASS,55.22
SCAN TIME,0.25
O2 DELAY TIME,11
CO DELAY TIME,11
CO2 DELAY TIME,8
FLOW FACTOR,1
SCAN COUNT,755
TIME TO IGN,23.25
END OF TEST SCAN,275
END OF TEST TIME,68.75
TEST STATUS,1
,
POST TEST CMT,Sample removed 10 seconds after ignition