File: 01_Data/Face_Shield/Cone/Face_Shield_Cone_HF75-Frame+GridScan_201103_R1.csv
Names,Time,Stack TC,Smoke TC,Exh Press,Smoke Comp,Smoke Meas,CO Meter,CO2 Meter,O2 Meter,Sample Mass,Ext Coeff,Start Test,Flame Verif
Chan Gain,,500,500,1,1,1,1,1,1,1,1,1.0,1.0
Offset,,0,0,0.134413,0,0,0,0,0,0,0,0.0,0.0
Gain,,1,1,25.011,13.8462,17.0661,1,1,1,1.0009,1.04998,1.0,1.0
Units,sec,C,C,Pa,%,%,%,%,%,g,/m,,
Baseline,,32.824,36.8027,178.407,102.027,103.975,0.00344721,0.0697762,20.9964,-937.802,-0.174101,,
8,1.75,30.9041,34.2006,176.084,102.509,104.045,0.00338261,0.0778354,20.9883,64.8981,-0.136975,0.0,0.0
16,3.75,31.2196,34.1968,179.442,102.536,104.793,0.0034552,0.0771217,20.9885,64.8581,-0.200469,0.0,0.0
24,5.75,31.1419,34.6388,179.743,102.554,104.351,0.00346523,0.0759656,20.9897,64.8681,-0.159975,0.0,0.0
32,7.75,31.6396,34.7984,171.447,102.578,103.896,0.00340215,0.0745536,20.9909,64.8581,-0.117593,0.0,0.0
40,9.75,31.6242,35.0361,179.401,102.582,104.354,0.00328427,0.0733515,20.9925,64.8181,-0.157701,0.0,0.0
48,11.75,32.0593,35.0703,178.126,102.562,104.512,0.00325763,0.0729394,20.993,64.8481,-0.173447,0.0,0.0
56,13.75,32.1372,35.1206,176.997,102.56,103.959,0.00332311,0.0739089,20.9923,64.8281,-0.124848,0.0,0.0
64,15.75,32.1984,35.9421,180.179,102.531,104.197,0.00331491,0.0756297,20.9918,64.8681,-0.148529,0.0,0.0
72,17.75,31.9907,35.7077,177.315,102.503,104.02,0.00312272,0.0785707,20.9895,64.8281,-0.135285,0.0,0.0
80,19.75,32.1782,35.4777,178.643,102.455,104.676,0.00299157,0.0839883,20.983,64.8281,-0.1975,0.0,0.0
88,21.75,32.5365,36.2338,174.895,102.399,103.974,0.00302049,0.0889676,20.9785,64.798,-0.140609,0.0,0.0
96,23.75,32.5427,36.481,178.371,102.342,103.843,0.00308378,0.0892693,20.9771,64.778,-0.134154,0.0,0.0
104,25.75,32.4332,36.1001,176.02,102.265,104.708,0.00309049,0.0868427,20.9783,64.788,-0.217405,0.0,0.0
112,27.75,32.372,36.6079,179.998,102.179,104.004,0.00313422,0.0842842,20.9804,64.768,-0.163069,0.0,0.0
120,29.75,32.9164,36.6636,180.425,102.103,103.887,0.00324605,0.0821862,20.9828,64.778,-0.159545,0.0,0.0
128,31.75,32.4907,36.6725,179.514,101.988,103.89,0.00332442,0.0809759,20.9841,64.798,-0.170188,0.0,0.0
136,33.75,32.6249,36.5701,180.196,101.879,104.021,0.00331231,0.0799266,20.9851,64.778,-0.19159,0.0,0.0
144,35.75,32.7684,36.7583,176.295,101.813,104.072,0.00335981,0.0787242,20.9864,64.758,-0.202107,0.0,0.0
152,37.75,32.8136,37.0109,177.892,101.839,103.503,0.00352781,0.0776571,20.987,64.758,-0.149258,0.0,0.0
160,39.75,33.2458,37.507,179.995,101.871,103.005,0.00371196,0.0771177,20.9873,64.778,-0.101988,0.0,0.0
168,41.75,33.0931,37.1759,178.908,101.911,103.838,0.00391569,0.0775627,20.9867,64.768,-0.172487,0.0,0.0
176,43.75,33.4189,37.5707,178.982,101.971,102.812,0.00408773,0.0797493,20.9854,64.748,-0.0756057,0.0,0.0
184,45.75,32.7654,37.5993,177.615,102.015,102.529,0.00425909,0.0821105,20.983,64.728,-0.0462679,0.0,0.0
192,47.75,32.9742,37.3064,173.45,102.075,101.114,0.00448047,0.0850932,20.9788,64.718,0.0870751,0.0,1.0
200,49.75,33.511,37.5818,175.328,102.115,100.138,0.00480214,0.0893214,20.975,64.728,0.180071,0.0,1.0
208,51.75,33.3556,37.3892,181.909,102.154,99.4522,0.00530792,0.0989581,20.9638,64.8481,0.246882,0.0,1.0
216,53.75,33.6166,38.112,174.11,102.202,91.0077,0.00593832,0.136301,20.9179,64.5879,1.06849,0.0,0.0
224,55.75,34.6441,40.2712,173.073,102.247,88.9634,0.00665683,0.174512,20.8698,64.5078,1.28173,0.0,0.0
232,57.75,35.4444,41.3321,173.578,102.281,83.5751,0.00716559,0.21516,20.8358,64.3476,1.86028,0.0,0.0
240,59.75,37.1877,43.7128,185.585,102.323,101.608,0.00703477,0.22178,20.8267,64.3777,0.0645172,0.0,0.0
248,61.75,36.2021,41.7333,181.321,102.364,103.056,0.00657874,0.179586,20.8618,-937.8,-0.0620271,0.0,0.0
256,63.75,34.9924,40.1068,176.408,102.395,104.014,0.00599479,0.141947,20.9017,-937.58,-0.144465,0.0,0.0
264,65.75,33.7592,38.5618,181.978,102.436,104.073,0.00520179,0.116782,20.9342,-937.81,-0.146073,0.0,0.0
272,67.75,33.7269,37.9565,174.966,102.457,103.602,0.0045108,0.0993778,20.9597,-937.84,-0.102366,0.0,0.0
280,69.75,33.5227,37.6996,177.289,102.476,104.184,0.00393799,0.0885088,20.9741,-937.86,-0.152315,0.0,0.0
288,71.75,33.6155,37.5102,177.521,102.487,104.268,0.0036144,0.0813508,20.9833,-937.84,-0.158691,0.0,0.0
296,73.75,32.8209,37.5049,179.698,102.509,104.602,0.00348418,0.0767628,20.9898,-937.86,-0.186159,0.0,0.0
304,75.75,32.741,37.2583,175.818,102.522,104.34,0.00337095,0.0738613,20.9933,-937.85,-0.161857,0.0,0.0
312,77.75,33.1088,37.0141,177.663,102.526,104.862,0.00327019,0.0717407,20.9949,-937.86,-0.207512,0.0,0.0
320,79.75,32.4821,36.687,181.452,102.538,103.969,0.00318064,0.0703446,20.9969,-937.86,-0.127652,0.0,0.0
328,81.75,32.965,36.2495,176.568,102.544,104.485,0.00307708,0.069365,20.9977,-937.84,-0.172777,0.0,0.0
336,83.75,32.9462,36.7322,181.719,102.544,104.424,0.00305993,0.0687282,20.9985,-937.85,-0.167404,0.0,0.0
344,85.75,32.6371,37.3192,181.379,102.542,104.308,0.00313286,0.0680352,20.9993,-937.86,-0.157343,0.0,0.0
352,87.75,32.7483,36.5054,178.534,102.534,104.12,0.00330456,0.067533,20.9987,-937.88,-0.141326,0.0,0.0
360,89.75,31.7873,35.8476,180.815,102.509,104.933,0.00344182,0.0670896,20.9996,-937.89,-0.215325,0.0,0.0
368,91.75,32.3628,36.3529,175.786,102.503,104.432,0.00344097,0.0666618,21.0002,-937.87,-0.171729,0.0,0.0
376,93.75,32.0608,35.7259,177.531,102.479,103.948,0.00330541,0.0664966,21,-937.88,-0.131092,0.0,0.0
384,95.75,32.3639,36.3302,177.286,102.451,104.996,0.0032549,0.0664737,20.9999,-937.84,-0.225982,0.0,0.0
392,97.75,31.9105,35.494,178.317,102.419,104.829,0.00328037,0.0665167,20.9998,-937.84,-0.214223,0.0,0.0
400,99.75,32.4193,35.8013,178.376,102.381,104.408,0.0032988,0.0665306,20.9998,-937.87,-0.180602,0.0,0.0
408,101.75,31.6945,35.8435,171.974,102.337,104.855,0.00328395,0.0664669,20.9998,-937.86,-0.223931,0.0,0.0
416,103.75,31.9255,35.8992,180.787,102.275,104.622,0.00324462,0.0663778,21.0001,-937.88,-0.208967,0.0,0.0
424,105.75,32.3506,35.9013,176.43,102.22,103.952,0.00324058,0.0664137,21.0004,-937.88,-0.154754,0.0,0.0
432,107.75,32.2001,35.3539,181.262,102.173,104.043,0.00323795,0.0666344,21.0005,-937.9,-0.167023,0.0,0.0
440,109.75,31.9583,35.7003,173.169,102.092,104.18,0.00323373,0.0667703,21.0009,-937.88,-0.186411,0.0,0.0
448,111.75,32.015,35.8047,172.528,102.029,103.828,0.00329763,0.0668102,21.0015,-937.86,-0.160914,0.0,0.0
456,113.75,31.7706,36.0201,174.763,101.971,104.119,0.00331783,0.0668537,21.0018,-937.88,-0.192016,0.0,0.0
464,115.75,31.6624,36.0326,174.832,101.873,103.999,0.00324335,0.0670658,21.0019,-937.87,-0.190273,0.0,0.0
472,117.75,32.0861,35.7665,173.895,101.806,103.573,0.00315632,0.0674636,21.0006,-937.85,-0.158541,0.0,0.0
480,119.75,31.8937,35.3037,177.876,101.704,103.738,0.00310581,0.0677099,21.0001,-937.9,-0.182344,0.0,0.0
488,121.75,32.39,35.7943,174.553,101.64,103.483,0.00306344,0.0678254,20.9998,-937.87,-0.165561,0.0,0.0
496,123.75,32.3084,36.1165,180.564,101.547,104.262,0.00303814,0.0681331,20.9997,-937.88,-0.24303,0.0,0.0
504,125.75,32.2914,35.8348,175.987,101.459,102.883,0.00309297,0.0687531,20.9991,-937.86,-0.128323,0.0,0.0
512,127.75,32.0755,36.141,175.259,101.378,102.95,0.0031931,0.0690359,20.9981,-937.83,-0.141703,0.0,0.0
520,129.75,31.8151,36.333,179.872,101.293,103.253,0.00331495,0.0689734,20.9977,-937.86,-0.176502,0.0,0.0
528,131.75,31.9273,34.8855,181.787,101.2,102.947,0.00346467,0.0686955,20.9975,-937.86,-0.157639,0.0,0.0
536,133.75,31.9439,35.248,175.503,101.116,103.504,0.00356301,0.0685309,20.9982,-937.84,-0.21498,0.0,0.0
544,135.75,32.0325,36.0339,175.023,101.024,103.435,0.00360496,0.0685417,20.9986,-937.87,-0.217293,0.0,0.0
552,137.75,31.7291,35.5656,178.035,100.96,102.643,0.00362763,0.0685869,20.9988,-937.89,-0.152303,0.0,0.0
560,139.75,32.0619,35.3222,179.079,100.856,102.927,0.00363382,0.0685779,20.9989,-937.86,-0.18714,0.0,0.0
568,141.75,31.9053,35.4742,175.261,100.79,102.918,0.00350332,0.0682651,20.999,-937.89,-0.192369,0.0,0.0
576,143.75,31.9823,36.0846,179.44,100.692,102.03,0.00333458,0.0682091,20.999,-937.85,-0.121519,0.0,0.0
584,145.75,32.2006,35.7102,178.146,100.633,102.353,0.00328692,0.0685817,20.999,-937.88,-0.156073,0.0,0.0
592,147.75,32.1953,35.8634,181.914,100.571,102.671,0.00333947,0.0687538,20.999,-937.89,-0.190359,0.0,0.0
600,149.75,31.6758,35.8106,180.546,100.517,102.195,0.00335766,0.0687309,20.999,-937.94,-0.152426,0.0,0.0
608,151.75,31.5338,34.8433,177.942,100.453,102.36,0.00330506,0.0684647,20.999,-937.9,-0.17318,0.0,0.0
616,153.75,31.9065,35.9284,179.727,100.412,102.041,0.00327979,0.0680515,20.999,-937.91,-0.148168,0.0,0.0
624,155.75,31.7325,35.3449,182.705,100.366,102.184,0.00332074,0.0678431,20.999,-937.89,-0.16535,0.0,0.0
632,157.75,32.4006,36.0681,176.97,100.334,102.386,0.00336546,0.0678285,20.9994,-937.9,-0.186541,0.0,0.0
640,159.75,31.3304,35.472,175.318,100.318,102.374,0.00323692,0.0678091,20.9995,-937.88,-0.18686,0.0,0.0
648,161.75,31.7066,36.0385,179.675,100.308,102.043,0.00310952,0.0676791,20.9996,-937.89,-0.157981,0.0,0.0
656,163.75,31.7682,35.1712,176.086,100.302,102.271,0.0031457,0.0675892,20.9996,-937.91,-0.179043,0.0,0.0
664,165.75,31.683,35.5049,177.718,100.305,102.615,0.00322676,0.0673849,20.9996,-937.91,-0.209685,0.0,0.0
672,167.75,31.889,35.5624,176.483,100.314,102.448,0.0032976,0.0672404,20.9996,-937.91,-0.193938,0.0,0.0
680,169.75,32.1127,35.8437,179.707,100.34,101.791,,0.0671342,,-937.91,-0.132213,0.0,0.0
688,171.75,31.9012,35.9589,173.589,100.377,102.283,,0.0670801,,-937.92,-0.173304,0.0,0.0
696,173.75,32.4275,35.8452,172.633,100.417,102.195,,,,-937.93,-0.161653,0.0,0.0
704,175.75,32.0599,35.5758,176.274,100.457,102.131,,,,-937.89,-0.152275,0.0,0.0
712,177.75,31.9102,35.9857,173.385,100.507,102.303,,,,-937.94,-0.163113,0.0,0.0
720,179.75,32.5184,35.8775,178.786,100.569,102.52,,,,-937.94,-0.176946,0.0,0.0
722,180.25,32.3285,35.5102,183.07,100.592,102.12,,,,-937.95,-0.138813,0.0,0.0