File: 01_Data/Face_Shield/Cone/Face_Shield_Cone_HF50-FrameScalar_201103_R1.csv
LABORATORY,FSRI
TEST IDENT,FaceShield_HF50_1
OPERATOR,Dow
MATERIAL,Phoenix Arizona Face Shield
ORIENTATION,Horizontal
HEAT FLUX,50
SURF AREA,0.01
C FACTOR,0.0377677
SPEC HOLDER DIFF,336.62
SPECIMEN MASS,56.66
SCAN TIME,0.25
O2 DELAY TIME,11
CO DELAY TIME,11
CO2 DELAY TIME,8
FLOW FACTOR,1
SCAN COUNT,935
TIME TO IGN,85
END OF TEST SCAN,455
END OF TEST TIME,113.75
TEST STATUS,1
,
POST TEST CMT,Sample removed about 13 seconds after igntion