File: 01_Data/Overstuffed_Chair_Polyester_Batting/Cone/Overstuffed_Chair_Polyester_Batting_Cone_HF25Scalar_210324_R3.csv
LABORATORY,FSRI
TEST IDENT,PEbat_H25_3
OPERATOR,Morrissey
MATERIAL,1.75'' PE Batting
ORIENTATION,Horizontal
HEAT FLUX,25
SURF AREA,0.01
C FACTOR,0.0386052
SPEC HOLDER DIFF,-98.3
SPECIMEN MASS,6.9
SCAN TIME,0.25
O2 DELAY TIME,11
CO DELAY TIME,11
CO2 DELAY TIME,8
FLOW FACTOR,1
SCAN COUNT,2450
TIME TO IGN,453.75
END OF TEST SCAN,1970
END OF TEST TIME,492.5
TEST STATUS,1
PRE TEST CMT,"Approximate thickness: 1.75 inches"
POST TEST CMT,"Two opposing corners of the foil pan lifted upwards during the test causing the melted sample mass to pool in a smaller area off-center."