File: 01_Data/Overstuffed_Chair_Polyester_Batting/Cone/Overstuffed_Chair_Polyester_Batting_Cone_HF50Scan_210326_R3.csv
Names,Time,Stack TC,Smoke TC,Exh Press,Smoke Comp,Smoke Meas,CO Meter,CO2 Meter,O2 Meter,Sample Mass,Ext Coeff,Start Test,Flame Verif
Chan Gain,,500,500,1,1,1,1,1,1,1,1,1.0,1.0
Offset,,0,0,0.138348,0,0,0,0,0,0,0,0.0,0.0
Gain,,1,1,25.011,13.5067,16.616,1,1,1,1.00091,1.04608,1.0,1.0
Units,sec,C,C,Pa,%,%,%,%,%,g,/m,,
Baseline,,32.8908,35.0408,162.304,102.46,99.5145,-0.00135926,0.0472212,20.9613,0.000792389,0.26771,,
9,2,30.7485,32.8474,159.861,102.455,99.6177,-0.00145769,0.0482555,20.9588,487.424,0.25767,0.0,0.0
18,4.25,30.8974,33.2798,162.452,102.441,99.2024,-0.00133615,0.04902,20.9578,487.404,0.294824,0.0,0.0
27,6.5,30.7451,32.9686,160.86,102.457,99.3094,-0.00124591,0.0501501,20.9524,487.374,0.286335,0.0,0.0
36,8.75,30.5409,32.9645,163.937,102.44,99.3556,-0.00113823,0.0513143,20.949,487.344,0.280559,0.0,0.0
45,11,30.9602,33.1698,159.952,102.439,99.7896,-0.00104182,0.0521427,20.9479,487.344,0.240485,0.0,0.0
54,13.25,31.2649,33.4061,159.302,102.418,100.245,-0.0010325,0.0527429,20.9482,487.334,0.196703,0.0,0.0
63,15.5,31.2416,33.5828,162.463,102.417,99.4073,-0.00109743,0.0533338,20.9483,487.314,0.273715,0.0,0.0
72,17.75,30.8884,34.0814,162.022,102.419,99.3424,-0.00114946,0.0539279,20.9484,487.314,0.279894,0.0,0.0
81,20,31.5416,33.9195,160.274,102.402,98.7521,-0.00123829,0.0547917,20.9463,487.314,0.333061,0.0,0.0
90,22.25,31.5417,33.6541,157.903,102.381,99.8936,-0.00131105,0.0559568,20.9457,487.324,0.225686,0.0,0.0
99,24.5,31.1386,34.2288,160.765,102.388,98.2324,-0.00122072,0.0574379,20.9436,487.314,0.38023,0.0,0.0
108,26.75,31.7781,33.848,162.699,102.369,97.6721,-0.00101531,0.0595008,20.943,487.294,0.430984,0.0,0.0
117,29,32.1876,34.6421,161.579,102.348,96.9373,-0.000797808,0.0611525,20.9435,487.264,0.498426,0.0,0.0
126,31.25,31.8587,34.3785,163.784,102.348,96.8009,-0.000494946,0.0617862,20.9445,487.224,0.511347,0.0,0.0
135,33.5,31.6758,34.6656,163.934,102.342,95.7102,-3.43047e-05,0.0618022,20.9448,487.203,0.614738,0.0,0.0
144,35.75,31.9377,34.9956,160.454,102.312,93.8527,0.000339425,0.0614304,20.9465,487.153,0.791869,0.0,0.0
153,38,32.0235,35.0378,161.098,102.292,92.8518,0.000720536,0.0607797,20.948,487.123,0.888523,0.0,0.0
162,40.25,32.0638,34.7916,162.674,102.287,92.2747,0.00106372,0.0603776,20.9485,487.053,0.945249,0.0,0.0
171,42.5,32.5961,35.9248,160.129,102.276,90.6571,0.00134216,0.06077,20.9488,487.003,1.10653,0.0,0.0
180,44.75,32.7467,36.0091,159.306,102.249,89.645,0.00179221,0.0611675,20.9497,486.913,1.20711,0.0,0.0
189,47,33.2692,35.9011,159.079,102.225,87.3555,0.00265307,0.0618106,20.9489,486.823,1.4424,0.0,0.0
198,49.25,33.4238,36.3937,160.382,102.233,87.6552,0.00433586,0.0705031,20.9252,486.643,1.41172,0.0,1.0
207,51.5,34.0215,38.9305,142.022,102.209,71.3389,0.00712942,0.131414,20.7939,486.092,3.29953,0.0,1.0
216,53.75,35.0588,40.6802,148.303,102.189,77.1602,0.0108487,0.230867,20.6274,485.772,2.57793,0.0,1.0
225,56,37.8412,44.5066,145.227,102.181,64.6151,0.0158992,0.339512,20.4653,485.242,4.20543,0.0,0.0
234,58.25,41.0822,49.9117,135.319,102.168,55.8152,0.0230875,0.476126,20.2878,484.651,5.54764,0.0,0.0
243,60.5,44.5763,55.2449,131.48,102.144,58.0453,0.0285965,0.612347,20.1055,484.061,5.18596,0.0,0.0
252,62.75,47.7696,59.5376,136.746,102.12,60.6304,0.0313223,0.723898,20.0069,483.54,4.78395,0.0,0.0
261,65,49.4821,62.5939,140.723,102.097,59.882,0.0317374,0.790919,19.9697,483.02,4.89589,0.0,0.0
270,67.25,51.2382,64.9189,143.733,102.089,60.2278,0.0311516,0.822619,19.967,482.529,4.84231,0.0,0.0
279,69.5,53.7409,68.4573,137.89,102.061,65.7144,0.02906,0.84034,19.9724,482.119,4.03985,0.0,0.0
288,71.75,53.7559,68.0325,143.05,102.057,77.5152,0.0245483,0.819332,20.045,481.889,2.52392,0.0,0.0
297,74,53.0767,67.6491,144.278,102.024,85.7466,0.0187801,0.742458,20.2013,481.779,1.59488,0.0,0.0
306,76.25,54.3433,66.4139,150.985,102.016,92.5445,0.0135236,0.628463,20.3866,481.638,0.894098,0.0,0.0
315,78.5,51.7101,64.1061,156.577,101.999,94.4704,0.00913612,0.515313,20.5207,481.568,0.703616,0.0,0.0
324,80.75,50.1694,61.7296,157.21,101.991,96.8871,0.00623612,0.415106,20.6346,481.558,0.471046,0.0,0.0
333,83,48.8765,59.2915,155.331,101.979,99.0376,0.00468561,0.332071,20.7362,481.558,0.26856,0.0,0.0
342,85.25,46.9007,56.7098,157.907,101.965,99.8839,0.00403549,0.264165,20.801,481.578,0.189182,0.0,0.0
351,87.5,45.7771,53.9567,160.372,101.956,100.271,0.00380833,0.213696,20.8462,481.588,0.152919,0.0,0.0
360,89.75,44.9195,52.5444,158.553,101.96,98.9727,0.00378065,0.174468,20.8742,481.578,0.272906,0.0,0.0
369,92,43.6414,50.7471,158.464,101.954,99.8449,0.00376793,0.148785,20.8915,481.588,0.191842,0.0,0.0
378,94.25,42.7564,49.6863,159.019,101.941,99.7597,0.00361901,0.12689,20.9048,481.578,0.19845,0.0,0.0
387,96.5,41.7693,48.1642,160.058,101.949,99.1963,0.00337572,0.111345,20.9142,481.578,0.251122,0.0,0.0
396,98.75,40.9956,46.5675,156.895,101.955,99.5371,0.0032104,0.0993935,20.9212,481.568,0.220247,0.0,0.0
405,101,40.6111,45.312,160.757,101.949,99.2506,0.00328225,0.0904161,20.9274,481.568,0.246104,0.0,0.0
414,103.25,39.8722,45.1377,161.574,101.946,100.011,0.00345195,0.0831616,20.9314,481.568,0.175837,0.0,0.0
423,105.5,39.5303,43.5083,162.913,101.965,99.9027,0.00354663,0.0779215,20.9342,481.558,0.187496,0.0,0.0
432,107.75,39.2124,43.2107,158.471,101.959,99.103,0.00365832,0.0738544,20.9361,481.568,0.260721,0.0,0.0
441,110,38.0003,42.8399,153.961,101.971,99.1492,0.00392136,0.0702888,20.9374,481.558,0.257488,0.0,0.0
450,112.25,38.3706,41.6489,155.276,101.998,99.1908,0.00427164,0.0675755,20.9394,481.548,0.256089,0.0,0.0
459,114.5,37.8196,41.089,158.519,102.017,99.533,0.00456903,0.065719,20.9393,481.538,0.226184,0.0,0.0
468,116.75,37.7837,41.0756,159.882,102.003,99.4174,0.00482601,0.064061,20.939,481.538,0.235589,0.0,0.0
477,119,36.9817,40.7361,161.625,102.024,99.1284,0.00514387,0.0628254,20.9389,481.538,0.264196,0.0,0.0
486,121.25,37.2811,40.0828,157.211,102.029,99.3038,0.00550442,0.0618579,20.9379,481.518,0.248414,0.0,0.0
495,123.5,36.7622,39.6546,157.175,102.037,99.9463,0.0057847,0.0610846,20.937,481.538,0.18998,0.0,0.0
504,125.75,36.5708,39.9854,159.9,102.028,99.6182,0.00594048,0.0605841,20.9378,481.548,0.219298,0.0,0.0
513,128,36.368,39.266,158.493,102.034,99.4565,0.00606477,0.0599988,20.9384,481.518,0.234767,0.0,0.0
522,130.25,35.3365,39.0621,160.755,102.047,99.5477,0.00636628,0.0592959,20.9386,481.498,0.227571,0.0,0.0
531,132.5,36.0841,38.4096,155.892,102.039,99.2871,0.00672687,0.0587295,20.9387,481.478,0.250887,0.0,0.0
540,134.75,35.7651,38.8869,159.609,102.046,99.6872,0.00693617,0.0584386,20.9388,481.248,0.214579,0.0,0.0
549,137,36.042,38.7216,157.028,102.054,99.7414,0.007032,0.058073,20.9393,481.418,0.210365,0.0,0.0
558,139.25,35.2615,38.1593,157.959,102.06,99.9696,0.00709627,0.0578685,20.9402,481.448,0.189915,0.0,0.0
567,141.5,35.215,38.3786,162.167,102.06,99.9686,0.00725129,0.057918,20.9392,481.538,0.190007,0.0,0.0
576,143.75,35.2679,37.5802,162.847,102.051,99.2562,0.0075668,0.0580933,20.9382,481.508,0.254822,0.0,0.0
585,146,35.5251,37.4698,160.378,102.065,99.6441,0.00786234,0.05827,20.9378,481.508,0.220289,0.0,0.0
594,148.25,35.3708,38.1758,160.341,102.061,99.2866,0.00799398,0.0584909,20.9377,481.488,0.252862,0.0,0.0
603,150.5,35.4955,37.8479,162.235,102.067,99.6755,0.00806739,0.0586098,20.938,481.478,0.217544,0.0,0.0
612,152.75,35.3493,38.1454,157.094,102.07,99.2333,0.00799367,0.0587077,20.9396,481.478,0.258599,0.0,0.0
621,155,35.413,37.8627,159.697,102.063,99.567,0.007795,0.0586577,20.9403,481.448,0.227167,0.0,0.0
630,157.25,35.6597,37.7237,161.948,102.057,99.9108,0.00762027,0.0586219,20.9406,481.458,0.195019,0.0,0.0
639,159.5,35.2985,38.0649,162.02,102.056,99.7643,0.00753769,0.0585612,20.9407,481.458,0.208376,0.0,0.0
648,161.75,34.779,38.1828,163.094,102.043,99.4793,0.00758742,0.0584666,20.9399,481.428,0.233477,0.0,0.0
657,164,35.2208,38.2576,153.927,102.034,100.036,0.00757081,0.0584017,20.938,481.428,0.181447,0.0,0.0
666,166.25,34.9114,37.3413,155.574,102.016,99.4276,0.00752826,0.0583195,20.9369,481.418,0.235801,0.0,0.0
675,168.5,34.8826,36.7087,157.092,102.024,99.1335,0.00757817,0.0582563,20.9365,481.398,0.263726,0.0,0.0
684,170.75,34.955,37.5177,160.035,102.026,99.5959,0.0075524,0.0582103,20.9369,481.388,0.221168,0.0,0.0
693,173,34.8251,37.4255,164.728,101.982,99.3297,0.00745387,0.0580416,20.9365,481.398,0.241798,0.0,0.0
702,175.25,34.8362,36.9836,159.738,101.973,99.3236,0.00729313,0.0583268,20.9363,481.388,0.241581,0.0,0.0
711,177.5,34.9155,37.3977,163.808,101.967,99.6755,0.00719041,0.0584516,20.9356,481.368,0.208534,0.0,0.0
720,179.75,34.6475,37.2389,157.415,101.959,99.456,0.00721714,0.0585322,20.9346,481.378,0.228064,0.0,0.0
729,182,35.1536,37.3903,158.665,101.94,99.9874,0.00726587,0.0587324,20.9342,481.348,0.177494,0.0,0.0
738,184.25,34.6917,36.5886,159.194,101.934,99.6993,0.0072605,0.0588325,20.9337,481.358,0.203372,0.0,0.0
747,186.5,35.3682,37.0309,158.807,101.934,98.9539,0.00727367,0.0589555,20.9358,481.348,0.272272,0.0,0.0
756,188.75,34.6273,37.4865,154.531,101.929,99.7267,0.00735292,0.0590838,20.9376,481.318,0.200407,0.0,0.0
765,191,34.628,37.55,157.317,101.901,99.3966,0.00737505,0.0591061,20.9382,481.328,0.228308,0.0,0.0
774,193.25,34.5558,36.9357,158.66,101.912,99.3403,,0.0588946,,481.308,0.234544,0.0,0.0
783,195.5,34.7699,37.3226,156.816,101.899,99.5229,,0.0585607,,481.318,0.21651,0.0,0.0
792,197.75,34.2976,37.0382,160,101.88,98.7197,,,,481.298,0.28916,0.0,0.0
801,200,34.4066,37.226,160.002,101.869,99.6857,,,,481.278,0.198767,0.0,0.0
810,202.25,34.4525,37.1434,159.835,101.876,99.1857,,,,481.298,0.245575,0.0,0.0
815,203.5,34.3997,37.1162,159.612,101.851,99.4605,,,,481.278,0.217919,0.0,0.0