File: 01_Data/Overstuffed_Chair_Polyester_Batting/Cone/Overstuffed_Chair_Polyester_Batting_Cone_HF50Scan_210326_R2.csv
Names,Time,Stack TC,Smoke TC,Exh Press,Smoke Comp,Smoke Meas,CO Meter,CO2 Meter,O2 Meter,Sample Mass,Ext Coeff,Start Test,Flame Verif
Chan Gain,,500,500,1,1,1,1,1,1,1,1,1.0,1.0
Offset,,0,0,0.138348,0,0,0,0,0,0,0,0.0,0.0
Gain,,1,1,25.011,13.5067,16.616,1,1,1,1.00091,1.04608,1.0,1.0
Units,sec,C,C,Pa,%,%,%,%,%,g,/m,,
Baseline,,32.596,34.6865,162.683,102.482,99.6819,-0.00138179,0.0468852,20.9621,-0.00291932,0.254242,,
9,2,29.4867,31.6781,162.012,102.821,100.097,-0.00152125,0.049063,20.9563,476.364,0.246352,0.0,0.0
18,4.25,30.6019,32.6814,160.997,102.84,100.252,-0.00145755,0.0499141,20.9558,476.314,0.233923,0.0,0.0
27,6.5,30.2415,32.1699,159.947,102.829,100.069,-0.00146688,0.0503813,20.9556,476.314,0.249663,0.0,0.0
36,8.75,31.191,32.8775,161.342,102.833,100.348,-0.0015221,0.0504339,20.9556,476.304,0.224483,0.0,0.0
45,11,30.8425,32.5942,162.585,102.855,99.5873,-0.00153566,0.0505907,20.9556,476.294,0.296287,0.0,0.0
54,13.25,30.5909,32.8281,165.356,102.834,100.077,-0.00152311,0.0508565,20.9551,476.294,0.249434,0.0,0.0
63,15.5,31.37,33.2605,163.824,102.854,100.421,-0.00147299,0.0515639,20.9538,476.274,0.219601,0.0,0.0
72,17.75,31.0334,33.6917,162.198,102.863,99.6192,-0.00138032,0.0524643,20.952,476.264,0.294042,0.0,0.0
81,20,31.0302,33.2742,159.131,102.847,99.9874,-0.00123149,0.0532515,20.9514,476.264,0.258724,0.0,0.0
90,22.25,31.8938,33.7022,163.152,102.844,99.5609,-0.00101809,0.0541893,20.9516,476.244,0.297724,0.0,0.0
99,24.5,31.1241,33.7339,162.94,102.844,99.1659,-0.000841182,0.055367,20.951,476.233,0.334203,0.0,0.0
108,26.75,31.0563,33.9228,168.974,102.849,98.812,-0.00080115,0.0560574,20.95,476.224,0.367418,0.0,0.0
117,29,31.2559,34.5135,158.421,102.838,98.1974,-0.00079172,0.0563822,20.9496,476.193,0.423749,0.0,0.0
126,31.25,31.3409,33.9247,158.017,102.833,97.4003,-0.000584513,0.0568223,20.9488,476.193,0.498063,0.0,0.0
135,33.5,31.6726,34.3332,158.533,102.83,96.1777,-0.000292912,0.057724,20.9473,476.133,0.613676,0.0,0.0
144,35.75,31.7016,34.6156,163.047,102.815,95.594,-2.81179e-05,0.0592371,20.9448,476.103,0.66817,0.0,0.0
153,38,31.3756,34.9115,154.673,102.816,94.8654,0.000246245,0.0610816,20.9418,476.053,0.738531,0.0,0.0
162,40.25,31.6126,34.785,163.628,102.815,94.8025,0.000637657,0.0624015,20.9408,475.983,0.74454,0.0,0.0
171,42.5,32.0336,35.0025,159.581,102.81,92.8756,0.00110003,0.0628642,20.9408,475.953,0.932456,0.0,0.0
180,44.75,32.2637,35.6964,162.02,102.793,91.3513,0.00163144,0.0628777,20.9437,475.873,1.08283,0.0,0.0
189,47,32.7329,35.1621,158.57,102.793,90.1151,0.00250296,0.0632346,20.9413,475.763,1.20786,0.0,0.0
198,49.25,33.4058,37.0101,151.585,102.782,88.0781,0.00404362,0.0891654,20.8713,475.323,1.41666,0.0,1.0
207,51.5,35.5421,39.8617,149.992,102.758,84.5783,0.0062232,0.163805,20.7316,475.092,1.78663,0.0,1.0
216,53.75,35.7495,41.269,149.43,102.748,75.1547,0.0103886,0.255331,20.617,474.632,2.86963,0.0,0.0
225,56,38.5895,46.3291,140.158,102.752,60.6309,0.0167774,0.357085,20.4406,474.122,4.84055,0.0,0.0
234,58.25,42.4159,51.9234,136.981,102.737,57.9941,0.0223606,0.492448,20.2366,473.531,5.24722,0.0,0.0
243,60.5,45.4573,56.6839,139.945,102.719,62.8814,0.0252546,0.607834,20.125,473.001,4.50318,0.0,0.0
252,62.75,47.3009,59.2783,143.052,102.721,65.6475,0.0255269,0.675805,20.0923,472.54,4.10831,0.0,0.0
261,65,48.9883,61.9303,137.056,102.716,67.5014,0.0249365,0.70689,20.0991,472.12,3.85236,0.0,0.0
270,67.25,50.7476,63.894,136.182,102.707,65.4522,0.0250092,0.723688,20.105,471.669,4.13438,0.0,0.0
279,69.5,52.5659,66.5954,130.546,102.698,61.1679,0.0251178,0.740083,20.1073,471.299,4.75481,0.0,0.0
288,71.75,52.9962,68.1266,143.727,102.685,77.6221,0.0226991,0.739528,20.136,471.099,2.56757,0.0,0.0
297,74,53.1428,66.2412,147.71,102.683,86.9778,0.0179765,0.680603,20.2799,470.969,1.52315,0.0,0.0
306,76.25,52.1741,64.7758,155.685,102.665,93.3193,0.0128747,0.586887,20.4212,470.859,0.875838,0.0,0.0
315,78.5,50.5809,62.4576,159.172,102.658,96.343,0.0090131,0.489192,20.5612,470.819,0.582567,0.0,0.0
324,80.75,49.1009,60.4133,156.658,102.654,99.315,0.00666985,0.396542,20.6799,470.829,0.303412,0.0,0.0
333,83,47.2494,57.1977,156.36,102.648,100.172,0.00538678,0.318544,20.7602,470.829,0.224094,0.0,0.0
342,85.25,46.0148,54.7126,160.349,102.611,100.569,0.00468847,0.254482,20.8218,470.849,0.184396,0.0,0.0
351,87.5,44.8962,53.3211,162.348,102.601,101.013,0.00411795,0.206599,20.8609,470.859,0.143162,0.0,0.0
360,89.75,43.6538,51.2579,159.89,102.587,99.5974,0.00346751,0.171648,20.8827,470.849,0.271381,0.0,0.0
369,92,43.156,49.6122,157.857,102.57,100.053,0.00280844,0.145847,20.8982,470.849,0.227929,0.0,0.0
378,94.25,42.5832,48.5226,156.915,102.555,100.21,0.00220952,0.126448,20.9105,470.849,0.212243,0.0,0.0
387,96.5,40.8904,47.217,162.814,102.55,100.22,0.00189687,0.111201,20.9186,470.849,0.210918,0.0,0.0
396,98.75,40.0593,45.8786,160.487,102.538,100.062,0.00188379,0.100883,20.9249,470.829,0.224216,0.0,0.0
405,101,40.1086,45.0747,161.907,102.522,99.8418,0.00189033,0.0914907,20.9306,470.819,0.2431,0.0,0.0
414,103.25,39.178,43.6251,157.004,102.499,100.505,0.00172438,0.0840593,20.9347,470.809,0.180325,0.0,0.0
423,105.5,38.4482,43.5846,158.674,102.483,99.9874,0.00149895,0.0789347,20.9382,470.899,0.226194,0.0,0.0
432,107.75,38.1331,42.7374,159.252,102.465,99.3576,0.00145249,0.0744473,20.9389,470.859,0.282549,0.0,0.0
441,110,38.0264,41.7848,160.217,102.438,99.5868,0.00149505,0.0724237,20.9357,470.849,0.259044,0.0,0.0
450,112.25,37.7049,41.7322,160.147,102.426,99.7252,0.00159606,0.0721931,20.9317,470.839,0.245189,0.0,0.0
459,114.5,37.7607,41.3175,158.941,102.407,99.6664,0.00175807,0.0719583,20.9305,470.839,0.248904,0.0,0.0
468,116.75,36.9537,40.726,157.188,102.373,99.781,0.0018705,0.0706199,20.9313,470.839,0.235367,0.0,0.0
477,119,37.2762,40.0167,165.088,102.352,99.5188,0.00202902,0.0687024,20.9337,470.839,0.25755,0.0,0.0
486,121.25,36.5853,39.5821,156.533,102.347,99.8175,0.00217694,0.0669726,20.9358,470.849,0.229609,0.0,0.0
495,123.5,36.4257,39.0684,159.483,102.334,100.607,0.00231251,0.0654932,20.9371,470.839,0.156205,0.0,0.0
504,125.75,36.1589,39.5597,160.11,102.308,99.5493,0.00244339,0.0642071,20.9389,470.829,0.250789,0.0,0.0
513,128,35.7032,39.1586,159.465,102.269,100.054,0.00254981,0.0629845,20.9402,470.829,0.200961,0.0,0.0
522,130.25,35.7016,38.628,159.174,102.246,100.593,0.0027644,0.0617537,20.9422,470.819,0.149587,0.0,0.0
531,132.5,35.5108,38.6925,159.12,102.218,99.8038,0.00320239,0.0605004,20.943,470.829,0.219292,0.0,0.0
540,134.75,35.8693,38.8669,160.488,102.198,99.6999,0.00358526,0.0596808,20.943,470.819,0.227116,0.0,0.0
549,137,35.2651,38.2913,157.352,102.169,99.2993,0.00374542,0.0589749,20.9438,470.819,0.261469,0.0,0.0
558,139.25,35.6208,38.0192,157.266,102.162,99.42,0.0039263,0.0583829,20.9443,470.829,0.24962,0.0,0.0
567,141.5,35.8992,37.8327,159.336,102.115,99.0123,0.00438974,0.0579341,20.9433,470.819,0.283104,0.0,0.0
576,143.75,35.5131,37.8118,157.807,102.098,99.5269,0.0049238,0.0577406,20.9439,470.789,0.234009,0.0,0.0
585,146,35.3389,37.8603,158.038,102.061,99.3434,0.00528993,0.0575188,20.9443,470.789,0.247614,0.0,0.0
594,148.25,34.8337,37.7162,157.721,102.017,99.9184,0.00544591,0.0573405,20.9445,470.779,0.190687,0.0,0.0
603,150.5,35.5293,37.3903,155.223,101.986,99.994,0.00555625,0.0573153,20.9445,470.779,0.181006,0.0,0.0
612,152.75,34.8972,37.3076,162.306,101.952,98.8383,0.00578787,0.0572956,20.9445,470.789,0.284595,0.0,0.0
621,155,34.9476,36.9799,163.365,101.915,99.2825,0.00611065,0.0572154,20.9446,470.759,0.240108,0.0,0.0
630,157.25,35.0147,37.5101,159.12,101.876,100.215,0.00646104,0.0572727,20.9433,470.738,0.150917,0.0,0.0
639,159.5,34.3067,37.2384,160.491,101.843,99.0422,0.00685779,0.0572446,20.9409,470.749,0.255852,0.0,0.0
648,161.75,34.7736,37.3725,161.938,101.809,98.9068,0.00732115,0.0572341,20.9395,470.738,0.265396,0.0,0.0
657,164,34.8887,37.441,160.13,101.772,99.313,0.00774682,0.0572256,20.9389,470.719,0.22441,0.0,0.0
666,166.25,34.5711,37.2273,161.029,101.725,99.4727,0.00808251,0.0572403,20.9387,470.719,0.205463,0.0,0.0
675,168.5,34.5766,37.5897,164.288,101.69,98.9534,0.00839866,0.0574662,20.9386,470.698,0.250364,0.0,0.0
684,170.75,35.0685,36.7121,157.515,101.638,99.2901,0.00868355,0.057705,20.9386,470.698,0.214431,0.0,0.0
693,173,34.7132,36.8462,163.13,101.597,99.5411,0.00883465,0.0575847,20.9392,470.698,0.187616,0.0,0.0
702,175.25,34.8078,37.0331,164.38,101.568,99.6218,0.00887782,0.0574822,20.9402,470.698,0.17758,0.0,0.0
711,177.5,34.0525,37.4704,159.056,101.514,99.3378,0.00894346,0.0574373,20.9411,470.688,0.19882,0.0,0.0
720,179.75,34.6995,36.816,159.825,101.479,98.8596,0.0090474,0.0575327,20.941,470.688,0.239967,0.0,0.0
729,182,34.4846,37.6025,163.551,101.428,98.6289,0.00893607,0.0577046,20.94,470.678,0.256821,0.0,0.0
738,184.25,34.0001,36.7653,165.72,101.407,99.0914,0.0086839,0.0578045,20.9395,470.668,0.211995,0.0,0.0
747,186.5,33.9016,36.6891,157.218,101.377,98.4915,0.00847282,0.0583529,20.9382,470.648,0.26499,0.0,0.0
756,188.75,34.0531,36.8839,160.479,101.338,98.8606,0.00825662,0.0590108,20.9368,470.648,0.227153,0.0,0.0
765,191,34.4802,36.6614,156.402,101.313,99.4996,,0.0594326,,470.648,0.165764,0.0,0.0
774,193.25,34.1608,37.3827,162.403,101.285,98.5721,,0.0597546,,470.628,0.24912,0.0,0.0
783,195.5,34.318,37.287,160.237,101.264,99.1375,,,,470.618,0.194734,0.0,0.0
792,197.75,34.1941,37.138,160.755,101.247,98.6208,,,,470.618,0.241153,0.0,0.0
801,200,34.4336,36.9931,158.576,101.217,98.9768,,,,470.608,0.205365,0.0,0.0
807,201.5,34.4417,37.0131,157.821,101.23,98.6304,,,,470.618,0.238763,0.0,0.0