File: 01_Data/Overstuffed_Chair_Polyester_Batting/Cone/Overstuffed_Chair_Polyester_Batting_Cone_HF25Scan_210324_R3.csv
Names,Time,Stack TC,Smoke TC,Exh Press,Smoke Comp,Smoke Meas,CO Meter,CO2 Meter,O2 Meter,Sample Mass,Ext Coeff,Start Test,Flame Verif
Chan Gain,,500,500,1,1,1,1,1,1,1,1,1.0,1.0
Offset,,0,0,0.194005,0,0,0,0,0,0,0,0.0,0.0
Gain,,1,1,25.011,13.5067,16.616,1,1,1,1.00091,1.04608,1.0,1.0
Units,sec,C,C,Pa,%,%,%,%,%,g,/m,,
Baseline,,19.4932,21.0508,167.873,101.73,100.93,0.000301724,0.0923279,20.7951,-1.35102,0.072457,,
26,6.25,17.1943,18.8122,164.251,101.471,100.664,0.000380791,0.109462,20.7792,474.032,0.073257,0.0,0.0
52,12.75,18.2426,19.4366,167.019,101.446,100.665,0.000284763,0.10473,20.783,473.991,0.0708997,0.0,0.0
78,19.25,18.3206,19.8095,166.022,101.42,100.561,0.000300122,0.0975784,20.7932,474.011,0.0780316,0.0,0.0
104,25.75,18.2956,20.0383,164.118,101.43,100.654,0.000164114,0.0929058,20.7981,473.981,0.0704905,0.0,0.0
130,32.25,18.3934,19.9355,166.623,101.409,100.403,4.12084e-05,0.0912605,20.7973,473.991,0.0915003,0.0,0.0
156,38.75,18.0961,19.6793,165.681,101.395,100.385,0.000164426,0.0900948,20.8036,473.951,0.0918642,0.0,0.0
182,45.25,18.0748,20.2157,167.191,101.369,100.392,0.000264177,0.0885967,20.807,473.991,0.088827,0.0,0.0
208,51.75,18.1316,20.207,168.788,101.344,100.364,0.000576148,0.088194,20.806,473.951,0.0891834,0.0,0.0
234,58.25,18.4174,20.1249,167.386,101.316,100.221,0.000268007,0.088353,20.8043,473.981,0.0997287,0.0,0.0
260,64.75,18.2606,20.2858,170.49,101.287,100.252,0.000178644,0.0893142,20.8001,473.941,0.0943211,0.0,0.0
286,71.25,18.354,19.6511,167.633,101.264,100.329,0.000118808,0.0908832,20.7953,473.941,0.085131,0.0,0.0
312,77.75,18.1501,20.2468,161.346,101.25,100.186,0.000133259,0.0912008,20.7936,473.961,0.0969116,0.0,0.0
338,84.25,18.2814,19.9891,168.056,101.226,100.141,0.000172364,0.0912671,20.7966,473.951,0.0988413,0.0,0.0
364,90.75,18.1348,20.0508,168.952,101.228,100.032,6.25486e-05,0.0921258,20.7951,473.931,0.109098,0.0,0.0
390,97.25,18.7374,20.1193,164.55,101.195,100.128,0.000413162,0.0921271,20.7968,473.911,0.0972472,0.0,0.0
416,103.75,18.6051,20.9592,166.376,101.181,99.9732,0.000411763,0.0917886,20.7991,473.911,0.110198,0.0,0.0
442,110.25,18.8899,19.7686,172.713,101.188,100.193,0.000263225,0.0911783,20.7993,473.881,0.090702,0.0,0.0
468,116.75,18.8821,20.7575,166.521,101.258,100.051,0.00042632,0.0903338,20.7993,473.931,0.109983,0.0,0.0
494,123.25,18.8105,20.6345,166.959,101.299,99.8839,0.00055734,0.0905595,20.7971,473.891,0.129116,0.0,0.0
520,129.75,19.2124,20.9309,166.377,101.329,99.8647,0.000327898,0.0926643,20.7885,473.871,0.133537,0.0,0.0
546,136.25,19.2143,20.8098,165.06,101.392,99.9894,0.000391788,0.0941831,20.7889,473.871,0.127865,0.0,0.0
572,142.75,19.3832,20.5047,165.231,101.415,99.9569,0.000422985,0.0953534,20.7877,473.851,0.132895,0.0,0.0
598,149.25,19.2093,20.378,167.967,101.458,99.9696,0.000715801,0.0950319,20.7871,473.871,0.135647,0.0,0.0
624,155.75,18.5832,20.4516,168.153,101.483,99.6917,0.000417671,0.0929879,20.7921,473.851,0.163389,0.0,0.0
650,162.25,19.4767,21.1661,164.27,101.512,99.8915,0.000397057,0.090861,20.7969,473.851,0.1477,0.0,0.0
676,168.75,18.7937,20.8835,173.162,101.544,99.7465,0.000244439,0.0910251,20.7985,473.821,0.163901,0.0,0.0
702,175.25,19.5055,21.2116,167.746,101.568,99.7399,2.33427e-05,0.0917704,20.799,473.801,0.166667,0.0,0.0
728,181.75,19.2662,21.1427,166.15,101.635,99.8571,0.000300552,0.0910413,20.8032,473.771,0.161927,0.0,0.0
754,188.25,19.3725,20.8222,172.794,101.669,99.9067,0.000763247,0.0895923,20.8034,473.771,0.160414,0.0,0.0
780,194.75,19.544,21.329,166.809,101.693,99.6923,0.000344268,0.0895383,20.7995,473.771,0.182329,0.0,0.0
806,201.25,19.2359,20.874,167.068,101.729,99.5584,0.000311238,0.0896889,20.7977,473.791,0.197896,0.0,0.0
832,207.75,19.4582,21.2555,168.029,101.733,99.5579,4.49332e-05,0.0916359,20.7922,473.741,0.198313,0.0,0.0
858,214.25,19.566,21.36,170.293,101.764,99.2075,7.85115e-05,0.0932884,20.7902,473.721,0.233454,0.0,0.0
884,220.75,19.3362,21.1336,171.891,101.758,99.8464,0.000345371,0.0919926,20.7977,473.681,0.174027,0.0,0.0
910,227.25,19.8719,21.195,167.419,101.768,99.5011,0.000505881,0.0895611,20.8045,473.671,0.206746,0.0,0.0
936,233.75,19.136,21.2542,170.561,101.756,99.4828,0.000674999,0.0886405,20.8056,473.611,0.207278,0.0,0.0
962,240.25,19.2389,21.6118,161.439,101.738,99.4215,0.000807252,0.0881229,20.8074,473.601,0.211341,0.0,0.0
988,246.75,19.1509,21.4527,167.999,101.731,98.8125,0.000723782,0.0878387,20.8097,473.601,0.26709,0.0,0.0
1014,253.25,19.7092,21.6473,172.512,101.69,99.5751,0.000294685,0.0876899,20.8089,473.591,0.19282,0.0,0.0
1040,259.75,19.6203,21.4508,163.676,101.655,99.3561,0.000387407,0.0879071,20.809,473.531,0.209905,0.0,0.0
1066,266.25,19.8627,21.2921,168.508,101.629,99.6355,0.000463034,0.0874304,20.812,473.501,0.181829,0.0,0.0
1092,272.75,19.5355,21.404,167.809,101.587,97.7897,0.000439535,0.0869887,20.814,473.471,0.349617,0.0,0.0
1118,279.25,19.6058,21.632,169.527,101.558,99.2952,0.000623523,0.0869729,20.8162,473.471,0.206778,0.0,0.0
1144,285.75,19.6629,22.1002,166.185,101.517,99.4331,0.000678381,0.0870059,20.8166,473.441,0.190315,0.0,0.0
1170,292.25,19.6408,21.1479,165.327,101.497,99.1492,0.000586421,0.0872385,20.8148,473.411,0.214733,0.0,0.0
1196,298.75,19.609,21.0767,168.524,101.449,99.0427,0.000885573,0.0875347,20.8128,473.401,0.220232,0.0,0.0
1222,305.25,20.0093,21.2685,169.938,101.387,99.2896,0.000709813,0.087689,20.8119,473.351,0.191787,0.0,0.0
1248,311.75,19.5889,21.6668,166.86,101.378,98.9676,0.000588445,0.0876008,20.8102,473.321,0.220773,0.0,0.0
1274,318.25,19.4184,21.2963,169.226,101.438,99.2034,0.000557092,0.0879574,20.8118,473.341,0.204382,0.0,0.0
1300,324.75,19.9892,21.5065,163.363,101.533,99.0102,0.000832309,0.0874222,20.815,473.331,0.230879,0.0,0.0
1326,331.25,19.9374,22.0815,169.811,101.647,99.7749,0.000547333,0.087182,20.8134,473.261,0.170596,0.0,0.0
1352,337.75,19.8174,22.0345,162.29,101.736,99.8048,0.000294613,0.0888283,20.8076,473.261,0.175841,0.0,0.0
1378,344.25,19.8702,22.0432,165.55,101.747,99.2693,0.000535798,0.0901385,20.8017,473.231,0.22621,0.0,0.0
1404,350.75,20.0961,21.8955,161.318,101.601,99.1593,0.000527281,0.0914561,20.7991,473.221,0.22318,0.0,0.0
1430,357.25,20.514,21.9031,168.832,101.249,99.0508,0.00084378,0.0921323,20.7964,473.211,0.201456,0.0,0.0
1456,363.75,20.6171,22.0941,164.599,101.31,99.1385,0.000793827,0.093365,20.7912,473.121,0.198859,0.0,0.0
1482,370.25,20.1173,21.8589,165.873,101.581,99.0741,0.000854112,0.0935738,20.791,473.141,0.229281,0.0,0.0
1508,376.75,19.6588,22.2993,161.646,101.843,99.1791,0.000769784,0.0925027,20.7956,473.101,0.243177,0.0,0.0
1534,383.25,20.5787,22.1966,172.133,101.959,99.5523,0.000780894,0.0917772,20.7981,473.061,0.219179,0.0,0.0
1560,389.75,20.0134,22.4544,166.521,101.894,99.3596,0.000766086,0.0919246,20.8013,473.031,0.231094,0.0,0.0
1586,396.25,20.1948,22.7309,169.932,101.624,98.7501,0.00064487,0.0923004,20.7994,473.021,0.263248,0.0,0.0
1612,402.75,20.6407,22.5665,170.706,101.209,98.4175,0.000892174,0.0921791,20.8,472.991,0.256654,0.0,0.0
1638,409.25,20.4598,22.9408,166.207,100.7,98.1761,0.000752411,0.0917546,20.8008,472.951,0.232917,0.0,0.0
1664,415.75,20.224,22.7994,167.402,100.254,98.2537,0.000885879,0.0907066,20.8025,472.92,0.1849,0.0,0.0
1690,422.25,20.5406,22.7424,160.493,99.9927,97.7025,0.000763325,0.090867,20.8008,472.88,0.212609,0.0,0.0
1716,428.75,20.4362,22.7307,167.28,99.9947,97.7162,0.000623137,0.0905638,20.8015,472.83,0.211514,0.0,0.0
1742,435.25,20.3404,22.2044,162.991,100.299,97.7851,0.000729367,0.0906796,20.8031,472.81,0.23295,0.0,0.0
1768,441.75,20.1407,22.6678,162.065,100.763,98.3018,0.000880004,0.0917425,20.8008,472.75,0.226953,0.0,0.0
1794,448.25,20.3125,22.5996,160.392,101.192,98.7324,0.00104363,0.0915657,20.8016,472.75,0.225809,0.0,0.0
1820,454.75,20.7839,23.4656,154.157,101.333,89.8321,0.00349044,0.119423,20.7557,472.51,1.10545,0.0,1.0
1846,461.25,25.9414,30.9371,155.754,101.12,74.0559,0.0129908,0.356906,20.384,471.319,2.85822,0.0,0.0
1872,467.75,31.4942,39.6175,147.049,100.86,75.4939,0.0165079,0.521756,20.2335,470.318,2.65814,0.0,0.0
1898,474.25,36.6043,47.9814,146.33,101.446,69.8608,0.0208085,0.664154,20.0895,469.157,3.42294,0.0,0.0
1924,480.75,39.7593,52.3269,158.391,101.733,84.0945,0.0193576,0.690355,20.1267,468.146,1.74726,0.0,0.0
1950,487.25,37.0355,47.2563,158.915,101.186,98.6974,0.00929318,0.492942,20.4752,467.926,0.228464,0.0,0.0
1976,493.75,32.2165,39.2124,167.238,101.622,100.785,0.00342947,0.249587,20.7117,468.036,0.0759793,0.0,0.0
2002,500.25,28.5612,33.0482,170.092,101.949,101.228,0.00128448,0.150758,20.7809,468.026,0.0651102,0.0,0.0
2028,506.75,26.4574,29.0902,172.789,101.663,100.913,0.000694761,0.116576,20.8002,468.086,0.0679891,0.0,0.0
2054,513.25,24.9112,27.1709,166.659,100.788,100.159,0.000112369,0.100653,20.8122,468.066,0.0574845,0.0,0.0
2080,519.75,23.9595,25.6023,164.206,100.045,99.2998,-6.8161e-05,0.0940946,20.816,468.046,0.0686471,0.0,0.0
2106,526.25,23.0874,24.3536,163.358,100.173,99.4838,4.34871e-05,0.0909847,20.817,468.096,0.0633657,0.0,0.0
2132,532.75,22.5927,23.7172,162.687,100.883,100.019,0.000203803,0.0888057,20.8191,468.076,0.0789438,0.0,0.0
2158,539.25,22.1518,23.1284,164.232,101.321,100.406,-0.00011779,0.0872779,20.8203,468.076,0.0831995,0.0,0.0
2184,545.75,21.9485,22.8769,170.778,101.052,100.266,-2.72578e-05,0.0864668,20.8209,468.076,0.0716747,0.0,0.0
2210,552.25,21.8382,22.5849,167.037,100.959,100.147,0.000269762,0.0866201,20.8209,468.086,0.0741143,0.0,0.0
2236,558.75,21.3948,22.9898,166.298,101.71,100.962,0.000308004,0.0864761,20.8222,468.156,0.067722,0.0,0.0
2262,565.25,20.8994,22.5997,167.253,101.144,100.367,2.7542e-07,0.08641,20.824,468.106,0.0707781,0.0,0.0
2288,571.75,21.5798,22.4707,163.884,101.659,100.951,-3.18053e-05,0.0861038,20.8244,468.096,0.0641131,0.0,0.0
2314,578.25,21.101,22.6495,163.077,101.942,101.075,-0.000126013,0.0856816,20.8242,468.096,0.0783993,0.0,0.0
2340,584.75,20.7274,22.0824,166.038,101.491,100.866,7.39494e-05,0.0855188,20.8246,468.056,0.05663,0.0,0.0
2366,591.25,20.5346,22.4111,163.04,100.63,99.9387,-7.90764e-05,0.0847742,20.8284,468.096,0.0632853,0.0,0.0
2392,597.75,20.8742,22.4988,163.161,100.027,99.2764,0.000186289,0.0838391,20.8297,468.096,0.0691389,0.0,0.0
2418,604.25,20.5728,21.6857,164.963,100.221,99.5736,,0.0834025,,468.086,0.0594322,0.0,0.0
2444,610.75,21.0355,21.8434,163.113,100.875,100.322,,,,468.086,0.0504529,0.0,0.0
2450,612.25,20.3669,21.5223,164.628,101.011,100.151,,,,468.096,0.0784709,0.0,0.0