File: 01_Data/Overstuffed_Chair_Polyester_Batting/Cone/Overstuffed_Chair_Polyester_Batting_Cone_HF75Scan_210325_R2.csv
Names,Time,Stack TC,Smoke TC,Exh Press,Smoke Comp,Smoke Meas,CO Meter,CO2 Meter,O2 Meter,Sample Mass,Ext Coeff,Start Test,Flame Verif
Chan Gain,,500,500,1,1,1,1,1,1,1,1,1.0,1.0
Offset,,0,0,0.138348,0,0,0,0,0,0,0,0.0,0.0
Gain,,1,1,25.011,13.5067,16.616,1,1,1,1.00091,1.04608,1.0,1.0
Units,sec,C,C,Pa,%,%,%,%,%,g,/m,,
Baseline,,40.0449,43.8068,157.187,101.997,99.6599,-0.000398012,0.082564,20.8705,-1.97876,0.212725,,
8,1.75,35.0721,37.8496,156.649,101.57,98.8738,-0.000296299,0.0860023,20.8678,473.231,0.246844,0.0,0.0
16,3.75,36.0262,38.936,158.596,101.561,98.7714,-0.00037689,0.0869562,20.865,473.161,0.255574,0.0,0.0
24,5.75,36.0003,39.2239,155.473,101.556,99.0077,-0.00055692,0.0885811,20.862,473.151,0.233201,0.0,0.0
32,7.75,36.8261,40.4161,158.68,101.546,98.7623,-0.000613898,0.0902402,20.861,473.121,0.255044,0.0,0.0
40,9.75,37.2763,40.3635,152.151,101.539,98.5412,-0.000582041,0.0912245,20.8618,473.091,0.275012,0.0,0.0
48,11.75,37.2522,40.1468,158.229,101.533,98.3221,-0.000406084,0.0913625,20.863,473.081,0.294875,0.0,0.0
56,13.75,37.433,40.8094,159.198,101.517,95.2873,0.000243511,0.0912102,20.8636,473.041,0.581158,0.0,0.0
64,15.75,38.1888,41.2809,161.348,101.518,88.9802,0.00163475,0.0960751,20.8578,472.88,1.20963,0.0,0.0
72,17.75,38.9528,43.8274,142.556,101.512,77.3473,0.00390161,0.121167,20.7882,472.55,2.49476,0.0,1.0
80,19.75,40.9382,46.5205,145.44,101.511,80.3431,0.00686463,0.188612,20.6587,472.43,2.14595,0.0,1.0
88,21.75,41.232,47.5347,146.011,101.512,69.229,0.0112227,0.268182,20.5133,471.86,3.51223,0.0,0.0
96,23.75,43.1783,51.7685,131.881,101.536,58.9195,0.0166365,0.37467,20.3431,471.439,4.99404,0.0,0.0
104,25.75,46.4817,56.2299,138.853,101.565,57.3755,0.0220476,0.492434,20.1968,470.979,5.24029,0.0,0.0
112,27.75,49.2789,60.9011,130.847,101.583,51.2895,0.0278443,0.608,20.038,470.418,6.27089,0.0,0.0
120,29.75,52.1532,65.2932,138.287,101.614,51.6399,0.032069,0.713785,19.8935,469.908,6.21121,0.0,0.0
128,31.75,55.1684,69.9438,131.131,101.644,54.9709,0.0339106,0.827988,19.8209,469.477,5.64033,0.0,0.0
136,33.75,57.0646,71.7014,135.945,101.67,61.8023,0.0329336,0.897627,19.8121,469.087,4.56779,0.0,0.0
144,35.75,57.6356,73.9081,137.628,101.701,65.1161,0.0300124,0.915069,19.8584,468.777,4.09134,0.0,0.0
152,37.75,58.365,75.1665,136.482,101.723,65.2433,0.0264479,0.898459,19.9276,468.426,4.07543,0.0,0.0
160,39.75,59.3965,75.9172,141.248,101.755,71.4241,0.0228384,0.864525,19.9995,468.136,3.24774,0.0,0.0
168,41.75,59.8548,75.774,143.163,101.766,76.8565,0.0188268,0.818252,20.0852,467.866,2.57606,0.0,0.0
176,43.75,59.9239,75.4807,141.715,101.794,79.6226,0.0157247,0.75809,20.1918,467.676,2.2541,0.0,0.0
184,45.75,59.575,74.8441,143.297,101.831,81.1991,0.0131796,0.686576,20.2888,467.486,2.07757,0.0,0.0
192,47.75,59.059,73.5719,144.127,101.837,83.7857,0.0110637,0.622453,20.356,467.315,1.79035,0.0,0.0
200,49.75,58.1686,71.7506,144.243,101.853,87.5944,0.00933998,0.565533,20.416,467.115,1.38388,0.0,0.0
208,51.75,57.4631,71.2623,140.98,101.882,90.0461,0.00742828,0.504041,20.5001,467.025,1.13321,0.0,0.0
216,53.75,56.2616,68.4875,149.673,101.892,93.9998,0.0057466,0.447814,20.5746,466.985,0.739754,0.0,0.0
224,55.75,55.123,67.0049,153.786,101.91,98.0422,0.00431868,0.388392,20.6393,466.935,0.35502,0.0,0.0
232,57.75,54.4306,64.9636,157.174,101.918,100.004,0.00360989,0.334609,20.6989,466.955,0.174001,0.0,0.0
240,59.75,52.6052,63.1617,154.275,101.941,100.002,0.00338848,0.28394,20.7435,466.955,0.176182,0.0,0.0
248,61.75,52.031,61.2365,156.376,101.953,99.5766,0.00352478,0.242911,20.7712,466.985,0.216417,0.0,0.0
256,63.75,50.9907,59.545,152.314,101.96,99.7932,0.00380086,0.209998,20.7888,467.015,0.197079,0.0,0.0
264,65.75,49.4011,57.7003,153.216,101.974,100.352,0.00404591,0.187306,20.7991,467.025,0.147102,0.0,0.0
272,67.75,48.3875,56.3087,154.36,101.98,99.8697,0.00424667,0.169178,20.807,466.955,0.191896,0.0,0.0
280,69.75,47.5783,54.8883,153.529,101.984,99.891,0.00444434,0.155467,20.813,466.995,0.190273,0.0,0.0
288,71.75,46.9948,53.4331,152.264,102.002,99.9615,0.00452095,0.145866,20.8182,466.945,0.185432,0.0,0.0
296,73.75,46.5111,53.1316,152.623,102.004,100.137,0.00452084,0.138166,20.8222,466.925,0.169479,0.0,0.0
304,75.75,46.2423,52.4904,154.488,101.998,99.7572,0.0044877,0.132188,20.8244,466.875,0.20384,0.0,0.0
312,77.75,46.4837,51.9128,156.417,102.016,100.093,0.00436242,0.127924,20.8266,466.935,0.174561,0.0,0.0
320,79.75,45.6385,50.8845,151.8,102.003,100.159,0.00422168,0.124523,20.8276,466.905,0.167408,0.0,0.0
328,81.75,45.325,50.1848,155.397,102.012,99.9438,0.00416999,0.12198,20.8293,466.895,0.187988,0.0,0.0
336,83.75,44.8321,50.5706,154.929,102.016,100.121,0.00436237,0.120439,20.8301,466.895,0.172087,0.0,0.0
344,85.75,45.0232,49.4271,150.786,102.005,100.439,0.00461887,0.118879,20.8311,466.805,0.141957,0.0,0.0
352,87.75,44.2812,49.2099,153.541,102.006,100.484,0.00466143,0.117328,20.8322,466.845,0.137946,0.0,0.0
360,89.75,43.9249,49.5474,154.528,102.019,99.8728,0.0044145,0.11603,20.8334,466.825,0.195102,0.0,0.0
368,91.75,44.4522,48.8195,157.941,102.014,99.9585,0.00406399,0.114469,20.8339,466.845,0.186824,0.0,0.0
376,93.75,43.6392,48.5554,152.975,102.005,99.997,0.00387515,0.112932,20.8353,466.795,0.182396,0.0,0.0
384,95.75,43.4809,48.5073,154.774,102.007,99.8494,0.00390335,0.111767,20.836,466.805,0.196133,0.0,0.0
392,97.75,43.145,48.3933,153.45,101.994,99.8631,0.0040292,0.110591,20.8364,466.775,0.193725,0.0,0.0
400,99.75,43.627,47.9095,155.595,101.999,99.8353,0.00403146,0.109767,20.8365,466.765,0.196733,0.0,0.0
408,101.75,43.2256,47.699,149.463,102.004,99.8834,0.00405781,0.109276,20.837,466.815,0.192752,0.0,0.0
416,103.75,42.7945,47.3836,153.965,101.981,99.8155,0.0042258,0.10887,20.8381,466.825,0.196993,0.0,0.0
424,105.75,43.1471,47.2742,154.537,101.986,99.7227,0.00436861,0.10845,20.8385,466.805,0.205935,0.0,0.0
432,107.75,43.1793,47.007,157.669,101.992,100.02,0.0043916,0.108099,20.8388,466.805,0.179144,0.0,0.0
440,109.75,42.8221,46.6064,157.052,101.986,99.993,0.00431872,0.107906,20.8388,466.785,0.1811,0.0,0.0
448,111.75,42.6702,46.6892,150.79,101.993,99.8707,0.00414824,0.107873,20.8405,466.785,0.192915,0.0,0.0
456,113.75,42.7015,47.0391,152.071,101.987,100.09,0.00397435,0.107604,20.8414,466.845,0.172244,0.0,0.0
464,115.75,42.502,46.6698,156.279,101.999,99.993,0.00382087,0.107086,20.8418,466.765,0.182249,0.0,0.0
472,117.75,42.352,46.3438,158.788,101.989,100.206,0.00364097,0.10674,20.843,466.725,0.161873,0.0,0.0
480,119.75,42.3669,46.3661,151.624,101.985,100.142,0.00359617,0.106128,20.8437,466.725,0.167401,0.0,0.0
488,121.75,41.5645,46.1818,150.543,102.015,99.9062,0.00362725,0.105754,20.8433,466.775,0.191656,0.0,0.0
496,123.75,41.9345,46.2821,156.279,101.989,100.118,0.0037174,0.105739,20.8426,466.855,0.169957,0.0,0.0
504,125.75,42.2992,45.5407,151.099,101.999,99.818,0.00388519,0.105815,20.8423,466.785,0.198355,0.0,0.0
512,127.75,42.0374,46.2364,155.468,101.993,100.04,0.00395894,0.106084,20.8422,466.715,0.177442,0.0,0.0
520,129.75,42.3651,45.4284,156.655,101.993,99.9245,0.00395075,0.106285,20.8423,466.715,0.188052,0.0,0.0
528,131.75,41.6971,46.2785,154.008,101.988,99.8337,0.00393107,0.106337,20.8426,466.675,0.195872,0.0,0.0
536,133.75,42.1632,45.9629,153.187,101.999,100.335,0.00387072,0.105932,20.8433,466.685,0.15094,0.0,0.0
544,135.75,41.6624,45.8817,153.445,101.996,99.927,0.00366693,0.105453,20.8437,466.685,0.188078,0.0,0.0
552,137.75,41.9614,45.6074,153.932,102.015,100.068,0.00355853,0.105014,20.8439,466.705,0.176848,0.0,0.0
560,139.75,41.2742,45.2931,156.04,102.001,99.9042,0.0037209,0.104748,20.8444,466.645,0.190619,0.0,0.0
568,141.75,41.019,45.8847,153.193,102.016,100.091,0.00387241,0.104365,20.8455,466.625,0.174793,0.0,0.0
576,143.75,41.8324,45.1271,150.992,102.005,100.08,0.00385211,0.104054,20.8468,466.605,0.174816,0.0,0.0
584,145.75,41.6369,45.18,156.18,102.009,99.9529,0.00370026,0.103756,20.8474,466.585,0.186817,0.0,0.0
592,147.75,41.6418,45.9831,153.885,102.008,99.7901,0.00351455,0.103483,20.8476,466.635,0.201735,0.0,0.0
600,149.75,41.6773,45.6134,158.073,102.013,100.224,0.00340104,0.103292,20.8465,466.635,0.162399,0.0,0.0
608,151.75,42.2081,45.2451,157.436,102.015,99.7262,0.003338,0.102824,20.8459,466.625,0.208242,0.0,0.0
616,153.75,41.6885,45.5475,156.77,101.997,100.057,0.0033848,0.102539,20.8457,466.645,0.176204,0.0,0.0
624,155.75,41.1535,45.6092,151.958,102.001,99.9605,0.00351933,0.102444,20.8455,466.655,0.185451,0.0,0.0
632,157.75,41.1131,45.7989,160.21,102,99.9453,0.00362454,0.102179,20.8462,466.635,0.1867,0.0,0.0
640,159.75,41.4082,45.366,151.917,102.006,99.6512,0.00361169,0.101913,20.8468,466.575,0.214298,0.0,0.0
648,161.75,41.0419,45.2161,155.308,101.989,99.7146,0.00345666,0.101364,20.8471,466.635,0.20698,0.0,0.0
656,163.75,41.3973,45.4471,155.051,101.991,99.7201,0.00337502,0.100988,20.8472,466.525,0.206578,0.0,0.0
664,165.75,41.2193,44.7814,155.147,101.991,99.9544,0.00333856,0.10086,20.8473,466.535,0.18512,0.0,0.0
672,167.75,41.6096,44.6911,155.258,101.981,100.114,0.00330086,0.100679,20.8473,466.565,0.169541,0.0,0.0
680,169.75,41.0263,45.3682,154.29,101.988,100.242,0.00339052,0.100411,20.8481,466.545,0.158429,0.0,0.0
688,171.75,41.491,45.3536,155.484,101.983,100.207,0.00349462,0.100246,20.849,466.575,0.161178,0.0,0.0
696,173.75,41.3426,44.8584,157.243,101.985,99.8489,0.00338605,0.100029,20.8504,466.645,0.194251,0.0,0.0
704,175.75,40.7313,44.963,154.509,101.99,99.8408,,0.0999218,,466.505,0.195442,0.0,0.0
712,177.75,41.2008,45.3804,156.292,101.992,100.001,,,,466.505,0.180922,0.0,0.0
720,179.75,41.3537,45.5551,157.1,101.988,99.8996,,,,466.465,0.189853,0.0,0.0
728,181.75,41.6196,45.5278,156.271,101.984,99.6334,,,,466.515,0.214003,0.0,0.0
736,183.75,41.2958,44.9512,154.052,101.986,99.7536,,,,466.495,0.20309,0.0,0.0
743,185.5,41.3014,45.6601,157.846,101.986,99.8652,,,,466.495,0.192872,0.0,0.0