File: 01_Data/Overstuffed_Chair_Polyester_Batting/Cone/Overstuffed_Chair_Polyester_Batting_Cone_HF50Scalar_210326_R1.csv
LABORATORY,FSRI
TEST IDENT,PEbat_HF50_1
OPERATOR,Dow
MATERIAL,"PE batting, 1.75 inch thick"
ORIENTATION,Horizontal
HEAT FLUX,50
SURF AREA,0.01
C FACTOR,0.0386052
SPEC HOLDER DIFF,-98.37
SPECIMEN MASS,5.87
SCAN TIME,0.25
O2 DELAY TIME,11
CO DELAY TIME,11
CO2 DELAY TIME,8
FLOW FACTOR,1
SCAN COUNT,758
TIME TO IGN,36.75
END OF TEST SCAN,278
END OF TEST TIME,69.5
TEST STATUS,1
PRE TEST CMT,without frame or grid
POST TEST CMT,two opposing corners of foil collapsed towards center shortly before extinguishment