File: 01_Data/OSB/HFM/OSB_Density_Dry_210312_R2.csv
Length,20.64
Width,20.16
Thickness,1.62
Volume,0.000674086
Mass,387.88
Sample Density [kg/m3],575.416