File: 01_Data/OSB/HFM/OSB_Density_Dry_R3.csv
,OSB_DRY_3
Length,20.8
Width,20.16
Thickness,1.63
Volume,0.000683505
Mass,401.25
Sample Density [kg/m3],587.048