File: 01_Data/OSB/HFM/OSB_Density_Wet_R2.csv
,OSB_WET_2
Length,20.64
Width,20.16
Thickness,1.62
Volume,0.000674086
Mass,406.075
Sample Density [kg/m3],602.408