File: 01_Data/OSB/HFM/OSB_Density_Wet_210302_R3.csv
Length,20.8
Width,20.16
Thickness,1.63
Volume,0.000683505
Mass,419.92
Sample Density [kg/m3],614.363