File: 01_Data/OSB/HFM/OSB_Density_Dry_210312_R1.csv
Length,20.4
Width,20.24
Thickness,1.635
Volume,0.000675085
Mass,372.96
Sample Density [kg/m3],552.464