File: 01_Data/OSB/HFM/OSB_Density_Wet_R1.csv
,OSB_WET_1
Length,20.4
Width,20.24
Thickness,1.635
Volume,0.000675085
Mass,390.46
Sample Density [kg/m3],578.386