File: 01_Data/Bamboo_Rug_B/STA/N2/30K_min/Bamboo_Rug_B_STA_N2_30KData_220126_R2.csv
##Temp./Â°C,Time/min,Mass loss(subtr.2)/mg,DSC(subtr.2)/(mW/mg),Sensit./(uV/mW)
48.48,10.00583,0.00987,0.001981306,1.06964
51.58,10.86885,0.0111316,0.16235,1.06936
54.68,11.09807,0.009543936,0.26686,1.06905
57.78,11.27519,0.01259133,0.35384,1.06871
60.88,11.42782,0.01179864,0.42398,1.06835
63.98,11.5655,0.01062858,0.48265,1.06796
67.08,11.69467,0.01255368,0.53532,1.06755
70.18,11.81814,0.01067394,0.57928,1.06711
73.28,11.93699,0.01167538,0.61003,1.06664
76.38,12.05286,0.0114925,0.62826,1.06614
79.48,12.16642,0.009655176,0.64733,1.06563
82.58,12.2778,0.009217095,0.66412,1.06508
85.68,12.38748,0.01088516,0.68445,1.06451
88.78,12.49574,0.009343581,0.70281,1.06391
91.88,12.6029,0.009215539,0.71913,1.06329
94.98,12.7089,0.009335127,0.73513,1.06264
98.08,12.81431,0.00789268,0.74832,1.06197
101.18,12.91951,0.006581121,0.76544,1.06127
104.28,13.02385,0.007110171,0.7782,1.06054
107.38,13.12845,0.007049894,0.7929,1.0598
110.48,13.23264,0.006469987,0.80595,1.05902
113.58,13.33639,0.00639183,0.81265,1.05822
116.68,13.44005,0.005153082,0.82001,1.0574
119.78,13.54333,0.00382998,0.83092,1.05655
122.88,13.6464,0.002547469,0.8363,1.05568
125.98,13.74884,0.00516009,0.84491,1.05479
129.08,13.8506,0.00383789,0.85435,1.05387
132.18,13.9521,0.00384,0.85902,1.05292
135.28,14.05316,0.002319456,0.87024,1.05196
138.38,14.15365,0.003619991,0.8804,1.05097
141.48,14.2536,0.00230999,0.89173,1.04995
144.58,14.3529,0.00361999,0.90197,1.04891
147.68,14.4524,0.00230003,0.91232,1.04785
150.78,14.5512,0.00296191,0.9261,1.04677
153.88,14.64969,0.001970015,0.93765,1.04566
156.98,14.748,0.00197,0.94946,1.04454
160.08,14.84593,0.00197,0.96115,1.04338
163.18,14.94384,-0.0006601683,0.97638,1.04221
166.28,15.04139,-0.00066,0.99048,1.04101
169.38,15.1388,0.000330452,1.00309,1.0398
172.48,15.23596,0.00033,1.01905,1.03856
175.58,15.33274,0.0003321149,1.03178,1.0373
178.68,15.42881,-0.001190184,1.04399,1.03601
181.78,15.5255,-0.0023,1.05989,1.03471
184.88,15.62137,-0.00229999,1.06967,1.03338
187.98,15.7172,-0.003619957,1.08127,1.03204
191.08,15.81262,-0.00362,1.09334,1.03067
194.18,15.9079,-0.006281878,1.10796,1.02928
197.28,16.00305,-0.006621816,1.11703,1.02787
200.38,16.09771,-0.006250038,1.12885,1.02644
203.48,16.19308,-0.007908309,1.14134,1.02499
206.58,16.28787,-0.009238452,1.15383,1.02352
209.68,16.38291,-0.0105259,1.16837,1.02204
212.78,16.4775,-0.01312203,1.18167,1.02053
215.88,16.5719,-0.01279257,1.19497,1.019
218.98,16.66667,-0.0144753,1.21261,1.01745
222.08,16.76106,-0.01800089,1.22837,1.01589
225.18,16.85529,-0.01841692,1.24558,1.0143
228.28,16.94945,-0.0211472,1.26232,1.0127
231.38,17.04364,-0.02407057,1.28932,1.01107
234.48,17.13788,-0.02677081,1.31931,1.00943
237.58,17.2319,-0.02939214,1.36675,1.00777
240.68,17.32615,-0.03201584,1.43505,1.0061
243.78,17.42008,-0.03478917,1.53841,1.0044
246.88,17.51407,-0.03829393,1.68649,1.00269
249.98,17.6082,-0.04283637,1.84389,1.00096
253.08,17.70244,-0.04855714,1.82271,0.99921
256.18,17.796,-0.05075352,1.65198,0.99744
259.28,17.88981,-0.05590208,1.49553,0.99566
262.38,17.98327,-0.063119,1.40707,0.99386
265.48,18.0765,-0.06869966,1.36533,0.99205
268.58,18.17005,-0.07745969,1.34932,0.99022
271.68,18.2635,-0.08666297,1.35101,0.98837
274.78,18.357,-0.0957819,1.36155,0.98651
277.88,18.45045,-0.10795,1.3764,0.98463
280.98,18.54404,-0.12161,1.39481,0.98273
284.08,18.63758,-0.13566,1.4092,0.98082
287.18,18.73134,-0.15463,1.42708,0.9789
290.28,18.82508,-0.17185,1.44063,0.97695
293.38,18.9187,-0.19415,1.45001,0.975
296.48,19.0125,-0.2162,1.46125,0.97303
299.58,19.10611,-0.24116,1.46585,0.97104
302.68,19.1999,-0.2679,1.47122,0.96904
305.78,19.2937,-0.29625,1.47526,0.96703
308.88,19.38743,-0.32463,1.47635,0.965
311.98,19.4813,-0.35407,1.47946,0.96296
315.08,19.57489,-0.38575,1.48357,0.96091
318.18,19.66892,-0.41758,1.49537,0.95884
321.28,19.76275,-0.45133,1.50574,0.95676
324.38,19.85686,-0.48715,1.52516,0.95466
327.48,19.95082,-0.52273,1.54815,0.95255
330.58,20.04486,-0.5596,1.5841,0.95043
333.68,20.1394,-0.59986,1.62791,0.9483
336.78,20.23376,-0.64599,1.68086,0.94616
339.88,20.32832,-0.69305,1.74949,0.944
342.98,20.42287,-0.74509,1.83913,0.94183
346.08,20.51781,-0.80503,1.95185,0.93965
349.18,20.61264,-0.87334,2.08804,0.93746
352.28,20.7077,-0.95229,2.24954,0.93526
355.38,20.80309,-1.04513,2.42892,0.93304
358.48,20.89839,-1.15772,2.58818,0.93082
361.58,20.99404,-1.28575,2.66107,0.92858
364.68,21.08952,-1.42503,2.54681,0.92633
367.78,21.18477,-1.56565,2.1854,0.92407
370.88,21.28,-1.69374,1.73246,0.92181
373.98,21.37509,-1.79921,1.34084,0.91953
377.08,21.47024,-1.87641,1.06127,0.91724
380.18,21.5653,-1.93401,0.88149,0.91494
383.28,21.66066,-1.9768,0.78091,0.91264
386.38,21.7561,-2.01239,0.72664,0.91032
389.48,21.85161,-2.0469,0.69841,0.908
392.58,21.94746,-2.07904,0.68494,0.90566
395.68,22.04342,-2.11166,0.6768,0.90332
398.78,22.13955,-2.14734,0.6738,0.90097
401.88,22.236,-2.17894,0.66818,0.89861
404.98,22.33229,-2.21219,0.66517,0.89624
408.08,22.42887,-2.24648,0.66208,0.89386
411.18,22.52567,-2.28371,0.65523,0.89147
414.28,22.6223,-2.32016,0.65218,0.88908
417.38,22.71934,-2.35799,0.64769,0.88668
420.48,22.81625,-2.39819,0.63976,0.88427
423.58,22.9133,-2.43951,0.63874,0.88186
426.68,23.0104,-2.48174,0.635,0.87944
429.78,23.10774,-2.5262,0.63351,0.87701
432.88,23.2052,-2.57323,0.63626,0.87457
435.98,23.30294,-2.61917,0.6356,0.87213
439.08,23.40044,-2.66552,0.63978,0.86968
442.18,23.4979,-2.71024,0.63984,0.86722
445.28,23.59551,-2.75362,0.63839,0.86476
448.38,23.6935,-2.79197,0.63958,0.86229
451.48,23.7913,-2.83191,0.63284,0.85982
454.58,23.8892,-2.86522,0.62964,0.85734
457.68,23.98731,-2.89583,0.61481,0.85486
460.78,24.08544,-2.92499,0.59423,0.85237
463.88,24.18362,-2.94989,0.5678,0.84987
466.98,24.28181,-2.97368,0.52997,0.84737
470.08,24.38008,-2.99449,0.48743,0.84487
473.18,24.47852,-3.0129,0.44024,0.84236
476.28,24.5769,-3.02918,0.39806,0.83984
479.38,24.67547,-3.0432,0.36128,0.83733
482.48,24.77388,-3.05448,0.33248,0.8348
485.58,24.87256,-3.06441,0.3081,0.83228
488.68,24.97147,-3.07434,0.29203,0.82974
491.78,25.07028,-3.08232,0.2838,0.82721
494.88,25.16926,-3.08779,0.27496,0.82467
497.98,25.26826,-3.09596,0.26828,0.82213
501.08,25.3674,-3.1013,0.26302,0.81958
504.18,25.46673,-3.10673,0.25828,0.81704
507.28,25.56596,-3.11301,0.25452,0.81448
510.38,25.66525,-3.11664,0.25023,0.81193
513.48,25.7646,-3.12001,0.25097,0.80937
516.58,25.8642,-3.12444,0.24863,0.80681
519.68,25.96341,-3.12742,0.24835,0.80425
522.78,26.063,-3.1306,0.24646,0.80168
525.88,26.16272,-3.13288,0.24373,0.79912
528.98,26.26244,-3.13818,0.24139,0.79655
532.08,26.3622,-3.13977,0.23987,0.79397
535.18,26.462,-3.14391,0.23493,0.7914
538.28,26.56222,-3.14679,0.23868,0.78882
541.38,26.66207,-3.15075,0.23323,0.78625
544.48,26.7621,-3.1526,0.2344,0.78367
547.58,26.86225,-3.15533,0.234,0.78109
550.68,26.96255,-3.1572,0.23018,0.77851
553.78,27.06274,-3.16061,0.22693,0.77592
556.88,27.16328,-3.16481,0.22984,0.77334
559.98,27.26385,-3.16568,0.22924,0.77076
563.08,27.3644,-3.16883,0.22619,0.76817
566.18,27.46503,-3.17155,0.23158,0.76558
569.28,27.56573,-3.17289,0.22927,0.763
572.38,27.6666,-3.17563,0.23598,0.76041
575.48,27.7675,-3.17728,0.23296,0.75782
578.58,27.86856,-3.1792,0.23753,0.75524
581.68,27.9696,-3.18263,0.239,0.75265
584.78,28.0708,-3.18442,0.2377,0.75006
587.88,28.17207,-3.18528,0.24188,0.74747
590.98,28.27321,-3.18665,0.24282,0.74488
594.08,28.37472,-3.19076,0.24214,0.7423
597.18,28.4764,-3.19285,0.24864,0.73971
600.28,28.5778,-3.19548,0.24944,0.73712
603.38,28.6794,-3.19579,0.24945,0.73454
606.48,28.7812,-3.19909,0.25182,0.73195
609.58,28.88284,-3.20206,0.24776,0.72937
612.68,28.9847,-3.20532,0.24551,0.72678
615.78,29.0865,-3.20819,0.24457,0.7242
618.88,29.1886,-3.21007,0.24054,0.72162
621.98,29.29038,-3.21271,0.23483,0.71904
625.08,29.3924,-3.21414,0.23344,0.71646
628.18,29.49427,-3.21808,0.23581,0.71388
631.28,29.59648,-3.22075,0.23848,0.71131
634.38,29.69854,-3.22231,0.24392,0.70873
637.48,29.8006,-3.22331,0.24624,0.70616
640.58,29.90263,-3.22665,0.25212,0.70359
643.68,30.0048,-3.22795,0.25785,0.70102
646.78,30.10694,-3.22992,0.2677,0.69845
649.88,30.20925,-3.23257,0.27448,0.69588
652.98,30.3114,-3.23168,0.27783,0.69332
656.08,30.41382,-3.23345,0.2861,0.69076
659.18,30.5162,-3.23563,0.287,0.6882
662.28,30.6185,-3.23565,0.29015,0.68564
665.38,30.72093,-3.23797,0.28972,0.68309
668.48,30.8235,-3.23888,0.28879,0.68053
671.58,30.9258,-3.2399,0.28758,0.67798
674.68,31.0283,-3.24122,0.29054,0.67544
677.78,31.1308,-3.24255,0.28934,0.67289
680.88,31.2334,-3.24253,0.29077,0.67035
683.98,31.3358,-3.24517,0.29488,0.66781
687.08,31.4383,-3.24519,0.2962,0.66527
690.18,31.5411,-3.24649,0.29847,0.66274
693.28,31.6436,-3.24781,0.29695,0.66021
696.38,31.7465,-3.24785,0.2915,0.65768
699.48,31.84927,-3.24807,0.29054,0.65515
702.58,31.9521,-3.24912,0.28713,0.65263
705.68,32.05514,-3.25181,0.29006,0.65011
708.78,32.15821,-3.25205,0.28661,0.6476
711.88,32.26115,-3.25471,0.28111,0.64508
714.98,32.3642,-3.25439,0.27751,0.64257
718.08,32.46732,-3.25574,0.27454,0.64007
721.18,32.57043,-3.257,0.27124,0.63757
724.28,32.67367,-3.257,0.26554,0.63507
727.38,32.7769,-3.25836,0.2606,0.63257
730.48,32.88022,-3.26098,0.25383,0.63008
733.58,32.98345,-3.25966,0.24132,0.62759
736.68,33.0869,-3.2623,0.22876,0.62511
739.78,33.19025,-3.26229,0.22138,0.62263
742.88,33.29391,-3.26361,0.21602,0.62015
745.98,33.39756,-3.26492,0.20871,0.61768
749.08,33.5013,-3.2646,0.19898,0.61521
752.18,33.605,-3.26492,0.19027,0.61275
755.28,33.70876,-3.26624,0.18541,0.61029
758.38,33.81257,-3.26755,0.18225,0.60783
761.48,33.91619,-3.26892,0.17253,0.60538
764.58,34.02016,-3.26993,0.16813,0.60293
767.68,34.12397,-3.27018,0.16148,0.60048
770.78,34.2279,-3.27018,0.15802,0.59804
773.88,34.33183,-3.27183,0.15406,0.59561
776.98,34.43581,-3.27183,0.15104,0.59317
780.08,34.5396,-3.27315,0.14506,0.59075
783.18,34.64354,-3.27183,0.14379,0.58832
786.28,34.74754,-3.27316,0.1438,0.5859
789.38,34.85156,-3.27511,0.14396,0.58349
792.48,34.95563,-3.27524,0.14197,0.58108
793.68,34.99599,-3.27512,0.13782,0.58015