File: 01_Data/Bamboo_Rug_B/STA/N2/30K_min/Bamboo_Rug_B_STA_N2_30KData_220126_R3.csv
##Temp./Â°C,Time/min,Mass loss(subtr.2)/mg,DSC(subtr.2)/(mW/mg),Sensit./(uV/mW)
48.542,10.00667,-0.02292,0.0003593318,1.06963
51.742,10.87771,-0.02373171,0.16659,1.06934
54.942,11.1113,-0.02469265,0.28219,1.06902
58.142,11.29044,-0.02491546,0.37171,1.06867
61.342,11.44473,-0.02538096,0.44461,1.06829
64.542,11.58526,-0.02521631,0.5103,1.06789
67.742,11.71776,-0.02392844,0.56446,1.06746
70.942,11.84326,-0.0248191,0.60881,1.06699
74.142,11.9651,-0.02447376,0.63566,1.0665
77.342,12.08333,-0.02406125,0.65818,1.06599
80.542,12.19984,-0.02600434,0.6807,1.06544
83.742,12.31409,-0.02555034,0.7006,1.06487
86.942,12.42667,-0.02697997,0.72138,1.06427
90.142,12.538,-0.02826184,0.74304,1.06364
93.342,12.6481,-0.02838903,0.76134,1.06299
96.542,12.75734,-0.0287097,0.77964,1.0623
99.742,12.86609,-0.02984022,0.7982,1.0616
102.942,12.97413,-0.02983016,0.81669,1.06086
106.142,13.0825,-0.03114978,0.83338,1.0601
109.342,13.19014,-0.03245151,0.84665,1.05931
112.542,13.2975,-0.03435434,0.86063,1.05849
115.742,13.40448,-0.0350889,0.87035,1.05765
118.942,13.51126,-0.03379007,0.8783,1.05678
122.142,13.61781,-0.03577716,0.88334,1.05589
125.342,13.72366,-0.03708327,0.89289,1.05497
128.542,13.82906,-0.03704214,0.89784,1.05403
131.742,13.9338,-0.03707013,0.90608,1.05306
134.942,14.038,-0.03839136,0.91179,1.05206
138.142,14.14205,-0.03706728,0.9232,1.05104
141.342,14.24555,-0.03805987,0.93343,1.05
144.542,14.3485,-0.03935748,0.94409,1.04893
147.742,14.4509,-0.03841609,0.95585,1.04783
150.942,14.55285,-0.03970999,0.96805,1.04671
154.142,14.6547,-0.03971,0.97957,1.04557
157.342,14.756,-0.03971,0.99156,1.0444
160.542,14.8575,-0.04074609,1.00351,1.04321
163.742,14.9585,-0.0407,1.02126,1.04199
166.942,15.05901,-0.0407,1.03381,1.04076
170.142,15.15979,-0.04200634,1.04633,1.03949
173.342,15.2598,-0.04267002,1.06081,1.03821
176.542,15.35935,-0.04464892,1.07319,1.0369
179.742,15.45964,-0.04464002,1.08843,1.03557
182.942,15.5587,-0.04529633,1.09947,1.03421
186.142,15.6577,-0.04530102,1.11608,1.03284
189.342,15.75614,-0.04728,1.12612,1.03144
192.542,15.8549,-0.0485846,1.1414,1.03002
195.742,15.95335,-0.0499,1.15615,1.02857
198.942,16.05153,-0.04990007,1.16879,1.02711
202.142,16.14948,-0.05123165,1.18373,1.02562
205.342,16.24747,-0.05254022,1.19833,1.02411
208.542,16.34525,-0.05516788,1.21096,1.02258
211.742,16.44301,-0.05647996,1.22666,1.02103
214.942,16.54052,-0.0578,1.24324,1.01946
218.142,16.63795,-0.05911996,1.2571,1.01787
221.342,16.73554,-0.06042896,1.27177,1.01626
224.542,16.8327,-0.06174102,1.28828,1.01463
227.742,16.92989,-0.06558606,1.31051,1.01298
230.942,17.02691,-0.06701992,1.3377,1.0113
234.142,17.12399,-0.06830997,1.36787,1.00961
237.342,17.2209,-0.07107502,1.41704,1.0079
240.542,17.31784,-0.0752637,1.48299,1.00617
243.742,17.41485,-0.07800626,1.5876,1.00442
246.942,17.5119,-0.08226564,1.74035,1.00265
250.142,17.60898,-0.08577293,1.90542,1.00087
253.342,17.70584,-0.08907773,1.87584,0.99906
256.542,17.80249,-0.09357335,1.69546,0.99724
259.742,17.89904,-0.09907953,1.53662,0.9954
262.942,17.99566,-0.10607,1.44513,0.99354
266.142,18.09196,-0.11458,1.40424,0.99166
269.342,18.18818,-0.12338,1.39269,0.98977
272.542,18.28441,-0.13175,1.39276,0.98785
275.742,18.381,-0.14299,1.40104,0.98592
278.942,18.47741,-0.15531,1.41455,0.98398
282.142,18.57396,-0.16867,1.43018,0.98202
285.342,18.67059,-0.18387,1.44432,0.98004
288.542,18.76726,-0.20144,1.4585,0.97804
291.742,18.86412,-0.21959,1.46689,0.97603
294.942,18.9608,-0.24302,1.47195,0.97401
298.142,19.05733,-0.2679,1.47724,0.97197
301.342,19.1543,-0.29536,1.47677,0.96991
304.542,19.25114,-0.32411,1.47546,0.96784
307.742,19.348,-0.35572,1.47473,0.96575
310.942,19.44494,-0.38486,1.47507,0.96365
314.142,19.54176,-0.41612,1.47691,0.96153
317.342,19.63897,-0.44889,1.48209,0.9594
320.542,19.736,-0.48245,1.49176,0.95725
323.742,19.8329,-0.51725,1.50996,0.95509
326.942,19.93026,-0.55496,1.53142,0.95292
330.142,20.0279,-0.59333,1.56288,0.95073
333.342,20.12549,-0.63507,1.60533,0.94854
336.542,20.2229,-0.68008,1.65812,0.94632
339.742,20.32057,-0.73103,1.73008,0.9441
342.942,20.41858,-0.78539,1.81906,0.94186
346.142,20.51675,-0.84716,1.93135,0.93961
349.342,20.61486,-0.91868,2.0754,0.93734
352.542,20.7131,-1.00304,2.23952,0.93507
355.742,20.81156,-1.10422,2.41016,0.93278
358.942,20.9102,-1.2222,2.54116,0.93048
362.142,21.00887,-1.35824,2.53767,0.92817
365.342,21.10732,-1.50313,2.28603,0.92585
368.542,21.20575,-1.64152,1.83717,0.92352
371.742,21.30386,-1.76085,1.39474,0.92117
374.942,21.40181,-1.85078,1.06633,0.91882
378.142,21.49997,-1.91741,0.86901,0.91646
381.342,21.5982,-1.96633,0.75774,0.91408
384.542,21.69667,-2.00562,0.70364,0.9117
387.742,21.79522,-2.04031,0.68068,0.9093
390.942,21.89386,-2.07334,0.66846,0.9069
394.142,21.99268,-2.10598,0.669,0.90448
397.342,22.0918,-2.13953,0.66492,0.90206
400.542,22.1907,-2.17315,0.66456,0.89962
403.742,22.29019,-2.2085,0.66649,0.89718
406.942,22.3896,-2.24316,0.66503,0.89473
410.142,22.48915,-2.27929,0.65909,0.89227
413.342,22.58886,-2.3179,0.65656,0.88981
416.542,22.6886,-2.35572,0.65422,0.88733
419.742,22.78858,-2.39549,0.65227,0.88485
422.942,22.88851,-2.44033,0.64821,0.88236
426.142,22.98855,-2.4846,0.65067,0.87986
429.342,23.08869,-2.53011,0.65309,0.87735
432.542,23.18887,-2.57762,0.65802,0.87484
435.742,23.28925,-2.62567,0.65923,0.87232
438.942,23.38984,-2.67526,0.66006,0.86979
442.142,23.49032,-2.72196,0.65811,0.86725
445.342,23.5909,-2.76596,0.65863,0.86471
448.542,23.69164,-2.80937,0.65249,0.86217
451.742,23.7924,-2.84675,0.64963,0.85961
454.942,23.89334,-2.88266,0.63905,0.85705
458.142,23.99439,-2.91673,0.62796,0.85449
461.342,24.09552,-2.94707,0.60092,0.85192
464.542,24.19659,-2.97259,0.57075,0.84934
467.742,24.29775,-2.99721,0.5251,0.84676
470.942,24.39925,-3.02045,0.47525,0.84417
474.142,24.50067,-3.03876,0.42558,0.84158
477.342,24.60207,-3.05538,0.37897,0.83898
480.542,24.70371,-3.06931,0.34187,0.83638
483.742,24.80554,-3.08098,0.30675,0.83377
486.942,24.90744,-3.09216,0.2869,0.83116
490.142,25.00939,-3.10074,0.27084,0.82855
493.342,25.1114,-3.10559,0.25452,0.82593
496.542,25.21357,-3.11303,0.24511,0.82331
499.742,25.31602,-3.12225,0.23747,0.82068
502.942,25.41837,-3.12719,0.23342,0.81805
506.142,25.52083,-3.13178,0.22219,0.81542
509.342,25.62346,-3.13688,0.2181,0.81278
512.542,25.72614,-3.14282,0.21528,0.81015
515.742,25.8288,-3.14747,0.21145,0.8075
518.942,25.93168,-3.15137,0.20644,0.80486
522.142,26.0347,-3.15505,0.20351,0.80221
525.342,26.13756,-3.15886,0.20316,0.79956
528.542,26.24055,-3.16266,0.19939,0.79691
531.742,26.3435,-3.16758,0.19608,0.79425
534.942,26.44677,-3.17026,0.1976,0.7916
538.142,26.5499,-3.17467,0.19511,0.78894
541.342,26.6532,-3.17728,0.19114,0.78628
544.542,26.7567,-3.17855,0.19011,0.78362
547.742,26.86024,-3.18002,0.19117,0.78095
550.942,26.96381,-3.18445,0.19012,0.77829
554.142,27.06738,-3.18838,0.18596,0.77562
557.342,27.171,-3.19099,0.1896,0.77296
560.542,27.27477,-3.1937,0.18937,0.77029
563.742,27.37848,-3.19772,0.19229,0.76762
566.942,27.48228,-3.19846,0.19383,0.76495
570.142,27.58635,-3.20108,0.1899,0.76228
573.342,27.6904,-3.20503,0.19199,0.75961
576.542,27.79444,-3.20645,0.19184,0.75694
579.742,27.89868,-3.2092,0.18981,0.75427
582.942,28.003,-3.21188,0.1881,0.75159
586.142,28.1074,-3.21314,0.1887,0.74892
589.342,28.21183,-3.21578,0.18605,0.74625
592.542,28.31653,-3.21841,0.18485,0.74358
595.742,28.42122,-3.21973,0.18085,0.74091
598.942,28.52595,-3.2223,0.18915,0.73824
602.142,28.6307,-3.22466,0.19019,0.73557
605.342,28.73566,-3.22592,0.18754,0.7329
608.542,28.8407,-3.22887,0.18698,0.73023
611.742,28.94562,-3.23342,0.18015,0.72757
614.942,29.05078,-3.23579,0.17749,0.7249
618.142,29.15584,-3.24201,0.16993,0.72223
621.342,29.26111,-3.23929,0.16445,0.71957
624.542,29.3664,-3.2421,0.16813,0.71691
627.742,29.4718,-3.24484,0.16593,0.71425
630.942,29.57712,-3.24851,0.16717,0.71159
634.142,29.68242,-3.25187,0.16799,0.70893
637.342,29.7879,-3.25614,0.17708,0.70627
640.542,29.8933,-3.25669,0.18081,0.70362
643.742,29.99897,-3.258,0.18685,0.70097
646.942,30.10455,-3.25899,0.19655,0.69832
650.142,30.20947,-3.26031,0.2066,0.69567
653.342,30.31555,-3.26097,0.21712,0.69302
656.542,30.4209,-3.2646,0.21929,0.69038
659.742,30.5267,-3.2659,0.22523,0.68773
662.942,30.63222,-3.26591,0.22884,0.6851
666.142,30.7378,-3.26739,0.23506,0.68246
669.342,30.84354,-3.26785,0.23379,0.67982
672.542,30.9493,-3.27155,0.23596,0.67719
675.742,31.0551,-3.2715,0.23823,0.67456
678.942,31.1609,-3.2715,0.23532,0.67194
682.142,31.2669,-3.2715,0.23765,0.66931
685.342,31.37282,-3.27281,0.23832,0.66669
688.542,31.4787,-3.27413,0.24563,0.66408
691.742,31.58473,-3.27676,0.24124,0.66146
694.942,31.6908,-3.27804,0.23964,0.65885
698.142,31.79713,-3.27939,0.2394,0.65624
701.342,31.9032,-3.28071,0.23857,0.65364
704.542,32.00971,-3.28137,0.23878,0.65104
707.742,32.11598,-3.28038,0.23518,0.64844
710.942,32.22233,-3.28235,0.23605,0.64584
714.142,32.32877,-3.28367,0.23109,0.64325
717.342,32.43543,-3.28499,0.22999,0.64067
720.542,32.5419,-3.2863,0.23096,0.63808
723.742,32.6485,-3.28762,0.22335,0.6355
726.942,32.75519,-3.28893,0.22414,0.63293
730.142,32.8619,-3.28925,0.22162,0.63035
733.342,32.96868,-3.29059,0.21376,0.62778
736.542,33.0754,-3.28994,0.20969,0.62522
739.742,33.1822,-3.29124,0.20119,0.62266
742.942,33.28887,-3.29256,0.19476,0.6201
746.142,33.39575,-3.29306,0.19063,0.61755
749.342,33.50242,-3.29563,0.18486,0.615
752.542,33.60944,-3.29794,0.1763,0.61246
755.742,33.71662,-3.3,0.17268,0.60992
758.942,33.82352,-3.2987,0.16888,0.60738
762.142,33.93094,-3.29738,0.16638,0.60485
765.342,34.03817,-3.2987,0.16023,0.60233
768.542,34.14533,-3.30002,0.15651,0.5998
771.742,34.25274,-3.29936,0.15431,0.59728
774.942,34.36003,-3.30067,0.15508,0.59477
778.142,34.46719,-3.30199,0.15127,0.59226
781.342,34.57444,-3.30198,0.14636,0.58976
784.542,34.68186,-3.3042,0.14537,0.58726
787.742,34.7889,-3.30594,0.14267,0.58476
790.942,34.89656,-3.30594,0.14398,0.58227
793.942,34.99732,-3.30594,0.13747,0.57994