File: 01_Data/Asphalt_Shingle/HFM/Asphalt_Shingle_Density_Wet_R1.csv
,Asphalt_Shingle_DRY_1
Sample Mass [g],109.9
Sample Volume [cm3],89.6
Sample Density [kg/m3],1227