File: 01_Data/Asphalt_Shingle/HFM/Asphalt_Shingle_Density_Wet_R3.csv
,Asphalt_Shingle_DRY_3
Sample Mass [g],109.9
Sample Volume [cm3],90.7
Sample Density [kg/m3],1211