File: 01_Data/Asphalt_Shingle/HFM/Asphalt_Shingle_Density_Dry_R2.csv
,Asphalt_Shingle_DRY_2
Sample Mass [g],110.7
Sample Volume [cm3],90.8
Sample Density [kg/m3],1219