File: 01_Data/Oak_Flooring/STA/N2/10K_min/Oak_Flooring_STA_N2_10KData_211208_R2.csv
##Temp./Â°C,Time/min,Mass loss(subtr.2)/mg,DSC(subtr.2)/(mW/mg),Sensit./(uV/mW)
49.438,10.00917,-0.04486,0.02523532,1.07446
52.438,11.2935,-0.04813611,0.15375,1.07424
55.438,11.73183,-0.04907247,0.21413,1.07401
58.438,12.10465,-0.04878817,0.2518,1.07375
61.438,12.45134,-0.05165511,0.27576,1.07347
64.438,12.78544,-0.05297715,0.29794,1.07317
67.438,13.1149,-0.05422273,0.31323,1.07285
70.438,13.43738,-0.05561069,0.32966,1.07251
73.438,13.75826,-0.0576652,0.34451,1.07214
76.438,14.07445,-0.05964813,0.35801,1.07176
79.438,14.3873,-0.06216883,0.37204,1.07135
82.438,14.69665,-0.06351007,0.38017,1.07093
85.438,15.0038,-0.0648166,0.38548,1.07048
88.438,15.30821,-0.06878019,0.39021,1.07001
91.438,15.6112,-0.06892143,0.38944,1.06953
94.438,15.9107,-0.07010066,0.38836,1.06902
97.438,16.2092,-0.07338,0.38765,1.06849
100.438,16.50724,-0.07469963,0.38386,1.06794
103.438,16.80371,-0.07597873,0.38788,1.06737
106.438,17.0993,-0.07665525,0.39122,1.06678
109.438,17.39471,-0.076763,0.38985,1.06617
112.438,17.68917,-0.07929993,0.38819,1.06553
115.438,17.9835,-0.07931,0.38632,1.06488
118.438,18.27662,-0.08025124,0.38601,1.06421
121.438,18.56939,-0.08096864,0.38629,1.06352
124.438,18.86134,-0.08161,0.3867,1.0628
127.438,19.1544,-0.0816013,0.38888,1.06207
130.438,19.44598,-0.08160997,0.39181,1.06132
133.438,19.73869,-0.08258714,0.39462,1.06055
136.438,20.03014,-0.08425091,0.4001,1.05975
139.438,20.32085,-0.08293065,0.40422,1.05894
142.438,20.61037,-0.08418415,0.41031,1.05811
145.438,20.9004,-0.08658429,0.41518,1.05726
148.438,21.19011,-0.08557656,0.41956,1.05639
151.438,21.47968,-0.08521354,0.42439,1.05549
154.438,21.7685,-0.08687995,0.42569,1.05458
157.438,22.05785,-0.08556232,0.4305,1.05365
160.438,22.34743,-0.08618416,0.43675,1.0527
163.438,22.637,-0.0872,0.43847,1.05173
166.438,22.92641,-0.08650101,0.44304,1.05075
169.438,23.2153,-0.08786038,0.44953,1.04974
172.438,23.50386,-0.0878597,0.45349,1.04871
175.438,23.79204,-0.08819,0.45842,1.04766
178.438,24.07937,-0.08786008,0.46223,1.0466
181.438,24.36655,-0.08884736,0.46497,1.04552
184.438,24.6537,-0.08916858,0.46968,1.04441
187.438,24.9404,-0.0905,0.47234,1.04329
190.438,25.22671,-0.08951001,0.4771,1.04215
193.438,25.51314,-0.09082,0.47801,1.04099
196.438,25.79995,-0.09279953,0.48463,1.03982
199.438,26.08705,-0.09379157,0.48783,1.03862
202.438,26.37391,-0.09443257,0.49272,1.03741
205.438,26.66163,-0.09477592,0.49705,1.03618
208.438,26.94912,-0.09619999,0.50231,1.03493
211.438,27.2371,-0.09850024,0.50987,1.03366
214.438,27.52415,-0.09982,0.51642,1.03237
217.438,27.81128,-0.10378,0.52189,1.03107
220.438,28.0982,-0.1064,0.52529,1.02974
223.438,28.38498,-0.1094,0.52968,1.0284
226.438,28.67248,-0.11459,0.53241,1.02705
229.438,28.9599,-0.11956,0.53385,1.02567
232.438,29.24728,-0.12712,0.53857,1.02428
235.438,29.53417,-0.13376,0.54011,1.02287
238.438,29.8211,-0.14062,0.54628,1.02144
241.438,30.1082,-0.14869,0.55359,1.02
244.438,30.3948,-0.15805,0.55393,1.01854
247.438,30.68153,-0.1689,0.55595,1.01706
250.438,30.96834,-0.17911,0.56082,1.01556
253.438,31.25477,-0.19125,0.56237,1.01405
256.438,31.5418,-0.20491,0.5647,1.01252
259.438,31.8293,-0.22092,0.56599,1.01097
262.438,32.11763,-0.241,0.56331,1.00941
265.438,32.40525,-0.26157,0.56118,1.00783
268.438,32.69325,-0.28812,0.55667,1.00624
271.438,32.98117,-0.31747,0.55395,1.00463
274.438,33.26893,-0.34966,0.54812,1.003
277.438,33.5563,-0.38781,0.53795,1.00135
280.438,33.84442,-0.43016,0.52812,0.99969
283.438,34.13231,-0.47516,0.51454,0.99802
286.438,34.42046,-0.52446,0.5028,0.99633
289.438,34.70833,-0.57714,0.48829,0.99462
292.438,34.9968,-0.63323,0.47709,0.9929
295.438,35.2849,-0.69448,0.47224,0.99116
298.438,35.5735,-0.75692,0.46487,0.98941
301.438,35.8617,-0.82182,0.46193,0.98764
304.438,36.1509,-0.88622,0.4607,0.98586
307.438,36.43945,-0.95423,0.46769,0.98406
310.438,36.72829,-1.01901,0.47795,0.98224
313.438,37.0174,-1.08745,0.48973,0.98042
316.438,37.30706,-1.15566,0.50724,0.97857
319.438,37.5966,-1.22393,0.52556,0.97672
322.438,37.8857,-1.29744,0.54404,0.97484
325.438,38.17597,-1.37263,0.56227,0.97296
328.438,38.466,-1.45304,0.57973,0.97106
331.438,38.75627,-1.53716,0.59711,0.96914
334.438,39.0469,-1.63049,0.61513,0.96721
337.438,39.33703,-1.72397,0.63345,0.96527
340.438,39.6277,-1.82682,0.64679,0.96332
343.438,39.9181,-1.93547,0.65671,0.96135
346.438,40.20935,-2.05066,0.66352,0.95936
349.438,40.5004,-2.16922,0.66303,0.95737
352.438,40.7922,-2.29002,0.64898,0.95536
355.438,41.08331,-2.40862,0.62106,0.95333
358.438,41.3748,-2.52477,0.57503,0.9513
361.438,41.66482,-2.62907,0.51283,0.94925
364.438,41.9565,-2.71582,0.43686,0.94718
367.438,42.2478,-2.78345,0.35819,0.94511
370.438,42.53925,-2.82629,0.30002,0.94302
373.438,42.83036,-2.85356,0.26764,0.94092
376.438,43.12172,-2.87295,0.24794,0.93881
379.438,43.41373,-2.88832,0.23408,0.93668
382.438,43.70608,-2.90151,0.22465,0.93454
385.438,43.9981,-2.91284,0.21528,0.9324
388.438,44.29091,-2.92359,0.20559,0.93023
391.438,44.5836,-2.93426,0.19484,0.92806
394.438,44.87614,-2.94537,0.18691,0.92588
397.438,45.16885,-2.95604,0.1816,0.92368
400.438,45.4621,-2.96439,0.17562,0.92147
403.438,45.7553,-2.97432,0.17071,0.91925
406.438,46.04906,-2.98425,0.16414,0.91702
409.438,46.3431,-2.99299,0.16936,0.91478
412.438,46.6369,-3.00109,0.16895,0.91253
415.438,46.9315,-3.0101,0.17004,0.91027
418.438,47.22648,-3.01812,0.17175,0.90799
421.438,47.5207,-3.02569,0.17381,0.90571
424.438,47.81568,-3.03493,0.17398,0.90341
427.438,48.11034,-3.04181,0.178,0.90111
430.438,48.40505,-3.04858,0.18776,0.89879
433.438,48.6999,-3.05542,0.19324,0.89646
436.438,48.9947,-3.0617,0.20197,0.89413
439.438,49.289,-3.06803,0.20632,0.89178
442.438,49.58374,-3.07364,0.21418,0.88943
445.438,49.8784,-3.08032,0.22359,0.88706
448.438,50.17386,-3.08591,0.22625,0.88469
451.438,50.4693,-3.09151,0.23315,0.8823
454.438,50.76547,-3.09679,0.23953,0.87991
457.438,51.06215,-3.10102,0.24667,0.87751
460.438,51.35902,-3.10774,0.2573,0.8751
463.438,51.65513,-3.11048,0.2703,0.87267
466.438,51.95179,-3.11559,0.28582,0.87025
469.438,52.24754,-3.11696,0.29351,0.86781
472.438,52.54297,-3.12292,0.30285,0.86536
475.438,52.8383,-3.12613,0.31334,0.86291
478.438,53.13364,-3.13142,0.31712,0.86044
481.438,53.42921,-3.13406,0.32256,0.85797
484.438,53.72525,-3.1389,0.32715,0.85549
487.438,54.02241,-3.14262,0.32529,0.853
490.438,54.3195,-3.14813,0.32168,0.85051
493.438,54.61704,-3.1526,0.3234,0.848
496.438,54.91454,-3.15568,0.3212,0.84549
499.438,55.21241,-3.15824,0.31857,0.84298
502.438,55.5101,-3.16214,0.324,0.84045
505.438,55.8085,-3.16511,0.32568,0.83792
508.438,56.1068,-3.1612,0.32234,0.83538
511.438,56.4048,-3.17096,0.32052,0.83283
514.438,56.70338,-3.17362,0.31705,0.83028
517.438,57.00141,-3.17618,0.31474,0.82772
520.438,57.2996,-3.17863,0.30977,0.82515
523.438,57.5977,-3.18156,0.30581,0.82258
526.438,57.8966,-3.18456,0.30593,0.82
529.438,58.19505,-3.18737,0.29415,0.81741
532.438,58.4941,-3.18902,0.28562,0.81482
535.438,58.7926,-3.19168,0.27916,0.81222
538.438,59.0911,-3.19429,0.27101,0.80962
541.438,59.3908,-3.19758,0.26882,0.80701
544.438,59.69025,-3.1989,0.25914,0.80439
547.438,59.9902,-3.20217,0.25719,0.80177
550.438,60.29055,-3.19962,0.25073,0.79914
553.438,60.5907,-3.20614,0.25157,0.79651
556.438,60.8915,-3.20745,0.24692,0.79387
559.438,61.19161,-3.21139,0.24723,0.79123
562.438,61.4913,-3.21333,0.2458,0.78858
565.438,61.791,-3.21531,0.24811,0.78593
568.438,62.09039,-3.21772,0.25065,0.78328
571.438,62.3902,-3.2238,0.24876,0.78062
574.438,62.69007,-3.22157,0.25286,0.77795
577.438,62.98984,-3.2239,0.25499,0.77528
580.438,63.29022,-3.22521,0.25908,0.77261
583.438,63.5906,-3.22653,0.26089,0.76993
586.438,63.8914,-3.22784,0.26499,0.76724
589.438,64.19256,-3.22916,0.27311,0.76456
592.438,64.49336,-3.23048,0.27422,0.76187
595.438,64.79495,-3.23418,0.28084,0.75917
598.438,65.09576,-3.23366,0.28818,0.75648
601.438,65.39737,-3.23496,0.29404,0.75378
604.438,65.6985,-3.23859,0.30054,0.75107
607.438,65.99939,-3.24168,0.30832,0.74836
610.438,66.30119,-3.24068,0.31574,0.74565
613.438,66.60178,-3.2443,0.32565,0.74294
616.438,66.90286,-3.24693,0.33255,0.74022
619.438,67.2036,-3.24921,0.33512,0.73751
622.438,67.50487,-3.25092,0.33518,0.73478
625.438,67.8057,-3.25088,0.33508,0.73206
628.438,68.1066,-3.25331,0.33516,0.72933
631.438,68.4071,-3.25417,0.33763,0.7266
634.438,68.7081,-3.25612,0.34485,0.72387
637.438,69.00931,-3.25746,0.34337,0.72114
640.438,69.31198,-3.25807,0.34463,0.7184
643.438,69.61477,-3.25876,0.34727,0.71567
646.438,69.91665,-3.25911,0.34821,0.71293
649.438,70.21899,-3.26119,0.34649,0.71019
652.438,70.52038,-3.26308,0.34735,0.70745
655.438,70.82215,-3.26342,0.34852,0.7047
658.438,71.12358,-3.26383,0.34888,0.70196
661.438,71.42651,-3.26248,0.35046,0.69921
664.438,71.7291,-3.26547,0.35068,0.69646
667.438,72.03163,-3.26415,0.34967,0.69371
670.438,72.33474,-3.26547,0.34839,0.69097
673.438,72.6375,-3.2658,0.34962,0.68821
676.438,72.94032,-3.26788,0.34742,0.68546
679.438,73.24335,-3.26943,0.34185,0.68271
682.438,73.54581,-3.2681,0.34272,0.67996
685.438,73.8484,-3.26876,0.33644,0.67721
688.438,74.15085,-3.27069,0.33816,0.67445
691.438,74.45326,-3.27008,0.33779,0.6717
694.438,74.75604,-3.27237,0.33635,0.66895
697.438,75.06004,-3.27338,0.33432,0.6662
700.438,75.3631,-3.27403,0.33324,0.66344
703.438,75.66704,-3.27402,0.33088,0.66069
706.438,75.97089,-3.27534,0.33107,0.65794
709.438,76.2739,-3.27665,0.33118,0.65518
712.438,76.57759,-3.27698,0.33023,0.65243
715.438,76.88084,-3.2783,0.33122,0.64968
718.438,77.18471,-3.27795,0.33151,0.64693
721.438,77.48805,-3.27962,0.33235,0.64418
724.438,77.7928,-3.27929,0.33734,0.64143
727.438,78.09692,-3.28025,0.336,0.63868
730.438,78.40148,-3.28094,0.33584,0.63594
733.438,78.7059,-3.28133,0.33768,0.63319
736.438,79.0098,-3.28291,0.3377,0.63045
739.438,79.31344,-3.28357,0.34115,0.6277
742.438,79.61769,-3.28491,0.34207,0.62496
745.438,79.92195,-3.28488,0.33877,0.62222
746.138,79.9926,-3.28488,0.33767,0.62158