File: 01_Data/Oak_Flooring/STA/N2/10K_min/Oak_Flooring_STA_N2_10KData_211207_R1.csv
##Temp./Â°C,Time/min,DSC(subtr.2)/(mW/mg),Mass loss(subtr.2)/mg,Sensit./(uV/mW)
49.36,10.01,0.01527769,-0.02204,1.07447
52.26,11.2787,0.11697,-0.02068148,1.07426
55.16,11.7074,0.1667,-0.02850304,1.07403
58.06,12.07049,0.19438,-0.02643593,1.07378
60.96,12.4072,0.21606,-0.02500159,1.07352
63.86,12.73133,0.22968,-0.02789089,1.07323
66.76,13.04773,0.24504,-0.03055772,1.07292
69.66,13.3609,0.255,-0.03049024,1.0726
72.56,13.6699,0.26844,-0.03180685,1.07225
75.46,13.9756,0.27846,-0.03180623,1.07189
78.36,14.27921,0.28853,-0.03505076,1.0715
81.26,14.5795,0.29338,-0.03705246,1.0711
84.16,14.8768,0.30072,-0.03791401,1.07067
87.06,15.1716,0.3008,-0.03937001,1.07023
89.96,15.4643,0.30154,-0.04200986,1.06977
92.86,15.75554,0.29917,-0.0439796,1.06929
95.76,16.04588,0.29486,-0.04463999,1.06879
98.66,16.3342,0.2849,-0.04596098,1.06827
101.56,16.62126,0.28538,-0.04759999,1.06773
104.46,16.9072,0.29094,-0.04784529,1.06717
107.36,17.19272,0.28762,-0.04792524,1.06659
110.26,17.47876,0.28281,-0.04929272,1.06599
113.16,17.76357,0.27654,-0.04990668,1.06538
116.06,18.04804,0.27262,-0.05122,1.06474
118.96,18.33255,0.26837,-0.05274038,1.06409
121.86,18.61686,0.26807,-0.05319882,1.06342
124.76,18.90119,0.26812,-0.05384955,1.06273
127.66,19.18413,0.26731,-0.05351847,1.06202
130.56,19.4662,0.26857,-0.0535286,1.06129
133.46,19.74888,0.27157,-0.05259122,1.06054
136.36,20.0303,0.27231,-0.05451036,1.05977
139.26,20.31178,0.27435,-0.05421674,1.05899
142.16,20.5927,0.27682,-0.05353002,1.05819
145.06,20.87302,0.27708,-0.05334044,1.05737
147.96,21.15285,0.27842,-0.0541829,1.05653
150.86,21.4329,0.27913,-0.05352,1.05567
153.76,21.7124,0.2821,-0.05352882,1.05479
156.66,21.99142,0.28341,-0.05484,1.0539
159.56,22.27122,0.28628,-0.06512932,1.05298
162.46,22.55058,0.28893,-0.05932027,1.05205
165.36,22.82927,0.2917,-0.0522025,1.0511
168.26,23.10759,0.29543,-0.0535298,1.05014
171.16,23.3855,0.30067,-0.05581996,1.04915
174.06,23.66272,0.30222,-0.05780002,1.04815
176.96,23.93976,0.30478,-0.06076,1.04713
179.86,24.2166,0.3067,-0.06012436,1.04609
182.76,24.49346,0.30676,-0.0567906,1.04503
185.66,24.77011,0.30663,-0.05573086,1.04396
188.56,25.04788,0.30909,-0.06011338,1.04287
191.46,25.3253,0.31215,-0.06241,1.04176
194.36,25.60291,0.31373,-0.06505598,1.04063
197.26,25.88039,0.31478,-0.06537094,1.03949
200.16,26.15765,0.31905,-0.06603,1.03833
203.06,26.43484,0.32275,-0.06865953,1.03715
205.96,26.71208,0.32707,-0.06998056,1.03596
208.86,26.98883,0.3332,-0.07224559,1.03475
211.76,27.26561,0.33778,-0.07327912,1.03352
214.66,27.5436,0.34062,-0.07776759,1.03228
217.56,27.8214,0.33999,-0.08117491,1.03101
220.46,28.09866,0.34247,-0.08313997,1.02973
223.36,28.3764,0.34505,-0.08448209,1.02844
226.26,28.65505,0.34659,-0.08978397,1.02713
229.16,28.93238,0.34762,-0.09575335,1.0258
232.06,29.21054,0.34857,-0.10167,1.02446
234.96,29.48814,0.35323,-0.10728,1.02309
237.86,29.7654,0.35547,-0.1149,1.02172
240.76,30.0435,0.35645,-0.12297,1.02033
243.66,30.3217,0.35472,-0.13101,1.01892
246.56,30.5996,0.3604,-0.1396,1.01749
249.46,30.8781,0.35895,-0.14968,1.01605
252.36,31.1568,0.36381,-0.16108,1.01459
255.26,31.4344,0.36478,-0.17264,1.01312
258.16,31.713,0.36727,-0.18865,1.01163
261.06,31.9911,0.37211,-0.20683,1.01013
263.96,32.26813,0.37123,-0.22568,1.00861
266.86,32.54515,0.36921,-0.25024,1.00708
269.76,32.8232,0.36845,-0.27605,1.00553
272.66,33.10145,0.3634,-0.30577,1.00396
275.56,33.37905,0.35806,-0.34203,1.00239
278.46,33.6569,0.34757,-0.37765,1.00079
281.36,33.9345,0.33729,-0.41896,0.99918
284.26,34.2126,0.327,-0.46547,0.99756
287.16,34.49077,0.31201,-0.51487,0.99592
290.06,34.76932,0.30338,-0.56769,0.99427
292.96,35.0486,0.28899,-0.62386,0.9926
295.86,35.3277,0.28065,-0.68427,0.99092
298.76,35.60714,0.27597,-0.74378,0.98922
301.66,35.88687,0.27001,-0.80779,0.98751
304.56,36.16607,0.27259,-0.87114,0.98578
307.46,36.44579,0.27886,-0.93497,0.98404
310.36,36.7256,0.29053,-0.99853,0.98229
313.26,37.0051,0.30369,-1.06456,0.98053
316.16,37.28484,0.31864,-1.13072,0.97874
319.06,37.5647,0.33308,-1.19956,0.97695
321.96,37.8446,0.35178,-1.26879,0.97514
324.86,38.1256,0.36738,-1.34313,0.97332
327.76,38.40615,0.38614,-1.42118,0.97149
330.66,38.68723,0.40597,-1.50325,0.96964
333.56,38.96803,0.42722,-1.58809,0.96778
336.46,39.24858,0.44616,-1.68115,0.96591
339.36,39.52924,0.46626,-1.78009,0.96402
342.26,39.81012,0.47887,-1.88182,0.96212
345.16,40.09168,0.48945,-1.99331,0.96021
348.06,40.37402,0.49122,-2.10405,0.95828
350.96,40.6558,0.48518,-2.22131,0.95635
353.86,40.93795,0.46663,-2.33981,0.9544
356.76,41.21911,0.43602,-2.45265,0.95244
359.66,41.50111,0.3864,-2.56146,0.95046
362.56,41.7819,0.31958,-2.65822,0.94848
365.46,42.06306,0.24047,-2.73651,0.94648
368.36,42.34437,0.17073,-2.79606,0.94447
371.26,42.6258,0.11799,-2.83351,0.94245
374.16,42.9077,0.08497404,-2.85882,0.94041
377.06,43.18907,0.06806618,-2.87728,0.93837
379.96,43.4717,0.05486048,-2.89035,0.93631
382.86,43.75335,0.04736634,-2.90465,0.93424
385.76,44.0362,0.03603585,-2.91589,0.93216
388.66,44.3189,0.03146285,-2.92789,0.93007
391.56,44.60223,0.02390952,-2.93785,0.92797
394.46,44.88493,0.01791881,-2.9487,0.92586
397.36,45.16825,0.01366207,-2.95809,0.92374
400.26,45.4508,0.008112765,-2.96811,0.9216
403.16,45.7341,0.005384164,-2.9773,0.91946
406.06,46.01746,0.00303223,-2.98684,0.9173
408.96,46.3018,0.00274435,-2.99575,0.91514
411.86,46.58663,0.00175912,-3.00352,0.91296
414.76,46.87064,0.00183149,-3.00969,0.91078
417.66,47.15439,0.00685417,-3.01742,0.90858
420.56,47.4392,0.01108728,-3.0258,0.90638
423.46,47.7242,0.01474028,-3.03281,0.90416
426.36,48.00935,0.01591062,-3.04105,0.90194
429.26,48.2946,0.02234974,-3.04779,0.8997
432.16,48.57973,0.03090134,-3.05309,0.89746
435.06,48.8654,0.03645932,-3.06041,0.8952
437.96,49.1509,0.04433762,-3.06638,0.89294
440.86,49.43607,0.04790051,-3.07397,0.89067
443.76,49.72118,0.05567828,-3.07998,0.88839
446.66,50.0074,0.06151171,-3.08591,0.8861
449.56,50.2935,0.06731039,-3.09022,0.8838
452.46,50.5787,0.0723886,-3.09676,0.88149
455.36,50.86506,0.07596984,-3.10119,0.87917
458.26,51.15185,0.08360114,-3.10772,0.87685
461.16,51.43777,0.08769188,-3.11169,0.87451
464.06,51.72364,0.09038972,-3.11559,0.87217
466.96,52.00991,0.10185,-3.1209,0.86982
469.86,52.2956,0.10992,-3.12354,0.86746
472.76,52.58223,0.11688,-3.12628,0.8651
475.66,52.8688,0.12836,-3.13286,0.86272
478.56,53.1562,0.13368,-3.13411,0.86034
481.46,53.4435,0.13955,-3.13811,0.85795
484.36,53.7315,0.14019,-3.14108,0.85556
487.26,54.01945,0.14726,-3.14503,0.85315
490.16,54.3069,0.14936,-3.14898,0.85074
493.06,54.594,0.15195,-3.15293,0.84832
495.96,54.88139,0.15003,-3.15691,0.84589
498.86,55.1684,0.15067,-3.15918,0.84346
501.76,55.4556,0.15313,-3.16379,0.84102
504.66,55.7428,0.15296,-3.16642,0.83857
507.56,56.0307,0.15415,-3.16909,0.83612
510.46,56.31925,0.15418,-3.17267,0.83366
513.36,56.6072,0.15395,-3.1766,0.8312
516.26,56.8962,0.15477,-3.17826,0.82872
519.16,57.18424,0.15335,-3.1807,0.82624
522.06,57.47302,0.15175,-3.18491,0.82376
524.96,57.76118,0.15302,-3.18747,0.82127
527.86,58.0502,0.14997,-3.18946,0.81877
530.76,58.33965,0.15036,-3.19207,0.81627
533.66,58.62936,0.14433,-3.19698,0.81376
536.56,58.9191,0.14259,-3.19734,0.81125
539.46,59.20844,0.14201,-3.19998,0.80873
542.36,59.4972,0.13898,-3.20131,0.8062
545.26,59.78618,0.14068,-3.20656,0.80367
548.16,60.0749,0.13523,-3.20688,0.80114
551.06,60.36399,0.13992,-3.20821,0.7986
553.96,60.65339,0.13697,-3.21218,0.79605
556.86,60.94255,0.13825,-3.21346,0.7935
559.76,61.2314,0.13763,-3.21511,0.79095
562.66,61.5212,0.13824,-3.21775,0.78839
565.56,61.81122,0.14094,-3.21875,0.78582
568.46,62.101,0.14096,-3.22267,0.78326
571.36,62.391,0.13868,-3.22376,0.78068
574.26,62.6814,0.14008,-3.22533,0.77811
577.16,62.9714,0.14523,-3.22795,0.77553
580.06,63.26116,0.14902,-3.22927,0.77294
582.96,63.55066,0.15358,-3.23058,0.77035
585.86,63.84104,0.15764,-3.2319,0.76776
588.76,64.13214,0.1624,-3.23453,0.76517
591.66,64.42276,0.16609,-3.23617,0.76257
594.56,64.71393,0.16583,-3.23881,0.75996
597.46,65.00453,0.17404,-3.24012,0.75736
600.36,65.29515,0.17813,-3.24046,0.75475
603.26,65.58677,0.18489,-3.24441,0.75213
606.16,65.87856,0.18711,-3.24502,0.74952
609.06,66.16986,0.19256,-3.24637,0.7469
611.96,66.46145,0.20061,-3.24878,0.74428
614.86,66.75357,0.20626,-3.24999,0.74165
617.76,67.0449,0.21763,-3.25263,0.73903
620.66,67.33622,0.2223,-3.25395,0.7364
623.56,67.62724,0.2248,-3.25395,0.73377
626.46,67.9184,0.21829,-3.2579,0.73113
629.36,68.20915,0.21556,-3.25852,0.72849
632.26,68.5009,0.21173,-3.25987,0.72586
635.16,68.7929,0.20477,-3.2617,0.72322
638.06,69.08455,0.19753,-3.26348,0.72057
640.96,69.3763,0.19662,-3.2648,0.71793
643.86,69.6687,0.19731,-3.26546,0.71528
646.76,69.96095,0.19574,-3.26678,0.71263
649.66,70.25312,0.19994,-3.26744,0.70998
652.56,70.5454,0.1904,-3.26876,0.70733
655.46,70.83711,0.1925,-3.27007,0.70468
658.36,71.12892,0.19119,-3.27139,0.70203
661.26,71.4203,0.19656,-3.27204,0.69937
664.16,71.7116,0.1919,-3.27402,0.69672
667.06,72.003,0.1935,-3.27269,0.69406
669.96,72.29495,0.1947,-3.27506,0.6914
672.86,72.5866,0.19122,-3.27633,0.68874
675.76,72.87796,0.19273,-3.27632,0.68609
678.66,73.17068,0.18862,-3.27763,0.68343
681.56,73.46355,0.18743,-3.27796,0.68077
684.46,73.75654,0.18531,-3.27928,0.67811
687.36,74.0496,0.18357,-3.27929,0.67544
690.26,74.34264,0.18328,-3.28052,0.67278
693.16,74.63534,0.17963,-3.28154,0.67012
696.06,74.9298,0.17799,-3.28192,0.66746
698.96,75.22365,0.17343,-3.28241,0.6648
701.86,75.51699,0.17164,-3.2837,0.66214
704.76,75.8103,0.16294,-3.28454,0.65948
707.66,76.10376,0.16033,-3.2852,0.65682
710.56,76.39731,0.1589,-3.28592,0.65415
713.46,76.69106,0.15818,-3.28652,0.65149
716.36,76.98437,0.15521,-3.28894,0.64884
719.26,77.27793,0.1594,-3.28784,0.64618
722.16,77.57087,0.15841,-3.29014,0.64352
725.06,77.86434,0.15934,-3.29102,0.64086
727.96,78.15714,0.16365,-3.29163,0.6382
730.86,78.4509,0.15688,-3.29409,0.63555
733.76,78.7449,0.1604,-3.29344,0.6329
736.66,79.03913,0.15919,-3.29606,0.63024
739.56,79.3338,0.15849,-3.29673,0.62759
742.46,79.62776,0.15712,-3.29668,0.62494
745.36,79.92171,0.15596,-3.29929,0.62229
746.06,79.99303,0.15856,-3.29804,0.62165