File: 01_Data/Mineral_Wool_Insulation/Cone/Mineral_Wool_Insulation_Cone_HF25Scan_220426_R3.csv
Names,Time,Stack TC,Smoke TC,Exh Press,Smoke Comp,Smoke Meas,CO Meter,CO2 Meter,O2 Meter,Sample Mass,Ext Coeff,Start Test,Flame Verif
Chan Gain,,500,500,1,1,1,1,1,1,1,1,1.0,1.0
Offset,,0,0,0.135223,0,0,0,0,0,0,0,0.0,0.0
Gain,,1,1,25.011,13.0939,14.0471,1,1,1,1.00088,1.00971,1.0,1.0
Units,sec,C,C,Pa,%,%,%,%,%,g,/m,,
Baseline,,20.681,21.3772,151.738,98.9385,94.9113,0.000922962,0.0440352,21.0197,-834.047,0.368072,,
32,7.75,19.1618,19.7936,152.315,98.4972,94.2983,0.000721192,0.0483429,21.0119,-302.167,0.385858,0.0,0.0
64,15.75,18.5343,20.017,150.956,98.4201,94.4295,0.00119248,0.0448796,21.0182,-302.177,0.366608,0.0,0.0
96,23.75,19.1443,20.0388,152.583,98.4844,94.4758,0.000789119,0.0436637,21.0195,-302.207,0.368054,0.0,0.0
128,31.75,19.3762,20.2873,149.528,98.5412,94.3605,0.00109717,0.0433306,21.0214,-302.227,0.383972,0.0,0.0
160,39.75,19.3083,20.3045,151.689,98.6063,94.5924,0.00105204,0.04286,21.0222,-302.257,0.368084,0.0,0.0
192,47.75,19.577,20.3255,148.757,98.6558,94.7759,0.00106544,0.0430577,21.0216,-302.237,0.355369,0.0,0.0
224,55.75,19.4512,20.7112,146.734,98.7262,94.7647,0.000998463,0.0432341,21.021,-302.257,0.362723,0.0,0.0
256,63.75,19.8525,20.4264,150.125,98.7885,94.8252,0.00132847,0.043226,21.024,-302.267,0.362666,0.0,0.0
288,71.75,19.8379,20.8276,149.64,98.8724,94.8685,0.0010517,0.0432118,21.0241,-302.277,0.366144,0.0,0.0
320,79.75,20.2947,20.9381,153.567,98.9096,95.0965,0.000982679,0.0435191,21.0241,-302.287,0.348205,0.0,0.0
352,87.75,20.2528,21.0586,151.081,98.9523,94.9958,0.000645831,0.0435159,21.0241,-302.307,0.361421,0.0,0.0
384,95.75,20.2998,20.9812,149.565,98.9963,94.9966,0.000867668,0.0433761,21.0241,-302.317,0.365274,0.0,0.0
416,103.75,20.4303,21.2163,148.571,99.0275,95.0854,0.00112011,0.043623,21.0231,-302.317,0.359792,0.0,0.0
448,111.75,20.6686,21.4301,150.467,99.0698,95.1287,0.000961081,0.0437293,21.0225,-302.337,0.359548,0.0,0.0
480,119.75,20.6535,21.1966,149.793,99.1006,95.0434,0.000985943,0.0438801,21.0211,-302.337,0.370245,0.0,0.0
512,127.75,20.8194,21.0819,150.267,99.1174,95.1788,0.000787563,0.0439743,21.0197,-302.357,0.35913,0.0,0.0
544,135.75,20.4192,20.8836,153.261,99.1561,95.1947,0.000905428,0.0439965,21.0195,-302.347,0.361116,0.0,0.0
576,143.75,20.5461,21.2409,149.742,99.1741,95.0219,0.000821293,0.0440831,21.0195,-302.357,0.378811,0.0,0.0
608,151.75,20.6118,20.8576,149.051,99.1913,95.2024,0.000877603,0.0441246,21.0195,-302.387,0.36354,0.0,0.0
640,159.75,20.2468,21.1813,151.922,99.1973,95.3023,0.000838471,0.0441206,21.0217,-302.387,0.354787,0.0,0.0
672,167.75,20.3622,21.5879,151.009,99.1965,95.253,0.000546433,0.0441341,21.0218,-302.387,0.359299,0.0,0.0
704,175.75,20.7154,21.3009,151.188,99.2161,95.4673,0.000979022,0.0440663,21.0204,-302.397,0.341139,0.0,0.0
736,183.75,20.5521,21.485,156.345,99.2093,95.3469,0.000766542,0.044016,21.0194,-302.417,0.351715,0.0,0.0
768,191.75,20.7838,21.5876,155.094,99.2193,95.1835,0.000770697,0.0440192,21.0199,-302.397,0.367792,0.0,0.0
800,199.75,20.4265,20.7755,151.67,99.2153,95.2633,0.000862487,0.0442545,21.0194,-302.417,0.360018,0.0,0.0
832,207.75,20.8217,21.7605,153.45,99.1973,95.214,0.000961549,0.0443935,21.0196,-302.417,0.362999,0.0,0.0
864,215.75,20.9718,21.8454,147.754,99.1853,95.2873,0.000658544,0.0445371,21.0205,-302.407,0.355111,0.0,0.0
896,223.75,20.7,21.6616,149.753,99.1481,95.1098,0.000471307,0.0443826,21.0192,-302.427,0.368303,0.0,0.0
928,231.75,20.6579,21.7559,153.031,99.0922,95.1908,0.000910955,0.0444493,21.0199,-302.417,0.355764,0.0,0.0
960,239.75,20.9098,21.2556,148.718,99.0271,95.0854,0.000881247,0.044485,21.0183,-302.407,0.359757,0.0,0.0
992,247.75,20.1582,21.0793,150.068,98.9651,94.9889,0.00089304,0.0443204,21.0211,-302.427,0.363205,0.0,0.0
1024,255.75,20.8056,21.8521,152.051,98.906,94.9448,0.000817579,0.044081,21.0227,-302.437,0.362029,0.0,0.0
1056,263.75,20.8305,21.8011,147.574,98.8041,94.8089,0.000816636,0.0439918,21.0235,-302.447,0.365585,0.0,0.0
1088,271.75,20.9668,21.443,151.945,98.715,94.8955,0.000802829,0.0439589,21.0204,-302.447,0.349507,0.0,0.0
1120,279.75,20.8327,21.4788,151.593,98.6439,94.598,0.000688352,0.0442019,21.0194,-302.457,0.370934,0.0,0.0
1152,287.75,21.0203,21.6907,148.027,98.5671,94.6241,0.000796207,0.0445633,21.0199,-302.447,0.361596,0.0,0.0
1184,295.75,21.0177,22.0201,150.739,98.4804,94.4925,0.000801964,0.044799,21.0227,-302.457,0.366128,0.0,0.0
1216,303.75,20.8986,21.4264,151.072,98.4189,94.5259,0.000952245,0.0450262,21.0222,-302.457,0.357457,0.0,0.0
1248,311.75,20.7176,21.89,149.771,98.3817,94.4899,0.000963781,0.045105,21.0198,-302.457,0.357487,0.0,0.0
1280,319.75,21.0905,21.6076,153.45,98.3394,94.3523,0.000783723,0.0450641,21.0197,-302.467,0.366581,0.0,0.0
1312,327.75,20.7724,21.5127,150.766,98.3078,94.3365,0.000978309,0.0448943,21.0188,-302.467,0.365226,0.0,0.0
1344,335.75,20.9321,21.9026,149.514,98.271,94.3635,0.000789409,0.0452047,21.0158,-302.477,0.359378,0.0,0.0
1376,343.75,20.8647,22.0277,150.148,98.2435,94.3665,0.000615479,0.045475,21.0155,-302.467,0.35661,0.0,0.0
1408,351.75,20.8757,22.06,153.979,98.1979,94.2692,0.000303069,0.0451721,21.0165,-302.467,0.361642,0.0,0.0
1440,359.75,20.386,22.2894,152.905,98.1552,94.2619,0.000729888,0.0447507,21.0191,-302.487,0.358468,0.0,0.0
1472,367.75,20.9807,21.9891,149.181,98.0944,94.1907,0.000700711,0.0441784,21.0202,-302.477,0.359675,0.0,0.0
1504,375.75,21.272,21.9361,148.537,98.068,94.2769,0.000549637,0.0439299,21.0197,-302.487,0.349196,0.0,0.0
1536,383.75,20.5327,21.6643,153.218,98.0441,94.1226,0.000752095,0.0437081,21.0218,-302.487,0.36154,0.0,0.0
1568,391.75,20.7004,21.606,148.408,98.0077,94.0617,0.000764714,0.0434994,21.0224,-302.487,0.363985,0.0,0.0
1600,399.75,20.5262,21.4957,150.181,97.9717,94.0741,0.00102247,0.0434018,21.0224,-302.477,0.359563,0.0,0.0
1632,407.75,20.9498,22.0401,154.591,97.9278,94.0252,0.000559971,0.0434105,21.0235,-302.497,0.360191,0.0,0.0
1664,415.75,21.0697,21.9386,150.624,97.8842,94.0231,0.000662768,0.0435065,21.0237,-302.487,0.356453,0.0,0.0
1696,423.75,20.8011,22.0567,147.48,97.8678,93.9549,0.000951742,0.0434041,21.0237,-302.497,0.361393,0.0,0.0
1728,431.75,21.555,21.9735,152.319,97.8327,93.8371,0.000727602,0.0434441,21.0239,-302.487,0.36933,0.0,0.0
1760,439.75,21.0176,22.0457,150.819,97.7947,93.8083,0.000767016,0.0433781,21.0244,-302.507,0.368604,0.0,0.0
1792,447.75,21.1392,21.9792,152.742,97.7532,93.8383,0.000688458,0.043461,21.0244,-302.507,0.362007,0.0,0.0
1824,455.75,21.3465,22.3653,149.42,97.7184,93.9134,0.000766306,0.0433914,21.0209,-302.517,0.351779,0.0,0.0
1856,463.75,21.8788,21.9592,150.126,97.7008,93.8671,0.000721829,0.0437587,21.0204,-302.507,0.354552,0.0,0.0
1888,471.75,21.027,22.537,149.5,97.6605,93.8516,0.000573909,0.0437484,21.0204,-302.497,0.352349,0.0,0.0
1920,479.75,21.1972,22.3827,149.161,97.6181,93.8195,0.00023399,0.0438875,21.0229,-302.507,0.351542,0.0,0.0
1952,487.75,21.7017,21.8715,148.055,97.5694,93.5738,0.000492152,0.0443381,21.0209,-302.487,0.370337,0.0,0.0
1984,495.75,21.2572,22.4245,150.998,97.4766,93.7543,0.000507603,0.0443546,21.0206,-302.507,0.344851,0.0,0.0
2016,503.75,20.8244,22.1103,152.444,97.3979,93.5018,0.000777392,0.0441444,21.0198,-302.497,0.361582,0.0,0.0
2048,511.75,20.8953,21.7173,149.723,97.3496,93.4504,0.000791462,0.0443107,21.0197,-302.507,0.362057,0.0,0.0
2080,519.75,21.357,21.6406,150.522,97.2936,93.4251,0.0007533,0.0445037,21.0189,-302.497,0.359364,0.0,0.0
2112,527.75,20.88,22.0689,154.193,97.2645,93.3179,0.000934341,0.0446213,21.0193,-302.497,0.366874,0.0,0.0
2144,535.75,21.3206,21.7755,149.41,97.2445,93.3994,0.00085873,0.0447801,21.0193,-302.507,0.357326,0.0,0.0
2176,543.75,21.1397,21.7705,154.101,97.2377,93.4079,0.000746217,0.0445469,21.0195,-302.517,0.355894,0.0,0.0
2208,551.75,21.2409,22.1355,146.77,97.2365,93.3304,0.000644482,0.0442637,21.0192,-302.507,0.363146,0.0,0.0
2240,559.75,20.8699,21.8572,150.76,97.2505,93.4547,0.000757533,0.0443098,21.0176,-302.507,0.35263,0.0,0.0
2272,567.75,20.8605,21.7021,151.534,97.2401,93.2883,0.000659306,0.0446288,21.0181,-302.477,0.367462,0.0,0.0
2304,575.75,21.3702,21.954,151.563,97.2661,93.3985,0.000933604,0.0446117,21.0186,-302.477,0.359373,0.0,0.0
2336,583.75,20.7919,21.6958,150.121,97.306,93.4028,0.000821709,0.0442789,21.0178,-302.487,0.362605,0.0,0.0
2368,591.75,20.838,22.0754,153.908,97.3228,93.7462,0.000552503,0.0446256,21.02,-302.507,0.331631,0.0,0.0
2400,599.75,21.0442,21.719,148.105,97.3576,93.4727,0.000515607,0.045275,21.0183,-302.517,0.360672,0.0,0.0
2432,607.75,20.8573,21.4959,150.697,97.3863,93.4993,0.000504567,0.0458751,21.0161,-302.517,0.360771,0.0,0.0
2464,615.75,20.9575,21.7901,152.812,97.4263,93.5404,0.000803173,0.0456449,21.0145,-302.527,0.360506,0.0,0.0
2496,623.75,21.3907,21.9593,150.004,97.4511,93.7157,0.000489149,0.0450627,21.0157,-302.497,0.346172,0.0,0.0
2528,631.75,20.802,21.1401,151.856,97.4854,93.7625,0.000545472,0.0450008,21.0155,-302.507,0.344881,0.0,0.0
2560,639.75,20.7803,21.6037,146.544,97.5314,93.7222,0.000925485,0.0447494,21.0163,-302.517,0.352861,0.0,0.0
2592,647.75,20.7014,21.5141,150.454,97.6117,93.6463,0.000897571,0.0447892,21.0172,-302.527,0.367327,0.0,0.0
2624,655.75,20.6603,21.5353,145.35,97.7012,93.804,0.000460897,0.0444112,21.0172,-302.497,0.360537,0.0,0.0
2656,663.75,20.4188,21.1803,146.876,97.7895,93.9296,0.000252358,0.0436922,21.0213,-302.507,0.356688,0.0,0.0
2688,671.75,20.8939,21.5277,151.238,97.8267,93.7839,0.000400765,0.0435524,21.0202,-302.537,0.373806,0.0,0.0
2720,679.75,20.1832,21.2236,150.645,97.895,93.9528,0.000782906,0.0436263,21.0211,-302.527,0.364055,0.0,0.0
2752,687.75,20.5529,21.5113,148.464,97.9478,94.2156,0.000647807,0.0431204,21.0217,-302.517,0.344087,0.0,0.0
2784,695.75,20.5745,21.4222,147.81,98.0033,94.1526,0.00058742,0.0432812,21.0211,-302.497,0.355034,0.0,0.0
2816,703.75,20.4379,21.0203,148.911,98.0704,94.1303,0.000408887,0.04284,21.0217,-302.497,0.363196,0.0,0.0
2848,711.75,20.5084,21.362,149.746,98.1324,94.2126,0.00052445,0.0431428,21.0194,-302.517,0.361047,0.0,0.0
2880,719.75,20.4011,21.7687,147.628,98.1943,94.315,0.00064229,0.0433876,21.0185,-302.527,0.357009,0.0,0.0
2912,727.75,20.5986,21.5328,151.152,98.2479,94.3549,0.000574867,0.0435252,21.0184,-302.527,0.358094,0.0,0.0
2944,735.75,20.6624,21.5191,150.682,98.2906,94.3343,,0.0437349,,-302.517,0.363879,0.0,0.0
2976,743.75,20.2418,21.5125,152.365,98.315,94.2786,,,,-302.527,0.37131,0.0,0.0
2985,746,20.3364,21.6542,153.647,98.327,94.4076,,,,-302.527,0.360276,0.0,0.0