File: 01_Data/Mineral_Wool_Insulation/Cone/Mineral_Wool_Insulation_Cone_HF50Scan_220426_R2.csv
Names,Time,Stack TC,Smoke TC,Exh Press,Smoke Comp,Smoke Meas,CO Meter,CO2 Meter,O2 Meter,Sample Mass,Ext Coeff,Start Test,Flame Verif
Chan Gain,,500,500,1,1,1,1,1,1,1,1,1.0,1.0
Offset,,0,0,0.135223,0,0,0,0,0,0,0,0.0,0.0
Gain,,1,1,25.011,13.0939,14.0471,1,1,1,1.00088,1.00971,1.0,1.0
Units,sec,C,C,Pa,%,%,%,%,%,g,/m,,
Baseline,,33.3652,34.5397,144.685,99.0611,96.0695,0.000785869,0.0467779,21.0097,-834.385,0.271624,,
31,7.5,33.103,34.4593,142.093,98.7502,96.0696,0.00168663,0.05477,21.0006,-318.821,0.243744,0.0,0.0
62,15.25,33.8549,34.8697,141.764,98.7741,95.8137,0.00227428,0.0546424,21.0007,-318.901,0.26952,0.0,0.0
93,23,34.4437,35.125,145.535,98.7697,96.0726,0.00238941,0.0520807,21.0048,-318.931,0.245222,0.0,0.0
124,30.75,34.4431,35.8146,146.256,98.7701,95.8956,0.00208462,0.0506097,21.0054,-318.951,0.261596,0.0,0.0
155,38.5,35.0825,36.176,146.339,98.7773,96.0735,0.00186267,0.049795,21.0061,-318.951,0.245824,0.0,0.0
186,46.25,35.198,36.4128,142.974,98.7917,95.7211,0.00208475,0.0493141,21.0082,-319.001,0.27966,0.0,0.0
217,54,34.9654,36.3166,142.697,98.7949,96.0461,0.00172259,0.049031,21.0107,-319.031,0.249931,0.0,0.0
248,61.75,35.3529,36.4627,143.674,98.7833,95.9084,0.00179175,0.049496,21.0117,-319.041,0.261591,0.0,0.0
279,69.5,35.5886,36.8119,141.394,98.7917,96.0023,0.00199775,0.0491084,21.0119,-319.081,0.253677,0.0,0.0
310,77.25,35.8502,37.0523,144.141,98.7749,95.9007,0.00148074,0.0489376,21.0115,-319.132,0.261551,0.0,0.0
341,85,35.4871,37.4325,142.632,98.7689,96.0962,0.00142175,0.0490243,21.0103,-319.142,0.242978,0.0,0.0
372,92.75,35.6534,37.287,144.871,98.7462,95.9745,0.00134641,0.0497354,21.0076,-319.152,0.252163,0.0,0.0
403,100.5,36.1112,37.7759,147.292,98.7925,95.7061,0.0016524,0.0494835,21.0084,-319.182,0.28112,0.0,0.0
434,108.25,36.2555,37.7463,140.468,98.8676,95.9959,0.00143563,0.049427,21.0089,-319.182,0.261075,0.0,0.0
465,116,36.4067,37.5975,143.602,98.8516,96.4923,0.00160237,0.0488574,21.0089,-319.202,0.213958,0.0,0.0
496,123.75,36.0625,38.1105,141.697,98.7641,96.0036,0.00148527,0.0483708,21.0111,-319.202,0.251087,0.0,0.0
527,131.5,36.4413,37.8553,144.899,98.7394,96.0988,0.00131108,0.0480203,21.012,-319.242,0.240089,0.0,0.0
558,139.25,36.4775,38.1997,145.38,98.7753,96.26,0.00132513,0.0479453,21.0124,-319.242,0.22847,0.0,0.0
589,147,36.6174,38.2828,138.831,98.7829,96.2072,0.00142421,0.0488764,21.0099,-319.252,0.234004,0.0,0.0
620,154.75,36.4812,37.5446,139.324,98.8117,96.1378,0.00132343,0.0483614,21.0112,-319.262,0.24298,0.0,0.0
651,162.5,36.3897,38.1074,141.917,98.7949,96.1322,0.00118788,0.0477569,21.0111,-319.282,0.241989,0.0,0.0
682,170.25,36.7983,38.5233,148.787,98.7889,95.9655,0.00131462,0.0477825,21.0144,-319.282,0.256828,0.0,0.0
713,178,36.7244,38.5034,145.454,98.7749,96.1404,0.00101921,0.0480889,21.0153,-319.282,0.239447,0.0,0.0
744,185.75,36.7166,38.0808,144.077,98.7745,96.0491,0.000834396,0.0482126,21.0143,-319.282,0.247828,0.0,0.0
775,193.5,37.1607,38.3136,144.109,98.7993,95.6877,0.00124061,0.0485896,21.0101,-319.302,0.283435,0.0,0.0
806,201.25,36.654,38.1052,144.505,98.872,96.0778,0.00105034,0.0484701,21.0102,-319.292,0.253917,0.0,0.0
837,209,36.8917,37.9131,141.214,98.938,96.2102,0.000795972,0.0484646,21.0091,-319.292,0.247618,0.0,0.0
868,216.75,36.9368,38.6466,143.622,98.9919,96.0083,0.000706849,0.0488934,21.0066,-319.312,0.271054,0.0,0.0
899,224.5,36.9433,38.4464,144.631,99.0754,96.0152,0.00109941,0.0484872,21.0064,-319.322,0.277891,0.0,0.0
930,232.25,37.1977,38.7204,143.717,99.1553,96.5382,0.000770524,0.0483511,21.009,-319.322,0.236919,0.0,0.0
961,240,37.0731,38.6334,142.284,99.2624,96.5056,0.00072671,0.0476418,21.0108,-319.302,0.249469,0.0,0.0
992,247.75,36.5981,38.5974,142.068,99.3647,97.0093,0.000822946,0.0474871,21.0119,-319.302,0.212484,0.0,0.0
1023,255.5,36.8382,38.8088,146.615,99.453,96.3826,0.000621193,0.0473954,21.0134,-319.302,0.277759,0.0,0.0
1054,263.25,36.5392,38.4696,147.798,99.5134,96.7547,0.00093473,0.0471568,21.0139,-319.322,0.249003,0.0,0.0
1085,271,37.2809,38.2886,143.619,99.5485,96.3903,0.000945334,0.0467293,21.0139,-319.322,0.285552,0.0,0.0
1116,278.75,37.2573,38.7231,143.226,99.5905,97.1499,0.00084504,0.0466066,21.0139,-319.312,0.219757,0.0,0.0
1147,286.5,36.8226,38.6286,142.611,99.5881,96.4966,0.000468213,0.0463918,21.013,-319.302,0.279306,0.0,0.0
1178,294.25,37.033,38.6786,143.006,99.5865,96.9995,0.000391045,0.0460158,21.0129,-319.342,0.23313,0.0,0.0
1209,302,37.4641,38.159,148.412,99.5841,96.8335,0.000490886,0.046347,21.0129,-319.342,0.248078,0.0,0.0
1240,309.75,36.9255,38.8435,145.933,99.5737,96.3821,0.000478018,0.0468785,21.0113,-319.332,0.288539,0.0,0.0
1271,317.5,37.2658,38.8124,142.54,99.5661,96.7731,0.000688115,0.0472406,21.0104,-319.352,0.252009,0.0,0.0
1302,325.25,37.5516,38.7431,144.096,99.511,96.9892,0.00058204,0.0472313,21.0111,-319.322,0.227351,0.0,0.0
1333,333,36.7213,38.7919,141.114,99.4474,96.5755,0.000729315,0.0471518,21.0116,-319.342,0.259551,0.0,0.0
1364,340.75,37.4399,38.9862,142.127,99.3931,96.81,0.000494986,0.0472006,21.0094,-319.352,0.23323,0.0,0.0
1395,348.5,37.3856,37.8109,139.677,99.3236,96.3136,0.000574117,0.0467152,21.0092,-319.352,0.272567,0.0,0.0
1426,356.25,37.1635,38.6725,140.911,99.258,97.1499,0.00086727,0.0460588,21.0138,-319.342,0.19014,0.0,0.0
1457,364,37.2332,38.6121,140.826,99.1881,96.6719,0.000504139,0.0455922,21.0145,-319.332,0.227582,0.0,0.0
1488,371.75,37.2468,38.744,144.916,99.1162,96.4289,0.000653371,0.0451659,21.0145,-319.332,0.243455,0.0,0.0
1519,379.5,37.4126,39.1351,139.037,99.0367,96.395,0.000465468,0.0452852,21.0165,-319.352,0.239457,0.0,0.0
1550,387.25,37.8437,38.7597,144.715,98.9691,96.1777,0.00047725,0.0454952,21.0172,-319.352,0.253408,0.0,0.0
1581,395,37.3611,38.5527,141.641,98.8688,96.215,0.000924417,0.0452375,21.0177,-319.332,0.240994,0.0,0.0
1612,402.75,37.5475,38.7973,143.735,98.7797,96.0469,0.00038366,0.0452633,21.0159,-319.342,0.248491,0.0,0.0
1643,410.5,37.2103,39.4642,140.178,98.6814,95.7747,0.000348163,0.0448063,21.0147,-319.322,0.26481,0.0,0.0
1674,418.25,37.6781,38.9531,143.037,98.6027,95.8793,0.000515747,0.0447983,21.0168,-319.292,0.248074,0.0,0.0
1705,426,37.0769,38.7295,147.842,98.5555,95.4236,0.000462532,0.0450631,21.0145,-319.342,0.286033,0.0,0.0
1736,433.75,37.4978,38.9138,141.078,98.4916,95.8291,0.000594288,0.045547,21.0122,-319.302,0.242724,0.0,0.0
1767,441.5,37.5632,38.7174,143.293,98.4824,95.8729,0.000445481,0.0454147,21.0131,-319.322,0.237857,0.0,0.0
1798,449.25,37.5942,38.8787,145.697,98.4828,95.746,0.000795769,0.0453022,21.0152,-319.332,0.249624,0.0,0.0
1829,457,37.5114,39.4376,145.238,98.504,96.1335,0.000872554,0.0449428,21.017,-319.342,0.215752,0.0,0.0
1860,464.75,37.2545,39.0537,144.796,98.5264,96.0328,0.000445009,0.0454592,21.0172,-319.292,0.227049,0.0,0.0
1891,472.5,37.2772,38.804,142.503,98.5536,95.9989,0.000606539,0.0456916,21.015,-319.302,0.232616,0.0,0.0
1922,480.25,37.8712,39.0653,144.053,98.5759,96.0409,0.000575613,0.0450455,21.0154,-319.352,0.230751,0.0,0.0
1953,488,37.3898,38.6935,140.104,98.6239,96.2145,0.000541906,0.0448872,21.0178,-319.332,0.219063,0.0,0.0
1984,495.75,37.1724,38.4329,141.543,98.6606,96.0924,0.000537882,0.045075,21.0163,-319.322,0.233618,0.0,0.0
2015,503.5,37.4894,38.7332,146.551,98.7374,96.0705,0.000700831,0.0448854,21.0172,-319.342,0.242518,0.0,0.0
2046,511.25,37.0305,39.0378,142.765,98.7761,95.5797,0.000608454,0.0446866,21.0174,-319.322,0.291362,0.0,0.0
2077,519,37.3738,38.3738,138.863,98.8365,96.5159,0.00077493,0.0448162,21.0169,-319.342,0.210435,0.0,0.0
2108,526.75,37.2584,38.4273,141.751,98.9132,96.5665,0.000391154,0.0458542,21.0121,-319.362,0.212666,0.0,0.0
2139,534.5,37.0268,38.5565,140.675,98.9839,95.7953,0.000754675,0.0462972,21.0099,-319.362,0.290016,0.0,0.0
2170,542.25,36.9793,38.732,141.866,99.0522,96.6496,0.000498837,0.0464666,21.0104,-319.372,0.217486,0.0,0.0
2201,550,36.6476,38.351,144.171,99.0974,96.6089,0.000580483,0.0472843,21.0093,-319.382,0.225254,0.0,0.0
2232,557.75,36.6782,38.3624,143.634,99.1234,96.0028,0.000470472,0.0480149,21.0067,-319.362,0.283323,0.0,0.0
2263,565.5,37.4764,38.5614,143.21,99.1441,96.3286,0.000673049,0.0484483,21.0053,-319.352,0.255173,0.0,0.0
2294,573.25,36.3634,38.3726,141.12,99.1801,96.3509,0.00080366,0.0482806,21.0052,-319.352,0.256335,0.0,0.0
2325,581,36.3576,37.9043,142.391,99.1689,96.7131,0.000919122,0.0510798,21.003,-319.362,0.2221,0.0,0.0
2356,588.75,36.6925,38.3673,141.779,99.2205,96.2754,0.000585557,0.0498225,21.0083,-319.382,0.266877,0.0,0.0
2387,596.5,36.7287,38.0952,145.141,99.2121,96.1982,0.000509398,0.0485091,21.0088,-319.382,0.27323,0.0,0.0
2418,604.25,34.8773,36.235,138.211,99.2245,96.6989,0.000618199,0.0477625,21.0088,-319.362,0.228355,0.0,0.0
2449,612,34.533,36.2257,138.747,99.2009,96.5811,0.000454216,0.04803,21.006,-319.352,0.237055,0.0,0.0
2480,619.75,34.3053,36.1959,147.034,99.2013,96.1044,0.000578397,0.0480035,21.0049,-319.322,0.280914,0.0,0.0
2511,627.5,34.53,35.7291,143.703,99.2041,96.6578,0.00044435,0.0472082,21.0076,-319.342,0.230306,0.0,0.0
2542,635.25,34.7443,35.9341,143.19,99.1873,96.4344,0.00066548,0.045834,21.013,-319.352,0.249297,0.0,0.0
2573,643,34.5585,36.2647,143.981,99.2129,96.6089,0.000752295,0.045184,21.0146,-319.312,0.23557,0.0,0.0
2604,650.75,34.6525,36.2466,139.972,99.2149,96.377,0.000588052,0.0452477,21.0133,-319.342,0.257036,0.0,0.0
2635,658.5,34.2595,36.2673,143.216,99.2588,96.7037,0.00041772,0.045469,21.0116,-319.372,0.23099,0.0,0.0
2666,666.25,34.2961,36.3349,144.064,99.3108,96.7534,0.000666855,0.0457239,21.0101,-319.342,0.231071,0.0,0.0
2697,674,34.529,36.0725,142.766,99.3835,96.7851,0.000630156,0.0454206,21.0122,-319.352,0.234651,0.0,0.0
2728,681.75,34.2139,36.3108,143.47,99.4199,96.9184,0.000649308,0.0447455,21.0149,-319.362,0.225699,0.0,0.0
2759,689.5,34.6959,36.1822,145.276,99.4482,96.5656,0.00064517,0.0445772,21.0154,-319.342,0.260527,0.0,0.0
2790,697.25,34.5175,35.8513,146.171,99.4574,96.7697,0.00020228,0.0445488,21.0137,-319.382,0.242649,0.0,0.0
2821,705,34.3705,35.8527,144.564,99.475,96.5875,-4.99547e-06,0.0452665,21.0155,-319.362,0.260905,0.0,0.0
2852,712.75,34.2496,35.7496,141.886,99.473,96.8824,,0.0457884,,-319.352,0.233724,0.0,0.0
2883,720.5,34.316,35.8072,141.061,99.4802,96.7122,,,,-319.322,0.249936,0.0,0.0
2885,721,34.7329,35.9229,141.836,99.4934,96.957,,,,-319.322,0.228721,0.0,0.0