File: 01_Data/Mineral_Wool_Insulation/Cone/Mineral_Wool_Insulation_Cone_HF50Scan_220426_R1.csv
Names,Time,Stack TC,Smoke TC,Exh Press,Smoke Comp,Smoke Meas,CO Meter,CO2 Meter,O2 Meter,Sample Mass,Ext Coeff,Start Test,Flame Verif
Chan Gain,,500,500,1,1,1,1,1,1,1,1,1.0,1.0
Offset,,0,0,0.135223,0,0,0,0,0,0,0,0.0,0.0
Gain,,1,1,25.011,13.0939,14.0471,1,1,1,1.00088,1.00971,1.0,1.0
Units,sec,C,C,Pa,%,%,%,%,%,g,/m,,
Baseline,,31.1354,32.4429,145.467,97.6954,94.4143,0.00107725,0.0485128,21.0053,-834.345,0.302581,,
82,20.25,30.084,31.7059,147.445,97.9502,94.8119,0.00192816,0.0557346,21.0025,-318.971,0.288423,0.0,0.0
164,40.75,31.4283,32.6235,141.583,97.9833,94.8162,0.00172984,0.0485294,21.0114,-319.031,0.291022,0.0,0.0
246,61.25,32.021,33.4841,143.436,98.0461,95.1398,0.00139344,0.0495615,21.0087,-319.091,0.266507,0.0,0.0
328,81.75,32.4013,34.0557,143.199,98.1336,95.1883,0.00148133,0.0483463,21.0114,-319.172,0.269901,0.0,0.0
410,102.25,32.718,34.3089,141.082,98.2902,95.2427,0.00136389,0.0475423,21.0129,-319.212,0.278963,0.0,0.0
492,122.75,33.4261,34.5053,141.233,98.4429,95.274,0.00123981,0.0472273,21.0139,-319.222,0.289797,0.0,0.0
574,143.25,33.1075,34.3743,147.073,98.5028,95.4583,0.000824013,0.0468078,21.0146,-319.302,0.278069,0.0,0.0
656,163.75,33.232,35.0514,142.143,98.5216,95.5492,0.00112115,0.0476059,21.0115,-319.312,0.27133,0.0,0.0
738,184.25,33.7094,35.052,144.915,98.5651,95.6067,0.00134107,0.0469096,21.0146,-319.322,0.269922,0.0,0.0
820,204.75,33.6715,35.4977,142.161,98.6618,95.7293,0.000862318,0.0463528,21.0118,-319.342,0.267255,0.0,0.0
902,225.25,33.8877,35.54,146.048,98.7817,95.8424,0.000774261,0.0463318,21.0154,-319.352,0.267546,0.0,0.0
984,245.75,34.3892,35.6576,144.218,98.8401,95.9505,0.000949521,0.045713,21.0125,-319.362,0.262798,0.0,0.0
1066,266.25,34.2395,35.5501,143.563,98.8628,95.6675,0.000990614,0.0463544,21.0141,-319.362,0.290994,0.0,0.0
1148,286.75,33.6403,35.7076,141.571,98.8644,95.9243,0.00069101,0.0484433,21.0069,-319.392,0.267397,0.0,0.0
1230,307.25,34.1666,35.9113,140.332,98.8584,96.44,0.000998473,0.0474746,21.0094,-319.402,0.21937,0.0,0.0
1312,327.75,34.3691,35.8112,143.103,98.8552,95.7961,0.00034449,0.0459785,21.014,-319.412,0.278416,0.0,0.0
1394,348.25,34.6683,35.6567,142.101,98.8604,95.9333,0.000667797,0.0458703,21.0129,-319.392,0.266207,0.0,0.0
1476,368.75,34.4617,35.9112,144.58,98.8369,95.8321,0.000666731,0.0462497,21.0132,-319.412,0.27344,0.0,0.0
1558,389.25,33.713,35.9299,143.358,98.8145,96.0915,0.000754381,0.0475238,21.011,-319.422,0.247496,0.0,0.0
1640,409.75,34.2293,35.8827,142.359,98.7685,95.8553,0.000526142,0.0478064,21.0083,-319.422,0.265175,0.0,0.0
1722,430.25,34.0564,36.1037,144.643,98.7346,95.788,0.000518849,0.0471552,21.0107,-319.412,0.268349,0.0,0.0
1804,450.75,33.3633,35.9598,142.102,98.6255,95.692,0.000553273,0.0457552,21.0153,-319.362,0.267443,0.0,0.0
1886,471.25,33.7815,36,148.739,98.508,95.4356,0.000661985,0.0453318,21.0172,-319.422,0.280644,0.0,0.0
1968,491.75,34.5346,36.3254,142.616,98.3733,95.1707,0.000999163,0.0442024,21.0195,-319.442,0.293151,0.0,0.0
2050,512.25,34.7777,35.9351,141.756,98.2906,95.2701,0.000596752,0.0438993,21.0207,-319.392,0.276448,0.0,0.0
2132,532.75,34.2803,35.6269,143.107,98.7366,95.8677,0.000632115,0.0438558,21.0204,-319.432,0.26116,0.0,0.0
2214,553.25,34.4186,36.1706,142.788,99.0758,96.1142,0.000589715,0.043839,21.0193,-319.452,0.268796,0.0,0.0
2296,573.75,34.5579,36.2424,143.345,99.1761,96.392,0.000824668,0.0442738,21.0151,-319.392,0.252196,0.0,0.0
2378,594.25,34.6827,36.3641,141.694,99.059,96.29,0.000504586,0.0443875,21.0196,-319.432,0.251113,0.0,0.0
2460,614.75,34.4616,35.9413,141.793,98.8049,95.9136,0.000766454,0.0441891,21.0199,-319.402,0.26305,0.0,0.0
2542,635.25,34.9218,36.3814,142.495,98.7282,95.9732,0.000666765,0.0438807,21.0187,-319.462,0.250669,0.0,0.0
2624,655.75,34.567,36.3682,144.111,98.8285,95.9775,0.000398053,0.0444112,21.0176,-319.432,0.259266,0.0,0.0
2706,676.25,34.7724,36.4805,146.691,98.9288,95.8639,0.000579739,0.0443246,21.0203,-319.432,0.278741,0.0,0.0
2788,696.75,35.1411,36.1845,147.865,99.0758,96.2257,0.000474078,0.0447588,21.0165,-319.402,0.258531,0.0,0.0
2870,717.25,34.6265,36.474,143.177,99.1545,96.338,0.000377856,0.0444462,21.0199,-319.432,0.255234,0.0,0.0
2952,737.75,35.0222,36.2454,144.474,99.2049,96.323,0.000419702,0.0454359,21.0149,-319.422,0.261109,0.0,0.0
3034,758.25,34.9161,36.1991,145.125,99.1821,96.335,0.000581428,0.0456938,21.0133,-319.452,0.257972,0.0,0.0
3116,778.75,34.4988,36.761,141.438,99.2337,96.0653,0.000569977,0.046311,21.0133,-319.422,0.2874,0.0,0.0
3198,799.25,34.9823,36.3865,145.775,99.3356,96.1185,0.000777804,0.0470922,21.0116,-319.442,0.29159,0.0,0.0
3280,819.75,35.1146,36.4094,144.104,99.4383,96.4516,0.000613261,0.0471109,21.0121,-319.432,0.270103,0.0,0.0
3362,840.25,34.9684,35.9761,141.656,99.4934,96.3693,0.000803432,0.0452767,21.0163,-319.432,0.282574,0.0,0.0
3444,860.75,35.0716,36.6194,142.604,99.4522,96.7247,0.000501672,0.0456991,21.0149,-319.442,0.246308,0.0,0.0
3526,881.25,34.9247,36.697,139.422,99.3248,96.3041,0.000820177,0.0447249,21.0179,-319.412,0.27354,0.0,0.0
3608,901.75,34.8461,36.2431,146.341,99.1298,96.3294,0.000517378,0.0482624,21.0145,-319.422,0.253809,0.0,0.0
3690,922.25,34.952,36.5776,141.439,98.8932,96.1001,0.000689452,0.0454302,21.0182,-319.432,0.253759,0.0,0.0
3772,942.75,35.3115,36.4982,141.872,98.4417,95.3915,0.000446583,0.0462795,21.0157,-319.422,0.278778,0.0,0.0
3854,963.25,35.0429,36.6862,146.266,98.0992,95.268,0.000545806,0.0450481,21.0165,-319.432,0.259383,0.0,0.0
3936,983.75,35.1893,36.1608,140.348,97.9042,95.2603,0.000483079,0.0448809,21.0175,-319.442,0.242477,0.0,0.0
4018,1004.25,35.0493,36.0718,143.541,97.7827,94.5868,0.000531335,0.0450947,21.0154,-319.422,0.294319,0.0,0.0
4100,1024.75,34.8321,36.3605,140.192,97.6776,94.8213,0.000648305,0.0456508,21.0165,-319.432,0.262865,0.0,0.0
4182,1045.25,34.7967,36.2129,142.416,97.5941,95.0434,0.000536703,0.0464723,21.0129,-319.422,0.234571,0.0,0.0
4264,1065.75,34.9048,36.5826,142.895,97.6924,94.6421,0.000686146,0.0467434,21.0104,-319.422,0.280959,0.0,0.0
4346,1086.25,34.5857,36.33,142.784,98.0892,95.3996,0.000597057,0.0475911,21.0097,-319.442,0.246254,0.0,0.0
4428,1106.75,34.8352,36.4728,145.626,98.5372,95.8472,0.000430318,0.048319,21.0061,-319.422,0.245156,0.0,0.0
4510,1127.25,35.0731,35.9654,144.747,98.8101,95.8493,0.000498219,0.0480677,21.0096,-319.402,0.269456,0.0,0.0
4592,1147.75,34.6839,36.4655,143.96,98.8516,95.9638,0.000607972,0.0467793,21.0134,-319.432,0.262609,0.0,0.0
4674,1168.25,34.6571,35.9599,141.573,98.8237,95.9419,0.000520334,0.0460608,21.0161,-319.402,0.262121,0.0,0.0
4756,1188.75,34.7397,35.9152,142.219,98.7094,95.5093,0.000639116,0.0456769,21.0181,-319.342,0.291893,0.0,0.0
4838,1209.25,34.8957,36.2326,145.021,98.5532,95.8874,0.000436898,0.0462921,21.0127,-319.422,0.24287,0.0,0.0
4920,1229.75,35.4446,36.6208,143.967,98.4417,95.758,0.000462625,0.0467193,21.0154,-319.432,0.244812,0.0,0.0
5002,1250.25,35.0987,36.3083,142.484,98.3102,95.1728,0.000549805,0.0459722,21.0173,-319.412,0.287264,0.0,0.0
5084,1270.75,35.0582,36.8661,142.57,98.6866,95.5029,0.000158834,0.0456298,21.0181,-319.392,0.290446,0.0,0.0
5166,1291.25,34.7708,36.1618,143.896,99.1094,96.4769,0.00071578,0.0457771,21.0154,-319.412,0.238438,0.0,0.0
5248,1311.75,35.0099,36.206,142.533,99.1326,96.1747,0.000662031,0.0453362,21.0181,-319.422,0.268299,0.0,0.0
5330,1332.25,35.347,36.3708,143.799,98.9164,95.9616,0.000790101,0.0449143,21.0173,-319.422,0.268605,0.0,0.0
5412,1352.75,35.3691,37.0838,143.693,98.7014,95.9487,0.00110921,0.0446148,21.0163,-319.422,0.250522,0.0,0.0
5494,1373.25,35.0489,36.9152,140.72,98.8017,95.4536,0.000521867,0.044685,21.0178,-319.432,0.305342,0.0,0.0
5576,1393.75,34.9336,36.9048,143.719,98.924,96.2158,0.000728204,0.0444271,21.0178,-319.422,0.245853,0.0,0.0
5658,1414.25,34.98,36.6175,142.599,99.0946,95.971,0.000800955,0.0446414,21.0183,-319.412,0.28368,0.0,0.0
5740,1434.75,34.9375,36.6216,144.358,99.2389,96.0795,0.000529795,0.0447633,21.0186,-319.412,0.286559,0.0,0.0
5822,1455.25,34.7571,36.6419,145.989,99.4395,96.5558,0.000436468,0.0451486,21.0158,-319.392,0.260648,0.0,0.0
5904,1475.75,35.048,36.5929,140.717,99.5194,96.332,0.000563814,0.045149,21.0142,-319.402,0.288314,0.0,0.0
5986,1496.25,35.1178,36.103,142.563,99.5162,96.9887,0.000469263,0.0444854,21.0154,-319.402,0.227852,0.0,0.0
6068,1516.75,35.1543,37.031,146.696,99.489,96.3941,0.000292443,0.0449352,21.0211,-319.372,0.279897,0.0,0.0
6150,1537.25,34.9003,36.9898,149.144,99.4462,96.4074,0.000533722,0.0444459,21.0178,-319.392,0.274869,0.0,0.0
6232,1557.75,35.4839,36.0827,143.616,99.2596,96.2673,0.000514229,0.0451974,21.017,-319.372,0.271122,0.0,0.0
6314,1578.25,35.2973,37.2815,144.98,99.0506,95.929,0.000566021,0.0443776,21.0162,-319.352,0.283627,0.0,0.0
6396,1598.75,35.3293,36.4175,147.025,98.8632,95.6842,0.000583759,0.0471121,21.0138,-319.402,0.289483,0.0,0.0
6478,1619.25,34.983,36.709,147.014,98.6343,95.6465,0.000675732,0.0459898,21.0153,-319.382,0.272439,0.0,0.0
6560,1639.75,34.7429,36.4289,143.531,98.4177,95.5454,0.000447135,0.0455719,21.0182,-319.422,0.262342,0.0,0.0
6642,1660.25,35.4488,36.9767,142.988,98.299,95.4116,0.000409519,0.0466765,21.0162,-319.402,0.264062,0.0,0.0
6724,1680.75,35.5034,36.8144,141.345,98.074,95.229,0.000927706,0.046985,21.0137,-319.402,0.260737,0.0,0.0
6806,1701.25,35.3981,37.125,142.685,97.8167,95.3666,0.000536742,0.0465793,21.0114,-319.402,0.224677,0.0,0.0
6888,1721.75,35.2415,36.5213,140.566,97.74,94.9169,0.000619031,0.0464226,21.0154,-319.382,0.25959,0.0,0.0
6970,1742.25,35.1543,36.7754,146.111,97.6988,94.6164,0.000885427,0.0460065,21.0151,-319.362,0.283946,0.0,0.0
7052,1762.75,35.237,37.0269,144.37,97.6948,94.8436,0.00065251,0.0450364,21.0162,-319.382,0.262341,0.0,0.0
7134,1783.25,35.3735,36.879,142.113,97.7024,94.4968,0.000674958,0.0457053,21.0158,-319.362,0.295475,0.0,0.0
7216,1803.75,35.2155,36.6126,146.901,97.7388,94.8256,0.00051062,0.0478738,21.0129,-319.372,0.268006,0.0,0.0
7298,1824.25,34.3658,36.2487,143.542,97.7532,94.7819,0.000319288,0.0456893,21.0162,-319.372,0.273396,0.0,0.0
7380,1844.75,34.5486,36.2473,141.389,97.8099,94.796,0.000694474,0.0458515,21.0158,-319.402,0.277213,0.0,0.0
7462,1865.25,34.8093,36.1547,140.375,97.869,94.7626,0.000577219,0.0463924,21.0102,-319.362,0.285692,0.0,0.0
7544,1885.75,34.5423,36.2754,143.961,97.9693,95.1557,0.00064703,0.0464455,21.0122,-319.412,0.258098,0.0,0.0
7626,1906.25,34.3545,36.384,140.983,98.1995,95.4841,0.000321647,0.0472892,21.0114,-319.412,0.24837,0.0,0.0
7688,1921.75,34.3061,36.098,141.584,98.4213,95.322,,,,-319.372,0.283394,0.0,0.0