File: 01_Data/Mineral_Wool_Insulation/Cone/Mineral_Wool_Insulation_Cone_HF75Scan_220426_R2.csv
Names,Time,Stack TC,Smoke TC,Exh Press,Smoke Comp,Smoke Meas,CO Meter,CO2 Meter,O2 Meter,Sample Mass,Ext Coeff,Start Test,Flame Verif
Chan Gain,,500,500,1,1,1,1,1,1,1,1,1.0,1.0
Offset,,0,0,0.135223,0,0,0,0,0,0,0,0.0,0.0
Gain,,1,1,25.011,13.0939,14.0471,1,1,1,1.00088,1.00971,1.0,1.0
Units,sec,C,C,Pa,%,%,%,%,%,g,/m,,
Baseline,,44.9154,46.659,139.427,99.3024,97.9929,0.000792662,0.0451079,21.0124,-834.956,0.117661,,
31,7.5,42.6316,44.3989,138.969,99.4379,99.3135,0.0030612,0.0583035,20.9933,-308.062,0.0110847,0.0,0.0
62,15.25,43.6576,45.2973,139.295,99.4498,98.3331,0.00333233,0.0575823,20.9924,-308.162,0.100023,0.0,0.0
93,23,43.5592,45.7175,139.685,99.4558,98.6216,0.00309789,0.0555842,20.9954,-308.182,0.0746077,0.0,0.0
124,30.75,44.8407,45.9044,137.686,99.473,99.5304,0.00278549,0.0543285,20.998,-308.262,-0.00510755,0.0,0.0
155,38.5,44.7892,46.6709,135.076,99.493,98.9765,0.00276252,0.0535691,21.0004,-308.282,0.0460963,0.0,0.0
186,46.25,45.3359,46.8578,137.705,99.527,98.1466,0.00272409,0.0527076,21.0025,-308.342,0.1237,0.0,0.0
217,54,45.0021,47.0588,137.792,99.5661,98.5337,0.00261131,0.0522087,21.0029,-308.422,0.0923197,0.0,0.0
248,61.75,45.5432,47.252,139.534,99.5881,99.2089,0.0022806,0.0514678,21.005,-308.442,0.0337901,0.0,0.0
279,69.5,45.8662,47.7183,137.649,99.6081,98.6456,0.0020894,0.0508208,21.0046,-308.472,0.086,0.0,0.0
310,77.25,46.1303,47.7151,137.387,99.6249,98.2353,0.00219061,0.0507594,21.0077,-308.482,0.124404,0.0,0.0
341,85,46.2311,47.5742,135.023,99.672,98.8222,0.00191106,0.0509007,21.007,-308.522,0.0758389,0.0,0.0
372,92.75,45.9963,48.1004,139.581,99.6528,99.1116,0.00158486,0.0510821,21.0056,-308.552,0.0482378,0.0,0.0
403,100.5,46.6973,48.6567,136.964,99.6556,99.1497,0.00179726,0.0509762,21.0077,-308.572,0.0450774,0.0,0.0
434,108.25,46.4364,48.6214,136.174,99.6536,98.7952,0.00208985,0.0506735,21.0057,-308.592,0.0766261,0.0,0.0
465,116,46.5094,48.8144,139.478,99.6832,98.6889,0.00158393,0.0498283,21.0087,-308.602,0.0887904,0.0,0.0
496,123.75,46.5008,49.2044,136.137,99.6988,98.9718,0.00171836,0.0496856,21.0082,-308.612,0.0648193,0.0,0.0
527,131.5,46.8394,49.1973,133.698,99.7256,98.3768,0.00146546,0.049179,21.01,-308.592,0.120607,0.0,0.0
558,139.25,47.2556,49.1431,137.369,99.7491,99.0859,0.00152974,0.0482317,21.0124,-308.532,0.0590924,0.0,0.0
589,147,47.4548,49.0887,134.911,99.7747,98.1012,0.00146647,0.0475885,21.0124,-308.592,0.149823,0.0,0.0
620,154.75,46.9149,49.6579,135.616,99.8163,97.9734,0.00170086,0.0475836,21.0142,-308.612,0.165051,0.0,0.0
651,162.5,47.1812,49.4527,141.684,99.8706,99.3949,0.00165201,0.0474323,21.0158,-308.622,0.0422869,0.0,0.0
682,170.25,47.57,49.435,139.898,99.9042,98.5474,0.00132647,0.0475921,21.0119,-308.642,0.121109,0.0,0.0
713,178,47.3321,49.6699,132.653,99.9186,99.3448,0.00162245,0.0479919,21.0096,-308.632,0.0510096,0.0,0.0
744,185.75,47.2873,49.3156,138.539,99.9314,98.8436,0.00154117,0.0476648,21.0104,-308.652,0.0969339,0.0,0.0
775,193.5,47.245,49.3964,139.359,99.9497,99.1617,0.00138845,0.0477409,21.009,-308.692,0.0701056,0.0,0.0
806,201.25,47.1187,49.2673,140.169,99.9633,98.7356,0.00126283,0.0487822,21.0057,-308.732,0.109452,0.0,0.0
837,209,47.3909,49.2859,138.057,99.9721,98.7523,0.001078,0.049365,21.005,-308.772,0.108731,0.0,0.0
868,216.75,47.0496,49.5289,137.642,99.9757,99.247,0.0014524,0.049333,21.0049,-308.772,0.064792,0.0,0.0
899,224.5,47.9481,50.0171,136.094,99.9889,99.1163,0.00129957,0.0491542,21.0049,-308.782,0.0776351,0.0,0.0
930,232.25,47.604,49.7863,140.348,99.9817,98.8055,0.00107242,0.0494225,21.0049,-308.772,0.104814,0.0,0.0
961,240,47.4438,49.6898,137.285,99.9749,97.8915,0.00103464,0.0488231,21.0074,-308.802,0.186522,0.0,0.0
992,247.75,47.6432,49.8741,137.621,99.9797,98.4055,0.00127136,0.0480864,21.0103,-308.742,0.140564,0.0,0.0
1023,255.5,47.591,49.8354,137.384,99.9813,99.4237,0.000889761,0.0470696,21.0122,-308.762,0.0495388,0.0,0.0
1054,263.25,48.4568,50.2542,138.215,99.9833,98.3961,0.000902958,0.0462085,21.0134,-308.742,0.141731,0.0,0.0
1085,271,47.9213,50.1549,138.792,99.9869,99.0065,0.000705744,0.045972,21.0139,-308.742,0.0872704,0.0,0.0
1116,278.75,48.0058,49.8365,139.43,99.9841,98.9662,0.000836849,0.0456647,21.0133,-308.762,0.0906289,0.0,0.0
1147,286.5,48.0586,50.3823,137.834,99.9909,99.7975,0.00076364,0.0452582,21.0144,-308.712,0.0171504,0.0,0.0
1178,294.25,47.9763,49.9477,140.58,99.9721,99.7868,0.000731839,0.0448479,21.0149,-308.792,0.0164369,0.0,0.0
1209,302,48.1521,49.95,139.839,99.9889,98.3211,0.000707748,0.0449973,21.0152,-308.772,0.148982,0.0,0.0
1240,309.75,48.4235,50.2121,135.32,99.9837,99.0627,0.000463018,0.0450155,21.0165,-308.772,0.081965,0.0,0.0
1271,317.5,47.6727,49.9422,135.135,99.9837,98.9067,0.000719864,0.0454357,21.0162,-308.802,0.095927,0.0,0.0
1302,325.25,48.1385,50.5628,139.571,99.9941,99.0704,0.000706837,0.0453524,21.014,-308.842,0.0821952,0.0,0.0
1333,333,48.0304,50.2328,139.73,99.9677,98.4197,0.000678564,0.0457602,21.015,-308.832,0.138228,0.0,0.0
1364,340.75,48.4812,50.4668,138.736,99.9581,98.6743,0.000494283,0.0467343,21.0122,-308.822,0.114492,0.0,0.0
1395,348.5,47.8921,50.3763,138.562,99.9433,99.1497,0.000811318,0.0478084,21.0106,-308.842,0.0706115,0.0,0.0
1426,356.25,47.9995,50.2879,139.745,99.9318,99.4618,0.000797077,0.0477154,21.0107,-308.812,0.0417499,0.0,0.0
1457,364,47.8387,50.0949,136.368,99.9337,98.7528,0.000732115,0.046811,21.0109,-308.812,0.105293,0.0,0.0
1488,371.75,47.8609,50.3289,139.746,99.9381,99.6054,0.000534904,0.0457281,21.0122,-308.852,0.0295376,0.0,0.0
1519,379.5,47.8468,50.4716,136.172,99.9465,99.0486,0.000657336,0.0454177,21.0127,-308.862,0.0799374,0.0,0.0
1550,387.25,48.4508,50.6067,140.288,99.9593,99.0794,0.000579789,0.0453948,21.0127,-308.852,0.0783102,0.0,0.0
1581,395,48.1707,50.8276,136.907,99.9617,99.1412,0.000393451,0.0453378,21.0108,-308.862,0.0730067,0.0,0.0
1612,402.75,48.3213,50.7263,138.789,99.9589,98.8809,0.000571863,0.0451238,21.012,-308.772,0.0960357,0.0,0.0
1643,410.5,48.5176,50.453,139.747,99.9693,99.5398,0.000505382,0.0449758,21.0142,-308.792,0.0381341,0.0,0.0
1674,418.25,48.9195,50.1864,139.293,99.9705,98.7,0.000380869,0.0441499,21.0168,-308.792,0.113282,0.0,0.0
1705,426,48.4333,50.4057,135.184,99.9901,100.259,0.00025543,0.0438245,21.0191,-308.772,-0.0237641,0.0,0.0
1736,433.75,48.4715,50.7401,138.692,99.9881,99.6208,0.000302596,0.0436277,21.0198,-308.812,0.032591,0.0,0.0
1767,441.5,47.6969,50.4748,136.545,99.9941,98.9602,0.000641379,0.0437216,21.0196,-308.802,0.0920502,0.0,0.0
1798,449.25,48.2277,50.4758,133.265,99.9865,99.1304,0.000326759,0.0433849,21.0204,-308.852,0.0761592,0.0,0.0
1829,457,48.5531,50.7208,140.63,99.9757,99.5017,0.000692613,0.0435084,21.02,-308.802,0.0420956,0.0,0.0
1860,464.75,48.1333,50.5194,134.786,99.9729,98.6006,0.000531205,0.0439483,21.0176,-308.802,0.122423,0.0,0.0
1891,472.5,48.7696,50.5285,135.792,99.9609,98.5234,0.000401645,0.0448347,21.0145,-308.762,0.128295,0.0,0.0
1922,480.25,48.9652,50.8215,138.22,99.9585,99.6693,0.000486949,0.0446183,21.0144,-308.762,0.0256663,0.0,0.0
1953,488,48.6991,50.6313,140.587,99.9829,99.1416,0.000595639,0.0442959,21.0156,-308.772,0.0748444,0.0,0.0
1984,495.75,48.2255,50.7906,135.933,99.9869,98.9431,0.00074992,0.0443073,21.0162,-308.792,0.0929477,0.0,0.0
2015,503.5,48.2768,50.4333,139.589,99.9745,100.347,0.000737639,0.044504,21.0167,-308.842,-0.0329047,0.0,0.0
2046,511.25,48.5048,50.3588,137.496,99.9793,99.5814,0.000655419,0.0446541,21.0189,-308.782,0.0353193,0.0,0.0
2077,519,48.3429,50.6813,138.799,99.9893,99.1412,0.000743805,0.0451631,21.0182,-308.872,0.0754495,0.0,0.0
2108,526.75,48.6124,50.1138,139.223,99.9753,100.265,0.000736284,0.04549,21.016,-308.852,-0.0256419,0.0,0.0
2139,534.5,48.3419,50.55,135.566,99.9833,99.2505,0.000655415,0.0456578,21.015,-308.872,0.0651578,0.0,0.0
2170,542.25,48.1157,51.0676,137.372,99.9777,99.1124,6.35329e-05,0.0475368,21.0128,-308.862,0.0769893,0.0,0.0
2201,550,48.5356,50.6207,136.698,99.9617,99.725,0.000518539,0.0485805,21.009,-308.872,0.020998,0.0,0.0
2232,557.75,48.2239,50.2338,137.248,99.9333,98.8214,0.000448473,0.0486957,21.0065,-308.872,0.099109,0.0,0.0
2263,565.5,48.407,50.4064,138.277,99.9218,98.9521,0.000254016,0.0481543,21.008,-308.852,0.0863702,0.0,0.0
2294,573.25,48.4957,50.4846,135.613,99.9234,99.2762,0.000634949,0.0471443,21.0093,-308.852,0.0575516,0.0,0.0
2325,581,48.4168,50.3242,138.753,99.925,98.6263,0.000837981,0.0460652,21.0128,-308.792,0.115863,0.0,0.0
2356,588.75,48.2282,50.8275,138.283,99.9445,99.2972,0.000727082,0.0450773,21.015,-308.842,0.0575547,0.0,0.0
2387,596.5,48.7307,50.6851,139.272,99.9693,99.8202,7.92576e-05,0.0447119,21.0156,-308.872,0.013223,0.0,0.0
2418,604.25,46.9668,48.9363,135.77,99.9661,100.476,0.000446966,0.0445085,21.0163,-308.842,-0.0450676,0.0,0.0
2449,612,47.0439,48.3349,138.435,99.9633,98.4047,0.000459697,0.0441146,21.0166,-308.872,0.139189,0.0,0.0
2480,619.75,46.5641,48.863,138.566,99.9497,98.5543,0.000590943,0.0440993,21.0159,-308.872,0.12453,0.0,0.0
2511,627.5,46.8177,48.8806,135.104,99.9641,99.527,0.000665461,0.0447196,21.0161,-308.892,0.0388175,0.0,0.0
2542,635.25,46.7796,48.5122,137.124,99.9693,99.2929,0.000379447,0.0449621,21.0154,-308.832,0.0601318,0.0,0.0
2573,643,46.8698,48.9371,140.527,99.9717,99.4567,0.000400444,0.0448949,21.0153,-308.862,0.0457487,0.0,0.0
2604,650.75,47.1944,49.1843,136.342,99.9837,99.0867,0.000499283,0.044911,21.0145,-308.852,0.0798181,0.0,0.0
2635,658.5,47.015,49.3665,135.771,99.9721,99.1296,0.000340841,0.0449395,21.0145,-308.882,0.0749606,0.0,0.0
2666,666.25,47.0352,48.972,135.903,99.9405,99.2179,0.000492107,0.0451813,21.0133,-308.862,0.0642774,0.0,0.0
2697,674,46.8533,49.3041,138.047,99.9158,99.0305,0.000566226,0.0446998,21.015,-308.842,0.0788209,0.0,0.0
2728,681.75,46.5044,48.8196,136.906,99.8518,99.0683,0.000587204,0.044666,21.0152,-308.862,0.0697767,0.0,0.0
2759,689.5,46.5158,48.8799,136.068,99.7703,99.2552,0.000704023,0.0444613,21.0152,-308.852,0.0458495,0.0,0.0
2790,697.25,46.4992,48.8041,136.787,99.6345,98.3652,0.000619517,0.0445491,21.0177,-308.862,0.113553,0.0,0.0
2821,705,46.4737,48.7387,137.679,99.4962,98.3245,0.000427425,0.0437772,21.0174,-308.852,0.104922,0.0,0.0
2852,712.75,47.02,48.8147,138.306,99.3384,97.9511,,0.0439249,,-308.842,0.124558,0.0,0.0
2883,720.5,46.8054,48.9737,137.874,99.2233,99.5797,,,,-308.872,-0.0317587,0.0,0.0
2885,721,46.7822,49.4008,138.537,99.2229,97.958,,,,-308.862,0.113635,0.0,0.0