File: 01_Data/Hemp_Sheets/MCC/Hemp_Sheets_MCC_30K_min_220112_R3.txt
Sample ID:	C:\MCC\MCC Cal\Test\Hemp_Sheets_MCC_30K_min_220112_R3.txt
Sample Weight (mg):	4.89
Heating Rate (C/s):	0.5
Combustor Temp (C):	900
N2 Flow Rate (cc/min):	80
O2 Flow Rate (cc/min):	20
Calibration File:	C:\MCC\MCC Cal\Coeff1 JN10440_30_210304.txt.txt
T Correction Coefficients:	0	1.024463	0
Time Shift (s):	14
*
Time (s)	Temperature (C)	N2 flow rate (cc/min)	O2 flow rate (cc/min)	Flow Rate (cc/min)	Oxygen (%)	HRR (W/g)	Heating rate (C/s)
-0.001	110.814	80.006	19.995	104.290	20.222	-0.135	-0.009
8.001	110.769	80.010	19.994	104.295	20.218	0.097	-0.008
16.000	110.862	80.011	19.993	104.365	20.213	0.438	-0.010
24.001	111.306	80.008	19.995	104.444	20.201	1.281	0.074
32.000	112.073	80.008	19.996	104.475	20.193	1.756	0.129
40.001	113.279	80.007	19.995	104.506	20.188	2.118	0.184
48.000	114.945	80.007	19.994	104.525	20.185	2.323	0.256
56.000	116.900	80.008	19.994	104.505	20.186	2.259	0.285
64.001	119.074	80.007	19.993	104.524	20.185	2.294	0.271
72.001	121.453	80.009	19.993	104.538	20.178	2.804	0.311
80.001	124.134	80.009	19.994	104.526	20.182	2.549	0.316
88.000	126.921	80.009	19.996	104.535	20.181	2.592	0.365
96.001	129.906	80.009	19.994	104.537	20.181	2.579	0.359
104.001	133.131	80.007	19.994	104.541	20.180	2.678	0.401
112.001	136.455	80.007	19.994	104.549	20.181	2.596	0.409
120.001	139.928	80.005	19.994	104.541	20.180	2.629	0.454
128.000	143.568	80.008	19.996	104.550	20.179	2.705	0.477
136.001	147.216	80.008	19.994	104.554	20.179	2.704	0.429
144.001	151.097	80.008	19.993	104.557	20.176	2.940	0.447
152.000	154.967	80.010	19.994	104.546	20.184	2.358	0.489
160.000	158.836	80.008	19.994	104.540	20.181	2.558	0.471
168.000	162.855	80.009	19.993	104.529	20.187	2.177	0.491
176.001	166.841	80.009	19.994	104.528	20.180	2.681	0.498
184.000	170.871	80.007	19.995	104.527	20.182	2.536	0.525
192.000	174.838	80.008	19.995	104.519	20.184	2.408	0.487
200.001	178.814	80.008	19.994	104.515	20.184	2.361	0.532
208.000	182.801	80.007	19.997	104.520	20.184	2.361	0.502
216.000	186.800	80.007	19.995	104.503	20.184	2.413	0.520
224.001	190.741	80.008	19.994	104.500	20.184	2.403	0.515
232.000	194.665	80.009	19.992	104.500	20.182	2.554	0.488
240.000	198.570	80.008	19.992	104.498	20.182	2.532	0.491
248.001	202.459	80.009	19.995	104.495	20.182	2.508	0.495
256.000	206.350	80.011	19.993	104.492	20.183	2.431	0.477
264.000	210.347	80.008	19.994	104.488	20.181	2.576	0.507
272.000	214.271	80.008	19.994	104.493	20.180	2.643	0.501
280.001	218.212	80.007	19.994	104.498	20.182	2.537	0.503
288.000	222.246	80.007	19.995	104.495	20.180	2.667	0.512
296.000	226.227	80.006	19.994	104.489	20.180	2.673	0.486
304.001	230.367	80.007	19.996	104.489	20.176	2.911	0.533
312.000	234.465	80.007	19.995	104.488	20.176	2.895	0.495
320.001	238.515	80.007	19.995	104.486	20.171	3.245	0.467
328.001	242.530	80.008	19.993	104.484	20.175	2.984	0.504
336.000	246.606	80.010	19.995	104.486	20.170	3.351	0.516
344.001	250.678	80.008	19.994	104.484	20.165	3.628	0.494
352.000	254.724	80.009	19.996	104.486	20.165	3.652	0.506
360.001	258.757	80.008	19.993	104.488	20.164	3.705	0.514
368.001	262.744	80.006	19.996	104.490	20.160	3.976	0.488
376.001	266.767	80.008	19.993	104.487	20.153	4.462	0.491
384.000	270.791	80.009	19.995	104.486	20.150	4.660	0.525
392.000	274.779	80.010	19.995	104.485	20.140	5.309	0.504
400.000	278.763	80.007	19.995	104.484	20.129	6.061	0.508
408.000	282.735	80.010	19.994	104.487	20.123	6.435	0.508
416.001	286.771	80.009	19.993	104.500	20.114	7.090	0.498
424.000	290.854	80.008	19.994	104.494	20.100	7.973	0.530
432.000	294.972	80.008	19.995	104.512	20.089	8.756	0.540
440.000	299.030	80.010	19.993	104.516	20.073	9.816	0.548
448.001	303.106	80.008	19.996	104.522	20.053	11.124	0.531
456.001	307.113	80.008	19.994	104.526	20.023	13.146	0.483
464.000	311.111	80.009	19.995	104.532	19.997	14.843	0.487
472.000	315.145	80.009	19.993	104.561	19.962	17.172	0.502
480.000	319.222	80.006	19.995	104.572	19.917	20.238	0.493
488.000	323.267	80.007	19.996	104.602	19.871	23.262	0.512
496.000	327.327	80.009	19.995	104.628	19.805	27.712	0.503
504.000	331.333	80.007	19.994	104.650	19.728	32.851	0.501
512.000	335.399	80.008	19.994	104.682	19.631	39.341	0.512
520.000	339.414	80.009	19.994	104.745	19.524	46.567	0.505
528.000	343.400	80.008	19.995	104.798	19.382	56.107	0.490
536.000	347.459	80.007	19.994	104.876	19.215	67.284	0.496
544.000	351.531	80.008	19.994	104.939	19.021	80.357	0.506
552.000	355.581	80.010	19.994	105.020	18.804	94.949	0.530
560.000	359.593	80.008	19.994	105.080	18.578	110.166	0.504
568.000	363.553	80.008	19.994	105.150	18.365	124.502	0.498
576.000	367.604	80.010	19.995	105.183	18.195	135.852	0.508
584.000	371.579	80.007	19.996	105.179	18.117	141.017	0.507
592.000	375.659	80.008	19.995	105.138	18.174	137.057	0.509
600.000	379.794	80.008	19.993	105.055	18.392	122.271	0.500
608.000	383.908	80.006	19.995	104.926	18.776	96.530	0.485
616.000	388.068	80.007	19.994	104.769	19.237	65.650	0.498
624.000	392.192	80.006	19.994	104.709	19.659	37.477	0.498
632.000	396.394	80.010	19.994	104.689	19.944	18.444	0.510
640.000	400.595	80.008	19.995	104.678	20.092	8.516	0.530
648.000	404.636	80.010	19.996	104.681	20.150	4.670	0.507
656.000	408.723	80.009	19.994	104.679	20.164	3.710	0.503
664.000	412.774	80.006	19.995	104.678	20.172	3.223	0.514
672.000	416.721	80.007	19.996	104.683	20.174	3.045	0.489
680.000	420.775	80.007	19.993	104.684	20.177	2.887	0.484
688.000	424.754	80.007	19.995	104.682	20.180	2.680	0.505
696.000	428.771	80.007	19.993	104.689	20.177	2.865	0.478
704.000	432.856	80.008	19.994	104.696	20.180	2.646	0.506
712.000	436.999	80.009	19.993	104.680	20.179	2.711	0.508
720.000	440.986	80.009	19.993	104.677	20.178	2.812	0.474
728.000	445.077	80.009	19.994	104.681	20.185	2.356	0.514
736.000	449.046	80.009	19.994	104.680	20.184	2.375	0.509
744.001	453.044	80.006	19.995	104.680	20.186	2.250	0.485
752.000	457.110	80.006	19.994	104.683	20.189	2.048	0.525
760.000	461.172	80.008	19.994	104.674	20.184	2.406	0.497
768.000	465.187	80.007	19.995	104.677	20.191	1.910	0.510
776.000	469.232	80.006	19.994	104.678	20.192	1.890	0.507
784.000	473.393	80.007	19.995	104.675	20.189	2.064	0.534
792.000	477.565	80.010	19.994	104.670	20.194	1.737	0.505
800.001	481.688	80.007	19.994	104.668	20.195	1.680	0.541
808.001	485.836	80.009	19.994	104.672	20.192	1.838	0.538
816.000	489.991	80.010	19.994	104.668	20.199	1.403	0.510
824.000	494.081	80.007	19.994	104.666	20.199	1.379	0.524
832.000	498.191	80.007	19.996	104.671	20.201	1.269	0.538
840.000	502.239	80.007	19.994	104.661	20.200	1.298	0.518
848.000	506.294	80.009	19.994	104.673	20.203	1.135	0.490
856.000	510.375	80.007	19.995	104.669	20.200	1.353	0.522
864.000	514.471	80.008	19.995	104.671	20.202	1.179	0.507
872.000	518.606	80.009	19.995	104.652	20.201	1.284	0.525
880.000	522.707	80.008	19.994	104.668	20.204	1.043	0.507
888.000	526.880	80.009	19.993	104.677	20.203	1.146	0.532
896.000	531.005	80.010	19.993	104.665	20.202	1.166	0.495
904.000	535.120	80.009	19.994	104.657	20.202	1.160	0.507
912.000	539.233	80.008	19.994	104.645	20.202	1.214	0.497
920.000	543.294	80.008	19.994	104.650	20.203	1.138	0.499
928.000	547.307	80.007	19.996	104.672	20.206	0.947	0.487
936.000	551.319	80.008	19.994	104.655	20.205	1.002	0.503
944.000	555.333	80.006	19.995	104.650	20.204	1.091	0.478
952.000	559.272	80.009	19.995	104.659	20.202	1.186	0.518
960.000	563.299	80.009	19.994	104.643	20.204	1.052	0.517
968.000	567.274	80.010	19.994	104.646	20.202	1.208	0.526
976.000	571.294	80.011	19.993	104.646	20.202	1.208	0.518
984.000	575.385	80.009	19.996	104.649	20.203	1.138	0.475
992.000	579.279	80.008	19.993	104.672	20.201	1.274	0.515
1000.000	583.818	80.010	19.993	104.657	20.197	1.495	0.404
1008.000	587.575	80.007	19.994	104.648	20.199	1.416	0.474
1016.000	591.620	80.007	19.994	104.659	20.200	1.315	0.518
1024.000	595.719	80.008	19.994	104.671	20.200	1.316	0.539
1032.000	599.806	80.010	19.994	104.649	20.200	1.346	0.505
1040.000	603.803	80.010	19.995	104.640	20.202	1.158	0.487
1048.000	607.785	80.010	19.996	104.657	20.209	0.699	0.510
1056.000	611.828	80.011	19.994	104.646	20.201	1.287	0.517
1064.000	615.846	80.010	19.994	104.647	20.203	1.138	0.511
1072.000	619.778	80.006	19.993	104.656	20.199	1.399	0.483
1080.000	623.888	80.008	19.994	104.668	20.201	1.250	0.498
1088.000	628.058	80.007	19.994	104.667	20.196	1.599	0.517
1096.000	632.437	80.007	19.994	104.650	20.197	1.507	0.536
1103.999	636.819	80.009	19.994	104.650	20.199	1.386	0.547
1111.999	641.249	80.010	19.994	104.652	20.195	1.682	0.547
1120.000	645.492	80.008	19.995	104.646	20.199	1.416	0.493
1128.000	649.791	80.008	19.995	104.647	20.198	1.452	0.538
1136.000	654.009	80.011	19.995	104.646	20.194	1.744	0.521
1144.001	658.209	80.011	19.995	104.643	20.189	2.060	0.540
1152.001	662.286	80.008	19.993	104.657	20.194	1.724	0.477
1160.001	666.391	80.008	19.994	104.647	20.195	1.649	0.488
1168.000	670.518	80.008	19.995	104.644	20.186	2.253	0.541
1176.001	674.666	80.009	19.995	104.646	20.194	1.709	0.495
1184.001	678.846	80.008	19.994	104.646	20.191	1.902	0.448
1192.000	682.923	80.011	19.993	104.645	20.186	2.264	0.535
1200.001	687.008	80.007	19.995	104.647	20.189	2.045	0.500
1208.001	691.109	80.008	19.994	104.650	20.190	2.012	0.535
1216.000	695.302	80.009	19.995	104.640	20.186	2.229	0.530
1223.999	699.402	80.009	19.996	104.641	20.181	2.570	0.513
1232.000	703.474	80.008	19.996	104.642	20.184	2.385	0.497
1240.000	707.581	80.007	19.996	104.640	20.190	2.016	0.502
1247.999	711.681	80.008	19.994	104.650	20.189	2.058	0.516
1256.000	715.732	80.008	19.994	104.642	20.187	2.188	0.518
1263.999	719.619	80.008	19.995	104.644	20.184	2.372	0.459
1272.000	723.542	80.011	19.994	104.644	20.187	2.179	0.492
1280.000	727.396	80.009	19.995	104.638	20.184	2.372	0.511
1287.999	731.277	80.008	19.997	104.647	20.177	2.842	0.500
1296.001	735.279	80.012	19.996	104.637	20.181	2.594	0.489
1304.001	739.270	80.010	19.994	104.634	20.181	2.609	0.529
1312.000	743.332	80.009	19.993	104.643	20.174	3.057	0.537
1312.500	743.579	80.009	19.995	104.643	20.179	2.710	0.505