File: 01_Data/Hemp_Sheets/MCC/Hemp_Sheets_MCC_30K_min_220112_R2.txt
Sample ID:	C:\MCC\MCC Cal\Test\Hemp_Sheets_MCC_30K_min_220112_R2.txt
Sample Weight (mg):	4.6
Heating Rate (C/s):	0.5
Combustor Temp (C):	900
N2 Flow Rate (cc/min):	80
O2 Flow Rate (cc/min):	20
Calibration File:	C:\MCC\MCC Cal\Coeff1 JN10440_30_210304.txt.txt
T Correction Coefficients:	0	1.024463	0
Time Shift (s):	14
*
Time (s)	Temperature (C)	N2 flow rate (cc/min)	O2 flow rate (cc/min)	Flow Rate (cc/min)	Oxygen (%)	HRR (W/g)	Heating rate (C/s)
-0.001	111.107	80.007	19.995	104.169	20.257	-0.078	-0.033
8.000	111.112	80.012	19.994	104.171	20.261	-0.346	0.009
16.001	111.118	80.008	19.993	104.176	20.256	0.025	-0.002
24.000	111.247	80.020	19.993	104.247	20.251	0.385	0.041
32.000	111.551	80.013	19.995	104.286	20.243	0.934	0.057
39.999	112.207	80.010	19.991	104.345	20.227	2.034	0.099
48.000	113.327	80.002	19.996	104.363	20.223	2.326	0.169
56.001	114.830	80.028	19.991	104.373	20.217	2.809	0.204
64.001	116.611	80.004	19.993	104.376	20.218	2.729	0.249
72.000	118.698	80.011	19.995	104.321	20.217	2.758	0.265
80.000	120.995	80.003	19.999	104.374	20.218	2.695	0.322
88.001	123.448	80.001	19.998	104.400	20.215	2.915	0.312
96.000	126.137	79.996	19.995	104.401	20.214	3.004	0.361
104.000	129.027	80.011	19.992	104.411	20.215	2.929	0.387
112.000	132.097	80.013	19.991	104.415	20.211	3.191	0.398
120.000	135.283	80.002	19.993	104.420	20.209	3.341	0.421
128.000	138.710	80.010	19.991	104.444	20.208	3.414	0.452
136.000	142.304	80.020	19.991	104.436	20.210	3.299	0.499
144.000	146.104	80.019	19.995	104.430	20.209	3.318	0.473
152.000	149.966	80.014	19.995	104.442	20.204	3.688	0.516
160.000	153.873	79.999	19.990	104.428	20.211	3.225	0.475
168.000	157.852	80.009	19.994	104.412	20.208	3.397	0.463
176.000	161.815	80.006	19.994	104.408	20.210	3.289	0.470
184.000	165.822	80.012	19.990	104.423	20.216	2.829	0.495
192.000	169.830	80.009	19.992	104.414	20.216	2.841	0.473
200.000	173.855	80.007	19.998	104.406	20.209	3.338	0.505
208.000	177.892	80.012	19.992	104.407	20.205	3.625	0.508
216.000	181.868	80.008	19.991	104.397	20.206	3.525	0.502
224.001	185.865	80.019	19.993	104.392	20.207	3.520	0.496
232.000	189.869	80.007	19.994	104.388	20.205	3.649	0.486
240.000	193.873	80.030	19.994	104.371	20.209	3.356	0.482
248.000	197.911	80.004	19.994	104.381	20.208	3.386	0.542
256.000	201.868	80.001	19.996	104.370	20.204	3.687	0.537
264.000	205.841	80.006	19.990	104.372	20.207	3.496	0.472
272.000	209.838	80.008	19.995	104.363	20.207	3.484	0.507
280.000	213.792	80.007	19.994	104.365	20.208	3.383	0.516
288.000	217.696	80.010	19.990	104.366	20.204	3.708	0.477
296.000	221.664	80.009	19.992	104.371	20.206	3.550	0.518
304.000	225.517	80.010	19.993	104.358	20.204	3.698	0.481
312.000	229.554	80.005	19.992	104.367	20.203	3.784	0.531
320.000	233.455	80.010	19.993	104.371	20.203	3.761	0.508
328.000	237.402	80.008	19.993	104.366	20.199	4.051	0.486
336.000	241.411	80.005	19.995	104.371	20.200	4.010	0.509
344.000	245.454	80.005	19.993	104.354	20.199	4.072	0.498
352.000	249.515	80.008	19.994	104.365	20.196	4.267	0.498
360.000	253.632	80.005	19.995	104.363	20.189	4.770	0.522
368.000	257.672	80.008	19.999	104.366	20.189	4.775	0.490
376.000	261.741	80.005	19.994	104.363	20.183	5.204	0.533
384.000	265.732	80.009	19.993	104.372	20.179	5.442	0.494
392.000	269.794	80.008	19.993	104.364	20.177	5.623	0.518
400.000	273.810	80.007	19.995	104.360	20.167	6.348	0.490
408.000	277.798	80.006	19.998	104.371	20.154	7.260	0.481
416.000	281.779	80.007	19.994	104.366	20.148	7.638	0.491
424.000	285.761	80.006	19.995	104.371	20.143	8.032	0.509
432.001	289.789	80.006	19.994	104.370	20.131	8.832	0.498
440.000	293.822	80.009	19.994	104.379	20.120	9.628	0.511
448.000	297.874	80.008	19.996	104.384	20.103	10.875	0.531
456.000	301.845	80.007	19.996	104.386	20.082	12.347	0.521
464.000	305.805	80.009	19.994	104.396	20.057	14.127	0.483
472.000	309.801	80.010	19.993	104.410	20.037	15.534	0.514
480.000	313.800	80.006	19.994	104.438	20.006	17.725	0.483
488.000	317.858	80.006	19.995	104.444	19.969	20.349	0.497
496.000	321.918	80.006	19.994	104.454	19.921	23.748	0.519
504.000	325.950	80.007	19.993	104.490	19.862	27.938	0.499
512.000	330.047	80.007	19.993	104.560	19.794	32.793	0.472
520.000	334.165	80.007	19.996	104.537	19.709	38.828	0.519
528.000	338.239	80.009	19.993	104.590	19.602	46.411	0.528
536.000	342.298	80.008	19.995	104.639	19.471	55.754	0.508
544.000	346.297	80.009	19.995	104.688	19.319	66.588	0.517
552.000	350.337	80.009	19.995	104.758	19.136	79.678	0.481
560.000	354.365	80.006	19.995	104.836	18.937	93.870	0.538
568.000	358.287	80.006	19.994	104.904	18.730	108.652	0.479
576.000	362.273	80.007	19.994	104.954	18.525	123.315	0.477
584.000	366.225	80.008	19.994	104.993	18.356	135.271	0.525
592.000	370.161	80.007	19.995	104.992	18.260	142.013	0.456
600.000	374.209	80.006	19.995	104.948	18.286	140.094	0.516
608.000	378.300	80.008	19.994	104.854	18.460	127.543	0.537
616.000	382.442	80.009	19.995	104.723	18.790	103.973	0.517
624.000	386.536	80.008	19.994	104.599	19.215	73.769	0.522
632.000	390.687	80.010	19.995	104.526	19.619	45.124	0.513
640.000	394.913	80.008	19.994	104.482	19.922	23.675	0.549
648.000	399.023	80.006	19.996	104.477	20.082	12.359	0.487
656.000	403.224	80.008	19.996	104.456	20.147	7.733	0.541
664.001	407.387	80.007	19.994	104.452	20.171	6.047	0.518
672.000	411.560	80.006	19.994	104.468	20.173	5.927	0.505
680.000	415.598	80.006	19.993	104.471	20.175	5.785	0.494
688.000	419.690	80.008	19.994	104.478	20.177	5.593	0.512
696.000	423.814	80.007	19.993	104.473	20.180	5.400	0.536
704.000	427.882	80.007	19.994	104.478	20.178	5.566	0.514
712.000	431.978	80.011	19.994	104.465	20.175	5.762	0.511
720.000	436.049	80.010	19.995	104.422	20.176	5.676	0.483
728.000	440.090	80.006	19.995	104.472	20.175	5.762	0.516
736.000	444.167	80.007	19.995	104.481	20.177	5.605	0.489
744.000	448.151	80.007	19.996	104.469	20.177	5.619	0.529
752.000	452.209	80.009	19.994	104.462	20.174	5.832	0.493
760.000	456.259	80.007	19.994	104.468	20.175	5.722	0.511
768.000	460.357	80.008	19.994	104.453	20.175	5.755	0.537
776.000	464.350	80.009	19.994	104.461	20.174	5.846	0.480
784.000	468.312	80.008	19.996	104.479	20.176	5.687	0.527
792.000	472.266	80.009	19.993	104.476	20.172	5.950	0.471
800.000	476.424	80.009	19.995	104.464	20.181	5.309	0.524
808.000	480.428	80.007	19.995	104.458	20.178	5.568	0.515
816.000	484.476	80.007	19.995	104.466	20.169	6.156	0.494
824.000	488.329	80.008	19.995	104.456	20.179	5.502	0.446
832.000	492.393	80.005	19.995	104.457	20.179	5.478	0.632
840.000	496.516	80.007	19.995	104.465	20.175	5.731	0.548
848.000	500.588	80.008	19.994	104.465	20.180	5.416	0.487
856.000	504.697	80.011	19.993	104.462	20.179	5.450	0.517
864.000	508.877	80.008	19.995	104.450	20.181	5.344	0.524
872.000	512.892	80.009	19.994	104.449	20.186	4.956	0.543
880.000	517.067	80.010	19.994	104.451	20.181	5.341	0.507
888.000	521.186	80.008	19.994	104.454	20.179	5.506	0.476
896.000	525.287	80.008	19.994	104.454	20.179	5.447	0.545
904.000	529.408	80.007	19.993	104.458	20.177	5.603	0.501
912.000	533.577	80.008	19.994	104.454	20.180	5.431	0.571
920.000	537.680	80.007	19.995	104.447	20.179	5.456	0.511
928.000	541.792	80.008	19.995	104.450	20.179	5.495	0.525
936.000	545.806	80.008	19.994	104.448	20.177	5.595	0.498
944.000	549.842	80.009	19.993	104.457	20.175	5.740	0.482
952.000	553.869	80.009	19.996	104.464	20.178	5.507	0.494
960.000	557.991	80.011	19.992	104.454	20.176	5.675	0.497
968.001	562.076	80.009	19.993	104.450	20.170	6.089	0.515
976.000	566.238	80.008	19.994	104.466	20.172	5.990	0.530
984.000	570.361	80.010	19.993	104.449	20.174	5.819	0.509
992.000	574.473	80.007	19.994	104.447	20.174	5.791	0.513
1000.000	578.606	80.007	19.995	104.457	20.170	6.096	0.515
1008.000	582.866	80.007	19.994	104.465	20.171	6.056	0.506
1016.000	587.249	80.008	19.996	104.452	20.169	6.163	0.546
1024.001	591.642	80.008	19.995	104.447	20.165	6.465	0.545
1032.000	596.074	80.009	19.994	104.448	20.162	6.682	0.539
1040.000	600.439	80.010	19.994	104.448	20.164	6.547	0.535
1048.000	604.762	80.010	19.994	104.455	20.168	6.261	0.540
1055.999	609.090	80.007	19.994	104.448	20.163	6.582	0.552
1064.000	613.349	80.009	19.994	104.447	20.161	6.713	0.540
1072.000	617.505	80.009	19.994	104.450	20.162	6.689	0.492
1080.000	621.646	80.007	19.994	104.451	20.162	6.646	0.498
1088.000	625.638	80.007	19.994	104.439	20.159	6.900	0.485
1096.001	629.628	80.009	19.994	104.450	20.157	7.016	0.531
1104.000	633.613	80.010	19.994	104.448	20.156	7.074	0.524
1112.001	637.783	80.008	19.994	104.452	20.153	7.320	0.523
1120.001	641.982	80.009	19.994	104.444	20.156	7.074	0.509
1127.999	646.025	80.011	19.994	104.439	20.153	7.278	0.514
1136.000	649.927	80.009	19.993	104.444	20.150	7.499	0.447
1144.000	653.804	80.006	19.993	104.449	20.151	7.427	0.496
1152.000	657.843	80.007	19.994	104.448	20.152	7.385	0.510
1160.000	661.882	80.009	19.993	104.450	20.151	7.476	0.501
1168.000	665.952	80.008	19.993	104.454	20.147	7.732	0.501
1176.000	670.052	80.008	19.994	104.446	20.148	7.680	0.493
1184.000	674.116	80.010	19.995	104.442	20.144	7.960	0.491
1192.000	678.156	80.007	19.994	104.445	20.144	7.981	0.504
1200.000	682.090	80.009	19.994	104.444	20.142	8.113	0.482
1208.000	686.034	80.011	19.995	104.447	20.146	7.842	0.510
1215.999	689.896	80.007	19.994	104.444	20.141	8.145	0.415
1223.999	693.858	80.009	19.994	104.448	20.141	8.179	0.500
1232.000	697.955	80.008	19.994	104.449	20.137	8.450	0.480
1240.000	702.083	80.008	19.994	104.446	20.133	8.754	0.479
1247.999	706.203	80.007	19.995	104.448	20.136	8.493	0.512
1256.000	710.423	80.009	19.994	104.447	20.129	9.017	0.528
1264.000	714.706	80.012	19.994	104.447	20.131	8.869	0.540
1272.000	718.906	80.009	19.993	104.447	20.126	9.224	0.531
1280.001	722.960	80.009	19.994	104.448	20.130	8.923	0.512
1288.000	726.976	80.011	19.993	104.446	20.129	9.011	0.483
1296.000	731.118	80.009	19.994	104.447	20.124	9.394	0.527
1304.000	735.275	80.007	19.994	104.444	20.126	9.227	0.513
1312.000	739.507	80.008	19.995	104.441	20.120	9.642	0.548
1319.500	743.444	80.009	19.994	104.436	20.121	9.593	0.500