File: 01_Data/Feather_PillowA_Cover/STA/N2/10K_min/Feather_Pillow_Cover_STA_N2_10KData_22315_R2.csv
##Temp./Â°C,Time/min,Mass loss(subtr.2)/mg,DSC(subtr.2)/(mW/mg),Sensit./(uV/mW)
49.649,10.01,-0.04018,0.02370262,1.07019
52.749,11.31105,-0.04246847,0.12014,1.06934
55.849,11.75414,-0.04530115,0.16722,1.06847
58.949,12.13183,-0.04563441,0.19844,1.0676
62.049,12.48358,-0.04843896,0.22017,1.06671
65.149,12.82508,-0.04841903,0.23542,1.06582
68.249,13.158,-0.04975086,0.24817,1.06491
71.349,13.49027,-0.05302569,0.26096,1.064
74.449,13.8169,-0.05304333,0.27443,1.06307
77.549,14.1407,-0.05698012,0.28372,1.06214
80.649,14.4609,-0.0582838,0.29351,1.06119
83.749,14.7782,-0.0620977,0.29813,1.06024
86.849,15.09175,-0.06422866,0.2994,1.05927
89.949,15.4031,-0.06685988,0.29842,1.05829
93.049,15.71202,-0.0686718,0.29494,1.05731
96.149,16.0188,-0.0708098,0.28798,1.05631
99.249,16.3243,-0.07213,0.28128,1.05531
102.349,16.62904,-0.0714347,0.27484,1.05429
105.449,16.93212,-0.0732537,0.26688,1.05326
108.549,17.235,-0.07696,0.26323,1.05223
111.649,17.53819,-0.077281,0.25444,1.05118
114.749,17.83987,-0.07827,0.25009,1.05012
117.849,18.14166,-0.07761998,0.24412,1.04905
120.949,18.44345,-0.07872,0.24273,1.04797
124.049,18.74434,-0.0793703,0.24021,1.04688
127.149,19.04492,-0.0793026,0.24034,1.04578
130.249,19.3446,-0.07740803,0.24026,1.04467
133.349,19.6448,-0.07938007,0.24167,1.04355
136.449,19.94377,-0.07905695,0.24464,1.04242
139.549,20.2425,-0.07937,0.24782,1.04128
142.649,20.54062,-0.08070001,0.24728,1.04013
145.749,20.83866,-0.08033815,0.25152,1.03897
148.849,21.13675,-0.0797,0.25216,1.03779
151.949,21.43362,-0.08035797,0.25154,1.03661
155.049,21.73124,-0.07937456,0.25574,1.03541
158.149,22.02832,-0.0807,0.25772,1.03421
161.249,22.326,-0.08071098,0.2591,1.03299
164.349,22.62294,-0.08201001,0.26161,1.03176
167.449,22.91854,-0.08201001,0.26607,1.03053
170.549,23.2155,-0.08101986,0.26886,1.02928
173.649,23.51235,-0.08169677,0.26882,1.02802
176.749,23.80818,-0.08292787,0.27204,1.02675
179.849,24.10405,-0.08432132,0.27177,1.02546
182.949,24.39971,-0.08366,0.27511,1.02417
186.049,24.69473,-0.08233468,0.27779,1.02287
189.149,24.98996,-0.08596,0.27906,1.02155
192.249,25.2854,-0.08464935,0.28195,1.02023
195.349,25.58013,-0.08595986,0.28421,1.01889
198.449,25.8761,-0.08893039,0.2872,1.01754
201.549,26.17148,-0.08926005,0.2906,1.01618
204.649,26.4664,-0.08893,0.29415,1.01481
207.749,26.7621,-0.08875701,0.29852,1.01343
210.849,27.0564,-0.09053244,0.29911,1.01204
213.949,27.35169,-0.0928801,0.30507,1.01064
217.049,27.6465,-0.09418236,0.30901,1.00922
220.149,27.9417,-0.09519005,0.31278,1.00779
223.249,28.23694,-0.09782,0.3136,1.00636
226.349,28.5324,-0.10188,0.31282,1.00491
229.449,28.8278,-0.10451,0.31694,1.00345
232.549,29.1224,-0.10566,0.32207,1.00198
235.649,29.4186,-0.10848,0.32812,1.00049
238.749,29.71343,-0.11288,0.33154,0.999
241.849,30.00885,-0.11802,0.33711,0.99749
244.949,30.3041,-0.12134,0.34508,0.99598
248.049,30.59923,-0.12622,0.35356,0.99445
251.149,30.8944,-0.13285,0.36325,0.99291
254.249,31.18907,-0.13746,0.3708,0.99135
257.349,31.48422,-0.14349,0.37891,0.98979
260.449,31.779,-0.15062,0.38438,0.98822
263.549,32.07448,-0.15581,0.38271,0.98663
266.649,32.3699,-0.1582,0.38351,0.98503
269.749,32.66512,-0.16414,0.3861,0.98342
272.849,32.96115,-0.16794,0.39159,0.9818
275.949,33.2569,-0.17456,0.39728,0.98017
279.049,33.55276,-0.1785,0.40063,0.97852
282.149,33.84884,-0.18636,0.40473,0.97687
285.249,34.14484,-0.19398,0.41145,0.9752
288.349,34.44007,-0.20102,0.4185,0.97352
291.449,34.73642,-0.21044,0.4263,0.97183
294.549,35.03244,-0.22152,0.43337,0.97013
297.649,35.329,-0.23352,0.44322,0.96841
300.749,35.6256,-0.24937,0.45328,0.96669
303.849,35.92183,-0.26241,0.46567,0.96495
306.949,36.21798,-0.27793,0.47788,0.9632
310.049,36.51556,-0.2976,0.49409,0.96144
313.149,36.81252,-0.31965,0.5104,0.95967
316.249,37.10945,-0.34532,0.53629,0.95788
319.349,37.4066,-0.37289,0.55835,0.95609
322.449,37.705,-0.40671,0.58879,0.95428
325.549,38.00315,-0.44498,0.62565,0.95246
328.649,38.30157,-0.48954,0.67218,0.95063
331.749,38.6002,-0.54106,0.73444,0.94878
334.849,38.89947,-0.60721,0.80978,0.94693
337.949,39.19878,-0.68291,0.90388,0.94506
341.049,39.49819,-0.77516,1.01982,0.94318
344.149,39.79869,-0.88544,1.15854,0.94129
347.249,40.0989,-1.01883,1.33191,0.93939
350.349,40.4,-1.1805,1.53336,0.93748
353.449,40.70179,-1.37629,1.7514,0.93555
356.549,41.00378,-1.60405,1.96952,0.93361
359.649,41.30545,-1.86625,2.14121,0.93166
362.749,41.60725,-2.14394,2.20925,0.9297
365.849,41.9076,-2.42276,2.13177,0.92773
368.949,42.20747,-2.67851,1.91867,0.92575
372.049,42.506,-2.90134,1.5929,0.92375
375.149,42.8029,-3.06875,1.16111,0.92174
378.249,43.0995,-3.18082,0.70827,0.91973
381.349,43.39504,-3.23759,0.37404,0.9177
384.449,43.6918,-3.26295,0.2011,0.91565
387.549,43.98993,-3.27549,0.13947,0.9136
390.649,44.2888,-3.28075,0.12212,0.91153
393.749,44.58846,-3.28474,0.11472,0.90946
396.849,44.88865,-3.28868,0.11047,0.90737
399.949,45.18877,-3.29164,0.11069,0.90527
403.049,45.48881,-3.2969,0.10915,0.90316
406.149,45.78909,-3.29954,0.10991,0.90103
409.249,46.08999,-3.30349,0.1055,0.8989
412.349,46.39197,-3.30744,0.10456,0.89675
415.449,46.69426,-3.31055,0.10595,0.8946
418.549,46.99654,-3.31305,0.10282,0.89243
421.649,47.29871,-3.317,0.10882,0.89025
424.749,47.6011,-3.31896,0.11049,0.88806
427.849,47.90475,-3.32293,0.11019,0.88585
430.949,48.20735,-3.32819,0.10783,0.88364
434.049,48.51099,-3.32853,0.10713,0.88142
437.149,48.8136,-3.33381,0.10925,0.87918
440.249,49.11636,-3.33643,0.10825,0.87693
443.349,49.41845,-3.33873,0.10579,0.87467
446.449,49.72228,-3.34335,0.1049,0.8724
449.549,50.0261,-3.34447,0.10328,0.87012
452.649,50.32888,-3.34862,0.10283,0.86783
455.749,50.63285,-3.34993,0.09828546,0.86553
458.849,50.93643,-3.35322,0.09735084,0.86322
461.949,51.2403,-3.35652,0.0965429,0.86089
465.049,51.545,-3.35915,0.0930378,0.85856
468.149,51.8487,-3.36047,0.09345428,0.85621
471.249,52.1531,-3.36315,0.09300948,0.85386
474.349,52.4581,-3.36707,0.09021687,0.85149
477.449,52.7633,-3.36842,0.09031618,0.84911
480.549,53.06814,-3.37068,0.08658633,0.84672
483.649,53.37319,-3.37133,0.08648882,0.84433
486.749,53.67821,-3.3775,0.08671392,0.84192
489.849,53.984,-3.37648,0.08467137,0.8395
492.949,54.2905,-3.37848,0.08413722,0.83707
496.049,54.5954,-3.38111,0.08819523,0.83463
499.149,54.90133,-3.38315,0.08819026,0.83218
502.249,55.20669,-3.38507,0.09383057,0.82972
505.349,55.5128,-3.38605,0.09436994,0.82725
508.449,55.81887,-3.38737,0.09423971,0.82477
511.549,56.12601,-3.38969,0.09331493,0.82227
514.649,56.43206,-3.39002,0.08772242,0.81977
517.749,56.73961,-3.39242,0.07235007,0.81726
520.849,57.0475,-3.39471,0.05879786,0.81474
523.949,57.3552,-3.39598,0.04853759,0.81221
527.049,57.66195,-3.39637,0.04287087,0.80967
530.149,57.9691,-3.39768,0.03814328,0.80713
533.249,58.2755,-3.39895,0.03343798,0.80457
536.349,58.5824,-3.40098,0.03274733,0.802
539.449,58.88915,-3.40098,0.02802604,0.79942
542.549,59.19701,-3.40197,0.0240432,0.79684
545.649,59.50445,-3.40461,0.02470316,0.79424
548.749,59.81219,-3.40592,0.01962873,0.79163
551.849,60.12101,-3.40592,0.01803433,0.78902
554.949,60.4296,-3.40724,0.01713084,0.7864
558.049,60.73791,-3.40922,0.02058213,0.78377
561.149,61.0463,-3.4102,0.01675953,0.78113
564.249,61.35442,-3.41152,0.01966583,0.77848
567.349,61.6631,-3.41254,0.02382045,0.77582
570.449,61.97121,-3.41439,0.02689679,0.77315
573.549,62.27985,-3.41546,0.02811893,0.77048
576.649,62.58863,-3.41654,0.03010372,0.76779
579.749,62.89819,-3.41646,0.02643327,0.7651
582.849,63.2076,-3.41582,0.02797465,0.7624
585.949,63.518,-3.41903,0.0301196,0.75969
589.049,63.8269,-3.4191,0.03297808,0.75698
592.149,64.13611,-3.42171,0.03363965,0.75425
595.249,64.44556,-3.42276,0.03289741,0.75152
598.349,64.75554,-3.42272,0.03518281,0.74878
601.449,65.06509,-3.4214,0.03795385,0.74604
604.549,65.37559,-3.42404,0.04444898,0.74328
607.649,65.68593,-3.42403,0.04183597,0.74052
610.749,65.99643,-3.42498,0.04445074,0.73775
613.849,66.3081,-3.42469,0.0476962,0.73497
616.949,66.61806,-3.42666,0.05317071,0.73219
620.049,66.92828,-3.42766,0.05763281,0.7294
623.149,67.2375,-3.42799,0.05849585,0.7266
626.249,67.54724,-3.427,0.06451302,0.7238
629.349,67.85725,-3.42799,0.06368816,0.72098
632.449,68.16752,-3.42921,0.05901559,0.71817
635.549,68.47844,-3.43168,0.05464138,0.71534
638.649,68.78896,-3.43029,0.05356885,0.71251
641.749,69.10044,-3.43161,0.04973,0.70967
644.849,69.41168,-3.43161,0.04523109,0.70683
647.949,69.72235,-3.43194,0.04424351,0.70398
651.049,70.03376,-3.43227,0.03989864,0.70112
654.149,70.34486,-3.43254,0.04374374,0.69826
657.249,70.65606,-3.43327,0.04508616,0.69539
660.349,70.96655,-3.43552,0.05221145,0.69252
663.449,71.27769,-3.43392,0.0538712,0.68964
666.549,71.58899,-3.43523,0.05264708,0.68676
669.649,71.90012,-3.43457,0.05307057,0.68387
672.749,72.21109,-3.43457,0.05229742,0.68097
675.849,72.52341,-3.43459,0.05141123,0.67807
678.949,72.8355,-3.4347,0.04299363,0.67517
682.049,73.14712,-3.43457,0.04518518,0.67226
685.149,73.45911,-3.43654,0.04020044,0.66934
688.249,73.7705,-3.43523,0.03454753,0.66642
691.349,74.08243,-3.43543,0.02921927,0.6635
694.449,74.39344,-3.43949,0.02776959,0.66057
697.549,74.70551,-3.43546,0.02596989,0.65764
700.649,75.0175,-3.43809,0.01884396,0.6547
703.749,75.3292,-3.43739,0.01617675,0.65176
706.849,75.64231,-3.43809,0.0163596,0.64882
709.949,75.9547,-3.441,0.01807755,0.64587
713.049,76.26776,-3.43875,0.01490013,0.64292
716.149,76.5802,-3.43876,0.008276061,0.63996
719.249,76.89305,-3.43974,0.006504864,0.637
722.349,77.20562,-3.43699,0.006803475,0.63404
725.449,77.5188,-3.44226,0.003815931,0.63108
728.549,77.83113,-3.43832,0.0002753783,0.62811
731.649,78.14365,-3.44028,0.0007004553,0.62514
734.749,78.4567,-3.44296,-0.0006442427,0.62216
737.849,78.76979,-3.4416,-0.002812808,0.61918
740.949,79.0836,-3.44171,-0.004013003,0.6162
744.049,79.39755,-3.44293,-0.002314261,0.61322
747.149,79.71202,-3.44292,-0.007397309,0.61024
749.949,79.99499,-3.44291,-0.00680226,0.60754