File: 01_Data/Feather_PillowA_Cover/STA/N2/10K_min/Feather_Pillow_Cover_STA_N2_10KData_22315_R1.csv
##Temp./Â°C,Time/min,Mass loss(subtr.2)/mg,DSC(subtr.2)/(mW/mg),Sensit./(uV/mW)
49.684,10.00917,-0.01065,0.02052309,1.07018
52.784,11.30919,-0.01108995,0.129,1.06933
55.884,11.7523,-0.006586646,0.18205,1.06846
58.984,12.12997,-0.00922748,0.21578,1.06759
62.084,12.4826,-0.01049235,0.24074,1.0667
65.184,12.82387,-0.01185977,0.2604,1.06581
68.284,13.1592,-0.0131691,0.27826,1.0649
71.384,13.48949,-0.01417725,0.29444,1.06399
74.484,13.81584,-0.01546,0.30759,1.06306
77.584,14.1395,-0.01680031,0.31851,1.06213
80.684,14.4594,-0.01944314,0.3288,1.06118
83.784,14.77733,-0.02040732,0.3341,1.06022
86.884,15.09119,-0.02173361,0.33888,1.05926
89.984,15.40255,-0.02371192,0.3404,1.05828
93.084,15.7119,-0.02502937,0.33641,1.0573
96.184,16.01974,-0.02634954,0.33288,1.0563
99.284,16.32571,-0.02621009,0.32631,1.05529
102.384,16.6306,-0.02997936,0.32332,1.05428
105.484,16.93531,-0.02832753,0.31477,1.05325
108.584,17.23842,-0.03030007,0.31003,1.05221
111.684,17.54036,-0.02998562,0.30648,1.05117
114.784,17.84274,-0.02997,0.3021,1.05011
117.884,18.1445,-0.02996375,0.30186,1.04904
120.984,18.44601,-0.02997009,0.29972,1.04796
124.084,18.7478,-0.02998,0.30092,1.04687
127.184,19.0486,-0.02997,0.30268,1.04577
130.284,19.34796,-0.02897079,0.30622,1.04466
133.384,19.64706,-0.02974997,0.30809,1.04354
136.484,19.9461,-0.03096429,0.30969,1.04241
139.584,20.24598,-0.03096,0.31249,1.04127
142.684,20.54402,-0.03029905,0.31472,1.04012
145.784,20.84261,-0.03029999,0.31975,1.03895
148.884,21.1405,-0.0285501,0.32146,1.03778
151.984,21.43806,-0.03082163,0.32486,1.03659
155.084,21.73463,-0.0314428,0.33171,1.0354
158.184,22.03131,-0.03016868,0.33388,1.03419
161.284,22.3281,-0.03151,0.33845,1.03298
164.384,22.62425,-0.03216359,0.34147,1.03175
167.484,22.92066,-0.03151128,0.34503,1.03051
170.584,23.21696,-0.03184108,0.34762,1.02926
173.684,23.5128,-0.03184,0.35261,1.028
176.784,23.8088,-0.03184209,0.35293,1.02673
179.884,24.10442,-0.03150974,0.35564,1.02545
182.984,24.39992,-0.03283,0.35915,1.02416
186.084,24.69568,-0.03286857,0.36065,1.02285
189.184,24.99115,-0.03323484,0.36422,1.02154
192.284,25.28653,-0.03546637,0.36558,1.02021
195.384,25.58159,-0.03359009,0.36773,1.01887
198.484,25.877,-0.03393,0.37086,1.01753
201.584,26.17114,-0.03492,0.37398,1.01617
204.684,26.46612,-0.03492,0.37523,1.0148
207.784,26.761,-0.03565456,0.37946,1.01342
210.884,27.05613,-0.03558151,0.38175,1.01202
213.984,27.3512,-0.03719884,0.38528,1.01062
217.084,27.64633,-0.03721823,0.38809,1.0092
220.184,27.9411,-0.03983013,0.38955,1.00778
223.284,28.23619,-0.03951187,0.39044,1.00634
226.384,28.5303,-0.04085103,0.39596,1.00489
229.484,28.82565,-0.04084,0.39783,1.00343
232.584,29.1204,-0.04216,0.40091,1.00196
235.684,29.4155,-0.04314535,0.40429,1.00048
238.784,29.7104,-0.04544894,0.40499,0.99898
241.884,30.0061,-0.04676998,0.40732,0.99748
244.984,30.3014,-0.04939978,0.41194,0.99596
248.084,30.59625,-0.0520419,0.41459,0.99443
251.184,30.8915,-0.05522938,0.41536,0.99289
254.284,31.18696,-0.05862602,0.41635,0.99134
257.384,31.4817,-0.06147562,0.4211,0.98977
260.484,31.77688,-0.06488416,0.42371,0.9882
263.584,32.07255,-0.0687729,0.42769,0.98661
266.684,32.3681,-0.07336438,0.43439,0.98501
269.784,32.6638,-0.07805822,0.43823,0.9834
272.884,32.95988,-0.08334931,0.43999,0.98178
275.984,33.25543,-0.08788715,0.43766,0.98015
279.084,33.55148,-0.09518608,0.43894,0.97851
282.184,33.84704,-0.10085,0.44409,0.97685
285.284,34.14288,-0.10968,0.44685,0.97518
288.384,34.439,-0.11813,0.45201,0.9735
291.484,34.73444,-0.12615,0.45737,0.97181
294.584,35.0302,-0.13752,0.46563,0.97011
297.684,35.32577,-0.14735,0.47441,0.96839
300.784,35.62202,-0.16359,0.48692,0.96667
303.884,35.9178,-0.1784,0.49653,0.96493
306.984,36.21416,-0.19581,0.50897,0.96318
310.084,36.51092,-0.21481,0.52429,0.96142
313.184,36.80699,-0.23624,0.54016,0.95965
316.284,37.1038,-0.25952,0.56093,0.95786
319.384,37.4011,-0.2885,0.58487,0.95607
322.484,37.69937,-0.32114,0.61154,0.95426
325.584,37.99688,-0.35909,0.65019,0.95244
328.684,38.2948,-0.40334,0.69262,0.95061
331.784,38.5944,-0.4562,0.74747,0.94876
334.884,38.8928,-0.51779,0.81595,0.94691
337.984,39.19256,-0.59066,0.90708,0.94504
341.084,39.49178,-0.68244,1.01226,0.94316
344.184,39.7915,-0.78846,1.14908,0.94127
347.284,40.0922,-0.91926,1.31563,0.93937
350.384,40.3932,-1.07437,1.50443,0.93745
353.484,40.6952,-1.2675,1.71343,0.93553
356.584,40.99807,-1.48614,1.9207,0.93359
359.684,41.2997,-1.73823,2.09227,0.93164
362.784,41.6021,-2.01114,2.17801,0.92968
365.884,41.90299,-2.28614,2.1313,0.92771
368.984,42.20256,-2.54472,1.93948,0.92573
372.084,42.50116,-2.76775,1.61993,0.92373
375.184,42.79785,-2.94079,1.20632,0.92172
378.284,43.0936,-3.05709,0.7626,0.9197
381.384,43.38912,-3.11959,0.41343,0.91767
384.484,43.68574,-3.1455,0.22921,0.91563
387.584,43.98301,-3.1588,0.15545,0.91358
390.684,44.28159,-3.16391,0.13184,0.91151
393.784,44.58096,-3.17022,0.1253,0.90943
396.884,44.88095,-3.17424,0.11986,0.90734
399.984,45.18205,-3.17809,0.11969,0.90524
403.084,45.4831,-3.18209,0.11852,0.90313
406.184,45.78433,-3.18498,0.11745,0.90101
409.284,46.08582,-3.1892,0.11938,0.89888
412.384,46.38767,-3.19119,0.11676,0.89673
415.484,46.68864,-3.19448,0.11737,0.89457
418.584,46.9904,-3.19886,0.1166,0.8924
421.684,47.2915,-3.20106,0.11839,0.89022
424.784,47.59321,-3.20504,0.11612,0.88803
427.884,47.89521,-3.20765,0.11564,0.88583
430.984,48.19753,-3.2116,0.11773,0.88362
434.084,48.4994,-3.21423,0.12026,0.88139
437.184,48.80283,-3.21683,0.11759,0.87915
440.284,49.10593,-3.21855,0.11971,0.87691
443.384,49.40905,-3.22248,0.1194,0.87465
446.484,49.71321,-3.2248,0.11788,0.87238
449.584,50.01686,-3.22873,0.11876,0.8701
452.684,50.3209,-3.23244,0.11819,0.86781
455.784,50.62468,-3.23334,0.11685,0.8655
458.884,50.92811,-3.23829,0.11719,0.86319
461.984,51.23235,-3.2392,0.11644,0.86087
465.084,51.5364,-3.24193,0.11583,0.85853
468.184,51.8412,-3.24355,0.11505,0.85619
471.284,52.1455,-3.24749,0.11768,0.85383
474.384,52.4503,-3.24882,0.11769,0.85146
477.484,52.75525,-3.25023,0.11715,0.84909
480.584,53.0598,-3.25475,0.11977,0.8467
483.684,53.3646,-3.25402,0.11912,0.8443
486.784,53.6696,-3.25448,0.11806,0.84189
489.884,53.97495,-3.25992,0.11931,0.83947
492.984,54.2803,-3.26177,0.1264,0.83704
496.084,54.58568,-3.26276,0.1284,0.8346
499.184,54.89124,-3.26561,0.12814,0.83215
502.284,55.198,-3.26817,0.13176,0.82969
505.384,55.5039,-3.26794,0.12983,0.82722
508.484,55.80999,-3.27056,0.12748,0.82474
511.584,56.11565,-3.27287,0.12512,0.82225
514.684,56.42267,-3.27451,0.11549,0.81975
517.784,56.72863,-3.27515,0.10638,0.81724
520.884,57.03604,-3.27713,0.10148,0.81472
523.984,57.34264,-3.27773,0.09340168,0.81219
527.084,57.64864,-3.28044,0.09018946,0.80965
530.184,57.9555,-3.28311,0.08832732,0.8071
533.284,58.26243,-3.2834,0.08197494,0.80454
536.384,58.5696,-3.28472,0.07989994,0.80197
539.484,58.8769,-3.28603,0.07491316,0.79939
542.584,59.1844,-3.28777,0.07087872,0.79681
545.684,59.4926,-3.28672,0.07314268,0.79421
548.784,59.79954,-3.28864,0.07078656,0.79161
551.884,60.10819,-3.29098,0.07093113,0.78899
554.984,60.41607,-3.29109,0.07575313,0.78637
558.084,60.72425,-3.29515,0.07640922,0.78374
561.184,61.03298,-3.29411,0.07463689,0.7811
564.284,61.34176,-3.2966,0.07215052,0.77845
567.384,61.6502,-3.298,0.07598847,0.77579
570.484,61.9592,-3.29833,0.07899699,0.77312
573.584,62.2685,-3.29921,0.07224929,0.77045
576.684,62.57809,-3.2979,0.07391427,0.76776
579.784,62.88756,-3.30118,0.07612129,0.76507
582.884,63.1972,-3.30121,0.07387635,0.76237
585.984,63.5068,-3.30119,0.07563619,0.75966
589.084,63.8163,-3.30284,0.07677096,0.75695
592.184,64.12557,-3.30382,0.07799719,0.75422
595.284,64.4352,-3.30382,0.0751187,0.75149
598.384,64.74489,-3.30538,0.08183729,0.74875
601.484,65.05421,-3.30652,0.07934843,0.74601
604.584,65.36443,-3.30908,0.0790944,0.74325
607.684,65.67455,-3.30876,0.08147038,0.74049
610.784,65.9853,-3.31008,0.0857956,0.73772
613.884,66.29698,-3.30942,0.08649724,0.73494
616.984,66.6071,-3.31008,0.09326494,0.73216
620.084,66.917,-3.31073,0.09762546,0.72937
623.184,67.22755,-3.31405,0.096424,0.72657
626.284,67.5377,-3.31185,0.09352034,0.72376
629.384,67.84819,-3.31436,0.09052579,0.72095
632.484,68.15827,-3.31432,0.09309707,0.71813
635.584,68.46944,-3.31568,0.09399486,0.71531
638.684,68.78073,-3.3148,0.09372579,0.71248
641.784,69.0923,-3.316,0.09310294,0.70964
644.884,69.40285,-3.31833,0.09241562,0.7068
647.984,69.71463,-3.317,0.09516821,0.70395
651.084,70.02623,-3.31831,0.09395411,0.70109
654.184,70.33689,-3.31799,0.09462569,0.69823
657.284,70.64811,-3.31897,0.09422728,0.69536
660.384,70.95955,-3.32097,0.09712661,0.69249
663.484,71.27125,-3.31963,0.09910036,0.68961
666.584,71.5827,-3.32094,0.10126,0.68672
669.684,71.89451,-3.32094,0.10299,0.68383
672.784,72.2059,-3.32084,0.10339,0.68094
675.884,72.51652,-3.32293,0.10367,0.67804
678.984,72.82814,-3.32293,0.10749,0.67514
682.084,73.1407,-3.32293,0.10463,0.67223
685.184,73.4526,-3.32292,0.10648,0.66931
688.284,73.76366,-3.32358,0.10376,0.66639
691.384,74.0762,-3.32493,0.11068,0.66347
694.484,74.38905,-3.32359,0.10238,0.66054
697.584,74.7012,-3.32522,0.10143,0.65761
700.684,75.01309,-3.32555,0.09727009,0.65467
703.784,75.32534,-3.32622,0.09686307,0.65173
706.884,75.63767,-3.32641,0.09177793,0.64879
709.984,75.94972,-3.32786,0.09015355,0.64584
713.084,76.26195,-3.32651,0.08711979,0.64288
716.184,76.574,-3.32788,0.08648933,0.63993
719.284,76.887,-3.32787,0.09077503,0.63697
722.384,77.1999,-3.32919,0.09070599,0.63401
725.484,77.51354,-3.33017,0.09241643,0.63104
728.584,77.82741,-3.3292,0.0915202,0.62807
731.684,78.14113,-3.3305,0.09225971,0.6251
734.784,78.45506,-3.33086,0.08484475,0.62213
737.884,78.7684,-3.33083,0.07376872,0.61915
740.984,79.08211,-3.33181,0.06972419,0.61617
744.084,79.39461,-3.33214,0.06291057,0.61319
747.184,79.70841,-3.33314,0.06124601,0.6102
749.984,79.99056,-3.33255,0.05478938,0.60751