File: 01_Data/Ext_Plywood/STA/N2/30K_min/Ext_Plywood_STA_N2_30KData_22253_R2.csv
##Temp./°C,Time/min,Mass loss(subtr.2)/mg,DSC(subtr.2)/(mW/mg),Integral(DSC (subtr.2), 2, 175.8..427.3°C)/%,DTG(subtr.2)/(mg/min),Sensit./(uV/mW)
48.795,10.00917,-0.08019,0.00983684,            ,-0.03073776,1.08889,,
53.995,11.02915,-0.08511841,0.20168,            ,-0.01776455,1.08452,,
59.195,11.32685,-0.09061042,0.33281,            ,-0.01845303,1.0802,,
64.395,11.56403,-0.09184314,0.43499,            ,-0.01000623,1.07592,,
69.595,11.7758,-0.09147301,0.51703,            ,-0.03278968,1.07169,,
74.795,11.9742,-0.0953417,0.58741,            ,-0.02512785,1.06751,,
79.995,12.16468,-0.09568861,0.6551,            ,-0.01188336,1.06337,,
85.195,12.3498,-0.09872255,0.71301,            ,-0.02224336,1.05928,,
90.395,12.53055,-0.1032,0.76641,            ,0.004371423,1.05524,,
95.595,12.709,-0.10453,0.80761,            ,-0.0261786,1.05124,,
100.795,12.8851,-0.11067,0.83046,            ,-0.04451282,1.04729,,
105.995,13.06043,-0.11273,0.8375,            ,-0.01087745,1.04338,,
111.195,13.23415,-0.1167,0.82701,            ,-0.0290396,1.03952,,
116.395,13.40877,-0.11669,0.80255,            ,-0.01427484,1.0357,,
121.595,13.5817,-0.12038,0.77462,            ,-0.0241182,1.03193,,
126.795,13.753,-0.12205,0.75006,            ,-0.02490353,1.0282,,
131.995,13.923,-0.12515,0.73429,            ,-0.00208647,1.02451,,
137.195,14.09185,-0.12447,0.72719,            ,-0.02268307,1.02087,,
142.395,14.2592,-0.12581,0.73188,            ,-0.03714627,1.01727,,
147.595,14.42494,-0.12943,0.7411,            ,-0.000829714,1.01371,,
152.795,14.5909,-0.12943,0.75684,            ,-1.642989e-05,1.01019,,
157.995,14.7556,-0.13065,0.77056,            ,-0.02187932,1.00672,,
163.195,14.91956,-0.13206,0.79146,            ,-0.005032257,1.00328,,
168.395,15.0828,-0.13256,0.81476,            ,-0.02377784,0.99988,,
173.595,15.2456,-0.13486,0.83319,0.000000e+00,-0.02394357,0.99653,,
178.795,15.4076,-0.13567,0.8559,3.457700e-02,0.00188862,0.99321,,
183.995,15.5685,-0.13832,0.87854,     0.24787,-0.00340591,0.98993,,
189.195,15.7288,-0.13897,0.90137,     0.65312,-0.01627987,0.98668,,
194.395,15.88825,-0.14502,0.92203,     1.24322,-0.01728457,0.98347,,
199.595,16.04747,-0.14833,0.94431,     2.01781,-0.03348919,0.9803,,
204.795,16.2063,-0.15434,0.96009,     2.96354,-0.02933463,0.97716,,
209.995,16.36482,-0.15904,0.96895,     4.05877,-0.0292324,0.97405,,
215.195,16.52321,-0.1643,0.97338,     5.27487,-0.04845351,0.97098,,
220.395,16.68101,-0.16942,0.97527,     6.59745,-0.0377309,0.96794,,
225.595,16.8388,-0.17703,0.97764,     8.02156,-0.05905656,0.96493,,
230.795,16.9966,-0.19054,0.98197,     9.55071,-0.07978512,0.96195,,
235.995,17.15407,-0.20075,0.99379,    11.20595,-0.0793488,0.959,,
241.195,17.31149,-0.21605,1.00398,    13.00134,-0.08312172,0.95608,,
246.395,17.46872,-0.22932,1.01576,    14.93846,-0.09269623,0.95319,,
251.595,17.62581,-0.24458,1.02975,    17.02114,-0.11288,0.95032,,
256.795,17.78303,-0.2659,1.03743,    19.24285,-0.13183,0.94748,,
261.995,17.94003,-0.28561,1.04279,    21.58962,-0.1281,0.94466,,
267.195,18.0971,-0.30456,1.04572,    24.05128,-0.12478,0.94187,,
272.395,18.25405,-0.33159,1.04617,    26.60655,-0.16042,0.93909,,
277.595,18.41093,-0.3571,1.04088,    29.24406,-0.17967,0.93634,,
282.795,18.5684,-0.38763,1.03353,    31.95954,-0.20766,0.93361,,
287.995,18.72543,-0.42401,1.02159,    34.72084,-0.33607,0.9309,,
293.195,18.88276,-0.46838,1.00378,    37.52879,-0.27861,0.92821,,
298.395,19.0399,-0.5152,0.98198,    40.34984,-0.32051,0.92554,,
303.595,19.19738,-0.57213,0.96271,    43.18885,-0.39704,0.92288,,
308.795,19.35426,-0.63821,0.94949,    46.04474,-0.45183,0.92023,,
313.995,19.5125,-0.71364,0.94286,    48.97946,-0.53089,0.9176,,
319.195,19.67021,-0.80252,0.94667,    51.99542,-0.58212,0.91499,,
324.395,19.82824,-0.89849,0.95657,    55.14218,-0.6697,0.91238,,
329.595,19.98645,-1.00307,0.97107,    58.44520,-0.67497,0.90979,,
334.795,20.14507,-1.11852,0.98404,    61.90890,-0.77048,0.9072,,
339.995,20.30389,-1.24514,0.99337,    65.51873,-0.8501,0.90463,,
345.195,20.46293,-1.3854,0.99969,    69.26128,-0.91765,0.90206,,
350.395,20.62223,-1.53431,0.99324,    73.10640,-0.96444,0.8995,,
355.595,20.78195,-1.69211,0.97138,    77.01087,-1.01738,0.89694,,
360.795,20.94119,-1.85662,0.92519,    80.86721,-1.0545,0.89439,,
365.995,21.10162,-2.02408,0.85204,    84.60904,-1.04828,0.89184,,
371.195,21.2617,-2.18643,0.73894,    88.05608,-0.95074,0.88929,,
376.395,21.42181,-2.3295,0.59308,    91.06836,-0.82012,0.88674,,
381.595,21.58239,-2.44787,0.43707,    93.56243,-0.63067,0.8842,,
386.795,21.7429,-2.54129,0.28347,    95.51211,-0.47666,0.88165,,
391.995,21.9036,-2.6059,0.15314,    96.98236,-0.35547,0.8791,,
397.195,22.0645,-2.6535,0.04490309,    98.06037,-0.23692,0.87655,,
402.395,22.2256,-2.68592,-0.04228182,    98.82946,-0.1862,0.87399,,
407.595,22.38726,-2.71011,-0.11685,    99.36930,-0.14218,0.87142,,
412.795,22.54908,-2.73458,-0.1849,    99.71910,-0.13389,0.86885,,
417.995,22.71111,-2.75364,-0.24179,    99.91080,-0.09951549,0.86628,,
423.195,22.87341,-2.77451,-0.28995,    99.98932,-0.13461,0.86369,,
428.395,23.03622,-2.79319,-0.32287,   100,-0.11251,0.8611,,
433.595,23.19923,-2.81116,-0.34212,            ,-0.13318,0.85849,,
438.795,23.36277,-2.82706,-0.35062,            ,-0.08371528,0.85587,,
443.995,23.52636,-2.84248,-0.34595,            ,-0.08650009,0.85324,,
449.195,23.69032,-2.86126,-0.32812,            ,-0.08372734,0.8506,,
454.395,23.85436,-2.87604,-0.29803,            ,-0.13424,0.84794,,
459.595,24.01931,-2.89059,-0.2601,            ,-0.13592,0.84527,,
464.795,24.1841,-2.90795,-0.22827,            ,-0.10256,0.84258,,
469.995,24.34901,-2.91743,-0.19714,            ,-0.04628484,0.83988,,
475.195,24.51444,-2.93056,-0.16931,            ,-0.07302231,0.83715,,
480.395,24.6802,-2.94102,-0.14302,            ,-0.05462015,0.83441,,
485.595,24.84627,-2.94936,-0.12436,            ,-0.03949397,0.83165,,
490.795,25.01269,-2.95766,-0.11072,            ,-0.09764397,0.82886,,
495.995,25.17944,-2.96934,-0.09647114,            ,-0.08310875,0.82606,,
501.195,25.34627,-2.97766,-0.09129792,            ,-0.001419862,0.82323,,
506.395,25.5133,-2.98427,-0.08275494,            ,-0.06374718,0.82039,,
511.595,25.68061,-2.9915,-0.07512353,            ,-0.04068474,0.81751,,
516.795,25.84812,-2.99971,-0.07241181,            ,-0.03374581,0.81462,,
521.995,26.0158,-3.00399,-0.06767375,            ,-0.03031712,0.8117,,
527.195,26.1835,-3.01143,-0.06494409,            ,-0.05396993,0.80875,,
532.395,26.35156,-3.018,-0.05926824,            ,-0.0313884,0.80577,,
537.595,26.5201,-3.02625,-0.055511,            ,-0.07170363,0.80277,,
542.795,26.6887,-3.0336,-0.05671526,            ,-0.02102679,0.79975,,
547.995,26.8571,-3.03896,-0.04895772,            ,-0.02549209,0.79669,,
553.195,27.0259,-3.04291,-0.0478872,            ,-0.01909157,0.79361,,
558.395,27.1946,-3.04895,-0.04432884,            ,-0.05618207,0.79049,,
563.595,27.36373,-3.05891,-0.04038808,            ,-0.01528365,0.78735,,
568.795,27.53283,-3.05895,-0.03547958,            ,-0.01423524,0.78417,,
573.995,27.70212,-3.06494,-0.02127463,            ,-0.02442726,0.78097,,
579.195,27.87175,-3.06752,0.0009700686,            ,-0.02778706,0.77773,,
584.395,28.04154,-3.07274,0.02015739,            ,-0.02878205,0.77446,,
589.595,28.21142,-3.07783,0.03218994,            ,-0.008213899,0.77116,,
594.795,28.382,-3.08367,0.03976768,            ,-0.03344725,0.76783,,
599.995,28.55252,-3.08704,0.04633392,            ,-0.03864334,0.76447,,
605.195,28.72325,-3.09415,0.04535067,            ,0.02644443,0.76107,,
610.395,28.8942,-3.09404,0.0464332,            ,-0.04858035,0.75764,,
615.595,29.06543,-3.09995,0.04867417,            ,0.00546679,0.75417,,
620.795,29.2368,-3.0986,0.0517489,            ,-0.02521111,0.75067,,
625.995,29.4081,-3.10617,0.05754123,            ,-0.02740369,0.74714,,
631.195,29.57961,-3.10931,0.06739574,            ,-0.03034005,0.74357,,
636.395,29.7514,-3.11311,0.07710465,            ,-0.002332522,0.73997,,
641.595,29.92328,-3.11727,0.08036978,            ,-0.0135383,0.73633,,
646.795,30.09525,-3.11863,0.09240416,            ,-0.01535997,0.73266,,
651.995,30.26747,-3.12043,0.09929368,            ,-0.02907709,0.72895,,
657.195,30.4398,-3.12385,0.1098,            ,-0.02710694,0.72521,,
662.395,30.61208,-3.12786,0.11286,            ,-0.02067311,0.72143,,
667.595,30.7845,-3.13051,0.119,            ,-0.001796788,0.71762,,
672.795,30.9569,-3.13405,0.12081,            ,-0.03770168,0.71377,,
677.995,31.12945,-3.13736,0.11476,            ,0.004432661,0.70989,,
683.195,31.30248,-3.14069,0.11331,            ,-0.03990733,0.70597,,
688.395,31.47535,-3.14416,0.10741,            ,-1.055074e-06,0.70202,,
693.595,31.64842,-3.14515,0.10214,            ,-0.000472506,0.69803,,
698.795,31.8214,-3.14724,0.09629064,            ,-0.03922079,0.69401,,
703.995,31.9948,-3.1514,0.08672738,            ,0.000753756,0.68995,,
709.195,32.1682,-3.1501,0.079121,            ,0.005894951,0.68586,,
714.395,32.34155,-3.15125,0.06959322,            ,-0.01910481,0.68173,,
719.595,32.5152,-3.15236,0.06159942,            ,-0.009668847,0.67757,,
724.795,32.689,-3.15216,0.05586593,            ,-0.02922586,0.67338,,
729.995,32.86296,-3.15632,0.05061951,            ,0.018734,0.66915,,
735.195,33.03737,-3.15633,0.04019735,            ,-0.0009729143,0.66489,,
740.395,33.21135,-3.15792,0.03508939,            ,-0.02358681,0.66059,,
745.595,33.38628,-3.1587,0.02974066,            ,-0.02068593,0.65627,,
750.795,33.56053,-3.15908,0.01726896,            ,0.01039638,0.65191,,
755.995,33.73527,-3.16358,0.01437803,            ,-0.00850512,0.64752,,
761.195,33.9099,-3.16494,0.00767203,            ,-0.02826064,0.64309,,
766.395,34.08483,-3.16916,-0.00196333,            ,-0.00372071,0.63864,,
771.595,34.25955,-3.17028,-0.009916166,            ,-0.01364825,0.63415,,
776.795,34.43432,-3.17287,-0.0194052,            ,-0.02027455,0.62964,,
781.995,34.60906,-3.1742,-0.02346188,            ,-0.01610904,0.6251,,
787.195,34.78378,-3.17444,-0.03021397,            ,0.01407454,0.62052,,
792.395,34.9585,-3.17424,-0.03712441,            ,0.01357622,0.61592,,
793.595,34.99889,-3.17388,-0.04021999,            ,0.003046617,0.61485,,