File: 01_Data/Ext_Plywood/STA/N2/30K_min/Ext_Plywood_STA_N2_30KData_22253_R1.csv
##Temp./°C,Time/min,Mass loss(subtr.2)/mg,DSC(subtr.2)/(mW/mg),Integral(DSC (subtr.2), 2, 175.8..427.3°C)/%,DTG(subtr.2)/(mg/min),Sensit./(uV/mW)
48.751,10.01,0.00559,0.01328796,            ,0.0,1.08893,,
53.851,11.02426,0.00663363,0.27225,            ,0.02902417,1.08464,,
58.951,11.3184,0.005496359,0.43281,            ,-0.01257799,1.0804,,
64.051,11.5531,0.0076927,0.55807,            ,9.524497e-05,1.0762,,
69.151,11.76178,0.005139782,0.65962,            ,-0.0113682,1.07205,,
74.251,11.95771,0.004332356,0.74824,            ,0.002278731,1.06795,,
79.351,12.1447,0.00333038,0.82887,            ,-0.02292617,1.06388,,
84.451,12.32734,0.001869784,0.90108,            ,-0.01556218,1.05987,,
89.551,12.50539,-0.001010482,0.96111,            ,-0.01248975,1.05589,,
94.651,12.68038,-0.002308063,1.01029,            ,0.002268066,1.05196,,
99.751,12.8534,-0.00455598,1.04771,            ,-0.02742111,1.04808,,
104.851,13.0254,-0.007569758,1.06657,            ,-0.000718466,1.04424,,
109.951,13.19656,-0.01019309,1.06455,            ,-0.02048156,1.04044,,
115.051,13.36706,-0.01151971,1.05047,            ,0.004228264,1.03668,,
120.151,13.53694,-0.01284511,1.03369,            ,-0.0261664,1.03297,,
125.251,13.7052,-0.01682897,1.01672,            ,0.01789761,1.0293,,
130.351,13.8722,-0.01684096,1.00536,            ,-0.01290055,1.02567,,
135.451,14.03785,-0.01942295,1.00507,            ,-0.006123737,1.02208,,
140.551,14.20243,-0.01809975,1.01412,            ,-0.004006816,1.01854,,
145.651,14.36573,-0.01909738,1.02654,            ,-0.0002743789,1.01503,,
150.751,14.5281,-0.02072487,1.04788,            ,-0.01049763,1.01157,,
155.851,14.689,-0.02073,1.06737,            ,-0.0001234,1.00814,,
160.951,14.8504,-0.02204,1.0948,            ,-3.50705e-08,1.00476,,
166.051,15.0106,-0.02204,1.11937,            ,-7.882698e-09,1.00141,,
171.151,15.17044,-0.02335741,1.14744,            ,-0.005058885,0.9981,,
176.251,15.32974,-0.02468011,1.176,4.930357e-04,-0.00154194,0.99483,,
181.351,15.4878,-0.02468006,1.20067,     0.11204,-0.000180911,0.99159,,
186.451,15.6455,-0.02728175,1.22732,     0.41629,-0.02631379,0.98839,,
191.551,15.8018,-0.02831124,1.25084,     0.90703,-0.02209464,0.98522,,
196.651,15.95831,-0.03092508,1.27658,     1.58496,-0.01018475,0.98209,,
201.751,16.11424,-0.03557888,1.29647,     2.43431,-0.02482797,0.97899,,
206.851,16.26984,-0.03891736,1.31303,     3.44190,-0.03173614,0.97593,,
211.951,16.42537,-0.04405717,1.31958,     4.58280,-0.0105809,0.97289,,
217.051,16.58042,-0.04915693,1.326,     5.83988,-0.04689603,0.96989,,
222.151,16.73528,-0.05571098,1.33244,     7.20572,-0.04368262,0.96692,,
227.251,16.88981,-0.06490774,1.33864,     8.67397,-0.05826285,0.96398,,
232.351,17.0442,-0.07456328,1.34782,    10.25770,-0.07501134,0.96107,,
237.451,17.1985,-0.08560471,1.35693,    11.96409,-0.07626803,0.95818,,
242.551,17.35267,-0.09677293,1.37111,    13.80550,-0.08908233,0.95532,,
247.651,17.5068,-0.11119,1.38315,    15.78117,-0.1059,0.95249,,
252.751,17.66088,-0.12733,1.39475,    17.88641,-0.11042,0.94969,,
257.851,17.81486,-0.14546,1.40223,    20.11807,-0.12732,0.9469,,
262.951,17.96901,-0.16516,1.40866,    22.46768,-0.12868,0.94414,,
268.051,18.123,-0.18474,1.41312,    24.92268,-0.13483,0.94141,,
273.151,18.27695,-0.20792,1.41271,    27.47094,-0.16242,0.93869,,
278.251,18.43123,-0.23437,1.40998,    30.10339,-0.17227,0.936,,
283.351,18.5855,-0.26452,1.4017,    32.80427,-0.1938,0.93332,,
288.451,18.7398,-0.29865,1.39145,    35.55702,-0.2408,0.93067,,
293.551,18.8941,-0.33886,1.37497,    38.34872,-0.27353,0.92803,,
298.651,19.0484,-0.38672,1.36251,    41.16777,-0.3259,0.9254,,
303.751,19.20284,-0.44224,1.34473,    44.01700,-0.38191,0.9228,,
308.851,19.3575,-0.50913,1.33417,    46.90540,-0.44211,0.92021,,
313.951,19.51225,-0.58145,1.32961,    49.85002,-0.51404,0.91763,,
319.051,19.6671,-0.66627,1.33235,    52.88282,-0.57559,0.91506,,
324.151,19.82222,-0.75911,1.34547,    56.03969,-0.6322,0.9125,,
329.251,19.97754,-0.86291,1.35639,    59.33460,-0.70671,0.90996,,
334.351,20.1331,-0.97536,1.36764,    62.77253,-0.78316,0.90742,,
339.451,20.28901,-1.09812,1.37363,    66.33952,-0.82186,0.9049,,
344.551,20.44497,-1.23046,1.37241,    70.00776,-0.89875,0.90238,,
349.651,20.60118,-1.37492,1.3659,    73.75815,-0.94225,0.89986,,
354.751,20.7575,-1.52702,1.3441,    77.54349,-1.01466,0.89735,,
359.851,20.91403,-1.68846,1.30019,    81.30384,-1.03606,0.89485,,
364.951,21.0712,-1.85305,1.22834,    84.94672,-1.02034,0.89235,,
370.051,21.2283,-2.01034,1.11675,    88.32134,-0.97339,0.88985,,
375.151,21.38557,-2.15785,0.97346,    91.28858,-0.86292,0.88735,,
380.251,21.54306,-2.28188,0.81055,    93.74241,-0.71499,0.88486,,
385.351,21.70056,-2.3818,0.65504,    95.65506,-0.53874,0.88236,,
390.451,21.8584,-2.45639,0.51302,    97.07374,-0.41082,0.87986,,
395.551,22.01652,-2.50827,0.39989,    98.08166,-0.27581,0.87735,,
400.651,22.17481,-2.54638,0.31253,    98.79142,-0.20189,0.87485,,
405.751,22.33342,-2.57229,0.2413,    99.29203,-0.13553,0.87233,,
410.851,22.4924,-2.59326,0.18352,    99.63484,-0.11768,0.86982,,
415.951,22.65128,-2.61157,0.12973,    99.85140,-0.12409,0.86729,,
421.051,22.81097,-2.63103,0.0841198,    99.95818,-0.10413,0.86476,,
426.151,22.97048,-2.65029,0.04655992,    99.99682,-0.1073,0.86222,,
431.251,23.13018,-2.66923,0.02319755,            ,-0.12799,0.85967,,
436.351,23.29029,-2.6848,0.01361379,            ,-0.08198502,0.8571,,
441.451,23.45064,-2.7024,0.02224519,            ,-0.09783735,0.85453,,
446.551,23.61139,-2.71721,0.03298867,            ,-0.09066422,0.85195,,
451.651,23.77236,-2.73374,0.05808383,            ,-0.09589003,0.84935,,
456.751,23.93355,-2.74754,0.08921218,            ,-0.07457829,0.84673,,
461.851,24.09495,-2.76105,0.12479,            ,-0.08340927,0.84411,,
466.951,24.25682,-2.77349,0.15738,            ,-0.08595342,0.84146,,
472.051,24.41889,-2.78592,0.18717,            ,-0.08134033,0.8388,,
477.151,24.58108,-2.79582,0.21675,            ,-0.08383458,0.83612,,
482.251,24.74354,-2.80685,0.23394,            ,-0.06641853,0.83343,,
487.351,24.9058,-2.81479,0.25439,            ,-0.04727221,0.83071,,
492.451,25.06918,-2.8252,0.27106,            ,-0.08917105,0.82797,,
497.551,25.23226,-2.83366,0.28091,            ,-0.04184751,0.82522,,
502.651,25.39588,-2.84116,0.28836,            ,-0.04182485,0.82244,,
507.751,25.55949,-2.84915,0.29609,            ,-0.03886123,0.81964,,
512.851,25.72329,-2.85701,0.30306,            ,-0.04290636,0.81682,,
517.951,25.88738,-2.86295,0.3053,            ,-0.051043,0.81397,,
523.051,26.05164,-2.87013,0.30826,            ,-0.03380407,0.8111,,
528.151,26.21595,-2.87566,0.31175,            ,-0.03114956,0.8082,,
533.251,26.3806,-2.88381,0.31415,            ,-0.03128153,0.80528,,
538.351,26.54549,-2.88799,0.32171,            ,-0.03398434,0.80234,,
543.451,26.71054,-2.89098,0.32531,            ,-0.08191767,0.79936,,
548.551,26.8756,-2.90091,0.32739,            ,-0.02717485,0.79636,,
553.651,27.04095,-2.90589,0.33323,            ,-0.03080926,0.79333,,
558.751,27.20658,-2.91051,0.33545,            ,-0.0184108,0.79028,,
563.851,27.37245,-2.91613,0.33617,            ,-0.02228486,0.78719,,
568.951,27.5385,-2.92019,0.34246,            ,-0.02354476,0.78408,,
574.051,27.70474,-2.92635,0.35375,            ,-0.05133539,0.78093,,
579.151,27.8712,-2.93017,0.37535,            ,-0.04834264,0.77776,,
584.251,28.03807,-2.93462,0.39094,            ,-0.02975602,0.77456,,
589.351,28.2048,-2.94016,0.40842,            ,-0.03218044,0.77132,,
594.451,28.37195,-2.94435,0.42185,            ,-0.0339175,0.76805,,
599.551,28.539,-2.94848,0.42532,            ,-0.03478229,0.76476,,
604.651,28.7066,-2.95297,0.42736,            ,-0.02541919,0.76143,,
609.751,28.8744,-2.95559,0.42663,            ,-0.01468249,0.75806,,
614.851,29.04215,-2.95956,0.4321,            ,-0.0285263,0.75467,,
619.951,29.2105,-2.96349,0.43889,            ,-0.007291291,0.75124,,
625.051,29.3787,-2.9665,0.44667,            ,-0.03870943,0.74778,,
630.151,29.5473,-2.97193,0.4548,            ,0.008702351,0.74429,,
635.251,29.71592,-2.97087,0.46243,            ,-0.008341431,0.74076,,
640.351,29.88464,-2.97626,0.47467,            ,-0.0249927,0.7372,,
645.451,30.05374,-2.97918,0.48511,            ,-0.00568007,0.73361,,
650.551,30.22255,-2.98186,0.4984,            ,-0.02088907,0.72998,,
655.651,30.3915,-2.98319,0.51233,            ,-0.02320113,0.72632,,
660.751,30.56022,-2.98575,0.5203,            ,-0.008556009,0.72263,,
665.851,30.72924,-2.98806,0.52428,            ,-0.002946766,0.7189,,
670.951,30.8982,-2.99071,0.52844,            ,0.01501432,0.71514,,
676.051,31.06724,-2.99322,0.52684,            ,-0.02615042,0.71134,,
681.151,31.23609,-2.99476,0.53052,            ,-0.002743685,0.70751,,
686.251,31.4052,-2.99806,0.52657,            ,-0.02017334,0.70365,,
691.351,31.5747,-2.99805,0.52171,            ,-0.000922281,0.69975,,
696.451,31.7439,-3.00167,0.5201,            ,-0.004995169,0.69582,,
701.551,31.91406,-3.00428,0.51454,            ,-0.01786126,0.69186,,
706.651,32.08403,-3.00433,0.51034,            ,0.01515201,0.68786,,
711.751,32.25424,-3.00699,0.50615,            ,-0.0323602,0.68383,,
716.851,32.42456,-3.00984,0.50206,            ,-0.01982594,0.67977,,
721.951,32.59472,-3.0111,0.49335,            ,-0.002483096,0.67567,,
727.051,32.7654,-3.01242,0.49329,            ,-2.115478e-06,0.67155,,
732.151,32.93614,-3.01524,0.48551,            ,-0.02053037,0.66738,,
737.251,33.10691,-3.01384,0.47677,            ,-0.009514389,0.66319,,
742.351,33.27809,-3.01615,0.46922,            ,-0.01245871,0.65897,,
747.451,33.4491,-3.01778,0.45961,            ,-0.02512633,0.65471,,
752.551,33.62022,-3.02075,0.45179,            ,0.0001671669,0.65043,,
757.651,33.7915,-3.02076,0.44075,            ,-1.427853e-07,0.64611,,
762.751,33.9627,-3.02208,0.43223,            ,-0.0110525,0.64176,,
767.851,34.13425,-3.02471,0.42915,            ,-0.00200206,0.63739,,
772.951,34.3057,-3.02471,0.41715,            ,-0.002002335,0.63298,,
778.051,34.4771,-3.02601,0.41251,            ,-0.01895649,0.62855,,
783.151,34.64804,-3.02832,0.41099,            ,-0.00265345,0.62408,,
788.251,34.81985,-3.03095,0.40009,            ,0.00558144,0.61959,,
793.351,34.99176,-3.03095,0.39647,            ,-0.03392998,0.61507,,
793.551,34.99839,-3.03095,0.39707,            ,-0.0369338,0.61489,,