File: 01_Data/PVC/STA/N2/10K_min/PVC_STA_N2_10KData_210505_R1.csv
##Temp./Â°C,Time/min,DSC(subtr.2)/mW,Mass loss(subtr.2)/mg,DTG(subtr.2)/(mg/min),Sensit./(uV/mW)
48.346,0.16683,-0.0561854,0.01416,-0.07443178,0.99127
51.646,0.20649,0.17006,0.01038613,-0.003985003,0.99131
54.946,0.21843,0.26984,0.006560161,0.003454678,0.99133
58.246,0.22813,0.32885,0.004050966,-0.001571116,0.99132
61.546,0.23677,0.35583,0.002165221,-0.0005826236,0.99129
64.846,0.24472,0.38182,0.007959389,-0.000594754,0.99124
68.146,0.25219,0.40943,0.006039893,-0.005552508,0.99116
71.446,0.25929,0.45935,0.0008115008,0.002832578,0.99105
74.746,0.26603,0.50724,0.006159456,-0.003001275,0.99092
78.046,0.27262,0.57058,0.004785735,0.002799411,0.99077
81.346,0.27893,0.6326,0.003160309,-0.003004067,0.99059
84.646,0.28507,0.6358,-0.0004050849,0.00357696,0.99038
87.946,0.29104,0.62575,0.0071411,-0.002194589,0.99016
91.246,0.29687,0.65715,0.0005272688,-0.003170085,0.9899
94.546,0.30259,0.6998,-0.0006534675,-0.001219103,0.98963
97.846,0.30822,0.74901,-0.001498875,-0.00167443,0.98932
101.146,0.31378,0.78591,0.00156034,-0.00213333,0.989
104.446,0.31927,0.81779,-0.00704773,-0.004278029,0.98865
107.746,0.32472,0.85003,0.003537078,-0.003799287,0.98827
111.046,0.33013,0.87263,0.001726233,-0.001379524,0.98787
114.346,0.33549,0.90318,-0.00493228,0.0009856735,0.98745
117.646,0.34082,0.92677,-0.0004176941,-0.002888038,0.987
120.946,0.3461,0.95131,-0.007345031,-0.003664123,0.98653
124.246,0.35135,0.96633,-0.0058066,0.001606721,0.98604
127.546,0.35655,0.9812,-0.003953108,-0.000369277,0.98552
130.846,0.36172,1.0008,-0.006059645,-0.007103878,0.98498
134.146,0.36685,1.0263,-0.008095564,-0.005967705,0.98441
137.446,0.37193,1.04053,-0.01414024,0.00347325,0.98382
140.746,0.37701,1.05454,-0.009203838,0.001045645,0.98321
144.046,0.38204,1.06881,-0.01526914,-0.000404346,0.98257
147.346,0.38706,1.08608,-0.007998035,-0.00271663,0.98191
150.646,0.39206,1.09794,-0.01399353,-0.005121003,0.98123
153.946,0.39705,1.10699,-0.008928596,-0.00347611,0.98052
157.246,0.40202,1.10898,-0.01420401,-0.0016146,0.9798
160.546,0.40698,1.11961,-0.01551849,-0.0006283111,0.97904
163.846,0.41194,1.11337,-0.01326429,-0.0009471101,0.97827
167.146,0.41689,1.12114,-0.0159043,-0.0018967,0.97747
170.446,0.42185,1.11931,-0.0063595,-0.003913628,0.97665
173.746,0.42679,1.11941,-0.01759097,-0.005983962,0.97581
177.046,0.43171,1.11925,-0.01632735,0.002203151,0.97494
180.346,0.43665,1.12009,-0.01064314,0.002370652,0.97406
183.646,0.44156,1.13043,-0.02103324,-0.003946765,0.97315
186.946,0.44647,1.12085,-0.01846544,-0.0060856,0.97221
190.246,0.45137,1.1203,-0.02037907,-0.006258695,0.97126
193.546,0.45625,1.11551,-0.02189149,-0.00119298,0.97028
196.846,0.46114,1.11806,-0.01469543,0.00023318,0.96928
200.146,0.46602,1.11551,-0.02032879,-0.007201589,0.96826
203.446,0.47089,1.12462,-0.03274028,-0.007184701,0.96722
206.746,0.47577,1.12988,-0.02412406,-0.004767826,0.96616
210.046,0.48063,1.12589,-0.03081574,-0.00175382,0.96508
213.346,0.48552,1.12033,-0.02536462,-0.00321112,0.96397
216.646,0.4904,1.11683,-0.03056597,-0.00426655,0.96284
219.946,0.49528,1.11561,-0.0273638,-0.002835401,0.9617
223.246,0.50016,1.1018,-0.02650616,-0.00419144,0.96053
226.546,0.50504,1.10628,-0.03252039,-0.0054186,0.95934
229.846,0.50993,1.10965,-0.0294059,-0.00544922,0.95813
233.146,0.51482,1.11023,-0.02701926,-0.005225929,0.9569
236.446,0.51971,1.10127,-0.03937878,-0.01018752,0.95564
239.746,0.5246,1.09793,-0.04211591,-0.01226663,0.95437
243.046,0.52949,1.04975,-0.0429943,-0.01996615,0.95308
246.346,0.53438,0.93031,-0.04939191,-0.03047204,0.95177
249.646,0.53927,1.22787,-0.0560296,-0.04176498,0.95044
252.946,0.54417,1.34242,-0.08077255,-0.05089978,0.94908
256.246,0.54907,1.40909,-0.08897129,-0.05659625,0.94771
259.546,0.55397,1.48837,-0.11235,-0.06148522,0.94632
262.846,0.55887,1.53892,-0.12636,-0.06407313,0.94491
266.146,0.56378,1.59068,-0.15297,-0.06746203,0.94348
269.446,0.56869,1.65915,-0.16422,-0.0741201,0.94203
272.746,0.57361,1.73431,-0.19127,-0.08766036,0.94056
276.046,0.57853,1.82787,-0.21624,-0.10141,0.93907
279.346,0.58346,1.93348,-0.25809,-0.11476,0.93757
282.646,0.58839,2.04864,-0.2782,-0.13762,0.93604
285.946,0.59332,2.20669,-0.33039,-0.16128,0.9345
289.246,0.59826,2.37002,-0.3756,-0.18847,0.93294
292.546,0.6032,2.561,-0.4384,-0.22621,0.93136
295.846,0.60815,2.76831,-0.51243,-0.26692,0.92976
299.146,0.6131,2.99929,-0.59832,-0.30682,0.92814
302.446,0.61806,3.18036,-0.69746,-0.34499,0.92651
305.746,0.62303,3.33453,-0.80364,-0.37881,0.92486
309.046,0.62798,3.47042,-0.92628,-0.40388,0.92319
312.346,0.63296,3.49108,-1.04875,-0.41601,0.9215
315.646,0.63794,3.42223,-1.1724,-0.42357,0.9198
318.946,0.64292,3.36634,-1.30094,-0.42508,0.91807
322.246,0.6479,3.25539,-1.42781,-0.41498,0.91634
325.546,0.65287,3.106,-1.54969,-0.39904,0.91458
328.846,0.65785,2.96095,-1.66548,-0.37233,0.91281
332.146,0.66285,2.74442,-1.77638,-0.3459,0.91102
335.446,0.66784,2.49826,-1.87489,-0.31785,0.90922
338.746,0.67284,2.1739,-1.97057,-0.27695,0.9074
342.046,0.67783,1.79194,-2.03885,-0.23397,0.90556
345.346,0.68284,1.39823,-2.11877,-0.19831,0.90371
348.646,0.68786,0.96121,-2.16184,-0.1599,0.90184
351.946,0.69287,0.59557,-2.20194,-0.11774,0.89995
355.246,0.6979,0.33251,-2.22667,-0.0876906,0.89805
358.546,0.70294,0.1498,-2.25221,-0.07089354,0.89614
361.846,0.70798,0.06853531,-2.27879,-0.05469884,0.89421
365.146,0.71303,0.03370646,-2.28639,-0.03824722,0.89226
368.446,0.7181,0.00317586,-2.29144,-0.03005725,0.8903
371.746,0.72316,-0.00748328,-2.30428,-0.03060519,0.88833
375.046,0.72825,-0.00973391,-2.3151,-0.02852646,0.88634
378.346,0.73335,-0.009604247,-2.32113,-0.02426469,0.88433
381.646,0.73844,-0.003374099,-2.3298,-0.02138348,0.88232
384.946,0.74356,-0.01753556,-2.33521,-0.01768773,0.88028
388.246,0.74868,-0.00925229,-2.33909,-0.02222154,0.87824
391.546,0.75382,-0.03221724,-2.34834,-0.02727138,0.87618
394.846,0.75895,-0.03900251,-2.35482,-0.02976586,0.8741
398.146,0.76409,-0.05176665,-2.37004,-0.029907,0.87201
401.446,0.76924,-0.06664769,-2.37471,-0.03176487,0.86991
404.746,0.77441,-0.10215,-2.38083,-0.03156035,0.8678
408.046,0.77957,-0.12683,-2.39841,-0.03250807,0.86567
411.346,0.78474,-0.15554,-2.40805,-0.03805119,0.86353
414.646,0.7899,-0.18648,-2.42076,-0.04240987,0.86138
417.946,0.79507,-0.21893,-2.43399,-0.04445135,0.85921
421.246,0.80025,-0.25425,-2.44315,-0.04554282,0.85704
424.546,0.80544,-0.27087,-2.45456,-0.0580297,0.85485
427.846,0.81062,-0.26369,-2.48452,-0.07040047,0.85264
431.146,0.81584,-0.23587,-2.50567,-0.07784593,0.85043
434.446,0.82106,-0.20187,-2.52938,-0.09457528,0.8482
437.746,0.82627,-0.14053,-2.56298,-0.11077,0.84597
441.046,0.83149,-0.04729102,-2.59854,-0.1215,0.84372
444.346,0.83672,0.08290142,-2.64061,-0.13597,0.84146
447.646,0.84197,0.217,-2.68529,-0.14867,0.83918
450.946,0.84723,0.35833,-2.73029,-0.16115,0.8369
454.246,0.85249,0.47695,-2.78885,-0.15795,0.83461
457.546,0.85778,0.58782,-2.84064,-0.14937,0.8323
460.846,0.86307,0.57523,-2.87805,-0.15665,0.82999
464.146,0.86834,0.61788,-2.93381,-0.15567,0.82766
467.446,0.87363,0.68649,-2.98025,-0.14037,0.82533
470.746,0.87892,0.66384,-3.02749,-0.14029,0.82298
474.046,0.88419,0.57321,-3.06754,-0.13278,0.82063
477.346,0.88949,0.50769,-3.11219,-0.11351,0.81826
480.646,0.89479,0.45441,-3.13796,-0.10411,0.81588
483.946,0.9001,0.38014,-3.17243,-0.09749457,0.8135
487.246,0.90541,0.28658,-3.21366,-0.08180259,0.81111
490.546,0.91074,0.22188,-3.22532,-0.0695467,0.8087
493.846,0.91607,0.14349,-3.24611,-0.06651964,0.80629
497.146,0.92139,0.07814437,-3.26006,-0.05423256,0.80387
500.446,0.92671,0.01451744,-3.28163,-0.03802916,0.80144
503.746,0.93206,-0.04083481,-3.2964,-0.03102875,0.799
507.046,0.93741,-0.0674571,-3.30814,-0.0373111,0.79655
510.346,0.94276,-0.11345,-3.3249,-0.02598162,0.7941
513.646,0.94813,-0.12768,-3.31695,-0.01782848,0.79163
516.946,0.95349,-0.15575,-3.32755,-0.02204788,0.78916
520.246,0.95888,-0.17048,-3.33631,-0.01073648,0.78668
523.546,0.96426,-0.18613,-3.33341,-0.01319533,0.7842
526.846,0.96965,-0.20736,-3.33642,-0.02020069,0.7817
530.146,0.97504,-0.19775,-3.3488,0.0009883005,0.7792
533.446,0.98046,-0.22403,-3.34265,-0.007988887,0.77669
536.746,0.98586,-0.20393,-3.35137,-0.02211085,0.77417
540.046,0.99126,-0.21324,-3.36023,-0.00194163,0.77165
543.346,0.9967,-0.21318,-3.35025,0.0111854,0.76912
546.646,1.00215,-0.21076,-3.34973,-0.007324853,0.76658
549.946,1.00756,-0.21108,-3.36403,-0.02176451,0.76404
553.246,1.01297,-0.20678,-3.36472,-0.001738271,0.76149
556.546,1.01841,-0.18762,-3.35374,0.000278787,0.75894
559.846,1.02386,-0.19559,-3.36239,-0.01093036,0.75637
563.146,1.0293,-0.21878,-3.37281,-0.008339595,0.75381
566.446,1.03477,-0.20765,-3.36938,0.007042885,0.75123
569.746,1.04026,-0.21448,-3.35749,-0.0004850655,0.74865
573.046,1.04572,-0.22578,-3.37495,-0.005214055,0.74607
576.346,1.0512,-0.22261,-3.36981,0.002116546,0.74348
579.646,1.05668,-0.22411,-3.36514,-1.39736e-05,0.74088
582.946,1.06217,-0.21311,-3.36913,-0.00448853,0.73828
586.246,1.06766,-0.18783,-3.36692,-0.005709247,0.73568
589.546,1.07316,-0.17382,-3.38236,-0.00615264,0.73307
592.846,1.07865,-0.14865,-3.38248,-0.003801955,0.73045
596.146,1.08418,-0.11235,-3.37138,-0.00282241,0.72784
599.446,1.08969,-0.07500238,-3.37608,-0.003245027,0.72521
602.746,1.09521,-0.05595441,-3.37534,-0.00241048,0.72258
606.046,1.10074,-0.03040697,-3.38247,-0.00677897,0.71995
609.346,1.10629,-0.06831778,-3.37822,-0.001767886,0.71732
612.646,1.11185,-0.0594305,-3.37722,-0.00247175,0.71468
615.946,1.11739,-0.04030072,-3.37961,-0.00197306,0.71203
619.246,1.12296,-0.000862055,-3.37962,-0.008095429,0.70939
622.546,1.1285,0.02918153,-3.38356,-0.005324,0.70674
625.846,1.13408,0.07748364,-3.38053,-0.00830131,0.70408
629.146,1.13964,0.09940759,-3.38881,0.00135089,0.70142
632.446,1.14524,0.15732,-3.37235,0.004407976,0.69877
635.746,1.1508,0.18172,-3.37889,-0.004830046,0.6961
639.046,1.15639,0.17439,-3.38624,-0.0073957,0.69344
642.346,1.16198,0.1984,-3.39753,0.001324575,0.69077
645.046,1.16656,0.20655,-3.39053,0.04139305,0.68858