File: 01_Data/OSB/Cone/OSB_Cone_HF50Scalar_210326_R2.csv
LABORATORY,FSRI
TEST IDENT,OSB_HF50_2
OPERATOR,Dow
MATERIAL,"5/8"" thick OSB"
ORIENTATION,Horizontal
HEAT FLUX,50
SURF AREA,0.01
C FACTOR,0.0386052
SPEC HOLDER DIFF,-86.97
SPECIMEN MASS,101.42
SCAN TIME,0.25
O2 DELAY TIME,11
CO DELAY TIME,11
CO2 DELAY TIME,8
FLOW FACTOR,1
SCAN COUNT,3458
TIME TO IGN,21
END OF TEST SCAN,2978
END OF TEST TIME,744.5
TEST STATUS,1
PRE TEST CMT,without retainer frame or grid