File: 01_Data/OSB/Cone/OSB_Cone_HF75Scalar_210325_R3.csv
LABORATORY,FSRI
TEST IDENT,OSB_HF75_3
OPERATOR,Morrissey
MATERIAL,5/8 inch OSB
ORIENTATION,Horizontal
HEAT FLUX,75
SURF AREA,0.01
C FACTOR,0.0386052
SPEC HOLDER DIFF,-97.54
SPECIMEN MASS,99.67
SCAN TIME,0.25
O2 DELAY TIME,11
CO DELAY TIME,11
CO2 DELAY TIME,8
FLOW FACTOR,1
SCAN COUNT,3303
TIME TO IGN,12.25
END OF TEST SCAN,2823
END OF TEST TIME,705.75
TEST STATUS,1
PRE TEST CMT,Test w/o frame or grid