File: 01_Data/OSB/Cone/OSB_Cone_HF75Scan_210325_R2.csv
Names,Time,Stack TC,Smoke TC,Exh Press,Smoke Comp,Smoke Meas,CO Meter,CO2 Meter,O2 Meter,Sample Mass,Ext Coeff,Start Test,Flame Verif
Chan Gain,,500,500,1,1,1,1,1,1,1,1,1.0,1.0
Offset,,0,0,0.138348,0,0,0,0,0,0,0,0.0,0.0
Gain,,1,1,25.011,13.5067,16.616,1,1,1,1.00091,1.04608,1.0,1.0
Units,sec,C,C,Pa,%,%,%,%,%,g,/m,,
Baseline,,40.029,43.6143,157.394,100.708,98.3884,-0.000571502,0.0834608,20.8692,-0.603425,0.213787,,
37,9,37.8525,42.2627,149.839,101.153,95.3466,0.000317382,0.0997314,20.7586,584.342,0.542413,0.0,1.0
74,18.25,49.963,62.0625,137.808,101.212,90.1191,0.00501239,0.334155,20.2208,582.34,1.06524,0.0,0.0
111,27.5,61.0404,79.4372,135.043,101.291,90.7885,0.00771774,0.614507,20.0347,580.198,1.00447,0.0,0.0
148,36.75,68.4314,89.0691,130.291,101.334,91.8761,0.00795963,0.739962,20.0191,577.946,0.899039,0.0,0.0
185,46,72.303,93.6038,130.556,101.375,89.6085,0.008106,0.76614,20.0393,575.834,1.13209,0.0,0.0
222,55.25,74.5969,96.0193,133.21,101.41,90.9046,0.00878394,0.759194,20.0605,573.712,1.00349,0.0,0.0
259,64.5,76.014,96.4709,135.895,101.427,90.4964,0.00820455,0.740328,20.0947,571.66,1.04636,0.0,0.0
296,73.75,76.343,95.9673,128.088,101.447,90.2895,0.00857242,0.712106,20.1369,569.729,1.06915,0.0,0.0
333,83,77.5003,95.7952,133.135,101.444,91.7473,0.00825151,0.689508,20.1546,567.867,0.921909,0.0,0.0
370,92.25,76.6748,94.8023,131.529,101.409,92.4943,0.00778761,0.661411,20.1922,566.055,0.844376,0.0,0.0
407,101.5,76.496,93.1595,131.965,101.43,91.5607,0.00724647,0.633041,20.2253,564.394,0.939361,0.0,0.0
444,110.75,76.1379,91.5497,134.34,101.399,93.945,0.00672908,0.599857,20.2739,562.792,0.700672,0.0,0.0
481,120,75.137,90.1195,139.607,101.371,93.6063,0.00601328,0.566288,20.31,561.251,0.731244,0.0,0.0
518,129.25,74.4207,87.9484,144.27,101.369,93.4993,0.00508927,0.537347,20.3362,559.81,0.741513,0.0,0.0
555,138.5,73.8915,87.3931,140.952,101.349,93.6088,0.00486333,0.514942,20.3607,558.398,0.729016,0.0,0.0
592,147.75,74.5063,85.4184,138.488,101.348,94.3841,0.00490761,0.498902,20.3803,557.007,0.653216,0.0,0.0
629,157,72.9742,85.3629,140.711,101.347,93.8233,0.00470809,0.483407,20.3948,555.696,0.707791,0.0,0.0
666,166.25,72.8358,84.1294,138.849,101.348,94.3841,0.0044393,0.471397,20.406,554.355,0.653178,0.0,0.0
703,175.5,72.3242,83.5015,140.212,101.354,94.6488,0.00405666,0.460803,20.4159,553.023,0.628077,0.0,0.0
740,184.75,72.6601,83.4589,135.794,101.335,94.9688,0.0037755,0.455478,20.4192,551.792,0.595355,0.0,0.0
777,194,72.206,83.1014,139.779,101.304,95.9825,0.00380755,0.448021,20.433,550.541,0.495133,0.0,0.0
814,203.25,71.7412,82.4267,139.867,101.302,94.8299,0.00336564,0.440463,20.4397,549.25,0.605841,0.0,0.0
851,212.5,72.2243,82.0179,138.254,101.241,96.0687,0.0032869,0.434942,20.4464,548.039,0.481181,0.0,0.0
888,221.75,71.7367,81.3307,139.692,101.182,95.6483,0.00347789,0.430769,20.4546,546.868,0.516077,0.0,0.0
925,231,71.7714,81.8509,135.966,101.084,96.5225,0.00330006,0.424852,20.4602,545.567,0.423727,0.0,0.0
962,240.25,71.8684,81.2643,142.269,100.992,96.3176,0.00328112,0.421778,20.4604,544.456,0.434837,0.0,0.0
999,249.5,71.7466,81.2129,136.364,100.89,95.769,0.00278332,0.418092,20.4627,543.245,0.477965,0.0,0.0
1036,258.75,70.8539,80.0972,138.944,100.769,95.0317,0.0028295,0.415075,20.4698,542.073,0.537928,0.0,0.0
1073,268,71.2521,80.6333,143.588,100.673,95.2715,0.00301346,0.413108,20.4694,540.912,0.506011,0.0,0.0
1110,277.25,71.0164,80.0543,136.105,100.59,93.9932,0.00314941,0.4125,20.4707,539.721,0.622452,0.0,0.0
1147,286.5,70.8286,79.8212,146.167,100.53,94.6281,0.00333799,0.413825,20.47,538.58,0.55519,0.0,0.0
1184,295.75,70.7097,79.8298,140.522,100.458,93.8162,0.00307239,0.413539,20.4699,537.459,0.627704,0.0,0.0
1221,305,71.1559,79.9298,139.337,100.414,94.2685,0.00310572,0.413743,20.4671,536.278,0.579541,0.0,0.0
1258,314.25,71.1313,79.279,140.788,100.353,93.8101,0.00337519,0.413986,20.468,535.147,0.618694,0.0,0.0
1295,323.5,70.65,79.2201,139.11,100.339,93.6276,0.00350159,0.412173,20.4702,534.086,0.635249,0.0,0.0
1332,332.75,70.4538,79.42,142.27,100.322,93.8761,0.00325902,0.411609,20.4702,532.935,0.609421,0.0,0.0
1369,342,70.777,78.7077,139.095,100.331,93.5677,0.00287933,0.4108,20.4722,531.824,0.640398,0.0,0.0
1406,351.25,70.4382,79.029,143.807,100.367,93.1053,0.00351079,0.410612,20.4724,530.713,0.689142,0.0,0.0
1443,360.5,70.789,78.837,142.032,100.379,92.4856,0.00372085,0.411501,20.4706,529.572,0.75151,0.0,0.0
1480,369.75,70.3333,79.5356,142.386,100.428,93.1195,0.00360146,0.41459,20.4647,528.451,0.693356,0.0,0.0
1517,379,70.7436,79.5146,144.792,100.457,92.8943,0.00411499,0.415933,20.4642,527.36,0.718206,0.0,0.0
1554,388.25,70.9931,79.3256,139.8,100.457,92.1555,0.00371468,0.417583,20.4627,526.239,0.791439,0.0,0.0
1591,397.5,70.6878,79.3592,138.659,100.477,92.8441,0.00403596,0.418528,20.4621,525.118,0.724973,0.0,0.0
1628,406.75,70.5833,79.4468,141.623,100.53,92.6581,0.00353532,0.418682,20.4621,524.007,0.748201,0.0,0.0
1665,416,70.6399,79.2746,146.513,100.597,92.0338,0.00376701,0.419108,20.4584,522.926,0.816357,0.0,0.0
1702,425.25,70.3997,79.0359,138.383,100.682,92.3112,0.0037119,0.418752,20.4617,521.855,0.796486,0.0,0.0
1739,434.5,71.02,79.5461,139.871,100.775,92.5374,0.00372779,0.418905,20.4565,520.774,0.782482,0.0,0.0
1776,443.75,69.9428,78.5014,138.815,100.879,92.9826,0.00408266,0.418086,20.462,519.653,0.747931,0.0,0.0
1813,453,70.8504,78.9321,136.45,100.986,93.1697,0.00384823,0.417029,20.4595,518.632,0.739265,0.0,0.0
1850,462.25,71.1964,79.6389,141.662,101.052,92.5571,0.0040576,0.418525,20.4557,517.531,0.805708,0.0,0.0
1887,471.5,70.1909,79.075,143.14,101.152,92.8132,0.00457283,0.420325,20.4546,516.4,0.789483,0.0,0.0
1924,480.75,71.0341,79.0366,140.173,101.197,92.4664,0.0042383,0.424664,20.4491,515.299,0.827914,0.0,0.0
1961,490,70.778,79.7162,137.363,101.225,91.8193,0.00420252,0.428993,20.4419,514.228,0.89489,0.0,0.0
1998,499.25,71.2096,79.919,140.906,101.28,91.2976,0.00474447,0.436178,20.4326,513.067,0.952191,0.0,0.0
2035,508.5,71.2058,80.4623,140.311,101.315,91.6992,0.00499667,0.444246,20.4225,511.946,0.915051,0.0,0.0
2072,517.75,71.9356,80.7741,138.571,101.366,91.9253,0.00456395,0.450544,20.4137,510.785,0.897038,0.0,0.0
2109,527,72.5473,81.6647,138.173,101.412,90.7317,0.00507718,0.45654,20.404,509.634,1.02119,0.0,0.0
2146,536.25,72.4123,81.7277,137.293,101.442,91.1814,0.00498189,0.457892,20.4053,508.443,0.978535,0.0,0.0
2183,545.5,72.0317,81.5729,140.738,101.494,92.1844,0.0042663,0.453729,20.4133,507.362,0.882807,0.0,0.0
2220,554.75,71.8844,80.5103,137.987,101.514,91.9329,0.00391943,0.441667,20.4326,506.311,0.909665,0.0,0.0
2257,564,71.4048,80.0013,141.269,101.549,90.9142,0.00324512,0.423964,20.455,505.39,1.01512,0.0,0.0
2294,573.25,70.3635,78.4762,143.15,101.585,94.2503,0.00279429,0.402096,20.4837,504.419,0.68771,0.0,0.0
2331,582.5,69.6154,77.3837,146.705,101.597,94.9252,0.00213282,0.380284,20.5088,503.658,0.623315,0.0,0.0
2368,591.75,68.8698,75.6839,142.409,101.608,96.4946,0.00156078,0.356049,20.5442,502.878,0.473851,0.0,0.0
2405,601,67.2279,73.967,149.424,101.613,97.1979,0.00139335,0.328651,20.5759,502.287,0.407658,0.0,0.0
2442,610.25,65.9129,71.5109,152.383,101.61,98.1862,0.00107555,0.297929,20.6157,501.797,0.31453,0.0,0.0
2479,619.5,63.6902,68.7715,142.147,101.618,99.7044,0.00169343,0.265277,20.653,501.376,0.174401,0.0,0.0
2516,628.75,62.1014,66.1867,148.654,101.609,100.216,0.00214329,0.231079,20.6907,501.126,0.126735,0.0,0.0
2553,638,60.4068,63.1973,145.224,101.591,100.407,0.00287097,0.203908,20.7164,500.946,0.107526,0.0,0.0
2590,647.25,58.2574,60.9723,150.05,101.584,100.115,0.00305047,0.18733,20.7306,500.786,0.13367,0.0,0.0
2627,656.5,56.8545,59.5359,156.56,101.547,100.399,0.00288962,0.179128,20.7365,500.566,0.104404,0.0,0.0
2664,665.75,56.2149,58.591,150.089,101.491,99.9032,0.00346337,0.174284,20.7408,500.476,0.144654,0.0,0.0
2701,675,55.4217,57.1418,150.218,101.47,100.063,0.00408381,0.171178,20.7417,500.275,0.128093,0.0,0.0
2738,684.25,55.0144,57.688,151.228,101.396,99.8647,0.00414577,0.169727,20.7409,500.165,0.139618,0.0,0.0
2775,693.5,54.4077,56.4691,149.747,101.354,100.273,0.00415103,0.168834,20.7422,499.935,0.0983814,0.0,0.0
2812,702.75,53.3475,55.6358,147.049,101.283,99.7911,0.00463233,0.167406,20.7455,499.815,0.136151,0.0,0.0
2849,712,53.1095,55.6769,147.78,101.211,99.6917,0.00476151,0.166638,20.7447,499.685,0.138756,0.0,0.0
2886,721.25,52.8289,55.1474,149.648,101.178,99.8119,0.00478413,0.166334,20.747,499.565,0.124712,0.0,0.0
2923,730.5,52.4022,54.8201,150.672,101.096,99.3535,0.00571925,0.165385,20.7482,499.435,0.159546,0.0,0.0
2960,739.75,51.9898,54.3906,152.568,101.033,99.7962,0.00590743,0.164752,20.7501,499.325,0.113026,0.0,0.0
2997,749,51.3941,53.9626,154.301,101.005,99.4316,0.00613599,0.164483,20.7518,499.154,0.144028,0.0,0.0
3034,758.25,50.5989,53.5098,152.572,100.973,99.0219,0.00653665,0.164647,20.751,499.054,0.179033,0.0,0.0
3071,767.5,50.504,53.235,153.067,100.942,99.14,0.00729356,0.166083,20.7492,498.934,0.165243,0.0,0.0
3108,776.75,50.6152,53.343,152.365,100.996,98.9636,0.00742588,0.166057,20.7523,498.774,0.186573,0.0,0.0
3145,786,49.6169,52.2817,152.807,101.063,99.421,0.00797316,0.164976,20.7551,498.674,0.150326,0.0,0.0
3182,795.25,48.7033,51.943,154.74,101.139,99.0883,0.00844637,0.164326,20.7543,498.574,0.187962,0.0,0.0
3219,804.5,49.0217,51.6831,154.051,101.216,99.4022,0.0089042,0.16352,20.7565,498.464,0.165894,0.0,0.0
3256,813.75,48.3265,51.3291,150.166,101.326,99.1441,0.00915441,0.163578,20.7571,498.334,0.199762,0.0,0.0
3293,823,48.6201,51.4714,151.614,101.444,99.6978,0.00951887,0.162679,20.7568,498.204,0.159324,0.0,0.0
3330,832.25,48.2042,51.3238,154.24,101.513,99.7034,0.00988469,0.162574,20.7586,498.083,0.165072,0.0,0.0
3367,841.5,47.4936,50.7993,152.662,101.564,99.6329,0.0104326,0.162299,20.7573,497.953,0.176143,0.0,0.0
3404,850.75,47.4005,50.5987,152.758,101.627,99.6603,0.0105249,0.161985,20.758,497.843,0.179355,0.0,0.0
3441,860,47.4638,50.8422,152.253,101.643,99.996,0.0109165,0.162001,20.7579,497.723,0.149913,0.0,0.0
3478,869.25,47.2409,50.3448,147.128,101.665,99.6826,0.0111745,0.161361,20.7574,497.623,0.180724,0.0,0.0
3515,878.5,47.5611,50.0226,149.306,101.655,100.088,0.0119985,0.161325,20.7574,497.503,0.14249,0.0,0.0
3552,887.75,46.9955,50.1532,154.412,101.655,99.7075,0.0119706,0.161004,20.7574,497.393,0.177544,0.0,0.0
3589,897,46.4107,49.8123,150.173,101.658,99.8981,,,,497.293,0.160275,0.0,0.0
3601,900,46.4682,50.1121,154.728,101.652,99.7222,,,,497.223,0.175857,0.0,0.0