File: 01_Data/OSB/Cone/OSB_Cone_HF50Scan_210326_R2.csv
Names,Time,Stack TC,Smoke TC,Exh Press,Smoke Comp,Smoke Meas,CO Meter,CO2 Meter,O2 Meter,Sample Mass,Ext Coeff,Start Test,Flame Verif
Chan Gain,,500,500,1,1,1,1,1,1,1,1,1.0,1.0
Offset,,0,0,0.138348,0,0,0,0,0,0,0,0.0,0.0
Gain,,1,1,25.011,13.5067,16.616,1,1,1,1.00091,1.04608,1.0,1.0
Units,sec,C,C,Pa,%,%,%,%,%,g,/m,,
Baseline,,33.5848,35.9077,158.946,101.97,98.0553,-0.00108137,0.0626455,20.9271,-0.0205604,0.359185,,
36,8.75,31.2471,33.4938,157.702,101.956,97.3617,-0.00104735,0.0662438,20.9221,581.429,0.423125,0.0,0.0
72,17.75,31.7227,34.1127,160.876,101.962,95.4713,-0.000696813,0.0658877,20.9257,581.169,0.603562,0.0,0.0
108,26.75,35.2682,41.6803,145.208,101.973,96.8384,0.00099137,0.15601,20.6322,580.148,0.474063,0.0,0.0
144,35.75,44.8429,55.5579,137.273,101.99,95.7984,0.00239314,0.357769,20.4165,578.687,0.574703,0.0,0.0
180,44.75,50.6025,63.989,141.144,102.024,94.3603,0.00350789,0.459833,20.3703,577.085,0.716498,0.0,0.0
216,53.75,54.043,68.7304,137.943,102.052,95.16,0.00404218,0.505926,20.3582,575.554,0.641656,0.0,0.0
252,62.75,56.8675,71.4667,137.778,102.087,95.8942,0.00361502,0.525637,20.3477,574.033,0.574201,0.0,0.0
288,71.75,58.3963,73.9832,137.615,102.137,95.3714,0.00382409,0.535522,20.3503,572.501,0.628921,0.0,0.0
324,80.75,59.8082,75.4803,136.741,102.186,94.8573,0.00428015,0.535165,20.3563,570.99,0.682858,0.0,0.0
360,89.75,61.0096,75.4665,137.099,102.225,94.8912,0.00379584,0.528606,20.3717,569.528,0.683125,0.0,0.0
396,98.75,61.9159,75.7585,142.841,102.228,93.7219,0.00412781,0.516668,20.3879,568.077,0.797198,0.0,0.0
432,107.75,61.8804,74.9827,138.62,102.232,93.6124,0.00390042,0.500488,20.4135,566.686,0.80826,0.0,0.0
468,116.75,62.2325,74.5039,137.685,102.235,93.3786,0.00393377,0.483087,20.4331,565.355,0.831426,0.0,0.0
504,125.75,61.8102,73.9362,138.51,102.233,94.8101,0.00379676,0.46547,20.4534,564.053,0.691639,0.0,0.0
540,134.75,61.877,73.1814,145.53,102.224,94.1676,0.00376602,0.450544,20.4677,562.822,0.753255,0.0,0.0
576,143.75,61.4905,72.4354,144.902,102.218,93.8172,0.00381639,0.438172,20.4809,561.611,0.786907,0.0,0.0
612,152.75,61.1901,71.2777,140.432,102.203,94.7563,0.00327851,0.427156,20.4925,560.38,0.694179,0.0,0.0
648,161.75,61.1585,70.7783,143.604,102.176,95.1737,0.00295435,0.419315,20.4994,559.209,0.651486,0.0,0.0
684,170.75,60.7056,70.1784,143.969,102.167,95.1904,0.00293349,0.412707,20.5041,558.028,0.64902,0.0,0.0
720,179.75,61.0257,69.9607,142.13,102.094,94.84,0.00270273,0.404943,20.516,556.877,0.676267,0.0,0.0
756,188.75,60.6116,69.0914,145.099,102.04,95.4531,0.00271169,0.392959,20.5332,555.756,0.612325,0.0,0.0
792,197.75,60.1457,68.2614,145.763,101.964,95.304,0.0024643,0.384339,20.5425,554.665,0.619845,0.0,0.0
828,206.75,59.4362,68.2908,145.753,101.899,95.7624,0.00237382,0.378402,20.5458,553.614,0.569952,0.0,0.0
864,215.75,59.5718,67.2575,139.581,101.85,95.0717,0.0016388,0.37342,20.5533,552.553,0.63199,0.0,0.0
900,224.75,59.1135,67.4039,139.549,101.773,95.3304,0.00183774,0.369016,20.5591,551.482,0.600079,0.0,0.0
936,233.75,59.4252,67.3655,145.559,101.663,95.8151,0.00188987,0.367622,20.5582,550.431,0.543644,0.0,0.0
972,242.75,59.6104,66.656,145.539,101.525,95.4566,0.00200488,0.363983,20.5635,549.38,0.565571,0.0,0.0
1008,251.75,58.9163,66.9767,147.513,101.392,94.909,0.00187726,0.362897,20.5637,548.419,0.606325,0.0,0.0
1044,260.75,59.3167,65.9798,140.2,101.275,95.6975,0.0016882,0.360073,20.5667,547.378,0.519804,0.0,0.0
1080,269.75,59.4205,66.9512,150.628,101.147,94.9901,0.00145069,0.358179,20.5697,546.337,0.576299,0.0,0.0
1116,278.75,59.1269,66.3397,141.643,101.054,95.2315,0.00137561,0.355808,20.5735,545.376,0.544519,0.0,0.0
1152,287.75,59.14,66.2427,141.947,101.004,94.6585,0.00144931,0.354283,20.5737,544.396,0.595405,0.0,0.0
1188,296.75,58.5611,66.5905,139.758,100.946,95.1245,0.00132145,0.35171,20.5786,543.385,0.545024,0.0,0.0
1224,305.75,59.595,65.4277,146.426,100.867,95.1022,0.000977309,0.349716,20.5809,542.464,0.540054,0.0,0.0
1260,314.75,59.2028,65.7534,142.493,100.778,95.2999,0.0015016,0.347952,20.5805,541.553,0.512889,0.0,0.0
1296,323.75,58.3381,66.2068,146.783,100.706,94.5997,0.00111637,0.34701,20.5857,540.552,0.573995,0.0,0.0
1332,332.75,58.8367,65.2471,148.619,100.617,95.1701,0.00106234,0.345636,20.5887,539.611,0.510673,0.0,0.0
1368,341.75,58.2348,65.2477,143.572,100.562,93.9683,0.0013692,0.343522,20.5893,538.7,0.622282,0.0,0.0
1404,350.75,58.2354,65.3628,147.806,100.51,94.4876,0.000997296,0.341738,20.5898,537.76,0.567014,0.0,0.0
1440,359.75,58.7045,65.6163,141.053,100.454,94.3598,0.00126486,0.342461,20.5868,536.799,0.574313,0.0,0.0
1476,368.75,57.765,65.7458,144.92,100.425,95.194,0.00105272,0.342777,20.5889,535.878,0.490841,0.0,0.0
1512,377.75,58.3971,65.7239,140.678,100.425,94.5129,0.00120509,0.345478,20.5833,534.897,0.556722,0.0,0.0
1548,386.75,58.9217,65.8431,146.819,100.432,94.0581,0.00172921,0.347901,20.5823,533.996,0.60163,0.0,0.0
1584,395.75,59.0351,65.4657,142.441,100.446,93.802,0.00162266,0.349347,20.5796,533.035,0.627965,0.0,0.0
1620,404.75,59.2231,65.646,143.989,100.465,93.4288,0.00161073,0.353057,20.573,532.064,0.666315,0.0,0.0
1656,413.75,59.3951,66.7705,141.238,100.493,93.6545,0.00147302,0.356225,20.5692,531.113,0.64674,0.0,0.0
1692,422.75,59.4495,65.9585,139.655,100.535,94.802,0.00155073,0.357109,20.5705,530.123,0.538791,0.0,0.0
1728,431.75,59.5882,66.7004,144.099,100.578,94.0069,0.00160534,0.359176,20.5696,529.192,0.61995,0.0,0.0
1764,440.75,59.4897,66.4568,142.297,100.648,93.7686,0.00157379,0.359518,20.5703,528.251,0.649709,0.0,0.0
1800,449.75,59.1604,66.6175,143.834,100.731,93.2143,0.00180776,0.35878,20.5707,527.3,0.711619,0.0,0.0
1836,458.75,59.7785,66.1531,142.396,100.805,92.6261,0.0016427,0.359112,20.5688,526.369,0.776426,0.0,0.0
1872,467.75,59.4481,66.571,147.743,100.888,93.8877,0.00182426,0.359786,20.5672,525.428,0.659825,0.0,0.0
1908,476.75,59.7837,66.552,141.436,100.971,92.8898,0.00165871,0.359739,20.5662,524.497,0.76545,0.0,0.0
1944,485.75,59.0106,66.3388,141.201,101.054,93.6124,0.00161494,0.360913,20.5651,523.537,0.701946,0.0,0.0
1980,494.75,60.1381,66.6471,144.939,101.108,93.514,0.00169118,0.363212,20.5614,522.596,0.716496,0.0,0.0
2016,503.75,60.2426,66.2461,143.317,101.185,93.405,0.00201399,0.361879,20.5653,521.635,0.734156,0.0,0.0
2052,512.75,60.1601,66.7674,140.909,101.262,92.5054,0.00195062,0.363624,20.5605,520.704,0.829943,0.0,0.0
2088,521.75,60.3459,67.4856,141.455,101.346,93.8608,0.0016642,0.366373,20.5562,519.733,0.704085,0.0,0.0
2124,530.75,60.5217,67.3777,142.76,101.423,94.7437,0.00201359,0.369188,20.5518,518.772,0.625156,0.0,0.0
2160,539.75,60.4698,67.7428,144.282,101.48,93.3375,0.00193657,0.373884,20.5448,517.831,0.767508,0.0,0.0
2196,548.75,60.8359,68.0156,144.605,101.543,92.9775,0.00223502,0.378386,20.539,516.83,0.808598,0.0,0.0
2232,557.75,60.9015,68.3584,145.753,101.591,94.6798,0.00219577,0.382606,20.5359,515.81,0.646512,0.0,0.0
2268,566.75,61.4435,68.5248,142.237,101.623,92.4623,0.00211122,0.388552,20.5287,514.789,0.866845,0.0,0.0
2304,575.75,61.9595,69.6723,137.733,101.639,93.3081,0.0024026,0.39514,20.5193,513.778,0.784739,0.0,0.0
2340,584.75,61.9293,69.7947,143.374,101.668,93.1266,0.00274322,0.401341,20.5107,512.687,0.805213,0.0,0.0
2376,593.75,62.6869,70.6328,145.899,101.686,92.6631,0.00226464,0.408427,20.5018,511.636,0.852594,0.0,0.0
2412,602.75,62.6796,71.1623,136.813,101.696,93.0115,0.00302642,0.412917,20.4978,510.555,0.819129,0.0,0.0
2448,611.75,63.5916,71.4549,142.144,101.716,92.8959,0.00317946,0.416363,20.4917,509.444,0.832326,0.0,0.0
2484,620.75,63.753,71.4958,142.2,101.71,92.1124,0.00341987,0.417402,20.4904,508.353,0.909485,0.0,0.0
2520,629.75,63.5732,71.4571,141.039,101.706,91.5607,0.00347636,0.416156,20.4921,507.312,0.964237,0.0,0.0
2556,638.75,63.5598,71.6403,146.344,101.696,91.1794,0.00333292,0.412501,20.4982,506.291,1.00164,0.0,0.0
2592,647.75,63.5527,70.9658,141.341,101.69,92.2641,0.00305276,0.402954,20.5122,505.36,0.892607,0.0,0.0
2628,656.75,62.7708,69.5853,144.865,101.668,91.0734,0.00233207,0.382897,20.546,504.469,1.00978,0.0,0.0
2664,665.75,61.3553,67.6648,146.708,101.651,93.5784,0.00155558,0.352002,20.5915,503.759,0.759314,0.0,0.0
2700,674.75,58.9667,64.6808,145.478,101.611,94.2939,0.00127508,0.311292,20.6429,503.248,0.685774,0.0,0.0
2736,683.75,57.4064,61.2347,147.783,101.552,97.0235,0.00101258,0.265439,20.7027,502.858,0.418555,0.0,0.0
2772,692.75,55.2398,58.05,149.494,101.499,97.7684,0.00191201,0.226435,20.7391,502.557,0.343644,0.0,0.0
2808,701.75,52.621,55.2894,153.094,101.409,98.4352,0.00307251,0.196271,20.7716,502.357,0.27307,0.0,0.0
2844,710.75,50.9139,52.7194,151.163,101.322,98.5701,0.00350744,0.177588,20.7833,502.177,0.252706,0.0,0.0
2880,719.75,49.3101,50.6235,151.623,101.237,97.991,0.00370599,0.16627,20.797,502.057,0.299081,0.0,0.0
2916,728.75,48.9491,49.7075,151.073,101.138,98.0148,0.00393374,0.158982,20.8018,501.837,0.28784,0.0,0.0
2952,737.75,48.0093,48.3651,153.423,101.08,98.1507,0.0043027,0.15401,20.8071,501.707,0.26989,0.0,0.0
2988,746.75,45.2792,46.2436,154.202,101.055,97.8374,0.00423973,0.151434,20.8074,501.577,0.296952,0.0,0.0
3024,755.75,44.3179,45.2147,158.491,101.023,97.7035,0.00449781,0.149206,20.8113,501.426,0.306558,0.0,0.0
3060,764.75,44.569,44.9566,150.321,101.132,97.7182,0.00428075,0.146386,20.8146,501.296,0.315131,0.0,0.0
3096,773.75,43.4126,44.8803,152.521,101.244,98.028,0.00491237,0.144829,20.8161,501.126,0.296251,0.0,0.0
3132,782.75,42.7535,44.0497,153.719,101.338,98.0671,0.00474623,0.142728,20.8188,500.996,0.30111,0.0,0.0
3168,791.75,42.5664,43.2133,153.017,101.439,98.1725,0.0048109,0.141304,20.821,500.866,0.300385,0.0,0.0
3204,800.75,42.214,43.2729,155.655,101.502,98.5721,0.00509873,0.140742,20.822,500.766,0.268779,0.0,0.0
3240,809.75,41.7569,42.5797,156.781,101.577,98.313,0.00494475,0.139435,20.8231,500.656,0.299712,0.0,0.0
3276,818.75,41.1765,42.6648,152.379,101.649,98.2324,0.00563448,0.138205,20.8236,500.536,0.313754,0.0,0.0
3312,827.75,40.2447,42.441,154.023,101.694,98.6669,0.00535367,0.137404,20.824,500.446,0.277304,0.0,0.0
3348,836.75,40.6337,42.4024,154.936,101.741,98.2988,0.00548837,0.136938,20.8269,500.305,0.315846,0.0,0.0
3384,845.75,40.2898,41.6348,154.16,101.789,98.239,0.00553078,0.135851,20.8272,500.185,0.325707,0.0,0.0
3420,854.75,40.054,41.5214,149.317,101.838,98.4484,,0.135931,,500.075,0.310623,0.0,0.0
3456,863.75,39.5914,41.5343,155.775,101.868,98.4575,,,,500.015,0.312484,0.0,0.0
3458,864.25,39.3121,41.3389,154.762,101.876,98.6051,,,,500.035,0.29941,0.0,0.0