File: 01_Data/OSB/Cone/OSB_Cone_HF75Scan_210325_R1.csv
Names,Time,Stack TC,Smoke TC,Exh Press,Smoke Comp,Smoke Meas,CO Meter,CO2 Meter,O2 Meter,Sample Mass,Ext Coeff,Start Test,Flame Verif
Chan Gain,,500,500,1,1,1,1,1,1,1,1,1.0,1.0
Offset,,0,0,0.138348,0,0,0,0,0,0,0,0.0,0.0
Gain,,1,1,25.011,13.5067,16.616,1,1,1,1.00091,1.04608,1.0,1.0
Units,sec,C,C,Pa,%,%,%,%,%,g,/m,,
Baseline,,39.2611,42.655,157.643,100.444,100.531,-0.000400138,0.0813323,20.8696,-0.0739841,-0.0079345,,
33,8,37.5423,41.2722,152.072,100.449,98.1837,6.79765e-06,0.0850369,20.8664,578.517,0.209304,0.0,0.0
66,16.25,43.204,50.8659,135.071,100.424,98.7587,0.00218319,0.330978,20.4795,577.376,0.15346,0.0,0.0
99,24.5,54.5711,69.0597,130.879,100.389,95.4571,0.00491985,0.659836,20.1288,575.524,0.462268,0.0,0.0
132,32.75,62.5939,80.8756,135.039,100.447,91.7636,0.00708174,0.746952,20.0604,573.622,0.829687,0.0,0.0
165,41,67.0574,87.056,127.079,100.432,91.7448,0.00695713,0.737781,20.0851,571.881,0.830131,0.0,0.0
198,49.25,68.8509,90.504,134.954,100.424,91.7286,0.00692307,0.72038,20.1112,570.049,0.831039,0.0,0.0
231,57.5,71.2351,91.5782,128.075,100.433,95.0418,0.00686113,0.698227,20.1383,568.327,0.50627,0.0,0.0
264,65.75,72.8134,92.461,133.442,100.428,94.5119,0.00674946,0.678257,20.1621,566.636,0.557159,0.0,0.0
297,74,73.6602,92.4632,131.286,100.437,93.8198,0.00643833,0.652111,20.1927,565.034,0.625362,0.0,0.0
330,82.25,73.8394,92.4855,138.195,100.402,94.5226,0.00617865,0.628332,20.2202,563.473,0.553752,0.0,0.0
363,90.5,74.5077,91.9143,135.209,100.355,93.9374,0.00620401,0.61498,20.2337,561.922,0.606366,0.0,0.0
396,98.75,74.4576,91.2889,139.877,100.327,94.663,0.00640557,0.600779,20.2508,560.43,0.533231,0.0,0.0
429,107,74.3115,89.9013,132.602,100.303,93.5262,0.0055482,0.57883,20.2776,558.969,0.641912,0.0,0.0
462,115.25,73.8217,88.8253,136.399,100.284,93.2473,0.00570358,0.553192,20.3078,557.588,0.667544,0.0,0.0
495,123.5,72.1115,88.0213,136.002,100.275,93.3867,0.00516021,0.519562,20.3496,556.246,0.65304,0.0,0.0
528,131.75,72.7993,85.8416,139.948,100.263,93.981,0.00506199,0.499221,20.3743,555.035,0.593774,0.0,0.0
561,140,71.7787,84.1462,138.642,100.275,93.5257,0.00467029,0.476278,20.4016,553.834,0.639398,0.0,0.0
594,148.25,71.2514,83.5538,141.122,100.259,95.0611,0.00450375,0.466114,20.4121,552.653,0.488541,0.0,0.0
627,156.5,70.7751,82.439,139.046,100.248,96.7634,0.00415769,0.454397,20.4278,551.452,0.32466,0.0,0.0
660,164.75,70.5483,81.3259,141.441,100.244,95.1453,0.00380521,0.444169,20.4394,550.371,0.479023,0.0,0.0
693,173,70.4652,81.2619,144.16,100.24,96.6898,0.00354379,0.442097,20.4404,549.22,0.330842,0.0,0.0
726,181.25,70.2489,80.9355,142.57,100.223,96.2938,0.00348668,0.439395,20.4421,548.049,0.367031,0.0,0.0
759,189.5,70.5537,80.815,138.704,100.245,95.6417,0.00366533,0.432359,20.4527,546.938,0.431384,0.0,0.0
792,197.75,70.4406,80.1063,141.425,100.228,96.2213,0.00293539,0.424971,20.4603,545.817,0.374396,0.0,0.0
825,206,70.05,80.0913,144.875,100.265,96.1544,0.0031819,0.422758,20.4631,544.726,0.38414,0.0,0.0
858,214.25,69.9839,79.8316,145.04,100.321,96.1356,0.0033255,0.419516,20.4668,543.645,0.391059,0.0,0.0
891,222.5,69.7812,79.714,145.113,100.373,96.2101,0.00300531,0.413293,20.4734,542.564,0.388697,0.0,0.0
924,230.75,69.6731,79.0647,140.941,100.474,95.9525,0.00292931,0.415396,20.4673,541.563,0.422526,0.0,0.0
957,239,69.9418,79.2262,135.836,100.559,97.4089,0.00283862,0.413764,20.4703,540.492,0.292015,0.0,0.0
990,247.25,69.7608,78.9617,145.611,100.607,96.5286,0.00255855,0.414809,20.4684,539.421,0.379753,0.0,0.0
1023,255.5,69.5838,78.9431,137.042,100.733,96.6772,0.00259833,0.41269,20.4712,538.38,0.377138,0.0,0.0
1056,263.75,69.5929,78.7088,138.234,100.838,96.9535,0.00297786,0.41209,20.4754,537.279,0.360439,0.0,0.0
1089,272,69.5223,78.8171,139.481,100.954,97.0002,0.0026474,0.410703,20.4747,536.268,0.366634,0.0,0.0
1122,280.25,69.622,78.9051,141.082,101.09,97.4489,0.00283899,0.409053,20.4793,535.227,0.336559,0.0,0.0
1155,288.5,69.3113,78.3862,140.219,101.198,96.9637,0.00277247,0.410062,20.4773,534.176,0.392204,0.0,0.0
1188,296.75,69.8253,78.9998,140.432,101.283,97.3511,0.00232969,0.409756,20.4787,533.195,0.363348,0.0,0.0
1221,305,69.6369,78.8789,139.035,101.361,97.6715,0.00286354,0.409247,20.48,532.204,0.340246,0.0,0.0
1254,313.25,69.389,78.37,138.843,101.411,98.2628,0.00262295,0.409991,20.4766,531.174,0.289342,0.0,0.0
1287,321.5,69.7331,78.4662,139.932,101.471,97.6401,0.00322886,0.408924,20.4767,530.163,0.353121,0.0,0.0
1320,329.75,69.8566,78.355,140.865,101.515,98.2243,0.00295119,0.41151,20.4748,529.162,0.302373,0.0,0.0
1353,338,69.643,78.6636,143.234,101.531,97.2755,0.00288854,0.412273,20.4742,528.151,0.392852,0.0,0.0
1386,346.25,69.671,78.6417,140.311,101.554,97.5149,0.00307331,0.415768,20.4692,527.17,0.372425,0.0,0.0
1419,354.5,69.489,78.9099,139.787,101.545,95.9475,0.00331046,0.417058,20.4684,526.129,0.520294,0.0,0.0
1452,362.75,69.533,78.4069,139.133,101.55,95.7107,0.0032025,0.414178,20.4703,525.158,0.543379,0.0,0.0
1485,371,69.6201,78.3766,140.794,101.522,96.4257,0.00307321,0.415424,20.468,524.137,0.472627,0.0,0.0
1518,379.25,69.4908,78.3397,143.8,101.488,96.1554,0.00289908,0.414515,20.4702,523.206,0.495254,0.0,0.0
1551,387.5,69.6722,78.5402,137.113,101.458,96.2406,0.00348721,0.412315,20.4715,522.215,0.484481,0.0,0.0
1584,395.75,69.6091,78.3642,142.461,101.385,97.1006,0.00339073,0.415022,20.4679,521.234,0.396209,0.0,0.0
1617,404,69.1507,77.7227,140.174,101.311,95.9297,0.00333411,0.414638,20.4689,520.264,0.50081,0.0,0.0
1650,412.25,70.1326,76.6072,144.162,101.254,95.4957,0.00344591,0.415654,20.4673,519.283,0.537234,0.0,0.0
1683,420.5,69.5947,78.5756,146.758,101.175,95.2056,0.00313736,0.418192,20.4644,518.292,0.558047,0.0,0.0
1716,428.75,69.7878,77.9929,143.363,101.078,95.8435,0.00355275,0.418396,20.4636,517.361,0.487979,0.0,0.0
1749,437,70.7266,78.5839,139.539,100.996,94.8512,0.00351934,0.420257,20.4615,516.37,0.575996,0.0,0.0
1782,445.25,69.8746,77.5562,136.226,100.946,94.5631,0.00378489,0.416561,20.4661,515.399,0.59937,0.0,0.0
1815,453.5,69.4328,78.1821,138.435,100.901,94.5236,0.00371869,0.419789,20.4624,514.448,0.599124,0.0,0.0
1848,461.75,69.6198,77.932,143.911,100.98,94.0951,0.00375061,0.415057,20.4653,513.487,0.647971,0.0,0.0
1881,470,69.7107,78.3029,140.614,101.131,94.7548,0.00363831,0.419354,20.4615,512.527,0.59756,0.0,0.0
1914,478.25,69.3369,78.5071,144.72,101.301,94.5773,0.00415908,0.416984,20.4615,511.586,0.630159,0.0,0.0
1947,486.5,69.6767,77.9742,140.741,101.461,94.2817,0.00417284,0.418369,20.4582,510.615,0.673437,0.0,0.0
1980,494.75,69.6525,78.0658,139.433,101.568,94.483,0.0041464,0.419673,20.4573,509.714,0.663552,0.0,0.0
2013,503,70.6638,78.3818,140.457,101.657,94.8674,0.00447697,0.421548,20.4546,508.773,0.634264,0.0,0.0
2046,511.25,70.1144,78.1786,139.694,101.766,93.9019,0.00416063,0.425655,20.4494,507.812,0.73802,0.0,0.0
2079,519.5,69.5318,78.9029,137.956,101.785,94.1357,0.00457945,0.429065,20.4431,506.821,0.716915,0.0,0.0
2112,527.75,70.8864,78.9593,144.495,101.825,94.4724,0.00429455,0.435207,20.4346,505.84,0.687719,0.0,0.0
2145,536,70.9103,79.1695,138.882,101.84,94.2462,0.00450899,0.434596,20.4373,504.87,0.71105,0.0,0.0
2178,544.25,70.0297,79.9331,141.907,101.813,94.1894,0.0040164,0.430365,20.4424,503.889,0.714203,0.0,0.0
2211,552.5,70.2788,79.2786,142.595,101.784,94.4562,0.00382495,0.427295,20.4426,502.958,0.685617,0.0,0.0
2244,560.75,70.1457,79.5049,145.536,101.747,94.8507,0.0040222,0.424094,20.4487,502.017,0.64399,0.0,0.0
2277,569,69.4493,79.5772,140.998,101.685,95.2457,0.00294086,0.41555,20.4619,501.166,0.600315,0.0,0.0
2310,577.25,69.1972,77.9436,143.295,101.628,95.4947,0.00262247,0.396012,20.4835,500.345,0.571224,0.0,0.0
2343,585.5,69.175,76.0122,146.896,101.579,95.3091,0.00235298,0.36426,20.5159,499.615,0.584608,0.0,0.0
2376,593.75,67.0424,74.8063,144.498,101.545,97.1249,0.00163912,0.321116,20.5682,499.064,0.408336,0.0,0.0
2409,602,65.8502,71.4875,148.43,101.535,100.346,0.000788519,0.276447,20.6233,498.574,0.108024,0.0,0.0
2442,610.25,63.6,69.0829,146.81,101.497,101.123,0.000857404,0.234294,20.6707,498.264,0.0338782,0.0,0.0
2475,618.5,61.2772,65.62,148.777,101.468,102.143,0.00140809,0.204498,20.7063,498.033,-0.0608922,0.0,0.0
2508,626.75,59.7711,62.9967,146.555,101.374,102.815,0.00208009,0.185407,20.7281,497.853,-0.129519,0.0,0.0
2541,635,58.2391,60.8477,147.54,101.301,102.663,0.00203314,0.176978,20.7371,497.673,-0.122539,0.0,0.0
2574,643.25,57.1668,59.2573,149.002,101.349,102.899,0.00268701,0.174721,20.7393,497.553,-0.139252,0.0,0.0
2607,651.5,56.0477,58.4043,150.924,101.381,102.585,0.00270381,0.173571,20.7415,497.423,-0.108345,0.0,0.0
2640,659.75,55.5296,57.1608,149.252,101.416,102.64,0.00290197,0.169454,20.7473,497.283,-0.110125,0.0,0.0
2673,668,54.4117,56.4756,149.391,101.433,102.317,0.00278082,0.166581,20.7515,497.163,-0.0796277,0.0,0.0
2706,676.25,53.9877,54.9463,150.35,101.462,102.346,0.0026343,0.165154,20.753,497.082,-0.0796095,0.0,0.0
2739,684.5,53.0528,55.0145,147.656,101.479,102.563,0.00310438,0.163851,20.7537,496.932,-0.0975188,0.0,0.0
2772,692.75,52.4508,54.8852,151.227,101.516,102.507,0.00344203,0.162394,20.7562,496.762,-0.0890905,0.0,0.0
2805,701,51.8493,54.2773,152.146,101.512,101.91,0.00354186,0.162497,20.7564,496.652,-0.0359259,0.0,0.0
2838,709.25,51.3961,53.8452,153.175,101.528,102.436,0.00367073,0.164064,20.7541,496.612,-0.0816157,0.0,0.0
2871,717.5,51.3792,53.4005,149.21,101.549,101.914,0.00412138,0.171104,20.7481,496.432,-0.0329301,0.0,0.0
2904,725.75,51.139,53.3924,151.387,101.557,102.241,0.00450287,0.16586,20.7566,496.352,-0.0616691,0.0,0.0
2937,734,50.6872,53.2511,153.594,101.572,102.307,0.00451408,0.161158,20.7616,496.202,-0.06616,0.0,0.0
2970,742.25,49.6676,52.8944,151.273,101.603,102.614,0.00473144,0.161721,20.7615,496.112,-0.0908049,0.0,0.0
3003,750.5,50.3566,52.3571,155.112,101.655,102.097,0.00541844,0.161461,20.7609,496.052,-0.0398297,0.0,0.0
3036,758.75,49.2063,51.7993,152.849,101.705,102.186,0.00538003,0.158675,20.7641,495.931,-0.0432646,0.0,0.0
3069,767,49.1644,52.233,152.898,101.741,102.522,0.00568609,0.158447,20.7654,495.821,-0.0702144,0.0,0.0
3102,775.25,49.5422,51.5837,151.836,101.783,102.443,0.00606102,0.158326,20.7647,495.721,-0.0593408,0.0,0.0
3135,783.5,48.9961,51.7416,154.65,101.84,102.239,,,,495.621,-0.0358996,0.0,0.0
3155,788.5,48.5619,51.5977,152.071,101.876,102.427,,,,495.561,-0.0495753,0.0,0.0