File: 01_Data/OSB/Cone/OSB_Cone_HF50Scan_210326_R3.csv
Names,Time,Stack TC,Smoke TC,Exh Press,Smoke Comp,Smoke Meas,CO Meter,CO2 Meter,O2 Meter,Sample Mass,Ext Coeff,Start Test,Flame Verif
Chan Gain,,500,500,1,1,1,1,1,1,1,1,1.0,1.0
Offset,,0,0,0.138348,0,0,0,0,0,0,0,0.0,0.0
Gain,,1,1,25.011,13.5067,16.616,1,1,1,1.00091,1.04608,1.0,1.0
Units,sec,C,C,Pa,%,%,%,%,%,g,/m,,
Baseline,,33.8175,35.9975,158.201,102.249,98.3098,-0.00128992,0.0610175,20.9306,-0.0134706,0.360547,,
36,8.75,31.5826,33.8099,161.391,102.261,97.7932,-0.00129197,0.0623669,20.925,570.009,0.409956,0.0,0.0
72,17.75,31.9548,34.3451,156.723,102.267,96.0494,-0.000741379,0.0642105,20.9249,569.709,0.575542,0.0,0.0
108,26.75,34.03,38.8443,144.217,102.257,98.2537,0.000409065,0.133436,20.7125,568.888,0.366448,0.0,0.0
144,35.75,44.4856,54.8382,137.322,102.251,98.0767,0.00144804,0.363304,20.4161,567.346,0.38251,0.0,0.0
180,44.75,50.9235,64.2087,141.504,102.259,95.4095,0.0028364,0.486803,20.3419,565.735,0.636179,0.0,0.0
216,53.75,55.3644,70.4108,136.132,102.265,94.5241,0.00368501,0.533544,20.3284,564.164,0.722283,0.0,0.0
252,62.75,57.7479,74.076,137.181,102.263,92.1515,0.00466538,0.548707,20.3246,562.652,0.955401,0.0,0.0
288,71.75,59.8927,75.2503,141.309,102.264,93.3127,0.00401942,0.549907,20.3376,561.131,0.840532,0.0,0.0
324,80.75,61.355,76.8897,138.828,102.267,94.8659,0.00418403,0.541081,20.3515,559.639,0.689312,0.0,0.0
360,89.75,61.4433,76.2138,141.741,102.267,94.304,0.00434797,0.52694,20.375,558.198,0.74382,0.0,0.0
396,98.75,61.7279,75.8946,140.658,102.258,94.197,0.00441094,0.511822,20.3934,556.767,0.753423,0.0,0.0
432,107.75,61.6509,75.3576,141.824,102.253,93.6048,0.00416209,0.494211,20.4164,555.416,0.810856,0.0,0.0
468,116.75,62.3554,74.9868,143.763,102.262,95.2497,0.00402584,0.473903,20.4422,554.114,0.651814,0.0,0.0
504,125.75,61.5333,74.4955,139.604,102.272,92.8396,0.00413647,0.458786,20.4547,552.853,0.887914,0.0,0.0
540,134.75,61.2565,72.8777,141.239,102.277,93.4293,0.003885,0.446328,20.4747,551.572,0.83029,0.0,0.0
576,143.75,60.7766,71.3522,142.53,102.268,94.2533,0.00340286,0.429731,20.4975,550.401,0.74883,0.0,0.0
612,152.75,60.4147,70.293,142.244,102.287,95.6163,0.00291382,0.414117,20.5141,549.23,0.618856,0.0,0.0
648,161.75,60.4269,69.5996,141.241,102.265,96.3521,0.00272735,0.397566,20.533,548.099,0.546556,0.0,0.0
684,170.75,59.7649,68.6901,144.962,102.262,96.1255,0.0025047,0.387148,20.5399,546.978,0.567871,0.0,0.0
720,179.75,59.6583,68.4034,142.995,102.231,96.3065,0.00233368,0.37924,20.5477,545.907,0.547795,0.0,0.0
756,188.75,59.2758,68.0145,148.548,102.22,95.6387,0.00201012,0.370956,20.5552,544.896,0.610685,0.0,0.0
792,197.75,58.7324,67.2087,141.345,102.212,96.8435,0.00186711,0.364577,20.5647,543.855,0.49507,0.0,0.0
828,206.75,58.9873,66.999,145.147,102.204,95.9825,0.00173435,0.357115,20.5742,542.814,0.576316,0.0,0.0
864,215.75,59.054,66.7617,144.458,102.199,96.848,0.00175856,0.349395,20.583,541.843,0.493453,0.0,0.0
900,224.75,58.3141,65.3132,144.479,102.176,96.591,0.00169219,0.344791,20.5851,540.872,0.515771,0.0,0.0
936,233.75,58.4105,66.436,142.365,102.161,96.8349,0.00144958,0.338511,20.5966,539.901,0.491297,0.0,0.0
972,242.75,58.321,65.2557,144.911,102.121,97.0275,0.00146607,0.332855,20.6018,538.891,0.469501,0.0,0.0
1008,251.75,58.2087,65.1759,145.142,102.082,97.6097,0.00111262,0.327732,20.6108,537.98,0.411057,0.0,0.0
1044,260.75,57.6177,64.4503,143.685,102.04,97.1634,0.00118367,0.323001,20.6146,537.069,0.449396,0.0,0.0
1080,269.75,58.0626,64.171,138.927,102.026,97.6036,0.000834326,0.3185,20.6202,536.168,0.406625,0.0,0.0
1116,278.75,57.1509,64.0966,147.913,101.996,98.4677,0.000957281,0.316232,20.6217,535.237,0.323041,0.0,0.0
1152,287.75,57.6338,64.0884,148.486,101.979,97.4286,0.000651688,0.311523,20.6283,534.396,0.418897,0.0,0.0
1188,296.75,56.6665,63.2315,145.435,101.948,97.6878,0.000587722,0.306641,20.6361,533.396,0.391706,0.0,0.0
1224,305.75,56.8279,62.9399,139.04,101.929,97.4717,0.000744211,0.305801,20.6316,532.635,0.410313,0.0,0.0
1260,314.75,56.8199,62.3068,147.258,101.913,98.8829,0.000443776,0.305388,20.636,531.794,0.276929,0.0,0.0
1296,323.75,56.0139,62.3834,148.879,101.845,98.4585,0.000357574,0.303157,20.638,530.913,0.31031,0.0,0.0
1332,332.75,56.8809,63.125,147.167,101.775,98.7871,0.00048242,0.302015,20.6397,530.052,0.273458,0.0,0.0
1368,341.75,56.0767,62.2335,145.362,101.757,98.1959,0.000336715,0.299551,20.6432,529.252,0.326872,0.0,0.0
1404,350.75,56.5395,62.1523,142.633,101.746,97.9266,0.000460614,0.299114,20.6443,528.471,0.3511,0.0,0.0
1440,359.75,55.717,62.0891,142.064,101.763,97.9601,0.000646528,0.298341,20.6439,527.63,0.349527,0.0,0.0
1476,368.75,56.0815,61.7338,141.698,101.739,98.0671,0.000420216,0.298569,20.6414,526.82,0.337279,0.0,0.0
1512,377.75,55.8571,61.6377,148.82,101.761,98.2669,0.000654589,0.299912,20.643,525.969,0.320612,0.0,0.0
1548,386.75,55.955,61.7354,147.284,101.77,98.8125,0.000515996,0.301364,20.6397,525.168,0.270621,0.0,0.0
1584,395.75,56.1985,62.043,141.368,101.769,97.6797,0.000582348,0.303286,20.6386,524.347,0.376314,0.0,0.0
1620,404.75,56.0757,61.9382,140.35,101.759,97.779,0.000689865,0.305243,20.6356,523.466,0.366128,0.0,0.0
1656,413.75,56.668,62.0231,145.01,101.755,97.3303,0.000774066,0.307842,20.6302,522.686,0.407968,0.0,0.0
1692,422.75,56.2276,62.4367,146.455,101.79,97.3932,0.000732272,0.311264,20.6235,521.835,0.405201,0.0,0.0
1728,431.75,56.16,62.2422,145.639,101.784,97.0199,0.000686405,0.315456,20.6225,520.984,0.439911,0.0,0.0
1764,440.75,56.52,62.8503,143.367,101.786,95.9515,0.00144531,0.319593,20.6172,520.154,0.541633,0.0,0.0
1800,449.75,56.8765,63.0249,144.181,101.769,95.7274,0.00104308,0.325354,20.6063,519.253,0.561605,0.0,0.0
1836,458.75,57.6852,63.5953,142.493,101.725,95.8557,0.00140363,0.331438,20.599,518.352,0.545302,0.0,0.0
1872,467.75,57.6731,63.8186,145.029,101.681,94.6788,0.00132675,0.337831,20.5901,517.461,0.65476,0.0,0.0
1908,476.75,57.0969,63.9964,147.107,101.636,94.4526,0.00118241,0.343798,20.5836,516.5,0.672612,0.0,0.0
1944,485.75,57.9177,64.6693,149.063,101.636,94.0728,0.00162226,0.350038,20.5781,515.589,0.709548,0.0,0.0
1980,494.75,58.5603,65.4776,141.067,101.644,93.5617,0.00202099,0.358862,20.5671,514.598,0.760284,0.0,0.0
2016,503.75,59.003,66.1335,141.924,101.607,93.0977,0.00219288,0.367949,20.5547,513.608,0.802554,0.0,0.0
2052,512.75,59.1277,66.7584,142.944,101.55,93.9202,0.00222284,0.37216,20.552,512.587,0.716741,0.0,0.0
2088,521.75,59.704,66.8208,142.96,101.483,93.3269,0.002096,0.375754,20.5492,511.586,0.768779,0.0,0.0
2124,530.75,60.2914,67.3642,143.008,101.401,91.8721,0.00224529,0.382678,20.5334,510.565,0.905526,0.0,0.0
2160,539.75,60.5766,67.7381,137.311,101.303,92.1809,0.00314379,0.386574,20.5321,509.534,0.865927,0.0,0.0
2196,548.75,60.7507,68.3639,144.373,101.186,92.4131,0.00284327,0.388662,20.5311,508.503,0.832191,0.0,0.0
2232,557.75,61.1112,68.5077,137.624,101.126,92.3939,0.00317009,0.395166,20.5205,507.382,0.828645,0.0,0.0
2268,566.75,61.8265,69.4356,143.285,101.048,91.9319,0.00365217,0.401102,20.5123,506.351,0.867604,0.0,0.0
2304,575.75,61.4755,68.9548,141.439,100.982,91.3229,0.00331897,0.407205,20.5021,505.3,0.922565,0.0,0.0
2340,584.75,62.2572,70.1911,147.041,100.931,91.3554,0.00404355,0.414673,20.4904,504.189,0.914659,0.0,0.0
2376,593.75,62.4941,70.6533,144.821,100.883,92.0379,0.00481378,0.42377,20.4759,502.998,0.841972,0.0,0.0
2412,602.75,63.087,71.9769,134.49,100.829,90.5136,0.00480786,0.433221,20.4641,501.837,0.990377,0.0,0.0
2448,611.75,64.0877,72.672,138.819,100.773,91.6611,0.00493251,0.439612,20.4564,500.676,0.869634,0.0,0.0
2484,620.75,64.3325,73.1553,140.768,100.729,90.8407,0.00494325,0.441437,20.4577,499.545,0.948159,0.0,0.0
2520,629.75,64.5193,73.1994,137.707,100.707,91.864,0.00460938,0.439284,20.4632,498.414,0.843381,0.0,0.0
2556,638.75,64.9206,73.3288,136.332,100.693,91.3138,0.00470121,0.434846,20.4676,497.333,0.897227,0.0,0.0
2592,647.75,64.0201,72.9477,140.732,100.695,91.3625,0.00456796,0.42626,20.4823,496.242,0.892524,0.0,0.0
2628,656.75,64.4129,72.3409,138.867,100.686,91.5039,0.00331723,0.411403,20.5068,495.201,0.877461,0.0,0.0
2664,665.75,63.7183,70.8365,143.029,100.697,91.7159,0.0026218,0.391641,20.5283,494.35,0.857244,0.0,0.0
2700,674.75,62.3469,69.5924,147.202,100.711,92.4669,0.00220257,0.363478,20.5675,493.569,0.783654,0.0,0.0
2736,683.75,61.3661,66.9476,145.256,100.709,93.0079,0.00180864,0.327399,20.6121,492.909,0.729931,0.0,0.0
2772,692.75,59.1196,64.5663,145.991,100.721,94.3203,0.00149099,0.280566,20.6749,492.458,0.602451,0.0,0.0
2808,701.75,56.7885,60.8331,145.801,100.735,96.4566,0.00225993,0.239729,20.7123,492.018,0.398286,0.0,0.0
2844,710.75,54.5954,57.852,148.393,100.738,98.4403,0.00307045,0.214476,20.7321,491.728,0.211713,0.0,0.0
2880,719.75,53.2594,55.3649,152.732,100.725,97.9591,0.00361001,0.196737,20.7478,491.517,0.255478,0.0,0.0
2916,728.75,51.9145,53.6525,152.48,100.722,97.8566,0.00430916,0.188133,20.7561,491.227,0.264815,0.0,0.0
2952,737.75,49.1367,50.8614,152.202,100.71,97.7628,0.00435597,0.180452,20.7655,490.997,0.272564,0.0,0.0
2988,746.75,48.2994,49.778,149.069,100.69,97.9342,0.0051311,0.176339,20.7691,490.767,0.254613,0.0,0.0
3024,755.75,47.3766,49.0501,151.15,100.655,97.8962,0.00540213,0.172674,20.7713,490.557,0.255059,0.0,0.0
3060,764.75,46.6572,48.0487,151.47,100.625,97.4292,0.00573879,0.169206,20.7766,490.336,0.29612,0.0,0.0
3096,773.75,46.0823,47.0935,155.303,100.583,97.7801,0.0056944,0.165672,20.7798,490.236,0.259334,0.0,0.0
3132,782.75,44.8642,46.6757,151.123,100.582,97.849,0.00600666,0.163681,20.7805,490.036,0.252751,0.0,0.0
3168,791.75,44.8001,45.9473,153.588,100.545,97.1422,0.00699988,0.161605,20.785,489.836,0.315933,0.0,0.0
3204,800.75,43.8119,45.6503,152.859,100.533,97.5894,0.00750023,0.160121,20.7878,489.696,0.272655,0.0,0.0
3240,809.75,44.0937,45.102,153.44,100.537,97.4388,0.00777965,0.159987,20.7905,489.536,0.28724,0.0,0.0
3276,818.75,43.4061,45.0224,152.285,100.545,97.3977,0.00751934,0.159252,20.7925,489.415,0.291824,0.0,0.0
3312,827.75,43.1827,44.2601,150.954,100.549,97.8074,0.00799003,0.161342,20.7848,489.205,0.253643,0.0,0.0
3348,836.75,42.8477,43.9835,154.111,100.526,97.2892,0.00837376,0.162818,20.7854,489.085,0.300361,0.0,0.0
3384,845.75,42.2718,44.4897,160.308,100.517,97.1797,,0.161445,,488.925,0.309869,0.0,0.0
3420,854.75,42.2999,43.6829,154.542,100.515,96.9515,,,,488.765,0.331214,0.0,0.0
3425,856,41.332,43.3852,151.4,100.516,97.4692,,,,488.845,0.282457,0.0,0.0