File: 01_Data/OSB/Cone/OSB_Cone_HF25Scan_210324_R2.csv
Names,Time,Stack TC,Smoke TC,Exh Press,Smoke Comp,Smoke Meas,CO Meter,CO2 Meter,O2 Meter,Sample Mass,Ext Coeff,Start Test,Flame Verif
Chan Gain,,500,500,1,1,1,1,1,1,1,1,1.0,1.0
Offset,,0,0,0.194005,0,0,0,0,0,0,0,0.0,0.0
Gain,,1,1,25.011,13.5067,16.616,1,1,1,1.00091,1.04608,1.0,1.0
Units,sec,C,C,Pa,%,%,%,%,%,g,/m,,
Baseline,,20.0591,21.3286,168.281,101.555,101.013,0.00036083,0.0597322,20.9309,-1.03236,0.0490421,,
61,15,18.2752,19.6147,171.86,101.075,100.502,0.000755914,0.0644168,20.9276,571.34,0.0522162,0.0,0.0
122,30.25,18.6879,19.8479,167.385,101.246,100.51,0.000562759,0.0620158,20.93,571.17,0.0669076,0.0,0.0
183,45.5,18.6098,19.6194,171.019,101.331,100.384,0.000246619,0.0601159,20.9325,571,0.0862103,0.0,0.0
244,60.75,18.185,19.6097,164.192,101.282,100.22,0.000560224,0.0600965,20.9302,570.85,0.0967504,0.0,0.0
305,76,18.3683,19.9313,169.219,101.126,100.05,0.000415974,0.0607188,20.9277,570.73,0.098153,0.0,0.0
366,91.25,18.7396,20.1214,172.309,100.895,99.3008,0.000584398,0.0611778,20.9263,570.569,0.146179,0.0,0.0
427,106.5,18.9982,20.3478,167.757,100.639,98.6086,0.00079427,0.0613614,20.9317,570.379,0.187018,0.0,0.0
488,121.75,19.1668,20.7699,168.277,100.381,98.0797,0.000985144,0.0616242,20.9318,570.169,0.212771,0.0,0.0
549,137,20.6097,23.2812,160.166,100.171,99.4407,0.00175256,0.067442,20.856,569.709,0.067153,0.0,1.0
610,152.25,32.0034,41.9961,154.669,100.01,98.4489,0.00262366,0.249872,20.5489,567.747,0.144362,0.0,0.0
671,167.5,37.9688,49.1556,153.806,100.011,98.2379,0.00362017,0.380968,20.516,565.645,0.164158,0.0,0.0
732,182.75,39.1925,49.2502,154.466,100.152,98.7187,0.00357846,0.396039,20.5561,563.733,0.13229,0.0,0.0
793,198,39.0315,48.4422,158.047,100.346,98.9428,0.00317395,0.376809,20.5871,562.002,0.129214,0.0,0.0
854,213.25,38.5574,47.551,160.533,100.584,98.4803,0.0029368,0.351746,20.6137,560.39,0.193964,0.0,0.0
915,228.5,38.395,45.7233,158.091,100.79,100.207,0.00260246,0.33012,20.633,558.839,0.0532222,0.0,0.0
976,243.75,37.7936,44.701,154.542,100.97,100.477,0.00238383,0.31489,20.6517,557.377,0.0448911,0.0,0.0
1037,259,37.6706,43.5434,156.982,101.08,100.916,0.00251593,0.29874,20.6717,556.026,0.0148341,0.0,0.0
1098,274.25,37.2109,42.6237,154.891,101.145,101.377,0.0016606,0.282759,20.6849,554.715,-0.0210348,0.0,0.0
1159,289.5,36.265,41.7715,161.504,101.228,101.136,0.00213384,0.270126,20.6998,553.484,0.00831518,0.0,0.0
1220,304.75,35.7703,40.5596,157.768,101.311,101.199,0.00178119,0.257333,20.7126,552.333,0.0101565,0.0,0.0
1281,320,34.7277,39.5858,163.335,101.36,101.574,0.00182164,0.245913,20.7253,551.262,-0.0193185,0.0,0.0
1342,335.25,34.5454,38.9002,152.979,101.402,101.581,0.00165167,0.235581,20.7377,550.181,-0.0161626,0.0,0.0
1403,350.5,34.1486,38.3214,158.904,101.46,101.622,0.00164182,0.226832,20.7447,549.13,-0.0146434,0.0,0.0
1464,365.75,33.6043,37.3579,154.766,101.49,101.82,0.00152212,0.221607,20.7524,548.129,-0.0298167,0.0,0.0
1525,381,34.0658,37.8625,165.973,101.512,101.593,0.00204237,0.2176,20.7538,547.128,-0.00726185,0.0,0.0
1586,396.25,33.4806,37.145,162.062,101.51,101.609,0.00251391,0.213329,20.7604,546.147,-0.00886853,0.0,0.0
1647,411.5,33.3529,36.2492,164.564,101.523,101.571,0.002346,0.207819,20.7619,545.176,-0.00436124,0.0,0.0
1708,426.75,32.824,36.202,162.449,101.503,102.333,0.0022567,0.202733,20.7695,544.265,-0.0747464,0.0,0.0
1769,442,32.2675,35.1384,159.998,101.449,101.485,0.00274666,0.196893,20.7792,543.375,-0.00320398,0.0,0.0
1830,457.25,31.741,34.6432,165.818,101.348,101.334,0.00257279,0.191797,20.784,542.474,0.00128412,0.0,0.0
1891,472.5,31.847,34.731,160.776,101.305,101.382,0.00286774,0.188082,20.7855,541.623,-0.00691263,0.0,0.0
1952,487.75,30.651,33.0928,160.282,101.298,101.244,0.00331373,0.184311,20.7872,540.742,0.00494519,0.0,0.0
2013,503,30.8672,33.1525,164.541,101.279,101.487,0.0036055,0.181165,20.7925,539.952,-0.0188439,0.0,0.0
2074,518.25,30.3776,32.7855,159.381,101.223,101.23,0.00335301,0.17907,20.7926,539.131,-0.000650334,0.0,0.0
2135,533.5,30.1585,33.149,157.039,101.183,101.321,0.00369474,0.176745,20.7988,538.34,-0.0125368,0.0,0.0
2196,548.75,30.0341,32.731,160.804,101.099,100.883,0.0038239,0.173939,20.7985,537.569,0.0196731,0.0,0.0
2257,564,29.1831,31.3369,163.967,101.06,101.055,0.00403149,0.171567,20.8009,536.789,0.000495514,0.0,0.0
2318,579.25,29.2302,31.8135,162.093,101.036,100.987,0.0042501,0.16892,20.8063,536.038,0.00445975,0.0,0.0
2379,594.5,29.1193,31.5901,164.596,100.925,100.964,0.00390663,0.167228,20.8045,535.307,-0.00350436,0.0,0.0
2440,609.75,29.3388,31.4772,160.393,100.793,100.672,0.00422979,0.167802,20.8035,534.547,0.0110033,0.0,0.0
2501,625,28.9966,31.313,160.262,100.671,100.66,0.00443776,0.16795,20.8037,533.816,0.000952719,0.0,0.0
2562,640.25,28.6706,30.9472,159.803,100.562,100.471,0.0043066,0.168767,20.8034,533.075,0.00833266,0.0,0.0
2623,655.5,28.8643,31.4259,162.042,100.43,100.233,0.00402977,0.169531,20.8013,532.355,0.0180738,0.0,0.0
2684,670.75,29.0683,31.5618,164.205,100.289,100.253,0.00407536,0.170407,20.8032,531.624,0.00332698,0.0,0.0
2745,686,29.2948,31.6662,161.232,100.161,100.235,0.0041295,0.170905,20.8034,530.923,-0.00682287,0.0,0.0
2806,701.25,29.0107,31.7536,158.221,100.087,99.9113,0.00413147,0.171182,20.8016,530.183,0.0160889,0.0,0.0
2867,716.5,28.8075,31.5375,163.68,100.042,99.8084,0.00420448,0.17268,20.8008,529.472,0.0214652,0.0,0.0
2928,731.75,28.348,31.1333,158.694,100.022,100.14,0.00304603,0.176415,20.7924,528.761,-0.0107882,0.0,0.0
2989,747,29.167,31.8495,160.456,100.002,100.063,0.00329396,0.177585,20.7935,528.051,-0.00557555,0.0,0.0
3050,762.25,29.0379,32.407,160.707,100.001,100.117,0.00271508,0.177691,20.7924,527.35,-0.0106168,0.0,0.0
3111,777.5,28.7133,31.2032,162.822,100.018,100.092,0.00266196,0.179734,20.7924,526.639,-0.00678839,0.0,0.0
3172,792.75,29.5413,32.7197,162.08,100.002,100.141,0.00224407,0.183152,20.7859,525.909,-0.0127257,0.0,0.0
3233,808,29.3985,32.5053,163.503,100.004,100.124,0.00212161,0.186709,20.7842,525.138,-0.0109656,0.0,0.0
3294,823.25,29.4787,32.5162,157.922,100.005,100.16,0.00191323,0.189802,20.7794,524.357,-0.0141504,0.0,0.0
3355,838.5,30.3857,33.5495,163.177,100.01,100.379,0.00149306,0.193801,20.7763,523.567,-0.0337902,0.0,0.0
3416,853.75,30.3153,33.9067,156.462,100.006,99.9575,0.00153622,0.19831,20.7689,522.766,0.00444226,0.0,0.0
3477,869,31.0415,34.5075,156.917,100.006,99.9301,0.00150145,0.203826,20.7603,521.895,0.00695662,0.0,0.0
3538,884.25,31.6741,35.5078,161.839,99.9988,100.308,0.00134167,0.210736,20.7544,521.034,-0.0283105,0.0,0.0
3599,899.5,31.9306,36.5143,159.577,100.012,100.562,0.00157201,0.219117,20.7419,520.043,-0.0502737,0.0,0.0
3660,914.75,33.0272,37.6015,156.437,100.005,99.9549,0.00170408,0.228347,20.7313,519.073,0.00459861,0.0,0.0
3721,930,33.5439,38.2847,163.344,100.009,100.054,0.00159936,0.239716,20.7142,517.992,-0.00414236,0.0,0.0
3782,945.25,34.7511,39.1315,162.191,100.027,99.7206,0.00137561,0.252049,20.7019,516.861,0.0281722,0.0,0.0
3843,960.5,35.2376,40.3391,156.999,100.05,99.2374,0.0020395,0.264309,20.6881,515.679,0.0747902,0.0,0.0
3904,975.75,36.5574,42.1531,150.806,100.076,98.8637,0.00195452,0.27887,20.6695,514.398,0.111831,0.0,0.0
3965,991,37.492,43.4146,153.015,100.081,99.781,0.00213779,0.29354,20.6506,513.047,0.0275364,0.0,0.0
4026,1006.25,38.5206,44.6784,155.477,100.071,98.3505,0.00201844,0.311002,20.6308,511.556,0.159094,0.0,0.0
4087,1021.5,39.4866,45.8561,157.325,100.07,97.2644,0.00233042,0.32601,20.6147,510.064,0.260958,0.0,0.0
4148,1036.75,40.9599,47.2389,149.853,100.067,96.484,0.00312664,0.339538,20.5982,508.483,0.334614,0.0,0.0
4209,1052,41.9007,48.9922,150.547,100.031,96.4409,0.00298553,0.35541,20.5749,506.771,0.335351,0.0,0.0
4270,1067.25,43.5227,50.8613,147.984,100.018,95.557,0.00385284,0.375949,20.5501,505.03,0.418698,0.0,0.0
4331,1082.5,45.324,52.7163,152.26,100.01,95.8582,0.00484835,0.392432,20.5321,503.208,0.389026,0.0,0.0
4392,1097.75,45.2715,52.5419,150.507,100.001,94.5885,0.00439082,0.394985,20.5359,501.446,0.51059,0.0,0.0
4453,1113,45.0732,51.8642,151.755,99.9988,93.5277,0.00389343,0.38239,20.5565,499.775,0.613892,0.0,0.0
4514,1128.25,44.3639,50.7818,159.31,100.002,95.0804,0.00387872,0.364834,20.5762,498.294,0.46311,0.0,0.0
4575,1143.5,43.6652,49.5111,153.752,99.9964,95.1128,0.00308431,0.342901,20.6005,496.912,0.459449,0.0,0.0
4636,1158.75,42.6215,47.8056,155.345,99.9993,95.9667,0.00305514,0.315989,20.6318,495.731,0.377699,0.0,0.0
4697,1174,41.0382,44.8312,156.085,100.018,96.3227,0.00422259,0.285246,20.6648,494.76,0.345465,0.0,0.0
4758,1189.25,39.2824,42.7582,159.894,99.9795,97.4337,0.00567795,0.254704,20.702,493.92,0.236674,0.0,0.0
4819,1204.5,36.7784,39.7492,157.577,99.9947,99.5797,0.00657019,0.225057,20.7354,493.219,0.0381658,0.0,0.0
4880,1219.75,35.6049,37.0718,159.679,99.991,99.819,0.00749679,0.205079,20.7569,492.608,0.0157973,0.0,0.0
4941,1235,34.1628,35.7439,158.757,100.01,99.8109,0.00716484,0.191052,20.7723,492.048,0.0182452,0.0,0.0
5002,1250.25,32.5326,33.7655,160.902,100.001,99.9777,0.00764564,0.176832,20.7918,491.598,0.00216453,0.0,0.0
5063,1265.5,31.1711,32.0964,162.025,100.001,99.9722,0.00796707,0.163339,20.8071,491.227,0.00263806,0.0,0.0
5124,1280.75,29.8459,30.4596,162.022,100.019,99.9321,0.00790857,0.151161,20.8176,490.867,0.00797965,0.0,0.0
5185,1296,28.4439,28.6774,164.941,100.045,99.6892,0.0104335,0.14018,20.8324,490.587,0.0326543,0.0,0.0
5246,1311.25,27.6108,27.5973,165.076,100.079,99.7673,0.0110976,0.139313,20.8246,490.296,0.0286073,0.0,0.0
5307,1326.5,25.8963,26.0518,167.54,100.132,99.8946,0.0110505,0.137214,20.8324,490.036,0.0217435,0.0,0.0
5368,1341.75,25.6244,26.2162,166.215,100.199,99.923,0.0106475,0.131996,20.8389,489.796,0.0253288,0.0,0.0
5429,1357,25.1214,25.0006,159.6,100.275,99.9047,0.0106963,0.131392,20.8347,489.496,0.0339098,0.0,0.0
5490,1372.25,24.1933,24.7451,172.617,100.348,99.856,0.0100643,0.131337,20.839,489.285,0.0451316,0.0,0.0
5551,1387.5,22.9363,23.2889,169.313,100.435,100.242,0.0101256,0.131705,20.8348,489.045,0.0176142,0.0,0.0
5612,1402.75,23.1059,23.9456,165.694,100.517,100.097,0.00974253,0.135986,20.8264,488.795,0.0384654,0.0,0.0
5673,1418,22.8765,23.5953,163.405,100.557,100.067,0.00914263,0.134563,20.8401,488.555,0.0448203,0.0,0.0
5734,1433.25,23.0183,23.8897,166.672,100.664,100.141,0.0092703,0.129025,20.8418,488.365,0.0478177,0.0,0.0
5781,1445,23.3977,24.1206,166.895,100.75,100.252,,,,488.184,0.0454495,0.0,0.0