File: 01_Data/OSB/Cone/OSB_Cone_HF25Scan_210324_R1.csv
Names,Time,Stack TC,Smoke TC,Exh Press,Smoke Comp,Smoke Meas,CO Meter,CO2 Meter,O2 Meter,Sample Mass,Ext Coeff,Start Test,Flame Verif
Chan Gain,,500,500,1,1,1,1,1,1,1,1,1.0,1.0
Offset,,0,0,0.194005,0,0,0,0,0,0,0,0.0,0.0
Gain,,1,1,25.011,13.5067,16.616,1,1,1,1.00091,1.04608,1.0,1.0
Units,sec,C,C,Pa,%,%,%,%,%,g,/m,,
Baseline,,19.3885,20.7331,168.415,101.533,101.007,0.000382504,0.0554388,20.9393,-0.8044,0.0477379,,
52,12.75,17.9675,19.6398,168.907,101.171,100.603,-0.000139949,0.0560661,20.9398,576.435,0.051593,0.0,0.0
104,25.75,17.6636,19.9212,168.762,101.703,101.062,0.000332799,0.0560572,20.9423,576.275,0.0580138,0.0,0.0
156,38.75,18.1565,19.9698,165.965,101.508,100.845,0.000471077,0.0570265,20.9413,576.144,0.0601332,0.0,0.0
208,51.75,18.8407,19.7967,166.892,100.376,99.532,0.000252956,0.0574363,20.9376,575.994,0.0775186,0.0,0.0
260,64.75,18.7534,20.0041,168.197,99.897,98.889,0.000259809,0.057399,20.938,575.804,0.0930608,0.0,0.0
312,77.75,18.4116,19.9678,173.085,100.856,99.7521,0.000112015,0.055426,20.9435,575.704,0.101009,0.0,0.0
364,90.75,18.5627,19.6843,161.51,100.982,99.7019,0.000397919,0.0558234,20.9429,575.524,0.117021,0.0,0.0
416,103.75,18.9084,20.9042,167.495,101.296,99.636,0.000711769,0.0556616,20.9429,575.364,0.151625,0.0,0.0
468,116.75,18.3612,20.3762,166.582,101.122,99.4433,0.000495431,0.0564399,20.9441,575.194,0.153654,0.0,0.0
520,129.75,18.7464,19.5991,169.886,101.66,99.7932,0.000727681,0.0571217,20.9427,575.023,0.17007,0.0,0.0
572,142.75,19.3614,21.2018,166.027,100.071,97.847,0.00128181,0.0624107,20.9363,574.783,0.20623,0.0,0.0
624,155.75,19.3486,21.3453,163.841,100.336,97.8642,0.00163538,0.0646712,20.934,574.623,0.228885,0.0,0.0
676,168.75,19.2994,21.1764,167.932,101.151,97.6082,0.00147809,0.060828,20.9393,574.273,0.327115,0.0,0.0
728,181.75,24.8078,30.8217,152.476,100.503,99.2993,0.00216095,0.299018,20.647,573.332,0.110562,0.0,1.0
780,194.75,35.8265,46.863,152.623,101.467,100.52,0.00341341,0.44996,20.4866,571.45,0.0861052,0.0,0.0
832,207.75,40.1992,51.946,149.234,101.235,100.177,0.00391933,0.452155,20.484,569.578,0.0964029,0.0,0.0
884,220.75,41.8336,52.6247,149.967,101.254,101.425,0.0033723,0.431071,20.5069,567.797,-0.0155188,0.0,0.0
936,233.75,42.6801,53.5976,153.61,101.698,100.429,0.00339176,0.411365,20.5297,566.025,0.115245,0.0,0.0
988,246.75,42.6279,52.7147,149.235,101.777,100.969,0.0029243,0.396104,20.5503,564.414,0.0731821,0.0,0.0
1040,259.75,42.7529,52.5244,153.723,101.385,100.412,0.00294618,0.383025,20.5645,562.762,0.0885117,0.0,0.0
1092,272.75,42.1322,50.8886,152.515,100.786,100.099,0.00277714,0.352574,20.6034,561.261,0.0627432,0.0,0.0
1144,285.75,42.2165,50.0899,151.753,100.254,100.248,0.00242647,0.333122,20.6216,559.85,0.000509733,0.0,0.0
1196,298.75,41.4041,48.4609,154.525,100.001,100.599,0.00244394,0.32244,20.6325,558.468,-0.0547178,0.0,0.0
1248,311.75,41.5967,48.0054,152.76,100.019,99.6608,0.00253409,0.30681,20.653,557.127,0.0328864,0.0,0.0
1300,324.75,40.4273,46.6152,152.637,100.158,100.301,0.00224015,0.289831,20.6703,555.866,-0.013073,0.0,0.0
1352,337.75,39.2941,45.1806,155.642,100.456,100.53,0.0023437,0.276763,20.6861,554.695,-0.00680207,0.0,0.0
1404,350.75,38.9531,44.8055,154.975,100.788,100.615,0.00197914,0.268934,20.6985,553.474,0.0158148,0.0,0.0
1456,363.75,38.6233,43.974,155.416,101.042,101.3,0.00192898,0.260271,20.7088,552.303,-0.0234098,0.0,0.0
1508,376.75,38.8152,43.1992,158.21,101.175,101.951,0.00216242,0.255705,20.7132,551.212,-0.0701152,0.0,0.0
1560,389.75,38.2638,42.3167,158.847,101.259,101.595,0.00185629,0.250956,20.7159,550.131,-0.0304351,0.0,0.0
1612,402.75,37.6585,42.1436,159.54,101.305,101.591,0.00210713,0.24698,20.7198,549.04,-0.0258771,0.0,0.0
1664,415.75,36.8683,41.1659,157.493,101.32,102.199,0.00187509,0.244086,20.7226,548.019,-0.0792112,0.0,0.0
1716,428.75,37.2736,41.1946,157.344,101.329,101.947,0.00168116,0.240714,20.7286,546.938,-0.0558172,0.0,0.0
1768,441.75,37.2522,41.0884,156.733,101.32,101.459,0.00160851,0.238359,20.7318,545.937,-0.0126173,0.0,0.0
1820,454.75,37.1977,41.0147,157.417,101.323,101.996,0.00186793,0.234389,20.7368,544.916,-0.0607661,0.0,0.0
1872,467.75,36.4652,40.152,154.858,101.307,101.642,0.00169163,0.23316,20.7386,543.945,-0.0302781,0.0,0.0
1924,480.75,36.1393,39.7229,158.84,101.278,101.824,0.00112632,0.230848,20.7421,542.954,-0.0493031,0.0,0.0
1976,493.75,36.2236,39.8262,160.642,101.28,101.703,0.00127305,0.228916,20.7453,542.013,-0.0382423,0.0,0.0
2028,506.75,35.7139,39.6657,155.507,101.301,102.288,0.00161708,0.226934,20.7475,541.0625,-0.0890585,0.0,0.0
2080,519.75,35.3491,38.7815,155.522,101.331,101.88,0.00143358,0.222744,20.7515,540.122,-0.049566,0.0,0.0
2132,532.75,35.3805,38.7621,158.189,101.337,102.025,0.00149606,0.220095,20.7538,539.211,-0.0620969,0.0,0.0
2184,545.75,35.4008,38.3301,153.665,101.308,102.213,0.00150974,0.219511,20.7541,538.32,-0.0816516,0.0,0.0
2236,558.75,34.6819,38.2539,152.413,101.219,101.559,0.00158115,0.218516,20.7572,537.419,-0.0307973,0.0,0.0
2288,571.75,34.8788,38.1695,156.705,101.085,101.738,0.00127234,0.217872,20.7573,536.548,-0.0591547,0.0,0.0
2340,584.75,34.9314,37.8815,161.578,100.896,101.856,0.00148983,0.216568,20.756,535.678,-0.0869209,0.0,0.0
2392,597.75,34.2493,38.0989,158,100.712,101.246,0.00130257,0.217151,20.7554,534.817,-0.0485636,0.0,0.0
2444,610.75,34.3789,37.6323,161.156,100.528,101.599,0.00153855,0.216451,20.7565,533.976,-0.0972595,0.0,0.0
2496,623.75,34.3434,37.6416,156.294,100.378,100.436,0.00134185,0.216729,20.7535,533.155,-0.00526142,0.0,0.0
2548,636.75,34.6186,37.6995,155.759,100.23,100.692,0.00152057,0.217117,20.7555,532.325,-0.0421266,0.0,0.0
2600,649.75,34.0443,37.276,162.662,100.109,101.16,0.00159258,0.21608,20.7552,531.504,-0.0958191,0.0,0.0
2652,662.75,33.9833,37.922,158.415,100.052,100.352,0.00138646,0.219572,20.7528,530.663,-0.02743,0.0,0.0
2704,675.75,34.2772,37.9234,156.489,100.059,100.559,0.00136395,0.221987,20.7481,529.862,-0.045762,0.0,0.0
2756,688.75,34.2544,38.0025,156.252,100.106,100.724,0.0016494,0.224663,20.7457,529.052,-0.0564792,0.0,0.0
2808,701.75,34.6694,38.4654,156.464,100.269,100.72,0.00152978,0.231322,20.7374,528.211,-0.0412053,0.0,0.0
2860,714.75,35.0514,38.689,158.652,100.54,101.096,0.00148866,0.235192,20.7333,527.36,-0.0506697,0.0,0.0
2912,727.75,35.1703,38.7556,159.953,100.921,101.315,0.00112553,0.240819,20.7256,526.489,-0.0357909,0.0,0.0
2964,740.75,35.7909,39.9676,157.361,101.3,101.42,0.00150356,0.248223,20.7167,525.548,-0.0108396,0.0,0.0
3016,753.75,35.6468,39.779,155.729,101.61,101.503,0.00179091,0.254742,20.7089,524.668,0.00968228,0.0,0.0
3068,766.75,36.9198,41.3915,162.02,101.827,101.735,0.0015117,0.267251,20.6966,523.687,0.00830753,0.0,0.0
3120,779.75,36.9271,41.7411,160.761,101.904,101.357,0.00193531,0.274651,20.6881,522.666,0.0493051,0.0,0.0
3172,792.75,37.4293,42.5789,156.9,101.89,101.692,0.0017546,0.286881,20.672,521.615,0.0178773,0.0,0.0
3224,805.75,38.6227,43.9869,151.734,101.761,100.46,0.00176029,0.297904,20.6588,520.494,0.118072,0.0,0.0
3276,818.75,39.2761,45.0722,152.482,101.556,100.563,0.00192604,0.310948,20.6431,519.323,0.0901453,0.0,0.0
3328,831.75,40.5212,46.0475,155.995,101.348,99.3997,0.00217233,0.3215,20.6312,518.062,0.178153,0.0,0.0
3380,844.75,41.1877,47.4416,156.49,101.188,98.7435,0.00220676,0.338715,20.6105,516.8,0.224399,0.0,0.0
3432,857.75,42.126,47.9474,152.563,101.156,99.3728,0.0025669,0.349119,20.5965,515.439,0.163227,0.0,0.0
3484,870.75,42.6706,49.2576,150.371,101.42,98.134,0.00278775,0.366874,20.5739,514.028,0.302274,0.0,0.0
3536,883.75,43.7447,50.3383,153.456,101.583,97.8947,0.00305302,0.378857,20.559,512.527,0.339362,0.0,0.0
3588,896.75,44.8487,51.3588,149.482,101.641,97.4175,0.0030523,0.390639,20.545,510.995,0.389447,0.0,0.0
3640,909.75,45.4585,53.0539,156.854,101.601,97.6087,0.0032563,0.398215,20.5365,509.474,0.367809,0.0,0.0
3692,922.75,46.4971,53.3569,145.214,101.498,95.844,0.00382709,0.407079,20.5274,507.862,0.525946,0.0,0.0
3744,935.75,46.9013,54.1384,150.838,101.308,96.7411,0.0039929,0.41503,20.5175,506.291,0.423306,0.0,0.0
3796,948.75,47.4926,55.2222,153.187,101.038,95.7091,0.00455356,0.424755,20.5025,504.649,0.497224,0.0,0.0
3848,961.75,48.2654,56.3361,146.882,100.766,93.6889,0.00543483,0.4394,20.485,502.898,0.668244,0.0,0.0
3900,974.75,49.4912,57.3527,149.818,100.707,92.871,0.0061628,0.435176,20.4845,501.236,0.74326,0.0,0.0
3952,987.75,48.7232,56.4705,150.518,100.746,92.8264,0.00601152,0.411017,20.5122,499.645,0.751238,0.0,0.0
4004,1000.75,48.0146,54.2183,151.56,100.763,94.0165,0.00451875,0.372301,20.5511,498.284,0.635916,0.0,0.0
4056,1013.75,45.9245,51.991,154.017,100.784,94.6509,0.00394821,0.323208,20.6017,497.153,0.576125,0.0,0.0
4108,1026.75,44.7156,49.3631,158.082,100.792,95.5824,0.00561009,0.296819,20.6267,496.212,0.486972,0.0,0.0
4160,1039.75,41.4161,44.394,158.055,100.766,97.1427,0.00600755,0.243283,20.6924,495.451,0.336064,0.0,0.0
4212,1052.75,38.9503,41.0072,163.387,100.782,100.445,0.00712009,0.209442,20.7348,494.901,0.0307488,0.0,0.0
4264,1065.75,36.5758,37.7921,160.457,100.756,101.224,0.00772297,0.178568,20.7744,494.47,-0.0425239,0.0,0.0
4316,1078.75,34.9557,35.4886,161.277,100.738,101.045,0.00921368,0.163689,20.7929,494.09,-0.0278601,0.0,0.0
4368,1091.75,33.1218,33.0753,160.68,100.735,100.878,0.0100503,0.151715,20.8111,493.749,-0.0130061,0.0,0.0
4420,1104.75,31.5889,31.7496,160.816,100.719,100.62,0.0101377,0.14553,20.8148,493.449,0.00908345,0.0,0.0
4472,1117.75,29.5652,29.4253,160.844,100.712,100.647,0.0108353,0.141203,20.821,493.169,0.00594877,0.0,0.0
4524,1130.75,29.0877,29.175,162.66,100.695,100.617,0.0108669,0.14017,20.8247,492.959,0.00706155,0.0,0.0
4576,1143.75,28.381,28.3539,166.295,100.743,100.462,0.0109247,0.136303,20.8289,492.749,0.0256549,0.0,0.0
4628,1156.75,27.27,26.1658,165.117,100.891,100.598,0.0061388,0.114426,20.8647,-0.880802,0.0266813,0.0,0.0
4680,1169.75,24.556,22.7453,160.661,101.057,100.652,0.000149133,0.0630183,20.9282,-0.880802,0.036913,0.0,0.0
4732,1182.75,22.6842,22.1633,164.48,101.07,100.533,0.000257044,0.0599124,20.9322,-0.860784,0.0488503,0.0,0.0
4784,1195.75,22.6193,21.568,164.193,101.104,100.556,0.000354675,0.0619237,20.9313,-0.90082,0.0497991,0.0,0.0
4836,1208.75,22.3837,21.3019,167.317,101.012,100.631,0.000430173,0.0596465,20.9334,-0.880802,0.0346814,0.0,0.0
4888,1221.75,21.5693,20.8447,164.654,100.8,100.462,,0.0582201,,-0.90082,0.0307967,0.0,0.0
4923,1230.5,21.277,20.6524,170.221,100.725,100.18,,,,-0.90082,0.0497534,0.0,0.0