File: 01_Data/OSB/Cone/OSB_Cone_HF25Scalar_210324_R3.csv
LABORATORY,FSRI
TEST IDENT,OSB-HF25-3
OPERATOR,Morrissey
MATERIAL,5/8 inch OSB
ORIENTATION,Horizontal
HEAT FLUX,25
SURF AREA,0.01
C FACTOR,0.0386052
SPEC HOLDER DIFF,-86.9
SPECIMEN MASS,108.5
SCAN TIME,0.25
O2 DELAY TIME,11
CO DELAY TIME,11
CO2 DELAY TIME,8
FLOW FACTOR,1
SCAN COUNT,5065
TIME TO IGN,173.75
END OF TEST SCAN,4585
END OF TEST TIME,1146.25
TEST STATUS,1
PRE TEST CMT,test w/o retainer grid or frame