File: 01_Data/OSB/Cone/OSB_Cone_HF50Scalar_210326_R1.csv
LABORATORY,FSRI
TEST IDENT,OSB_HF50_1
OPERATOR,Dow
MATERIAL,"5/8"" thick OSB"
ORIENTATION,Horizontal
HEAT FLUX,50
SURF AREA,0.01
C FACTOR,0.0386052
SPEC HOLDER DIFF,-90.33
SPECIMEN MASS,101.32
SCAN TIME,0.25
O2 DELAY TIME,11
CO DELAY TIME,11
CO2 DELAY TIME,8
FLOW FACTOR,1
SCAN COUNT,3587
TIME TO IGN,25.5
END OF TEST SCAN,3107
END OF TEST TIME,776.75
TEST STATUS,1
PRE TEST CMT,without frame or grid