File: 01_Data/OSB/Cone/OSB_Cone_HF75Scan_210325_R3.csv
Names,Time,Stack TC,Smoke TC,Exh Press,Smoke Comp,Smoke Meas,CO Meter,CO2 Meter,O2 Meter,Sample Mass,Ext Coeff,Start Test,Flame Verif
Chan Gain,,500,500,1,1,1,1,1,1,1,1,1.0,1.0
Offset,,0,0,0.138348,0,0,0,0,0,0,0,0.0,0.0
Gain,,1,1,25.011,13.5067,16.616,1,1,1,1.00091,1.04608,1.0,1.0
Units,sec,C,C,Pa,%,%,%,%,%,g,/m,,
Baseline,,40.7977,44.1696,157.343,101.592,99.2218,-0.000554827,0.0819311,20.8674,-0.907033,0.216627,,
34,8.25,37.6532,40.5114,154.183,101.613,95.7487,0.000359277,0.0863897,20.8607,567.727,0.545431,0.0,0.0
68,16.75,43.3984,51.2961,130.667,101.618,96.4069,0.00271356,0.197419,20.532,566.466,0.483016,0.0,1.0
102,25.25,56.5339,72.3256,128.707,101.612,93.3208,0.00514173,0.54906,20.0872,564.434,0.781072,0.0,0.0
136,33.75,65.3549,85.1634,134.534,101.639,92.0896,0.00706726,0.729273,20.013,562.342,0.905396,0.0,0.0
170,42.25,70.5265,91.7903,135.067,101.611,92.44,0.00742347,0.769279,20.0201,560.4,0.867979,0.0,0.0
204,50.75,73.5419,95.9091,130.969,101.6,92.7341,0.00739037,0.765382,20.0353,558.478,0.837863,0.0,0.0
238,59.25,76.0072,98.7145,130.382,101.58,92.2605,0.00782699,0.767778,20.0403,556.557,0.883061,0.0,0.0
272,67.75,77.5175,98.8705,132.647,101.548,92.7985,0.00728867,0.745525,20.0756,554.705,0.826802,0.0,0.0
306,76.25,77.8638,97.5507,135.01,101.557,92.0668,0.00667165,0.714218,20.1223,552.963,0.900187,0.0,0.0
340,84.75,78.0567,96.8334,139.519,101.552,90.4619,0.00701966,0.684593,20.1585,551.252,1.06115,0.0,0.0
374,93.25,77.9146,95.9301,135.038,101.552,90.3635,0.00745324,0.652291,20.1953,549.62,1.07117,0.0,0.0
408,101.75,77.3823,94.119,130.744,101.548,90.9629,0.00709169,0.623925,20.2247,548.079,1.01013,0.0,0.0
442,110.25,76.86,93.209,138.98,101.539,92.3305,0.00683869,0.59959,20.247,546.608,0.872343,0.0,0.0
476,118.75,76.7573,92.0393,132.136,101.549,92.5881,0.00643891,0.578702,20.2753,545.136,0.847672,0.0,0.0
510,127.25,76.1572,90.5008,138.275,101.577,90.0851,0.00657999,0.561013,20.2996,543.715,1.10172,0.0,0.0
544,135.75,76.2232,89.8966,136.825,101.613,92.1591,0.00625282,0.546545,20.307,542.324,0.896094,0.0,0.0
578,144.25,75.6554,88.7088,135.484,101.69,92.3021,0.00597143,0.53346,20.3254,540.912,0.888863,0.0,0.0
612,152.75,75.6348,88.678,133.918,101.735,93.1144,0.0056904,0.525241,20.335,539.571,0.812437,0.0,0.0
646,161.25,75.4505,87.6469,141.526,101.808,93.8482,0.00496894,0.515244,20.3487,538.23,0.747028,0.0,0.0
680,169.75,75.0983,86.977,137.059,101.874,94.0845,0.00490142,0.502949,20.3625,536.999,0.729932,0.0,0.0
714,178.25,74.6768,86.455,135.996,101.913,93.6753,0.00483599,0.491883,20.3695,535.728,0.773456,0.0,0.0
748,186.75,75.3106,86.3451,141.596,101.967,94.2969,0.00446502,0.48478,20.382,534.386,0.717583,0.0,0.0
782,195.25,74.6926,85.7748,137.506,102.017,94.6559,0.0042165,0.476492,20.3902,533.175,0.687237,0.0,0.0
816,203.75,74.0661,85.5528,140.44,102.045,94.5748,0.00383455,0.469943,20.399,532.054,0.697591,0.0,0.0
850,212.25,74.2576,84.9078,141.721,102.086,95.337,0.00377718,0.463951,20.4093,530.793,0.627608,0.0,0.0
884,220.75,73.5521,84.3381,139.231,102.088,95.0565,0.00380898,0.457659,20.4134,529.612,0.654823,0.0,0.0
918,229.25,73.6464,84.6204,140.128,102.115,95.2137,0.00377205,0.456521,20.4152,528.411,0.642144,0.0,0.0
952,237.75,73.9289,84.093,136.66,102.125,95.7517,0.00373163,0.453255,20.4189,527.28,0.591327,0.0,0.0
986,246.25,73.6809,83.6789,139.87,102.139,95.8258,0.00381,0.450191,20.4207,526.109,0.585458,0.0,0.0
1020,254.75,73.6674,83.4513,140.087,102.161,96.0529,0.00388496,0.4473,20.4262,524.958,0.56573,0.0,0.0
1054,263.25,73.8079,83.1824,138.652,102.153,95.8045,0.00370574,0.445399,20.4239,523.867,0.58872,0.0,0.0
1088,271.75,73.3787,82.4611,138.239,102.174,95.5454,0.00374771,0.443795,20.4273,522.756,0.61546,0.0,0.0
1122,280.25,73.0959,82.5919,140.612,102.183,95.2528,0.00341919,0.44305,20.429,521.625,0.644416,0.0,0.0
1156,288.75,73.579,82.7201,133.65,102.172,95.9561,0.00394125,0.443227,20.4273,520.504,0.575987,0.0,0.0
1190,297.25,73.6006,83.1378,135.727,102.185,95.9267,0.00404885,0.446688,20.4202,519.413,0.579946,0.0,0.0
1224,305.75,73.7168,83.0267,139.841,102.177,95.5667,0.00381019,0.447821,20.4198,518.282,0.613748,0.0,0.0
1258,314.25,73.7729,82.8099,139.784,102.173,94.5743,0.0042481,0.44746,20.4196,517.191,0.709123,0.0,0.0
1292,322.75,73.4908,82.3649,137.359,102.169,94.7543,0.00463497,0.446581,20.4224,516.1,0.691376,0.0,0.0
1326,331.25,73.4072,82.4352,137.701,102.141,94.2802,0.00406376,0.447868,20.4216,515.009,0.734814,0.0,0.0
1360,339.75,73.1417,82.3824,141.465,102.119,95.1595,0.0041403,0.447192,20.4242,513.898,0.647707,0.0,0.0
1394,348.25,73.4838,82.3123,138.342,102.092,94.7279,0.00416026,0.444549,20.4269,512.867,0.686932,0.0,0.0
1428,356.75,73.4844,82.6445,137.578,102.048,94.5195,0.00423103,0.442971,20.4291,511.806,0.703251,0.0,0.0
1462,365.25,73.1964,82.1744,137.669,102.033,94.1504,0.0039887,0.440704,20.4313,510.755,0.737788,0.0,0.0
1496,373.75,73.036,81.4669,138.254,102.014,94.05,0.00426436,0.438325,20.4337,509.694,0.745874,0.0,0.0
1530,382.25,73.2148,81.6706,137.657,102.002,95.6285,0.0039389,0.436238,20.4364,508.683,0.592064,0.0,0.0
1564,390.75,72.8312,81.4938,141.457,101.987,93.657,0.00366819,0.433852,20.4377,507.622,0.781885,0.0,0.0
1598,399.25,73.0877,81.4408,138.053,101.952,94.0464,0.00386653,0.433379,20.4379,506.621,0.740619,0.0,0.0
1632,407.75,72.6545,81.5957,137.94,101.952,94.6184,0.00399311,0.434679,20.4339,505.59,0.684979,0.0,0.0
1666,416.25,73.0025,81.9409,137.086,101.892,93.3132,0.00367971,0.441336,20.4256,504.519,0.807023,0.0,0.0
1700,424.75,73.1622,82.2957,141.306,101.853,93.8639,0.00408961,0.446845,20.4144,503.478,0.749577,0.0,0.0
1734,433.25,73.7354,82.7459,141.219,101.779,91.5866,0.00412758,0.454792,20.4062,502.437,0.968225,0.0,0.0
1768,441.75,74.0589,83.1635,141.37,101.721,92.6864,0.00463192,0.462317,20.3971,501.286,0.853445,0.0,0.0
1802,450.25,74.5909,83.6973,135.745,101.655,92.6621,0.00499448,0.469362,20.3872,500.165,0.849941,0.0,0.0
1836,458.75,74.6714,84.243,140.385,101.564,91.9476,0.00573847,0.476986,20.3755,499.074,0.912742,0.0,0.0
1870,467.25,74.712,84.9603,135.7,101.425,91.5683,0.00588983,0.484654,20.3684,497.903,0.938114,0.0,0.0
1904,475.75,75.5107,85.6672,136.792,101.3,90.8823,0.00627041,0.491359,20.3609,496.702,0.995781,0.0,0.0
1938,484.25,75.6826,86.0742,136.053,101.183,91.2565,0.0061355,0.493507,20.358,495.551,0.947501,0.0,0.0
1972,492.75,76.0178,86.1132,136.182,101.082,90.7099,0.00602978,0.496494,20.3543,494.42,0.993432,0.0,0.0
2006,501.25,75.8903,85.9313,133.105,101.01,90.3372,0.0057456,0.490851,20.3627,493.279,1.02474,0.0,0.0
2040,509.75,75.7457,85.3417,138.244,100.932,90.1921,0.00494975,0.479395,20.3812,492.238,1.03233,0.0,0.0
2074,518.25,74.8781,83.7807,140.793,100.841,91.5481,0.00363829,0.454912,20.4194,491.287,0.887189,0.0,0.0
2108,526.75,73.0376,81.5872,138.205,100.73,92.1124,0.00243019,0.40956,20.4836,490.517,0.820661,0.0,0.0
2142,535.25,71.3938,78.122,138.823,100.627,95.2259,0.0018353,0.350413,20.5564,490.016,0.506199,0.0,0.0
2176,543.75,68.2845,74.1374,155.622,100.548,97.847,0.00170462,0.289735,20.6284,489.646,0.249857,0.0,0.0
2210,552.25,65.7007,70.1215,148.415,100.457,99.708,0.0022932,0.239341,20.6817,489.466,0.0686558,0.0,0.0
2244,560.75,63.554,66.7692,149.855,100.417,99.315,0.00242918,0.207077,20.7104,489.275,0.101279,0.0,0.0
2278,569.25,61.6843,64.1934,153.599,100.402,98.9788,0.00261074,0.190399,20.7232,489.075,0.130963,0.0,0.0
2312,577.75,60.1673,62.7586,147.995,100.421,99.5219,0.00287179,0.181316,20.7302,488.905,0.082523,0.0,0.0
2346,586.25,59.1416,61.1443,151.363,100.45,98.9727,0.00290454,0.175328,20.7362,488.795,0.135971,0.0,0.0
2380,594.75,58.096,59.9334,150.566,100.496,99.2257,0.00344338,0.17239,20.7379,488.645,0.116683,0.0,0.0
2414,603.25,57.4671,59.143,153.515,100.576,98.9179,0.00330338,0.169914,20.7413,488.465,0.152527,0.0,0.0
2448,611.75,56.5566,58.7297,152.078,100.635,98.8829,0.00361137,0.168109,20.7423,488.355,0.161188,0.0,0.0
2482,620.25,55.9473,57.8589,152.959,100.7,99.2166,0.0036256,0.166546,20.7445,488.244,0.136212,0.0,0.0
2516,628.75,55.3152,57.5589,150.741,100.781,98.9098,0.00436988,0.165474,20.7478,488.124,0.171951,0.0,0.0
2550,637.25,54.8226,56.5098,154.925,100.814,98.9504,0.00431486,0.164559,20.7499,488.034,0.171227,0.0,0.0
2584,645.75,54.288,56.5537,149.442,100.876,99.319,0.00465937,0.163542,20.7515,487.884,0.142768,0.0,0.0
2618,654.25,53.6331,56.1016,149.507,100.939,99.3951,0.00489959,0.163356,20.751,487.754,0.141479,0.0,0.0
2652,662.75,53.4083,55.4701,150.107,100.998,99.6938,0.00545445,0.163765,20.7506,487.644,0.119266,0.0,0.0
2686,671.25,52.7815,55.5625,149.567,101.081,99.2866,0.00610165,0.163714,20.7506,487.544,0.164384,0.0,0.0
2720,679.75,52.8974,55.4437,154,101.139,99.208,0.00627785,0.162618,20.7543,487.424,0.17685,0.0,0.0
2754,688.25,51.6049,54.2151,154.113,101.211,99.2262,0.00683735,0.161094,20.7556,487.324,0.181741,0.0,0.0
2788,696.75,51.8683,54.6803,155.648,101.282,99.5036,0.00685361,0.160587,20.7559,487.173,0.162589,0.0,0.0
2822,705.25,51.8386,54.6788,153.983,101.306,99.7678,0.00726415,0.160342,20.756,487.123,0.140386,0.0,0.0
2856,713.75,50.2331,52.7995,152.099,101.352,99.5812,0.00767602,0.159348,20.7591,486.983,0.161746,0.0,0.0
2890,722.25,50.0936,52.2719,148.379,101.378,99.6055,0.00769318,0.158857,20.7584,486.893,0.161817,0.0,0.0
2924,730.75,49.4718,52.2994,146.99,101.376,99.5837,0.00798967,0.15843,20.7593,486.783,0.163714,0.0,0.0
2958,739.25,49.1938,52.3853,152.629,101.413,99.7673,0.00819394,0.157703,20.7613,486.683,0.150136,0.0,0.0
2992,747.75,48.6227,52.0133,149.476,101.424,99.6273,0.00852069,0.156863,20.7603,486.603,0.163987,0.0,0.0
3026,756.25,48.6661,51.674,154.369,101.47,100.222,0.00867824,0.156485,20.7602,486.493,0.113578,0.0,0.0
3060,764.75,48.4503,51.6064,153.142,101.504,99.5082,0.00913983,0.156015,20.7616,486.383,0.182238,0.0,0.0
3094,773.25,48.0676,50.9201,152.376,101.526,99.712,0.00927182,0.155178,20.7645,486.313,0.165434,0.0,0.0
3128,781.75,48.1403,50.8197,153.478,101.563,99.8571,0.00968169,0.155503,20.7642,486.203,0.155449,0.0,0.0
3162,790.25,47.7454,50.9223,153.537,101.568,99.7911,0.00981187,0.155315,20.7637,486.082,0.161994,0.0,0.0
3196,798.75,46.9433,50.7961,153.127,101.583,100.175,0.010091,0.154323,20.7654,485.952,0.128021,0.0,0.0
3230,807.25,46.967,50.3098,151.221,101.623,99.709,0.0103337,0.154112,20.7659,485.862,0.174502,0.0,0.0
3264,815.75,46.7197,50.2375,156.589,101.634,99.6573,,0.153222,,485.762,0.180267,0.0,0.0
3298,824.25,47.092,50.1165,151.131,101.652,100.124,,,,485.702,0.138976,0.0,0.0
3303,825.5,46.9555,50.0676,154.322,101.656,99.6862,,,,485.672,0.179579,0.0,0.0