File: 01_Data/OSB/Cone/OSB_Cone_HF25Scalar_210324_R1.csv
LABORATORY,FSRI
TEST IDENT,OSB-HF25-1
OPERATOR,Morrissey
MATERIAL,5/8 inch OSB
ORIENTATION,Horizontal
HEAT FLUX,25
SURF AREA,0.01
C FACTOR,0.0386052
SPEC HOLDER DIFF,-97.5
SPECIMEN MASS,107.8
SCAN TIME,0.25
O2 DELAY TIME,11
CO DELAY TIME,11
CO2 DELAY TIME,8
FLOW FACTOR,1
SCAN COUNT,4923
TIME TO IGN,174.25
END OF TEST SCAN,4443
END OF TEST TIME,1110.75
TEST STATUS,1
PRE TEST CMT,test w/o retainer frame or grid