File: 01_Data/OSB/Cone/OSB_Cone_HF50Scan_210326_R1.csv
Names,Time,Stack TC,Smoke TC,Exh Press,Smoke Comp,Smoke Meas,CO Meter,CO2 Meter,O2 Meter,Sample Mass,Ext Coeff,Start Test,Flame Verif
Chan Gain,,500,500,1,1,1,1,1,1,1,1,1.0,1.0
Offset,,0,0,0.138348,0,0,0,0,0,0,0,0.0,0.0
Gain,,1,1,25.011,13.5067,16.616,1,1,1,1.00091,1.04608,1.0,1.0
Units,sec,C,C,Pa,%,%,%,%,%,g,/m,,
Baseline,,26.4898,29.0399,165.48,102.035,98.9212,-0.00121969,0.0472496,20.9595,-0.012845,0.28437,,
37,9,25.1129,27.3321,168.374,101.723,97.923,-0.000938668,0.0595728,20.9408,577.826,0.349315,0.0,0.0
74,18.25,25.768,28.3478,161.023,101.81,96.9809,-0.000614959,0.0590777,20.9453,577.556,0.445871,0.0,0.0
111,27.5,26.8018,31.0426,146.198,101.916,99.2268,0.00063661,0.0869977,20.8063,576.935,0.245414,0.0,1.0
148,36.75,37.8305,48.2333,143.829,102.056,95.9201,0.00249287,0.36399,20.4022,575.304,0.568985,0.0,0.0
185,46,45.0532,58.305,135.475,102.207,94.2594,0.00370578,0.479749,20.3681,573.712,0.742835,0.0,0.0
222,55.25,49.1208,64.3162,137.402,102.325,95.803,0.0035493,0.513789,20.3673,572.101,0.604329,0.0,0.0
259,64.5,52.479,67.4988,143.591,102.438,94.9267,0.00401297,0.52029,20.3842,570.509,0.698765,0.0,0.0
296,73.75,54.0146,69.4861,142.444,102.479,95.2203,0.0043609,0.51492,20.3947,568.918,0.674082,0.0,0.0
333,83,55.6225,70.2702,146.999,102.476,97.3703,0.0040972,0.514382,20.3926,567.366,0.468937,0.0,0.0
370,92.25,56.687,71.1729,139.271,102.392,97.1782,0.00452064,0.516367,20.3955,565.745,0.479534,0.0,0.0
407,101.5,57.5801,71.6017,142.348,102.219,97.384,0.00428929,0.509392,20.4086,564.254,0.444624,0.0,0.0
444,110.75,58.0013,71.5872,137.06,102.023,94.8283,0.00416331,0.497384,20.4255,562.782,0.671059,0.0,0.0
481,120,58.0427,70.6942,145.249,101.79,96.2416,0.00421623,0.479912,20.4516,561.351,0.514346,0.0,0.0
518,129.25,57.8005,69.7474,145.975,101.525,94.3765,0.00348542,0.458616,20.4746,559.93,0.669951,0.0,0.0
555,138.5,57.8824,69.2907,146.208,101.25,94.4212,0.00383209,0.442923,20.4928,558.628,0.640731,0.0,0.0
592,147.75,57.7878,68.2897,145.369,100.957,94.4769,0.00355204,0.42963,20.5102,557.337,0.60875,0.0,0.0
629,157,56.9937,67.1873,145.181,100.728,93.7554,0.00319051,0.414018,20.5285,556.116,0.658249,0.0,0.0
666,166.25,56.7023,66.5738,145.999,100.624,94.6139,0.00313492,0.399738,20.5474,554.885,0.565103,0.0,0.0
703,175.5,56.5694,65.5565,142.602,100.633,96.7624,0.00278939,0.385659,20.5608,553.734,0.359927,0.0,0.0
740,184.75,56.8586,65.8931,146.007,100.78,94.9272,0.00257338,0.375065,20.5742,552.563,0.548958,0.0,0.0
777,194,55.3971,63.8023,147.69,101.043,95.0773,0.00256024,0.366452,20.5818,551.502,0.558449,0.0,0.0
814,203.25,55.6865,63.7338,146.561,101.364,96.1569,0.0024101,0.358716,20.5899,550.401,0.483958,0.0,0.0
851,212.5,55.6695,63.6273,144.117,101.662,94.9222,0.00178469,0.350944,20.5988,549.34,0.629489,0.0,0.0
888,221.75,55.0967,62.7183,152.127,101.844,98.5888,0.00189061,0.34443,20.6057,548.279,0.298098,0.0,0.0
925,231,54.8245,62.2885,147.326,101.892,96.9692,0.00164113,0.337882,20.6168,547.228,0.454401,0.0,0.0
962,240.25,54.8474,61.9351,146.717,101.854,97.5514,0.00184233,0.33152,20.6216,546.187,0.396064,0.0,0.0
999,249.5,54.5595,61.413,148.133,101.657,97.3932,0.00154102,0.326613,20.6295,545.226,0.393153,0.0,0.0
1036,258.75,54.5697,61.4995,145.986,101.358,96.4546,0.00120497,0.321427,20.6339,544.225,0.455001,0.0,0.0
1073,268,54.3509,60.9918,146.471,101.355,98.2669,0.00118081,0.317628,20.6366,543.255,0.283927,0.0,0.0
1110,277.25,54.3051,61.102,149.681,101.928,97.7522,0.00110411,0.315048,20.6419,542.334,0.38384,0.0,0.0
1147,286.5,54.0836,60.3709,146.903,102.159,97.7091,0.00084109,0.31127,20.6446,541.373,0.408681,0.0,0.0
1184,295.75,53.5672,60.2724,148.272,101.956,96.9895,0.00109263,0.308953,20.648,540.432,0.458197,0.0,0.0
1221,305,53.3315,59.5727,150.161,101.722,98.4702,0.00106003,0.306758,20.6493,539.521,0.298149,0.0,0.0
1258,314.25,54.0856,59.8111,154.768,102.06,97.5346,0.00101578,0.303422,20.6514,538.64,0.41615,0.0,0.0
1295,323.5,53.8668,59.9137,150.081,102.344,98.2456,0.000740558,0.300694,20.657,537.729,0.375045,0.0,0.0
1332,332.75,53.5725,59.2303,149.327,102.468,99.0645,0.000967268,0.299462,20.658,536.859,0.309954,0.0,0.0
1369,342,52.9435,59.6611,151.338,102.32,98.6852,0.000644507,0.298976,20.6593,535.988,0.33193,0.0,0.0
1406,351.25,53.1988,59.1138,144.943,101.921,98.3769,0.000414454,0.29886,20.658,535.087,0.32479,0.0,0.0
1443,360.5,53.5702,59.8313,149.959,101.48,97.1361,0.000602646,0.298621,20.6583,534.226,0.401433,0.0,0.0
1480,369.75,53.2134,59.2651,152.83,101,96.4561,0.000826842,0.300153,20.6562,533.326,0.422445,0.0,0.0
1517,379,53.6286,59.6643,152.221,100.705,97.2076,0.000600368,0.301954,20.6524,532.455,0.324341,0.0,0.0
1554,388.25,53.8506,59.6474,152.111,100.672,96.9921,0.000755038,0.304357,20.6502,531.574,0.341739,0.0,0.0
1591,397.5,54.0644,60.0678,150.012,100.93,96.5707,0.00144401,0.306824,20.6493,530.663,0.405181,0.0,0.0
1628,406.75,53.7747,60.3189,151.131,101.328,97.1954,0.00111966,0.309473,20.6448,529.792,0.382103,0.0,0.0
1665,416,54.3155,60.5493,145.378,101.759,97.8049,0.000836702,0.311775,20.6422,528.871,0.363665,0.0,0.0
1702,425.25,54.6928,60.5078,148.623,101.915,96.8247,0.00108219,0.314271,20.6383,527.951,0.470165,0.0,0.0
1739,434.5,53.9018,59.8972,148.615,101.842,96.1199,0.00117734,0.318313,20.6334,527.02,0.530637,0.0,0.0
1776,443.75,54.3623,60.8268,145.424,101.56,95.2959,0.000931326,0.320245,20.6314,526.119,0.584202,0.0,0.0
1813,453,54.6487,60.6316,145.474,101.274,96.0043,0.00143674,0.3239,20.6277,525.148,0.490322,0.0,0.0
1850,462.25,54.9765,61.2202,147.871,101.701,96.4373,0.00137159,0.327486,20.6248,524.237,0.487674,0.0,0.0
1887,471.5,54.822,61.0823,151.875,102.087,96.5342,0.00159113,0.329399,20.6216,523.256,0.513244,0.0,0.0
1924,480.75,54.6996,60.5735,150.893,102.089,96.1579,0.00180308,0.330763,20.6191,522.325,0.549189,0.0,0.0
1961,490,55.1296,61.6051,146.544,101.764,95.8861,0.00167422,0.334144,20.6132,521.335,0.545921,0.0,0.0
1998,499.25,55.6457,62.3488,145.768,101.804,95.4586,0.00178239,0.338109,20.6091,520.404,0.590562,0.0,0.0
2035,508.5,55.5946,62.5978,144.496,102.097,96.3384,0.00195107,0.340961,20.6059,519.433,0.53272,0.0,0.0
2072,517.75,56.152,62.945,147.384,102.358,95.8993,0.00212358,0.344618,20.5989,518.442,0.5981,0.0,0.0
2109,527,56.6096,63.0443,144.018,102.472,95.7487,0.00211037,0.349603,20.592,517.451,0.622715,0.0,0.0
2146,536.25,56.6217,63.4456,149.734,102.414,95.234,0.00253423,0.354608,20.587,516.41,0.666966,0.0,0.0
2183,545.5,56.9904,63.9778,151.52,102.093,94.3578,0.00265768,0.358587,20.5804,515.379,0.72297,0.0,0.0
2220,554.75,57.2239,64.1094,143.713,101.673,94.4597,0.00247464,0.362948,20.5769,514.338,0.675235,0.0,0.0
2257,564,57.1784,64.7336,149.697,101.183,92.0977,0.0025722,0.37116,20.5639,513.297,0.863338,0.0,0.0
2294,573.25,58.0984,65.2517,151.675,100.831,91.2048,0.00318059,0.376442,20.5545,512.166,0.920763,0.0,0.0
2331,582.5,57.7081,65.8359,142.878,100.694,90.5719,0.00383261,0.384692,20.5435,511.075,0.972155,0.0,0.0
2368,591.75,59.1328,66.8896,144.731,100.791,90.5491,0.00440372,0.394079,20.5302,509.934,0.983252,0.0,0.0
2405,601,59.2501,67.5218,147.44,101.021,91.0942,0.00435636,0.400463,20.5245,508.793,0.949094,0.0,0.0
2442,610.25,60.0107,67.9019,143.882,101.357,90.4807,0.00528474,0.405803,20.5171,507.632,1.04157,0.0,0.0
2479,619.5,60.4588,68.3079,145.805,101.678,91.9502,0.00462853,0.407099,20.5139,506.491,0.922799,0.0,0.0
2516,628.75,60.7875,68.3497,143.658,101.916,90.9923,0.00440493,0.407229,20.5198,505.33,1.04033,0.0,0.0
2553,638,60.2522,68.6241,152.697,101.997,92.4689,0.00379547,0.402495,20.5282,504.259,0.899887,0.0,0.0
2590,647.25,60.6712,68.3305,143.746,101.846,91.3549,0.00358892,0.393272,20.5343,503.188,0.997528,0.0,0.0
2627,656.5,60.3776,67.3243,147.942,101.585,92.5947,0.0025483,0.372752,20.5686,502.247,0.850332,0.0,0.0
2664,665.75,59.1516,65.5814,141.611,101.323,94.051,0.00161511,0.337084,20.6191,501.436,0.683385,0.0,0.0
2701,675,57.6697,63.0938,151.087,101.508,97.0778,0.00108392,0.289094,20.6782,500.836,0.409476,0.0,0.0
2738,684.25,55.0828,59.4055,155.706,101.943,97.0615,0.000764754,0.240046,20.7328,500.355,0.450275,0.0,0.0
2775,693.5,53.1305,56.9008,150.785,102.144,98.9524,0.000956103,0.202116,20.7724,500.065,0.291318,0.0,0.0
2812,702.75,50.6015,53.129,155.839,102.118,100.562,0.00177062,0.170729,20.8154,499.825,0.140852,0.0,0.0
2849,712,48.7841,50.4884,154.803,101.883,99.8241,0.00231035,0.152068,20.833,499.635,0.187296,0.0,0.0
2886,721.25,47.4413,48.5803,158.643,102.011,100.538,0.0026784,0.142179,20.8393,499.435,0.133484,0.0,0.0
2923,730.5,46.2619,47.2463,156.884,101.722,100.424,0.00276572,0.135358,20.8448,499.294,0.117865,0.0,0.0
2960,739.75,45.0834,46.0301,155.705,101.928,99.5178,0.00311056,0.131829,20.8498,499.375,0.219613,0.0,0.0
2997,749,44.2845,44.678,157.29,102.147,100.539,0.00335907,0.130433,20.8513,499.034,0.14561,0.0,0.0
3034,758.25,43.7391,44.8902,156.872,102.353,100.253,0.00345459,0.130373,20.8467,498.874,0.190291,0.0,0.0
3071,767.5,43.3074,44.3772,158.185,102.492,100.224,0.00380821,0.129765,20.8513,498.694,0.205345,0.0,0.0
3108,776.75,41.8238,43.6019,159.5,102.556,100.332,0.00382049,0.131663,20.8474,498.594,0.201206,0.0,0.0
3145,786,41.3282,42.3994,161.873,102.574,100.475,0.00427176,0.12838,20.8541,498.444,0.189688,0.0,0.0
3182,795.25,40.8732,41.93,155.009,102.475,100.41,0.00398255,0.122096,20.8635,498.314,0.186762,0.0,0.0
3219,804.5,40.4711,41.1933,155.905,102.293,100.157,0.00411411,0.120876,20.8652,498.184,0.193669,0.0,0.0
3256,813.75,40.7927,41.2706,154.866,102.054,99.7561,0.00390955,0.119614,20.8641,498.083,0.208938,0.0,0.0
3293,823,39.675,41.5651,156.63,101.725,99.101,0.0047977,0.118681,20.8657,497.943,0.239814,0.0,0.0
3330,832.25,40.0121,40.8746,155.739,101.436,99.4631,0.00477412,0.117658,20.867,497.833,0.180213,0.0,0.0
3367,841.5,39.4851,40.9095,158.64,101.137,99.0838,0.0048268,0.116689,20.8666,497.713,0.188236,0.0,0.0
3404,850.75,39.3609,39.9706,156.797,100.94,99.0077,0.00509886,0.116286,20.8665,497.583,0.177352,0.0,0.0
3441,860,38.462,39.7104,155.794,100.864,98.3784,0.00542074,0.115646,20.8688,497.483,0.229,0.0,0.0
3478,869.25,38.4675,40.0154,158.972,100.905,98.2309,0.00546733,0.11481,20.8717,497.373,0.246448,0.0,0.0
3515,878.5,38.108,39.9751,159.64,101.061,98.5559,0.00549572,0.113844,20.8727,497.263,0.23033,0.0,0.0
3552,887.75,37.9161,39.6153,163.625,101.288,98.5676,,0.113395,,497.153,0.249843,0.0,0.0
3587,896.5,37.9235,39.7539,164.489,101.522,98.8642,,,,497.072,0.243418,0.0,0.0