File: 01_Data/Composite_Deck_Board/MCC/Composite_Deck_Board_30K_min_210609_R3.txt
Sample ID:	C:\MCC\MCC Cal\Test\TREX_Board\TREX_Board_30_3.txt
Sample Weight (mg):	4.32
Heating Rate (C/s):	0.5
Combustor Temp (C):	900
N2 Flow Rate (cc/min):	80
O2 Flow Rate (cc/min):	20
Calibration File:	C:\MCC\MCC Cal\Coeff1 JN10440_30_210304.txt.txt
T Correction Coefficients:	0	1.024463	0
Time Shift (s):	14
*
Time (s)	Temperature (C)	N2 flow rate (cc/min)	O2 flow rate (cc/min)	Flow Rate (cc/min)	Oxygen (%)	HRR (W/g)	Heating rate (C/s)
0.000	113.566	79.982	19.993	99.850	20.141	-0.004	-0.002
7.500	113.556	79.985	19.993	99.847	20.141	0.027	-0.013
15.000	113.491	79.983	19.993	99.867	20.141	-0.018	0.015
22.500	113.407	79.983	19.992	99.924	20.130	0.814	-0.009
30.000	113.667	79.985	19.993	99.980	20.110	2.248	0.055
37.500	114.251	79.982	19.993	100.065	20.095	3.328	0.093
45.000	115.369	79.981	19.991	100.073	20.091	3.614	0.186
52.500	116.914	79.983	19.992	100.077	20.088	3.848	0.227
60.001	118.757	79.982	19.993	100.071	20.088	3.856	0.265
67.501	120.901	79.983	19.993	100.070	20.089	3.776	0.259
75.001	123.277	79.983	19.991	100.098	20.089	3.769	0.309
82.500	125.942	79.984	19.993	100.108	20.082	4.261	0.366
90.001	128.793	79.983	19.995	100.114	20.081	4.351	0.378
97.500	131.891	79.983	19.993	100.109	20.080	4.455	0.413
105.000	135.077	79.983	19.991	100.114	20.080	4.400	0.415
112.500	138.448	79.983	19.993	100.114	20.077	4.667	0.449
120.000	141.880	79.983	19.993	100.111	20.078	4.595	0.441
127.500	145.465	79.980	19.992	100.111	20.082	4.253	0.453
135.000	149.103	79.983	19.991	100.107	20.080	4.416	0.501
142.500	152.825	79.982	19.993	100.111	20.080	4.398	0.496
150.000	156.491	79.983	19.993	100.106	20.081	4.363	0.516
157.500	160.209	79.984	19.993	100.103	20.079	4.502	0.497
165.000	164.002	79.983	19.993	100.092	20.079	4.497	0.483
172.500	167.772	79.983	19.993	100.099	20.080	4.449	0.471
180.000	171.539	79.983	19.993	100.096	20.079	4.490	0.467
187.500	175.324	79.984	19.992	100.089	20.074	4.852	0.522
195.001	179.043	79.985	19.993	100.085	20.078	4.544	0.491
202.500	182.770	79.982	19.992	100.075	20.076	4.679	0.504
210.001	186.518	79.981	19.992	100.068	20.076	4.726	0.492
217.500	190.199	79.982	19.992	100.065	20.074	4.822	0.471
225.000	193.934	79.981	19.992	100.067	20.076	4.675	0.488
232.500	197.579	79.982	19.992	100.069	20.071	5.040	0.511
240.000	201.203	79.982	19.992	100.068	20.069	5.185	0.464
247.500	204.869	79.984	19.992	100.067	20.067	5.375	0.505
255.000	208.504	79.982	19.993	100.070	20.063	5.677	0.490
262.500	212.139	79.985	19.993	100.066	20.062	5.744	0.475
270.000	215.822	79.984	19.993	100.062	20.058	6.001	0.473
277.500	219.538	79.984	19.993	100.063	20.055	6.209	0.505
285.000	223.275	79.982	19.992	100.065	20.046	6.890	0.485
292.500	226.969	79.983	19.992	100.068	20.044	7.006	0.474
300.000	230.764	79.982	19.991	100.079	20.042	7.179	0.462
307.500	234.494	79.982	19.992	100.077	20.031	7.940	0.460
315.000	238.277	79.981	19.991	100.072	20.020	8.748	0.479
322.500	242.006	79.985	19.992	100.068	20.015	9.152	0.488
330.000	245.742	79.984	19.992	100.073	20.002	10.071	0.500
337.500	249.500	79.984	19.993	100.080	19.991	10.842	0.506
345.000	253.222	79.984	19.992	100.078	19.975	12.018	0.497
352.500	256.976	79.984	19.992	100.094	19.954	13.531	0.523
360.000	260.647	79.981	19.993	100.095	19.931	15.163	0.494
367.500	264.357	79.982	19.992	100.107	19.909	16.761	0.476
375.000	268.108	79.982	19.991	100.109	19.887	18.376	0.513
382.500	271.856	79.983	19.992	100.112	19.867	19.797	0.498
390.000	275.633	79.981	19.992	100.111	19.851	20.990	0.529
397.500	279.401	79.984	19.992	100.106	19.832	22.352	0.484
405.000	283.205	79.985	19.991	100.106	19.822	23.100	0.502
412.500	287.022	79.984	19.992	100.107	19.805	24.322	0.492
420.000	290.862	79.984	19.992	100.105	19.800	24.692	0.479
427.500	294.639	79.985	19.993	100.107	19.794	25.098	0.529
435.000	298.459	79.982	19.993	100.108	19.786	25.644	0.492
442.500	302.256	79.982	19.992	100.108	19.778	26.222	0.514
450.000	306.044	79.984	19.993	100.106	19.773	26.644	0.507
457.500	309.930	79.983	19.992	100.105	19.766	27.116	0.622
465.000	313.603	79.983	19.992	100.105	19.756	27.815	0.482
472.500	317.276	79.982	19.992	100.112	19.746	28.594	0.483
480.000	321.018	79.984	19.992	100.113	19.730	29.767	0.494
487.500	324.701	79.984	19.992	100.129	19.715	30.820	0.471
495.000	328.492	79.983	19.993	100.139	19.692	32.506	0.498
502.500	332.235	79.985	19.992	100.147	19.665	34.433	0.505
510.000	336.013	79.985	19.992	100.151	19.637	36.494	0.525
517.500	339.745	79.984	19.992	100.149	19.603	38.900	0.525
525.000	343.483	79.983	19.994	100.164	19.567	41.574	0.492
532.500	347.255	79.982	19.993	100.181	19.527	44.474	0.488
540.000	351.106	79.984	19.992	100.183	19.493	46.929	0.518
547.500	354.891	79.983	19.993	100.187	19.464	49.020	0.503
555.000	358.682	79.984	19.992	100.187	19.455	49.637	0.507
562.500	362.446	79.985	19.990	100.161	19.478	47.963	0.481
570.000	366.250	79.983	19.992	100.144	19.526	44.438	0.501
577.500	370.069	79.986	19.992	100.102	19.598	39.261	0.509
585.000	373.935	79.986	19.992	100.067	19.692	32.445	0.507
592.500	377.760	79.986	19.993	100.026	19.783	25.887	0.517
600.000	381.581	79.984	19.992	100.013	19.863	20.102	0.522
607.500	385.408	79.984	19.992	100.003	19.923	15.735	0.511
615.000	389.229	79.982	19.992	100.007	19.954	13.502	0.529
622.501	392.999	79.982	19.992	100.000	19.969	12.435	0.530
630.000	396.760	79.983	19.992	99.993	19.974	12.089	0.486
637.500	400.567	79.984	19.991	100.000	19.965	12.728	0.492
645.000	404.354	79.985	19.992	99.989	19.956	13.387	0.484
652.500	408.129	79.984	19.992	99.989	19.940	14.522	0.533
660.000	411.925	79.986	19.991	99.989	19.917	16.194	0.508
667.500	415.658	79.985	19.992	99.988	19.885	18.465	0.523
675.000	419.417	79.983	19.993	99.988	19.844	21.448	0.503
682.500	423.143	79.983	19.993	99.990	19.788	25.487	0.477
690.000	426.910	79.984	19.993	99.990	19.722	30.232	0.492
697.501	430.706	79.983	19.992	99.991	19.634	36.616	0.494
705.001	434.531	79.983	19.993	99.959	19.529	44.213	0.528
712.500	438.296	79.983	19.995	99.955	19.400	53.489	0.522
720.000	442.066	79.986	19.993	99.944	19.235	65.377	0.508
727.500	445.862	79.985	19.992	99.917	19.043	79.229	0.495
735.000	449.648	79.986	19.992	99.899	18.812	95.841	0.516
742.500	453.411	79.985	19.993	99.873	18.551	114.635	0.512
750.000	457.257	79.984	19.990	99.842	18.253	136.062	0.496
757.500	461.058	79.985	19.991	99.795	17.938	158.710	0.497
765.000	464.898	79.984	19.994	99.755	17.629	180.845	0.532
772.500	468.713	79.984	19.993	99.700	17.362	199.908	0.521
780.001	472.586	79.984	19.993	99.637	17.190	212.158	0.555
787.500	476.463	79.983	19.993	99.587	17.184	212.595	0.507
795.000	480.294	79.984	19.994	99.553	17.420	195.706	0.509
802.500	484.132	79.984	19.992	99.566	17.881	162.733	0.516
810.000	487.931	79.984	19.992	99.647	18.465	120.812	0.497
817.500	491.751	79.983	19.991	99.738	19.029	80.185	0.507
825.000	495.651	79.987	19.992	99.836	19.459	49.203	0.490
832.500	499.542	79.985	19.992	99.904	19.749	28.322	0.515
840.000	503.316	79.984	19.993	99.950	19.915	16.361	0.457
847.500	507.202	79.984	19.992	99.973	19.991	10.842	0.478
855.000	511.046	79.984	19.993	99.987	20.017	8.962	0.519
862.500	514.916	79.982	19.993	99.989	20.028	8.200	0.502
870.000	518.744	79.984	19.993	99.991	20.030	8.025	0.510
877.500	522.615	79.984	19.992	99.988	20.028	8.186	0.525
885.000	526.453	79.984	19.993	99.989	20.028	8.145	0.482
892.500	530.329	79.984	19.993	99.984	20.033	7.783	0.493
900.000	534.213	79.985	19.991	99.980	20.035	7.652	0.534
907.500	538.107	79.984	19.992	99.981	20.035	7.660	0.518
915.000	541.954	79.984	19.991	99.988	20.034	7.743	0.512
922.500	545.754	79.983	19.991	99.986	20.034	7.763	0.502
930.000	549.568	79.983	19.992	99.989	20.037	7.503	0.486
937.500	553.353	79.983	19.993	99.987	20.032	7.859	0.511
945.000	557.165	79.983	19.994	99.990	20.038	7.431	0.510
952.500	560.973	79.983	19.994	99.982	20.039	7.409	0.534
960.000	564.770	79.986	19.992	99.981	20.035	7.644	0.520
967.500	568.570	79.983	19.994	99.975	20.034	7.767	0.507
975.000	572.344	79.984	19.993	99.978	20.032	7.862	0.486
982.500	576.226	79.986	19.992	99.976	20.036	7.615	0.474
990.000	580.032	79.984	19.993	99.970	20.038	7.420	0.469
997.500	583.920	79.984	19.993	99.987	20.039	7.404	0.516
1005.000	587.740	79.982	19.993	99.989	20.036	7.620	0.483
1012.500	591.586	79.983	19.991	99.986	20.038	7.435	0.501
1020.000	595.427	79.982	19.992	99.988	20.038	7.421	0.516
1027.501	599.250	79.981	19.993	99.981	20.035	7.687	0.523
1035.001	603.066	79.985	19.993	99.982	20.033	7.809	0.523
1042.501	606.842	79.983	19.992	99.982	20.038	7.462	0.481
1050.000	610.613	79.983	19.993	99.974	20.036	7.596	0.483
1057.500	614.481	79.986	19.993	99.976	20.036	7.617	0.511
1065.000	618.284	79.987	19.993	99.982	20.038	7.415	0.520
1072.500	622.111	79.986	19.992	99.982	20.041	7.226	0.516
1080.001	625.941	79.983	19.992	99.970	20.039	7.394	0.513
1087.500	629.820	79.984	19.992	99.986	20.040	7.270	0.518
1095.000	633.675	79.984	19.992	99.973	20.034	7.702	0.544
1102.500	637.528	79.985	19.992	99.969	20.037	7.515	0.501
1110.000	641.388	79.984	19.993	99.986	20.038	7.440	0.531
1117.500	645.195	79.985	19.992	99.979	20.039	7.401	0.488
1125.000	649.007	79.983	19.993	99.972	20.037	7.549	0.497
1132.500	652.825	79.982	19.993	99.964	20.039	7.393	0.506
1140.001	656.629	79.984	19.993	99.978	20.040	7.307	0.535
1147.500	660.450	79.985	19.993	99.983	20.039	7.341	0.527
1155.001	664.234	79.985	19.993	99.963	20.041	7.267	0.506
1162.501	667.996	79.985	19.992	99.978	20.042	7.188	0.510
1170.000	671.886	79.987	19.993	99.977	20.043	7.080	0.522
1177.500	675.724	79.983	19.993	99.962	20.042	7.155	0.538
1185.001	679.481	79.983	19.992	99.958	20.037	7.496	0.467
1192.500	683.251	79.985	19.991	99.983	20.040	7.274	0.478
1200.001	687.042	79.988	19.992	99.965	20.040	7.284	0.534
1207.500	690.756	79.985	19.992	99.989	20.041	7.207	0.523
1215.000	694.507	79.987	19.993	99.971	20.040	7.272	0.516
1222.500	698.345	79.990	19.992	99.970	20.041	7.205	0.541
1230.001	702.121	79.984	19.993	99.974	20.039	7.409	0.509
1237.500	705.931	79.983	19.993	99.969	20.037	7.487	0.513
1245.000	709.670	79.984	19.992	99.980	20.041	7.237	0.489
1252.500	713.410	79.984	19.992	99.965	20.042	7.171	0.495
1260.000	717.350	79.981	19.992	99.969	20.038	7.435	0.554
1267.500	721.179	79.984	19.993	99.966	20.039	7.370	0.504
1275.000	725.003	79.984	19.992	99.963	20.039	7.348	0.503
1282.500	728.837	79.985	19.992	99.963	20.036	7.564	0.518
1290.000	732.661	79.985	19.993	99.951	20.041	7.239	0.530
1297.500	736.503	79.987	19.992	99.958	20.038	7.452	0.540
1305.000	740.360	79.984	19.992	99.970	20.036	7.583	0.542
1311.501	743.694	79.983	19.992	100.020	20.038	7.450	0.525