File: 01_Data/Composite_Deck_Board/MCC/Composite_Deck_Board_30K_min_210609_R2.txt
Sample ID:	C:\MCC\MCC Cal\Test\TREX_Board\TREX_Board_30_2.txt
Sample Weight (mg):	4.81
Heating Rate (C/s):	0.5
Combustor Temp (C):	900
N2 Flow Rate (cc/min):	80
O2 Flow Rate (cc/min):	20
Calibration File:	C:\MCC\MCC Cal\Coeff1 JN10440_30_210304.txt.txt
T Correction Coefficients:	0	1.024463	0
Time Shift (s):	14
*
Time (s)	Temperature (C)	N2 flow rate (cc/min)	O2 flow rate (cc/min)	Flow Rate (cc/min)	Oxygen (%)	HRR (W/g)	Heating rate (C/s)
-0.001	112.872	79.983	19.992	99.872	20.127	-0.127	0.003
7.500	112.819	79.981	19.992	99.874	20.127	-0.150	0.010
15.000	112.775	79.982	19.992	99.889	20.121	0.218	0.004
22.500	112.861	79.985	19.992	99.930	20.109	1.004	0.026
30.000	113.193	79.983	19.992	100.001	20.102	1.485	0.050
37.499	113.842	79.985	19.992	100.012	20.098	1.750	0.103
44.999	114.798	79.985	19.992	100.055	20.094	1.997	0.126
52.500	116.118	79.982	19.993	100.079	20.085	2.552	0.188
59.999	117.851	79.984	19.993	100.107	20.080	2.916	0.257
67.501	119.972	79.983	19.993	100.111	20.078	3.004	0.295
74.999	122.415	79.983	19.993	100.111	20.078	3.055	0.343
82.500	125.119	79.982	19.993	100.111	20.076	3.186	0.365
89.999	128.034	79.981	19.992	100.111	20.077	3.131	0.406
97.499	131.133	79.985	19.992	100.104	20.074	3.291	0.426
104.999	134.341	79.984	19.991	100.130	20.077	3.099	0.443
112.499	137.696	79.984	19.993	100.120	20.074	3.300	0.455
119.999	141.155	79.986	19.992	100.132	20.078	3.021	0.461
127.500	144.805	79.984	19.992	100.109	20.075	3.198	0.475
135.000	148.455	79.984	19.993	100.116	20.073	3.330	0.530
142.500	152.125	79.983	19.993	100.110	20.070	3.562	0.511
150.001	155.793	79.983	19.993	100.109	20.074	3.317	0.509
157.500	159.528	79.981	19.994	100.110	20.074	3.299	0.497
165.000	163.359	79.980	19.992	100.103	20.074	3.275	0.546
172.500	167.156	79.983	19.993	100.103	20.076	3.151	0.531
180.000	170.945	79.984	19.993	100.101	20.079	2.998	0.524
187.499	174.731	79.982	19.992	100.097	20.076	3.177	0.514
194.999	178.400	79.985	19.993	100.090	20.075	3.200	0.487
202.500	182.108	79.985	19.991	100.071	20.077	3.075	0.473
209.999	185.837	79.982	19.992	100.075	20.074	3.288	0.523
217.499	189.510	79.984	19.992	100.072	20.076	3.149	0.484
225.000	193.214	79.982	19.992	100.072	20.075	3.198	0.510
232.500	196.812	79.982	19.993	100.067	20.073	3.360	0.462
239.999	200.494	79.980	19.993	100.068	20.072	3.441	0.477
247.499	204.117	79.980	19.993	100.066	20.067	3.778	0.505
255.000	207.773	79.984	19.992	100.066	20.064	3.933	0.520
262.500	211.453	79.985	19.992	100.070	20.060	4.194	0.522
270.000	215.050	79.985	19.992	100.069	20.059	4.252	0.479
277.500	218.789	79.984	19.992	100.072	20.055	4.529	0.480
285.000	222.412	79.984	19.991	100.077	20.049	4.885	0.474
292.500	226.186	79.983	19.990	100.074	20.045	5.163	0.487
300.000	230.029	79.982	19.992	100.067	20.039	5.538	0.487
307.500	233.800	79.984	19.993	100.067	20.035	5.853	0.539
315.000	237.516	79.982	19.993	100.068	20.026	6.400	0.486
322.500	241.302	79.981	19.993	100.070	20.011	7.397	0.523
330.000	245.020	79.983	19.993	100.070	20.005	7.790	0.482
337.500	248.727	79.984	19.993	100.075	19.989	8.839	0.492
345.000	252.518	79.983	19.992	100.077	19.972	9.936	0.491
352.500	256.290	79.983	19.992	100.107	19.955	11.033	0.489
360.000	260.017	79.987	19.993	100.086	19.933	12.449	0.481
367.500	263.729	79.983	19.992	100.104	19.915	13.632	0.499
375.000	267.446	79.983	19.993	100.107	19.891	15.162	0.511
382.500	271.253	79.984	19.992	100.107	19.872	16.430	0.514
390.000	274.950	79.983	19.993	100.110	19.850	17.831	0.479
397.500	278.749	79.981	19.992	100.109	19.830	19.120	0.488
405.000	282.479	79.982	19.992	100.111	19.811	20.351	0.477
412.500	286.228	79.984	19.993	100.112	19.804	20.821	0.491
420.000	289.951	79.984	19.993	100.108	19.796	21.370	0.501
427.500	293.767	79.983	19.994	100.110	19.782	22.266	0.505
435.000	297.516	79.985	19.992	100.074	19.773	22.847	0.525
442.500	301.249	79.986	19.991	100.106	19.767	23.207	0.483
450.000	305.007	79.982	19.992	100.105	19.759	23.719	0.549
457.500	308.753	79.982	19.993	100.109	19.752	24.199	0.507
465.000	312.546	79.983	19.993	100.116	19.743	24.776	0.516
472.500	316.340	79.982	19.990	100.110	19.729	25.671	0.498
480.000	320.077	79.981	19.993	100.116	19.713	26.734	0.494
487.500	323.800	79.983	19.994	100.128	19.695	27.895	0.489
495.000	327.561	79.985	19.992	100.117	19.678	29.009	0.511
502.500	331.341	79.983	19.992	100.143	19.648	30.975	0.502
510.000	335.178	79.983	19.993	100.146	19.614	33.161	0.493
517.500	338.975	79.985	19.993	100.153	19.579	35.458	0.499
525.000	342.764	79.985	19.992	100.182	19.538	38.102	0.482
532.500	346.621	79.982	19.992	100.190	19.494	40.984	0.525
540.000	350.464	79.982	19.992	100.199	19.455	43.544	0.503
547.500	354.333	79.983	19.992	100.194	19.427	45.344	0.489
555.000	358.154	79.983	19.991	100.186	19.411	46.378	0.511
562.500	362.001	79.982	19.992	100.144	19.430	45.142	0.527
570.000	365.846	79.984	19.992	100.145	19.476	42.133	0.538
577.500	369.678	79.984	19.993	100.070	19.556	36.886	0.536
585.000	373.473	79.982	19.992	100.066	19.657	30.351	0.498
592.500	377.309	79.984	19.993	100.030	19.761	23.576	0.501
600.000	381.065	79.984	19.993	100.004	19.848	17.927	0.478
607.500	384.795	79.981	19.992	99.996	19.911	13.877	0.466
615.000	388.528	79.983	19.993	99.989	19.963	10.498	0.474
622.500	392.125	79.983	19.992	99.990	19.983	9.199	0.465
630.000	395.652	79.983	19.992	99.985	19.981	9.345	0.202
637.500	399.751	79.983	19.993	99.989	19.975	9.714	0.331
645.000	403.503	79.984	19.992	99.971	19.963	10.463	0.533
652.500	407.200	79.984	19.992	99.979	19.951	11.275	0.516
660.000	410.862	79.983	19.993	99.972	19.932	12.497	0.469
667.500	414.485	79.983	19.992	99.959	19.900	14.587	0.467
675.000	418.170	79.985	19.992	99.963	19.856	17.451	0.459
682.500	421.836	79.984	19.993	99.948	19.808	20.533	0.449
690.000	425.550	79.982	19.993	99.946	19.735	25.243	0.486
697.500	429.217	79.982	19.993	99.950	19.653	30.597	0.503
705.000	432.905	79.982	19.991	99.940	19.540	37.874	0.513
712.500	436.708	79.982	19.992	99.930	19.410	46.351	0.538
720.000	440.531	79.981	19.992	99.914	19.246	56.946	0.508
727.500	444.384	79.983	19.993	99.904	19.042	70.087	0.478
735.000	448.283	79.985	19.992	99.863	18.799	85.831	0.515
742.500	452.257	79.984	19.993	99.828	18.519	103.903	0.504
750.000	456.213	79.983	19.992	99.799	18.198	124.643	0.529
757.500	460.201	79.986	19.992	99.739	17.842	147.571	0.530
765.000	464.066	79.983	19.992	99.698	17.492	170.076	0.513
772.500	467.963	79.982	19.993	99.631	17.175	190.476	0.529
780.000	471.808	79.981	19.992	99.561	16.958	204.352	0.526
787.500	475.714	79.983	19.991	99.520	16.918	207.033	0.498
795.000	479.530	79.981	19.991	99.452	17.123	193.763	0.492
802.500	483.416	79.982	19.992	99.493	17.596	163.386	0.506
810.000	487.208	79.985	19.992	99.565	18.220	123.173	0.485
817.500	491.022	79.985	19.992	99.673	18.846	82.808	0.497
825.000	494.839	79.984	19.992	99.769	19.352	50.070	0.488
832.500	498.664	79.985	19.992	99.854	19.699	27.600	0.522
840.000	502.396	79.984	19.992	99.911	19.906	14.174	0.453
847.500	506.250	79.981	19.993	99.930	20.009	7.489	0.501
855.000	510.046	79.981	19.994	99.953	20.055	4.498	0.516
862.500	513.833	79.981	19.993	99.951	20.070	3.576	0.552
870.000	517.638	79.981	19.993	99.947	20.072	3.421	0.476
877.500	521.442	79.982	19.992	99.951	20.079	2.990	0.529
885.000	525.303	79.983	19.992	99.950	20.081	2.863	0.532
892.500	529.074	79.984	19.992	99.949	20.084	2.670	0.510
900.000	532.931	79.984	19.992	99.954	20.086	2.533	0.528
907.500	536.799	79.985	19.991	99.950	20.089	2.320	0.520
915.000	540.625	79.984	19.992	99.953	20.085	2.564	0.503
922.500	544.441	79.983	19.992	99.952	20.086	2.478	0.499
930.000	548.276	79.982	19.993	99.950	20.090	2.233	0.496
937.501	552.167	79.982	19.992	99.953	20.091	2.214	0.535
945.000	556.009	79.982	19.994	99.949	20.090	2.219	0.489
952.500	559.849	79.981	19.993	99.947	20.085	2.603	0.518
960.000	563.621	79.984	19.993	99.953	20.092	2.117	0.475
967.500	567.343	79.985	19.992	99.953	20.086	2.483	0.448
975.000	571.165	79.984	19.992	99.953	20.094	2.013	0.474
982.500	575.094	79.984	19.991	99.952	20.089	2.335	0.534
990.000	578.927	79.986	19.991	99.950	20.090	2.219	0.501
997.500	582.755	79.984	19.992	99.949	20.093	2.036	0.514
1005.000	586.550	79.982	19.993	99.950	20.096	1.841	0.508
1012.500	590.375	79.983	19.993	99.950	20.090	2.225	0.504
1020.000	594.218	79.982	19.992	99.952	20.095	1.943	0.534
1027.499	598.072	79.982	19.993	99.954	20.093	2.079	0.518
1035.000	601.899	79.981	19.993	99.952	20.094	2.019	0.509
1042.499	605.756	79.983	19.992	99.952	20.096	1.844	0.511
1049.999	609.633	79.983	19.992	99.954	20.098	1.730	0.505
1057.499	613.491	79.983	19.991	99.950	20.094	2.020	0.541
1064.999	617.423	79.984	19.992	99.949	20.096	1.844	0.517
1072.499	621.348	79.984	19.992	99.944	20.099	1.688	0.530
1079.999	625.207	79.983	19.992	99.952	20.097	1.820	0.542
1087.499	629.075	79.982	19.993	99.957	20.099	1.647	0.536
1095.000	632.918	79.983	19.994	99.949	20.097	1.770	0.552
1102.499	636.765	79.981	19.992	99.953	20.098	1.725	0.508
1109.999	640.539	79.983	19.993	99.954	20.103	1.404	0.482
1117.499	644.203	79.983	19.994	99.945	20.102	1.487	0.471
1124.999	647.998	79.984	19.992	99.947	20.102	1.496	0.494
1132.499	651.714	79.983	19.992	99.948	20.100	1.626	0.475
1140.000	655.545	79.984	19.991	99.948	20.100	1.609	0.527
1147.500	659.324	79.986	19.992	99.950	20.105	1.302	0.506
1154.999	663.194	79.981	19.992	99.948	20.109	1.019	0.480
1162.499	667.071	79.984	19.992	99.951	20.103	1.390	0.523
1169.999	670.848	79.983	19.992	99.954	20.109	1.047	0.480
1177.499	674.734	79.983	19.994	99.936	20.104	1.320	0.531
1184.999	678.480	79.983	19.993	99.948	20.102	1.487	0.467
1192.499	682.242	79.983	19.993	99.944	20.103	1.401	0.498
1199.999	686.064	79.984	19.993	99.936	20.103	1.432	0.501
1207.499	689.828	79.983	19.993	99.949	20.101	1.563	0.499
1214.999	693.621	79.985	19.992	99.941	20.106	1.197	0.516
1222.499	697.305	79.986	19.992	99.948	20.102	1.448	0.470
1229.999	701.069	79.985	19.992	99.951	20.105	1.286	0.517
1237.500	704.756	79.982	19.992	99.942	20.105	1.265	0.473
1244.999	708.549	79.984	19.991	99.948	20.106	1.209	0.513
1252.500	712.270	79.984	19.992	99.943	20.103	1.394	0.484
1259.999	716.129	79.983	19.993	99.946	20.105	1.299	0.510
1267.500	719.893	79.981	19.993	99.950	20.106	1.207	0.516
1275.000	723.692	79.983	19.992	99.941	20.105	1.302	0.503
1282.499	727.489	79.982	19.993	99.951	20.105	1.302	0.524
1289.999	731.261	79.983	19.993	99.950	20.107	1.176	0.507
1297.499	735.043	79.984	19.992	99.948	20.103	1.436	0.520
1304.999	738.787	79.986	19.992	99.947	20.103	1.436	0.478
1312.499	742.537	79.982	19.993	99.948	20.101	1.533	0.506
1314.499	743.558	79.983	19.993	99.949	20.102	1.447	0.483