File: 01_Data/Cotton_Sheet/HFM/Cotton_Sheet_Density_Dry_R1.csv
,Cotton_Sheet_DRY_1
Sample Mass [g],4.5
Sample Volume [cm3],8.1
Sample Density [kg/m3],562