File: 01_Data/Cotton_Sheet/HFM/Cotton_Sheet_Density_Wet_R2.csv
,Cotton_Sheet_WET_2
Sample Mass [g],4.6
Sample Volume [cm3],7.9
Sample Density [kg/m3],585