File: 01_Data/Cotton_Sheet/HFM/Cotton_Sheet_Density_Wet_R3.csv
,Cotton_Sheet_WET_3
Sample Mass [g],4.8
Sample Volume [cm3],8.1
Sample Density [kg/m3],587