File: 01_Data/Cotton_Sheet/HFM/Cotton_Sheet_Density_Dry_R2.csv
,Cotton_Sheet_DRY_2
Sample Mass [g],4.4
Sample Volume [cm3],7.9
Sample Density [kg/m3],561