File: 01_Data/Cotton_Sheet/HFM/Cotton_Sheet_Density_Wet_R1.csv
,Cotton_Sheet_WET_1
Sample Mass [g],4.7
Sample Volume [cm3],8.1
Sample Density [kg/m3],478