File: 01_Data/Cotton_Sheet/HFM/Cotton_Sheet_Density_Dry_R3.csv
,Cotton_Sheet_DRY_3
Sample Mass [g],4.6
Sample Volume [cm3],8.1
Sample Density [kg/m3],562