File: 01_Data/House_Wrap/Cone/House_Wrap_Cone_HF25Scan_220401_R3.csv
Names,Time,Stack TC,Smoke TC,Exh Press,Smoke Comp,Smoke Meas,CO Meter,CO2 Meter,O2 Meter,Sample Mass,Ext Coeff,Start Test,Flame Verif
Chan Gain,,500,500,1,1,1,1,1,1,1,1,1.0,1.0
Offset,,0,0,0.133521,0,0,0,0,0,0,0,0.0,0.0
Gain,,1,1,25.011,13.1585,13.8929,1,1,1,1.00096,1.01488,1.0,1.0
Units,sec,C,C,Pa,%,%,%,%,%,g,/m,,
Baseline,,19.9892,20.8262,151.71,99.1432,98.0351,0.000754215,0.0664036,21.0266,-834.347,0.100131,,
31,7.5,18.3864,19.9326,151.914,97.7733,95.8145,0.000622755,0.0657851,21.0314,185.188,0.180162,0.0,0.0
62,15.25,19.0171,19.3816,153.662,97.8363,95.8887,0.000774055,0.0665114,21.0276,185.168,0.179009,0.0,0.0
93,23,19.0919,20.4126,150.825,98.5828,97.4532,0.000800396,0.0695976,21.022,185.158,0.102601,0.0,0.0
124,30.75,19.5739,20.0278,148.11,99.0587,97.5431,0.00061406,0.0698071,21.0206,185.148,0.137263,0.0,0.0
155,38.5,19.3854,19.8773,152.443,98.978,97.1255,0.00052551,0.0691539,21.0201,185.158,0.168202,0.0,0.0
186,46.25,18.5999,20.243,155.783,98.9804,97.3256,0.000722424,0.0697058,21.0198,185.178,0.150096,0.0,0.0
217,54,19.0497,20.0231,154.024,99.5273,98.0574,0.000826904,0.0688262,21.0232,185.148,0.132465,0.0,0.0
248,61.75,19.5782,20.1915,149.935,99.1711,97.4735,0.000642195,0.0676759,21.0231,185.138,0.153711,0.0,0.0
279,69.5,19.1909,20.0822,152.652,99.7353,97.3536,0.000570821,0.0671393,21.0236,185.148,0.21518,0.0,0.0
310,77.25,18.8963,20.1671,151.692,99.4081,97.7237,0.000740561,0.0661463,21.026,185.168,0.152136,0.0,0.0
341,85,19.2461,20.0006,156.418,98.3102,96.1757,0.000697878,0.0658663,21.0268,185.168,0.195413,0.0,0.0
372,92.75,19.3352,20.1824,152.989,97.7018,95.8149,0.00075909,0.0656996,21.0286,185.148,0.173612,0.0,0.0
403,100.5,19.5453,20.2102,153.937,98.3009,96.138,0.000229733,0.0658872,21.0276,185.128,0.19807,0.0,0.0
434,108.25,20.0465,20.2241,146.296,99.025,96.919,0.000599532,0.065364,21.0291,185.148,0.191373,0.0,0.0
465,116,19.734,20.5959,151.927,98.943,96.7583,0.000735128,0.0643026,21.0345,185.158,0.198778,0.0,0.0
496,123.75,19.9563,20.3646,149.47,98.9206,96.7926,0.000769671,0.064075,21.035,185.148,0.193595,0.0,0.0
527,131.5,20.0227,20.8147,157.328,99.5153,97.1318,0.000495714,0.0648127,21.0335,185.138,0.215815,0.0,0.0
558,139.25,19.5464,20.8698,151.534,99.1105,96.8253,0.000669038,0.0654826,21.0312,185.118,0.20767,0.0,0.0
589,147,20.2473,20.4476,151.882,99.7044,96.8605,0.000506229,0.0669519,21.0261,185.118,0.257624,0.0,0.0
620,154.75,19.8994,20.6506,149.229,99.445,97.1301,0.000517413,0.0671073,21.0269,185.118,0.209682,0.0,0.0
651,162.5,19.8102,20.6858,154.143,98.2744,95.1497,0.000489433,0.0668914,21.0269,185.128,0.28766,0.0,0.0
682,170.25,20.0419,21.1221,151.477,97.7472,95.2833,0.000498672,0.0675362,21.0248,185.108,0.227282,0.0,0.0
713,178,19.9729,20.6679,152.337,98.3419,95.7581,0.000510629,0.0677289,21.0237,185.138,0.237026,0.0,0.0
744,185.75,19.9525,21.098,152.024,99.0009,96.2012,0.000535306,0.0673636,21.0251,185.108,0.255385,0.0,0.0
775,193.5,19.9077,21.1276,151.556,98.9808,96.4564,0.000695341,0.0668542,21.0252,185.098,0.229992,0.0,0.0
806,201.25,20.0008,20.7398,154.048,98.7218,96.2406,0.000502817,0.0671165,21.0252,185.108,0.226605,0.0,0.0
837,209,19.8978,21.0645,153.212,99.2667,96.8626,0.000585871,0.0671989,21.0265,185.098,0.218262,0.0,0.0
868,216.75,19.8336,21.1642,148.785,99.5052,96.9499,0.000630757,0.0675728,21.0239,185.098,0.231603,0.0,0.0
899,224.5,19.6193,20.9243,153.657,99.0029,96.3178,0.000529712,0.0676805,21.0234,185.088,0.244782,0.0,0.0
930,232.25,20.0101,20.9417,153.179,99.3575,96.8109,0.000221725,0.0672385,21.0261,185.088,0.231151,0.0,0.0
961,240,19.9155,21.0581,155.814,99.712,97.2374,0.000558176,0.0668915,21.027,185.078,0.22373,0.0,0.0
992,247.75,20.3084,20.8075,151.434,99.7233,97.3264,0.000292287,0.066627,21.029,185.078,0.216586,0.0,0.0
1023,255.5,19.9947,20.6715,149.425,99.345,96.7401,0.000411987,0.0666046,21.0274,185.078,0.236549,0.0,0.0
1054,263.25,20.3688,21.4336,152.376,98.7909,96.3097,0.000265871,0.0665251,21.027,185.078,0.226441,0.0,0.0
1085,271,20.1816,20.9447,149.1,98.2234,96.0413,0.000337274,0.0664755,21.0264,185.078,0.200005,0.0,0.0
1116,278.75,20.2534,20.4446,153.552,97.8432,95.2332,0.000378999,0.0666356,21.0278,185.068,0.240694,0.0,0.0
1147,286.5,20.0423,20.6341,153.196,97.7946,95.2591,0.000510493,0.0670982,21.0257,185.078,0.233855,0.0,0.0
1178,294.25,19.9431,21.0674,150.418,97.9672,95.2477,0.000597405,0.0671997,21.0255,185.068,0.250629,0.0,0.0
1209,302,19.7581,20.7779,152.316,98.303,96.0061,0.000474021,0.0669558,21.0277,185.058,0.210471,0.0,0.0
1240,309.75,20.5448,21.1136,154.856,98.6692,96.0295,0.000468206,0.0672514,21.0268,185.058,0.241413,0.0,0.0
1271,317.5,20.3755,21.3508,158.181,98.9435,96.7049,0.000418022,0.0674306,21.0255,185.068,0.20373,0.0,0.0
1302,325.25,19.8385,21.1918,154.208,99.0744,96.4454,0.000742623,0.0667987,21.0234,185.058,0.23942,0.0,0.0
1333,333,20.1803,20.8858,153.32,99.0956,96.9105,0.00024446,0.0667176,21.0244,185.058,0.198504,0.0,0.0
1364,340.75,20.0233,21.3735,149.779,99.0286,96.3848,0.000352628,0.0667641,21.0245,185.058,0.240904,0.0,0.0
1395,348.5,20.1901,20.9639,149.954,98.9234,96.8092,0.00057953,0.0666303,21.0267,185.058,0.192328,0.0,0.0
1426,356.25,20.2097,20.9455,148.845,98.8129,96.5209,0.000414293,0.0662576,21.0262,185.068,0.208936,0.0,0.0
1457,364,20.4474,20.4671,148.537,98.7182,95.8522,0.000647606,0.0658133,21.0279,185.058,0.262277,0.0,0.0
1488,371.75,19.8811,21.1889,153.959,98.6515,96.2169,0.000424324,0.0658009,21.0316,185.048,0.222462,0.0,0.0
1519,379.5,20.4692,20.8576,150.551,98.8519,96.1872,0.000594779,0.0654682,21.0323,185.038,0.243273,0.0,0.0
1550,387.25,19.7955,20.7151,154.204,99.2081,97.0229,0.000444308,0.0656544,21.0322,185.038,0.198284,0.0,0.0
1581,395,20.1779,20.8637,152.852,99.3968,97.1924,0.000556266,0.0656882,21.0293,185.028,0.199656,0.0,0.0
1612,402.75,20.2728,20.8812,150.379,99.4823,96.7193,0.000930408,0.0661603,21.0292,185.038,0.250759,0.0,0.0
1643,410.5,20.1187,20.5391,152.732,99.4635,97.323,0.000629632,0.0676019,21.0282,185.058,0.193672,0.0,0.0
1674,418.25,20.456,20.8778,154.614,99.4972,97.3124,0.000515756,0.0668651,21.025,185.048,0.19766,0.0,0.0
1705,426,19.937,20.6957,157.971,99.5084,96.9737,0.000336519,0.0672248,21.0243,185.038,0.229711,0.0,0.0
1736,433.75,20.2486,20.7645,153.896,99.5201,97.0411,0.000460335,0.0670486,21.026,185.018,0.224566,0.0,0.0
1767,441.5,19.7432,20.8738,151.972,99.5181,97.2709,0.00040624,0.0665719,21.0309,185.028,0.20333,0.0,0.0
1798,449.25,19.9196,20.8179,152.314,99.5153,96.3843,0.000353184,0.0663352,21.0325,185.018,0.284589,0.0,0.0
1829,457,20.3164,20.77,153.05,99.5028,97.2688,0.000582581,0.0668244,21.0289,185.018,0.20216,0.0,0.0
1860,464.75,19.7481,21.1122,150.206,99.492,97.0653,0.000582204,0.0670564,21.0286,185.008,0.219833,0.0,0.0
1891,472.5,20.2346,21.1085,155.342,99.4852,97.2565,0.000565979,0.0677799,21.0265,185.028,0.201703,0.0,0.0
1922,480.25,19.9376,21.1818,146.476,99.4944,97.2815,0.000580579,0.0683141,21.0266,185.018,0.20024,0.0,0.0
1953,488,20.4918,21.2381,148.3,99.4767,96.6502,0.000380619,0.0674706,21.0301,185.018,0.25662,0.0,0.0
1984,495.75,19.8403,21.0936,154.181,99.453,97.4545,0.000510156,0.0672181,21.0307,185.028,0.180722,0.0,0.0
2015,503.5,20.0545,20.5295,154.838,99.4253,96.6807,0.000429347,0.0670264,21.0296,185.018,0.249207,0.0,0.0
2046,511.25,20.8118,21.3471,153.074,99.394,97.0127,0.000623646,0.0668056,21.0285,184.998,0.215886,0.0,0.0
2077,519,20.0864,20.9937,150.482,99.3285,96.8859,0.000599777,0.0666796,21.0259,184.998,0.221662,0.0,0.0
2108,526.75,20.3599,21.1882,149.167,99.2587,97.0199,0.000449399,0.0671292,21.0261,185.008,0.203095,0.0,0.0
2139,534.5,20.1402,20.8306,156.106,99.1462,96.8465,0.000353917,0.0670206,21.0262,184.988,0.208932,0.0,0.0
2170,542.25,20.5313,21.3003,149.458,99.0687,96.3042,0.000651021,0.0670443,21.0262,184.988,0.251957,0.0,0.0
2201,550,20.6545,20.5923,148.427,98.929,96.5285,0.000512432,0.0673333,21.0241,184.988,0.218681,0.0,0.0
2232,557.75,20.0664,20.6233,150.419,98.7997,96.7634,0.000661175,0.0679893,21.0258,184.998,0.185402,0.0,0.0
2263,565.5,20.3858,20.9274,150.771,98.6527,96.7159,0.000378436,0.0687786,21.0261,184.988,0.176518,0.0,0.0
2294,573.25,20.1926,21.1437,154.007,98.6628,95.8654,0.000421809,0.0685132,21.0238,184.988,0.256058,0.0,0.0
2325,581,20.4619,21.6373,149.127,98.6828,96.4331,0.000663539,0.0689228,21.026,184.978,0.205305,0.0,0.0
2356,588.75,20.2316,21.0524,152.628,98.684,96.4853,0.000399471,0.0706064,21.0239,184.978,0.200599,0.0,0.0
2387,596.5,19.9744,21.0881,153.849,98.7254,96.0579,0.000354412,0.0697718,21.0252,184.968,0.243851,0.0,0.0
2418,604.25,19.4442,20.7051,156.843,98.7535,96.3394,0.000426083,0.0685738,21.0239,184.968,0.220332,0.0,0.0
2449,612,19.807,20.4108,150.682,98.7997,96.6472,0.000469531,0.0679018,21.0243,184.988,0.196096,0.0,0.0
2480,619.75,20.0141,20.6785,149.337,98.8463,96.2512,0.000529071,0.0687458,21.025,184.968,0.236843,0.0,0.0
2511,627.5,19.7799,20.5567,156.109,98.8844,96.5976,0.000430825,0.0684218,21.0241,184.968,0.208297,0.0,0.0
2542,635.25,19.9178,20.6353,153.684,98.9214,96.7206,9.6224e-05,0.0678659,21.0259,184.968,0.200299,0.0,0.0
2573,643,19.8139,20.4344,153.619,98.9475,96.0341,0.000210104,0.0680338,21.0264,184.968,0.266053,0.0,0.0
2604,650.75,19.6618,21.0468,152.536,98.9872,96.6213,0.000672467,0.0678605,21.026,184.958,0.215361,0.0,0.0
2635,658.5,20.1624,20.9798,152.132,99.0298,96.3886,0.000599299,0.0674033,21.028,184.958,0.24066,0.0,0.0
2666,666.25,19.689,20.61,149.572,99.0667,97.2052,0.000449148,0.0674924,21.0281,184.958,0.168878,0.0,0.0
2697,674,20.2971,20.8325,150.267,99.0812,96.4297,0.000374444,0.0675518,21.0256,184.968,0.241482,0.0,0.0
2728,681.75,20.0451,20.8854,150.537,99.1205,96.4772,0.000479165,0.0672829,21.0285,184.958,0.240634,0.0,0.0
2759,689.5,19.6639,21.0277,152.601,99.1121,96.7435,0.000639709,0.0674526,21.0286,184.958,0.215341,0.0,0.0
2790,697.25,20.0127,20.5331,149.654,99.1049,96.8244,0.000603998,0.0675601,21.0266,184.948,0.207243,0.0,0.0
2821,705,19.8023,20.5942,154.162,99.0663,96.5891,0.000803792,0.0673937,21.0261,184.958,0.225441,0.0,0.0
2852,712.75,19.3372,20.2687,150.434,98.9952,96.6998,,0.0677643,,184.948,0.208858,0.0,0.0
2883,720.5,19.5139,20.7778,150.273,98.882,96.7549,,,,184.938,0.193597,0.0,0.0
2885,721,19.6252,20.9132,151.75,98.8856,96.5535,,,,184.948,0.21247,0.0,0.0