File: 01_Data/House_Wrap/Cone/House_Wrap_Cone_HF50Scan_220308_R1.csv
Names,Time,Stack TC,Smoke TC,Exh Press,Smoke Comp,Smoke Meas,CO Meter,CO2 Meter,O2 Meter,Sample Mass,Ext Coeff,Start Test,Flame Verif
Chan Gain,,500,500,1,1,1,1,1,1,1,1,1.0,1.0
Offset,,0,0,0.134161,0,0,0,0,0,0,0,0.0,0.0
Gain,,1,1,25.011,15.9695,16.7489,1,1,1,1.00099,1.01863,1.0,1.0
Units,sec,C,C,Pa,%,%,%,%,%,g,/m,,
Baseline,,29.6238,30.9675,150.327,117.851,114.403,0.00115011,0.0583555,21.0097,-834.856,0.265399,,
30,7.25,28.2857,29.7896,151.417,117.611,113.511,0.00145014,0.0616161,21.0052,177.857,0.317086,0.0,0.0
60,14.75,28.6556,30.105,148.895,117.667,112.014,0.001679,0.0591453,21.0068,177.837,0.439937,0.0,0.0
90,22.25,29.3335,30.1632,150.887,117.779,112.671,0.00220938,0.0638294,20.9992,177.787,0.396167,0.0,0.0
120,29.75,28.7642,30.3475,151.383,117.869,113.139,0.00212268,0.0629105,21.0021,177.777,0.365991,0.0,0.0
150,37.25,29.1354,30.3348,148.833,117.976,113.856,0.00205208,0.0616932,21.0048,177.767,0.317618,0.0,0.0
180,44.75,29.2232,30.3714,151.737,118.026,114.156,0.00198948,0.0592439,21.0087,177.737,0.297865,0.0,0.0
210,52.25,29.3386,30.5604,151.354,118.03,114.501,0.00137905,0.0582741,21.0105,177.717,0.271235,0.0,0.0
240,59.75,29.4825,30.4309,149.229,118.044,114.203,0.00130765,0.058119,21.0098,177.707,0.295628,0.0,0.0
270,67.25,28.8843,30.2713,151.924,118.046,113.579,0.00151552,0.0581199,21.009,177.707,0.344702,0.0,0.0
300,74.75,29.509,30.9814,150.898,118.071,114.909,0.00135093,0.0579491,21.009,177.697,0.242597,0.0,0.0
330,82.25,29.9317,31.123,148.282,118.096,114.599,0.0013609,0.0574211,21.0109,177.667,0.268597,0.0,0.0
360,89.75,30.0995,31.0985,149.67,118.105,114.898,0.00118879,0.0575782,21.0106,177.646,0.245973,0.0,0.0
390,97.25,30.2472,30.7625,154.643,118.166,114.084,0.00109145,0.0577392,21.0092,177.646,0.314128,0.0,0.0
420,104.75,30.3663,31.3546,150.701,118.171,114.684,0.000889789,0.0578341,21.0092,177.636,0.26766,0.0,0.0
450,112.25,30.1978,31.6095,147.688,118.174,113.844,0.00109078,0.057873,21.0119,177.636,0.333554,0.0,0.0
480,119.75,30.1941,31.4527,148.528,118.213,115.044,0.00121848,0.0577635,21.011,177.626,0.242797,0.0,0.0
510,127.25,30.242,31.5366,147.558,118.227,114.145,0.00108004,0.057764,21.0096,177.616,0.313934,0.0,0.0
540,134.75,29.9523,32.0127,146.895,118.255,114.206,0.00101547,0.05792,21.0096,177.586,0.31131,0.0,0.0
570,142.25,30.3858,31.3109,146.013,118.309,114.643,0.00115975,0.0580879,21.01,177.586,0.28127,0.0,0.0
600,149.75,30.3952,31.7902,148.871,118.344,114.378,0.00126567,0.0585502,21.0092,177.566,0.304542,0.0,0.0
630,157.25,30.6303,31.8418,147.981,118.399,114.928,0.00104405,0.0584327,21.0091,177.586,0.265914,0.0,0.0
660,164.75,30.2792,31.8739,150.86,118.424,114.92,0.00110864,0.0584927,21.0071,177.546,0.268349,0.0,0.0
690,172.25,30.7925,31.5384,146.342,118.501,114.803,0.00125347,0.0584026,21.0089,177.516,0.283259,0.0,0.0
720,179.75,30.5289,31.715,149.079,118.618,114.403,0.00133318,0.0583492,21.0088,177.506,0.323278,0.0,0.0
750,187.25,30.419,32.0615,149.553,118.69,114.772,0.00130377,0.0581957,21.0103,177.506,0.299933,0.0,0.0
780,194.75,30.0562,32.4435,148.99,118.823,114.437,0.00135318,0.0583483,21.009,177.466,0.336047,0.0,0.0
810,202.25,30.5609,32.6501,148.837,118.922,115.1,0.00140109,0.0584423,21.0088,177.466,0.291909,0.0,0.0
840,209.75,30.7119,32.42,149.725,119.019,114.811,0.00163982,0.0583653,21.0078,177.436,0.32168,0.0,0.0
870,217.25,31.0468,32.0854,150.949,119.126,115.891,0.00157505,0.0581422,21.0078,177.426,0.246024,0.0,0.0
900,224.75,30.8747,31.966,147.774,119.162,114.727,0.00110013,0.0580509,21.0062,177.436,0.338917,0.0,0.0
930,232.25,30.9842,32.5178,149.844,119.213,115.121,0.00122787,0.0581593,21.008,177.406,0.312077,0.0,0.0
960,239.75,31.2254,32.4904,150.838,119.216,114.984,0.00157161,0.0580432,21.0067,177.396,0.322974,0.0,0.0
990,247.25,30.8225,32.1984,148.112,119.257,115.633,0.00141497,0.0580919,21.0076,177.366,0.27574,0.0,0.0
1020,254.75,30.6931,32.8945,152.534,119.245,115.187,0.00121316,0.0582868,21.0085,177.366,0.309334,0.0,0.0
1050,262.25,31.1647,32.3592,147.932,119.203,115.151,0.00106362,0.0584158,21.0063,177.366,0.309006,0.0,0.0
1080,269.75,31.2026,32.706,149.462,119.17,116.266,0.00138973,0.0583436,21.0091,177.336,0.220397,0.0,0.0
1110,277.25,31.6067,33.0691,150.081,119.123,115.203,0.00125114,0.0582506,21.0085,177.316,0.299007,0.0,0.0
1140,284.75,31.2474,32.7462,149.613,119.129,115.085,0.00148968,0.0583444,21.0088,177.316,0.308572,0.0,0.0
1170,292.25,31.6614,32.632,150.356,119.132,114.207,0.00165451,0.0585344,21.007,177.306,0.377232,0.0,0.0
1200,299.75,31.2253,33.1589,147.646,119.136,114.506,0.00132623,0.05866,21.0059,177.246,0.354157,0.0,0.0
1230,307.25,31.5785,32.6077,148.726,119.145,114.549,0.00126158,0.0586518,21.0062,177.246,0.351465,0.0,0.0
1260,314.75,31.6875,33.0854,150.625,119.116,115.826,0.00134945,0.0588841,21.0098,177.236,0.250226,0.0,0.0
1290,322.25,31.5412,32.8568,150.396,119.099,115.906,0.00118286,0.0588444,21.0095,177.236,0.242794,0.0,0.0
1320,329.75,31.2926,33.0958,148.497,119.076,114.516,0.00137333,0.0587341,21.0094,177.226,0.348943,0.0,0.0
1350,337.25,31.7159,33.1362,151.208,119.017,114.118,0.00159579,0.0585381,21.0081,177.206,0.375563,0.0,0.0
1380,344.75,31.5109,33.0873,145.845,119.014,114.91,0.00108476,0.0584849,21.009,177.206,0.31356,0.0,0.0
1410,352.25,31.5727,32.7323,152.01,118.955,115.126,0.00130209,0.0583971,21.0108,177.186,0.292338,0.0,0.0
1440,359.75,31.5972,33.0282,151.27,118.922,115.718,0.00136003,0.0582471,21.0097,177.166,0.244027,0.0,0.0
1470,367.25,31.7095,33.3636,143.778,118.919,115.134,0.00123741,0.0584496,21.0089,177.156,0.289031,0.0,0.0
1500,374.75,31.6085,33.3122,152.28,118.898,114.816,0.0014623,0.058243,21.0085,177.136,0.312165,0.0,0.0
1530,382.25,31.9483,33.4102,149.677,118.888,114.814,0.00156736,0.0585158,21.0084,177.136,0.311555,0.0,0.0
1560,389.75,31.6711,33.4167,146.785,118.873,114.677,0.00141514,0.0584929,21.0084,177.106,0.321122,0.0,0.0
1590,397.25,31.7768,32.8897,149.374,118.864,114.935,0.0012012,0.0583712,21.0084,177.086,0.300376,0.0,0.0
1620,404.75,31.9886,33.7441,147.538,118.853,115.468,0.00146185,0.0584395,21.0094,177.076,0.258219,0.0,0.0
1650,412.25,31.7478,33.7405,144.581,118.829,114.853,0.00148917,0.05836,21.0079,177.066,0.304023,0.0,0.0
1680,419.75,31.5484,33.7285,146.736,118.846,115.249,0.00144692,0.0580817,21.0082,177.066,0.274616,0.0,0.0
1710,427.25,32.1252,33.0774,146.003,118.819,114.062,0.00123729,0.0579819,21.0108,177.056,0.365095,0.0,0.0
1740,434.75,31.6936,33.8587,146.421,118.932,115.365,0.00106992,0.0580014,21.0092,177.036,0.272147,0.0,0.0
1770,442.25,31.5993,33.9707,146.385,119.084,115.484,0.000760562,0.0582546,21.0082,177.026,0.274305,0.0,0.0
1800,449.75,32.0038,33.7786,149.344,119.165,115.928,0.000956516,0.0582498,21.0086,177.016,0.246075,0.0,0.0
1830,457.25,31.9583,33.7319,148.141,119.28,115.393,0.00116669,0.057891,21.0096,176.996,0.296039,0.0,0.0
1860,464.75,32.5897,33.537,151.719,119.407,116.011,0.00135839,0.0577047,21.0125,176.996,0.257838,0.0,0.0
1890,472.25,32.8436,33.1973,150.38,119.51,116.146,0.00122209,0.0575614,21.012,176.996,0.255139,0.0,0.0
1920,479.75,31.9623,33.8437,147.483,119.593,115.214,0.00117535,0.0577311,21.0104,176.966,0.333309,0.0,0.0
1950,487.25,32.7505,33.7651,147.837,119.649,116.039,0.00120872,0.0576472,21.011,176.976,0.273741,0.0,0.0
1980,494.75,31.5804,33.3302,144.847,119.687,115.765,0.00105746,0.0579073,21.0103,176.956,0.297739,0.0,0.0
2010,502.25,31.8195,34.2433,150.599,119.727,116.004,0.00106795,0.0579537,21.0116,176.956,0.282278,0.0,0.0
2040,509.75,32.4419,34.2402,150.728,119.781,115.919,0.00120428,0.0579363,21.0102,176.936,0.292852,0.0,0.0
2070,517.25,32.6406,33.9205,147.146,119.821,115.331,0.000956951,0.0581369,21.0094,176.916,0.341261,0.0,0.0
2100,524.75,32.3557,34.0448,146.598,119.822,115.305,0.000822915,0.0582509,21.0117,176.906,0.34339,0.0,0.0
2130,532.25,32.2825,33.9852,149.925,119.843,116.333,0.000909171,0.0582991,21.0143,176.906,0.26561,0.0,0.0
2160,539.75,32.7565,34.3522,147.336,119.83,116.166,0.0010642,0.058101,21.0145,176.906,0.277477,0.0,0.0
2190,547.25,32.3025,34.0502,147.129,119.827,116.332,0.00109348,0.0580672,21.0109,176.906,0.26453,0.0,0.0
2220,554.75,32.2738,34.0485,150.793,119.775,115.528,0.000780625,0.0577632,21.0114,176.886,0.322607,0.0,0.0
2250,562.25,32.2681,33.7805,145.513,119.7,115.747,0.000996202,0.0577915,21.0121,176.866,0.300066,0.0,0.0
2280,569.75,32.1221,33.8505,145.833,119.671,116.317,0.000678345,0.0579788,21.0113,176.856,0.253956,0.0,0.0
2310,577.25,32.6862,33.8192,146.094,119.634,116.09,0.000648698,0.0580326,21.0113,176.856,0.268716,0.0,0.0
2340,584.75,32.1472,33.9715,150.561,119.61,115.7,0.000767455,0.0580942,21.0113,176.856,0.296964,0.0,0.0
2370,592.25,32.2468,34.0979,149.69,119.607,114.951,0.00101764,0.0580607,21.0093,176.846,0.3548,0.0,0.0
2400,599.75,32.4463,34.1248,148.157,119.562,115.822,0.000960854,0.0584545,21.0091,176.816,0.283929,0.0,0.0
2430,607.25,31.8867,33.1565,149.182,119.552,115.372,0.0010133,0.0583507,21.0083,176.816,0.317969,0.0,0.0
2460,614.75,32.0753,33.5156,150.326,119.461,115.266,0.000882006,0.058619,21.0106,176.816,0.31943,0.0,0.0
2490,622.25,31.5094,33.7713,150.658,119.374,115.914,0.000919971,0.0586289,21.012,176.806,0.262801,0.0,0.0
2520,629.75,31.6117,33.6159,148.323,119.254,115.894,0.00111119,0.0585599,21.0121,176.776,0.255363,0.0,0.0
2550,637.25,31.841,33.8403,147.168,119.162,115.321,0.000599127,0.0586165,21.0114,176.796,0.292742,0.0,0.0
2580,644.75,32.4113,33.7389,148.275,119.238,115.054,0.000807448,0.0586746,21.0111,176.796,0.319178,0.0,0.0
2610,652.25,32.1694,34.2295,150.497,119.303,116.138,0.000647881,0.0586376,21.0093,176.776,0.240232,0.0,0.0
2640,659.75,31.8326,33.6954,150.385,119.378,116.228,0.000761064,0.0585431,21.0101,176.766,0.238933,0.0,0.0
2670,667.25,32.6046,33.6744,145.818,119.484,115.432,0.000752186,0.0585024,21.0084,176.756,0.308275,0.0,0.0
2700,674.75,32.2614,33.4993,149.048,119.577,116.013,0.000935729,0.0584785,21.0099,176.736,0.27036,0.0,0.0
2730,682.25,32.352,33.8489,146.568,119.682,116.64,0.000802523,0.058497,21.0109,176.756,0.230048,0.0,0.0
2760,689.75,32.479,33.8725,148.197,119.754,115.837,0.000687523,0.0583383,21.0112,176.716,0.297161,0.0,0.0
2790,697.25,32.1325,33.6132,148.439,119.819,115.771,0.00085641,0.0583869,21.0106,176.716,0.307084,0.0,0.0
2820,704.75,32.2198,33.7603,150.981,119.907,115.949,0.001064,0.0582212,21.0118,176.706,0.299902,0.0,0.0
2850,712.25,32.1446,34.13,148.805,119.949,116.166,,0.0581012,,176.706,0.286414,0.0,0.0
2880,719.75,32.023,33.6731,146.532,120.011,116.399,,,,176.696,0.273078,0.0,0.0
2890,722.25,31.9861,33.53,145.505,120.019,116.269,,,,176.706,0.283628,0.0,0.0