File: 01_Data/PP/HFM/PP_Density_Wet_R2.csv
,PP_WET_2
Sample Mass [g],113.1
Sample Volume [cm3],126.8
Sample Density [kg/m3],892