File: 01_Data/PP/HFM/PP_Density_Wet_R3.csv
,PP_WET_3
Sample Mass [g],113.7
Sample Volume [cm3],128.5
Sample Density [kg/m3],884