File: 01_Data/PMMA_R06/MCC/PMMA_R06_MCC_30K_min_211015_R2.txt
Sample ID:	C:\MCC\MCC Cal\Test\PMMA_R06_MCC_30K_min_211015_R2.txt
Sample Weight (mg):	4.09
Heating Rate (C/s):	0.5
Combustor Temp (C):	900
N2 Flow Rate (cc/min):	80
O2 Flow Rate (cc/min):	20
Calibration File:	C:\MCC\MCC Cal\Coeff1 JN10440_30_210304.txt.txt
T Correction Coefficients:	0	1.024463	0
Time Shift (s):	14
*
Time (s)	Temperature (C)	N2 flow rate (cc/min)	O2 flow rate (cc/min)	Flow Rate (cc/min)	Oxygen (%)	HRR (W/g)	Heating rate (C/s)
0.000	106.657	79.996	19.995	102.724	20.024	-0.073	0.023
8.000	106.638	79.995	19.996	102.746	20.019	0.325	0.007
16.000	106.703	79.993	19.995	102.811	20.009	1.120	0.025
24.000	107.044	79.996	19.995	102.861	19.998	1.977	0.051
32.000	107.772	79.995	19.995	102.897	19.993	2.372	0.100
39.999	108.915	79.993	19.995	102.925	19.984	3.060	0.162
48.000	110.373	79.992	19.997	102.937	19.984	3.036	0.198
56.000	112.110	79.994	19.996	102.937	19.982	3.236	0.212
63.999	114.141	79.994	19.995	102.945	19.979	3.454	0.299
71.999	116.299	79.993	19.996	102.960	19.978	3.566	0.286
79.999	118.794	79.996	19.995	102.961	19.976	3.661	0.326
87.999	121.434	79.996	19.995	102.980	19.977	3.618	0.362
95.999	124.295	79.992	19.994	102.981	19.971	4.073	0.376
103.999	127.448	79.993	19.995	102.996	19.966	4.454	0.408
111.999	130.664	79.992	19.996	102.992	19.968	4.307	0.387
120.000	134.147	79.994	19.995	103.007	19.969	4.262	0.436
127.999	137.697	79.994	19.995	103.011	19.970	4.167	0.448
136.000	141.430	79.992	19.996	103.004	19.969	4.225	0.461
144.000	145.331	79.994	19.996	102.989	19.965	4.565	0.476
152.000	149.222	79.993	19.995	102.990	19.971	4.092	0.481
160.000	153.159	79.996	19.995	102.980	19.967	4.385	0.515
168.000	157.152	79.995	19.995	102.976	19.967	4.420	0.523
176.000	161.097	79.992	19.995	102.984	19.968	4.334	0.490
184.000	165.170	79.993	19.996	102.973	19.970	4.180	0.522
192.000	169.169	79.994	19.995	102.963	19.972	4.043	0.503
200.000	173.110	79.994	19.996	102.942	19.972	3.996	0.500
208.000	177.019	79.993	19.996	102.941	19.970	4.127	0.517
216.000	180.939	79.993	19.995	102.953	19.970	4.161	0.473
224.000	184.854	79.994	19.997	102.967	19.967	4.373	0.502
232.000	188.845	79.993	19.997	102.952	19.971	4.092	0.487
240.000	192.828	79.994	19.996	102.955	19.970	4.161	0.488
248.000	196.787	79.997	19.995	102.944	19.968	4.305	0.476
256.000	200.814	79.993	19.996	102.944	19.968	4.325	0.496
264.000	204.849	79.993	19.995	102.941	19.969	4.219	0.502
272.000	208.863	79.994	19.996	102.920	19.970	4.185	0.531
280.000	212.746	79.994	19.995	102.935	19.966	4.470	0.457
288.000	216.632	79.992	19.996	102.915	19.968	4.352	0.465
296.000	220.519	79.993	19.996	102.932	19.967	4.420	0.483
304.000	224.412	79.995	19.995	102.923	19.972	4.008	0.481
312.000	228.274	79.994	19.995	102.906	19.966	4.467	0.526
320.000	232.184	79.994	19.996	102.917	19.967	4.422	0.503
328.000	236.031	79.995	19.996	102.934	19.961	4.853	0.458
336.000	239.983	79.993	19.996	102.923	19.962	4.814	0.481
344.000	244.086	79.994	19.995	102.939	19.956	5.244	0.511
352.000	248.160	79.994	19.995	102.930	19.950	5.707	0.484
360.000	252.370	79.995	19.996	102.935	19.945	6.141	0.492
368.000	256.471	79.993	19.996	102.911	19.935	6.884	0.485
376.000	260.559	79.993	19.994	102.911	19.922	7.936	0.513
384.000	264.642	79.994	19.995	102.910	19.905	9.262	0.510
392.000	268.662	79.993	19.995	102.918	19.888	10.594	0.505
400.000	272.685	79.995	19.996	102.906	19.864	12.498	0.486
408.000	276.619	79.996	19.996	102.905	19.836	14.671	0.464
416.000	280.587	79.994	19.996	102.925	19.802	17.355	0.506
424.000	284.460	79.994	19.996	102.913	19.767	20.120	0.467
432.000	288.322	79.994	19.996	102.940	19.697	25.599	0.484
440.000	292.259	79.995	19.995	102.857	19.661	28.437	0.471
448.000	296.173	79.993	19.996	102.946	19.663	28.236	0.510
456.000	300.135	79.994	19.995	102.927	19.660	28.495	0.494
464.000	304.186	79.996	19.993	102.922	19.669	27.769	0.486
472.000	308.211	79.995	19.994	102.927	19.673	27.493	0.510
480.000	312.382	79.996	19.996	102.926	19.669	27.816	0.543
488.000	316.479	79.996	19.995	102.935	19.650	29.235	0.506
496.000	320.599	79.995	19.995	102.914	19.582	34.622	0.508
504.000	324.644	79.992	19.997	102.982	19.545	37.517	0.454
512.000	328.788	79.992	19.997	102.960	19.499	41.122	0.532
520.000	332.843	79.994	19.997	102.949	19.417	47.610	0.518
528.000	336.828	79.994	19.995	102.958	19.331	54.391	0.506
536.000	340.811	79.994	19.996	102.976	19.203	64.444	0.475
544.000	344.790	79.995	19.996	103.010	19.059	75.902	0.515
552.000	348.721	79.995	19.995	103.081	18.693	104.699	0.515
560.000	352.682	79.995	19.995	102.836	18.497	120.020	0.506
568.000	356.712	79.994	19.995	103.058	18.150	147.136	0.485
576.000	361.153	79.994	19.995	103.027	17.851	170.852	0.469
584.000	365.247	79.993	19.996	103.571	17.396	207.098	0.636
592.000	369.309	79.993	19.995	103.102	17.134	227.003	0.541
600.000	373.587	79.993	19.995	103.031	17.053	233.788	0.538
608.000	378.005	79.994	19.998	103.065	17.351	210.119	0.553
616.000	382.447	79.994	19.995	103.151	17.566	193.129	0.528
624.000	386.771	79.994	19.994	103.093	17.730	180.243	0.560
632.000	391.027	79.994	19.994	103.037	17.948	163.032	0.540
640.000	395.288	79.994	19.994	103.011	18.235	140.462	0.521
648.000	399.518	79.996	19.995	102.982	18.559	114.994	0.540
656.000	403.690	79.994	19.995	102.941	18.868	90.686	0.523
664.000	407.780	79.992	19.996	102.911	19.157	67.934	0.506
672.000	411.841	79.995	19.993	102.896	19.396	49.186	0.500
680.000	415.896	79.994	19.996	102.882	19.588	34.102	0.486
688.000	419.930	79.993	19.995	102.885	19.732	22.817	0.506
696.000	423.948	79.993	19.998	102.867	19.825	15.507	0.497
704.000	427.964	79.994	19.994	102.868	19.894	10.103	0.491
712.000	431.977	79.995	19.995	102.859	19.936	6.825	0.515
720.000	436.004	79.995	19.996	102.859	19.960	4.933	0.491
728.000	440.034	79.997	19.995	102.855	19.967	4.432	0.475
736.000	444.050	79.996	19.994	102.861	19.977	3.642	0.465
744.000	448.033	79.995	19.996	102.865	19.982	3.237	0.517
752.000	452.134	79.994	19.995	102.866	19.980	3.389	0.524
760.000	456.278	79.993	19.996	102.865	19.980	3.413	0.518
768.000	460.367	79.993	19.995	102.867	19.977	3.612	0.521
776.000	464.412	79.995	19.995	102.867	19.980	3.363	0.495
784.000	468.458	79.996	19.996	102.862	19.983	3.166	0.494
792.000	472.508	79.996	19.996	102.861	19.984	3.034	0.509
800.000	476.570	79.996	19.994	102.857	19.983	3.139	0.524
808.000	480.614	79.995	19.994	102.852	19.981	3.282	0.506
816.000	484.595	79.996	19.994	102.861	19.979	3.436	0.477
824.000	488.645	79.995	19.993	102.864	19.981	3.282	0.500
832.000	492.720	80.001	19.992	102.859	19.986	2.916	0.516
840.000	496.871	79.995	19.995	102.860	19.989	2.655	0.539
848.000	500.940	79.995	19.995	102.858	19.989	2.631	0.523
856.000	504.994	79.990	20.000	102.856	19.983	3.173	0.524
864.000	509.142	79.994	19.996	102.863	19.979	3.425	0.506
872.000	513.245	79.993	19.997	102.860	19.977	3.633	0.532
880.000	517.450	79.993	19.995	102.855	19.983	3.111	0.539
888.000	521.636	79.994	19.997	102.863	19.986	2.918	0.533
896.000	525.858	79.993	19.993	102.861	19.981	3.306	0.506
904.000	530.074	79.994	19.995	102.849	19.980	3.378	0.530
912.000	534.302	79.993	19.994	102.861	19.984	3.072	0.543
920.000	538.464	79.990	19.995	102.847	19.981	3.308	0.486
928.000	542.643	79.995	19.997	102.850	19.983	3.126	0.525
936.000	546.730	79.990	19.993	102.860	19.985	2.986	0.484
944.000	550.858	79.995	19.991	102.852	19.985	2.995	0.511
952.000	554.872	79.995	19.995	102.851	19.981	3.288	0.497
960.000	558.828	79.993	20.000	102.837	19.986	2.873	0.472
968.000	562.824	79.992	19.993	102.857	19.985	2.978	0.513
976.000	566.807	79.995	19.993	102.848	19.984	3.059	0.518
984.000	570.886	79.991	20.003	102.834	19.981	3.333	0.544
992.000	575.085	79.996	19.996	102.852	19.979	3.468	0.519
1000.000	579.228	79.990	19.996	102.848	19.980	3.378	0.563
1008.000	583.439	79.993	19.997	102.843	19.982	3.249	0.521
1016.000	587.658	79.991	19.995	102.849	19.981	3.316	0.533
1024.000	591.786	79.994	19.994	102.847	19.981	3.290	0.543
1031.999	595.978	79.995	20.002	102.845	19.985	2.992	0.508
1039.999	600.097	79.998	19.994	102.834	19.982	3.250	0.493
1047.999	604.171	79.993	19.996	102.838	19.980	3.395	0.499
1055.999	608.253	79.995	19.998	102.840	19.980	3.362	0.516
1063.999	612.410	79.991	19.997	102.841	19.977	3.609	0.503
1072.000	616.459	79.993	19.994	102.840	19.984	3.046	0.530
1079.999	620.590	79.994	19.994	102.845	19.982	3.198	0.497
1087.999	624.694	79.994	19.994	102.853	19.983	3.170	0.502
1095.999	628.780	79.992	19.996	102.854	19.985	3.012	0.542
1103.999	632.881	79.997	19.996	102.844	19.980	3.335	0.478
1111.999	636.971	79.994	19.995	102.840	19.982	3.204	0.477
1119.999	640.983	79.994	19.995	102.835	19.980	3.391	0.521
1127.999	644.989	79.993	19.996	102.828	19.980	3.362	0.482
1135.999	649.013	79.994	19.993	102.838	19.982	3.178	0.509
1143.999	653.076	79.992	19.998	102.833	19.983	3.127	0.500
1151.999	657.186	79.988	19.999	102.832	19.981	3.257	0.539
1159.999	661.278	79.993	19.995	102.836	19.980	3.337	0.495
1168.000	665.299	79.991	19.997	102.829	19.984	3.033	0.480
1176.000	669.328	79.994	19.995	102.828	19.982	3.225	0.527
1183.999	673.369	79.995	19.996	102.829	19.984	3.058	0.498
1191.999	677.446	79.996	19.995	102.835	19.979	3.422	0.527
1199.999	681.466	79.996	19.998	102.827	19.977	3.645	0.507
1207.999	685.463	79.993	19.997	102.832	19.977	3.645	0.536
1215.999	689.328	79.993	20.001	102.825	19.981	3.262	0.472
1223.999	693.203	79.995	19.997	102.826	19.979	3.476	0.505
1231.999	697.068	79.994	19.995	102.826	19.983	3.129	0.465
1240.000	701.053	79.993	19.998	102.827	19.980	3.345	0.493
1247.999	705.210	79.992	19.996	102.828	19.980	3.365	0.521
1256.000	709.412	79.993	19.996	102.833	19.978	3.497	0.516
1264.000	713.701	79.993	19.995	102.836	19.980	3.345	0.509
1271.999	717.978	79.995	19.994	102.839	19.978	3.528	0.545
1279.999	722.259	79.996	19.994	102.828	19.976	3.653	0.525
1287.999	726.372	79.995	19.995	102.830	19.975	3.782	0.507
1295.999	730.542	79.996	19.994	102.830	19.973	3.953	0.521
1303.999	734.680	79.994	19.997	102.835	19.975	3.748	0.492
1311.999	738.753	79.996	19.997	102.825	19.975	3.780	0.527
1319.999	742.869	79.995	19.995	102.827	19.975	3.786	0.491
1321.499	743.604	79.993	19.996	102.826	19.977	3.606	0.504