File: 01_Data/PMMA_R06/MCC/PMMA_R06_MCC_30K_min_211015_R1.txt
Sample ID:	C:\MCC\MCC Cal\Test\PMMA_R06_MCC_30K_min_211015_R1.txt
Sample Weight (mg):	4.25
Heating Rate (C/s):	0.5
Combustor Temp (C):	900
N2 Flow Rate (cc/min):	80
O2 Flow Rate (cc/min):	20
Calibration File:	C:\MCC\MCC Cal\Coeff1 JN10440_30_210304.txt.txt
T Correction Coefficients:	0	1.024463	0
Time Shift (s):	14
*
Time (s)	Temperature (C)	N2 flow rate (cc/min)	O2 flow rate (cc/min)	Flow Rate (cc/min)	Oxygen (%)	HRR (W/g)	Heating rate (C/s)
0.000	106.265	79.994	19.996	102.730	20.068	-0.093	0.009
8.000	106.238	79.993	19.996	102.747	20.067	-0.014	-0.019
16.000	106.283	79.991	19.996	102.751	20.064	0.146	0.012
24.000	106.380	79.994	19.996	102.835	20.053	1.015	0.003
32.000	106.875	79.994	19.995	102.816	20.038	2.152	0.068
40.000	107.771	79.992	19.996	102.907	20.031	2.705	0.129
48.001	108.950	79.994	19.996	102.913	20.030	2.753	0.177
56.000	110.460	79.995	19.995	102.940	20.021	3.399	0.179
64.000	112.276	79.992	19.995	102.950	20.021	3.409	0.241
72.000	114.336	79.992	19.996	102.957	20.020	3.523	0.278
80.000	116.667	79.994	19.995	102.984	20.015	3.893	0.283
88.000	119.336	79.993	19.995	102.994	20.013	4.057	0.353
96.000	122.209	79.991	19.996	103.001	20.015	3.909	0.413
104.000	125.305	79.993	19.996	102.992	20.011	4.172	0.404
112.001	128.599	79.994	19.995	102.997	20.013	4.060	0.430
120.001	132.075	79.992	19.996	103.006	20.009	4.355	0.454
128.000	135.639	79.992	19.996	103.002	20.008	4.407	0.453
136.000	139.352	79.995	19.995	102.999	20.011	4.166	0.475
144.000	143.192	79.993	19.994	102.992	20.014	4.000	0.488
152.000	147.170	79.991	19.995	102.989	20.015	3.860	0.513
160.000	151.129	79.992	19.995	102.989	20.016	3.798	0.499
168.000	155.100	79.992	19.995	102.987	20.013	4.014	0.473
176.000	159.074	79.993	19.995	102.990	20.016	3.828	0.476
184.000	163.131	79.995	19.996	102.976	20.016	3.818	0.491
192.000	167.157	79.995	19.996	102.982	20.014	3.985	0.504
200.000	171.157	79.993	19.997	102.954	20.014	3.986	0.480
208.000	175.189	79.994	19.995	102.958	20.018	3.679	0.505
216.000	179.174	79.996	19.996	102.946	20.012	4.077	0.539
224.000	183.140	79.992	19.997	102.947	20.017	3.767	0.517
232.000	187.177	79.993	19.995	102.947	20.016	3.846	0.503
240.000	191.156	79.994	19.995	102.951	20.016	3.794	0.486
248.000	195.103	79.992	19.995	102.949	20.012	4.132	0.503
256.000	199.061	79.990	19.996	102.951	20.015	3.916	0.503
264.000	203.029	79.994	19.996	102.946	20.012	4.105	0.518
272.001	206.974	79.994	19.996	102.944	20.013	4.002	0.502
280.000	210.927	79.993	19.996	102.935	20.012	4.150	0.468
288.000	214.844	79.996	19.996	102.940	20.012	4.123	0.506
296.000	218.738	79.994	19.995	102.919	20.010	4.288	0.475
304.000	222.640	79.991	19.995	102.914	20.011	4.197	0.482
312.000	226.472	79.991	19.995	102.926	20.007	4.455	0.436
320.000	230.356	79.992	19.996	102.914	20.008	4.446	0.466
328.000	234.141	79.991	19.996	102.908	20.007	4.492	0.469
336.000	237.957	79.992	19.995	102.910	20.004	4.694	0.487
344.000	241.691	79.993	19.996	102.908	20.003	4.813	0.469
352.000	245.517	79.994	19.995	102.917	19.997	5.238	0.479
360.000	249.396	79.993	19.995	102.911	19.987	5.970	0.506
368.000	253.264	79.994	19.995	102.915	19.984	6.204	0.480
376.000	257.195	79.992	19.995	102.914	19.969	7.324	0.493
384.000	261.081	79.992	19.996	102.912	19.957	8.303	0.466
392.000	265.061	79.993	19.996	102.908	19.942	9.383	0.495
400.000	269.015	79.993	19.998	102.912	19.919	11.164	0.494
408.000	273.020	79.991	19.995	102.920	19.894	13.068	0.495
416.000	277.014	79.992	19.995	102.915	19.857	15.851	0.513
424.000	280.998	79.995	19.995	102.932	19.822	18.487	0.462
432.000	285.031	79.995	19.995	102.936	19.784	21.355	0.497
440.000	289.127	79.994	19.995	102.939	19.748	24.075	0.507
448.000	293.174	79.996	19.996	102.940	19.719	26.220	0.486
456.000	297.256	79.995	19.994	102.938	19.697	27.919	0.510
464.000	301.301	79.992	19.996	102.911	19.691	28.383	0.487
472.000	305.342	79.992	19.995	102.916	19.685	28.839	0.496
480.000	309.402	79.993	19.996	102.929	19.698	27.819	0.496
488.000	313.462	79.992	19.997	102.922	19.702	27.544	0.511
496.000	317.451	79.992	19.996	102.937	19.702	27.547	0.497
504.000	321.488	79.995	19.994	102.916	19.683	28.990	0.496
512.000	325.518	79.994	19.994	102.930	19.655	31.061	0.513
520.000	329.572	79.993	19.996	102.927	19.600	35.240	0.505
528.000	333.588	79.995	19.994	102.945	19.521	41.259	0.513
536.000	337.624	79.993	19.995	102.945	19.415	49.211	0.482
544.000	341.554	79.993	19.995	102.947	19.104	72.820	0.502
552.000	345.445	79.992	19.995	103.056	18.991	81.404	0.497
560.000	349.404	79.991	19.996	103.003	18.887	89.168	0.512
568.000	353.377	79.990	19.996	103.112	18.588	112.000	0.497
576.000	357.386	79.991	19.995	103.079	18.366	128.672	0.507
584.000	361.407	79.995	19.996	103.267	17.939	161.175	0.521
592.000	365.372	79.994	19.995	103.294	17.344	206.343	0.471
600.000	369.356	79.995	19.996	103.240	16.812	246.266	0.507
608.000	373.328	79.995	19.995	103.082	16.601	262.064	0.507
616.000	377.502	79.993	19.994	103.078	16.879	241.473	0.671
624.000	381.883	79.994	19.994	103.160	17.349	205.646	0.559
632.000	386.068	79.994	19.994	103.103	17.660	181.994	0.504
640.000	390.282	79.993	19.995	103.042	17.946	160.323	0.498
648.000	394.530	79.992	19.997	102.995	18.260	136.484	0.531
656.000	398.715	79.993	19.995	102.962	18.592	111.386	0.539
664.000	402.858	79.994	19.996	102.919	18.911	87.259	0.519
672.000	406.946	79.993	19.997	102.900	19.194	65.909	0.507
680.000	411.089	79.995	19.995	102.874	19.428	48.236	0.530
688.000	415.129	79.996	19.995	102.871	19.611	34.392	0.477
696.000	419.203	79.993	19.995	102.867	19.755	23.526	0.508
704.000	423.255	79.992	19.996	102.863	19.853	16.086	0.525
712.000	427.358	79.994	19.996	102.835	19.924	10.725	0.507
720.000	431.445	79.994	19.995	102.842	19.970	7.255	0.540
728.000	435.489	79.993	19.996	102.852	19.997	5.253	0.478
736.000	439.559	80.010	20.003	102.861	20.010	4.253	0.491
744.000	443.538	80.012	20.002	102.868	20.017	3.736	0.471
752.000	447.570	80.012	20.003	102.869	20.021	3.441	0.492
760.000	451.624	80.011	20.004	102.871	20.022	3.357	0.507
768.000	455.597	80.013	20.003	102.868	20.021	3.420	0.497
776.000	459.622	80.011	20.003	102.869	20.022	3.362	0.514
784.000	463.674	80.011	20.003	102.868	20.026	3.089	0.530
792.000	467.700	80.012	20.003	102.870	20.026	3.060	0.501
800.000	471.764	80.012	20.003	102.878	20.025	3.155	0.496
808.000	475.862	80.012	20.003	102.877	20.028	2.895	0.495
816.000	479.899	80.011	20.004	102.874	20.026	3.054	0.516
824.000	483.913	80.013	20.003	102.873	20.026	3.045	0.462
832.000	487.990	80.013	20.002	102.871	20.027	2.996	0.503
840.000	492.066	80.011	20.003	102.873	20.027	2.979	0.520
848.000	496.114	80.014	20.004	102.866	20.028	2.895	0.497
856.000	500.199	80.011	20.004	102.864	20.028	2.915	0.518
864.000	504.285	80.011	20.002	102.866	20.022	3.334	0.507
872.000	508.330	80.010	20.002	102.868	20.025	3.161	0.494
880.000	512.381	80.011	20.003	102.866	20.026	3.060	0.498
888.000	516.474	80.010	20.002	102.868	20.030	2.761	0.491
896.000	520.540	80.012	20.002	102.872	20.031	2.664	0.523
904.000	524.674	80.012	20.004	102.869	20.028	2.886	0.554
912.000	528.637	80.013	20.003	102.862	20.029	2.851	0.502
920.000	532.682	80.013	20.004	102.858	20.027	2.946	0.512
928.000	536.728	80.015	20.002	102.861	20.031	2.695	0.516
936.000	540.655	80.011	20.004	102.860	20.030	2.740	0.481
944.000	544.616	80.011	20.005	102.849	20.030	2.742	0.481
952.000	548.537	80.011	20.003	102.859	20.033	2.501	0.491
960.000	552.463	80.011	20.002	102.865	20.030	2.736	0.495
968.000	556.418	80.012	20.003	102.852	20.031	2.688	0.479
976.000	560.353	79.994	19.997	102.844	20.024	3.195	0.511
984.000	564.282	79.995	19.997	102.828	20.024	3.193	0.488
992.000	568.232	79.996	19.995	102.833	20.020	3.500	0.509
1000.000	572.309	80.012	20.003	102.856	20.024	3.224	0.520
1008.000	576.555	79.994	19.995	102.846	20.021	3.427	0.511
1016.000	580.767	79.993	19.996	102.853	20.026	3.018	0.535
1024.001	584.962	79.991	19.995	102.847	20.023	3.310	0.540
1032.000	589.172	79.993	19.996	102.829	20.025	3.152	0.508
1040.000	593.307	79.992	19.997	102.835	20.020	3.487	0.541
1048.000	597.490	79.994	19.996	102.827	20.023	3.245	0.497
1056.001	601.602	79.991	19.999	102.835	20.026	3.028	0.486
1064.000	605.794	79.993	19.996	102.835	20.024	3.238	0.480
1072.000	610.054	79.992	19.995	102.838	20.021	3.399	0.529
1080.000	614.329	79.993	19.996	102.835	20.021	3.418	0.533
1088.000	618.623	79.995	19.995	102.835	20.024	3.166	0.527
1096.000	622.909	79.994	19.996	102.839	20.023	3.256	0.539
1104.000	627.186	79.991	19.996	102.840	20.024	3.213	0.528
1112.000	631.399	79.992	19.996	102.827	20.024	3.184	0.525
1120.000	635.589	79.992	19.997	102.828	20.021	3.411	0.512
1128.000	639.682	79.991	19.996	102.835	20.024	3.201	0.497
1136.000	643.663	79.992	19.996	102.830	20.019	3.572	0.486
1144.000	647.665	79.993	19.994	102.831	20.022	3.361	0.495
1152.000	651.726	79.992	19.994	102.833	20.019	3.553	0.515
1160.000	655.747	79.992	19.996	102.835	20.022	3.380	0.541
1168.001	659.770	79.993	19.995	102.828	20.021	3.448	0.517
1176.000	663.852	79.995	19.995	102.826	20.020	3.520	0.505
1184.000	667.889	79.993	19.996	102.832	20.020	3.520	0.487
1192.000	671.929	79.992	19.996	102.827	20.017	3.695	0.509
1200.000	676.060	79.993	19.995	102.834	20.017	3.707	0.518
1208.000	680.090	79.992	19.996	102.838	20.016	3.773	0.498
1216.000	684.196	79.991	19.997	102.843	20.018	3.676	0.498
1224.001	688.326	79.995	19.996	102.830	20.014	3.938	0.527
1232.000	692.341	79.993	19.996	102.827	20.012	4.107	0.522
1240.000	696.370	79.994	19.995	102.831	20.013	4.002	0.532
1248.000	700.390	79.996	19.994	102.834	20.011	4.185	0.514
1256.000	704.383	79.994	19.994	102.827	20.015	3.909	0.485
1264.000	708.350	79.993	19.995	102.827	20.017	3.724	0.539
1272.000	712.327	79.993	19.994	102.831	20.012	4.115	0.512
1280.000	716.436	79.993	19.996	102.833	20.011	4.158	0.528
1288.000	720.606	79.994	19.996	102.830	20.013	4.062	0.517
1296.000	724.800	79.992	19.996	102.836	20.008	4.434	0.532
1304.000	728.964	79.993	19.996	102.828	20.008	4.375	0.526
1312.000	733.231	79.993	19.996	102.827	20.011	4.181	0.571
1320.000	737.430	79.994	19.995	102.826	20.010	4.241	0.567
1328.001	741.581	79.995	19.994	102.828	20.007	4.511	0.505
1331.500	743.384	79.994	19.994	102.830	20.006	4.575	0.549