File: 02_Data/Polyester_Fabric/Cone/Polyester_Fabric_Cone_HF25Scalar_210325_R3.csv
LABORATORY,FSRI
TEST IDENT,Fabric_H25_3
OPERATOR,Morrissey
MATERIAL,Polyester Microfiber Fabric
ORIENTATION,Horizontal
HEAT FLUX,25
SURF AREA,0.01
C FACTOR,0.0386052
SPEC HOLDER DIFF,-87.32
SPECIMEN MASS,1.88
SCAN TIME,0.25
O2 DELAY TIME,11
CO DELAY TIME,11
CO2 DELAY TIME,8
FLOW FACTOR,1
SCAN COUNT,3047
TIME TO IGN,586.75
END OF TEST SCAN,2567
END OF TEST TIME,641.75
TEST STATUS,1
PRE TEST CMT,Test w/o retainer frame or grid
POST TEST CMT,Sample folded up. Consistent with other tests. Spark did not ignite sample upon contact. Sample melted-> bubbled-> then ignited.