File: 02_Data/Polyester_Fabric/Cone/Polyester_Fabric_Cone_HF50Scan_210326_R2.csv
Names,Time,Stack TC,Smoke TC,Exh Press,Smoke Comp,Smoke Meas,CO Meter,CO2 Meter,O2 Meter,Sample Mass,Ext Coeff,Start Test,Flame Verif
Chan Gain,,500,500,1,1,1,1,1,1,1,1,1.0,1.0
Offset,,0,0,0.138348,0,0,0,0,0,0,0,0.0,0.0
Gain,,1,1,25.011,13.5067,16.616,1,1,1,1.00091,1.04608,1.0,1.0
Units,sec,C,C,Pa,%,%,%,%,%,g,/m,,
Baseline,,33.0523,35.3776,162.512,101.598,98.7374,-0.00151783,0.047753,20.955,-0.00775707,0.262113,,
8,1.75,30.5617,32.5224,163.65,102.284,99.7774,-0.00152929,0.0494959,20.9558,479.486,0.227636,0.0,0.0
16,3.75,30.5274,32.7197,160.684,102.293,99.245,-0.00147221,0.0508069,20.9535,480.277,0.277545,0.0,0.0
24,5.75,30.569,32.9806,158.886,102.306,99.4879,-0.00150713,0.0517571,20.9508,478.015,0.256336,0.0,0.0
32,7.75,31.2402,33.2989,162.172,102.321,99.8393,-0.00161864,0.0523973,20.9493,478.015,0.225313,0.0,0.0
40,9.75,31.4936,33.1327,165.408,102.338,99.5006,-0.00167082,0.0530648,20.9482,478.015,0.25805,0.0,0.0
48,11.75,31.3667,33.308,167.271,102.349,99.4869,-0.00164148,0.0541568,20.9468,478.025,0.260237,0.0,0.0
56,13.75,31.1942,33.4859,163.288,102.359,99.422,-0.00155138,0.0554561,20.9456,478.015,0.267149,0.0,0.0
64,15.75,31.2324,33.6156,164.569,102.367,99.3601,-0.00141776,0.0567075,20.9445,478.025,0.2736,0.0,0.0
72,17.75,31.65,33.4737,160.728,102.374,98.9545,-0.00133208,0.057763,20.944,478.025,0.311768,0.0,0.0
80,19.75,31.0463,34.2288,163.931,102.373,99.1431,-0.00130669,0.0588288,20.9428,477.995,0.294146,0.0,0.0
88,21.75,31.0417,33.8985,160.804,102.38,98.6649,-0.00117024,0.0599139,20.9394,477.985,0.339175,0.0,1.0
96,23.75,31.284,34.2152,162.454,102.387,94.4227,-0.00060514,0.0688883,20.9184,477.955,0.743075,0.0,1.0
104,25.75,31.6949,35.2115,154.276,102.366,89.7966,0.000136006,0.0902124,20.8836,477.875,1.20218,0.0,1.0
112,27.75,31.3206,34.7778,157.034,102.368,89.8924,0.00127613,0.122744,20.8463,477.775,1.1925,0.0,0.0
120,29.75,32.2528,35.4283,157.415,102.37,86.3525,0.00283341,0.15756,20.7979,477.625,1.56138,0.0,0.0
128,31.75,33.2495,38.1306,155.39,102.37,80.5779,0.00488436,0.206264,20.7191,477.475,2.1965,0.0,0.0
136,33.75,34.7442,40.0597,147.313,102.367,77.7545,0.00673788,0.264249,20.6573,477.214,2.52353,0.0,0.0
144,35.75,36.4298,42.147,149.273,102.381,74.9214,0.00870559,0.316387,20.6001,476.964,2.86537,0.0,0.0
152,37.75,37.3383,44.3424,150.134,102.371,77.432,0.00943405,0.358277,20.5602,476.714,2.56201,0.0,0.0
160,39.75,38.4543,45.2424,161.084,102.403,83.34,0.00898124,0.372886,20.5622,476.534,1.89015,0.0,0.0
168,41.75,38.7953,45.4939,155.864,102.39,87.2774,0.00766913,0.358482,20.5937,476.414,1.46536,0.0,0.0
176,43.75,38.8532,45.5664,153.91,102.39,89.7358,0.00581597,0.328552,20.6456,476.324,1.21055,0.0,0.0
184,45.75,38.3422,45.0479,159.617,102.394,93.6453,0.00414091,0.288007,20.7132,476.254,0.819559,0.0,0.0
192,47.75,37.7028,44.4123,162.89,102.391,96.7786,0.00278566,0.243153,20.7669,476.233,0.517306,0.0,0.0
200,49.75,37.8978,43.6568,160.326,102.398,98.9879,0.00183413,0.203057,20.8149,476.214,0.310771,0.0,0.0
208,51.75,37.0721,42.8799,158.79,102.404,99.3383,0.001141,0.166418,20.8568,476.203,0.278901,0.0,0.0
216,53.75,36.6604,41.8245,165.288,102.412,99.8829,0.000675952,0.138401,20.886,476.224,0.229472,0.0,0.0
224,55.75,35.5889,40.374,159.826,102.417,99.9879,0.000615691,0.116348,20.9039,476.224,0.22024,0.0,0.0
232,57.75,35.0115,39.2936,161.726,102.437,99.3865,0.000843501,0.101191,20.9151,476.214,0.277407,0.0,0.0
240,59.75,34.7257,38.894,156.281,102.438,99.4367,0.00124583,0.0906904,20.9236,476.214,0.272884,0.0,0.0
248,61.75,34.2921,39.1554,164.84,102.472,99.3921,0.00154836,0.0825349,20.9294,476.193,0.28003,0.0,0.0
256,63.75,34.0828,38.0519,161.264,102.463,99.8155,0.00159343,0.0767925,20.932,476.193,0.240211,0.0,0.0
264,65.75,33.8329,36.9302,157.22,102.471,100.119,0.00147589,0.0724877,20.9339,476.193,0.213077,0.0,0.0
272,67.75,33.3385,37.2177,159.512,102.476,99.6568,0.00144115,0.0691344,20.9361,476.193,0.255995,0.0,0.0
280,69.75,33.2347,37.1347,159.146,102.47,99.7085,0.00154632,0.0666282,20.939,476.193,0.25068,0.0,0.0
288,71.75,33.0107,36.8239,158.612,102.47,99.6557,0.00163587,0.064841,20.9394,476.193,0.255572,0.0,0.0
296,73.75,33.2987,36.275,164.948,102.487,99.5523,0.00164766,0.0635409,20.9395,476.193,0.266577,0.0,0.0
304,75.75,32.7849,36.1937,162.252,102.486,99.6349,0.00170385,0.0629075,20.9402,476.203,0.258888,0.0,0.0
312,77.75,32.6075,35.9884,161.327,102.479,99.8971,0.00179362,0.0622212,20.9412,476.183,0.234185,0.0,0.0
320,79.75,32.4389,35.931,160.503,102.489,100.484,0.00183419,0.0612177,20.9416,476.183,0.181338,0.0,0.0
328,81.75,32.5478,35.5953,165.041,102.496,100.176,0.00188935,0.0601095,20.9419,476.203,0.210079,0.0,0.0
336,83.75,32.3987,35.5574,167.52,102.512,99.7242,0.00196124,0.0589837,20.9429,476.193,0.253034,0.0,0.0
344,85.75,32.1345,35.9313,162.504,102.521,99.8956,0.00203518,0.0580535,20.9438,476.203,0.238052,0.0,0.0
352,87.75,31.7181,34.9956,162.328,102.525,99.9306,0.0020841,0.0571113,20.9455,476.163,0.235206,0.0,0.0
360,89.75,31.6414,35.413,161.748,102.506,100.009,0.00202682,0.0562898,20.9462,476.133,0.226342,0.0,0.0
368,91.75,31.8249,35.5046,160.139,102.521,99.6512,0.00196907,0.0558125,20.9465,476.073,0.260567,0.0,0.0
376,93.75,31.7459,34.4903,165.714,102.541,99.9676,0.00197765,0.0553947,20.9467,476.173,0.233246,0.0,0.0
384,95.75,31.8703,34.8495,162.698,102.534,99.7409,0.00194899,0.0551862,20.9481,476.203,0.25345,0.0,0.0
392,97.75,31.9901,34.4553,161,102.535,100.561,0.00183037,0.0552279,20.9474,476.193,0.17836,0.0,0.0
400,99.75,32.0848,34.3941,157.661,102.524,100.19,0.0017309,0.0552229,20.9471,476.193,0.211297,0.0,0.0
408,101.75,31.4785,33.5445,166.696,102.539,99.8854,0.00170508,0.0551559,20.9469,476.173,0.24057,0.0,0.0
416,103.75,31.1909,34.3083,161.807,102.546,100.163,0.00168921,0.0550484,20.9465,476.153,0.215742,0.0,0.0
424,105.75,31.3227,33.5959,159.527,102.543,99.8327,0.00168213,0.0550582,20.9449,476.143,0.245822,0.0,0.0
432,107.75,31.3276,34.112,159.27,102.552,99.6446,0.00169082,0.0550012,20.9451,476.143,0.263904,0.0,0.0
440,109.75,31.5189,33.919,159.506,102.554,100.228,0.0015515,0.0549444,20.9457,476.133,0.210461,0.0,0.0
448,111.75,31.5608,33.9086,163.62,102.565,100.065,0.00125733,0.0546402,20.9459,476.123,0.226418,0.0,0.0
456,113.75,31.4453,33.9898,159.755,102.565,99.9199,0.00102152,0.0543716,20.946,476.113,0.239763,0.0,0.0
464,115.75,31.5088,34.032,164.485,102.56,99.4245,0.000953587,0.0540669,20.9461,476.103,0.284893,0.0,0.0
472,117.75,31.3377,34.3229,160.79,102.568,99.9686,0.000884908,0.0539462,20.9461,476.103,0.235552,0.0,0.0
480,119.75,31.1195,33.6497,157.785,102.574,100.371,0.000720453,0.0537948,20.9461,476.113,0.199233,0.0,0.0
488,121.75,31.2356,34.1656,165.568,102.566,100.155,0.000659099,0.0537329,20.9465,476.083,0.218218,0.0,0.0
496,123.75,30.7192,33.9444,162.809,102.567,99.6223,0.000738539,0.0537217,20.9468,476.093,0.267286,0.0,0.0
504,125.75,31.137,33.9205,162.734,102.586,99.7602,0.000808576,0.0536456,20.9469,476.093,0.256286,0.0,0.0
512,127.75,31.3637,33.73,165.314,102.575,99.6796,0.000793558,0.053516,20.9477,476.093,0.262747,0.0,0.0
520,129.75,31.1661,34.0289,164.947,102.582,99.8854,0.000709502,0.0534004,20.9485,476.083,0.244405,0.0,0.0
528,131.75,31.2333,33.3255,160.652,102.587,99.672,0.000625375,0.0532106,20.9487,476.083,0.264517,0.0,0.0
536,133.75,31.3422,33.6996,161.75,102.594,99.5579,0.000607786,0.05309,20.9485,476.083,0.275617,0.0,0.0
544,135.75,31.1161,33.4139,161.34,102.593,100.3,0.000599709,0.0528734,20.9483,476.073,0.207374,0.0,0.0
552,137.75,31.1666,33.7296,159.43,102.596,100.085,0.000500221,0.0527164,20.9489,476.063,0.227443,0.0,0.0
560,139.75,30.8222,33.7263,162.638,102.589,99.6892,0.000359864,0.0525558,20.9499,476.053,0.263114,0.0,0.0
568,141.75,31.2164,33.8123,159.296,102.593,99.7927,0.000255635,0.0525975,20.9493,476.053,0.253929,0.0,0.0
576,143.75,30.6903,33.6908,160.066,102.6,99.5523,0.000193949,0.0524206,20.9487,476.073,0.276721,0.0,0.0
584,145.75,31.0762,33.3637,162.743,102.589,99.8104,0.000249306,0.0522006,20.9493,476.053,0.251966,0.0,0.0
592,147.75,31.0181,33.8814,158.206,102.614,99.7835,0.000289613,0.0522454,20.9497,476.063,0.256649,0.0,0.0
600,149.75,31.2339,33.4206,163.112,102.615,99.9762,0.000245117,0.0520546,20.9502,476.063,0.239019,0.0,0.0
608,151.75,31.6278,33.7972,163.571,102.615,99.8915,0.000153149,0.0519298,20.9501,476.063,0.246832,0.0,0.0
616,153.75,31.1575,33.3308,164.071,102.6,100.154,3.49935e-05,0.0518136,20.9499,476.063,0.221408,0.0,0.0
624,155.75,30.6416,34.0589,163.443,102.596,100.056,-0.000157448,0.0516537,20.9505,476.063,0.230094,0.0,0.0
632,157.75,31.0906,33.5594,163.876,102.6,100.222,-0.00035196,0.0515889,20.9514,476.063,0.215149,0.0,0.0
640,159.75,30.134,33.8422,163.621,102.602,99.7643,-0.000421178,0.0514414,20.9518,476.053,0.257351,0.0,0.0
648,161.75,30.8783,33.6235,160.178,102.598,99.7774,-0.000341586,0.0512442,20.952,476.063,0.255807,0.0,0.0
656,163.75,31.0746,33.0215,161.997,102.612,99.6963,,0.0511614,,476.053,0.264489,0.0,0.0
664,165.75,30.9644,33.3526,167.395,102.581,100.074,,0.0510159,,476.053,0.227064,0.0,0.0
672,167.75,30.6676,33.7863,163.957,102.584,99.8241,,,,476.043,0.250265,0.0,0.0
680,169.75,30.9202,33.2441,162.966,102.578,100.122,,,,476.053,0.222354,0.0,0.0
688,171.75,30.7356,33.1466,160.165,102.569,100.21,,,,476.053,0.213496,0.0,0.0
696,173.75,31.0016,33.6461,162.27,102.568,99.781,,,,476.043,0.252826,0.0,0.0
699,174.5,30.7343,33.0673,164.518,102.559,99.9651,,,,476.053,0.235104,0.0,0.0