File: 02_Data/Polyester_Fabric/Cone/Polyester_Fabric_Cone_HF25Scan_210324_R2.csv
Names,Time,Stack TC,Smoke TC,Exh Press,Smoke Comp,Smoke Meas,CO Meter,CO2 Meter,O2 Meter,Sample Mass,Ext Coeff,Start Test,Flame Verif
Chan Gain,,500,500,1,1,1,1,1,1,1,1,1.0,1.0
Offset,,0,0,0.194005,0,0,0,0,0,0,0,0.0,0.0
Gain,,1,1,25.011,13.5067,16.616,1,1,1,1.00091,1.04608,1.0,1.0
Units,sec,C,C,Pa,%,%,%,%,%,g,/m,,
Baseline,,20.871,22.0636,167.91,101.812,100.925,0.000529793,0.113373,20.6972,-1.35506,0.0803034,,
9,2,18.84,19.8278,164.949,101.647,100.781,0.000292218,0.119341,20.6811,469.547,0.0784969,0.0,0.0
18,4.25,18.5586,19.5907,164.106,101.659,100.862,0.000354758,0.120483,20.6825,469.547,0.072239,0.0,0.0
27,6.5,18.6714,19.8876,164.741,101.649,100.698,0.00032512,0.121131,20.6853,469.437,0.0862125,0.0,0.0
36,8.75,18.5311,19.9086,169.674,101.66,100.744,0.000276893,0.121484,20.6874,469.678,0.0829762,0.0,0.0
45,11,18.6597,20.6621,162.229,101.656,100.849,0.000184767,0.121729,20.6882,470.258,0.0731224,0.0,0.0
54,13.25,18.9891,20.1683,164.095,101.665,100.687,0.000141706,0.121565,20.6886,469.257,0.0887176,0.0,0.0
63,15.5,18.7974,20.4148,167.805,101.665,100.729,0.000289129,0.12149,20.6892,468.947,0.0848914,0.0,0.0
72,17.75,18.8606,20.6758,167.205,101.67,100.463,0.000557518,0.121544,20.6871,468.927,0.109612,0.0,0.0
81,20,19.3414,20.4033,167.106,101.666,100.364,0.000665338,0.12192,20.6846,469.177,0.118323,0.0,0.0
90,22.25,19.4737,20.6267,164.144,101.677,100.27,0.000617892,0.122653,20.6809,469.367,0.127907,0.0,0.0
99,24.5,19.3521,20.6908,166.685,101.677,99.9463,0.000625461,0.124452,20.6746,469.397,0.157525,0.0,0.0
108,26.75,19.6197,20.6996,164.254,101.676,100.101,0.000717646,0.126683,20.6684,469.287,0.143225,0.0,0.0
117,29,19.5374,21.4701,165.231,101.689,98.7141,0.000894125,0.129508,20.6641,469.427,0.272473,0.0,1.0
126,31.25,19.9538,21.8282,165.192,101.69,98.5721,0.00114015,0.133126,20.6575,469.367,0.285755,0.0,1.0
135,33.5,18.4026,21.0177,172.325,101.67,97.7618,0.0013217,0.137058,20.6506,469.397,0.359714,0.0,0.0
144,35.75,18.6053,21.0363,165.918,101.688,97.6274,0.00133715,0.141283,20.6427,469.377,0.373898,0.0,0.0
153,38,19.0336,21.1997,163.585,101.676,96.8384,0.00147906,0.145981,20.6356,469.297,0.447318,0.0,0.0
162,40.25,19.7613,21.9838,166.321,101.662,96.989,0.00166105,0.151087,20.6253,469.297,0.431793,0.0,0.0
171,42.5,19.3259,22.0619,160.977,101.655,95.5438,0.00181986,0.157139,20.6129,469.227,0.568955,0.0,0.0
180,44.75,20.1871,22.7817,160.078,101.657,95.2868,0.00203413,0.163696,20.6043,469.197,0.593828,0.0,0.0
189,47,19.7594,23.1035,165.712,101.654,94.8664,0.00235541,0.170732,20.5954,469.117,0.634102,0.0,0.0
198,49.25,20.3067,23.1978,167.859,101.618,94.9196,0.00260311,0.177915,20.5892,469.057,0.625678,0.0,0.0
207,51.5,21.0689,24.4503,162.224,101.632,95.4617,0.00290289,0.18477,20.5834,469.017,0.574689,0.0,0.0
216,53.75,20.9445,24.1734,161.831,101.622,92.8994,0.00312171,0.191348,20.5784,468.897,0.823457,0.0,0.0
225,56,21.879,25.2957,163.99,101.585,91.9664,0.00338165,0.198076,20.5704,468.847,0.912806,0.0,0.0
234,58.25,23.3703,24.9189,161.432,101.579,89.251,0.00373913,0.20464,20.5616,468.717,1.18726,0.0,0.0
243,60.5,22.6237,26.5534,158.334,101.566,88.3352,0.00420685,0.21228,20.5411,468.577,1.28075,0.0,0.0
252,62.75,23.1472,27.3813,160.251,101.545,88.856,0.00482809,0.223483,20.5122,468.436,1.22487,0.0,0.0
261,65,24.1013,28.6724,157.918,101.535,85.6918,0.00552618,0.237806,20.49,468.286,1.55674,0.0,0.0
270,67.25,24.8321,29.8579,161.235,101.533,86.5954,0.00601721,0.251939,20.4691,468.106,1.46022,0.0,0.0
279,69.5,25.3324,30.4492,160.448,101.514,87.64,0.00589857,0.267901,20.465,468.116,1.34856,0.0,0.0
288,71.75,25.4968,30.724,163.597,101.524,90.2302,0.00540061,0.279382,20.4755,467.896,1.08211,0.0,0.0
297,74,25.4726,30.4263,165.702,101.51,94.0277,0.00450856,0.283736,20.4993,467.816,0.702593,0.0,0.0
306,76.25,24.8042,29.6359,167.816,101.524,98.7851,0.00344862,0.279501,20.5462,467.786,0.250912,0.0,0.0
315,78.5,24.0947,28.4684,165.43,101.498,100.613,0.0026595,0.268118,20.5885,467.766,0.0803958,0.0,0.0
324,80.75,23.5351,27.4251,166.754,101.491,100.68,0.00203535,0.251611,20.6238,467.796,0.073576,0.0,0.0
333,83,23.0142,26.0815,171.525,101.477,100.548,0.0016085,0.232469,20.6486,467.776,0.0843333,0.0,0.0
342,85.25,21.3485,24.291,168.503,101.467,100.531,0.00136206,0.213794,20.6643,467.806,0.0850042,0.0,0.0
351,87.5,21.0291,23.9452,164.483,101.477,100.667,0.00121397,0.197291,20.6724,467.816,0.0735012,0.0,0.0
360,89.75,20.6362,23.8983,167.061,101.445,100.685,0.000923408,0.184614,20.6787,467.806,0.0690596,0.0,0.0
369,92,20.4871,22.7521,166.279,101.453,100.696,0.000550378,0.17144,20.6832,467.826,0.0687057,0.0,0.0
378,94.25,20.5142,22.2322,163.945,101.45,100.639,0.000382017,0.161375,20.6861,467.816,0.0736303,0.0,0.0
387,96.5,19.4584,21.5236,164.865,101.445,100.661,0.000289498,0.15335,20.6875,467.786,0.0711493,0.0,0.0
396,98.75,20.0139,21.2308,164.764,101.45,100.64,0.000285932,0.147244,20.6893,467.766,0.0735381,0.0,0.0
405,101,19.2661,21.1376,165.006,101.451,100.555,0.000440416,0.141766,20.6924,467.796,0.0814204,0.0,0.0
414,103.25,19.4939,20.86,170.369,101.464,100.69,0.00045249,0.137061,20.6938,467.816,0.0702299,0.0,0.0
423,105.5,19.3154,20.8365,165.94,101.444,100.602,0.000392116,0.133485,20.692,467.816,0.0764838,0.0,0.0
432,107.75,19.1258,21.0507,165.014,101.464,100.566,0.000396416,0.131076,20.6887,467.786,0.0815126,0.0,0.0
441,110,19.2102,20.6024,165.491,101.469,100.504,0.000475475,0.129939,20.6866,467.786,0.0876526,0.0,0.0
450,112.25,18.9918,20.6483,171.67,101.463,100.721,0.000523093,0.129298,20.685,467.806,0.0673745,0.0,0.0
459,114.5,18.9586,19.9883,165.653,101.477,100.637,0.000544176,0.128773,20.6865,467.786,0.0763124,0.0,0.0
468,116.75,18.3125,20.2052,167.563,101.485,100.704,0.000539811,0.127919,20.69,467.776,0.0708834,0.0,0.0
477,119,18.7951,19.2783,161.586,101.491,100.667,0.00047725,0.126515,20.6928,467.786,0.0748065,0.0,0.0
486,121.25,18.6156,19.3859,166.368,101.495,100.598,0.000363692,0.125338,20.6959,467.786,0.0814768,0.0,0.0
495,123.5,18.218,20.0441,169.149,101.504,100.615,0.000325567,0.123749,20.6979,467.806,0.0807233,0.0,0.0
504,125.75,18.6003,19.5711,166.521,101.531,100.744,0.000318521,0.122319,20.6987,467.816,0.071323,0.0,0.0
513,128,18.3711,19.9267,167.253,101.524,100.618,0.000327177,0.121275,20.699,467.796,0.0822433,0.0,0.0
522,130.25,17.9908,19.2462,169.919,101.54,100.708,0.00038207,0.120337,20.6991,467.796,0.0754228,0.0,0.0
531,132.5,17.9655,19.3834,167.855,101.543,100.669,0.000411826,0.11929,20.6984,467.786,0.0792789,0.0,0.0
540,134.75,17.724,19.2912,165.148,101.559,100.728,0.000436924,0.117968,20.4655,467.776,0.0753349,0.0,0.0
549,137,18.5765,18.958,165.899,101.562,100.687,0.000412672,0.115727,20.2311,467.816,0.0794209,0.0,0.0
558,139.25,18.1906,19.0811,165.383,100.975,100.68,0.000377411,0.114393,20.1365,467.816,0.0269191,0.0,0.0
567,141.5,17.6269,19.3535,165.616,0.187959,-0.0116628,0.000376267,0.113931,20.1001,467.816,0,0.0,0.0
576,143.75,18.0852,19.3253,168.896,0.171472,-0.00760619,0.00039837,0.113808,20.3662,467.816,0,0.0,0.0
585,146,17.9946,19.8057,170.045,0.158694,-0.0101416,0.000337559,0.113762,20.5551,467.816,0,0.0,0.0
594,148.25,18.1521,19.0381,171.785,0.166937,-0.00912742,0.000279922,0.113902,20.6285,467.816,0,0.0,0.0
603,150.5,18.2291,19.0559,168.563,0.168174,-0.00354955,0.000232417,0.113901,20.6563,467.816,0,0.0,0.0
612,152.75,17.5565,18.6861,168.583,0.145916,0.00709911,0.000209043,0.113659,20.6674,467.816,27.74,0.0,0.0
621,155,17.5306,19.4775,169.113,0.172708,-0.0177478,0.00031433,0.113474,20.6718,467.816,0,0.0,0.0
630,157.25,17.6916,19.3559,166.775,0.155808,-0.0395522,0.000415733,0.113554,20.6735,467.816,0,0.0,0.0
639,159.5,17.4787,18.4564,167.566,0.152099,0.0228186,0.00039956,0.113628,20.6741,467.816,17.4067,0.0,0.0
648,161.75,17.658,19.1902,167.794,0.162403,0.0380309,0.000397901,0.113758,20.6741,467.816,13.3208,0.0,0.0
657,164,17.7987,18.9539,164.575,0.172296,-0.0324531,0.000423475,0.113662,20.6733,467.816,0,0.0,0.0
666,166.25,17.9795,18.6545,168.632,0.139733,-0.00862034,0.000352189,0.113608,20.6737,467.816,0,0.0,0.0
675,168.5,17.5465,19.211,170.527,0.158694,0.00659203,0.000217498,0.113747,20.6741,467.816,29.1903,0.0,0.0
684,170.75,17.9383,18.668,168.12,0.156633,-0.0329601,0.000315233,0.113853,20.6742,467.816,0,0.0,0.0
693,173,17.4751,18.5319,167.447,0.147977,0.038538,0.000535237,0.113723,20.6748,467.816,12.3456,0.0,0.0
702,175.25,17.6002,18.7648,165.628,0.142618,0.0228186,0.000519502,0.113661,20.675,467.816,16.8161,0.0,0.0
711,177.5,17.3429,18.5183,168.873,0.154984,-0.0218044,0.00027237,0.113667,20.6751,467.816,0,0.0,0.0
720,179.75,17.2547,18.8603,168.175,0.152511,0.0806256,0.000190078,0.113646,20.6752,467.816,5.84904,0.0,0.0
729,182,17.6019,18.4048,172.03,0.18631,-0.0172407,0.000206925,0.113692,20.6752,467.816,0,0.0,0.0
738,184.25,17.4611,18.6866,167.701,0.157045,-0.00557787,7.04612e-05,0.113759,20.6744,467.816,0,0.0,0.0
747,186.5,17.5207,18.4346,165.41,0.154984,-0.00912742,-3.48713e-05,0.11379,20.6734,467.816,0,0.0,0.0
756,188.75,17.5308,18.6787,168.399,0.15416,-0.0228186,3.3526e-06,0.113703,20.673,467.816,0,0.0,0.0
765,191,17.246,18.692,167.066,0.152511,0.025861,7.56049e-05,0.113738,20.6725,467.816,16.283,0.0,0.0
774,193.25,17.6499,18.7384,163.902,0.159106,0.0263681,,0.113639,,467.816,16.4933,0.0,0.0
783,195.5,17.467,18.5557,169.037,0.157045,0.0436088,,0.113664,,467.816,11.7571,0.0,0.0
792,197.75,17.2731,18.5946,163.129,0.177654,-0.00354955,,,,467.816,0,0.0,0.0
801,200,17.2756,18.4724,168.904,0.150862,0.0136911,,,,467.816,22.0192,0.0,0.0
810,202.25,17.4168,18.0145,166.918,0.237422,0.0476654,,,,467.816,14.7335,0.0,0.0
816,203.75,17.2866,18.5335,169.219,0.18425,0.00557787,,,,467.816,32.0933,0.0,0.0