File: 01_Data/Bean_Bag_Chair_Beads/MCC/Bean_Bag_Chair_Beads_MCC_30K_min_220315_R2.txt
Sample ID:	C:\MCC\MCC Cal\Test\Bean_Bag_Chair_Beads_MCC_30K_min_220315_R2.txt
Sample Weight (mg):	4.73
Heating Rate (C/s):	0.5
Combustor Temp (C):	900
N2 Flow Rate (cc/min):	80
O2 Flow Rate (cc/min):	20
Calibration File:	C:\MCC\MCC Cal\Coeff1 JN10440_30_210304.txt.txt
T Correction Coefficients:	0	1.024463	0
Time Shift (s):	14
*
Time (s)	Temperature (C)	N2 flow rate (cc/min)	O2 flow rate (cc/min)	Flow Rate (cc/min)	Oxygen (%)	HRR (W/g)	Heating rate (C/s)
0.000	108.832	80.010	19.995	103.703	19.974	0.585	0.009
8.000	108.835	80.011	19.994	103.708	19.979	0.248	0.003
16.000	108.934	80.011	19.994	103.838	19.956	1.854	0.079
24.000	109.526	80.010	19.993	103.871	19.943	2.729	0.107
32.000	110.574	80.012	19.993	103.910	19.938	3.105	0.134
40.000	112.043	80.013	19.993	103.943	19.929	3.725	0.204
48.000	113.929	80.009	19.993	103.961	19.929	3.699	0.292
56.000	116.206	80.010	19.994	103.982	19.922	4.194	0.291
64.000	118.928	80.011	19.994	103.983	19.924	4.055	0.358
72.000	121.812	80.010	19.993	103.971	19.923	4.124	0.359
80.001	125.006	80.010	19.995	103.961	19.927	3.824	0.404
88.000	128.300	80.011	19.994	103.973	19.925	3.983	0.430
96.000	131.804	80.013	19.995	103.973	19.922	4.166	0.425
104.000	135.442	80.013	19.993	103.977	19.922	4.195	0.468
112.000	139.140	80.012	19.993	103.973	19.921	4.260	0.448
120.000	142.984	80.012	19.994	103.973	19.920	4.322	0.465
128.000	146.871	80.011	19.993	103.974	19.919	4.389	0.461
136.000	150.875	80.011	19.993	103.978	19.915	4.633	0.509
144.000	154.824	80.011	19.993	103.958	19.915	4.638	0.484
152.000	158.770	80.011	19.993	103.947	19.916	4.588	0.505
160.000	162.744	80.011	19.994	103.938	19.917	4.494	0.510
168.000	166.777	80.009	19.995	103.943	19.916	4.612	0.508
176.000	170.776	80.011	19.994	103.931	19.920	4.280	0.491
184.000	174.746	80.011	19.995	103.942	19.918	4.428	0.493
192.000	178.776	80.011	19.995	103.938	19.920	4.301	0.498
200.000	182.781	80.012	19.993	103.922	19.923	4.096	0.522
208.000	186.723	80.014	19.993	103.911	19.918	4.413	0.506
216.000	190.681	80.011	19.994	103.914	19.919	4.378	0.490
224.000	194.601	80.010	19.994	103.913	19.918	4.425	0.493
232.000	198.565	80.011	19.994	103.905	19.917	4.500	0.518
240.000	202.413	80.010	19.993	103.906	19.913	4.784	0.450
248.000	206.268	80.011	19.995	103.907	19.918	4.475	0.460
256.000	210.229	80.009	19.994	103.907	19.913	4.777	0.472
264.000	214.184	80.012	19.994	103.845	19.912	4.871	0.474
272.000	218.042	80.012	19.994	103.901	19.914	4.745	0.519
280.000	221.924	80.011	19.995	103.902	19.911	4.944	0.481
288.000	225.872	80.014	19.994	103.894	19.910	5.011	0.480
296.000	229.811	80.012	19.995	103.892	19.910	4.984	0.514
304.000	233.967	80.011	19.993	103.901	19.908	5.158	0.483
312.000	237.780	80.009	19.993	103.888	19.902	5.563	0.524
320.000	241.662	80.011	19.994	103.888	19.909	5.091	0.476
328.000	245.681	80.010	19.994	103.890	19.905	5.353	0.523
336.000	249.753	80.010	19.993	103.879	19.905	5.356	0.558
344.000	253.761	80.013	19.994	103.878	19.900	5.674	0.498
352.000	257.783	80.013	19.993	103.890	19.903	5.492	0.488
360.000	261.766	80.013	19.994	103.885	19.904	5.379	0.487
368.000	265.824	80.012	19.995	103.883	19.897	5.871	0.496
376.000	269.879	80.013	19.993	103.873	19.903	5.491	0.515
384.000	273.853	80.010	19.995	103.871	19.897	5.851	0.479
392.000	277.844	80.010	19.995	103.868	19.890	6.330	0.506
400.000	281.837	80.011	19.995	103.866	19.889	6.458	0.479
408.000	285.802	80.011	19.993	103.866	19.885	6.701	0.493
416.000	289.761	80.010	19.994	103.866	19.877	7.252	0.488
424.000	293.742	80.011	19.993	103.867	19.873	7.519	0.487
432.000	297.626	80.013	19.994	103.867	19.868	7.898	0.483
440.000	301.570	80.013	19.993	103.862	19.855	8.765	0.492
448.000	305.530	80.014	19.995	103.874	19.845	9.473	0.500
456.000	309.491	80.013	19.993	103.866	19.840	9.751	0.511
464.000	313.515	80.013	19.993	103.867	19.833	10.246	0.493
472.000	317.565	80.010	19.994	103.865	19.817	11.380	0.511
480.000	321.584	80.012	19.995	103.859	19.805	12.210	0.514
488.000	325.574	80.012	19.995	103.862	19.788	13.319	0.512
496.000	329.599	80.012	19.995	103.863	19.766	14.825	0.534
504.000	333.619	80.012	19.994	103.864	19.748	16.066	0.478
512.000	337.676	80.012	19.993	103.869	19.727	17.549	0.511
520.000	341.669	80.012	19.993	103.865	19.696	19.667	0.496
528.000	345.660	80.012	19.993	103.868	19.665	21.745	0.483
536.000	349.685	80.013	19.993	103.875	19.624	24.578	0.529
544.000	353.688	80.014	19.994	103.863	19.565	28.621	0.524
552.000	357.694	80.013	19.993	103.873	19.500	33.059	0.496
560.000	361.757	80.010	19.993	103.860	19.419	38.624	0.510
568.000	365.741	80.012	19.993	103.865	19.314	45.849	0.489
576.000	369.806	80.012	19.994	103.900	19.196	53.946	0.520
584.000	373.820	80.011	19.994	103.903	19.043	64.414	0.519
592.000	377.896	80.010	19.996	103.901	18.849	77.725	0.497
600.000	381.936	80.013	19.995	103.925	18.618	93.595	0.502
608.000	385.979	80.012	19.994	103.942	18.324	113.726	0.505
616.000	390.063	80.014	19.994	103.933	18.023	134.395	0.538
624.000	394.117	80.014	19.994	104.002	17.649	160.195	0.504
632.000	398.109	80.013	19.993	104.013	17.133	195.345	0.529
640.000	402.150	80.013	19.993	103.864	16.456	242.286	0.525
648.000	406.065	80.012	19.995	104.172	15.791	287.918	0.484
656.000	410.021	80.011	19.996	103.923	15.165	330.756	0.489
664.000	413.876	80.011	19.993	104.079	14.539	373.680	0.477
672.000	417.727	80.011	19.994	104.060	14.114	401.828	0.475
680.000	421.643	80.010	19.995	104.058	13.722	430.173	0.490
688.000	425.550	80.013	19.994	104.288	13.940	415.388	0.508
696.000	429.539	80.016	19.995	104.130	14.570	371.090	0.485
704.000	433.620	80.016	19.993	104.091	15.342	318.673	0.527
712.000	437.755	80.017	19.993	104.252	16.497	239.222	0.527
720.000	441.867	80.012	19.994	104.063	17.560	166.194	0.520
728.000	446.064	80.010	19.993	104.029	18.398	108.705	0.529
736.000	450.185	80.013	19.992	103.957	18.973	69.238	0.544
744.000	454.300	80.013	19.993	103.930	19.325	45.048	0.531
752.000	458.432	80.014	19.992	103.872	19.522	31.530	0.517
760.000	462.548	80.012	19.995	103.847	19.640	23.488	0.519
768.000	466.540	80.016	19.993	103.815	19.722	17.884	0.455
776.000	470.578	80.008	19.994	103.818	19.787	13.419	0.514
784.000	474.638	80.012	19.994	103.833	19.840	9.793	0.510
792.000	478.694	80.013	19.993	103.844	19.865	8.071	0.524
800.000	482.788	80.016	19.993	103.831	19.872	7.617	0.532
808.000	486.833	80.013	19.995	103.835	19.879	7.144	0.492
816.000	490.894	80.013	19.993	103.838	19.875	7.407	0.501
824.000	495.019	80.011	19.993	103.836	19.872	7.566	0.517
832.000	499.125	80.014	19.994	103.831	19.873	7.547	0.515
840.000	503.197	80.012	19.993	103.840	19.877	7.274	0.491
848.000	507.289	80.010	19.994	103.837	19.879	7.130	0.525
856.000	511.391	80.014	19.995	103.831	19.874	7.451	0.532
864.000	515.475	80.010	19.995	103.825	19.874	7.434	0.509
872.000	519.492	80.015	19.993	103.825	19.878	7.207	0.503
880.000	523.523	80.008	19.994	103.828	19.880	7.008	0.511
888.000	527.549	80.014	19.996	103.842	19.877	7.266	0.518
896.000	531.782	80.010	19.995	103.851	19.876	7.335	0.523
904.000	536.088	80.019	19.992	103.851	19.875	7.416	0.543
912.000	540.432	80.011	19.993	103.851	19.874	7.436	0.545
920.000	544.807	80.014	19.992	103.844	19.870	7.738	0.551
928.000	549.261	80.012	19.993	103.845	19.875	7.389	0.553
936.000	553.588	80.018	19.993	103.856	19.876	7.303	0.511
944.000	557.892	80.018	19.994	103.841	19.871	7.661	0.534
952.000	562.181	80.013	19.993	103.837	19.871	7.687	0.513
960.000	566.507	80.014	19.994	103.835	19.874	7.473	0.543
968.000	570.719	80.012	19.994	103.839	19.871	7.690	0.550
976.000	575.042	80.026	19.993	103.827	19.874	7.442	0.538
984.000	579.275	80.013	19.994	103.835	19.871	7.634	0.503
992.000	583.625	80.012	19.994	103.854	19.873	7.525	0.575
1000.000	587.845	80.011	19.992	103.840	19.874	7.443	0.546
1008.000	592.020	80.017	19.992	103.838	19.867	7.903	0.555
1016.000	596.200	80.020	19.993	103.836	19.872	7.618	0.503
1024.000	600.320	80.010	19.995	103.848	19.868	7.867	0.506
1032.000	604.457	80.006	19.995	103.849	19.865	8.063	0.491
1040.000	608.618	80.020	19.994	103.842	19.868	7.893	0.539
1048.000	612.712	80.013	19.994	103.834	19.865	8.055	0.541
1056.000	616.758	80.022	19.993	103.833	19.864	8.109	0.510
1064.000	620.746	80.014	19.994	103.835	19.864	8.139	0.509
1072.000	624.707	80.013	19.993	103.832	19.862	8.280	0.519
1080.001	628.661	80.012	19.994	103.833	19.860	8.398	0.486
1088.000	632.592	80.012	19.992	103.839	19.867	7.924	0.500
1096.000	636.651	80.009	19.996	103.797	19.864	8.124	0.497
1104.000	640.724	80.010	19.991	103.807	19.870	7.697	0.525
1112.000	644.668	80.013	19.994	103.820	19.867	7.960	0.486
1120.000	648.707	80.014	19.994	103.808	19.873	7.516	0.504
1128.000	652.723	80.014	19.993	103.812	19.869	7.826	0.486
1136.000	656.795	80.018	19.993	103.808	19.868	7.866	0.455
1144.000	660.895	80.014	19.993	103.818	19.859	8.513	0.543
1152.000	665.118	80.011	19.995	103.821	19.862	8.302	0.554
1160.000	669.324	80.013	19.996	103.823	19.862	8.280	0.570
1168.001	673.535	80.010	19.998	103.822	19.864	8.148	0.549
1176.000	677.748	80.014	19.989	103.824	19.865	8.097	0.513
1184.000	681.790	80.011	19.994	103.816	19.861	8.341	0.514
1192.000	685.662	80.015	19.992	103.802	19.864	8.140	0.471
1200.000	689.477	80.012	19.994	103.807	19.861	8.372	0.483
1208.001	693.323	80.015	19.994	103.812	19.860	8.442	0.504
1216.000	697.289	80.013	19.990	103.805	19.861	8.312	0.540
1224.000	701.349	80.012	19.998	103.821	19.859	8.460	0.508
1232.000	705.506	80.011	19.996	103.821	19.857	8.616	0.549
1240.000	709.722	80.013	19.992	103.828	19.857	8.636	0.519
1248.000	713.906	80.014	19.992	103.816	19.857	8.630	0.542
1256.000	718.084	80.016	19.997	103.819	19.857	8.641	0.498
1264.001	722.013	80.014	19.990	103.820	19.859	8.502	0.476
1272.001	725.934	80.012	19.991	103.831	19.857	8.612	0.474
1280.000	729.830	80.016	19.994	103.822	19.854	8.848	0.474
1288.000	733.771	80.013	19.997	103.824	19.854	8.813	0.478
1296.000	737.793	80.014	19.994	103.819	19.855	8.757	0.500
1304.001	742.001	80.015	19.993	103.823	19.850	9.102	0.543
1310.000	745.168	80.016	19.993	103.828	19.847	9.302	0.512