File: 01_Data/Bean_Bag_Chair_Beads/MCC/Bean_Bag_Chair_Beads_MCC_30K_min_220315_R1.txt
Sample ID:	C:\MCC\MCC Cal\Test\Bean_Bag_Chair_Beads_MCC_30K_min_220315_R1.txt
Sample Weight (mg):	4.58
Heating Rate (C/s):	0.5
Combustor Temp (C):	900
N2 Flow Rate (cc/min):	80
O2 Flow Rate (cc/min):	20
Calibration File:	C:\MCC\MCC Cal\Coeff1 JN10440_30_210304.txt.txt
T Correction Coefficients:	0	1.024463	0
Time Shift (s):	14
*
Time (s)	Temperature (C)	N2 flow rate (cc/min)	O2 flow rate (cc/min)	Flow Rate (cc/min)	Oxygen (%)	HRR (W/g)	Heating rate (C/s)
0.000	107.328	80.011	19.994	103.704	19.983	-0.240	-0.001
8.000	107.295	80.014	19.994	103.702	19.978	0.130	0.005
16.000	107.291	80.013	19.995	103.708	19.979	0.075	0.021
24.000	107.328	80.013	19.995	103.713	19.976	0.273	-0.008
32.000	107.424	80.015	19.992	103.811	19.960	1.404	0.004
40.000	108.006	80.012	19.993	103.909	19.943	2.590	0.062
48.001	109.148	80.012	19.994	103.935	19.943	2.600	0.169
56.000	110.631	80.010	19.994	103.908	19.936	3.098	0.203
64.000	112.574	80.012	19.994	103.918	19.937	3.047	0.284
72.000	114.694	80.012	19.995	103.942	19.934	3.198	0.279
80.000	117.125	80.012	19.995	103.946	19.932	3.356	0.347
88.000	119.835	80.015	19.994	103.945	19.932	3.356	0.371
96.000	122.779	80.013	19.994	103.941	19.929	3.558	0.375
104.000	125.885	80.014	19.994	103.967	19.925	3.841	0.421
112.000	129.221	80.012	19.994	103.983	19.931	3.467	0.448
120.000	132.678	80.015	19.993	103.974	19.929	3.587	0.425
128.000	136.372	80.012	19.993	103.975	19.928	3.626	0.466
136.000	140.139	80.011	19.994	103.960	19.927	3.742	0.473
144.000	143.984	80.012	19.996	103.960	19.933	3.284	0.513
152.000	147.895	80.012	19.994	103.963	19.932	3.352	0.497
160.000	151.882	80.011	19.995	103.952	19.933	3.307	0.484
168.000	155.794	80.012	19.993	103.953	19.931	3.456	0.487
176.000	159.736	80.014	19.994	103.947	19.929	3.584	0.488
184.001	163.709	80.012	19.994	103.941	19.933	3.309	0.523
192.000	167.736	80.013	19.995	103.944	19.932	3.347	0.517
200.000	171.710	80.013	19.995	103.942	19.934	3.266	0.529
208.000	175.705	80.012	19.993	103.934	19.935	3.163	0.517
216.000	179.689	80.011	19.995	103.928	19.935	3.194	0.503
224.000	183.658	80.013	19.993	103.926	19.934	3.246	0.488
232.000	187.650	80.012	19.993	103.920	19.940	2.819	0.493
240.000	191.648	80.011	19.994	103.927	19.937	3.033	0.485
248.000	195.631	80.010	19.995	103.919	19.934	3.211	0.491
256.000	199.604	80.011	19.995	103.924	19.936	3.061	0.492
264.000	203.486	80.013	19.994	103.909	19.934	3.217	0.465
272.000	207.425	80.011	19.995	103.906	19.936	3.098	0.497
280.000	211.426	80.014	19.995	103.903	19.935	3.183	0.503
288.000	215.417	80.013	19.995	103.902	19.935	3.160	0.475
296.000	219.410	80.015	19.994	103.904	19.936	3.079	0.520
304.000	223.336	80.012	19.993	103.906	19.933	3.278	0.506
312.000	227.280	80.009	19.994	103.905	19.927	3.732	0.501
320.000	231.328	80.012	19.994	103.903	19.932	3.377	0.545
328.000	235.090	80.010	19.994	103.908	19.930	3.537	0.321
336.000	239.235	80.011	19.994	103.903	19.928	3.656	0.497
344.000	243.184	80.014	19.994	103.889	19.932	3.344	0.502
352.000	247.165	80.012	19.993	103.889	19.931	3.476	0.510
360.000	251.264	80.009	19.994	103.892	19.928	3.674	0.496
368.000	255.252	80.016	19.994	103.899	19.930	3.534	0.513
376.000	259.249	80.012	19.995	103.899	19.930	3.541	0.539
384.000	263.233	80.011	19.995	103.890	19.931	3.450	0.467
392.000	267.259	80.015	19.994	103.893	19.927	3.719	0.510
400.000	271.268	80.017	19.993	103.881	19.926	3.762	0.486
408.000	275.231	80.017	19.994	103.874	19.922	4.099	0.488
416.000	279.249	80.009	19.994	103.878	19.920	4.249	0.470
424.000	283.232	80.016	19.994	103.869	19.919	4.260	0.473
432.000	287.205	80.013	19.994	103.867	19.912	4.795	0.512
440.000	291.208	80.018	19.995	103.872	19.910	4.940	0.497
448.000	295.173	80.009	19.994	103.871	19.906	5.238	0.489
456.000	299.216	80.018	19.994	103.865	19.901	5.544	0.529
464.000	303.195	80.017	19.992	103.873	19.894	6.060	0.499
472.000	307.180	80.013	19.995	103.866	19.887	6.538	0.497
480.000	311.199	80.016	19.995	103.867	19.878	7.194	0.464
488.000	315.250	80.017	19.994	103.863	19.865	8.107	0.480
496.000	319.265	80.013	19.993	103.871	19.851	9.123	0.486
504.000	323.221	80.011	19.993	103.871	19.830	10.578	0.504
512.000	327.249	80.013	19.993	103.866	19.810	12.037	0.483
520.000	331.208	80.012	19.993	103.866	19.791	13.378	0.519
528.000	335.280	80.013	19.993	103.869	19.767	15.014	0.494
536.000	339.304	80.014	19.993	103.868	19.758	15.652	0.489
544.000	343.343	80.011	19.993	103.861	19.740	16.947	0.504
552.000	347.343	80.012	19.995	103.864	19.720	18.390	0.512
560.000	351.358	80.012	19.994	103.872	19.674	21.614	0.507
568.000	355.348	80.011	19.995	103.869	19.632	24.627	0.472
576.000	359.350	80.010	19.995	103.882	19.576	28.530	0.504
584.000	363.316	80.009	19.995	103.887	19.498	34.093	0.519
592.000	367.323	80.014	19.994	103.891	19.404	40.716	0.473
600.000	371.319	80.012	19.993	103.905	19.292	48.701	0.491
608.000	375.376	80.013	19.993	103.904	19.133	59.954	0.515
616.000	379.400	80.011	19.996	103.917	18.939	73.662	0.507
624.000	383.435	80.015	19.993	103.914	18.713	89.680	0.490
632.000	387.461	80.014	19.994	103.969	18.393	112.393	0.501
640.000	391.522	80.015	19.993	103.965	18.005	139.895	0.535
648.000	395.517	80.004	19.996	103.987	17.575	170.275	0.490
656.000	399.619	80.007	19.994	104.058	16.989	212.419	0.541
664.000	403.630	80.012	19.993	104.057	16.322	259.429	0.504
672.000	407.697	80.024	19.992	103.766	15.690	304.119	0.504
680.000	411.627	80.017	19.995	104.092	15.055	349.188	0.458
688.000	415.487	80.011	19.994	104.062	14.438	392.749	0.488
696.000	419.431	80.020	19.992	104.064	13.995	424.501	0.465
704.000	423.328	80.011	19.994	104.122	13.882	432.396	0.485
712.000	427.276	80.018	19.992	104.185	14.129	415.383	0.481
720.000	431.279	79.999	19.994	104.235	14.881	361.813	0.497
728.000	435.439	80.011	19.993	104.174	15.896	289.614	0.523
736.000	439.594	80.021	19.993	104.122	16.983	212.426	0.528
744.000	443.813	80.014	19.995	104.075	17.976	141.984	0.541
752.000	448.055	80.005	19.998	104.020	18.706	90.164	0.495
760.000	452.280	80.011	19.996	103.954	19.186	56.192	0.531
768.000	456.486	80.014	19.992	103.910	19.468	36.202	0.494
776.000	460.641	80.011	19.995	103.875	19.631	24.669	0.508
784.000	464.741	80.009	19.994	103.834	19.738	17.118	0.527
792.000	468.788	80.024	19.992	103.820	19.809	12.070	0.525
800.000	472.795	80.018	19.994	103.845	19.874	7.482	0.499
808.000	476.884	80.009	19.993	103.856	19.922	4.065	0.557
816.000	480.928	80.018	19.992	103.824	19.927	3.739	0.549
824.000	484.954	80.006	19.993	103.832	19.939	2.894	0.527
832.000	488.978	80.015	19.994	103.834	19.939	2.891	0.498
840.000	493.048	80.012	19.995	103.832	19.939	2.873	0.522
848.000	497.138	80.025	19.999	103.821	19.939	2.884	0.503
856.000	501.132	80.015	19.994	103.827	19.943	2.563	0.511
864.000	505.169	80.015	19.993	103.809	19.945	2.479	0.501
872.000	509.176	80.016	19.995	103.796	19.949	2.148	0.506
880.000	513.250	80.014	19.993	103.799	19.948	2.250	0.505
888.000	517.345	80.012	19.996	103.809	19.951	2.045	0.536
896.000	521.404	80.015	19.993	103.812	19.948	2.216	0.497
904.000	525.537	80.011	19.994	103.814	19.952	1.983	0.516
912.000	529.587	80.008	19.994	103.821	19.945	2.416	0.509
920.000	533.708	80.015	19.994	103.817	19.949	2.173	0.532
928.000	537.772	80.012	19.993	103.813	19.947	2.317	0.533
936.000	541.838	80.014	19.993	103.820	19.951	2.042	0.533
944.000	545.914	80.012	19.993	103.816	19.944	2.553	0.511
952.000	549.953	80.013	19.994	103.805	19.944	2.501	0.497
960.000	553.970	80.014	19.993	103.821	19.941	2.740	0.511
968.000	558.051	80.010	19.998	103.818	19.946	2.388	0.521
976.000	562.080	80.012	19.995	103.810	19.940	2.772	0.512
984.000	566.106	80.015	19.991	103.810	19.939	2.845	0.492
992.000	570.080	80.013	19.995	103.809	19.944	2.491	0.490
1000.000	574.190	80.007	19.995	103.822	19.942	2.628	0.542
1008.000	578.306	80.015	19.991	103.817	19.946	2.392	0.533
1016.000	582.388	80.014	19.994	103.815	19.948	2.268	0.539
1024.001	586.473	80.015	19.990	103.819	19.945	2.460	0.521
1032.000	590.543	80.014	19.993	103.817	19.944	2.526	0.505
1040.000	594.641	80.016	19.996	103.824	19.950	2.086	0.554
1048.000	598.629	80.012	19.991	103.824	19.946	2.400	0.510
1056.000	602.685	80.015	19.995	103.823	19.950	2.096	0.486
1064.000	606.708	80.013	19.995	103.824	19.946	2.346	0.481
1072.000	610.721	80.010	19.996	103.820	19.949	2.162	0.502
1080.000	614.766	80.015	19.992	103.823	19.944	2.553	0.531
1088.000	618.763	80.013	19.994	103.813	19.944	2.505	0.488
1096.000	622.777	80.014	19.992	103.824	19.946	2.404	0.488
1104.001	626.804	80.013	19.993	103.820	19.943	2.565	0.512
1112.000	630.847	80.014	19.993	103.824	19.942	2.631	0.528
1120.000	634.895	80.010	19.992	103.823	19.942	2.687	0.498
1128.001	639.043	80.012	19.989	103.829	19.944	2.524	0.494
1136.000	643.101	80.012	19.992	103.810	19.941	2.726	0.522
1144.000	647.039	80.013	19.997	103.812	19.939	2.850	0.478
1152.001	651.053	80.013	19.994	103.816	19.944	2.549	0.517
1160.000	655.050	80.012	19.993	103.822	19.944	2.487	0.514
1168.000	659.094	80.012	19.994	103.824	19.942	2.648	0.501
1176.000	663.021	80.012	19.996	103.825	19.939	2.865	0.511
1184.000	666.974	80.015	19.993	103.825	19.940	2.811	0.508
1192.001	670.912	80.013	19.993	103.827	19.940	2.815	0.487
1200.000	674.871	80.015	19.994	103.829	19.940	2.805	0.525
1208.000	678.838	80.014	19.994	103.816	19.940	2.792	0.525
1216.000	682.982	80.011	19.994	103.826	19.940	2.805	0.523
1224.000	687.355	80.013	19.992	103.827	19.944	2.497	0.577
1232.001	691.859	80.013	19.994	103.828	19.939	2.865	0.555
1240.000	696.468	80.013	19.995	103.829	19.943	2.625	0.536
1248.000	700.974	80.012	19.995	103.825	19.940	2.807	0.561
1256.000	705.392	80.012	19.994	103.830	19.940	2.782	0.547
1264.000	709.766	80.015	19.995	103.824	19.945	2.466	0.541
1272.000	714.129	80.013	19.995	103.824	19.941	2.704	0.550
1280.000	718.593	80.018	19.996	103.822	19.944	2.518	0.560
1288.000	722.982	80.014	19.994	103.806	19.943	2.595	0.544
1296.000	727.321	80.014	19.993	103.793	19.943	2.619	0.566
1304.001	731.584	80.011	19.993	103.815	19.942	2.688	0.545
1312.000	735.776	80.011	19.993	103.817	19.942	2.669	0.512
1320.000	739.972	80.012	19.993	103.803	19.947	2.301	0.563
1326.500	743.367	80.012	19.993	103.801	19.941	2.737	0.518