File: 01_Data/Cotton_Rug/HFM/Cotton_Rug_Density_Wet_R2.csv
,Cotton_Rug_WET_2
Sample Mass [g],55.8
Sample Volume [cm3],218.7
Sample Density [kg/m3],255