File: 01_Data/Cotton_Rug/HFM/Cotton_Rug_Density_Dry_R1.csv
,Cotton_Rug_DRY_1
Sample Mass [g],53.5
Sample Volume [cm3],206.8
Sample Density [kg/m3],259