File: 01_Data/Cotton_Rug/HFM/Cotton_Rug_Density_Dry_R3.csv
,Cotton_Rug_DRY_3
Sample Mass [g],53.9
Sample Volume [cm3],209.8
Sample Density [kg/m3],257