File: 01_Data/Cotton_Rug/HFM/Cotton_Rug_Density_Wet_R1.csv
,Cotton_Rug_WET_1
Sample Mass [g],55.0
Sample Volume [cm3],206.8
Sample Density [kg/m3],266