File: 01_Data/Cotton_Rug/HFM/Cotton_Rug_Density_Wet_R3.csv
,Cotton_Rug_WET_3
Sample Mass [g],56.3
Sample Volume [cm3],209.8
Sample Density [kg/m3],268