File: 01_Data/Cotton_Rug/HFM/Cotton_Rug_Density_Dry_R2.csv
,Cotton_Rug_DRY_2
Sample Mass [g],53.9
Sample Volume [cm3],218.7
Sample Density [kg/m3],247