File: 01_Data/Mineral_Wool_Insulation/HFM/Mineral_Wool_Insulation_Density_Wet_R3.csv
,Mineral_Wool_Insulation_WET_3
Sample Mass [g],99.6
Sample Volume [cm3],1673.0
Sample Density [kg/m3],60