File: 01_Data/Mineral_Wool_Insulation/HFM/Mineral_Wool_Insulation_Density_Wet_R2.csv
,Mineral_Wool_Insulation_WET_2
Sample Mass [g],86.2
Sample Volume [cm3],1600.7
Sample Density [kg/m3],54