File: 01_Data/Mineral_Wool_Insulation/HFM/Mineral_Wool_Insulation_Density_Wet_R1.csv
,Mineral_Wool_Insulation_WET_1
Sample Mass [g],80.0
Sample Volume [cm3],1615.9
Sample Density [kg/m3],50