File: 01_Data/Vinyl_Plank_Flooring/HFM/Vinyl_Plank_Flooring_Density_Dry_R3.csv
,Vinyl_Plan_Flooring_DRY_3
Sample Mass [g],65.5
Sample Volume [cm3],100.6
Sample Density [kg/m3],651