File: 01_Data/Vinyl_Plank_Flooring/HFM/Vinyl_Plank_Flooring_Density_Dry_R2.csv
,Vinyl_Plan_Flooring_DRY_2
Sample Mass [g],66.9
Sample Volume [cm3],100.1
Sample Density [kg/m3],668