File: 01_Data/Vinyl_Plank_Flooring/HFM/Vinyl_Plank_Flooring_Density_Dry_R1.csv
,Vinyl_Plan_Flooring_DRY_1
Sample Mass [g],63.4
Sample Volume [cm3],103.8
Sample Density [kg/m3],611