File: 01_Data/LW_Gypsum/Cone/LW_Gypsum_Cone_HF75Scan_220506_R3.csv
Names,Time,Stack TC,Smoke TC,Exh Press,Smoke Comp,Smoke Meas,CO Meter,CO2 Meter,O2 Meter,Sample Mass,Ext Coeff,Start Test,Flame Verif
Chan Gain,,500,500,1,1,1,1,1,1,1,1,1.0,1.0
Offset,,0,0,0.135316,0,0,0,0,0,0,0,0.0,0.0
Gain,,1,1,25.011,13.8443,15.4071,1,1,1,1.00079,1.02936,1.0,1.0
Units,sec,C,C,Pa,%,%,%,%,%,g,/m,,
Baseline,,41.7806,43.3714,131.571,104.846,106.689,8.58321e-05,0.0419702,21.0042,-447.74,-0.157288,,
7,1.5,39.4062,40.6289,131.395,104.516,107.052,0.000263483,0.0445775,20.996,113.439,-0.216505,0.0,0.0
14,3.25,39.6054,41.4536,129.883,104.591,106.885,0.000318466,0.0448625,20.9957,113.439,-0.195954,0.0,0.0
21,5,39.5699,41.2081,130.884,104.656,107.192,0.000372271,0.0450389,20.9946,113.389,-0.216126,0.0,0.0
28,6.75,39.7646,41.6646,131.176,104.694,105.591,0.000474954,0.0450563,20.9951,113.219,-0.0770804,0.0,0.0
35,8.5,39.9448,41.578,130.222,104.727,105.644,0.000717797,0.0450279,20.9943,113.129,-0.0786677,0.0,0.0
42,10.25,39.9689,41.9029,131.353,104.76,104.133,0.0010261,0.0450062,20.9934,113.059,0.054227,0.0,0.0
49,12,40.0286,41.343,131.214,104.79,102.358,0.00143143,0.0454352,20.9895,112.829,0.212089,0.0,0.0
56,13.75,40.4761,41.8496,125.597,104.799,105.084,0.00180095,0.0530566,20.9664,112.589,-0.0245234,0.0,0.0
63,15.5,40.2384,42.1986,122.687,104.799,110.205,0.00200485,0.0912946,20.889,112.148,-0.454114,0.0,1.0
70,17.25,42.365,42.9051,105.711,104.8,110.658,0.00209354,0.15496,20.7744,111.928,-0.491141,0.0,1.0
77,19,45.099,45.3083,116.397,104.792,110.535,0.00217175,0.249499,20.6374,111.638,-0.481739,0.0,1.0
84,20.75,46.9223,46.7385,113.638,104.779,110.118,0.00234453,0.321478,20.565,111.308,-0.448732,0.0,0.0
91,22.5,49.1537,49.0442,114.665,104.776,109.164,0.00304615,0.364434,20.5404,110.988,-0.370419,0.0,0.0
98,24.25,51.3226,50.529,123.435,104.745,108.79,0.00447793,0.372105,20.5911,110.737,-0.34218,0.0,0.0
105,26,52.114,52.4182,123.297,104.733,107.933,0.00676703,0.343306,20.6881,110.597,-0.271777,0.0,0.0
112,27.75,51.5651,52.0216,130.114,104.698,107.636,0.00912115,0.299809,20.7709,110.507,-0.249945,0.0,0.0
119,29.5,51.5344,51.3055,126.817,104.665,109.058,0.0112858,0.25889,20.8334,110.337,-0.371247,0.0,0.0
126,31.25,50.8557,51.4791,128.059,104.634,108.582,0.0122937,0.224831,20.8641,110.237,-0.334426,0.0,0.0
133,33,49.8875,51.4259,128.434,104.597,108.296,0.0127538,0.197897,20.8875,110.107,-0.313789,0.0,0.0
140,34.75,49.4808,51.1039,128.641,104.555,108.032,0.0126981,0.177888,20.9017,110.027,-0.295383,0.0,0.0
147,36.5,49.9044,50.8326,128.308,104.517,107.786,0.0123153,0.162791,20.9109,109.887,-0.278125,0.0,0.0
154,38.25,49.7371,50.7704,130.03,104.464,107.67,0.0118905,0.150762,20.9153,109.767,-0.272957,0.0,0.0
161,40,48.9711,50.4469,130.174,104.444,107.424,0.011293,0.142041,20.915,109.677,-0.254028,0.0,0.0
168,41.75,48.2826,50.315,130.856,104.433,106.984,0.0107886,0.13462,20.9163,109.576,-0.217869,0.0,0.0
175,43.5,48.145,50.1536,129.727,104.405,107.392,0.0104459,0.128842,20.9178,109.456,-0.254661,0.0,0.0
182,45.25,48.2183,50.1591,133.699,104.366,108.003,0.0101962,0.124242,20.9202,109.336,-0.309268,0.0,0.0
189,47,48.2429,49.7459,131.24,104.351,107.826,0.00981058,0.120106,20.9225,109.166,-0.295831,0.0,0.0
196,48.75,47.7541,49.7872,134.991,104.318,106.564,0.00929534,0.116206,20.9241,108.966,-0.19238,0.0,0.0
203,50.5,47.794,49.5077,130.209,104.301,106.743,0.00864535,0.112639,20.9263,108.986,-0.208967,0.0,0.0
210,52.25,47.5013,49.6058,132.672,104.283,106.914,0.00826092,0.109719,20.9287,108.846,-0.225008,0.0,0.0
217,54,47.0243,49.5063,129.605,104.255,106.563,0.00780742,0.107158,20.9306,108.836,-0.197788,0.0,0.0
224,55.75,47.1568,49.2381,131.257,104.225,107.091,0.00743572,0.104583,20.9315,108.746,-0.244977,0.0,0.0
231,57.5,46.9327,49.433,127.469,104.215,107.628,0.00718074,0.102189,20.9335,108.636,-0.290943,0.0,0.0
238,59.25,46.3713,48.9806,130.286,104.2,106.327,0.00712116,0.100033,20.9353,108.506,-0.182487,0.0,0.0
245,61,46.3582,48.7885,129.012,104.178,107.297,0.00712975,0.0979687,20.9376,108.365,-0.266312,0.0,0.0
252,62.75,46.454,48.7362,128.963,104.183,107.153,0.00713128,0.096546,20.941,108.325,-0.253796,0.0,0.0
259,64.5,46.5045,48.2405,130.26,104.255,107.068,0.00708092,0.0952745,20.9431,108.245,-0.240402,0.0,0.0
266,66.25,46.4303,48.3928,129.129,104.358,107.386,0.0069979,0.0940128,20.9449,108.135,-0.258317,0.0,0.0
273,68,46.2618,48.2661,129.96,104.445,108.147,0.00687803,0.0927253,20.947,108.055,-0.314495,0.0,0.0
280,69.75,46.0504,48.5065,128.036,104.54,107.164,0.0067186,0.091682,20.9487,107.935,-0.223819,0.0,0.0
287,71.5,46.6004,48.6589,129.818,104.594,107.305,0.00655846,0.0904375,20.9502,107.805,-0.231063,0.0,0.0
294,73.25,45.7369,48.568,133.894,104.667,107.428,0.00644446,0.0893104,20.9523,107.795,-0.235039,0.0,0.0
301,75,46.2601,48.4035,126.154,104.753,107.707,0.00635065,0.0881101,20.9545,107.665,-0.251164,0.0,0.0
308,76.75,45.8137,48.2066,127.15,104.803,107.542,0.00616086,0.0868948,20.9556,107.555,-0.232945,0.0,0.0
315,78.5,45.8984,48.109,128.747,104.862,107.477,0.0058559,0.0854927,20.9577,107.425,-0.222362,0.0,0.0
322,80.25,45.8409,48.3638,129.774,104.925,106.987,0.00554003,0.0837242,20.9607,107.385,-0.175724,0.0,0.0
329,82,45.9073,47.881,130.728,104.975,107.377,0.00521553,0.0817789,20.9639,107.295,-0.204275,0.0,0.0
336,83.75,44.7601,47.7719,127.249,105.01,107.849,0.00489707,0.0796392,20.9664,107.235,-0.240872,0.0,0.0
343,85.5,45.4988,47.9869,130.077,105.037,106.447,0.00444031,0.0773147,20.9668,107.145,-0.120423,0.0,0.0
350,87.25,44.7925,47.4193,132.636,105.047,107.391,0.00402807,0.0750642,20.9689,107.054,-0.199325,0.0,0.0
357,89,45.06,47.6274,131.772,105.082,107.21,0.00366188,0.072173,20.9729,106.964,-0.181002,0.0,0.0
364,90.75,44.7744,47.2654,132.092,105.083,107.707,0.00330016,0.0694549,20.9753,106.794,-0.222727,0.0,0.0
371,92.5,45.0601,47.4009,129.614,105.081,107.543,0.0029973,0.0669886,20.9788,106.724,-0.209143,0.0,0.0
378,94.25,44.185,47.3408,131.471,105.089,107.89,0.00273452,0.0647204,20.9815,106.674,-0.237466,0.0,0.0
385,96,44.3823,47.3466,130.638,105.106,107.979,0.0025194,0.0626719,20.983,106.674,-0.243448,0.0,0.0
392,97.75,44.4376,47.5973,131.599,105.111,107.508,0.0022198,0.0606312,20.9847,106.534,-0.203605,0.0,0.0
399,99.5,44.5912,46.8276,127.873,105.111,109.253,0.00195854,0.0589036,20.9867,106.484,-0.348975,0.0,0.0
406,101.25,45.0256,47.4361,128.772,105.098,107.313,0.00177097,0.0573527,20.9884,106.414,-0.188252,0.0,0.0
413,103,44.7594,46.8667,132.458,105.103,107.611,0.001621,0.0559477,20.9903,106.354,-0.212976,0.0,0.0
420,104.75,44.012,46.9342,130.483,105.103,107.172,0.0014759,0.0546426,20.9912,106.204,-0.176092,0.0,0.0
427,106.5,44.3314,47.0085,129.429,105.105,107.017,0.00133314,0.0534858,20.9916,106.184,-0.162828,0.0,0.0
434,108.25,44.5499,47.0472,131.276,105.08,106.879,0.00115052,0.0525159,20.9927,106.084,-0.153338,0.0,0.0
441,110,43.8377,47.1705,132.667,105.062,107.588,0.00100646,0.0516758,20.9935,106.104,-0.214452,0.0,0.0
448,111.75,44.2226,46.0283,132.695,105.046,107.857,0.000948336,0.0508096,20.994,106.054,-0.238454,0.0,0.0
455,113.5,44.1926,46.3259,127.066,105.028,107.886,0.000956978,0.0500583,20.9953,105.954,-0.242413,0.0,0.0
462,115.25,43.7939,45.7768,134.049,104.997,107.431,0.000937667,0.0493278,20.9959,105.884,-0.207008,0.0,0.0
469,117,44.1269,46.5509,127.872,104.952,107.701,0.000866194,0.0487555,20.9962,105.854,-0.233439,0.0,0.0
476,118.75,44.1919,46.0451,129.613,104.911,107.654,0.000767128,0.0483563,20.9963,105.743,-0.233062,0.0,0.0
483,120.5,43.9841,46.7137,129.461,104.844,108.217,0.000752455,0.0481069,20.9966,105.673,-0.285892,0.0,0.0
490,122.25,43.1802,46.2095,128.756,104.777,107.196,0.000780153,0.0475958,20.9977,105.633,-0.206103,0.0,0.0
497,124,43.8247,46.4302,129.436,104.691,107.234,0.000765393,0.0472933,20.9978,105.613,-0.216625,0.0,0.0
504,125.75,44.2315,45.6368,127.907,104.644,107.368,0.000675287,0.0470727,20.9979,105.533,-0.231984,0.0,0.0
511,127.5,43.9947,45.7385,129.702,104.599,107.258,0.000622609,0.0466957,20.9979,105.483,-0.226744,0.0,0.0
518,129.25,43.6923,46.4329,133.527,104.634,106.9,0.000679102,0.0465684,20.9979,105.463,-0.193433,0.0,0.0
525,131,43.528,46.3846,130.403,104.644,106.566,0.000789618,0.0463309,20.9982,105.343,-0.164388,0.0,0.0
532,132.75,43.4175,45.7361,127.491,104.673,107.254,0.000877316,0.046151,20.9985,105.343,-0.219971,0.0,0.0
539,134.5,43.2598,45.9405,133.325,104.703,107.879,0.000867078,0.0460649,20.9989,105.273,-0.269801,0.0,0.0
546,136.25,42.8868,45.8635,126.051,104.744,107.168,0.000798338,0.0459451,20.9993,105.183,-0.206603,0.0,0.0
553,138,43.6271,45.7317,132.365,104.751,107.518,,0.0457617,,105.063,-0.235486,0.0,0.0
560,139.75,43.732,45.8098,129.456,104.776,107.026,,0.0455261,,105.023,-0.191788,0.0,0.0
567,141.5,43.6268,45.7863,127.438,104.774,107.968,,,,104.993,-0.271117,0.0,0.0
574,143.25,43.5045,45.7354,131.775,104.804,107.839,,,,104.903,-0.257712,0.0,0.0
581,145,43.391,45.2822,128.723,104.817,107.144,,,,104.893,-0.198208,0.0,0.0
588,146.75,43.0918,45.9227,129.29,104.798,106.818,,,,104.853,-0.172384,0.0,0.0
592,147.75,43.2719,45.4899,130.543,104.813,107.096,,,,104.853,-0.194529,0.0,0.0