File: 01_Data/LW_Gypsum/Cone/LW_Gypsum_Cone_HF25Scan_220506_R3.csv
Names,Time,Stack TC,Smoke TC,Exh Press,Smoke Comp,Smoke Meas,CO Meter,CO2 Meter,O2 Meter,Sample Mass,Ext Coeff,Start Test,Flame Verif
Chan Gain,,500,500,1,1,1,1,1,1,1,1,1.0,1.0
Offset,,0,0,0.135316,0,0,0,0,0,0,0,0.0,0.0
Gain,,1,1,25.011,13.8443,15.4071,1,1,1,1.00079,1.02936,1.0,1.0
Units,sec,C,C,Pa,%,%,%,%,%,g,/m,,
Baseline,,19.1003,19.689,141.985,104.422,103.488,0.000310451,0.0461938,21.0015,-446.465,0.0811218,,
12,2.75,17.3386,18.1995,142.534,103.724,102.813,-0.000143072,0.0543681,20.9921,115.211,0.0795931,0.0,0.0
24,5.75,18.033,18.6335,137.659,103.686,102.718,7.90218e-05,0.050889,20.9964,115.181,0.0847417,0.0,0.0
36,8.75,17.8612,17.8901,140.585,103.669,102.617,0.000253349,0.048376,20.9998,115.171,0.0920869,0.0,0.0
48,11.75,17.5857,18.3004,143.103,103.643,102.747,0.000369662,0.046596,21.0017,115.141,0.0784311,0.0,0.0
60,14.75,17.6673,18.3516,142.749,103.636,102.735,0.000274866,0.0458364,21.0043,115.091,0.0788387,0.0,0.0
72,17.75,17.8521,18.2201,139.964,103.63,102.739,0.000112548,0.0453442,21.005,115.091,0.0779882,0.0,0.0
84,20.75,17.6415,18.195,143.441,103.609,102.758,0.000274954,0.0449903,21.0052,115.061,0.0744895,0.0,0.0
96,23.75,17.5036,18.8688,137.739,103.599,102.807,0.000460796,0.0448506,21.0053,115.031,0.0693509,0.0,0.0
108,26.75,18.4156,18.376,141.292,103.583,102.695,0.000512018,0.0447061,21.0053,115.001,0.0777438,0.0,0.0
120,29.75,18.467,18.5962,146.785,103.602,102.822,0.000330752,0.0445154,21.0051,114.981,0.0682464,0.0,0.0
132,32.75,18.044,18.9212,142.308,103.596,102.644,8.50645e-05,0.0444899,21.0047,114.881,0.0833565,0.0,0.0
144,35.75,17.5453,18.7709,141.2,103.6,102.716,2.56644e-05,0.0445945,21.0046,114.841,0.0773618,0.0,0.0
156,38.75,18.1176,18.4749,140.504,103.622,102.688,0.000147356,0.044558,21.0033,114.761,0.0817566,0.0,0.0
168,41.75,18.2976,18.3767,141.164,103.635,102.758,0.000242277,0.044577,21.0047,114.72,0.0767769,0.0,0.0
180,44.75,18.6521,18.8922,145.008,103.642,102.611,0.000274966,0.0445265,21.0047,114.65,0.0903436,0.0,0.0
192,47.75,18.02,18.6798,142.116,103.661,102.733,0.000447933,0.044583,21.0037,114.62,0.0811699,0.0,0.0
204,50.75,18.4214,19.3924,138.196,103.687,102.791,0.000541201,0.0445741,21.0031,114.58,0.0784119,0.0,0.0
216,53.75,18.4391,18.4421,141.349,103.685,102.71,0.000322024,0.0446555,21.0026,114.55,0.085293,0.0,0.0
228,56.75,18.4121,18.7982,144.367,103.722,102.761,0.000100518,0.0446736,21.0024,114.47,0.0841083,0.0,0.0
240,59.75,18.3827,19.3127,143.11,103.719,102.786,0.000159029,0.0447152,21.0041,114.41,0.08162,0.0,0.0
252,62.75,18.5207,18.8733,143.661,103.749,102.904,0.000155936,0.0447171,21.0047,114.35,0.0737923,0.0,0.0
264,65.75,18.3511,18.722,142.46,103.774,102.735,8.98504e-05,0.0447915,21.0049,114.31,0.0908264,0.0,0.0
276,68.75,18.6883,19.3432,142.43,103.789,102.924,0.000107111,0.0447046,21.005,114.29,0.0755879,0.0,0.0
288,71.75,18.8439,18.8835,142.037,103.815,102.722,6.33109e-05,0.044556,21.005,114.24,0.0955895,0.0,0.0
300,74.75,18.0665,18.6898,140.852,103.833,102.679,7.50155e-05,0.0447779,21.005,114.19,0.100968,0.0,0.0
312,77.75,18.5523,18.9368,142.965,103.876,102.691,0.000216382,0.0449765,21.005,114.12,0.103525,0.0,0.0
324,80.75,18.5437,19.0224,142.084,103.899,102.586,0.000265802,0.0450446,21.0048,114.06,0.11481,0.0,0.0
336,83.75,18.3001,19.4626,139.372,103.939,102.497,0.000251098,0.0452373,21.0045,114.01,0.126202,0.0,0.0
348,86.75,18.2026,19.1054,144.154,103.984,102.232,0.0003382,0.0454652,21.0045,113.94,0.153404,0.0,0.0
360,89.75,19.1614,19.3786,141.13,103.998,102.228,0.000403749,0.0458169,21.0045,113.89,0.154989,0.0,0.0
372,92.75,18.4929,19.0796,142.382,104.017,102.008,0.000434736,0.0457783,21.0043,113.79,0.176096,0.0,0.0
384,95.75,18.8357,19.0804,141.533,104.051,101.947,0.000391074,0.0460356,21.0026,113.72,0.184478,0.0,0.0
396,98.75,18.7498,19.3484,141.74,104.082,102.031,0.000457012,0.0461546,21.0017,113.65,0.179739,0.0,0.0
408,101.75,18.8967,19.1687,144.547,104.116,101.84,0.000621088,0.0462391,21.0015,113.56,0.199659,0.0,0.0
420,104.75,19.2008,19.4043,142.807,104.141,101.621,0.000783382,0.0464962,21.0022,113.52,0.221228,0.0,0.0
432,107.75,18.6294,19.6231,138.8,104.168,101.544,0.000679255,0.0468335,21.0025,113.45,0.230311,0.0,0.0
444,110.75,18.8973,19.2164,141.621,104.189,101.548,0.000640007,0.046968,21.0026,113.319,0.231765,0.0,0.0
456,113.75,18.9889,19.6513,143.746,104.212,101.119,0.000790237,0.0474847,21.0023,113.279,0.272067,0.0,0.0
468,116.75,19.1054,19.5232,142.75,104.237,101.48,0.000913087,0.0477214,21.0003,113.189,0.242003,0.0,0.0
480,119.75,18.6442,19.489,139.987,104.242,101.291,0.00109021,0.0479347,20.9998,113.089,0.259276,0.0,0.0
492,122.75,18.855,19.8303,137.895,104.247,101.445,0.00139478,0.0483174,20.9983,113.009,0.246098,0.0,0.0
504,125.75,19.1878,19.2456,140.075,104.261,100.879,0.00173679,0.0485553,20.9982,112.889,0.297678,0.0,0.0
516,128.75,19.4509,19.6377,139.295,104.28,101.08,0.00178527,0.0489479,20.9962,112.819,0.28145,0.0,0.0
528,131.75,19.2546,19.2303,140.307,104.324,101.199,0.00198879,0.0495235,20.9943,112.739,0.274627,0.0,0.0
540,134.75,19.417,19.8544,140.884,104.324,100.583,0.00235439,0.0500966,20.9934,112.599,0.329681,0.0,0.0
552,137.75,19.1081,19.8145,141.98,104.359,100.665,0.00264839,0.0510168,20.9921,112.489,0.325452,0.0,0.0
564,140.75,18.8191,20.0055,139.485,104.384,100.168,0.00310887,0.0519418,20.9898,112.369,0.37225,0.0,0.0
576,143.75,19.5561,20.0177,138.55,104.4,99.908,0.00361881,0.0529635,20.9886,112.279,0.397113,0.0,0.0
588,146.75,19.1041,20.1809,139.767,104.421,99.8078,0.00391141,0.0539105,20.9863,112.098,0.40796,0.0,0.0
600,149.75,19.589,20.5242,139.4,104.438,101.199,0.00406541,0.061607,20.981,111.938,0.284464,0.0,0.0
612,152.75,19.5922,20.409,134.678,104.477,104.994,0.00336892,0.112015,20.9146,111.618,-0.0445876,0.0,1.0
624,155.75,21.1295,20.8793,127.92,104.502,106.009,0.00320472,0.202039,20.8236,111.318,-0.129272,0.0,1.0
636,158.75,22.2223,22.0935,133.198,104.528,104.532,0.00422442,0.219124,20.8144,111.088,-0.000334765,0.0,0.0
648,161.75,22.3536,22.7428,135.606,104.553,104.01,0.00587741,0.185135,20.8475,110.928,0.0469763,0.0,0.0
660,164.75,22.3825,23.0517,137.021,104.562,103.875,0.00757488,0.141512,20.8913,110.777,0.0595431,0.0,0.0
672,167.75,22.7883,22.702,141.198,104.586,103.674,0.00893955,0.110307,20.9272,110.637,0.0790916,0.0,0.0
684,170.75,22.825,22.5359,141.745,104.615,103.831,0.00948445,0.0947051,20.9413,110.497,0.0679815,0.0,0.0
696,173.75,21.848,21.9388,136.468,104.632,103.863,0.00966869,0.0900898,20.9461,110.397,0.0666599,0.0,0.0
708,176.75,21.7705,22.667,143.415,104.64,103.926,0.00969611,0.0890512,20.945,110.247,0.0617638,0.0,0.0
720,179.75,21.4933,21.922,140.752,104.656,103.954,0.00971936,0.0891343,20.9438,110.167,0.0606979,0.0,0.0
732,182.75,21.0883,22.3775,141.934,104.678,103.994,0.00963581,0.088717,20.9448,110.037,0.0592352,0.0,0.0
744,185.75,21.3571,21.954,142.827,104.691,103.955,0.00925924,0.0872483,20.9468,109.937,0.0637136,0.0,0.0
756,188.75,21.1852,22.1654,140.689,104.713,103.861,0.00870576,0.0851499,20.9508,109.837,0.0737849,0.0,0.0
768,191.75,21.1126,22.0914,140.9,104.732,103.974,0.00806877,0.0838138,20.9523,109.747,0.0656554,0.0,0.0
780,194.75,21.3065,22.2122,140.216,104.73,103.905,0.00771733,0.0820214,20.9541,109.646,0.0714368,0.0,0.0
792,197.75,21.1165,21.7105,142.859,104.74,103.966,0.00761773,0.080125,20.9557,109.526,0.067005,0.0,0.0
804,200.75,20.8412,21.696,141.7,104.738,103.904,0.00726336,0.0791071,20.956,109.436,0.0722516,0.0,0.0
816,203.75,21.0027,21.6696,140.574,104.737,103.827,0.0069797,0.0779758,20.9585,109.336,0.0788462,0.0,0.0
828,206.75,20.4877,21.9397,143.015,104.728,103.868,0.00673675,0.0767152,20.9601,109.246,0.0744468,0.0,0.0
840,209.75,20.4206,21.3061,138.805,104.746,103.935,0.00629752,0.0752725,20.962,109.166,0.0701745,0.0,0.0
852,212.75,20.5324,21.5162,141.923,104.719,103.968,0.00595192,0.0742445,20.964,109.066,0.065057,0.0,0.0
864,215.75,20.4844,21.3289,139.514,104.716,103.848,0.00570657,0.0726249,20.9674,108.966,0.0751481,0.0,0.0
876,218.75,20.8803,21.9411,136.905,104.692,103.916,0.00537046,0.0711228,20.97,108.886,0.0671813,0.0,0.0
888,221.75,20.4989,20.9963,139.626,104.672,103.803,0.00496935,0.0693876,20.972,108.806,0.0752026,0.0,0.0
900,224.75,20.3494,20.9363,141.402,104.666,103.981,0.00468139,0.0677878,20.9742,108.706,0.0592854,0.0,0.0
912,227.75,20.1673,20.8467,140.788,104.631,103.796,0.00467528,0.0663352,20.9762,108.576,0.0723157,0.0,0.0
924,230.75,20.4536,21.3435,138.432,104.598,103.862,0.00457515,0.0648401,20.9787,108.526,0.0637884,0.0,0.0
936,233.75,20.2291,20.3975,140.864,104.576,103.759,0.00418834,0.0630839,20.9807,108.446,0.0708067,0.0,0.0
948,236.75,20.2348,20.8414,139.75,104.537,103.626,0.00364429,0.0613418,20.9831,108.355,0.0790009,0.0,0.0
960,239.75,20.0086,21.4627,141.596,104.505,103.877,0.00316402,0.0594688,20.9848,108.275,0.0543747,0.0,0.0
972,242.75,19.6538,20.8689,140.707,104.513,103.666,0.00293394,0.0579,20.986,108.205,0.0734795,0.0,0.0
984,245.75,19.8554,20.5805,140.288,104.497,103.744,0.002527,0.056175,20.9871,108.195,0.0652921,0.0,0.0
996,248.75,19.3447,20.8209,139.712,104.476,103.527,0.0020586,0.0543378,20.9909,108.135,0.0824339,0.0,0.0
1008,251.75,19.7573,20.5386,145.323,104.46,103.65,0.00180439,0.052449,20.9929,107.955,0.070308,0.0,0.0
1020,254.75,19.16,19.9128,141.564,104.484,103.698,0.00160621,0.0507833,20.9942,107.975,0.0682485,0.0,0.0
1032,257.75,19.9543,20.6733,141.481,104.476,103.687,0.00153755,0.0495031,20.9963,107.945,0.0684974,0.0,0.0
1044,260.75,19.1843,20.1462,141.41,104.471,103.79,0.00135999,0.0486008,20.9966,107.865,0.0590598,0.0,0.0
1056,263.75,19.0961,20.1446,140.237,104.476,103.772,0.0011337,0.047815,20.9964,107.845,0.0610155,0.0,0.0
1068,266.75,19.3503,20.3352,139.282,104.459,103.631,0.000892841,0.0472102,20.9982,107.785,0.0718747,0.0,0.0
1080,269.75,19.0261,20.3889,140.926,104.472,103.596,0.000485964,0.0468093,21.0016,107.695,0.0760426,0.0,0.0
1092,272.75,19.4207,20.2584,141.134,104.49,103.849,0.000281588,0.0465305,21.0033,107.645,0.0556286,0.0,0.0
1104,275.75,19.3603,19.8202,140.118,104.478,103.646,,0.0464005,,107.565,0.0722473,0.0,0.0
1116,278.75,18.8237,20.1777,142.739,104.468,103.567,,,,107.485,0.0782187,0.0,0.0
1128,281.75,19.0183,20.0762,141.039,104.452,103.669,,,,107.525,0.0680124,0.0,0.0
1140,284.75,19.3107,20.3274,143.557,104.447,103.603,,,,107.495,0.0732734,0.0,0.0
1145,286,19.3523,20.4008,141.76,104.452,103.638,,,,107.445,0.0705974,0.0,0.0