File: 01_Data/LW_Gypsum/Cone/LW_Gypsum_Cone_HF75Scan_220506_R1.csv
Names,Time,Stack TC,Smoke TC,Exh Press,Smoke Comp,Smoke Meas,CO Meter,CO2 Meter,O2 Meter,Sample Mass,Ext Coeff,Start Test,Flame Verif
Chan Gain,,500,500,1,1,1,1,1,1,1,1,1.0,1.0
Offset,,0,0,0.135316,0,0,0,0,0,0,0,0.0,0.0
Gain,,1,1,25.011,13.8443,15.4071,1,1,1,1.00079,1.02936,1.0,1.0
Units,sec,C,C,Pa,%,%,%,%,%,g,/m,,
Baseline,,39.189,40.713,132.491,104.624,106.098,0.000486203,0.0416808,20.9986,-447.495,-0.126163,,
7,1.5,36.7773,38.7323,134.412,104.209,105.543,0.000576485,0.0459818,20.9952,109.767,-0.114907,0.0,0.0
14,3.25,37.446,38.6242,133.628,104.184,106.299,0.000477862,0.045742,20.9965,109.687,-0.181446,0.0,0.0
21,5,37.1258,39.273,130.971,104.147,105.396,0.000475435,0.0454595,20.997,109.677,-0.107617,0.0,0.0
28,6.75,37.4066,39.049,128.925,104.115,105.273,0.000568571,0.0452952,20.9978,109.526,-0.0999187,0.0,0.0
35,8.5,37.4319,39.3652,131.002,104.086,104.124,0.000737042,0.0450403,20.9982,109.566,-0.00326852,0.0,0.0
42,10.25,37.6975,38.8068,130.255,104.054,104.159,0.000917707,0.0447543,20.9983,109.386,-0.00911197,0.0,0.0
49,12,37.5637,39.2819,131.336,104.048,103.061,0.00111477,0.0446026,20.9966,109.246,0.0860223,0.0,0.0
56,13.75,37.324,39.4228,135.004,104.006,102.069,0.00146033,0.0445921,20.9933,109.176,0.169734,0.0,0.0
63,15.5,37.4953,39.2301,131.114,104.005,99.5901,0.00186987,0.0453397,20.9869,109.046,0.391618,0.0,0.0
70,17.25,38.1577,39.4277,123.503,103.966,107.977,0.00218461,0.0552594,20.9597,108.676,-0.341864,0.0,1.0
77,19,39.0785,40.1105,108.508,103.96,109.977,0.00233165,0.0946566,20.8218,108.436,-0.507996,0.0,1.0
84,20.75,41.3478,41.2703,108.725,103.944,108.788,0.00250056,0.156043,20.6594,107.975,-0.411305,0.0,1.0
91,22.5,43.7241,43.1803,110.299,103.932,107.749,0.00274303,0.22994,20.5488,107.705,-0.325634,0.0,1.0
98,24.25,46.4305,45.3656,108.664,103.912,108.659,0.00307728,0.291685,20.498,107.345,-0.403358,0.0,0.0
105,26,48.7212,48.0817,117.031,103.917,108.113,0.00384057,0.327962,20.5088,107.044,-0.357402,0.0,0.0
112,27.75,49.767,49.517,123.509,103.898,107.479,0.00558441,0.335645,20.5949,106.874,-0.306002,0.0,0.0
119,29.5,49.9412,50.6922,133.517,103.89,106.375,0.00808666,0.315941,20.7018,106.784,-0.213508,0.0,0.0
126,31.25,49.0441,50.1413,130.399,103.871,105.669,0.0109999,0.285946,20.7866,106.634,-0.154978,0.0,0.0
133,33,48.9201,50.1504,134.817,103.866,106.148,0.0128005,0.254447,20.84,106.544,-0.196304,0.0,0.0
140,34.75,48.4217,49.9912,128.759,103.842,106.126,0.0141518,0.227054,20.8693,106.344,-0.196404,0.0,0.0
147,36.5,48.38,49.3876,129.162,103.84,105.383,0.0148437,0.204631,20.8855,106.164,-0.133158,0.0,0.0
154,38.25,47.8009,49.2113,129.761,103.816,105.822,0.0150155,0.187609,20.8938,106.194,-0.172842,0.0,0.0
161,40,46.8247,48.6102,128.09,103.805,106.774,0.0146669,0.174846,20.899,106.124,-0.254597,0.0,0.0
168,41.75,47.5244,49.3403,131.436,103.808,105.674,0.0139592,0.164393,20.9056,105.874,-0.160857,0.0,0.0
175,43.5,47.3952,49.121,131.405,103.788,106.153,0.013288,0.154699,20.9112,105.894,-0.203505,0.0,0.0
182,45.25,47.0119,48.5902,128.573,103.768,105.425,0.0125698,0.146675,20.9155,105.723,-0.142991,0.0,0.0
189,47,46.3243,48.1462,131.303,103.747,106.047,0.0119958,0.139798,20.9178,105.743,-0.197951,0.0,0.0
196,48.75,46.2177,48.34,130.885,103.746,105.816,0.0113473,0.133665,20.9204,105.823,-0.178382,0.0,0.0
203,50.5,46.5236,48.0123,128.482,103.733,105.805,0.0107104,0.128086,20.9243,105.453,-0.178522,0.0,0.0
210,52.25,46.022,48.2263,132.582,103.732,106.521,0.0100491,0.123342,20.9271,105.413,-0.239539,0.0,0.0
217,54,45.6076,47.8881,132.472,103.693,105.475,0.00942905,0.118281,20.931,105.293,-0.153922,0.0,0.0
224,55.75,45.8069,47.6132,128.356,103.674,105.896,0.00888136,0.113673,20.9337,105.273,-0.191454,0.0,0.0
231,57.5,45.5333,47.9323,128.93,103.669,105.52,0.00845971,0.110205,20.9358,105.043,-0.159843,0.0,0.0
238,59.25,45.0796,47.3536,129.882,103.66,105.289,0.00806784,0.106781,20.9383,104.963,-0.140762,0.0,0.0
245,61,45.0903,47.028,129.191,103.656,105.351,0.00770005,0.103623,20.9412,104.863,-0.14649,0.0,0.0
252,62.75,44.6186,47.7467,128.831,103.626,105.379,0.00744071,0.100588,20.9436,104.763,-0.151481,0.0,0.0
259,64.5,44.5589,47.0546,128.48,103.616,105.218,0.00721687,0.0981375,20.9459,104.773,-0.138535,0.0,0.0
266,66.25,44.5349,47.2129,134.558,103.61,106.478,0.00702364,0.095552,20.9473,104.633,-0.246586,0.0,0.0
273,68,44.3499,46.4473,133.156,103.587,104.782,0.00679279,0.0931193,20.949,104.452,-0.103594,0.0,0.0
280,69.75,43.547,46.3376,130.536,103.561,105.491,0.00654631,0.0907296,20.9512,104.392,-0.166777,0.0,0.0
287,71.5,43.9246,46.0612,130.617,103.558,104.899,0.00624807,0.0886848,20.9536,104.312,-0.116142,0.0,0.0
294,73.25,43.4342,45.6587,130.514,103.554,105.631,0.00600082,0.0864617,20.9556,104.252,-0.179348,0.0,0.0
301,75,43.8371,46.3784,128.839,103.531,104.856,0.00575625,0.0842495,20.9593,104.182,-0.114819,0.0,0.0
308,76.75,43.8631,45.9479,132.116,103.501,105.616,0.00543345,0.0822221,20.9633,104.072,-0.182667,0.0,0.0
315,78.5,43.6374,45.9451,130.007,103.484,104.954,0.00504479,0.080219,20.9666,104.002,-0.127365,0.0,0.0
322,80.25,43.9708,45.9844,125.588,103.483,105.136,0.0045901,0.0780953,20.9697,103.912,-0.143077,0.0,0.0
329,82,42.9428,45.9294,131.83,103.466,105.363,0.00405304,0.0759339,20.9719,103.802,-0.163998,0.0,0.0
336,83.75,43.6152,45.7879,131.798,103.446,104.587,0.00344323,0.0738696,20.9739,103.742,-0.0990393,0.0,0.0
343,85.5,42.7592,45.973,128.34,103.435,105.16,0.00294058,0.0714922,20.9763,103.652,-0.149379,0.0,0.0
350,87.25,42.8818,45.5985,132.82,103.423,104.955,0.00250729,0.0690634,20.9785,103.562,-0.132793,0.0,0.0
357,89,43.2539,45.7371,132.124,103.421,104.856,0.00215541,0.0669762,20.981,103.522,-0.124405,0.0,0.0
364,90.75,42.3695,45.5664,128.903,103.406,104.558,0.00185423,0.0649179,20.9831,103.432,-0.100023,0.0,0.0
371,92.5,42.903,45.5056,128.947,103.394,106.089,0.00164132,0.0629968,20.9849,103.362,-0.232269,0.0,0.0
378,94.25,42.7758,45.0197,133.609,103.386,104.837,0.00149795,0.061328,20.9856,103.261,-0.125881,0.0,0.0
385,96,42.4857,45.0936,131.679,103.39,105.642,0.00139629,0.0599101,20.987,103.191,-0.19458,0.0,0.0
392,97.75,42.8562,45.0228,130.329,103.383,105.638,0.00132071,0.0584855,20.989,103.081,-0.194809,0.0,0.0
399,99.5,42.1466,44.2458,129.39,103.373,104.89,0.0012663,0.0571471,20.9898,103.081,-0.131526,0.0,0.0
406,101.25,42.4745,44.5111,126.176,103.38,105.891,0.00115187,0.0561165,20.9902,103.021,-0.216663,0.0,0.0
413,103,42.3443,44.8219,129.176,103.386,106.072,0.00100998,0.0550779,20.9911,103.021,-0.231644,0.0,0.0
420,104.75,42.1729,44.512,132.136,103.402,105.11,0.00085473,0.0541909,20.992,102.931,-0.147899,0.0,0.0
427,106.5,42.319,45.0103,132.305,103.408,105.184,0.000723581,0.0534433,20.9925,102.831,-0.153762,0.0,0.0
434,108.25,42.0138,44.6191,127.595,103.407,105.164,0.000671262,0.0526732,20.9927,102.721,-0.152137,0.0,0.0
441,110,42.5465,44.3291,129.507,103.433,105.055,0.000718516,0.0520444,20.9928,102.641,-0.140482,0.0,0.0
448,111.75,42.1123,44.4063,128.485,103.447,105.097,0.000838527,0.0515161,20.9929,102.521,-0.142858,0.0,0.0
455,113.5,42.3198,44.9755,129.863,103.461,104.537,0.000913474,0.0509245,20.9929,102.471,-0.0934044,0.0,0.0
462,115.25,41.2474,44.0904,131.347,103.477,106.196,0.000922863,0.0504519,20.9929,102.491,-0.23416,0.0,0.0
469,117,42.243,44.2725,125.566,103.489,105.469,0.000900319,0.0500124,20.9931,102.411,-0.171108,0.0,0.0
476,118.75,41.9753,44.3231,132.532,103.522,104.955,0.000883513,0.0496494,20.9936,102.381,-0.124206,0.0,0.0
483,120.5,41.4548,44.1362,129.308,103.552,105.177,0.00088055,0.0492996,20.9948,102.301,-0.14059,0.0,0.0
490,122.25,41.8593,44.0719,132.733,103.564,104.662,0.000918822,0.0488907,20.9954,102.231,-0.0952453,0.0,0.0
497,124,41.745,43.9491,125.801,103.59,105.709,0.000938631,0.0486494,20.9952,102.151,-0.182846,0.0,0.0
504,125.75,42.1207,44.0718,127.778,103.599,105.063,0.000875247,0.0484154,20.9943,102.111,-0.126683,0.0,0.0
511,127.5,42.4141,44.298,132.262,103.636,105.367,0.00076243,0.0482426,20.9939,102.111,-0.149587,0.0,0.0
518,129.25,41.4616,44.2884,127.993,103.651,104.814,0.000670055,0.0479272,20.9947,102.01,-0.100756,0.0,0.0
525,131,41.6892,43.7434,130.665,103.662,105.482,0.000618047,0.0476778,20.9953,101.88,-0.157171,0.0,0.0
532,132.75,41.7307,44.2229,130.918,103.679,106.084,0.000649737,0.047413,20.9956,101.9,-0.207075,0.0,0.0
539,134.5,41.0695,43.8092,131.768,103.707,105.576,0.000736338,0.0471784,20.9958,101.69,-0.161318,0.0,0.0
546,136.25,41.4884,43.8786,131.803,103.74,105.82,0.000790821,0.0471198,20.9958,101.74,-0.179255,0.0,0.0
553,138,41.7751,44.5018,131.765,103.76,106.11,0.000799087,0.0469934,20.9952,101.57,-0.202214,0.0,0.0
560,139.75,41.1918,43.5451,134.261,103.775,105.341,,0.0467988,,101.66,-0.135272,0.0,0.0
567,141.5,41.5093,43.9871,128.714,103.797,105.726,,0.0466848,,101.58,-0.166265,0.0,0.0
574,143.25,41.479,43.4353,127.084,103.812,105.184,,,,101.65,-0.118526,0.0,0.0
581,145,41.8633,44.0287,128.69,103.82,105.659,,,,101.49,-0.158539,0.0,0.0
588,146.75,41.3641,43.5984,133.551,103.834,106.503,,,,101.43,-0.229206,0.0,0.0
595,148.5,40.9928,43.4716,129.677,103.85,105.462,,,,101.41,-0.139083,0.0,0.0
599,149.5,41.4113,44.0111,132.592,103.851,105.828,,,,101.37,-0.170234,0.0,0.0