File: 01_Data/LW_Gypsum/Cone/LW_Gypsum_Cone_HF25Scan_220506_R1.csv
Names,Time,Stack TC,Smoke TC,Exh Press,Smoke Comp,Smoke Meas,CO Meter,CO2 Meter,O2 Meter,Sample Mass,Ext Coeff,Start Test,Flame Verif
Chan Gain,,500,500,1,1,1,1,1,1,1,1,1.0,1.0
Offset,,0,0,0.135316,0,0,0,0,0,0,0,0.0,0.0
Gain,,1,1,25.011,13.8443,15.4071,1,1,1,1.00079,1.02936,1.0,1.0
Units,sec,C,C,Pa,%,%,%,%,%,g,/m,,
Baseline,,17.538,18.1008,142.469,105.45,104.459,0.000475671,0.0463184,20.9937,-446.339,0.0852805,,
12,2.75,16.7173,17.3503,140.193,105.114,104.189,0.000458483,0.050807,20.9918,117.273,0.0798096,0.0,0.0
24,5.75,16.7295,17.2378,143.169,105.051,104.088,0.00033579,0.0491281,20.9939,117.232,0.0830845,0.0,0.0
36,8.75,16.6587,16.884,143.474,105.01,103.998,0.000458324,0.0481413,20.9949,117.182,0.0873955,0.0,0.0
48,11.75,16.8791,17.0617,143.332,104.955,104.043,0.000580397,0.0475801,20.9951,117.122,0.0787939,0.0,0.0
60,14.75,16.7278,16.8723,142.07,104.91,103.928,0.000571039,0.0469513,20.9952,117.152,0.084939,0.0,0.0
72,17.75,17.1339,17.1415,146.627,104.869,103.832,0.000635216,0.0470282,20.9926,117.072,0.0897117,0.0,0.0
84,20.75,17.0186,17.618,141.414,104.827,103.866,0.000628757,0.0473613,20.9936,117.042,0.0831709,0.0,0.0
96,23.75,16.7066,17.2468,143.171,104.814,103.752,0.000481109,0.0472379,20.9961,116.982,0.0919399,0.0,0.0
108,26.75,16.6406,17.0986,142.691,104.79,103.807,0.000283478,0.0469217,20.9971,117.062,0.0851107,0.0,0.0
120,29.75,16.8314,17.3427,143.106,104.774,103.8,0.000198041,0.046475,20.9971,116.972,0.0843408,0.0,0.0
132,32.75,16.8393,17.7597,142.572,104.757,103.702,0.000291391,0.0461791,20.9974,116.882,0.0913592,0.0,0.0
144,35.75,17.2184,17.4709,137.906,104.765,103.873,0.000317857,0.0462385,20.9981,116.852,0.0772796,0.0,0.0
156,38.75,16.6983,18.0522,141.786,104.761,103.856,0.000228971,0.0459806,20.9982,116.802,0.0783094,0.0,0.0
168,41.75,17.2064,16.9234,141.596,104.754,103.683,0.000324445,0.0457746,20.998,116.772,0.0928593,0.0,0.0
180,44.75,17.2964,17.7954,141.559,104.756,103.692,0.000335966,0.0454638,20.9998,116.712,0.0921913,0.0,0.0
192,47.75,17.265,17.3623,139.44,104.744,103.772,0.000309954,0.0451703,21.0005,116.652,0.0841734,0.0,0.0
204,50.75,17.1074,17.2793,139.847,104.747,103.716,0.000368412,0.0450004,21.0006,116.602,0.0892981,0.0,0.0
216,53.75,16.7319,17.7315,141.962,104.739,103.82,0.000295283,0.0449363,21.0007,116.622,0.0795226,0.0,0.0
228,56.75,17.0826,17.4462,141.722,104.725,103.836,0.000242863,0.0448892,21.0007,116.532,0.0770085,0.0,0.0
240,59.75,17.6192,17.864,141.001,104.713,103.679,0.000251254,0.0450269,21.0007,116.462,0.0896179,0.0,0.0
252,62.75,17.2091,17.5909,138.935,104.683,103.535,0.000350162,0.0452078,21.0007,116.462,0.0996103,0.0,0.0
264,65.75,17.4836,17.6859,143.469,104.657,103.68,0.000302417,0.0452803,20.9996,116.362,0.084649,0.0,0.0
276,68.75,18.0267,17.6115,141.48,104.63,103.556,0.00036206,0.0452559,20.9992,116.342,0.0931736,0.0,0.0
288,71.75,17.7012,17.5369,144.585,104.63,103.535,0.000405228,0.0453757,20.9991,116.272,0.0949771,0.0,0.0
300,74.75,17.1534,18.2409,142.716,104.654,103.385,0.000281279,0.0452922,20.9991,116.222,0.110223,0.0,0.0
312,77.75,17.603,17.8935,141.117,104.726,103.424,0.000103878,0.0452859,20.9991,116.172,0.112969,0.0,0.0
324,80.75,17.4298,17.8253,143.222,104.78,103.341,0.000104482,0.0455112,20.9991,116.122,0.124859,0.0,0.0
336,83.75,17.4952,18.1354,140.168,104.841,103.152,0.000315875,0.0463141,20.9991,116.072,0.146672,0.0,0.0
348,86.75,17.6726,17.9905,144.277,104.866,103.067,0.000493419,0.0466365,20.9991,116.002,0.156192,0.0,0.0
360,89.75,17.5819,18.3391,142.015,104.867,103.025,0.000551834,0.0467742,20.9988,115.911,0.160005,0.0,0.0
372,92.75,17.7384,17.8235,140.723,104.901,103.021,0.000643806,0.0472548,20.9978,115.861,0.163327,0.0,0.0
384,95.75,17.8781,17.8492,142.671,104.873,102.766,0.000850041,0.0474015,20.9975,115.821,0.183248,0.0,0.0
396,98.75,18.0009,18.3445,142.703,104.88,102.72,0.000811859,0.0476253,20.9975,115.751,0.187881,0.0,0.0
408,101.75,17.8636,18.3836,139.605,104.894,102.713,0.000671495,0.0479319,20.9974,115.681,0.189778,0.0,0.0
420,104.75,17.7137,18.1729,142.064,104.908,102.256,0.000677265,0.0486402,20.9958,115.601,0.231245,0.0,0.0
432,107.75,18.0692,18.3368,143.617,104.925,102.079,0.000698427,0.0488657,20.9953,115.501,0.248283,0.0,0.0
444,110.75,17.927,18.4743,142.502,104.93,102.177,0.000878356,0.0490111,20.9952,115.421,0.240072,0.0,0.0
456,113.75,17.5109,18.7622,142.761,104.954,102.28,0.000991735,0.0490722,20.9948,115.341,0.233054,0.0,0.0
468,116.75,18.2665,18.5006,142.444,104.98,101.869,0.00108856,0.0492088,20.9952,115.201,0.271623,0.0,0.0
480,119.75,17.4794,19.1698,141.364,104.986,101.93,0.00148524,0.0498676,20.9953,115.121,0.266789,0.0,0.0
492,122.75,17.996,18.6543,141.464,105.009,102.039,0.00180518,0.0500709,20.9953,115.031,0.259051,0.0,0.0
504,125.75,17.9158,18.5696,139.669,105.04,101.877,0.00181605,0.0503283,20.9948,114.951,0.276074,0.0,0.0
516,128.75,18.1593,18.7688,140.208,105.035,101.339,0.00197426,0.0510102,20.9931,114.821,0.323396,0.0,0.0
528,131.75,17.9366,18.9156,138.11,105.05,101.172,0.00233703,0.0516453,20.9924,114.731,0.339625,0.0,0.0
540,134.75,18.345,18.6338,143.023,105.071,101.003,0.00278187,0.0520802,20.9924,114.63,0.356566,0.0,0.0
552,137.75,18.1233,19.0976,144.083,105.099,100.949,0.00318765,0.0525636,20.9918,114.49,0.363713,0.0,0.0
564,140.75,18.5063,18.5413,139.116,105.108,100.333,0.00355213,0.0532692,20.9914,114.38,0.419852,0.0,0.0
576,143.75,18.3879,18.853,142.906,105.131,99.97,0.00401131,0.0540868,20.9897,114.25,0.454538,0.0,0.0
588,146.75,18.0694,18.8431,141.807,105.163,101.353,0.00447912,0.0553352,20.9885,114.09,0.333253,0.0,0.0
600,149.75,18.3589,19.2281,137.449,105.173,102.929,0.00460914,0.0612867,20.9772,113.95,0.194715,0.0,0.0
612,152.75,18.4013,19.1065,135.04,105.192,105.162,0.00424776,0.102815,20.9191,113.71,0.00256361,0.0,1.0
624,155.75,19.3816,20.2395,132.733,105.219,106.346,0.00423338,0.162989,20.8531,113.429,-0.0961673,0.0,1.0
636,158.75,20.8059,20.5708,134.462,105.226,105.471,0.00511137,0.198191,20.8224,113.189,-0.0209893,0.0,1.0
648,161.75,21.7875,21.689,143.14,105.233,104.8,0.00637568,0.185711,20.8408,113.019,0.0372567,0.0,0.0
660,164.75,21.8918,22.3099,140.645,105.244,104.434,0.0077046,0.148219,20.8876,112.829,0.0698124,0.0,0.0
672,167.75,21.825,21.9341,142.821,105.253,104.383,0.00894064,0.116475,20.9212,112.709,0.0750019,0.0,0.0
684,170.75,21.1018,21.3382,141.146,105.24,104.509,0.00959707,0.099362,20.9344,112.599,0.0629429,0.0,0.0
696,173.75,20.6796,21.5405,141.755,105.231,104.35,0.00979604,0.0928539,20.9396,112.459,0.0758505,0.0,0.0
708,176.75,20.8026,21.0027,142.614,105.239,104.415,0.00967795,0.0904858,20.9413,112.349,0.0709669,0.0,0.0
720,179.75,20.111,21.3482,143.553,105.217,104.453,0.00938944,0.0897449,20.9418,112.199,0.0658211,0.0,0.0
732,182.75,20.334,21.1709,148.4,105.201,104.294,0.00896466,0.0888556,20.9429,112.118,0.078192,0.0,0.0
744,185.75,20.1451,20.5151,143.428,105.171,104.329,0.00834764,0.0873305,20.9451,111.968,0.0725324,0.0,0.0
756,188.75,19.8901,20.7652,141.139,105.131,104.229,0.00798155,0.0846756,20.9493,111.888,0.0777524,0.0,0.0
768,191.75,19.5737,21.2828,137.009,105.098,104.167,0.00768234,0.0832304,20.9504,111.788,0.0803047,0.0,0.0
780,194.75,19.6917,20.6959,140.478,105.041,104.316,0.00749156,0.0820824,20.9522,111.688,0.0625699,0.0,0.0
792,197.75,19.8961,20.653,140.652,104.985,104.142,0.00736461,0.0810308,20.954,111.588,0.0728047,0.0,0.0
804,200.75,19.9113,20.1267,138.369,104.921,104.221,0.00697852,0.0793836,20.956,111.488,0.0603932,0.0,0.0
816,203.75,19.3683,20.7518,143.595,104.857,104.07,0.0068167,0.0776309,20.9579,111.388,0.068068,0.0,0.0
828,206.75,19.7161,20.0651,143.009,104.79,103.938,0.00675548,0.0760034,20.9603,111.278,0.073676,0.0,0.0
840,209.75,19.6924,20.416,139.821,104.73,104.016,0.00663371,0.0745286,20.9625,111.218,0.0617264,0.0,0.0
852,212.75,19.8664,20.2593,144.919,104.666,103.901,0.00635008,0.0735826,20.9633,111.118,0.066225,0.0,0.0
864,215.75,19.3327,20.6708,138.81,104.628,103.841,0.00589398,0.07247,20.9646,111.088,0.0682165,0.0,0.0
876,218.75,19.0146,21.0308,137.464,104.705,103.951,0.00554318,0.0712814,20.9662,111.028,0.0653242,0.0,0.0
888,221.75,19.4792,20.0224,143.818,104.803,103.996,0.00522209,0.0698749,20.9687,110.938,0.0697771,0.0,0.0
900,224.75,18.8283,20.0787,140.432,104.814,103.958,0.00516668,0.0686133,20.97,110.817,0.0740304,0.0,0.0
912,227.75,18.8795,20.6306,141.397,104.784,103.99,0.00494211,0.0675814,20.972,110.767,0.0686737,0.0,0.0
924,230.75,19.1866,20.5006,141.604,104.736,103.945,0.00447659,0.066246,20.9721,110.667,0.068475,0.0,0.0
936,233.75,19.4052,20.082,140.681,104.689,103.741,0.00412147,0.0645705,20.9741,110.607,0.0820968,0.0,0.0
948,236.75,19.1746,20.1943,140.901,104.634,103.79,0.00388262,0.0626768,20.9768,110.537,0.0731026,0.0,0.0
960,239.75,19.4428,20.0649,136.776,104.609,103.931,0.00350554,0.060734,20.978,110.477,0.0586887,0.0,0.0
972,242.75,19.101,19.5973,144.46,104.559,103.815,0.00290391,0.0587139,20.9812,110.397,0.0644842,0.0,0.0
984,245.75,19.151,20.0525,138.984,104.496,103.552,0.00249517,0.0567808,20.9836,110.337,0.0819358,0.0,0.0
996,248.75,19.1502,20.3672,141.655,104.423,103.643,0.00244515,0.0548366,20.9866,110.267,0.0676674,0.0,0.0
1008,251.75,18.2569,19.605,150.295,104.386,103.516,0.00223861,0.052929,20.9885,110.197,0.0755922,0.0,0.0
1020,254.75,18.9007,19.8099,139.256,104.383,103.433,0.00168024,0.0514719,20.9894,110.147,0.0825661,0.0,0.0
1032,257.75,18.4022,19.7702,142.164,104.385,103.593,0.00127387,0.0497591,20.9925,110.087,0.0687624,0.0,0.0
1044,260.75,18.7709,19.6469,143.609,104.399,103.574,0.000895743,0.0488035,20.9936,110.037,0.0716493,0.0,0.0
1056,263.75,18.7756,19.5438,140.868,104.411,103.322,0.000566268,0.0480176,20.9944,109.977,0.0945883,0.0,0.0
1068,266.75,18.0211,19.4031,142.483,104.418,103.458,0.0006416,0.0471881,20.9964,109.927,0.0833415,0.0,0.0
1080,269.75,18.2352,19.3878,140.925,104.4,103.607,0.00079012,0.0467944,20.997,109.867,0.0688863,0.0,0.0
1092,272.75,18.0312,19.4133,140.298,104.404,103.508,0.00081715,0.0464545,20.9983,109.827,0.0778655,0.0,0.0
1104,275.75,18.2713,18.6981,140.879,104.418,103.468,0.000767484,0.0463356,20.998,109.787,0.0825213,0.0,0.0
1116,278.75,17.5981,19.0136,141.322,104.403,103.561,,0.0461705,,109.737,0.0731581,0.0,0.0
1128,281.75,18.4658,18.7209,144.283,104.411,103.525,,,,109.687,0.076969,0.0,0.0
1140,284.75,18.3993,19.4835,144.11,104.425,103.429,,,,109.616,0.086549,0.0,0.0
1152,287.75,18.2647,18.6915,138.847,104.422,103.556,,,,109.606,0.0751801,0.0,0.0
1153,288,18.1852,18.7488,142.184,104.412,103.544,,,,109.616,0.0753648,0.0,0.0