File: 01_Data/Hemp_Sheets/Cone/Hemp_Sheet_Cone_HF75Scalar_220524_R2.csv
LABORATORY,FSRI
TEST IDENT,Hemp_Sheet_75_2
OPERATOR,Dow
MATERIAL,Hemp Sheet
ORIENTATION,Horizontal
HEAT FLUX,75
SURF AREA,0.00884
C FACTOR,0.0417695
SPEC HOLDER DIFF,-566
SPECIMEN MASS,1.7
SCAN TIME,0.25
O2 DELAY TIME,11
CO DELAY TIME,11
CO2 DELAY TIME,8
FLOW FACTOR,1
SCAN COUNT,558
TIME TO IGN,3
END OF TEST SCAN,78
END OF TEST TIME,19.5
TEST STATUS,1
PRE TEST CMT,Dimensions: 102 x 99 x 0.34 mm; with frame; with calcium silicate substrate