File: 01_Data/Hemp_Sheets/Cone/Hemp_Sheet_Cone_HF25Scalar_220524_R3.csv
LABORATORY,FSRI
TEST IDENT,Hemp_Sheet_25_3
OPERATOR,Dow
MATERIAL,Hemp Sheet
ORIENTATION,Horizontal
HEAT FLUX,25
SURF AREA,0.00884
C FACTOR,0.0417695
SPEC HOLDER DIFF,-566
SPECIMEN MASS,1.71
SCAN TIME,0.25
O2 DELAY TIME,11
CO DELAY TIME,11
CO2 DELAY TIME,8
FLOW FACTOR,1
SCAN COUNT,630
TIME TO IGN,13.75
END OF TEST SCAN,150
END OF TEST TIME,37.5
TEST STATUS,1
PRE TEST CMT,Dimensions: 101 x 100 x 0.30 mm; with frame; with calcium silicate substrate