File: 01_Data/Hemp_Sheets/Cone/Hemp_Sheet_Cone_HF25Scalar_220524_R1.csv
LABORATORY,FSRI
TEST IDENT,Hemp_Sheet_25_1
OPERATOR,Dow
MATERIAL,Hemp Sheet
ORIENTATION,Horizontal
HEAT FLUX,25
SURF AREA,0.00884
C FACTOR,0.0417695
SPEC HOLDER DIFF,-566
SPECIMEN MASS,1.77
SCAN TIME,0.25
O2 DELAY TIME,11
CO DELAY TIME,11
CO2 DELAY TIME,8
FLOW FACTOR,1
SCAN COUNT,640
TIME TO IGN,14
END OF TEST SCAN,160
END OF TEST TIME,40
TEST STATUS,1
PRE TEST CMT,Dimensions: 103 x 103 x 0.30 mm; with frame; with calcium silicate substrate