File: 01_Data/EPDM_Membrane/HFM/EPDM_Membrane_Density_Wet_R2.csv
,EPDM_Membrane_WET_2
Sample Mass [g],163.8
Sample Volume [cm3],136.8
Sample Density [kg/m3],1197