File: 01_Data/EPDM_Membrane/HFM/EPDM_Membrane_Density_Wet_R1.csv
,EPDM_Membrane_WET_1
Sample Mass [g],166.7
Sample Volume [cm3],139.4
Sample Density [kg/m3],1196