File: 01_Data/EPDM_Membrane/HFM/EPDM_Membrane_Density_Wet_R3.csv
,EPDM_Membrane_WET_3
Sample Mass [g],162.5
Sample Volume [cm3],134.5
Sample Density [kg/m3],1208