File: 01_Data/Engineered_Flooring/HFM/Engineered_Flooring_Density_Dry_R1.csv
,Engineered_Flooring_DRY_1
Sample Mass [g],271.9
Sample Volume [cm3],358.7
Sample Density [kg/m3],758