File: 01_Data/Engineered_Flooring/HFM/Engineered_Flooring_Density_Wet_R1.csv
,Engineered_Flooring_WET_1
Sample Mass [g],291.2
Sample Volume [cm3],358.7
Sample Density [kg/m3],812