File: 01_Data/Engineered_Flooring/HFM/Engineered_Flooring_Density_Dry_R3.csv
,Engineered_Flooring_DRY_3
Sample Mass [g],271.2
Sample Volume [cm3],356.0
Sample Density [kg/m3],762