File: 01_Data/Engineered_Flooring/HFM/Engineered_Flooring_Density_Wet_R3.csv
,Engineered_Flooring_WET_3
Sample Mass [g],290.9
Sample Volume [cm3],356.0
Sample Density [kg/m3],817