File: 01_Data/Engineered_Flooring/HFM/Engineered_Flooring_Density_Wet_R2.csv
,Engineered_Flooring_WET_2
Sample Mass [g],292.5
Sample Volume [cm3],358.5
Sample Density [kg/m3],816