File: 01_Data/Engineered_Flooring/HFM/Engineered_Flooring_Density_Dry_R2.csv
,Engineered_Flooring_DRY_2
Sample Mass [g],272.7
Sample Volume [cm3],358.5
Sample Density [kg/m3],761