File: 01_Data/PC/Cone/PC_Cone_HF25Scan_220216_R3.csv
Names,Time,Stack TC,Smoke TC,Exh Press,Smoke Comp,Smoke Meas,CO Meter,CO2 Meter,O2 Meter,Sample Mass,Ext Coeff,Start Test,Flame Verif
Chan Gain,,500,500,1,1,1,1,1,1,1,1,1.0,1.0
Offset,,0,0,0.140898,0,0,0,0,0,0,0,0.0,0.0
Gain,,1,1,25.011,12.9668,12.6588,1,1,1,1.00088,1.01977,1.0,1.0
Units,sec,C,C,Pa,%,%,%,%,%,g,/m,,
Baseline,,21.4637,22.6278,160.909,98.1535,100.184,-0.00285997,0.060626,20.9851,-873.01,-0.183042,,
32,7.75,20.3263,21.1963,166.933,96.8856,97.3782,-0.00290015,0.0712188,20.9738,60.0828,-0.0453608,0.0,0.0
64,15.75,21.2118,21.6859,161.911,97.0257,98.031,-0.00286315,0.066299,20.9835,60.0728,-0.0922111,0.0,0.0
96,23.75,20.7569,21.9642,161.873,97.6956,98.4401,-0.00310641,0.0618521,20.9887,60.0728,-0.0679112,0.0,0.0
128,31.75,21.3465,22.2913,163.272,98.1222,99.3202,-0.00309561,0.0607902,20.9903,60.0728,-0.108551,0.0,0.0
160,39.75,21.1472,22.3405,163.171,98.0451,99.0266,-0.00308882,0.0605634,20.9904,60.0728,-0.089106,0.0,0.0
192,47.75,21.216,22.4531,160.907,97.8563,99.2047,-0.00291875,0.0607644,20.9889,60.0427,-0.122417,0.0,0.0
224,55.75,21.4398,22.1106,160.422,97.8535,99.1332,-0.00312158,0.0608555,20.9893,60.0327,-0.116223,0.0,0.0
256,63.75,21.3456,22.4449,159.136,98.4705,99.7482,-0.0031945,0.0607064,20.9894,60.0127,-0.115329,0.0,0.0
288,71.75,21.278,22.5755,165.394,98.5623,99.7733,-0.00308001,0.0606034,20.9878,60.0227,-0.109245,0.0,0.0
320,79.75,21.2784,22.3973,159.373,98.3739,99.7061,-0.00276125,0.0606762,20.9877,59.9927,-0.120328,0.0,0.0
352,87.75,21.7393,22.4871,161.467,98.0688,99.4817,-0.00323132,0.0606787,20.9877,60.0027,-0.127955,0.0,0.0
384,95.75,20.8326,22.3713,161.843,98.0914,98.8968,-0.00304378,0.0605693,20.9888,60.0027,-0.0731493,0.0,0.0
416,103.75,21.8631,22.4338,160.835,98.1721,99.4743,-0.00305512,0.0604973,20.9879,60.0027,-0.117879,0.0,0.0
448,111.75,21.351,22.7937,158.508,98.2769,99.776,-0.00286129,0.0606874,20.988,59.9827,-0.135419,0.0,0.0
480,119.75,21.4861,22.8046,159.312,98.3957,99.7266,-0.00292063,0.0608472,20.9888,59.9727,-0.120186,0.0,0.0
512,127.75,21.5372,22.5985,162.652,98.5187,99.6416,-0.00306943,0.0610341,20.9873,59.9627,-0.101378,0.0,0.0
544,135.75,21.5113,23.2004,159.849,98.6157,99.5214,-0.00292455,0.0612488,20.9868,59.9727,-0.0817867,0.0,0.0
576,143.75,21.8191,22.8983,157.079,98.6592,99.606,-0.00292016,0.0614741,20.9836,59.9627,-0.0854405,0.0,0.0
608,151.75,21.9471,23.3709,162.717,98.7031,100.039,-0.00307838,0.0615969,20.9832,59.9527,-0.120301,0.0,0.0
640,159.75,21.83,23.7453,160.645,98.7534,100.104,-0.00297275,0.0621314,20.9816,59.9527,-0.121549,0.0,0.0
672,167.75,21.6895,23.3072,158.496,98.7811,100.427,-0.00305697,0.0619258,20.9835,59.9426,-0.147853,0.0,0.0
704,175.75,22.1836,23.4197,162.01,98.7945,100.126,-0.00302568,0.0621697,20.9828,59.9527,-0.119789,0.0,0.0
736,183.75,21.8819,23.2811,163.007,98.7989,100.282,-0.00329969,0.0623595,20.9813,59.9527,-0.133328,0.0,0.0
768,191.75,22.1765,23.5729,161.533,98.7953,100.175,-0.00308205,0.062215,20.982,59.9226,-0.124066,0.0,0.0
800,199.75,22.6545,24.0502,158.409,98.804,99.9251,-0.0031305,0.062652,20.981,59.9326,-0.100929,0.0,0.0
832,207.75,22.2375,23.7532,158.86,98.7926,100.689,-0.00286269,0.0627916,20.981,59.9326,-0.170046,0.0,0.0
864,215.75,21.9007,23.3649,161.28,98.7779,99.8726,-0.00307264,0.0626743,20.9834,59.9126,-0.0985906,0.0,0.0
896,223.75,22.5555,24.2838,159.67,98.7467,100.013,-0.00274944,0.0628511,20.9835,59.9026,-0.114007,0.0,0.0
928,231.75,22.5497,23.938,163.229,98.698,100.013,-0.00272973,0.0628824,20.9856,59.9026,-0.118383,0.0,0.0
960,239.75,21.9891,23.2949,161.195,98.677,100.245,-0.00341215,0.0628859,20.9838,59.9026,-0.140992,0.0,0.0
992,247.75,22.1418,23.777,161.973,98.6299,99.4631,-0.00307709,0.063384,20.9831,59.8726,-0.0752498,0.0,0.0
1024,255.75,22.2377,23.9816,159.221,98.5678,100.005,-0.00290902,0.063514,20.9825,59.8726,-0.129465,0.0,0.0
1056,263.75,22.8034,23.9284,160.068,98.493,99.829,-0.00284425,0.063741,20.9811,59.8626,-0.120519,0.0,0.0
1088,271.75,22.8481,24.363,162.638,98.4333,100.155,-0.00329042,0.0639944,20.98,59.8426,-0.155081,0.0,0.0
1120,279.75,22.2547,24.0167,156.369,98.3537,99.6281,-0.00314587,0.0642154,20.9786,59.8426,-0.115159,0.0,0.0
1152,287.75,22.814,24.2353,159.561,98.2611,98.8211,-0.00326418,0.0644897,20.9774,59.8326,-0.0508296,0.0,0.0
1184,295.75,22.7812,24.2432,157.307,98.1931,99.7482,-0.00314839,0.0643383,20.9771,59.8225,-0.140564,0.0,0.0
1216,303.75,22.7288,24.5716,159.012,98.1044,99.749,-0.00320306,0.0645576,20.977,59.8326,-0.148713,0.0,0.0
1248,311.75,23.2312,24.4646,168.078,98.0015,99.6663,-0.00297672,0.0649456,20.9738,59.8225,-0.150681,0.0,0.0
1280,319.75,22.6269,24.6844,161.455,98.3126,99.8954,-0.00319453,0.0652397,20.9735,59.8125,-0.142874,0.0,0.0
1312,327.75,22.6917,24.2536,159.303,98.51,99.9487,-0.00322373,0.0654927,20.9734,59.8025,-0.129698,0.0,0.0
1344,335.75,23.0086,24.4628,160.164,98.5666,100.067,-0.00319244,0.0654579,20.9734,59.8125,-0.135169,0.0,0.0
1376,343.75,23.1801,25.0237,158.33,98.4914,100.223,-0.00275234,0.0653027,20.9734,59.7925,-0.155867,0.0,0.0
1408,351.75,23.1188,24.7873,163.794,98.311,99.4314,-0.00303575,0.0650668,20.9765,59.8025,-0.101374,0.0,0.0
1440,359.75,22.8079,24.0775,162.033,98.0126,99.6412,-0.00323911,0.0649886,20.9769,59.7925,-0.147417,0.0,0.0
1472,367.75,23.4752,24.7762,157.749,97.7186,99.2105,-0.00317062,0.0657093,20.9748,59.8125,-0.135537,0.0,0.0
1504,375.75,23.0465,24.9311,159.29,97.7843,99.5284,-0.00323195,0.0659547,20.9711,59.7925,-0.158147,0.0,0.0
1536,383.75,23.4152,24.7027,157.902,97.8777,99.0555,-0.00314057,0.0657663,20.9712,59.8025,-0.107008,0.0,0.0
1568,391.75,22.971,24.4896,162.568,97.9992,99.7467,-0.00361515,0.0657336,20.9713,59.7525,-0.158108,0.0,0.0
1600,399.75,22.5698,23.9741,156.958,98.0981,99.6435,-0.0036071,0.0655343,20.9742,59.7625,-0.139827,0.0,0.0
1632,407.75,23.0434,24.8661,156.412,98.1432,99.4979,-0.0031794,0.0651678,20.9746,59.7525,-0.12263,0.0,0.0
1664,415.75,23.18,25.1036,162.927,98.0506,99.7304,-0.00317419,0.0649226,20.9754,59.7825,-0.151957,0.0,0.0
1696,423.75,23.4061,24.9504,161.021,97.8401,98.4479,-0.00340695,0.0647773,20.9741,59.7825,-0.0553983,0.0,0.0
1728,431.75,23.1616,24.9266,159.679,97.5033,99.6756,-0.00309904,0.0662148,20.9693,59.7925,-0.197105,0.0,0.0
1760,439.75,23.4324,24.5809,157.089,97.1507,98.213,-0.00297911,0.0675912,20.9658,59.8025,-0.0972775,0.0,0.0
1792,447.75,23.3273,24.7811,158.535,96.8785,98.3212,-0.00294638,0.0688896,20.9628,59.7825,-0.132228,0.0,0.0
1824,455.75,23.1607,24.4455,161.298,96.8084,98.4034,-0.00301929,0.0693997,20.9621,59.7725,-0.14618,0.0,0.0
1856,463.75,23.3482,24.8095,161.919,97.0075,98.6132,-0.0029678,0.0689989,20.9626,59.7525,-0.146856,0.0,0.0
1888,471.75,23.5109,24.9071,160.041,97.3846,98.5518,-0.00303206,0.0683742,20.9648,59.7825,-0.106575,0.0,0.0
1920,479.75,23.3579,24.576,160.742,97.8591,99.7644,-0.00327052,0.0676277,20.9652,59.7625,-0.172497,0.0,0.0
1952,487.75,22.998,25.0232,155.755,98.3525,99.5806,-0.0031472,0.066862,20.9668,59.7525,-0.111,0.0,0.0
1984,495.75,23.5771,25.1437,158.598,98.6782,100.009,-0.00274587,0.0667522,20.9655,59.7425,-0.119831,0.0,0.0
2016,503.75,23.3232,24.8389,161.835,98.8151,100.935,-0.00308498,0.0670221,20.9641,59.7225,-0.189839,0.0,0.0
2048,511.75,23.4608,25.088,161.183,98.7035,100.68,-0.00316517,0.0669943,20.9661,59.7325,-0.177357,0.0,0.0
2080,519.75,23.9732,25.1394,160.404,98.4566,100.327,-0.00326667,0.0668272,20.9659,59.7225,-0.168336,0.0,0.0
2112,527.75,23.3998,24.7553,158.141,98.1654,99.9731,-0.00318467,0.0665153,20.9671,59.7024,-0.163229,0.0,0.0
2144,535.75,23.801,25.6134,166.326,98.0379,99.6122,-0.00336018,0.0661111,20.9695,59.6924,-0.142503,0.0,0.0
2176,543.75,23.4646,24.7989,159.924,98.4333,100.577,-0.00325239,0.0659771,20.9697,59.6824,-0.192715,0.0,0.0
2208,551.75,24.0553,25.1911,157.8,98.59,100.658,-0.00336562,0.0656287,20.9697,59.6924,-0.185733,0.0,0.0
2240,559.75,23.7076,24.6807,158.919,98.5373,100.094,-0.00357388,0.0649763,20.971,59.6924,-0.140244,0.0,0.0
2272,567.75,23.7564,25.2972,163.561,98.2682,100.632,-0.0030896,0.0642836,20.9748,59.6924,-0.212601,0.0,0.0
2304,575.75,23.5142,24.8213,163.089,97.8634,99.8174,-0.0029721,0.0638736,20.9756,59.6824,-0.176844,0.0,0.0
2336,583.75,23.769,25.512,157.967,97.8005,99.9773,-0.00321361,0.0640873,20.9768,59.6724,-0.196918,0.0,0.0
2368,591.75,23.5624,25.0612,166.722,97.8935,99.6192,-0.00333468,0.0642087,20.9763,59.6624,-0.156317,0.0,0.0
2400,599.75,23.7863,25.2561,158.908,97.9786,99.6281,-0.00319225,0.0643814,20.9761,59.6824,-0.149344,0.0,0.0
2432,607.75,23.7164,25.1198,159.816,98.0454,100.281,-0.00302037,0.0644405,20.9733,59.6724,-0.201703,0.0,0.0
2464,615.75,23.8773,25.0753,158.003,98.1052,100.398,-0.00299507,0.0640734,20.9737,59.6724,-0.20662,0.0,0.0
2496,623.75,23.2788,25.0362,157.589,98.1293,99.7169,-0.00324382,0.064042,20.9755,59.6624,-0.143564,0.0,0.0
2528,631.75,23.1421,24.5367,160.372,98.0826,100.129,-0.00311197,0.063925,20.9768,59.6624,-0.184688,0.0,0.0
2560,639.75,22.8777,24.6017,161.907,97.92,100.027,-0.00315235,0.0637366,20.9793,59.6524,-0.190417,0.0,0.0
2592,647.75,23.1878,24.4177,158.836,97.6952,99.4658,-0.0031805,0.0640504,20.9772,59.6624,-0.160669,0.0,0.0
2624,655.75,23.5286,24.6872,158.059,97.4127,99.9476,-0.00302039,0.0650316,20.9757,59.6424,-0.229797,0.0,0.0
2656,663.75,23.1338,24.8726,157.868,97.091,99.173,-0.00329643,0.0646173,20.9739,59.6324,-0.189795,0.0,0.0
2688,671.75,23.1728,24.2139,162.472,96.8579,98.7233,-0.00341736,0.064356,20.9744,59.6524,-0.170642,0.0,0.0
2720,679.75,23.1897,24.7155,161.724,96.7673,98.937,-0.00345303,0.0639255,20.9767,59.6324,-0.198352,0.0,0.0
2752,687.75,23.1006,24.5888,157.697,96.831,99.0513,-0.00326053,0.0639745,20.9765,59.6324,-0.202797,0.0,0.0
2784,695.75,22.9999,24.437,156.67,97.0368,99.637,-0.00304989,0.0634367,20.9773,59.6224,-0.236543,0.0,0.0
2816,703.75,23.3631,24.5098,162.888,97.3181,99.8734,-0.00301014,0.0631673,20.9775,59.6224,-0.231845,0.0,0.0
2848,711.75,23.1125,24.8919,157.215,97.666,99.377,-0.00300476,0.0634207,20.9783,59.6224,-0.155356,0.0,0.0
2880,719.75,23.354,24.9854,167.455,97.96,99.9101,-0.00343348,0.0632012,20.9761,59.6023,-0.176327,0.0,0.0
2912,727.75,23.7444,24.5677,159.849,98.2378,100.13,-0.00307132,0.063284,20.9757,59.6124,-0.170689,0.0,0.0
2944,735.75,22.7973,24.4799,157.302,98.5199,100.563,-0.00321324,0.063386,20.9765,59.6124,-0.183571,0.0,0.0
2976,743.75,22.9879,24.4967,159.524,98.73,100.947,,,,59.6124,-0.198606,0.0,0.0
2995,748.5,23.8315,24.8041,156.68,98.768,101.137,,,,59.5923,-0.21206,0.0,0.0