File: 01_Data/PC/Cone/PC_Cone_HF25Scan_220216_R2.csv
Names,Time,Stack TC,Smoke TC,Exh Press,Smoke Comp,Smoke Meas,CO Meter,CO2 Meter,O2 Meter,Sample Mass,Ext Coeff,Start Test,Flame Verif
Chan Gain,,500,500,1,1,1,1,1,1,1,1,1.0,1.0
Offset,,0,0,0.140898,0,0,0,0,0,0,0,0.0,0.0
Gain,,1,1,25.011,12.9668,12.6588,1,1,1,1.00088,1.01977,1.0,1.0
Units,sec,C,C,Pa,%,%,%,%,%,g,/m,,
Baseline,,16.4607,17.6533,163.553,98.9648,100.742,-0.00278771,0.0692296,20.9591,-873.037,-0.159195,,
35,8.5,16.5273,17.5034,163.413,98.7075,100.898,-0.00281187,0.0785164,20.9563,60.7433,-0.196301,0.0,0.0
70,17.25,16.7294,16.769,164.322,98.3149,100.499,-0.00302029,0.0713357,20.9638,60.7734,-0.196565,0.0,0.0
105,26,17.0684,18.0851,164.687,97.6133,100.041,-0.00283098,0.0683361,20.9673,60.7534,-0.219756,0.0,0.0
140,34.75,16.023,18.0566,162.314,97.3573,99.1599,-0.00290291,0.0669981,20.9675,60.7433,-0.164107,0.0,0.0
175,43.5,16.8685,17.9188,162.495,98.0071,100.39,-0.00310211,0.0659466,20.971,60.7634,-0.214919,0.0,0.0
210,52.25,17.2631,18.3237,167.373,98.935,101.111,-0.00321066,0.0659537,20.9706,60.7534,-0.194624,0.0,0.0
245,61,17.5595,18.6548,167.499,99.303,101.667,-0.00292724,0.0651741,20.9739,60.7534,-0.210492,0.0,0.0
280,69.75,17.2749,18.9657,165.5,98.9908,101.414,-0.00298817,0.0650742,20.9696,60.7333,-0.216336,0.0,0.0
315,78.5,17.0102,18.4716,161.681,98.5243,101.022,-0.00276495,0.066015,20.9668,60.7333,-0.223976,0.0,0.0
350,87.25,17.6181,19.026,159.869,99.0597,101.585,-0.00291175,0.0659938,20.965,60.7233,-0.225165,0.0,0.0
385,96,17.6251,18.9588,162.95,98.569,100.954,-0.0029285,0.0652341,20.9692,60.7233,-0.213826,0.0,0.0
420,104.75,17.9584,19.1505,163.371,98.3407,100.662,-0.00305768,0.0645629,20.9701,60.7033,-0.208724,0.0,0.0
455,113.5,17.808,19.1409,163.606,98.516,100.567,-0.00279099,0.0643535,20.9734,60.6933,-0.184309,0.0,0.0
490,122.25,18.033,19.6013,160.084,98.4942,100.699,-0.00333137,0.0645803,20.9722,60.6733,-0.198063,0.0,0.0
525,131,18.3844,19.661,160.878,98.064,100.374,-0.0031991,0.065003,20.9713,60.6733,-0.208239,0.0,0.0
560,139.75,17.9221,19.7895,162.716,97.4455,99.8622,-0.00296353,0.0648146,20.9713,60.6833,-0.219137,0.0,0.0
595,148.5,18.8576,19.8956,160.875,97.1962,99.7753,-0.00285687,0.0644436,20.9722,60.6733,-0.234262,0.0,0.0
630,157.25,18.1018,19.6534,162.694,97.6169,100.225,-0.00305963,0.0645082,20.9707,60.6633,-0.235891,0.0,0.0
665,166,18.6014,20.028,166.299,98.4257,101.093,-0.00273757,0.0648329,20.9688,60.6533,-0.239184,0.0,0.0
700,174.75,18.7834,20.3825,161.626,99.0387,101.426,-0.00319071,0.06443,20.9704,60.6533,-0.213066,0.0,0.0
735,183.5,18.574,20.4737,162.318,99.1408,101.45,-0.00339009,0.0639881,20.9742,60.6333,-0.205929,0.0,0.0
770,192.25,18.8037,20.3619,162.625,98.8052,101.643,-0.002988,0.0637726,20.9747,60.6333,-0.253273,0.0,0.0
805,201,19.0031,20.5959,157.968,98.4063,101.105,-0.00308695,0.063506,20.9737,60.6232,-0.242041,0.0,0.0
840,209.75,19.1418,20.6223,164.771,98.8733,101.265,-0.00321392,0.0636241,20.9726,60.6032,-0.2138,0.0,0.0
875,218.5,19.18,20.5967,163.017,98.8179,101.473,-0.00309755,0.064136,20.9724,60.6032,-0.237154,0.0,0.0
910,227.25,19.0521,20.9298,159.145,98.1202,100.52,-0.00279223,0.0636568,20.9752,60.5932,-0.216154,0.0,0.0
945,236,19.7105,20.6098,164.699,98.2888,100.967,-0.00303901,0.0636151,20.9744,60.5932,-0.24052,0.0,0.0
980,244.75,19.4253,21.013,160.327,98.3846,101.117,-0.00316922,0.0641427,20.9721,60.5932,-0.245011,0.0,0.0
1015,253.5,19.4822,21.191,159.042,98.3751,100.904,-0.00297813,0.0644515,20.9742,60.6032,-0.227092,0.0,0.0
1050,262.25,20.1482,21.7016,164.336,98.0894,101.019,-0.00314081,0.0649361,20.9725,60.5832,-0.263275,0.0,0.0
1085,271,20.0596,21.2466,161.753,97.6687,100.61,-0.00296909,0.065505,20.9689,60.5732,-0.265452,0.0,0.0
1120,279.75,19.9805,21.5326,162.151,97.3399,100.13,-0.0031204,0.0662379,20.9682,60.5732,-0.252825,0.0,0.0
1155,288.5,20.0348,21.5853,164.869,97.0878,99.6868,-0.00298253,0.0674877,20.964,60.5832,-0.236311,0.0,0.0
1190,297.25,20.1217,21.4797,164.849,97.0114,99.7123,-0.00292966,0.0682901,20.9624,60.5632,-0.245639,0.0,0.0
1225,306,19.9278,21.9297,158.996,97.0708,99.6995,-0.00330181,0.0672545,20.9681,60.5732,-0.239023,0.0,0.0
1260,314.75,20.2168,21.2324,158.193,97.2378,99.725,-0.00317748,0.0665732,20.9684,60.5832,-0.225935,0.0,0.0
1295,323.5,20.9283,22.2127,160.118,97.5255,100.064,-0.00307409,0.0663377,20.9707,60.5432,-0.229882,0.0,0.0
1330,332.25,20.3835,22.0698,159.941,97.7946,100.382,-0.00322789,0.0656571,20.9718,60.5732,-0.233613,0.0,0.0
1365,341,20.8408,22.3085,160.871,97.9576,100.146,-0.00325483,0.0645499,20.9729,60.5332,-0.197618,0.0,0.0
1400,349.75,20.6944,22.1441,160.508,98.0732,100.514,-0.00306809,0.0641266,20.9729,60.5432,-0.219897,0.0,0.0
1435,358.5,20.4243,22.7689,164.457,98.1468,100.398,-0.00319264,0.063635,20.9764,60.5332,-0.202867,0.0,0.0
1470,367.25,21.695,22.7743,161.519,98.1958,100.639,-0.00308153,0.0628829,20.9787,60.5131,-0.219814,0.0,0.0
1505,376,21.2048,22.725,160.908,98.2002,100.227,-0.00306907,0.062292,20.9802,60.5532,-0.182772,0.0,0.0
1540,384.75,21.11,22.5888,161.612,98.1681,100.202,-0.00306829,0.0616252,20.9817,60.5131,-0.183417,0.0,0.0
1575,393.5,21.4277,22.6011,157.523,98.1305,100.446,-0.00315073,0.0616932,20.9811,60.4931,-0.208646,0.0,0.0
1610,402.25,21.5939,22.687,159.594,98.1206,100.386,-0.00335191,0.0615492,20.9833,60.5131,-0.20418,0.0,0.0
1645,411,21.194,23.0909,159.313,98.0633,99.9676,-0.00310083,0.0619467,20.9824,60.4931,-0.172053,0.0,0.0
1680,419.75,21.1316,22.9968,160.479,98.0237,100.046,-0.00313626,0.0620265,20.9818,60.4831,-0.182712,0.0,0.0
1715,428.5,20.7982,22.3144,162.285,97.9659,100.488,-0.00302506,0.0618474,20.9816,60.5232,-0.227415,0.0,0.0
1750,437.25,21.62,22.9157,166.099,97.8488,100.033,-0.00302645,0.0615604,20.9805,60.4731,-0.197445,0.0,0.0
1785,446,21.4342,23.2535,160.739,97.7514,99.5956,-0.00304593,0.0611543,20.9803,60.4631,-0.167191,0.0,0.0
1820,454.75,21.3693,22.7228,158.069,97.6177,99.3719,-0.00321644,0.0610484,20.9803,60.4531,-0.159327,0.0,0.0
1855,463.5,21.3009,23.3065,161.535,97.4994,99.331,-0.00336888,0.0610353,20.9822,60.4631,-0.166489,0.0,0.0
1890,472.25,21.2104,23.3265,158.522,97.4111,99.3577,-0.00321738,0.061059,20.9802,60.4531,-0.176989,0.0,0.0
1925,481,21.6291,23.2727,153.151,97.3078,99.443,-0.00358907,0.0613885,20.9819,60.4531,-0.194161,0.0,0.0
1960,489.75,21.2036,23.0453,161.024,97.258,99.2927,-0.00310408,0.0612087,20.982,60.4631,-0.185218,0.0,0.0
1995,498.5,21.3789,23.4296,154.997,97.1741,98.8118,-0.00309963,0.0613042,20.9824,60.4331,-0.149502,0.0,0.0
2030,507.25,21.954,23.1238,165.058,97.1286,98.9856,-0.0034705,0.0612147,20.981,60.4631,-0.169416,0.0,0.0
2065,516,21.7756,23.6714,160.902,97.1029,98.869,-0.00313816,0.0609136,20.9818,60.4231,-0.161235,0.0,0.0
2100,524.75,21.2495,23.0214,158.732,97.1033,98.8218,-0.00315232,0.0610011,20.9838,60.4331,-0.156933,0.0,0.0
2135,533.5,21.8062,23.5614,159.631,97.1171,98.7392,-0.00360916,0.0608262,20.9837,60.4331,-0.148172,0.0,0.0
2170,542.25,22.309,23.4255,160.671,97.1713,99.0803,-0.00316222,0.0607442,20.9833,60.4331,-0.17403,0.0,0.0
2205,551,21.9581,23.5316,159.502,97.271,98.9026,-0.00313867,0.0612516,20.9835,60.4131,-0.148796,0.0,0.0
2240,559.75,21.3921,23.1609,162.119,97.4669,99.2031,-0.00303465,0.061857,20.9811,60.4131,-0.157943,0.0,0.0
2275,568.5,21.8246,23.2819,160.112,97.7206,99.02,-0.00315643,0.061707,20.9824,60.393,-0.118167,0.0,0.0
2310,577.25,21.9548,23.4936,156.364,98.0557,100.16,-0.00290625,0.06201,20.9808,60.383,-0.189903,0.0,0.0
2345,586,21.8601,23.2548,164.604,98.398,100.031,-0.00333569,0.062459,20.9773,60.383,-0.147269,0.0,0.0
2380,594.75,21.9264,23.7237,160.188,98.6742,100.016,-0.00286358,0.0632428,20.9762,60.383,-0.120777,0.0,0.0
2415,603.5,22.1846,23.3163,164.066,98.9235,100.691,-0.00334161,0.0633098,20.9762,60.393,-0.1584,0.0,0.0
2450,612.25,22.0631,23.7423,159.702,99.0011,100.784,-0.00323795,0.0632248,20.976,60.373,-0.159656,0.0,0.0
2485,621,22.0777,23.5739,159.892,98.9936,100.823,-0.00308385,0.0643218,20.972,60.393,-0.163763,0.0,0.0
2520,629.75,22.4984,23.8353,156.223,98.9152,100.973,-0.0029232,0.0654439,20.9703,60.363,-0.18417,0.0,0.0
2555,638.5,22.4055,23.286,160.209,98.749,100.165,-0.00272769,0.0696936,20.964,60.383,-0.127396,0.0,0.0
2590,647.25,22.4653,23.822,162.549,98.5072,100.401,-0.00331842,0.0711517,20.965,60.383,-0.170346,0.0,0.0
2625,656,22.3686,23.7632,159.459,98.2955,100.205,-0.00298226,0.0683166,20.9677,60.363,-0.172089,0.0,0.0
2660,664.75,22.2007,24.0988,161.168,98.3094,100.42,-0.00335462,0.0674009,20.9689,60.343,-0.189982,0.0,0.0
2695,673.5,22.1998,23.5825,160.824,98.6825,100.874,-0.00322187,0.0671811,20.969,60.333,-0.196471,0.0,0.0
2730,682.25,22.1069,23.7498,157.9,98.8179,100.491,-0.00303388,0.0674777,20.9673,60.313,-0.150197,0.0,0.0
2765,691,22.2999,23.7203,161.782,98.7724,100.94,-0.00327872,0.0685341,20.9643,60.343,-0.194223,0.0,0.0
2800,699.75,22.0654,23.3222,162.527,98.5607,100.47,-0.0028459,0.0704496,20.9599,60.353,-0.171655,0.0,0.0
2835,708.5,21.1522,22.6786,164.04,98.142,100.384,-0.00341044,0.0705749,20.9611,60.313,-0.20206,0.0,0.0
2870,717.25,22.17,23.7547,158.062,98.0158,99.8386,-0.00309759,0.0687656,20.9662,60.323,-0.164833,0.0,0.0
2905,726,22.4417,23.2628,161.855,98.1341,100.151,-0.00298017,0.067924,20.9681,60.333,-0.181965,0.0,0.0
2940,734.75,21.811,23.128,162.633,98.2231,100.462,-0.003036,0.0671356,20.968,60.323,-0.201586,0.0,0.0
2975,743.5,22.7307,24.011,160.234,98.2706,101.08,-0.00310946,0.0663263,20.9702,60.333,-0.252165,0.0,0.0
3010,752.25,22.5889,23.4522,158.524,98.2532,100.829,-0.00312153,0.0656841,20.9716,60.313,-0.231501,0.0,0.0
3045,761,22.3095,23.4663,158.544,98.2227,100.557,-0.00310307,0.06482,20.9752,60.323,-0.21008,0.0,0.0
3080,769.75,22.6311,24.1472,157.647,98.163,100.274,-0.00333631,0.0640041,20.9774,60.333,-0.190297,0.0,0.0
3115,778.5,22.7449,23.859,161.443,97.9995,100.311,-0.0034465,0.0632993,20.9799,60.303,-0.20851,0.0,0.0
3150,787.25,22.4643,23.4804,158.677,97.8136,100.41,-0.00325772,0.0638378,20.9759,60.303,-0.234388,0.0,0.0
3185,796,22.2369,23.7233,160.308,97.5908,100.351,-0.0028077,0.0646408,20.9728,60.293,-0.249518,0.0,0.0
3220,804.75,22.1076,23.8496,155.219,97.3624,100.041,,0.065577,,60.293,-0.24281,0.0,0.0
3255,813.5,22.5924,23.9907,161.298,97.2061,99.5918,,,,60.303,-0.216884,0.0,0.0
3256,813.75,22.3783,24.002,161.816,97.1919,99.4851,,,,60.303,-0.208613,0.0,0.0