File: 01_Data/PC/Cone/PC_Cone_HF50Scalar_220216_R3.csv
LABORATORY,FSRI
TEST IDENT,PC_HF50_3
OPERATOR,Dow
MATERIAL,Polycarbonate
ORIENTATION,Horizontal
HEAT FLUX,50
SURF AREA,0.01
C FACTOR,0.0393671
SPEC HOLDER DIFF,302.05
SPECIMEN MASS,64.2
SCAN TIME,0.25
O2 DELAY TIME,11
CO DELAY TIME,11
CO2 DELAY TIME,8
FLOW FACTOR,1
SCAN COUNT,3955
TIME TO IGN,148.25
END OF TEST SCAN,3475
END OF TEST TIME,868.75
TEST STATUS,1
PRE TEST CMT,Dimensions: 98.38 x 98.85 x 5.40 mm; 60 mm spacing
POST TEST CMT,"Bubble formed prior to ignition. Ignition occurred when gases released from bubble. Sample expanded vertically after ignition, affecting incident heat flux. Likely extended test duration by maintaining combustion at elevated areas. See post test pictures."