File: 01_Data/PC/Cone/PC_Cone_HF75Scan_220216_R2.csv
Names,Time,Stack TC,Smoke TC,Exh Press,Smoke Comp,Smoke Meas,CO Meter,CO2 Meter,O2 Meter,Sample Mass,Ext Coeff,Start Test,Flame Verif
Chan Gain,,500,500,1,1,1,1,1,1,1,1,1.0,1.0
Offset,,0,0,0.140898,0,0,0,0,0,0,0,0.0,0.0
Gain,,1,1,25.011,12.9668,12.6588,1,1,1,1.00088,1.01977,1.0,1.0
Units,sec,C,C,Pa,%,%,%,%,%,g,/m,,
Baseline,,51.3302,54.3321,148.198,98.3241,96.01,-0.00296662,0.0646734,20.9692,-873.544,0.21316,,
34,8.25,47.8411,50.0215,155.658,98.3221,97.1568,-0.00322496,0.075952,20.9546,59.9727,0.106648,0.0,0.0
68,16.75,47.7596,50.2524,151.339,98.2302,96.6982,-0.00306583,0.0694492,20.9606,59.8826,0.140611,0.0,0.0
102,25.25,48.4659,50.6856,146.573,98.1503,95.2113,-0.00321688,0.0677424,20.9638,59.9026,0.27195,0.0,0.0
136,33.75,48.4399,51.236,149.119,98.3185,95.8286,-0.00319808,0.0662947,20.9656,59.8726,0.229453,0.0,0.0
170,42.25,48.4599,51.7422,148.157,98.5061,96.9165,-0.00327307,0.0665094,20.9681,59.8926,0.145525,0.0,0.0
204,50.75,48.8384,51.7432,148.32,98.6173,93.9314,-0.00264832,0.067066,20.9654,59.8526,0.435469,0.0,0.0
238,59.25,49.3657,52.7407,144.593,98.6355,80.8662,-0.00140149,0.0889248,20.9378,59.7024,1.77686,0.0,1.0
272,67.75,52.4632,57.1989,134.223,98.5793,57.9275,0.00857265,0.336761,20.5525,58.9618,4.75596,0.0,0.0
306,76.25,59.4423,68.1443,120.269,98.457,43.9772,0.0241222,0.671503,20.0755,57.6106,7.20949,0.0,0.0
340,84.75,67.9747,79.3804,120.729,98.2334,43.3799,0.0317293,0.861584,19.8438,55.9391,7.31147,0.0,0.0
374,93.25,74.5423,88.1577,117.467,97.9505,40.1974,0.0331928,0.901732,19.8014,54.2577,7.96724,0.0,0.0
408,101.75,79.2913,95.3668,124.644,97.7981,39.2232,0.0346638,0.915536,19.7816,52.4961,8.1728,0.0,0.0
442,110.25,83.8749,101.446,120.621,97.8899,39.7505,0.0360029,0.938626,19.7512,50.7045,8.06173,0.0,0.0
476,118.75,87.877,105.852,124.083,97.9897,43.1559,0.0362664,0.934214,19.7625,48.8529,7.33557,0.0,0.0
510,127.25,90.7636,109.327,121.641,98.1289,42.2735,0.0368125,0.930164,19.7569,47.2115,7.53306,0.0,0.0
544,135.75,94.2404,112.2,116.622,98.273,40.0147,0.0380204,0.985186,19.6988,45.3498,8.0374,0.0,0.0
578,144.25,96.0802,115.341,118.548,98.3462,37.4291,0.0393368,0.973289,19.6894,43.5082,8.6416,0.0,0.0
612,152.75,98.2886,116.443,122.297,98.3921,45.6967,0.0341433,0.937916,19.7576,41.7567,6.86049,0.0,0.0
646,161.25,97.224,115.067,122.894,98.3873,52.7504,0.0234986,0.738636,20.0525,40.4655,5.57599,0.0,0.0
680,169.75,95.9391,111.406,129.294,98.3248,61.4426,0.0158292,0.612248,20.2276,39.4346,4.20586,0.0,0.0
714,178.25,93.6968,108.051,128.205,98.2097,66.5601,0.0121345,0.529657,20.3354,38.5839,3.47973,0.0,0.0
748,186.75,91.8611,104.45,134.414,98.1024,69.109,0.00942116,0.472686,20.4168,37.8032,3.13379,0.0,0.0
782,195.25,89.5268,100.623,133.043,97.956,70.2104,0.00842906,0.427248,20.4731,37.1126,2.97899,0.0,0.0
816,203.75,87.8123,98.3493,133.025,97.7958,71.6742,0.00812226,0.409461,20.4931,36.452,2.77977,0.0,0.0
850,212.25,86.476,95.1394,132.827,97.6529,73.853,0.00740067,0.388746,20.5219,35.8515,2.49882,0.0,0.0
884,220.75,84.5085,93.7037,132.853,97.5124,73.7723,0.00698489,0.382089,20.5298,35.2209,2.49572,0.0,0.0
918,229.25,83.6503,92.8373,131.897,97.4321,72.5805,0.00680073,0.373071,20.543,34.6404,2.63404,0.0,0.0
952,237.75,82.7911,90.5037,135.597,97.3229,75.4477,0.00665996,0.367207,20.5501,34.0899,2.27743,0.0,0.0
986,246.25,81.9212,89.8407,131.114,97.2568,74.728,0.00639445,0.369399,20.5468,33.5094,2.3571,0.0,0.0
1020,254.75,81.3123,89.2511,134.956,97.1959,74.2718,0.00656802,0.368413,20.5544,32.9389,2.40627,0.0,0.0
1054,263.25,80.8974,88.6592,132.176,97.1626,72.696,0.0063885,0.370962,20.5491,32.3284,2.59504,0.0,0.0
1088,271.75,81.2595,88.656,133.068,97.1701,72.7852,0.00657354,0.380752,20.5338,31.7279,2.58476,0.0,0.0
1122,280.25,80.4508,88.3603,132.282,97.1871,73.124,0.00646357,0.378639,20.5367,31.1273,2.54478,0.0,0.0
1156,288.75,81.1723,87.5799,131.792,97.2501,74.1964,0.006257,0.380172,20.5341,30.5168,2.42034,0.0,0.0
1190,297.25,80.9817,88.5393,134.259,97.3506,73.5497,0.00635571,0.382311,20.5308,29.9263,2.50788,0.0,0.0
1224,305.75,80.7827,88.5016,138.556,97.4594,74.5777,0.00610748,0.380062,20.5347,29.3057,2.39372,0.0,0.0
1258,314.25,81.011,87.7694,134.775,97.5773,73.931,0.00611996,0.375965,20.5396,28.7452,2.48244,0.0,0.0
1292,322.75,80.3666,87.8806,135.586,97.734,75.3507,0.00607101,0.376995,20.5401,28.1347,2.32665,0.0,0.0
1326,331.25,80.97,87.5182,133.521,97.8986,75.377,0.00579919,0.375017,20.5435,27.6042,2.33858,0.0,0.0
1360,339.75,80.3557,88.3001,135.639,98.0692,77.1077,0.00579844,0.377272,20.5393,26.9837,2.15108,0.0,0.0
1394,348.25,80.9997,87.4481,131.403,98.2065,76.6523,0.00557412,0.372887,20.5439,26.4332,2.2166,0.0,0.0
1428,356.75,80.3049,87.6749,133.436,98.3596,76.7728,0.00535218,0.37071,20.5465,25.8327,2.21648,0.0,0.0
1462,365.25,80.3662,87.3102,137.253,98.472,79.9104,0.00490938,0.363857,20.5581,25.2922,1.86838,0.0,0.0
1496,373.75,79.794,88.0578,134.13,98.6018,76.9308,0.00538655,0.373199,20.5433,24.7918,2.22009,0.0,0.0
1530,382.25,79.9156,87.4907,136.661,98.6996,76.4676,0.00561327,0.381189,20.5302,24.2013,2.28297,0.0,0.0
1564,390.75,80.7444,87.711,132.673,98.7759,77.3152,0.00588666,0.394585,20.5127,23.5907,2.19128,0.0,0.0
1598,399.25,80.8412,88.231,128.072,98.846,76.5151,0.00551823,0.39525,20.5118,23.0002,2.29067,0.0,0.0
1632,407.75,81.0179,88.098,132.574,98.9049,76.48,0.00536543,0.39281,20.5156,22.3997,2.30012,0.0,0.0
1666,416.25,80.9918,88.3686,130.938,98.9485,78.624,0.0048644,0.396609,20.5152,21.7791,2.05673,0.0,0.0
1700,424.75,81.4774,88.4803,134.468,98.988,79.2738,0.00462601,0.39579,20.5126,21.1686,1.98668,0.0,0.0
1734,433.25,80.8766,88.3326,133.005,98.9956,81.6477,0.00389638,0.38727,20.5248,20.5981,1.72342,0.0,0.0
1768,441.75,80.634,88.0749,131.895,98.9995,81.4882,0.00350321,0.375496,20.5432,20.1077,1.74127,0.0,0.0
1802,450.25,81.5162,87.8066,131.49,98.9884,81.2208,0.00315391,0.366751,20.552,19.5872,1.76967,0.0,0.0
1836,458.75,80.6156,87.0576,131.157,98.9635,81.7787,0.00259455,0.36122,20.5592,19.0467,1.70619,0.0,0.0
1870,467.25,80.0506,86.8678,137.309,98.935,80.7858,0.0026524,0.354613,20.5656,18.5563,1.81288,0.0,0.0
1904,475.75,79.7656,86.3269,134.807,98.8741,80.7866,0.00253817,0.344693,20.578,18.0959,1.80728,0.0,0.0
1938,484.25,79.7426,85.6123,138.614,98.8139,82.5532,0.00288092,0.34153,20.5815,17.6155,1.60833,0.0,0.0
1972,492.75,78.8291,85.4482,137.556,98.7494,83.3,0.0026493,0.339202,20.5872,17.1751,1.52193,0.0,0.0
2006,501.25,78.4889,85.2029,131.76,98.6584,82.3844,0.00259876,0.339155,20.5909,16.7247,1.61255,0.0,0.0
2040,509.75,78.6067,84.8936,139.442,98.584,81.4793,0.00266668,0.338775,20.5886,16.2643,1.70463,0.0,0.0
2074,518.25,78.2701,84.3982,135.682,98.514,83.487,0.00263521,0.334812,20.5936,15.7939,1.48052,0.0,0.0
2108,526.75,78.239,84.2833,137.721,98.4384,82.4771,0.0027168,0.332852,20.5949,15.3335,1.58252,0.0,0.0
2142,535.25,78.1485,83.9785,136.642,98.3695,81.3522,0.00244447,0.334065,20.5918,14.9231,1.69911,0.0,0.0
2176,543.75,77.9698,84.0595,137.014,98.275,84.2515,0.00243181,0.33163,20.5961,14.4827,1.37725,0.0,0.0
2210,552.25,77.9285,84.0019,134.015,98.2089,84.2751,0.0021884,0.327633,20.6008,14.0323,1.36873,0.0,0.0
2244,560.75,77.4765,83.3969,135.252,98.1828,85.0531,0.0020033,0.324939,20.6044,13.622,1.28415,0.0,0.0
2278,569.25,77.2691,83.5064,131.862,98.2441,85.784,0.00244937,0.325061,20.6084,13.1916,1.21319,0.0,0.0
2312,577.75,77.4226,83.3048,140.214,98.3596,84.7699,0.0024454,0.319352,20.6165,12.8012,1.33008,0.0,0.0
2346,586.25,77.4243,82.8282,140.075,98.4424,86.4887,0.00233982,0.311308,20.625,12.4209,1.15804,0.0,0.0
2380,594.75,76.8559,82.7862,135.484,98.4966,87.2509,0.00229766,0.303903,20.6362,12.0506,1.08448,0.0,0.0
2414,603.25,76.5857,82.1432,136.015,98.5547,88.4295,0.00273917,0.287003,20.6597,11.7003,0.969731,0.0,0.0
2448,611.75,75.6899,81.2807,137.801,98.5828,90.5871,0.00299437,0.272708,20.68,11.43,0.756645,0.0,0.0
2482,620.25,75.2279,80.2156,138.501,98.6272,91.9068,0.00319084,0.260238,20.6938,11.1698,0.631291,0.0,0.0
2516,628.75,74.719,79.3897,140.205,98.6683,93.0502,0.00370769,0.249196,20.7064,10.9096,0.524413,0.0,0.0
2550,637.25,74.1073,78.5726,139.692,98.6679,93.6641,0.00442197,0.234532,20.7263,10.6594,0.465557,0.0,0.0
2584,645.75,73.4105,77.468,142.634,98.6394,94.21,0.00659412,0.214598,20.7516,10.5292,0.410993,0.0,0.0
2618,654.25,72.2592,76.3607,139.757,98.5884,93.792,0.00707734,0.199034,20.7724,10.3691,0.44614,0.0,0.0
2652,662.75,71.3383,75.0265,138.895,98.5239,95.4273,0.00735099,0.193523,20.7769,10.239,0.285666,0.0,0.0
2686,671.25,70.7009,74.1604,139.896,98.4194,95.9159,0.00730488,0.189304,20.7842,10.0588,0.230483,0.0,0.0
2720,679.75,69.756,73.6015,139.855,98.3118,95.6077,0.00741849,0.185585,20.7886,9.89869,0.249492,0.0,0.0
2754,688.25,69.5143,73.241,141.738,98.2014,95.8905,0.00736951,0.185638,20.7894,9.73855,0.213021,0.0,0.0
2788,696.75,68.9032,72.6742,139.523,98.0898,96.0825,0.00712743,0.18254,20.7911,9.60844,0.184957,0.0,0.0
2822,705.25,68.3402,71.6332,143.219,97.996,95.3693,0.00730512,0.184592,20.789,9.46832,0.243043,0.0,0.0
2856,713.75,67.2593,71.05,145.628,97.8262,95.4578,0.007534,0.183549,20.7927,9.34821,0.219239,0.0,0.0
2890,722.25,67.2446,70.6715,145.386,97.806,94.9857,0.00737755,0.18021,20.8001,9.20809,0.261741,0.0,0.0
2924,730.75,67.3213,70.5427,143.379,97.8682,96.2872,0.00776887,0.180371,20.8017,9.05796,0.145683,0.0,0.0
2958,739.25,66.6942,70.0056,139.802,97.9362,95.8758,0.00776918,0.181082,20.8027,8.95787,0.190207,0.0,0.0
2992,747.75,66.7068,69.6646,138.542,97.9984,95.2866,0.00745054,0.180924,20.8054,8.78772,0.251017,0.0,0.0
3026,756.25,66.1832,69.5418,141.593,98.0783,96.6484,0.0072432,0.180834,20.807,8.67762,0.131374,0.0,0.0
3060,764.75,66.4774,69.4296,143.726,98.1353,96.439,0.00759918,0.182488,20.8038,8.56752,0.155971,0.0,0.0
3094,773.25,66.0577,69.3417,142.075,98.1843,96.2262,0.00758553,0.181484,20.8048,8.44742,0.180209,0.0,0.0
3128,781.75,65.6815,69.1711,143.203,98.2057,95.5428,0.00716707,0.183525,20.8026,8.26726,0.245911,0.0,0.0
3162,790.25,65.8173,69.3522,139.93,98.2247,95.501,0.00698405,0.177015,20.8094,8.14716,0.251549,0.0,0.0
3196,798.75,65.5576,68.9152,144.458,98.2417,95.8128,0.00732464,0.184001,20.7998,8.00703,0.223944,0.0,0.0
3230,807.25,65.0543,68.6147,144.896,98.2627,96.3421,0.00699481,0.182477,20.8023,7.8569,0.176576,0.0,0.0
3264,815.75,65.381,68.8165,143.102,98.3137,95.6401,,0.181019,,7.73679,0.246636,0.0,0.0
3298,824.25,64.7962,68.3801,144.775,98.3509,96.1613,,,,7.61669,0.201409,0.0,0.0
3301,825,64.7747,68.3353,140.863,98.3502,95.8715,,,,7.60668,0.22833,0.0,0.0