File: 01_Data/PC/Cone/PC_Cone_HF25Scalar_220216_R2.csv
LABORATORY,FSRI
TEST IDENT,PC_HF25_2
OPERATOR,Dow
MATERIAL,Polycarbonate
ORIENTATION,Horizontal
HEAT FLUX,25
SURF AREA,0.01
C FACTOR,0.0393671
SPEC HOLDER DIFF,302.15
SPECIMEN MASS,64.7
SCAN TIME,0.25
O2 DELAY TIME,11
CO DELAY TIME,11
CO2 DELAY TIME,8
FLOW FACTOR,1
SCAN COUNT,3256
TIME TO IGN,0
END OF TEST SCAN,2776
END OF TEST TIME,694
TEST STATUS,1
PRE TEST CMT,Dimensions: 98.85 x 99.06  x 5.40 mm
POST TEST CMT,no ignition