File: 01_Data/PC/Cone/PC_Cone_HF75Scan_220216_R1.csv
Names,Time,Stack TC,Smoke TC,Exh Press,Smoke Comp,Smoke Meas,CO Meter,CO2 Meter,O2 Meter,Sample Mass,Ext Coeff,Start Test,Flame Verif
Chan Gain,,500,500,1,1,1,1,1,1,1,1,1.0,1.0
Offset,,0,0,0.140898,0,0,0,0,0,0,0,0.0,0.0
Gain,,1,1,25.011,12.9668,12.6588,1,1,1,1.00088,1.01977,1.0,1.0
Units,sec,C,C,Pa,%,%,%,%,%,g,/m,,
Baseline,,45.5722,48.9438,148.697,97.6294,96.8898,-0.00292437,0.0619228,20.9712,-873.385,0.068123,,
34,8.25,44.1429,47.4378,152.821,97.8836,96.7597,-0.00288552,0.0642296,20.9737,59.262,0.103308,0.0,0.0
68,16.75,44.2336,47.4611,149.171,98.3177,98.0117,-0.00321689,0.0601097,20.9798,59.182,0.0278836,0.0,0.0
102,25.25,44.9914,48.5091,148.964,98.6434,97.9406,-0.00318375,0.0587746,20.9798,59.212,0.0639544,0.0,0.0
136,33.75,44.931,48.668,143.652,98.3177,97.0401,-0.00323545,0.0589132,20.9818,59.162,0.117,0.0,0.0
170,42.25,45.3885,49.0829,152.663,98.9049,96.8806,-0.0029842,0.0590052,20.9832,59.162,0.184991,0.0,0.0
204,50.75,45.8644,48.5663,147.823,98.7637,94.4483,-0.00255022,0.0605165,20.9799,59.152,0.39965,0.0,0.0
238,59.25,47.7047,51.9679,139.675,97.808,71.87,0.00235421,0.193121,20.7588,58.6815,2.75648,0.0,1.0
272,67.75,53.2601,60.147,123.748,97.0862,47.0565,0.0159871,0.472499,20.3411,57.6606,6.47867,0.0,0.0
306,76.25,60.8065,71.3368,123.1,97.4285,43.0662,0.0268288,0.739492,20.0043,56.1493,7.30279,0.0,0.0
340,84.75,67.6186,80.0011,125.598,98.2144,44.8248,0.0284666,0.793184,19.9597,54.5179,7.01666,0.0,0.0
374,93.25,72.0393,86.157,121.55,98.2144,39.1393,0.0299077,0.791316,19.9537,52.9365,8.22994,0.0,0.0
408,101.75,77.068,92.275,123.434,97.7969,39.0972,0.0327494,0.841758,19.8897,51.225,8.20146,0.0,0.0
442,110.25,81.7349,97.8085,125.924,98.5994,37.9869,0.0358044,0.888938,19.8183,49.4434,8.53227,0.0,0.0
476,118.75,84.9788,102.591,123.893,98.3517,36.0283,0.0398286,0.946753,19.731,47.5918,8.98331,0.0,0.0
510,127.25,89.6631,107.588,121.085,98.4404,36.1933,0.0423877,0.991582,19.6685,45.7001,8.95051,0.0,0.0
544,135.75,92.873,111.551,119.049,98.8547,36.6171,0.0402154,1.01246,19.6372,43.7584,8.88394,0.0,0.0
578,144.25,94.9724,113.311,119.742,98.9228,46.0455,0.0328033,0.922037,19.7914,42.0469,6.84058,0.0,0.0
612,152.75,94.1753,111.626,129.722,98.5836,54.0218,0.0211859,0.722964,20.0895,40.8058,5.38078,0.0,0.0
646,161.25,92.5578,108.395,129.156,98.0027,62.1128,0.0147401,0.583514,20.2774,39.865,4.07946,0.0,0.0
680,169.75,90.4713,104.596,135.296,97.461,66.669,0.011064,0.503548,20.3791,38.9542,3.39665,0.0,0.0
714,178.25,87.957,100.738,138.095,97.1377,72.8988,0.0075443,0.423324,20.4911,38.1635,2.56782,0.0,0.0
748,186.75,85.2667,97.2435,134.089,97.0625,72.4422,0.00616971,0.375725,20.5493,37.603,2.61711,0.0,0.0
782,195.25,83.2095,93.7741,134.985,97.1689,73.4964,0.00641584,0.349688,20.5834,37.0926,2.49767,0.0,0.0
816,203.75,81.4734,90.9967,134.262,97.3573,77.6068,0.0063132,0.33043,20.6094,36.5721,2.02819,0.0,0.0
850,212.25,79.8425,88.887,131.525,97.6296,75.4566,0.00619147,0.326555,20.6094,36.0617,2.30452,0.0,0.0
884,220.75,79.0284,87.3556,132.325,97.8963,74.6704,0.00682858,0.329746,20.608,35.5212,2.42261,0.0,0.0
918,229.25,78.1619,86.2732,136.135,98.0656,76.1875,0.00649752,0.326843,20.6119,34.9807,2.25815,0.0,0.0
952,237.75,77.2863,85.0998,136.564,98.1927,77.2831,0.00588941,0.321644,20.6187,34.5003,2.14202,0.0,0.0
986,246.25,77.136,84.5043,135.665,98.2516,77.6439,0.00616344,0.321542,20.6165,33.9598,2.10572,0.0,0.0
1020,254.75,76.6451,84.0657,137.279,98.2991,77.0359,0.00668571,0.323894,20.6133,33.4394,2.18037,0.0,0.0
1054,263.25,75.7384,83.2862,136.45,98.311,76.9988,0.00669673,0.332647,20.6018,32.8789,2.18576,0.0,0.0
1088,271.75,76.397,83.3201,136.5,98.3137,76.7709,0.0062034,0.334677,20.5989,32.3384,2.21253,0.0,0.0
1122,280.25,76.0254,83.1136,133.927,98.3023,75.5752,0.00643049,0.331188,20.6018,31.838,2.3519,0.0,0.0
1156,288.75,75.8842,83.2453,136.389,98.2845,76.9227,0.00603092,0.332588,20.601,31.3275,2.19219,0.0,0.0
1190,297.25,75.9047,82.9785,137.13,98.2849,78.4467,0.00617015,0.329315,20.6055,30.787,2.01673,0.0,0.0
1224,305.75,76.0357,82.9449,138.194,98.2805,79.1262,0.00581836,0.327178,20.6084,30.2766,1.93918,0.0,0.0
1258,314.25,75.7647,82.7734,136.22,98.2706,79.0238,0.00532137,0.321864,20.6156,29.7261,1.94986,0.0,0.0
1292,322.75,74.8128,81.4953,137.403,98.2785,80.2887,0.00494678,0.317599,20.6228,29.2857,1.80854,0.0,0.0
1326,331.25,75.5332,82.5564,136.749,98.2845,80.6244,0.00494538,0.311937,20.6303,28.8153,1.77176,0.0,0.0
1360,339.75,75.0972,81.7254,133.806,98.3082,81.3607,0.00457792,0.300752,20.6482,28.3449,1.69259,0.0,0.0
1394,348.25,74.8491,81.414,134.335,98.3165,81.3201,0.0044934,0.296086,20.6516,27.9646,1.69781,0.0,0.0
1428,356.75,74.8528,81.1756,136.655,98.3149,83.0249,0.00461737,0.299367,20.6479,27.4941,1.51207,0.0,0.0
1462,365.25,74.7453,80.9069,136.278,98.3228,83.1196,0.00455665,0.291975,20.6595,27.0638,1.5026,0.0,0.0
1496,373.75,74.044,80.3224,136.194,98.3007,82.4876,0.00412713,0.290571,20.6615,26.6534,1.56886,0.0,0.0
1530,382.25,74.4343,80.7099,139.057,98.2936,83.1922,0.00456909,0.294942,20.6527,26.233,1.49212,0.0,0.0
1564,390.75,74.3631,80.762,135.767,98.2643,80.6182,0.00406645,0.308779,20.6305,25.7726,1.77061,0.0,0.0
1598,399.25,74.4973,80.9095,135.349,98.2093,80.9925,0.00408723,0.31573,20.6235,25.2722,1.72416,0.0,0.0
1632,407.75,74.7083,81.426,135.576,98.163,78.6893,0.00462314,0.334036,20.5983,24.7517,1.97801,0.0,0.0
1666,416.25,75.6806,82.4853,138.505,98.1127,78.9775,0.00488004,0.347134,20.582,24.2113,1.94073,0.0,0.0
1700,424.75,76.7122,83.9142,136.161,98.0427,73.2465,0.00584307,0.372891,20.5415,23.6007,2.60822,0.0,0.0
1734,433.25,77.3485,84.5662,132.69,97.9715,71.4358,0.00693312,0.4037,20.4956,22.8901,2.82562,0.0,0.0
1768,441.75,78.0128,85.9226,129.614,97.8812,75.0054,0.00640476,0.403294,20.4995,22.2495,2.3812,0.0,0.0
1802,450.25,78.8458,87.0022,129.378,97.7851,73.272,0.00572082,0.402553,20.4988,21.589,2.58157,0.0,0.0
1836,458.75,79.5041,87.6366,134.197,97.7008,71.6406,0.00602984,0.419177,20.474,20.8984,2.77527,0.0,0.0
1870,467.25,80.7227,88.8722,133.564,97.5959,71.9137,0.00645223,0.426509,20.4637,20.1777,2.73163,0.0,0.0
1904,475.75,80.7715,89.3901,134.633,97.4903,77.1112,0.00613621,0.423588,20.4749,19.5071,2.09772,0.0,0.0
1938,484.25,81.0283,89.3916,134.841,97.4044,76.2478,0.00510103,0.406069,20.4956,18.8866,2.19056,0.0,0.0
1972,492.75,80.9075,89.5425,131.449,97.296,77.1456,0.00464991,0.404384,20.4983,18.256,2.07588,0.0,0.0
2006,501.25,81.3754,89.46,135.726,97.2295,76.089,0.00408795,0.391487,20.5169,17.6655,2.19313,0.0,0.0
2040,509.75,81.1799,88.9173,132.854,97.1551,77.3959,0.00391963,0.381062,20.5306,17.055,2.03394,0.0,0.0
2074,518.25,80.6402,88.3721,133.796,97.1274,78.8017,0.0030171,0.367953,20.551,16.5345,1.87037,0.0,0.0
2108,526.75,80.2656,87.9866,131.234,97.0957,80.0163,0.00267672,0.358456,20.5659,16.0741,1.73063,0.0,0.0
2142,535.25,79.9424,87.4938,131.651,97.0581,79.9935,0.00256557,0.349846,20.5767,15.5737,1.72971,0.0,0.0
2176,543.75,79.549,87.1012,134.423,97.055,80.218,0.00246155,0.343689,20.5834,15.0832,1.70436,0.0,0.0
2210,552.25,79.4108,86.24,135.07,97.0649,80.9914,0.0020669,0.334056,20.5972,14.6329,1.61944,0.0,0.0
2244,560.75,78.3026,85.7076,132.27,97.0862,81.827,0.0021057,0.323767,20.6097,14.2325,1.52959,0.0,0.0
2278,569.25,77.4176,84.0935,137.021,97.1199,83.3742,0.00170407,0.315477,20.6214,13.8021,1.36513,0.0,0.0
2312,577.75,77.8603,84.1885,138.189,97.1816,83.9552,0.00178345,0.30601,20.633,13.4218,1.30869,0.0,0.0
2346,586.25,77.2244,83.3464,137.88,97.2821,85.3849,0.00190448,0.301086,20.6419,13.0314,1.16688,0.0,0.0
2380,594.75,76.664,82.9646,134.53,97.4337,84.8147,0.00203097,0.296324,20.6495,12.6811,1.24074,0.0,0.0
2414,603.25,76.3004,82.2647,139.048,97.6371,86.5698,0.0019343,0.289807,20.6602,12.2708,1.07618,0.0,0.0
2448,611.75,75.8507,81.5931,134.917,97.8322,87.6994,0.00193215,0.285571,20.6643,12.0406,0.978071,0.0,0.0
2482,620.25,75.7427,81.1108,141.434,98.0047,89.5993,0.00186846,0.287354,20.6633,11.6202,0.802111,0.0,0.0
2516,628.75,75.3171,81.0254,136.367,98.1432,88.7374,0.00195553,0.279855,20.6702,11.2599,0.901208,0.0,0.0
2550,637.25,75.217,80.7785,138.767,98.2801,89.0422,0.0025114,0.271407,20.6834,10.9997,0.883004,0.0,0.0
2584,645.75,75.389,81.0765,140.808,98.3988,89.5151,0.002543,0.262874,20.694,10.6994,0.846426,0.0,0.0
2618,654.25,74.872,80.1661,138.615,98.5084,91.4803,0.00355004,0.254967,20.7031,10.4192,0.662125,0.0,0.0
2652,662.75,74.6283,79.6334,138.401,98.6129,92.2502,0.0042128,0.243166,20.721,10.1689,0.596634,0.0,0.0
2686,671.25,73.668,78.8387,139.678,98.6972,93.1982,0.00549982,0.229595,20.7347,9.94874,0.512817,0.0,0.0
2720,679.75,72.9158,77.7432,142.366,98.7332,93.5567,0.00603093,0.216878,20.7504,9.69852,0.481738,0.0,0.0
2754,688.25,72.6795,77.5362,138.333,98.8001,95.4574,0.00653888,0.209183,20.759,9.57841,0.307885,0.0,0.0
2788,696.75,72.1351,76.1413,136.119,98.848,95.1348,0.00681594,0.203631,20.7667,9.39825,0.342498,0.0,0.0
2822,705.25,70.9728,75.2226,142.984,98.8832,95.6621,0.0066777,0.198897,20.7752,9.24812,0.296239,0.0,0.0
2856,713.75,70.1925,74.2048,138.676,98.9121,95.1105,0.00668188,0.193569,20.7827,9.07797,0.350586,0.0,0.0
2890,722.25,69.2454,73.3283,144.454,98.9208,95.1232,0.00629792,0.192654,20.7851,8.90782,0.350175,0.0,0.0
2924,730.75,68.9146,72.7822,138.916,98.8836,95.3589,0.00605729,0.191514,20.7848,8.81775,0.324677,0.0,0.0
2958,739.25,68.4286,72.3755,142.362,98.848,96.4193,0.00573583,0.190296,20.7901,8.61757,0.222527,0.0,0.0
2992,747.75,68.2926,72.0695,141.179,98.7688,96.3683,0.00580543,0.189392,20.7906,8.49746,0.220094,0.0,0.0
3026,756.25,68.088,71.9588,143.139,98.6905,97.0003,0.00534717,0.189343,20.79,8.33732,0.15452,0.0,0.0
3060,764.75,67.83,71.8329,142.7,98.5682,95.3546,0.00550014,0.189975,20.7892,8.24724,0.2965,0.0,0.0
3094,773.25,67.4182,71.876,143.894,98.4673,95.1754,0.00545645,0.190965,20.7876,8.07709,0.304169,0.0,0.0
3128,781.75,67.3905,70.6823,137.003,98.3494,95.275,0.00536048,0.189384,20.7904,7.967,0.284086,0.0,0.0
3162,790.25,66.7501,71.0719,144.715,98.2481,94.6809,0.00551848,0.190496,20.7875,7.81687,0.330827,0.0,0.0
3196,798.75,67.1321,70.9975,137.278,98.1475,96.4634,0.00525013,0.190159,20.792,7.70677,0.154831,0.0,0.0
3230,807.25,66.8671,70.3015,143.68,98.1543,95.0498,0.00519077,0.189735,20.7939,7.55664,0.287496,0.0,0.0
3264,815.75,66.5895,70.5872,141.577,98.3644,95.8792,0.00501778,0.189307,20.7958,7.41651,0.228905,0.0,0.0
3298,824.25,66.9558,70.1364,141.951,98.491,95.6343,0.00540721,0.188612,20.7976,7.25637,0.263294,0.0,0.0
3332,832.75,66.6243,70.7526,135.93,98.5761,95.0158,,,,7.13627,0.329058,0.0,0.0
3344,835.75,66.7381,70.4879,141.81,98.5935,95.6699,,,,7.11625,0.269274,0.0,0.0