File: 01_Data/PC/Cone/PC_Cone_HF50Scan_220216_R2.csv
Names,Time,Stack TC,Smoke TC,Exh Press,Smoke Comp,Smoke Meas,CO Meter,CO2 Meter,O2 Meter,Sample Mass,Ext Coeff,Start Test,Flame Verif
Chan Gain,,500,500,1,1,1,1,1,1,1,1,1.0,1.0
Offset,,0,0,0.140898,0,0,0,0,0,0,0,0.0,0.0
Gain,,1,1,25.011,12.9668,12.6588,1,1,1,1.00088,1.01977,1.0,1.0
Units,sec,C,C,Pa,%,%,%,%,%,g,/m,,
Baseline,,36.7706,38.6198,153.538,98.284,99.0449,-0.00283172,0.0710775,20.953,-873.158,-0.0689065,,
33,8,35.6257,36.8427,152.313,97.8361,97.5253,-0.0028154,0.0722748,20.9591,60.1929,0.0284597,0.0,0.0
66,16.25,36.0212,37.5142,152.891,97.7946,97.7761,-0.00260061,0.0684567,20.9651,60.0928,0.00169216,0.0,0.0
99,24.5,35.9023,37.8835,152.28,98.2267,98.9694,-0.00295699,0.0656074,20.9713,60.1028,-0.0673831,0.0,0.0
132,32.75,35.5502,37.8769,151.811,98.5496,99.2846,-0.00279196,0.0622152,20.9774,60.0728,-0.0664726,0.0,0.0
165,41,36.2027,38.4164,154.032,98.639,98.3011,-0.00277691,0.0608522,20.9791,60.0828,0.0307002,0.0,0.0
198,49.25,36.5743,38.4351,156.591,98.4384,98.7225,-0.00273698,0.0605027,20.9831,60.0427,-0.025784,0.0,0.0
231,57.5,36.5869,38.6969,154.704,98.161,98.4243,-0.00277094,0.0598781,20.9836,60.0527,-0.0239635,0.0,0.0
264,65.75,37.07,39.3536,154.839,98.453,99.0258,-0.00293154,0.0595705,20.9831,60.0427,-0.0518904,0.0,0.0
297,74,37.6419,39.3803,148.404,98.7372,98.5367,-0.00285141,0.059624,20.9831,60.0327,0.0181769,0.0,0.0
330,82.25,37.0016,40.0634,150.819,98.9006,98.9362,-0.00330077,0.0598791,20.983,60.0427,-0.00321834,0.0,0.0
363,90.5,37.6156,40.077,152.592,98.7585,98.6495,-0.00305669,0.0593649,20.9851,59.9827,0.0098787,0.0,0.0
396,98.75,37.627,40.4415,152.918,98.2215,96.3216,-0.00297738,0.0590259,20.9865,59.9627,0.17473,0.0,0.0
429,107,37.7512,40.7634,152.746,97.5041,96.0794,-0.00284319,0.058825,20.9865,59.9627,0.131676,0.0,0.0
462,115.25,37.7938,40.6511,147.961,97.036,94.7922,-0.00272316,0.0592182,20.9874,59.9226,0.209278,0.0,0.0
495,123.5,38.551,40.9717,152.657,97.0775,94.7408,-0.00282854,0.0594206,20.9879,59.9026,0.217958,0.0,0.0
528,131.75,38.2968,41.4297,150.616,97.6185,93.5602,-0.00258343,0.0600318,20.9863,59.8225,0.379835,0.0,0.0
561,140,38.5221,41.4148,155.6,98.178,94.4252,-0.00259177,0.060506,20.985,59.7625,0.348643,0.0,0.0
594,148.25,39.3276,41.8196,153.366,98.1618,93.807,-0.00188629,0.0664835,20.9804,59.7024,0.405913,0.0,0.0
627,156.5,38.977,42.3788,152.673,97.7962,93.3388,-0.00250991,0.0629512,20.9842,59.6824,0.417291,0.0,0.0
660,164.75,39.1117,42.0088,148.301,98.4807,93.6011,-0.00254426,0.0612986,20.986,59.6023,0.454588,0.0,0.0
693,173,39.6674,42.749,147.038,98.3917,89.2972,-0.000894711,0.093329,20.925,59.5223,0.867577,0.0,1.0
726,181.25,42.2032,46.3923,137.287,98.4344,57.9684,0.00950598,0.309765,20.6121,58.8317,4.73649,0.0,0.0
759,189.5,50.8055,58.1128,130.451,98.8749,39.46,0.0301014,0.694465,20.001,57.2303,8.2169,0.0,0.0
792,197.75,59.7353,70.6657,124.07,98.531,44.5717,0.0361437,0.921547,19.7579,55.4787,7.09608,0.0,0.0
825,206,66.8269,79.5251,126.275,97.5421,42.4431,0.0351892,0.935939,19.7805,53.7972,7.44359,0.0,0.0
858,214.25,71.3791,85.2531,130.42,96.9845,48.3147,0.0313729,0.852219,19.9233,52.2559,6.23324,0.0,0.0
891,222.5,73.7458,87.847,121.529,97.493,44.5837,0.0283611,0.792469,20.0005,50.7145,6.99895,0.0,0.0
924,230.75,75.7907,90.0586,124.339,98.1942,48.4461,0.0279348,0.780079,20.0044,49.3133,6.31984,0.0,0.0
957,239,77.2385,91.6742,126.844,98.0656,48.5044,0.0268186,0.770036,20.0198,47.9521,6.29736,0.0,0.0
990,247.25,78.6412,92.8549,132.592,98.03,50.0972,0.0248191,0.737884,20.0763,46.5509,6.00508,0.0,0.0
1023,255.5,79.152,92.9451,130.88,98.5156,51.5729,0.0226109,0.695253,20.1304,45.3598,5.78958,0.0,0.0
1056,263.75,78.0741,91.5098,129.102,98.415,50.9386,0.0210815,0.670553,20.1593,44.1288,5.89115,0.0,0.0
1089,272,79.39,92.3744,125.046,98.9026,49.9597,0.0227104,0.688711,20.121,42.8677,6.10894,0.0,0.0
1122,280.25,81.0534,94.2911,136.242,98.7526,51.4686,0.025319,0.753222,20.0255,41.4564,5.82919,0.0,0.0
1155,288.5,82.1524,94.9422,126.762,98.2006,52.1265,0.0242408,0.749097,20.0472,40.0852,5.66542,0.0,0.0
1188,296.75,82.0887,95.0107,130.892,97.6026,57.0382,0.020079,0.700411,20.1205,38.8441,4.80529,0.0,0.0
1221,305,81.9166,94.4464,131.202,97.1697,60.1612,0.0166876,0.652287,20.194,37.7331,4.28868,0.0,0.0
1254,313.25,81.0729,93.4213,134.888,97.055,64.44,0.0140363,0.612568,20.2449,36.7223,3.6635,0.0,0.0
1287,321.5,80.2476,91.8163,132.335,97.2315,66.795,0.0126424,0.576894,20.2969,35.8115,3.35867,0.0,0.0
1320,329.75,79.8491,90.4473,134.186,97.5425,69.0685,0.0122208,0.530293,20.3668,34.9307,3.08784,0.0,0.0
1353,338,79.0172,88.7093,133.661,97.8231,69.449,0.0103989,0.508891,20.3874,34.0899,3.06439,0.0,0.0
1386,346.25,77.7624,87.3315,136.257,98.0708,63.9339,0.010667,0.522162,20.3618,33.1992,3.82717,0.0,0.0
1419,354.5,77.5847,86.8714,137.611,98.233,72.1961,0.00859252,0.504211,20.3984,32.3985,2.75478,0.0,0.0
1452,362.75,76.3412,85.3352,135.1,98.3248,72.499,0.00708175,0.47124,20.4433,31.6878,2.72568,0.0,0.0
1485,371,75.6292,83.9895,135.679,98.3335,74.543,0.00557842,0.450925,20.4691,31.0273,2.47776,0.0,0.0
1518,379.25,74.4161,81.6658,137.029,98.3264,77.6976,0.00455318,0.419564,20.5146,30.3967,2.10634,0.0,0.0
1551,387.5,73.4161,80.391,138.359,98.3264,78.2539,0.00423801,0.398846,20.5391,29.8162,2.04252,0.0,0.0
1584,395.75,72.2598,79.0231,140.021,98.3003,81.72,0.00287298,0.374024,20.5786,29.3057,1.65246,0.0,0.0
1617,404,70.8176,77.3711,136.284,98.2975,83.4866,0.00278777,0.353417,20.6045,28.8453,1.46089,0.0,0.0
1650,412.25,70.2721,76.1041,144.787,98.2884,84.9557,0.00253152,0.333036,20.6287,28.3949,1.30401,0.0,0.0
1683,420.5,68.6602,74.1877,141.298,98.2773,85.0964,0.00222513,0.316925,20.6524,27.9846,1.28821,0.0,0.0
1716,428.75,68.6688,73.2271,141.527,98.2833,87.5228,0.00208144,0.295768,20.6803,27.6243,1.03725,0.0,0.0
1749,437,67.3308,72.1596,139.532,98.2936,88.2642,0.00249817,0.283535,20.6936,27.274,0.962736,0.0,0.0
1782,445.25,66.4043,70.8582,140.333,98.294,87.8342,0.00264244,0.278916,20.7,26.9036,1.00645,0.0,0.0
1815,453.5,65.5562,70.6429,142.6,98.3252,87.8574,0.00266831,0.272992,20.7109,26.5833,1.00694,0.0,0.0
1848,461.75,65.0728,69.1244,141.585,98.3213,90.2579,0.00268303,0.265468,20.7166,26.2631,0.765441,0.0,0.0
1881,470,64.0346,67.883,140.996,98.3209,90.8699,0.00251882,0.254847,20.7313,25.9628,0.704961,0.0,0.0
1914,478.25,63.292,67.2304,141.275,98.2995,88.3036,0.00292151,0.258114,20.7225,25.6425,0.959283,0.0,0.0
1947,486.5,63.3493,67.2763,144.919,98.2223,90.7521,0.00267631,0.258081,20.7226,25.3523,0.707599,0.0,0.0
1980,494.75,62.8593,65.8356,140.546,98.1444,90.4716,0.00298942,0.247344,20.7385,25.042,0.728184,0.0,0.0
2013,503,62.4003,66.5542,142.881,98.0015,90.6242,0.00297652,0.238626,20.7478,24.8018,0.700079,0.0,0.0
2046,511.25,61.8006,65.274,138.63,97.8005,89.9956,0.0030442,0.239333,20.7443,24.5215,0.743969,0.0,0.0
2079,519.5,60.9211,64.322,141.084,97.5805,91.4679,0.00306613,0.234926,20.7526,24.2613,0.578669,0.0,0.0
2112,527.75,60.8477,64.2767,144.565,97.3577,90.6002,0.0037052,0.228974,20.7599,23.9911,0.643483,0.0,0.0
2145,536,60.5379,63.7279,142.949,97.2137,89.9477,0.00340418,0.227707,20.7603,23.7609,0.694896,0.0,0.0
2178,544.25,60.4752,63.0997,141.018,97.1021,89.9176,0.00367515,0.225211,20.7627,23.4406,0.687618,0.0,0.0
2211,552.5,59.9044,62.9246,141.326,97.0791,90.5724,0.0042823,0.221257,20.769,23.2504,0.620597,0.0,0.0
2244,560.75,59.6754,62.7267,142.511,97.1701,92.8185,0.00459607,0.213146,20.7786,23.0102,0.409856,0.0,0.0
2277,569,59.3244,61.7795,142.65,97.3913,92.3464,0.00468576,0.208295,20.7852,22.8,0.475809,0.0,0.0
2310,577.25,58.5081,61.4565,144.934,97.6881,93.5401,0.00523049,0.202271,20.7907,22.5698,0.388135,0.0,0.0
2343,585.5,58.2673,61.2174,141.654,98.0043,93.0383,0.00549746,0.199871,20.7938,22.4097,0.46516,0.0,0.0
2376,593.75,57.9175,60.5446,145.502,98.3664,93.695,0.00581754,0.19417,20.7997,22.1795,0.435226,0.0,0.0
2409,602,57.4,60.1512,146.331,98.6224,93.7267,0.00611961,0.191107,20.8068,21.9993,0.455456,0.0,0.0
2442,610.25,56.7375,59.6895,144.791,98.8274,95.2967,0.00667905,0.187648,20.8111,21.8092,0.325429,0.0,0.0
2475,618.5,56.7948,59.8217,143.934,98.9271,94.9969,0.00664417,0.184427,20.8147,21.659,0.362634,0.0,0.0
2508,626.75,56.1786,58.6973,141.917,98.941,95.2221,0.00730025,0.181407,20.814,21.4689,0.342704,0.0,0.0
2541,635,55.7241,58.3301,146.573,98.8721,95.8228,0.00737603,0.180045,20.8147,21.2787,0.280222,0.0,0.0
2574,643.25,55.6505,58.3185,140.437,98.694,95.1472,0.00832342,0.178279,20.8151,21.0885,0.327394,0.0,0.0
2607,651.5,55.4539,58.0368,143.935,98.4752,95.8905,0.00878488,0.176396,20.8166,20.9284,0.23793,0.0,0.0
2640,659.75,54.5394,57.5307,144.721,98.2667,95.1785,0.00955117,0.171912,20.8195,20.7782,0.285634,0.0,0.0
2673,668,54.8793,57.2509,140.245,98.2097,95.2936,0.00976173,0.171524,20.8205,20.6381,0.269632,0.0,0.0
2706,676.25,54.6222,56.5744,148.342,98.5187,94.9366,0.00965312,0.167232,20.8257,20.478,0.331307,0.0,0.0
2739,684.5,53.399,56.0724,148.485,98.6426,94.6032,0.0100307,0.168258,20.8245,20.3779,0.374016,0.0,0.0
2772,692.75,53.3804,55.9109,144.98,98.4827,94.2467,0.0104906,0.16769,20.8256,20.2077,0.393286,0.0,0.0
2805,701,53.2072,55.3917,149.302,98.0728,94.0879,0.0104265,0.160659,20.8369,20.0776,0.371054,0.0,0.0
2838,709.25,52.6582,54.4347,146.933,97.8017,94.5225,0.0107301,0.159539,20.838,19.9375,0.30507,0.0,0.0
2871,717.5,52.2861,54.2383,143.548,97.9821,93.9141,0.0107457,0.154453,20.8469,19.7974,0.379328,0.0,0.0
2904,725.75,52.6417,54.1445,148.327,98.1792,94.03,0.0108844,0.152891,20.8503,19.7273,0.386269,0.0,0.0
2937,734,51.9497,54.7047,145.138,98.3122,94.2196,0.0121921,0.154048,20.8486,19.5472,0.380348,0.0,0.0
2970,742.25,52.1104,54.7133,146.619,98.2758,95.095,0.0116019,0.153631,20.8501,19.4271,0.294308,0.0,0.0
3003,750.5,51.4544,53.7856,142.61,98.1246,96.1644,0.0112019,0.150099,20.8542,19.2869,0.180511,0.0,0.0
3036,758.75,51.1196,53.9673,149.28,97.8393,94.764,0.0115537,0.149755,20.8529,19.1768,0.285687,0.0,0.0
3069,767,51.1022,53.4781,146.669,97.5219,94.9281,0.011765,0.150552,20.8508,19.0367,0.241139,0.0,0.0
3102,775.25,50.7287,53.083,145.87,97.2548,95.525,0.0118503,0.150861,20.8487,18.9366,0.160537,0.0,0.0
3135,783.5,50.6738,53.096,150.759,97.0752,95.2441,0.0120781,0.149329,20.8488,18.7965,0.170337,0.0,0.0
3168,791.75,50.0379,52.7768,144.87,97.0744,95.3554,,,,18.6864,0.15982,0.0,0.0
3190,797.25,50.4973,51.9946,151.428,97.1658,95.2229,,,,18.5663,0.180679,0.0,0.0