File: 01_Data/PC/Cone/PC_Cone_HF50Scan_220216_R3.csv
Names,Time,Stack TC,Smoke TC,Exh Press,Smoke Comp,Smoke Meas,CO Meter,CO2 Meter,O2 Meter,Sample Mass,Ext Coeff,Start Test,Flame Verif
Chan Gain,,500,500,1,1,1,1,1,1,1,1,1.0,1.0
Offset,,0,0,0.140898,0,0,0,0,0,0,0,0.0,0.0
Gain,,1,1,25.011,12.9668,12.6588,1,1,1,1.00088,1.01977,1.0,1.0
Units,sec,C,C,Pa,%,%,%,%,%,g,/m,,
Baseline,,38.3314,40.3557,153.04,98.0849,96.4092,-0.00292597,0.0608688,20.9819,-873.134,0.154241,,
41,10,36.27,38.0805,151.052,97.8907,96.3629,-0.00307805,0.0703402,20.9688,60.1428,0.140713,0.0,0.0
82,20.25,36.6768,38.2837,151.018,97.9635,96.1578,-0.00295405,0.0652346,20.9728,60.0828,0.166427,0.0,0.0
123,30.5,36.8662,39.0695,151.239,98.0486,96.8528,-0.00295633,0.0645518,20.9773,60.1328,0.109773,0.0,0.0
164,40.75,36.8664,39.2725,155.704,98.1859,96.6936,-0.00299289,0.0641465,20.9786,60.1028,0.137004,0.0,0.0
205,51,37.3678,39.6863,157.208,98.2801,97.756,-0.00299893,0.0621795,20.9807,60.0628,0.0478328,0.0,0.0
246,61.25,36.9817,39.9733,153.078,98.3007,96.791,-0.00281702,0.0614378,20.9812,60.0728,0.138451,0.0,0.0
287,71.5,37.9707,40.1839,153.328,98.2255,96.6156,-0.00295856,0.0641598,20.9759,60.0427,0.147831,0.0,0.0
328,81.75,38.3111,40.3715,153.372,98.0257,95.5408,-0.00284113,0.0644984,20.9738,60.0327,0.229676,0.0,0.0
369,92,38.4089,40.977,157.712,97.7241,96.0191,-0.00272151,0.0659887,20.9689,60.0127,0.15745,0.0,0.0
410,102.25,38.5221,40.9947,150.891,97.408,94.5202,-0.00268957,0.0668307,20.9696,59.9727,0.269204,0.0,0.0
451,112.5,38.483,41.2474,150.235,97.161,93.7823,-0.0026899,0.0684475,20.965,59.9226,0.316605,0.0,0.0
492,122.75,39.0361,41.1698,149.152,97.0502,93.9303,-0.00278142,0.0697426,20.9656,59.9326,0.292296,0.0,0.0
533,133,39.708,42.3461,153.107,97.1515,93.9905,-0.00245965,0.0690645,20.9676,59.8626,0.295891,0.0,0.0
574,143.25,39.7284,42.4214,154.185,97.5215,92.8787,-0.0022764,0.069769,20.9647,59.7825,0.43634,0.0,0.0
615,153.5,40.6761,44.0374,147.959,98.1333,77.6215,0.00201442,0.187269,20.758,59.4222,2.09752,0.0,1.0
656,163.75,46.8963,53.1271,127.165,98.5994,48.4538,0.0193791,0.51276,20.2839,58.2011,6.35526,0.0,0.0
697,174,57.8642,68.0406,124.124,98.8717,48.3568,0.0337593,0.869205,19.8167,56.1894,6.39784,0.0,0.0
738,184.25,65.5182,78.1365,122.434,98.9006,47.1496,0.0327033,0.876096,19.8514,54.0975,6.62661,0.0,0.0
779,194.5,71.3319,85.5363,120.053,98.6881,45.3563,0.0345949,0.913791,19.8032,52.0457,6.95424,0.0,0.0
820,204.75,75.5955,90.619,128.175,98.4356,44.071,0.0344773,0.858745,19.8817,50.094,7.18847,0.0,0.0
861,215,77.8123,92.2515,123.247,98.1843,45.5989,0.03198,0.806302,19.9599,48.2524,6.86074,0.0,0.0
902,225.25,78.2521,92.8619,132.116,98.3189,48.4245,0.0291524,0.775168,19.9933,46.4908,6.33519,0.0,0.0
943,235.5,80.4541,94.8181,127.513,98.535,49.8716,0.0281857,0.812616,19.9512,44.6392,6.09141,0.0,0.0
984,245.75,79.9301,93.2346,135.549,98.626,57.5342,0.0184296,0.655494,20.1848,43.218,4.82114,0.0,0.0
1025,256,78.5207,90.5111,133.908,98.5619,63.7976,0.0128025,0.550212,20.3231,42.0669,3.89095,0.0,0.0
1066,266.25,75.8961,86.7136,137.139,98.2663,67.0619,0.01144,0.508153,20.3725,41.016,3.41769,0.0,0.0
1107,276.5,74.7025,84.5431,137.35,97.7408,69.6016,0.00949914,0.472441,20.4167,40.0652,3.03722,0.0,0.0
1148,286.75,73.5637,82.358,137.341,97.8705,69.4053,0.00849605,0.458004,20.4385,39.1244,3.07435,0.0,0.0
1189,297,72.4151,80.8346,136.619,98.032,73.581,0.00741537,0.445916,20.456,38.2636,2.56648,0.0,0.0
1230,307.25,71.0909,79.0303,137.918,98.2243,75.6644,0.0067923,0.426073,20.4797,37.4929,2.33425,0.0,0.0
1271,317.5,70.2367,77.6085,137.448,98.3058,77.2205,0.00614098,0.40512,20.5152,36.7122,2.15957,0.0,0.0
1312,327.75,68.6523,75.7268,137.307,98.2758,73.287,0.0054253,0.393635,20.5259,36.0016,2.6245,0.0,0.0
1353,338,68.8781,75.5185,138.08,98.1828,73.0282,0.00586106,0.412623,20.4985,35.2009,2.64768,0.0,0.0
1394,348.25,68.5759,75.2223,139.724,97.9853,72.7512,0.00563117,0.416975,20.4962,34.4102,2.66367,0.0,0.0
1435,358.5,67.8909,74.5478,135.857,97.7514,73.6973,0.00557347,0.411584,20.5068,33.6195,2.52671,0.0,0.0
1476,368.75,67.5819,73.8931,138.003,97.4847,77.8444,0.00478613,0.380577,20.553,32.9389,2.01255,0.0,0.0
1517,379,66.7566,72.8322,143.695,97.2295,80.4474,0.00428115,0.34407,20.6026,32.2984,1.69487,0.0,0.0
1558,389.25,65.8629,71.4289,137.854,97.0728,79.9116,0.00329513,0.318869,20.6358,32.1482,1.74023,0.0,0.0
1599,399.5,65.025,70.1488,136.291,97.0447,81.3468,0.00294195,0.30231,20.6552,31.2675,1.57841,0.0,0.0
1640,409.75,64.5005,69.0748,141.971,97.1496,82.9017,0.00291852,0.290832,20.6712,30.767,1.41869,0.0,0.0
1681,420,63.1134,67.6799,147.625,97.3502,85.5016,0.00266046,0.281934,20.6806,30.3767,1.16092,0.0,0.0
1722,430.25,62.7638,67.0405,142.337,97.5817,86.7139,0.00206094,0.273235,20.6952,30.1064,1.05623,0.0,0.0
1763,440.5,62.1428,66.4306,144.629,97.8606,87.653,0.00239793,0.266187,20.7037,29.4959,0.985405,0.0,0.0
1804,450.75,61.9771,65.926,143.349,98.2006,88.8641,0.00269811,0.257305,20.7154,29.0255,0.89367,0.0,0.0
1845,461,61.3892,65.4591,145.409,98.4637,88.8946,0.00249142,0.253842,20.7203,28.6251,0.914539,0.0,0.0
1886,471.25,60.5927,64.6739,138.272,98.7201,89.0256,0.00228803,0.248757,20.7265,28.2548,0.924636,0.0,0.0
1927,481.5,60.7003,64.4686,143.142,98.8397,89.5031,0.00262951,0.248084,20.7248,27.8545,0.887607,0.0,0.0
1968,491.75,59.6959,63.6427,143.614,98.9394,90.5338,0.0029219,0.250188,20.7228,27.4941,0.794204,0.0,0.0
2009,502,60.1275,64.0785,142.067,98.9315,89.8867,0.00268537,0.249732,20.7251,27.1138,0.857654,0.0,0.0
2050,512.25,59.9624,63.8359,145.638,98.8222,89.8736,0.00248042,0.248488,20.7299,26.7035,0.849081,0.0,0.0
2091,522.5,59.7356,63.5932,143.999,98.6525,89.7724,0.00267761,0.244063,20.7352,26.3732,0.84378,0.0,0.0
2132,532.75,59.7188,63.6117,143.649,98.4396,90.0938,0.0024923,0.236569,20.7447,25.9928,0.792486,0.0,0.0
2173,543,59.0535,62.846,141.734,98.2485,90.2116,0.0034259,0.229403,20.7534,25.6625,0.763408,0.0,0.0
2214,553.25,58.5293,62.2264,144.431,98.1907,91.1708,0.00347803,0.225511,20.7577,25.3322,0.663532,0.0,0.0
2255,563.5,58.374,62.0587,140.486,98.5104,91.8511,0.00357669,0.221249,20.7623,25.012,0.626113,0.0,0.0
2296,573.75,57.6066,61.3879,142.284,98.6556,91.6278,0.00360572,0.214008,20.7731,24.7317,0.661063,0.0,0.0
2337,584,57.9052,60.9851,145.778,98.5876,94.4885,0.00374199,0.208223,20.7815,24.4415,0.379882,0.0,0.0
2378,594.25,57.589,60.7516,143.708,98.3367,93.3153,0.00330539,0.204719,20.7863,24.1712,0.468857,0.0,0.0
2419,604.5,56.8381,60.3207,149.073,97.8694,93.039,0.00371115,0.202001,20.7898,23.871,0.452761,0.0,0.0
2460,614.75,56.8107,59.989,149.186,97.814,93.5277,0.00394903,0.199272,20.7936,23.6408,0.400834,0.0,0.0
2501,625,56.1326,59.4677,146.27,97.9552,94.2177,0.00416724,0.194319,20.7999,23.4106,0.347996,0.0,0.0
2542,635.25,55.8212,58.9449,145.377,98.0747,93.3199,0.00457545,0.187751,20.8077,23.1503,0.444551,0.0,0.0
2583,645.5,55.5374,58.8072,143.405,98.2338,93.651,0.00548465,0.185067,20.8095,22.8401,0.427369,0.0,0.0
2624,655.75,55.2564,58.2972,148.378,98.2971,95.299,0.00586336,0.180852,20.8098,22.6799,0.277086,0.0,0.0
2665,666,54.742,57.6731,145.898,98.2152,94.4031,0.00619962,0.176078,20.8165,22.4597,0.354118,0.0,0.0
2706,676.25,54.4295,57.2845,146.215,98.0015,94.5171,0.00675892,0.173492,20.8152,22.2195,0.323842,0.0,0.0
2747,686.5,54.3937,57.0544,143.671,97.6758,94.9563,0.00670455,0.172393,20.8164,22.0293,0.252592,0.0,0.0
2788,696.75,53.8727,56.5548,148.113,97.3359,94.8555,0.00763642,0.170624,20.821,21.8092,0.23091,0.0,0.0
2829,707,53.4006,56.4618,144.389,97.1005,93.8716,0.00747639,0.167863,20.8278,21.589,0.302521,0.0,0.0
2870,717.25,53.1282,55.8392,147.061,97.0134,94.7412,0.00760507,0.166178,20.8279,21.3988,0.212012,0.0,0.0
2911,727.5,53.3085,55.872,144.719,97.017,95.2917,0.00811609,0.166766,20.8223,21.1986,0.160513,0.0,0.0
2952,737.75,53.1734,56.1333,149.089,97.0427,94.4854,0.00827783,0.163719,20.8265,21.0185,0.238891,0.0,0.0
2993,748,52.9696,55.9917,145.681,97.0324,95.2082,0.00840751,0.16195,20.83,20.7983,0.169772,0.0,0.0
3034,758.25,52.7005,55.3813,147.084,97.0391,94.6067,0.00876797,0.160171,20.8322,20.6481,0.227086,0.0,0.0
3075,768.5,52.6519,55.4271,146.32,97.0142,94.9204,0.00919663,0.156712,20.8365,20.508,0.195177,0.0,0.0
3116,778.75,52.7815,55.4003,145.228,96.998,93.7703,0.00940688,0.154155,20.8427,20.3078,0.302724,0.0,0.0
3157,789,51.9963,55.1615,148.895,97.0308,95.0027,0.0095053,0.151111,20.8473,20.1377,0.188957,0.0,0.0
3198,799.25,52.1384,55.019,146.248,97.1638,94.5851,0.0097898,0.146668,20.8573,19.9876,0.240614,0.0,0.0
3239,809.5,51.5319,54.5226,145.51,97.4574,95.3129,0.0103949,0.143985,20.8597,19.8474,0.199036,0.0,0.0
3280,819.75,51.6485,54.3927,147.125,97.9018,96.3011,0.01059,0.143244,20.8648,19.6873,0.147465,0.0,0.0
3321,830,51.426,54.1616,145.202,98.2417,96.4174,0.0105562,0.140161,20.87,19.5272,0.167676,0.0,0.0
3362,840.25,51.0741,54.1157,146.661,98.2334,96.3088,0.0111064,0.138606,20.8662,19.367,0.176996,0.0,0.0
3403,850.5,50.9095,53.5798,149.465,97.9196,95.9612,0.0111049,0.136376,20.8703,19.2069,0.180726,0.0,0.0
3444,860.75,51.0222,53.508,145.222,98.1464,97.5659,0.0112718,0.135408,20.8728,19.0667,0.0530604,0.0,0.0
3485,871,49.6406,52.4813,145.754,98.6545,97.236,0.0113282,0.134492,20.8728,18.9466,0.129551,0.0,0.0
3526,881.25,50.276,52.6516,144.361,98.176,96.8875,0.0113489,0.132877,20.8769,18.7565,0.118179,0.0,0.0
3567,891.5,49.4017,53.1405,144.953,98.7858,98.3892,0.0113915,0.131993,20.8785,18.5763,0.0359931,0.0,0.0
3608,901.75,49.9279,53.0004,145.875,98.8218,96.7612,0.0118601,0.13167,20.8772,18.4362,0.1885,0.0,0.0
3649,912,49.1651,52.1313,143.762,97.9105,96.57,0.0115163,0.130858,20.8787,18.3161,0.12332,0.0,0.0
3690,922.25,49.5833,52.0027,149.801,97.0953,95.3175,0.0115688,0.131579,20.8767,18.206,0.165305,0.0,0.0
3731,932.5,49.2363,51.9367,148.662,97.3727,95.4574,0.0114913,0.13018,20.8809,18.0559,0.177711,0.0,0.0
3772,942.75,49.5478,51.6439,144.12,98.1899,96.5491,0.0120297,0.130923,20.8804,17.9157,0.150741,0.0,0.0
3813,953,48.5593,51.6129,146.889,98.1353,97.0247,0.0116682,0.130658,20.8804,17.7956,0.101811,0.0,0.0
3854,963.25,49.5145,51.6136,147.808,97.9699,95.9924,0.0115662,0.129403,20.8843,17.6455,0.1824,0.0,0.0
3895,973.5,49.442,52.0255,149.874,98.5472,96.181,0.0115428,0.129648,20.8849,17.4653,0.217411,0.0,0.0
3936,983.75,48.726,52.211,146.766,98.5179,96.1937,,,,17.3853,0.213567,0.0,0.0
3955,988.5,49.1678,52.3436,147.305,98.844,96.7693,,,,17.3252,0.189756,0.0,0.0