File: 01_Data/PC/Cone/PC_Cone_HF50Scan_220216_R1.csv
Names,Time,Stack TC,Smoke TC,Exh Press,Smoke Comp,Smoke Meas,CO Meter,CO2 Meter,O2 Meter,Sample Mass,Ext Coeff,Start Test,Flame Verif
Chan Gain,,500,500,1,1,1,1,1,1,1,1,1.0,1.0
Offset,,0,0,0.140898,0,0,0,0,0,0,0,0.0,0.0
Gain,,1,1,25.011,12.9668,12.6588,1,1,1,1.00088,1.01977,1.0,1.0
Units,sec,C,C,Pa,%,%,%,%,%,g,/m,,
Baseline,,32.8547,35.3797,154.212,98.2182,98.3328,-0.00282968,0.0649554,20.9714,-873.209,-0.0103595,,
31,7.5,32.1867,34.0124,155.321,97.8733,98.1836,-0.00267428,0.0763172,20.9599,60.7934,-0.0283174,0.0,0.0
62,15.25,31.7964,33.9268,151.299,97.5773,98.354,-0.00280022,0.0754677,20.9614,60.8134,-0.0709198,0.0,0.0
93,23,32.4061,34.4021,157.387,97.2279,97.6331,-0.00305634,0.0713315,20.9673,60.8134,-0.037205,0.0,0.0
124,30.75,32.5272,34.8478,152.467,96.9675,97.4044,-0.00295133,0.0683518,20.9688,60.8034,-0.0402145,0.0,0.0
155,38.5,32.6156,34.6576,157.609,96.8642,98.174,-0.00320019,0.0675746,20.9693,60.7734,-0.120142,0.0,0.0
186,46.25,32.9242,35.1647,154.44,96.9869,96.9895,-0.00311098,0.0661475,20.9706,60.7734,-0.000240469,0.0,0.0
217,54,33.2735,35.5747,149.311,97.2354,97.2986,-0.00273149,0.0666573,20.9699,60.7333,-0.00580826,0.0,0.0
248,61.75,33.2633,36.1685,150.585,97.6303,96.5155,-0.00262558,0.067199,20.9701,60.7634,0.102733,0.0,0.0
279,69.5,33.6502,36.0701,153.595,98.0878,98.3158,-0.00322939,0.0666647,20.9706,60.7534,-0.0207649,0.0,0.0
310,77.25,33.2678,35.916,151.39,98.4558,99.1239,-0.00296839,0.0663652,20.971,60.7133,-0.0604981,0.0,0.0
341,85,33.5038,36.1469,152.683,98.7324,98.8883,-0.00276461,0.0659395,20.972,60.6833,-0.0141101,0.0,0.0
372,92.75,33.838,36.8463,152.911,98.8408,98.3327,-0.0030794,0.0658859,20.9703,60.6533,0.0461016,0.0,0.0
403,100.5,34.2813,36.7521,153.237,98.7676,97.9766,-0.00309157,0.0663553,20.9697,60.6533,0.0719351,0.0,0.0
434,108.25,34.4047,37.0785,151.682,98.5868,97.0602,-0.0027914,0.0662963,20.9697,60.6232,0.139597,0.0,0.0
465,116,34.6299,37.557,149.329,98.3478,96.1164,-0.00287527,0.0667101,20.9697,60.5932,0.205291,0.0,0.0
496,123.75,35.1445,37.839,155.512,98.1246,95.2824,-0.00260145,0.0668611,20.9703,60.5632,0.262931,0.0,0.0
527,131.5,35.9397,38.7336,139.241,98.3288,73,0.000918701,0.124424,20.829,60.303,2.66443,0.0,1.0
558,139.25,38.2325,41.6829,142.059,98.5686,63.7323,0.00595059,0.249293,20.6693,59.8526,3.90072,0.0,0.0
589,147,43.4451,49.1063,139.099,98.5674,53.7155,0.0181828,0.476489,20.3344,58.8317,5.43018,0.0,0.0
620,154.75,50.4222,59.0925,131.573,98.3288,51.0881,0.0265459,0.701249,20.0168,57.4304,5.85709,0.0,0.0
651,162.5,56.5937,67.1351,127.995,97.8409,50.9405,0.029648,0.780826,19.9643,56.0692,5.83847,0.0,0.0
682,170.25,62.5027,74.6961,132.363,97.8053,48.1741,0.0324451,0.853401,19.8643,54.5279,6.3347,0.0,0.0
713,178,67.7054,81.5404,126.766,97.9046,47.3532,0.0338754,0.90815,19.8087,52.9665,6.49753,0.0,0.0
744,185.75,71.619,86.1391,127.682,97.9932,42.4817,0.0338956,0.891195,19.848,51.4252,7.47673,0.0,0.0
775,193.5,74.0079,88.4038,130.962,98.0862,47.7183,0.031842,0.846266,19.922,49.9339,6.44541,0.0,0.0
806,201.25,75.2107,90.4922,130.876,98.163,46.5485,0.0306296,0.836351,19.9189,48.5126,6.67442,0.0,0.0
837,209,76.0317,90.8671,133.059,98.1547,52.305,0.0272786,0.783389,20.0185,47.2015,5.63066,0.0,0.0
868,216.75,76.5019,90.5576,131.258,98.0823,49.68,0.0244802,0.733076,20.0724,45.9704,6.08466,0.0,0.0
899,224.5,76.7576,90.923,129.973,97.9623,48.7022,0.0230685,0.718407,20.0864,44.7393,6.25153,0.0,0.0
930,232.25,77.3279,90.6448,135.458,97.7574,58.0978,0.0200649,0.701648,20.1213,43.6083,4.6548,0.0,0.0
961,240,76.6825,89.7195,132.717,97.531,58.663,0.0179278,0.650803,20.1859,42.5574,4.54746,0.0,0.0
992,247.75,76.4472,89.5688,127.877,97.2975,56.4965,0.0179968,0.654541,20.1687,41.4964,4.86263,0.0,0.0
1023,255.5,77.097,89.1427,133.804,97.0882,57.353,0.0173977,0.662892,20.1583,40.4255,4.70878,0.0,0.0
1054,263.25,76.7947,88.9292,131.052,96.9129,62.3597,0.0150606,0.623781,20.2248,39.4246,3.94395,0.0,0.0
1085,271,76.4804,88.2334,130.636,96.835,62.2125,0.012827,0.58919,20.2746,38.5438,3.95788,0.0,0.0
1116,278.75,75.4136,87.1451,136.744,96.8623,63.9235,0.0124771,0.563462,20.3114,37.7031,3.71771,0.0,0.0
1147,286.5,74.8321,85.3367,132.45,96.939,65.9084,0.0106465,0.532416,20.3554,36.8724,3.45126,0.0,0.0
1178,294.25,74.114,83.6953,132.602,97.0874,66.8147,0.00912346,0.502072,20.397,36.0817,3.34277,0.0,0.0
1209,302,73.3933,83.3637,132.96,97.2615,68.7892,0.00882767,0.488225,20.409,35.3711,3.09828,0.0,0.0
1240,309.75,73.3581,82.1073,134.624,97.5322,70.1123,0.00851456,0.480119,20.4199,34.6504,2.95272,0.0,0.0
1271,317.5,72.022,81.3777,133.35,97.7791,73.6537,0.00702173,0.46069,20.4513,33.9698,2.53455,0.0,0.0
1302,325.25,70.7253,79.523,139.084,97.9912,77.0865,0.00583355,0.436512,20.4847,33.4193,2.14644,0.0,0.0
1333,333,70.5612,78.3803,139.756,98.2097,78.6638,0.00438171,0.412707,20.5154,32.8989,1.98516,0.0,0.0
1364,340.75,69.544,76.9408,138.07,98.33,81.645,0.00389792,0.392089,20.5431,32.3284,1.66337,0.0,0.0
1395,348.5,68.6854,75.4518,138.682,98.4036,84.0637,0.00272389,0.370632,20.5742,31.858,1.40891,0.0,0.0
1426,356.25,67.5802,74.2591,135.758,98.4218,85.8984,0.00269952,0.34647,20.6057,31.4576,1.21744,0.0,0.0
1457,364,65.8943,72.439,141.178,98.4012,87.585,0.00215866,0.325464,20.637,31.0373,1.04162,0.0,0.0
1488,371.75,65.2129,71.3685,141.846,98.3842,87.7635,0.00213263,0.306518,20.6601,30.6769,1.02187,0.0,0.0
1519,379.5,65.2788,69.6891,141.119,98.3224,87.9598,0.00219583,0.297042,20.6742,30.3567,0.996269,0.0,0.0
1550,387.25,63.8329,69.2067,141.19,98.165,89.2562,0.00176474,0.290682,20.6828,30.0164,0.851041,0.0,0.0
1581,395,62.5833,68.2263,143.851,97.9212,89.6603,0.00210193,0.285943,20.6891,29.6661,0.788395,0.0,0.0
1612,402.75,63.0181,67.6241,145.833,97.5928,89.9195,0.0023001,0.279503,20.6965,29.3258,0.732515,0.0,0.0
1643,410.5,61.9005,67.0639,138.937,97.1658,89.4849,0.00238929,0.270601,20.7095,29.0355,0.736634,0.0,0.0
1674,418.25,61.6548,65.9792,142.363,96.882,90.3553,0.00254188,0.263051,20.7188,28.7753,0.623889,0.0,0.0
1705,426,61.1185,65.0472,145.319,96.8912,91.6815,0.0024793,0.255744,20.7312,28.445,0.494384,0.0,0.0
1736,433.75,60.3753,63.654,145.882,97.2386,91.6247,0.00287335,0.245502,20.7463,28.2148,0.531946,0.0,0.0
1767,441.5,59.7268,63.8862,145.847,97.7467,93.8264,0.00294344,0.238086,20.7568,27.8845,0.366163,0.0,0.0
1798,449.25,59.5074,63.8448,138.958,98.146,92.0122,0.00305356,0.233205,20.7644,27.6543,0.577282,0.0,0.0
1829,457,58.6308,63.6656,138.985,98.1012,93.3431,0.00294203,0.231335,20.7651,27.3941,0.444748,0.0,0.0
1860,464.75,58.8482,62.7356,140.837,97.8492,92.3448,0.00286993,0.227548,20.7696,27.1839,0.517913,0.0,0.0
1891,472.5,57.6319,61.9524,143.126,98.2251,94.1586,0.00293834,0.223376,20.7729,26.9437,0.37822,0.0,0.0
1922,480.25,58.1926,61.8327,144.631,98.5737,94.3363,0.00308507,0.220325,20.7754,26.7135,0.393046,0.0,0.0
1953,488,57.7282,61.4762,145.618,98.1127,94.3421,0.0033112,0.219769,20.7769,26.5033,0.350564,0.0,0.0
1984,495.75,57.7077,61.0693,144.12,98.662,94.9077,0.00344725,0.218682,20.7791,26.243,0.347035,0.0,0.0
2015,503.5,57.1343,60.9434,143.394,98.8108,94.2428,0.00340765,0.218487,20.7777,26.0128,0.423401,0.0,0.0
2046,511.25,57.1019,60.87,143.939,98.1048,93.6498,0.00322511,0.220077,20.7776,25.7526,0.415724,0.0,0.0
2077,519,56.9107,60.5718,148.693,97.1262,93.2357,0.0029597,0.219356,20.7802,25.5524,0.365692,0.0,0.0
2108,526.75,56.528,60.4484,146.95,96.9319,94.0187,0.0033201,0.215296,20.7841,25.2922,0.272963,0.0,0.0
2139,534.5,56.1146,60.4708,142.805,97.6228,92.7748,0.00327191,0.211741,20.7892,25.082,0.455642,0.0,0.0
2170,542.25,56.271,59.7463,144.147,98.1598,95.671,0.0032318,0.211383,20.7876,24.8718,0.229728,0.0,0.0
2201,550,56.0839,59.7668,145.114,97.9738,94.6438,0.0032154,0.211396,20.7861,24.6717,0.309329,0.0,0.0
2232,557.75,55.3828,59.8022,141.62,97.8662,94.8462,0.00364736,0.209166,20.7898,24.4415,0.280383,0.0,0.0
2263,565.5,55.6505,59.1989,141.952,98.5745,95.2731,0.00389582,0.209243,20.7904,24.2113,0.304724,0.0,0.0
2294,573.25,54.7697,59.1687,140.03,98.1349,94.21,0.00376002,0.210366,20.7895,29.636,0.36512,0.0,0.0
2325,581,55.6706,59.2895,144.271,98.7273,94.4379,0.00345622,0.210273,20.7888,23.8009,0.39734,0.0,0.0
2356,588.75,55.909,59.0951,142.49,98.5935,93.578,0.00374644,0.207543,20.7939,23.5907,0.467041,0.0,0.0
2387,596.5,55.3764,59.4723,146.549,97.5243,94.3552,0.00344598,0.202016,20.8034,23.3705,0.295507,0.0,0.0
2418,604.25,55.3222,59.305,140.458,96.8931,93.5042,0.00377185,0.199677,20.805,23.1904,0.318477,0.0,0.0
2449,612,54.5688,58.4624,144.842,97.5271,93.5969,0.00378082,0.19727,20.8054,22.9602,0.367946,0.0,0.0
2480,619.75,54.4151,58.187,141.31,98.1638,94.2115,0.00427648,0.198099,20.8043,22.78,0.367606,0.0,0.0
2511,627.5,54.9156,57.8217,147.72,97.8606,95.1503,0.00457249,0.194585,20.8106,22.5998,0.251249,0.0,0.0
2542,635.25,54.7523,57.8984,146.3,98.2722,94.3398,0.0045629,0.19139,20.8141,22.4097,0.365312,0.0,0.0
2573,643,54.031,57.3156,143.814,98.2097,94.5399,0.00484707,0.187598,20.8202,22.1995,0.340664,0.0,0.0
2604,650.75,54.3333,57.2828,142.753,98.5136,94.9652,0.00460962,0.185407,20.8228,22.0494,0.328148,0.0,0.0
2635,658.5,54.3664,57.4792,142.962,98.8313,94.818,0.00514773,0.183047,20.8254,21.8792,0.37083,0.0,0.0
2666,666.25,53.5284,57.3137,146.796,98.4835,95.1082,0.00540563,0.180617,20.8305,21.7191,0.311963,0.0,0.0
2697,674,53.5425,56.6963,147.891,97.7099,95.1545,0.00583119,0.177511,20.8333,21.5389,0.237057,0.0,0.0
2728,681.75,53.1432,56.6907,150.247,97.1092,93.8125,0.00587711,0.174246,20.8359,21.3788,0.308958,0.0,0.0
2759,689.5,53.4352,56.0224,148.053,96.9402,94.4931,0.00611568,0.170366,20.8406,21.1886,0.228708,0.0,0.0
2790,697.25,53.0848,55.7004,142.517,97.1571,93.3836,0.00714945,0.167187,20.843,21.0785,0.354349,0.0,0.0
2821,705,51.6808,55.6245,142.836,97.569,94.2826,0.00737351,0.164077,20.8462,20.9184,0.306497,0.0,0.0
2852,712.75,51.9929,55.0591,148.013,97.9113,94.4074,0.00761886,0.160442,20.8514,20.7482,0.325992,0.0,0.0
2883,720.5,52.19,54.7848,144.533,98.1238,95.4528,0.0079657,0.158878,20.8529,20.6481,0.246878,0.0,0.0
2914,728.25,51.2405,54.3953,147.634,98.2263,93.9983,0.00800226,0.157417,20.856,20.488,0.393573,0.0,0.0
2945,736,52.0463,54.3068,145.686,98.2223,96.3815,,,,20.3579,0.169243,0.0,0.0
2958,739.25,50.9093,53.8701,143.226,98.2152,96.0825,,,,20.2778,0.196389,0.0,0.0