File: 01_Data/PC/Cone/PC_Cone_HF25Scalar_220216_R1.csv
LABORATORY,FSRI
TEST IDENT,PC_HF25_1
OPERATOR,Dow
MATERIAL,Polycarbonate
ORIENTATION,Horizontal
HEAT FLUX,25
SURF AREA,0.01
C FACTOR,0.0393671
SPEC HOLDER DIFF,301.2
SPECIMEN MASS,64.3
SCAN TIME,0.25
O2 DELAY TIME,11
CO DELAY TIME,11
CO2 DELAY TIME,8
FLOW FACTOR,1
SCAN COUNT,5406
TIME TO IGN,0
END OF TEST SCAN,4926
END OF TEST TIME,1231.5
TEST STATUS,1
PRE TEST CMT,Dimensions: 98.70 x 98.35 x 5.40 mm; 60 mm spacing
POST TEST CMT,no ignition