File: 01_Data/PC/Cone/PC_Cone_HF25Scan_220216_R1.csv
Names,Time,Stack TC,Smoke TC,Exh Press,Smoke Comp,Smoke Meas,CO Meter,CO2 Meter,O2 Meter,Sample Mass,Ext Coeff,Start Test,Flame Verif
Chan Gain,,500,500,1,1,1,1,1,1,1,1,1.0,1.0
Offset,,0,0,0.140898,0,0,0,0,0,0,0,0.0,0.0
Gain,,1,1,25.011,12.9668,12.6588,1,1,1,1.00088,1.01977,1.0,1.0
Units,sec,C,C,Pa,%,%,%,%,%,g,/m,,
Baseline,,21.5881,22.7172,157.469,97.8289,99.0087,-0.0024965,0.0638354,20.9823,-873.374,-0.10721,,
58,14.25,20.4345,21.3562,161.67,98.7463,99.6343,-0.0026246,0.0698373,20.9732,59.172,-0.0800828,0.0,0.0
116,28.75,20.2145,21.288,152.754,98.2667,99.5311,-0.00253785,0.0678449,20.9712,59.152,-0.11437,0.0,0.0
174,43.25,20.4216,21.9752,156.771,98.7011,100.107,-0.00274405,0.0677807,20.9742,59.1119,-0.126523,0.0,0.0
232,57.75,20.9337,21.949,162.507,97.9829,99.71,-0.00274914,0.0672653,20.9733,59.1419,-0.156297,0.0,0.0
290,72.25,20.9904,22.1888,158.283,98.2556,100.538,-0.00304141,0.0674724,20.9736,59.1119,-0.205439,0.0,0.0
348,86.75,20.9576,22.5361,153.077,98.1626,99.7382,-0.00265009,0.0669331,20.9728,59.1019,-0.14244,0.0,0.0
406,101.25,20.5633,22.104,155.158,97.4147,99.5535,-0.00303174,0.0663827,20.975,59.1119,-0.194278,0.0,0.0
464,115.75,21.7009,22.8622,153.427,96.9568,99.2271,-0.00260426,0.0659367,20.978,59.0719,-0.20704,0.0,0.0
522,130.25,21.3387,22.9409,159.389,97.5666,100.14,-0.00267142,0.068406,20.9663,59.0719,-0.232909,0.0,0.0
580,144.75,21.6594,22.9873,156.168,98.5619,100.216,-0.00308342,0.0685,20.966,59.0619,-0.14892,0.0,0.0
638,159.25,22.2801,22.9734,152.479,98.9671,100.771,-0.00275633,0.0682713,20.9705,59.0619,-0.1616,0.0,0.0
696,173.75,21.9844,23.2105,159.41,98.7898,100.573,-0.00294195,0.0677571,20.9722,59.0619,-0.160029,0.0,0.0
754,188.25,22.1109,23.1295,157.182,98.328,100.756,-0.00281878,0.0668501,20.9727,59.0218,-0.218215,0.0,0.0
812,202.75,21.7428,23.4924,157.259,98.6264,100.6,-0.00311049,0.0668274,20.9753,59.0419,-0.17721,0.0,0.0
870,217.25,22.2578,23.4427,154.849,98.6936,100.933,-0.00286569,0.0660657,20.9776,58.9918,-0.20074,0.0,0.0
928,231.75,22.0717,23.5622,160.523,97.994,100.422,-0.00310122,0.0663871,20.9739,58.9618,-0.218967,0.0,0.0
986,246.25,21.8367,23.5176,154.991,98.1369,100.676,-0.00343161,0.0686952,20.9669,58.9718,-0.228516,0.0,0.0
1044,260.75,22.2662,24.0044,156.351,98.231,100.24,-0.00288331,0.0709821,20.9627,58.9718,-0.181133,0.0,0.0
1102,275.25,22.4223,23.8504,160.684,98.2453,100.534,-0.00278116,0.0711986,20.9628,58.9618,-0.205998,0.0,0.0
1160,289.75,22.5837,24.1642,155.12,98.2409,100.247,-0.00325713,0.0681445,20.9756,58.9518,-0.180818,0.0,0.0
1218,304.25,22.9608,23.977,155.797,98.2591,100.478,-0.00304427,0.0653528,20.9799,58.9618,-0.199718,0.0,0.0
1276,318.75,23.0467,24.5343,157.876,98.2033,100.192,-0.00269314,0.0650972,20.9772,58.9418,-0.179346,0.0,0.0
1334,333.25,23.4027,24.4457,158.23,98.0193,99.7324,-0.00311723,0.064608,20.9787,58.9217,-0.154983,0.0,0.0
1392,347.75,22.9821,24.3349,157.207,98.4226,100.221,-0.00306605,0.0640061,20.9816,58.9518,-0.161985,0.0,0.0
1450,362.25,23.2795,24.504,154.805,98.7399,100.321,-0.00302032,0.0629378,20.9867,58.9518,-0.142079,0.0,0.0
1508,376.75,23.3912,24.667,155.12,98.2963,99.9221,-0.0030753,0.0619255,20.9885,58.9418,-0.146737,0.0,0.0
1566,391.25,23.4797,25.2944,158.384,98.8954,100.588,-0.00310359,0.0613345,20.99,58.9117,-0.151772,0.0,0.0
1624,405.75,23.4204,24.9288,156.532,98.6268,100.433,-0.00275125,0.0605381,20.9909,58.8917,-0.162356,0.0,0.0
1682,420.25,23.5322,25.1854,158.057,97.2861,98.7276,-0.00313112,0.0604549,20.9927,58.8817,-0.131572,0.0,0.0
1740,434.75,24.0386,25.442,154.353,97.148,98.3625,-0.00298642,0.0598799,20.99,58.8817,-0.111139,0.0,0.0
1798,449.25,24.0536,25.3437,152.898,98.2057,99.7683,-0.00306002,0.059795,20.9891,58.8817,-0.141212,0.0,0.0
1856,463.75,23.5829,25.1379,159.108,98.0549,99.7405,-0.00300664,0.0598817,20.9938,58.8617,-0.152461,0.0,0.0
1914,478.25,23.8104,25.7123,158.023,98.7336,99.8861,-0.00311371,0.0600296,20.9933,58.8617,-0.103816,0.0,0.0
1972,492.75,24.5576,25.8638,153.832,98.5935,99.3047,-0.00308644,0.059786,20.9927,58.8417,-0.0642963,0.0,0.0
2030,507.25,24.2365,25.8978,154.935,98.6509,99.5253,-0.00304796,0.0596649,20.9954,58.8517,-0.0789402,0.0,0.0
2088,521.75,24.6751,25.6824,156.217,97.002,97.8271,-0.00314145,0.0601855,20.991,58.8517,-0.0757687,0.0,0.0
2146,536.25,24.38,25.6003,155.524,97.9457,98.6441,-0.00321443,0.0605358,20.9896,58.8517,-0.0635568,0.0,0.0
2204,550.75,24.4089,26.0397,153.489,98.0154,98.4224,-0.00308596,0.059975,20.9928,58.8317,-0.0370684,0.0,0.0
2262,565.25,24.5862,25.8607,153.082,98.5171,98.167,-0.00288556,0.0600769,20.9918,58.8217,0.0318479,0.0,0.0
2320,579.75,24.7997,26.4028,155.784,98.9584,99.3457,-0.00292167,0.0599696,20.9911,58.7916,-0.0349421,0.0,0.0
2378,594.25,24.6348,26.4026,157.115,97.3818,97.4083,-0.00283568,0.0596522,20.9921,58.8317,-0.00243005,0.0,0.0
2436,608.75,24.6819,26.5114,149.323,97.5508,96.5584,-0.00352503,0.0594736,20.9925,58.7916,0.0914697,0.0,0.0
2494,623.25,24.515,26.1729,156.873,98.2829,97.9306,-0.00295518,0.0590352,20.9933,58.8117,0.032121,0.0,0.0
2552,637.75,24.9596,26.4916,154.842,97.8389,97.4106,-0.00296505,0.0625807,20.991,58.7816,0.0392425,0.0,0.0
2610,652.25,24.7266,26.2046,154.248,98.6766,98.4367,-0.00316866,0.0609318,20.9922,58.7816,0.0217785,0.0,0.0
2668,666.75,24.8344,26.7933,156.149,98.33,98.0109,-0.00282688,0.0607038,20.9899,58.7916,0.0290699,0.0,0.0
2726,681.25,24.8185,26.0986,154.211,98.2932,98.2678,-0.00301116,0.0610912,20.9897,58.7816,0.00230519,0.0,0.0
2784,695.75,24.846,26.6631,153.501,98.4669,98.381,-0.00297247,0.0610906,20.989,58.7716,0.0078024,0.0,0.0
2842,710.25,24.8893,26.115,153.669,98.5346,98.6847,-0.00306502,0.0618166,20.9874,58.7416,-0.0136193,0.0,0.0
2900,724.75,24.8253,26.3784,156.312,98.51,98.6086,-0.00323208,0.0618343,20.9874,58.7616,-0.00894596,0.0,0.0
2958,739.25,24.7738,26.1988,156.587,98.4182,98.7963,-0.00294246,0.0618408,20.9895,58.7316,-0.0343019,0.0,0.0
3016,753.75,25.1085,26.7095,151.977,98.2979,98.7496,-0.00304451,0.0626572,20.9862,58.7316,-0.0410093,0.0,0.0
3074,768.25,24.8946,26.0041,153.834,98.1895,97.6652,-0.00301428,0.0628414,20.9864,58.7416,0.0478933,0.0,0.0
3132,782.75,24.8411,26.741,154.405,98.2508,99.0644,-0.00298109,0.0632672,20.9859,58.7416,-0.0737713,0.0,0.0
3190,797.25,24.3785,25.4942,158.653,98.5484,98.9327,-0.00309602,0.0635556,20.9845,58.7116,-0.0348152,0.0,0.0
3248,811.75,24.5744,26.0268,155.714,98.664,99.2259,-0.00318368,0.0630286,20.9856,58.7316,-0.050805,0.0,0.0
3306,826.25,24.9695,26.3128,154.802,98.6675,99.3847,-0.00298307,0.0641347,20.9796,58.7316,-0.0647855,0.0,0.0
3364,840.75,24.7784,25.9001,158.085,98.4898,99.4612,-0.00278898,0.0638544,20.9825,58.7116,-0.0877899,0.0,0.0
3422,855.25,24.7922,26.1749,159.666,98.0601,98.7847,-0.00299361,0.0644585,20.9777,58.6915,-0.0658624,0.0,0.0
3480,869.75,24.7728,26.4768,156.046,97.8816,98.7249,-0.00304105,0.0655385,20.9759,58.6915,-0.0767329,0.0,0.0
3538,884.25,24.7118,26.4672,156.387,98.0304,99.3403,-0.0031104,0.065821,20.9763,58.6715,-0.118733,0.0,0.0
3596,898.75,24.2215,25.8653,156.262,98.1788,98.6936,-0.00297237,0.0662668,20.9788,58.7016,-0.0467794,0.0,0.0
3654,913.25,24.6052,26.1917,152.914,98.2896,99.4492,-0.00297505,0.0653119,20.9808,58.6815,-0.104917,0.0,0.0
3712,927.75,23.9406,25.6271,155.304,98.0894,99.0359,-0.00317628,0.0643642,20.9828,58.6915,-0.0859013,0.0,0.0
3770,942.25,24.4055,25.8625,149.627,97.5472,98.835,-0.00343243,0.0643485,20.9823,58.6715,-0.117314,0.0,0.0
3828,956.75,24.8245,26.7228,155.664,97.0344,97.9059,-0.00283313,0.0640132,20.984,58.6815,-0.0799795,0.0,0.0
3886,971.25,24.8112,26.3491,151.25,97.1555,98.0747,-0.00305474,0.0709944,20.9692,58.6715,-0.0842353,0.0,0.0
3944,985.75,24.8035,26.729,159.395,98.0684,99.0629,-0.00276363,0.0674928,20.9755,58.6515,-0.0902553,0.0,0.0
4002,1000.25,25.0019,26.25,154.114,98.8112,100.517,-0.003297,0.0662342,20.9771,58.6415,-0.15311,0.0,0.0
4060,1014.75,24.6678,26.5649,153.694,98.8974,100.314,-0.0031836,0.0660643,20.9746,58.6315,-0.127236,0.0,0.0
4118,1029.25,24.3784,26.1939,153.357,98.3699,99.8626,-0.00295993,0.0659878,20.9771,58.6315,-0.134714,0.0,0.0
4176,1043.75,24.8821,26.3791,157.239,98.491,100.045,-0.00338448,0.0650646,20.9803,58.6415,-0.139993,0.0,0.0
4234,1058.25,25.041,26.4655,155.581,98.6687,100.14,-0.00299534,0.0644171,20.9822,58.6115,-0.132364,0.0,0.0
4292,1072.75,24.6197,26.2689,153.956,97.8816,99.6026,-0.00306242,0.0661849,20.9798,58.6415,-0.15591,0.0,0.0
4350,1087.25,24.8176,26.5636,157.977,98.0629,99.4264,-0.00298971,0.0718926,20.9703,58.6315,-0.123527,0.0,0.0
4408,1101.75,25.3759,26.7291,153.113,98.2789,99.9607,-0.00310846,0.0693957,20.9729,58.6215,-0.151779,0.0,0.0
4466,1116.25,25.2031,26.374,156.022,97.8789,99.6574,-0.00275838,0.070527,20.97,58.6215,-0.161089,0.0,0.0
4524,1130.75,25.0931,26.5974,151.376,97.2295,99.0737,-0.00297975,0.0692651,20.9716,58.6115,-0.168084,0.0,0.0
4582,1145.25,24.7513,26.2998,157.711,96.9655,99.1011,-0.00286899,0.068819,20.9695,58.5714,-0.194876,0.0,0.0
4640,1159.75,24.7149,26.167,158.978,97.2604,99.1896,-0.00299593,0.0696046,20.9682,58.5714,-0.175702,0.0,0.0
4698,1174.25,24.7743,26.1729,155.368,97.9236,99.8691,-0.00301765,0.0717546,20.966,58.5915,-0.175985,0.0,0.0
4756,1188.75,25.1816,26.5787,155.629,98.6256,100.936,-0.00299505,0.0687229,20.9752,58.5714,-0.207118,0.0,0.0
4814,1203.25,25.1372,26.3458,154.03,98.9639,100.902,-0.00295714,0.067594,20.9711,58.5815,-0.173504,0.0,0.0
4872,1217.75,24.9718,26.6135,151.31,98.5745,100.237,-0.00315998,0.0677041,20.9736,58.5714,-0.149632,0.0,0.0
4930,1232.25,24.4356,25.9342,154.788,98.3213,100.785,-0.00307312,0.0702944,20.9681,58.5614,-0.221364,0.0,0.0
4988,1246.75,24.6674,25.9817,154.207,98.7336,100.776,-0.00303913,0.0697783,20.9704,58.5915,-0.183174,0.0,0.0
5046,1261.25,24.9695,26.0392,158.694,98.6584,100.543,-0.00302488,0.0661545,20.979,58.5915,-0.169287,0.0,0.0
5104,1275.75,24.9381,26.1089,153.027,98.6074,99.89,-0.00300004,0.0636253,20.9848,58.5614,-0.115605,0.0,0.0
5162,1290.25,24.7066,26.4385,149.611,98.6992,100.92,-0.0032707,0.0631111,20.9852,58.5614,-0.199075,0.0,0.0
5220,1304.75,24.6989,26.0101,156.652,98.7526,100.622,-0.00312745,0.0634163,20.9825,58.5714,-0.167794,0.0,0.0
5278,1319.25,24.8155,26.199,156.197,98.4657,100.473,-0.0030611,0.0631366,20.9816,58.5815,-0.180519,0.0,0.0
5336,1333.75,24.7833,26.1924,155.771,98.3616,100.514,-0.00294093,0.0625145,20.9852,58.5514,-0.193623,0.0,0.0
5394,1348.25,24.8357,25.5055,155.093,98.8741,101.18,,,,58.5815,-0.206252,0.0,0.0
5406,1351.25,24.8708,26.2301,158.815,98.9239,100.874,,,,58.5815,-0.174583,0.0,0.0