File: 01_Data/PC/Cone/PC_Cone_HF25Scalar_220216_R3.csv
LABORATORY,FSRI
TEST IDENT,PC_HF25_3
OPERATOR,Dow
MATERIAL,Polycarbonate
ORIENTATION,Horizontal
HEAT FLUX,25
SURF AREA,0.01
C FACTOR,0.0393671
SPEC HOLDER DIFF,301.25
SPECIMEN MASS,64.9
SCAN TIME,0.25
O2 DELAY TIME,11
CO DELAY TIME,11
CO2 DELAY TIME,8
FLOW FACTOR,1
SCAN COUNT,2995
TIME TO IGN,0
END OF TEST SCAN,2515
END OF TEST TIME,628.75
TEST STATUS,1
PRE TEST CMT,Dimensions: 98.45 x 98.66 x 5.48 mm; 60 mm spacing
POST TEST CMT,no ignition