File: 01_Data/PLA_3D_Printer_Filament/STA/N2/10K_min/PLA_STA_N2_10KData_220503_R1.csv
##Temp./Â°C,Time/min,Mass loss(subtr.2)/mg,DSC(subtr.2)/(mW/mg),Sensit./(uV/mW)
49.98,10.00917,0.00198,-0.006938796,1.06046
52.58,11.21986,0.00336291,0.09796736,1.05992
55.18,11.61646,0.001065665,0.15072,1.05937
57.78,11.94684,0.001519578,0.18736,1.0588
60.38,12.25099,0.002797794,0.21637,1.05822
62.98,12.54318,0.002529897,0.27558,1.05763
65.58,12.831,0.00406133,0.40364,1.05703
68.18,13.1139,0.00275862,0.32,1.05642
70.78,13.39356,0.0027445,0.27998,1.05579
73.38,13.6694,0.001440285,0.26754,1.05515
75.98,13.9423,0.001451558,0.26471,1.05449
78.58,14.21199,0.002735428,0.26125,1.05383
81.18,14.48042,0.002715498,0.24774,1.05315
83.78,14.7454,0.00292591,0.22187,1.05246
86.38,15.0083,0.00692001,0.17683,1.05176
88.98,15.26878,0.004280005,0.12506,1.05105
91.58,15.5283,0.002970295,0.10314,1.05032
94.18,15.78561,0.00258096,0.12689,1.04959
96.78,16.04332,0.00267556,0.17339,1.04884
99.38,16.29986,0.002983612,0.21955,1.04807
101.98,16.5569,0.000256607,0.25488,1.0473
104.58,16.8131,-2.54707e-05,0.27938,1.04651
107.18,17.0686,0.001874159,0.29859,1.04572
109.78,17.32432,0.00318,0.31343,1.04491
112.38,17.57859,0.003190108,0.32454,1.04409
114.98,17.83299,0.001869995,0.32208,1.04326
117.58,18.08696,0.00160836,0.32264,1.04241
120.18,18.3411,0.001870001,0.32812,1.04156
122.78,18.59412,0.00184422,0.33281,1.04069
125.38,18.8471,0.001869971,0.33647,1.03981
127.98,19.09879,0.000880528,0.34201,1.03892
130.58,19.35191,0.002194787,0.34819,1.03802
133.18,19.6039,0.00103641,0.35154,1.0371
135.78,19.85582,0.0009769873,0.35083,1.03618
138.38,20.10745,0.0007365097,0.35319,1.03524
140.98,20.3593,-0.000537362,0.35479,1.0343
143.58,20.61005,-0.0005561432,0.35204,1.03334
146.18,20.86072,-0.001640024,0.34206,1.03237
148.78,21.1104,-0.001969814,0.32762,1.03139
151.38,21.36104,-0.0014481,0.34105,1.0304
153.98,21.61056,-0.00284457,0.38216,1.0294
156.58,21.86082,-0.004159986,0.44681,1.02838
159.18,22.1106,-0.00262836,0.5462,1.02736
161.78,22.36147,-0.004596782,0.7034,1.02633
164.38,22.61303,-0.004269998,0.92005,1.02528
166.98,22.865,-0.004600032,1.04169,1.02422
169.58,23.1148,-0.003956133,0.62727,1.02316
172.18,23.36195,-0.00525204,0.44512,1.02208
174.78,23.60933,-0.003620371,0.40417,1.02099
177.38,23.85645,-0.003630721,0.39464,1.01989
179.98,24.10389,-0.004929997,0.3935,1.01878
182.58,24.35109,-0.007568128,0.39278,1.01766
185.18,24.59901,-0.006897067,0.39528,1.01653
187.78,24.84645,-0.007239962,0.3931,1.01539
190.38,25.09419,-0.007321119,0.39713,1.01424
192.98,25.34134,-0.00789,0.39661,1.01308
195.58,25.58886,-0.007865093,0.39894,1.01191
198.18,25.83592,-0.00756865,0.39927,1.01073
200.78,26.08386,-0.008384136,0.40073,1.00954
203.38,26.33189,-0.008229857,0.40418,1.00833
205.98,26.5794,-0.00888115,0.40357,1.00712
208.58,26.82671,-0.00887755,0.40511,1.0059
211.18,27.0731,-0.01019283,0.40501,1.00467
213.78,27.3217,-0.0102,0.40722,1.00343
216.38,27.56871,-0.01249012,0.405,1.00218
218.98,27.81618,-0.01248992,0.4112,1.00092
221.58,28.0622,-0.01283761,0.41088,0.99965
224.18,28.3107,-0.01248808,0.41044,0.99837
226.78,28.55813,-0.01316,0.41003,0.99708
229.38,28.8055,-0.0124999,0.41248,0.99578
231.98,29.05365,-0.01382024,0.41181,0.99447
234.58,29.3017,-0.01382024,0.40992,0.99315
237.18,29.5496,-0.01316,0.41194,0.99182
239.78,29.7975,-0.01519779,0.4134,0.99049
242.38,30.04503,-0.01481013,0.41499,0.98914
244.98,30.2925,-0.01612,0.41938,0.98778
247.58,30.54027,-0.01612,0.41487,0.98642
250.18,30.7883,-0.01578451,0.41564,0.98505
252.78,31.03613,-0.01612032,0.41991,0.98366
255.38,31.28417,-0.01842004,0.41914,0.98227
257.98,31.532,-0.02006554,0.42317,0.98087
260.58,31.7801,-0.01875006,0.42651,0.97946
263.18,32.02789,-0.02007,0.42828,0.97804
265.78,32.2757,-0.02203993,0.43184,0.97662
268.38,32.52386,-0.02373857,0.43463,0.97518
270.98,32.77232,-0.02538058,0.43916,0.97374
273.58,33.02062,-0.02665,0.44177,0.97228
276.18,33.2687,-0.02895051,0.44583,0.97082
278.78,33.51758,-0.02960816,0.45171,0.96935
281.38,33.7659,-0.03356746,0.45667,0.96787
283.98,34.0141,-0.03553061,0.46055,0.96638
286.58,34.26262,-0.04016283,0.46524,0.96489
289.18,34.51157,-0.04344284,0.4676,0.96339
291.78,34.76019,-0.04873695,0.47038,0.96187
294.38,35.01028,-0.05375642,0.47533,0.96035
296.98,35.25938,-0.05746196,0.48412,0.95882
299.58,35.50875,-0.06371806,0.49396,0.95729
302.18,35.75809,-0.07195713,0.50269,0.95574
304.78,36.00675,-0.08048677,0.51147,0.95419
307.38,36.2566,-0.0882691,0.52095,0.95263
309.98,36.5062,-0.09764826,0.53114,0.95106
312.58,36.7564,-0.11084,0.54974,0.94948
315.18,37.00614,-0.12224,0.5658,0.9479
317.78,37.25653,-0.13549,0.58764,0.94631
320.38,37.50654,-0.15448,0.61515,0.94471
322.98,37.75655,-0.17283,0.65266,0.9431
325.58,38.0069,-0.19558,0.69416,0.94149
328.18,38.25723,-0.22234,0.75041,0.93986
330.78,38.50799,-0.25343,0.82215,0.93823
333.38,38.75887,-0.28841,0.90665,0.9366
335.98,39.01048,-0.33054,1.01614,0.93495
338.58,39.26232,-0.38259,1.13625,0.9333
341.18,39.51475,-0.44304,1.28364,0.93164
343.78,39.76728,-0.51321,1.46142,0.92998
346.38,40.02061,-0.59755,1.71088,0.9283
348.98,40.27459,-0.69096,2.06724,0.92662
351.58,40.5306,-0.82161,2.59909,0.92493
354.18,40.78803,-0.99129,3.17361,0.92324
356.78,41.04651,-1.20073,3.74249,0.92154
359.38,41.30531,-1.4434,4.26509,0.91983
361.98,41.56405,-1.72067,4.7038,0.91811
364.58,41.82274,-2.01656,5.00372,0.91639
367.18,42.07929,-2.32573,5.10802,0.91466
369.78,42.334,-2.63299,4.95858,0.91293
372.38,42.58639,-2.92129,4.51297,0.91118
374.98,42.8352,-3.18423,3.60751,0.90944
377.58,43.0794,-3.3765,2.48429,0.90768
380.18,43.32076,-3.50424,1.44029,0.90592
382.78,43.5614,-3.58526,0.70319,0.90415
385.38,43.80448,-3.62437,0.31968,0.90238
387.98,44.04991,-3.6477,0.18384,0.9006
390.58,44.2976,-3.66111,0.12759,0.89881
393.18,44.5465,-3.67141,0.09613882,0.89702
395.78,44.7969,-3.67715,0.07791144,0.89522
398.38,45.04834,-3.68408,0.06558499,0.89341
400.98,45.3007,-3.6907,0.05732277,0.8916
403.58,45.55375,-3.69585,0.05056515,0.88978
406.18,45.80683,-3.69949,0.04747772,0.88796
408.78,46.06035,-3.7051,0.04540989,0.88613
411.38,46.31438,-3.70907,0.04100334,0.88429
413.98,46.56836,-3.71299,0.04361941,0.88245
416.58,46.8227,-3.71824,0.04447581,0.8806
419.18,47.0769,-3.72248,0.04572847,0.87875
421.78,47.33146,-3.72657,0.04476994,0.87689
424.38,47.58548,-3.73182,0.04585012,0.87503
426.98,47.83985,-3.73744,0.04739381,0.87316
429.58,48.09514,-3.74105,0.04919164,0.87129
432.18,48.34988,-3.74566,0.04767691,0.86941
434.78,48.60488,-3.75098,0.04559252,0.86752
437.38,48.85938,-3.75751,0.04519078,0.86563
439.98,49.11497,-3.76145,0.04121097,0.86373
442.58,49.36937,-3.76672,0.04379233,0.86183
445.18,49.6251,-3.77297,0.04662122,0.85993
447.78,49.8806,-3.77832,0.04453888,0.85801
450.38,50.13575,-3.78367,0.04522572,0.8561
452.98,50.39108,-3.78916,0.04743705,0.85418
455.58,50.6459,-3.79432,0.04650637,0.85225
458.18,50.90169,-3.80083,0.04238688,0.85032
460.78,51.15757,-3.80885,0.04527817,0.84838
463.38,51.413,-3.81553,0.04222546,0.84644
465.98,51.66879,-3.82088,0.04058085,0.84449
468.58,51.9244,-3.82782,0.03737739,0.84254
471.18,52.18125,-3.83436,0.03448348,0.84059
473.78,52.4368,-3.83951,0.02932695,0.83863
476.38,52.6945,-3.84389,0.02263259,0.83666
478.98,52.95139,-3.84675,0.02013317,0.83469
481.58,53.2084,-3.85053,0.01643911,0.83272
484.18,53.4651,-3.85143,0.0119272,0.83074
486.78,53.7219,-3.85316,0.01133893,0.82876
489.38,53.9788,-3.85414,0.01488159,0.82677
491.98,54.23511,-3.8555,0.01885936,0.82478
494.58,54.4913,-3.85547,0.03004193,0.82279
497.18,54.7479,-3.85645,0.02137761,0.82079
499.78,55.0044,-3.85545,0.006028706,0.81878
502.38,55.2619,-3.85677,-0.006978811,0.81678
504.98,55.51964,-3.85809,-0.0199985,0.81476
507.58,55.77803,-3.85773,-0.03297434,0.81275
510.18,56.03556,-3.85941,-0.03290651,0.81073
512.78,56.2942,-3.85842,-0.03577453,0.80871
515.38,56.5528,-3.85974,-0.03249633,0.80668
517.98,56.81143,-3.85974,-0.03152567,0.80465
520.58,57.0696,-3.85974,-0.02746603,0.80261
523.18,57.3276,-3.85974,-0.02934642,0.80057
525.78,57.58571,-3.85974,-0.02852426,0.79853
528.38,57.8433,-3.86051,-0.03146385,0.79649
530.98,58.10162,-3.86072,-0.03063231,0.79444
533.58,58.35932,-3.85941,-0.0317922,0.79239
536.18,58.6176,-3.85941,-0.02972096,0.79033
538.78,58.8759,-3.86073,-0.03174523,0.78827
541.38,59.13377,-3.85809,-0.03388185,0.78621
543.98,59.3936,-3.85918,-0.03172219,0.78414
546.58,59.65184,-3.86051,-0.0298613,0.78207
549.18,59.9112,-3.85904,-0.03231581,0.78
551.78,60.1703,-3.86039,-0.03210026,0.77792
554.38,60.4298,-3.85875,-0.03360898,0.77585
556.98,60.6899,-3.86014,-0.03348087,0.77376
559.58,60.94875,-3.85908,-0.03608307,0.77168
562.18,61.2088,-3.85908,-0.04140612,0.76959
564.78,61.4678,-3.85809,-0.03953291,0.7675
567.38,61.72772,-3.85939,-0.04455351,0.76541
569.98,61.98679,-3.85876,-0.04689858,0.76331
572.58,62.24555,-3.85908,-0.04684611,0.76121
575.18,62.5047,-3.85974,-0.04698792,0.75911
577.78,62.7643,-3.86079,-0.05293257,0.75701
580.38,63.0243,-3.85941,-0.05421072,0.7549
582.98,63.28442,-3.85908,-0.05830163,0.75279
585.58,63.5443,-3.85908,-0.0586117,0.75068
588.18,63.80452,-3.85843,-0.0620868,0.74856
590.78,64.0647,-3.86039,-0.06300746,0.74645
593.38,64.32536,-3.85912,-0.06422365,0.74433
595.98,64.58645,-3.85974,-0.07088478,0.7422
598.58,64.84744,-3.85974,-0.07188849,0.74008
601.18,65.1083,-3.85974,-0.07368232,0.73795
603.78,65.36917,-3.85941,-0.07421098,0.73582
606.38,65.6297,-3.85941,-0.07569114,0.73369
608.98,65.89014,-3.85974,-0.07914479,0.73156
611.58,66.1508,-3.85974,-0.07789137,0.72943
614.18,66.41136,-3.86175,-0.08149909,0.72729
616.78,66.67211,-3.86009,-0.07986438,0.72515
619.38,66.93252,-3.86133,-0.08180003,0.72301
621.98,67.1936,-3.85996,-0.08507043,0.72087
624.58,67.45441,-3.86062,-0.08662579,0.71872
627.18,67.7159,-3.86066,-0.08287663,0.71658
629.78,67.9772,-3.86193,-0.08683805,0.71443
632.38,68.2386,-3.86094,-0.08598878,0.71228
634.98,68.5,-3.86161,-0.08844257,0.71013
637.58,68.76188,-3.85996,-0.08716052,0.70797
640.18,69.0236,-3.86128,-0.08916594,0.70582
642.78,69.28496,-3.86258,-0.08758164,0.70366
645.38,69.5457,-3.86128,-0.08953675,0.70151
647.98,69.80685,-3.86224,-0.0888339,0.69935
649.88,69.9974,-3.86226,-0.08955125,0.69777