File: 01_Data/PLA_3D_Printer_Filament/STA/N2/10K_min/PLA_STA_N2_10KData_220503_R2.csv
##Temp./Â°C,Time/min,Mass loss(subtr.2)/mg,DSC(subtr.2)/(mW/mg),Sensit./(uV/mW)
49.935,10.01,0.00822,-0.000360621,1.06047
52.535,11.2227,0.008877054,0.0982818,1.05993
55.135,11.61858,0.008372535,0.14608,1.05938
57.735,11.94754,0.009048135,0.17948,1.05881
60.335,12.25276,0.009460721,0.20941,1.05823
62.935,12.54544,0.008238855,0.26804,1.05764
65.535,12.83188,0.00778718,0.40634,1.05704
68.135,13.11289,0.00932333,0.31427,1.05643
70.735,13.39078,0.009317494,0.27653,1.0558
73.335,13.66515,0.01061889,0.26416,1.05516
75.935,13.93723,0.01064733,0.26112,1.05451
78.535,14.2076,0.01195013,0.25682,1.05384
81.135,14.47521,0.00839263,0.24532,1.05316
83.735,14.7416,0.009760044,0.21934,1.05248
86.335,15.0045,0.01243733,0.17028,1.05177
88.935,15.26569,0.01101917,0.11615,1.05106
91.535,15.5252,0.01151092,0.09153295,1.05034
94.135,15.78401,0.01337987,0.11428,1.0496
96.735,16.0415,0.01073528,0.16423,1.04885
99.335,16.29905,0.01206013,0.212,1.04809
101.935,16.55539,0.01206,0.24852,1.04731
104.535,16.81131,0.01206008,0.2716,1.04653
107.135,17.06683,0.01338236,0.29107,1.04573
109.735,17.3218,0.01330727,0.30748,1.04492
112.335,17.57627,0.01337924,0.31858,1.0441
114.935,17.8307,0.01337,0.31407,1.04327
117.535,18.08481,0.01337957,0.31408,1.04243
120.135,18.33822,0.01337966,0.31892,1.04157
122.735,18.59137,0.01336884,0.32241,1.0407
125.335,18.84371,0.01368915,0.32782,1.03982
127.935,19.0972,0.01335544,0.33704,1.03893
130.535,19.34873,0.01336955,0.33803,1.03803
133.135,19.59996,0.01304,0.34311,1.03712
135.735,19.85207,0.01402977,0.34759,1.0362
138.335,20.1036,0.01303771,0.34871,1.03526
140.935,20.35436,0.01371156,0.34842,1.03431
143.535,20.6052,0.01502003,0.34652,1.03336
146.135,20.85535,0.01239084,0.33468,1.03239
148.735,21.10572,0.01500611,0.31975,1.03141
151.335,21.3555,0.0137,0.33368,1.03042
153.935,21.6059,0.0137,0.37623,1.02941
156.535,21.85632,0.01467651,0.43942,1.0284
159.135,22.10776,0.01303466,0.5354,1.02738
161.735,22.35835,0.0117143,0.6917,1.02634
164.335,22.6101,0.01173079,0.90552,1.0253
166.935,22.86157,0.01305033,1.0239,1.02424
169.535,23.1113,0.01304357,0.61702,1.02317
172.135,23.35843,0.01035385,0.44163,1.0221
174.735,23.60614,0.01173,0.40227,1.02101
177.335,23.85367,0.01184267,0.39163,1.01991
179.935,24.10114,0.01173,0.39275,1.0188
182.535,24.3492,0.009089975,0.39163,1.01768
185.135,24.5975,0.0108823,0.39074,1.01655
187.735,24.84536,0.01009,0.39489,1.01541
190.335,25.0936,0.01009,0.39591,1.01426
192.935,25.34181,0.01007491,0.39369,1.0131
195.535,25.58943,0.008119863,0.39652,1.01193
198.135,25.8374,0.01075196,0.39763,1.01075
200.735,26.08501,0.00982571,0.39926,1.00956
203.335,26.3328,0.009860891,0.4002,1.00835
205.935,26.57995,0.00877,0.40059,1.00714
208.535,26.82763,0.008763829,0.40039,1.00592
211.135,27.07483,0.00876,0.40164,1.00469
213.735,27.3224,0.008835084,0.40608,1.00345
216.335,27.5696,0.00877,0.40583,1.0022
218.935,27.81692,0.00877,0.40777,1.00094
221.535,28.06482,0.008775503,0.41019,0.99967
224.135,28.3124,0.008109956,0.40606,0.99839
226.735,28.55968,0.0067946,0.40901,0.9971
229.335,28.80769,0.00681622,0.41346,0.9958
231.935,29.05599,0.00674736,0.41034,0.99449
234.535,29.30305,0.00864075,0.41298,0.99317
237.135,29.55156,0.00745779,0.41269,0.99185
239.735,29.7991,0.00679,0.41746,0.99051
242.335,30.04715,0.005478729,0.41705,0.98916
244.935,30.2952,0.004820001,0.41965,0.98781
247.535,30.5427,0.004931926,0.41914,0.98644
250.135,30.7905,0.0045,0.42554,0.98507
252.735,31.03862,0.003509885,0.42752,0.98369
255.335,31.28645,0.003868142,0.42804,0.9823
257.935,31.5344,0.00350996,0.42869,0.9809
260.535,31.78235,0.004722817,0.43406,0.97949
263.135,32.03011,0.00285,0.43911,0.97807
265.735,32.2783,0.0008700047,0.44124,0.97664
268.335,32.52613,0.0005399998,0.4443,0.97521
270.935,32.77362,-0.000433622,0.44816,0.97376
273.535,33.02197,-0.00241999,0.45331,0.97231
276.135,33.26983,-0.006041477,0.45675,0.97085
278.735,33.5186,-0.007030015,0.46565,0.96938
281.335,33.7667,-0.008363512,0.46806,0.9679
283.935,34.01536,-0.01082891,0.47083,0.96641
286.535,34.2647,-0.0143198,0.47949,0.96491
289.135,34.51421,-0.01821984,0.48408,0.96341
291.735,34.76332,-0.02042697,0.48746,0.9619
294.335,35.01269,-0.02743994,0.49578,0.96038
296.935,35.26248,-0.03137487,0.50264,0.95885
299.535,35.51182,-0.03745117,0.51194,0.95731
302.135,35.76119,-0.04322863,0.51925,0.95577
304.735,36.01079,-0.05132985,0.53051,0.95422
307.335,36.26056,-0.05993794,0.5438,0.95266
309.935,36.51055,-0.07183979,0.55499,0.95109
312.535,36.76011,-0.08206706,0.57132,0.94951
315.135,37.01051,-0.09476739,0.59257,0.94793
317.735,37.2603,-0.10731,0.61547,0.94634
320.335,37.5097,-0.12491,0.64337,0.94474
322.935,37.75972,-0.14619,0.68423,0.94313
325.535,38.0109,-0.17229,0.73262,0.94151
328.135,38.26171,-0.20099,0.79131,0.93989
330.735,38.51311,-0.23405,0.8616,0.93826
333.335,38.76422,-0.27498,0.95004,0.93663
335.935,39.0162,-0.32231,1.06246,0.93498
338.535,39.26801,-0.38134,1.20853,0.93333
341.135,39.52046,-0.44604,1.38761,0.93167
343.735,39.77264,-0.52979,1.57579,0.93
346.335,40.02646,-0.62796,1.8615,0.92833
348.935,40.28111,-0.7493,2.2183,0.92665
351.535,40.53731,-0.89482,2.63205,0.92496
354.135,40.79419,-1.06988,3.12212,0.92327
356.735,41.05148,-1.28163,3.62034,0.92157
359.335,41.30968,-1.52203,4.08798,0.91986
361.935,41.5679,-1.79699,4.47385,0.91814
364.535,41.8261,-2.09004,4.75043,0.91642
367.135,42.0828,-2.4027,4.8349,0.91469
369.735,42.3375,-2.71067,4.66627,0.91296
372.335,42.58892,-2.99976,4.17241,0.91121
374.935,42.83757,-3.25199,3.34298,0.90947
377.535,43.08076,-3.44509,2.248,0.90771
380.135,43.32226,-3.5744,1.14168,0.90595
382.735,43.56346,-3.63005,0.46407,0.90418
385.335,43.80689,-3.65414,0.26923,0.90241
387.935,44.0541,-3.66779,0.20148,0.90063
390.535,44.30265,-3.67991,0.16939,0.89884
393.135,44.55259,-3.68467,0.15056,0.89705
395.735,44.80324,-3.69128,0.14003,0.89525
398.335,45.0552,-3.69457,0.13213,0.89344
400.935,45.30766,-3.69997,0.12947,0.89163
403.535,45.56049,-3.70586,0.12738,0.88981
406.135,45.81346,-3.71001,0.12467,0.88799
408.735,46.06733,-3.71419,0.12734,0.88616
411.335,46.32076,-3.71983,0.12543,0.88432
413.935,46.57465,-3.72266,0.12793,0.88248
416.535,46.82841,-3.72772,0.13154,0.88064
419.135,47.0828,-3.73313,0.13045,0.87878
421.735,47.3369,-3.73703,0.13268,0.87693
424.335,47.59115,-3.74227,0.13333,0.87506
426.935,47.84552,-3.7462,0.13255,0.87319
429.535,48.10053,-3.75116,0.12986,0.87132
432.135,48.35476,-3.75517,0.12829,0.86944
434.735,48.6094,-3.76137,0.12661,0.86755
437.335,48.8644,-3.76632,0.12541,0.86566
439.935,49.11911,-3.77054,0.12782,0.86377
442.535,49.37449,-3.77601,0.12349,0.86187
445.135,49.62941,-3.7841,0.12651,0.85996
447.735,49.88478,-3.78813,0.12711,0.85805
450.335,50.14008,-3.79339,0.12908,0.85613
452.935,50.39524,-3.79873,0.12914,0.85421
455.535,50.65067,-3.8068,0.13221,0.85228
458.135,50.90565,-3.81241,0.12645,0.85035
460.735,51.16149,-3.81794,0.12697,0.84841
463.335,51.41738,-3.82623,0.12414,0.84647
465.935,51.67387,-3.83157,0.11867,0.84453
468.535,51.93057,-3.8363,0.11685,0.84258
471.135,52.18728,-3.84187,0.11304,0.84062
473.735,52.44429,-3.84357,0.10712,0.83866
476.335,52.70123,-3.84844,0.10608,0.8367
478.935,52.9581,-3.85117,0.10077,0.83473
481.535,53.2157,-3.8524,0.09540574,0.83275
484.135,53.47282,-3.85503,0.09018927,0.83078
486.735,53.7296,-3.85537,0.08881753,0.82879
489.335,53.98706,-3.85668,0.08859362,0.82681
491.935,54.24363,-3.85737,0.09700023,0.82482
494.535,54.50011,-3.85767,0.10594,0.82282
497.135,54.75753,-3.85748,0.09869669,0.82082
499.735,55.01517,-3.85897,0.08851651,0.81882
502.335,55.27406,-3.85767,0.07868985,0.81681
504.935,55.5317,-3.85766,0.0688946,0.8148
507.535,55.78976,-3.85865,0.06121743,0.81278
510.135,56.0489,-3.85777,0.05377749,0.81076
512.735,56.30709,-3.85668,0.0496803,0.80874
515.335,56.56525,-3.85704,0.05048294,0.80671
517.935,56.82371,-3.85701,0.05204716,0.80468
520.535,57.08152,-3.85767,0.05001446,0.80265
523.135,57.3398,-3.85701,0.05248684,0.80061
525.735,57.59797,-3.85832,0.04924177,0.79857
528.335,57.856,-3.85602,0.04855821,0.79652
530.935,58.11476,-3.85602,0.04219795,0.79447
533.535,58.37265,-3.85568,0.04099435,0.79242
536.135,58.63159,-3.85703,0.04149808,0.79037
538.735,58.89079,-3.85701,0.04425111,0.78831
541.335,59.1497,-3.85832,0.04041312,0.78624
543.935,59.40835,-3.85766,0.03751071,0.78418
546.535,59.66695,-3.85621,0.03941781,0.78211
549.135,59.926,-3.85564,0.03815344,0.78004
551.735,60.1854,-3.85668,0.03960974,0.77796
554.335,60.44465,-3.85666,0.04173968,0.77588
556.935,60.7041,-3.85595,0.04157859,0.7738
559.535,60.96317,-3.85602,0.04039964,0.77172
562.135,61.22265,-3.85462,0.03700303,0.76963
564.735,61.48239,-3.85604,0.03924858,0.76754
567.335,61.7417,-3.85685,0.04052363,0.76544
569.935,62.0014,-3.85531,0.03967069,0.76335
572.535,62.26099,-3.85668,0.03987047,0.76125
575.135,62.5217,-3.85668,0.03670011,0.75915
577.735,62.7823,-3.85584,0.03778195,0.75704
580.335,63.0423,-3.85338,0.0382856,0.75494
582.935,63.3029,-3.85476,0.03856053,0.75283
585.535,63.56296,-3.85451,0.03988635,0.75071
588.135,63.8229,-3.85466,0.03778982,0.7486
590.735,64.0839,-3.85383,0.04027793,0.74648
593.335,64.34453,-3.85383,0.04132692,0.74436
595.935,64.60475,-3.85422,0.04330972,0.74224
598.535,64.86479,-3.85449,0.03988166,0.74012
601.135,65.12501,-3.85415,0.04279034,0.73799
603.735,65.38602,-3.85416,0.04312888,0.73586
606.335,65.64703,-3.85416,0.04176366,0.73373
608.935,65.9076,-3.85415,0.04593594,0.7316
611.535,66.16796,-3.85284,0.04304458,0.72946
614.135,66.42878,-3.85278,0.04775372,0.72733
616.735,66.68949,-3.85549,0.04570966,0.72519
619.335,66.95058,-3.85349,0.04541872,0.72305
621.935,67.2121,-3.85314,0.04667287,0.7209
624.535,67.47368,-3.85383,0.04417344,0.71876
627.135,67.73533,-3.85415,0.04680106,0.71661
629.735,67.99707,-3.85284,0.04555699,0.71447
632.335,68.259,-3.85382,0.04601122,0.71232
634.935,68.52025,-3.85317,0.04978197,0.71016
637.535,68.78108,-3.8525,0.04822589,0.70801
640.135,69.0424,-3.8512,0.04539491,0.70586
642.735,69.30298,-3.85186,0.0482221,0.7037
645.335,69.5634,-3.8535,0.04700268,0.70154
647.935,69.82429,-3.8535,0.0478515,0.69938
649.635,69.99492,-3.8548,0.04432353,0.69797