File: 01_Data/PineLap_SidingC/MCC/PineLap_SidingC_MCC_30K_min_211123_R2.txt
Sample ID:	C:\MCC\MCC Cal\Test\PineLap_SidingC_MCC_30K_min_211123_R2.txt
Sample Weight (mg):	4.22
Heating Rate (C/s):	0.5
Combustor Temp (C):	900
N2 Flow Rate (cc/min):	80
O2 Flow Rate (cc/min):	20
Calibration File:	C:\MCC\MCC Cal\Coeff1 JN10440_30_210304.txt.txt
T Correction Coefficients:	0	1.024463	0
Time Shift (s):	14
*
Time (s)	Temperature (C)	N2 flow rate (cc/min)	O2 flow rate (cc/min)	Flow Rate (cc/min)	Oxygen (%)	HRR (W/g)	Heating rate (C/s)
0.000	108.885	80.002	19.995	103.014	19.883	0.241	0.004
8.000	108.884	80.003	19.996	103.014	19.879	0.587	-0.047
16.000	108.829	80.002	19.994	103.024	19.890	-0.290	-0.033
24.000	108.950	80.003	19.994	103.053	19.885	0.070	0.051
32.000	108.981	80.002	19.995	103.093	19.874	0.938	0.026
40.000	109.276	80.001	19.994	103.122	19.864	1.738	0.137
48.000	109.861	80.001	19.996	103.133	19.859	2.129	-0.083
56.000	110.413	80.000	19.995	103.196	19.848	2.933	0.061
64.000	112.012	80.001	19.994	103.259	19.834	3.973	-0.046
72.000	113.772	80.002	19.995	103.316	19.827	4.564	0.400
80.000	115.834	80.002	19.995	103.348	19.818	5.208	0.467
88.001	119.071	80.003	19.995	103.332	19.823	4.825	0.588
96.000	121.610	80.007	19.997	103.337	19.816	5.365	0.382
104.001	125.718	80.006	19.995	103.335	19.821	5.029	0.735
112.000	129.734	80.002	19.993	103.353	19.812	5.655	0.462
120.000	133.460	80.001	19.996	103.333	19.817	5.285	0.485
128.000	137.897	80.004	19.995	103.325	19.814	5.514	0.544
136.000	142.644	80.003	19.995	103.324	19.819	5.151	0.565
144.000	146.982	79.999	19.997	103.315	19.824	4.736	0.620
152.000	151.390	80.002	19.996	103.289	19.828	4.479	0.679
160.000	155.573	80.003	19.995	103.275	19.824	4.796	0.530
168.000	160.197	80.002	19.995	103.255	19.833	4.076	0.544
176.000	164.229	80.002	19.995	103.239	19.832	4.147	0.522
184.000	168.317	80.002	19.994	103.211	19.831	4.239	0.449
192.000	172.147	80.001	19.994	103.215	19.838	3.721	0.481
200.000	175.892	80.000	19.994	103.213	19.835	3.907	0.617
208.000	179.440	80.000	19.995	103.216	19.838	3.715	0.473
216.000	182.773	80.002	19.995	103.213	19.836	3.869	0.448
224.000	186.634	80.001	19.997	103.218	19.840	3.563	0.457
232.000	190.094	80.002	19.995	103.230	19.833	4.051	0.377
240.000	193.771	80.001	19.996	103.216	19.827	4.533	0.507
248.000	197.162	80.002	19.996	103.238	19.830	4.279	0.284
256.000	200.918	80.003	19.994	103.240	19.828	4.443	0.458
264.000	205.025	80.004	19.994	103.236	19.829	4.370	0.409
272.000	208.775	80.002	19.995	103.235	19.829	4.380	0.356
280.000	213.140	80.002	19.994	103.248	19.828	4.429	0.939
288.000	216.966	80.001	19.995	103.251	19.818	5.208	0.219
296.000	221.341	80.001	19.994	103.250	19.813	5.603	0.273
304.000	225.330	80.000	19.995	103.229	19.815	5.469	0.598
312.000	229.329	80.003	19.996	103.230	19.812	5.690	0.517
320.000	233.718	80.002	19.996	103.229	19.803	6.386	0.261
328.000	238.011	80.004	19.995	103.226	19.806	6.126	0.481
336.000	242.195	80.002	19.996	103.212	19.795	6.980	0.528
344.000	246.048	80.004	19.995	103.222	19.786	7.646	0.429
352.000	250.073	80.004	19.994	103.224	19.781	8.063	0.533
360.000	254.106	80.003	19.995	103.232	19.767	9.106	0.524
368.000	257.876	80.001	19.995	103.240	19.758	9.781	0.538
376.000	261.815	80.002	19.995	103.237	19.749	10.507	0.421
384.000	265.731	80.002	19.995	103.240	19.737	11.414	0.497
392.000	269.534	80.002	19.995	103.249	19.720	12.699	0.480
400.000	273.568	80.003	19.995	103.247	19.709	13.535	0.488
408.000	277.530	80.003	19.995	103.250	19.691	14.911	0.504
416.000	281.415	80.003	19.996	103.250	19.671	16.432	0.426
424.000	285.359	80.002	19.994	103.255	19.653	17.842	0.481
432.000	289.282	80.003	19.996	103.261	19.628	19.706	0.479
440.000	293.186	80.004	19.995	103.280	19.605	21.521	0.506
448.000	297.066	80.003	19.994	103.288	19.582	23.250	0.499
456.000	301.106	80.002	19.993	103.289	19.550	25.671	0.514
464.001	305.160	80.004	19.994	103.300	19.517	28.186	0.491
472.000	309.205	80.002	19.994	103.320	19.482	30.896	0.475
480.000	313.252	80.004	19.994	103.330	19.443	33.851	0.506
488.000	317.330	80.004	19.994	103.337	19.405	36.823	0.525
496.000	321.446	80.002	19.996	103.354	19.364	39.935	0.470
504.000	325.469	80.004	19.996	103.362	19.327	42.715	0.470
512.000	329.572	80.005	19.996	103.363	19.294	45.289	0.501
520.000	333.580	80.003	19.996	103.366	19.262	47.726	0.503
528.000	337.585	80.002	19.995	103.373	19.237	49.625	0.504
536.000	341.634	80.003	19.994	103.387	19.220	50.976	0.509
544.000	345.639	80.003	19.993	103.389	19.195	52.833	0.507
552.000	349.667	80.001	19.995	103.397	19.167	55.031	0.499
560.000	353.728	80.003	19.994	103.405	19.131	57.778	0.453
568.000	357.779	80.005	19.994	103.426	19.092	60.762	0.499
576.000	361.816	80.003	19.994	103.444	19.036	65.066	0.543
584.000	365.843	80.003	19.995	103.445	18.982	69.216	0.499
592.000	369.826	80.006	19.994	103.460	18.946	71.947	0.490
600.000	373.949	80.003	19.995	103.444	18.926	73.392	0.537
608.000	377.961	80.002	19.995	103.415	18.964	70.487	0.497
616.000	381.986	80.002	19.996	103.365	19.050	63.885	0.520
624.000	385.953	80.005	19.995	103.295	19.188	53.325	0.493
632.000	389.940	80.003	19.994	103.228	19.347	41.124	0.474
640.000	394.050	80.001	19.995	103.188	19.495	29.864	0.524
648.000	398.047	80.004	19.995	103.169	19.613	20.816	0.484
656.000	402.096	80.004	19.995	103.164	19.680	15.724	0.486
664.000	406.082	80.001	19.994	103.171	19.721	12.639	0.493
672.000	410.035	80.004	19.994	103.168	19.733	11.689	0.497
680.000	414.039	80.003	19.994	103.171	19.739	11.268	0.476
688.000	418.057	80.003	19.996	103.170	19.747	10.603	0.506
696.000	422.207	80.004	19.995	103.169	19.750	10.421	0.504
704.000	426.376	80.004	19.996	103.166	19.756	9.909	0.518
712.000	430.531	80.002	19.996	103.157	19.763	9.415	0.483
720.000	434.770	80.004	19.994	103.167	19.768	9.041	0.546
728.000	438.934	80.003	19.992	103.169	19.773	8.684	0.501
736.000	443.015	80.003	19.994	103.145	19.774	8.587	0.474
744.000	447.051	80.004	19.995	103.158	19.781	8.050	0.505
752.000	451.071	80.005	19.994	103.142	19.787	7.592	0.511
760.000	455.107	80.004	19.995	103.154	19.791	7.299	0.492
768.000	459.149	80.003	19.995	103.152	19.796	6.911	0.518
776.000	463.082	80.002	19.994	103.149	19.802	6.413	0.498
784.000	467.116	80.001	19.994	103.158	19.807	6.034	0.483
792.000	471.143	80.003	19.995	103.159	19.808	5.943	0.484
800.000	475.207	80.001	19.994	103.134	19.810	5.851	0.500
808.000	479.212	80.004	19.995	103.143	19.817	5.284	0.500
816.000	483.180	80.005	19.995	103.147	19.814	5.530	0.519
824.000	487.141	80.004	19.996	103.139	19.816	5.364	0.514
832.000	491.166	80.005	19.995	103.143	19.815	5.417	0.514
840.000	495.353	80.005	19.994	103.134	19.816	5.333	0.532
848.000	499.457	80.002	19.994	103.136	19.818	5.245	0.528
856.000	503.507	80.002	19.994	103.139	19.820	5.061	0.521
864.000	507.592	80.003	19.996	103.134	19.819	5.120	0.564
872.000	511.663	80.001	19.993	103.138	19.824	4.786	0.510
880.000	515.788	80.002	19.996	103.133	19.820	5.067	0.528
888.000	519.924	80.002	19.995	103.137	19.818	5.253	0.505
896.000	524.002	80.004	19.996	103.131	19.817	5.306	0.541
904.000	528.090	80.002	19.993	103.132	19.820	5.053	0.508
912.000	532.167	80.003	19.995	103.136	19.817	5.280	0.510
920.000	536.312	80.004	19.994	103.133	19.820	5.044	0.491
928.000	540.455	80.002	19.994	103.138	19.820	5.034	0.536
936.000	544.528	80.001	19.993	103.135	19.822	4.897	0.498
944.000	548.633	80.003	19.993	103.133	19.821	4.977	0.515
952.000	552.834	80.002	19.995	103.134	19.822	4.913	0.493
960.000	557.009	80.002	19.994	103.131	19.821	4.985	0.507
968.000	561.214	80.002	19.996	103.135	19.822	4.919	0.549
976.000	565.335	80.003	19.995	103.133	19.815	5.407	0.490
984.000	569.470	80.002	19.995	103.132	19.817	5.269	0.525
992.000	573.554	80.002	19.995	103.133	19.817	5.269	0.514
1000.000	577.742	80.003	19.993	103.134	19.817	5.328	0.526
1008.000	581.872	80.004	19.995	103.161	19.837	3.783	0.552
1016.000	585.972	80.001	19.994	103.131	19.830	4.324	0.536
1024.000	590.003	80.002	19.993	103.131	19.820	5.056	0.503
1032.001	594.084	80.003	19.995	103.131	19.819	5.161	0.524
1040.001	598.136	80.002	19.995	103.133	19.817	5.302	0.498
1048.000	602.244	80.002	19.995	103.132	19.817	5.302	0.508
1056.000	606.334	80.003	19.994	103.134	19.819	5.138	0.555
1064.000	610.381	80.004	19.993	103.136	19.817	5.318	0.481
1072.001	614.508	80.002	19.995	103.131	19.817	5.298	0.532
1080.001	618.557	80.002	19.995	103.125	19.807	6.016	0.477
1088.001	622.744	80.004	19.995	103.128	19.816	5.388	0.512
1096.000	627.068	80.002	19.994	103.129	19.819	5.149	1.041
1104.001	630.815	80.001	19.995	103.136	19.814	5.499	0.490
1112.000	635.380	80.004	19.994	103.133	19.816	5.405	1.084
1120.000	639.282	80.002	19.994	103.134	19.811	5.742	1.067
1128.000	643.527	80.001	19.994	103.145	19.812	5.676	0.541
1136.000	647.756	80.005	19.995	103.145	19.809	5.874	0.537
1144.000	652.119	80.001	19.995	103.134	19.813	5.618	0.545
1152.000	656.431	80.004	19.995	103.149	19.808	5.957	0.545
1160.000	660.709	80.003	19.995	103.146	19.812	5.693	0.528
1168.000	664.933	80.006	19.995	103.154	19.812	5.701	0.504
1176.001	669.179	80.000	19.996	103.161	19.811	5.785	0.539
1184.000	673.454	80.003	19.994	103.172	19.807	6.049	0.557
1192.000	677.692	80.004	19.995	103.167	19.808	5.947	0.556
1200.001	681.919	80.003	19.995	103.171	19.807	6.024	0.514
1208.000	686.087	80.003	19.995	103.169	19.810	5.824	0.534
1216.000	690.309	80.003	19.994	103.166	19.810	5.842	0.498
1224.000	694.455	80.002	19.994	103.157	19.812	5.700	0.513
1232.000	698.546	80.005	19.995	103.135	19.812	5.656	0.497
1240.000	702.628	80.003	19.996	103.135	19.812	5.697	0.499
1248.000	706.622	80.006	19.995	103.132	19.814	5.548	0.464
1256.001	710.700	80.004	19.996	103.132	19.812	5.656	0.490
1264.000	714.706	80.000	19.995	103.120	19.815	5.426	0.503
1272.000	718.785	80.003	19.995	103.117	19.812	5.672	0.534
1280.000	722.874	80.004	19.993	103.122	19.810	5.791	0.503
1288.000	726.888	80.002	19.995	103.106	19.814	5.512	0.497
1296.000	730.883	80.002	19.995	103.119	19.814	5.495	0.507
1304.000	734.920	80.004	19.994	103.119	19.810	5.795	0.483
1312.001	738.884	80.003	19.995	103.105	19.809	5.900	0.499
1320.000	742.925	80.004	19.996	103.105	19.811	5.769	0.469
1321.000	743.452	80.004	19.996	103.099	19.811	5.726	0.524