File: 01_Data/Roof_Felt/Cone/Roof_Felt_Underlayment_Cone_HF25Scalar_220328_R3.csv
LABORATORY,FSRI
TEST IDENT,Roof_Felt_HF25_3
OPERATOR,Dow
MATERIAL,Roof Felt Underlayment
ORIENTATION,Horizontal
HEAT FLUX,25
SURF AREA,0.00884
C FACTOR,0.0401029
SPEC HOLDER DIFF,-566
SPECIMEN MASS,7.32
SCAN TIME,0.25
O2 DELAY TIME,11
CO DELAY TIME,11
CO2 DELAY TIME,8
FLOW FACTOR,1
SCAN COUNT,870
TIME TO IGN,33.75
END OF TEST SCAN,390
END OF TEST TIME,97.5
TEST STATUS,1
PRE TEST CMT,Dimensions: 102.64 x 101.89 x 0.78 mm; with frame; with calcium silicate substrate