File: 01_Data/Roof_Felt/Cone/Roof_Felt_Underlayment_Cone_HF75Scalar_220328_R3.csv
LABORATORY,FSRI
TEST IDENT,Roof_Felt_HF75_3
OPERATOR,Dow
MATERIAL,Roof Felt Underlayment
ORIENTATION,Horizontal
HEAT FLUX,75
SURF AREA,0.00884
C FACTOR,0.0395835
SPEC HOLDER DIFF,-566
SPECIMEN MASS,6.72
SCAN TIME,0.25
O2 DELAY TIME,11
CO DELAY TIME,11
CO2 DELAY TIME,8
FLOW FACTOR,1
SCAN COUNT,971
TIME TO IGN,6.5
END OF TEST SCAN,491
END OF TEST TIME,122.75
TEST STATUS,1
PRE TEST CMT,Dimensions: 102.04 x 101.65 x 0.81 mm; with frame; with calcium silicate substrate