File: 01_Data/Roof_Felt/Cone/Roof_Felt_Underlayment_Cone_HF25Scalar_220328_R1.csv
LABORATORY,FSRI
TEST IDENT,Roof_Felt_HF25_1
OPERATOR,Dow
MATERIAL,Roof Felt Underlayment
ORIENTATION,Horizontal
HEAT FLUX,25
SURF AREA,0.00884
C FACTOR,0.0401029
SPEC HOLDER DIFF,-566
SPECIMEN MASS,6.93
SCAN TIME,0.25
O2 DELAY TIME,11
CO DELAY TIME,11
CO2 DELAY TIME,8
FLOW FACTOR,1
SCAN COUNT,931
TIME TO IGN,30.5
END OF TEST SCAN,451
END OF TEST TIME,112.75
TEST STATUS,1
PRE TEST CMT,Dimensions: 101.44 x 101.16 x 0.87 mm; with frame; with calcium silicate substrate