File: 01_Data/Roof_Felt/Cone/Roof_Felt_Underlayment_Cone_HF50Scan_220328_R3.csv
Names,Time,Stack TC,Smoke TC,Exh Press,Smoke Comp,Smoke Meas,CO Meter,CO2 Meter,O2 Meter,Sample Mass,Ext Coeff,Start Test,Flame Verif
Chan Gain,,500,500,1,1,1,1,1,1,1,1,1.0,1.0
Offset,,0,0,0.138301,0,0,0,0,0,0,0,0.0,0.0
Gain,,1,1,25.011,13.2062,13.8682,1,1,1,1.0009,1.02317,1.0,1.0
Units,sec,C,C,Pa,%,%,%,%,%,g,/m,,
Baseline,,31.1401,32.3925,146.491,98.5732,96.5014,0.00104558,0.067749,21.0097,-834.819,0.190668,,
11,2.5,29.4821,31.2267,146.587,99.8658,97.7275,0.000668479,0.0738289,21.0052,168.392,0.194266,0.0,0.0
22,5.25,29.3735,31.2668,146.402,99.817,97.8121,0.00091501,0.0725368,21.0064,168.452,0.182113,0.0,0.0
33,8,29.9188,31.1027,145.141,99.732,97.1299,0.00105364,0.0716518,21.0045,168.372,0.237285,0.0,0.0
44,10.75,29.8278,31.1094,142.466,99.6409,94.8669,0.00247744,0.0828285,20.9641,168.302,0.440666,0.0,0.0
55,13.5,30.225,31.398,120.11,99.4962,65.2446,0.0070168,0.212086,20.7026,167.991,3.78732,0.0,1.0
66,16.25,32.6686,33.7836,109.086,99.4261,58.6042,0.0150416,0.476225,20.2637,167.431,4.74436,0.0,1.0
77,19,37.2714,38.4707,101.772,99.4547,51.5829,0.0233528,0.810035,19.8003,166.62,5.89232,0.0,0.0
88,21.75,41.8895,43.8316,100.919,99.5107,48.179,0.032499,1.16586,19.4201,165.769,6.5101,0.0,0.0
99,24.5,49.795,52.1579,112.239,99.5635,45.5643,0.0364194,1.26288,19.2881,165.079,7.01566,0.0,0.0
110,27.25,54.444,58.0075,117.914,99.6441,52.1505,0.0331314,1.10857,19.4332,164.658,5.81119,0.0,0.0
121,30,56.9158,61.4411,128.704,99.7231,60.5371,0.0257156,0.851735,19.7774,164.378,4.4799,0.0,0.0
132,32.75,57.2984,62.104,135.004,99.8372,74.3405,0.0176851,0.594832,20.2126,164.198,2.64665,0.0,0.0
143,35.5,57.1048,62.0306,135.253,99.9259,82.6924,0.0125651,0.424165,20.4563,164.088,1.69901,0.0,0.0
154,38.25,56.7354,61.5064,138.799,100.016,84.8534,0.00896193,0.335351,20.6091,164.008,1.47554,0.0,0.0
165,41,56.1991,60.8594,136.654,100.108,85.0003,0.00703131,0.277843,20.6915,163.918,1.46834,0.0,0.0
176,43.75,55.7167,60.0238,139.317,100.154,87.3559,0.00589933,0.243925,20.744,163.838,1.2271,0.0,0.0
187,46.5,54.8585,59.0892,142.247,100.195,90.5187,0.00540904,0.219694,20.7883,163.788,0.911545,0.0,0.0
198,49.25,54.1674,58.1862,141.152,100.202,91.3935,0.00524958,0.20104,20.8156,163.707,0.825801,0.0,0.0
209,52,53.0058,57.5905,143.354,100.154,93.7572,0.00514982,0.187688,20.8342,163.667,0.59233,0.0,0.0
220,54.75,52.8286,57.0075,143.579,100.054,94.1161,0.00530351,0.177048,20.8537,163.627,0.549078,0.0,0.0
231,57.5,50.8162,54.944,144.907,99.9073,95.092,0.00560862,0.169688,20.8654,163.547,0.443353,0.0,0.0
242,60.25,50.9303,54.6759,140.953,99.7147,96.5323,0.00565712,0.164175,20.8737,163.507,0.291115,0.0,0.0
253,63,50.0552,54.6782,140.292,99.468,95.7599,0.00562933,0.159728,20.8828,163.447,0.340989,0.0,0.0
264,65.75,48.604,53.0026,143.621,99.2049,95.1885,0.00561793,0.15582,20.8895,163.427,0.370922,0.0,0.0
275,68.5,48.3577,52.4486,139.987,98.9296,95.3709,0.00538235,0.152625,20.8963,163.367,0.328801,0.0,0.0
286,71.25,47.4924,51.425,142.678,98.658,95.2398,0.00528713,0.150449,20.8988,163.347,0.316479,0.0,0.0
297,74,47.4659,51.2639,144.897,98.4161,95.1496,0.00553782,0.148979,20.9006,163.297,0.302953,0.0,0.0
308,76.75,46.8352,50.6939,148.573,98.2529,94.715,0.00579036,0.14745,20.9035,163.267,0.329149,0.0,0.0
319,79.5,46.0036,50.0285,141.709,98.1489,94.9113,0.0058651,0.146059,20.9064,163.227,0.301056,0.0,0.0
330,82.25,45.7662,49.8093,141.094,98.1566,94.4504,0.005881,0.144532,20.9084,163.217,0.345445,0.0,0.0
341,85,44.8738,48.9905,138.736,98.2586,95.3193,0.00598066,0.142185,20.911,163.167,0.272576,0.0,0.0
352,87.75,43.8698,47.9967,145.566,98.4464,95.1699,0.00612911,0.140663,20.9145,163.127,0.303793,0.0,0.0
363,90.5,44.3266,47.7908,139.898,98.6729,95.4247,0.00619967,0.138787,20.9185,163.117,0.300424,0.0,0.0
374,93.25,43.7406,47.1545,143.543,98.9215,95.6706,0.00619606,0.136797,20.9209,163.087,0.299915,0.0,0.0
385,96,42.8261,46.3329,142.767,99.1589,95.71,0.00631205,0.134978,20.9228,163.047,0.317735,0.0,0.0
396,98.75,43.0253,45.7877,143.066,99.3697,96.6427,0.00646461,0.132832,20.9278,163.027,0.249745,0.0,0.0
407,101.5,42.0433,45.8664,146.335,99.4962,96.1116,0.00655714,0.131325,20.9304,162.967,0.31063,0.0,0.0
418,104.25,41.3934,44.7382,144.992,99.5253,95.8902,0.0064809,0.129932,20.9328,162.977,0.333942,0.0,0.0
429,107,41.5793,45.0835,143.945,99.4833,95.9139,0.00636199,0.128333,20.9351,162.927,0.327943,0.0,0.0
440,109.75,41.2433,44.3168,146.567,99.4052,95.5711,0.00641621,0.126934,20.9378,162.887,0.353023,0.0,0.0
451,112.5,41.0515,44.118,143.759,99.3205,96.3152,0.00652405,0.12559,20.9399,162.827,0.275776,0.0,0.0
462,115.25,40.5478,43.8309,147.462,99.2198,96.3761,0.0062769,0.123938,20.9417,162.827,0.260989,0.0,0.0
473,118,40.4105,43.443,144.175,99.1746,96.1637,0.00599603,0.121362,20.9441,162.787,0.276713,0.0,0.0
484,120.75,39.7841,43.2859,145.106,99.6228,96.5551,0.0058916,0.1196,20.9474,162.757,0.280716,0.0,0.0
495,123.5,39.4591,43.0866,145.847,99.8972,95.9876,0.00585768,0.118205,20.9497,162.737,0.35832,0.0,0.0
506,126.25,39.6634,42.4287,141.916,99.9988,97.2247,0.00582654,0.115861,20.9527,162.737,0.252507,0.0,0.0
517,129,39.223,42.3995,141.849,99.9295,96.4502,0.00576832,0.112956,20.9568,162.677,0.318066,0.0,0.0
528,131.75,39.2781,42.1602,144.082,99.6772,96.9966,0.0056042,0.110079,20.9612,162.687,0.244678,0.0,0.0
539,134.5,38.8985,41.7803,143.127,99.4539,96.1772,0.00548051,0.108017,20.9637,162.627,0.300689,0.0,0.0
550,137.25,38.6918,41.3123,143.087,99.6159,96.1615,0.00555055,0.105646,20.9674,162.627,0.31676,0.0,0.0
561,140,38.3218,41.3522,144.725,99.8364,96.3791,0.00551417,0.102253,20.9715,162.617,0.316319,0.0,0.0
572,142.75,38.0421,40.9482,141.05,100.042,96.6135,0.00514493,0.0986642,20.9758,162.627,0.312971,0.0,0.0
583,145.5,37.8787,40.4401,147.154,100.178,96.942,0.00477138,0.0955292,20.9785,162.606,0.294689,0.0,0.0
594,148.25,37.3856,40.5405,145.129,100.213,96.6169,0.00453109,0.093315,20.9813,162.566,0.327974,0.0,0.0
605,151,37.6927,40.1025,141.849,100.131,96.7439,0.00435705,0.090607,20.9853,162.556,0.308892,0.0,0.0
616,153.75,36.825,39.4473,149.43,99.9247,96.6702,0.00416735,0.0874763,20.9891,162.556,0.297175,0.0,0.0
627,156.5,36.2407,39.2709,147.205,99.5813,95.9508,0.00403596,0.0853692,20.9915,162.516,0.333329,0.0,0.0
638,159.25,36.6958,38.8788,144.606,99.1646,95.2393,0.00386441,0.0837159,20.9943,162.506,0.362487,0.0,0.0
649,162,36.1508,39.0143,143.151,98.7466,94.8309,0.0037122,0.082183,20.9963,162.496,0.363151,0.0,0.0
660,164.75,36.7322,38.4071,149.046,98.4125,95.3913,0.00341368,0.0806213,20.9987,162.466,0.279855,0.0,0.0
671,167.5,35.5069,38.0025,144.003,98.2191,94.723,0.00320188,0.0789033,21.0008,162.476,0.325293,0.0,0.0
682,170.25,34.9792,37.3941,143.809,98.1997,94.4115,0.00300046,0.0773208,21.0023,162.436,0.35309,0.0,0.0
693,173,35.7062,37.8568,146.289,98.3299,94.0937,0.00288271,0.0763837,21.0053,162.426,0.395245,0.0,0.0
704,175.75,35.5668,37.9028,140.821,98.5757,94.6422,0.00292944,0.075695,21.0059,162.466,0.36549,0.0,0.0
715,178.5,36.1956,37.506,145.938,98.9219,95.4814,0.00286137,0.0752534,21.0055,162.436,0.317717,0.0,0.0
726,181.25,35.4207,37.7152,144.8125,99.2222,95.5313,0.00279839,0.0747906,21.0059,162.426,0.340224,0.0,0.0
737,184,35.4391,37.6039,145.012,99.437,96.3549,0.00287412,0.0743938,21.0072,162.406,0.282589,0.0,0.0
748,186.75,35.2614,37.0028,143.707,99.5253,95.8873,0.00292654,0.0737762,21.008,162.356,0.33422,0.0,0.0
759,189.5,35.1958,37.5459,145.319,99.458,95.6067,0.00288447,0.0733896,21.0087,162.386,0.35445,0.0,0.0
770,192.25,34.8916,37.384,144.174,99.3467,95.6355,0.00276688,0.0729614,21.0096,162.386,0.341705,0.0,0.0
781,195,35.1638,36.7514,141.857,99.2081,95.0667,0.00276292,0.0726679,21.0098,162.376,0.382713,0.0,0.0
792,197.75,34.9387,36.794,146.699,99.113,95.2596,0.00287355,0.0723854,21.0099,162.356,0.355903,0.0,0.0
803,200.5,34.604,36.5717,145.825,99.5313,96.1704,0.00287375,0.0719832,21.01,162.356,0.308301,0.0,0.0
814,203.25,34.8294,36.5744,140.483,99.8815,95.9609,0.00272922,0.0717261,21.01,162.336,0.359401,0.0,0.0
825,206,34.2481,36.0991,148.924,99.9537,96.2754,0.00250949,0.0715916,21.01,162.366,0.336517,0.0,0.0
836,208.75,34.2646,36.8063,144.758,99.7598,96.1632,0.00250641,0.0715865,21.01,162.376,0.329556,0.0,0.0
847,211.5,34.8284,36.4182,145.183,99.4217,95.9427,0.00266156,0.0714435,21.0095,162.336,0.319686,0.0,0.0
858,214.25,34.3572,36.2822,143.206,99.6482,96.4125,0.00255577,0.0712585,21.0083,162.316,0.29627,0.0,0.0
869,217,34.524,36.277,144.077,99.9238,95.8818,0.00239447,0.0711223,21.0083,162.326,0.370607,0.0,0.0
880,219.75,34.716,35.8788,143.708,100.158,96.4823,0.00219214,0.0711043,21.0086,162.306,0.335574,0.0,0.0
891,222.5,34.4907,36.2616,143.972,100.207,96.9255,0.00223427,0.0707498,21.009,162.286,0.298853,0.0,0.0
902,225.25,33.7741,36.4603,140.73,100.065,96.1264,0.00236854,0.0707749,21.0091,162.296,0.360399,0.0,0.0
913,228,34.3155,36.2927,144.258,99.7457,95.7603,0.00229066,0.0706829,21.0092,162.286,0.36597,0.0,0.0
924,230.75,34.1777,36.1746,142.415,99.2959,95.2465,0.00221396,0.0706913,21.0098,162.296,0.373693,0.0,0.0
935,233.5,33.3912,35.0882,144.257,98.8043,95.2347,0.00207729,0.0706877,21.0094,162.276,0.330256,0.0,0.0
946,236.25,34.277,36.2529,146.534,98.3968,94.607,0.00203479,0.0705581,21.0091,162.256,0.352513,0.0,0.0
957,239,33.936,35.7795,144.536,98.1981,94.3006,0.00224768,0.0704695,21.009,162.266,0.363488,0.0,0.0
968,241.75,33.5758,34.8318,143.888,98.2662,94.3721,0.00256651,0.0705015,21.009,162.226,0.362907,0.0,0.0
979,244.5,34.2792,35.698,144.752,98.5302,94.1174,0.00268971,0.070599,21.009,162.206,0.411249,0.0,0.0
990,247.25,33.8822,35.4719,144.139,98.8998,95.2402,0.0025726,0.0705175,21.0102,162.236,0.338411,0.0,0.0
1001,250,33.8468,35.6412,144.042,99.2492,95.5424,0.00241866,0.0703724,21.0096,162.226,0.341632,0.0,0.0
1012,252.75,34.0222,35.9463,142.968,99.4805,95.8987,0.00235812,0.0704145,21.0102,162.196,0.329115,0.0,0.0
1023,255.5,33.9191,35.4997,138.957,99.5382,95.8991,0.00238708,0.0702219,21.0097,162.166,0.334273,0.0,0.0
1034,258.25,34.1263,35.3017,142.47,99.3979,95.7942,0.00245195,0.0701509,21.0093,162.166,0.331446,0.0,0.0
1045,261,34.017,35.5422,148.202,99.2242,95.3875,,0.0699743,,162.176,0.353935,0.0,0.0
1056,263.75,34.386,35.8165,149.145,99.0908,95.0006,,,,162.186,0.378332,0.0,0.0
1067,266.5,34.215,35.447,140.509,99.4499,95.6008,,,,162.156,0.35428,0.0,0.0
1078,269.25,33.7545,35.6595,141.535,99.863,96.0591,,,,162.136,0.348555,0.0,0.0
1087,271.5,33.9158,35.628,143.751,99.9331,95.8606,,,,162.136,0.37342,0.0,0.0