File: 01_Data/Roof_Felt/Cone/Roof_Felt_Underlayment_Cone_HF25Scan_220328_R1.csv
Names,Time,Stack TC,Smoke TC,Exh Press,Smoke Comp,Smoke Meas,CO Meter,CO2 Meter,O2 Meter,Sample Mass,Ext Coeff,Start Test,Flame Verif
Chan Gain,,500,500,1,1,1,1,1,1,1,1,1.0,1.0
Offset,,0,0,0.134123,0,0,0,0,0,0,0,0.0,0.0
Gain,,1,1,25.011,13.5775,14.0999,1,1,1,1.0009,1.03554,1.0,1.0
Units,sec,C,C,Pa,%,%,%,%,%,g,/m,,
Baseline,,17.3675,17.627,166.983,101.847,95.1097,0.000861312,0.0456891,21.0326,-834.37,0.621726,,
10,2.25,16.4551,16.0247,166.099,101.814,95.2689,0.000348766,0.0542694,21.0267,188.079,0.603537,0.0,0.0
20,4.75,16.5522,16.6935,168.787,101.774,94.9208,0.000295182,0.051342,21.0294,187.999,0.63324,0.0,0.0
30,7.25,15.9385,16.2517,169.856,101.732,94.855,0.0003545,0.0496253,21.0309,188.029,0.635805,0.0,0.0
40,9.75,16.9094,17.1465,167.809,101.688,94.9341,0.000409048,0.0494307,21.0309,187.999,0.624266,0.0,0.0
50,12.25,16.8556,16.8009,169.036,101.626,95.0129,0.000359477,0.0511037,21.0278,187.959,0.611256,0.0,0.0
60,14.75,16.6583,17.2313,170.597,101.584,95.1265,0.000403025,0.0538708,21.0251,187.919,0.596623,0.0,0.0
70,17.25,16.4999,16.8586,165.319,101.502,94.5645,0.000436206,0.0573204,21.022,187.919,0.643069,0.0,0.0
80,19.75,16.4805,16.7784,167.954,101.409,94.3115,0.000562329,0.0601972,21.0191,187.919,0.659132,0.0,0.0
90,22.25,16.6047,16.971,168.546,101.301,94.2104,0.000720852,0.0614079,21.0176,187.909,0.659147,0.0,0.0
100,24.75,16.7914,17.4357,165.523,101.202,93.9836,0.000803928,0.0611385,21.0173,187.889,0.672191,0.0,0.0
110,27.25,16.6672,17.1247,165.577,101.1,93.8055,0.000785521,0.0596005,21.0177,187.889,0.680234,0.0,0.0
120,29.75,16.6843,17.2253,166.047,100.97,92.7883,0.000919113,0.0598797,21.0127,187.869,0.767614,0.0,0.0
130,32.25,16.8188,16.568,160.732,100.889,87.3424,0.00242008,0.0816115,20.9512,187.818,1.30972,0.0,1.0
140,34.75,17.7475,17.3874,150.274,100.763,77.0322,0.00508289,0.157506,20.803,187.588,2.43944,0.0,1.0
150,37.25,19.1269,19.1784,147.153,100.661,72.024,0.0101304,0.263197,20.6248,187.248,3.04089,0.0,0.0
160,39.75,21.5696,21.9721,134.177,100.567,68.0605,0.0146679,0.412945,20.3941,186.808,3.54654,0.0,0.0
170,42.25,24.976,24.9866,136.554,100.505,70.1135,0.0176973,0.545002,20.2263,186.347,3.27098,0.0,0.0
180,44.75,27.9485,29.0085,128.278,100.447,68.0666,0.0196833,0.639065,20.1289,185.907,3.53488,0.0,0.0
190,47.25,30.77,31.8767,134.536,100.409,68.9504,0.0207875,0.676128,20.1055,185.466,3.4142,0.0,0.0
200,49.75,32.8149,34.5968,134.312,100.391,64.3733,0.0202358,0.660223,20.1465,185.146,4.03656,0.0,0.0
210,52.25,34.7353,36.7676,144.568,100.364,65.459,0.0181196,0.602278,20.2464,184.906,3.88217,0.0,0.0
220,54.75,36.4864,37.8869,144.816,100.349,65.2602,0.0161425,0.526689,20.3481,184.686,3.90842,0.0,0.0
230,57.25,36.601,39.2507,149.371,100.342,64.2077,0.0143559,0.463304,20.4198,184.486,4.05551,0.0,0.0
240,59.75,37.5934,39.7845,147.059,100.326,69.5472,0.012305,0.410683,20.4998,184.315,3.32845,0.0,0.0
250,62.25,38.4732,40.2652,155.919,100.325,74.8828,0.0102391,0.349264,20.5947,184.195,2.65692,0.0,0.0
260,64.75,37.9985,40.1289,160.135,100.328,80.6221,0.00817199,0.303142,20.6739,184.105,1.98637,0.0,0.0
270,67.25,37.7903,39.6147,159.365,100.319,84.1497,0.00631011,0.259409,20.7386,184.005,1.59651,0.0,0.0
280,69.75,36.889,39.1748,157.842,100.327,86.8614,0.00490833,0.22569,20.7783,183.965,1.30916,0.0,0.0
290,72.25,37.0685,38.735,156.991,100.317,89.2121,0.00399091,0.199143,20.8172,183.875,1.0657,0.0,0.0
300,74.75,36.5773,38.6332,160.005,100.345,91.2487,0.00365113,0.174825,20.86,183.885,0.863175,0.0,0.0
310,77.25,35.3895,37.5655,163.217,100.341,91.7908,0.00371306,0.154764,20.886,183.835,0.809024,0.0,0.0
320,79.75,34.9083,36.5913,164.407,100.354,92.1196,0.0041054,0.139616,20.9065,183.805,0.777713,0.0,0.0
330,82.25,34.2295,36.2345,162.962,100.366,92.4152,0.004715,0.127558,20.9223,183.765,0.749734,0.0,0.0
340,84.75,33.5902,35.4233,162.311,100.375,92.5103,0.00535831,0.118639,20.9348,183.745,0.741141,0.0,0.0
350,87.25,32.9752,34.818,161.788,100.392,92.9548,0.0060461,0.11144,20.9443,183.715,0.699176,0.0,0.0
360,89.75,32.2916,34.5783,162.029,100.406,93.1506,0.00668448,0.106091,20.9507,183.685,0.681339,0.0,0.0
370,92.25,31.3431,33.4042,159.26,100.436,93.6613,0.00702225,0.101959,20.9547,183.655,0.634365,0.0,0.0
380,94.75,30.7491,33.057,160.34,100.476,93.5374,0.00724461,0.0987808,20.9617,183.625,0.650026,0.0,0.0
390,97.25,30.3593,32.9034,168.078,100.492,93.4647,0.00745596,0.0946152,20.9682,183.585,0.658478,0.0,0.0
400,99.75,29.7824,31.9155,168.912,100.508,93.5537,0.0076374,0.0913519,20.9722,183.565,0.651286,0.0,0.0
410,102.25,29.2901,31.5663,165.296,100.523,93.7022,0.00781894,0.088889,20.9766,183.555,0.638269,0.0,0.0
420,104.75,28.7495,30.8459,162.474,100.527,93.4965,0.00806642,0.0866543,20.9792,183.525,0.658604,0.0,0.0
430,107.25,28.2011,30.1465,163.88,100.534,93.6024,0.00809707,0.0852762,20.9813,183.455,0.648924,0.0,0.0
440,109.75,27.8724,29.7018,165.716,100.515,93.7861,0.00810166,0.0842708,20.9824,183.475,0.629426,0.0,0.0
450,112.25,27.5277,29.3095,164.219,100.523,93.5133,0.00820642,0.0833836,20.9828,183.505,0.656562,0.0,0.0
460,114.75,26.6965,28.2504,170.371,100.494,93.7784,0.00824762,0.0826627,20.9827,183.485,0.62823,0.0,0.0
470,117.25,26.2056,27.7693,165.209,100.493,93.5615,0.00815264,0.0819395,20.9826,183.455,0.649186,0.0,0.0
480,119.75,24.4459,27.5444,163.816,100.475,94.0292,0.00808244,0.0811569,20.9835,183.455,0.60224,0.0,0.0
490,122.25,25.3818,26.6322,165.431,100.463,93.5292,0.00817167,0.0806229,20.9856,183.415,0.649585,0.0,0.0
500,124.75,24.9196,26.3735,166.209,100.441,93.7061,0.00827385,0.0803174,20.9866,183.365,0.630477,0.0,0.0
510,127.25,24.3548,26.2044,168.537,100.434,93.537,0.00816955,0.0801375,20.9882,183.375,0.64621,0.0,0.0
520,129.75,24.277,25.6203,171.236,100.419,93.4789,0.00791221,0.0799586,20.989,183.344,0.65054,0.0,0.0
530,132.25,24.0398,25.3654,164.772,100.403,93.4096,0.00772686,0.0800581,20.9891,183.334,0.655813,0.0,0.0
540,134.75,23.8438,24.6948,165.79,100.392,93.5322,0.00762448,0.0800724,20.9888,183.314,0.642883,0.0,0.0
550,137.25,23.6904,24.8855,164.622,100.374,93.6605,0.0075964,0.0799718,20.9886,183.304,0.628826,0.0,0.0
560,139.75,23.0011,24.7627,167.648,100.371,93.5576,0.0076615,0.0799266,20.9884,183.264,0.638543,0.0,0.0
570,142.25,22.794,24.7999,164.808,100.348,93.4509,0.00751724,0.0795917,20.9889,183.274,0.64681,0.0,0.0
580,144.75,21.6532,23.8997,165.592,100.351,93.392,0.0072405,0.078877,20.9905,183.254,0.652804,0.0,0.0
590,147.25,22.637,23.6701,163.948,100.332,93.4122,0.00701602,0.0781083,20.9924,183.214,0.649113,0.0,0.0
600,149.75,22.5674,23.7184,166.563,100.335,93.6846,0.00685184,0.0769366,20.9933,183.204,0.622965,0.0,0.0
610,152.25,22.2464,23.1575,166.407,100.318,93.6953,0.0067265,0.0760039,20.9936,183.214,0.620346,0.0,0.0
620,154.75,22.0855,23.4196,166.125,100.323,93.3085,0.00661323,0.0750157,20.9947,183.194,0.658452,0.0,0.0
630,157.25,22.0886,22.9576,169.69,100.313,93.5172,0.00657942,0.0738428,20.9956,183.164,0.637257,0.0,0.0
640,159.75,22.0993,22.7854,166.719,100.32,93.7474,0.00653635,0.0730084,20.996,183.174,0.615487,0.0,0.0
650,162.25,21.4628,22.4578,167.488,100.326,93.6708,0.00642564,0.0717309,20.9987,183.154,0.623474,0.0,0.0
660,164.75,21.1889,22.8221,162.652,100.341,93.3851,0.00630225,0.0706936,21.0012,183.154,0.652612,0.0,0.0
670,167.25,21.0125,21.6721,166.417,100.366,93.4612,0.00603832,0.070023,21.0022,183.104,0.647419,0.0,0.0
680,169.75,20.8852,21.9773,164.02,100.398,93.4195,0.00573976,0.0690654,21.0025,183.094,0.654401,0.0,0.0
690,172.25,20.6791,21.9047,163.837,100.434,93.5611,0.00549393,0.0678989,21.0032,183.074,0.643869,0.0,0.0
700,174.75,20.6183,21.31,166.88,100.482,93.657,0.00527102,0.0669458,21.0046,183.074,0.638905,0.0,0.0
710,177.25,20.2179,21.8053,163.484,100.556,93.685,0.00517133,0.0660957,21.0054,183.044,0.642932,0.0,0.0
720,179.75,19.8799,20.6139,165.054,100.632,93.8136,0.00520585,0.0655692,21.0057,183.024,0.637351,0.0,0.0
730,182.25,20.6485,21.4672,164.745,100.755,93.7973,0.00508604,0.065358,21.0058,183.044,0.649961,0.0,0.0
740,184.75,20.5292,21.5312,166.419,100.873,94.2289,0.00488365,0.0648319,21.007,182.994,0.618901,0.0,0.0
750,187.25,20.0362,20.7403,163.661,100.995,94.6777,0.00490595,0.0642094,21.0083,183.064,0.586704,0.0,0.0
760,189.75,19.8295,20.7685,163.399,101.135,94.2547,0.00498255,0.0637121,21.0096,183.044,0.640038,0.0,0.0
770,192.25,20.3673,20.555,167.813,101.285,94.3963,0.00476878,0.0628338,21.0099,183.024,0.639866,0.0,0.0
780,194.75,19.5817,21.0052,163.91,101.411,94.6398,0.00437241,0.0620378,21.0093,183.004,0.627751,0.0,0.0
790,197.25,19.9666,21.1126,162.953,101.559,94.5856,0.00396499,0.0611244,21.0106,183.014,0.646122,0.0,0.0
800,199.75,19.814,20.5274,164.063,101.725,95.077,0.00372612,0.0602019,21.0128,183.014,0.613938,0.0,0.0
810,202.25,19.5151,20.215,165.348,101.87,95.1381,0.00364749,0.0592711,21.0144,182.974,0.621006,0.0,0.0
820,204.75,19.8074,20.5707,166.369,102.011,95.1377,0.00353197,0.0583419,21.0168,183.004,0.633675,0.0,0.0
830,207.25,18.6369,19.4823,167.033,102.137,95.1966,0.00347645,0.0572718,21.0188,182.984,0.639184,0.0,0.0
840,209.75,19.2452,20.1466,167.136,102.243,95.2745,0.00340003,0.0564736,21.0203,182.964,0.641258,0.0,0.0
850,212.25,19.6017,20.0789,163.497,102.331,95.2995,0.00324106,0.0553715,21.0211,182.954,0.64668,0.0,0.0
860,214.75,19.3008,20.3764,158.048,102.393,95.3808,0.00306395,0.0544246,21.0226,182.944,0.644373,0.0,0.0
870,217.25,19.2434,19.5996,165.886,102.439,95.512,0.00286237,0.0536476,21.0231,182.954,0.635963,0.0,0.0
880,219.75,18.6876,19.5858,164.61,102.479,95.5288,0.00268947,0.0529844,21.0247,182.934,0.637929,0.0,0.0
890,222.25,19.7055,19.8631,165.145,102.495,95.8433,,0.0522788,,182.974,0.609501,0.0,0.0
900,224.75,19.577,20.3359,163.627,102.494,95.6097,,,,182.994,0.6316,0.0,0.0
910,227.25,19.4128,19.5416,167.756,102.464,95.5649,,,,182.994,0.633172,0.0,0.0
920,229.75,19.5337,19.8792,167.492,102.411,95.5727,,,,182.924,0.627769,0.0,0.0
930,232.25,18.672,19.4436,166.311,102.33,95.3141,,,,182.914,0.645212,0.0,0.0
931,232.5,18.6069,19.5119,166.659,102.327,95.6777,,,,182.904,0.610295,0.0,0.0