File: 01_Data/Roof_Felt/Cone/Roof_Felt_Underlayment_Cone_HF25Scan_220328_R2.csv
Names,Time,Stack TC,Smoke TC,Exh Press,Smoke Comp,Smoke Meas,CO Meter,CO2 Meter,O2 Meter,Sample Mass,Ext Coeff,Start Test,Flame Verif
Chan Gain,,500,500,1,1,1,1,1,1,1,1,1.0,1.0
Offset,,0,0,0.134123,0,0,0,0,0,0,0,0.0,0.0
Gain,,1,1,25.011,13.5775,14.0999,1,1,1,1.0009,1.03554,1.0,1.0
Units,sec,C,C,Pa,%,%,%,%,%,g,/m,,
Baseline,,17.6226,17.7038,166.722,102.008,95.2096,0.00030744,0.0441688,21.039,-834.399,0.626504,,
11,2.5,16.1827,16.806,166.779,101.604,95.3154,0.000484524,0.0511218,21.0326,171.023,0.580381,0.0,0.0
22,5.25,15.4393,16.6027,165.49,101.613,95.1144,0.000561558,0.0512032,21.0312,170.923,0.600367,0.0,0.0
33,8,16.8121,17.0766,163.686,101.641,95.4238,0.000601695,0.0519055,21.0293,170.913,0.573312,0.0,0.0
44,10.75,16.5293,17.0232,164.229,101.644,95.2754,0.000504073,0.0519265,21.0293,170.933,0.587752,0.0,0.0
55,13.5,16.5536,17.4669,165.925,101.64,95.1467,0.000373522,0.0515817,21.0303,170.883,0.599693,0.0,0.0
66,16.25,16.7804,17.2226,167.55,101.664,95.1187,0.00035553,0.0524473,21.0294,170.853,0.604473,0.0,0.0
77,19,16.8125,16.9387,169.099,101.671,94.8683,0.000490742,0.0535173,21.0273,170.843,0.629088,0.0,0.0
88,21.75,16.8801,16.9378,168.228,101.665,94.7973,0.000656142,0.0550632,21.0249,170.813,0.635296,0.0,0.0
99,24.5,16.6818,16.8521,170.25,101.677,94.8016,0.000758476,0.0560314,21.0249,170.823,0.636032,0.0,0.0
110,27.25,17.1493,17.21,169.562,101.7,94.7547,0.000838061,0.0554109,21.0265,170.793,0.642525,0.0,0.0
121,30,16.8132,17.2023,165.999,101.707,94.8408,0.00100834,0.0540434,21.0277,170.763,0.634945,0.0,0.0
132,32.75,16.7114,16.5548,171.793,101.717,94.4729,0.00128131,0.0534944,21.0255,170.703,0.671102,0.0,0.0
143,35.5,17.1479,17.4898,159.183,101.727,87.5064,0.00237536,0.080097,20.9501,170.533,1.36784,0.0,1.0
154,38.25,17.8292,18.2589,152.621,101.746,82.996,0.00405775,0.160045,20.8233,170.373,1.8502,0.0,1.0
165,41,18.8984,19.5822,148.696,101.758,78.1729,0.00630416,0.266847,20.6728,170.023,2.39512,0.0,0.0
176,43.75,21.0785,21.8487,143.285,101.766,79.422,0.00816006,0.377704,20.5149,169.662,2.25182,0.0,0.0
187,46.5,23.4436,24.5426,138.084,101.774,77.1729,0.00991985,0.477126,20.3878,169.212,2.51351,0.0,0.0
198,49.25,26.1899,26.8853,135.025,101.777,75.6526,0.0120745,0.561063,20.2884,168.781,2.69453,0.0,0.0
209,52,30.8275,30.1057,139.802,101.778,67.8346,0.0151723,0.60294,20.2421,168.351,3.68541,0.0,0.0
220,54.75,32.3344,33.6665,139.15,101.796,61.9133,0.0172592,0.594526,20.239,167.991,4.51675,0.0,0.0
231,57.5,33.4965,34.9252,149.337,101.81,66.7193,0.0168758,0.535038,20.3291,167.72,3.83893,0.0,0.0
242,60.25,35.2799,37.7627,147.188,101.82,60.8643,0.0158292,0.473192,20.4022,167.45,4.67413,0.0,0.0
253,63,34.9796,37.4158,149.595,101.843,66.3191,0.01393,0.419245,20.4794,167.22,3.89649,0.0,0.0
264,65.75,37.0556,38.5014,150.849,101.851,72.1307,0.0117129,0.369367,20.5598,167.02,3.13412,0.0,0.0
275,68.5,37.017,38.7207,156.959,101.844,77.9741,0.00961075,0.322822,20.6347,166.87,2.42594,0.0,0.0
286,71.25,36.765,38.8428,154.762,101.863,82.629,0.00797828,0.28527,20.6918,166.68,1.90093,0.0,0.0
297,74,36.7839,39.0758,155.332,101.871,82.5614,0.00690444,0.260019,20.7237,166.589,1.90906,0.0,0.0
308,76.75,36.9865,38.8079,157.863,101.875,85.2581,0.0058185,0.242678,20.7495,166.469,1.61744,0.0,0.0
319,79.5,36.3013,38.2218,156.488,101.913,85.7766,0.00490619,0.225119,20.777,166.479,1.56576,0.0,0.0
330,82.25,36.1077,37.8646,156.024,101.907,86.1738,0.00465457,0.213359,20.7895,166.299,1.52328,0.0,0.0
341,85,35.0721,37.1814,161.052,101.919,87.456,0.00474874,0.204334,20.8022,166.199,1.39018,0.0,0.0
352,87.75,35.6458,37.8138,156.299,101.915,87.8149,0.00479623,0.193676,20.8184,166.079,1.35262,0.0,0.0
363,90.5,35.4759,37.2625,161.598,101.927,90.0279,0.00498215,0.181263,20.8384,166.019,1.12765,0.0,0.0
374,93.25,34.5323,36.789,162.991,101.917,90.2211,0.00543631,0.167058,20.863,165.999,1.10729,0.0,0.0
385,96,33.3888,35.7359,160.201,101.915,92.7297,0.00589855,0.151233,20.8838,165.929,0.857978,0.0,0.0
396,98.75,33.623,35.9127,160.855,101.895,93.5697,0.0063858,0.137694,20.9038,165.859,0.774259,0.0,0.0
407,101.5,33.3611,34.9417,159.524,101.873,93.5292,0.00701224,0.127187,20.9194,165.859,0.776266,0.0,0.0
418,104.25,32.014,34.6598,161.91,101.85,93.4165,0.0074516,0.12184,20.9273,165.819,0.785153,0.0,0.0
429,107,31.8295,34.1875,160.679,101.822,94.1428,0.00744629,0.118731,20.9333,165.769,0.712247,0.0,0.0
440,109.75,31.2787,33.1798,160.421,101.803,95.1815,0.00744738,0.116307,20.9385,165.739,0.610871,0.0,0.0
451,112.5,30.7383,32.9022,160.427,101.766,94.3649,0.00792525,0.115445,20.9386,165.699,0.685858,0.0,0.0
462,115.25,30.4893,32.0035,166.503,101.718,94.7366,0.00826324,0.116094,20.937,165.669,0.64585,0.0,0.0
473,118,29.543,31.3389,161.078,101.678,95.1738,0.00839992,0.116573,20.937,165.629,0.600511,0.0,0.0
484,120.75,28.5435,30.7252,166.383,101.618,95.04,0.00873091,0.115657,20.9401,165.619,0.607923,0.0,0.0
495,123.5,28.9018,30.6018,161.675,101.559,94.6385,0.00908382,0.113459,20.9428,165.549,0.641115,0.0,0.0
506,126.25,27.9846,29.9724,164.945,101.49,94.6626,0.00929048,0.11165,20.9444,165.529,0.632574,0.0,0.0
517,129,27.9155,29.8557,162.224,101.422,94.5645,0.00944971,0.110735,20.945,165.488,0.635909,0.0,0.0
528,131.75,27.2629,29.362,162.049,101.347,94.6682,0.00983952,0.110469,20.9462,165.478,0.619233,0.0,0.0
539,134.5,27.2641,28.5607,162.933,101.261,94.6897,0.0103777,0.109913,20.9471,165.438,0.609515,0.0,0.0
550,137.25,25.912,27.7422,159.904,101.178,94.3954,0.0108996,0.109038,20.9499,165.428,0.63032,0.0,0.0
561,140,25.7204,27.5419,168.442,101.092,94.6798,0.0111667,0.10788,20.9514,165.388,0.595288,0.0,0.0
572,142.75,25.2035,27.503,165.96,100.994,94.293,0.0112987,0.107488,20.9523,165.368,0.623612,0.0,0.0
583,145.5,24.815,27.049,168.479,100.923,94.2263,0.0112423,0.107227,20.9531,165.318,0.623702,0.0,0.0
594,148.25,24.5262,26.178,165.681,100.823,94.2392,0.0110168,0.10633,20.9542,165.298,0.613427,0.0,0.0
605,151,24.502,26.5984,168.041,100.748,94.4298,0.01088,0.105329,20.9553,165.258,0.588275,0.0,0.0
616,153.75,24.002,25.2582,165.577,100.665,94.8803,0.0110972,0.104635,20.9556,165.228,0.537602,0.0,0.0
627,156.5,24.466,25.6375,162.431,100.592,94.2538,0.0110369,0.103832,20.9558,165.198,0.591162,0.0,0.0
638,159.25,22.8474,23.9776,163.04,100.533,93.731,0.0107192,0.102506,20.9584,165.168,0.636335,0.0,0.0
649,162,23.5185,25.0346,164.401,100.481,94.0572,0.0104654,0.101274,20.9598,165.128,0.6001,0.0,0.0
660,164.75,23.4251,25.2702,165.328,100.452,93.9875,0.010133,0.100413,20.9618,165.138,0.604212,0.0,0.0
671,167.5,22.2103,23.3381,164.514,100.393,93.9118,0.00956433,0.0993073,20.9623,165.118,0.606213,0.0,0.0
682,170.25,22.7912,24.4143,161.803,100.354,93.66,0.00932876,0.0974464,20.9648,165.088,0.62703,0.0,0.0
693,173,22.5866,23.8717,164.762,100.329,93.805,0.00936997,0.0957864,20.9668,165.068,0.610727,0.0,0.0
704,175.75,23.3282,23.5879,167.611,100.307,93.8154,0.00917467,0.0934461,20.9707,165.038,0.607738,0.0,0.0
715,178.5,22.3731,23.3913,167.249,100.284,93.7418,0.0087727,0.0905946,20.9749,165.008,0.61284,0.0,0.0
726,181.25,21.8308,23.384,165.264,100.289,93.6381,0.0081864,0.0873336,20.9785,164.988,0.623269,0.0,0.0
737,184,21.9925,22.6756,167.231,100.283,93.7672,0.00755596,0.0838325,20.9826,164.988,0.610229,0.0,0.0
748,186.75,21.7638,22.6601,165.215,100.291,94.0817,0.00686992,0.0801966,20.988,164.988,0.580598,0.0,0.0
759,189.5,21.5916,22.6953,164.306,100.29,93.9741,0.00628504,0.0767748,20.9918,164.948,0.590839,0.0,0.0
770,192.25,21.3538,22.9259,167.499,100.294,93.8808,0.00579617,0.0739715,20.9973,164.948,0.600207,0.0,0.0
781,195,21.5157,22.7902,165.788,100.307,94.2383,0.00540572,0.0717603,21.0014,164.948,0.566875,0.0,0.0
792,197.75,21.3066,22.2927,163.365,100.334,94.0383,0.00488328,0.0697602,21.003,164.928,0.588621,0.0,0.0
803,200.5,20.6741,20.8588,159.056,100.348,93.8334,0.00435401,0.0677703,21.0052,164.938,0.60974,0.0,0.0
814,203.25,20.6094,21.7035,164.479,100.366,93.8941,0.00416058,0.0658652,21.0068,164.908,0.605519,0.0,0.0
825,206,20.8187,21.3968,161.913,100.445,94.1286,0.00404944,0.064122,21.0073,164.908,0.589945,0.0,0.0
836,208.75,21.0067,21.6588,161.92,100.492,93.8971,0.00377608,0.0626201,21.0094,164.918,0.616621,0.0,0.0
847,211.5,20.8879,21.4901,163.368,100.528,93.9247,0.00344321,0.0609045,21.0103,164.898,0.617215,0.0,0.0
858,214.25,20.8473,21.1561,163.876,100.58,94.083,0.00308701,0.0594057,21.0144,164.888,0.606556,0.0,0.0
869,217,20.585,21.5747,167.408,100.634,93.9186,0.00299957,0.0575917,21.0183,164.898,0.62734,0.0,0.0
880,219.75,20.3229,21.4157,167.082,100.703,94.092,0.0027746,0.0558335,21.0212,164.848,0.61679,0.0,0.0
891,222.5,19.6338,21.2477,165.552,100.776,93.9664,0.00246701,0.0542319,21.0234,164.888,0.635504,0.0,0.0
902,225.25,19.687,20.4725,170.018,100.817,94.1247,0.00228515,0.0526785,21.0262,164.848,0.623943,0.0,0.0
913,228,19.9215,20.5469,164.726,100.86,94.5275,0.00196445,0.0514922,21.0282,164.848,0.588965,0.0,0.0
924,230.75,19.9319,20.533,165.984,100.88,94.1768,0.00163689,0.0502288,21.0307,164.848,0.624556,0.0,0.0
935,233.5,19.555,19.8638,165.046,100.902,94.0834,0.00142881,0.0492341,21.0322,164.848,0.635543,0.0,0.0
946,236.25,19.6531,20.6815,167.936,100.928,94.0056,0.00123102,0.0484408,21.0332,164.788,0.645454,0.0,0.0
957,239,19.8476,20.8032,162.607,100.934,94.055,0.00100406,0.047944,21.0332,164.808,0.641158,0.0,0.0
968,241.75,19.2879,20.7647,160.702,100.916,94.3851,0.00101722,0.047381,21.0332,164.858,0.607773,0.0,0.0
979,244.5,19.7588,20.772,162.603,100.911,94.299,0.00105333,0.0471113,21.0345,164.848,0.615612,0.0,0.0
990,247.25,19.1134,19.9635,167.714,100.912,94.364,,0.0468215,,164.838,0.609392,0.0,0.0
1001,250,20.2132,20.3556,162.91,100.897,94.8872,,,,164.848,0.557858,0.0,0.0
1012,252.75,19.557,20.1993,165.954,100.928,94.5443,,,,164.828,0.593508,0.0,0.0
1023,255.5,19.5444,19.7278,163.404,100.967,94.725,,,,164.828,0.579666,0.0,0.0
1025,256,19.6011,20.0011,165.322,100.974,94.4509,,,,164.828,0.606622,0.0,0.0