File: 01_Data/Roof_Felt/Cone/Roof_Felt_Underlayment_Cone_HF75Scan_220328_R1.csv
Names,Time,Stack TC,Smoke TC,Exh Press,Smoke Comp,Smoke Meas,CO Meter,CO2 Meter,O2 Meter,Sample Mass,Ext Coeff,Start Test,Flame Verif
Chan Gain,,500,500,1,1,1,1,1,1,1,1,1.0,1.0
Offset,,0,0,0.138301,0,0,0,0,0,0,0,0.0,0.0
Gain,,1,1,25.011,13.2062,13.8682,1,1,1,1.0009,1.02317,1.0,1.0
Units,sec,C,C,Pa,%,%,%,%,%,g,/m,,
Baseline,,39.1067,41.0588,142.236,98.7116,95.59,0.000941608,0.0660766,21.0107,-835.394,0.288476,,
10,2.25,38.5852,40.4685,138.54,99.6566,95.9999,0.000806824,0.0700462,21.0013,192.113,0.335528,0.0,0.0
20,4.75,38.6244,40.6773,143.876,99.6067,95.3227,0.00195097,0.0767211,20.9793,192.033,0.394559,0.0,0.0
30,7.25,38.3228,40.928,119.662,99.5156,63.4226,0.00828191,0.202077,20.7593,191.743,4.04327,0.0,1.0
40,9.75,40.433,42.4197,101.175,99.4527,43.7254,0.0201865,0.523686,20.2514,191.192,7.37541,0.0,1.0
50,12.25,45.463,46.9339,96.9712,99.3467,43.6953,0.0402056,0.976039,19.6555,190.382,7.372,0.0,1.0
60,14.75,52.1422,55.1427,72.4594,99.2842,33.6717,0.0658603,1.67635,18.7431,189.07,9.70515,0.0,0.0
70,17.25,62.5435,67.5828,92.7396,99.2206,30.0751,0.0740701,2.06134,18.2729,188.119,10.7132,0.0,0.0
80,19.75,71.4597,78.091,112.985,99.221,42.4146,0.0635204,1.801,18.5504,187.519,7.62763,0.0,0.0
90,22.25,74.7227,82.6514,127.983,99.2383,72.4834,0.0428788,1.26799,19.3252,187.359,2.8197,0.0,0.0
100,24.75,74.9277,83.3512,130.583,99.2367,74.6643,0.0268024,0.81751,19.9614,187.179,2.5535,0.0,0.0
110,27.25,74.2325,82.7873,133.826,99.2577,81.9289,0.0167228,0.541308,20.3319,187.089,1.72204,0.0,0.0
120,29.75,72.9438,81.1206,134.342,99.2714,85.1488,0.0106083,0.396812,20.5498,187.008,1.3773,0.0,0.0
130,32.25,72.0136,79.9784,138.591,99.2859,87.8198,0.00734279,0.313827,20.6756,186.918,1.1014,0.0,0.0
140,34.75,70.7852,78.4813,132.006,99.3084,89.6938,0.00566738,0.2653,20.7335,186.908,0.913932,0.0,0.0
150,37.25,69.8444,77.2851,136.736,99.3286,92.0148,0.00488153,0.238276,20.7661,186.848,0.68646,0.0,0.0
160,39.75,68.7902,76.0244,135.21,99.3552,93.9599,0.00460701,0.215203,20.803,186.768,0.50111,0.0,0.0
170,42.25,67.8966,74.832,137.334,99.3709,94.7116,0.00469775,0.198989,20.8293,186.738,0.431017,0.0,0.0
180,44.75,66.5549,73.3633,141.125,99.3951,94.8508,0.00485658,0.18743,20.8458,186.668,0.420017,0.0,0.0
190,47.25,65.9176,72.2764,136.689,99.4031,96.1222,0.00483106,0.180135,20.8568,186.628,0.301242,0.0,0.0
200,49.75,64.349,71.0583,136.358,99.4148,96.1484,0.00494299,0.175873,20.8626,186.598,0.299846,0.0,0.0
210,52.25,63.7299,70.544,136.441,99.4438,95.5843,0.00505837,0.171915,20.8708,186.538,0.355284,0.0,0.0
220,54.75,63.6989,69.8898,139.444,99.4576,95.8737,0.00494183,0.167759,20.8766,186.488,0.329379,0.0,0.0
230,57.25,62.0124,68.49,134.675,99.4866,96.305,0.00487257,0.163784,20.8823,186.458,0.291714,0.0,0.0
240,59.75,61.0984,67.4909,134.807,99.5103,95.7882,0.0050178,0.160818,20.8857,186.388,0.342149,0.0,0.0
250,62.25,60.0132,66.7272,140.411,99.5136,96.8933,0.00522234,0.158497,20.8895,186.348,0.239492,0.0,0.0
260,64.75,60.0334,66.0007,137.899,99.5369,96.5437,0.00541043,0.156517,20.8918,186.328,0.274041,0.0,0.0
270,67.25,59.5181,65.165,140.603,99.5317,95.9825,0.00549444,0.154169,20.8948,186.308,0.325893,0.0,0.0
280,69.75,57.9084,64.113,138.248,99.5559,96.1361,0.00547716,0.151906,20.8988,186.248,0.313718,0.0,0.0
290,72.25,57.7137,63.3061,136.124,99.5563,96.5636,0.00564244,0.149606,20.9025,186.198,0.273935,0.0,0.0
300,74.75,56.9082,62.3628,136.603,99.5821,96.5522,0.00578786,0.148244,20.9042,186.158,0.277323,0.0,0.0
310,77.25,56.0108,61.6408,140.533,99.5873,96.6592,0.00571579,0.146061,20.9075,186.128,0.267848,0.0,0.0
320,79.75,55.9701,61.292,135.933,99.6087,96.4684,0.00558609,0.143747,20.9095,186.098,0.287513,0.0,0.0
330,82.25,55.9264,61.2,138.652,99.6034,96.8979,0.00541945,0.141601,20.9136,186.078,0.247164,0.0,0.0
340,84.75,54.9565,60.4087,137.831,99.622,96.7117,0.00534861,0.139475,20.917,186.038,0.266099,0.0,0.0
350,87.25,54.6649,59.5974,135.235,99.6224,96.3414,0.0053093,0.137395,20.92,185.988,0.300568,0.0,0.0
360,89.75,54.1693,58.8379,142.442,99.6244,96.2809,0.00532372,0.134824,20.9227,185.968,0.306389,0.0,0.0
370,92.25,53.8449,58.4909,139.159,99.6236,96.2005,0.00545482,0.13388,20.9243,185.927,0.313816,0.0,0.0
380,94.75,53.0094,58.0453,141.098,99.63,96.8916,0.00556722,0.133228,20.9258,185.887,0.250147,0.0,0.0
390,97.25,53.1349,57.6723,134.196,99.6345,96.4743,0.00563246,0.132077,20.9271,185.827,0.289285,0.0,0.0
400,99.75,52.9255,57.1379,137.305,99.6389,96.4091,0.00576637,0.129722,20.9301,185.817,0.295751,0.0,0.0
410,102.25,52.0472,56.6469,136.581,99.6397,97.4828,0.00590925,0.127294,20.9317,185.797,0.196418,0.0,0.0
420,104.75,51.673,55.6846,137.643,99.6276,96.9026,0.00592001,0.124825,20.9354,185.767,0.248911,0.0,0.0
430,107.25,50.7129,55.6718,136.923,99.6389,96.3312,0.0058492,0.122278,20.9387,185.737,0.303003,0.0,0.0
440,109.75,50.9931,55.3345,141.286,99.647,96.7265,0.00573067,0.11978,20.9435,185.717,0.266975,0.0,0.0
450,112.25,50.8161,55.0715,138.57,99.6458,96.7625,0.00571874,0.11789,20.9462,185.677,0.263529,0.0,0.0
460,114.75,50.7318,54.7209,136.34,99.6321,96.3092,0.00571285,0.115895,20.949,185.657,0.304436,0.0,0.0
470,117.25,50.7167,54.2298,140.792,99.6377,96.7121,0.00549454,0.113626,20.9522,185.627,0.267476,0.0,0.0
480,119.75,50.279,54.2604,138.401,99.6304,96.6182,0.00524339,0.111749,20.9532,185.607,0.275546,0.0,0.0
490,122.25,49.863,53.5281,135.165,99.6385,96.5429,0.00522412,0.110171,20.9559,185.607,0.283272,0.0,0.0
500,124.75,49.7881,53.542,137.817,99.6296,96.9183,0.00515949,0.108119,20.9585,185.587,0.247641,0.0,0.0
510,127.25,48.9961,52.9809,142.252,99.6333,96.7232,0.00501003,0.105858,20.9624,185.547,0.266055,0.0,0.0
520,129.75,48.5455,52.5343,138.448,99.6317,96.082,0.00484812,0.104413,20.9644,185.527,0.325605,0.0,0.0
530,132.25,48.2255,51.9423,139.267,99.6333,96.7308,0.00469562,0.102577,20.967,185.507,0.265349,0.0,0.0
540,134.75,48.4063,51.8183,142.849,99.6385,96.451,0.00477566,0.100658,20.97,185.497,0.291814,0.0,0.0
550,137.25,47.7102,51.8039,139.508,99.6357,96.4201,0.00478158,0.0989304,20.9714,185.487,0.294436,0.0,0.0
560,139.75,47.7113,50.9756,141.128,99.6433,97.033,0.00457687,0.0973048,20.9738,185.427,0.238261,0.0,0.0
570,142.25,46.9439,50.2843,138.413,99.6341,96.082,0.00433842,0.0959706,20.976,185.387,0.325823,0.0,0.0
580,144.75,46.9966,50.766,139.144,99.6397,96.3401,0.00417094,0.0945162,20.9781,185.397,0.302248,0.0,0.0
590,147.25,47.5052,50.3599,140.574,99.6393,97.5247,0.00389441,0.0927124,20.98,185.407,0.192525,0.0,0.0
600,149.75,47.3336,50.4056,140.851,99.6373,96.2932,0.00368161,0.0906161,20.9821,185.487,0.306407,0.0,0.0
610,152.25,46.3908,49.8366,139.885,99.6163,96.5848,0.00366503,0.0893123,20.9834,185.437,0.277381,0.0,0.0
620,154.75,46.5739,49.9269,136.761,99.6304,96.2432,0.00373892,0.0887493,20.9839,185.427,0.310446,0.0,0.0
630,157.25,46.4191,49.7988,139.233,99.6175,97.2259,0.00375096,0.0883313,20.984,185.367,0.218105,0.0,0.0
640,159.75,46.4064,49.5896,140.102,99.6264,96.5949,0.00359813,0.0874991,20.9841,185.347,0.277345,0.0,0.0
650,162.25,46.38,49.4966,135.405,99.6018,96.6,0.00346439,0.0866783,20.9845,185.297,0.274658,0.0,0.0
660,164.75,46.1478,49.3761,137.801,99.6171,96.3672,0.00336159,0.0856342,20.9868,185.307,0.297692,0.0,0.0
670,167.25,45.8624,49.0436,138.702,99.6115,97.1726,0.0032105,0.0845293,20.9893,185.267,0.222484,0.0,0.0
680,169.75,45.9732,49.4856,140.696,99.6119,96.5399,0.00318005,0.0830614,20.9914,185.257,0.281151,0.0,0.0
690,172.25,46.0998,48.8995,139.329,99.6042,96.6758,0.00313366,0.0813841,20.9928,185.227,0.26784,0.0,0.0
700,174.75,45.4547,48.4256,140.693,99.591,96.0104,0.00310373,0.0800587,20.9945,185.237,0.328621,0.0,0.0
710,177.25,45.5015,48.8422,141.549,99.5857,96.4083,0.00307807,0.0786495,20.9969,185.197,0.291036,0.0,0.0
720,179.75,45.093,48.0267,140.853,99.5756,96.2538,0.00298707,0.0775592,20.9981,185.217,0.304521,0.0,0.0
730,182.25,45.3231,48.2708,140.044,99.5543,96.9563,0.00296442,0.0769687,20.9986,185.217,0.237324,0.0,0.0
740,184.75,45.5415,48.1545,140.281,99.5551,97.1879,0.00290052,0.076549,20.9987,185.197,0.215992,0.0,0.0
750,187.25,45.0525,47.5954,140.887,99.5535,97.289,0.00281871,0.0762663,20.9988,185.167,0.206509,0.0,0.0
760,189.75,44.6312,48.3184,139.509,99.5265,95.9779,0.00276296,0.0759652,21.0003,185.177,0.325855,0.0,0.0
770,192.25,45.3558,48.0535,139.656,99.5224,96.3469,0.00281926,0.0756738,21.0008,185.157,0.291047,0.0,0.0
780,194.75,44.7497,47.6748,138.676,99.4934,97.7503,0.00288309,0.0753054,21.0013,185.147,0.158637,0.0,0.0
790,197.25,44.562,47.4609,139.666,99.4922,97.1832,0.00265025,0.0751076,21.0016,185.137,0.210751,0.0,0.0
800,199.75,44.696,47.1372,142.295,99.4584,96.3786,0.00250328,0.0750071,21.0017,185.097,0.282309,0.0,0.0
810,202.25,44.8121,47.2323,139.638,99.46,96.6664,0.00249528,0.0749689,21.0017,185.087,0.255695,0.0,0.0
820,204.75,44.8223,47.059,139.762,99.4185,96.0693,0.00243645,0.0747781,21.0016,185.077,0.307565,0.0,0.0
830,207.25,44.6081,47.0567,138.338,99.412,96.7342,0.00233108,0.0747327,21.0027,185.087,0.245081,0.0,0.0
840,209.75,44.5507,46.767,136.563,99.3931,97.4143,0.00231896,0.0745876,21.0025,185.057,0.180488,0.0,0.0
850,212.25,44.646,47.0353,139.096,99.3685,96.5103,0.00228628,0.074404,21.0015,185.047,0.261946,0.0,0.0
860,214.75,44.3032,46.8295,141.065,99.3459,96.2263,0.00232103,0.0743439,21.0014,185.047,0.286356,0.0,0.0
870,217.25,44.7803,47.3104,136.871,99.329,96.7989,0.00238698,0.0742181,21.0016,185.037,0.231576,0.0,0.0
880,219.75,44.2892,47.1251,136.929,99.3024,96.3008,0.00245159,0.0742688,21.0015,184.997,0.275477,0.0,0.0
890,222.25,44.6236,46.4641,139.089,99.2564,97.5192,0.00256085,0.0742572,21.0014,184.997,0.158476,0.0,0.0
900,224.75,44.6698,46.8345,137.306,99.2496,96.2953,0.00247669,0.0741354,21.0012,184.987,0.271217,0.0,0.0
910,227.25,44.4527,46.7479,137.329,99.2169,97.1019,0.0024675,0.0739414,21.0003,184.967,0.193393,0.0,0.0
920,229.75,44.1191,46.1763,139.483,99.1988,96.7219,0.00261217,0.0738479,21.001,184.977,0.226951,0.0,0.0
930,232.25,44.3034,46.3265,139.648,99.1529,96.2377,0.00261542,0.0738321,21.0013,184.967,0.267833,0.0,0.0
940,234.75,44.4175,46.5838,137.169,99.1505,95.8784,,0.0736475,,184.967,0.301187,0.0,0.0
950,237.25,44.0024,46.7606,138.724,99.1178,96.3757,,,,184.957,0.251801,0.0,0.0
960,239.75,44.1146,46.576,134.934,99.0835,96.3101,,,,184.907,0.25481,0.0,0.0
970,242.25,44.4968,45.9476,139.109,99.0513,96.7769,,,,184.917,0.20849,0.0,0.0
978,244.25,43.3453,45.8786,137.131,99.0344,96.4705,,,,184.907,0.235418,0.0,0.0