File: 01_Data/Roof_Felt/Cone/Roof_Felt_Underlayment_Cone_HF50Scan_220328_R2.csv
Names,Time,Stack TC,Smoke TC,Exh Press,Smoke Comp,Smoke Meas,CO Meter,CO2 Meter,O2 Meter,Sample Mass,Ext Coeff,Start Test,Flame Verif
Chan Gain,,500,500,1,1,1,1,1,1,1,1,1.0,1.0
Offset,,0,0,0.138301,0,0,0,0,0,0,0,0.0,0.0
Gain,,1,1,25.011,13.2062,13.8682,1,1,1,1.0009,1.02317,1.0,1.0
Units,sec,C,C,Pa,%,%,%,%,%,g,/m,,
Baseline,,31.2414,32.4787,146.44,99.3376,96.5781,0.000966256,0.067092,21.0132,-834.627,0.252916,,
9,2,29.325,30.6056,143.284,99.4753,97.1134,0.000702947,0.0762131,21.0026,170.253,0.215675,0.0,0.0
18,4.25,29.2612,30.088,147.414,99.5696,97.1747,0.000793979,0.0743436,21.0036,170.163,0.218511,0.0,0.0
27,6.5,29.569,30.7936,144.034,99.63,96.151,0.000886786,0.0723571,21.0068,170.123,0.319018,0.0,0.0
36,8.75,29.758,30.7571,147.008,99.6933,97.055,0.00128796,0.07404,21.0072,170.113,0.240727,0.0,0.0
45,11,30.0543,30.912,139.937,99.7461,86.7825,0.00313653,0.117767,20.9139,169.953,1.24956,0.0,1.0
54,13.25,29.918,31.1702,126.408,99.7929,66.2663,0.00781338,0.251505,20.7058,169.673,3.67459,0.0,1.0
63,15.5,31.8082,32.8698,112.504,99.8283,55.7826,0.0145322,0.47168,20.3528,169.222,5.22348,0.0,1.0
72,17.75,34.9102,36.9569,97.4406,99.871,49.4524,0.022605,0.741325,19.9654,168.542,6.30839,0.0,0.0
81,20,39.5438,41.5555,102.364,99.9037,44.2404,0.0318484,1.01589,19.5465,167.791,7.31091,0.0,0.0
90,22.25,44.92,47.4664,102.867,99.9234,42.2217,0.0398285,1.23811,19.2284,167.091,7.73188,0.0,0.0
99,24.5,50.2954,53.0281,99.3068,99.9545,40.8161,0.0435198,1.35698,19.1004,166.45,8.03853,0.0,0.0
108,26.75,55.5324,59.9158,110.694,99.9791,44.425,0.0401258,1.26443,19.1825,166.04,7.28032,0.0,0.0
117,29,58.5808,63.6168,126.105,99.9928,60.6222,0.0327614,1.04224,19.4836,165.819,4.49153,0.0,0.0
126,31.25,59.8301,65.5363,131.207,99.9964,76.8177,0.0242658,0.784655,19.9227,165.639,2.36676,0.0,0.0
135,33.5,59.4497,65.795,133.979,100.01,77.2735,0.0171542,0.57588,20.2341,165.519,2.31485,0.0,0.0
144,35.75,59.7892,65.0185,136.451,99.994,80.3901,0.0129854,0.43794,20.4507,165.419,1.95856,0.0,0.0
153,38,58.4942,64.2704,137.667,99.9863,84.7459,0.0104605,0.350078,20.5842,165.339,1.48428,0.0,0.0
162,40.25,58.3682,63.1799,138.887,99.9613,88.2489,0.00891681,0.294099,20.6717,165.289,1.11851,0.0,0.0
171,42.5,57.2502,62.6999,140.769,99.9512,90.9694,0.00806005,0.255988,20.7363,165.219,0.845098,0.0,0.0
180,44.75,56.9692,61.4499,138.283,99.9194,91.9847,0.00783478,0.229135,20.7802,165.189,0.74262,0.0,0.0
189,47,55.8549,60.3581,141.445,99.8622,93.3348,0.00788462,0.21092,20.8067,165.139,0.606703,0.0,0.0
198,49.25,55.3219,59.9761,141.013,99.8263,93.753,0.00794801,0.198846,20.8254,165.059,0.56336,0.0,0.0
207,51.5,54.2003,59.1099,143.89,99.7796,94.4289,0.00780118,0.189639,20.8404,165.029,0.494683,0.0,0.0
216,53.75,53.334,58.4472,139.965,99.7171,94.6887,0.00762491,0.18259,20.8502,164.989,0.464397,0.0,0.0
225,56,53.0094,57.6437,144.063,99.6357,95.3853,0.00748575,0.177346,20.858,164.979,0.391279,0.0,0.0
234,58.25,52.2782,56.2901,145.529,99.5712,96.5831,0.00734339,0.172221,20.8687,164.909,0.273471,0.0,0.0
243,60.5,51.6654,55.8539,144.19,99.4962,95.8632,0.00713009,0.166745,20.8771,164.889,0.33386,0.0,0.0
252,62.75,50.7145,55.1158,141.695,99.3842,95.3883,0.00701254,0.161919,20.8843,164.859,0.368317,0.0,0.0
261,65,50.1731,54.7143,142.891,99.3036,96.4172,0.00720416,0.157699,20.8909,164.818,0.264746,0.0,0.0
270,67.25,49.5474,53.8117,142.725,99.1952,96.1933,0.00737949,0.154299,20.8962,164.778,0.275808,0.0,0.0
279,69.5,49.1665,52.5881,144.412,99.1642,95.5885,0.00736224,0.15113,20.9022,164.758,0.329608,0.0,0.0
288,71.75,48.5129,51.9802,143.148,99.1694,95.5826,0.0073717,0.148129,20.9063,164.768,0.330637,0.0,0.0
297,74,47.6062,51.9849,144.202,99.1924,96.479,0.0073695,0.146528,20.9089,164.728,0.248937,0.0,0.0
306,76.25,46.917,50.8104,141.082,99.198,95.8839,0.00726932,0.14531,20.9103,164.688,0.304976,0.0,0.0
315,78.5,46.3582,50.3726,140.723,99.2045,95.9216,0.00705966,0.143725,20.9113,164.658,0.302034,0.0,0.0
324,80.75,45.9051,49.7347,144.003,99.2242,96.4878,0.00696813,0.142186,20.9144,164.628,0.250991,0.0,0.0
333,83,45.7038,48.9056,145.76,99.25,96.388,0.00703073,0.140632,20.9173,164.608,0.26262,0.0,0.0
342,85.25,44.3998,47.8844,144.435,99.2738,96.1446,0.00716619,0.139138,20.9203,164.578,0.287459,0.0,0.0
351,87.5,43.6142,47.4292,147.608,99.2786,97.0012,0.00725053,0.137501,20.9223,164.548,0.208285,0.0,0.0
360,89.75,44.1734,47.6303,144.326,99.3012,96.0663,0.0072558,0.13626,20.9241,164.508,0.297247,0.0,0.0
369,92,43.5264,46.9198,149.009,99.3233,97.096,0.00719672,0.135067,20.9264,164.488,0.20356,0.0,0.0
378,94.25,42.9117,46.4592,140.214,99.3411,96.4527,0.00714394,0.134104,20.9274,164.478,0.264825,0.0,0.0
387,96.5,42.8798,46.2913,140.201,99.3516,97.2306,0.00704142,0.13315,20.9285,164.438,0.193677,0.0,0.0
396,98.75,41.7788,45.1992,144.428,99.3741,96.286,0.00696148,0.131194,20.9311,164.458,0.283341,0.0,0.0
405,101,41.7464,45.1346,145.335,99.3983,97.2763,0.00700732,0.127962,20.9342,164.418,0.193682,0.0,0.0
414,103.25,40.7999,44.5094,143.068,99.3919,96.9178,0.00693859,0.125802,20.9368,164.398,0.226236,0.0,0.0
423,105.5,41.0167,44.0613,146.951,99.416,97.0757,0.00671537,0.124334,20.9384,164.378,0.213811,0.0,0.0
432,107.75,40.1487,43.3037,143.812,99.4334,97.1578,0.00653386,0.124129,20.939,164.348,0.207788,0.0,0.0
441,110,40.2036,43.2145,138.467,99.4334,97.2577,0.00640966,0.123578,20.9393,164.328,0.198565,0.0,0.0
450,112.25,39.8395,43.405,142.741,99.4499,96.9513,0.00638328,0.121854,20.9415,164.298,0.228377,0.0,0.0
459,114.5,39.0566,42.3627,143.832,99.468,97.0723,0.00637014,0.119215,20.9454,164.278,0.218816,0.0,0.0
468,116.75,39.5054,42.3071,145.715,99.4733,96.3901,0.00623648,0.116911,20.9481,164.248,0.28259,0.0,0.0
477,119,38.7678,42.149,140.763,99.4708,96.8531,0.00592512,0.114148,20.9506,164.218,0.239363,0.0,0.0
486,121.25,38.8538,41.7446,145.632,99.4906,96.528,0.00565375,0.111807,20.9537,164.198,0.271317,0.0,0.0
495,123.5,38.7271,41.547,144.189,99.5019,96.9953,0.00558761,0.108626,20.957,164.198,0.228995,0.0,0.0
504,125.75,38.2595,41.3496,146.065,99.5216,97.4816,0.00555438,0.105929,20.9616,164.178,0.185892,0.0,0.0
513,128,38.1998,41.1578,142.573,99.5087,96.9851,0.00541055,0.103486,20.9655,164.168,0.230554,0.0,0.0
522,130.25,37.802,40.6687,145.37,99.5365,97.4194,0.00526622,0.100834,20.9683,164.168,0.192966,0.0,0.0
531,132.5,37.564,40.6425,140.039,99.5337,96.2965,0.00510277,0.0976174,20.9725,164.168,0.296757,0.0,0.0
540,134.75,37.8626,40.1222,145.648,99.5269,96.5996,0.00492672,0.0939789,20.9788,164.138,0.26794,0.0,0.0
549,137,37.4559,40.1316,146.584,99.5301,97.3364,0.00472893,0.0910798,20.9816,164.118,0.200031,0.0,0.0
558,139.25,36.9651,39.8711,147.153,99.5273,97.7617,0.00449091,0.0894132,20.9827,164.118,0.160642,0.0,0.0
567,141.5,37.1032,39.1528,144.026,99.5253,97.2115,0.00436318,0.0884,20.9836,164.098,0.211115,0.0,0.0
576,143.75,36.4254,38.9679,145.257,99.5087,96.8323,0.00435668,0.0876087,20.9849,164.088,0.244703,0.0,0.0
585,146,37.0873,39.5986,143.103,99.5063,97.3618,0.00435407,0.0867725,20.9867,164.068,0.195545,0.0,0.0
594,148.25,36.6092,38.9457,144.037,99.4886,96.9559,0.00426177,0.0858232,20.9883,164.068,0.231438,0.0,0.0
603,150.5,36.7451,38.8416,144.189,99.4696,96.7045,0.00410531,0.0848946,20.9889,164.038,0.253031,0.0,0.0
612,152.75,36.1232,38.4637,143.911,99.4451,96.903,0.00398691,0.0844324,20.9892,164.048,0.232409,0.0,0.0
621,155,36.8579,38.3343,145.065,99.4406,97.7207,0.0039166,0.0838594,20.9901,164.018,0.156594,0.0,0.0
630,157.25,35.687,37.6381,143.603,99.4156,96.6021,0.00385658,0.0832271,20.991,164.028,0.257667,0.0,0.0
639,159.5,36.0901,38.7303,142.61,99.3725,97.1417,0.00382234,0.0825229,20.9914,164.008,0.203779,0.0,0.0
648,161.75,34.695,37.4844,146.237,99.3503,96.5543,0.00369206,0.0817244,20.9916,163.998,0.256216,0.0,0.0
657,164,35.4544,37.7382,143.239,99.3379,97.1879,0.00351503,0.0810475,20.9916,163.988,0.196386,0.0,0.0
666,166.25,35.6299,37.9938,146.225,99.3137,96.305,0.00345436,0.080389,20.9924,163.998,0.276104,0.0,0.0
675,168.5,35.6036,37.9005,146.118,99.273,97.3148,0.00340625,0.0796011,20.9935,163.958,0.178804,0.0,0.0
684,170.75,35.6997,37.4283,143.801,99.2552,96.958,0.00323625,0.0788132,20.9942,163.968,0.210167,0.0,0.0
693,173,35.2437,37.4936,140.047,99.229,97.3169,0.00307808,0.0779339,20.9951,163.988,0.174636,0.0,0.0
702,175.25,35.3931,36.8954,145.436,99.1875,96.3841,0.0030305,0.0770882,20.9962,163.958,0.257323,0.0,0.0
711,177.5,34.7589,36.9994,141.416,99.1408,96.0456,0.00295972,0.0766139,20.9966,163.958,0.284676,0.0,0.0
720,179.75,35.1509,37.1191,145.182,99.0896,96.4506,0.00280594,0.0763475,20.9968,163.948,0.242272,0.0,0.0
729,182,34.9542,37.0525,146.51,99.061,96.2758,0.00263222,0.0762197,20.9969,163.918,0.25596,0.0,0.0
738,184.25,35.046,36.3577,141.647,99.0058,96.6656,0.00254681,0.0761112,20.9969,163.938,0.214691,0.0,0.0
747,186.5,34.1947,35.8888,141.628,98.9699,96.275,0.00248769,0.0758192,20.9983,163.908,0.247783,0.0,0.0
756,188.75,35.3954,36.4558,145.622,98.9429,96.5556,0.00252128,0.075406,20.9989,163.888,0.219213,0.0,0.0
765,191,34.665,36.7041,144.408,98.8953,96.3147,0.00257219,0.0750279,21.0001,163.888,0.23731,0.0,0.0
774,193.25,34.7101,36.5477,146.263,98.855,96.7672,0.00260307,0.0748353,21.0017,163.888,0.191591,0.0,0.0
783,195.5,34.6867,36.2108,143.917,98.8196,96.3232,0.00265153,0.0745435,21.0024,163.908,0.229642,0.0,0.0
792,197.75,34.6819,35.9686,144.478,98.7845,97.0939,0.0026651,0.0740695,21.0027,163.908,0.154933,0.0,0.0
801,200,34.1089,35.6159,143.558,98.7402,96.2885,0.002587,0.0736638,21.0041,163.888,0.225664,0.0,0.0
810,202.25,34.3747,36.0651,144.913,98.7144,95.8005,0.00243584,0.0735002,21.0047,163.878,0.268919,0.0,0.0
819,204.5,34.3136,36.4923,140.553,98.6866,96.5378,0.00241993,0.0733063,21.0042,163.878,0.197584,0.0,0.0
828,206.75,34.1593,35.8694,145.221,98.6434,96.1065,0.00255452,0.0731182,21.0033,163.868,0.233846,0.0,0.0
837,209,33.6715,36.3173,144.98,98.6152,95.7954,,0.073084,,163.868,0.260376,0.0,0.0
846,211.25,34.0763,35.5863,142.65,98.5669,96.6487,,,,163.858,0.176388,0.0,0.0
855,213.5,34.1057,35.4035,145.809,98.533,96.5661,,,,163.838,0.180973,0.0,0.0
864,215.75,34.2388,35.7591,145.652,98.4988,96.6343,,,,163.838,0.171522,0.0,0.0
872,217.75,34.2401,35.33,145.862,98.4625,96.636,,,,163.828,0.168058,0.0,0.0