File: 01_Data/Roof_Felt/Cone/Roof_Felt_Underlayment_Cone_HF50Scalar_220328_R1.csv
LABORATORY,FSRI
TEST IDENT,Roof_Felt_HF50_1
OPERATOR,Dow
MATERIAL,Roof Felt Underlayment
ORIENTATION,Horizontal
HEAT FLUX,50
SURF AREA,0.00884
C FACTOR,0.0395835
SPEC HOLDER DIFF,-566
SPECIMEN MASS,7
SCAN TIME,0.25
O2 DELAY TIME,11
CO DELAY TIME,11
CO2 DELAY TIME,8
FLOW FACTOR,1
SCAN COUNT,904
TIME TO IGN,11.75
END OF TEST SCAN,424
END OF TEST TIME,106
TEST STATUS,1
PRE TEST CMT,Dimensions: 101.50 x 102.34 x 0.86 mm; with frame; with calcium silicate substrate
POST TEST CMT,"After ignition an air bubble formed beneath the sample which raised the height of the sample surface. After a few seconds a hole formed in the sample which released the gases in the bubble at high enough velocity to form a horizontal flame that extended beyond the radius of the cone. This only lasted a few seconds, then the sample returned to normal burning behavoir. "