File: 01_Data/Roof_Felt/Cone/Roof_Felt_Underlayment_Cone_HF75Scan_220328_R2.csv
Names,Time,Stack TC,Smoke TC,Exh Press,Smoke Comp,Smoke Meas,CO Meter,CO2 Meter,O2 Meter,Sample Mass,Ext Coeff,Start Test,Flame Verif
Chan Gain,,500,500,1,1,1,1,1,1,1,1,1.0,1.0
Offset,,0,0,0.138301,0,0,0,0,0,0,0,0.0,0.0
Gain,,1,1,25.011,13.2062,13.8682,1,1,1,1.0009,1.02317,1.0,1.0
Units,sec,C,C,Pa,%,%,%,%,%,g,/m,,
Baseline,,41.7358,43.6298,141.04,99.4594,96.0192,0.000951143,0.0657842,21.0113,-835.818,0.315966,,
13,3,40.0731,41.7472,139.094,99.9863,95.5123,0.000843342,0.0703884,21.0011,168.602,0.410869,0.0,0.0
26,6.25,40.1451,41.9753,129.531,99.9089,78.3032,0.00482734,0.121062,20.9257,168.482,2.187,0.0,1.0
39,9.5,42.1345,43.8372,109.894,99.7864,50.2324,0.017182,0.463195,20.3053,167.741,6.16032,0.0,1.0
52,12.75,47.9673,50.3522,92.2091,99.6192,40.8961,0.0404649,1.15815,19.4606,166.58,7.9908,0.0,1.0
65,16,59.3648,63.0673,77.5512,99.4878,35.8796,0.0653009,2.06846,18.3363,165.029,9.15349,0.0,0.0
78,19.25,72.6866,79.5999,104.943,99.5535,41.1793,0.0589144,1.9764,18.2807,164.108,7.92295,0.0,0.0
91,22.5,77.1217,86.2649,126.573,99.6699,74.6711,0.037839,1.24576,19.3049,163.848,2.59178,0.0,0.0
104,25.75,77.2124,86.5701,131.093,99.8025,78.8259,0.0212734,0.718088,20.0715,163.677,2.11772,0.0,0.0
117,29,76.3836,84.6355,132.907,99.8952,87.0978,0.0120577,0.438302,20.4711,163.587,1.23042,0.0,0.0
130,32.25,74.1685,82.7159,133.427,100.006,91.5966,0.00774776,0.308201,20.6703,163.477,0.788348,0.0,0.0
143,35.5,72.635,80.6882,135.44,100.119,93.3793,0.00625238,0.246859,20.7647,163.417,0.625476,0.0,0.0
156,38.75,71.0794,78.7886,136.235,100.182,94.6959,0.00609488,0.214129,20.8074,163.337,0.505443,0.0,0.0
169,42,69.6407,77.2677,137.716,100.242,94.9164,0.00614056,0.194731,20.8356,163.257,0.489984,0.0,0.0
182,45.25,68.4135,75.8502,135.91,100.272,96.1522,0.00629924,0.181144,20.8577,163.197,0.376586,0.0,0.0
195,48.5,67.1928,74.13,131.276,100.291,96.3351,0.00646057,0.172124,20.87,163.137,0.36116,0.0,0.0
208,51.75,65.6543,72.6892,137.083,100.271,96.2999,0.00675708,0.166461,20.8787,163.107,0.362664,0.0,0.0
221,55,64.4547,71.0491,138.154,100.287,96.1285,0.00692618,0.161489,20.8859,163.057,0.380133,0.0,0.0
234,58.25,63.7393,70.1046,135.371,100.301,96.63,0.00726959,0.158266,20.8912,163.007,0.334692,0.0,0.0
247,61.5,62.3819,68.5611,137.409,100.298,96.8074,0.00715048,0.156253,20.8929,162.947,0.317948,0.0,0.0
260,64.75,61.4125,67.4185,134.442,100.293,96.5014,0.00685703,0.154813,20.8946,162.847,0.345856,0.0,0.0
273,68,60.4336,66.5352,136.463,100.289,96.5915,0.00679828,0.153458,20.8973,162.787,0.337152,0.0,0.0
286,71.25,59.4783,65.4467,136.2,100.257,96.3042,0.00661644,0.152162,20.8998,162.787,0.361044,0.0,0.0
299,74.5,58.5103,64.6407,134.292,100.225,96.1315,0.00655132,0.151682,20.9013,162.707,0.3743,0.0,0.0
312,77.75,58.1238,63.8366,136.194,100.197,96.5721,0.006503,0.15003,20.9038,162.667,0.33077,0.0,0.0
325,81,57.4072,62.8631,139.249,100.164,96.0633,0.00642445,0.14833,20.9055,162.627,0.37514,0.0,0.0
338,84.25,56.4919,61.9069,135.885,100.109,96.2343,0.00643456,0.148755,20.9049,162.566,0.354267,0.0,0.0
351,87.5,56.2965,61.277,135.323,100.061,96.3731,0.00664534,0.153241,20.9013,162.516,0.337029,0.0,0.0
364,90.75,55.7331,60.6178,141.658,100.017,97.0232,0.0068071,0.154199,20.9003,162.456,0.272714,0.0,0.0
377,94,54.9845,59.6823,136.671,99.9609,96.6152,0.00671971,0.149158,20.9078,162.456,0.305543,0.0,0.0
390,97.25,54.6543,59.6808,137.381,99.8892,96.2851,0.00686299,0.141674,20.9158,162.386,0.329818,0.0,0.0
403,100.5,53.824,58.7069,136.204,99.8396,96.2754,0.00677024,0.135926,20.924,162.346,0.32627,0.0,0.0
416,103.75,53.1569,58.1839,138.077,99.788,96.0109,0.00635506,0.131019,20.93,162.306,0.346325,0.0,0.0
429,107,52.2591,56.7592,138.442,99.7191,96.5386,0.00612249,0.126626,20.9358,162.276,0.290923,0.0,0.0
442,110.25,52.5911,57.153,139.695,99.6659,96.2381,0.00586719,0.123314,20.939,162.226,0.314114,0.0,0.0
455,113.5,52.2171,56.5448,135.768,99.6292,95.969,0.00566615,0.119614,20.944,162.196,0.335949,0.0,0.0
468,116.75,52.0946,56.2592,138.386,99.5551,95.6236,0.00565488,0.115821,20.949,162.196,0.361623,0.0,0.0
481,120,51.3749,55.5719,141.769,99.5232,95.9842,0.00546839,0.111194,20.9557,162.176,0.32497,0.0,0.0
494,123.25,51.1779,55.2489,137.961,99.4741,95.547,0.00525698,0.106756,20.9598,162.136,0.361509,0.0,0.0
507,126.5,50.4798,54.546,133.586,99.4318,95.602,0.00507057,0.103988,20.9634,162.096,0.352524,0.0,0.0
520,129.75,49.6752,53.5078,132.808,99.3786,95.7853,0.00489462,0.102288,20.9652,162.096,0.330533,0.0,0.0
533,133,49.9049,53.6248,137.289,99.3749,95.3587,0.00479111,0.101458,20.9653,162.046,0.370268,0.0,0.0
546,136.25,49.7078,53.3159,139.58,99.3427,95.6752,0.00459348,0.0998929,20.9684,162.016,0.337609,0.0,0.0
559,139.5,49.4249,53.0871,137.555,99.3258,95.7916,0.00431773,0.0976469,20.9725,161.986,0.325168,0.0,0.0
572,142.75,49.3225,52.7352,138.223,99.3032,95.7133,0.00413772,0.0959496,20.9736,161.956,0.330467,0.0,0.0
585,146,48.9988,52.6192,140.008,99.2883,95.3714,0.00411771,0.094603,20.9764,161.966,0.361244,0.0,0.0
598,149.25,48.7273,52.0056,141.825,99.2863,95.6685,0.00378824,0.0928295,20.9778,161.936,0.333144,0.0,0.0
611,152.5,49.2715,52.6936,140.008,99.2859,95.3892,0.00348132,0.0914135,20.9802,161.936,0.359352,0.0,0.0
624,155.75,48.3898,51.6228,138.947,99.2762,95.3892,0.00340449,0.0899932,20.9825,161.866,0.358478,0.0,0.0
637,159,48.5568,51.7958,135.576,99.271,95.8818,0.003423,0.088122,20.9848,161.856,0.311771,0.0,0.0
650,162.25,48.3292,51.3795,139.192,99.2617,95.5407,0.00349126,0.0866398,20.9877,161.846,0.342922,0.0,0.0
663,165.5,48.3632,51.2745,137.736,99.2544,95.7823,0.00360197,0.0849079,20.9899,161.806,0.319592,0.0,0.0
676,168.75,48.0676,51.263,136.699,99.25,96.0693,0.0035285,0.0830884,20.9915,161.796,0.292344,0.0,0.0
689,172,47.5007,50.8449,140.227,99.2419,95.1289,0.00336583,0.081516,20.9934,161.756,0.379904,0.0,0.0
702,175.25,46.2843,49.2056,140.876,99.2383,95.1517,0.00308064,0.0801989,20.9939,161.766,0.37742,0.0,0.0
715,178.5,47.0677,50.3518,140.984,99.2391,95.3951,0.00297919,0.0792036,20.993,161.736,0.354568,0.0,0.0
728,181.75,46.4836,49.8263,140.037,99.2456,95.4818,0.00298729,0.0784138,20.9926,161.736,0.346992,0.0,0.0
741,185,47.0492,50.0055,139.028,99.2423,95.6477,0.00300429,0.0774549,20.9936,161.716,0.331119,0.0,0.0
754,188.25,46.6987,48.819,141.38,99.2568,95.1179,0.00302211,0.076669,20.994,161.706,0.382291,0.0,0.0
767,191.5,46.8779,49.1188,140.988,99.2411,95.7743,0.00287639,0.0761987,20.9941,161.686,0.319143,0.0,0.0
780,194.75,46.6073,49.5788,140.176,99.2407,95.5707,0.00299342,0.0759653,20.9946,161.676,0.338204,0.0,0.0
793,198,46.5541,49.1548,138.66,99.2601,95.9702,0.00317955,0.0757402,20.9966,161.676,0.302511,0.0,0.0
806,201.25,46.4911,48.8732,138.348,99.2935,95.7095,0.00302802,0.0754609,20.9986,161.646,0.32995,0.0,0.0
819,204.5,46.2204,48.9785,137.81,99.3052,95.3786,0.00287578,0.0753012,20.9994,161.626,0.362096,0.0,0.0
832,207.75,46.173,48.7743,143.889,99.3193,95.8682,0.00259103,0.0753011,20.9996,161.626,0.317411,0.0,0.0
845,211,46.2023,48.8879,140.45,99.3407,95.8306,0.00251406,0.0751847,20.9996,161.606,0.322868,0.0,0.0
858,214.25,45.7282,48.7208,137.166,99.3757,95.3396,0.00283139,0.0748942,20.9996,161.616,0.372134,0.0,0.0
871,217.5,46.181,48.8123,138.143,99.4023,96.275,0.00269124,0.0746913,20.9996,161.586,0.286914,0.0,0.0
884,220.75,46.3555,48.3786,139.632,99.4438,95.3172,0.00251522,0.0744586,20.9996,161.596,0.380395,0.0,0.0
897,224,45.7985,48.7095,138.107,99.4765,95.6266,0.00232548,0.0743039,20.9996,161.576,0.354256,0.0,0.0
910,227.25,46.6785,48.3789,139.79,99.5051,95.8454,0.00228581,0.0742201,20.9996,161.566,0.336324,0.0,0.0
923,230.5,45.3518,47.8974,139.847,99.5313,95.9038,0.00229644,0.0739746,20.9996,161.505,0.33322,0.0,0.0
936,233.75,46.0349,48.2523,140.554,99.5688,95.6384,0.0023643,0.0739106,20.9996,161.495,0.361467,0.0,0.0
949,237,45.199,47.7001,134.917,99.6055,95.9812,0.00246098,0.0737972,20.9996,161.485,0.332659,0.0,0.0
962,240.25,45.6923,47.6244,140.252,99.6216,96.0727,0.00254529,0.073747,20.999,161.485,0.325567,0.0,0.0
975,243.5,44.9282,47.7375,139.457,99.6611,95.5868,0.00229445,0.0736577,20.9988,161.485,0.37463,0.0,0.0
988,246.75,45.3011,47.4234,138.437,99.7223,96.1789,0.00215907,0.0734064,20.9997,161.475,0.324721,0.0,0.0
1001,250,45.4882,48.0971,140.591,99.7252,95.8183,0.00215355,0.0734264,21.0008,161.455,0.358688,0.0,0.0
1014,253.25,45.4997,47.3702,138.054,99.7638,96.0925,0.00222382,0.0732203,21.0011,161.435,0.336517,0.0,0.0
1027,256.5,45.7972,47.5579,134.972,99.7949,96.1374,0.0022573,0.0729605,21.0026,161.465,0.335119,0.0,0.0
1040,259.75,45.7731,47.6994,135.665,99.8348,96.3647,0.00234113,0.0725523,21.0032,161.445,0.317515,0.0,0.0
1053,263,45.1227,47.5515,141.978,99.8755,96.6131,0.00253739,0.0723284,21.0034,161.385,0.298064,0.0,0.0
1066,266.25,44.8563,46.8869,136.548,99.9045,95.7747,0.00244639,0.0723738,21.0049,161.395,0.378898,0.0,0.0
1079,269.5,45.1834,47.621,142.656,99.9521,96.1632,0.00225503,0.0725058,21.0055,161.365,0.346834,0.0,0.0
1092,272.75,45.092,47.1657,137.313,99.9907,96.4857,0.00218483,0.0725127,21.0046,161.385,0.320259,0.0,0.0
1105,276,44.6799,47.4545,140.304,100.033,96.2695,0.00215952,0.072512,21.0043,161.355,0.344233,0.0,0.0
1118,279.25,45.169,47.4084,137.139,100.074,96.7837,0.00196834,0.0722113,21.0061,161.375,0.300035,0.0,0.0
1131,282.5,44.665,47.1052,140.493,100.1,96.093,0.00190755,0.0721735,21.007,161.385,0.366666,0.0,0.0
1144,285.75,44.7247,46.86,135.49,100.137,96.4413,,0.0720979,,161.345,0.337516,0.0,0.0
1157,289,45.2611,47.65,139.746,100.184,96.7409,,,,161.305,0.313862,0.0,0.0
1170,292.25,45.5852,46.9049,139.647,100.204,96.2779,,,,161.265,0.35869,0.0,0.0
1183,295.5,45.3951,47.5234,139.283,100.214,96.7968,,,,161.275,0.311424,0.0,0.0
1187,296.5,45.0683,47.4265,144.074,100.22,96.699,,,,161.265,0.321035,0.0,0.0