File: 01_Data/Roof_Felt/Cone/Roof_Felt_Underlayment_Cone_HF75Scalar_220328_R1.csv
LABORATORY,FSRI
TEST IDENT,Roof_Felt_HF75_1
OPERATOR,Dow
MATERIAL,Roof Felt Underlayment
ORIENTATION,Horizontal
HEAT FLUX,75
SURF AREA,0.00884
C FACTOR,0.0395835
SPEC HOLDER DIFF,-566
SPECIMEN MASS,7.12
SCAN TIME,0.25
O2 DELAY TIME,11
CO DELAY TIME,11
CO2 DELAY TIME,8
FLOW FACTOR,1
SCAN COUNT,978
TIME TO IGN,5.75
END OF TEST SCAN,498
END OF TEST TIME,124.5
TEST STATUS,1
PRE TEST CMT,Dimensions: 102.07 x 102.54 x 0.83 mm; with frame; with calcium silicate substrate