File: 01_Data/Roof_Felt/Cone/Roof_Felt_Underlayment_Cone_HF50Scan_220328_R1.csv
Names,Time,Stack TC,Smoke TC,Exh Press,Smoke Comp,Smoke Meas,CO Meter,CO2 Meter,O2 Meter,Sample Mass,Ext Coeff,Start Test,Flame Verif
Chan Gain,,500,500,1,1,1,1,1,1,1,1,1.0,1.0
Offset,,0,0,0.138301,0,0,0,0,0,0,0,0.0,0.0
Gain,,1,1,25.011,13.2062,13.8682,1,1,1,1.0009,1.02317,1.0,1.0
Units,sec,C,C,Pa,%,%,%,%,%,g,/m,,
Baseline,,28.9853,30.3099,147.55,99.5674,97.2894,0.00101753,0.066859,21.0116,-834.284,0.207804,,
10,2.25,28.6484,29.7655,145.328,99.0404,95.2778,0.000952804,0.0675444,21.0181,193.554,0.347616,0.0,0.0
20,4.75,28.7246,29.843,145.24,99.2967,95.6571,0.000906378,0.0666704,21.0192,193.514,0.335165,0.0,0.0
30,7.25,28.6984,29.4773,147.15,99.4721,94.9202,0.000942288,0.0663997,21.0176,193.464,0.420399,0.0,0.0
40,9.75,28.9807,29.8946,145.948,99.5579,94.2629,0.00165283,0.0709751,20.9967,193.494,0.490505,0.0,0.0
50,12.25,28.7924,30.1032,135.656,99.572,75.6999,0.00488573,0.129796,20.9263,193.124,2.46014,0.0,1.0
60,14.75,29.6943,30.8929,116.396,99.4926,58.0066,0.012357,0.300733,20.6452,192.844,4.84235,0.0,1.0
70,17.25,32.7649,33.5645,117.591,99.4076,49.281,0.0214028,0.599799,20.1365,192.233,6.2978,0.0,1.0
80,19.75,37.4258,38.38,97.4246,99.3012,46.007,0.0329617,0.916814,19.6338,191.372,6.9052,0.0,0.0
90,22.25,43.0255,45.0711,92.045,99.2282,46.5466,0.0427593,1.29934,19.1721,190.522,6.79395,0.0,0.0
100,24.75,51.0421,54.5081,106.873,99.1629,45.3328,0.0454063,1.44125,19.0525,189.861,7.0252,0.0,0.0
110,27.25,56.5175,60.9604,116.919,99.4966,47.7181,0.0401006,1.27594,19.2632,189.411,6.5951,0.0,0.0
120,29.75,59.1746,64.6613,121.398,99.7796,60.813,0.0307469,0.988655,19.7383,189.14,4.44415,0.0,0.0
130,32.25,59.9291,65.805,135.311,99.9533,81.4245,0.0214949,0.698669,20.156,189.04,1.84016,0.0,0.0
140,34.75,58.6982,64.6464,138.573,100.015,84.9398,0.0143586,0.488383,20.4274,188.96,1.46638,0.0,0.0
150,37.25,58.2123,64.3774,137.577,99.9589,87.2324,0.00964308,0.362102,20.596,188.88,1.22228,0.0,0.0
160,39.75,58.0517,63.5155,137.738,99.8175,89.0539,0.00720032,0.28287,20.7077,188.85,1.02408,0.0,0.0
170,42.25,56.5511,62.1809,142.764,99.5696,90.773,0.00616875,0.237025,20.7785,188.77,0.830155,0.0,0.0
180,44.75,55.8686,61.3104,144.722,99.4983,91.1484,0.00580738,0.210536,20.8186,188.71,0.786682,0.0,0.0
190,47.25,55.3016,60.1244,135.782,99.6051,92.1934,0.00588357,0.194072,20.8413,188.67,0.694004,0.0,0.0
200,49.75,54.4236,59.4513,140.408,99.73,92.3322,0.00627664,0.182406,20.8582,188.62,0.69175,0.0,0.0
210,52.25,54.0425,58.3931,146.29,99.863,93.4216,0.00656885,0.173779,20.8702,188.56,0.598437,0.0,0.0
220,54.75,52.6345,57.3972,148.501,100.01,94.4174,0.00687665,0.166806,20.8809,188.51,0.516482,0.0,0.0
230,57.25,51.1929,56.5804,140.297,100.104,94.4576,0.0071595,0.160145,20.89,188.48,0.521048,0.0,0.0
240,59.75,51.0279,55.7136,140.05,100.205,94.9156,0.00746663,0.154893,20.8931,188.44,0.486707,0.0,0.0
250,62.25,50.1165,54.7249,143.46,100.248,95.2681,0.00765007,0.150827,20.8992,188.39,0.457294,0.0,0.0
260,64.75,49.4139,53.6675,143.623,100.255,96.0676,0.00766312,0.146894,20.906,188.36,0.38294,0.0,0.0
270,67.25,48.9856,52.6873,144.913,100.212,95.8335,0.00775209,0.143252,20.9102,188.35,0.401007,0.0,0.0
280,69.75,47.4231,51.6079,145.298,100.146,96.2352,0.00767853,0.139727,20.9163,188.33,0.357548,0.0,0.0
290,72.25,47.3775,51.4974,141.159,100.037,95.7764,0.0077366,0.137003,20.9204,188.29,0.39068,0.0,0.0
300,74.75,46.8129,51.1901,146.331,99.8823,95.4865,0.00784158,0.135486,20.9232,188.25,0.403956,0.0,0.0
310,77.25,45.5525,50.4385,143.478,99.7106,95.0607,0.00775905,0.134221,20.9252,188.24,0.428625,0.0,0.0
320,79.75,45.0587,49.1862,138.628,99.543,95.1636,0.00775702,0.132626,20.9286,188.2,0.403816,0.0,0.0
330,82.25,44.4338,49.1936,141.459,99.3709,94.6718,0.00790992,0.130433,20.9325,188.17,0.434789,0.0,0.0
340,84.75,44.1872,48.3846,143.737,99.1916,95.6757,0.00801754,0.12839,20.9365,188.139,0.323904,0.0,0.0
350,87.25,43.6052,47.7067,143.959,99.0082,95.2952,0.00784383,0.125703,20.9406,188.119,0.34306,0.0,0.0
360,89.75,43.2158,47.1757,142.348,98.84375,94.4424,0.00755547,0.123778,20.9434,188.089,0.408822,0.0,0.0
370,92.25,42.6919,46.5015,145.047,98.6789,94.3434,0.00747267,0.122653,20.946,188.029,0.403259,0.0,0.0
380,94.75,41.9937,45.9047,144.187,98.5475,94.8508,0.007498,0.121246,20.9487,188.039,0.343155,0.0,0.0
390,97.25,41.0865,44.81,144.032,98.4226,94.4094,0.00754953,0.119534,20.9522,187.989,0.373637,0.0,0.0
400,99.75,41.2177,44.6756,145.938,98.3351,93.7018,0.0074202,0.118101,20.9541,187.949,0.433184,0.0,0.0
410,102.25,40.9926,44.6842,142.133,98.284,94.1136,0.00711428,0.117089,20.9555,187.949,0.389153,0.0,0.0
420,104.75,40.4041,43.6164,145.561,98.2529,94.1097,0.00696814,0.115619,20.9568,187.939,0.386682,0.0,0.0
430,107.25,39.7548,42.8715,146.314,98.2614,94.7856,0.00704357,0.114411,20.9574,187.919,0.323226,0.0,0.0
440,109.75,39.4446,42.4715,145.396,98.263,94.3603,0.00711431,0.113819,20.9585,187.899,0.363739,0.0,0.0
450,112.25,38.9249,42.204,146.496,98.3126,93.8012,0.00694772,0.112778,20.96,187.879,0.421602,0.0,0.0
460,114.75,38.8473,42.0004,144.563,98.3803,94.723,0.00666765,0.110991,20.9624,187.839,0.340012,0.0,0.0
470,117.25,38.1176,41.5758,142.783,98.4496,94.1542,0.00653595,0.109753,20.9632,187.819,0.400393,0.0,0.0
480,119.75,38.2586,41.235,148.124,98.5419,94.2249,0.00652613,0.108572,20.9648,187.779,0.402068,0.0,0.0
490,122.25,37.5488,41.3431,144.919,98.6213,94.9109,0.0065012,0.107498,20.9662,187.759,0.344185,0.0,0.0
500,124.75,37.4755,40.5788,146.279,98.7063,94.3764,0.00637273,0.105712,20.9685,187.749,0.402612,0.0,0.0
510,127.25,36.8531,40.2392,147.714,98.793,94.7166,0.00615485,0.103975,20.9706,187.739,0.378185,0.0,0.0
520,129.75,36.9711,39.4001,149.063,98.8877,94.7192,0.00585895,0.102463,20.9737,187.689,0.386545,0.0,0.0
530,132.25,37.4066,39.9717,147.29,98.9904,95.0616,0.0057341,0.100746,20.9757,187.679,0.363482,0.0,0.0
540,134.75,35.459,38.8247,146.783,99.0658,94.5601,0.00579936,0.0990779,20.9783,187.669,0.417789,0.0,0.0
550,137.25,36.6815,39.6753,145.296,99.1323,94.8677,0.0056388,0.0975897,20.9801,187.639,0.394656,0.0,0.0
560,139.75,36.1422,39.1225,146.861,99.1968,95.2093,0.00536211,0.0956552,20.9821,187.639,0.368237,0.0,0.0
570,142.25,35.534,38.945,144.19,99.2625,94.9905,0.00522728,0.094019,20.9848,187.639,0.39483,0.0,0.0
580,144.75,35.6815,38.6123,145.446,99.3064,95.128,0.00506411,0.0931884,20.9859,187.609,0.385814,0.0,0.0
590,147.25,36.2285,38.5444,141.928,99.3483,94.9206,0.00488239,0.0923239,20.987,187.599,0.409188,0.0,0.0
600,149.75,35.9482,38.0009,145.022,99.3721,95.9245,0.00477668,0.090878,20.9896,187.569,0.316912,0.0,0.0
610,152.25,35.8679,38.4796,149.115,99.4116,95.5919,0.00477925,0.0896649,20.9902,187.559,0.351658,0.0,0.0
620,154.75,35.3662,37.8315,143.513,99.4426,94.7759,0.00473714,0.0890833,20.9903,187.539,0.431402,0.0,0.0
630,157.25,34.7784,37.4283,142.036,99.4797,95.343,0.00456801,0.0883376,20.9911,187.529,0.381201,0.0,0.0
640,159.75,34.4685,36.8507,146.228,99.5023,95.216,0.00430402,0.0875547,20.9921,187.519,0.395197,0.0,0.0
650,162.25,35.1869,37.22,144.363,99.5212,95.506,0.00422973,0.0863617,20.9928,187.489,0.369619,0.0,0.0
660,164.75,35.0552,37.205,148.965,99.5414,96.0794,0.00420688,0.0852068,20.9942,187.479,0.317706,0.0,0.0
670,167.25,34.9911,36.8889,142.922,99.5502,95.6122,0.00413173,0.084243,20.9946,187.489,0.362258,0.0,0.0
680,169.75,34.5882,36.918,145.631,99.5555,95.6676,0.00406402,0.0836859,20.9948,187.459,0.357528,0.0,0.0
690,172.25,34.2106,37.0573,143.364,99.5684,95.6156,0.00401559,0.0829396,20.9949,187.449,0.363577,0.0,0.0
700,174.75,34.4963,36.2442,145.056,99.566,95.8763,0.00398421,0.0819445,20.9978,187.449,0.338919,0.0,0.0
710,177.25,34.0855,37.0653,146.672,99.5732,95.5165,0.00390947,0.0810803,20.9997,187.409,0.373313,0.0,0.0
720,179.75,34.0793,36.2624,151.375,99.5893,95.6152,0.00367008,0.0803534,21.0004,187.389,0.365505,0.0,0.0
730,182.25,34.4422,36.3499,140.043,99.5881,95.5779,0.00346879,0.079596,21.0006,187.379,0.368892,0.0,0.0
740,184.75,34.2081,36.2626,143.813,99.595,95.8399,0.00334834,0.0786219,21.0008,187.369,0.344943,0.0,0.0
750,187.25,33.6062,35.9874,140.183,99.5785,95.3777,0.00318016,0.077751,21.0017,187.349,0.386838,0.0,0.0
760,189.75,34.0992,35.9774,148.356,99.5869,95.8314,0.00306701,0.0770466,21.0033,187.359,0.345009,0.0,0.0
770,192.25,34.0505,35.8872,148.039,99.5801,95.5263,0.00301,0.0759738,21.0041,187.349,0.373016,0.0,0.0
780,194.75,33.9471,35.8423,144.667,99.5853,95.2436,0.00292458,0.0749495,21.0058,187.359,0.400089,0.0,0.0
790,197.25,34.02,35.4385,143.352,99.5704,95.4382,0.00275978,0.0742224,21.0076,187.299,0.380419,0.0,0.0
800,199.75,33.7437,35.478,146.073,99.5772,95.5318,0.00264648,0.0737692,21.0091,187.299,0.372244,0.0,0.0
810,202.25,32.7579,34.2323,146.921,99.5627,95.2753,0.00260099,0.0732159,21.0097,187.289,0.395065,0.0,0.0
820,204.75,33.7805,35.6028,141.601,99.5615,95.1644,0.00256915,0.0728936,21.0103,187.299,0.405408,0.0,0.0
830,207.25,33.6295,35.4819,145.482,99.5611,94.9617,0.00252943,0.0723256,21.0107,187.269,0.424511,0.0,0.0
840,209.75,33.1086,35.3175,145.797,99.5857,96.2174,0.00244198,0.0717885,21.0108,187.279,0.308822,0.0,0.0
850,212.25,33.6965,35.3157,142.53,99.5426,95.7789,0.00245289,0.0716694,21.0108,187.239,0.345929,0.0,0.0
860,214.75,33.8204,35.3647,143.178,99.549,95.0404,0.0026324,0.0713395,21.012,187.259,0.415984,0.0,0.0
870,217.25,33.556,34.9707,142.13,99.541,95.1885,,0.0711645,,187.239,0.40128,0.0,0.0
880,219.75,33.3131,35.5619,143.185,99.541,95.4226,,,,187.229,0.379239,0.0,0.0
890,222.25,33.6452,35.4991,143.384,99.541,95.2258,,,,187.209,0.397769,0.0,0.0
900,224.75,33.4791,35.0733,149.346,99.5333,95.6668,,,,187.209,0.355608,0.0,0.0
904,225.75,33.3247,35.4675,152.937,99.5281,95.3947,,,,187.209,0.380703,0.0,0.0