File: 01_Data/Engineered_Flooring/STA/N2/10K_min/EF_STA_N2_10KData_211412_R2.csv
##Temp./Â°C,Time/min,Mass loss(subtr.2)/mg,DSC(subtr.2)/(mW/mg),Sensit./(uV/mW)
49.42,10.01,-0.05758,0.008008275,1.07446
52.42,11.29537,-0.0633149,0.08631488,1.07425
55.42,11.73231,-0.06266017,0.12518,1.07401
58.42,12.10333,-0.06643577,0.14198,1.07375
61.42,12.44942,-0.06699331,0.15443,1.07347
64.42,12.78398,-0.06690658,0.16504,1.07317
67.42,13.11135,-0.0710752,0.17576,1.07285
70.42,13.434,-0.07303908,0.18286,1.07251
73.42,13.7525,-0.07261103,0.19253,1.07215
76.42,14.0673,-0.07644956,0.19939,1.07176
79.42,14.38021,-0.07821748,0.2072,1.07136
82.42,14.69009,-0.08028999,0.21248,1.07093
85.42,14.996,-0.08341322,0.21598,1.07048
88.42,15.29938,-0.08494573,0.21472,1.07002
91.42,15.6,-0.08663997,0.21418,1.06953
94.42,15.90056,-0.09080386,0.2095,1.06902
97.42,16.199,-0.09208131,0.20345,1.06849
100.42,16.49598,-0.09345484,0.19907,1.06794
103.42,16.7921,-0.09470176,0.19798,1.06737
106.42,17.08696,-0.0960224,0.19354,1.06678
109.42,17.3821,-0.09739931,0.18996,1.06617
112.42,17.67588,-0.09880476,0.18667,1.06554
115.42,17.96964,-0.09989861,0.18409,1.06489
118.42,18.26376,-0.10061,0.18262,1.06421
121.42,18.55708,-0.10334,0.18462,1.06352
124.42,18.8506,-0.10397,0.18577,1.06281
127.42,19.1433,-0.10342,0.18525,1.06208
130.42,19.43511,-0.10596,0.18635,1.06132
133.42,19.7267,-0.10595,0.19151,1.06055
136.42,20.0179,-0.10857,0.19553,1.05976
139.42,20.3083,-0.1099,0.19764,1.05895
142.42,20.59883,-0.10965,0.20249,1.05811
145.42,20.88899,-0.11144,0.20443,1.05726
148.42,21.17861,-0.11341,0.21033,1.05639
151.42,21.46752,-0.11374,0.21511,1.0555
154.42,21.75657,-0.1174,0.22286,1.05459
157.42,22.04533,-0.11638,0.22738,1.05366
160.42,22.33384,-0.12098,0.23695,1.05271
163.42,22.62195,-0.12372,0.24768,1.05174
166.42,22.91028,-0.12525,0.2561,1.05075
169.42,23.19839,-0.12887,0.26958,1.04974
172.42,23.4872,-0.13184,0.28568,1.04872
175.42,23.77499,-0.13611,0.30127,1.04767
178.42,24.0628,-0.14004,0.3206,1.04661
181.42,24.35076,-0.14467,0.34039,1.04552
184.42,24.6382,-0.1506,0.36325,1.04442
187.42,24.92612,-0.15586,0.38553,1.0433
190.42,25.2129,-0.16335,0.40771,1.04216
193.42,25.501,-0.17172,0.43469,1.041
196.42,25.78739,-0.17952,0.45509,1.03982
199.42,26.07402,-0.19127,0.47717,1.03863
202.42,26.36165,-0.19925,0.49639,1.03742
205.42,26.6489,-0.21038,0.5093,1.03618
208.42,26.93678,-0.22168,0.51752,1.03493
211.42,27.22455,-0.23195,0.52315,1.03367
214.42,27.512,-0.24231,0.52414,1.03238
217.42,27.7999,-0.25523,0.51833,1.03107
220.42,28.087,-0.26662,0.51567,1.02975
223.42,28.3735,-0.27822,0.50669,1.02841
226.42,28.66013,-0.29,0.49523,1.02706
229.42,28.9472,-0.30453,0.48432,1.02568
232.42,29.2332,-0.31604,0.47103,1.02429
235.42,29.51965,-0.32916,0.4608,1.02288
238.42,29.8059,-0.34405,0.44684,1.02145
241.42,30.09204,-0.35838,0.43475,1.02001
244.42,30.3783,-0.37222,0.41966,1.01854
247.42,30.6646,-0.38897,0.40581,1.01707
250.42,30.9514,-0.40388,0.39382,1.01557
253.42,31.23767,-0.42067,0.38272,1.01406
256.42,31.52447,-0.44059,0.36776,1.01253
259.42,31.8109,-0.46055,0.35402,1.01098
262.42,32.09795,-0.48185,0.34191,1.00942
265.42,32.3849,-0.50531,0.32698,1.00784
268.42,32.67168,-0.53121,0.31235,1.00625
271.42,32.9589,-0.55905,0.29819,1.00464
274.42,33.24588,-0.59018,0.2809,1.00301
277.42,33.5334,-0.62272,0.26484,1.00136
280.42,33.82071,-0.65885,0.24693,0.9997
283.42,34.10801,-0.69665,0.22955,0.99803
286.42,34.3947,-0.73534,0.21448,0.99634
289.42,34.68258,-0.77761,0.19612,0.99463
292.42,34.97031,-0.81993,0.18137,0.99291
295.42,35.25873,-0.86441,0.16429,0.99117
298.42,35.5473,-0.91014,0.15127,0.98942
301.42,35.83597,-0.9566,0.14125,0.98765
304.42,36.12482,-1.00529,0.13276,0.98587
307.42,36.4126,-1.0536,0.12698,0.98407
310.42,36.7005,-1.10717,0.11679,0.98226
313.42,36.98938,-1.15457,0.11573,0.98043
316.42,37.2783,-1.20923,0.11568,0.97858
319.42,37.567,-1.26306,0.12099,0.97673
322.42,37.85622,-1.32168,0.12409,0.97486
325.42,38.1456,-1.37925,0.1285,0.97297
328.42,38.43557,-1.43981,0.13421,0.97107
331.42,38.72613,-1.50264,0.14541,0.96915
334.42,39.01655,-1.56933,0.15685,0.96723
337.42,39.3066,-1.63888,0.17012,0.96528
340.42,39.59754,-1.71412,0.18516,0.96333
343.42,39.88795,-1.79263,0.19671,0.96136
346.42,40.17861,-1.87516,0.21373,0.95937
349.42,40.4698,-1.96421,0.22792,0.95738
352.42,40.7607,-2.05757,0.23734,0.95537
355.42,41.0516,-2.15413,0.24174,0.95334
358.42,41.34319,-2.25298,0.24149,0.95131
361.42,41.63436,-2.35105,0.22751,0.94926
364.42,41.9263,-2.44372,0.19934,0.9472
367.42,42.2177,-2.52452,0.15316,0.94512
370.42,42.50816,-2.59134,0.09513486,0.94303
373.42,42.80035,-2.638,0.03980783,0.94093
376.42,43.09183,-2.6708,-0.003024329,0.93882
379.42,43.3834,-2.69296,-0.03045289,0.93669
382.42,43.67556,-2.70759,-0.04809481,0.93456
385.42,43.9676,-2.71997,-0.05983722,0.93241
388.42,44.26021,-2.73229,-0.064584,0.93025
391.42,44.55273,-2.74474,-0.07143251,0.92807
394.42,44.84538,-2.75535,-0.07476103,0.92589
397.42,45.13779,-2.76584,-0.07892771,0.92369
400.42,45.43098,-2.77724,-0.0837513,0.92149
403.42,45.72416,-2.78766,-0.08862842,0.91927
406.42,46.01774,-2.79789,-0.08710859,0.91704
409.42,46.31023,-2.80667,-0.0880442,0.9148
412.42,46.6038,-2.81629,-0.08485196,0.91254
415.42,46.89689,-2.82623,-0.08417612,0.91028
418.42,47.18963,-2.83416,-0.08076123,0.90801
421.42,47.48278,-2.84578,-0.0795604,0.90572
424.42,47.77598,-2.85411,-0.074675,0.90343
427.42,48.06982,-2.86182,-0.07002007,0.90112
430.42,48.36472,-2.87145,-0.07075128,0.8988
433.42,48.65883,-2.87918,-0.062451,0.89648
436.42,48.95362,-2.88744,-0.06062461,0.89414
439.42,49.24853,-2.89307,-0.05643583,0.8918
442.42,49.54339,-2.90078,-0.05493444,0.88944
445.42,49.83777,-2.90874,-0.0518478,0.88708
448.42,50.13325,-2.91429,-0.04786581,0.8847
451.42,50.42844,-2.9218,-0.04308263,0.88232
454.42,50.72392,-2.92839,-0.04336316,0.87992
457.42,51.0193,-2.93432,-0.03886923,0.87752
460.42,51.31426,-2.94087,-0.03619551,0.87511
463.42,51.6098,-2.94724,-0.03199432,0.87269
466.42,51.90571,-2.95152,-0.03338647,0.87026
469.42,52.20193,-2.95781,-0.03037258,0.86782
472.42,52.49887,-2.9636,-0.02854825,0.86538
475.42,52.7957,-2.96809,-0.02439664,0.86292
478.42,53.09185,-2.97281,-0.0202133,0.86046
481.42,53.38765,-2.97809,-0.01460812,0.85799
484.42,53.68356,-2.98233,-0.006845721,0.85551
487.42,53.9795,-2.98742,0.004294295,0.85302
490.42,54.2759,-2.99202,0.007941852,0.85052
493.42,54.5728,-2.99726,0.009954186,0.84802
496.42,54.87073,-3.00123,0.01341525,0.84551
499.42,55.16823,-3.00448,0.01625179,0.84299
502.42,55.4655,-3.00978,0.01833196,0.84047
505.42,55.76295,-3.01274,0.02500477,0.83793
508.42,56.0596,-3.01801,0.0281743,0.83539
511.42,56.357,-3.02106,0.03184326,0.83285
514.42,56.65441,-3.025,0.03251946,0.83029
517.42,56.95242,-3.02953,0.03696119,0.82773
520.42,57.2509,-3.03215,0.03892612,0.82517
523.42,57.5494,-3.03612,0.04151702,0.82259
526.42,57.84808,-3.03874,0.04145105,0.82001
529.42,58.14677,-3.044,0.04069713,0.81743
532.42,58.44582,-3.04532,0.04037673,0.81483
535.42,58.7447,-3.04881,0.03672245,0.81224
538.42,59.04368,-3.05187,0.03335977,0.80963
541.42,59.34299,-3.05454,0.03328585,0.80702
544.42,59.6419,-3.05725,0.0319123,0.80441
547.42,59.94065,-3.06109,0.02428515,0.80178
550.42,60.23986,-3.06374,0.01387922,0.79916
553.42,60.5387,-3.06737,0.004206858,0.79653
556.42,60.838,-3.07034,0.001660654,0.79389
559.42,61.1371,-3.07203,-0.00252798,0.79125
562.42,61.4364,-3.0746,-0.003681445,0.7886
565.42,61.736,-3.07802,-0.004449446,0.78595
568.42,62.03566,-3.0803,-0.00895203,0.78329
571.42,62.33571,-3.08053,-0.01140972,0.78063
574.42,62.6353,-3.08316,-0.01071397,0.77797
577.42,62.9356,-3.08688,-0.00682702,0.7753
580.42,63.23599,-3.08842,-0.01053707,0.77262
583.42,63.5363,-3.09106,-0.01061179,0.76994
586.42,63.83582,-3.09336,-0.01316706,0.76726
589.42,64.13683,-3.097,-0.01348008,0.76457
592.42,64.43745,-3.09757,-0.01439361,0.76188
595.42,64.7375,-3.10061,-0.01496717,0.75919
598.42,65.03837,-3.10294,-0.01959516,0.75649
601.42,65.33853,-3.1029,-0.01744523,0.75379
604.42,65.63975,-3.10653,-0.02064112,0.75109
607.42,65.94077,-3.10784,-0.02066449,0.74838
610.42,66.24194,-3.11051,-0.02337696,0.74567
613.42,66.54389,-3.11307,-0.02187783,0.74296
616.42,66.84472,-3.11449,-0.0230146,0.74024
619.42,67.14594,-3.11706,-0.02201644,0.73752
622.42,67.44645,-3.11943,-0.02586658,0.7348
625.42,67.74741,-3.12068,-0.02623498,0.73208
628.42,68.04867,-3.12133,-0.02633901,0.72935
631.42,68.3502,-3.12397,-0.02710098,0.72662
634.42,68.65308,-3.12592,-0.02437771,0.72389
637.42,68.95518,-3.12832,-0.02703045,0.72116
640.42,69.2569,-3.13122,-0.02968622,0.71842
643.42,69.5588,-3.1312,-0.03021353,0.71568
646.42,69.86017,-3.13121,-0.02841649,0.71294
649.42,70.16152,-3.13384,-0.03047856,0.7102
652.42,70.46374,-3.13526,-0.03337458,0.70746
655.42,70.7658,-3.13658,-0.02846799,0.70472
658.42,71.06737,-3.13811,-0.03220214,0.70197
661.42,71.36998,-3.13921,-0.02871147,0.69923
664.42,71.67195,-3.14184,-0.03154181,0.69648
667.42,71.97414,-3.14218,-0.03713254,0.69373
670.42,72.27508,-3.14349,-0.03995891,0.69098
673.42,72.57722,-3.14448,-0.03987511,0.68823
676.42,72.87963,-3.14478,-0.04294673,0.68548
679.42,73.1829,-3.14744,-0.04582211,0.68273
682.42,73.48613,-3.14875,-0.04631933,0.67998
685.42,73.7887,-3.15106,-0.0475464,0.67722
688.42,74.09159,-3.15238,-0.05064781,0.67447
691.42,74.39456,-3.15202,-0.05442766,0.67172
694.42,74.69781,-3.15369,-0.05327239,0.66896
697.42,75.0017,-3.15501,-0.05116812,0.66621
700.42,75.30505,-3.15566,-0.05553183,0.66346
703.42,75.6074,-3.15795,-0.05318354,0.66071
706.42,75.91023,-3.15864,-0.0516979,0.65795
709.42,76.21266,-3.15831,-0.05254651,0.6552
712.42,76.5158,-3.16093,-0.05266059,0.65245
715.42,76.81955,-3.1606,-0.04989395,0.6497
718.42,77.1233,-3.16225,-0.05140215,0.64695
721.42,77.42747,-3.16355,-0.04574376,0.6442
724.42,77.7319,-3.16356,-0.04521456,0.64145
727.42,78.0363,-3.1649,-0.04216086,0.6387
730.42,78.34063,-3.16657,-0.0403172,0.63595
733.42,78.6446,-3.1671,-0.04050925,0.63321
736.42,78.94859,-3.16817,-0.04266107,0.63046
739.42,79.25246,-3.16859,-0.04175095,0.62772
742.42,79.55681,-3.16981,-0.03733274,0.62498
745.42,79.86104,-3.16949,-0.03381088,0.62224
746.72,79.99251,-3.17123,-0.03039028,0.62105