File: 01_Data/Engineered_Flooring/STA/N2/10K_min/EF_STA_N2_10KData_211412_R1.csv
##Temp./Â°C,Time/min,Mass loss(subtr.2)/mg,DSC(subtr.2)/(mW/mg),Sensit./(uV/mW)
49.344,10.00917,0.00362,0.01310341,1.07447
52.444,11.30755,0.003510841,0.12785,1.07424
55.544,11.7538,0.00487894,0.18003,1.074
58.644,12.13528,0.00303423,0.20477,1.07373
61.744,12.49065,0.002960065,0.22013,1.07344
64.844,12.83429,0.003110507,0.23697,1.07313
67.944,13.1704,0.002307304,0.24847,1.07279
71.044,13.5039,0.00143316,0.26073,1.07243
74.144,13.83199,-0.0007271581,0.27405,1.07205
77.244,14.15754,0.000114854,0.28767,1.07165
80.344,14.47887,-0.002209237,0.29712,1.07123
83.444,14.7971,-0.003509795,0.30511,1.07078
86.544,15.112,-0.00614899,0.30947,1.07031
89.644,15.4247,-0.007415272,0.30956,1.06982
92.744,15.73586,-0.008758103,0.3051,1.06931
95.844,16.04446,-0.008779512,0.30157,1.06877
98.944,16.35096,-0.01141,0.30087,1.06821
102.044,16.65781,-0.01206723,0.29196,1.06764
105.144,16.96303,-0.01306001,0.29087,1.06703
108.244,17.26732,-0.01535995,0.28841,1.06641
111.344,17.57159,-0.01536,0.28477,1.06577
114.444,17.87479,-0.01536004,0.279,1.0651
117.544,18.17824,-0.01535983,0.27522,1.06441
120.644,18.48145,-0.01536,0.27683,1.0637
123.744,18.7843,-0.01569131,0.27784,1.06297
126.844,19.08661,-0.01602015,0.28003,1.06222
129.944,19.38788,-0.01799,0.27982,1.06144
133.044,19.68893,-0.01799999,0.28039,1.06065
136.144,19.9897,-0.01799054,0.28798,1.05983
139.244,20.29032,-0.01799007,0.28798,1.05899
142.344,20.589,-0.01832,0.29128,1.05814
145.444,20.88963,-0.02061116,0.29801,1.05726
148.544,21.18976,-0.01931031,0.30138,1.05635
151.644,21.48854,-0.02062999,0.30903,1.05543
154.744,21.7859,-0.02310962,0.31406,1.05449
157.844,22.0839,-0.02325335,0.32367,1.05352
160.944,22.38253,-0.02540124,0.33421,1.05254
164.044,22.68065,-0.02719802,0.34365,1.05154
167.144,22.97839,-0.02984,0.35227,1.05051
170.244,23.2763,-0.03247919,0.36736,1.04946
173.344,23.574,-0.03539777,0.38335,1.0484
176.444,23.87167,-0.03839123,0.40409,1.04731
179.544,24.16986,-0.04365997,0.42303,1.0462
182.644,24.46791,-0.04892004,0.44614,1.04508
185.744,24.76526,-0.05426363,0.47114,1.04393
188.844,25.06264,-0.06059741,0.49476,1.04276
191.944,25.3602,-0.06667452,0.51921,1.04157
195.044,25.65806,-0.07426082,0.54588,1.04037
198.144,25.95536,-0.08228547,0.56932,1.03914
201.244,26.25295,-0.09181427,0.59134,1.03789
204.344,26.5502,-0.10032,0.60687,1.03663
207.444,26.84682,-0.11372,0.6234,1.03534
210.544,27.1428,-0.12196,0.63106,1.03404
213.644,27.43892,-0.13316,0.63355,1.03271
216.744,27.7355,-0.14562,0.63017,1.03137
219.844,28.03217,-0.1561,0.62529,1.03001
222.944,28.3285,-0.16892,0.61443,1.02863
226.044,28.62449,-0.18044,0.60407,1.02723
229.144,28.92047,-0.19306,0.59071,1.02581
232.244,29.2172,-0.20673,0.57713,1.02437
235.344,29.5135,-0.2198,0.56098,1.02291
238.444,29.8101,-0.23377,0.54652,1.02144
241.544,30.10657,-0.24801,0.53231,1.01995
244.644,30.4031,-0.26446,0.51437,1.01843
247.744,30.6989,-0.2798,0.50156,1.01691
250.844,30.9951,-0.29667,0.48374,1.01536
253.944,31.29161,-0.31575,0.47061,1.01379
257.044,31.5869,-0.3337,0.45756,1.01221
260.144,31.8826,-0.35614,0.44327,1.01061
263.244,32.1786,-0.37735,0.42739,1.00899
266.344,32.4747,-0.4011,0.40931,1.00735
269.444,32.77084,-0.42823,0.38813,1.0057
272.544,33.06745,-0.45825,0.3672,1.00403
275.644,33.36468,-0.49064,0.35013,1.00234
278.744,33.66128,-0.52661,0.32857,1.00063
281.844,33.95795,-0.56359,0.30543,0.99891
284.944,34.255,-0.60371,0.28306,0.99717
288.044,34.55252,-0.64582,0.26361,0.99542
291.144,34.85011,-0.68892,0.24486,0.99364
294.244,35.14747,-0.73288,0.22532,0.99185
297.344,35.44509,-0.77893,0.20797,0.99005
300.444,35.7429,-0.82845,0.19409,0.98823
303.544,36.04076,-0.87685,0.18494,0.98639
306.644,36.33889,-0.9246,0.1759,0.98454
309.744,36.63718,-0.97599,0.16988,0.98267
312.844,36.9351,-1.02904,0.16743,0.98078
315.944,37.23328,-1.08224,0.16591,0.97888
319.044,37.53212,-1.13692,0.16617,0.97696
322.144,37.83005,-1.1934,0.16743,0.97503
325.244,38.12983,-1.25353,0.17346,0.97308
328.344,38.42938,-1.31618,0.17653,0.97112
331.444,38.72846,-1.38176,0.1853,0.96914
334.544,39.02823,-1.45003,0.19782,0.96715
337.644,39.32839,-1.52233,0.20528,0.96514
340.744,39.62807,-1.59891,0.21883,0.96312
343.844,39.92791,-1.68077,0.23459,0.96108
346.944,40.2288,-1.76698,0.24539,0.95903
350.044,40.52926,-1.85802,0.25709,0.95696
353.144,40.83047,-1.95569,0.26279,0.95488
356.244,41.13122,-2.05694,0.26151,0.95279
359.344,41.43233,-2.15754,0.25261,0.95068
362.444,41.73333,-2.25872,0.23617,0.94856
365.544,42.03471,-2.34759,0.20036,0.94642
368.644,42.33524,-2.4248,0.15153,0.94427
371.744,42.63643,-2.48369,0.09549303,0.94211
374.844,42.93762,-2.52321,0.04779126,0.93993
377.944,43.23921,-2.54889,0.01765071,0.93774
381.044,43.54043,-2.56681,-0.001532973,0.93554
384.144,43.84186,-2.58137,-0.02067303,0.93332
387.244,44.14322,-2.59449,-0.02936695,0.9311
390.344,44.44536,-2.60684,-0.03701656,0.92886
393.444,44.7477,-2.61721,-0.04455959,0.9266
396.544,45.0508,-2.62908,-0.050887,0.92434
399.644,45.35366,-2.63961,-0.05887716,0.92206
402.744,45.6565,-2.65127,-0.05797576,0.91977
405.844,45.95917,-2.66022,-0.05682056,0.91747
408.944,46.26283,-2.67074,-0.06152875,0.91515
412.044,46.56657,-2.68168,-0.06364402,0.91283
415.144,46.87038,-2.68959,-0.06596813,0.91049
418.244,47.1747,-2.7004,-0.060987,0.90814
421.344,47.4787,-2.70932,-0.06382382,0.90578
424.444,47.7821,-2.72076,-0.05792215,0.90341
427.544,48.08698,-2.72804,-0.05686257,0.90102
430.644,48.3915,-2.73696,-0.05310847,0.89863
433.744,48.69587,-2.74652,-0.04910711,0.89623
436.844,49.00008,-2.7541,-0.04599606,0.89381
439.944,49.3048,-2.76403,-0.04141487,0.89139
443.044,49.6091,-2.77243,-0.03830755,0.88895
446.144,49.91365,-2.77934,-0.0318193,0.8865
449.244,50.2181,-2.7856,-0.0315159,0.88405
452.344,50.5226,-2.7918,-0.02760789,0.88158
455.444,50.8271,-2.79982,-0.02411864,0.8791
458.544,51.1321,-2.80618,-0.02120402,0.87662
461.644,51.4375,-2.81358,-0.02149927,0.87412
464.744,51.7434,-2.8209,-0.01702694,0.87162
467.844,52.04927,-2.82607,-0.01750662,0.8691
470.944,52.35533,-2.8336,-0.01366742,0.86658
474.044,52.6618,-2.83824,-0.01270455,0.86405
477.144,52.9684,-2.84384,-0.01124542,0.86151
480.244,53.27424,-2.84923,-0.00750115,0.85896
483.344,53.5803,-2.85349,-0.003386845,0.8564
486.444,53.88649,-2.85821,0.006421175,0.85383
489.544,54.19299,-2.8637,0.01338424,0.85125
492.644,54.49994,-2.86763,0.01696187,0.84867
495.744,54.8065,-2.87161,0.02203248,0.84608
498.844,55.11362,-2.87685,0.02171115,0.84347
501.944,55.4208,-2.88178,0.02701004,0.84087
505.044,55.72772,-2.88442,0.02583602,0.83825
508.144,56.0344,-2.88852,0.02990706,0.83563
511.244,56.3419,-2.89317,0.03565478,0.833
514.344,56.6486,-2.89725,0.03480077,0.83036
517.444,56.9557,-2.89858,0.03944261,0.82771
520.544,57.263,-2.90512,0.04212625,0.82506
523.644,57.57009,-2.9078,0.0441585,0.8224
526.744,57.87829,-2.91074,0.04659189,0.81973
529.844,58.1854,-2.91398,0.04777685,0.81706
532.944,58.49411,-2.91811,0.04717509,0.81438
536.044,58.80228,-2.92237,0.05186419,0.81169
539.144,59.11071,-2.92435,0.04862432,0.809
542.244,59.41995,-2.92868,0.04414266,0.8063
545.344,59.72851,-2.93109,0.04272317,0.8036
548.444,60.03734,-2.93311,0.04382576,0.80089
551.544,60.34743,-2.93641,0.03754166,0.79817
554.644,60.6569,-2.93905,0.02940902,0.79545
557.744,60.9661,-2.94299,0.02545515,0.79272
560.844,61.27581,-2.94497,0.02002804,0.78999
563.944,61.58518,-2.94892,0.0214112,0.78725
567.044,61.895,-2.95154,0.01717015,0.78451
570.144,62.2049,-2.95319,0.0160661,0.78176
573.244,62.5153,-2.95641,0.01437621,0.77901
576.344,62.826,-2.95846,0.01496103,0.77625
579.444,63.1359,-2.96241,0.01292072,0.77349
582.544,63.4457,-2.96372,0.01449058,0.77073
585.644,63.7561,-2.96701,0.01202898,0.76795
588.744,64.0668,-2.96879,0.0106111,0.76518
591.844,64.37765,-2.97228,0.007266837,0.7624
594.944,64.6887,-2.97227,0.009111284,0.75962
598.044,65.00014,-2.97856,0.00621852,0.75683
601.144,65.31093,-2.97885,0.00461885,0.75404
604.244,65.62309,-2.98149,0.007553816,0.75125
607.344,65.93467,-2.98315,0.005116652,0.74845
610.444,66.24606,-2.98578,0.00470838,0.74565
613.544,66.55676,-2.9884,0.007239051,0.74285
616.644,66.86745,-2.99104,0.00595654,0.74004
619.744,67.17815,-2.99367,0.006575715,0.73723
622.844,67.48959,-2.99367,0.00643342,0.73442
625.944,67.80113,-2.99743,0.004995405,0.7316
629.044,68.11333,-2.99992,0.006662335,0.72878
632.144,68.42551,-3.00182,0.003256348,0.72596
635.244,68.7379,-3.00354,0.005389513,0.72314
638.344,69.05005,-3.00617,0.0007829852,0.72031
641.444,69.36237,-3.00814,7.177387e-05,0.71749
644.544,69.6752,-3.00881,0.0008772141,0.71466
647.644,69.98744,-3.01276,-0.003155701,0.71183
650.744,70.29938,-3.01275,-0.0007998748,0.70899
653.844,70.6113,-3.0167,0.00275976,0.70616
656.944,70.92354,-3.01771,0.00153931,0.70332
660.044,71.23501,-3.01967,0.00245799,0.70049
663.144,71.54688,-3.02075,0.00040071,0.69765
666.244,71.8588,-3.02293,-0.001974762,0.69481
669.344,72.17113,-3.02328,-0.001905594,0.69197
672.444,72.48421,-3.02525,-0.006072418,0.68913
675.544,72.7976,-3.02748,-0.008721915,0.68628
678.644,73.11007,-3.02846,-0.01296615,0.68344
681.744,73.42394,-3.03021,-0.0086689,0.6806
684.844,73.73668,-3.03151,-0.01269133,0.67775
687.944,74.05136,-3.03256,-0.01341169,0.67491
691.044,74.3633,-3.03414,-0.01220102,0.67206
694.144,74.6763,-3.03678,-0.01563346,0.66922
697.244,74.98886,-3.03677,-0.01573271,0.66637
700.344,75.30165,-3.03941,-0.01847488,0.66353
703.444,75.61434,-3.0394,-0.02308363,0.66068
706.544,75.92814,-3.04161,-0.02683282,0.65784
709.644,76.24256,-3.0427,-0.02463201,0.65499
712.744,76.5569,-3.04337,-0.02871583,0.65215
715.844,76.87062,-3.0432,-0.02513466,0.64931
718.944,77.18539,-3.04544,-0.02667156,0.64647
722.044,77.49956,-3.04609,-0.01923002,0.64362
725.144,77.8138,-3.0484,-0.02070889,0.64078
728.244,78.12858,-3.04906,-0.02756588,0.63794
731.344,78.44232,-3.05037,-0.02463702,0.63511
734.444,78.7552,-3.05103,-0.02469473,0.63227
737.544,79.06922,-3.05169,-0.02658987,0.62943
740.644,79.38274,-3.05235,-0.02270799,0.6266
743.744,79.69674,-3.05367,-0.02423946,0.62377
746.644,79.99161,-3.05432,-0.02861701,0.62112