File: 01_Data/Vinyl_Plan_Flooring/HFM/Vinyl_Plan_Flooring_Density_Wet_R3.csv
,Vinyl_Plan_Flooring_WET_3
Sample Mass [g],67.4
Sample Volume [cm3],100.6
Sample Density [kg/m3],670