File: 01_Data/Vinyl_Plan_Flooring/HFM/Vinyl_Plan_Flooring_Density_Wet_R2.csv
,Vinyl_Plan_Flooring_WET_2
Sample Mass [g],67.6
Sample Volume [cm3],100.1
Sample Density [kg/m3],676