File: 01_Data/Vinyl_Plan_Flooring/HFM/Vinyl_Plan_Flooring_Density_Wet_R1.csv
,Vinyl_Plan_Flooring_WET_1
Sample Mass [g],67.0
Sample Volume [cm3],103.8
Sample Density [kg/m3],645