File: 01_Data/EPDM_Membrane/Cone/EPDM_Membrane_Cone_HF25-Frame+GridScan_220311_R4.csv
Names,Time,Stack TC,Smoke TC,Exh Press,Smoke Comp,Smoke Meas,CO Meter,CO2 Meter,O2 Meter,Sample Mass,Ext Coeff,Start Test,Flame Verif
Chan Gain,,500,500,1,1,1,1,1,1,1,1,1.0,1.0
Offset,,0,0,0.136191,0,0,0,0,0,0,0,0.0,0.0
Gain,,1,1,25.011,13.291,13.2919,1,1,1,1.00093,1.00758,1.0,1.0
Units,sec,C,C,Pa,%,%,%,%,%,g,/m,,
Baseline,,18.9491,19.6415,176.164,100.15,98.1024,0.000820186,0.0675592,21.0282,-0.60114,0.182584,,
58,14.25,18.1142,18.678,177.474,100.326,99.4715,0.000627674,0.0717681,21.025,1030.71,0.0756163,0.0,0.0
116,28.75,18.7449,18.8466,173.424,100.253,98.8379,0.0010007,0.0668178,21.0325,1030.71,0.125625,0.0,0.0
174,43.25,18.092,19.271,173.639,100.159,98.7701,0.000724208,0.0684101,21.0278,1030.7,0.12342,0.0,0.0
232,57.75,18.5331,19.1422,177.859,100.026,98.6537,0.000839736,0.0688283,21.0285,1030.7,0.122095,0.0,0.0
290,72.25,18.9323,19.0356,174.993,99.8548,97.9183,0.000478243,0.0717888,21.0251,1030.66,0.173092,0.0,0.0
348,86.75,18.7855,19.2881,176.646,99.7417,97.8165,0.000736531,0.067447,21.031,1030.63,0.172264,0.0,0.0
406,101.25,19.1241,19.3656,175.228,99.6439,98.0189,0.000533345,0.0708977,21.0288,1030.63,0.145328,0.0,0.0
464,115.75,19.1167,19.8136,174.376,99.6877,97.3224,0.000586763,0.0670498,21.0346,1030.57,0.212238,0.0,0.0
522,130.25,18.7568,19.885,179.612,99.9335,97.1366,0.000764761,0.0668518,21.0348,1030.55,0.250892,0.0,0.0
580,144.75,19.0496,19.2987,176.873,100.09,96.6628,0.000930361,0.0670574,21.0333,1030.49,0.307943,0.0,0.0
638,159.25,20.0339,20.7906,162.538,100.198,71.9888,0.00571118,0.153482,20.8326,1030.21,2.92235,0.0,0.0
696,173.75,30.0732,30.3872,152.19,100.225,63.8306,0.0152437,0.409374,20.4516,1029.1,3.98777,0.0,0.0
754,188.25,39.2609,40.7145,148.359,100.159,62.2807,0.017575,0.477524,20.3426,1027.86,4.19916,0.0,0.0
812,202.75,46.6042,49.134,156.477,100.047,58.2178,0.0187803,0.493239,20.3203,1026.55,4.78559,0.0,0.0
870,217.25,51.9065,54.9569,156.106,99.9607,61.0045,0.0184877,0.481364,20.3386,1025.23,4.36466,0.0,0.0
928,231.75,55.2784,58.8942,151.296,100.099,57.9866,0.018133,0.463525,20.3694,1024.01,4.82534,0.0,0.0
986,246.25,55.5969,60.0372,152.061,100.218,60.2415,0.0180213,0.454257,20.3847,1022.73,4.49865,0.0,0.0
1044,260.75,56.9359,61.8057,147.012,100.042,59.8075,0.0179947,0.450569,20.3858,1021.55,4.54698,0.0,0.0
1102,275.25,58.766,63.8938,156.082,99.7303,59.8838,0.0187725,0.474585,20.3472,1020.24,4.50815,0.0,0.0
1160,289.75,60.3419,65.6358,154.857,100.286,62.2032,0.018312,0.480234,20.3405,1018.94,4.2214,0.0,0.0
1218,304.25,60.4224,65.9995,149.654,100.076,63.1114,0.0161776,0.433326,20.4251,1017.72,4.07475,0.0,0.0
1276,318.75,59.0985,64.8174,155.115,98.6323,68.0346,0.0140278,0.386062,20.5025,1016.67,3.28243,0.0,0.0
1334,333.25,56.632,62.1547,152.248,98.6348,65.6645,0.0126759,0.35453,20.5541,1015.74,3.59604,0.0,0.0
1392,347.75,55.6439,60.6426,164.154,99.6946,69.8969,0.0108066,0.335043,20.5915,1014.89,3.13843,0.0,0.0
1450,362.25,53.495,58.3724,162.374,99.5312,71.5539,0.0101096,0.311208,20.6297,1014.11,2.91684,0.0,0.0
1508,376.75,51.9083,56.4687,160.109,99.6808,72.4784,0.00963984,0.298226,20.649,1013.37,2.81667,0.0,0.0
1566,391.25,50.5686,54.9512,161.057,100.21,71.6752,0.00922279,0.28755,20.6682,1012.63,2.96196,0.0,0.0
1624,405.75,49.4012,53.4609,161.331,98.2961,71.8934,0.00912767,0.281554,20.6765,1011.94,2.76464,0.0,0.0
1682,420.25,48.1693,51.9828,158.552,99.6715,73.6137,0.00886502,0.281114,20.6815,1011.23,2.67846,0.0,0.0
1740,434.75,48.0078,51.6311,161.107,99.9566,74.7098,0.00891786,0.281496,20.6764,1010.57,2.57308,0.0,0.0
1798,449.25,47.7587,50.907,163.309,100.164,72.1786,0.00905635,0.281905,20.6789,1009.86,2.89606,0.0,0.0
1856,463.75,47.5479,50.9109,161.686,99.1174,73.4134,0.00860088,0.278833,20.6833,1009.19,2.65328,0.0,0.0
1914,478.25,46.9957,49.9321,161.122,99.072,72.9996,0.00884971,0.280845,20.6809,1008.51,2.69918,0.0,0.0
1972,492.75,46.8603,49.8126,157.859,99.4849,74.2267,0.00870493,0.279122,20.6818,1007.8,2.58861,0.0,0.0
2030,507.25,46.8751,49.7948,157.19,100.032,73.3886,0.00854648,0.278426,20.6858,1007.13,2.73748,0.0,0.0
2088,521.75,46.8158,49.944,154.457,100.346,74.0518,0.00882843,0.275211,20.6908,1006.44,2.68559,0.0,0.0
2146,536.25,46.3442,49.5437,159.558,99.4675,72.5875,0.00861973,0.270813,20.6977,1005.81,2.78443,0.0,0.0
2204,550.75,46.5146,49.231,160.226,98.3431,71.3852,0.00844178,0.263602,20.7082,1005.14,2.83158,0.0,0.0
2262,565.25,46.1546,48.5359,162.41,99.2586,73.5574,0.00783496,0.260355,20.7126,1004.51,2.64854,0.0,0.0
2320,579.75,45.784,48.2532,163.811,99.6346,73.6251,0.00726467,0.252132,20.7281,1003.9,2.67382,0.0,0.0
2378,594.25,44.9188,47.3111,161.009,99.2805,75.1097,0.00703625,0.246832,20.7363,1003.31,2.4659,0.0,0.0
2436,608.75,43.9631,46.4904,160.179,100.128,75.3044,0.00668683,0.240528,20.7452,1002.79,2.51813,0.0,0.0
2494,623.25,43.7437,45.8994,165.716,99.7518,75.1053,0.00657322,0.234495,20.7568,1002.24,2.50829,0.0,0.0
2552,637.75,42.866,45.1389,164.861,99.7202,78.6011,0.00608633,0.228045,20.7681,1001.73,2.10339,0.0,0.0
2610,652.25,42.2362,44.3871,161.354,100.096,79.0249,0.00572875,0.22277,20.7765,1001.22,2.08911,0.0,0.0
2668,666.75,41.527,43.6732,160.969,100.365,81.0341,0.00512326,0.217198,20.7899,1000.77,1.89093,0.0,0.0
2726,681.25,40.9254,42.7854,162.762,100.454,83.2687,0.00485375,0.211465,20.7981,1000.33,1.65828,0.0,0.0
2784,695.75,40.3228,42.1337,163.398,100.285,84.4199,0.00435531,0.206338,20.8079,999.917,1.52207,0.0,0.0
2842,710.25,39.9021,41.4384,160.757,100.063,84.6625,0.00391315,0.201484,20.818,999.537,1.47713,0.0,0.0
2900,724.75,39.3604,40.8602,167.378,99.7222,85.2661,0.00326133,0.197401,20.8238,999.187,1.3842,0.0,0.0
2958,739.25,38.6321,40.2207,171.16,99.3713,85.6052,0.00317464,0.19285,20.8347,998.806,1.31796,0.0,0.0
3016,753.75,38.012,39.5747,163.373,98.9373,86.4607,0.00252614,0.188628,20.8435,998.496,1.19139,0.0,0.0
3074,768.25,37.6623,39.2255,167.747,98.6169,87.981,0.00239,0.185512,20.8484,998.166,1.00866,0.0,0.0
3132,782.75,37.4672,38.9128,167.067,98.5135,89.2198,0.00229081,0.181927,20.8559,997.845,0.875799,0.0,0.0
3190,797.25,36.9653,38.3847,170.188,98.5475,89.1379,0.0020977,0.178401,20.86,997.565,0.886976,0.0,0.0
3248,811.75,36.657,38.0037,154.837,98.7033,90.4059,0.00240362,0.175034,20.8674,997.305,0.776091,0.0,0.0
3306,826.25,36.2509,37.413,168.372,98.9523,91.0841,0.00239173,0.171835,20.8739,997.045,0.732304,0.0,0.0
3364,840.75,35.6755,37.1936,164.51,99.2614,92.0925,0.00227289,0.168199,20.8815,996.764,0.662554,0.0,0.0
3422,855.25,35.2294,36.6526,163.973,99.4431,92.0163,0.00296427,0.164289,20.885,996.544,0.686041,0.0,0.0
3480,869.75,34.7419,36.1089,166.329,99.523,92.7939,0.00305816,0.160761,20.891,996.304,0.618763,0.0,0.0
3538,884.25,34.3512,35.4255,162.417,99.5543,93.9309,0.00345521,0.157173,20.8985,996.084,0.513898,0.0,0.0
3596,898.75,33.9173,34.9143,167.726,99.5312,93.5934,0.00379613,0.153635,20.8989,995.873,0.543658,0.0,0.0
3654,913.25,33.6405,34.8937,172.015,99.5097,93.2174,0.00417008,0.151291,20.9053,995.673,0.577331,0.0,0.0
3712,927.75,33.1258,34.2643,173.022,99.4472,93.7106,0.0041593,0.147314,20.9112,995.433,0.525136,0.0,0.0
3770,942.25,32.7496,33.8541,167.404,99.3502,94.0059,0.00472113,0.143722,20.9148,995.243,0.488708,0.0,0.0
3828,956.75,32.27,33.4828,172.684,99.2363,93.8737,0.00465642,0.140822,20.9189,995.073,0.491004,0.0,0.0
3886,971.25,32.0376,32.9389,167.404,99.1714,93.8161,0.00562121,0.138224,20.9226,994.883,0.490646,0.0,0.0
3944,985.75,31.2882,32.2486,171.984,99.1251,94.3645,0.00589243,0.134534,20.929,994.762,0.435009,0.0,0.0
4002,1000.25,31.117,31.7985,170.558,99.0874,94.4282,0.0064412,0.131445,20.935,994.552,0.425682,0.0,0.0
4060,1014.75,30.1438,30.9567,175.197,98.9925,94.6983,0.00669684,0.129132,20.9352,994.402,0.391962,0.0,0.0
4118,1029.25,29.7738,30.7025,173.522,98.8639,94.513,0.00709601,0.127574,20.9389,994.132,0.397793,0.0,0.0
4176,1043.75,29.2725,30.0288,172.166,98.6903,94.5909,0.00791437,0.124607,20.9449,993.912,0.374979,0.0,0.0
4234,1058.25,29.0594,30.0776,168.969,98.554,94.1844,0.00770048,0.121074,20.9473,993.842,0.400824,0.0,0.0
4292,1072.75,28.736,29.3168,172.774,98.5216,94.3564,0.00853741,0.117607,20.9532,993.681,0.381789,0.0,0.0
4350,1087.25,28.3666,29.1823,172.866,98.6084,94.4493,0.00871668,0.115261,20.958,993.481,0.380876,0.0,0.0
4408,1101.75,27.9053,28.7815,170.592,98.9288,95.2159,0.00871994,0.113458,20.9594,993.411,0.338098,0.0,0.0
4466,1116.25,27.9567,28.6042,168.882,99.5165,95.6029,0.00895307,0.111074,20.9606,993.251,0.354602,0.0,0.0
4524,1130.75,27.3996,27.9028,172.508,100.144,95.6552,0.00922409,0.108996,20.9675,993.121,0.405284,0.0,0.0
4582,1145.25,26.8307,27.5663,172.49,100.481,96.8397,0.00899199,0.107893,20.9697,992.931,0.326212,0.0,0.0
4640,1159.75,26.7739,27.4402,172.277,100.471,96.1509,0.00892821,0.108588,20.9703,992.881,0.388444,0.0,0.0
4698,1174.25,25.917,26.7616,171.212,100.228,96.7326,0.00930276,0.10781,20.9715,992.761,0.313735,0.0,0.0
4756,1188.75,26.0519,26.7262,173.232,99.9538,96.3026,0.00942897,0.107028,20.9721,992.62,0.328898,0.0,0.0
4814,1203.25,25.7519,26.5546,173.492,99.7214,96.3513,0.00924089,0.10429,20.9772,992.49,0.303857,0.0,0.0
4872,1217.75,25.8164,26.429,168.15,100.152,96.8855,0.00925184,0.104855,20.974,992.39,0.293047,0.0,0.0
4930,1232.25,26.0981,26.7904,169.488,100.247,96.2661,0.00943096,0.101982,20.9777,992.24,0.358178,0.0,0.0
4988,1246.75,25.7423,26.2855,172.771,99.8779,96.776,0.00979643,0.102448,20.9792,992.14,0.278849,0.0,0.0
5046,1261.25,25.3048,25.9312,170.194,99.4634,95.2962,0.00967547,0.102801,20.9769,992,0.378278,0.0,0.0
5104,1275.75,24.6028,24.9879,174.865,99.6788,95.8666,0.00968903,0.0997674,20.9803,991.88,0.344658,0.0,0.0
5162,1290.25,23.9044,24.6659,174.553,99.8281,96.7533,0.00965721,0.0977188,20.9833,991.69,0.276509,0.0,0.0
5220,1304.75,24.2037,24.9119,175.846,99.7364,96.4255,0.00946333,0.0977848,20.9854,991.549,0.298379,0.0,0.0
5278,1319.25,23.9814,24.9363,174.238,99.4265,95.9976,0.0093556,0.0976054,20.9872,991.459,0.310189,0.0,0.0
5336,1333.75,23.7578,24.3986,175.622,99.0408,95.9246,0.00934867,0.0948213,20.9927,991.359,0.282557,0.0,0.0
5394,1348.25,23.6714,24.3818,170.866,98.7001,95.1746,0.00968325,0.09302,20.9977,991.269,0.321477,0.0,0.0
5452,1362.75,23.9421,24.0645,171.345,98.5009,96.1882,0.00914867,0.0906425,21.0001,991.109,0.209987,0.0,0.0
5510,1377.25,23.3074,24.435,169.97,98.6648,96.3233,0.0089756,0.0889977,21.0065,990.979,0.212275,0.0,0.0
5568,1391.75,23.8679,24.1612,172.102,99.2999,96.529,,,,990.929,0.250142,0.0,0.0
5583,1395.5,23.3448,23.8347,167.431,99.5068,97.5341,,,,990.809,0.176977,0.0,0.0