File: 01_Data/EPDM_Membrane/Cone/EPDM_Membrane_Cone_HF75-Frame+GridScalar_220225_R2.csv
LABORATORY,FSRI
TEST IDENT,EPDM_HF75_2
OPERATOR,Dow
MATERIAL,EPDM Roofing Membrane
ORIENTATION,Horizontal
HEAT FLUX,75
SURF AREA,0.00884
C FACTOR,0.0370678
SPEC HOLDER DIFF,380
SPECIMEN MASS,81.8
SCAN TIME,0.25
O2 DELAY TIME,11
CO DELAY TIME,11
CO2 DELAY TIME,8
FLOW FACTOR,1
SCAN COUNT,2634
TIME TO IGN,14.25
END OF TEST SCAN,2154
END OF TEST TIME,538.5
TEST STATUS,1
PRE TEST CMT,Dimensions: 100.09 x 100.78 x 5.98 mm; with frame and grid