File: 01_Data/EPDM_Membrane/Cone/EPDM_Membrane_Cone_HF75Scan_220225_R3.csv
Names,Time,Stack TC,Smoke TC,Exh Press,Smoke Comp,Smoke Meas,CO Meter,CO2 Meter,O2 Meter,Sample Mass,Ext Coeff,Start Test,Flame Verif
Chan Gain,,500,500,1,1,1,1,1,1,1,1,1.0,1.0
Offset,,0,0,0.13378,0,0,0,0,0,0,0,0.0,0.0
Gain,,1,1,25.011,14.4955,14.6297,1,1,1,1.00092,1.00831,1.0,1.0
Units,sec,C,C,Pa,%,%,%,%,%,g,/m,,
Baseline,,37.5667,39.4508,167.433,108.817,103.597,-0.00171175,0.0391671,21.0615,-945.816,0.434909,,
27,6.5,36.0938,38.3014,162.358,107.569,101.575,-0.00184089,0.0435164,21.0589,82.2152,0.507172,0.0,0.0
54,13.25,36.4885,38.157,162.418,107.929,86.2748,0.000443261,0.0682568,20.9994,82.1151,1.98066,0.0,1.0
81,20,40.6007,41.9687,148.831,108.297,53.9474,0.0126441,0.304001,20.5753,81.4545,6.16363,0.0,0.0
108,26.75,47.8435,49.6947,135.43,108.617,51.4427,0.0228891,0.530674,20.1707,80.5837,6.61027,0.0,0.0
135,33.5,56.175,59.7601,134.318,108.805,45.0021,0.0299461,0.688556,19.9022,79.6028,7.80862,0.0,0.0
162,40.25,64.8549,68.4585,134.296,108.882,45.6896,0.0319846,0.740024,19.8324,78.6019,7.6808,0.0,0.0
189,47,71.0991,75.8942,125.374,108.836,44.4596,0.0301885,0.720141,19.8779,77.7111,7.91844,0.0,0.0
216,53.75,75.6749,81.9064,134.457,108.796,46.6709,0.0287216,0.694546,19.9188,76.7502,7.4858,0.0,0.0
243,60.5,79.5148,85.9588,140.275,108.692,45.7999,0.0273088,0.667239,19.9738,75.8694,7.64405,0.0,0.0
270,67.25,82.3697,89.2547,136.345,108.572,48.9626,0.0267112,0.643724,20.0081,74.8985,7.0436,0.0,0.0
297,74,83.7444,91.7536,129.272,108.926,50.6811,0.0256856,0.623415,20.0457,74.0678,6.76728,0.0,0.0
324,80.75,85.9834,94.1993,136.927,109.339,46.0852,0.025074,0.605892,20.0679,73.1769,7.6416,0.0,0.0
351,87.5,87.115,96.1357,133.866,109.46,52.9353,0.0247757,0.60423,20.0744,72.4363,6.4257,0.0,0.0
378,94.25,89.0495,97.695,141.71,109.261,50.9034,0.0248005,0.599432,20.0828,71.5755,6.75578,0.0,0.0
405,101,88.9996,98.6062,141.307,108.852,49.402,0.0251082,0.602749,20.0715,70.6747,6.98737,0.0,0.0
432,107.75,90.5259,100.93,137.601,109.062,50.8405,0.0259967,0.614561,20.045,69.7939,6.7506,0.0,0.0
459,114.5,92.4047,101.769,133.296,109.336,53.1732,0.0252427,0.618009,20.0482,68.9431,6.37594,0.0,0.0
486,121.25,93.4731,102.729,139.187,109.586,48.2135,0.0257875,0.615058,20.0511,68.1023,7.26219,0.0,0.0
513,128,94.2675,104.05,131.368,109.717,48.2197,0.0266502,0.618587,20.0363,67.1514,7.27161,0.0,0.0
540,134.75,95.2532,105.358,135.123,109.675,47.4491,0.0292392,0.652263,19.97,66.2306,7.41078,0.0,0.0
567,141.5,98.7094,108.755,119.003,109.448,39.503,0.0368631,0.81058,19.6597,65.0795,9.01348,0.0,0.0
594,148.25,102.449,113.473,131.89,109.015,39.2704,0.0393281,0.892614,19.5603,63.8784,9.03069,0.0,0.0
621,155,106.078,118.314,130.824,108.496,44.2828,0.0375243,0.869525,19.6072,62.7174,7.92603,0.0,0.0
648,161.75,108.303,120.493,126.913,107.98,47.3174,0.0339627,0.796791,19.7552,61.6064,7.29755,0.0,0.0
675,168.5,107.95,121.475,134.574,107.625,43.2278,0.030652,0.720867,19.8684,60.5854,8.06797,0.0,0.0
702,175.25,108.518,121.131,131.168,107.517,43.7797,0.0300285,0.699784,19.8906,59.6546,7.9469,0.0,0.0
729,182,107.83,121.391,128.646,107.676,45.42,0.0293353,0.683516,19.9199,58.6236,7.63462,0.0,0.0
756,188.75,108.129,121.047,135.258,108.072,46.8589,0.0279752,0.652026,19.9748,57.7228,7.39121,0.0,0.0
783,195.5,107.635,119.819,136.62,108.56,50.0685,0.0265385,0.610426,20.0404,56.8921,6.84511,0.0,0.0
810,202.25,106.091,118.099,130.906,108.907,48.105,0.0256594,0.589628,20.0738,56.0413,7.22717,0.0,0.0
837,209,105.923,118.248,132.873,109.067,48.734,0.0251841,0.578853,20.0926,55.2105,7.12526,0.0,0.0
864,215.75,104.711,117.027,134.176,108.995,48.3961,0.0246924,0.563981,20.1141,54.3197,7.18096,0.0,0.0
891,222.5,104.775,115.635,133.04,108.882,50.3851,0.0244576,0.564345,20.1079,53.519,6.81557,0.0,0.0
918,229.25,104.295,115.619,132.014,108.733,48.5684,0.0250597,0.572714,20.0939,52.6682,7.12824,0.0,0.0
945,236,103.721,115.264,126.57,108.971,46.5124,0.025457,0.579754,20.0763,51.8574,7.53015,0.0,0.0
972,242.75,103.548,114.781,141.016,109.495,50.1467,0.026415,0.588558,20.0563,50.9466,6.90719,0.0,0.0
999,249.5,103.748,114.694,132.188,109.617,48.2135,0.0262876,0.596573,20.0441,50.1259,7.26472,0.0,0.0
1026,256.25,104.485,115.446,129.42,109.389,48.6309,0.0258631,0.581241,20.0712,49.2951,7.17004,0.0,0.0
1053,263,103.809,114.966,134.05,109.049,46.916,0.0257945,0.556023,20.1096,48.5044,7.46009,0.0,0.0
1080,269.75,103.59,114.254,132.422,109.346,51.6883,0.0242539,0.539811,20.1357,47.7036,6.62732,0.0,0.0
1107,276.5,103.103,113.475,135.908,109.678,52.5656,0.0232861,0.521586,20.1709,46.9129,6.50522,0.0,0.0
1134,283.25,101.988,112.545,136.35,109.898,50.4199,0.0220846,0.496209,20.216,46.1722,6.89158,0.0,0.0
1161,290,100.77,111.297,134.462,109.858,53.3014,0.020136,0.4679,20.2683,45.4816,6.39678,0.0,0.0
1188,296.75,99.4214,108.906,145.047,109.606,52.1548,0.0183982,0.436134,20.3237,44.821,6.56886,0.0,0.0
1215,303.5,98.0717,107.426,137.239,109.118,53.1268,0.0168415,0.409206,20.3795,44.2405,6.36604,0.0,0.0
1242,310.25,96.6691,105.006,137.32,108.562,55.0899,0.0151814,0.38497,20.424,43.6099,5.99996,0.0,0.0
1269,317,94.9076,103.351,147.458,108.07,58.154,0.0138724,0.363833,20.463,43.0794,5.48101,0.0,0.0
1296,323.75,92.5616,100.621,140.202,107.777,60.2242,0.0124518,0.345482,20.5013,42.5689,5.14761,0.0,0.0
1323,330.5,91.171,98.9729,140.574,107.756,63.8624,0.0107912,0.327651,20.5371,42.0285,4.62702,0.0,0.0
1350,337.25,89.2359,96.9076,147.768,108.009,65.184,0.00924076,0.3107,20.5718,41.6381,4.46664,0.0,0.0
1377,344,87.0802,94.2468,147.511,108.416,69.5106,0.00793187,0.294271,20.6025,41.1877,3.93152,0.0,0.0
1404,350.75,85.737,92.0576,149.456,108.873,70.5808,0.00691647,0.279355,20.6348,40.8374,3.83352,0.0,0.0
1431,357.5,84.2256,89.8962,148.892,109.168,72.2314,0.0054202,0.26393,20.6651,40.447,3.65303,0.0,0.0
1458,364.25,82.6449,88.6818,149.651,109.234,77.6818,0.00457931,0.248822,20.6952,40.1267,3.01494,0.0,0.0
1485,371,80.9536,87.126,155.05,109.122,80.9771,0.00327436,0.239717,20.7181,39.8164,2.63841,0.0,0.0
1512,377.75,80.26,85.6411,146.297,108.959,84.8037,0.00246613,0.226593,20.743,39.5762,2.21677,0.0,0.0
1539,384.5,78.5145,83.1263,146.708,108.828,84.6845,0.00197485,0.215568,20.7673,39.2859,2.21862,0.0,0.0
1566,391.25,77.5317,82.0826,154.008,109.256,88.3085,0.00146001,0.204532,20.7881,39.0758,1.88265,0.0,0.0
1593,398,76.2231,80.8611,146.622,109.691,90.2068,0.000694414,0.194922,20.8067,38.8756,1.72974,0.0,0.0
1620,404.75,74.9388,78.9954,151.468,109.757,93.4767,0.000250682,0.185239,20.824,38.6754,1.42008,0.0,0.0
1647,411.5,73.7897,77.6787,158.458,109.505,93.7218,-0.000111199,0.174927,20.8432,38.5152,1.37657,0.0,0.0
1674,418.25,72.0319,75.5821,152.304,109.249,95.4787,-0.00026437,0.166817,20.8603,38.3551,1.1916,0.0,0.0
1701,425,71.5649,74.9639,158.776,109.518,97.0225,-0.000317411,0.159122,20.8742,38.1749,1.07154,0.0,0.0
1728,431.75,70.4815,73.9614,153.667,109.816,98.4793,-0.000325568,0.153275,20.8852,38.0548,0.963697,0.0,0.0
1755,438.5,69.8527,72.5716,150.483,110.043,99.1285,-0.000427654,0.147208,20.897,37.9347,0.923844,0.0,0.0
1782,445.25,67.9212,71.5748,152.521,110.068,100.116,-0.000600263,0.142085,20.9071,37.8046,0.838189,0.0,0.0
1809,452,67.5822,70.2211,155.422,109.883,101.493,-0.0004019,0.136858,20.9163,37.6845,0.702466,0.0,0.0
1836,458.75,66.412,69.1246,154.128,109.505,100.385,-0.000679069,0.132185,20.9274,37.6144,0.769109,0.0,0.0
1863,465.5,65.5334,68.0675,156.453,109.003,100.672,-0.000588063,0.127784,20.9352,37.5243,0.703275,0.0,0.0
1890,472.25,64.7717,67.337,154.4375,108.454,100.509,-0.000378205,0.124754,20.9402,37.3942,0.672909,0.0,0.0
1917,479,63.9168,66.3271,149.061,108.072,100.469,-0.000489502,0.122259,20.9446,37.3242,0.645221,0.0,0.0
1944,485.75,63.1136,65.4185,157.455,107.941,100.225,-0.000205093,0.118718,20.9524,37.2241,0.655985,0.0,0.0
1971,492.5,62.1287,64.0789,154.783,108.082,100.735,5.10308e-05,0.117816,20.9569,37.144,0.622656,0.0,0.0
1998,499.25,61.7594,63.1475,159.029,108.41,101.217,0.00029787,0.11641,20.9618,37.0539,0.607205,0.0,0.0
2025,506,61.1061,62.75,156.395,108.798,100.981,0.000772637,0.116291,20.96,36.9538,0.659427,0.0,0.0
2052,512.75,60.1563,62.1329,158.034,109.136,101.506,0.00105199,0.116171,20.9595,36.8837,0.641028,0.0,0.0
2079,519.5,60.4283,61.6436,155.357,109.375,102.806,0.00140621,0.113585,20.9641,36.7837,0.5478,0.0,0.0
2106,526.25,58.7676,61.2183,157.646,109.433,101.751,0.00120653,0.114075,20.963,36.7036,0.643757,0.0,0.0
2133,533,58.6902,60.1031,157.78,109.321,102.012,0.00111428,0.116538,20.963,36.6335,0.612036,0.0,0.0
2160,539.75,58.8808,59.8439,161.741,109.176,101.914,0.00135792,0.112864,20.9703,36.5835,0.608803,0.0,0.0
2187,546.5,57.7974,59.3079,162.661,109.025,101.459,0.00181569,0.110091,20.9741,36.4934,0.636074,0.0,0.0
2214,553.25,57.7272,58.2833,158.779,108.942,101.16,0.00221294,0.108885,20.9735,36.4233,0.655512,0.0,0.0
2241,560,57.2325,58.1168,158.87,109.47,102.03,0.00242057,0.107613,20.9737,36.3433,0.622499,0.0,0.0
2268,566.75,56.3955,57.9701,159.932,109.839,103.05,0.00191544,0.105881,20.9781,36.3032,0.564301,0.0,0.0
2295,573.5,56.3372,57.4279,162.697,109.91,102.225,0.00256203,0.105891,20.9785,36.2031,0.641135,0.0,0.0
2322,580.25,56.4821,57.2431,155.015,109.68,101.731,0.00281794,0.106144,20.9794,36.1431,0.665393,0.0,0.0
2349,587,55.3904,57.2117,159.728,109.357,101.977,0.00263422,0.105408,20.9799,36.093,0.617952,0.0,0.0
2376,593.75,55.6551,55.9835,160.578,109.606,102.136,0.00289474,0.104012,20.9827,35.9929,0.624333,0.0,0.0
2403,600.5,54.972,55.9867,165.2,109.932,102.39,0.00326949,0.1039,20.9815,35.9329,0.628559,0.0,0.0
2430,607.25,54.823,56.4768,151.539,110.174,102.889,0.00333616,0.104619,20.9789,35.8528,0.605142,0.0,0.0
2457,614,54.384,56.2399,162.926,110.273,102.602,0.00322164,0.103756,20.9804,35.7927,0.637729,0.0,0.0
2484,620.75,54.5182,55.4551,164.114,110.163,102.624,0.00316752,0.103086,20.9826,35.7327,0.627042,0.0,0.0
2511,627.5,54.4445,55.4242,157.41,109.879,102.297,0.00342795,0.10361,20.9826,35.6426,0.632384,0.0,0.0
2538,634.25,53.934,55.2011,161.832,109.503,101.664,0.00332702,0.102629,20.983,35.6026,0.656973,0.0,0.0
2565,641,53.9735,55.1065,165.051,109.053,101.545,,,,35.5225,0.630865,0.0,0.0
2585,646,53.379,54.6583,159.732,108.72,102.039,,,,35.4925,0.561012,0.0,0.0