File: 01_Data/EPDM_Membrane/Cone/EPDM_Membrane_Cone_HF25-FrameScan_220225_R2.csv
Names,Time,Stack TC,Smoke TC,Exh Press,Smoke Comp,Smoke Meas,CO Meter,CO2 Meter,O2 Meter,Sample Mass,Ext Coeff,Start Test,Flame Verif
Chan Gain,,500,500,1,1,1,1,1,1,1,1,1.0,1.0
Offset,,0,0,0.135243,0,0,0,0,0,0,0,0.0,0.0
Gain,,1,1,25.011,15.3125,15.3273,1,1,1,1.00096,1.02035,1.0,1.0
Units,sec,C,C,Pa,%,%,%,%,%,g,/m,,
Baseline,,18.6219,19.1276,180.142,115.415,111.146,0.000434695,0.0427814,21.0623,-867.438,0.337391,,
42,10.25,16.6299,17.0921,177.717,115.787,113.365,0.000367027,0.0486998,21.0562,517.616,0.189244,0.0,0.0
84,20.75,16.9358,17.4238,182.975,116.676,114.125,0.000308206,0.0482681,21.057,517.586,0.197838,0.0,0.0
126,31.25,17.1237,16.8698,180.532,116.038,113.479,0.00030702,0.0435076,21.0643,517.576,0.199614,0.0,0.0
168,41.75,16.6386,17.5979,181.528,116.455,113.753,0.000433527,0.0428865,21.0645,517.586,0.210115,0.0,0.0
210,52.25,16.6417,17.315,182.727,115.539,112.212,0.000255321,0.0425743,21.0631,517.576,0.261504,0.0,0.0
252,62.75,16.8207,17.4076,180.905,115.873,113.04,0.00050155,0.0422682,21.0648,517.406,0.221517,0.0,0.0
294,73.25,17.4084,17.5437,178.882,115.301,112.223,0.000273598,0.0465434,21.0599,517.516,0.2422,0.0,0.0
336,83.75,17.3382,17.2576,178.507,114.298,111.141,0.000552391,0.0464827,21.0598,517.516,0.250686,0.0,0.0
378,94.25,17.8957,17.5128,184.605,114.979,111.839,0.000123402,0.0437961,21.0638,517.466,0.247853,0.0,0.0
420,104.75,16.8545,18.7554,180.139,116.463,112.523,0.000263967,0.0437073,21.0617,517.456,0.308011,0.0,0.0
462,115.25,17.6052,18.4071,168.383,116.441,102.01,0.00263863,0.0841557,20.9895,517.276,1.18426,0.0,1.0
504,125.75,24.5932,25.645,160.596,116.036,62.9487,0.0156708,0.407384,20.4204,516.355,5.47392,0.0,0.0
546,136.25,33.1483,36.2814,149.082,116.211,60.6422,0.020302,0.526124,20.225,515.324,5.82153,0.0,0.0
588,146.75,40.2774,44.8493,150.211,115.714,59.9528,0.0221222,0.553419,20.1963,514.203,5.88554,0.0,0.0
630,157.25,46.3614,51.4358,149.214,115.9,62.3818,0.0211983,0.537674,20.2248,513.112,5.54436,0.0,0.0
672,167.75,50.4514,56.3348,151.183,115.724,65.8404,0.0195304,0.521409,20.2588,512.101,5.04782,0.0,0.0
714,178.25,53.5634,60.0416,149.593,115.294,67.3867,0.0191971,0.509473,20.2812,511.04,4.80672,0.0,0.0
756,188.75,55.7649,62.7174,151.918,114.875,67.7034,0.0186372,0.503041,20.2913,510.099,4.73219,0.0,0.0
798,199.25,57.6203,64.7487,147.21,114.655,66.7221,0.0189623,0.512993,20.2735,509.048,4.84571,0.0,0.0
840,209.75,60.166,67.5457,152.344,114.664,70.3022,0.0196749,0.525433,20.2512,508.037,4.37855,0.0,0.0
882,220.25,62.0512,69.6696,150.439,114.836,64.3314,0.0211949,0.565733,20.1796,506.926,5.18644,0.0,0.0
924,230.75,65.5415,73.4606,136.169,115.138,62.2555,0.0253014,0.647924,20.0297,505.635,5.50348,0.0,0.0
966,241.25,71.2561,80.2637,139.869,115.549,59.1833,0.0313333,0.784781,19.8033,504.093,5.98831,0.0,0.0
1008,251.75,76.4777,86.1695,136.053,115.872,57.7627,0.0328836,0.809579,19.7647,502.642,6.23078,0.0,0.0
1050,262.25,79.3982,90.3213,142.74,115.917,54.8098,0.0307409,0.759138,19.8552,501.18,6.70392,0.0,0.0
1092,272.75,80.3144,91.0193,139.527,115.69,54.7588,0.0276548,0.696548,19.9569,499.859,6.6947,0.0,0.0
1134,283.25,80.2796,91.0065,148.149,115.974,55.0437,0.0266334,0.64684,20.0367,498.608,6.67025,0.0,0.0
1176,293.75,79.0537,89.2123,149.698,116.492,50.717,0.0251015,0.61386,20.0836,497.357,7.44282,0.0,0.0
1218,304.25,78.9525,88.9712,145.99,115.876,54.6452,0.0253218,0.601834,20.1059,496.065,6.72771,0.0,0.0
1260,314.75,78.8082,88.3327,151.538,116.537,56.7823,0.0255962,0.615606,20.0809,494.844,6.43522,0.0,0.0
1302,325.25,78.173,87.6624,147.488,116.573,60.711,0.0235661,0.589906,20.1327,493.673,5.83921,0.0,0.0
1344,335.75,76.332,85.2567,151.168,115.478,66.4774,0.0189806,0.485733,20.3139,492.682,4.94263,0.0,0.0
1386,346.25,73.9462,82.2793,148.807,114.338,67.1005,0.0166817,0.436473,20.3958,491.831,4.77029,0.0,0.0
1428,356.75,71.4919,79.1485,154.199,114.649,67.2754,0.0150015,0.411713,20.4407,490.961,4.77135,0.0,0.0
1470,367.25,69.6095,76.4402,153.77,115.643,70.893,0.0145791,0.396673,20.4677,490.16,4.37978,0.0,0.0
1512,377.75,67.4786,73.2072,159.501,115.848,71.1358,0.0140932,0.385603,20.4847,489.399,4.36504,0.0,0.0
1554,388.25,65.7558,71.6511,156.537,115.533,70.8495,0.0134773,0.373399,20.5049,488.658,4.37673,0.0,0.0
1596,398.75,63.5185,69.2502,159.219,116.453,73.1696,0.0129332,0.352694,20.5382,487.968,4.15933,0.0,0.0
1638,409.25,62.0082,66.8586,159.6,115.783,73.185,0.0122721,0.339936,20.5587,487.237,4.10579,0.0,0.0
1680,419.75,60.1942,64.6682,158.971,116.454,72.5666,0.0114382,0.331106,20.5741,486.546,4.2335,0.0,0.0
1722,430.25,59.34,63.5069,158.74,116.589,73.8595,0.01053,0.321879,20.5891,485.956,4.08581,0.0,0.0
1764,440.75,57.735,61.4017,158.849,115.432,76.1506,0.0101704,0.315582,20.6023,485.295,3.72309,0.0,0.0
1806,451.25,56.3834,60.133,155.897,114.328,75.4625,0.010096,0.309614,20.6133,484.695,3.71834,0.0,0.0
1848,461.75,55.7991,58.9894,164.912,114.733,75.6692,0.00983911,0.304373,20.6202,484.084,3.72548,0.0,0.0
1890,472.25,54.6362,57.414,157.901,115.688,76.8274,0.0095588,0.301733,20.6275,483.553,3.66373,0.0,0.0
1932,482.75,54.1723,57.3135,159.809,115.818,80.177,0.0093422,0.295503,20.638,482.983,3.29185,0.0,0.0
1974,493.25,53.8202,56.3452,158.882,115.512,77.3522,0.00920278,0.290519,20.6474,482.392,3.58915,0.0,0.0
2016,503.75,52.6284,55.1468,164.228,116.238,77.8653,0.00891835,0.285403,20.6526,481.862,3.5861,0.0,0.0
2058,514.25,51.8195,54.4289,163.593,116.209,78.4608,0.00875122,0.282263,20.6598,481.321,3.51565,0.0,0.0
2100,524.75,51.9357,54.4353,164.564,116.076,80.1634,0.00881727,0.279579,20.6647,480.781,3.31327,0.0,0.0
2142,535.25,51.5351,54.0808,158.171,116.653,80.0231,0.00845156,0.276233,20.6699,480.28,3.37334,0.0,0.0
2184,545.75,51.0082,53.0238,163.979,116.385,82.0854,0.00845217,0.273164,20.6728,479.75,3.125,0.0,0.0
2226,556.25,51.2101,52.9498,166.071,115.264,79.1835,0.00832635,0.271701,20.6763,479.259,3.36052,0.0,0.0
2268,566.75,50.4547,52.4017,159.699,114.352,79.1269,0.00822537,0.269428,20.6813,478.779,3.29584,0.0,0.0
2310,577.25,50.0683,52.4333,165.557,114.788,81.4268,0.00739747,0.266601,20.6859,478.268,3.07341,0.0,0.0
2352,587.75,49.6197,51.5264,161.629,115.763,82.2178,0.00695266,0.260875,20.6954,477.808,3.06258,0.0,0.0
2394,598.25,49.2802,50.9349,164.965,115.714,82.4732,0.00679334,0.254403,20.7057,477.347,3.0311,0.0,0.0
2436,608.75,48.7362,50.6041,165.342,115.817,83.7763,0.00659374,0.249236,20.7189,476.897,2.89869,0.0,0.0
2478,619.25,48.4665,50.2653,161.07,116.27,86.3967,0.00622434,0.243916,20.7268,476.457,2.65799,0.0,0.0
2520,629.75,47.9736,49.2867,166.863,116.187,88.2733,0.00527315,0.234381,20.7441,476.066,2.45929,0.0,0.0
2562,640.25,46.6173,48.3023,164.888,116.662,89.1325,0.00518621,0.229874,20.7546,475.676,2.40908,0.0,0.0
2604,650.75,46.9053,48.166,168.551,115.596,90.322,0.00488801,0.221611,20.7686,475.316,2.20827,0.0,0.0
2646,661.25,45.9086,47.8437,166.042,114.384,92.6112,0.00426022,0.214354,20.7842,474.995,1.8899,0.0,0.0
2688,671.75,45.3863,47.2228,164.774,115.06,92.9681,0.00396184,0.209235,20.7913,474.675,1.90819,0.0,0.0
2730,682.25,44.952,46.1701,165.164,115.91,96.4622,0.00397108,0.198925,20.81,474.365,1.64385,0.0,0.0
2772,692.75,43.7867,45.2194,166.78,115.45,97.3065,0.00398213,0.192408,20.8207,474.104,1.53023,0.0,0.0
2814,703.25,43.5209,44.7596,164.685,116.397,98.6293,0.00383221,0.185904,20.8347,473.854,1.48255,0.0,0.0
2856,713.75,42.7691,44.2014,170.625,115.978,100.753,0.00422284,0.178811,20.8454,473.634,1.25955,0.0,0.0
2898,724.25,42.0831,43.3084,168.059,116.695,101.899,0.00487742,0.171718,20.8582,473.384,1.21347,0.0,0.0
2940,734.75,40.9682,42.1292,168.114,116.134,99.7309,0.00630234,0.168634,20.8606,473.244,1.36285,0.0,0.0
2982,745.25,40.6793,41.353,172.23,114.702,100.764,0.00758701,0.185438,20.8358,473.083,1.1596,0.0,0.0
3024,755.75,39.9325,40.5873,173.152,114.776,101.412,0.00796267,0.178972,20.8438,472.823,1.10804,0.0,0.0
3066,766.25,39.3346,40.1713,167.398,115.853,101.404,0.00964171,0.168861,20.8603,472.703,1.19227,0.0,0.0
3108,776.75,38.6814,39.0092,168.498,115.75,102.242,0.0101128,0.168725,20.858,472.583,1.11064,0.0,0.0
3150,787.25,37.5624,38.2095,171.215,115.893,103.422,0.0104093,0.163315,20.8679,472.363,1.01898,0.0,0.0
3192,797.75,36.9311,37.9261,174.235,116.283,104.404,0.0115035,0.154153,20.8819,472.132,0.964491,0.0,0.0
3234,808.25,36.3615,36.9168,173.068,116.419,104.672,0.0123033,0.14615,20.8939,472.072,0.951964,0.0,0.0
3276,818.75,35.5478,35.4536,175.105,116.746,105.06,0.0131516,0.136885,20.9119,471.882,0.944017,0.0,0.0
3318,829.25,34.8235,35.1494,175.413,115.606,104.259,0.0124524,0.127235,20.9272,471.722,0.92466,0.0,0.0
3360,839.75,34.0845,34.2206,173.011,114.586,103.333,0.0118525,0.125038,20.9322,471.602,0.925226,0.0,0.0
3402,850.25,33.182,33.6491,172.878,115.478,103.872,0.0121473,0.135366,20.9174,471.472,0.948048,0.0,0.0
3444,860.75,32.2532,32.8312,176.544,116.127,104.769,0.0118726,0.130406,20.9244,471.322,0.921206,0.0,0.0
3486,871.25,33.1025,32.9587,177.381,115.628,104.187,0.0123128,0.129432,20.9274,471.202,0.932542,0.0,0.0
3528,881.75,32.7816,32.3066,175.77,116.283,105.027,0.0123091,0.122179,20.9373,471.081,0.911233,0.0,0.0
3570,892.25,31.7952,32.2899,175.707,116.415,104.912,0.0120775,0.11266,20.9543,470.921,0.931222,0.0,0.0
3612,902.75,31.3767,31.0751,174.207,116.057,104.788,0.0118235,0.10898,20.9612,470.881,0.91424,0.0,0.0
3654,913.25,30.4544,30.3044,172.934,116.521,105.403,0.0120755,0.105441,20.9671,470.711,0.89753,0.0,0.0
3696,923.75,29.8837,29.5428,182.186,116.808,105.884,0.0122769,0.102476,20.9714,470.721,0.878804,0.0,0.0
3738,934.25,29.5167,29.6414,175.386,116.892,105.956,0.0131605,0.121997,20.9402,470.591,0.879125,0.0,0.0
3780,944.75,29.6915,28.6758,174.159,116.907,106.181,0.0126313,0.121661,20.9391,470.381,0.861319,0.0,0.0
3822,955.25,28.8751,28.3083,174.7,116.881,106.81,0.0126296,0.121637,20.9394,470.311,0.806441,0.0,0.0
3864,965.75,29.2419,29.4132,180.79,116.831,106.575,0.0121805,0.11318,20.9552,470.161,0.822424,0.0,0.0
3906,976.25,28.5096,28.8734,173.737,116.65,106.1,0.012086,0.103402,20.9692,470.03,0.848444,0.0,0.0
3948,986.75,27.7884,27.829,177.766,116.337,106.554,0.0112874,0.100479,20.9756,469.95,0.786192,0.0,0.0
3990,997.25,27.4159,27.0789,178.601,115.996,105.925,0.0119733,0.100646,20.9768,469.84,0.812876,0.0,0.0
4032,1007.75,27.6118,27.4056,176.647,116.434,106.628,0.0111083,0.0992386,20.9793,469.77,0.787425,0.0,0.0
4074,1018.25,27.4476,27.4506,173.011,116.425,106.653,,,,469.66,0.784626,0.0,0.0
4097,1024,27.3238,27.1838,178.85,116.012,106.474,,,,469.63,0.767859,0.0,0.0