File: 01_Data/EPDM_Membrane/Cone/EPDM_Membrane_Cone_HF25Scalar_220225_R1.csv
LABORATORY,FSRI
TEST IDENT,EPDM_HF25_1
OPERATOR,Dow
MATERIAL,EPDM Roofing Membrane
ORIENTATION,Horizontal
HEAT FLUX,25
SURF AREA,0.01
C FACTOR,0.0370678
SPEC HOLDER DIFF,305.95
SPECIMEN MASS,82.3
SCAN TIME,0.25
O2 DELAY TIME,11
CO DELAY TIME,11
CO2 DELAY TIME,8
FLOW FACTOR,1
SCAN COUNT,2684
TIME TO IGN,108
END OF TEST SCAN,2204
END OF TEST TIME,551
TEST STATUS,1
PRE TEST CMT,Dimensions: 100.11 x 99.19 x 5.93 mm; primary interest on time to ignition
POST TEST CMT,"After ignition the sample warped and expanded significantly. Expanded vertically several centimeters and contacted the cone heater, causing spikes in mass data. Expanded horizontally until charred pieces fell out of the foil pan, mostly caught by lower drip tray where it continued to burn. See test pictures. "