File: 01_Data/EPDM_Membrane/Cone/EPDM_Membrane_Cone_HF50Scan_220225_R1.csv
Names,Time,Stack TC,Smoke TC,Exh Press,Smoke Comp,Smoke Meas,CO Meter,CO2 Meter,O2 Meter,Sample Mass,Ext Coeff,Start Test,Flame Verif
Chan Gain,,500,500,1,1,1,1,1,1,1,1,1.0,1.0
Offset,,0,0,0.137915,0,0,0,0,0,0,0,0.0,0.0
Gain,,1,1,25.011,15.3125,15.3273,1,1,1,1.00096,1.02035,1.0,1.0
Units,sec,C,C,Pa,%,%,%,%,%,g,/m,,
Baseline,,28.936,30.1158,175.738,115.718,110.696,-6.7638e-05,0.0429898,21.0619,-867.465,0.397089,,
39,9.5,27.5491,28.5245,174.023,113.939,109.196,-0.000538122,0.0490962,21.0536,163.266,0.380515,0.0,0.0
78,19.25,28.4916,28.8376,176.798,114.209,109.401,-0.000427546,0.0493771,21.0534,163.206,0.384969,0.0,0.0
117,29,28.1394,29.1294,167.284,114.642,107.622,-0.000100476,0.0482601,21.0539,163.196,0.565582,0.0,0.0
156,38.75,28.7743,29.9138,173.63,115.232,95.3153,0.00241651,0.102557,20.945,163.036,1.69843,0.0,1.0
195,48.5,33.5648,34.9456,154.62,115.839,65.4676,0.0142099,0.361664,20.4906,162.286,5.10756,0.0,0.0
234,58.25,42.9263,45.1532,143.994,116.246,57.882,0.0232904,0.568812,20.1325,161.204,6.24119,0.0,0.0
273,68,51.8052,56.0991,145.579,116.348,55.5582,0.0256168,0.623847,20.0673,160.033,6.61574,0.0,0.0
312,77.75,58.2468,63.6749,145.805,116.143,53.8724,0.024551,0.602017,20.1082,158.942,6.87573,0.0,0.0
351,87.5,62.3454,68.7986,146.643,115.703,57.519,0.0234861,0.571911,20.1614,157.691,6.25559,0.0,0.0
390,97.25,65.8973,72.8864,146.968,115.587,55.4609,0.0219682,0.545009,20.2101,156.85,6.57271,0.0,0.0
429,107,67.9783,75.1877,154.046,116.114,59.2502,0.021109,0.526341,20.2421,155.769,6.02186,0.0,0.0
468,116.75,69.4841,77.337,144.837,116.019,60.1408,0.020759,0.515812,20.2577,154.808,5.88105,0.0,0.0
507,126.5,71.1553,78.9761,148.808,115.3,60.3812,0.0207925,0.518609,20.2493,153.807,5.78965,0.0,0.0
546,136.25,72.2795,80.4558,143.637,115.376,58.5425,0.0212908,0.527744,20.2381,152.756,6.07239,0.0,0.0
585,146,73.4569,81.8058,141.301,115.555,55.2537,0.0220092,0.533804,20.223,151.685,6.60375,0.0,0.0
624,155.75,74.5528,83.0922,151.512,115.51,59.2446,0.0221105,0.53146,20.2246,150.614,5.97605,0.0,0.0
663,165.5,75.7399,84.4288,145.052,115.133,52.2643,0.0236501,0.550184,20.1788,149.533,7.06881,0.0,0.0
702,175.25,77.9076,87.4305,136.824,114.467,48.4793,0.0299292,0.66927,19.9575,148.182,7.68981,0.0,0.0
741,185,82.4932,92.0127,147.658,113.975,49.2422,0.0307894,0.716735,19.9057,146.781,7.51149,0.0,0.0
780,194.75,84.074,94.3303,147.077,113.919,55.5751,0.0262737,0.609837,20.1022,145.529,6.42419,0.0,0.0
819,204.5,83.0536,93.3196,146.678,114.265,60.5225,0.021819,0.532473,20.2249,144.498,5.68809,0.0,0.0
858,214.25,82.3651,92.1265,143.663,114.82,56.5503,0.0201026,0.491894,20.2894,143.528,6.33899,0.0,0.0
897,224,81.424,90.1811,146.008,115.481,57.091,0.0200436,0.489011,20.2941,142.527,6.30521,0.0,0.0
936,233.75,80.3531,89.5345,148.725,116.067,55.4829,0.0205048,0.483201,20.2991,141.516,6.60628,0.0,0.0
975,243.5,79.7728,88.5288,143.109,116.309,53.4084,0.0209042,0.493577,20.2788,140.505,6.96596,0.0,0.0
1014,253.25,80.262,88.9221,151.071,116.274,58.9087,0.0200973,0.485937,20.2984,139.584,6.08594,0.0,0.0
1053,263,78.4164,87.1773,150.535,116.008,58.3521,0.0189001,0.458837,20.3414,138.623,6.15042,0.0,0.0
1092,272.75,78.3936,85.9851,146.718,115.636,60.4967,0.0177164,0.438236,20.3789,137.732,5.79865,0.0,0.0
1131,282.5,77.4588,85.2282,148.797,115.508,64.3253,0.015962,0.415735,20.4179,136.901,5.23947,0.0,0.0
1170,292.25,76.4531,83.8627,150.522,116.043,67.8204,0.0150967,0.398757,20.4441,136.12,4.80727,0.0,0.0
1209,302,75.3667,82.3935,152.192,116.159,66.723,0.0152388,0.384504,20.4678,135.35,4.96221,0.0,0.0
1248,311.75,74.624,81.5605,146.311,116.036,65.7903,0.015073,0.386541,20.4652,134.559,5.07877,0.0,0.0
1287,321.5,73.3936,80.3397,146.764,115.839,66.8063,0.0154099,0.382769,20.4714,133.858,4.92639,0.0,0.0
1326,331.25,73.1852,79.9902,148.785,115.84,64.6813,0.0154056,0.385165,20.466,133.017,5.21579,0.0,0.0
1365,341,73.2245,79.0965,153.041,115.881,62.2447,0.0151358,0.382348,20.4669,132.287,5.56264,0.0,0.0
1404,350.75,72.8261,78.6554,153.14,116.04,64.2088,0.0152987,0.385722,20.4598,131.556,5.29684,0.0,0.0
1443,360.5,72.9559,79.0318,154.61,116.137,64.932,0.0147114,0.380654,20.4688,130.765,5.20406,0.0,0.0
1482,370.25,72.4238,78.6299,150.226,116.164,65.9035,0.0142786,0.372081,20.4848,130.015,5.07318,0.0,0.0
1521,380,72.2159,77.8089,149.93,115.926,65.3904,0.0141066,0.360718,20.5014,129.274,5.1248,0.0,0.0
1560,389.75,71.6372,77.3387,150.854,115.522,67.3783,0.0131683,0.348701,20.5255,128.593,4.82552,0.0,0.0
1599,399.5,70.8948,76.3454,150.089,116.015,70.153,0.0124133,0.337146,20.5473,127.993,4.50243,0.0,0.0
1638,409.25,69.908,74.9041,150.021,116.34,69.8728,0.0114051,0.319984,20.5752,127.352,4.56331,0.0,0.0
1677,419,69.8547,73.2406,154.404,115.966,70.6044,0.011077,0.304778,20.6028,126.761,4.44128,0.0,0.0
1716,428.75,68.0683,72.6543,156.229,114.863,73.54,0.00973993,0.289734,20.6307,126.221,3.9911,0.0,0.0
1755,438.5,66.9809,71.4017,155.827,113.932,76.9944,0.00882793,0.279088,20.6543,125.67,3.50739,0.0,0.0
1794,448.25,66.009,70.2764,158.96,114.317,79.7176,0.00792915,0.264987,20.6795,125.23,3.22652,0.0,0.0
1833,458,64.7196,68.7355,157.112,115.314,82.2655,0.00702237,0.254179,20.6968,124.75,3.02263,0.0,0.0
1872,467.75,63.5941,67.379,158.783,115.58,82.5391,0.00613094,0.241909,20.7205,124.319,3.01356,0.0,0.0
1911,477.5,62.8339,66.6298,158.228,115.222,84.5252,0.00576114,0.23171,20.7387,123.909,2.77298,0.0,0.0
1950,487.25,61.8454,64.8263,160.965,116.086,87.0361,0.00511089,0.221744,20.762,123.558,2.57777,0.0,0.0
1989,497,60.5563,63.6601,154.75,115.801,90.6223,0.00444474,0.214744,20.7753,123.208,2.1944,0.0,0.0
2028,506.75,59.687,62.47,154.368,116.326,92.2216,0.00379026,0.205515,20.79,122.888,2.07833,0.0,0.0
2067,516.5,58.3817,61.567,161.844,115.353,94.1758,0.00330171,0.198811,20.8049,122.607,1.81543,0.0,0.0
2106,526.25,57.5784,60.4678,161.244,113.99,93.811,0.0029925,0.192243,20.8169,122.307,1.74378,0.0,0.0
2145,536,56.9183,59.6806,160.912,114.465,95.5721,0.00278818,0.18581,20.8292,122.077,1.61459,0.0,0.0
2184,545.75,56.5087,59.0806,160.549,115.491,97.3224,0.00237566,0.17997,20.8397,121.817,1.53196,0.0,0.0
2223,555.5,55.6798,57.7773,159.276,115.377,99.3361,0.00219957,0.17448,20.852,121.607,1.33985,0.0,0.0
2262,565.25,54.5356,56.8226,161.211,115.956,101.295,0.00181804,0.169159,20.862,121.376,1.20987,0.0,0.0
2301,575,54.0188,56.3315,164.011,115.435,102.961,0.00176288,0.165409,20.8677,121.146,1.02357,0.0,0.0
2340,584.75,53.664,55.329,164.398,116.289,102.903,0.00138463,0.160782,20.876,120.976,1.09453,0.0,0.0
2379,594.5,52.1938,53.8094,158.184,115.624,103.097,0.00151238,0.15543,20.8837,120.756,1.02638,0.0,0.0
2418,604.25,52.2007,53.9496,164.931,114.092,103.014,0.00165184,0.152389,20.8919,120.616,0.914162,0.0,0.0
2457,614,50.656,53.5894,165.188,114.49,104.407,0.00126569,0.14728,20.9017,120.445,0.825119,0.0,0.0
2496,623.75,51.1155,52.5086,164.963,115.529,105.325,0.00159607,0.144023,20.9059,120.315,0.827674,0.0,0.0
2535,633.5,49.5437,51.2798,163.474,115.275,107.786,0.00147235,0.14116,20.9119,120.105,0.601241,0.0,0.0
2574,643.25,49.8122,51.2314,167.473,116.038,106.855,0.0013881,0.137119,20.9179,119.975,0.737888,0.0,0.0
2613,653,49.4903,51.0326,164.646,115.464,106.144,0.00143381,0.13495,20.9222,119.795,0.753305,0.0,0.0
2652,662.75,48.7114,50.133,164.077,116.22,106.536,0.00195271,0.132614,20.926,119.695,0.7787,0.0,0.0
2691,672.5,48.0582,49.4317,166.831,116.148,106.824,0.00194169,0.129859,20.934,119.565,0.748977,0.0,0.0
2730,682.25,47.6651,48.7463,162.9,115.19,106.294,0.00241449,0.12887,20.9356,119.454,0.719364,0.0,0.0
2769,692,47.2918,48.7621,165.723,114.306,104.824,0.00302539,0.126533,20.9392,119.324,0.775095,0.0,0.0
2808,701.75,46.6167,47.3876,165.582,114.014,105.203,0.00305855,0.126545,20.9403,119.204,0.719867,0.0,0.0
2847,711.5,46.3754,47.7372,168.201,114.153,106.453,0.00337615,0.124401,20.9441,119.094,0.625049,0.0,0.0
2886,721.25,46.0729,47.4676,170.986,114.413,105.908,0.00352851,0.122299,20.9455,118.974,0.691373,0.0,0.0
2925,731,45.7475,47.0168,165.199,114.622,107.279,0.00383424,0.119384,20.9499,118.824,0.592611,0.0,0.0
2964,740.75,44.8919,46.0685,163.742,114.715,107.3,0.00416089,0.116661,20.9562,118.754,0.598116,0.0,0.0
3003,750.5,45.1842,45.408,167.427,114.756,106.562,0.00476219,0.113775,20.9588,118.624,0.663068,0.0,0.0
3042,760.25,44.4644,45.8535,171.012,114.687,107.025,0.00551064,0.111533,20.9638,118.494,0.618859,0.0,0.0
3081,770,43.5852,44.5435,167.705,114.54,106.202,0.00602797,0.109679,20.9672,118.423,0.676478,0.0,0.0
3120,779.75,43.515,44.2302,164.854,114.319,107.283,0.006519,0.1062,20.972,118.333,0.568547,0.0,0.0
3159,789.5,43.1017,43.961,168.642,114.125,107.373,0.00673266,0.105226,20.9715,118.193,0.545786,0.0,0.0
3198,799.25,42.5706,43.6055,165.692,113.996,106.749,0.00741898,0.103879,20.9716,118.133,0.587947,0.0,0.0
3237,809,41.9299,42.8182,173.064,114.01,107.614,0.00736857,0.102986,20.9759,118.003,0.516747,0.0,0.0
3276,818.75,41.224,42.5065,169.774,114.13,107.647,0.00816253,0.101456,20.9781,117.913,0.523447,0.0,0.0
3315,828.5,41.2697,41.5061,171.699,114.366,108.857,0.00839057,0.102836,20.9758,117.803,0.441883,0.0,0.0
3354,838.25,39.4113,40.0746,169.297,114.712,107.962,0.00826076,0.101246,20.9765,117.743,0.542819,0.0,0.0
3393,848,40.1615,41.1608,166.653,115.06,108.208,0.0080433,0.0988033,20.9806,117.603,0.549567,0.0,0.0
3432,857.75,38.9409,39.8216,170.138,115.444,108.866,0.00793245,0.0960089,20.9856,117.563,0.525089,0.0,0.0
3471,867.5,39.5456,40.8415,171.901,115.81,109.925,0.00828032,0.0956471,20.9874,117.453,0.466804,0.0,0.0
3510,877.25,39.3986,40.62,172.073,116.089,108.983,0.00906699,0.0939062,20.9902,117.382,0.565335,0.0,0.0
3549,887,39.3007,40.3573,174.123,116.3,109.859,0.00895329,0.093149,20.9925,117.312,0.509983,0.0,0.0
3588,896.75,38.758,38.9366,166.847,116.342,109.457,0.00914009,0.0924513,20.9929,117.212,0.545978,0.0,0.0
3627,906.5,38.9112,39.1331,174.178,116.246,109.813,0.00944848,0.0922733,20.9928,117.112,0.509582,0.0,0.0
3666,916.25,38.3516,39.135,171.841,116.011,110.178,0.008494,0.091705,20.9954,117.052,0.461739,0.0,0.0
3705,926,38.5786,39.7119,173.438,115.674,109.389,0.00887523,0.090446,20.9955,116.952,0.499967,0.0,0.0
3744,935.75,37.5886,38.4436,171.375,115.427,109.998,0.00896737,0.0904297,20.9953,116.872,0.431164,0.0,0.0
3783,945.5,38.2141,38.6641,168.545,116.029,110.567,,,,116.802,0.431624,0.0,0.0
3796,948.75,38.3431,39.2532,168.779,116.084,110.29,,,,116.732,0.458284,0.0,0.0