File: 01_Data/EPDM_Membrane/Cone/EPDM_Membrane_Cone_HF50Scan_220225_R2.csv
Names,Time,Stack TC,Smoke TC,Exh Press,Smoke Comp,Smoke Meas,CO Meter,CO2 Meter,O2 Meter,Sample Mass,Ext Coeff,Start Test,Flame Verif
Chan Gain,,500,500,1,1,1,1,1,1,1,1,1.0,1.0
Offset,,0,0,0.137915,0,0,0,0,0,0,0,0.0,0.0
Gain,,1,1,25.011,15.3125,15.3273,1,1,1,1.00096,1.02035,1.0,1.0
Units,sec,C,C,Pa,%,%,%,%,%,g,/m,,
Baseline,,31.7523,32.8219,175.076,115.192,110.628,-0.000360785,0.0416978,21.0642,-867.557,0.361881,,
37,9,29.2537,31.0653,173.459,115.507,111.926,-0.00037018,0.045316,21.0594,161.515,0.281832,0.0,0.0
74,18.25,29.3541,31.053,179.28,115.322,110.33,-0.000435976,0.0439429,21.06,161.545,0.396099,0.0,0.0
111,27.5,29.5079,30.4467,177.868,115.31,108.206,-0.000375476,0.0428483,21.0627,161.475,0.569148,0.0,0.0
148,36.75,30.4463,31.8872,165.427,115.424,92.9326,0.00185399,0.079901,20.9922,161.365,1.93993,0.0,1.0
185,46,34.5888,35.6128,160.69,115.749,70.0997,0.0130814,0.332709,20.5545,160.674,4.4887,0.0,0.0
222,55.25,43.0652,45.729,150.435,116.04,57.0419,0.0223849,0.548291,20.1902,159.693,6.35612,0.0,0.0
259,64.5,52.471,55.6059,141.498,116.272,53.9487,0.0259497,0.62816,20.0555,158.512,6.87308,0.0,0.0
296,73.75,58.5308,63.656,143.488,116.283,51.3793,0.0247022,0.595273,20.1124,157.401,7.31063,0.0,0.0
333,83,62.9132,68.5267,151.748,116.022,58.6337,0.0231761,0.565673,20.1653,156.43,6.10841,0.0,0.0
370,92.25,66.2637,72.823,145.376,115.608,56.4816,0.0218657,0.5336,20.2189,155.439,6.41112,0.0,0.0
407,101.5,67.5961,74.5826,154.397,115.707,58.542,0.0213515,0.51439,20.2514,154.508,6.09805,0.0,0.0
444,110.75,69.6257,76.8069,148.718,116.053,59.3751,0.0201595,0.497998,20.2807,153.547,5.99833,0.0,0.0
481,120,70.6293,78.0614,149.242,115.603,59.2825,0.0194131,0.487556,20.2939,152.696,5.97756,0.0,0.0
518,129.25,71.5017,79.038,148.561,115.168,58.4279,0.0191069,0.48271,20.3009,151.846,6.07378,0.0,0.0
555,138.5,72.4932,79.9653,152.143,115.378,61.1647,0.0201022,0.515853,20.2493,150.945,5.68038,0.0,0.0
592,147.75,73.6886,81.2644,147.623,115.54,57.904,0.0209012,0.524077,20.2324,149.954,6.18326,0.0,0.0
629,157,75.1384,82.7006,145.91,115.311,59.92,0.0218389,0.53383,20.2153,148.903,5.85918,0.0,0.0
666,166.25,76.7375,85.5688,142.831,114.727,50.4172,0.0249758,0.586466,20.1128,147.812,7.35928,0.0,0.0
703,175.5,80.601,89.4197,136.886,114.063,44.9398,0.0319861,0.718044,19.8907,146.52,8.3367,0.0,0.0
740,184.75,84.5743,94.4464,134.513,114.017,47.5695,0.0314133,0.714583,19.8963,145.179,7.82411,0.0,0.0
777,194,85.831,96.1353,142.832,114.75,53.8289,0.0266993,0.60523,20.0791,143.988,6.77499,0.0,0.0
814,203.25,84.4702,94.6555,151.243,115.705,61.7311,0.0217349,0.522509,20.2399,143.067,5.62318,0.0,0.0
851,212.5,83.3457,92.7679,148.668,116.274,66.4835,0.0181599,0.455438,20.3536,142.126,5.00325,0.0,0.0
888,221.75,82.4869,90.7273,155.335,116.2,64.6738,0.0177376,0.448703,20.3654,141.295,5.24454,0.0,0.0
925,231,80.416,89.5442,147.894,115.668,61.0389,0.0184493,0.455541,20.3468,140.435,5.72126,0.0,0.0
962,240.25,80.1066,88.708,146.873,115.661,63.0661,0.0189481,0.466744,20.3238,139.494,5.42825,0.0,0.0
999,249.5,79.8737,88.213,145.419,116.079,59.3952,0.0192744,0.466142,20.3294,138.613,5.99735,0.0,0.0
1036,258.75,79.7794,86.8222,146.379,115.488,60.6502,0.018729,0.454243,20.3469,137.702,5.76451,0.0,0.0
1073,268,78.3301,86.3653,149.674,115.306,63.2331,0.0177101,0.433388,20.3775,136.941,5.37705,0.0,0.0
1110,277.25,77.9893,85.6978,152.888,115.471,60.7526,0.0168588,0.423853,20.395,136.05,5.74803,0.0,0.0
1147,286.5,77.1448,84.7449,151.013,115.408,62.5361,0.0166119,0.418238,20.4062,135.29,5.48423,0.0,0.0
1184,295.75,77.2579,83.827,152.078,114.809,60.079,0.0166524,0.41065,20.4181,134.499,5.79642,0.0,0.0
1221,305,75.6798,82.3448,147.441,114.1,63.5353,0.0162732,0.40239,20.4267,133.768,5.24031,0.0,0.0
1258,314.25,75.4922,82.3869,150.723,113.934,60.9654,0.0166724,0.40185,20.4307,132.867,5.59679,0.0,0.0
1295,323.5,75.1658,82.0558,153.629,114.501,62.9263,0.0164507,0.398528,20.4346,132.207,5.35791,0.0,0.0
1332,332.75,75.166,81.1315,150.144,115.448,64.1532,0.0161675,0.39955,20.4359,131.426,5.25878,0.0,0.0
1369,342,75.1036,80.8694,149.754,116.21,65.758,0.0159099,0.389021,20.4521,130.695,5.09653,0.0,0.0
1406,351.25,73.5275,79.8197,152.602,116.262,62.1203,0.0156212,0.385948,20.456,129.894,5.60991,0.0,0.0
1443,360.5,74.4267,78.7589,150.88,115.793,65.8675,0.0150922,0.374868,20.4728,129.214,5.04944,0.0,0.0
1480,369.75,73.7439,78.3663,153.609,115.516,68.9612,0.0148872,0.366528,20.4875,128.503,4.61725,0.0,0.0
1517,379,72.7412,77.5761,154.124,116.093,65.788,0.013764,0.351031,20.5143,127.853,5.08345,0.0,0.0
1554,388.25,72.0361,76.8959,155.311,115.843,66.9746,0.013256,0.341397,20.5335,127.152,4.90411,0.0,0.0
1591,397.5,71.767,75.8083,153.557,115.212,70.3649,0.0127487,0.328999,20.5565,126.551,4.41329,0.0,0.0
1628,406.75,69.8872,75.6444,159.991,115.389,73.5746,0.0119072,0.318319,20.5777,125.931,4.0278,0.0,0.0
1665,416,69.1821,74.4233,154.53,115.536,73.9404,0.0109304,0.305274,20.6007,125.48,3.99482,0.0,0.0
1702,425.25,68.0718,73.2927,152.941,115.489,74.3226,0.00998485,0.290923,20.6248,124.96,3.94499,0.0,0.0
1739,434.5,67.7537,71.8985,157.642,115.339,78.4196,0.0090138,0.279665,20.6476,124.459,3.45308,0.0,0.0
1776,443.75,66.7507,70.3313,153.043,115.097,77.703,0.00861821,0.270018,20.6651,123.999,3.51644,0.0,0.0
1813,453,65.5252,69.7386,159.663,114.712,83.4929,0.00788836,0.261071,20.6827,123.478,2.84324,0.0,0.0
1850,462.25,64.8388,67.8586,158.547,114.473,83.1706,0.00710228,0.251331,20.7013,123.068,2.85917,0.0,0.0
1887,471.5,63.5825,67.4893,155.804,114.374,83.6056,0.00612196,0.242601,20.7183,122.688,2.80476,0.0,0.0
1924,480.75,62.4599,65.8128,159.966,114.401,86.6815,0.00568115,0.233379,20.7357,122.317,2.4835,0.0,0.0
1961,490,61.4967,64.8858,157.028,114.543,86.9697,0.00509107,0.225739,20.7497,121.877,2.46491,0.0,0.0
1998,499.25,61.0717,63.8798,156.725,114.806,91.4713,0.00422345,0.217891,20.7652,121.627,2.03367,0.0,0.0
2035,508.5,59.8279,62.7341,161.394,115.166,90.8338,0.00369603,0.210208,20.7797,121.316,2.12432,0.0,0.0
2072,517.75,58.9249,61.9377,158.279,115.472,95.1736,0.00332333,0.203977,20.7933,121.026,1.73035,0.0,0.0
2109,527,58.4339,61.0755,159.433,115.558,95.8677,0.00273159,0.196231,20.8086,120.736,1.672,0.0,0.0
2146,536.25,57.6467,59.7365,158.845,115.369,97.9609,0.00221543,0.189,20.8214,120.586,1.46397,0.0,0.0
2183,545.5,57.1271,59.2908,161.769,115.571,100.434,0.00201141,0.184124,20.8295,120.265,1.25655,0.0,0.0
2220,554.75,55.993,58.2328,158.165,116.118,101.709,0.00182776,0.176928,20.8431,120.035,1.18587,0.0,0.0
2257,564,55.4091,56.9888,161.886,115.44,102.001,0.00167621,0.17205,20.8542,119.835,1.1078,0.0,0.0
2294,573.25,54.6696,56.637,162.81,116.02,103.24,0.00158151,0.166055,20.8643,119.685,1.04458,0.0,0.0
2331,582.5,53.709,56.7699,166.086,116.304,105.065,0.00144468,0.161124,20.8743,119.434,0.909623,0.0,0.0
2368,591.75,53.5138,55.0272,165.466,115.666,105.314,0.00138626,0.156406,20.8843,119.274,0.839266,0.0,0.0
2405,601,52.6285,54.455,164.121,114.485,105.163,0.00119538,0.152755,20.8901,119.114,0.760189,0.0,0.0
2442,610.25,51.8663,53.8735,167.824,113.9,106.525,0.00108736,0.150349,20.8946,118.934,0.599227,0.0,0.0
2479,619.5,51.1369,53.291,164.944,114.515,104.596,0.00112153,0.145515,20.902,118.784,0.810907,0.0,0.0
2516,628.75,50.826,52.2267,164.96,115.354,107.576,0.00150096,0.143323,20.9077,118.644,0.624827,0.0,0.0
2553,638,50.3066,51.8479,166.366,115.484,107.606,0.00126142,0.140108,20.9121,118.514,0.63241,0.0,0.0
2590,647.25,49.5381,51.3547,164.066,115.17,109.071,0.00154431,0.136822,20.9179,118.373,0.486966,0.0,0.0
2627,656.5,49.0143,50.9866,164.908,116.09,108.868,0.0015993,0.134156,20.9232,118.233,0.574865,0.0,0.0
2664,665.75,48.6477,50.0074,171.623,115.478,108.199,0.00194341,0.132343,20.9278,118.083,0.582743,0.0,0.0
2701,675,48.0608,49.2924,167.218,116.154,109.084,0.00235052,0.13002,20.9325,117.973,0.562125,0.0,0.0
2738,684.25,48.3014,48.4936,163.1,116.148,109.015,0.00248393,0.129344,20.9344,117.873,0.567264,0.0,0.0
2775,693.5,47.06,48.5631,167.043,114.85,109.51,0.00311064,0.126945,20.9378,117.723,0.426198,0.0,0.0
2812,702.75,46.8601,47.8339,164.921,113.934,107.194,0.00332149,0.125585,20.9395,117.633,0.545729,0.0,0.0
2849,712,46.2704,48.3999,166.801,114.965,107.971,0.00331284,0.12215,20.9453,117.493,0.561783,0.0,0.0
2886,721.25,46.0614,47.101,170.476,115.457,108.787,0.00393409,0.120796,20.9477,117.423,0.532566,0.0,0.0
2923,730.5,45.1078,47.0529,170.709,115.351,108.919,0.00398372,0.118551,20.9483,117.332,0.513532,0.0,0.0
2960,739.75,44.7792,46.5409,172.381,115.78,109.529,0.00456041,0.115575,20.9548,117.202,0.496771,0.0,0.0
2997,749,45.0113,45.4189,169.748,116.061,108.954,0.00542163,0.116317,20.9561,117.062,0.56552,0.0,0.0
3034,758.25,44.3628,45.4926,167.354,116.178,109.179,0.00538694,0.112508,20.9599,116.982,0.556137,0.0,0.0
3071,767.5,44.2119,44.7739,164.161,115.008,107.464,0.00609114,0.112425,20.9607,116.852,0.607264,0.0,0.0
3108,776.75,43.9413,44.2735,171.436,114.043,106.781,0.00656421,0.109477,20.9646,116.742,0.588906,0.0,0.0
3145,786,42.6578,43.5141,170.65,114.072,107.007,0.00660643,0.108542,20.9668,116.672,0.572301,0.0,0.0
3182,795.25,42.2146,43.0133,169.169,114.675,107.685,0.00680845,0.106884,20.9679,116.562,0.562888,0.0,0.0
3219,804.5,42.0522,43.0767,173.434,115.185,107.895,0.0072761,0.105234,20.9707,116.482,0.585225,0.0,0.0
3256,813.75,41.4937,42.4578,171.435,115.456,108.837,0.00810483,0.103512,20.9745,116.402,0.528417,0.0,0.0
3293,823,41.7276,42.6737,173.318,115.494,108.587,0.00931289,0.10033,20.9788,116.281,0.551988,0.0,0.0
3330,832.25,41.2626,42.0887,174.003,115.484,109.662,0.0104475,0.0977503,20.9816,116.191,0.462952,0.0,0.0
3367,841.5,40.7918,40.8126,169.571,115.468,108.341,0.0103488,0.0960145,20.9808,116.131,0.570227,0.0,0.0
3404,850.75,40.1173,40.9249,171.806,115.43,108.27,0.0103099,0.0949591,20.9819,115.991,0.573166,0.0,0.0
3441,860,39.9968,40.919,172.503,115.469,108.364,0.0101029,0.0947645,20.9826,115.921,0.568404,0.0,0.0
3478,869.25,39.6439,40.8324,173.07,115.478,108.756,0.0100552,0.0948589,20.9869,115.801,0.536777,0.0,0.0
3515,878.5,39.3392,40.409,169.675,115.499,109.138,0.00989734,0.095029,20.9865,115.751,0.507047,0.0,0.0
3552,887.75,39.3961,40.1461,172.782,115.511,108.696,0.00995469,0.0941484,20.9885,115.641,0.544238,0.0,0.0
3589,897,39.3547,40.3323,171.701,115.459,109.905,,,,115.581,0.441203,0.0,0.0
3596,898.75,38.9869,40.2402,166.169,115.446,109.043,,,,115.561,0.510671,0.0,0.0