File: 01_Data/EPDM_Membrane/Cone/EPDM_Membrane_Cone_HF50-Frame+GridScalar_220225_R1.csv
LABORATORY,FSRI
TEST IDENT,EPDM_HF50_1
OPERATOR,Dow
MATERIAL,EPDM Roofing Membrane
ORIENTATION,Horizontal
HEAT FLUX,50
SURF AREA,0.00884
C FACTOR,0.0370678
SPEC HOLDER DIFF,380.9
SPECIMEN MASS,82.7
SCAN TIME,0.25
O2 DELAY TIME,11
CO DELAY TIME,11
CO2 DELAY TIME,8
FLOW FACTOR,1
SCAN COUNT,3796
TIME TO IGN,35.5
END OF TEST SCAN,3316
END OF TEST TIME,829
TEST STATUS,1
PRE TEST CMT,Dimensions: 100.44 x 99.57 x 6.06 mm; with frame and grid