File: 01_Data/EPDM_Membrane/Cone/EPDM_Membrane_Cone_HF25-Frame+GridScalar_220311_R5.csv
LABORATORY,FSRI
TEST IDENT,EPDM_Membrane_HF25_5
OPERATOR,Dow
MATERIAL,EPDM Roofing Membrane
ORIENTATION,Horizontal
HEAT FLUX,25
SURF AREA,0.00884
C FACTOR,0.0377281
SPEC HOLDER DIFF,-566
SPECIMEN MASS,82.7
SCAN TIME,0.25
O2 DELAY TIME,11
CO DELAY TIME,11
CO2 DELAY TIME,8
FLOW FACTOR,1
SCAN COUNT,5364
TIME TO IGN,150.75
END OF TEST SCAN,4884
END OF TEST TIME,1221
TEST STATUS,1
PRE TEST CMT,Thickness: 6.05 mm; with frame and grid