File: 01_Data/EPDM_Membrane/Cone/EPDM_Membrane_Cone_HF50Scan_220311_R4.csv
Names,Time,Stack TC,Smoke TC,Exh Press,Smoke Comp,Smoke Meas,CO Meter,CO2 Meter,O2 Meter,Sample Mass,Ext Coeff,Start Test,Flame Verif
Chan Gain,,500,500,1,1,1,1,1,1,1,1,1.0,1.0
Offset,,0,0,0.135167,0,0,0,0,0,0,0,0.0,0.0
Gain,,1,1,25.011,13.0486,13.2841,1,1,1,1.00089,1.0079,1.0,1.0
Units,sec,C,C,Pa,%,%,%,%,%,g,/m,,
Baseline,,32.9333,33.8397,155.551,98.5375,95.0278,0.000302862,0.0585862,21.0029,-493.148,0.320737,,
31,7.5,30.8658,32.1921,154.925,97.8917,94.5405,0.000258073,0.0616317,20.9998,510.215,0.307974,0.0,0.0
62,15.25,31.488,31.8589,156.919,98.0578,93.2834,0.000419664,0.0615662,20.9982,510.155,0.441314,0.0,0.0
93,23,31.5932,32.2839,144.543,98.2382,80.7796,0.00368518,0.104733,20.9179,509.964,1.72997,0.0,1.0
124,30.75,36.5554,37.4577,121.363,98.4206,47.3532,0.0195937,0.457814,20.2817,509.194,6.46841,0.0,0.0
155,38.5,47.6102,49.0711,120.12,98.5807,44.1679,0.0302374,0.70259,19.8825,508.163,7.09844,0.0,0.0
186,46.25,56.2071,59.6852,120.589,98.7559,38.9022,0.0324181,0.739357,19.8336,507.052,8.23652,0.0,0.0
217,54,63.3357,67.6062,124.073,98.8916,47.3446,0.0301011,0.709081,19.8914,505.991,6.51222,0.0,0.0
248,61.75,67.8283,72.6702,128.376,98.9852,46.5201,0.027271,0.661016,19.9728,505.09,6.67593,0.0,0.0
279,69.5,71.2551,76.76,135.958,99.0776,50.2579,0.0250701,0.623652,20.0448,504.159,6.00089,0.0,0.0
310,77.25,73.3784,79.0638,137.002,99.1565,51.6553,0.0236124,0.582187,20.1228,503.288,5.76545,0.0,0.0
341,85,74.8097,81.0237,135.172,99.2158,52.4709,0.0218756,0.560389,20.1526,502.468,5.63222,0.0,0.0
372,92.75,75.9651,82.2135,128.304,99.2564,53.2311,0.0211325,0.547317,20.1791,501.687,5.50868,0.0,0.0
403,100.5,77.0027,84.1634,132.765,99.2815,58.1814,0.020498,0.529075,20.2059,500.916,4.72472,0.0,0.0
434,108.25,76.8618,84.5993,133.703,99.2978,52.5504,0.020158,0.526976,20.2108,500.146,5.62615,0.0,0.0
465,116,77.4558,84.6419,127.857,99.2978,56.7098,0.020376,0.523532,20.216,499.365,4.95267,0.0,0.0
496,123.75,78.3671,85.1419,133.059,99.2958,56.229,0.0210127,0.535768,20.1927,498.604,5.02777,0.0,0.0
527,131.5,79.207,86.4907,129.76,99.2863,56.9701,0.0218008,0.56126,20.1496,497.794,4.91116,0.0,0.0
558,139.25,80.4281,88.4469,128.087,99.2656,51.2409,0.0241966,0.598989,20.0791,496.873,5.84637,0.0,0.0
589,147,83.1786,91.0192,121.967,99.2604,43.6956,0.0313806,0.686932,19.9059,495.802,7.25424,0.0,0.0
620,154.75,87.4748,95.7903,114.245,99.2508,37.6073,0.041999,0.858801,19.6188,494.441,8.58002,0.0,0.0
651,162.5,94.5612,103.74,106.198,99.2461,38.3877,0.0512076,1.04103,19.3103,492.889,8.398,0.0,0.0
682,170.25,101.266,111.369,117.148,99.2234,41.9938,0.0497284,1.05314,19.3077,491.418,7.60218,0.0,0.0
713,178,104.133,115.41,117.556,99.1947,40.2388,0.0426587,0.963076,19.4582,490.117,7.97706,0.0,0.0
744,185.75,105.951,117.107,121.261,99.1565,40.525,0.0389314,0.909713,19.5504,488.876,7.91099,0.0,0.0
775,193.5,106.6,117.912,116.11,99.117,41.8973,0.0355867,0.867767,19.6248,487.595,7.61304,0.0,0.0
806,201.25,107.345,118.824,121.456,99.082,45.4944,0.0349597,0.84725,19.6602,486.413,6.88167,0.0,0.0
837,209,107.216,118.597,121.571,99.0525,45.3363,0.0337499,0.794019,19.7477,485.232,6.90982,0.0,0.0
868,216.75,106.957,118.323,116.695,99.0219,47.2299,0.0313689,0.748812,19.8213,484.252,6.54531,0.0,0.0
899,224.5,105.67,117.062,120.506,98.986,48.6192,0.0305999,0.703159,19.8902,483.171,6.28578,0.0,0.0
930,232.25,104.58,115.437,125.308,98.9522,46.3275,0.0309032,0.681383,19.9225,482.17,6.70965,0.0,0.0
961,240,103.313,113.842,122.451,98.9004,46.1994,0.0298459,0.649376,19.9771,481.179,6.7295,0.0,0.0
992,247.75,101.544,111.497,126.955,98.8311,49.6465,0.0285003,0.613815,20.0354,480.238,6.08707,0.0,0.0
1023,255.5,99.0105,109.35,124.175,98.7865,48.3521,0.0261643,0.571463,20.1118,479.327,6.31666,0.0,0.0
1054,263.25,97.3736,107.016,124.288,98.7459,51.9626,0.0253158,0.551912,20.1483,478.516,5.67633,0.0,0.0
1085,271,95.9295,104.983,126.553,98.7216,57.0301,0.0239088,0.534114,20.178,477.666,4.85143,0.0,0.0
1116,278.75,94.4764,103.248,131.945,98.6937,55.8564,0.0234195,0.543621,20.1637,476.845,5.03277,0.0,0.0
1147,286.5,93.5327,101.876,126.852,98.6539,56.7179,0.0230563,0.557892,20.1491,476.044,4.89389,0.0,0.0
1178,294.25,92.9071,100.882,131.963,98.6053,61.3528,0.0219602,0.54461,20.1688,475.243,4.19504,0.0,0.0
1209,302,91.5087,99.5479,125.127,98.5643,62.6424,0.0200862,0.515412,20.2248,474.493,4.00745,0.0,0.0
1240,309.75,90.7642,97.8376,130.123,98.5333,63.8136,0.0179845,0.481085,20.2835,473.842,3.84089,0.0,0.0
1271,317.5,88.937,96.2884,129.37,98.4942,63.675,0.0164784,0.451994,20.3343,473.252,3.85662,0.0,0.0
1302,325.25,87.1709,94.3821,131.857,98.5197,63.6474,0.0148104,0.430031,20.3745,472.661,3.86273,0.0,0.0
1333,333,85.5655,92.3005,134.478,98.6105,68.3654,0.0141298,0.409727,20.4105,472.111,3.23865,0.0,0.0
1364,340.75,84.1294,89.7968,139.264,98.6619,68.6168,0.0126105,0.382043,20.4588,471.54,3.21081,0.0,0.0
1395,348.5,82.0423,87.4818,136.281,98.6949,69.0506,0.0124204,0.36451,20.4918,471.06,3.15805,0.0,0.0
1426,356.25,79.938,85.9538,133.787,98.7555,69.4771,0.0119973,0.346796,20.522,470.579,3.10903,0.0,0.0
1457,364,78.5639,83.8266,140.788,98.8076,73.7058,0.0113346,0.332971,20.5459,470.129,2.59132,0.0,0.0
1488,371.75,77.0162,82.0151,137.592,98.8494,73.6158,0.0111364,0.323796,20.5641,469.759,2.60586,0.0,0.0
1519,379.5,75.6189,80.0465,139.886,98.8542,74.1035,0.0109603,0.309794,20.5906,469.328,2.54791,0.0,0.0
1550,387.25,73.8111,78.0255,135.312,98.8594,74.5462,0.0101153,0.29535,20.6158,468.978,2.49571,0.0,0.0
1581,395,72.4281,76.182,143.086,98.8709,76.8833,0.00950168,0.289858,20.627,468.588,2.22381,0.0,0.0
1612,402.75,70.494,75.2497,142.818,98.8924,78.5232,0.00910785,0.280967,20.6445,468.297,2.03914,0.0,0.0
1643,410.5,69.7753,73.056,140.107,98.9032,77.1521,0.00875104,0.272445,20.6596,467.907,2.19584,0.0,0.0
1674,418.25,68.2527,72.1749,142.167,98.9319,80.7902,0.00809006,0.264152,20.6802,467.567,1.79103,0.0,0.0
1705,426,67.2371,70.3516,142.311,98.9577,82.9988,0.00750223,0.256061,20.6947,467.306,1.55489,0.0,0.0
1736,433.75,66.0059,69.0272,144.335,98.988,81.9638,0.00741997,0.249534,20.7065,466.986,1.66853,0.0,0.0
1767,441.5,65.045,67.9437,144.601,99.0032,83.7034,0.00713662,0.241998,20.7189,466.716,1.48421,0.0,0.0
1798,449.25,63.7751,66.8845,141.783,99.0151,85.6655,0.0072805,0.236722,20.7289,466.466,1.28041,0.0,0.0
1829,457,62.7981,65.7365,143.421,99.0083,86.5837,0.00710989,0.22841,20.7436,466.225,1.18554,0.0,0.0
1860,464.75,62.18,64.1308,148.394,99.0123,85.5333,0.00669454,0.223385,20.7531,466.005,1.29381,0.0,0.0
1891,472.5,60.7809,63.6213,144.941,99.0191,87.6775,0.00657358,0.217337,20.7638,465.755,1.07552,0.0,0.0
1922,480.25,60.325,62.5929,141.458,99.0131,89.1057,0.00672339,0.212314,20.7747,465.565,0.932122,0.0,0.0
1953,488,59.2919,61.3652,147.215,99.0023,89.109,0.00661192,0.206524,20.7837,465.355,0.930841,0.0,0.0
1984,495.75,58.7426,60.2753,148.023,99.0008,89.5521,0.00708975,0.199182,20.7956,465.195,0.886844,0.0,0.0
2015,503.5,57.8551,59.2457,144.011,98.994,91.592,0.00709023,0.193337,20.804,464.984,0.687097,0.0,0.0
2046,511.25,56.8141,58.7704,144.383,98.9908,91.1339,0.00705928,0.187095,20.8159,464.824,0.731144,0.0,0.0
2077,519,56.2565,57.7012,145.917,98.9733,92.1908,0.00734492,0.181208,20.8269,464.624,0.627636,0.0,0.0
2108,526.75,55.2534,56.4233,145.466,98.996,92.4036,0.00779171,0.174635,20.8382,464.484,0.609276,0.0,0.0
2139,534.5,54.1121,55.2133,146.823,99.0083,93.1686,0.00801048,0.171987,20.8439,464.354,0.537485,0.0,0.0
2170,542.25,53.3221,54.3338,149.647,99.0091,94.0889,0.00878129,0.167298,20.8522,464.214,0.450657,0.0,0.0
2201,550,52.8329,53.637,148.852,98.9896,93.1163,0.00897661,0.16449,20.8554,464.054,0.540777,0.0,0.0
2232,557.75,51.7515,53.2071,151.502,98.9928,93.8165,0.00960723,0.160486,20.8641,463.943,0.474835,0.0,0.0
2263,565.5,51.3791,52.0452,149.078,98.955,93.9308,0.00984419,0.159383,20.8677,463.813,0.460689,0.0,0.0
2294,573.25,50.3409,51.2615,148.51,98.9641,93.214,0.010528,0.157555,20.8713,463.653,0.52923,0.0,0.0
2325,581,50.2371,50.7824,149.885,98.9928,93.5623,0.0106308,0.156407,20.8708,463.553,0.498823,0.0,0.0
2356,588.75,49.7722,50.433,151.56,98.9657,93.7792,0.0110585,0.153738,20.8759,463.483,0.475932,0.0,0.0
2387,596.5,49.0392,49.7063,147.044,98.9745,94.0536,0.0118942,0.152552,20.8768,463.323,0.450877,0.0,0.0
2418,604.25,48.765,49.3183,148.068,98.9848,93.8221,0.0122627,0.151609,20.8786,463.203,0.473588,0.0,0.0
2449,612,48.1374,48.3609,148.411,98.9577,94.3998,0.0122623,0.151544,20.8782,463.073,0.416898,0.0,0.0
2480,619.75,47.3765,48.2901,151.083,98.9486,94.4039,0.0122852,0.151466,20.8799,462.973,0.4157,0.0,0.0
2511,627.5,47.3012,47.7796,148.528,98.9402,93.6734,0.0120809,0.147467,20.8858,462.893,0.483636,0.0,0.0
2542,635.25,46.4115,46.4678,151.425,98.9637,94.2097,0.0128738,0.149266,20.8818,462.752,0.435257,0.0,0.0
2573,643,45.9504,46.023,150.422,98.9414,93.7451,0.0133545,0.150495,20.8799,462.652,0.476972,0.0,0.0
2604,650.75,45.0148,45.7518,151.043,98.9311,93.8489,0.013623,0.146604,20.8871,462.542,0.466265,0.0,0.0
2635,658.5,45.1328,45.4487,148.499,98.9044,93.5566,0.0129421,0.143102,20.8916,462.432,0.491459,0.0,0.0
2666,666.25,44.9017,45.4861,151.805,98.8574,93.9689,0.0127609,0.142097,20.8938,462.302,0.448382,0.0,0.0
2697,674,44.4266,45.3004,151.315,98.806,93.8108,0.0123029,0.142049,20.8934,462.192,0.458674,0.0,0.0
2728,681.75,44.4398,44.7958,152.447,98.7933,94.245,0.012463,0.14156,20.8942,462.112,0.416708,0.0,0.0
2759,689.5,44.2467,44.907,152.992,98.7555,94.7043,0.0125126,0.141522,20.8923,462.032,0.370338,0.0,0.0
2790,697.25,43.9451,44.2079,149.19,98.7447,93.8209,0.0121143,0.141476,20.891,461.892,0.45223,0.0,0.0
2821,705,43.8242,43.7484,151.093,98.7407,94.4444,0.0117692,0.140104,20.8927,461.812,0.393312,0.0,0.0
2852,712.75,43.1804,43.7968,148.11,98.734,94.1302,0.0116278,0.139404,20.8948,461.701,0.422166,0.0,0.0
2883,720.5,43.0864,44.2194,148.832,98.7332,94.1092,0.0118,0.13768,20.9014,461.591,0.424076,0.0,0.0
2914,728.25,43.2482,43.5067,152.134,98.7367,93.7925,0.0116985,0.13731,20.9026,461.511,0.454192,0.0,0.0
2945,736,43.3157,43.1003,148.445,98.7965,94.2446,0.0112322,0.136217,20.9045,461.391,0.417032,0.0,0.0
2976,743.75,42.8061,43.4033,151.141,98.8415,94.2766,,,,461.371,0.418053,0.0,0.0
3001,750,42.7666,43.1128,152.724,98.8475,94.787,,,,461.251,0.370852,0.0,0.0