File: 01_Data/EPDM_Membrane/Cone/EPDM_Membrane_Cone_HF50-Frame+GridScan_220225_R3.csv
Names,Time,Stack TC,Smoke TC,Exh Press,Smoke Comp,Smoke Meas,CO Meter,CO2 Meter,O2 Meter,Sample Mass,Ext Coeff,Start Test,Flame Verif
Chan Gain,,500,500,1,1,1,1,1,1,1,1,1.0,1.0
Offset,,0,0,0.137915,0,0,0,0,0,0,0,0.0,0.0
Gain,,1,1,25.011,15.3125,15.3273,1,1,1,1.00096,1.02035,1.0,1.0
Units,sec,C,C,Pa,%,%,%,%,%,g,/m,,
Baseline,,32.1177,32.9673,175.844,115.493,111.267,-0.000186624,0.0431645,21.0584,-867.584,0.333716,,
47,11.5,29.3597,30.7914,179.404,116.041,112.957,-0.00033762,0.0449219,21.0558,156.68,0.241135,0.0,0.0
94,23.25,30.0749,31.1906,174.078,116.03,110.207,-0.000468508,0.0422592,21.0606,156.65,0.460864,0.0,0.0
141,35,30.6972,31.5106,173.984,115.973,107.767,0.000708024,0.051081,21.0478,156.46,0.65684,0.0,0.0
188,46.75,34.918,35.7787,159.238,115.833,74.9793,0.0115559,0.318756,20.5858,155.839,3.89286,0.0,0.0
235,58.5,44.8031,47.4933,144.346,115.398,59.4368,0.0206601,0.541679,20.2174,154.608,5.93836,0.0,0.0
282,70.25,55.1006,59.7666,146.841,115.748,55.866,0.0243678,0.610317,20.0845,153.227,6.52001,0.0,0.0
329,82,62.7338,68.4295,145.25,116.225,57.0288,0.0236888,0.593213,20.11,151.936,6.37248,0.0,0.0
376,93.75,67.3488,73.3237,147.17,116.149,59.6038,0.0226422,0.558672,20.1734,150.644,5.97134,0.0,0.0
423,105.5,69.9562,77.6155,149.297,115.056,60.921,0.0204207,0.53361,20.2183,149.373,5.69107,0.0,0.0
470,117.25,72.1895,80.03125,153.943,114.012,62.299,0.0203117,0.513685,20.2485,148.242,5.40929,0.0,0.0
517,129,73.797,82.0111,148.185,114.586,61.1408,0.0203231,0.521339,20.2422,146.971,5.62222,0.0,0.0
564,140.75,75.7203,83.6415,143.36,115.546,60.1464,0.0205812,0.521092,20.2358,145.85,5.84365,0.0,0.0
611,152.5,76.9761,85.2191,149.445,115.07,58.3806,0.021498,0.534898,20.2086,144.549,6.07339,0.0,0.0
658,164.25,78.6578,87.8352,141.037,115.8,57.7524,0.0233384,0.575848,20.137,143.307,6.22678,0.0,0.0
705,176,82.112,91.6762,139.729,116.216,50.1805,0.0276392,0.675716,19.9733,141.726,7.51684,0.0,0.0
752,187.75,85.9706,95.6695,141.317,115.781,52.1511,0.0278967,0.657474,19.9955,140.134,7.1385,0.0,0.0
799,199.5,86.5884,96.5071,153.588,114.149,57.6322,0.0231266,0.556011,20.1639,138.853,6.11694,0.0,0.0
846,211.25,84.193,94.4146,151.979,114.692,60.0627,0.0182924,0.471529,20.3154,137.732,5.78967,0.0,0.0
893,223,82.5005,91.8416,151.963,115.616,64.1733,0.0168634,0.435658,20.3786,136.631,5.26904,0.0,0.0
940,234.75,80.1715,88.7289,153.52,115.086,63.4815,0.0165504,0.426153,20.3891,135.64,5.32494,0.0,0.0
987,246.5,79.5566,87.7347,146.498,115.956,66.3497,0.0165633,0.414513,20.4103,134.579,4.99675,0.0,0.0
1034,258.25,78.2044,85.9131,154.37,116.223,67.0369,0.0158711,0.402191,20.4316,133.738,4.92514,0.0,0.0
1081,270,76.8881,84.7285,152.862,116.059,65.6102,0.0147789,0.390333,20.4524,132.707,5.10507,0.0,0.0
1128,281.75,76.1343,83.1311,146.446,114.419,63.611,0.0144237,0.376082,20.4746,131.876,5.25464,0.0,0.0
1175,293.5,74.9234,81.7619,158.278,114.613,66.6627,0.013778,0.368893,20.491,131.016,4.8504,0.0,0.0
1222,305.25,73.9857,80.8527,158.878,115.618,68.1941,0.0133914,0.357472,20.5071,130.125,4.72523,0.0,0.0
1269,317,73.0939,79.3547,153.574,115.607,69.4823,0.0125304,0.348955,20.5255,129.304,4.55693,0.0,0.0
1316,328.75,72.5651,77.969,155.032,115.186,66.0106,0.0120948,0.338577,20.5407,128.533,4.98304,0.0,0.0
1363,340.5,71.7017,76.6948,156.287,116.115,72.2168,0.0117225,0.330208,20.5548,127.712,4.25065,0.0,0.0
1410,352.25,70.4606,76.0197,158.012,116.021,67.5163,0.0115523,0.320255,20.5695,126.942,4.84579,0.0,0.0
1457,364,69.8223,74.556,155.206,115.783,71.6943,0.0111404,0.308444,20.5898,126.241,4.29003,0.0,0.0
1504,375.75,68.4784,73.557,159.337,116.236,76.1753,0.0101567,0.293569,20.6179,125.51,3.78232,0.0,0.0
1551,387.5,67.4435,71.9403,158.509,116.532,76.3035,0.00905544,0.278762,20.6432,124.94,3.79002,0.0,0.0
1598,399.25,66.4863,70.4116,166.737,116.539,80.2364,0.00835713,0.266192,20.6646,124.279,3.34073,0.0,0.0
1645,411,65.6197,69.2274,160.056,116.266,80.9146,0.00715669,0.256757,20.6858,123.638,3.24444,0.0,0.0
1692,422.75,64.0061,68.0579,160.607,115.787,82.3338,0.00656672,0.246447,20.7049,123.168,3.05184,0.0,0.0
1739,434.5,62.9589,66.969,161.293,115.335,83.2417,0.00637909,0.240319,20.7148,122.668,2.91868,0.0,0.0
1786,446.25,61.9112,65.162,162.36,114.938,83.5981,0.00548046,0.232304,20.7304,122.107,2.8496,0.0,0.0
1833,458,61.1234,64.5262,160.674,114.624,83.2323,0.00540713,0.228488,20.7383,121.657,2.86436,0.0,0.0
1880,469.75,60.4484,63.4349,162.155,114.438,85.949,0.00497467,0.224043,20.749,121.256,2.56235,0.0,0.0
1927,481.5,59.8305,62.3901,165.532,114.365,86.907,0.00452993,0.219867,20.7571,120.756,2.45744,0.0,0.0
1974,493.25,59.0556,61.9509,159.969,114.426,88.2883,0.00460945,0.216556,20.7622,120.405,2.32102,0.0,0.0
2021,505,58.6643,60.9063,162.73,114.564,87.6152,0.00401659,0.212257,20.7691,119.975,2.40029,0.0,0.0
2068,516.75,57.6874,60.274,161.612,114.687,88.8664,0.00349081,0.210425,20.7747,119.555,2.28301,0.0,0.0
2115,528.5,57.2038,59.7232,158.941,114.825,90.6284,0.00391269,0.206361,20.7821,119.174,2.11803,0.0,0.0
2162,540.25,57.3745,58.7354,163.417,114.889,90.9516,0.00361938,0.204682,20.7859,118.764,2.09115,0.0,0.0
2209,552,57.0062,59.1276,163.367,114.944,92.8774,0.00361841,0.199922,20.7947,118.464,1.90791,0.0,0.0
2256,563.75,56.5803,58.0078,165.244,114.923,93.1898,0.00279042,0.195164,20.8029,118.043,1.87622,0.0,0.0
2303,575.5,55.4121,57.8836,164.744,114.884,93.5093,0.00291093,0.192066,20.8114,117.723,1.84256,0.0,0.0
2350,587.25,55.4902,56.961,167.043,114.754,94.8499,0.00234472,0.188215,20.8167,117.463,1.70499,0.0,0.0
2397,599,54.8836,56.8716,164.181,114.622,95.1577,0.00217907,0.183659,20.8219,117.182,1.66575,0.0,0.0
2444,610.75,54.5675,56.497,163.429,114.53,96.8084,0.00211459,0.178127,20.8325,116.812,1.50463,0.0,0.0
2491,622.5,53.6295,55.6009,165.21,114.463,97.6026,0.00149798,0.17385,20.8424,116.572,1.42623,0.0,0.0
2538,634.25,53.4586,55.2477,167.316,114.378,98.2023,0.00148216,0.170281,20.8495,116.331,1.36472,0.0,0.0
2585,646,52.4182,53.9809,167.574,114.388,99.2079,0.00127659,0.165996,20.8587,116.001,1.27433,0.0,0.0
2632,657.75,52.5806,53.9373,164.647,114.54,98.8216,0.0016503,0.162045,20.866,115.841,1.32113,0.0,0.0
2679,669.5,51.8316,53.1017,170.283,114.776,101.007,0.00115358,0.156956,20.8744,115.641,1.14374,0.0,0.0
2726,681.25,51.2348,52.4553,162.929,115.062,102.509,0.00134825,0.154941,20.8796,115.331,1.03395,0.0,0.0
2773,693,50.6047,51.8802,168.672,115.306,102.536,0.00123287,0.151475,20.8846,115.2,1.05053,0.0,0.0
2820,704.75,49.898,52.0359,163.631,115.511,104.121,0.00165484,0.148315,20.8904,114.97,0.929202,0.0,0.0
2867,716.5,50.1483,51.5439,168.742,115.71,104.337,0.00109388,0.14511,20.8971,114.76,0.926016,0.0,0.0
2914,728.25,49.5086,51.2369,167.751,115.91,104.659,0.00131687,0.143429,20.9012,114.56,0.913874,0.0,0.0
2961,740,48.7745,50.3957,177.832,116.046,105.842,0.00140127,0.140662,20.9036,114.45,0.823771,0.0,0.0
3008,751.75,48.8018,49.8779,168.352,116.215,106.589,0.0016204,0.138044,20.9086,114.219,0.7739,0.0,0.0
3055,763.5,47.8863,49.69,169.185,116.334,106.964,0.00161223,0.135845,20.9136,114.009,0.751587,0.0,0.0
3102,775.25,47.5504,48.926,169.763,116.458,107.318,0.00148594,0.133787,20.9154,113.909,0.73153,0.0,0.0
3149,787,47.5136,49.0638,165.119,116.553,107.625,0.00181097,0.1302,20.923,113.689,0.713299,0.0,0.0
3196,798.75,46.7572,48.4441,171.002,116.607,107.056,0.00191524,0.127422,20.9281,113.539,0.764856,0.0,0.0
3243,810.5,46.8496,47.7939,167.319,116.615,108.197,0.00167198,0.124982,20.9332,113.449,0.670586,0.0,0.0
3290,822.25,45.7105,47.0062,171.64,116.616,107.588,0.00269415,0.124551,20.9342,113.229,0.721219,0.0,0.0
3337,834,45.6864,47.0475,167.255,116.581,108.594,0.00262223,0.122037,20.9399,113.088,0.635212,0.0,0.0
3384,845.75,45.5746,46.2828,171.603,116.44,108.338,0.00276383,0.118928,20.9442,112.978,0.645525,0.0,0.0
3431,857.5,45.2022,46.038,165.558,116.174,107.721,0.00313917,0.118742,20.9449,112.838,0.676181,0.0,0.0
3478,869.25,44.7648,45.3504,167.574,115.865,107.609,0.00398503,0.116768,20.9488,112.668,0.661606,0.0,0.0
3525,881,43.9452,44.9641,174.62,115.688,107.295,0.00433303,0.114371,20.9502,112.598,0.674097,0.0,0.0
3572,892.75,43.72,45.1055,172.511,116.091,108.628,0.00495486,0.112588,20.9528,112.498,0.594762,0.0,0.0
3619,904.5,42.9394,44.4887,169.023,116.264,108.081,0.0052418,0.111632,20.9567,112.308,0.653175,0.0,0.0
3666,916.25,42.8669,44.1212,172.395,116.128,108.42,0.00547247,0.1085,20.9622,112.268,0.614772,0.0,0.0
3713,928,42.4829,43.6736,171.238,115.806,107.904,0.00567395,0.106352,20.9677,112.057,0.63258,0.0,0.0
3760,939.75,42.2512,43.9052,167.309,115.407,108.989,0.00570267,0.10382,20.9691,111.997,0.512081,0.0,0.0
3807,951.5,42.4465,43.3271,164.574,115.27,107.771,0.00616234,0.103223,20.9712,111.857,0.602083,0.0,0.0
3854,963.25,41.5523,42.7394,170.585,115.372,107.708,0.00603305,0.101565,20.97,111.747,0.615235,0.0,0.0
3901,975,41.5864,42.53,168.123,115.501,107.821,0.00674711,0.100315,20.9704,111.677,0.615873,0.0,0.0
3948,986.75,41.0277,42.5647,174.573,115.649,108.212,0.00641623,0.0986155,20.9757,111.507,0.594906,0.0,0.0
3995,998.5,40.3506,41.4212,169.763,115.802,109.064,0.00647786,0.0967692,20.9758,111.447,0.536507,0.0,0.0
4042,1010.25,40.4797,41.21,169.228,115.855,108.309,0.00768208,0.0956473,20.9791,111.337,0.602872,0.0,0.0
4089,1022,39.7382,41.352,175.89,115.802,108.345,0.00974123,0.0894297,20.9867,111.187,0.59578,0.0,0.0
4136,1033.75,39.0326,40.1713,176.005,115.665,108.562,0.00952865,0.0885352,20.9879,111.116,0.567277,0.0,0.0
4183,1045.5,39.2511,39.6218,175.425,115.378,109.268,0.00920193,0.0889728,20.9884,110.996,0.487004,0.0,0.0
4230,1057.25,39.0469,40.1143,171.447,114.907,108.147,0.00913282,0.0886091,20.9881,110.886,0.542741,0.0,0.0
4277,1069,39.0172,39.5338,173.578,114.474,107.65,0.00915121,0.0884248,20.9884,110.826,0.550143,0.0,0.0
4324,1080.75,38.4038,39.3734,171.502,114.341,108.11,0.00899305,0.0887267,20.989,110.706,0.501576,0.0,0.0
4371,1092.5,38.3903,39.4301,171.944,114.558,107.468,0.00872348,0.0882822,20.9906,110.576,0.571861,0.0,0.0
4418,1104.25,38.8618,39.764,174.558,114.978,107.975,0.00848591,0.0883114,20.9893,110.546,0.562458,0.0,0.0
4465,1116,38.4008,39.2111,170.974,115.489,108.189,0.00870425,0.0885943,20.99,110.416,0.584422,0.0,0.0
4512,1127.75,38.3835,39.4784,172.714,115.978,109.158,,0.0878035,,110.386,0.542476,0.0,0.0
4546,1136.25,37.7968,38.7966,167.91,116.272,109.127,,,,110.296,0.567701,0.0,0.0