File: 01_Data/EPDM_Membrane/Cone/EPDM_Membrane_Cone_HF75-Frame+GridScan_220225_R2.csv
Names,Time,Stack TC,Smoke TC,Exh Press,Smoke Comp,Smoke Meas,CO Meter,CO2 Meter,O2 Meter,Sample Mass,Ext Coeff,Start Test,Flame Verif
Chan Gain,,500,500,1,1,1,1,1,1,1,1,1.0,1.0
Offset,,0,0,0.137915,0,0,0,0,0,0,0,0.0,0.0
Gain,,1,1,25.011,15.3125,15.3273,1,1,1,1.00096,1.02035,1.0,1.0
Units,sec,C,C,Pa,%,%,%,%,%,g,/m,,
Baseline,,44.4634,45.5979,166.862,115.498,108.876,-0.000420369,0.0517392,21.0427,-869.561,0.528637,,
27,6.5,41.9457,43.2866,165.847,115.591,108.63,-0.000511699,0.05201,21.0399,159.473,0.555861,0.0,0.0
54,13.25,42.2796,43.7033,171.241,115.594,106.264,0.000331676,0.0555687,21.0373,159.393,0.753278,0.0,0.0
81,20,43.551,46.0507,148.254,115.599,59.8339,0.00973212,0.238262,20.6793,158.942,5.89436,0.0,0.0
108,26.75,49.617,51.192,138.15,115.6,50.8049,0.0215634,0.471695,20.268,158.162,7.35855,0.0,0.0
135,33.5,56.7773,60.1679,132.014,115.624,48.2491,0.029564,0.670181,19.9322,157.151,7.82237,0.0,0.0
162,40.25,65.3539,69.9682,131.395,115.647,47.3922,0.0334291,0.751261,19.8127,156.17,7.98458,0.0,0.0
189,47,71.4632,77.4564,132.867,115.661,46.2443,0.0333975,0.75602,19.8053,155.189,8.20511,0.0,0.0
216,53.75,76.9415,84.3611,131.762,115.693,45.9422,0.0327301,0.752188,19.8204,154.188,8.26625,0.0,0.0
243,60.5,81.2299,89.5686,136.597,115.705,48.1495,0.031126,0.726081,19.8658,153.227,7.84717,0.0,0.0
270,67.25,83.8886,92.715,135.566,115.725,47.2799,0.0299121,0.695109,19.923,152.346,8.01184,0.0,0.0
297,74,86.6678,95.6159,134.644,115.74,50.0093,0.0293826,0.664887,19.967,151.465,7.51064,0.0,0.0
324,80.75,88.9879,98.1916,138.144,115.767,49.2983,0.027897,0.660296,19.9769,150.574,7.64093,0.0,0.0
351,87.5,90.4303,100.725,136.037,115.788,54.2378,0.0271555,0.646537,20.0071,149.703,6.78786,0.0,0.0
378,94.25,92.0063,101.549,143.339,115.788,55.1859,0.0272149,0.642265,20.0136,148.813,6.63279,0.0,0.0
405,101,93.4211,103.379,139.408,115.785,48.4114,0.0271653,0.632377,20.0253,148.052,7.80475,0.0,0.0
432,107.75,93.887,104.275,137.528,115.783,52.6572,0.0265623,0.627025,20.0341,147.181,7.05217,0.0,0.0
459,114.5,94.8154,105.208,138.901,115.78,48.9236,0.026777,0.621884,20.0425,146.34,7.71023,0.0,0.0
486,121.25,95.7163,105.748,142.429,115.755,51.8387,0.0267635,0.618077,20.0415,145.499,7.19023,0.0,0.0
513,128,96.0591,106.659,139.475,115.738,48.8871,0.0274104,0.625911,20.0244,144.629,7.71362,0.0,0.0
540,134.75,96.7679,107.751,133.908,115.729,47.2682,0.0288312,0.657921,19.9712,143.718,8.01438,0.0,0.0
567,141.5,99.0094,109.584,130.317,115.737,46.0867,0.0323917,0.714556,19.8536,142.717,8.24153,0.0,0.0
594,148.25,101.313,113.557,130.136,115.684,41.4527,0.0351431,0.803426,19.7105,141.606,9.18594,0.0,0.0
621,155,103.894,116.394,130.534,115.657,43.8181,0.0348824,0.820221,19.6917,140.465,8.68711,0.0,0.0
648,161.75,106.498,118.689,127.927,115.614,45.9992,0.0330444,0.780916,19.7631,139.454,8.24903,0.0,0.0
675,168.5,106.988,119.567,132.709,115.581,48.533,0.031152,0.737765,19.8363,138.493,7.76657,0.0,0.0
702,175.25,107.29,120.177,132.674,115.637,44.9767,0.0303029,0.696359,19.8958,137.502,8.45204,0.0,0.0
729,182,107.777,119.696,133.206,115.709,50.2254,0.0293181,0.67754,19.9272,136.581,7.46966,0.0,0.0
756,188.75,107.266,119.408,131.592,115.819,51.5585,0.0278823,0.655937,19.9644,135.67,7.24368,0.0,0.0
783,195.5,107.739,118.737,134.364,115.901,53.2709,0.0270497,0.636655,19.9959,134.779,6.95763,0.0,0.0
810,202.25,106.726,118.873,132.204,115.94,51.9102,0.0261444,0.615928,20.0321,134.008,7.19218,0.0,0.0
837,209,106.167,118,143.294,115.926,51.7114,0.0253232,0.59253,20.0726,133.228,7.22544,0.0,0.0
864,215.75,105.484,116.916,132.561,115.965,55.4375,0.024758,0.580431,20.0897,132.437,6.60571,0.0,0.0
891,222.5,105.268,116.074,138.608,115.974,51.0701,0.0249101,0.574082,20.1002,131.586,7.34084,0.0,0.0
918,229.25,104.518,115.615,134.823,116.026,55.9689,0.0245804,0.574043,20.1023,130.835,6.52505,0.0,0.0
945,236,104.224,115.049,137.582,116.06,51.5098,0.0251878,0.564887,20.1111,130.125,7.27075,0.0,0.0
972,242.75,103.11,114.028,137.192,116.08,51.7208,0.0255014,0.563056,20.1082,129.334,7.23575,0.0,0.0
999,249.5,102.911,113.573,135.872,116.097,55.1082,0.0259349,0.570081,20.1009,128.503,6.6692,0.0,0.0
1026,256.25,103.318,112.884,137.073,116.106,51.2844,0.0251508,0.571048,20.097,127.712,7.31358,0.0,0.0
1053,263,103.157,113.306,141.867,116.077,50.1936,0.0250293,0.567443,20.102,126.972,7.50377,0.0,0.0
1080,269.75,102.751,112.816,135.536,116.057,53.176,0.0244723,0.547325,20.1292,126.111,6.98564,0.0,0.0
1107,276.5,102.153,112.483,137.659,116.017,53.2606,0.0239644,0.533129,20.1553,125.43,6.9683,0.0,0.0
1134,283.25,101.913,111.241,140.155,115.921,52.4308,0.022218,0.503133,20.2076,124.689,7.10142,0.0,0.0
1161,290,100.678,110.195,140.756,115.832,55.6649,0.0208201,0.48212,20.245,124.029,6.55883,0.0,0.0
1188,296.75,99.9107,108.856,140.411,115.784,57.9274,0.0198265,0.458449,20.2877,123.398,6.19852,0.0,0.0
1215,303.5,98.6878,107.581,145.922,115.749,55.1419,0.0183921,0.431701,20.3354,122.788,6.63685,0.0,0.0
1242,310.25,96.3657,106.15,145.969,115.746,58.4625,0.0171885,0.405601,20.3845,122.157,6.11329,0.0,0.0
1269,317,95.2132,103.79,148.193,115.838,62.052,0.0160741,0.386927,20.4202,121.597,5.58703,0.0,0.0
1296,323.75,94.0474,101.889,146.047,115.87,62.6652,0.0148245,0.369268,20.4542,121.076,5.50151,0.0,0.0
1323,330.5,92.7518,100.19,147.063,115.914,64.4273,0.0138556,0.35561,20.4818,120.586,5.25674,0.0,0.0
1350,337.25,91.0427,97.8712,150.596,115.932,67.2628,0.0129145,0.342897,20.5037,120.085,4.87258,0.0,0.0
1377,344,89.5483,95.6418,149.979,115.968,68.3536,0.0120237,0.331952,20.5289,119.615,4.73137,0.0,0.0
1404,350.75,88.8466,94.4087,146.482,115.98,70.6189,0.0102532,0.320287,20.5526,119.214,4.44052,0.0,0.0
1431,357.5,86.6406,93.4309,149.764,116.01,72.489,0.00922114,0.306418,20.5806,118.804,4.2089,0.0,0.0
1458,364.25,86.0726,91.5722,149.95,116.015,77.4523,0.00784505,0.292149,20.6084,118.413,3.61649,0.0,0.0
1485,371,84.4761,89.7698,144.9,116.031,77.7601,0.006943,0.281294,20.6328,118.073,3.58222,0.0,0.0
1512,377.75,83.0197,88.2362,151.375,116.009,80.1283,0.00598047,0.269739,20.6568,117.803,3.312,0.0,0.0
1539,384.5,81.8013,86.7505,153.418,116.002,83.9517,0.00540354,0.260388,20.6748,117.453,2.89426,0.0,0.0
1566,391.25,80.3055,85.378,151.061,116.019,84.9083,0.0048623,0.246828,20.7009,117.192,2.79418,0.0,0.0
1593,398,79.6228,83.68,153.89,116.035,89.7359,0.00381929,0.236272,20.7189,116.982,2.30049,0.0,0.0
1620,404.75,78.153,82.6084,155.031,116.077,90.3936,0.0029389,0.224824,20.7452,116.692,2.2383,0.0,0.0
1647,411.5,77.3866,80.6692,154.516,116.066,94.0117,0.00273302,0.214651,20.7668,116.462,1.88621,0.0,0.0
1674,418.25,76.4648,79.9157,153.879,116.06,93.7787,0.00211832,0.205675,20.7832,116.271,1.90798,0.0,0.0
1701,425,74.3655,78.8559,152.737,116.061,98.4633,0.00212968,0.198191,20.7989,116.081,1.47176,0.0,0.0
1728,431.75,74.1414,77.0478,156.654,116.078,99.6612,0.00193128,0.18794,20.8172,115.941,1.36486,0.0,0.0
1755,438.5,73.2924,75.5418,155.36,116.103,100.602,0.00154727,0.179727,20.8317,115.761,1.28268,0.0,0.0
1782,445.25,71.7317,73.9606,157.154,116.126,102.109,0.00127422,0.173248,20.8459,115.611,1.15132,0.0,0.0
1809,452,70.7055,73.5402,153.701,116.13,103.654,0.00101781,0.166813,20.8561,115.501,1.01727,0.0,0.0
1836,458.75,70.0014,72.1953,155.206,116.131,104.357,0.000435342,0.160855,20.8668,115.391,0.956765,0.0,0.0
1863,465.5,68.6536,72.0622,158.261,116.159,105.589,0.00105272,0.156315,20.8749,115.25,0.853953,0.0,0.0
1890,472.25,67.6976,70.8382,157.152,116.177,107.215,0.000833109,0.150296,20.8876,115.14,0.718508,0.0,0.0
1917,479,67.2782,69.1721,158.279,116.172,107.662,0.00090936,0.145405,20.8993,115.07,0.680896,0.0,0.0
1944,485.75,66.5947,68.3158,156.182,116.19,107.237,0.00107939,0.140569,20.9093,114.94,0.717679,0.0,0.0
1971,492.5,65.6119,67.4229,160.067,116.206,107.948,0.00130085,0.136829,20.9162,114.86,0.659795,0.0,0.0
1998,499.25,64.5347,66.3974,156.953,116.185,108.006,0.00131649,0.131991,20.9241,114.79,0.653293,0.0,0.0
2025,506,63.8578,65.9675,161.015,116.156,108.311,0.00190527,0.130606,20.9271,114.72,0.62586,0.0,0.0
2052,512.75,63.5652,64.7326,158.218,116.128,109.154,0.00166242,0.127338,20.9328,114.63,0.554351,0.0,0.0
2079,519.5,62.0927,64.8655,159.212,116.04,108.202,0.00183257,0.126949,20.9354,114.55,0.6259,0.0,0.0
2106,526.25,61.8514,63.2543,160.032,115.978,108.329,0.00238725,0.125518,20.9375,114.49,0.610698,0.0,0.0
2133,533,61.6332,63.1362,162.619,115.844,108.137,0.00264444,0.124068,20.9407,114.44,0.616239,0.0,0.0
2160,539.75,60.4947,61.5367,163.342,115.581,107.898,0.00270533,0.122254,20.9463,114.38,0.615694,0.0,0.0
2187,546.5,59.4972,60.9791,162.452,115.672,107.551,0.00261712,0.12145,20.9483,114.29,0.651549,0.0,0.0
2214,553.25,58.6628,60.1653,164.763,115.858,108.304,0.00315372,0.120299,20.9505,114.199,0.603437,0.0,0.0
2241,560,59.0039,60.1361,162.19,116.095,108.38,0.00343795,0.118352,20.9538,114.149,0.615535,0.0,0.0
2268,566.75,58.5458,59.6768,166.141,116.362,109.695,0.00358243,0.118894,20.9518,113.999,0.528077,0.0,0.0
2295,573.5,57.6414,59.4346,160.127,116.523,109.031,0.00392236,0.118286,20.9537,113.929,0.594827,0.0,0.0
2322,580.25,57.4236,57.787,162.754,116.464,108.916,0.00447036,0.119409,20.9527,113.869,0.599756,0.0,0.0
2349,587,57.2356,58.0699,163.73,116.077,107.702,0.00469101,0.119019,20.9536,113.779,0.670204,0.0,0.0
2376,593.75,57.0905,58.0176,164.609,115.411,107.129,0.00477575,0.117501,20.9543,113.749,0.666492,0.0,0.0
2403,600.5,56.0239,58.0699,163.467,114.709,106.82,0.00492134,0.116905,20.9563,113.689,0.637762,0.0,0.0
2430,607.25,56.2786,57.5682,161.736,114.29,107.168,0.00481366,0.115763,20.9564,113.629,0.575884,0.0,0.0
2457,614,56.2137,57.3738,163.265,114.455,106.26,0.00479621,0.115773,20.9559,113.549,0.664942,0.0,0.0
2484,620.75,55.2527,56.9667,166.272,115.014,107.176,0.00487945,0.116227,20.9551,113.459,0.631692,0.0,0.0
2511,627.5,55.0998,56.1087,160.717,115.604,107.306,0.00522996,0.117638,20.9528,113.409,0.666689,0.0,0.0
2538,634.25,55.189,56.4688,160.23,115.771,107.069,0.00514641,0.115656,20.9577,113.349,0.699471,0.0,0.0
2565,641,55.0417,56.5455,166.315,115.467,106.953,0.0055834,0.115329,20.9574,113.279,0.685586,0.0,0.0
2592,647.75,55.1436,56.5164,162.513,115.27,106.841,,0.116149,,113.188,0.67961,0.0,0.0
2619,654.5,54.2622,55.2846,163.254,116.189,107.673,,,,113.128,0.681294,0.0,0.0
2634,658.25,54.8219,55.6337,166.699,116.149,108.609,,,,113.068,0.600731,0.0,0.0