File: 01_Data/EPDM_Membrane/Cone/EPDM_Membrane_Cone_HF75Scalar_220225_R1.csv
LABORATORY,FSRI
TEST IDENT,EPDM_HF75_1
OPERATOR,Dow
MATERIAL,EPDM Roofing Membrane
ORIENTATION,Horizontal
HEAT FLUX,75
SURF AREA,0.00884
C FACTOR,0.0370678
SPEC HOLDER DIFF,372.59
SPECIMEN MASS,81.7
SCAN TIME,0.25
O2 DELAY TIME,11
CO DELAY TIME,11
CO2 DELAY TIME,8
FLOW FACTOR,1
SCAN COUNT,2693
TIME TO IGN,14.5
END OF TEST SCAN,2213
END OF TEST TIME,553.25
TEST STATUS,1
PRE TEST CMT,Dimensions: 100.8 x 99.90 x 5.88 mm; with frame and grid