File: 01_Data/EPDM_Membrane/Cone/EPDM_Membrane_Cone_HF25Scan_220311_R5.csv
Names,Time,Stack TC,Smoke TC,Exh Press,Smoke Comp,Smoke Meas,CO Meter,CO2 Meter,O2 Meter,Sample Mass,Ext Coeff,Start Test,Flame Verif
Chan Gain,,500,500,1,1,1,1,1,1,1,1,1.0,1.0
Offset,,0,0,0.136191,0,0,0,0,0,0,0,0.0,0.0
Gain,,1,1,25.011,13.291,13.2919,1,1,1,1.00093,1.00758,1.0,1.0
Units,sec,C,C,Pa,%,%,%,%,%,g,/m,,
Baseline,,18.7713,19.3395,177.007,100.444,98.6897,0.000306579,0.0426668,21.0846,-0.839028,0.155754,,
56,13.75,17.773,18.6591,176.979,99.7871,98.4221,0.000573478,0.0429174,21.0843,1055.19,0.121736,0.0,0.0
112,27.75,17.6917,18.4578,177.02,100.129,98.818,0.000538677,0.0426762,21.0833,1055.21,0.116525,0.0,0.0
168,41.75,18.1209,18.0555,180.042,100.196,99.0825,0.000182632,0.042533,21.0835,1055.27,0.0988073,0.0,0.0
224,55.75,17.8466,18.5503,171.957,99.4683,97.6729,0.000208457,0.0421096,21.0842,1055.21,0.160991,0.0,0.0
280,69.75,17.7303,18.4842,176.059,99.7007,97.8781,4.08797e-05,0.041838,21.0844,1055.13,0.163064,0.0,0.0
336,83.75,18.0942,18.5167,179.3,99.755,98.2197,0.000504671,0.0422059,21.0831,1055.09,0.137093,0.0,0.0
392,97.75,17.5585,18.6894,176.25,99.0582,96.9184,0.000456776,0.0420241,21.0843,1055.1,0.193016,0.0,0.0
448,111.75,18.343,19.092,178.349,98.4689,96.1919,0.000481855,0.0421213,21.0843,1055.11,0.206776,0.0,0.0
504,125.75,18.0661,18.3639,178.484,98.7552,96.2418,0.000367517,0.0424272,21.0835,1055.04,0.227859,0.0,0.0
560,139.75,17.8489,19.1345,175.531,99.7157,96.8543,0.000447808,0.0438913,21.0814,1054.97,0.257333,0.0,0.0
616,153.75,18.8251,19.7103,169.318,100.451,77.1716,0.00376176,0.0920718,20.9758,1054.7,2.33015,0.0,1.0
672,167.75,27.4875,27.8671,151.334,100.334,56.2683,0.0149081,0.374433,20.5211,1053.74,5.11192,0.0,0.0
728,181.75,35.7844,37.574,153.238,99.7834,60.0123,0.0183088,0.449076,20.3959,1052.61,4.4939,0.0,0.0
784,195.75,43.2783,45.6883,155.647,100.299,54.0653,0.0185647,0.453496,20.3933,1051.25,5.46177,0.0,0.0
840,209.75,47.1065,50.0035,148.095,99.6634,54.8636,0.0182562,0.436729,20.4134,1050.01,5.27607,0.0,0.0
896,223.75,50.1321,53.9785,151.848,99.6784,58.4871,0.0174502,0.433695,20.4319,1048.77,4.71212,0.0,0.0
952,237.75,51.9799,56.6227,154.052,99.7944,59.6586,0.0163031,0.42265,20.4523,1047.69,4.54712,0.0,0.0
1008,251.75,52.7772,57.6026,157.362,99.446,60.6553,0.016078,0.406194,20.4748,1046.49,4.36978,0.0,0.0
1064,265.75,53.6828,58.7466,160.573,98.7621,60.3291,0.0160954,0.414521,20.4587,1045.38,4.35644,0.0,0.0
1120,279.75,55.0946,60.1447,150.198,98.4291,58.0726,0.01658,0.407539,20.4682,1044.2,4.66352,0.0,0.0
1176,293.75,55.9454,61.217,148.2,98.5419,61.4856,0.0163608,0.411571,20.4685,1043.1,4.16888,0.0,0.0
1232,307.75,56.929,62.1985,151.992,98.9519,64.4443,0.015025,0.402346,20.4843,1042.02,3.79019,0.0,0.0
1288,321.75,56.4773,62.0357,156.576,99.4667,64.9149,0.0132455,0.364307,20.5514,1040.93,3.77175,0.0,0.0
1344,335.75,54.4993,59.814,156.442,99.9282,70.4542,0.0118409,0.328206,20.6121,1040.08,3.08892,0.0,0.0
1400,349.75,53.1662,58.0605,160.309,100.28,70.3305,0.0107333,0.302125,20.6545,1039.3,3.13554,0.0,0.0
1456,363.75,51.5986,56.4734,157.465,100.425,71.4095,0.00980536,0.285329,20.6876,1038.52,3.01369,0.0,0.0
1512,377.75,49.7688,54.4084,161.895,100.467,74.2161,0.00962127,0.28009,20.6928,1037.83,2.67672,0.0,0.0
1568,391.75,48.4589,52.6837,160.737,100.451,74.9621,0.00865908,0.268595,20.7122,1037.1,2.58686,0.0,0.0
1624,405.75,47.7691,51.7148,159.687,100.393,74.7378,0.00855072,0.259765,20.7277,1036.42,2.60828,0.0,0.0
1680,419.75,47.0207,50.4867,163.906,100.291,76.0147,0.00852192,0.257809,20.7305,1035.81,2.44958,0.0,0.0
1736,433.75,45.852,49.6579,162.57,100.048,74.0928,0.00805558,0.250286,20.7415,1035.13,2.65444,0.0,0.0
1792,447.75,45.8303,48.9398,161.083,99.6354,72.0366,0.00824563,0.246143,20.7493,1034.45,2.86667,0.0,0.0
1848,461.75,44.5525,48.3028,162.793,99.2497,72.7428,0.0083454,0.245505,20.7504,1033.84,2.74616,0.0,0.0
1904,475.75,45.3001,48.0423,163.03,98.9248,73.9464,0.0079058,0.24594,20.7501,1033.25,2.57215,0.0,0.0
1960,489.75,44.1533,46.7061,156.988,98.621,73.5168,0.0081785,0.242462,20.7566,1032.56,2.59646,0.0,0.0
2016,503.75,43.7904,46.8483,163.929,98.4636,72.5189,0.00830511,0.238225,20.7625,1031.94,2.70313,0.0,0.0
2072,517.75,44.0362,47.1142,157.907,98.5844,73.8166,0.00796624,0.240931,20.759,1031.36,2.55722,0.0,0.0
2128,531.75,43.3278,46.5659,163.063,99.0756,74.9304,0.00785091,0.236853,20.765,1030.81,2.46877,0.0,0.0
2184,545.75,44.0846,46.4189,160.646,99.7315,76.8503,0.00751019,0.231977,20.7738,1030.22,2.30348,0.0,0.0
2240,559.75,43.3789,46.0702,164.443,99.8264,75.8476,0.00728577,0.224542,20.7828,1029.5,2.42797,0.0,0.0
2296,573.75,43.0218,45.0614,163.767,99.5985,75.9527,0.00682217,0.221638,20.7905,1029.11,2.39553,0.0,0.0
2352,587.75,42.5731,44.9056,166.954,100.247,79.3827,0.00682729,0.220206,20.7938,1028.52,2.0625,0.0,0.0
2408,601.75,41.596,43.822,164.37,100.115,78.4356,0.00655661,0.213292,20.8054,1027.77,2.15693,0.0,0.0
2464,615.75,41.5388,43.8851,160.975,99.9793,77.763,0.00647386,0.20999,20.8108,1027.59,2.22107,0.0,0.0
2520,629.75,41.7308,43.5675,163.553,100.448,81.7857,0.00593663,0.203096,20.8254,1026.95,1.81661,0.0,0.0
2576,643.75,40.264,42.0792,166.99,100.406,81.4774,0.00552906,0.197162,20.8346,1026.54,1.84635,0.0,0.0
2632,657.75,40.6501,42.0231,166.881,99.478,81.417,0.00490465,0.193171,20.8387,1026.15,1.7708,0.0,0.0
2688,671.75,39.7204,41.3653,164.715,98.5767,82.0571,0.00466831,0.187122,20.8512,1025.72,1.62114,0.0,0.0
2744,685.75,39.4165,41.047,169.671,98.6392,83.8796,0.00412055,0.18133,20.8617,1025.34,1.43259,0.0,0.0
2800,699.75,38.3273,40.0948,166.005,99.3794,83.8824,0.00393704,0.176342,20.8696,1024.93,1.49837,0.0,0.0
2856,713.75,37.6223,39.2309,166.907,99.8483,85.5995,0.00356554,0.171941,20.8768,1024.63,1.36088,0.0,0.0
2912,727.75,37.5141,38.9937,171.958,99.5316,86.6708,0.00326478,0.168703,20.8852,1024.18,1.22286,0.0,0.0
2968,741.75,36.7067,37.9498,165.884,100.266,87.3243,0.00281026,0.163842,20.8944,1023.97,1.22146,0.0,0.0
3024,755.75,36.1902,37.4507,168.654,100.328,90.268,0.00273574,0.159345,20.9018,1023.52,0.933899,0.0,0.0
3080,769.75,35.4762,36.8884,163.594,100.318,90.7657,0.00281452,0.156326,20.9069,1023.13,0.884407,0.0,0.0
3136,783.75,35.2378,36.2753,161.289,99.1377,90.2988,0.0029065,0.151159,20.9149,1022.76,0.82538,0.0,0.0
3192,797.75,34.3714,35.6639,172.997,98.4989,89.8944,0.00221227,0.147791,20.9227,1022.68,0.807915,0.0,0.0
3248,811.75,34.1831,35.3144,166.808,98.6777,91.3814,0.00274863,0.143469,20.9272,1022.4,0.678939,0.0,0.0
3304,825.75,33.3926,34.4813,166.457,99.0537,92.3392,0.00252709,0.141293,20.9283,1022.24,0.620406,0.0,0.0
3360,839.75,33.3287,34.5417,168.922,99.3174,92.9529,0.00327552,0.136413,20.9387,1022.09,0.585349,0.0,0.0
3416,853.75,32.0222,33.7978,165.896,99.4529,92.7537,0.00367558,0.134595,20.9424,1021.89,0.616355,0.0,0.0
3472,867.75,32.5551,33.6985,167.309,99.4886,94.0765,0.00386256,0.13312,20.9473,1021.66,0.49437,0.0,0.0
3528,881.75,31.8715,33.1295,171.281,99.4711,94.1171,0.00395334,0.128152,20.9513,1021.36,0.489011,0.0,0.0
3584,895.75,32.0916,32.7064,176.224,99.4334,95.1965,0.00424437,0.124223,20.9584,1021.17,0.384871,0.0,0.0
3640,909.75,31.509,32.4871,172.694,99.2752,94.6476,0.00509562,0.120757,20.9649,1020.84,0.421901,0.0,0.0
3696,923.75,30.2013,31.0559,178.052,99.0039,95.6094,0.00489148,0.117906,20.9668,1020.87,0.30835,0.0,0.0
3752,937.75,30.1944,31.0536,168.55,98.6591,95.4662,0.00565516,0.115859,20.9692,1020.69,0.290766,0.0,0.0
3808,951.75,29.2253,30.0218,171.87,98.4461,94.0363,0.00555253,0.112918,20.9741,1020.42,0.405048,0.0,0.0
3864,965.75,29.4325,30.2607,166.342,98.6015,95.3689,0.00586977,0.108944,20.9803,1020.21,0.294622,0.0,0.0
3920,979.75,27.9932,29.0058,174.56,99.1888,95.51,0.00665302,0.107273,20.9843,1020.03,0.334038,0.0,0.0
3976,993.75,27.9047,28.8184,174.871,99.9437,96.071,0.00664708,0.103309,20.9907,1019.87,0.349285,0.0,0.0
4032,1007.75,27.8826,28.6504,168.624,100.45,96.9419,0.00731329,0.10077,20.9949,1019.73,0.314211,0.0,0.0
4088,1021.75,27.249,28.0368,163.308,100.366,97.2969,0.00785168,0.0976718,20.9965,1019.61,0.274483,0.0,0.0
4144,1035.75,27.2181,28,170.25,99.9035,96.5501,0.00831722,0.0955606,21.0012,1019.4,0.301769,0.0,0.0
4200,1049.75,26.2664,27.0158,173.119,100.045,96.6945,0.00859902,0.0925681,21.0071,1019.27,0.301074,0.0,0.0
4256,1063.75,25.9679,26.7461,168.84,100.144,97.4275,0.00848107,0.0903074,21.0082,1019.19,0.243103,0.0,0.0
4312,1077.75,25.1802,25.8504,172.383,99.4606,96.5286,0.00934986,0.0878233,21.011,1019.03,0.264465,0.0,0.0
4368,1091.75,25.2667,25.8659,177.165,99.7015,96.6413,0.00935263,0.0853774,21.0166,1018.82,0.27553,0.0,0.0
4424,1105.75,25.0861,25.8921,171.825,99.7437,97.0186,0.00963418,0.0851331,21.0174,1018.71,0.244834,0.0,0.0
4480,1119.75,24.4664,25.3649,173.724,99.1827,96.5217,0.00955936,0.0857131,21.0172,1018.65,0.240371,0.0,0.0
4536,1133.75,23.7989,24.4019,173.85,98.5325,96.6312,0.010117,0.0821847,21.0196,1018.42,0.172216,0.0,0.0
4592,1147.75,24.6372,25.2488,174.333,98.6396,95.9688,0.00945964,0.0807035,21.0224,1018.38,0.242613,0.0,0.0
4648,1161.75,24.0911,24.7015,176.163,99.637,97.782,0.00966729,0.0791625,21.0229,1018.18,0.166102,0.0,0.0
4704,1175.75,22.7854,23.7201,171.613,100.387,97.814,0.00994888,0.0798702,21.022,1018.15,0.229449,0.0,0.0
4760,1189.75,23.7183,24.1702,172.842,100.469,98.5515,0.00971347,0.0790769,21.0231,1018.03,0.170346,0.0,0.0
4816,1203.75,23.5219,24.0797,174.886,100.193,97.6952,0.0096553,0.0818717,21.0203,1017.89,0.223108,0.0,0.0
4872,1217.75,23.0475,23.368,181.255,99.9534,98.0842,0.00932907,0.0794042,21.0261,1017.66,0.16685,0.0,0.0
4928,1231.75,22.9221,23.3622,175.216,99.7944,98.0724,0.00981767,0.0778035,21.0261,1017.64,0.153839,0.0,0.0
4984,1245.75,22.6557,23.0474,174.974,99.8998,97.9215,0.00967163,0.077606,21.0261,1017.51,0.176783,0.0,0.0
5040,1259.75,23.0748,23.3863,177.506,100.035,97.5013,0.00930409,0.0779397,21.0276,1017.38,0.226702,0.0,0.0
5096,1273.75,22.0959,23.1593,175.957,99.9761,98.964,0.00922609,0.0774175,21.0296,1017.26,0.0899299,0.0,0.0
5152,1287.75,22.4144,23.3324,174.828,99.8183,97.3496,0.00932679,0.0778073,21.0301,1017.17,0.221343,0.0,0.0
5208,1301.75,21.9289,22.9744,171.886,99.781,97.4538,0.00960034,0.077163,21.0295,1017.1,0.208578,0.0,0.0
5264,1315.75,22.1981,22.4205,178.034,99.837,97.5021,0.00906883,0.0773551,21.0287,1016.9,0.209158,0.0,0.0
5320,1329.75,22.3444,22.7665,170.491,99.966,98.0027,0.00904396,0.0773067,21.0322,1016.85,0.175311,0.0,0.0
5364,1340.75,22.371,22.607,173.641,100.071,97.5094,,,,1016.57,0.229191,0.0,0.0