File: 01_Data/EPDM_Membrane/Cone/EPDM_Membrane_Cone_HF75-Frame+GridScalar_220225_R3.csv
LABORATORY,FSRI
TEST IDENT,EPDM_HF75_3
OPERATOR,Dow
MATERIAL,EPDM Roofing Membrane
ORIENTATION,Horizontal
HEAT FLUX,75
SURF AREA,0.00884
C FACTOR,0.0370678
SPEC HOLDER DIFF,379.1
SPECIMEN MASS,81.9
SCAN TIME,0.25
O2 DELAY TIME,11
CO DELAY TIME,11
CO2 DELAY TIME,8
FLOW FACTOR,1
SCAN COUNT,2585
TIME TO IGN,12.5
END OF TEST SCAN,2105
END OF TEST TIME,526.25
TEST STATUS,1
PRE TEST CMT,Dimensions: 100.47 x 100.15 x 5.94 mm; with frame and grid