File: 01_Data/EPDM_Membrane/Cone/EPDM_Membrane_Cone_HF75Scan_220225_R1.csv
Names,Time,Stack TC,Smoke TC,Exh Press,Smoke Comp,Smoke Meas,CO Meter,CO2 Meter,O2 Meter,Sample Mass,Ext Coeff,Start Test,Flame Verif
Chan Gain,,500,500,1,1,1,1,1,1,1,1,1.0,1.0
Offset,,0,0,0.137915,0,0,0,0,0,0,0,0.0,0.0
Gain,,1,1,25.011,15.3125,15.3273,1,1,1,1.00096,1.02035,1.0,1.0
Units,sec,C,C,Pa,%,%,%,%,%,g,/m,,
Baseline,,41.0018,42.896,170.223,115.585,109.274,-0.00037807,0.0479309,21.0509,-868.444,0.502805,,
28,6.75,39.7415,42.0948,168.872,115.614,111.017,-0.000668039,0.0529795,21.0452,151.946,0.363204,0.0,0.0
56,13.75,40.7094,41.8196,170.219,115.434,104.77,0.000150497,0.0561474,21.0323,151.836,0.867593,0.0,0.0
84,20.75,42.1934,43.7102,152.06,115.276,65.7117,0.00828733,0.220115,20.7204,151.475,5.03059,0.0,0.0
112,27.75,48.0977,50.3547,136.301,115.056,50.1875,0.0231348,0.523962,20.2065,150.594,7.42577,0.0,0.0
140,34.75,57.5798,62.458,138.576,114.849,45.2742,0.0323733,0.738553,19.824,149.493,8.33184,0.0,0.0
168,41.75,66.9213,72.4159,139.24,114.709,45.7831,0.0342523,0.801975,19.7337,148.482,8.22086,0.0,0.0
196,48.75,73.7623,80.4001,133.928,114.594,45.6021,0.0330884,0.796464,19.7544,147.421,8.24734,0.0,0.0
224,55.75,78.4802,86.229,134.573,114.506,47.3581,0.0312308,0.746238,19.8509,146.5,7.90227,0.0,0.0
252,62.75,82.5041,90.8759,133.201,114.427,47.0119,0.0291598,0.700827,19.9319,145.559,7.96172,0.0,0.0
280,69.75,84.7836,94.018,139.752,114.359,51.2825,0.0275125,0.661999,19.9945,144.579,7.17819,0.0,0.0
308,76.75,86.8014,96.4863,135.042,114.285,49.4873,0.0262771,0.62963,20.05,143.798,7.49139,0.0,0.0
336,83.75,88.4543,97.6449,143.374,114.251,52.8163,0.0251129,0.603241,20.0923,142.947,6.90597,0.0,0.0
364,90.75,89.4364,98.9165,140.113,114.227,50.8358,0.0248513,0.594033,20.1059,142.166,7.24614,0.0,0.0
392,97.75,89.838,99.6319,137.894,114.206,49.6477,0.0240369,0.58121,20.1296,141.325,7.45615,0.0,0.0
420,104.75,89.8327,99.7702,136.847,114.213,51.1599,0.0236932,0.581128,20.1309,140.515,7.18815,0.0,0.0
448,111.75,90.8137,100.822,143.997,114.229,49.4901,0.0239974,0.578934,20.1252,139.734,7.48649,0.0,0.0
476,118.75,91.3299,101.527,142.022,114.28,49.5668,0.0246727,0.587266,20.112,138.913,7.47658,0.0,0.0
504,125.75,92.1951,102.33,142.429,114.342,53.4987,0.0252746,0.593352,20.094,138.062,6.79816,0.0,0.0
532,132.75,93.2352,103.64,140.041,114.387,51.1964,0.0261999,0.611093,20.0641,137.161,7.19542,0.0,0.0
560,139.75,94.442,105.276,131.317,114.431,45.7321,0.0287394,0.651529,19.986,136.221,8.20908,0.0,0.0
588,146.75,97.2532,108.176,125.253,114.503,43.0762,0.0339381,0.759537,19.7944,135.119,8.75021,0.0,0.0
616,153.75,100.27,111.942,130.308,114.539,44.0557,0.0346803,0.799191,19.7414,134.068,8.55182,0.0,0.0
644,160.75,101.977,114.133,137.778,114.592,48.6467,0.0319669,0.739195,19.8545,133.027,7.66869,0.0,0.0
672,167.75,102.628,114.926,138.385,114.692,53.0099,0.0293759,0.704516,19.9134,132.077,6.90767,0.0,0.0
700,174.75,103.981,115.795,132.074,114.747,47.983,0.028778,0.684354,19.9403,131.126,7.80376,0.0,0.0
728,181.75,104.551,116.455,138.256,114.797,50.072,0.0290196,0.681232,19.942,130.175,7.4262,0.0,0.0
756,188.75,104.72,116.764,134.179,114.832,50.0102,0.0294373,0.683566,19.9344,129.234,7.44002,0.0,0.0
784,195.75,104.946,116.965,136.093,114.889,51.173,0.0287203,0.679587,19.9413,128.293,7.23869,0.0,0.0
812,202.75,105.443,117.322,139.64,114.962,52.5623,0.0273143,0.655482,19.9853,127.382,7.00462,0.0,0.0
840,209.75,105.57,117.312,138.639,115.036,52.167,0.0260427,0.628025,20.0278,126.561,7.07797,0.0,0.0
868,216.75,105.834,117.259,138.953,115.108,53.2302,0.0251946,0.607716,20.0625,125.72,6.90298,0.0,0.0
896,223.75,104.771,116.168,134.173,115.153,52.0819,0.0253944,0.591997,20.0811,124.91,7.10171,0.0,0.0
924,230.75,104.031,115.281,139.176,115.171,52.0201,0.0251587,0.586625,20.0887,124.099,7.11374,0.0,0.0
952,237.75,103.688,115.245,138.167,115.175,53.6105,0.0252797,0.584607,20.0938,123.238,6.8445,0.0,0.0
980,244.75,104.091,115.253,139.115,115.171,50.0785,0.0254869,0.581398,20.0968,122.487,7.45413,0.0,0.0
1008,251.75,103.831,114.595,141.176,115.175,54.9118,0.0258614,0.58451,20.0856,121.667,6.62984,0.0,0.0
1036,258.75,103.854,114.703,134.793,115.107,55.3562,0.0259207,0.59125,20.0746,120.866,6.55236,0.0,0.0
1064,265.75,103.576,114.53,140.129,115.039,56.9755,0.0266916,0.599523,20.0577,120.045,6.28905,0.0,0.0
1092,272.75,103.879,114.885,139.063,114.981,54.2312,0.026989,0.606807,20.0381,119.234,6.72638,0.0,0.0
1120,279.75,104.758,115.705,134.059,114.928,52.6432,0.0277687,0.62186,20.0136,118.353,6.98824,0.0,0.0
1148,286.75,104.981,115.879,143.752,114.853,50.4742,0.0277695,0.615208,20.0229,117.503,7.35899,0.0,0.0
1176,293.75,105.825,116.288,136.248,114.791,49.5986,0.0273781,0.611465,20.0332,116.712,7.51075,0.0,0.0
1204,300.75,105.673,116.295,135.795,114.727,54.1512,0.0264792,0.596032,20.0553,115.861,6.71974,0.0,0.0
1232,307.75,105.234,115.507,137.809,114.653,55.7668,0.0251028,0.564939,20.1123,115.1,6.45088,0.0,0.0
1260,314.75,104.829,114.977,134.94,114.614,54.2958,0.0233551,0.529656,20.1754,114.4,6.68713,0.0,0.0
1288,321.75,103.489,113.372,140.965,114.512,54.0684,0.0214274,0.486844,20.2493,113.689,6.71669,0.0,0.0
1316,328.75,101.865,111.362,141.423,114.485,56.9835,0.0190089,0.445029,20.3222,113.018,6.24461,0.0,0.0
1344,335.75,100.101,109.042,143.886,114.456,62.712,0.0166403,0.410957,20.3873,112.478,5.38496,0.0,0.0
1372,342.75,97.9728,106.749,148.773,114.405,66.802,0.0152755,0.376366,20.4491,111.917,4.81541,0.0,0.0
1400,349.75,96.077,104.295,150.384,114.389,66.5911,0.0128097,0.344653,20.5081,111.457,4.84248,0.0,0.0
1428,356.75,93.3422,101.257,152.392,114.386,73.961,0.0108515,0.318866,20.5575,111.016,3.90279,0.0,0.0
1456,363.75,91.4862,98.7959,149.902,114.367,74.1069,0.00909394,0.297131,20.6024,110.636,3.88365,0.0,0.0
1484,370.75,89.3844,96.3081,149.907,114.371,77.2699,0.0081943,0.277173,20.6428,110.246,3.50982,0.0,0.0
1512,377.75,87.4156,93.9558,153.328,114.331,80.8154,0.00716759,0.263869,20.6703,109.965,3.1052,0.0,0.0
1540,384.75,85.5139,91.6598,152.17,114.305,83.8516,0.00537002,0.251391,20.6968,109.655,2.77305,0.0,0.0
1568,391.75,83.7845,89.2332,151.793,114.293,87.1895,0.00461187,0.239167,20.721,109.365,2.42272,0.0,0.0
1596,398.75,81.8212,86.8886,150.94,114.285,89.1901,0.00382866,0.227471,20.7451,109.085,2.21901,0.0,0.0
1624,405.75,80.7309,85.7436,155.002,114.269,90.7655,0.00343074,0.218824,20.7638,108.854,2.06109,0.0,0.0
1652,412.75,79.3477,83.8746,150.615,114.241,92.4208,0.00284791,0.210558,20.7815,108.664,1.89709,0.0,0.0
1680,419.75,77.8296,81.9988,152.724,114.227,93.3353,0.00233446,0.202577,20.7964,108.444,1.80786,0.0,0.0
1708,426.75,76.6712,80.693,158.134,114.222,96.1951,0.00183722,0.194797,20.8116,108.264,1.53737,0.0,0.0
1736,433.75,75.26,79.0906,157.968,114.211,97.6049,0.00161397,0.185992,20.8288,108.074,1.4063,0.0,0.0
1764,440.75,74.0016,77.3274,152.915,114.224,99.4296,0.00158993,0.180249,20.8401,107.933,1.24151,0.0,0.0
1792,447.75,73.1539,76.3066,157.562,114.197,99.5952,0.00185421,0.176335,20.8501,107.773,1.22449,0.0,0.0
1820,454.75,71.4534,74.681,154.554,114.189,100.956,0.00168251,0.170143,20.8626,107.643,1.10241,0.0,0.0
1848,461.75,70.7317,73.735,162.55,114.196,101.685,0.00161289,0.164388,20.8755,107.443,1.03859,0.0,0.0
1876,468.75,69.4653,72.2782,159.174,114.23,102.04,0.0013297,0.157082,20.887,107.353,1.01007,0.0,0.0
1904,475.75,68.7541,71.5188,158.016,114.253,104.873,0.00155627,0.152262,20.8968,107.223,0.76677,0.0,0.0
1932,482.75,67.9051,70.4618,159.417,114.312,105.545,0.00171844,0.147427,20.9075,107.123,0.714162,0.0,0.0
1960,489.75,66.5267,68.7246,161.088,114.366,105.535,0.00204586,0.143295,20.9152,107.033,0.719314,0.0,0.0
1988,496.75,65.515,67.5577,162.559,114.465,107.174,0.00242577,0.142519,20.9209,106.952,0.589088,0.0,0.0
2016,503.75,64.6197,66.5175,157.731,114.562,106.821,0.00261789,0.13994,20.9275,106.832,0.626194,0.0,0.0
2044,510.75,63.9693,65.9306,161.901,114.677,107.347,0.00291751,0.136287,20.9346,106.742,0.591184,0.0,0.0
2072,517.75,63.2496,65.1379,162.668,114.777,109.912,0.00293017,0.134157,20.9345,106.632,0.387663,0.0,0.0
2100,524.75,62.7287,64.4117,162.007,114.821,107.555,0.00306379,0.132106,20.937,106.602,0.585113,0.0,0.0
2128,531.75,62.3235,63.6351,162.333,114.895,107.705,0.00322338,0.130301,20.9414,106.542,0.578454,0.0,0.0
2156,538.75,61.1767,62.5329,158.35,114.975,107.666,0.00371324,0.129285,20.943,106.462,0.587903,0.0,0.0
2184,545.75,60.5779,61.9432,161.452,115.02,107.25,0.00376943,0.127786,20.9473,106.392,0.625955,0.0,0.0
2212,552.75,60.3804,61.2741,160.862,115.052,108.49,0.00427384,0.126465,20.9517,106.292,0.525651,0.0,0.0
2240,559.75,59.4832,60.0331,159.378,115.093,106.428,0.00441364,0.125254,20.9512,106.202,0.700588,0.0,0.0
2268,566.75,58.2848,59.5526,159.743,115.133,109.05,0.00443604,0.124045,20.9541,106.062,0.485788,0.0,0.0
2296,573.75,58.1809,59.0458,157.667,115.175,107.154,0.00451067,0.124048,20.9539,106.002,0.646065,0.0,0.0
2324,580.75,57.782,58.8618,160.449,115.235,107.17,0.0046508,0.12268,20.9567,105.901,0.649422,0.0,0.0
2352,587.75,57.8574,58.5724,160.795,115.306,107.892,0.00506585,0.121305,20.9585,105.831,0.594785,0.0,0.0
2380,594.75,57.0598,58.2606,160.407,115.35,108.861,0.00476446,0.118906,20.9626,105.771,0.518226,0.0,0.0
2408,601.75,56.6509,57.0351,160.115,115.368,108.772,0.0054164,0.11884,20.9625,105.671,0.526952,0.0,0.0
2436,608.75,56.5584,57.8801,164.592,115.417,108.088,0.00485564,0.117304,20.9629,105.621,0.587245,0.0,0.0
2464,615.75,56.1935,57.0607,164.257,115.405,108.594,0.00526057,0.117445,20.9618,105.531,0.54449,0.0,0.0
2492,622.75,55.8771,57.058,163.715,115.395,108.071,0.00545334,0.116766,20.9632,105.461,0.586936,0.0,0.0
2520,629.75,56.0481,56.7652,163.706,115.389,109.677,0.00549369,0.116334,20.9629,105.411,0.454413,0.0,0.0
2548,636.75,55.5936,56.1974,163.59,115.374,108.275,0.00523384,0.115907,20.9628,105.311,0.568394,0.0,0.0
2576,643.75,55.2004,56.6672,167.301,115.359,107.773,0.00525488,0.114787,20.9646,105.211,0.608819,0.0,0.0
2604,650.75,54.8902,56.3042,162.917,115.299,108.466,0.00528002,0.11497,20.9639,105.141,0.54679,0.0,0.0
2632,657.75,55.3778,56.0745,162.963,115.242,108.586,0.00539571,0.113998,20.9683,105.081,0.532525,0.0,0.0
2660,664.75,54.974,56.0007,163.221,115.191,107.637,,0.113319,,105.011,0.607104,0.0,0.0
2688,671.75,54.4371,55.7058,163.693,115.113,108.305,,,,104.941,0.545668,0.0,0.0
2693,673,54.5181,55.7837,160.767,115.086,107.873,,,,104.951,0.579347,0.0,0.0