File: 01_Data/EPDM_Membrane/Cone/EPDM_Membrane_Cone_HF50Scalar_220225_R2.csv
LABORATORY,FSRI
TEST IDENT,EPDM_HF50_2
OPERATOR,Dow
MATERIAL,EPDM Roofing Membrane
ORIENTATION,Horizontal
HEAT FLUX,50
SURF AREA,0.00884
C FACTOR,0.0370678
SPEC HOLDER DIFF,379.57
SPECIMEN MASS,82.4
SCAN TIME,0.25
O2 DELAY TIME,11
CO DELAY TIME,11
CO2 DELAY TIME,8
FLOW FACTOR,1
SCAN COUNT,3596
TIME TO IGN,34.75
END OF TEST SCAN,3116
END OF TEST TIME,779
TEST STATUS,1
PRE TEST CMT,Dimensions: 99.50 x 100.27 x 6.05 mm; with frame and grid