File: 01_Data/FDNY_LDF/MCC/FDNY_LDF_MCC_30K_min_211208_R2.txt
Sample ID:	C:\MCC\MCC Cal\Test\FDNY_LDF_MCC_30K_min_211208_R2.txt
Sample Weight (mg):	4.55
Heating Rate (C/s):	0.5
Combustor Temp (C):	900
N2 Flow Rate (cc/min):	80
O2 Flow Rate (cc/min):	20
Calibration File:	C:\MCC\MCC Cal\Coeff1 JN10440_30_210304.txt.txt
T Correction Coefficients:	0	1.024463	0
Time Shift (s):	14
*
Time (s)	Temperature (C)	N2 flow rate (cc/min)	O2 flow rate (cc/min)	Flow Rate (cc/min)	Oxygen (%)	HRR (W/g)	Heating rate (C/s)
0.000	108.843	80.009	19.996	103.067	20.224	-0.455	-0.004
8.000	108.874	80.007	19.994	103.088	20.217	0.061	0.005
16.000	108.947	80.008	19.995	103.175	20.209	0.635	0.021
24.001	109.267	80.006	19.995	103.207	20.197	1.505	0.057
32.001	109.991	80.007	19.995	103.254	20.187	2.162	0.126
40.000	111.185	80.010	19.994	103.296	20.176	2.953	0.152
48.000	112.873	80.006	19.996	103.311	20.174	3.097	0.254
56.000	114.917	80.005	19.996	103.319	20.174	3.135	0.277
64.000	117.297	80.005	19.995	103.327	20.172	3.262	0.292
72.000	119.971	80.004	19.995	103.327	20.173	3.219	0.353
80.001	123.011	80.005	19.997	103.329	20.170	3.436	0.422
88.000	126.093	80.005	19.995	103.336	20.173	3.213	0.380
96.000	129.442	80.008	19.995	103.337	20.171	3.307	0.422
104.000	132.958	80.007	19.996	103.335	20.167	3.584	0.454
112.000	136.533	80.006	19.994	103.332	20.169	3.442	0.446
120.001	140.274	80.007	19.993	103.341	20.171	3.307	0.481
128.000	144.163	80.009	19.995	103.329	20.171	3.344	0.509
136.000	148.095	80.006	19.995	103.329	20.168	3.514	0.507
144.000	152.111	80.005	19.996	103.323	20.168	3.555	0.508
152.000	156.057	80.006	19.994	103.322	20.171	3.365	0.499
160.000	160.064	80.004	19.994	103.315	20.169	3.453	0.478
168.000	164.137	80.004	19.995	103.305	20.168	3.542	0.534
176.000	168.150	80.007	19.996	103.312	20.169	3.503	0.500
184.000	172.142	80.007	19.994	103.288	20.167	3.608	0.503
192.000	176.121	80.006	19.997	103.294	20.166	3.673	0.463
200.000	180.095	80.009	19.994	103.288	20.166	3.718	0.496
208.000	184.097	80.009	19.993	103.281	20.160	4.128	0.499
216.001	188.087	80.007	19.994	103.289	20.158	4.261	0.487
224.000	192.010	80.006	19.994	103.282	20.157	4.345	0.490
232.000	195.972	80.004	19.994	103.284	20.156	4.382	0.475
240.000	199.911	80.006	19.996	103.284	20.152	4.669	0.482
248.000	203.883	80.006	19.995	103.280	20.152	4.671	0.510
256.000	207.850	80.007	19.996	103.275	20.145	5.190	0.505
264.000	211.793	80.005	19.996	103.269	20.142	5.386	0.509
272.000	215.764	80.006	19.994	103.273	20.140	5.492	0.507
280.000	219.736	80.006	19.996	103.270	20.136	5.775	0.509
288.000	223.740	80.007	19.994	103.268	20.138	5.632	0.504
296.000	227.724	80.004	19.995	103.274	20.135	5.862	0.485
304.000	231.841	80.006	19.994	103.277	20.127	6.468	0.488
312.000	235.800	80.006	19.994	103.276	20.118	7.077	0.511
320.000	239.750	80.005	19.994	103.269	20.109	7.748	0.496
328.000	243.755	80.005	19.995	103.270	20.100	8.338	0.504
336.001	247.752	80.006	19.997	103.273	20.090	9.087	0.529
344.000	251.774	80.006	19.996	103.282	20.080	9.806	0.541
352.000	255.777	80.003	19.995	103.280	20.068	10.632	0.505
360.000	259.785	80.005	19.996	103.292	20.051	11.831	0.501
368.000	263.781	80.008	19.992	103.295	20.031	13.274	0.508
376.000	267.744	80.006	19.993	103.299	20.013	14.515	0.494
384.000	271.747	80.006	19.995	103.305	19.994	15.887	0.501
392.000	275.766	80.006	19.993	103.321	19.971	17.524	0.484
400.000	279.758	80.006	19.994	103.326	19.945	19.341	0.464
408.000	283.816	80.005	19.994	103.332	19.919	21.184	0.512
416.000	287.862	80.005	19.995	103.335	19.893	23.060	0.507
424.000	291.825	80.005	19.995	103.352	19.862	25.208	0.462
432.000	295.848	80.006	19.994	103.347	19.832	27.360	0.475
440.000	299.903	80.007	19.995	103.362	19.798	29.747	0.491
448.001	303.936	80.007	19.996	103.372	19.757	32.685	0.515
456.000	307.947	80.006	19.995	103.390	19.718	35.470	0.493
464.000	311.970	80.007	19.994	103.404	19.679	38.199	0.484
472.000	316.010	80.005	19.994	103.407	19.639	41.043	0.460
480.000	320.020	80.007	19.996	103.410	19.597	44.012	0.511
488.000	324.059	80.004	19.995	103.430	19.564	46.420	0.503
496.000	328.032	80.005	19.996	103.449	19.538	48.199	0.519
504.000	332.034	80.007	19.994	103.442	19.518	49.625	0.526
512.000	336.040	80.005	19.995	103.437	19.500	50.928	0.504
520.000	340.075	80.006	19.996	103.445	19.478	52.504	0.494
528.000	344.140	80.006	19.994	103.445	19.453	54.282	0.514
536.000	348.192	80.007	19.995	103.458	19.418	56.772	0.510
544.000	352.302	80.004	19.994	103.480	19.378	59.611	0.518
552.000	356.398	80.006	19.995	103.489	19.324	63.443	0.516
560.000	360.455	80.005	19.994	103.496	19.271	67.221	0.501
568.000	364.512	80.004	19.995	103.526	19.226	70.435	0.502
576.000	368.578	80.006	19.995	103.522	19.198	72.363	0.501
584.000	372.663	80.008	19.995	103.490	19.204	71.913	0.487
592.000	376.783	80.007	19.995	103.455	19.251	68.558	0.512
600.000	380.887	80.007	19.995	103.407	19.358	60.905	0.515
608.000	384.916	80.008	19.996	103.354	19.503	50.664	0.510
616.001	389.026	80.006	19.994	103.300	19.670	38.827	0.485
624.000	393.077	80.003	19.995	103.257	19.826	27.727	0.493
632.000	397.175	80.005	19.995	103.228	19.947	19.206	0.474
640.000	401.256	80.005	19.996	103.212	20.023	13.834	0.518
648.000	405.296	80.006	19.994	103.212	20.057	11.381	0.508
656.000	409.291	80.006	19.995	103.211	20.072	10.362	0.487
664.000	413.345	80.006	19.994	103.213	20.079	9.850	0.468
672.000	417.362	80.007	19.995	103.208	20.084	9.495	0.494
680.000	421.378	80.007	19.995	103.213	20.086	9.377	0.483
688.000	425.491	80.009	19.994	103.211	20.090	9.027	0.524
696.000	429.486	80.007	19.994	103.211	20.093	8.871	0.512
704.000	433.602	80.006	19.996	103.209	20.094	8.781	0.486
712.000	437.706	80.005	19.995	103.202	20.104	8.051	0.496
720.000	441.744	80.006	19.995	103.198	20.112	7.512	0.515
728.000	445.833	80.006	19.995	103.211	20.119	7.039	0.497
736.000	449.899	80.003	19.995	103.208	20.127	6.469	0.507
744.000	454.088	80.008	19.994	103.202	20.129	6.298	0.497
752.001	458.133	80.007	19.994	103.194	20.134	5.960	0.581
760.000	462.146	80.007	19.995	103.206	20.145	5.179	0.512
768.000	466.200	80.008	19.994	103.183	20.150	4.847	0.524
776.000	470.284	80.006	19.991	103.200	20.151	4.765	0.519
784.000	474.312	80.007	19.994	103.189	20.153	4.585	0.493
792.000	478.330	80.006	19.996	103.175	20.158	4.230	0.535
800.001	482.319	80.006	19.995	103.189	20.159	4.150	0.529
808.000	486.343	80.004	19.994	103.181	20.164	3.853	0.523
816.000	490.372	80.004	19.994	103.184	20.164	3.798	0.542
824.001	494.426	80.006	19.996	103.185	20.168	3.509	0.527
832.000	498.460	80.006	19.994	103.198	20.168	3.535	0.502
840.000	502.549	80.007	19.995	103.197	20.168	3.530	0.483
848.001	506.648	80.010	19.995	103.183	20.170	3.377	0.514
856.000	510.745	80.007	19.993	103.183	20.167	3.613	0.528
864.000	514.903	80.007	19.995	103.199	20.168	3.531	0.539
872.000	519.049	80.006	19.995	103.203	20.170	3.394	0.527
880.000	523.166	80.006	19.995	103.187	20.167	3.617	0.518
888.000	527.344	80.006	19.995	103.188	20.170	3.402	0.495
896.000	531.493	80.006	19.995	103.178	20.174	3.105	0.495
904.000	535.689	80.007	19.996	103.183	20.171	3.322	0.540
912.000	539.773	80.005	19.997	103.185	20.172	3.234	0.504
920.000	543.942	80.006	19.996	103.180	20.171	3.321	0.543
928.000	548.074	80.007	19.995	103.226	20.174	3.126	0.521
936.000	552.173	80.009	19.994	103.187	20.172	3.233	0.500
944.000	556.326	80.006	19.995	103.182	20.173	3.218	0.536
952.001	560.358	80.006	19.994	103.179	20.174	3.146	0.514
960.000	564.392	80.004	19.996	103.178	20.174	3.087	0.509
968.000	568.503	80.005	19.995	103.187	20.174	3.112	0.523
976.001	572.553	80.005	19.995	103.188	20.172	3.249	0.513
984.000	576.722	80.006	19.996	103.193	20.175	3.040	0.500
992.000	580.762	80.006	19.995	103.185	20.174	3.093	0.486
1000.000	584.903	80.005	19.996	103.183	20.174	3.116	0.507
1008.000	588.949	80.006	19.997	103.176	20.176	2.964	0.544
1016.000	593.002	80.006	19.994	103.183	20.173	3.157	0.508
1024.000	597.188	80.005	19.994	103.188	20.172	3.286	0.511
1032.000	601.317	80.007	19.994	103.178	20.174	3.095	0.513
1040.000	605.433	80.006	19.995	103.178	20.175	3.066	0.498
1048.000	609.553	80.006	19.994	103.171	20.169	3.440	0.487
1056.000	613.688	80.006	19.995	103.180	20.172	3.290	0.489
1064.000	617.832	80.005	19.996	103.181	20.172	3.239	0.535
1072.001	621.936	80.006	19.994	103.179	20.171	3.317	0.496
1080.000	625.970	80.006	19.994	103.173	20.175	3.040	0.506
1088.000	630.042	80.006	19.993	103.177	20.173	3.212	0.500
1096.000	634.171	80.010	19.993	103.171	20.172	3.239	0.484
1104.000	638.231	80.006	19.996	103.170	20.174	3.130	0.482
1112.000	642.317	80.004	19.995	103.170	20.169	3.489	0.501
1120.001	646.414	80.007	19.995	103.171	20.171	3.321	0.507
1128.000	650.464	80.007	19.996	103.174	20.169	3.436	0.508
1136.000	654.518	80.005	19.995	103.173	20.170	3.417	0.505
1144.001	658.622	80.005	19.994	103.174	20.173	3.190	0.491
1152.000	662.660	80.009	19.995	103.172	20.170	3.372	0.457
1160.000	666.747	80.009	19.995	103.171	20.168	3.516	0.479
1168.001	670.776	80.007	19.992	103.169	20.170	3.424	0.500
1176.000	674.893	80.007	19.995	103.165	20.171	3.317	0.531
1184.000	678.983	80.007	19.995	103.173	20.170	3.407	0.533
1192.000	683.057	80.007	19.995	103.171	20.169	3.448	0.561
1200.000	687.043	80.004	19.994	103.172	20.163	3.907	0.476
1208.000	691.082	80.005	19.995	103.173	20.163	3.877	0.483
1216.000	695.132	80.006	19.994	103.172	20.165	3.766	0.520
1224.000	699.132	80.007	19.994	103.171	20.165	3.764	0.510
1232.001	703.180	80.008	19.994	103.171	20.161	4.008	0.480
1240.000	707.152	80.010	19.995	103.165	20.164	3.852	0.486
1248.000	711.179	80.008	19.993	103.168	20.161	4.065	0.475
1256.001	715.282	80.009	19.993	103.173	20.156	4.356	0.528
1264.000	719.386	80.008	19.995	103.169	20.159	4.184	0.514
1272.000	723.496	80.006	19.995	103.177	20.158	4.262	0.544
1280.000	727.531	80.006	19.994	103.172	20.155	4.485	0.469
1288.001	731.512	80.006	19.994	103.170	20.156	4.375	0.452
1296.000	735.528	80.006	19.996	103.169	20.159	4.194	0.498
1304.000	739.576	80.006	19.995	103.166	20.154	4.518	0.507
1312.000	743.565	80.006	19.994	103.173	20.153	4.627	0.523