File: 01_Data/FDNY_LDF/MCC/FDNY_LDF_MCC_30K_min_211207_R1.txt
Sample ID:	C:\MCC\MCC Cal\Test\FDNY_LDF_MCC_30K_min_211207_R1.txt
Sample Weight (mg):	4.05
Heating Rate (C/s):	0.5
Combustor Temp (C):	900
N2 Flow Rate (cc/min):	80
O2 Flow Rate (cc/min):	20
Calibration File:	C:\MCC\MCC Cal\Coeff1 JN10440_30_210304.txt.txt
T Correction Coefficients:	0	1.024463	0
Time Shift (s):	14
*
Time (s)	Temperature (C)	N2 flow rate (cc/min)	O2 flow rate (cc/min)	Flow Rate (cc/min)	Oxygen (%)	HRR (W/g)	Heating rate (C/s)
0.000	112.554	80.013	19.993	103.053	20.171	-0.329	0.002
8.000	112.564	79.993	19.994	103.058	20.165	0.147	-0.003
16.000	112.503	79.994	19.994	103.052	20.161	0.454	-0.032
24.000	112.532	79.989	19.995	103.113	20.159	0.615	0.014
32.000	112.870	79.997	19.994	103.186	20.145	1.759	0.088
40.000	113.707	79.996	19.994	103.246	20.128	3.090	0.140
48.000	114.915	80.006	19.993	103.254	20.127	3.192	0.168
56.000	116.668	80.009	19.992	103.266	20.121	3.632	0.228
64.001	118.770	80.003	19.993	103.264	20.121	3.610	0.257
72.000	121.145	80.004	19.993	103.263	20.117	3.978	0.314
80.000	123.705	80.010	19.993	103.291	20.120	3.736	0.356
88.000	126.464	80.012	19.994	103.286	20.117	3.990	0.346
96.000	129.525	79.998	19.994	103.289	20.117	3.988	0.388
104.000	132.596	79.996	19.995	103.282	20.114	4.193	0.403
112.000	135.848	79.994	19.996	103.282	20.115	4.092	0.403
120.000	139.290	80.001	19.992	103.300	20.110	4.482	0.459
128.000	142.740	80.002	19.994	103.296	20.112	4.328	0.424
136.000	146.383	79.985	19.996	103.293	20.111	4.449	0.450
144.000	150.209	80.007	19.994	103.292	20.104	4.989	0.469
152.000	153.934	80.011	19.994	103.287	20.108	4.640	0.469
160.000	157.799	80.009	19.992	103.290	20.103	5.097	0.497
168.000	161.740	80.006	19.995	103.278	20.106	4.854	0.495
176.000	165.797	79.998	19.995	103.266	20.108	4.704	0.491
184.000	169.845	79.995	19.997	103.274	20.106	4.790	0.498
192.000	173.903	80.003	19.996	103.258	20.107	4.771	0.481
200.000	177.913	79.999	19.996	103.263	20.102	5.165	0.503
208.000	182.019	80.003	19.994	103.252	20.102	5.173	0.492
216.000	186.080	80.001	19.996	103.250	20.102	5.136	0.518
224.000	190.169	79.994	19.995	103.249	20.101	5.208	0.539
232.000	194.098	80.002	19.996	103.238	20.098	5.457	0.482
240.000	198.053	80.008	19.994	103.246	20.093	5.886	0.510
248.000	201.966	80.007	19.993	103.249	20.092	5.949	0.470
256.000	205.930	80.004	19.994	103.249	20.091	6.026	0.478
264.000	209.917	80.005	19.994	103.242	20.090	6.081	0.477
272.000	213.852	80.004	19.994	103.238	20.091	6.004	0.491
280.000	217.858	80.001	19.994	103.228	20.085	6.455	0.505
288.000	221.840	79.998	19.996	103.231	20.086	6.403	0.496
296.000	225.842	80.004	19.996	103.246	20.085	6.528	0.529
304.000	229.876	80.001	19.995	103.244	20.079	6.969	0.495
312.000	233.832	80.003	19.994	103.242	20.071	7.574	0.504
320.000	237.812	80.003	19.994	103.242	20.066	7.981	0.497
328.000	241.773	80.002	19.994	103.237	20.057	8.735	0.479
336.000	245.816	80.004	19.993	103.237	20.052	9.081	0.505
344.000	249.800	80.005	19.993	103.245	20.041	10.029	0.481
352.000	253.872	80.000	19.995	103.245	20.031	10.784	0.483
360.000	257.894	80.002	19.995	103.246	20.018	11.863	0.545
368.000	261.892	80.002	19.995	103.250	20.003	13.007	0.472
376.000	265.884	79.997	19.995	103.252	19.983	14.590	0.495
384.000	269.887	80.003	19.995	103.251	19.966	15.979	0.495
392.000	273.898	80.005	19.993	103.258	19.949	17.312	0.509
400.000	277.934	80.007	19.991	103.259	19.928	18.977	0.521
408.000	281.934	80.004	19.993	103.266	19.908	20.578	0.489
416.001	285.989	80.008	19.996	103.286	19.883	22.602	0.537
424.000	289.970	80.006	19.993	103.287	19.858	24.564	0.498
432.000	294.047	80.003	19.989	103.290	19.832	26.623	0.546
440.000	298.067	80.006	19.992	103.308	19.805	28.768	0.534
448.000	302.058	80.001	19.997	103.326	19.772	31.386	0.484
456.000	306.058	80.003	19.993	103.331	19.738	34.108	0.503
464.000	310.124	80.002	19.995	103.336	19.701	37.043	0.512
472.000	314.193	80.002	19.996	103.349	19.662	40.178	0.520
480.000	318.232	80.004	19.999	103.361	19.621	43.418	0.527
488.000	322.203	80.004	19.993	103.368	19.592	45.802	0.484
496.000	326.252	80.002	19.996	103.368	19.558	48.496	0.517
504.000	330.329	80.007	19.991	103.371	19.533	50.469	0.499
512.000	334.371	80.002	19.996	103.372	19.513	52.035	0.510
520.000	338.423	80.002	19.991	103.383	19.496	53.377	0.498
528.000	342.488	80.003	19.993	103.385	19.482	54.562	0.504
536.000	346.558	79.997	19.998	103.381	19.463	56.046	0.524
544.000	350.597	80.011	19.990	103.398	19.433	58.425	0.507
552.000	354.651	79.998	19.999	103.404	19.399	61.152	0.528
560.000	358.691	80.006	19.993	103.408	19.356	64.586	0.498
568.000	362.770	80.003	19.999	103.426	19.309	68.311	0.500
576.000	366.771	80.004	19.997	103.444	19.257	72.478	0.491
584.000	370.814	80.005	19.990	103.448	19.221	75.318	0.475
592.000	374.924	80.003	19.989	103.444	19.215	75.817	0.515
600.000	378.971	80.005	19.993	103.406	19.242	73.605	0.538
608.000	383.014	80.000	19.998	103.359	19.323	67.130	0.469
616.000	387.180	80.004	19.996	103.299	19.448	57.179	0.556
624.000	391.189	80.004	19.993	103.238	19.605	44.675	0.464
632.000	395.373	79.999	19.996	103.187	19.766	31.868	0.508
640.000	399.456	80.002	19.995	103.171	19.887	22.216	0.547
648.000	403.574	80.000	20.002	103.173	19.966	15.916	0.530
656.000	407.629	80.007	19.993	103.162	20.003	13.013	0.534
664.000	411.701	80.004	19.994	103.168	20.019	11.769	0.495
672.000	415.774	80.001	19.999	103.166	20.025	11.242	0.509
680.000	419.852	80.004	19.995	103.162	20.034	10.549	0.507
688.000	423.940	80.006	19.992	103.168	20.035	10.437	0.544
696.000	428.052	80.005	19.993	103.160	20.041	9.949	0.496
704.000	432.068	80.000	19.995	103.157	20.042	9.897	0.485
712.000	436.190	80.001	19.994	103.156	20.045	9.688	0.505
720.000	440.194	80.001	19.994	103.155	20.052	9.104	0.491
728.000	444.253	80.004	19.993	103.147	20.054	8.917	0.533
736.000	448.343	80.002	19.995	103.135	20.059	8.563	0.493
744.000	452.414	80.005	19.994	103.152	20.067	7.952	0.509
752.000	456.543	80.005	19.994	103.132	20.068	7.810	0.527
760.000	460.656	80.003	19.995	103.138	20.076	7.243	0.502
768.000	464.727	80.001	19.993	103.135	20.078	7.005	0.505
776.001	468.844	80.000	19.992	103.136	20.085	6.475	0.526
784.000	472.922	80.002	19.994	103.142	20.092	5.901	0.528
792.000	477.098	80.002	19.994	103.132	20.096	5.633	0.544
800.000	481.223	80.003	19.995	103.135	20.096	5.615	0.515
808.000	485.261	80.005	19.993	103.132	20.103	5.057	0.512
816.000	489.352	80.002	19.994	103.132	20.103	5.064	0.512
824.000	493.490	80.002	19.994	103.131	20.104	4.951	0.499
832.000	497.626	80.003	19.994	103.132	20.104	4.940	0.492
840.000	501.708	80.003	19.994	103.134	20.105	4.917	0.508
848.000	505.786	80.002	19.995	103.136	20.108	4.648	0.523
856.000	509.862	80.004	19.995	103.131	20.108	4.642	0.494
864.000	513.950	80.002	19.994	103.133	20.105	4.936	0.491
872.000	518.068	80.003	19.994	103.132	20.107	4.776	0.513
880.000	522.158	80.006	19.993	103.132	20.108	4.683	0.503
888.000	526.317	80.005	19.994	103.133	20.108	4.648	0.521
896.000	530.438	80.002	19.994	103.134	20.106	4.849	0.510
904.000	534.572	80.002	19.994	103.132	20.107	4.715	0.546
912.000	538.648	80.005	19.994	103.129	20.106	4.780	0.519
920.000	542.692	80.000	19.993	103.129	20.109	4.590	0.490
928.000	546.808	80.004	19.993	103.125	20.110	4.514	0.531
936.000	550.843	80.003	19.997	103.120	20.114	4.169	0.494
944.000	555.005	80.005	19.994	103.110	20.113	4.291	0.536
952.000	559.081	80.002	19.992	103.119	20.113	4.228	0.503
960.000	563.137	80.001	19.997	103.135	20.115	4.101	0.483
968.000	567.161	80.003	19.997	103.121	20.112	4.323	0.503
976.000	571.200	80.003	19.992	103.116	20.116	4.043	0.527
984.000	575.315	80.005	19.996	103.125	20.114	4.193	0.533
992.000	579.410	80.005	19.997	103.113	20.113	4.277	0.522
1000.000	583.513	80.001	19.997	103.131	20.113	4.251	0.513
1008.000	587.538	80.006	19.994	103.123	20.109	4.615	0.491
1016.000	591.585	80.000	19.999	103.120	20.109	4.601	0.511
1024.000	595.662	80.000	19.998	103.116	20.108	4.684	0.512
1032.000	599.801	80.003	19.990	103.098	20.099	5.394	0.514
1040.001	603.989	79.995	20.002	103.110	20.096	5.589	0.537
1048.000	608.262	80.006	19.993	103.116	20.104	4.977	0.545
1056.000	612.523	80.003	19.996	103.131	20.110	4.540	0.517
1064.001	616.836	80.005	19.995	103.131	20.106	4.787	0.554
1072.001	621.065	80.009	19.992	103.130	20.107	4.731	0.534
1080.000	625.247	80.002	19.992	103.131	20.113	4.259	0.540
1088.000	629.647	80.007	19.992	103.133	20.109	4.559	0.487
1096.001	633.699	80.004	19.997	103.133	20.113	4.237	0.840
1104.000	637.762	80.004	19.993	103.134	20.109	4.578	0.547
1112.001	641.988	80.002	19.994	103.127	20.105	4.862	0.538
1120.000	646.215	80.004	19.993	103.122	20.104	4.940	0.565
1128.000	650.418	80.005	19.997	103.113	20.109	4.614	0.575
1136.000	654.562	80.004	19.995	103.105	20.108	4.654	0.512
1144.000	658.462	80.008	19.995	103.115	20.109	4.551	0.491
1152.000	662.501	80.008	19.992	103.116	20.112	4.374	0.510
1160.000	666.369	80.008	19.992	103.106	20.107	4.732	0.508
1168.000	670.231	80.006	19.991	103.107	20.109	4.613	0.511
1176.000	674.151	80.006	19.992	103.114	20.104	5.010	0.497
1184.000	678.093	79.997	19.997	103.109	20.107	4.749	0.472
1192.001	682.112	80.002	19.995	103.097	20.102	5.099	0.492
1200.000	685.985	80.003	19.989	103.108	20.102	5.171	0.226
1208.001	690.284	80.002	19.999	103.106	20.104	5.006	0.505
1216.000	694.449	80.005	19.994	103.098	20.103	5.067	0.571
1224.000	698.613	80.004	19.995	103.106	20.104	4.976	0.518
1232.000	702.858	80.005	19.994	103.102	20.102	5.104	0.508
1240.000	707.133	80.005	19.995	103.117	20.104	5.008	0.556
1248.000	711.309	80.002	19.996	103.105	20.104	4.965	0.510
1256.001	715.478	80.002	19.994	103.108	20.101	5.218	0.518
1264.000	719.612	80.004	19.995	103.113	20.106	4.815	0.532
1272.001	723.617	80.004	19.994	103.102	20.106	4.799	0.479
1280.000	727.629	80.002	19.995	103.097	20.105	4.889	0.498
1288.000	731.678	80.004	19.995	103.107	20.110	4.497	0.514
1296.000	735.707	80.003	19.994	103.100	20.108	4.645	0.497
1304.000	739.746	80.002	19.995	103.095	20.105	4.869	0.482
1311.000	743.311	80.002	19.994	103.099	20.106	4.781	0.487