File: 01_Data/Bean_Bag_Chair_Beads/STA/N2/10K_min/Bean_Bag_Chair_Beads_STA_N2_10KData_220518_R2.csv
##Temp./Â°C,Time/min,Mass loss(subtr.2)/mg,DSC(subtr.2)/(mW/mg),Sensit./(uV/mW)
49.738,10.01,0.00505,-0.01056838,1.07017
51.938,11.15434,0.005795258,0.06738438,1.06956
54.138,11.51389,0.006196623,0.1131,1.06895
56.338,11.80986,0.005601081,0.14158,1.06833
58.538,12.0771,0.00613791,0.1577,1.06771
60.738,12.3302,0.004619132,0.16724,1.06709
62.938,12.5763,0.004633399,0.1757,1.06646
65.138,12.8147,0.004588228,0.18201,1.06582
67.338,13.05485,0.004608327,0.18625,1.06518
69.538,13.29115,0.00461021,0.18925,1.06453
71.738,13.5243,0.004423021,0.19482,1.06388
73.938,13.7562,0.005953624,0.19996,1.06322
76.138,13.98686,0.005602006,0.20613,1.06256
78.338,14.21502,0.00613212,0.2104,1.0619
80.538,14.4423,0.006025873,0.21938,1.06122
82.738,14.6679,0.005872869,0.22231,1.06055
84.938,14.89202,0.006027638,0.22247,1.05987
87.138,15.11461,0.007349001,0.21443,1.05918
89.338,15.33585,0.004715779,0.20917,1.05849
91.538,15.5558,0.007260096,0.20877,1.05779
93.738,15.77457,0.006042341,0.21159,1.05709
95.938,15.99368,0.007349926,0.21782,1.05638
98.138,16.2116,0.006031297,0.22478,1.05567
100.338,16.428,0.00469546,0.23535,1.05495
102.538,16.64433,0.005820975,0.25192,1.05423
104.738,16.86074,0.006250001,0.2651,1.0535
106.938,17.07584,0.005931503,0.27686,1.05277
109.138,17.29164,0.003831502,0.28078,1.05203
111.338,17.5069,0.00494,0.28198,1.05128
113.538,17.72178,0.004940549,0.28298,1.05053
115.738,17.93605,0.005002158,0.28457,1.04978
117.938,18.15107,0.004600019,0.28491,1.04902
120.138,18.36479,0.003282382,0.28696,1.04826
122.338,18.57817,0.003290018,0.28571,1.04749
124.538,18.79213,0.002514155,0.28681,1.04671
126.738,19.00553,0.00292362,0.286,1.04593
128.938,19.21855,0.002519926,0.28834,1.04515
131.138,19.4312,0.00252004,0.29126,1.04435
133.338,19.64329,0.00153707,0.29274,1.04356
135.538,19.85558,0.00154008,0.29356,1.04276
137.738,20.0674,0.0002195249,0.29558,1.04195
139.938,20.27959,0.001529989,0.29822,1.04114
142.138,20.49098,0.0005400413,0.29937,1.04032
144.338,20.70245,-0.0001261744,0.30026,1.0395
146.538,20.91378,0.0003307017,0.3025,1.03867
148.738,21.12464,-9.74891e-05,0.30411,1.03783
150.938,21.33523,-0.0001090956,0.30367,1.037
153.138,21.5457,-0.00142915,0.30421,1.03615
155.338,21.75544,-0.0001199884,0.3067,1.0353
157.538,21.96594,-0.0007796796,0.30506,1.03445
159.738,22.17551,-0.0001200012,0.30486,1.03358
161.938,22.38629,-0.001111706,0.30519,1.03272
164.138,22.59654,-0.002082192,0.30722,1.03185
166.338,22.80665,-0.00179471,0.30714,1.03097
168.538,23.01643,-0.001266168,0.30576,1.03009
170.738,23.22654,-0.002089737,0.30764,1.0292
172.938,23.43674,-0.004390638,0.30897,1.02831
175.138,23.64645,-0.00340031,0.30988,1.02741
177.338,23.8568,-0.003723428,0.31423,1.0265
179.538,24.0661,-0.00373995,0.31589,1.02559
181.738,24.2758,-0.004708225,0.32431,1.02468
183.938,24.48605,-0.004734401,0.32861,1.02376
186.138,24.6955,-0.004399091,0.33567,1.02283
188.338,24.90567,-0.004289989,0.33905,1.0219
190.538,25.11541,-0.004621733,0.34402,1.02096
192.738,25.32485,-0.005930021,0.34601,1.02002
194.938,25.53407,-0.005234065,0.34782,1.01907
197.138,25.74364,-0.006589999,0.34964,1.01811
199.338,25.9531,-0.00791026,0.35256,1.01715
201.538,26.16226,-0.006240456,0.3536,1.01619
203.738,26.37128,-0.005930585,0.3564,1.01522
205.938,26.581,-0.00725,0.35833,1.01424
208.138,26.79,-0.007250114,0.35832,1.01326
210.338,26.99928,-0.008227957,0.36091,1.01227
212.538,27.2082,-0.007248175,0.36297,1.01128
214.738,27.41715,-0.00782696,0.36474,1.01028
216.938,27.6264,-0.00790947,0.36484,1.00927
219.138,27.835,-0.01020891,0.36393,1.00826
221.338,28.04513,-0.00923,0.36616,1.00724
223.538,28.2541,-0.009230008,0.36816,1.00622
225.738,28.4639,-0.01022,0.36673,1.00519
227.938,28.67328,-0.009490118,0.36783,1.00416
230.138,28.883,-0.009571567,0.3706,1.00312
232.338,29.0922,-0.01154,0.3708,1.00208
234.538,29.30193,-0.01055025,0.36942,1.00103
236.738,29.51142,-0.01252,0.37171,0.99997
238.938,29.72075,-0.01288119,0.37205,0.99891
241.138,29.93018,-0.01318,0.3744,0.99784
243.338,30.1397,-0.01449,0.37614,0.99676
245.538,30.3486,-0.01511626,0.37937,0.99569
247.738,30.55817,-0.01581001,0.38071,0.9946
249.938,30.7673,-0.01586704,0.38348,0.99351
252.138,30.97624,-0.01779,0.38537,0.99241
254.338,31.1852,-0.01779013,0.38882,0.99131
256.538,31.39382,-0.01779192,0.38795,0.9902
258.738,31.60306,-0.01778731,0.38895,0.98909
260.938,31.81226,-0.0194125,0.3897,0.98797
263.138,32.02126,-0.02241484,0.39005,0.98684
265.338,32.231,-0.02405,0.39424,0.98571
267.538,32.44034,-0.02436512,0.39228,0.98457
269.738,32.65007,-0.02438,0.39414,0.98343
271.938,32.85938,-0.02701,0.39421,0.98228
274.138,33.06957,-0.02669349,0.39663,0.98112
276.338,33.27899,-0.02833054,0.39794,0.97996
278.538,33.489,-0.03062999,0.39947,0.9788
280.738,33.69919,-0.03195,0.40274,0.97762
282.938,33.90932,-0.03327,0.40342,0.97645
285.138,34.1193,-0.03490158,0.40843,0.97526
287.338,34.32958,-0.03622225,0.41086,0.97407
289.538,34.5398,-0.0391898,0.41103,0.97288
291.738,34.74929,-0.04216018,0.41494,0.97167
293.938,34.9598,-0.04249384,0.41777,0.97047
296.138,35.16985,-0.04611939,0.42028,0.96925
298.338,35.3799,-0.04875,0.41882,0.96803
300.538,35.58971,-0.05138088,0.41956,0.96681
302.738,35.79992,-0.05269998,0.42147,0.96557
304.938,36.0102,-0.05633167,0.42241,0.96434
307.138,36.2202,-0.05766432,0.42498,0.96309
309.338,36.43045,-0.06064894,0.43073,0.96184
311.538,36.6401,-0.0642299,0.43127,0.96059
313.738,36.85037,-0.06555013,0.43302,0.95933
315.938,37.06085,-0.06952833,0.43324,0.95806
318.138,37.2716,-0.07391063,0.43761,0.95679
320.338,37.48273,-0.07672973,0.44008,0.95551
322.538,37.69423,-0.0797105,0.44494,0.95423
324.738,37.90567,-0.08269445,0.44946,0.95294
326.938,38.11712,-0.08913173,0.4541,0.95164
329.138,38.32802,-0.0918595,0.46013,0.95034
331.338,38.53985,-0.09716514,0.46457,0.94903
333.538,38.7513,-0.10392,0.47213,0.94771
335.738,38.96282,-0.10852,0.47946,0.94639
337.938,39.1737,-0.11384,0.48521,0.94507
340.138,39.38565,-0.1193,0.49385,0.94374
342.338,39.59767,-0.12624,0.50209,0.9424
344.538,39.80999,-0.1357,0.5119,0.94105
346.738,40.02169,-0.14218,0.52105,0.9397
348.938,40.2336,-0.15099,0.53601,0.93835
351.138,40.44578,-0.16184,0.54688,0.93699
353.338,40.65803,-0.17091,0.56008,0.93562
355.538,40.871,-0.18313,0.57645,0.93425
357.738,41.08313,-0.19502,0.59661,0.93287
359.938,41.2954,-0.21004,0.6168,0.93148
362.138,41.50844,-0.22395,0.63938,0.93009
364.338,41.72124,-0.24222,0.66784,0.92869
366.538,41.93342,-0.26072,0.69991,0.92729
368.738,42.14693,-0.28257,0.73433,0.92588
370.938,42.36015,-0.30487,0.77243,0.92447
373.138,42.57193,-0.33221,0.8146,0.92305
375.338,42.78423,-0.36032,0.86207,0.92162
377.538,42.99774,-0.3935,0.91673,0.92019
379.738,43.212,-0.43059,0.97744,0.91875
381.938,43.42633,-0.47207,1.04039,0.91731
384.138,43.64009,-0.51447,1.11857,0.91586
386.338,43.8542,-0.56766,1.21282,0.9144
388.538,44.0688,-0.62684,1.31388,0.91294
390.738,44.28371,-0.69352,1.43565,0.91147
392.938,44.49832,-0.77092,1.57431,0.91
395.138,44.7134,-0.85586,1.72039,0.90852
397.338,44.92872,-0.95351,1.88678,0.90704
399.538,45.14391,-1.06053,2.06341,0.90555
401.738,45.3603,-1.1828,2.25448,0.90405
403.938,45.57649,-1.32024,2.46321,0.90255
406.138,45.79289,-1.47215,2.68134,0.90104
408.338,46.00918,-1.64309,2.87183,0.89953
410.538,46.22594,-1.82212,3.06417,0.89801
412.738,46.44236,-2.01676,3.19558,0.89648
414.938,46.6581,-2.21859,3.29107,0.89495
417.138,46.8737,-2.42722,3.35903,0.89342
419.338,47.08872,-2.63985,3.30881,0.89187
421.538,47.30276,-2.84382,3.16695,0.89033
423.738,47.51582,-3.03617,2.93191,0.88877
425.938,47.7283,-3.21428,2.64564,0.88721
428.138,47.9404,-3.3685,2.27651,0.88565
430.338,48.152,-3.50184,1.87797,0.88408
432.538,48.36325,-3.60858,1.48514,0.8825
434.738,48.5743,-3.69294,1.14048,0.88092
436.938,48.78537,-3.75504,0.84951,0.87933
439.138,48.9972,-3.80311,0.61904,0.87774
441.338,49.208,-3.84034,0.45213,0.87614
443.538,49.41932,-3.86769,0.32739,0.87454
445.738,49.6329,-3.88845,0.23646,0.87293
447.938,49.84774,-3.90299,0.17146,0.87131
450.138,50.0636,-3.91541,0.11785,0.86969
452.338,50.27837,-3.92467,0.08180961,0.86806
454.538,50.49317,-3.93315,0.05310961,0.86643
456.738,50.70835,-3.93847,0.02920295,0.86479
458.938,50.9237,-3.94298,0.01245218,0.86315
461.138,51.13924,-3.94672,-0.00394813,0.8615
463.338,51.35538,-3.94801,-0.0198278,0.85985
465.538,51.57127,-3.94935,-0.03322649,0.85819
467.738,51.78683,-3.94803,-0.03656501,0.85652
469.938,52.00329,-3.94925,-0.03014815,0.85485
472.138,52.2194,-3.94968,-0.0312421,0.85318
474.338,52.43626,-3.95001,-0.02948647,0.8515
476.538,52.65184,-3.95037,-0.02792559,0.84981
478.738,52.8689,-3.94902,-0.02868732,0.84812
480.938,53.0856,-3.94902,-0.0308951,0.84642
483.138,53.3024,-3.94902,-0.03280589,0.84472
485.338,53.5191,-3.95067,-0.0379336,0.84301
487.538,53.7361,-3.95227,-0.04188746,0.8413
489.738,53.95304,-3.95133,-0.0425536,0.83958
491.938,54.1703,-3.95133,-0.04486554,0.83786
494.138,54.38736,-3.95267,-0.04376751,0.83613
496.338,54.60445,-3.95265,-0.04306361,0.8344
498.538,54.82155,-3.95134,-0.0427079,0.83266
500.738,55.0381,-3.95133,-0.04627547,0.83092
502.938,55.25492,-3.95232,-0.04403513,0.82917
505.138,55.47234,-3.95232,-0.04645647,0.82741
507.338,55.6897,-3.95232,-0.04761959,0.82566
509.538,55.9078,-3.95222,-0.04741498,0.82389
511.738,56.12546,-3.9523,-0.04956396,0.82212
513.938,56.34398,-3.95297,-0.05078775,0.82035
516.138,56.5621,-3.95297,-0.0519195,0.81857
518.338,56.77978,-3.95297,-0.04999283,0.81679
520.538,56.9986,-3.95386,-0.04995552,0.815
522.738,57.2166,-3.95296,-0.05198948,0.8132
524.938,57.4352,-3.95363,-0.05195003,0.8114
527.138,57.6531,-3.95099,-0.0516257,0.8096
529.338,57.8713,-3.9533,-0.05174929,0.80779
531.538,58.0891,-3.95227,-0.05137563,0.80598
533.738,58.30681,-3.95363,-0.05407443,0.80416
535.938,58.5253,-3.95298,-0.05277627,0.80234
538.138,58.7438,-3.954,-0.05181116,0.80051
540.338,58.9616,-3.95396,-0.05289486,0.79868
542.538,59.17941,-3.95331,-0.05308988,0.79684
544.738,59.397,-3.95462,-0.05564093,0.795
546.938,59.61555,-3.95299,-0.0535915,0.79316
549.138,59.83348,-3.95429,-0.05454717,0.79131
550.738,59.99267,-3.95297,-0.05623277,0.78996