File: 01_Data/Bean_Bag_Chair_Beads/STA/N2/10K_min/Bean_Bag_PS_Beads_STA_N2_10KData_220516_R1.csv
##Temp./Â°C,Time/min,Mass loss(subtr.2)/mg,DSC(subtr.2)/(mW/mg),Sensit./(uV/mW)
49.71,10.00917,0.01514,0.0237638,1.07018
52.81,11.307,0.01611773,0.16916,1.06932
55.91,11.75065,0.01589128,0.23145,1.06846
59.01,12.1287,0.0170805,0.2664,1.06758
62.11,12.47818,0.01656435,0.28821,1.06669
65.21,12.82236,0.01786072,0.30252,1.0658
68.31,13.1566,0.01651916,0.31416,1.06489
71.41,13.48562,0.01920672,0.32552,1.06398
74.51,13.81262,0.01788467,0.33533,1.06305
77.61,14.13582,0.01789053,0.3464,1.06212
80.71,14.4551,0.01920848,0.35991,1.06117
83.81,14.7721,0.01789021,0.36729,1.06022
86.91,15.0864,0.01789,0.36014,1.05925
90.01,15.39765,0.01657419,0.35757,1.05827
93.11,15.7066,0.01730395,0.3624,1.05729
96.21,16.01308,0.01787983,0.37502,1.05629
99.31,16.31958,0.01789572,0.39012,1.05529
102.41,16.62345,0.01750756,0.41263,1.05427
105.51,16.92752,0.01711986,0.43406,1.05324
108.61,17.2308,0.01586508,0.44367,1.0522
111.71,17.53344,0.01811295,0.45092,1.05116
114.81,17.83626,0.01942038,0.45484,1.0501
117.91,18.13853,0.01679,0.4577,1.04903
121.01,18.4405,0.0155305,0.46269,1.04795
124.11,18.74205,0.01679,0.46735,1.04686
127.21,19.0428,0.01547136,0.46986,1.04576
130.31,19.34207,0.01811032,0.47553,1.04465
133.41,19.6421,0.01679042,0.4793,1.04353
136.51,19.93948,0.01711837,0.48192,1.0424
139.61,20.23881,0.01579688,0.48464,1.04126
142.71,20.53695,0.01449079,0.48959,1.04011
145.81,20.8363,0.01448996,0.49122,1.03894
148.91,21.13416,0.01512166,0.49237,1.03777
152.01,21.43154,0.01580615,0.49397,1.03658
155.11,21.72833,0.01414568,0.49649,1.03539
158.21,22.02543,0.01383067,0.50164,1.03418
161.31,22.32161,0.01412783,0.5005,1.03297
164.41,22.61901,0.0115296,0.50126,1.03174
167.51,22.91597,0.01310901,0.50388,1.0305
170.61,23.2124,0.01184889,0.50598,1.02925
173.71,23.50858,0.01118939,0.51022,1.02799
176.81,23.80454,0.01053095,0.51462,1.02672
179.91,24.1012,0.01053957,0.52371,1.02544
183.01,24.39609,0.009219695,0.53451,1.02415
186.11,24.69226,0.01019996,0.54127,1.02284
189.21,24.98735,0.01057102,0.55006,1.02153
192.31,25.2835,0.01057464,0.55621,1.0202
195.41,25.57943,0.00821948,0.56253,1.01886
198.51,25.8756,0.00954816,0.56472,1.01752
201.61,26.17101,0.0079,0.57037,1.01616
204.71,26.46583,0.00659338,0.57305,1.01479
207.81,26.76091,0.005269588,0.57685,1.0134
210.91,27.0564,0.004649614,0.58065,1.01201
214.01,27.35118,0.003949985,0.58477,1.01061
217.11,27.64667,0.003950167,0.58694,1.00919
220.21,27.94166,0.004610238,0.58811,1.00777
223.31,28.23563,0.00329,0.59237,1.00633
226.41,28.52954,0.003278032,0.59585,1.00488
229.51,28.8245,0.0006648675,0.59817,1.00342
232.61,29.12071,-0.001320121,0.60113,1.00195
235.71,29.415,-0.001650006,0.60591,1.00046
238.81,29.70855,-0.0009888332,0.6087,0.99897
241.91,30.00478,-0.00363,0.61102,0.99746
245.01,30.2991,-0.00363001,0.61398,0.99595
248.11,30.59487,-0.005929959,0.619,0.99442
251.21,30.89002,-0.00593,0.64464,0.99288
254.31,31.18517,-0.00758,0.64041,0.99132
257.41,31.4794,-0.01021893,0.6328,0.98976
260.51,31.77458,-0.01020341,0.62786,0.98819
263.61,32.07013,-0.01252363,0.62768,0.9866
266.71,32.3654,-0.01269981,0.6282,0.985
269.81,32.66088,-0.01635561,0.62956,0.98339
272.91,32.95625,-0.01714308,0.63075,0.98177
276.01,33.25124,-0.01911329,0.63253,0.98014
279.11,33.54703,-0.02037752,0.6332,0.97849
282.21,33.84287,-0.02306594,0.63606,0.97684
285.31,34.13865,-0.0266932,0.64165,0.97517
288.41,34.43502,-0.02963994,0.64617,0.97349
291.51,34.72992,-0.0322798,0.64989,0.9718
294.61,35.02564,-0.03492362,0.65285,0.97009
297.71,35.32163,-0.03906186,0.65516,0.96838
300.81,35.6181,-0.04275625,0.65942,0.96665
303.91,35.91428,-0.04808804,0.65962,0.96492
307.01,36.20905,-0.0507297,0.66008,0.96317
310.11,36.50812,-0.05512205,0.66205,0.96141
313.21,36.8048,-0.05995406,0.66388,0.95963
316.31,37.10224,-0.06383284,0.66982,0.95785
319.41,37.39972,-0.06751089,0.6765,0.95605
322.51,37.69705,-0.07410589,0.68104,0.95424
325.61,37.9943,-0.08018422,0.68802,0.95242
328.71,38.29233,-0.08458457,0.69435,0.95059
331.81,38.5895,-0.09266145,0.70358,0.94875
334.91,38.88872,-0.09802509,0.71416,0.94689
338.01,39.1867,-0.10616,0.72309,0.94502
341.11,39.485,-0.11458,0.73298,0.94315
344.21,39.78382,-0.12506,0.74651,0.94125
347.31,40.0843,-0.1365,0.76115,0.93935
350.41,40.38355,-0.14847,0.78117,0.93744
353.51,40.68295,-0.16455,0.80027,0.93551
356.61,40.98237,-0.1796,0.82102,0.93358
359.71,41.282,-0.19732,0.84811,0.93163
362.81,41.582,-0.21915,0.88457,0.92967
365.91,41.88155,-0.2454,0.92537,0.92769
369.01,42.1821,-0.27305,0.97373,0.92571
372.11,42.48227,-0.30764,1.02348,0.92371
375.21,42.7832,-0.34788,1.08954,0.9217
378.31,43.08385,-0.39441,1.16859,0.91969
381.41,43.38495,-0.4489,1.26497,0.91765
384.51,43.68542,-0.51521,1.37585,0.91561
387.61,43.98785,-0.59295,1.51373,0.91356
390.71,44.28999,-0.67788,1.67365,0.91149
393.81,44.59217,-0.7755,1.86306,0.90942
396.91,44.8947,-0.89358,2.08034,0.90733
400.01,45.19624,-1.03013,2.31692,0.90523
403.11,45.499,-1.20519,2.59129,0.90311
406.21,45.80175,-1.41557,2.87515,0.90099
409.31,46.1053,-1.67155,3.14468,0.89886
412.41,46.40874,-1.94535,3.36329,0.89671
415.51,46.71257,-2.21808,3.48533,0.89455
418.61,47.01518,-2.52109,3.47651,0.89238
421.71,47.31602,-2.80884,3.29947,0.8902
424.81,47.61564,-3.08465,2.95739,0.88801
427.91,47.9129,-3.30661,2.48361,0.88581
431.01,48.21,-3.4957,1.95394,0.8836
434.11,48.50614,-3.63723,1.46016,0.88137
437.21,48.8022,-3.73461,1.06052,0.87914
440.31,49.09942,-3.8036,0.77221,0.87689
443.41,49.39821,-3.85351,0.57758,0.87463
446.51,49.69871,-3.88324,0.44336,0.87236
449.61,49.99982,-3.90155,0.35374,0.87008
452.71,50.30196,-3.92066,0.2949,0.86779
455.81,50.6061,-3.93236,0.25503,0.86548
458.91,50.91061,-3.93836,0.21651,0.86317
462.01,51.21305,-3.9521,0.19122,0.86085
465.11,51.51743,-3.94798,0.2186,0.85851
468.21,51.82496,-3.94573,0.16183,0.85617
471.31,52.13004,-3.94373,0.16045,0.85381
474.41,52.43529,-3.94375,0.16339,0.85144
477.51,52.7414,-3.94376,0.17118,0.84907
480.61,53.0466,-3.94199,0.17279,0.84668
483.71,53.35196,-3.94384,0.1737,0.84428
486.81,53.65746,-3.94309,0.175,0.84187
489.91,53.96337,-3.94312,0.17492,0.83945
493.01,54.2695,-3.94309,0.17385,0.83702
496.11,54.57575,-3.94309,0.17275,0.83458
499.21,54.882,-3.94278,0.17123,0.83213
502.31,55.18818,-3.94145,0.17084,0.82967
505.41,55.49516,-3.94274,0.17087,0.8272
508.51,55.8021,-3.94237,0.16602,0.82472
511.61,56.1089,-3.94112,0.16734,0.82223
514.71,56.41515,-3.9398,0.16664,0.81972
517.81,56.72211,-3.94255,0.16502,0.81721
520.91,57.0296,-3.94485,0.16425,0.81469
524.01,57.3354,-3.94485,0.16474,0.81216
527.11,57.64391,-3.94246,0.16009,0.80962
530.21,57.9517,-3.94026,0.15907,0.80708
533.31,58.25945,-3.94562,0.15617,0.80452
536.41,58.56726,-3.94644,0.1556,0.80195
539.51,58.87461,-3.9443,0.15712,0.79937
542.61,59.18221,-3.9443,0.1594,0.79678
545.71,59.4899,-3.94694,0.15864,0.79419
548.81,59.7975,-3.94562,0.16071,0.79158
551.91,60.1056,-3.94638,0.15925,0.78897
555.01,60.41324,-3.94826,0.16344,0.78635
558.11,60.72243,-3.94693,0.16185,0.78371
561.21,61.0307,-3.94847,0.1609,0.78107
564.31,61.3392,-3.94924,0.16384,0.77842
567.41,61.6479,-3.95056,0.16499,0.77577
570.51,61.95508,-3.95086,0.16923,0.7731
573.61,62.266,-3.95319,0.17173,0.77042
576.71,62.5758,-3.95319,0.17558,0.76774
579.81,62.8854,-3.95418,0.18106,0.76505
582.91,63.195,-3.95175,0.18288,0.76235
586.01,63.5049,-3.95154,0.18671,0.75964
589.11,63.81422,-3.95429,0.19029,0.75692
592.21,64.1232,-3.95339,0.19341,0.7542
595.31,64.43217,-3.95429,0.19845,0.75147
598.41,64.74176,-3.95715,0.20307,0.74873
601.51,65.05286,-3.95583,0.20714,0.74598
604.61,65.36339,-3.95385,0.206,0.74323
607.71,65.67392,-3.95484,0.20185,0.74046
610.81,65.98476,-3.95657,0.20332,0.7377
613.91,66.2958,-3.95709,0.20368,0.73492
617.01,66.606,-3.95473,0.20848,0.73213
620.11,66.91597,-3.95407,0.2152,0.72934
623.21,67.2263,-3.95408,0.21361,0.72655
626.31,67.53699,-3.95407,0.21454,0.72374
629.41,67.84778,-3.95661,0.21422,0.72093
632.51,68.15897,-3.95671,0.21883,0.71811
635.61,68.4705,-3.9566,0.22459,0.71529
638.71,68.7816,-3.95733,0.22734,0.71245
641.81,69.09269,-3.95572,0.22918,0.70962
644.91,69.40352,-3.96567,0.23442,0.70677
648.01,69.71579,-4.02278,0.25996,0.70392
651.11,70.02863,-4.00209,0.25265,0.70107
654.21,70.3406,-3.98054,0.24405,0.6982
657.31,70.6525,-3.96451,0.24752,0.69534
660.41,70.9641,-3.96203,0.25694,0.69246
663.51,71.27552,-3.95683,0.26627,0.68958
666.61,71.587,-3.95572,0.27105,0.6867
669.71,71.8986,-3.96395,0.28186,0.68381
672.81,72.21024,-3.96264,0.29302,0.68092
675.91,72.52208,-3.96492,0.29486,0.67802
679.01,72.83343,-3.96263,0.30343,0.67511
682.11,73.14578,-3.96164,0.30508,0.6722
685.21,73.45775,-3.96428,0.30755,0.66929
688.31,73.77048,-3.96527,0.31158,0.66637
691.41,74.0826,-3.96593,0.31184,0.66344
694.51,74.39454,-3.96194,0.29322,0.66051
697.61,74.70575,-3.95956,0.2909,0.65758
700.71,75.01805,-3.96219,0.29115,0.65465
703.81,75.33,-3.95408,0.29271,0.65171
706.91,75.641,-3.95697,0.2974,0.64876
710.01,75.95354,-3.95897,0.30569,0.64581
713.11,76.26568,-3.9589,0.30997,0.64286
716.21,76.57734,-3.96088,0.30803,0.6399
719.31,76.88875,-3.96088,0.31285,0.63695
722.41,77.2004,-3.9498,0.30827,0.63398
725.51,77.5126,-3.94991,0.30526,0.63102
728.61,77.82514,-3.95858,0.32104,0.62805
731.71,78.13799,-3.96121,0.32192,0.62508
734.81,78.4504,-3.95956,0.32292,0.6221
737.91,78.76345,-3.96571,0.31912,0.61913
741.01,79.0775,-3.95594,0.31207,0.61615
744.11,79.39,-3.96221,0.31028,0.61316
747.21,79.7032,-3.95188,0.30705,0.61018
750.31,80.0162,-3.95363,0.30373,0.60719
753.41,80.32906,-3.95726,0.30687,0.6042
756.51,80.64142,-3.95145,0.30239,0.60121
759.61,80.95404,-3.96193,0.30703,0.59822
762.71,81.26654,-3.96351,0.29943,0.59523
765.81,81.57927,-3.9601,0.29995,0.59223
768.91,81.89242,-3.96243,0.30367,0.58924
772.01,82.20526,-3.97812,0.31192,0.58624
775.11,82.51926,-3.97548,0.31729,0.58324
778.21,82.8331,-3.97416,0.31986,0.58024
781.31,83.14708,-3.9768,0.32792,0.57724
784.41,83.46131,-3.97778,0.33139,0.57423
787.51,83.77542,-3.97646,0.33525,0.57123
790.61,84.08915,-3.97867,0.33867,0.56823
793.71,84.40338,-3.9757,0.34471,0.56522
796.81,84.717,-3.97725,0.34775,0.56222
799.61,84.99843,-3.97197,0.35094,0.55951