File: 01_Data/Polyester_Bed_Skirt/Cone/Polyester_Bed_Skirt_Cone_HF50Scan_220523_R2.csv
Names,Time,Stack TC,Smoke TC,Exh Press,Smoke Comp,Smoke Meas,CO Meter,CO2 Meter,O2 Meter,Sample Mass,Ext Coeff,Start Test,Flame Verif
Chan Gain,,500,500,1,1,1,1,1,1,1,1,1.0,1.0
Offset,,0,0,0.139323,0,0,0,0,0,0,0,0.0,0.0
Gain,,1,1,25.011,13.8491,15.2622,1,1,1,1.00087,1.03118,1.0,1.0
Units,sec,C,C,Pa,%,%,%,%,%,g,/m,,
Baseline,,34.3597,35.4891,138.892,105.084,106.814,0.00045322,0.0460128,21.0016,-449.443,-0.147629,,
10,2.25,30.9422,32.4369,136.773,105.47,107.6,0.000596021,0.0537686,20.9963,604.026,-0.180876,0.0,0.0
20,4.75,30.7604,32.5262,140.651,105.475,107.196,0.000519433,0.0529973,20.9973,604.066,-0.14639,0.0,0.0
30,7.25,31.1695,32.7889,139.615,105.507,107.651,0.000396446,0.0510865,20.9994,604.036,-0.181918,0.0,0.0
40,9.75,31.4254,32.7615,140.144,105.518,107.231,0.000381875,0.0494444,21.0008,603.966,-0.145717,0.0,0.0
50,12.25,31.5274,32.8888,140.702,105.529,107.225,0.000589409,0.0476997,21.0022,603.986,-0.144264,0.0,0.0
60,14.75,31.7567,32.9131,138.55,105.551,107.718,0.000713587,0.0464784,21.0032,604.016,-0.183859,0.0,0.0
70,17.25,31.7627,33.4173,140.93,105.554,107.097,0.000774563,0.0458944,21.0036,603.966,-0.131243,0.0,0.0
80,19.75,32.247,32.9245,139.753,105.591,107.015,0.000669323,0.0456143,21.0034,604.026,-0.121162,0.0,0.0
90,22.25,32.1088,33.0453,139.523,105.585,107.266,0.000523568,0.0452921,21.003,603.986,-0.142865,0.0,0.0
100,24.75,32.6003,33.1511,136.765,105.622,107.269,0.000420734,0.0451436,21.004,604.006,-0.140029,0.0,0.0
110,27.25,33.67,34.5943,138.473,105.618,107.369,0.000507443,0.0449619,21.0047,604.016,-0.148796,0.0,0.0
120,29.75,32.4646,33.3933,140.526,105.643,107.057,0.000777293,0.0449936,21.005,603.996,-0.120296,0.0,0.0
130,32.25,32.537,33.264,137.499,105.659,107.164,0.000894617,0.045003,21.0051,603.996,-0.127925,0.0,0.0
140,34.75,32.2824,33.4474,141.032,105.689,106.774,0.000884374,0.045079,21.0051,603.956,-0.0924296,0.0,0.0
150,37.25,32.5063,33.775,137.033,105.695,106.11,0.000777327,0.045355,21.0047,603.936,-0.0354415,0.0,0.0
160,39.75,32.521,33.3924,136.159,105.733,105.557,0.000826537,0.0458475,21.0029,603.906,0.0150622,0.0,0.0
170,42.25,32.7402,33.8642,137.389,105.75,105.27,0.00122153,0.0489571,20.9991,603.866,0.0411686,0.0,0.0
180,44.75,32.9396,34.0425,131.421,105.767,99.8707,0.00264923,0.0820196,20.9634,603.816,0.5189,0.0,1.0
190,47.25,33.3894,34.1369,126.953,105.771,88.5447,0.00632679,0.169144,20.8201,603.585,1.60802,0.0,1.0
200,49.75,33.5889,33.5123,125.003,105.799,82.9834,0.0114773,0.335093,20.6163,603.125,2.19719,0.0,0.0
210,52.25,38.0904,36.8225,116.068,105.83,75.3062,0.0170332,0.521411,20.4073,602.645,3.07794,0.0,0.0
220,54.75,41.9072,39.5319,115.071,105.823,76.8326,0.0205498,0.660319,20.2737,602.184,2.89579,0.0,0.0
230,57.25,44.3079,41.46,119.18,105.845,81.2284,0.0210617,0.698776,20.2499,601.744,2.39444,0.0,0.0
240,59.75,46.5841,43.4633,123.356,105.834,79.9117,0.0191385,0.656853,20.3029,601.434,2.5413,0.0,0.0
250,62.25,47.7707,45.1867,127.325,105.854,89.8302,0.0149956,0.570659,20.425,601.193,1.48469,0.0,0.0
260,64.75,48.055,46.1254,131.269,105.845,95.9718,0.0112487,0.463803,20.5352,601.013,0.885724,0.0,0.0
270,67.25,48.2157,46.91,131.009,105.852,101.593,0.00792284,0.377041,20.6308,600.893,0.371493,0.0,0.0
280,69.75,47.7621,46.6653,131.002,105.833,105.457,0.00591363,0.297095,20.7351,600.823,0.032213,0.0,0.0
290,72.25,47.0902,46.6062,136.955,105.838,106.942,0.00510937,0.238264,20.7941,600.723,-0.0938998,0.0,0.0
300,74.75,46.3584,46.7653,135.507,105.818,107.323,0.00503757,0.197535,20.8448,600.703,-0.127767,0.0,0.0
310,77.25,46.1435,46.3841,136.396,105.821,108.669,0.00555806,0.168066,20.8782,600.683,-0.240296,0.0,0.0
320,79.75,45.0235,45.9717,139.403,105.783,107.709,0.00628099,0.143676,20.9018,600.693,-0.163178,0.0,0.0
330,82.25,44.4461,45.6073,135.588,105.822,108.699,0.00699589,0.124251,20.9217,600.673,-0.242669,0.0,0.0
340,84.75,43.4849,44.9014,136.75,105.775,107.871,0.00762283,0.108995,20.9368,600.643,-0.177503,0.0,0.0
350,87.25,43.0046,44.4812,138.44,105.75,108.355,0.00795416,0.0971491,20.9469,600.563,-0.220125,0.0,0.0
360,89.75,42.0777,44.8011,140.72,105.735,107.4,0.00807393,0.0871141,20.9564,600.603,-0.141364,0.0,0.0
370,92.25,41.5401,43.5993,139.126,105.72,108.116,0.00827579,0.0797347,20.9626,600.613,-0.202684,0.0,0.0
380,94.75,41.9638,43.4775,134.299,105.704,108.322,0.00866239,0.0752941,20.9656,600.633,-0.221268,0.0,0.0
390,97.25,40.6458,42.7454,136.955,105.723,107.476,0.00907921,0.0714988,20.9702,600.583,-0.148733,0.0,0.0
400,99.75,40.1142,42.5829,136.299,105.728,107.137,0.0092801,0.0679528,20.9739,600.583,-0.119716,0.0,0.0
410,102.25,39.3206,41.8909,138.467,105.736,108.374,0.00914979,0.0661278,20.9754,600.563,-0.222873,0.0,0.0
420,104.75,39.0963,42.0817,136.308,105.745,107.938,0.00892912,0.0648458,20.9768,600.533,-0.185688,0.0,0.0
430,107.25,38.6844,41.3127,135.876,105.727,108.307,0.0086889,0.0635782,20.9773,600.493,-0.218032,0.0,0.0
440,109.75,38.482,40.9169,137.636,105.741,107.43,0.00858666,0.0627775,20.9775,600.523,-0.143293,0.0,0.0
450,112.25,38.1351,40.8782,138.12,105.737,108.525,0.00852907,0.0619575,20.9775,600.433,-0.235426,0.0,0.0
460,114.75,35.9937,38.9666,139.557,105.777,107.34,0.00827713,0.0614733,20.9777,600.513,-0.132723,0.0,0.0
470,117.25,36.3428,38.5057,137.935,105.753,108.502,0.00787235,0.0606847,20.9785,600.473,-0.232149,0.0,0.0
480,119.75,35.7165,38.7559,136.369,105.775,108.347,0.00728916,0.0599671,20.9797,600.423,-0.217294,0.0,0.0
490,122.25,35.1447,38.4455,135.84,105.768,108.558,0.00667001,0.0589662,20.9801,600.403,-0.235542,0.0,0.0
500,124.75,35.1718,38.2783,135.98,105.799,107.487,0.00626932,0.0582444,20.9817,600.393,-0.1432,0.0,0.0
510,127.25,35.2345,37.3608,136.139,105.791,107.623,0.00599671,0.0576322,20.9828,600.373,-0.155291,0.0,0.0
520,129.75,34.8866,37.504,135.331,105.788,107.802,0.00561621,0.0569029,20.9842,600.283,-0.170564,0.0,0.0
530,132.25,34.4123,37.1564,138.03,105.797,108.857,0.00529712,0.0562896,20.9847,600.403,-0.25793,0.0,0.0
540,134.75,34.3653,37.0842,139.623,105.789,107.571,0.00505688,0.0557366,20.9862,600.263,-0.151047,0.0,0.0
550,137.25,34.4744,37.3321,138.64,105.773,107.978,0.00480486,0.055149,20.9879,600.263,-0.186587,0.0,0.0
560,139.75,33.8011,36.7579,134.971,105.763,108.143,0.00456546,0.0547995,20.9886,600.343,-0.201331,0.0,0.0
570,142.25,33.9103,36.8202,134.825,105.756,108.145,0.00429137,0.0543839,20.9888,600.303,-0.202068,0.0,0.0
580,144.75,33.9266,36.9674,138.421,105.705,107.443,0.00405626,0.0541314,20.9889,600.293,-0.147501,0.0,0.0
590,147.25,34.4127,36.6155,137.616,105.676,107.716,0.00393655,0.0538815,20.99,600.253,-0.172948,0.0,0.0
600,149.75,33.9377,36.3927,139.913,105.617,107.383,0.00375215,0.0534878,20.9908,600.253,-0.150045,0.0,0.0
610,152.25,33.3125,36.3214,138.65,105.58,107.374,0.00361015,0.0530648,20.9923,600.193,-0.152447,0.0,0.0
620,154.75,33.4469,36.2639,137.778,105.506,107.066,0.00362337,0.0526398,20.9931,600.213,-0.132737,0.0,0.0
630,157.25,33.4931,35.9148,134.961,105.483,106.988,0.00357443,0.0523486,20.9934,600.172,-0.128081,0.0,0.0
640,159.75,33.5053,35.6022,135.458,105.429,107.553,0.00340787,0.0521168,20.9935,600.182,-0.180398,0.0,0.0
650,162.25,33.3493,36.1293,136.206,105.407,107.505,0.00323914,0.0517161,20.9942,600.263,-0.178248,0.0,0.0
660,164.75,33.4534,35.7945,139.681,105.413,107.708,0.00298961,0.0513808,20.9953,600.283,-0.19485,0.0,0.0
670,167.25,33.3296,35.7863,137.708,105.349,107.584,0.00271544,0.0509402,20.9952,600.253,-0.189842,0.0,0.0
680,169.75,33.2731,35.3376,136.901,105.329,107.229,0.00263138,0.0507053,20.9951,600.132,-0.161694,0.0,0.0
690,172.25,32.8854,35.1572,135.559,105.318,107.273,0.00249012,0.050656,20.9951,600.152,-0.16633,0.0,0.0
700,174.75,33.5754,35.2874,138.185,105.326,108.052,0.00235142,0.0505101,20.995,600.142,-0.231109,0.0,0.0
710,177.25,32.9381,35.243,135.762,105.323,106.687,0.00219109,0.0502523,20.9962,600.142,-0.116428,0.0,0.0
720,179.75,33.197,35.1717,137.082,105.332,106.779,0.0021006,0.0502211,20.998,600.172,-0.12337,0.0,0.0
730,182.25,32.7596,35.0078,135.248,105.343,107.276,0.00213986,0.0501322,20.9991,600.102,-0.164464,0.0,0.0
740,184.75,33.2818,35.3013,139.79,105.374,106.795,0.00214841,0.0500357,20.9981,600.132,-0.121154,0.0,0.0
750,187.25,33.0739,35.1649,139.231,105.354,106.873,0.00209473,0.0499381,20.9989,600.022,-0.129409,0.0,0.0
760,189.75,32.9741,34.8593,136.477,105.4,107.216,0.00211849,0.049746,20.999,600.082,-0.154501,0.0,0.0
770,192.25,32.6406,34.429,135.506,105.435,106.762,0.00214446,0.0497538,20.999,600.072,-0.113133,0.0,0.0
780,194.75,32.8853,34.5744,134.244,105.488,107.639,0.00221254,0.0495483,20.999,600.032,-0.182567,0.0,0.0
790,197.25,32.468,34.3616,137.397,105.494,107.047,0.00234591,0.0494595,20.999,600.042,-0.132174,0.0,0.0
800,199.75,32.2251,34.3742,136.869,105.541,106.835,0.00252419,0.0494398,20.999,600.002,-0.110227,0.0,0.0
810,202.25,33.34,34.7228,137.302,105.581,108.603,0.00251997,0.0493403,20.999,599.982,-0.255258,0.0,0.0
820,204.75,32.821,34.6947,140.794,105.617,106.774,0.00241503,0.0492323,20.9994,600.012,-0.0985447,0.0,0.0
830,207.25,32.7958,34.7983,135.044,105.653,107.601,0.00216043,0.0492453,21.0005,599.962,-0.165234,0.0,0.0
840,209.75,32.5576,34.5728,139.352,105.683,107.489,0.00184738,0.0492541,21.0009,599.942,-0.153302,0.0,0.0
850,212.25,32.5535,34.7665,138.037,105.728,106.982,0.0017558,0.0488874,21.0011,599.902,-0.106684,0.0,0.0
860,214.75,32.755,34.3935,137.748,105.734,107.594,0.00170287,0.0487201,21.0011,599.932,-0.157737,0.0,0.0
870,217.25,32.7269,33.986,138.487,105.77,106.941,0.00173482,0.0485758,21.0011,599.902,-0.0996054,0.0,0.0
880,219.75,32.7297,34.5797,137.19,105.77,107.317,0.00189002,0.0485801,21.0011,599.882,-0.131342,0.0,0.0
890,222.25,32.553,34.1542,136.446,105.807,107.9,,0.0486283,,599.992,-0.177213,0.0,0.0
900,224.75,32.4164,33.9189,136.547,105.811,107.282,,0.0484734,,599.902,-0.124928,0.0,0.0
910,227.25,32.8397,34.5171,136.188,105.82,108.405,,,,599.852,-0.218321,0.0,0.0
920,229.75,32.2689,34.4226,139.23,105.813,107.475,,,,599.842,-0.140952,0.0,0.0
930,232.25,32.7721,33.9713,138.09,105.805,107.752,,,,599.842,-0.164897,0.0,0.0
933,233,32.5339,34.2628,135.779,105.818,107.464,,,,599.852,-0.139581,0.0,0.0