File: 01_Data/Polyester_Bed_Skirt/Cone/Polyester_Bed_Skirt_Cone_HF75Scalar_220523_R2.csv
LABORATORY,FSRI
TEST IDENT,Polyester_Skirt_75_2
OPERATOR,Dow
MATERIAL,Polyester Bed Skirt
ORIENTATION,Horizontal
HEAT FLUX,75
SURF AREA,0.00884
C FACTOR,0.0417695
SPEC HOLDER DIFF,-566
SPECIMEN MASS,4.54
SCAN TIME,0.25
O2 DELAY TIME,11
CO DELAY TIME,11
CO2 DELAY TIME,8
FLOW FACTOR,1
SCAN COUNT,1365
TIME TO IGN,19
END OF TEST SCAN,885
END OF TEST TIME,221.25
TEST STATUS,1
PRE TEST CMT,Dimensions: 102 x 104 x 0.73 mm; with frame and grid; with calcium silicate substrate; sample includes 5 layers
POST TEST CMT,The exposed area of the sample shrank upon heating due to shriveling and melting.