File: 01_Data/Polyester_Bed_Skirt/Cone/Polyester_Bed_Skirt_Cone_HF75Scan_220523_R1.csv
Names,Time,Stack TC,Smoke TC,Exh Press,Smoke Comp,Smoke Meas,CO Meter,CO2 Meter,O2 Meter,Sample Mass,Ext Coeff,Start Test,Flame Verif
Chan Gain,,500,500,1,1,1,1,1,1,1,1,1.0,1.0
Offset,,0,0,0.139323,0,0,0,0,0,0,0,0.0,0.0
Gain,,1,1,25.011,13.8491,15.2622,1,1,1,1.00087,1.03118,1.0,1.0
Units,sec,C,C,Pa,%,%,%,%,%,g,/m,,
Baseline,,50.3859,52.3132,133.911,105.083,109.228,0.000495665,0.0466291,20.9911,-453.178,-0.349818,,
11,2.5,42.9769,45.5119,133.758,104.994,108.332,0.000640275,0.0514444,20.988,600.413,-0.283125,0.0,0.0
22,5.25,43.0202,45.2269,136.553,104.904,108.993,0.000634678,0.0515213,20.9876,600.443,-0.345863,0.0,0.0
33,8,43.9801,45.8119,134.561,104.815,108.967,0.000627077,0.050801,20.9875,600.353,-0.351394,0.0,0.0
44,10.75,43.354,45.7571,131.803,104.782,108.261,0.000615613,0.049823,20.9889,600.323,-0.295473,0.0,0.0
55,13.5,43.6733,45.7311,131.345,104.835,108.552,0.000612614,0.0490726,20.9895,600.373,-0.315125,0.0,0.0
66,16.25,44.4737,46.445,132.317,104.875,107.864,0.000720597,0.0491882,20.9882,600.353,-0.254194,0.0,0.0
77,19,44.2623,46.2116,134.337,104.924,107.596,0.00158261,0.0567079,20.9849,600.193,-0.227515,0.0,1.0
88,21.75,45.1709,46.9653,123.814,104.983,93.2163,0.00508803,0.13207,20.8417,600.112,1.07532,0.0,1.0
99,24.5,45.3315,46.0601,112.079,105.033,77.2201,0.0141116,0.3299,20.5501,599.672,2.78251,0.0,0.0
110,27.25,49.4965,48.8398,99.4537,105.08,63.5988,0.0278986,0.732354,20.0625,598.911,4.542,0.0,0.0
121,30,57.0364,53.8983,113.777,105.166,63.4716,0.0356284,1.05452,19.8188,597.991,4.56745,0.0,0.0
132,32.75,62.1271,58.786,121.867,105.208,76.9863,0.0307062,0.998222,19.955,597.51,2.825,0.0,0.0
143,35.5,63.7464,61.4813,117.415,105.27,89.5042,0.021106,0.76008,20.26,597.28,1.46756,0.0,0.0
154,38.25,63.9571,62.6365,129.06,105.291,102.246,0.0128556,0.528614,20.482,597.16,0.265411,0.0,0.0
165,41,63.1422,62.6194,131.474,105.331,106.857,0.00843714,0.367533,20.6309,597.05,-0.13014,0.0,0.0
176,43.75,61.9882,62.7174,130.011,105.384,108.471,0.00628556,0.269094,20.7465,596.99,-0.261159,0.0,0.0
187,46.5,61.2755,62.083,128.528,105.407,109.274,0.00537092,0.21166,20.8126,596.89,-0.325918,0.0,0.0
198,49.25,60.2936,61.6704,133.298,105.425,110.138,0.00509132,0.175589,20.8508,596.87,-0.395558,0.0,0.0
209,52,59.4298,61.1374,132.486,105.449,109.78,0.00509305,0.155299,20.8714,596.84,-0.364104,0.0,0.0
220,54.75,59.0252,61.1695,132.068,105.461,109.313,0.00543399,0.141456,20.8866,596.78,-0.324513,0.0,0.0
231,57.5,58.2244,60.5468,131.685,105.46,109.782,0.00569519,0.131721,20.8971,596.699,-0.363351,0.0,0.0
242,60.25,57.5376,59.7577,130.821,105.481,109.671,0.0058875,0.124212,20.9045,596.649,-0.352362,0.0,0.0
253,63,57.0153,59.1254,132.901,105.48,109.493,0.00606878,0.118035,20.9094,596.599,-0.337786,0.0,0.0
264,65.75,56.0953,59.2192,129.998,105.471,110.125,0.00610982,0.114203,20.9137,596.549,-0.390612,0.0,0.0
275,68.5,55.3248,59.0289,132.737,105.47,110.571,0.00611432,0.111609,20.9174,596.469,-0.427258,0.0,0.0
286,71.25,55.0612,58.5268,130.441,105.483,110.899,0.00614372,0.109987,20.9199,596.439,-0.452846,0.0,0.0
297,74,54.9381,58.1738,132.816,105.476,110.416,0.00633067,0.107849,20.922,596.379,-0.414016,0.0,0.0
308,76.75,54.3958,58.346,130.558,105.458,110.628,0.00646165,0.105346,20.9244,596.379,-0.432995,0.0,0.0
319,79.5,53.6653,58.075,131.78,105.45,110.32,0.00642232,0.103355,20.9268,596.319,-0.408401,0.0,0.0
330,82.25,54.2701,57.5487,127.687,105.435,110.77,0.00623101,0.101902,20.9294,596.269,-0.446485,0.0,0.0
341,85,53.3071,57.1581,133.165,105.411,109.894,0.00583347,0.100233,20.9317,596.269,-0.376727,0.0,0.0
352,87.75,53.1956,56.7336,130.278,105.417,110.376,0.00541252,0.0992626,20.9317,596.199,-0.415773,0.0,0.0
363,90.5,52.844,56.8177,129.334,105.399,110.052,0.00505528,0.0992057,20.9312,596.189,-0.390729,0.0,0.0
374,93.25,52.552,56.652,129.728,105.392,110.254,0.00479255,0.0987588,20.9326,596.149,-0.407908,0.0,0.0
385,96,52.5424,56.641,129.244,105.357,109.345,0.004711,0.0976051,20.9343,596.089,-0.33602,0.0,0.0
396,98.75,52.5694,56.356,133.676,105.349,108.929,0.00474691,0.0953324,20.9377,596.029,-0.302312,0.0,0.0
407,101.5,52.2115,56.0066,131.461,105.332,110.472,0.00455356,0.0921442,20.942,595.979,-0.431001,0.0,0.0
418,104.25,52.5007,55.9106,133.646,105.292,109.976,0.00432891,0.0887062,20.9467,595.959,-0.393743,0.0,0.0
429,107,52.3523,55.7286,131.375,105.279,110.539,0.00421688,0.0849286,20.9507,595.909,-0.440991,0.0,0.0
440,109.75,51.9657,55.4762,132.028,105.259,110.86,0.00405843,0.0811482,20.954,595.869,-0.46892,0.0,0.0
451,112.5,51.8791,55.5511,129.079,105.244,110.857,0.00396825,0.0780479,20.9569,595.839,-0.469963,0.0,0.0
462,115.25,51.8287,55.3838,135.565,105.221,109.286,0.00405564,0.0747681,20.9603,595.839,-0.342856,0.0,0.0
473,118,51.3254,55.1112,131.218,105.179,109.993,0.00405087,0.0717967,20.9646,595.799,-0.404784,0.0,0.0
484,120.75,51.5231,55.174,134.809,105.149,109.685,0.00394938,0.0689735,20.9683,595.739,-0.382049,0.0,0.0
495,123.5,51.516,54.9597,135.492,105.124,110.196,0.00388914,0.0665092,20.9715,595.769,-0.426231,0.0,0.0
506,126.25,51.3654,54.8109,132.793,105.111,110.555,0.0038515,0.0647502,20.9741,595.729,-0.456753,0.0,0.0
517,129,50.971,54.5449,129.183,105.064,109.863,0.00377971,0.0634576,20.9751,595.679,-0.403984,0.0,0.0
528,131.75,50.8958,54.1723,134.35,105.041,108.937,0.00378859,0.0620987,20.9762,595.689,-0.329423,0.0,0.0
539,134.5,50.9874,54.2416,133.914,105.002,109.163,0.0038414,0.0606043,20.9776,595.639,-0.351513,0.0,0.0
550,137.25,50.7195,53.6707,132.014,104.983,109.517,0.00382319,0.059345,20.9782,595.568,-0.382435,0.0,0.0
561,140,50.5288,53.9145,132.053,104.955,109.39,0.00368327,0.0583793,20.9789,595.618,-0.374331,0.0,0.0
572,142.75,50.5647,53.5815,130.737,104.926,109.356,0.00373987,0.057542,20.9801,595.548,-0.373994,0.0,0.0
583,145.5,50.3832,53.6847,134.954,104.895,109,0.00374309,0.0563056,20.9814,595.518,-0.347173,0.0,0.0
594,148.25,50.2247,53.6527,130.896,104.891,109.107,0.00335905,0.055106,20.982,595.488,-0.356458,0.0,0.0
605,151,48.7197,51.8114,136.25,104.877,108.854,0.00289621,0.0542442,20.9822,595.498,-0.336672,0.0,0.0
616,153.75,49.9545,52.8942,131.504,104.854,108.455,0.00289174,0.0544298,20.9837,595.488,-0.305484,0.0,0.0
627,156.5,50.1194,52.7686,134.772,104.83,109.509,0.00291446,0.0544463,20.9847,595.418,-0.395047,0.0,0.0
638,159.25,49.9335,53.1287,131.431,104.817,108.198,0.00286379,0.0543424,20.984,595.428,-0.287151,0.0,0.0
649,162,49.9042,53.153,131.809,104.816,109.257,0.00276795,0.0540987,20.9832,595.438,-0.375374,0.0,0.0
660,164.75,49.7122,53.0028,133.22,104.801,108.819,0.0025131,0.0540772,20.983,595.408,-0.340369,0.0,0.0
671,167.5,50.4523,52.9779,130.106,104.785,109.893,0.00239536,0.0539616,20.983,595.358,-0.43052,0.0,0.0
682,170.25,50.2462,52.5497,133.652,104.78,108.859,0.00240408,0.0537957,20.9839,595.348,-0.345522,0.0,0.0
693,173,49.7805,53.1067,130.895,104.786,109.666,0.00230065,0.0534225,20.9848,595.368,-0.411796,0.0,0.0
704,175.75,49.9978,52.9485,131.231,104.788,109.594,0.00233929,0.0531345,20.9863,595.338,-0.405582,0.0,0.0
715,178.5,49.8868,52.4923,129.008,104.802,109.911,0.00237976,0.0529135,20.9876,595.308,-0.430556,0.0,0.0
726,181.25,49.8697,52.7275,132.926,104.815,109.742,0.00240801,0.0527098,20.9891,595.298,-0.4155,0.0,0.0
737,184,50.2314,52.8275,134.925,104.824,108.821,0.00230713,0.0522718,20.9896,595.278,-0.338481,0.0,0.0
748,186.75,49.8418,52.6566,134.755,104.892,110.078,0.00206497,0.0519157,20.9902,595.268,-0.436506,0.0,0.0
759,189.5,49.988,52.5814,133.035,104.936,109.559,0.0021035,0.0517817,20.9905,595.288,-0.389938,0.0,0.0
770,192.25,50.0623,52.4808,133.061,104.976,109.859,0.00216989,0.0521086,20.9921,595.298,-0.411322,0.0,0.0
781,195,49.6724,52.4892,135.119,105.015,110.506,0.00201593,0.0521781,20.9923,595.258,-0.461046,0.0,0.0
792,197.75,49.9673,52.5224,129.839,105.062,110.213,0.00213907,0.0525863,20.9906,595.268,-0.433031,0.0,0.0
803,200.5,49.5434,52.4464,134.876,105.104,109.279,0.00222204,0.0527139,20.988,595.308,-0.352309,0.0,0.0
814,203.25,49.729,52.5411,130.015,105.133,110.999,0.00215619,0.0531819,20.9861,595.178,-0.491106,0.0,0.0
825,206,49.4388,52.0631,133.313,105.15,110.38,0.00212572,0.053533,20.9855,595.198,-0.439029,0.0,0.0
836,208.75,49.8085,52.3669,132.695,105.201,109.124,0.00210394,0.0538475,20.9847,595.098,-0.331177,0.0,0.0
847,211.5,49.2452,51.8314,133.226,105.211,110.324,0.00200686,0.0537654,20.9845,595.118,-0.429252,0.0,0.0
858,214.25,49.4022,52.0666,131.183,105.228,111.731,0.00195377,0.0539973,20.9835,595.148,-0.542436,0.0,0.0
869,217,49.1811,52.0372,133.116,105.223,112.157,0.00186472,0.0540652,20.9825,595.098,-0.577232,0.0,0.0
880,219.75,49.58,51.6608,133.736,105.197,110.59,0.00173547,0.0539665,20.9833,595.008,-0.452266,0.0,0.0
891,222.5,49.5041,52.0259,129.407,105.148,110.481,0.00176235,0.0540586,20.984,595.048,-0.447526,0.0,0.0
902,225.25,49.8303,52.0829,131.158,105.074,110.554,0.00172909,0.0540826,20.9853,595.028,-0.459915,0.0,0.0
913,228,50.0465,52.0421,134.875,105.011,109.484,0.00177468,0.0539928,20.9857,595.028,-0.377262,0.0,0.0
924,230.75,49.5067,51.9692,131.892,104.908,110.104,0.00169999,0.0535664,20.9874,595.038,-0.437262,0.0,0.0
935,233.5,49.6947,52.1109,131.372,104.805,109.846,0.00163097,0.0534146,20.9879,594.928,-0.42501,0.0,0.0
946,236.25,50.0546,52.2179,126.847,104.709,109.118,0.00149635,0.0537348,20.9881,594.968,-0.373073,0.0,0.0
957,239,50.0283,51.9602,131.417,104.611,110.512,0.00137863,0.0534803,20.9878,594.928,-0.496412,0.0,0.0
968,241.75,50.2338,52.0304,132.584,104.536,109.661,0.00144567,0.0530462,20.9875,594.888,-0.432925,0.0,0.0
979,244.5,50.0629,51.9977,134.166,104.434,108.626,0.00168853,0.052847,20.9874,594.908,-0.35597,0.0,0.0
990,247.25,49.8959,52.2776,134.113,104.354,108.923,0.00162201,0.0526799,20.9874,594.878,-0.387601,0.0,0.0
1001,250,50.0383,52.0949,132.739,104.377,108.944,0.00159554,0.0524883,20.9875,594.878,-0.387326,0.0,0.0
1012,252.75,49.837,52.0853,128.051,104.398,108.804,0.00170132,0.0524501,20.9875,594.828,-0.373921,0.0,0.0
1023,255.5,49.5481,51.8132,133.343,104.422,109.399,0.00179715,0.0521708,20.989,594.758,-0.421148,0.0,0.0
1034,258.25,49.7106,52.0631,130.282,104.428,109.182,,0.0522296,,594.768,-0.40271,0.0,0.0
1045,261,49.8062,52.2696,132.287,104.444,108.362,,,,594.898,-0.333112,0.0,0.0
1056,263.75,49.8407,51.4686,131.022,104.452,110.155,,,,594.798,-0.480875,0.0,0.0
1067,266.5,49.931,52.2532,132.097,104.496,110.057,,,,594.758,-0.469072,0.0,0.0
1075,268.5,49.7949,52.3979,133.945,104.507,109.367,,,,594.748,-0.411136,0.0,0.0