File: 01_Data/Polyester_Bed_Skirt/Cone/Polyester_Bed_Skirt_Cone_HF75Scan_220523_R2.csv
Names,Time,Stack TC,Smoke TC,Exh Press,Smoke Comp,Smoke Meas,CO Meter,CO2 Meter,O2 Meter,Sample Mass,Ext Coeff,Start Test,Flame Verif
Chan Gain,,500,500,1,1,1,1,1,1,1,1,1.0,1.0
Offset,,0,0,0.139323,0,0,0,0,0,0,0,0.0,0.0
Gain,,1,1,25.011,13.8491,15.2622,1,1,1,1.00087,1.03118,1.0,1.0
Units,sec,C,C,Pa,%,%,%,%,%,g,/m,,
Baseline,,49.8135,51.6797,134.105,103.889,107.575,0.000168286,0.046148,20.995,-453.226,-0.315281,,
15,3.5,44.0505,46.7913,132.123,103.89,107.722,0.000299153,0.0490162,20.9905,612.603,-0.327643,0.0,0.0
30,7.25,44.7335,47.1877,138.981,103.854,107.526,0.000163233,0.0480328,20.9913,612.583,-0.314331,0.0,0.0
45,11,45.9695,47.5756,133.352,103.829,107.444,0.000179783,0.046961,20.9937,612.543,-0.309528,0.0,0.0
60,14.75,45.9533,47.3388,132.193,103.822,106.255,0.00038886,0.0460275,20.9931,612.533,-0.209564,0.0,0.0
75,18.5,46.2176,47.4429,132.37,103.843,106.527,0.00123401,0.0517953,20.9895,612.483,-0.230813,0.0,0.0
90,22.25,46.9193,48.1754,115.959,103.819,74.8847,0.0116658,0.226552,20.7561,612.143,2.95518,0.0,1.0
105,26,53.269,50.4412,90.0998,103.818,57.3892,0.0314702,0.99185,19.9289,610.682,5.36202,0.0,0.0
120,29.75,65.5614,61.4182,121.511,103.817,77.7347,0.0305125,1.12064,19.857,609.931,2.61709,0.0,0.0
135,33.5,66.5663,64.8482,124.43,103.838,90.7151,0.0177033,0.700005,20.2673,609.591,1.22211,0.0,0.0
150,37.25,65.7449,65.3606,124.955,103.863,101.393,0.00921281,0.431989,20.5752,609.37,0.217688,0.0,0.0
165,41,64.3708,64.8171,125.742,103.89,105.564,0.00602876,0.278668,20.7323,609.32,-0.144571,0.0,0.0
180,44.75,63.5133,64.3798,127.702,103.914,106.683,0.00574283,0.199029,20.8206,609.21,-0.237946,0.0,0.0
195,48.5,62.5248,63.9503,128.915,103.942,106.934,0.00631282,0.158806,20.8666,609.14,-0.256663,0.0,0.0
210,52.25,61.1521,62.8839,132.464,103.961,108.333,0.00680937,0.137835,20.8845,609.05,-0.372633,0.0,0.0
225,56,60.0791,62.3002,134.583,104.018,107.839,0.00733657,0.122142,20.9041,609.07,-0.326317,0.0,0.0
240,59.75,59.0731,61.8124,129.125,104.035,108.528,0.00824338,0.111852,20.9162,608.99,-0.382443,0.0,0.0
255,63.5,58.6163,61.2279,132.099,104.053,107.872,0.00889261,0.103926,20.9249,608.91,-0.325999,0.0,0.0
270,67.25,57.6586,60.8016,133.563,104.082,108.036,0.00921828,0.0964557,20.9328,608.85,-0.337202,0.0,0.0
285,71,56.6945,60.1054,126.642,104.118,107.686,0.00933149,0.0900166,20.9398,608.87,-0.304821,0.0,0.0
300,74.75,55.9525,59.4419,136.61,104.159,107.389,0.00913768,0.085205,20.9461,608.74,-0.276228,0.0,0.0
315,78.5,55.3798,59.456,131.69,104.166,107.732,0.00943933,0.079347,20.9526,608.65,-0.304508,0.0,0.0
330,82.25,54.7943,58.4478,133.149,104.204,107.973,0.00910216,0.0751812,20.9579,608.63,-0.3214,0.0,0.0
345,86,54.4159,57.8028,128.914,104.218,109.21,0.00823032,0.0720723,20.9609,608.58,-0.423163,0.0,0.0
360,89.75,53.9471,57.628,131.336,104.257,107.93,0.00724285,0.0699353,20.9635,608.53,-0.31315,0.0,0.0
375,93.5,53.8491,57.2521,133.755,104.297,108.322,0.00625228,0.0689023,20.9663,608.41,-0.342588,0.0,0.0
390,97.25,53.3645,56.9684,133.379,104.308,107.271,0.00535941,0.0680441,20.9672,608.38,-0.253348,0.0,0.0
405,101,53.356,56.7572,129.252,104.308,108.329,0.00463641,0.0686301,20.9662,608.35,-0.34218,0.0,0.0
420,104.75,53.0332,56.4649,133.207,104.323,107.627,0.00402074,0.0703382,20.9653,608.32,-0.282021,0.0,0.0
435,108.5,53.2103,56.1559,128.799,104.344,107.743,0.0038649,0.0739319,20.9624,608.27,-0.289895,0.0,0.0
450,112.25,52.8422,55.8124,129.909,104.359,108.203,0.00380573,0.0773728,20.9607,608.219,-0.32724,0.0,0.0
465,116,53.2333,56.5315,133.779,104.385,108.111,0.00363702,0.0787957,20.9595,608.139,-0.317219,0.0,0.0
480,119.75,52.7607,55.8291,133.242,104.402,108.133,0.00346926,0.0803176,20.9592,608.139,-0.317585,0.0,0.0
495,123.5,52.4455,55.7647,134.706,104.417,108.656,0.00341886,0.0794584,20.9599,608.059,-0.359989,0.0,0.0
510,127.25,52.6888,55.9704,127.296,104.405,108.025,0.00309913,0.0789697,20.9603,607.999,-0.308325,0.0,0.0
525,131,53.0734,55.7928,132.224,104.384,108.589,0.00305473,0.0786834,20.9597,607.959,-0.357263,0.0,0.0
540,134.75,52.1261,56.0238,130.071,104.354,108.657,0.00312566,0.0782805,20.9614,607.929,-0.365488,0.0,0.0
555,138.5,52.7095,55.3866,135.695,104.311,108.933,0.00301629,0.0776398,20.9625,607.929,-0.39215,0.0,0.0
570,142.25,52.2842,55.9165,137.49,104.261,108.274,0.0029396,0.0758973,20.9649,607.849,-0.341622,0.0,0.0
585,146,52.5228,55.0299,129.639,104.203,107.734,0.00308498,0.0723465,20.9696,607.769,-0.301437,0.0,0.0
600,149.75,52.5552,55.2984,134.288,104.179,107.437,0.00316797,0.0711283,20.9694,607.809,-0.278541,0.0,0.0
615,153.5,51.6823,55.4571,130.766,104.117,107.854,0.00322484,0.0705587,20.9695,607.729,-0.319044,0.0,0.0
630,157.25,52.4487,54.3422,131.019,104.062,108.712,0.00316742,0.0695445,20.9727,607.679,-0.395414,0.0,0.0
645,161,51.964,54.6399,130.819,104.035,108.307,0.00308607,0.0688431,20.9737,607.689,-0.36406,0.0,0.0
660,164.75,51.5721,54.56,132.159,104.009,107.956,0.00314074,0.0673633,20.9756,607.559,-0.336963,0.0,0.0
675,168.5,51.3589,54.6812,129.695,103.982,110.096,0.00317315,0.0662006,20.9761,607.459,-0.516846,0.0,0.0
690,172.25,51.541,54.3392,132.974,103.946,108.26,0.00328216,0.0654825,20.9772,607.489,-0.367851,0.0,0.0
705,176,51.6311,54.0985,129.834,103.917,109.507,0.00332963,0.0645678,20.9783,607.489,-0.473972,0.0,0.0
720,179.75,51.8441,54.1376,129.19,103.93,109.846,0.00330707,0.0630839,20.9773,607.439,-0.500797,0.0,0.0
735,183.5,51.8863,54.0523,129.246,103.952,108.392,0.00326126,0.062366,20.977,607.339,-0.378381,0.0,0.0
750,187.25,51.8985,54.6607,130.349,103.991,108.607,0.00325591,0.0620095,20.9785,607.309,-0.392825,0.0,0.0
765,191,51.66,54.0459,136.046,104.015,108.823,0.00319088,0.0613319,20.9795,607.329,-0.40871,0.0,0.0
780,194.75,51.4886,54.1255,134.506,104.062,108.676,0.00317424,0.0609146,20.9799,607.289,-0.39239,0.0,0.0
795,198.5,51.8791,53.8788,131.773,104.124,108.061,0.00289492,0.0605992,20.9815,607.259,-0.335708,0.0,0.0
810,202.25,51.0543,54.0064,132.538,104.205,108.415,0.00270718,0.0601776,20.9805,607.199,-0.358283,0.0,0.0
825,206,50.9684,53.4683,132.025,104.299,108.975,0.00268782,0.0599042,20.9808,607.199,-0.396695,0.0,0.0
840,209.75,51.0854,53.6473,134.183,104.365,108.166,0.00270683,0.0593218,20.9808,607.089,-0.323577,0.0,0.0
855,213.5,50.8891,53.3921,135.657,104.421,108.154,0.00276312,0.0588072,20.9809,607.028,-0.317767,0.0,0.0
870,217.25,51.096,53.2127,134.103,104.495,108.587,0.00282685,0.058551,20.9813,606.988,-0.347478,0.0,0.0
885,221,51.5854,52.9073,130.468,104.57,109.584,0.00287991,0.0581397,20.9827,606.888,-0.423583,0.0,0.0
900,224.75,49.2897,51.6443,130.825,104.64,109.065,0.00286959,0.0577478,20.9848,606.828,-0.374661,0.0,0.0
915,228.5,49.1576,51.8909,132.393,104.688,109.05,0.00264386,0.0568172,20.9876,606.888,-0.369258,0.0,0.0
930,232.25,49.3581,51.6515,134.52,104.742,108.739,0.00254502,0.0562196,20.9884,606.758,-0.338816,0.0,0.0
945,236,49.6199,51.677,129.664,104.812,110.71,0.00251234,0.0558819,20.9891,606.788,-0.495184,0.0,0.0
960,239.75,49.7333,51.6062,134.269,104.872,109.118,0.00257721,0.0555828,20.9892,606.778,-0.358987,0.0,0.0
975,243.5,49.7189,51.9553,133.601,104.928,108.751,0.00271824,0.0552541,20.9899,606.748,-0.323705,0.0,0.0
990,247.25,49.3575,51.7875,137.912,104.972,108.291,0.00263761,0.0548752,20.9887,606.738,-0.281521,0.0,0.0
1005,251,49.9402,51.809,128.801,105.004,108.737,0.00259778,0.0546118,20.9898,606.608,-0.315909,0.0,0.0
1020,254.75,49.4326,52.0646,131.296,105.037,110.266,0.00255701,0.054133,20.9896,606.578,-0.439423,0.0,0.0
1035,258.5,49.2093,51.7305,128.201,105.063,109.811,0.00242088,0.0538017,20.9893,606.548,-0.399872,0.0,0.0
1050,262.25,49.3764,52.2718,128.557,105.076,110.656,0.00251002,0.053956,20.9892,606.528,-0.468074,0.0,0.0
1065,266,49.4225,51.8899,129.865,105.077,110.121,0.0024864,0.0539415,20.9883,606.498,-0.424113,0.0,0.0
1080,269.75,49.5351,51.4144,131.351,105.051,109.938,0.00222017,0.0540363,20.9883,606.408,-0.411246,0.0,0.0
1095,273.5,49.6682,52.2736,132.948,105.026,110.131,0.00212459,0.0542407,20.9897,606.458,-0.429319,0.0,0.0
1110,277.25,49.8723,51.8045,130.479,105.011,110.291,0.00195034,0.0541484,20.9877,606.438,-0.443706,0.0,0.0
1125,281,49.4159,51.5299,130.617,104.969,109.173,0.0020892,0.0538606,20.9871,606.308,-0.355236,0.0,0.0
1140,284.75,49.6526,51.1265,129.364,104.93,109.121,0.00210807,0.0535596,20.9871,606.348,-0.354228,0.0,0.0
1155,288.5,49.7718,51.6523,135.483,104.9,109.613,0.00198311,0.0530857,20.9886,606.288,-0.397531,0.0,0.0
1170,292.25,49.3506,51.9264,133.412,104.865,109.254,0.00189906,0.0531356,20.9898,606.318,-0.370875,0.0,0.0
1185,296,49.5043,51.1357,131.238,104.839,109.779,0.00195745,0.0532037,20.9897,606.328,-0.416456,0.0,0.0
1200,299.75,49.4803,52.1687,132.435,104.799,108.597,0.00179813,0.0535216,20.9897,606.278,-0.32199,0.0,0.0
1215,303.5,49.4396,51.5536,131.504,104.762,109.461,0.00186834,0.053528,20.9897,606.278,-0.396881,0.0,0.0
1230,307.25,49.5569,51.2818,130.971,104.711,109.006,0.00187566,0.053608,20.9897,606.218,-0.363654,0.0,0.0
1245,311,49.2399,51.706,128.88,104.682,109.76,0.00181887,0.0535037,20.9883,606.158,-0.428458,0.0,0.0
1260,314.75,49.423,51.8132,131.008,104.652,109.241,0.00178653,0.0535587,20.9887,606.178,-0.388191,0.0,0.0
1275,318.5,49.5262,52.0898,131.902,104.611,109.575,0.00179453,0.0534024,20.9902,606.168,-0.419343,0.0,0.0
1290,322.25,49.6525,51.8374,132.245,104.587,108.834,0.00165179,0.0529447,20.9906,606.148,-0.360049,0.0,0.0
1305,326,49.4889,51.8404,129.918,104.58,109.767,0.00155175,0.0528382,20.9911,606.058,-0.437913,0.0,0.0
1320,329.75,50.1383,51.7335,133.569,104.562,108.172,0.00150814,0.0526093,20.9909,606.058,-0.306951,0.0,0.0
1335,333.5,49.222,52.2983,130.414,104.547,109.345,,,,606.068,-0.405886,0.0,0.0
1350,337.25,49.8021,51.8252,131.29,104.566,108.747,,,,606.038,-0.354635,0.0,0.0
1365,341,50.2746,52.3265,132.611,104.549,108.375,,,,605.958,-0.325089,0.0,0.0