File: 01_Data/Polyester_Bed_Skirt/Cone/Polyester_Bed_Skirt_Cone_HF25Scan_220523_R1.csv
Names,Time,Stack TC,Smoke TC,Exh Press,Smoke Comp,Smoke Meas,CO Meter,CO2 Meter,O2 Meter,Sample Mass,Ext Coeff,Start Test,Flame Verif
Chan Gain,,500,500,1,1,1,1,1,1,1,1,1.0,1.0
Offset,,0,0,0.135828,0,0,0,0,0,0,0,0.0,0.0
Gain,,1,1,25.011,13.8491,15.2622,1,1,1,1.00087,1.03118,1.0,1.0
Units,sec,C,C,Pa,%,%,%,%,%,g,/m,,
Baseline,,34.1216,35.0019,135.52,104.565,111.707,0.000204817,0.0460522,20.9923,-451.211,-0.597626,,
23,5.5,28.1312,29.8642,135.565,104.63,111.66,0.00028383,0.0482018,20.992,612.563,-0.588144,0.0,0.0
46,11.25,28.9946,29.8578,139.038,104.892,111.669,0.000420569,0.047238,20.9935,612.653,-0.566311,0.0,0.0
69,17,28.6397,29.6927,134.899,105.179,111.931,0.00019872,0.046488,20.9944,612.623,-0.562811,0.0,0.0
92,22.75,28.8437,29.616,131.377,105.463,112.973,6.13021e-05,0.0466227,20.9932,612.583,-0.622158,0.0,0.0
115,28.5,28.5764,29.8722,134.932,105.724,113.38,-0.000113018,0.0459261,20.9941,612.573,-0.632391,0.0,0.0
138,34.25,28.8616,30.2481,134.862,105.895,112.455,3.49293e-05,0.0456484,20.9961,612.643,-0.543692,0.0,0.0
161,40,29.1356,29.7076,141.092,105.942,113.228,0.000106382,0.04562,20.9953,612.533,-0.60163,0.0,0.0
184,45.75,28.7593,29.4634,141.025,105.879,113.636,0.000111133,0.0453618,20.9971,612.563,-0.639616,0.0,0.0
207,51.5,29.4632,29.1856,136.52,105.729,111.882,0.00033981,0.0452571,20.9965,612.553,-0.511695,0.0,0.0
230,57.25,28.6981,29.7208,134.247,105.53,111.598,0.000315105,0.0453346,20.9941,612.563,-0.505668,0.0,0.0
253,63,28.9099,29.6473,138.656,105.388,112.511,0.000231419,0.0454886,20.9937,612.513,-0.591578,0.0,0.0
276,68.75,29.5485,29.5272,141.089,105.275,112.413,-9.24034e-05,0.0457702,20.9931,612.553,-0.593403,0.0,0.0
299,74.5,29.4451,30.2034,135.523,105.186,112.147,-0.000284856,0.0469583,20.9924,612.523,-0.579643,0.0,0.0
322,80.25,29.4267,29.9091,134.646,105.127,111.479,5.68913e-05,0.0486128,20.9914,612.543,-0.530663,0.0,0.0
345,86,29.6263,29.7598,134.557,105.089,111.764,0.000153255,0.0502079,20.9889,612.523,-0.557035,0.0,0.0
368,91.75,29.1765,30.2671,133.692,105.033,111.658,6.90782e-05,0.0498321,20.9913,612.533,-0.553277,0.0,0.0
391,97.5,29.5258,30.2356,136.017,105.064,111.445,0.000147925,0.0480493,20.9921,612.463,-0.533324,0.0,0.0
414,103.25,29.4405,30.2777,137.733,105.137,112.022,0.000394371,0.0506974,20.9849,612.513,-0.573747,0.0,0.0
437,109,29.8318,30.3763,132.908,105.201,111.649,0.000212983,0.0552912,20.9809,612.533,-0.538085,0.0,0.0
460,114.75,29.0981,30.2721,137.4,105.277,111.267,0.000226996,0.0554766,20.9794,612.483,-0.500512,0.0,0.0
483,120.5,29.2476,30.4806,133.899,105.314,111.515,1.23022e-05,0.052944,20.9854,612.503,-0.517476,0.0,0.0
506,126.25,30.1736,30.6602,138.189,105.292,111.243,0.000355921,0.0500744,20.9899,612.473,-0.497311,0.0,0.0
529,132,29.6556,30.4229,137.716,105.298,112.128,0.000565275,0.0506942,20.9897,612.483,-0.568512,0.0,0.0
552,137.75,29.7057,30.8004,136.864,105.315,112.385,7.57295e-05,0.0506938,20.9884,612.463,-0.587703,0.0,0.0
575,143.5,29.9942,30.4809,133.234,105.319,112.216,0.000302332,0.0487971,20.991,612.443,-0.573758,0.0,0.0
598,149.25,30.249,30.9387,134.433,105.345,112.04,0.000309621,0.047449,20.9932,612.453,-0.557379,0.0,0.0
621,155,30.5517,30.4608,132.096,105.356,112.693,0.000116258,0.0468511,20.9943,612.463,-0.608928,0.0,0.0
644,160.75,30.1961,30.5068,133.406,105.373,112.035,2.28299e-05,0.0461094,20.9945,612.453,-0.554533,0.0,0.0
667,166.5,29.4081,30.9259,138.08,105.419,112.679,0.000126659,0.0456839,20.9948,612.453,-0.602476,0.0,0.0
690,172.25,30.3129,31.2055,132.648,105.44,111.902,-0.000101738,0.045221,20.9963,612.473,-0.538044,0.0,0.0
713,178,30.3465,30.6269,136.692,105.45,111.819,-0.000157142,0.0447092,20.9972,612.403,-0.530431,0.0,0.0
736,183.75,29.7365,30.7127,135.194,105.466,112.709,-0.000146476,0.0466974,20.9955,612.443,-0.600769,0.0,0.0
759,189.5,30.2191,30.3464,132.067,105.455,112.554,-2.93681e-05,0.0482235,20.9947,612.403,-0.589332,0.0,0.0
782,195.25,30.1787,31.1879,136.974,105.464,112.193,-0.000127778,0.0465108,20.9972,612.433,-0.559476,0.0,0.0
805,201,29.8165,30.9684,137.958,105.481,112.289,0.000308866,0.0455518,20.9983,612.293,-0.565796,0.0,0.0
828,206.75,30.0273,30.4897,136.105,105.49,111.682,0.000368788,0.0473895,20.9982,612.383,-0.515979,0.0,0.0
851,212.5,29.9641,30.669,132.939,105.472,112.367,0.000404289,0.0519034,20.9918,612.383,-0.572747,0.0,0.0
874,218.25,30.0176,30.5936,135.36,105.464,111.656,0.000326347,0.0483423,20.9919,612.433,-0.516039,0.0,0.0
897,224,30.6,31.0197,134.087,105.412,111.572,-1.4083e-05,0.045794,20.9938,612.383,-0.51374,0.0,0.0
920,229.75,30.5987,30.9002,134.243,105.345,111.651,-6.96778e-05,0.0448105,20.9943,612.373,-0.525851,0.0,0.0
943,235.5,30.2791,30.9822,138.08,105.269,111.62,1.88338e-05,0.0446235,20.9954,612.353,-0.529895,0.0,0.0
966,241.25,30.3092,31.1032,136.958,105.138,111.085,-0.00028238,0.0449064,20.9948,612.353,-0.497725,0.0,0.0
989,247,30.5927,30.7685,135.075,105.064,111.457,-0.000154583,0.0445557,20.9949,612.423,-0.534231,0.0,0.0
1012,252.75,30.42,30.8746,134.281,105.058,111.549,-3.74878e-05,0.044589,20.9965,612.413,-0.542295,0.0,0.0
1035,258.5,30.1303,31.0123,136.886,105.029,110.78,0.000171992,0.0449834,20.9958,612.393,-0.482234,0.0,0.0
1058,264.25,30.2425,31.2048,136.393,105.089,111.296,0.000329212,0.0452467,20.9962,612.383,-0.519145,0.0,0.0
1081,270,29.8534,31.4657,137.384,105.208,111.638,3.43544e-05,0.045081,20.9963,612.343,-0.536597,0.0,0.0
1104,275.75,30.1577,30.82,138.686,105.303,111.534,0.000188096,0.0452324,20.9963,612.363,-0.519969,0.0,0.0
1127,281.5,29.5438,30.996,135.092,105.378,111.649,0.000426413,0.0454146,20.9963,612.383,-0.522906,0.0,0.0
1150,287.25,30.5232,31.4685,134.295,105.433,111.665,0.000392423,0.0456191,20.9963,612.363,-0.519438,0.0,0.0
1173,293,30.0403,31.0647,138.211,105.444,111.336,0.000269688,0.0457418,20.9963,612.383,-0.491783,0.0,0.0
1196,298.75,30.1889,31.1376,134.995,105.455,111.302,0.000315074,0.0457547,20.9951,612.283,-0.48815,0.0,0.0
1219,304.5,30.617,30.8776,135.471,105.433,111.022,0.000163197,0.0460344,20.9962,612.293,-0.467295,0.0,0.0
1242,310.25,29.8935,31.4467,131.679,105.329,110.688,4.70664e-05,0.0460206,20.9974,612.263,-0.448859,0.0,0.0
1265,316,30.1448,31.6068,135.847,105.152,110.459,0.000314163,0.045786,20.9963,612.223,-0.445445,0.0,0.0
1288,321.75,29.5406,31.2215,134.33,104.925,109.717,0.000348455,0.0459019,20.9979,612.243,-0.403914,0.0,0.0
1311,327.5,30.2102,31.0936,134.821,104.668,109.526,0.000341814,0.0460857,20.9965,612.243,-0.410409,0.0,0.0
1334,333.25,30.4349,30.7108,134.746,104.825,110.687,0.00028287,0.0463338,20.9947,612.073,-0.492186,0.0,0.0
1357,339,30.0876,31.0514,134.869,105.063,111.071,0.00022432,0.0462327,20.9962,612.223,-0.503063,0.0,0.0
1380,344.75,29.5043,30.9202,134.862,105.274,110.677,0.000375245,0.0469404,20.995,612.153,-0.452738,0.0,0.0
1403,350.5,29.9031,30.9382,135.549,105.411,111.328,0.000503533,0.0520007,20.9922,612.443,-0.494005,0.0,1.0
1426,356.25,28.8637,30.3966,125.618,105.474,96.6019,0.0049783,0.177861,20.8442,611.903,0.794827,0.0,0.0
1449,362,34.0135,32.8905,120.75,105.411,84.5032,0.0145149,0.466451,20.5138,611.052,1.99972,0.0,0.0
1472,367.75,42.3605,40.3337,117.967,105.284,84.5265,0.0174865,0.58805,20.3865,610.241,1.98634,0.0,0.0
1495,373.5,45.3451,43.4363,127.738,105.097,97.9163,0.0122504,0.461635,20.4933,609.611,0.640156,0.0,0.0
1518,379.25,45.7447,44.9169,126.795,104.898,104.858,0.00641429,0.321304,20.6799,609.31,0.00347687,0.0,0.0
1541,385,45.1195,44.9339,128.178,104.73,109.923,0.00372368,0.22223,20.7978,609.09,-0.437756,0.0,0.0
1564,390.75,44.0964,44.2402,131.106,104.588,111.395,0.0026454,0.15769,20.8754,608.99,-0.570341,0.0,0.0
1587,396.5,42.4281,43.5876,136.655,104.506,112.096,0.00231741,0.115975,20.9168,608.91,-0.634177,0.0,0.0
1610,402.25,40.5407,42.8191,136.168,104.469,110.991,0.00183717,0.0875795,20.9504,608.82,-0.547731,0.0,0.0
1633,408,39.346,41.5804,140.001,104.449,110.33,0.00133724,0.0652675,20.9733,608.84,-0.495501,0.0,0.0
1656,413.75,36.4902,39.1965,131.889,104.436,109.82,0.00109623,0.0538839,20.9859,608.81,-0.454689,0.0,0.0
1679,419.5,35.4485,37.9605,134.172,104.464,110.757,0.000887154,0.0519063,20.9888,608.84,-0.529095,0.0,0.0
1702,425.25,34.5891,37.5252,133.333,104.452,110.658,0.000660059,0.0506273,20.9896,608.83,-0.522087,0.0,0.0
1725,431,34.1877,36.7509,134.753,104.458,110.34,0.000383303,0.0497818,20.9907,608.79,-0.495535,0.0,0.0
1748,436.75,33.4487,35.9485,134.377,104.453,110.597,0.00055425,0.048921,20.9918,608.78,-0.516989,0.0,0.0
1771,442.5,33.4956,35.7843,136.807,104.454,110.295,0.000725513,0.0487013,20.9919,608.77,-0.492196,0.0,0.0
1794,448.25,32.4151,35.0622,135.406,104.453,110.99,0.00102099,0.0482776,20.9919,608.8,-0.549046,0.0,0.0
1817,454,32.3744,34.6126,138.993,104.431,111.374,0.000527091,0.0481573,20.9919,608.79,-0.58221,0.0,0.0
1840,459.75,32.1312,34.4288,137.913,104.415,110.201,0.000171708,0.0480137,20.9919,608.77,-0.487845,0.0,0.0
1863,465.5,31.4437,33.9419,131.138,104.396,110.845,0.000878974,0.0480946,20.9906,608.74,-0.54225,0.0,0.0
1886,471.25,31.7154,33.8068,134.076,104.352,111.679,0.000624214,0.0477005,20.9922,608.72,-0.613839,0.0,0.0
1909,477,31.5804,33.8366,137.296,104.326,110.569,0.000660397,0.0473505,20.9922,608.7,-0.525725,0.0,0.0
1932,482.75,31.5581,33.2916,133.59,104.303,110.942,0.000328416,0.0471884,20.9933,608.71,-0.558137,0.0,0.0
1955,488.5,31.5441,33.1159,136.475,104.29,110.361,0.000589086,0.0470775,20.9963,608.71,-0.511793,0.0,0.0
1978,494.25,31.1117,32.5873,134.699,104.267,110.928,0.000883723,0.0471724,20.9967,608.69,-0.560189,0.0,0.0
2001,500,30.7895,32.8445,134.576,104.262,110.79,0.000899596,0.0469815,20.9971,608.69,-0.549305,0.0,0.0
2024,505.75,31.0152,32.0492,135.285,104.263,110.479,0.00060002,0.0468624,20.998,608.68,-0.523868,0.0,0.0
2047,511.5,30.6736,32.3068,136.249,104.245,110.427,0.000536058,0.0470264,20.9959,608.66,-0.521098,0.0,0.0
2070,517.25,30.6646,32.3873,131.859,104.247,111.151,0.000496249,0.0469299,20.9936,608.66,-0.580049,0.0,0.0
2093,523,30.4599,32.0828,136.894,104.259,110.294,,,,608.64,-0.509006,0.0,0.0
2116,528.75,30.9218,31.7877,137.814,104.234,111.086,,,,608.65,-0.575915,0.0,0.0
2121,530,30.3949,32.1646,134.596,104.254,110.35,,,,608.62,-0.514031,0.0,0.0