File: 01_Data/Polyester_Bed_Skirt/Cone/Polyester_Bed_Skirt_Cone_HF25Scan_220523_R3.csv
Names,Time,Stack TC,Smoke TC,Exh Press,Smoke Comp,Smoke Meas,CO Meter,CO2 Meter,O2 Meter,Sample Mass,Ext Coeff,Start Test,Flame Verif
Chan Gain,,500,500,1,1,1,1,1,1,1,1,1.0,1.0
Offset,,0,0,0.135828,0,0,0,0,0,0,0,0.0,0.0
Gain,,1,1,25.011,13.8491,15.2622,1,1,1,1.00087,1.03118,1.0,1.0
Units,sec,C,C,Pa,%,%,%,%,%,g,/m,,
Baseline,,30.5524,31.2496,137.079,105.117,110.622,0.000212694,0.0485213,20.9889,-451.059,-0.461624,,
22,5.25,28.0911,29.4603,135.309,105.178,110.84,-0.00010868,0.0508465,20.9873,581.726,-0.474262,0.0,0.0
44,10.75,28.6544,28.9887,135.526,105.159,110.343,-0.000294616,0.0499291,20.9897,581.646,-0.435288,0.0,0.0
66,16.25,28.4287,29.2296,135.629,105.124,110.639,-0.00011501,0.0503576,20.9887,581.556,-0.462517,0.0,0.0
88,21.75,28.7225,29.2057,140.679,105.093,110.713,8.41782e-05,0.055046,20.9832,581.626,-0.471225,0.0,0.0
110,27.25,28.8243,29.3849,137.448,105.074,110.244,0.000111938,0.0570741,20.9809,581.636,-0.434462,0.0,0.0
132,32.75,28.6583,29.79,139.253,105.06,110.69,0.000136278,0.054707,20.9845,581.636,-0.472236,0.0,0.0
154,38.25,28.7718,29.867,136.568,105.064,110.794,6.51106e-05,0.0521855,20.9878,581.626,-0.480318,0.0,0.0
176,43.75,28.9637,29.4286,136.592,105.042,110.449,9.76903e-05,0.0500501,20.9916,581.626,-0.454027,0.0,0.0
198,49.25,29.0858,29.7298,134.756,105.051,110.57,-2.44846e-05,0.0502635,20.9902,581.616,-0.463175,0.0,0.0
220,54.75,29.1951,29.382,139.09,105.03,110.055,-1.2807e-05,0.050463,20.9892,581.616,-0.422679,0.0,0.0
242,60.25,29.4209,29.6047,139.053,105.016,110.471,4.30771e-05,0.0500562,20.9893,581.616,-0.458078,0.0,0.0
264,65.75,29.411,29.9031,137.189,105.002,110.359,-0.000118571,0.0494534,20.9901,581.616,-0.450045,0.0,0.0
286,71.25,28.9897,30.0044,134.656,104.979,110.399,-4.08575e-05,0.0482499,20.9901,581.626,-0.455367,0.0,0.0
308,76.75,29.0739,29.8334,139.966,104.962,111.322,-0.000333465,0.0482357,20.9895,581.596,-0.532184,0.0,0.0
330,82.25,29.1297,30.2018,136.181,104.927,110.557,-0.000179089,0.0480376,20.9893,581.606,-0.472813,0.0,0.0
352,87.75,29.7357,29.6552,135.252,104.911,111.09,6.23166e-05,0.0497646,20.9876,581.606,-0.517654,0.0,0.0
374,93.25,29.7241,30.1963,136.839,104.89,110.865,0.0003291,0.0507902,20.9863,581.596,-0.5011,0.0,0.0
396,98.75,29.0428,30.5249,136.063,104.851,110.195,5.40317e-05,0.0487258,20.9893,581.596,-0.449679,0.0,0.0
418,104.25,29.1093,30.7145,138.645,104.838,110.606,-0.000131197,0.0473661,20.992,581.586,-0.484394,0.0,0.0
440,109.75,29.1563,30.2239,133.527,104.813,110.336,0.000127233,0.0471106,20.9917,581.566,-0.464539,0.0,0.0
462,115.25,29.5559,30.5776,139.912,104.787,110.671,0.000349641,0.0468872,20.9925,581.556,-0.494139,0.0,0.0
484,120.75,29.4162,30.4168,133.788,104.77,110.831,0.000137319,0.0467988,20.9938,581.556,-0.508683,0.0,0.0
506,126.25,29.6692,30.2477,137.285,104.76,110.238,0.000136854,0.046566,20.9944,581.556,-0.461076,0.0,0.0
528,131.75,29.8364,30.5863,133.682,104.853,110.338,0.000337793,0.0463284,20.9951,581.536,-0.461226,0.0,0.0
550,137.25,30.0639,30.8744,133.67,104.939,110.392,0.000146756,0.046448,20.9952,581.556,-0.458182,0.0,0.0
572,142.75,29.8247,30.4137,134.356,105.041,111.197,0.000365193,0.0461178,20.9947,581.546,-0.51519,0.0,0.0
594,148.25,29.9108,30.4877,135.281,105.081,111.343,0.000252644,0.0458986,20.9931,581.586,-0.523585,0.0,0.0
616,153.75,29.8256,30.6392,134.746,105.086,111.347,-0.000159375,0.0464039,20.9912,581.556,-0.523525,0.0,0.0
638,159.25,30.3256,30.8841,137.424,105.105,111.623,-4.38758e-05,0.0467059,20.9902,581.566,-0.544225,0.0,0.0
660,164.75,29.879,30.4574,139.886,105.084,110.4,-9.49706e-05,0.0468167,20.99,581.566,-0.446455,0.0,0.0
682,170.25,29.5166,30.7978,136.872,105.003,109.812,-3.38552e-05,0.0465773,20.9921,581.566,-0.405079,0.0,0.0
704,175.75,29.7145,30.5115,136.217,104.916,110.503,-6.3364e-05,0.0467825,20.9928,581.566,-0.469302,0.0,0.0
726,181.25,30.1767,30.2405,140.557,104.799,110.635,-0.000286093,0.0468519,20.9941,581.546,-0.490259,0.0,0.0
748,186.75,29.7345,30.8942,136.178,104.718,109.932,0.000228747,0.0467172,20.9936,581.556,-0.439509,0.0,0.0
770,192.25,29.7872,30.7132,138.77,104.795,109.92,0.000241782,0.0467246,20.9897,581.556,-0.431868,0.0,0.0
792,197.75,29.8176,30.4841,138.359,104.867,110.703,-1.28116e-05,0.0467509,20.9888,581.546,-0.489909,0.0,0.0
814,203.25,29.8944,30.8203,136.616,104.987,110.718,-0.000164951,0.0467462,20.9879,581.516,-0.480743,0.0,0.0
836,208.75,29.6879,31.1104,139.66,105.086,110.723,-8.54758e-06,0.0466647,20.9895,581.536,-0.472718,0.0,0.0
858,214.25,29.3992,30.4029,133.598,105.175,111.068,0.000136828,0.0467287,20.9923,581.516,-0.493121,0.0,0.0
880,219.75,29.7785,30.5619,134.675,105.329,110.436,5.75663e-06,0.0467586,20.9922,581.506,-0.428206,0.0,0.0
902,225.25,29.8888,30.8633,137.492,105.418,110.632,7.63013e-06,0.0468693,20.9927,581.546,-0.436709,0.0,0.0
924,230.75,30.1882,30.5814,137.966,105.439,111.326,0.000223813,0.0470639,20.9943,581.526,-0.491458,0.0,0.0
946,236.25,29.725,31.032,136.115,105.462,109.989,0.000233349,0.0469616,20.9923,581.506,-0.380231,0.0,0.0
968,241.75,29.7132,30.4678,133.94,105.386,110.222,7.54342e-05,0.0468653,20.9903,581.526,-0.405852,0.0,0.0
990,247.25,29.8903,31.1274,137.721,105.262,109.984,-0.000167368,0.0470029,20.9914,581.516,-0.396973,0.0,0.0
1012,252.75,30.0553,31.1874,138.408,105.023,110.418,0.000162007,0.0470446,20.9895,581.526,-0.453072,0.0,0.0
1034,258.25,29.7849,30.8855,139.882,104.784,109.578,4.45455e-05,0.0469123,20.9895,581.466,-0.404642,0.0,0.0
1056,263.75,29.8462,31.0833,136.762,104.546,109.561,-4.2147e-05,0.0471597,20.9911,581.456,-0.423858,0.0,0.0
1078,269.25,29.7004,31.0181,136.078,104.378,109.157,-8.65517e-05,0.0471021,20.9914,581.456,-0.404983,0.0,0.0
1100,274.75,29.876,30.6988,137.569,104.269,109.526,0.000334002,0.0470594,20.9913,581.416,-0.444994,0.0,0.0
1122,280.25,29.9615,30.8601,135.431,104.211,108.969,0.00032684,0.0470923,20.9913,581.456,-0.403857,0.0,0.0
1144,285.75,30.1436,30.6309,138.767,104.199,108.26,0.000188248,0.0472846,20.9914,581.406,-0.345883,0.0,0.0
1166,291.25,29.9033,30.2905,135.873,104.203,108.43,0.000304428,0.0475123,20.9915,581.346,-0.359672,0.0,0.0
1188,296.75,30.2288,30.9346,137.388,104.223,108.8,0.000604457,0.0484544,20.9891,581.376,-0.388784,0.0,0.0
1210,302.25,29.9084,31.0922,137.697,104.22,108.296,0.000495879,0.0514253,20.9865,581.356,-0.347084,0.0,0.0
1232,307.75,29.9832,31.167,137.058,104.229,108.733,0.000493385,0.0503951,20.9867,581.336,-0.382658,0.0,0.0
1254,313.25,29.7573,30.7152,137.015,104.222,108.537,0.000329726,0.0502156,20.9866,581.256,-0.366915,0.0,0.0
1276,318.75,29.8619,30.7984,136.764,104.214,109.178,7.35595e-05,0.0511089,20.9846,581.266,-0.420907,0.0,0.0
1298,324.25,29.7749,30.8101,137.786,104.237,109.418,0.000178679,0.050695,20.9845,581.296,-0.438814,0.0,0.0
1320,329.75,30.3612,31.3459,135.959,104.225,107.273,0.000847272,0.070354,20.9693,581.296,-0.260691,0.0,1.0
1342,335.25,29.7701,29.8762,126.645,104.234,93.9038,0.00496961,0.198873,20.8267,580.946,0.944058,0.0,0.0
1364,340.75,33.66,32.6378,119.26,104.234,84.4716,0.0128264,0.446755,20.5491,580.255,1.90157,0.0,0.0
1386,346.25,38.4821,36.5602,124.321,104.231,90.2345,0.0160581,0.53352,20.4344,579.494,1.30431,0.0,0.0
1408,351.75,41.3196,39.2082,124.697,104.233,86.6416,0.0150267,0.500803,20.4616,578.814,1.67206,0.0,0.0
1430,357.25,43.2197,41.3803,126.123,104.23,98.6047,0.00901201,0.386241,20.5978,578.404,0.501867,0.0,0.0
1452,362.75,42.7808,42.0897,133.636,104.232,107.345,0.00507092,0.263787,20.7357,578.163,-0.266229,0.0,0.0
1474,368.25,41.789,42.0904,130.607,104.237,108.948,0.00343795,0.182328,20.8297,578.043,-0.399881,0.0,0.0
1496,373.75,40.5849,41.5109,135.059,104.255,108.762,0.0023961,0.132517,20.8928,577.943,-0.382821,0.0,0.0
1518,379.25,39.2557,40.6124,135.323,104.262,109.428,0.00183668,0.0969297,20.9339,577.893,-0.437385,0.0,0.0
1540,384.75,37.8891,39.661,137,104.289,109.586,0.00130373,0.071882,20.9631,577.873,-0.448193,0.0,0.0
1562,390.25,36.6369,38.8352,136.13,104.306,109.768,0.000992856,0.0611371,20.9748,577.863,-0.461634,0.0,0.0
1584,395.75,35.2008,37.9666,135.579,104.335,109.042,0.000836021,0.0540199,20.9826,577.883,-0.39907,0.0,0.0
1606,401.25,33.1443,35.6899,134.069,104.361,110.013,0.000535937,0.0516182,20.9865,577.853,-0.477074,0.0,0.0
1628,406.75,32.511,35.1007,133.279,104.372,110.209,0.000245632,0.0502061,20.9889,577.833,-0.49223,0.0,0.0
1650,412.25,32.2065,34.2568,133.797,104.423,110.084,0.000398956,0.0490864,20.9887,577.863,-0.477586,0.0,0.0
1672,417.75,31.1326,34.4209,137.705,104.442,110.594,0.000298967,0.04851,20.9886,577.853,-0.517749,0.0,0.0
1694,423.25,30.4776,33.5641,137.1,104.474,109.739,0.000611531,0.0482281,20.9892,577.823,-0.44479,0.0,0.0
1716,428.75,30.5023,32.9245,137.009,104.488,110.602,0.000665483,0.0481212,20.9913,577.813,-0.514406,0.0,0.0
1738,434.25,30.2195,32.7028,134.13,104.499,110.74,0.000483383,0.0479858,20.991,577.803,-0.524761,0.0,0.0
1760,439.75,30.3022,32.019,135.937,104.557,109.952,0.000145991,0.0478862,20.9909,577.783,-0.455038,0.0,0.0
1782,445.25,29.2906,31.7895,134.685,104.612,110.887,0.000223128,0.0478536,20.9891,577.773,-0.526938,0.0,0.0
1804,450.75,29.7639,31.5936,134.07,104.667,110.455,0.00032242,0.0476231,20.9879,577.783,-0.486825,0.0,0.0
1826,456.25,28.4986,31.3791,133.692,104.72,110.192,0.00051813,0.0475505,20.9889,577.763,-0.460797,0.0,0.0
1848,461.75,29.2957,30.6374,135.834,104.791,110.965,0.000512791,0.0474727,20.9893,577.763,-0.517836,0.0,0.0
1870,467.25,29.4617,30.7729,135.775,104.862,110.845,0.000472613,0.0474949,20.9914,577.743,-0.501946,0.0,0.0
1892,472.75,29.2468,30.3298,138.618,104.934,111.319,0.000269672,0.0475229,20.9926,577.723,-0.534288,0.0,0.0
1914,478.25,28.963,30.078,135.362,105.039,111.2,0.000440947,0.0472825,20.9939,577.743,-0.515637,0.0,0.0
1936,483.75,28.7659,30.1187,137.371,105.152,111.844,0.00028877,0.0475773,20.9918,577.733,-0.558134,0.0,0.0
1958,489.25,29.051,30.3808,133.806,105.244,111.364,0.000469328,0.0473162,20.9922,-451.033,-0.511329,0.0,0.0
1980,494.75,28.5652,30.5255,140.123,105.326,111.647,0.000397454,0.0489183,20.989,-451.023,-0.527181,0.0,0.0
2002,500.25,28.0687,29.9133,139.239,105.385,111.673,-1.10556e-05,0.0492225,20.9891,-450.993,-0.524215,0.0,0.0
2024,505.75,27.9343,29.9698,139.305,105.432,111.245,,0.0476113,,-450.983,-0.485451,0.0,0.0
2046,511.25,28.2845,29.582,136.409,105.433,111.699,,,,-451.003,-0.522228,0.0,0.0
2063,515.5,28.1651,29.1658,135.188,105.452,110.821,,,,-450.993,-0.449219,0.0,0.0