File: 01_Data/Polyester_Bed_Skirt/Cone/Polyester_Bed_Skirt_Cone_HF50Scan_220523_R1.csv
Names,Time,Stack TC,Smoke TC,Exh Press,Smoke Comp,Smoke Meas,CO Meter,CO2 Meter,O2 Meter,Sample Mass,Ext Coeff,Start Test,Flame Verif
Chan Gain,,500,500,1,1,1,1,1,1,1,1,1.0,1.0
Offset,,0,0,0.139323,0,0,0,0,0,0,0,0.0,0.0
Gain,,1,1,25.011,13.8491,15.2622,1,1,1,1.00087,1.03118,1.0,1.0
Units,sec,C,C,Pa,%,%,%,%,%,g,/m,,
Baseline,,32.2526,33.4451,140.06,104.283,106.133,0.000580912,0.0482002,20.9985,-449.21,-0.159064,,
10,2.25,28.3857,29.7571,140.672,105.146,106.441,0.00049137,0.0540127,20.9936,616.597,-0.110735,0.0,0.0
20,4.75,28.7031,29.5972,138.266,105.149,107.152,0.000587465,0.0525111,20.997,616.547,-0.170647,0.0,0.0
30,7.25,29.0103,29.9086,137.521,105.166,106.886,0.000497077,0.050993,20.9994,616.527,-0.146751,0.0,0.0
40,9.75,29.1084,30.1409,141.292,105.172,107.187,0.00046561,0.0497669,21.0011,616.527,-0.171672,0.0,0.0
50,12.25,28.8699,30.3508,141.364,105.186,107.2,0.000531159,0.0494055,21.0017,616.517,-0.171573,0.0,0.0
60,14.75,29.2314,30.5353,142.096,105.18,106.712,0.000529894,0.0493186,21.0019,616.537,-0.1308,0.0,0.0
70,17.25,29.6855,30.4988,139.159,105.19,106.892,0.000373869,0.0487311,21.002,616.497,-0.145192,0.0,0.0
80,19.75,29.9244,30.1568,139.528,105.177,106.794,0.000297742,0.0478478,21.0026,616.507,-0.137998,0.0,0.0
90,22.25,30.0276,30.5858,138.981,105.188,107.645,0.000444849,0.0472801,21.0037,616.497,-0.208843,0.0,0.0
100,24.75,30.2477,30.8737,136.858,105.163,107.806,0.000712726,0.0466149,21.0047,616.437,-0.224522,0.0,0.0
110,27.25,30.0987,30.6328,137.553,105.192,106.634,0.000782959,0.0460953,21.0057,616.467,-0.123148,0.0,0.0
120,29.75,30.657,31.1093,136.866,105.154,106.634,0.00072074,0.0458996,21.0061,616.477,-0.126419,0.0,0.0
130,32.25,30.0434,31.4369,135.976,105.158,107.299,0.000751755,0.0462467,21.0062,616.447,-0.1823,0.0,0.0
140,34.75,29.8837,31.3785,143.165,105.136,106.765,0.000764894,0.0464103,21.0051,616.457,-0.139078,0.0,0.0
150,37.25,30.7178,31.0798,139.856,105.124,106.509,0.000895752,0.0464447,21.0051,616.467,-0.118403,0.0,0.0
160,39.75,30.8942,31.752,138.062,105.107,105.929,0.00100206,0.0464443,21.0056,616.437,-0.0705155,0.0,0.0
170,42.25,30.8778,31.2683,139.803,105.091,105.466,0.001121,0.0469798,21.0028,616.417,-0.032241,0.0,0.0
180,44.75,30.8178,31.6787,137.327,105.087,104.428,0.00148967,0.0551219,20.9878,616.387,0.0568782,0.0,1.0
190,47.25,31.1634,31.4709,133.861,105.065,98.9801,0.00280727,0.087592,20.9415,616.297,0.539647,0.0,1.0
200,49.75,31.0554,31.0855,131.316,105.051,89.3346,0.00615822,0.163406,20.8264,616.096,1.46592,0.0,1.0
210,52.25,31.9187,31.5471,122.457,105.026,77.0063,0.0136241,0.322514,20.6149,615.646,2.80704,0.0,1.0
220,54.75,37.0557,35.3452,109.808,105.01,64.0506,0.0231974,0.591453,20.2849,614.955,4.47189,0.0,0.0
230,57.25,42.7137,38.6124,115.865,104.988,70.4097,0.0279614,0.795432,20.1049,614.365,3.61385,0.0,0.0
240,59.75,47.1749,42.8138,123.277,104.984,78.0761,0.0257218,0.783601,20.1717,613.944,2.67856,0.0,0.0
250,62.25,48.5427,45.3928,128.037,104.952,87.0007,0.0194461,0.660097,20.3537,613.734,1.69686,0.0,0.0
260,64.75,49.5166,46.3768,132.862,104.939,96.7202,0.0135521,0.51612,20.514,613.554,0.737679,0.0,0.0
270,67.25,48.9122,46.9931,137.137,104.914,102.09,0.00909245,0.401248,20.6433,613.454,0.246894,0.0,0.0
280,69.75,48.5383,47.0305,132.222,104.885,103.411,0.00681774,0.318571,20.7364,613.394,0.127974,0.0,0.0
290,72.25,47.5644,47.077,136.958,104.87,106.314,0.00599555,0.259208,20.787,613.334,-0.123696,0.0,0.0
300,74.75,46.9435,46.6298,135.912,104.839,106.027,0.00595231,0.216231,20.8272,613.264,-0.101914,0.0,0.0
310,77.25,46.3831,46.2819,132.52,104.802,106.629,0.00654996,0.186707,20.8624,613.194,-0.156323,0.0,0.0
320,79.75,45.7703,46.1363,136.015,104.783,107.097,0.00735115,0.164139,20.8837,613.154,-0.197581,0.0,0.0
330,82.25,44.9215,45.7611,136.615,104.789,106.779,0.00786647,0.145646,20.9006,613.094,-0.170128,0.0,0.0
340,84.75,44.4112,45.7141,138.17,104.75,106.992,0.00817779,0.130753,20.9158,613.094,-0.191575,0.0,0.0
350,87.25,43.5228,45.26,141.499,104.747,106.783,0.00873165,0.119099,20.9266,613.014,-0.174168,0.0,0.0
360,89.75,42.8628,44.9493,137.402,104.732,107.358,0.00927876,0.110386,20.9322,613.044,-0.224005,0.0,0.0
370,92.25,42.6762,44.574,140.368,104.743,107.032,0.00957595,0.103653,20.9375,613.004,-0.195505,0.0,0.0
380,94.75,41.8017,44.1629,134.505,104.718,107.749,0.0100879,0.0986369,20.9424,612.994,-0.258036,0.0,0.0
390,97.25,41.2721,43.77,138.552,104.725,107.003,0.0105079,0.0938701,20.9475,612.954,-0.194634,0.0,0.0
400,99.75,40.6786,43.4463,136.648,104.718,106.537,0.0106056,0.0897471,20.951,612.924,-0.155759,0.0,0.0
410,102.25,40.439,43.0596,137.013,104.72,107.41,0.010688,0.0860839,20.9539,612.823,-0.229383,0.0,0.0
420,104.75,39.8761,42.8233,139.504,104.707,106.539,0.0108765,0.0827296,20.9572,612.844,-0.156863,0.0,0.0
430,107.25,40.1859,42.6952,136.815,104.714,107.27,0.0109358,0.0794983,20.9602,612.833,-0.218116,0.0,0.0
440,109.75,39.6885,41.8555,138.727,104.711,106.879,0.0106135,0.0765995,20.9642,612.823,-0.185359,0.0,0.0
450,112.25,39.3474,42.2706,131.897,104.709,106.512,0.0101237,0.0739601,20.9668,612.753,-0.15439,0.0,0.0
460,114.75,38.8738,41.6862,139.816,104.716,106.008,0.00974724,0.0720149,20.9689,612.753,-0.110866,0.0,0.0
470,117.25,36.9413,39.9178,136.313,104.728,106.233,0.00941996,0.0696201,20.9709,612.713,-0.129019,0.0,0.0
480,119.75,36.5387,39.4549,139.868,104.741,107.056,0.00909511,0.0676169,20.9729,612.733,-0.197734,0.0,0.0
490,122.25,36.4563,39.1513,140.426,104.748,106.426,0.00870816,0.0661475,20.9755,612.643,-0.143751,0.0,0.0
500,124.75,35.6811,38.6231,137.471,104.767,106.477,0.00813839,0.0647288,20.9773,612.603,-0.146422,0.0,0.0
510,127.25,35.7197,38.654,137.523,104.762,106.863,0.00762016,0.0636289,20.9779,612.563,-0.179603,0.0,0.0
520,129.75,35.4587,38.6198,139.57,104.781,106.826,0.00710216,0.0628146,20.9782,612.563,-0.174806,0.0,0.0
530,132.25,35.3304,38.0535,140.806,104.771,106.913,0.00645573,0.0618664,20.9795,612.513,-0.183014,0.0,0.0
540,134.75,35.3378,37.6481,138.585,104.783,106.646,0.00591878,0.0610451,20.981,612.493,-0.159387,0.0,0.0
550,137.25,34.9902,38.2587,137.651,104.778,106.948,0.00546442,0.0602671,20.9832,612.453,-0.185385,0.0,0.0
560,139.75,35.221,37.756,140.838,104.792,107.301,0.00518826,0.0594059,20.9847,612.513,-0.213995,0.0,0.0
570,142.25,34.911,37.6501,141.459,104.766,106.649,0.00494832,0.0588602,20.9854,612.393,-0.161196,0.0,0.0
580,144.75,35.6151,37.7348,139.979,104.771,107.673,0.00482904,0.0581571,20.9868,612.353,-0.247137,0.0,0.0
590,147.25,35.0317,36.97,136.233,104.756,106.103,0.00471354,0.0575997,20.9877,612.373,-0.115502,0.0,0.0
600,149.75,34.5192,37.2355,137.665,104.759,107.529,0.00457387,0.0571192,20.988,612.313,-0.23602,0.0,0.0
610,152.25,34.3714,36.5699,138.163,104.769,107.052,0.0043976,0.0571352,20.9881,612.353,-0.194935,0.0,0.0
620,154.75,34.4937,36.5872,136.363,104.768,107.379,0.00420494,0.0567226,20.9881,612.353,-0.222669,0.0,0.0
630,157.25,34.8753,36.6745,134.778,104.752,106.874,0.00411719,0.0563767,20.9892,612.323,-0.181385,0.0,0.0
640,159.75,34.226,36.4262,140.648,104.754,105.713,0.0039126,0.0560589,20.99,612.333,-0.082464,0.0,0.0
650,162.25,34.3876,36.8017,143.054,104.756,106.961,0.00356974,0.0556397,20.9902,612.323,-0.188422,0.0,0.0
660,164.75,34.1784,36.5031,141.707,104.741,106.527,0.00329485,0.055229,20.9899,612.273,-0.152993,0.0,0.0
670,167.25,33.4667,36.5692,139.033,104.74,106.555,0.00330402,0.054987,20.9898,612.223,-0.155402,0.0,0.0
680,169.75,33.9614,36.1051,137.602,104.72,107.356,0.00335964,0.054902,20.9898,612.203,-0.224792,0.0,0.0
690,172.25,33.652,35.8639,139.115,104.712,106.573,0.00325356,0.0548723,20.9898,612.243,-0.159348,0.0,0.0
700,174.75,34.0095,35.699,139.066,104.707,107.198,0.00306473,0.0546419,20.9898,612.193,-0.212611,0.0,0.0
710,177.25,33.5364,36.1142,140.484,104.691,107.042,0.00307516,0.0543492,20.9898,612.193,-0.200861,0.0,0.0
720,179.75,33.7005,35.9962,139.399,104.696,105.406,0.00306724,0.0542884,20.9898,612.023,-0.061164,0.0,0.0
730,182.25,33.6716,35.5746,137.291,104.701,106.159,0.0029694,0.0543617,20.9906,612.083,-0.125088,0.0,0.0
740,184.75,33.6554,35.521,140.973,104.696,106.271,0.00303797,0.0540143,20.9916,612.103,-0.135048,0.0,0.0
750,187.25,33.7644,35.6927,138.355,104.716,106.27,0.00301385,0.053859,20.993,612.143,-0.133253,0.0,0.0
760,189.75,33.1908,35.024,139.426,104.708,106.993,0.00302332,0.0535766,20.9941,612.073,-0.195304,0.0,0.0
770,192.25,33.431,35.5323,138.202,104.709,105.89,0.00313252,0.0533389,20.9946,612.083,-0.101389,0.0,0.0
780,194.75,33.4961,35.5824,135.08,104.714,106.171,0.00305205,0.0531303,20.9948,612.083,-0.124948,0.0,0.0
790,197.25,33.0126,35.4731,134.832,104.71,106.772,0.00286718,0.0531026,20.9949,612.083,-0.176398,0.0,0.0
800,199.75,32.8704,35.5141,139.213,104.729,106.664,0.00287245,0.0530942,20.9954,612.023,-0.165672,0.0,0.0
810,202.25,33.3716,35.3995,132.565,104.699,106.441,0.00312021,0.0531141,20.9946,612.033,-0.149248,0.0,0.0
820,204.75,33.3795,34.8165,138.408,104.711,106.17,0.00304543,0.053007,20.9942,611.983,-0.12516,0.0,0.0
830,207.25,33.1746,35.1774,136.924,104.686,106.45,0.00282108,0.0527862,20.9941,611.923,-0.151096,0.0,0.0
840,209.75,32.8486,34.7228,143.811,104.708,106.461,0.00277785,0.0526708,20.9951,611.983,-0.150187,0.0,0.0
850,212.25,32.597,34.6278,139.155,104.688,105.96,0.00281281,0.0522776,20.9959,611.923,-0.109257,0.0,0.0
860,214.75,32.8917,35.0344,137.405,104.705,106.186,0.00281018,0.0521236,20.9962,611.853,-0.126984,0.0,0.0
870,217.25,32.7986,34.6265,141.49,104.673,106.54,0.00289696,0.0520274,20.9976,611.833,-0.159979,0.0,0.0
880,219.75,32.8409,34.8847,141.535,104.679,105.724,0.00288213,0.0518026,20.9983,611.823,-0.0898459,0.0,0.0
890,222.25,32.9423,34.7129,140.367,104.661,106.576,0.00273533,0.0515391,20.9983,611.763,-0.16401,0.0,0.0
900,224.75,32.174,34.0674,141.917,104.657,105.856,,0.0513476,,611.803,-0.103016,0.0,0.0
910,227.25,33.1679,34.6157,137.856,104.649,106.295,,0.0512997,,611.783,-0.141084,0.0,0.0
920,229.75,32.6089,34.6816,139.362,104.639,106.456,,,,611.753,-0.155741,0.0,0.0
930,232.25,32.7498,34.779,143.3,104.638,106.311,,,,611.743,-0.143422,0.0,0.0
940,234.75,32.4954,34.3884,138.672,104.628,106.34,,,,611.823,-0.146755,0.0,0.0
942,235.25,32.8873,34.5349,141.948,104.639,107.389,,,,611.773,-0.23459,0.0,0.0