File: 01_Data/Polyester_Bed_Skirt/Cone/Polyester_Bed_Skirt_Cone_HF50Scan_220523_R3.csv
Names,Time,Stack TC,Smoke TC,Exh Press,Smoke Comp,Smoke Meas,CO Meter,CO2 Meter,O2 Meter,Sample Mass,Ext Coeff,Start Test,Flame Verif
Chan Gain,,500,500,1,1,1,1,1,1,1,1,1.0,1.0
Offset,,0,0,0.139323,0,0,0,0,0,0,0,0.0,0.0
Gain,,1,1,25.011,13.8491,15.2622,1,1,1,1.00087,1.03118,1.0,1.0
Units,sec,C,C,Pa,%,%,%,%,%,g,/m,,
Baseline,,35.5144,36.6933,138.216,104.637,106.34,0.000514636,0.0453184,21.0018,-449.711,-0.145938,,
10,2.25,32.2682,33.5774,139.766,105.379,106.407,0.000469938,0.0483586,20.9975,601.293,-0.0878728,0.0,0.0
20,4.75,32.0958,33.8343,140.652,105.388,106.608,0.000519603,0.0485437,20.9979,601.313,-0.104127,0.0,0.0
30,7.25,32.1948,33.6395,138.991,105.395,107.145,0.000459932,0.0492156,20.9975,601.384,-0.148919,0.0,0.0
40,9.75,32.9284,33.8905,135.586,105.408,107.303,0.000365305,0.0492041,20.9979,601.364,-0.161194,0.0,0.0
50,12.25,32.593,34.0237,135.77,105.43,106.969,0.000333276,0.0482774,20.9988,601.323,-0.131148,0.0,0.0
60,14.75,33.0332,34.7461,138.522,105.433,106.882,0.000445912,0.0471779,21.0013,601.364,-0.123454,0.0,0.0
70,17.25,33.1241,34.3826,140.334,105.431,107.501,0.000614424,0.0463134,21.0022,601.364,-0.17587,0.0,0.0
80,19.75,32.9461,34.074,135.317,105.447,107.273,0.000609015,0.0457696,21.0025,601.373,-0.155304,0.0,0.0
90,22.25,33.3011,34.5895,139.353,105.439,107.112,0.000464376,0.0453129,21.003,601.313,-0.142358,0.0,0.0
100,24.75,33.276,34.2155,137.59,105.444,107.26,0.000506734,0.0448825,21.0033,601.323,-0.15442,0.0,0.0
110,27.25,33.2794,34.7108,137.641,105.419,106.889,0.000555541,0.0446314,21.0034,601.373,-0.125277,0.0,0.0
120,29.75,33.3367,34.5229,136.963,105.442,106.881,0.000436284,0.0444212,21.0035,601.394,-0.122574,0.0,0.0
130,32.25,33.5694,34.7298,140.04,105.436,107.417,0.000441971,0.0446849,21.0029,601.364,-0.168338,0.0,0.0
140,34.75,33.6576,34.7532,135.511,105.453,105.999,0.000656815,0.0459268,21,601.364,-0.0466999,0.0,0.0
150,37.25,33.9505,34.8293,137.183,105.427,106.567,0.00106347,0.055493,20.9816,601.293,-0.0972334,0.0,0.0
160,39.75,34.1076,35.06,131.784,105.43,96.0067,0.00297298,0.0951921,20.9276,601.183,0.846894,0.0,1.0
170,42.25,35.053,35.5581,124.591,105.411,83.7603,0.00835058,0.22072,20.7629,600.863,2.07959,0.0,1.0
180,44.75,36.0597,35.2433,116.818,105.433,79.3072,0.0154502,0.448313,20.5078,600.433,2.57568,0.0,0.0
190,47.25,40.2516,37.9705,114.615,105.413,73.3924,0.02128,0.627806,20.3317,599.882,3.27507,0.0,0.0
200,49.75,43.909,40.7812,122.611,105.423,78.4846,0.0239328,0.711225,20.2536,599.452,2.66911,0.0,0.0
210,52.25,46.6689,43.617,123.621,105.419,81.4404,0.0224688,0.678837,20.2887,599.052,2.33436,0.0,0.0
220,54.75,48.1788,45.7212,128.783,105.414,84.7585,0.0178547,0.589238,20.3988,598.861,1.97269,0.0,0.0
230,57.25,48.8922,46.4807,129.181,105.422,93.2913,0.0132848,0.472449,20.5219,598.631,1.1058,0.0,0.0
240,59.75,48.4996,47.297,129.486,105.405,101.204,0.00923729,0.385303,20.6297,598.511,0.367899,0.0,0.0
250,62.25,48.6062,47.466,132.317,105.399,104.233,0.00675079,0.308978,20.7174,598.331,0.100607,0.0,0.0
260,64.75,48.0908,47.5577,133.254,105.392,106.663,0.00561717,0.249881,20.7868,598.341,-0.108427,0.0,0.0
270,67.25,47.6017,47.8259,135.602,105.395,106.882,0.00559915,0.206762,20.8267,598.351,-0.126714,0.0,0.0
280,69.75,46.517,47.1945,137.798,105.364,107.608,0.00611007,0.176564,20.8575,598.141,-0.190647,0.0,0.0
290,72.25,45.8785,46.8522,136.429,105.376,107.589,0.00678234,0.151537,20.886,598.131,-0.188025,0.0,0.0
300,74.75,45.6311,46.7491,135.362,105.343,107.148,0.00767903,0.133734,20.9023,598.091,-0.153693,0.0,0.0
310,77.25,44.6235,46.0473,139.478,105.335,107.256,0.00822864,0.119053,20.9187,598.081,-0.163428,0.0,0.0
320,79.75,44.4924,45.6934,135.267,105.268,107.519,0.00846133,0.108184,20.9302,598.051,-0.191442,0.0,0.0
330,82.25,43.2446,45.5599,136.769,105.216,108.113,0.00875587,0.100695,20.9374,598.031,-0.245694,0.0,0.0
340,84.75,43.1062,45.2657,138.212,105.12,106.906,0.00910264,0.0950095,20.9443,598.001,-0.152373,0.0,0.0
350,87.25,42.2201,44.8919,133.816,105.037,107.034,0.00920608,0.0900388,20.9487,597.991,-0.170371,0.0,0.0
360,89.75,42.4386,44.8821,136.586,104.914,107.425,0.00913385,0.0852344,20.9532,597.911,-0.213969,0.0,0.0
370,92.25,41.7094,44.1695,134.691,104.772,107.63,0.00908582,0.0811731,20.9568,597.971,-0.243501,0.0,0.0
380,94.75,41.2556,43.8895,137.14,104.619,107.34,0.00904787,0.0770772,20.961,597.93,-0.232262,0.0,0.0
390,97.25,41.0029,43.4318,139.597,104.45,106.168,0.0089356,0.0733215,20.9655,597.86,-0.14756,0.0,0.0
400,99.75,40.4312,43.3413,138.07,104.469,106.096,0.00878685,0.0702433,20.9694,597.87,-0.139797,0.0,0.0
410,102.25,40.1025,43.0134,135.428,104.515,106.763,0.00864333,0.0681949,20.9717,597.901,-0.192458,0.0,0.0
420,104.75,39.9557,42.6285,136.518,104.582,107.121,0.00837183,0.066506,20.9743,597.83,-0.216936,0.0,0.0
430,107.25,39.4983,42.387,136.457,104.629,106.06,0.00801293,0.0647579,20.9761,597.73,-0.122917,0.0,0.0
440,109.75,39.6069,41.6372,139.114,104.694,106.249,0.00759508,0.0625153,20.979,597.78,-0.133404,0.0,0.0
450,112.25,37.0769,40.2695,134.68,104.732,106.087,0.00733948,0.0599072,20.9807,597.8,-0.116308,0.0,0.0
460,114.75,36.5904,39.7723,139.817,104.794,106.538,0.00705473,0.0580263,20.9832,597.74,-0.149269,0.0,0.0
470,117.25,38.1303,41.5347,135.959,104.82,106.186,0.00665429,0.0566386,20.9851,597.72,-0.117138,0.0,0.0
480,119.75,37.7963,41.1091,139.816,104.882,106.444,0.00616349,0.0555725,20.9861,597.7,-0.133768,0.0,0.0
490,122.25,37.8238,41.0544,136.457,104.893,106.309,0.00559266,0.0547487,20.9876,597.64,-0.12126,0.0,0.0
500,124.75,37.9292,40.6412,132.671,104.942,106.954,0.00513938,0.0541661,20.9893,597.74,-0.171755,0.0,0.0
510,127.25,37.8027,40.3387,138.342,104.939,106.213,0.00476584,0.053659,20.9902,597.73,-0.109159,0.0,0.0
520,129.75,37.4917,40.4425,140.626,104.961,107.158,0.00445455,0.0529341,20.9913,597.68,-0.187465,0.0,0.0
530,132.25,36.9,40.1171,136.424,104.976,106.542,0.00415628,0.0526143,20.9924,597.69,-0.133948,0.0,0.0
540,134.75,36.9707,40.1757,139.023,104.991,106.142,0.00390866,0.0522091,20.9927,597.71,-0.0985692,0.0,0.0
550,137.25,37.1544,40.0658,136.801,105.003,106.411,0.00371731,0.0518806,20.9921,597.68,-0.120502,0.0,0.0
560,139.75,36.9251,40.0466,138.061,104.997,107.192,0.00364172,0.0516216,20.9922,597.68,-0.187162,0.0,0.0
570,142.25,36.7596,39.6752,136.016,104.996,107.417,0.00357809,0.0514772,20.9931,597.68,-0.206163,0.0,0.0
580,144.75,36.8477,39.2246,138.511,104.975,106.467,0.00323984,0.0514564,20.9934,597.65,-0.127616,0.0,0.0
590,147.25,36.7706,39.4801,134.154,104.99,106.145,0.00291321,0.0515317,20.9931,597.54,-0.0989917,0.0,0.0
600,149.75,36.737,38.7193,136.886,104.951,106.84,0.00275707,0.0514789,20.9929,597.53,-0.161333,0.0,0.0
610,152.25,36.1678,38.9896,137.253,104.966,106.567,0.00279538,0.0513921,20.9921,597.59,-0.136997,0.0,0.0
620,154.75,36.497,39.2565,137.928,104.929,106.493,0.00286978,0.0511685,20.9921,597.58,-0.133878,0.0,0.0
630,157.25,36.7257,39.2691,138.148,104.917,106.831,0.00278414,0.0508994,20.9926,597.57,-0.163572,0.0,0.0
640,159.75,36.8152,38.682,136.564,104.87,106.695,0.00273842,0.0504941,20.9932,597.56,-0.156055,0.0,0.0
650,162.25,35.9625,38.8178,137.251,104.851,106.33,0.00283083,0.0500627,20.9945,597.61,-0.126687,0.0,0.0
660,164.75,36.2242,38.7166,138.671,104.821,106.24,0.00278649,0.0497267,20.995,597.6,-0.12155,0.0,0.0
670,167.25,36.0426,38.3302,139.162,104.79,106.385,0.00265388,0.0495477,20.9951,597.58,-0.136654,0.0,0.0
680,169.75,36.0434,38.2607,139.802,104.761,105.638,0.00250563,0.0495254,20.9952,597.56,-0.0754615,0.0,0.0
690,172.25,35.8595,38.4679,134.448,104.721,106.495,0.00235423,0.0493759,20.9962,597.55,-0.151943,0.0,0.0
700,174.75,35.9165,37.8477,142.928,104.694,107.127,0.00235051,0.0492648,20.9971,597.44,-0.207842,0.0,0.0
710,177.25,35.8834,37.6201,136.238,104.674,106.826,0.00260931,0.0492222,20.9974,597.41,-0.184041,0.0,0.0
720,179.75,35.8558,37.4397,135.99,104.629,105.864,0.00274809,0.0491805,20.9975,597.39,-0.106177,0.0,0.0
730,182.25,35.467,37.8291,135.8,104.585,106.444,0.00257693,0.0491883,20.9975,597.4,-0.159429,0.0,0.0
740,184.75,35.1415,37.5419,134.364,104.56,106.813,0.00234963,0.049153,20.9973,597.44,-0.192803,0.0,0.0
750,187.25,35.327,37.2308,137.601,104.521,107.17,0.0024325,0.0494038,20.997,597.47,-0.226443,0.0,0.0
760,189.75,35.2159,37.5187,135.199,104.507,106.454,0.00260531,0.0496825,20.9966,597.38,-0.167026,0.0,0.0
770,192.25,35.4277,37.3839,137.305,104.471,106.328,0.00255531,0.0499901,20.9967,597.32,-0.159365,0.0,0.0
780,194.75,35.3508,37.6083,133.355,104.475,105.643,0.00243692,0.0501174,20.9967,597.39,-0.100567,0.0,0.0
790,197.25,35.257,37.188,134.854,104.585,106.097,0.00235521,0.0501417,20.9967,597.33,-0.129854,0.0,0.0
800,199.75,35.5009,37.5964,137.808,104.693,105.928,0.00222908,0.0501046,20.9967,597.39,-0.106078,0.0,0.0
810,202.25,35.4443,37.474,139.552,104.792,107.263,0.00221882,0.0499518,20.9967,597.4,-0.210774,0.0,0.0
820,204.75,35.5323,36.9293,136.371,104.871,106.624,0.00233603,0.0499769,20.9967,597.34,-0.149942,0.0,0.0
830,207.25,35.1427,36.7364,137.371,104.98,106.597,0.00246134,0.0500073,20.9971,597.34,-0.138213,0.0,0.0
840,209.75,35.5802,37.5138,136.109,105.017,106.538,0.00253759,0.0499907,20.9972,597.32,-0.130064,0.0,0.0
850,212.25,35.5751,37.2329,138.033,105.101,106.284,0.00255348,0.0500362,20.9959,597.33,-0.101281,0.0,0.0
860,214.75,35.205,37.0746,136.136,105.136,106.729,0.0025207,0.0499343,20.9953,597.31,-0.136003,0.0,0.0
870,217.25,35.3385,37.1076,138.772,105.205,106.863,0.00244346,0.0498176,20.9963,597.28,-0.141439,0.0,0.0
880,219.75,35.1262,36.78,135.011,105.241,107.309,,0.0495744,,597.24,-0.176041,0.0,0.0
890,222.25,35.4879,37.2506,136.252,105.284,106.261,,0.0493636,,597.22,-0.083562,0.0,0.0
900,224.75,35.1726,37.0513,135.825,105.285,106.463,,,,597.25,-0.100645,0.0,0.0
910,227.25,35.5511,37.2523,140.229,105.336,106.503,,,,597.22,-0.0996512,0.0,0.0
920,229.75,35.4827,36.9936,138.662,105.353,107.402,,,,597.19,-0.17423,0.0,0.0
923,230.5,35.4984,36.4364,136.728,105.366,106.214,,,,597.19,-0.072555,0.0,0.0