File: 01_Data/Nylon_Carpet_LowPile/Cone/Nylon_Carpet_Low_Pile_Cone_HF75Scalar_220318_R1.csv
LABORATORY,FSRI
TEST IDENT,NylonCarpetLP_HF75_1
OPERATOR,Dow
MATERIAL,Nylon Carpet - low pile
ORIENTATION,Horizontal
HEAT FLUX,75
SURF AREA,0.01
C FACTOR,0.0397524
SPEC HOLDER DIFF,-566
SPECIMEN MASS,26.35
SCAN TIME,0.25
O2 DELAY TIME,11
CO DELAY TIME,11
CO2 DELAY TIME,8
FLOW FACTOR,1
SCAN COUNT,1291
TIME TO IGN,19.5
END OF TEST SCAN,811
END OF TEST TIME,202.75
TEST STATUS,1
PRE TEST CMT,Dimensions: 102.31 x 98.93 x 14.15 mm; 60 mm spacing