File: 01_Data/Nylon_Carpet_LowPile/Cone/Nylon_Carpet_Low_Pile_Cone_HF50Scan_220318_R2.csv
Names,Time,Stack TC,Smoke TC,Exh Press,Smoke Comp,Smoke Meas,CO Meter,CO2 Meter,O2 Meter,Sample Mass,Ext Coeff,Start Test,Flame Verif
Chan Gain,,500,500,1,1,1,1,1,1,1,1,1.0,1.0
Offset,,0,0,0.13495,0,0,0,0,0,0,0,0.0,0.0
Gain,,1,1,25.011,13.0212,13.19,1,1,1,1.0009,1.01015,1.0,1.0
Units,sec,C,C,Pa,%,%,%,%,%,g,/m,,
Baseline,,41.3257,42.5503,130.038,98.7981,92.9862,0.000408658,0.0421488,21.0245,-489.361,0.537264,,
18,4.25,40.6769,42.0073,126.751,98.6498,92.7663,0.000479081,0.0445745,21.0217,30.3573,0.544888,0.0,0.0
36,8.75,40.7882,41.6159,128.47,98.6065,93.7557,0.000467206,0.0459405,21.0203,30.3473,0.446989,0.0,0.0
54,13.25,40.767,41.8476,126.719,98.5564,92.66,0.000374627,0.0459409,21.021,30.2572,0.546652,0.0,0.0
72,17.75,41.1733,42.2862,130.651,98.5203,92.9056,0.000312612,0.0448272,21.0217,30.1971,0.519951,0.0,0.0
90,22.25,40.6208,42.3591,130.028,98.4492,92.7796,0.000436837,0.0435623,21.0238,30.1671,0.525575,0.0,0.0
108,26.75,40.8695,41.9158,128.165,98.4102,92.8279,0.000495111,0.042977,21.0239,30.077,0.517458,0.0,0.0
126,31.25,40.817,42.6858,129.929,98.353,92.3581,0.000706148,0.0428507,21.0239,30.087,0.557258,0.0,0.0
144,35.75,40.9499,42.5212,134.024,98.3435,92.2011,0.000898227,0.0425227,21.0239,29.9769,0.571473,0.0,0.0
162,40.25,40.7239,41.9949,130.621,98.4138,90.9835,0.000851907,0.0426897,21.0237,29.9169,0.695608,0.0,0.0
180,44.75,41.0594,42.3138,126.237,98.5799,90.2578,0.000557892,0.0427142,21.0219,29.8268,0.781517,0.0,0.0
198,49.25,41.399,42.8894,130.151,98.709,89.4024,0.000661537,0.042925,21.0214,29.7768,0.877493,0.0,0.0
216,53.75,41.5292,43.07,120.274,98.8223,91.9777,0.00118587,0.0610369,20.9907,29.6767,0.636009,0.0,1.0
234,58.25,43.322,44.9372,113.088,98.9232,92.7908,0.00227113,0.241645,20.6988,29.3664,0.567066,0.0,1.0
252,62.75,46.7335,49.0149,113.297,99.0011,91.632,0.00330412,0.386347,20.4845,29.0461,0.685402,0.0,0.0
270,67.25,51.0256,53.1544,102.413,99.0607,88.8755,0.00406477,0.482224,20.3283,28.5056,0.961385,0.0,0.0
288,71.75,55.5814,58.0272,107.377,99.0969,85.7764,0.00533452,0.587587,20.1864,28.0252,1.27911,0.0,0.0
306,76.25,59.926,63.2518,104.134,99.1422,85.6351,0.00735196,0.687646,20.0358,27.5047,1.29777,0.0,0.0
324,80.75,64.4066,69.2524,105.471,99.1609,85.7527,0.00812406,0.759905,19.9142,26.9843,1.28728,0.0,0.0
342,85.25,69.1466,73.9716,102.795,99.1764,83.2812,0.00875674,0.797338,19.8517,26.4037,1.54781,0.0,0.0
360,89.75,73.6052,78.5633,102.919,99.2038,82.0619,0.0101469,0.823082,19.8095,25.8332,1.68094,0.0,0.0
378,94.25,77.0214,83.2168,100.533,99.1974,82.1714,0.0112094,0.848966,19.7762,25.2227,1.66856,0.0,0.0
396,98.75,80.0825,87.5668,100.531,99.2193,79.4636,0.011736,0.877092,19.7284,24.6021,1.96743,0.0,0.0
414,103.25,84.412,91.51,103.293,99.1883,76.3348,0.0124834,0.917582,19.6683,23.9816,2.32061,0.0,0.0
432,107.75,86.8591,94.8833,99.5188,99.1744,77.4308,0.0129701,0.903555,19.6895,23.361,2.19304,0.0,0.0
450,112.25,89.0024,97.471,102.246,99.1322,77.2956,0.0126165,0.865704,19.7508,22.7805,2.20476,0.0,0.0
468,116.75,90.3835,99.2405,106.438,99.0774,76.9156,0.0120439,0.796494,19.842,22.26,2.24353,0.0,0.0
486,121.25,90.8703,100.84,107.043,99.0027,78.1216,0.0116831,0.737933,19.9377,21.7996,2.09899,0.0,0.0
504,125.75,91.2976,101.176,104.902,98.8958,75.2338,0.0107626,0.664357,20.0488,21.3392,2.42317,0.0,0.0
522,130.25,91.0517,100.799,107.178,98.7798,77.1024,0.00989479,0.625632,20.1088,20.9588,2.19538,0.0,0.0
540,134.75,91.1064,100.709,107.758,98.686,76.2675,0.00990009,0.590534,20.1658,20.5685,2.28343,0.0,0.0
558,139.25,90.7994,100.096,111.293,98.7436,77.1249,0.00923091,0.55658,20.2153,20.1281,2.18954,0.0,0.0
576,143.75,90.1846,99.7407,108.912,98.7941,75.8932,0.008805,0.526255,20.2631,19.8178,2.33673,0.0,0.0
594,148.25,89.3222,98.9398,111.36,98.8604,76.7413,0.0085002,0.496905,20.3094,19.4275,2.2442,0.0,0.0
612,152.75,88.4715,98.0416,113.578,98.9268,75.4927,0.00858789,0.486387,20.3249,19.1172,2.39551,0.0,0.0
630,157.25,89.0186,96.6599,110.047,99.0083,74.3559,0.00802942,0.46872,20.3532,18.8169,2.53724,0.0,0.0
648,161.75,87.2924,96.3302,112.894,99.0707,77.0581,0.00753157,0.44044,20.3959,18.5367,2.22652,0.0,0.0
666,166.25,85.7832,95.7263,112.433,99.1303,76.7095,0.00709703,0.428704,20.4161,18.2364,2.27203,0.0,0.0
684,170.75,85.9161,94.509,110.969,99.2046,79.8818,0.00673709,0.422623,20.4259,17.9361,1.9196,0.0,0.0
702,175.25,84.797,94.045,110.947,99.2682,79.1549,0.00645964,0.411317,20.4476,17.6659,2.00628,0.0,0.0
720,179.75,84.0413,93.1635,112.245,99.3429,81.2685,0.00630235,0.395524,20.4717,17.3856,1.77944,0.0,0.0
738,184.25,83.5812,92.1928,116.345,99.3913,81.5229,0.00619439,0.382242,20.4908,17.1054,1.75607,0.0,0.0
756,188.75,83.0516,90.2027,111.42,99.4374,80.703,0.00577641,0.371713,20.5087,16.8852,1.84975,0.0,0.0
774,193.25,81.4714,90.7794,109.212,99.4736,81.3039,0.00562255,0.361402,20.5274,16.6249,1.78723,0.0,0.0
792,197.75,81.757,89.398,112.806,99.4867,80.0372,0.00564009,0.354013,20.5382,16.3547,1.92755,0.0,0.0
810,202.25,80.768,88.9216,112.464,99.5113,81.2251,0.00530986,0.345872,20.5511,16.1345,1.7992,0.0,0.0
828,206.75,80.1978,87.7744,113.227,99.495,82.1187,0.00557905,0.339278,20.5596,15.8543,1.70079,0.0,0.0
846,211.25,79.3561,87.5483,115.219,99.4931,83.8407,0.00530018,0.335018,20.5698,15.6441,1.51673,0.0,0.0
864,215.75,79.1547,86.731,112.685,99.4358,82.2314,0.00495463,0.330473,20.5775,15.4139,1.68337,0.0,0.0
882,220.25,78.6447,86.1792,117.208,99.3643,83.5311,0.00468337,0.328609,20.5825,15.2037,1.53803,0.0,0.0
900,224.75,77.812,85.4423,114.507,99.2991,83.414,0.00446705,0.31721,20.5994,14.9935,1.54465,0.0,0.0
918,229.25,77.5436,84.7507,118.659,99.2153,82.295,0.00455018,0.306619,20.6168,14.7833,1.65684,0.0,0.0
936,233.75,77.0787,84.0987,117.188,99.104,83.0855,0.00465334,0.302251,20.6254,14.5431,1.56218,0.0,0.0
954,238.25,76.2595,83.2494,117.772,98.9689,83.703,0.00449755,0.299636,20.6302,14.3629,1.48448,0.0,0.0
972,242.75,75.5764,82.5102,115.256,98.8382,83.9425,0.0044901,0.295884,20.6349,14.1027,1.44745,0.0,0.0
990,247.25,75.13,82.4507,121.397,98.6689,84.1796,0.00442155,0.291267,20.6427,13.9325,1.40727,0.0,0.0
1008,251.75,75.2175,81.2573,117.695,98.5084,84.0757,0.00429364,0.286472,20.6531,13.7424,1.40378,0.0,0.0
1026,256.25,74.7114,81.0355,118.296,98.318,85.1292,0.00421023,0.276083,20.6657,13.5822,1.27631,0.0,0.0
1044,260.75,74.1984,80.2523,118.866,98.1527,84.2597,0.00379612,0.268058,20.6807,13.372,1.35237,0.0,0.0
1062,265.25,72.9312,80.1068,114.527,97.9973,85.0563,0.00382572,0.257217,20.6999,13.2519,1.25495,0.0,0.0
1080,269.75,73.1966,79.218,116.455,97.8658,84.8675,0.00366502,0.245398,20.718,13.0818,1.26274,0.0,0.0
1098,274.25,72.3738,77.1954,116.08,97.7661,84.5994,0.00333707,0.236014,20.7324,12.9617,1.28174,0.0,0.0
1116,278.75,70.6985,77.2549,117.089,97.6723,86.8463,0.00289769,0.227346,20.7456,12.8015,1.04096,0.0,0.0
1134,283.25,70.4169,76.7636,119.522,97.6369,86.6753,0.00264539,0.214842,20.7648,12.6514,1.05523,0.0,0.0
1152,287.75,70.3237,74.7833,117.366,97.5773,88.8497,0.00253318,0.198027,20.7923,12.5713,0.830261,0.0,0.0
1170,292.25,69.1284,74.2965,122.252,97.5908,89.9679,0.00236041,0.177366,20.829,12.4412,0.720662,0.0,0.0
1188,296.75,68.4511,72.7734,127.179,97.6047,90.4087,0.00216952,0.149169,20.873,12.4112,0.67862,0.0,0.0
1206,301.25,65.905,71.1759,125.376,97.6715,90.7215,0.00224079,0.110831,20.9283,12.3611,0.654079,0.0,0.0
1224,305.75,64.7144,69.3087,123.082,97.7577,91.9407,0.00182087,0.0847313,20.9686,12.3711,0.543604,0.0,0.0
1242,310.25,62.4378,66.8607,123.331,97.8547,91.4126,0.00137896,0.0754121,20.9859,12.3511,0.603433,0.0,0.0
1260,314.75,60.9578,64.8865,126.662,97.9862,91.4758,0.00130802,0.0695335,20.9942,12.291,0.609211,0.0,0.0
1278,319.25,60.1458,64.2462,127.446,98.0943,91.7765,0.00103884,0.0633355,21.0007,12.3011,0.589902,0.0,0.0
1296,323.75,58.6868,62.6057,126.676,98.2417,92.117,0.000854873,0.0572911,21.0058,12.271,0.570392,0.0,0.0
1314,328.25,58.0184,61.7222,127.968,98.3355,91.7551,0.000678286,0.0525473,21.0115,12.261,0.613724,0.0,0.0
1332,332.75,57.2946,59.9691,126.098,98.4571,92.3537,0.000515754,0.0494051,21.0151,12.271,0.567058,0.0,0.0
1350,337.25,56.0176,59.4363,125.057,98.5592,92.2611,0.00045241,0.0469573,21.0188,12.261,0.585131,0.0,0.0
1368,341.75,54.774,57.76,124.86,98.6419,92.7341,0.000328338,0.0451204,21.0203,12.3111,0.54725,0.0,0.0
1386,346.25,54.4993,58.0279,127.584,98.7186,92.0309,0.000343301,0.0437952,21.0224,12.3211,0.621586,0.0,0.0
1404,350.75,54.3266,56.9355,126.885,98.7571,92.2104,0.000348185,0.043075,21.0227,12.291,0.607777,0.0,0.0
1422,355.25,53.4333,56.1818,129.999,98.8139,92.3231,0.000523987,0.0427245,21.0227,12.251,0.602051,0.0,0.0
1440,359.75,52.9987,55.5211,124.038,98.8422,92.3473,0.000329153,0.0427831,21.0225,12.261,0.602262,0.0,0.0
1458,364.25,52.6787,54.8124,124.318,98.8533,92.6818,5.76621e-05,0.0426673,21.022,12.231,0.571221,0.0,0.0
1476,368.75,51.3462,53.5061,130.922,98.8322,92.3698,-3.15542e-05,0.0426473,21.0221,12.251,0.599209,0.0,0.0
1494,373.25,51.7449,53.6438,128.189,98.837,92.7172,0.000145021,0.0425693,21.0226,12.241,0.566375,0.0,0.0
1512,377.75,50.9272,53.2549,126.972,98.8076,93.1113,0.000123361,0.0426294,21.0227,12.201,0.526157,0.0,0.0
1530,382.25,50.7772,52.9472,126.366,98.7671,92.5614,0.000287067,0.0424632,21.0232,12.231,0.575004,0.0,0.0
1548,386.75,50.5833,52.3183,129.003,98.7365,92.8045,0.000424927,0.0423637,21.0233,12.271,0.549014,0.0,0.0
1566,391.25,49.9706,52.1772,126.891,98.6717,92.2736,0.000799391,0.0422536,21.0228,12.271,0.594037,0.0,0.0
1584,395.75,49.8691,51.8174,127.604,98.6276,92.2329,0.000475618,0.0421855,21.0237,12.251,0.59398,0.0,0.0
1602,400.25,49.4159,51.6409,126.733,98.566,92.5038,0.000427628,0.0422802,21.024,12.261,0.562458,0.0,0.0
1620,404.75,49.3191,50.6773,124.208,98.5461,92.1275,0.000464372,0.0421129,21.022,12.251,0.596796,0.0,0.0
1638,409.25,49.0239,50.9437,128.923,98.4901,92.243,,0.0422053,,12.241,0.580653,0.0,0.0
1656,413.75,48.9039,50.7279,127.929,98.4559,92.8549,,,,12.251,0.518998,0.0,0.0
1674,418.25,48.8286,50.3143,126.073,98.4186,92.4048,,,,12.261,0.558685,0.0,0.0
1681,420,48.9087,49.855,123.814,98.4027,91.8675,,,,12.251,0.608934,0.0,0.0