File: 01_Data/Nylon_Carpet_LowPile/Cone/Nylon_Carpet_Low_Pile_Cone_HF75Scan_220318_R1.csv
Names,Time,Stack TC,Smoke TC,Exh Press,Smoke Comp,Smoke Meas,CO Meter,CO2 Meter,O2 Meter,Sample Mass,Ext Coeff,Start Test,Flame Verif
Chan Gain,,500,500,1,1,1,1,1,1,1,1,1.0,1.0
Offset,,0,0,0.133174,0,0,0,0,0,0,0,0.0,0.0
Gain,,1,1,25.011,13.6925,14.0864,1,1,1,1.0009,1.00821,1.0,1.0
Units,sec,C,C,Pa,%,%,%,%,%,g,/m,,
Baseline,,50.4278,53.178,125.962,103.605,100.245,0.000226653,0.0514458,21.0091,-838.01,0.291687,,
14,3.25,48.7676,52.295,127.815,103.475,100.051,0.000175059,0.0543583,21.005,-314.473,0.297666,0.0,0.0
28,6.75,49.2227,51.9593,127.97,103.459,100.315,0.000237733,0.054681,21.0042,-314.513,0.272936,0.0,0.0
42,10.25,49.3348,52.3721,124.464,103.427,99.4415,8.91312e-05,0.0543954,21.0042,-314.543,0.347495,0.0,0.0
56,13.75,49.4279,52.1905,124.065,103.422,97.0561,0.000365643,0.0547981,21.0027,-314.633,0.561874,0.0,0.0
70,17.25,49.8067,52.8495,125.017,103.395,93.3389,0.00153585,0.0575423,20.9899,-314.723,0.904925,0.0,0.0
84,20.75,50.3458,53.2133,114.905,103.358,95.7668,0.0031774,0.137471,20.7681,-315.134,0.674668,0.0,1.0
98,24.25,53.6474,56.199,104.664,103.345,95.0988,0.00462272,0.402297,20.3242,-315.594,0.735468,0.0,1.0
112,27.75,57.3539,61.1768,100.539,103.31,91.9469,0.00581074,0.615661,20.0379,-316.064,1.03055,0.0,0.0
126,31.25,63.1048,67.2407,90.8329,103.287,92.9941,0.00656729,0.814424,19.73,-316.645,0.928355,0.0,0.0
140,34.75,69.3216,74.412,95.9476,103.207,94.5984,0.00706564,0.966573,19.5537,-317.286,0.770281,0.0,0.0
154,38.25,75.6451,81.8815,96.0018,103.161,95.021,0.00742109,1.02314,19.4998,-317.946,0.726888,0.0,0.0
168,41.75,80.4398,87.0892,90.5291,103.088,91.9194,0.00813146,1.04985,19.4337,-318.437,1.01418,0.0,0.0
182,45.25,85.4709,93.8745,92.4014,103.115,87.544,0.00991221,1.15194,19.2825,-319.077,1.44776,0.0,0.0
196,48.75,91.0323,100.724,83.2345,103.162,85.6586,0.0128012,1.34732,18.9324,-319.868,1.64436,0.0,0.0
210,52.25,98.5551,108.961,81.8484,103.183,82.909,0.0154535,1.55209,18.6714,-320.679,1.93469,0.0,0.0
224,55.75,103.962,116.577,81.4439,103.236,81.0188,0.0171917,1.61417,18.5986,-321.369,2.14323,0.0,0.0
238,59.25,109.403,122.7,87.1532,103.285,75.2098,0.0190971,1.59585,18.6445,-322.11,2.80537,0.0,0.0
252,62.75,113.431,127.705,94.46,103.339,75.0568,0.0210755,1.53635,18.7338,-322.821,2.828,0.0,0.0
266,66.25,116.668,131.869,88.4278,103.384,74.5895,0.0229704,1.48913,18.8221,-323.501,2.88709,0.0,0.0
280,69.75,118.909,134.533,93.2082,103.463,71.245,0.0235418,1.4248,18.9111,-324.102,3.29956,0.0,0.0
294,73.25,121.148,137.29,96.8406,103.515,69.4709,0.0230873,1.33403,19.0562,-324.672,3.52701,0.0,0.0
308,76.75,121.88,138.966,95.0752,103.574,71.6848,0.0215383,1.23059,19.2369,-325.203,3.25463,0.0,0.0
322,80.25,122.237,139.231,100.621,103.638,67.7982,0.0198982,1.08812,19.4478,-325.683,3.75304,0.0,0.0
336,83.75,121.757,138.269,107.856,103.718,68.9288,0.0177375,0.930188,19.6899,-326.083,3.61362,0.0,0.0
350,87.25,120.069,136.822,105.979,103.772,68.2036,0.0158694,0.796259,19.8753,-326.444,3.71179,0.0,0.0
364,90.75,118.896,134.751,102.175,103.837,74.0212,0.0143426,0.710076,19.9895,-326.824,2.9934,0.0,0.0
378,94.25,117.102,132.768,112.829,103.87,73.8884,0.0124803,0.639372,20.0998,-327.094,3.01209,0.0,0.0
392,97.75,115.482,131.193,107.573,103.884,74.7726,0.010973,0.584026,20.1853,-327.375,2.90809,0.0,0.0
406,101.25,113.21,128.463,106.646,103.907,75.9771,0.0098095,0.539639,20.2474,-327.665,2.76871,0.0,0.0
420,104.75,111.184,126.77,112.226,103.901,77.3369,0.0087689,0.502556,20.3206,-327.825,2.6113,0.0,0.0
434,108.25,109.631,125.113,110.412,103.932,79.7171,0.00830868,0.465598,20.3716,-328.105,2.34588,0.0,0.0
448,111.75,107.529,121.762,110.639,103.937,79.6475,0.00769336,0.444912,20.3992,-328.265,2.354,0.0,0.0
462,115.25,106.121,120.047,110.657,103.958,81.4431,0.0070676,0.424458,20.4385,-328.536,2.15865,0.0,0.0
476,118.75,104.46,117.862,110.303,103.948,83.0388,0.00666907,0.402534,20.4701,-328.706,1.98615,0.0,0.0
490,122.25,103.108,116.015,110.731,103.953,81.8038,0.00615381,0.386066,20.4975,-328.886,2.11914,0.0,0.0
504,125.75,101.156,113.714,113.591,103.947,82.477,0.00570173,0.370334,20.5194,-329.126,2.04612,0.0,0.0
518,129.25,100.053,112.504,118.109,103.964,85.0718,0.00542362,0.351913,20.551,-329.266,1.77367,0.0,0.0
532,132.75,98.4384,110.692,114.753,103.96,83.2473,0.00541255,0.338233,20.5695,-329.477,1.96504,0.0,0.0
546,136.25,97.3344,108.81,114.607,103.97,84.0534,0.00529815,0.330587,20.5778,-329.667,1.88068,0.0,0.0
560,139.75,95.9599,107.382,112.451,103.971,84.5159,0.00538337,0.330762,20.5781,-329.827,1.83225,0.0,0.0
574,143.25,94.6796,106.348,113.333,103.967,84.8792,0.00524623,0.32912,20.5817,-329.967,1.79396,0.0,0.0
588,146.75,93.5394,104.705,117.248,103.985,83.651,0.00519442,0.322898,20.5915,-330.107,1.92436,0.0,0.0
602,150.25,93.1842,103.602,114.633,103.967,85.3194,0.00510991,0.314607,20.6017,-330.347,1.74818,0.0,0.0
616,153.75,91.947,102.158,114.185,103.964,83.3875,0.00484747,0.31019,20.6085,-330.477,1.95052,0.0,0.0
630,157.25,91.1159,100.796,116.687,103.945,83.6084,0.00483569,0.307722,20.6132,-330.648,1.92552,0.0,0.0
644,160.75,90.2096,99.7607,113.269,103.921,85.2231,0.00483506,0.304619,20.6173,-330.808,1.75425,0.0,0.0
658,164.25,89.663,99.613,113.466,103.903,85.4995,0.00455494,0.300641,20.6258,-330.948,1.72412,0.0,0.0
672,167.75,89.2095,98.3557,113.987,103.869,86.9753,0.00430966,0.296912,20.6306,-331.108,1.56982,0.0,0.0
686,171.25,88.0192,97.232,112.719,103.831,85.2575,0.00433556,0.295259,20.6352,-331.248,1.743,0.0,0.0
700,174.75,87.7514,96.5416,116.439,103.792,87.1343,0.00403584,0.291336,20.6459,-331.418,1.54711,0.0,0.0
714,178.25,86.8368,95.4608,112.199,103.757,90.2239,0.00383393,0.286165,20.6544,-331.518,1.236,0.0,0.0
728,181.75,86.5088,94.9476,118.273,103.72,90.7909,0.00368338,0.280517,20.6671,-331.709,1.17743,0.0,0.0
742,185.25,85.7202,93.8903,115.813,103.679,91.6541,0.00355421,0.272174,20.6834,-331.829,1.09028,0.0,0.0
756,188.75,84.7434,93.1779,117.12,103.63,92.9653,0.00301208,0.257607,20.7107,-331.929,0.960458,0.0,0.0
770,192.25,84.3923,91.8206,120.5,103.593,95.1216,0.00255042,0.23722,20.7432,-332.039,0.754495,0.0,0.0
784,195.75,83.2181,91.3495,116.858,103.538,97.2976,0.00220768,0.210461,20.787,-332.109,0.549779,0.0,0.0
798,199.25,81.8525,89.6444,114.02,103.489,99.1685,0.00202332,0.173939,20.8501,-332.169,0.377129,0.0,0.0
812,202.75,80.3711,87.9594,120.999,103.467,99.5085,0.00212178,0.137629,20.9117,-332.189,0.345035,0.0,0.0
826,206.25,77.9244,85.6899,125.568,103.404,99.3409,0.00202563,0.110447,20.9466,-332.209,0.354517,0.0,0.0
840,209.75,77.0217,83.9742,123.79,103.38,99.0898,0.00196537,0.0961835,20.964,-332.209,0.374858,0.0,0.0
854,213.25,75.4835,82.1104,124.044,103.332,98.9058,0.00168461,0.0889229,20.9743,-332.209,0.387183,0.0,0.0
868,216.75,73.795,80.3946,128.512,103.299,98.5447,0.00132832,0.0836302,20.9795,-332.209,0.41674,0.0,0.0
882,220.25,73.1802,79.0915,120.811,103.234,98.9806,0.00089166,0.0794131,20.9814,-332.169,0.372124,0.0,0.0
896,223.75,71.6886,77.9004,122.525,103.176,99.2373,0.000409242,0.0746912,20.9864,-332.229,0.344246,0.0,0.0
910,227.25,71.1935,76.5488,120.602,103.101,98.7292,0.000183214,0.0700477,20.9911,-332.249,0.38316,0.0,0.0
924,230.75,70.0732,75.5005,123.547,103.029,98.715,0.000209803,0.0658576,20.9945,-332.259,0.378299,0.0,0.0
938,234.25,69.3671,74.4912,123.392,102.941,98.8164,0.000254005,0.0627783,20.9973,-332.319,0.361643,0.0,0.0
952,237.75,67.9327,73.569,127.184,102.87,98.5482,0.000170937,0.0613913,20.9979,-332.339,0.379579,0.0,0.0
966,241.25,67.9155,73.1809,126.365,102.782,98.623,0.0001666,0.0603639,21.0008,-332.289,0.365285,0.0,0.0
980,244.75,66.7961,72.2383,123.257,102.715,98.4334,0.000128059,0.0590728,21.0023,-332.319,0.376583,0.0,0.0
994,248.25,66.5001,70.8879,123.577,102.649,98.5589,6.95712e-05,0.0580411,21.0027,-332.229,0.359625,0.0,0.0
1008,251.75,66.1614,69.9158,119.272,102.593,98.7266,8.03838e-05,0.0571747,21.0035,-332.219,0.339769,0.0,0.0
1022,255.25,65.7402,69.3849,119.801,102.54,98.4975,-9.62233e-05,0.0565694,21.0048,-332.279,0.355706,0.0,0.0
1036,258.75,64.922,69.0984,123.313,102.525,98.9187,-6.81415e-05,0.0561648,21.0053,-332.239,0.316663,0.0,0.0
1050,262.25,64.4163,68.0457,121.454,102.516,98.1127,5.22981e-05,0.0558084,21.0058,-332.319,0.388228,0.0,0.0
1064,265.75,63.4674,67.8579,123.36,102.485,98.2907,1.41403e-05,0.0555811,21.0058,-332.349,0.369606,0.0,0.0
1078,269.25,63.539,67.2016,121.445,102.468,98.6888,5.82154e-05,0.0552341,21.0056,-332.389,0.332381,0.0,0.0
1092,272.75,63.6034,66.4266,122.163,102.435,98.8762,8.90743e-05,0.0550688,21.005,-332.359,0.312715,0.0,0.0
1106,276.25,62.858,66.5903,122.916,102.422,99.0344,-8.7676e-05,0.0549307,21.0049,-332.379,0.297459,0.0,0.0
1120,279.75,61.8596,65.8731,123.346,102.375,98.0413,-9.29132e-05,0.0545403,21.0049,-332.359,0.382543,0.0,0.0
1134,283.25,61.885,64.937,124.69,102.347,98.2245,-0.000134877,0.0543317,21.0049,-332.339,0.363583,0.0,0.0
1148,286.75,61.8316,64.9468,122.183,102.32,98.6707,0.000158639,0.0542442,21.0045,-332.349,0.32115,0.0,0.0
1162,290.25,61.4086,64.1777,126.559,102.297,98.0469,0.000286956,0.0539432,21.0053,-332.349,0.375286,0.0,0.0
1176,293.75,60.8586,63.7336,123.024,102.238,99.0954,0.000206724,0.0536861,21.0056,-332.379,0.276118,0.0,0.0
1190,297.25,60.2334,63.2484,124.007,102.218,98.3599,-4.27214e-05,0.0535222,21.0044,-332.389,0.340308,0.0,0.0
1204,300.75,60.728,63.5389,122.65,102.18,98.4257,-5.49014e-05,0.0536104,21.0037,-332.389,0.331105,0.0,0.0
1218,304.25,60.52,63.6906,120.63,102.151,98.0078,-3.88929e-07,0.0534748,21.0035,-332.379,0.366162,0.0,0.0
1232,307.75,60.257,63.0301,121.707,102.129,98.693,0.000199555,0.0534492,21.0034,-332.379,0.302699,0.0,0.0
1246,311.25,60.0935,62.426,123.069,102.099,98.7532,0.000186157,0.0535294,21.0058,-332.369,0.294666,0.0,0.0
1260,314.75,59.8171,62.5495,123.814,102.07,98.3074,,,,-332.379,0.332181,0.0,0.0
1274,318.25,59.4228,62.2099,124.122,102.047,98.1002,,,,-332.399,0.348849,0.0,0.0
1288,321.75,59.7041,62.0869,125.746,102.04,98.1742,,,,-332.369,0.341607,0.0,0.0
1291,322.5,59.3819,61.4991,123.971,102.047,98.1269,,,,-332.389,0.346447,0.0,0.0