File: 01_Data/Nylon_Carpet_LowPile/Cone/Nylon_Carpet_Low_Pile_Cone_HF75Scan_220318_R2.csv
Names,Time,Stack TC,Smoke TC,Exh Press,Smoke Comp,Smoke Meas,CO Meter,CO2 Meter,O2 Meter,Sample Mass,Ext Coeff,Start Test,Flame Verif
Chan Gain,,500,500,1,1,1,1,1,1,1,1,1.0,1.0
Offset,,0,0,0.133174,0,0,0,0,0,0,0,0.0,0.0
Gain,,1,1,25.011,13.6925,14.0864,1,1,1,1.0009,1.00821,1.0,1.0
Units,sec,C,C,Pa,%,%,%,%,%,g,/m,,
Baseline,,54.5106,56.904,125.228,103.034,99.3408,0.000264893,0.0512983,21.006,-838.47,0.322959,,
14,3.25,51.7872,54.3887,124.285,103.006,98.8465,0.000122824,0.0529607,21.0041,-322.21,0.364549,0.0,0.0
28,6.75,52.216,54.7475,124.203,102.984,99.5038,0.000175438,0.0524292,21.0047,-322.27,0.304069,0.0,0.0
42,10.25,52.5918,54.6331,126.541,102.988,99.7364,0.000192806,0.052183,21.0077,-322.37,0.283745,0.0,0.0
56,13.75,52.1409,54.8627,126.999,102.978,96.8084,0.000610277,0.0532394,21.0029,-322.48,0.546364,0.0,0.0
70,17.25,52.3545,55.1409,125.115,102.972,90.2562,0.00148915,0.0604766,20.9637,-322.64,1.1657,0.0,0.0
84,20.75,54.0354,56.3317,110.142,102.973,95.4109,0.00250965,0.204466,20.6835,-322.901,0.674537,0.0,1.0
98,24.25,56.7687,59.7065,103.873,102.978,95.4951,0.0035891,0.425531,20.342,-323.391,0.667161,0.0,0.0
112,27.75,60.6032,64.3791,99.2587,102.963,95.042,0.00455105,0.576646,20.1293,-323.761,0.707931,0.0,0.0
126,31.25,65.8591,69.3061,96.4384,102.956,94.3641,0.00530902,0.704719,19.9618,-324.362,0.770702,0.0,0.0
140,34.75,71.0543,75.832,98.7168,102.95,94.0924,0.0059544,0.800162,19.8421,-324.892,0.795662,0.0,0.0
154,38.25,75.2845,80.702,100.73,102.958,93.7141,0.00648463,0.828407,19.7902,-325.383,0.831938,0.0,0.0
168,41.75,79.5044,85.6324,99.177,102.951,94.5129,0.00670651,0.880474,19.7026,-325.903,0.756306,0.0,0.0
182,45.25,83.7073,90.5762,98.5023,102.943,87.268,0.0080658,0.950203,19.5745,-326.444,1.46098,0.0,0.0
196,48.75,89.1258,96.4312,88.2454,102.941,84.3878,0.0105821,1.113,19.2903,-327.124,1.75757,0.0,0.0
210,52.25,94.2514,103.738,91.5557,102.916,83.728,0.0127021,1.24574,19.1289,-327.705,1.82488,0.0,0.0
224,55.75,99.2991,109.611,92.2755,102.906,82.0772,0.0146043,1.31713,19.0349,-328.366,2.00009,0.0,0.0
238,59.25,104.136,115.285,87.4089,102.88,77.7749,0.0167969,1.35418,18.97,-329.066,2.47403,0.0,0.0
252,62.75,108.893,120.244,89.804,102.868,77.474,0.0188053,1.38582,18.9294,-329.707,2.50731,0.0,0.0
266,66.25,111.688,125.01,89.949,102.842,73.9425,0.0207421,1.38239,18.9488,-330.357,2.91765,0.0,0.0
280,69.75,115.067,128.5,91.3351,102.83,69.9442,0.022727,1.35009,18.9889,-331.058,3.40825,0.0,0.0
294,73.25,117.609,131.834,94.1394,102.807,66.4926,0.024412,1.27618,19.1093,-331.628,3.85383,0.0,0.0
308,76.75,118.72,133.317,97.9153,102.791,63.5862,0.0247729,1.17749,19.2399,-332.139,4.24771,0.0,0.0
322,80.25,118.699,134.083,98.9603,102.782,68.624,0.0231165,1.07744,19.4118,-332.599,3.57268,0.0,0.0
336,83.75,118.405,133.224,98.9977,102.915,70.4708,0.0209107,0.950151,19.5962,-333.04,3.34928,0.0,0.0
350,87.25,117.956,132.87,101.574,103.006,69.1764,0.0179684,0.842294,19.7877,-333.48,3.52102,0.0,0.0
364,90.75,116.244,131.229,104.895,103.116,74.7129,0.0155836,0.732738,19.9437,-333.77,2.84953,0.0,0.0
378,94.25,115.662,129.985,103.28,103.21,70.7794,0.0137995,0.662312,20.0521,-334.031,3.33587,0.0,0.0
392,97.75,114.59,129.014,108.433,103.282,76.7896,0.0125186,0.604306,20.1384,-334.381,2.62124,0.0,0.0
406,101.25,112.804,127.142,109.993,103.346,74.6609,0.0108878,0.559369,20.2042,-334.651,2.87542,0.0,0.0
420,104.75,110.863,125.02,111.885,103.41,78.1317,0.00954307,0.524387,20.2603,-334.921,2.47902,0.0,0.0
434,108.25,109.744,123.212,110.566,103.47,79.969,0.00894258,0.48867,20.3281,-335.152,2.2786,0.0,0.0
448,111.75,108.133,121.787,108.806,103.524,80.3525,0.00834489,0.451587,20.3848,-335.422,2.24086,0.0,0.0
462,115.25,106.17,119.562,113.018,103.561,82.8978,0.00744071,0.425613,20.429,-335.622,1.96827,0.0,0.0
476,118.75,104.329,117.297,113.843,103.585,81.3567,0.00675704,0.401711,20.4665,-335.772,2.13627,0.0,0.0
490,122.25,103.458,115.694,112.582,103.617,82.9903,0.00639253,0.381854,20.4954,-335.962,1.96316,0.0,0.0
504,125.75,101.492,113.681,109.169,103.64,82.2655,0.00592924,0.365325,20.5243,-336.173,2.04273,0.0,0.0
518,129.25,100.135,111.968,112.973,103.658,84.0645,0.00552476,0.35234,20.5439,-336.353,1.85294,0.0,0.0
532,132.75,99.0026,110.593,113.546,103.666,85.6469,0.00537898,0.341251,20.5616,-336.523,1.68869,0.0,0.0
546,136.25,97.4249,108.321,111.909,103.668,84.8925,0.00529764,0.330807,20.5783,-336.673,1.76712,0.0,0.0
560,139.75,96.4171,107.208,113.266,103.678,85.8524,0.00515435,0.318434,20.5987,-336.843,1.66846,0.0,0.0
574,143.25,95.3165,105.42,113.242,103.695,87.1438,0.00506611,0.308347,20.6166,-337.013,1.53792,0.0,0.0
588,146.75,94.0046,104.361,113.272,103.703,87.8342,0.00485714,0.299846,20.6267,-337.153,1.46878,0.0,0.0
602,150.25,92.9913,102.684,112.189,103.706,87.4198,0.00467393,0.292436,20.6389,-337.284,1.51085,0.0,0.0
616,153.75,91.8602,101.382,117.279,103.723,86.508,0.00454756,0.285351,20.6517,-337.444,1.60504,0.0,0.0
630,157.25,90.5958,100.247,110.704,103.722,86.6077,0.00405227,0.278959,20.6611,-337.574,1.59478,0.0,0.0
644,160.75,90.0671,99.2365,112.517,103.728,89.8284,0.00379569,0.273806,20.6703,-337.704,1.2724,0.0,0.0
658,164.25,88.4723,97.4568,115.74,103.73,88.9742,0.00373905,0.268708,20.6784,-337.834,1.35704,0.0,0.0
672,167.75,87.7717,96.7856,118.999,103.721,89.3521,0.00375261,0.265264,20.6835,-338.004,1.31881,0.0,0.0
686,171.25,87.0361,95.5122,114.167,103.726,87.7027,0.00370082,0.262396,20.6885,-338.124,1.48399,0.0,0.0
700,174.75,86.4735,94.8957,114.672,103.705,89.1161,0.00348158,0.254734,20.7022,-338.244,1.34085,0.0,0.0
714,178.25,85.4584,93.7275,114.923,103.676,90.2089,0.00336734,0.245792,20.7153,-338.354,1.23057,0.0,0.0
728,181.75,84.8337,92.5669,115.17,103.666,89.2855,0.00350262,0.240037,20.7218,-338.465,1.32071,0.0,0.0
742,185.25,84.1451,91.7797,116.838,103.639,89.7596,0.00360052,0.237841,20.7283,-338.635,1.27158,0.0,0.0
756,188.75,83.3804,90.709,115.252,103.621,90.9895,0.00342095,0.233135,20.7337,-338.705,1.14969,0.0,0.0
770,192.25,82.4767,90.0623,114.463,103.59,90.2519,0.00295604,0.226467,20.7443,-338.855,1.21901,0.0,0.0
784,195.75,81.6503,89.3695,120.8,103.568,90.3735,0.00278184,0.217509,20.7573,-338.955,1.20524,0.0,0.0
798,199.25,81.7107,88.4776,117.91,103.548,92.2745,0.00263722,0.207569,20.7744,-339.035,1.01943,0.0,0.0
812,202.75,80.5215,87.2149,119.831,103.515,94.6805,0.00233244,0.194999,20.7949,-339.075,0.788958,0.0,0.0
826,206.25,79.62,86.136,118.167,103.462,97.0801,0.00215698,0.177351,20.8311,-339.155,0.563075,0.0,0.0
840,209.75,78.8721,85.1638,119.751,103.421,97.7417,0.00178811,0.152703,20.8725,-339.225,0.499508,0.0,0.0
854,213.25,77.5204,83.9811,121.83,103.366,99.3121,0.00173277,0.127714,20.9123,-339.215,0.353828,0.0,0.0
868,216.75,75.6102,82.1915,120.882,103.288,98.856,0.00188544,0.108563,20.9384,-339.225,0.387886,0.0,0.0
882,220.25,74.1054,80.4248,121.565,103.239,98.8968,0.00182043,0.096109,20.9571,-339.265,0.380046,0.0,0.0
896,223.75,73.2679,79.2394,125.01,103.21,99.2588,0.00173172,0.0900449,20.9665,-339.285,0.345267,0.0,0.0
910,227.25,72.71,78.1387,124.506,103.236,99.3654,0.00167569,0.0869007,20.9716,-339.265,0.337956,0.0,0.0
924,230.75,71.8558,76.4413,121.14,103.266,98.9867,0.00126246,0.0835302,20.9765,-339.285,0.374306,0.0,0.0
938,234.25,70.9498,75.9914,119.669,103.311,99.1285,0.000824226,0.0794459,20.9821,-339.295,0.365506,0.0,0.0
952,237.75,69.7661,74.6407,121.932,103.344,99.3013,0.000677524,0.0759137,20.9855,-339.365,0.352891,0.0,0.0
966,241.25,69.5254,74.3415,121.723,103.39,99.5107,0.000579539,0.0717769,20.9874,-339.345,0.338197,0.0,0.0
980,244.75,68.633,73.0681,123.132,103.43,99.0602,0.000256345,0.0680789,20.9901,-339.365,0.381758,0.0,0.0
994,248.25,68.3436,72.5868,123.525,103.45,98.96,9.05097e-05,0.0646788,20.9921,-339.455,0.392456,0.0,0.0
1008,251.75,67.5331,72.1873,122.987,103.494,99.6745,5.94623e-05,0.0616926,20.9957,-339.385,0.332585,0.0,0.0
1022,255.25,67.0877,71.5837,122.133,103.517,99.4613,0.000123634,0.0596771,20.9973,-339.405,0.353487,0.0,0.0
1036,258.75,66.7117,70.7373,122.688,103.535,98.8749,0.000402175,0.0582651,20.9976,-339.455,0.40728,0.0,0.0
1050,262.25,66.184,69.4764,120.559,103.556,99.248,0.000329834,0.0572144,20.9992,-339.415,0.375823,0.0,0.0
1064,265.75,65.1557,69.2133,123.196,103.592,99.8331,-3.07325e-05,0.0563897,21.0011,-339.375,0.326837,0.0,0.0
1078,269.25,64.9514,68.7523,121.355,103.608,99.0077,-0.00014677,0.0560697,21.0023,-339.365,0.401685,0.0,0.0
1092,272.75,64.6423,67.7392,125.865,103.627,99.3899,-0.000105263,0.0557074,21.0019,-339.395,0.369183,0.0,0.0
1106,276.25,63.8925,67.4288,124.444,103.657,99.8653,0.000131501,0.0554178,21.0027,-339.375,0.329545,0.0,0.0
1120,279.75,63.9326,67.7886,122.485,103.676,99.0726,0.000267022,0.0550125,21.0037,-339.365,0.401701,0.0,0.0
1134,283.25,63.4032,66.827,124.016,103.696,99.432,0.000163646,0.0547242,21.004,-339.425,0.371317,0.0,0.0
1148,286.75,62.4566,65.8148,121.842,103.717,99.7398,0.000124587,0.054698,21.0045,-339.466,0.345836,0.0,0.0
1162,290.25,62.9522,65.7379,125.189,103.722,99.9522,0.000148061,0.0549334,21.0047,-339.455,0.327418,0.0,0.0
1176,293.75,62.328,65.5294,120.585,103.747,99.5511,3.32175e-05,0.0548297,21.0048,-339.476,0.365115,0.0,0.0
1190,297.25,62.0637,65.0598,123.019,103.767,99.9397,6.85914e-06,0.0546548,21.0048,-339.455,0.332404,0.0,0.0
1204,300.75,62.192,65.2,122.823,103.791,99.9573,0.00010855,0.0544493,21.0048,-339.445,0.332839,0.0,0.0
1218,304.25,61.9561,64.5,120.568,103.827,99.6053,0.000188335,0.0542246,21.0048,-339.445,0.367106,0.0,0.0
1232,307.75,61.691,64.2235,123.649,103.835,99.889,0.000177067,0.0541054,21.0048,-339.445,0.342626,0.0,0.0
1246,311.25,61.3791,63.8237,125.662,103.845,98.8994,9.94988e-05,0.0539751,21.0053,-339.486,0.431568,0.0,0.0
1260,314.75,61.2835,63.6109,124.145,103.859,100.1,3.90992e-05,0.0538499,21.0055,-339.476,0.325983,0.0,0.0
1274,318.25,61.1798,63.8303,123.59,103.902,99.9049,0.000206895,0.0537077,21.0055,-339.486,0.346911,0.0,0.0
1288,321.75,60.691,63.1215,122.718,103.925,100.045,0.000121863,0.0534496,21.0055,-339.486,0.336541,0.0,0.0
1302,325.25,60.5521,62.8917,122.403,103.931,100.599,,0.0532022,,-339.486,0.288192,0.0,0.0
1316,328.75,60.6384,63.1719,124.644,103.95,100.244,,,,-339.486,0.321099,0.0,0.0
1330,332.25,60.2101,63.2757,121.535,103.966,99.6556,,,,-339.486,0.374485,0.0,0.0
1343,335.5,60.4001,62.5885,123.951,103.984,100.114,,,,-339.496,0.335475,0.0,0.0