File: 01_Data/Nylon_Carpet_LowPile/Cone/Nylon_Carpet_Low_Pile_Cone_HF75Scalar_220318_R3.csv
LABORATORY,FSRI
TEST IDENT,NylonCarpetLP_HF75_3
OPERATOR,Dow
MATERIAL,Nylon Carpet - low pile
ORIENTATION,Horizontal
HEAT FLUX,75
SURF AREA,0.01
C FACTOR,0.0397524
SPEC HOLDER DIFF,-566
SPECIMEN MASS,26.1
SCAN TIME,0.25
O2 DELAY TIME,11
CO DELAY TIME,11
CO2 DELAY TIME,8
FLOW FACTOR,1
SCAN COUNT,1255
TIME TO IGN,17.25
END OF TEST SCAN,775
END OF TEST TIME,193.75
TEST STATUS,1
PRE TEST CMT,Dimensions: 100.90 x 99.42 x 13.78 mm; 60 mm spacing