File: 01_Data/Nylon_Carpet_LowPile/Cone/Nylon_Carpet_Low_Pile_Cone_HF25Scan_220317_R2.csv
Names,Time,Stack TC,Smoke TC,Exh Press,Smoke Comp,Smoke Meas,CO Meter,CO2 Meter,O2 Meter,Sample Mass,Ext Coeff,Start Test,Flame Verif
Chan Gain,,500,500,1,1,1,1,1,1,1,1,1.0,1.0
Offset,,0,0,0.13495,0,0,0,0,0,0,0,0.0,0.0
Gain,,1,1,25.011,13.0212,13.19,1,1,1,1.0009,1.01015,1.0,1.0
Units,sec,C,C,Pa,%,%,%,%,%,g,/m,,
Baseline,,24.2988,25.2419,138.58,98.6956,93.0442,0.000746846,0.044563,21.0242,-489.167,0.522551,,
56,13.75,23.3484,24.5687,141.063,98.5374,92.2499,0.000169683,0.0477473,21.0194,29.5566,0.584249,0.0,0.0
112,27.75,23.6783,24.5915,136.735,99.025,93.3113,0.000802173,0.0446191,21.025,29.5065,0.52661,0.0,0.0
168,41.75,23.8092,24.5077,140.114,97.3409,91.0153,0.000656024,0.0439773,21.0267,29.4265,0.595379,0.0,0.0
224,55.75,24.4076,25.1147,139.985,98.5823,92.1524,0.000668006,0.0434161,21.0265,29.3464,0.597647,0.0,0.0
280,69.75,24.5402,25.7894,136.472,98.3164,91.3796,0.000489733,0.0434256,21.0283,29.1962,0.648347,0.0,0.0
336,83.75,24.4106,25.0436,134.531,98.5334,92.0244,0.000562384,0.0443724,21.0271,29.1362,0.60557,0.0,0.0
392,97.75,24.2405,25.6833,136.425,99.2423,92.1774,0.000624434,0.0440669,21.0249,29.1562,0.654377,0.0,0.0
448,111.75,24.9093,25.4652,138.366,98.5406,91.5837,0.00074788,0.04391,21.0215,29.1562,0.648755,0.0,0.0
504,125.75,24.7749,25.9967,135.404,97.7398,91.1147,0.000819644,0.0440292,21.0238,29.1362,0.621948,0.0,0.0
560,139.75,24.4629,25.7017,141.333,97.3929,90.802,0.000540639,0.0438957,21.0238,29.0962,0.620911,0.0,0.0
616,153.75,24.5743,25.4112,137.838,97.3516,90.5625,0.000843342,0.0482574,21.0176,29.1262,0.640552,0.0,0.0
672,167.75,24.4748,26.0879,138.494,97.3925,90.8756,0.00103048,0.0483677,21.0196,29.1262,0.613689,0.0,0.0
728,181.75,25.2796,26.3816,135.88,97.3953,90.4719,0.000776014,0.0468014,21.019,29.0761,0.653397,0.0,0.0
784,195.75,24.8048,26.0069,138.015,97.3743,90.7162,0.00100868,0.0458482,21.0218,29.0461,0.627583,0.0,0.0
840,209.75,24.6661,25.9847,135.29,97.3508,90.4876,0.000549554,0.0452214,21.0213,29.0261,0.647809,0.0,0.0
896,223.75,24.6918,25.6148,140.37,97.3476,90.201,0.00099841,0.0443285,21.0219,29.0061,0.67563,0.0,0.0
952,237.75,24.8159,26.1961,138.774,97.3488,90.7516,0.000668993,0.0443389,21.024,28.9861,0.621808,0.0,0.0
1008,251.75,25.1473,25.9581,137.942,97.375,90.6953,0.000985926,0.044128,21.0228,28.9861,0.629699,0.0,0.0
1064,265.75,24.3938,26.0961,141.174,97.5157,90.7947,0.000420286,0.0445822,21.022,28.9961,0.632782,0.0,0.0
1120,279.75,24.6391,25.7675,137.586,97.7907,90.62,0.00108367,0.0443115,21.0234,28.916,0.6748,0.0,0.0
1176,293.75,25.1844,25.8172,134.777,98.3013,91.3885,0.0010832,0.0443753,21.0234,28.936,0.646127,0.0,0.0
1232,307.75,25.2366,25.6141,135.972,98.8167,92.1798,0.000892008,0.0441318,21.0237,28.876,0.616063,0.0,0.0
1288,321.75,25.2665,25.8312,136.957,99.1783,92.3163,0.000562388,0.0439235,21.0238,28.8559,0.635324,0.0,0.0
1344,335.75,24.8791,25.8261,141.549,99.1136,92.9768,0.000637503,0.0439002,21.0237,28.8459,0.566359,0.0,0.0
1400,349.75,25.2715,25.6325,142.621,98.6288,92.4225,0.000517029,0.0440503,21.0245,28.876,0.575892,0.0,0.0
1456,363.75,24.7373,25.8882,139.743,98.7925,92.0703,0.000634541,0.0438556,21.0244,28.8259,0.624421,0.0,0.0
1512,377.75,25.0804,26.4256,137.196,98.7198,92.3239,0.000777922,0.0439094,21.0236,28.7959,0.593524,0.0,0.0
1568,391.75,25.1856,25.6946,136.341,98.1209,91.5656,0.00043881,0.0440329,21.0244,28.8059,0.612695,0.0,0.0
1624,405.75,24.6526,25.787,139.817,98.4933,92.1541,0.000680824,0.0438942,21.0249,28.7558,0.589488,0.0,0.0
1680,419.75,25.0745,25.8931,138.48,98.5123,92.7957,0.000591923,0.0449352,21.0223,28.7458,0.529723,0.0,0.0
1736,433.75,24.8132,26.2025,137.217,97.9421,91.5515,0.000540648,0.0442013,21.0244,28.7358,0.597895,0.0,0.0
1792,447.75,25.3571,26.0245,134.744,97.381,91.0157,0.00044072,0.0441698,21.0221,28.6758,0.598992,0.0,0.0
1848,461.75,25.294,26.0021,137.614,97.474,91.0314,0.000151042,0.0441636,21.0247,28.7058,0.605922,0.0,0.0
1904,475.75,25.1829,26.0676,136.974,98.1348,92.1235,0.000284091,0.0438532,21.0228,28.6357,0.560125,0.0,0.0
1960,489.75,25.2243,26.1907,140.887,98.8744,93.0694,0.000748519,0.0439713,21.0238,28.6458,0.536127,0.0,0.0
2016,503.75,25.266,26.0964,140.711,99.261,93.544,0.000732535,0.0439635,21.0237,28.6157,0.525641,0.0,0.0
2072,517.75,24.9013,25.9193,133.379,99.0051,92.6041,0.000510154,0.0437388,21.0254,28.5657,0.592249,0.0,0.0
2128,531.75,24.3693,26.1592,138.579,98.5056,92.8367,0.000738504,0.0437634,21.0249,28.5857,0.525196,0.0,0.0
2184,545.75,24.4764,25.6578,138.099,98.9403,93.1129,0.000703961,0.043992,21.026,28.5357,0.537899,0.0,0.0
2240,559.75,25.0927,26.0561,138.06,98.6308,92.5159,0.000644828,0.0439887,21.0246,28.5557,0.567122,0.0,0.0
2296,573.75,24.6021,25.418,136.83,98.1376,92.5244,0.000709037,0.0439588,21.0233,28.5056,0.521897,0.0,0.0
2352,587.75,25.0237,25.9389,137.181,98.4313,92.59,0.000534156,0.044053,21.0226,28.4656,0.542092,0.0,0.0
2408,601.75,24.3432,25.5549,138.964,98.591,92.3992,0.000542327,0.0441066,21.0223,28.4656,0.574739,0.0,0.0
2464,615.75,24.9077,25.6856,136.637,98.2576,92.9929,0.000850415,0.043996,21.0226,28.4556,0.487968,0.0,0.0
2520,629.75,24.8431,26.2565,141.343,97.6441,92.5047,0.000306716,0.043869,21.0256,28.4155,0.479111,0.0,0.0
2576,643.75,24.8034,25.7759,136.939,97.2991,92.5304,0.000259128,0.0439637,21.0256,28.3955,0.445288,0.0,0.0
2632,657.75,24.64,25.7895,137.213,97.6663,92.5228,0.000658967,0.0442111,21.0236,28.3855,0.479396,0.0,0.0
2688,671.75,24.7557,25.8824,142.844,98.477,93.7279,0.000341912,0.0440046,21.0242,28.3455,0.437966,0.0,0.0
2744,685.75,25.043,25.9174,136.149,99.0862,93.554,0.000105799,0.0440242,21.0253,28.3355,0.509066,0.0,0.0
2800,699.75,24.6911,26.0731,137.169,99.226,93.2352,0.000444183,0.0441501,21.0205,28.3255,0.551813,0.0,0.0
2856,713.75,24.8891,25.4117,135.448,98.893,93.3516,0.000721019,0.0442496,21.022,28.2954,0.510977,0.0,0.0
2912,727.75,24.9945,25.9203,137.441,98.4551,93.2578,0.000716833,0.0440276,21.0252,28.2654,0.480558,0.0,0.0
2968,741.75,25.3443,26.3347,135.597,98.9502,94.0999,0.000241428,0.0440812,21.0248,28.2354,0.445356,0.0,0.0
3024,755.75,24.4441,26.3381,140.602,98.7766,94.0033,0.00046131,0.0441666,21.0246,28.2154,0.438894,0.0,0.0
3080,769.75,24.8519,25.651,135.28,98.1313,93.5001,0.000497105,0.0456021,21.0222,28.2054,0.428368,0.0,0.0
3136,783.75,24.905,26.0378,136.353,98.3276,93.063,0.000752025,0.0452231,21.0213,28.1853,0.487601,0.0,0.0
3192,797.75,24.9708,25.7244,136.372,98.5342,93.9819,0.000345187,0.0447244,21.0253,28.1453,0.419133,0.0,0.0
3248,811.75,24.9654,26.1024,137.344,98.5501,93.9268,0.000405218,0.0445161,21.0207,28.1253,0.425763,0.0,0.0
3304,825.75,25.299,26.3061,134.752,98.2997,93.2127,0.000337809,0.0445049,21.0203,28.1053,0.470849,0.0,0.0
3360,839.75,25.2949,26.0152,138.821,97.896,92.9301,0.000525286,0.0445768,21.0236,28.0352,0.461283,0.0,0.0
3416,853.75,24.9693,26.4188,135.23,97.5439,92.5542,0.00075145,0.0443807,21.023,28.0352,0.465279,0.0,0.0
3472,867.75,25.1213,26.1738,139.403,97.2896,92.6339,0.00055999,0.0452941,21.0215,27.9852,0.434519,0.0,0.0
3528,881.75,25.0941,25.8477,139.547,97.2956,92.2088,0.00094678,0.0448603,21.0233,27.9852,0.475815,0.0,0.0
3584,895.75,25.3961,26.5479,138.45,97.5988,93.1137,0.000398912,0.0447599,21.0259,27.9151,0.416853,0.0,0.0
3640,909.75,25.4338,26.6097,137.842,98.1177,93.0811,0.000511502,0.0447366,21.0216,27.9151,0.466949,0.0,0.0
3696,923.75,25.0796,26.5788,133.959,98.6502,92.0973,0.00057767,0.0503892,21.0143,27.855,0.609058,0.0,0.0
3752,937.75,26.3279,27.2585,132.355,99.0254,92.4322,0.000908942,0.0944999,20.9509,27.7349,0.610524,0.0,0.0
3808,951.75,28.4934,29.3996,128.7,99.2042,91.8079,0.00148496,0.129025,20.9033,27.5147,0.686564,0.0,0.0
3864,965.75,29.7071,31.1606,134.393,99.2375,91.3369,0.00162242,0.139552,20.8875,27.2645,0.735116,0.0,0.0
3920,979.75,31.9833,33.3378,133.267,99.2455,91.2488,0.0024053,0.15958,20.8565,26.9542,0.744383,0.0,0.0
3976,993.75,33.1291,34.7861,132.305,99.2459,89.1383,0.00277309,0.194128,20.8074,26.5339,0.951765,0.0,0.0
4032,1007.75,35.5708,37.501,126.266,99.2121,88.4886,0.00418587,0.246811,20.7231,25.9633,1.01357,0.0,1.0
4088,1021.75,39.0463,41.5777,121.641,99.0031,86.8008,0.0048711,0.307473,20.6344,25.2527,1.16552,0.0,0.0
4144,1035.75,46.4624,48.4955,118.872,98.3065,83.5899,0.00704457,0.487505,20.3522,24.1017,1.43696,0.0,0.0
4200,1049.75,53.0033,57.2359,110.213,97.4506,82.7643,0.00740385,0.566946,20.2399,22.8105,1.44742,0.0,0.0
4256,1063.75,59.0653,64.1016,114.229,97.4804,78.8807,0.00941207,0.598845,20.189,21.4092,1.87599,0.0,0.0
4312,1077.75,64.6366,70.6965,112.201,98.4126,80.3789,0.0110309,0.65865,20.0858,19.968,1.7936,0.0,0.0
4368,1091.75,69.2274,76.4293,114.627,98.3884,75.6122,0.0122973,0.658006,20.0843,18.4366,2.33313,0.0,0.0
4424,1105.75,71.6865,79.2594,113.752,98.8906,77.9952,0.0135266,0.638758,20.1031,16.9753,2.1033,0.0,0.0
4480,1119.75,74.0825,80.5091,116.627,98.7377,76.821,0.0113096,0.579846,20.199,15.604,2.22399,0.0,0.0
4536,1133.75,71.8115,80.8264,116.949,98.9808,79.437,0.00889568,0.478051,20.3523,14.483,1.94907,0.0,0.0
4592,1147.75,69.1427,76.7801,118.808,97.3158,82.171,0.00542214,0.362989,20.5457,13.7524,1.49891,0.0,0.0
4648,1161.75,64.4215,71.7003,124.305,98.3649,87.1889,0.00342511,0.247883,20.7219,13.2219,1.0687,0.0,0.0
4704,1175.75,58.4396,65.6602,131.819,98.1889,89.0268,0.00268734,0.163477,20.848,12.8916,0.867976,0.0,0.0
4760,1189.75,53.0184,58.2547,130.876,98.9125,92.1315,0.00180775,0.097535,20.9447,12.7715,0.629293,0.0,0.0
4816,1203.75,47.2428,51.2171,133.441,98.9316,91.8099,0.00162618,0.0654544,20.9913,12.7214,0.661987,0.0,0.0
4872,1217.75,42.6168,46.545,136.663,99.0834,92.1573,0.00101068,0.0567362,21.0018,12.7314,0.642109,0.0,0.0
4928,1231.75,40.1657,42.841,134.707,97.9656,91.5825,0.00129742,0.0558028,21.0023,12.7415,0.597017,0.0,0.0
4984,1245.75,37.5112,39.7176,133.613,97.3083,90.5278,0.000819775,0.0547566,21.0052,12.6914,0.639997,0.0,0.0
5040,1259.75,35.707,37.605,135.152,97.5769,91.3031,0.00104435,0.0547188,21.0059,12.6914,0.588865,0.0,0.0
5096,1273.75,34.4736,36.6038,133.628,98.1042,91.6461,0.000987731,0.0532518,21.0092,12.6414,0.603399,0.0,0.0
5152,1287.75,33.3353,34.7334,135.11,98.4098,91.8143,0.000796447,0.0519411,21.0122,12.7214,0.614703,0.0,0.0
5208,1301.75,32.5523,33.1787,137.776,98.5461,92.3754,0.000911644,0.0498883,21.0118,12.6614,0.57298,0.0,0.0
5264,1315.75,31.7828,32.4607,136.35,98.5334,91.954,,,,12.6514,0.612356,0.0,0.0
5291,1322.5,30.8793,32.3077,135.814,98.4941,91.8264,,,,12.6814,0.621121,0.0,0.0