File: 01_Data/Hemp_Sheet/HFM/Hemp_Sheet_Density_Wet_R1.csv
,Hemp_Sheet_WET_1
Sample Mass [g],7.4
Sample Volume [cm3],14.0
Sample Density [kg/m3],529