File: 01_Data/Hemp_Sheet/HFM/Hemp_Sheet_Density_Wet_R2.csv
,Hemp_Sheet_WET_2
Sample Mass [g],7.3
Sample Volume [cm3],13.9
Sample Density [kg/m3],520