File: 01_Data/Hemp_Sheet/HFM/Hemp_Sheet_Density_Wet_R3.csv
,Hemp_Sheet_WET_3
Sample Mass [g],7.0
Sample Volume [cm3],13.4
Sample Density [kg/m3],521