File: 01_Data/Polyolefin_Carpet_Low_Pile/HFM/Polyolefin_Carpet_Low_Pile_Density_Dry_R2.csv
,Polyolefin_Carpet_Low_Pile_DRY_2
Sample Mass [g],58.4
Sample Volume [cm3],270.5
Sample Density [kg/m3],216