File: 01_Data/Polyolefin_Carpet_Low_Pile/HFM/Polyolefin_Carpet_Low_Pile_Density_Wet_R3.csv
,Polyolefin_Carpet_Low_Pile_WET_3
Sample Mass [g],57.2
Sample Volume [cm3],264.7
Sample Density [kg/m3],216