File: 01_Data/Polyolefin_Carpet_Low_Pile/HFM/Polyolefin_Carpet_Low_Pile_Density_Dry_R3.csv
,Polyolefin_Carpet_Low_Pile_DRY_3
Sample Mass [g],57.1
Sample Volume [cm3],264.7
Sample Density [kg/m3],216