File: 01_Data/Polyolefin_Carpet_Low_Pile/HFM/Polyolefin_Carpet_Low_Pile_Density_Dry_R1.csv
,Polyolefin_Carpet_Low_Pile_DRY_1
Sample Mass [g],56.5
Sample Volume [cm3],268.4
Sample Density [kg/m3],210