File: 01_Data/Polyolefin_Carpet_Low_Pile/HFM/Polyolefin_Carpet_Low_Pile_Density_Wet_R2.csv
,Polyolefin_Carpet_Low_Pile_WET_2
Sample Mass [g],58.3
Sample Volume [cm3],270.5
Sample Density [kg/m3],216