File: 01_Data/PVC_Pipe/MCC/PVC_Pipe_MCC_30K_min_211118_R2.txt
Sample ID:	C:\MCC\MCC Cal\Test\PVC_Pipe_MCC_30K_min_211118_R2.txt
Sample Weight (mg):	4.51
Heating Rate (C/s):	0.5
Combustor Temp (C):	900
N2 Flow Rate (cc/min):	80
O2 Flow Rate (cc/min):	20
Calibration File:	C:\MCC\MCC Cal\Coeff1 JN10440_30_210304.txt.txt
T Correction Coefficients:	0	1.024463	0
Time Shift (s):	14
*
Time (s)	Temperature (C)	N2 flow rate (cc/min)	O2 flow rate (cc/min)	Flow Rate (cc/min)	Oxygen (%)	HRR (W/g)	Heating rate (C/s)
0.000	110.110	80.006	19.995	103.065	19.964	-0.097	0.007
8.000	110.090	80.003	19.996	103.077	19.966	-0.241	-0.023
16.000	110.062	80.006	19.994	103.102	19.960	0.158	-0.016
24.000	110.081	80.005	19.994	103.106	19.956	0.485	-0.015
32.001	110.366	80.003	19.995	103.222	19.943	1.424	0.059
40.000	111.051	80.003	19.995	103.253	19.931	2.270	0.084
48.000	112.188	80.005	19.994	103.288	19.929	2.411	0.162
56.000	113.764	80.005	19.996	103.287	19.927	2.570	0.229
64.000	115.661	80.005	19.994	103.298	19.925	2.701	0.270
72.001	117.853	80.004	19.994	103.298	19.924	2.781	0.282
80.000	120.265	80.006	19.994	103.328	19.923	2.789	0.338
88.000	123.018	80.005	19.995	103.319	19.922	2.887	0.363
96.000	125.892	80.005	19.995	103.322	19.922	2.923	0.385
104.001	128.990	80.007	19.994	103.314	19.919	3.072	0.410
112.001	132.225	80.007	19.995	103.330	19.920	3.039	0.409
120.001	135.584	80.004	19.995	103.329	19.915	3.361	0.431
128.000	139.080	80.003	19.996	103.333	19.917	3.258	0.466
136.000	142.715	80.003	19.994	103.337	19.921	2.961	0.456
144.000	146.507	80.004	19.995	103.340	19.918	3.183	0.473
152.000	150.378	80.003	19.995	103.340	19.916	3.312	0.490
160.000	154.288	80.006	19.996	103.336	19.920	3.053	0.497
168.000	158.279	80.006	19.994	103.323	19.918	3.173	0.497
176.000	162.315	80.007	19.994	103.309	19.917	3.229	0.524
184.000	166.424	80.006	19.995	103.310	19.919	3.128	0.515
192.000	170.506	80.006	19.996	103.294	19.918	3.153	0.497
200.001	174.531	80.003	19.995	103.299	19.923	2.845	0.508
208.000	178.570	80.004	19.995	103.294	19.921	2.960	0.491
216.000	182.627	80.003	19.995	103.290	19.921	2.949	0.492
224.000	186.584	80.002	19.996	103.268	19.925	2.654	0.469
232.000	190.619	80.004	19.995	103.308	19.922	2.905	0.503
240.000	194.560	80.004	19.995	103.273	19.922	2.889	0.498
248.000	198.492	80.005	19.995	103.259	19.919	3.134	0.517
256.000	202.393	80.005	19.995	103.260	19.919	3.132	0.479
264.000	206.312	80.005	19.994	103.278	19.918	3.171	0.480
272.000	210.297	80.007	19.995	103.260	19.914	3.463	0.506
280.000	214.268	80.004	19.995	103.259	19.908	3.907	0.498
288.000	218.174	80.004	19.995	103.261	19.902	4.320	0.491
296.000	222.086	80.004	19.994	103.254	19.896	4.739	0.484
304.000	225.994	80.003	19.995	103.245	19.891	5.095	0.471
312.000	229.899	80.002	19.997	103.247	19.885	5.548	0.475
320.000	233.783	80.005	19.996	103.245	19.886	5.430	0.502
328.000	237.640	80.006	19.995	103.243	19.892	5.041	0.463
336.000	241.548	80.004	19.994	103.244	19.893	4.945	0.493
344.000	245.455	80.005	19.995	103.232	19.888	5.312	0.498
352.001	249.408	80.007	19.995	103.248	19.888	5.350	0.513
360.001	253.389	80.004	19.994	103.251	19.882	5.759	0.508
368.000	257.379	80.005	19.994	103.235	19.873	6.383	0.479
376.000	261.420	80.005	19.994	103.241	19.869	6.706	0.490
384.000	265.445	80.004	19.996	103.246	19.861	7.242	0.505
392.000	269.513	80.002	19.995	103.244	19.861	7.272	0.536
400.000	273.554	80.004	19.994	103.260	19.858	7.437	0.503
408.000	277.563	80.005	19.998	103.269	19.857	7.509	0.480
416.000	281.626	80.004	19.995	103.316	19.852	7.916	0.479
424.000	285.724	80.004	19.994	103.351	19.832	9.333	0.493
432.000	289.750	80.007	19.995	103.493	19.802	11.518	0.532
440.000	293.733	80.006	19.995	103.590	19.761	14.434	0.523
448.000	297.715	80.004	19.994	103.446	19.731	16.490	0.514
456.000	301.685	80.004	19.994	103.137	19.732	16.466	0.513
464.000	305.711	80.004	19.994	103.065	19.750	15.158	0.528
472.000	309.751	80.004	19.995	103.185	19.773	13.508	0.481
480.000	313.864	80.002	19.995	103.260	19.784	12.752	0.525
488.000	317.986	80.006	19.994	103.258	19.796	11.897	0.519
496.000	322.078	80.003	19.996	103.237	19.808	11.027	0.514
504.000	326.170	80.004	19.995	103.242	19.818	10.308	0.506
512.000	330.269	80.007	19.995	103.211	19.835	9.122	0.525
520.000	334.307	80.005	19.993	103.200	19.842	8.579	0.478
528.000	338.337	80.005	19.995	103.223	19.848	8.192	0.504
536.000	342.336	80.004	19.995	103.255	19.860	7.339	0.492
544.000	346.317	80.003	19.994	103.280	19.864	7.051	0.506
552.001	350.357	80.005	19.994	103.302	19.869	6.652	0.509
560.000	354.362	80.004	19.995	103.302	19.871	6.526	0.525
568.000	358.381	80.006	19.994	103.317	19.873	6.382	0.526
576.000	362.385	80.006	19.993	103.319	19.876	6.150	0.518
584.001	366.340	80.005	19.995	103.336	19.877	6.123	0.488
592.000	370.305	80.005	19.997	103.338	19.875	6.240	0.482
600.000	374.399	80.005	19.996	103.337	19.871	6.554	0.553
608.000	378.370	80.005	19.995	103.341	19.870	6.606	0.449
616.000	382.623	80.005	19.996	103.338	19.858	7.483	0.691
624.000	386.267	80.005	19.994	103.325	19.851	7.942	0.439
632.000	390.344	80.005	19.995	103.338	19.838	8.868	0.477
640.000	394.377	80.006	19.995	103.307	19.820	10.168	0.494
648.000	398.375	80.005	19.996	103.302	19.796	11.898	0.487
656.000	402.456	80.007	19.994	103.297	19.767	13.978	0.521
664.000	406.419	80.006	19.995	103.298	19.726	16.911	0.523
672.000	410.434	80.007	19.994	103.293	19.678	20.306	0.526
680.000	414.501	80.007	19.995	103.289	19.620	24.452	0.508
688.000	418.460	80.004	19.996	103.284	19.552	29.348	0.481
696.000	422.527	80.004	19.996	103.283	19.482	34.298	0.513
704.000	426.598	80.005	19.995	103.269	19.404	39.885	0.525
712.000	430.653	80.005	19.995	103.262	19.321	45.827	0.504
720.000	434.791	80.004	19.995	103.263	19.254	50.606	0.539
728.000	438.901	80.006	19.995	103.278	19.204	54.183	0.540
736.001	442.922	80.007	19.995	103.255	19.173	56.381	0.517
744.000	446.881	80.005	19.995	103.300	19.133	59.251	0.460
752.000	450.912	80.004	19.996	103.260	19.059	64.502	0.540
760.000	455.080	80.007	19.994	103.249	19.005	68.367	0.523
768.000	459.384	80.005	19.994	103.272	19.033	66.366	0.543
776.000	463.803	80.003	19.996	103.270	19.087	62.559	0.550
784.000	468.241	80.004	19.997	103.232	19.168	56.725	0.574
792.000	472.574	80.005	19.994	103.271	19.206	54.012	0.515
800.000	477.001	80.004	19.994	103.224	19.260	50.191	0.534
808.000	481.248	80.005	19.996	103.233	19.301	47.264	0.530
816.000	485.493	80.007	19.994	103.236	19.340	44.472	0.493
824.000	489.745	80.005	19.995	103.228	19.386	41.167	0.537
832.000	493.918	80.008	19.994	103.230	19.440	37.321	0.509
840.000	498.037	80.009	19.996	103.214	19.498	33.180	0.535
848.000	502.025	80.008	19.996	103.219	19.560	28.785	0.503
856.000	505.964	80.006	19.995	103.213	19.618	24.593	0.498
864.000	509.947	80.005	19.995	103.208	19.676	20.432	0.514
872.000	513.923	80.005	19.995	103.200	19.723	17.068	0.490
880.000	518.036	80.005	19.995	103.186	19.764	14.154	0.521
888.000	522.147	80.005	19.995	103.209	19.802	11.444	0.528
896.000	526.299	80.006	19.995	103.200	19.824	9.865	0.510
904.000	530.430	80.006	19.995	103.193	19.844	8.466	0.503
912.000	534.694	80.007	19.994	103.206	19.865	6.977	0.530
920.000	538.928	80.007	19.994	103.188	19.879	5.990	0.531
928.000	543.110	80.008	19.994	103.189	19.888	5.319	0.506
936.000	547.238	80.004	19.995	103.188	19.898	4.574	0.540
944.000	551.411	80.006	19.996	103.188	19.907	3.949	0.515
952.000	555.628	80.006	19.996	103.181	19.909	3.790	0.514
960.000	559.746	80.004	19.996	103.177	19.915	3.371	0.513
968.000	563.858	80.005	19.996	103.183	19.920	3.037	0.501
976.000	567.970	80.007	19.995	103.183	19.921	2.963	0.518
984.000	572.052	80.006	19.994	103.194	19.928	2.455	0.495
992.000	576.221	80.006	19.995	103.185	19.926	2.624	0.502
1000.000	580.323	80.006	19.994	103.183	19.926	2.626	0.510
1008.000	584.331	80.007	19.994	103.176	19.933	2.092	0.514
1016.000	588.418	80.006	19.995	103.182	19.932	2.161	0.500
1024.000	592.500	80.006	19.995	103.174	19.935	1.995	0.517
1032.001	596.569	80.006	19.996	103.178	19.934	2.061	0.503
1040.000	600.658	80.005	19.995	103.167	19.934	2.065	0.524
1048.001	604.706	80.005	19.995	103.185	19.935	1.929	0.517
1056.000	608.702	80.005	19.996	103.170	19.938	1.728	0.493
1064.000	612.746	80.006	19.995	103.170	19.936	1.917	0.516
1072.001	616.843	80.006	19.996	103.171	19.935	1.952	0.502
1080.001	620.857	80.007	19.995	103.151	19.940	1.573	0.479
1088.001	624.905	80.008	19.995	103.171	19.941	1.528	0.476
1096.000	628.988	80.005	19.996	103.148	19.940	1.574	0.517
1104.000	633.044	80.006	19.994	103.185	19.940	1.610	0.489
1112.000	637.134	80.006	19.994	103.166	19.941	1.538	0.522
1120.000	641.154	80.006	19.995	103.172	19.941	1.530	0.507
1128.000	645.140	80.003	19.995	103.152	19.938	1.726	0.473
1136.001	649.134	80.006	19.996	103.181	19.940	1.590	0.498
1144.000	653.040	80.006	19.996	103.143	19.943	1.380	0.478
1152.001	657.104	80.005	19.995	103.158	19.942	1.481	0.517
1160.001	660.862	80.006	19.996	103.156	19.942	1.432	0.448
1168.000	664.813	80.009	19.996	103.156	19.941	1.549	0.487
1176.000	668.823	80.005	19.994	103.153	19.941	1.514	0.466
1184.000	672.881	80.004	19.995	103.161	19.947	1.109	0.505
1192.000	677.039	80.005	19.995	103.155	19.942	1.489	0.515
1200.001	681.114	80.005	19.994	103.166	19.942	1.452	0.523
1208.000	685.212	80.005	19.995	103.168	19.946	1.189	0.533
1216.000	689.336	80.005	19.995	103.144	19.945	1.263	0.519
1224.000	693.391	80.005	19.996	103.154	19.948	1.031	0.511
1232.000	697.470	80.006	19.994	103.143	19.951	0.833	0.505
1240.000	701.488	80.005	19.995	103.155	19.949	0.992	0.511
1248.000	705.428	80.005	19.996	103.147	19.949	0.955	0.490
1256.000	709.441	80.005	19.995	103.146	19.953	0.650	0.496
1264.000	713.486	80.002	19.994	103.148	19.950	0.866	0.529
1272.000	717.695	80.004	19.995	103.148	19.952	0.757	0.538
1280.000	721.896	80.006	19.994	103.142	19.951	0.841	0.510
1288.000	726.006	80.005	19.994	103.145	19.951	0.788	0.495
1296.000	730.184	80.005	19.995	103.143	19.952	0.761	0.552
1304.000	734.376	80.005	19.995	103.150	19.946	1.181	0.524
1312.000	738.581	80.005	19.996	103.141	19.950	0.899	0.514
1320.000	742.692	80.006	19.995	103.154	19.947	1.119	0.523
1321.500	743.492	80.005	19.995	103.150	19.950	0.891	0.529