File: 01_Data/PVC_Pipe/MCC/PVC_Pipe_MCC_30K_min_211118_R1.txt
Sample ID:	C:\MCC\MCC Cal\Test\PVC_Pipe_MCC_30K_min_211118_R1.txt
Sample Weight (mg):	4.46
Heating Rate (C/s):	0.5
Combustor Temp (C):	900
N2 Flow Rate (cc/min):	80
O2 Flow Rate (cc/min):	20
Calibration File:	C:\MCC\MCC Cal\Coeff1 JN10440_30_210304.txt.txt
T Correction Coefficients:	0	1.024463	0
Time Shift (s):	14
*
Time (s)	Temperature (C)	N2 flow rate (cc/min)	O2 flow rate (cc/min)	Flow Rate (cc/min)	Oxygen (%)	HRR (W/g)	Heating rate (C/s)
-0.001	110.025	80.005	19.995	103.071	19.911	-0.307	0.020
8.000	109.933	80.003	19.996	103.073	19.911	-0.330	0.011
16.000	109.895	80.004	19.994	103.070	19.909	-0.136	-0.043
24.000	109.891	80.006	19.994	103.066	19.909	-0.152	-0.023
32.000	109.861	80.007	19.995	103.127	19.902	0.374	-0.024
39.999	110.095	80.005	19.994	103.220	19.886	1.514	0.033
48.000	110.816	80.002	19.995	103.231	19.879	2.013	0.149
56.000	111.924	80.005	19.994	103.244	19.877	2.164	0.155
64.000	113.289	80.005	19.994	103.301	19.874	2.400	0.197
72.001	115.078	80.003	19.995	103.306	19.866	2.941	0.204
79.999	117.332	80.004	19.995	103.328	19.866	2.956	0.299
88.001	119.821	80.004	19.995	103.329	19.866	2.966	0.308
96.000	122.622	80.003	19.994	103.323	19.864	3.114	0.371
103.999	125.604	80.003	19.995	103.310	19.864	3.093	0.369
111.999	128.734	80.007	19.994	103.331	19.861	3.276	0.434
119.999	132.002	80.004	19.994	103.336	19.862	3.266	0.414
127.999	135.406	80.001	19.994	103.338	19.860	3.392	0.406
136.000	138.989	80.003	19.994	103.338	19.862	3.207	0.448
144.000	142.705	80.005	19.994	103.339	19.863	3.199	0.486
152.000	146.409	80.004	19.996	103.330	19.862	3.222	0.437
160.000	150.318	80.004	19.995	103.329	19.861	3.284	0.473
168.000	154.222	80.004	19.995	103.330	19.862	3.240	0.507
176.000	158.122	80.004	19.995	103.315	19.865	3.029	0.487
184.000	162.086	80.006	19.995	103.325	19.865	3.031	0.458
192.000	166.133	80.005	19.996	103.308	19.864	3.125	0.497
200.000	170.220	80.004	19.995	103.307	19.865	3.049	0.514
208.000	174.245	80.003	19.994	103.305	19.862	3.214	0.485
216.000	178.290	80.005	19.995	103.293	19.863	3.152	0.519
224.000	182.312	80.004	19.995	103.295	19.863	3.200	0.511
232.000	186.336	80.004	19.995	103.288	19.865	3.010	0.507
240.000	190.359	80.004	19.995	103.277	19.864	3.124	0.533
248.000	194.303	80.005	19.997	103.275	19.864	3.093	0.486
256.000	198.247	80.002	19.996	103.270	19.863	3.144	0.501
264.000	202.102	80.002	19.996	103.267	19.863	3.163	0.482
272.000	206.035	80.006	19.995	103.265	19.863	3.136	0.470
280.000	209.939	80.005	19.994	103.260	19.861	3.335	0.461
288.000	213.886	80.001	19.996	103.259	19.857	3.624	0.540
296.000	217.714	80.003	19.995	103.258	19.848	4.261	0.470
304.000	221.616	80.004	19.995	103.259	19.840	4.794	0.514
312.000	225.501	80.003	19.995	103.259	19.831	5.444	0.482
320.000	229.475	80.000	19.995	103.263	19.820	6.297	0.503
328.000	233.446	80.004	19.995	103.260	19.821	6.213	0.494
336.000	237.428	80.004	19.995	103.260	19.838	4.978	0.495
344.000	241.455	80.004	19.994	103.264	19.843	4.641	0.511
352.000	245.456	80.004	19.995	103.258	19.840	4.824	0.503
360.000	249.486	80.007	19.995	103.243	19.835	5.161	0.527
368.000	253.527	80.005	19.996	103.251	19.827	5.779	0.482
376.000	257.531	80.003	19.996	103.254	19.823	6.061	0.512
384.000	261.552	80.002	19.996	103.235	19.817	6.501	0.494
392.000	265.546	80.003	19.995	103.246	19.809	7.055	0.484
400.000	269.543	80.002	19.994	103.250	19.805	7.373	0.488
408.000	273.601	80.003	19.995	103.263	19.801	7.626	0.523
416.000	277.566	80.003	19.995	103.268	19.802	7.573	0.521
424.000	281.554	80.003	19.996	103.294	19.797	7.909	0.504
432.000	285.565	80.006	19.994	103.332	19.784	8.920	0.525
440.000	289.500	80.006	19.994	103.413	19.757	10.857	0.514
448.000	293.458	80.003	19.995	103.607	19.710	14.273	0.462
456.000	297.412	80.002	19.995	103.648	19.666	17.329	0.495
464.000	301.323	80.002	19.996	103.164	19.654	18.241	0.482
472.000	305.233	80.003	19.995	102.958	19.685	16.017	0.507
480.000	309.283	80.004	19.996	103.165	19.715	13.852	0.526
488.000	313.259	80.004	19.995	103.229	19.735	12.401	0.494
496.000	317.274	80.006	19.994	103.243	19.746	11.645	0.508
504.000	321.175	80.004	19.995	103.228	19.758	10.743	0.495
512.000	325.113	80.005	19.994	103.218	19.772	9.698	0.480
520.000	329.091	80.007	19.994	103.215	19.789	8.523	0.525
528.000	333.055	80.004	19.994	103.193	19.801	7.624	0.505
536.000	337.088	80.004	19.995	103.204	19.812	6.832	0.525
544.000	341.130	80.004	19.996	103.182	19.819	6.338	0.528
552.000	345.148	80.004	19.996	103.181	19.835	5.159	0.502
560.000	349.286	80.003	19.996	103.179	19.839	4.921	0.619
568.000	353.310	80.003	19.996	103.181	19.842	4.667	0.579
576.000	357.363	80.004	19.994	103.183	19.839	4.873	0.469
584.000	361.598	80.003	19.994	103.219	19.840	4.821	0.530
592.000	365.734	80.003	19.995	103.228	19.840	4.793	0.536
600.000	369.856	80.006	19.994	103.261	19.841	4.789	0.542
608.000	373.998	80.005	19.996	103.259	19.838	4.976	0.532
616.000	378.085	80.003	19.995	103.271	19.832	5.417	0.502
624.000	382.222	80.004	19.994	103.269	19.824	6.013	0.516
632.000	386.231	80.004	19.993	103.273	19.819	6.348	0.502
640.000	390.328	80.002	19.995	103.286	19.801	7.659	0.525
648.000	394.515	80.002	19.993	103.270	19.783	8.912	0.522
656.000	398.582	80.004	19.995	103.268	19.760	10.582	0.538
664.000	402.624	80.004	19.995	103.264	19.730	12.780	0.494
672.000	406.660	80.004	19.996	103.267	19.695	15.337	0.527
680.000	410.669	80.005	19.993	103.264	19.645	18.896	0.492
688.000	414.680	80.004	19.994	103.261	19.590	22.897	0.508
696.000	418.735	80.003	19.995	103.265	19.523	27.765	0.490
704.000	422.882	80.003	19.995	103.272	19.451	32.900	0.484
712.000	427.193	80.003	19.995	103.273	19.371	38.711	0.576
720.000	431.363	80.004	19.994	103.265	19.290	44.538	0.504
728.000	435.623	80.002	19.996	103.266	19.221	49.524	0.502
736.000	439.806	80.004	19.995	103.262	19.174	52.975	0.516
744.000	443.990	80.005	19.995	103.268	19.140	55.416	0.496
752.000	448.126	80.003	19.995	103.284	19.029	63.359	0.501
760.000	452.129	80.003	19.996	103.235	18.907	72.198	0.498
768.000	456.220	80.006	19.995	103.263	18.882	74.066	0.524
776.000	460.287	80.003	19.995	103.258	18.916	71.581	0.494
784.000	464.437	80.004	19.994	103.263	19.007	65.005	0.506
792.000	468.600	80.003	19.995	103.266	19.103	58.085	0.546
800.000	472.664	80.003	19.995	103.277	19.187	51.996	0.493
808.000	476.827	80.004	19.995	103.230	19.225	49.269	0.503
816.000	480.871	80.005	19.994	103.240	19.269	46.097	0.505
824.000	484.950	80.004	19.995	103.245	19.311	43.047	0.493
832.000	488.971	80.004	19.995	103.223	19.349	40.316	0.520
840.000	492.972	80.005	19.995	103.232	19.419	35.215	0.507
848.000	496.949	80.006	19.996	103.227	19.480	30.827	0.492
856.000	500.840	80.002	19.997	103.223	19.536	26.773	0.525
864.000	504.705	80.002	19.995	103.225	19.590	22.902	0.491
872.000	508.641	80.004	19.995	103.229	19.637	19.495	0.474
880.000	512.608	80.004	19.995	103.224	19.678	16.514	0.475
888.000	516.749	80.004	19.993	103.221	19.716	13.773	0.523
896.000	520.863	80.004	19.995	103.222	19.745	11.651	0.513
904.000	524.993	80.006	19.995	103.222	19.769	9.987	0.506
912.000	529.108	80.004	19.994	103.217	19.792	8.272	0.510
920.000	533.206	80.004	19.996	103.222	19.808	7.155	0.519
928.000	537.353	80.006	19.995	103.212	19.823	6.062	0.517
936.000	541.566	80.005	19.995	103.217	19.834	5.273	0.532
944.000	545.769	80.003	19.995	103.213	19.844	4.540	0.542
952.000	550.013	80.004	19.995	103.188	19.849	4.155	0.559
960.000	554.193	80.005	19.997	103.195	19.854	3.801	0.531
968.000	558.324	80.004	19.996	103.207	19.859	3.471	0.532
976.000	562.508	80.004	19.996	103.196	19.865	3.034	0.556
984.000	566.571	80.006	19.993	103.197	19.870	2.671	0.525
992.000	570.643	80.004	19.994	103.192	19.868	2.815	0.499
1000.000	574.720	80.005	19.995	103.205	19.874	2.390	0.529
1008.000	578.800	80.007	19.996	103.182	19.880	1.927	0.527
1016.000	582.846	80.006	19.996	103.185	19.875	2.299	0.511
1024.000	586.780	80.005	19.996	103.192	19.883	1.752	0.497
1031.999	590.717	80.003	19.997	103.194	19.882	1.789	0.465
1039.999	594.788	80.003	19.996	103.190	19.883	1.734	0.525
1047.999	598.768	80.003	19.995	103.199	19.879	2.014	0.512
1055.999	602.774	80.003	19.995	103.199	19.883	1.750	0.476
1063.999	606.882	80.005	19.996	103.200	19.884	1.636	0.540
1071.999	610.998	80.006	19.994	103.181	19.881	1.848	0.529
1080.000	615.125	80.004	19.995	103.183	19.882	1.797	0.551
1088.000	619.258	80.006	19.996	103.184	19.880	1.915	0.535
1095.999	623.394	80.005	19.993	103.189	19.886	1.468	0.543
1103.999	627.561	80.004	19.996	103.205	19.881	1.882	0.541
1111.999	631.686	80.004	19.995	103.194	19.885	1.573	0.494
1119.999	635.767	80.004	19.995	103.195	19.890	1.222	0.490
1127.999	639.865	80.003	19.995	103.185	19.888	1.342	0.477
1136.000	643.933	80.002	19.997	103.182	19.884	1.644	0.479
1144.000	647.979	80.005	19.994	103.182	19.890	1.189	0.500
1151.999	652.006	80.008	19.995	103.183	19.888	1.350	0.553
1159.999	656.073	80.006	19.996	103.186	19.891	1.120	0.521
1167.999	660.094	80.005	19.996	103.186	19.891	1.126	0.500
1175.999	664.155	80.007	19.994	103.185	19.890	1.238	0.508
1183.999	668.158	80.004	19.992	103.191	19.893	0.978	0.498
1192.000	672.220	80.005	19.996	103.183	19.893	0.966	0.496
1199.999	676.374	80.003	19.997	103.182	19.891	1.110	0.501
1207.999	680.398	80.004	19.997	103.179	19.892	1.051	0.505
1215.999	684.426	80.004	19.996	103.183	19.894	0.903	0.499
1224.001	688.484	80.003	19.996	103.182	19.890	1.199	0.501
1232.000	692.512	80.005	19.995	103.183	19.891	1.149	0.489
1240.000	696.608	80.004	19.996	103.183	19.892	1.041	0.545
1248.000	700.698	80.004	19.996	103.185	19.891	1.110	0.528
1256.001	704.724	80.007	19.995	103.184	19.892	1.041	0.498
1264.000	708.663	80.006	19.996	103.180	19.890	1.189	0.515
1272.000	712.603	80.004	19.995	103.182	19.894	0.909	0.482
1280.000	716.517	80.005	19.994	103.180	19.893	1.002	0.497
1288.000	720.430	80.004	19.996	103.180	19.888	1.368	0.484
1296.000	724.420	80.004	19.996	103.176	19.889	1.305	0.496
1304.000	728.410	80.004	19.997	103.181	19.890	1.224	0.481
1312.000	732.441	80.006	19.995	103.185	19.888	1.364	0.502
1320.000	736.581	80.006	19.995	103.184	19.889	1.311	0.500
1328.000	740.662	80.006	19.996	103.179	19.887	1.441	0.515
1333.500	743.539	80.006	19.993	103.179	19.886	1.494	0.526