File: 01_Data/Romex_Cable/STA/N2/10K_min/Romex_Cable_STA_N2_10KData_220715_R1.csv
##Temp./Â°C,Time/min,Mass loss(subtr.2)/mg,DSC(subtr.2)/(mW/mg),Sensit./(uV/mW)
49.422,10.01,-0.0168,0.004868321,1.07026
52.222,11.26061,-0.0136207,0.10798,1.06948
55.022,11.67793,-0.0167084,0.16402,1.0687
57.822,12.0269,-0.01795625,0.1968,1.06792
60.622,12.35207,-0.01633034,0.21896,1.06712
63.422,12.6639,-0.0177772,0.23045,1.06632
66.222,12.96905,-0.01912244,0.24243,1.0655
69.022,13.2697,-0.01911437,0.24815,1.06468
71.822,13.5671,-0.02042638,0.25342,1.06386
74.622,13.86159,-0.02180445,0.25651,1.06302
77.422,14.1538,-0.02167748,0.26255,1.06217
80.222,14.4423,-0.02288512,0.26707,1.06132
83.022,14.72845,-0.02305005,0.26994,1.06046
85.822,15.0131,-0.02437166,0.27265,1.05959
88.622,15.2954,-0.02466151,0.27529,1.05871
91.422,15.5762,-0.02470498,0.27647,1.05783
94.222,15.85411,-0.02430561,0.28078,1.05693
97.022,16.13101,-0.02558143,0.28375,1.05603
99.822,16.4066,-0.02651943,0.28373,1.05512
102.622,16.68178,-0.02689017,0.28519,1.0542
105.422,16.95591,-0.02822003,0.28884,1.05327
108.222,17.22999,-0.02821996,0.29035,1.05234
111.022,17.50316,-0.02967874,0.29288,1.05139
113.822,17.77713,-0.03085678,0.29507,1.05044
116.622,18.05082,-0.029862,0.29999,1.04948
119.422,18.32324,-0.03224261,0.30303,1.04851
122.222,18.59526,-0.03085014,0.30464,1.04753
125.022,18.86751,-0.0334801,0.30696,1.04654
127.822,19.13926,-0.03347653,0.30896,1.04554
130.622,19.4106,-0.03479652,0.31368,1.04454
133.422,19.6814,-0.03578999,0.31611,1.04353
136.222,19.9516,-0.03644996,0.31853,1.04251
139.022,20.22154,-0.03711025,0.32157,1.04148
141.822,20.49205,-0.03706081,0.32646,1.04044
144.622,20.76191,-0.03875552,0.32699,1.03939
147.422,21.0309,-0.04006976,0.33038,1.03833
150.222,21.29969,-0.04072706,0.33297,1.03727
153.022,21.56784,-0.04204398,0.33568,1.0362
155.822,21.8357,-0.0437,0.33702,1.03511
158.622,22.10453,-0.04770092,0.33993,1.03402
161.422,22.3723,-0.04765002,0.34358,1.03292
164.222,22.64085,-0.04897,0.34441,1.03181
167.022,22.90936,-0.05029,0.34515,1.0307
169.822,23.17661,-0.05224964,0.34774,1.02957
172.622,23.44464,-0.05422979,0.34976,1.02843
175.422,23.71164,-0.05687,0.35411,1.02729
178.222,23.9788,-0.05783124,0.35636,1.02614
181.022,24.24546,-0.06082438,0.3582,1.02498
183.822,24.51243,-0.06280032,0.35729,1.02381
186.622,24.77884,-0.06444001,0.3569,1.02263
189.422,25.04587,-0.06743882,0.35472,1.02144
192.222,25.31354,-0.07005301,0.35212,1.02024
195.022,25.58053,-0.07004935,0.35224,1.01903
197.822,25.84628,-0.07269612,0.35328,1.01782
200.622,26.11281,-0.07533247,0.35396,1.01659
203.422,26.37895,-0.07795116,0.35604,1.01536
206.222,26.6456,-0.08058017,0.35892,1.01411
209.022,26.9116,-0.08453878,0.36243,1.01286
211.822,27.1787,-0.08510921,0.36935,1.0116
214.622,27.44517,-0.08968747,0.38174,1.01033
217.422,27.7129,-0.09276648,0.39629,1.00905
220.222,27.9794,-0.09602242,0.41083,1.00776
223.022,28.2463,-0.10031,0.39538,1.00646
225.822,28.51215,-0.10298,0.37097,1.00515
228.622,28.7781,-0.10826,0.36539,1.00384
231.422,29.04457,-0.11291,0.36468,1.00251
234.222,29.3104,-0.11747,0.36653,1.00118
237.022,29.5761,-0.12404,0.36925,0.99983
239.822,29.842,-0.12988,0.3697,0.99848
242.622,30.1082,-0.13806,0.37115,0.99712
245.422,30.37401,-0.14551,0.37096,0.99574
248.222,30.6408,-0.15509,0.373,0.99436
251.022,30.9074,-0.16545,0.37703,0.99297
253.822,31.17397,-0.17834,0.37855,0.99157
256.622,31.4416,-0.19086,0.38526,0.99016
259.422,31.70843,-0.20626,0.39094,0.98874
262.222,31.97506,-0.2219,0.40048,0.98731
265.022,32.24194,-0.2421,0.40778,0.98587
267.822,32.5084,-0.26323,0.41728,0.98442
270.622,32.77518,-0.28803,0.43035,0.98297
273.422,33.04248,-0.3155,0.4451,0.9815
276.222,33.30922,-0.34942,0.46792,0.98002
279.022,33.57631,-0.38865,0.50103,0.97854
281.822,33.84355,-0.43601,0.52963,0.97704
284.622,34.11143,-0.49189,0.55376,0.97554
287.422,34.37944,-0.55428,0.57387,0.97403
290.222,34.64737,-0.62545,0.59578,0.9725
293.022,34.91527,-0.70188,0.60761,0.97097
295.822,35.18415,-0.78337,0.61396,0.96943
298.622,35.45239,-0.87014,0.58843,0.96787
301.422,35.72055,-0.9597,0.54129,0.96631
304.222,35.98854,-1.05694,0.57534,0.96474
307.022,36.25742,-1.16376,0.61942,0.96316
309.822,36.52643,-1.27657,0.65265,0.96157
312.622,36.79548,-1.39234,0.67095,0.95997
315.422,37.06449,-1.50687,0.67315,0.95836
318.222,37.33285,-1.61832,0.64992,0.95674
321.022,37.60212,-1.71576,0.59101,0.95511
323.822,37.87023,-1.79382,0.52161,0.95347
326.622,38.13955,-1.85665,0.46477,0.95183
329.422,38.40768,-1.90828,0.41701,0.95017
332.222,38.67608,-1.94879,0.37103,0.9485
335.022,38.94465,-1.98108,0.33778,0.94682
337.822,39.21334,-2.0117,0.30585,0.94514
340.622,39.48252,-2.03541,0.27536,0.94344
343.422,39.75163,-2.056,0.25275,0.94174
346.222,40.02133,-2.07434,0.22659,0.94002
349.022,40.29078,-2.08978,0.2078,0.9383
351.822,40.56087,-2.10097,0.19229,0.93656
354.622,40.8307,-2.11303,0.17745,0.93482
357.422,41.10075,-2.12134,0.16931,0.93307
360.222,41.3716,-2.13017,0.16235,0.9313
363.022,41.64204,-2.13757,0.15968,0.92953
365.822,41.91346,-2.14481,0.15934,0.92775
368.622,42.18489,-2.15067,0.15885,0.92596
371.422,42.45576,-2.15691,0.15976,0.92416
374.222,42.72773,-2.16242,0.15821,0.92235
377.022,42.9993,-2.16728,0.16032,0.92053
379.822,43.27156,-2.17426,0.15969,0.9187
382.622,43.54305,-2.17953,0.16094,0.91686
385.422,43.81477,-2.18504,0.15994,0.91501
388.222,44.0869,-2.19153,0.15976,0.91315
391.022,44.3591,-2.19675,0.16146,0.91128
393.822,44.63135,-2.20335,0.16222,0.90941
396.622,44.90319,-2.21136,0.16139,0.90752
399.422,45.17523,-2.21833,0.16359,0.90563
402.222,45.44696,-2.22497,0.16221,0.90372
405.022,45.72022,-2.23433,0.16406,0.90181
407.822,45.9927,-2.24361,0.16082,0.89988
410.622,46.26593,-2.25181,0.16096,0.89795
413.422,46.5396,-2.26174,0.16138,0.89601
416.222,46.8128,-2.2722,0.15751,0.89406
419.022,47.0862,-2.28244,0.15422,0.8921
421.822,47.3598,-2.29456,0.1501,0.89013
424.622,47.6336,-2.30492,0.14715,0.88815
427.422,47.90809,-2.31786,0.14387,0.88616
430.222,48.18197,-2.3309,0.14019,0.88416
433.022,48.4563,-2.3447,0.14054,0.88215
435.822,48.73106,-2.36012,0.14225,0.88014
438.622,49.00524,-2.37863,0.14404,0.87811
441.422,49.28,-2.39449,0.15569,0.87608
444.222,49.5548,-2.4141,0.16333,0.87404
447.022,49.82936,-2.43562,0.1802,0.87198
449.822,50.1043,-2.45713,0.1936,0.86992
452.622,50.37957,-2.47997,0.20234,0.86785
455.422,50.6547,-2.50336,0.21111,0.86577
458.222,50.9304,-2.52571,0.22217,0.86369
461.022,51.20561,-2.54832,0.22768,0.86159
463.822,51.48093,-2.5707,0.23246,0.85948
466.622,51.75673,-2.59037,0.23604,0.85737
469.422,52.03167,-2.61207,0.2367,0.85525
472.222,52.3074,-2.63098,0.24104,0.85311
475.022,52.5824,-2.64974,0.24027,0.85097
477.822,52.85776,-2.6662,0.23627,0.84883
480.622,53.13384,-2.6794,0.22974,0.84667
483.422,53.41053,-2.69309,0.22165,0.8445
486.222,53.68619,-2.70564,0.21246,0.84233
489.022,53.9627,-2.71676,0.2061,0.84014
491.822,54.23842,-2.72527,0.19614,0.83795
494.622,54.5153,-2.73316,0.19388,0.83575
497.422,54.79189,-2.7412,0.18834,0.83354
500.222,55.0682,-2.74698,0.18693,0.83133
503.022,55.3452,-2.75257,0.18559,0.8291
505.822,55.62254,-2.75832,0.18303,0.82687
508.622,55.89985,-2.76128,0.18187,0.82463
511.422,56.17685,-2.76514,0.18178,0.82238
514.222,56.4541,-2.76973,0.18688,0.82012
517.022,56.7318,-2.77276,0.19228,0.81785
519.822,57.0098,-2.77741,0.19894,0.81558
522.622,57.28736,-2.77872,0.19837,0.8133
525.422,57.56534,-2.78267,0.20086,0.81101
528.222,57.8433,-2.78429,0.20377,0.80871
531.022,58.1211,-2.78696,0.20756,0.80641
533.822,58.39892,-2.78992,0.20826,0.80409
536.622,58.67771,-2.79378,0.20942,0.80177
539.422,58.9567,-2.79553,0.21159,0.79944
542.222,59.2355,-2.79714,0.21818,0.79711
545.022,59.51376,-2.80083,0.22494,0.79477
547.822,59.79221,-2.80441,0.22678,0.79241
550.622,60.07065,-2.80573,0.23533,0.79006
553.422,60.3484,-2.80969,0.24602,0.78769
556.222,60.6265,-2.81364,0.25601,0.78532
559.022,60.90535,-2.81769,0.26495,0.78294
561.822,61.1839,-2.82054,0.27549,0.78055
564.622,61.4632,-2.82582,0.28663,0.77816
567.422,61.7432,-2.83077,0.29391,0.77576
570.222,62.0226,-2.83465,0.29218,0.77335
573.022,62.3033,-2.84005,0.28388,0.77093
575.822,62.5829,-2.8442,0.26651,0.76851
578.622,62.86235,-2.848,0.24439,0.76608
581.422,63.1416,-2.85065,0.22146,0.76365
584.222,63.42075,-2.85459,0.20211,0.7612
587.022,63.70069,-2.85756,0.19229,0.75876
589.822,63.9802,-2.85986,0.18672,0.7563
592.622,64.2599,-2.86183,0.1807,0.75384
595.422,64.53949,-2.86383,0.17903,0.75137
598.222,64.82002,-2.86546,0.18015,0.7489
601.022,65.09987,-2.86776,0.1815,0.74642
603.822,65.37971,-2.86842,0.18337,0.74393
606.622,65.65988,-2.87039,0.18522,0.74144
609.422,65.9397,-2.87139,0.19289,0.73894
612.222,66.22001,-2.87303,0.20316,0.73643
615.022,66.50045,-2.87566,0.21308,0.73392
617.822,66.7805,-2.87699,0.22234,0.7314
620.622,67.06059,-2.87896,0.23515,0.72888
623.422,67.34044,-2.88293,0.24962,0.72635
626.222,67.62114,-2.88489,0.26563,0.72382
629.022,67.90221,-2.88686,0.27947,0.72128
631.822,68.1832,-2.8895,0.29694,0.71874
634.622,68.46401,-2.89223,0.31276,0.71619
637.422,68.74462,-2.89468,0.3303,0.71363
640.222,69.02605,-2.90008,0.35633,0.71107
643.022,69.30734,-2.90262,0.37976,0.70851
645.822,69.5886,-2.90794,0.40794,0.70593
648.622,69.87075,-2.9123,0.43815,0.70336
651.422,70.15294,-2.92087,0.47484,0.70078
654.222,70.43483,-2.92465,0.5092,0.69819
657.022,70.71602,-2.93094,0.54789,0.6956
659.822,70.99758,-2.93985,0.58605,0.69301
662.622,71.27888,-2.94786,0.62388,0.69041
665.422,71.55957,-2.95789,0.65692,0.68781
668.222,71.84035,-2.96547,0.68365,0.6852
671.022,72.12185,-2.9771,0.69746,0.68259
673.822,72.40335,-2.98729,0.68531,0.67997
676.622,72.68557,-2.99759,0.63414,0.67735
679.422,72.96817,-3.00469,0.53214,0.67472
682.222,73.24979,-3.01257,0.39464,0.6721
685.022,73.53183,-3.01652,0.27144,0.66946
687.822,73.81364,-3.01746,0.19902,0.66683
690.622,74.09568,-3.01969,0.16403,0.66419
693.422,74.37829,-3.02047,0.1491,0.66154
696.222,74.661,-3.0218,0.13948,0.6589
699.022,74.94382,-3.02277,0.13955,0.65625
699.522,74.99455,-3.02277,0.13934,0.65577