File: 01_Data/Romex_Cable/STA/N2/10K_min/Romex_Cable_STA_N2_10KData_220718_R2.csv
##Temp./Â°C,Time/min,Mass loss(subtr.2)/mg,DSC(subtr.2)/(mW/mg),Sensit./(uV/mW)
49.649,10.01,0.03392,0.0008911272,1.07019
52.449,11.26109,0.03700372,0.11192,1.06942
55.249,11.6792,0.03698748,0.17053,1.06864
58.049,12.0288,0.03749766,0.2037,1.06785
60.849,12.35352,0.03878074,0.22728,1.06706
63.649,12.66581,0.03940391,0.24224,1.06625
66.449,12.9709,0.03941118,0.25234,1.06544
69.249,13.2717,0.04073055,0.25637,1.06462
72.049,13.56882,0.03941985,0.26313,1.06379
74.849,13.86331,0.0392913,0.26922,1.06295
77.649,14.1548,0.04000747,0.27461,1.06211
80.449,14.44356,0.04042668,0.2798,1.06125
83.249,14.73091,0.04006693,0.28493,1.06039
86.049,15.01409,0.03997454,0.28947,1.05952
88.849,15.29625,0.04067734,0.29376,1.05864
91.649,15.57606,0.03940369,0.29788,1.05775
94.449,15.85415,0.04073699,0.29946,1.05686
97.249,16.13039,0.03809314,0.30308,1.05596
100.049,16.40589,0.03941362,0.30717,1.05504
102.849,16.68054,0.03809965,0.30813,1.05412
105.649,16.95551,0.03888913,0.31266,1.0532
108.449,17.2299,0.03940951,0.31341,1.05226
111.249,17.50413,0.04007003,0.31786,1.05131
114.049,17.77646,0.03932331,0.32035,1.05036
116.849,18.05056,0.03973989,0.32304,1.0494
119.649,18.32239,0.03809047,0.32539,1.04843
122.449,18.59458,0.03810182,0.33009,1.04745
125.249,18.86693,0.03876,0.33467,1.04646
128.049,19.1385,0.03941014,0.3389,1.04546
130.849,19.40919,0.03806087,0.34306,1.04446
133.649,19.6797,0.03940996,0.34477,1.04344
136.449,19.95145,0.03974,0.34598,1.04242
139.249,20.2214,0.0378813,0.35177,1.04139
142.049,20.49161,0.03945038,0.35434,1.04035
144.849,20.76098,0.03766722,0.35492,1.0393
147.649,21.02985,0.0386456,0.35931,1.03825
150.449,21.29844,0.03568,0.36169,1.03718
153.249,21.56674,0.03565019,0.36419,1.03611
156.049,21.83537,0.03436026,0.36751,1.03503
158.849,22.10409,0.0343637,0.37105,1.03393
161.649,22.37291,0.03248366,0.37146,1.03283
164.449,22.64141,0.03041135,0.37326,1.03172
167.249,22.90917,0.03041028,0.37628,1.03061
170.049,23.17781,0.02761706,0.38028,1.02948
172.849,23.4453,0.02777158,0.38413,1.02834
175.649,23.71345,0.0254671,0.38679,1.0272
178.449,23.98118,0.02514,0.38975,1.02604
181.249,24.24869,0.02251543,0.39046,1.02488
184.049,24.51588,0.02086004,0.38811,1.02371
186.849,24.7829,0.01856394,0.39152,1.02253
189.649,25.04964,0.01589821,0.38694,1.02134
192.449,25.31671,0.01427,0.38775,1.02014
195.249,25.5836,0.01317727,0.38977,1.01893
198.049,25.84979,0.01032002,0.39468,1.01772
200.849,26.11625,0.00899804,0.39417,1.01649
203.649,26.3824,0.00766321,0.39798,1.01526
206.449,26.6494,0.003739625,0.40405,1.01401
209.249,26.9155,0.00274174,0.41182,1.01276
212.049,27.1822,0.000126305,0.42159,1.0115
214.849,27.44913,-0.002518378,0.43386,1.01023
217.649,27.71609,-0.005160278,0.45635,1.00894
220.449,27.98283,-0.008681085,0.47464,1.00766
223.249,28.2495,-0.01307,0.4512,1.00636
226.049,28.51657,-0.01569645,0.41485,1.00505
228.849,28.7827,-0.01885785,0.40615,1.00373
231.649,29.04952,-0.02393556,0.40527,1.0024
234.449,29.3158,-0.0281089,0.4093,1.00107
237.249,29.58205,-0.03428308,0.40942,0.99972
240.049,29.8483,-0.03974368,0.40912,0.99837
242.849,30.11543,-0.04716299,0.41091,0.997
245.649,30.38213,-0.05427067,0.41274,0.99563
248.449,30.64943,-0.06333351,0.41489,0.99425
251.249,30.9164,-0.07527192,0.41752,0.99286
254.049,31.1828,-0.08372212,0.42151,0.99145
256.849,31.44912,-0.09861746,0.42846,0.99004
259.649,31.7158,-0.11127,0.4317,0.98862
262.449,31.98167,-0.12676,0.43798,0.98719
265.249,32.24895,-0.14532,0.44771,0.98576
268.049,32.5157,-0.16635,0.4571,0.98431
270.849,32.7828,-0.19043,0.46934,0.98285
273.649,33.0503,-0.21751,0.48337,0.98138
276.449,33.31752,-0.24946,0.50485,0.9799
279.249,33.585,-0.28737,0.53189,0.97842
282.049,33.85277,-0.3328,0.55871,0.97692
284.849,34.12044,-0.38441,0.58119,0.97542
287.649,34.3885,-0.44579,0.60206,0.9739
290.449,34.6564,-0.51452,0.62155,0.97238
293.249,34.92438,-0.58797,0.63436,0.97084
296.049,35.19182,-0.66995,0.63965,0.9693
298.849,35.45978,-0.7538,0.60514,0.96775
301.649,35.7269,-0.84029,0.58601,0.96619
304.449,35.9951,-0.93831,0.61897,0.96461
307.249,36.26347,-1.04448,0.65764,0.96303
310.049,36.5325,-1.15594,0.69072,0.96144
312.849,36.80122,-1.27119,0.71702,0.95984
315.649,37.07027,-1.39041,0.71318,0.95823
318.449,37.3394,-1.49838,0.6759,0.95661
321.249,37.6086,-1.58749,0.60518,0.95498
324.049,37.87765,-1.65775,0.53591,0.95334
326.849,38.14651,-1.71355,0.48707,0.95169
329.649,38.4154,-1.75815,0.44115,0.95003
332.449,38.68468,-1.79677,0.40188,0.94837
335.249,38.95377,-1.82774,0.36725,0.94669
338.049,39.22376,-1.85306,0.33735,0.945
340.849,39.49268,-1.87609,0.31114,0.9433
343.649,39.7616,-1.89319,0.28867,0.9416
346.449,40.03151,-1.90792,0.26733,0.93988
349.249,40.3009,-1.92328,0.25176,0.93816
352.049,40.57047,-1.93371,0.23428,0.93642
354.849,40.84128,-1.94396,0.22775,0.93468
357.649,41.11183,-1.95413,0.21873,0.93292
360.449,41.3822,-1.96402,0.21625,0.93116
363.249,41.6532,-1.97074,0.21332,0.92939
366.049,41.92402,-1.97706,0.21294,0.9276
368.849,42.19494,-1.98414,0.21301,0.92581
371.649,42.46613,-1.98949,0.21473,0.92401
374.449,42.737,-1.99614,0.21613,0.9222
377.249,43.00898,-2.00411,0.21606,0.92038
380.049,43.28114,-2.00806,0.21814,0.91855
382.849,43.55312,-2.01775,0.22039,0.91671
385.649,43.82508,-2.02274,0.21896,0.91486
388.449,44.09742,-2.03083,0.22398,0.913
391.249,44.36943,-2.03838,0.22634,0.91113
394.049,44.6413,-2.0475,0.23005,0.90925
396.849,44.91415,-2.0536,0.23201,0.90737
399.649,45.187,-2.06437,0.23583,0.90547
402.449,45.4596,-2.07239,0.23623,0.90357
405.249,45.73234,-2.08342,0.23714,0.90165
408.049,46.00548,-2.09589,0.23559,0.89973
410.849,46.2787,-2.10674,0.23511,0.89779
413.649,46.55206,-2.11793,0.23298,0.89585
416.449,46.82575,-2.12961,0.22924,0.8939
419.249,47.10018,-2.14233,0.22497,0.89194
422.049,47.37395,-2.15614,0.2203,0.88997
424.849,47.6479,-2.16864,0.21182,0.88799
427.649,47.92133,-2.18458,0.20068,0.886
430.449,48.19566,-2.19765,0.19216,0.884
433.249,48.47,-2.21114,0.18749,0.88199
436.049,48.7436,-2.2263,0.18563,0.87997
438.849,49.0173,-2.2421,0.18346,0.87795
441.649,49.29084,-2.26114,0.18876,0.87591
444.449,49.56485,-2.28049,0.19779,0.87387
447.249,49.8397,-2.30093,0.20892,0.87182
450.049,50.11493,-2.32352,0.22249,0.86976
452.849,50.38895,-2.34534,0.23399,0.86768
455.649,50.66478,-2.36755,0.24225,0.8656
458.449,50.94014,-2.39174,0.2476,0.86352
461.249,51.21588,-2.41322,0.25311,0.86142
464.049,51.49151,-2.43548,0.25565,0.85931
466.849,51.7667,-2.45676,0.2593,0.8572
469.649,52.0439,-2.47813,0.26236,0.85507
472.449,52.31955,-2.49623,0.26457,0.85294
475.249,52.5953,-2.51236,0.26358,0.8508
478.049,52.8716,-2.53033,0.26163,0.84865
480.849,53.14728,-2.54485,0.25739,0.84649
483.649,53.4231,-2.55811,0.25165,0.84433
486.449,53.69986,-2.56915,0.24663,0.84215
489.249,53.9766,-2.57835,0.24075,0.83997
492.049,54.25326,-2.58873,0.2368,0.83777
494.849,54.52985,-2.59812,0.23285,0.83557
497.649,54.8065,-2.60445,0.23108,0.83336
500.449,55.08295,-2.60989,0.22852,0.83115
503.249,55.3595,-2.61515,0.22873,0.82892
506.049,55.6364,-2.62045,0.2272,0.82669
508.849,55.91378,-2.6252,0.22566,0.82444
511.649,56.1911,-2.62843,0.22753,0.82219
514.449,56.46839,-2.63173,0.23553,0.81994
517.249,56.7456,-2.63435,0.24411,0.81767
520.049,57.02267,-2.637,0.24791,0.8154
522.849,57.29987,-2.63963,0.25522,0.81311
525.649,57.5771,-2.64193,0.26381,0.81082
528.449,57.8545,-2.64478,0.26743,0.80852
531.249,58.13225,-2.64768,0.27294,0.80622
534.049,58.41035,-2.65466,0.2779,0.80391
536.849,58.6883,-2.65236,0.27908,0.80158
539.649,58.9663,-2.65442,0.28161,0.79926
542.449,59.2449,-2.65841,0.28488,0.79692
545.249,59.5241,-2.66101,0.29115,0.79458
548.049,59.8026,-2.664,0.29818,0.79222
550.849,60.0818,-2.66806,0.30109,0.78987
553.649,60.36088,-2.67241,0.30789,0.7875
556.449,60.63992,-2.67432,0.3202,0.78513
559.249,60.91871,-2.67653,0.33093,0.78275
562.049,61.19823,-2.68099,0.34275,0.78036
564.849,61.47758,-2.68567,0.35135,0.77796
567.649,61.7566,-2.68892,0.36102,0.77556
570.449,62.0367,-2.69381,0.36176,0.77315
573.249,62.3158,-2.69738,0.35627,0.77074
576.049,62.59525,-2.70269,0.34493,0.76831
578.849,62.8743,-2.70765,0.32593,0.76588
581.649,63.1531,-2.71064,0.3112,0.76345
584.449,63.43274,-2.71381,0.28949,0.76101
587.249,63.7125,-2.71779,0.27797,0.75856
590.049,63.99213,-2.71845,0.26759,0.7561
592.849,64.27124,-2.71978,0.26366,0.75364
595.649,64.55125,-2.72219,0.25737,0.75117
598.449,64.83176,-2.72391,0.25708,0.74869
601.249,65.11193,-2.72648,0.25949,0.74621
604.049,65.39215,-2.72779,0.26241,0.74373
606.849,65.67307,-2.73042,0.26734,0.74123
609.649,65.95276,-2.73328,0.27379,0.73873
612.449,66.2337,-2.7331,0.28011,0.73623
615.249,66.5137,-2.73624,0.2876,0.73372
618.049,66.7944,-2.73789,0.29401,0.7312
620.849,67.07522,-2.74046,0.30356,0.72868
623.649,67.3552,-2.74142,0.31328,0.72615
626.449,67.6356,-2.74386,0.32113,0.72361
629.249,67.9166,-2.74776,0.33089,0.72107
632.049,68.19799,-2.75194,0.34759,0.71853
634.849,68.47959,-2.75125,0.36097,0.71598
637.649,68.76082,-2.75458,0.3789,0.71342
640.449,69.04256,-2.75953,0.39682,0.71086
643.249,69.3237,-2.76314,0.41716,0.7083
646.049,69.6058,-2.76829,0.44031,0.70573
648.849,69.8873,-2.771,0.46187,0.70315
651.649,70.16858,-2.77632,0.48996,0.70057
654.449,70.45,-2.78224,0.52139,0.69798
657.249,70.73156,-2.78915,0.55605,0.69539
660.049,71.01315,-2.79551,0.58717,0.6928
662.849,71.29466,-2.80329,0.62014,0.6902
665.649,71.57602,-2.81125,0.65745,0.6876
668.449,71.85805,-2.81945,0.68498,0.68499
671.249,72.1399,-2.82922,0.70355,0.68237
674.049,72.42201,-2.83777,0.70277,0.67976
676.849,72.704,-2.8472,0.67371,0.67714
679.649,72.98563,-2.85598,0.60319,0.67451
682.449,73.26728,-2.86293,0.49944,0.67188
685.249,73.5496,-2.86883,0.37635,0.66925
688.049,73.83176,-2.86875,0.27865,0.66661
690.849,74.1135,-2.8727,0.2238,0.66397
693.649,74.39556,-2.87402,0.19147,0.66133
696.449,74.67786,-2.87566,0.17535,0.65868
699.249,74.96029,-2.87599,0.17067,0.65603
699.649,74.9993,-2.87633,0.16833,0.65565