File: 01_Data/Excelsior/STA/N2/10K_min/Excelsior_STA_N2_10KData_2299_R2.csv
##Temp./Â°C,Time/min,Mass loss(subtr.2)/mg,DSC(subtr.2)/(mW/mg),Sensit./(uV/mW)
50.496,10.01,-0.01285,0.01815856,1.02681
52.896,11.32222,-0.0143156,0.09237423,1.0266
55.296,11.7623,-0.01495399,0.12813,1.02639
57.696,12.12773,-0.01471412,0.15386,1.02618
60.096,12.4606,-0.01514611,0.17157,1.02596
62.496,12.77321,-0.01596137,0.18472,1.02574
64.896,13.07289,-0.01764521,0.19965,1.02551
67.296,13.36244,-0.01647816,0.21356,1.02528
69.696,13.64401,-0.01784182,0.22422,1.02505
72.096,13.9198,-0.019218,0.23316,1.02481
74.496,14.19064,-0.02053218,0.24347,1.02457
76.896,14.4565,-0.02237218,0.25172,1.02432
79.296,14.71781,-0.02262794,0.25802,1.02407
81.696,14.97575,-0.02362898,0.26208,1.02382
84.096,15.23035,-0.02447722,0.26689,1.02356
86.496,15.4817,-0.02719009,0.26726,1.0233
88.896,15.7302,-0.02712023,0.2693,1.02303
91.296,15.976,-0.02843848,0.26426,1.02276
93.696,16.22038,-0.02842872,0.26425,1.02248
96.096,16.46278,-0.02975523,0.25858,1.0222
98.496,16.70338,-0.02975215,0.25469,1.02192
100.896,16.94248,-0.03107024,0.2506,1.02163
103.296,17.18044,-0.03038422,0.24816,1.02134
105.696,17.418,-0.03107,0.24531,1.02104
108.096,17.65493,-0.0323318,0.24381,1.02073
110.496,17.8907,-0.03173814,0.24249,1.02043
112.896,18.12657,-0.03237189,0.24195,1.02011
115.296,18.36134,-0.03112986,0.24084,1.0198
117.696,18.59601,-0.03243084,0.24038,1.01947
120.096,18.83018,-0.03238999,0.24212,1.01914
122.496,19.0633,-0.03239005,0.24284,1.01881
124.896,19.29681,-0.03166871,0.24371,1.01847
127.296,19.52925,-0.03343874,0.24455,1.01813
129.696,19.7615,-0.03249288,0.24522,1.01778
132.096,19.99202,-0.03174112,0.24622,1.01742
134.496,20.22314,-0.03172635,0.24949,1.01706
136.896,20.45378,-0.03169149,0.25165,1.0167
139.296,20.68398,-0.03173006,0.25325,1.01633
141.696,20.9135,-0.03189532,0.25442,1.01595
144.096,21.14283,-0.03167514,0.2546,1.01557
146.496,21.3721,-0.03172985,0.25722,1.01518
148.896,21.6008,-0.03337881,0.25769,1.01479
151.296,21.82897,-0.03172974,0.25869,1.01439
153.696,22.05765,-0.03305022,0.25961,1.01398
156.096,22.28654,-0.03307627,0.26129,1.01357
158.496,22.51483,-0.03205133,0.26421,1.01316
160.896,22.74271,-0.03173,0.26454,1.01273
163.296,22.97056,-0.03239015,0.26627,1.0123
165.696,23.1992,-0.03305017,0.2658,1.01187
168.096,23.42758,-0.03304994,0.27005,1.01142
170.496,23.65569,-0.03271587,0.27092,1.01098
172.896,23.8845,-0.03458533,0.2722,1.01052
175.296,24.1132,-0.03338,0.27543,1.01006
177.696,24.34205,-0.0333699,0.27529,1.00959
180.096,24.5706,-0.0333527,0.27718,1.00912
182.496,24.79911,-0.03338,0.27825,1.00864
184.896,25.02703,-0.03470002,0.2781,1.00815
187.296,25.25478,-0.03466088,0.27983,1.00765
189.696,25.48266,-0.0347,0.27902,1.00715
192.096,25.71056,-0.0373287,0.2806,1.00664
194.496,25.93796,-0.03733151,0.2821,1.00613
196.896,26.16573,-0.0360457,0.2832,1.00561
199.296,26.3934,-0.03798997,0.28228,1.00508
201.696,26.62078,-0.0379898,0.28224,1.00454
204.096,26.84811,-0.03865015,0.28487,1.004
206.496,27.07615,-0.03963,0.2871,1.00345
208.896,27.3037,-0.04029005,0.2888,1.00289
211.296,27.53128,-0.04138692,0.28944,1.00232
213.696,27.7588,-0.04326,0.2897,1.00175
216.096,27.98644,-0.04428906,0.29237,1.00117
218.496,28.21425,-0.0459,0.29523,1.00058
220.896,28.44205,-0.04802903,0.29844,0.99999
223.296,28.67005,-0.04984,0.29984,0.99938
225.696,28.8978,-0.05204661,0.30321,0.99877
228.096,29.12414,-0.05511005,0.30711,0.99815
230.496,29.3534,-0.05906999,0.31072,0.99753
232.896,29.5809,-0.06301247,0.31305,0.99689
235.296,29.8086,-0.0669777,0.31551,0.99625
237.696,30.03575,-0.07086966,0.31775,0.9956
240.096,30.2643,-0.07749296,0.32078,0.99494
242.496,30.4925,-0.08278769,0.32566,0.99427
244.896,30.72056,-0.09069754,0.32863,0.9936
247.296,30.9487,-0.09883107,0.32873,0.99291
249.696,31.17672,-0.10634,0.33204,0.99222
252.096,31.4051,-0.11664,0.3339,0.99152
254.496,31.6327,-0.12552,0.33848,0.99081
256.896,31.86028,-0.13604,0.33916,0.9901
259.296,32.08892,-0.14887,0.34484,0.98937
261.696,32.31716,-0.16205,0.34778,0.98864
264.096,32.54508,-0.17599,0.35046,0.98789
266.496,32.7739,-0.19339,0.35211,0.98714
268.896,33.00291,-0.21035,0.3554,0.98638
271.296,33.23175,-0.23228,0.3583,0.98561
273.696,33.4598,-0.25468,0.35818,0.98484
276.096,33.68864,-0.28013,0.35809,0.98405
278.496,33.91793,-0.30653,0.35928,0.98325
280.896,34.1471,-0.33659,0.35783,0.98245
283.296,34.37623,-0.3671,0.35393,0.98164
285.696,34.6049,-0.40118,0.35276,0.98081
288.096,34.83398,-0.43394,0.34719,0.97998
290.496,35.0638,-0.47062,0.34022,0.97914
292.896,35.29273,-0.50893,0.32813,0.97829
295.296,35.52263,-0.54866,0.31076,0.97743
297.696,35.75221,-0.58588,0.2966,0.97656
300.096,35.98154,-0.6297,0.28673,0.97568
302.496,36.2117,-0.67212,0.28369,0.97479
304.896,36.44153,-0.71425,0.28748,0.97389
307.296,36.67136,-0.75841,0.29481,0.97299
309.696,36.90149,-0.8024,0.30585,0.97207
312.096,37.13203,-0.84782,0.31761,0.97114
314.496,37.36228,-0.89456,0.32858,0.97021
316.896,37.59298,-0.94081,0.34343,0.96926
319.296,37.82375,-0.98755,0.35765,0.96831
321.696,38.05486,-1.03746,0.37,0.96734
324.096,38.28607,-1.08665,0.3851,0.96637
326.496,38.51741,-1.13842,0.40024,0.96538
328.896,38.74882,-1.19141,0.41689,0.96439
331.296,38.9794,-1.24357,0.43299,0.96338
333.696,39.2115,-1.30029,0.45261,0.96237
336.096,39.4432,-1.3603,0.47263,0.96134
338.496,39.6746,-1.42105,0.49403,0.96031
340.896,39.90695,-1.48732,0.51769,0.95926
343.296,40.13903,-1.55736,0.54246,0.9582
345.696,40.37123,-1.62934,0.57124,0.95714
348.096,40.60317,-1.70695,0.5982,0.95606
350.496,40.83551,-1.78846,0.6248,0.95498
352.896,41.067,-1.87431,0.64696,0.95388
355.296,41.2993,-1.96281,0.6705,0.95277
357.696,41.53096,-2.05609,0.68235,0.95166
360.096,41.76303,-2.15203,0.6886,0.95053
362.496,41.9944,-2.2488,0.68048,0.94939
364.896,42.22647,-2.34407,0.65954,0.94824
367.296,42.4581,-2.43569,0.62004,0.94708
369.696,42.69005,-2.52087,0.56176,0.94591
372.096,42.92252,-2.5965,0.48154,0.94473
374.496,43.1543,-2.65923,0.38766,0.94354
376.896,43.38665,-2.70784,0.28932,0.94234
379.296,43.61872,-2.74406,0.19917,0.94113
381.696,43.8508,-2.76592,0.13605,0.93991
384.096,44.08315,-2.78092,0.09892989,0.93867
386.496,44.31573,-2.78972,0.07571797,0.93743
388.896,44.54815,-2.79795,0.06797736,0.93617
391.296,44.78116,-2.80705,0.06580607,0.93491
393.696,45.0141,-2.81256,0.06338948,0.93363
396.096,45.24763,-2.81733,0.06104356,0.93235
398.496,45.481,-2.82413,0.05988452,0.93105
400.896,45.71382,-2.82961,0.05944376,0.92974
403.296,45.94746,-2.83634,0.061191,0.92842
405.696,46.18057,-2.84163,0.06158889,0.92709
408.096,46.414,-2.84636,0.06195663,0.92575
410.496,46.6475,-2.85296,0.06560964,0.9244
412.896,46.8817,-2.85832,0.06902578,0.92303
415.296,47.11558,-2.86246,0.07338416,0.92166
417.696,47.34956,-2.86798,0.07710047,0.92027
420.096,47.58398,-2.87222,0.08452241,0.91888
422.496,47.8189,-2.87764,0.08794808,0.91747
424.896,48.05362,-2.88163,0.09430672,0.91605
427.296,48.28794,-2.88688,0.1009,0.91462
429.696,48.52234,-2.89083,0.10768,0.91318
432.096,48.7577,-2.89619,0.11454,0.91173
434.496,48.9925,-2.90137,0.12007,0.91027
436.896,49.2276,-2.90521,0.13044,0.9088
439.296,49.46275,-2.90793,0.1372,0.90731
441.696,49.69789,-2.91289,0.14539,0.90582
444.096,49.93397,-2.91562,0.15091,0.90431
446.496,50.16899,-2.91835,0.16049,0.9028
448.896,50.40402,-2.92372,0.17173,0.90127
451.296,50.6398,-2.92638,0.17888,0.89973
453.696,50.8747,-2.92901,0.1879,0.89818
456.096,51.11,-2.93033,0.19989,0.89662
458.496,51.34492,-2.93252,0.21189,0.89505
460.896,51.58017,-2.93692,0.22619,0.89347
463.296,51.81564,-2.93954,0.23196,0.89187
465.696,52.05118,-2.94219,0.23909,0.89027
468.096,52.2864,-2.9434,0.25046,0.88865
470.496,52.5222,-2.94755,0.25836,0.88702
472.896,52.75779,-2.95009,0.26745,0.88539
475.296,52.99358,-2.95172,0.27058,0.88374
477.696,53.2291,-2.95536,0.27995,0.88208
480.096,53.46535,-2.958,0.28237,0.88041
482.496,53.7012,-2.958,0.28463,0.87873
484.896,53.9372,-2.9613,0.28986,0.87703
487.296,54.1728,-2.96393,0.29463,0.87533
489.696,54.4086,-2.96482,0.30155,0.87362
492.096,54.6451,-2.9688,0.3047,0.87189
494.496,54.8813,-2.97019,0.30759,0.87015
496.896,55.11761,-2.97151,0.30778,0.86841
499.296,55.3548,-2.97382,0.30942,0.86665
501.696,55.5914,-2.97447,0.30997,0.86488
504.096,55.8279,-2.9771,0.31112,0.8631
506.496,56.06469,-2.9781,0.31332,0.86131
508.896,56.30076,-2.98072,0.31517,0.85951
511.296,56.53787,-2.98164,0.31715,0.8577
513.696,56.77423,-2.98308,0.3231,0.85588
516.096,57.01093,-2.98572,0.3219,0.85405
518.496,57.24791,-2.98716,0.32811,0.8522
520.896,57.48502,-2.9893,0.33074,0.85035
523.296,57.722,-2.99075,0.33643,0.84848
525.696,57.9597,-2.99192,0.33734,0.84661
528.096,58.19744,-2.99444,0.33525,0.84472
530.496,58.4357,-2.99586,0.33865,0.84283
532.896,58.6732,-2.99621,0.34259,0.84092
535.296,58.91106,-2.99883,0.34778,0.839
537.696,59.14889,-2.99983,0.34936,0.83708
540.096,59.3867,-3.00011,0.35441,0.83514
542.496,59.6253,-3.00279,0.35775,0.83319
544.896,59.8624,-3.00204,0.35919,0.83123
547.296,60.10049,-3.00477,0.3648,0.82926
549.696,60.33896,-3.00739,0.36538,0.82728
552.096,60.57695,-3.00872,0.36565,0.82529
554.496,60.8147,-3.01007,0.3681,0.8233
556.896,61.0524,-3.01131,0.37111,0.82129
559.296,61.29051,-3.01268,0.37179,0.81927
561.696,61.52844,-3.01334,0.37223,0.81724
564.096,61.76704,-3.01432,0.37254,0.8152
566.496,62.00549,-3.01399,0.37452,0.81315
568.896,62.2426,-3.01647,0.37504,0.81109
571.296,62.4816,-3.01925,0.37542,0.80902
573.696,62.7193,-3.01926,0.37772,0.80694
576.096,62.95822,-3.02177,0.38103,0.80485
578.496,63.19684,-3.02225,0.38529,0.80276
580.896,63.4351,-3.02354,0.38666,0.80065
583.296,63.67405,-3.02454,0.39047,0.79853
585.696,63.9127,-3.02452,0.39193,0.7964
588.096,64.15154,-3.02654,0.39677,0.79427
590.496,64.39024,-3.02749,0.40016,0.79212
592.896,64.62847,-3.02804,0.40204,0.78997
595.296,64.86747,-3.02948,0.40404,0.7878
596.596,64.9964,-3.03045,0.40858,0.78663