File: 01_Data/Excelsior/STA/N2/10K_min/Excelsior_STA_N2_10KData_2269_R1.csv
##Temp./Â°C,Time/min,Mass loss(subtr.2)/mg,DSC(subtr.2)/(mW/mg),Sensit./(uV/mW)
50.321,10.00917,-0.00395,0.007393106,1.02683
53.421,11.46729,-0.005004916,0.08679244,1.02656
56.521,11.98607,-0.00625712,0.1289,1.02628
59.621,12.42645,-0.006143415,0.15433,1.026
62.721,12.83127,-0.00679306,0.17438,1.02572
65.821,13.2145,-0.006945405,0.1896,1.02542
68.921,13.58332,-0.009346475,0.20446,1.02512
72.021,13.94134,-0.00860152,0.22255,1.02482
75.121,14.2887,-0.01127145,0.23157,1.02451
78.221,14.63015,-0.01230559,0.2406,1.02419
81.321,14.9653,-0.01492857,0.24683,1.02386
84.421,15.2944,-0.01622243,0.25373,1.02353
87.521,15.6189,-0.01757024,0.2528,1.02319
90.621,15.9382,-0.01888016,0.25047,1.02284
93.721,16.25402,-0.02150716,0.24795,1.02248
96.821,16.56632,-0.02128969,0.24132,1.02212
99.921,16.87582,-0.02147199,0.23401,1.02175
103.021,17.1828,-0.02282984,0.22825,1.02137
106.121,17.48982,-0.0228387,0.22266,1.02098
109.221,17.79375,-0.02315934,0.21781,1.02059
112.321,18.09939,-0.02415614,0.21653,1.02019
115.421,18.40267,-0.02282949,0.21507,1.01978
118.521,18.70549,-0.02416195,0.2161,1.01936
121.621,19.00704,-0.02349001,0.21692,1.01893
124.721,19.30844,-0.02284069,0.2169,1.0185
127.821,19.60908,-0.02348905,0.21588,1.01805
130.921,19.90885,-0.0241502,0.21894,1.0176
134.021,20.20806,-0.0241499,0.218,1.01714
137.121,20.50649,-0.02414999,0.21774,1.01667
140.221,20.80453,-0.02414822,0.21981,1.01618
143.321,21.10165,-0.0241493,0.22251,1.01569
146.421,21.39771,-0.02415,0.22809,1.01519
149.521,21.69294,-0.02518484,0.22638,1.01469
152.621,21.9891,-0.02415011,0.22961,1.01417
155.721,22.28414,-0.02417403,0.23048,1.01364
158.821,22.57933,-0.02513994,0.2336,1.0131
161.921,22.87461,-0.02678986,0.23441,1.01255
165.021,23.16933,-0.02745049,0.23592,1.01199
168.121,23.465,-0.02645214,0.23597,1.01142
171.221,23.76066,-0.0285394,0.23921,1.01084
174.321,24.0552,-0.02612622,0.24284,1.01025
177.421,24.35148,-0.02745663,0.24248,1.00965
180.521,24.64578,-0.02875814,0.24581,1.00903
183.621,24.9408,-0.02876801,0.24463,1.00841
186.721,25.23546,-0.02877517,0.24817,1.00777
189.821,25.52995,-0.02875719,0.24903,1.00713
192.921,25.82412,-0.02875996,0.2508,1.00647
196.021,26.11822,-0.03007996,0.25147,1.0058
199.121,26.4126,-0.03010582,0.25389,1.00512
202.221,26.70699,-0.0327117,0.25473,1.00442
205.321,27.0006,-0.03271,0.2572,1.00372
208.421,27.29515,-0.03534326,0.25864,1.003
211.521,27.58908,-0.03600459,0.25942,1.00227
214.621,27.88275,-0.03644989,0.26448,1.00153
217.721,28.1771,-0.0405334,0.26624,1.00077
220.821,28.47055,-0.04325999,0.27119,1.0
223.921,28.7656,-0.04588944,0.27414,0.99922
227.021,29.05977,-0.04952257,0.27945,0.99843
230.121,29.3543,-0.05378952,0.28266,0.99762
233.221,29.64886,-0.05784738,0.29187,0.9968
236.321,29.9438,-0.06442556,0.29988,0.99597
239.421,30.2385,-0.06971665,0.3067,0.99512
242.521,30.5333,-0.07993441,0.3135,0.99427
245.621,30.8285,-0.09023558,0.30435,0.99339
248.721,31.12525,-0.0978155,0.29822,0.9925
251.821,31.421,-0.11147,0.29931,0.9916
254.921,31.71578,-0.12574,0.30408,0.99069
258.021,32.01141,-0.14036,0.31062,0.98976
261.121,32.30672,-0.15709,0.31486,0.98881
264.221,32.60164,-0.17558,0.32229,0.98786
267.321,32.89697,-0.19946,0.32831,0.98688
270.421,33.19245,-0.2263,0.33396,0.9859
273.521,33.48823,-0.25608,0.33692,0.98489
276.621,33.78382,-0.29066,0.33703,0.98388
279.721,34.07965,-0.32822,0.33772,0.98284
282.821,34.37542,-0.37,0.33317,0.9818
285.921,34.6713,-0.41565,0.33242,0.98073
289.021,34.96719,-0.46457,0.32882,0.97966
292.121,35.2633,-0.51577,0.32258,0.97856
295.221,35.55972,-0.56844,0.31897,0.97746
298.321,35.85523,-0.62434,0.31482,0.97633
301.421,36.152,-0.67928,0.30644,0.97519
304.521,36.44905,-0.73815,0.29755,0.97404
307.621,36.74586,-0.79714,0.28559,0.97286
310.721,37.04355,-0.85826,0.28479,0.97168
313.821,37.34093,-0.92344,0.29758,0.97047
316.921,37.63818,-0.98698,0.31477,0.96925
320.021,37.93616,-1.05201,0.33165,0.96802
323.121,38.2341,-1.11906,0.34789,0.96676
326.221,38.53239,-1.1889,0.37024,0.96549
329.321,38.83097,-1.2601,0.39276,0.96421
332.421,39.12963,-1.33428,0.41555,0.96291
335.521,39.4285,-1.41161,0.44435,0.96159
338.621,39.72801,-1.49665,0.47662,0.96025
341.721,40.02765,-1.58516,0.50931,0.9589
344.821,40.32745,-1.68237,0.54215,0.95753
347.921,40.62699,-1.78388,0.57543,0.95614
351.021,40.92695,-1.89529,0.61099,0.95474
354.121,41.2283,-2.01399,0.6409,0.95332
357.221,41.5291,-2.14085,0.66473,0.95188
360.321,41.82995,-2.27252,0.67548,0.95042
363.421,42.13041,-2.40621,0.6598,0.94895
366.521,42.43128,-2.53525,0.61515,0.94746
369.621,42.73218,-2.65633,0.53336,0.94595
372.721,43.03264,-2.75611,0.41938,0.94442
375.821,43.33259,-2.8341,0.27988,0.94288
378.921,43.63272,-2.88661,0.15902,0.94132
382.021,43.93335,-2.91746,0.0849421,0.93974
385.121,44.23328,-2.93309,0.05585125,0.93814
388.221,44.53304,-2.94763,0.03977657,0.93653
391.321,44.83399,-2.95643,0.02445443,0.9349
394.421,45.13626,-2.96589,0.01075576,0.93324
397.521,45.43815,-2.97287,-0.002369369,0.93158
400.621,45.7404,-2.98112,-0.009257458,0.92989
403.721,46.04293,-2.98938,-0.01674424,0.92818
406.821,46.346,-2.99989,-0.02075305,0.92646
409.921,46.64853,-3.00686,-0.01894725,0.92472
413.021,46.95058,-3.01331,-0.0003454958,0.92296
416.121,47.25269,-3.02113,0.00697835,0.92118
419.221,47.5554,-3.02938,0.01638158,0.91939
422.321,47.85778,-3.03604,0.0275173,0.91757
425.421,48.16127,-3.04117,0.03438776,0.91574
428.521,48.4641,-3.04786,0.04569864,0.91389
431.621,48.76722,-3.05358,0.0549936,0.91202
434.721,49.07,-3.05967,0.06173452,0.91013
437.821,49.37359,-3.06616,0.06600127,0.90823
440.921,49.67791,-3.0713,0.06331896,0.9063
444.021,49.98142,-3.07393,0.06308039,0.90436
447.121,50.28535,-3.08195,0.0590566,0.9024
450.221,50.5895,-3.08659,0.05100285,0.90042
453.321,50.89353,-3.09141,0.04651268,0.89842
456.421,51.19774,-3.09412,0.03927525,0.89641
459.521,51.50221,-3.09808,0.02821719,0.89437
462.621,51.8067,-3.10136,0.01866069,0.89232
465.721,52.11118,-3.10664,0.01591365,0.89025
468.821,52.41617,-3.11062,0.0134289,0.88816
471.921,52.72067,-3.11191,0.0148565,0.88605
475.021,53.02615,-3.11587,0.01395131,0.88393
478.121,53.3317,-3.12032,0.01033037,0.88178
481.221,53.63745,-3.1209,0.00208201,0.87962
484.321,53.943,-3.12739,-0.0001226966,0.87744
487.421,54.24808,-3.12896,-0.001190022,0.87524
490.521,54.5541,-3.13233,-0.002749008,0.87302
493.621,54.86079,-3.13398,-0.00167602,0.87079
496.721,55.1661,-3.13711,0.000398246,0.86854
499.821,55.4723,-3.14056,-0.0011561,0.86626
502.921,55.7783,-3.14254,-0.001113777,0.86397
506.021,56.0848,-3.1466,-0.000223093,0.86167
509.121,56.39201,-3.14856,0.001509519,0.85934
512.221,56.69859,-3.15088,0.002427941,0.857
515.321,57.00623,-3.1538,0.00518569,0.85464
518.421,57.3133,-3.15615,0.004904552,0.85226
521.521,57.6205,-3.15911,0.01117537,0.84986
524.621,57.92751,-3.16259,0.01385896,0.84745
527.721,58.23474,-3.16374,0.01812975,0.84502
530.821,58.54135,-3.16635,0.02086656,0.84257
533.921,58.84935,-3.16834,0.02575797,0.8401
537.021,59.1564,-3.16833,0.02543333,0.83762
540.121,59.4639,-3.17097,0.02833855,0.83512
543.221,59.7717,-3.17497,0.03041974,0.8326
546.321,60.0791,-3.17624,0.03338142,0.83006
549.421,60.3874,-3.17756,0.03572612,0.82751
552.521,60.69562,-3.18084,0.03947086,0.82494
555.621,61.00351,-3.18217,0.04295827,0.82236
558.721,61.31083,-3.18284,0.0449963,0.81975
561.821,61.61864,-3.18547,0.05176047,0.81713
564.921,61.92625,-3.18833,0.0527493,0.8145
568.021,62.23426,-3.18896,0.05311146,0.81184
571.121,62.5423,-3.19073,0.05772974,0.80917
574.221,62.84944,-3.19339,0.05438795,0.80649
577.321,63.158,-3.19468,0.06145993,0.80378
580.421,63.466,-3.19666,0.06017629,0.80107
583.521,63.7746,-3.19888,0.06309172,0.79833
586.621,64.08233,-3.20047,0.06865503,0.79558
589.721,64.38973,-3.20259,0.07501147,0.79282
592.821,64.69799,-3.20259,0.07561049,0.79003
595.921,65.0066,-3.20523,0.0790108,0.78724
599.021,65.3155,-3.20654,0.08256983,0.78443
602.121,65.62371,-3.20783,0.08665644,0.7816
605.221,65.93251,-3.21083,0.08775886,0.77875
608.321,66.24122,-3.21214,0.08727665,0.7759
611.421,66.55068,-3.21346,0.08906841,0.77302
614.521,66.85978,-3.21478,0.09415437,0.77014
617.621,67.16866,-3.21741,0.09841155,0.76723
620.721,67.47663,-3.2184,0.10268,0.76432
623.821,67.7867,-3.21742,0.10601,0.76138
626.921,68.096,-3.22137,0.1115,0.75844
630.021,68.40599,-3.22104,0.11943,0.75548
633.121,68.71545,-3.22334,0.1202,0.75251
636.221,69.02462,-3.22367,0.12805,0.74952
639.321,69.33402,-3.22493,0.1298,0.74652
642.421,69.64366,-3.22494,0.13304,0.7435
645.521,69.9533,-3.22597,0.13845,0.74047
648.621,70.26225,-3.22906,0.14551,0.73743
651.721,70.572,-3.22894,0.15058,0.73438
654.821,70.8819,-3.22993,0.15647,0.73131
657.921,71.19205,-3.22993,0.15775,0.72823
661.021,71.50179,-3.23009,0.16135,0.72514
664.121,71.81271,-3.23388,0.16122,0.72203
667.221,72.12267,-3.23421,0.16274,0.71892
670.321,72.43266,-3.2335,0.16962,0.71579
673.421,72.7428,-3.23522,0.16984,0.71265
676.521,73.05304,-3.23521,0.17428,0.70949
679.621,73.36364,-3.23657,0.1788,0.70633
682.721,73.67461,-3.23883,0.18441,0.70315
685.821,73.98538,-3.24069,0.18387,0.69997
688.921,74.29568,-3.23948,0.18875,0.69677
692.021,74.60547,-3.24113,0.19764,0.69356
695.121,74.91622,-3.24206,0.20502,0.69034
698.221,75.22659,-3.24211,0.21103,0.68711
701.321,75.53753,-3.24291,0.21861,0.68387
704.421,75.84829,-3.24209,0.22576,0.68062
707.521,76.1593,-3.24573,0.23366,0.67736
710.621,76.46956,-3.24475,0.24914,0.67409
713.721,76.77986,-3.24508,0.25776,0.67081
716.821,77.09051,-3.24606,0.26824,0.66752
719.921,77.40129,-3.24572,0.2762,0.66422
723.021,77.71225,-3.24741,0.28405,0.66091
726.121,78.0239,-3.2487,0.29137,0.65759
729.221,78.33527,-3.24968,0.292,0.65427
732.321,78.64685,-3.24986,0.29349,0.65093
735.421,78.95805,-3.24936,0.2953,0.64759
738.521,79.26799,-3.25198,0.31213,0.64424
741.621,79.57884,-3.25199,0.32377,0.64089
744.721,79.88976,-3.25298,0.3287,0.63752
745.721,79.9899,-3.25167,0.32868,0.63643