File: 01_Data/Wool_Rug/STA/N2/30K_min/Wool_Rug_STA_N2_30KData_220119_R2.csv
##Temp./Â°C,Time/min,Mass loss(subtr.2)/mg,DSC(subtr.2)/(mW/mg),Sensit./(uV/mW)
48.623,10.00667,-0.00461,0.009653425,1.06962
52.023,10.89586,-0.00771763,0.17561,1.06931
55.423,11.13689,-0.00857404,0.28564,1.06897
58.823,11.3227,-0.006748253,0.37018,1.06859
62.223,11.48375,-0.007774056,0.44117,1.06819
65.623,11.63091,-0.009509904,0.50049,1.06775
69.023,11.76919,-0.008155021,0.55172,1.06727
72.423,11.90173,-0.00722991,0.59746,1.06677
75.823,12.03003,-0.00602945,0.63601,1.06624
79.223,12.15541,-0.007138042,0.67744,1.06567
82.623,12.27807,-0.008866825,0.71378,1.06507
86.023,12.39868,-0.01133878,0.75061,1.06444
89.423,12.5174,-0.01245786,0.78477,1.06378
92.823,12.63504,-0.01250085,0.81799,1.06309
96.223,12.75195,-0.01374942,0.84748,1.06237
99.623,12.86753,-0.01458153,0.87541,1.06162
103.023,12.98282,-0.01611666,0.8985,1.06084
106.423,13.09781,-0.01854196,0.91913,1.06003
109.823,13.21222,-0.0211463,0.92854,1.05919
113.223,13.3262,-0.0238,0.93334,1.05832
116.623,13.44012,-0.02348016,0.93938,1.05742
120.023,13.5535,-0.02379931,0.93674,1.05649
123.423,13.6661,-0.02512,0.9319,1.05553
126.823,13.7776,-0.02768402,0.92596,1.05454
130.223,13.88954,-0.02906372,0.91997,1.05352
133.623,14.00051,-0.02906,0.91143,1.05248
137.023,14.11081,-0.02906,0.90589,1.0514
140.423,14.2205,-0.02905996,0.90144,1.0503
143.823,14.32973,-0.03038456,0.89737,1.04917
147.223,14.4386,-0.03169,0.8983,1.04801
150.623,14.54672,-0.03136,0.90106,1.04683
154.023,14.6546,-0.03182001,0.90323,1.04561
157.423,14.76245,-0.03268,0.90785,1.04437
160.823,14.8697,-0.03136679,0.91692,1.0431
164.223,14.977,-0.03269,0.92537,1.04181
167.623,15.08375,-0.03269,0.93344,1.04049
171.023,15.1906,-0.0330183,0.9435,1.03914
174.423,15.2968,-0.03400003,0.95424,1.03777
177.823,15.4027,-0.03531,0.96576,1.03637
181.223,15.5085,-0.03531,0.9782,1.03494
184.623,15.61401,-0.03400004,0.99056,1.03349
188.023,15.7188,-0.03530988,1.00124,1.03202
191.423,15.8236,-0.03530872,1.01598,1.03052
194.823,15.92791,-0.03598,1.02881,1.02899
198.223,16.03239,-0.03597235,1.0424,1.02744
201.623,16.13644,-0.03592366,1.05997,1.02586
205.023,16.24035,-0.03991857,1.08091,1.02427
208.423,16.34445,-0.04123976,1.09894,1.02264
211.823,16.44811,-0.04257613,1.12481,1.021
215.223,16.55189,-0.04255884,1.15412,1.01933
218.623,16.65573,-0.04387,1.19276,1.01763
222.023,16.75905,-0.04520391,1.24078,1.01591
225.423,16.86265,-0.04795103,1.30554,1.01418
228.823,16.96611,-0.05199282,1.39002,1.01241
232.223,17.06941,-0.05512123,1.49675,1.01063
235.623,17.1729,-0.06358367,1.62222,1.00882
239.023,17.27619,-0.0719489,1.76067,1.00699
242.423,17.37973,-0.077965,1.88327,1.00514
245.823,17.48299,-0.09228652,1.96938,1.00327
249.223,17.5857,-0.10558,2.01632,1.00138
252.623,17.68936,-0.11908,2.02978,0.99947
256.023,17.79221,-0.13166,2.02234,0.99753
259.423,17.89498,-0.14521,2.00319,0.99558
262.823,17.99781,-0.16273,1.98763,0.99361
266.223,18.10039,-0.17895,1.98564,0.99161
269.623,18.203,-0.19478,1.99471,0.9896
273.023,18.30556,-0.21299,2.00396,0.98756
276.423,18.40829,-0.2321,2.01615,0.98551
279.823,18.51097,-0.25192,2.02566,0.98344
283.223,18.61373,-0.27294,2.03718,0.98135
286.623,18.71641,-0.29469,2.0449,0.97924
290.023,18.81927,-0.3165,2.05584,0.97712
293.423,18.92216,-0.33892,2.06736,0.97497
296.823,19.025,-0.36613,2.07986,0.97281
300.223,19.12781,-0.39053,2.08974,0.97063
303.623,19.23069,-0.41793,2.09738,0.96843
307.023,19.33372,-0.44675,2.10419,0.96622
310.423,19.43659,-0.47645,2.11367,0.96399
313.823,19.53978,-0.50898,2.12204,0.96174
317.223,19.64286,-0.54368,2.13857,0.95948
320.623,19.746,-0.58067,2.15438,0.9572
324.023,19.84935,-0.62047,2.17013,0.9549
327.423,19.95276,-0.66274,2.1839,0.95259
330.823,20.0562,-0.71022,2.18847,0.95027
334.223,20.15958,-0.75576,2.17405,0.94793
337.623,20.26333,-0.80739,2.14296,0.94557
341.023,20.36714,-0.86491,2.09549,0.9432
344.423,20.47084,-0.91775,2.02604,0.94082
347.823,20.57467,-0.97353,1.94492,0.93842
351.223,20.6786,-1.03388,1.85379,0.93601
354.623,20.78258,-1.09486,1.75995,0.93358
358.023,20.88658,-1.15537,1.66734,0.93114
361.423,20.9906,-1.21916,1.58149,0.92869
364.823,21.09475,-1.27933,1.50546,0.92623
368.223,21.199,-1.33719,1.43798,0.92375
371.623,21.30348,-1.39345,1.38348,0.92126
375.023,21.40794,-1.44284,1.33649,0.91876
378.423,21.51256,-1.48917,1.29945,0.91625
381.823,21.61727,-1.53295,1.27043,0.91372
385.223,21.72213,-1.57118,1.24397,0.91119
388.623,21.8272,-1.60926,1.2208,0.90864
392.023,21.9321,-1.64304,1.20063,0.90608
395.423,22.03766,-1.67219,1.18283,0.90351
398.823,22.1429,-1.70292,1.16128,0.90093
402.223,22.24849,-1.73218,1.14532,0.89834
405.623,22.35429,-1.75928,1.13038,0.89574
409.023,22.46017,-1.78485,1.11456,0.89313
412.423,22.56614,-1.80799,1.10307,0.89052
415.823,22.67226,-1.82972,1.08973,0.88789
419.223,22.77843,-1.85087,1.07428,0.88525
422.623,22.88485,-1.8748,1.05989,0.8826
426.023,22.99125,-1.89707,1.04473,0.87995
429.423,23.09805,-1.91509,1.02583,0.87729
432.823,23.20475,-1.93325,1.00548,0.87462
436.223,23.31129,-1.95103,0.98309,0.87194
439.623,23.41837,-1.96814,0.96289,0.86925
443.023,23.52525,-1.98263,0.94108,0.86655
446.423,23.6323,-1.99472,0.92152,0.86385
449.823,23.73956,-2.0118,0.90732,0.86114
453.223,23.84691,-2.02495,0.89366,0.85843
456.623,23.95429,-2.03933,0.87793,0.85571
460.023,24.06188,-2.05084,0.86486,0.85298
463.423,24.16974,-2.06281,0.85221,0.85024
466.823,24.27753,-2.07543,0.84082,0.8475
470.223,24.38524,-2.08656,0.83098,0.84475
473.623,24.49334,-2.09753,0.81731,0.842
477.023,24.60156,-2.10724,0.80658,0.83924
480.423,24.70956,-2.11462,0.79233,0.83648
483.823,24.8179,-2.12675,0.7833,0.83371
487.223,24.92613,-2.13147,0.77157,0.83093
490.623,25.0348,-2.14277,0.76122,0.82816
494.023,25.14338,-2.15018,0.75194,0.82537
497.423,25.252,-2.15966,0.73913,0.82259
500.823,25.36065,-2.16675,0.73266,0.8198
504.223,25.46955,-2.17384,0.72331,0.817
507.623,25.57834,-2.17934,0.71635,0.8142
511.023,25.68742,-2.18561,0.70837,0.8114
514.423,25.79645,-2.19437,0.70204,0.80859
517.823,25.90549,-2.20086,0.68988,0.80578
521.223,26.0148,-2.20797,0.68926,0.80297
524.623,26.1241,-2.21181,0.67791,0.80016
528.023,26.23354,-2.21733,0.67337,0.79734
531.423,26.343,-2.22236,0.66671,0.79452
534.823,26.4528,-2.22441,0.66683,0.7917
538.223,26.5624,-2.23057,0.66179,0.78887
541.623,26.67227,-2.2361,0.66188,0.78605
545.023,26.78205,-2.2376,0.65974,0.78322
548.423,26.89185,-2.24041,0.66,0.78039
551.823,27.00195,-2.24448,0.66032,0.77755
555.223,27.11213,-2.24874,0.66272,0.77472
558.623,27.2223,-2.25295,0.6676,0.77189
562.023,27.33257,-2.25577,0.67321,0.76905
565.423,27.443,-2.25994,0.68088,0.76622
568.823,27.5535,-2.26413,0.6871,0.76338
572.223,27.66403,-2.26679,0.69757,0.76054
575.623,27.77474,-2.27286,0.70466,0.7577
579.023,27.8854,-2.27688,0.71482,0.75487
582.423,27.99639,-2.27829,0.71732,0.75203
585.823,28.1071,-2.28307,0.72243,0.74919
589.223,28.21837,-2.28943,0.7209,0.74635
592.623,28.3294,-2.2921,0.71831,0.74351
596.023,28.4405,-2.29485,0.71726,0.74068
599.423,28.55162,-2.29487,0.71925,0.73784
602.823,28.663,-2.30087,0.71837,0.735
606.223,28.7744,-2.30752,0.7153,0.73217
609.623,28.8859,-2.31196,0.70873,0.72933
613.023,28.99735,-2.31358,0.70879,0.7265
616.423,29.1091,-2.31584,0.70904,0.72367
619.823,29.2209,-2.32204,0.70546,0.72084
623.223,29.3325,-2.32638,0.70774,0.71801
626.623,29.4443,-2.32957,0.70728,0.71518
630.023,29.55625,-2.33275,0.71395,0.71235
633.423,29.66817,-2.33952,0.71394,0.70953
636.823,29.7802,-2.34147,0.72241,0.7067
640.223,29.89228,-2.34342,0.73469,0.70388
643.623,30.0043,-2.34602,0.74592,0.70106
647.023,30.1166,-2.3475,0.76945,0.69825
650.423,30.22881,-2.35128,0.79422,0.69543
653.823,30.341,-2.35584,0.8329,0.69262
657.223,30.4534,-2.36023,0.87708,0.68981
660.623,30.5657,-2.36395,0.92069,0.68701
664.023,30.67802,-2.36676,0.97713,0.6842
667.423,30.7904,-2.37383,1.03579,0.6814
670.823,30.90292,-2.37816,1.10292,0.67861
674.223,31.01555,-2.38583,1.17406,0.67581
677.623,31.128,-2.39006,1.25607,0.67302
681.023,31.2407,-2.40007,1.34404,0.67023
684.423,31.35332,-2.41189,1.43442,0.66744
687.823,31.46599,-2.41972,1.5279,0.66466
691.223,31.5786,-2.42797,1.6312,0.66188
694.623,31.69138,-2.43635,1.73699,0.65911
698.023,31.80428,-2.4476,1.84715,0.65634
701.423,31.9173,-2.46275,1.96276,0.65357
704.823,32.0302,-2.47391,2.07902,0.65081
708.223,32.1432,-2.48868,2.19515,0.64805
711.623,32.25629,-2.50171,2.31339,0.64529
715.023,32.36943,-2.5187,2.4292,0.64254
718.423,32.48277,-2.53794,2.53554,0.63979
721.823,32.59617,-2.55517,2.62994,0.63705
725.223,32.70943,-2.56982,2.70755,0.63431
728.623,32.82278,-2.58861,2.76254,0.63157
732.023,32.93636,-2.60679,2.77479,0.62884
735.423,33.04955,-2.62347,2.72941,0.62612
738.823,33.16312,-2.64326,2.63787,0.62339
742.223,33.27659,-2.66247,2.49222,0.62068
745.623,33.38984,-2.67736,2.29677,0.61796
749.023,33.50367,-2.69296,2.09456,0.61526
752.423,33.61707,-2.70452,1.91131,0.61255
755.823,33.73065,-2.71212,1.75285,0.60985
759.223,33.8444,-2.72237,1.62118,0.60716
762.623,33.95815,-2.73192,1.49482,0.60447
766.023,34.07206,-2.74127,1.38542,0.60179
769.423,34.18589,-2.74827,1.27177,0.59911
772.823,34.29975,-2.75663,1.16817,0.59644
776.223,34.41366,-2.76245,1.06149,0.59377
779.623,34.5274,-2.76805,0.96515,0.5911
783.023,34.64161,-2.77143,0.87902,0.58844
786.423,34.75575,-2.77717,0.79728,0.58579
789.823,34.87,-2.78026,0.7185,0.58314
793.223,34.98377,-2.78437,0.65415,0.5805
796.623,35.0982,-2.78777,0.59215,0.57786
800.023,35.21244,-2.79185,0.53829,0.57523
803.423,35.3268,-2.79656,0.49116,0.5726
806.823,35.4411,-2.79788,0.45355,0.56998
810.223,35.55556,-2.80293,0.41396,0.56737
813.623,35.67,-2.80936,0.37854,0.56476
817.023,35.78434,-2.80752,0.34322,0.56215
820.423,35.8987,-2.80884,0.31514,0.55955
823.823,36.01327,-2.8095,0.28838,0.55696
827.223,36.12768,-2.81191,0.26238,0.55437
830.623,36.24211,-2.81681,0.2338,0.55179
834.023,36.35667,-2.81861,0.20962,0.54921
837.423,36.4714,-2.81729,0.18978,0.54664
840.823,36.5859,-2.82022,0.17065,0.54408
843.123,36.66345,-2.82418,0.15468,0.54234