File: 01_Data/Wool_Rug/STA/N2/30K_min/Wool_Rug_STA_N2_30KData_220118_R1.csv
##Temp./Â°C,Time/min,Mass loss(subtr.2)/mg,DSC(subtr.2)/(mW/mg),Sensit./(uV/mW)
48.581,10.00583,-0.0316,0.00140894,1.06963
51.781,10.8771,-0.03154647,0.14171,1.06934
54.981,11.10966,-0.03328351,0.23941,1.06902
58.181,11.2896,-0.03387953,0.31726,1.06867
61.381,11.4445,-0.03461893,0.37869,1.06829
64.581,11.58553,-0.03421651,0.43111,1.06788
67.781,11.71793,-0.03467306,0.47872,1.06745
70.981,11.84437,-0.03630659,0.51818,1.06699
74.181,11.9665,-0.03584311,0.55534,1.0665
77.381,12.08587,-0.03609161,0.59113,1.06598
80.581,12.20256,-0.03654209,0.6217,1.06543
83.781,12.31744,-0.03820245,0.65573,1.06486
86.981,12.43008,-0.03959934,0.68862,1.06426
90.181,12.54237,-0.04113786,0.7165,1.06363
93.381,12.6531,-0.04259068,0.74441,1.06298
96.581,12.7629,-0.04377004,0.77167,1.0623
99.781,12.8718,-0.04507847,0.79625,1.06159
102.981,12.98052,-0.04772114,0.81768,1.06085
106.181,13.08893,-0.05023114,0.8347,1.06009
109.381,13.1968,-0.05168355,0.84552,1.0593
112.581,13.30434,-0.05166006,0.8514,1.05848
115.781,13.4115,-0.05388226,0.85367,1.05764
118.981,13.5186,-0.05562824,0.85065,1.05677
122.181,13.6249,-0.05826736,0.84759,1.05588
125.381,13.7308,-0.05956014,0.8385,1.05496
128.581,13.8361,-0.05955991,0.83211,1.05402
131.781,13.9404,-0.06086143,0.82236,1.05305
134.981,14.045,-0.06219,0.81492,1.05205
138.181,14.1485,-0.06219,0.80773,1.05103
141.381,14.25165,-0.06351032,0.80233,1.04998
144.581,14.3544,-0.06351,0.79672,1.04891
147.781,14.45645,-0.06483569,0.79362,1.04782
150.981,14.5583,-0.06482,0.7937,1.0467
154.181,14.6596,-0.06482,0.79894,1.04556
157.381,14.76136,-0.06482002,0.79986,1.04439
160.581,14.86231,-0.06614001,0.80659,1.0432
163.781,14.96306,-0.0661386,0.81385,1.04198
166.981,15.06373,-0.06515634,0.82156,1.04074
170.181,15.16394,-0.06666054,0.82761,1.03948
173.381,15.26421,-0.06746,0.83811,1.03819
176.581,15.364,-0.0682998,0.84675,1.03688
179.781,15.4634,-0.06844,0.85583,1.03555
182.981,15.5626,-0.06847217,0.86257,1.0342
186.181,15.6613,-0.06812,0.87271,1.03282
189.381,15.75985,-0.06844671,0.88381,1.03142
192.581,15.85829,-0.07008999,0.89159,1.03
195.781,15.9565,-0.07108,0.90287,1.02856
198.981,16.05453,-0.0697587,0.91477,1.02709
202.181,16.15249,-0.07240011,0.93216,1.0256
205.381,16.2503,-0.07257094,0.94445,1.0241
208.581,16.348,-0.07371001,0.96149,1.02257
211.781,16.44581,-0.07503,0.98375,1.02102
214.981,16.54344,-0.07635001,1.00801,1.01944
218.181,16.64086,-0.07765994,1.04015,1.01785
221.381,16.7382,-0.07894648,1.08303,1.01624
224.581,16.83579,-0.08293594,1.13618,1.01461
227.781,16.93297,-0.08556151,1.20683,1.01296
230.981,17.03044,-0.0882313,1.29748,1.01128
234.181,17.1277,-0.09281663,1.40964,1.00959
237.381,17.22495,-0.09967598,1.53004,1.00788
240.581,17.32231,-0.10727,1.64817,1.00615
243.781,17.41936,-0.11694,1.73629,1.0044
246.981,17.5167,-0.12712,1.79546,1.00263
250.181,17.61375,-0.13922,1.81558,1.00084
253.381,17.71065,-0.15062,1.82053,0.99904
256.581,17.80759,-0.16334,1.80352,0.99722
259.781,17.90449,-0.17653,1.7813,0.99537
262.981,18.0013,-0.18991,1.77118,0.99351
266.181,18.0978,-0.20541,1.76653,0.99164
269.381,18.19435,-0.21996,1.7689,0.98974
272.581,18.29109,-0.23424,1.77587,0.98783
275.781,18.38779,-0.25187,1.78576,0.9859
278.981,18.48459,-0.26895,1.78966,0.98396
282.181,18.58124,-0.28508,1.79917,0.98199
285.381,18.6781,-0.3036,1.80855,0.98001
288.581,18.77488,-0.3238,1.81445,0.97802
291.781,18.87167,-0.34455,1.82306,0.97601
294.981,18.96871,-0.36583,1.83193,0.97398
298.181,19.06569,-0.38672,1.83774,0.97194
301.381,19.1628,-0.41101,1.84711,0.96988
304.581,19.25945,-0.43576,1.85301,0.96781
307.781,19.35688,-0.46015,1.8605,0.96572
310.981,19.45394,-0.48876,1.87005,0.96362
314.181,19.55098,-0.51768,1.87873,0.9615
317.381,19.648,-0.54706,1.8904,0.95937
320.581,19.7451,-0.58186,1.90418,0.95723
323.781,19.8426,-0.6185,1.92203,0.95507
326.981,19.9399,-0.65621,1.93612,0.95289
330.181,20.03721,-0.69566,1.93925,0.95071
333.381,20.1348,-0.7384,1.93112,0.94851
336.581,20.23236,-0.78453,1.91014,0.9463
339.781,20.3299,-0.82997,1.87146,0.94407
342.981,20.42755,-0.87844,1.81883,0.94183
346.181,20.52533,-0.92845,1.75187,0.93958
349.381,20.62306,-0.98169,1.673,0.93732
352.581,20.7207,-1.03461,1.58543,0.93504
355.781,20.81861,-1.08922,1.50182,0.93275
358.981,20.9162,-1.14635,1.41274,0.93045
362.181,21.0147,-1.20152,1.33399,0.92814
365.381,21.11285,-1.25523,1.26873,0.92582
368.581,21.21114,-1.30877,1.21124,0.92349
371.781,21.30943,-1.35636,1.16812,0.92115
374.981,21.40796,-1.40166,1.13876,0.91879
378.181,21.50658,-1.44377,1.11311,0.91643
381.381,21.60516,-1.48328,1.0902,0.91405
384.581,21.70405,-1.5185,1.07233,0.91167
387.781,21.80294,-1.55208,1.06094,0.90927
390.981,21.90184,-1.58266,1.04704,0.90687
394.181,22.00096,-1.61107,1.03302,0.90445
397.381,22.10008,-1.63951,1.02006,0.90203
400.581,22.19943,-1.66532,1.01098,0.8996
403.781,22.29886,-1.68932,0.99993,0.89715
406.981,22.3984,-1.71226,0.98243,0.8947
410.181,22.49785,-1.73669,0.97016,0.89224
413.381,22.59737,-1.75626,0.95998,0.88978
416.581,22.69715,-1.7753,0.95026,0.8873
419.781,22.79703,-1.79616,0.94015,0.88482
422.981,22.89682,-1.81682,0.92579,0.88233
426.181,22.99685,-1.83449,0.90947,0.87983
429.381,23.097,-1.85298,0.8946,0.87732
432.581,23.19719,-1.86999,0.87703,0.87481
435.781,23.2976,-1.88774,0.85451,0.87229
438.981,23.3981,-1.90307,0.83555,0.86976
442.181,23.49877,-1.91695,0.82035,0.86722
445.381,23.59947,-1.93059,0.80486,0.86468
448.581,23.70034,-1.94195,0.78764,0.86213
451.781,23.8014,-1.95653,0.77417,0.85958
454.981,23.90251,-1.9687,0.76333,0.85702
458.181,24.0037,-1.9811,0.7516,0.85446
461.381,24.10505,-1.99135,0.73983,0.85188
464.581,24.20645,-2.00148,0.72439,0.84931
467.781,24.30796,-2.01337,0.7144,0.84673
470.981,24.40954,-2.02354,0.70602,0.84414
474.181,24.51107,-2.03294,0.69428,0.84155
477.381,24.61287,-2.04142,0.6819,0.83895
480.581,24.7148,-2.05088,0.67097,0.83635
483.781,24.81666,-2.05908,0.66125,0.83374
486.981,24.9187,-2.06801,0.65013,0.83113
490.181,25.02072,-2.0769,0.64064,0.82852
493.381,25.12269,-2.08392,0.63062,0.8259
496.581,25.22512,-2.09068,0.62306,0.82328
499.781,25.32753,-2.09947,0.61274,0.82065
502.981,25.42995,-2.10514,0.60487,0.81802
506.181,25.53239,-2.11321,0.59766,0.81539
509.381,25.63484,-2.11945,0.59323,0.81275
512.581,25.73752,-2.12421,0.58468,0.81011
515.781,25.84015,-2.13022,0.58114,0.80747
518.981,25.94301,-2.13522,0.5726,0.80483
522.181,26.04575,-2.13965,0.56645,0.80218
525.381,26.14857,-2.1457,0.55754,0.79953
528.581,26.25142,-2.14854,0.5513,0.79688
531.781,26.3544,-2.15306,0.54648,0.79422
534.981,26.4577,-2.15895,0.54109,0.79157
538.181,26.5607,-2.16266,0.5373,0.78891
541.381,26.664,-2.16633,0.53152,0.78625
544.581,26.76728,-2.16979,0.52806,0.78358
547.781,26.8707,-2.17375,0.53025,0.78092
550.981,26.97427,-2.17658,0.52629,0.77826
554.181,27.0778,-2.18032,0.52663,0.77559
557.381,27.1814,-2.18353,0.53031,0.77292
560.581,27.285,-2.1867,0.52869,0.77025
563.781,27.3888,-2.19004,0.53198,0.76759
566.981,27.4928,-2.19319,0.53696,0.76492
570.181,27.59665,-2.19705,0.54295,0.76225
573.381,27.7007,-2.20126,0.55202,0.75958
576.581,27.8048,-2.2033,0.5545,0.7569
579.781,27.90908,-2.20725,0.55875,0.75423
582.981,28.0134,-2.21012,0.56271,0.75156
586.181,28.1177,-2.21317,0.55514,0.74889
589.381,28.22215,-2.21684,0.55038,0.74622
592.581,28.32692,-2.2196,0.54756,0.74355
595.781,28.4315,-2.22322,0.5433,0.74088
598.981,28.53629,-2.22742,0.53783,0.73821
602.181,28.6411,-2.23026,0.5367,0.73554
605.381,28.74592,-2.23399,0.52897,0.73287
608.581,28.8508,-2.23737,0.52464,0.7302
611.781,28.95583,-2.24241,0.51771,0.72753
614.981,29.06077,-2.24542,0.51646,0.72487
618.181,29.1656,-2.24835,0.51549,0.7222
621.381,29.27063,-2.25257,0.51489,0.71954
624.581,29.37582,-2.25535,0.50578,0.71688
627.781,29.48092,-2.25833,0.502,0.71421
630.981,29.5861,-2.26239,0.50324,0.71156
634.181,29.6913,-2.26371,0.50858,0.7089
637.381,29.7964,-2.26769,0.51042,0.70624
640.581,29.90168,-2.27035,0.51749,0.70359
643.781,30.00692,-2.27303,0.52328,0.70093
646.981,30.1123,-2.27566,0.53439,0.69828
650.181,30.2178,-2.27829,0.54704,0.69563
653.381,30.32317,-2.28187,0.56693,0.69299
656.581,30.42882,-2.28452,0.58929,0.69034
659.781,30.5343,-2.28646,0.61936,0.6877
662.981,30.6402,-2.29089,0.65538,0.68506
666.181,30.74597,-2.29619,0.70034,0.68243
669.381,30.85213,-2.29997,0.74548,0.67979
672.581,30.95797,-2.30517,0.79909,0.67716
675.781,31.064,-2.30887,0.85757,0.67453
678.981,31.1701,-2.31448,0.91628,0.6719
682.181,31.2764,-2.32223,0.97862,0.66928
685.381,31.38237,-2.32722,1.04721,0.66666
688.581,31.48868,-2.33501,1.11836,0.66404
691.781,31.59491,-2.3433,1.19889,0.66143
694.981,31.7013,-2.35271,1.28026,0.65882
698.181,31.80779,-2.36061,1.36808,0.65621
701.381,31.9143,-2.37071,1.45853,0.65361
704.581,32.0207,-2.38139,1.54981,0.651
707.781,32.12726,-2.39045,1.64573,0.64841
710.981,32.23362,-2.402,1.73909,0.64581
714.181,32.3401,-2.41508,1.83582,0.64322
717.381,32.44672,-2.42864,1.93104,0.64063
720.581,32.5535,-2.44278,2.01697,0.63805
723.781,32.66028,-2.45588,2.09752,0.63547
726.981,32.7668,-2.4688,2.16293,0.63289
730.181,32.87362,-2.47527,2.21739,0.63032
733.381,32.97987,-2.4949,2.24855,0.62775
736.581,33.08712,-2.51458,2.25848,0.62519
739.781,33.19386,-2.5306,2.22968,0.62263
742.981,33.30065,-2.54724,2.17327,0.62007
746.181,33.40759,-2.56686,2.07734,0.61752
749.381,33.51455,-2.58031,1.94463,0.61497
752.581,33.62157,-2.58935,1.80315,0.61243
755.781,33.72854,-2.60178,1.66673,0.60989
758.981,33.83542,-2.61125,1.54929,0.60735
762.181,33.94253,-2.61901,1.44439,0.60482
765.381,34.0496,-2.62752,1.34961,0.60229
768.581,34.15678,-2.63383,1.26285,0.59977
771.781,34.26397,-2.64132,1.17754,0.59725
774.981,34.3712,-2.64693,1.0991,0.59474
778.181,34.47829,-2.65628,1.01648,0.59223
781.381,34.58567,-2.66778,0.93998,0.58973
784.581,34.69295,-2.67298,0.86685,0.58723
787.781,34.80028,-2.6816,0.79585,0.58473
790.981,34.90775,-2.69134,0.73272,0.58224
793.681,34.99817,-2.69334,0.67678,0.58014