File: 01_Data/Rug_Pad/MCC/Rug_Pad_MCC_30K_min_211008_R1.txt
Sample ID:	C:\MCC\MCC Cal\Test\Rug_pad_MCC_30K_min_211008_R1.txt
Sample Weight (mg):	4.86
Heating Rate (C/s):	0.5
Combustor Temp (C):	900
N2 Flow Rate (cc/min):	80
O2 Flow Rate (cc/min):	20
Calibration File:	C:\MCC\MCC Cal\Coeff1 JN10440_30_210304.txt.txt
T Correction Coefficients:	0	1.024463	0
Time Shift (s):	14
*
Time (s)	Temperature (C)	N2 flow rate (cc/min)	O2 flow rate (cc/min)	Flow Rate (cc/min)	Oxygen (%)	HRR (W/g)	Heating rate (C/s)
0.000	106.230	79.998	19.996	100.775	20.032	0.077	-0.008
8.000	106.238	79.999	19.997	100.776	20.031	0.174	0.039
15.999	106.305	80.000	19.997	100.784	20.028	0.315	0.045
24.000	106.393	80.001	19.995	100.823	20.019	0.928	0.027
32.000	106.754	79.999	19.994	100.887	20.010	1.483	0.051
40.000	107.412	79.998	19.996	100.917	19.998	2.266	0.139
48.000	108.321	79.999	19.996	100.932	19.995	2.471	0.101
56.000	109.631	79.999	19.997	100.967	19.988	2.957	0.144
64.001	111.179	79.996	19.996	100.957	19.990	2.799	0.209
71.999	113.010	79.997	19.996	100.977	19.988	2.958	0.252
79.999	115.085	79.998	19.996	100.984	19.992	2.669	0.269
87.999	117.365	79.998	19.996	100.986	19.981	3.408	0.319
95.999	119.843	79.999	19.995	101.014	19.977	3.654	0.298
104.000	122.592	80.001	19.995	101.013	19.980	3.460	0.321
112.000	125.579	79.997	19.996	101.014	19.978	3.599	0.398
119.999	128.709	79.998	19.996	101.018	19.972	3.957	0.403
127.999	131.955	79.999	19.996	101.036	19.981	3.358	0.397
136.000	135.395	79.996	19.995	101.021	19.975	3.755	0.438
144.000	138.912	79.997	19.996	101.026	19.973	3.892	0.444
152.000	142.588	79.999	19.997	101.020	19.977	3.673	0.474
160.000	146.360	79.999	19.997	101.014	19.973	3.893	0.520
168.000	150.147	79.998	19.997	101.018	19.971	4.015	0.499
176.000	153.891	79.999	19.997	101.017	19.975	3.796	0.476
184.000	157.770	80.002	19.997	101.013	19.972	3.998	0.444
192.000	161.743	79.999	19.994	101.013	19.971	4.031	0.498
200.000	165.741	79.999	19.995	101.018	19.973	3.882	0.513
208.000	169.685	79.997	19.995	101.012	19.976	3.731	0.514
216.000	173.612	79.998	19.995	101.008	19.971	4.037	0.521
224.000	177.567	79.998	19.994	100.993	19.967	4.278	0.495
232.000	181.537	79.999	19.996	100.994	19.972	3.968	0.507
240.000	185.521	79.999	19.997	100.984	19.969	4.156	0.498
248.000	189.447	79.999	19.997	100.976	19.967	4.299	0.494
256.000	193.343	80.000	19.997	100.981	19.966	4.357	0.475
264.000	197.245	80.000	19.996	100.978	19.962	4.616	0.517
272.000	201.127	79.999	19.997	100.976	19.959	4.807	0.501
280.000	205.032	79.998	19.996	100.982	19.955	5.041	0.507
288.000	208.920	79.998	19.996	100.978	19.949	5.436	0.469
296.000	212.890	79.999	19.996	100.975	19.945	5.720	0.511
304.000	216.805	79.999	19.997	100.971	19.946	5.649	0.509
312.000	220.666	79.998	19.996	100.976	19.938	6.185	0.485
320.000	224.643	80.000	19.995	100.975	19.938	6.142	0.505
328.000	228.605	79.999	19.995	100.975	19.937	6.268	0.515
336.000	232.602	79.999	19.996	100.965	19.929	6.758	0.524
344.000	236.428	80.000	19.996	100.975	19.924	7.094	0.492
352.000	240.451	79.999	19.998	100.962	19.919	7.406	0.421
360.000	244.544	79.997	19.998	100.958	19.919	7.394	0.534
368.000	248.573	79.999	19.998	100.972	19.915	7.663	0.510
376.000	252.711	79.997	19.995	100.957	19.908	8.100	0.516
384.000	256.744	79.999	19.996	100.962	19.896	8.870	0.481
392.000	260.744	79.997	19.996	100.969	19.892	9.130	0.489
400.000	264.709	79.998	19.995	100.956	19.888	9.436	0.478
408.000	268.763	79.999	19.997	100.970	19.882	9.784	0.510
416.000	272.819	79.999	19.996	100.957	19.874	10.316	0.482
424.000	276.858	79.999	19.997	100.949	19.876	10.221	0.515
432.000	280.870	80.000	19.994	100.936	19.873	10.386	0.493
440.000	284.886	79.997	19.997	100.941	19.873	10.379	0.521
448.000	288.861	79.996	19.998	100.941	19.878	10.047	0.475
456.000	292.899	79.996	19.997	100.940	19.878	10.026	0.462
464.000	296.914	79.999	19.997	100.942	19.872	10.463	0.474
472.000	301.001	79.998	19.996	100.942	19.874	10.320	0.508
480.000	305.070	80.000	19.996	100.939	19.875	10.255	0.508
488.000	309.085	80.001	19.996	100.935	19.868	10.723	0.532
496.000	313.187	79.999	19.995	100.936	19.865	10.930	0.495
504.000	317.285	80.000	19.996	100.938	19.852	11.759	0.541
512.000	321.297	80.002	19.995	100.934	19.847	12.098	0.510
520.000	325.342	80.000	19.996	100.938	19.825	13.508	0.497
528.000	329.345	80.000	19.997	100.935	19.799	15.190	0.518
536.000	333.346	79.997	19.995	100.939	19.764	17.445	0.497
544.000	337.394	79.998	19.995	100.936	19.711	20.854	0.538
552.000	341.460	79.999	19.998	100.934	19.649	24.893	0.533
560.000	345.442	79.998	19.997	100.934	19.570	30.045	0.501
568.000	349.414	80.001	19.995	100.928	19.472	36.342	0.501
576.000	353.524	79.998	19.994	100.920	19.346	44.509	0.514
584.000	357.559	80.002	19.995	100.920	19.203	53.746	0.494
592.000	361.579	80.000	19.996	100.901	19.041	64.248	0.484
600.000	365.559	80.000	19.994	100.901	18.879	74.747	0.498
608.000	369.566	79.999	19.995	100.891	18.731	84.346	0.462
616.000	373.661	79.999	19.997	100.865	18.625	91.199	0.586
624.000	377.658	79.997	19.996	100.855	18.567	94.927	0.510
632.000	381.689	80.000	19.996	100.846	18.587	93.651	0.488
640.000	385.721	79.998	19.998	100.852	18.676	87.894	0.508
648.000	389.782	80.000	19.996	100.859	18.804	79.615	0.513
656.000	393.864	80.001	19.996	100.862	18.957	69.703	0.504
664.000	397.864	80.000	19.996	100.887	19.084	61.462	0.470
672.000	401.952	80.000	19.996	100.900	19.196	54.250	0.481
680.000	406.014	80.002	19.996	100.913	19.272	49.303	0.514
688.000	410.043	79.999	19.995	100.934	19.328	45.723	0.489
696.000	414.148	80.001	19.995	100.936	19.360	43.622	0.519
704.000	418.126	79.998	19.997	100.936	19.382	42.221	0.479
712.000	422.166	80.000	19.996	100.942	19.393	41.503	0.478
720.000	426.197	79.998	19.996	100.951	19.424	39.506	0.508
728.000	430.283	79.997	19.997	100.941	19.457	37.361	0.539
736.000	434.417	79.999	19.996	100.939	19.508	34.063	0.537
744.000	438.468	80.000	19.996	100.934	19.567	30.211	0.487
752.000	442.464	80.000	19.995	100.936	19.623	26.589	0.456
760.000	446.556	80.002	19.995	100.919	19.672	23.414	0.509
768.000	450.518	79.999	19.996	100.933	19.715	20.614	0.498
776.000	454.529	80.000	19.995	100.937	19.753	18.183	0.509
784.000	458.628	79.998	19.995	100.938	19.790	15.782	0.527
792.000	462.724	79.998	19.996	100.938	19.828	13.287	0.534
800.000	466.755	79.998	19.996	100.926	19.865	10.904	0.513
808.000	470.848	79.998	19.996	100.933	19.895	8.926	0.512
816.000	474.998	80.001	19.997	100.934	19.916	7.585	0.542
824.000	479.131	80.000	19.996	100.930	19.928	6.790	0.473
832.000	483.256	79.998	19.998	100.931	19.943	5.827	0.506
840.000	487.366	80.000	19.995	100.929	19.947	5.574	0.519
848.000	491.484	80.003	19.995	100.926	19.953	5.205	0.489
856.000	495.630	80.000	19.996	100.928	19.958	4.900	0.521
864.000	499.703	80.000	19.996	100.927	19.964	4.510	0.500
872.000	503.806	80.000	19.996	100.928	19.965	4.422	0.491
880.000	507.865	79.999	19.997	100.927	19.961	4.688	0.503
888.000	511.928	79.999	19.997	100.933	19.960	4.762	0.489
896.000	516.047	79.999	19.997	100.934	19.960	4.724	0.507
904.000	520.091	80.000	19.997	100.932	19.958	4.900	0.524
912.000	524.204	79.998	19.997	100.932	19.952	5.245	0.489
920.000	528.302	80.001	19.997	100.936	19.957	4.956	0.515
928.000	532.448	80.001	19.997	100.933	19.949	5.471	0.520
936.000	536.582	79.999	19.996	100.933	19.945	5.716	0.520
944.000	540.626	79.998	19.996	100.934	19.940	6.038	0.498
952.000	544.775	79.999	19.997	100.939	19.933	6.468	0.493
960.000	548.881	80.001	19.996	100.935	19.918	7.491	0.505
968.000	552.998	79.999	19.995	100.936	19.904	8.373	0.513
976.000	557.096	79.998	19.995	100.947	19.894	9.033	0.523
984.000	561.153	80.000	19.996	100.942	19.884	9.667	0.496
992.000	565.226	79.999	19.996	100.950	19.873	10.367	0.487
1000.001	569.363	80.000	19.997	100.958	19.865	10.920	0.529
1008.000	573.589	80.002	19.998	100.957	19.854	11.620	0.555
1016.000	577.732	79.997	19.997	100.966	19.852	11.732	0.504
1024.000	581.873	79.999	19.996	100.965	19.849	11.921	0.542
1031.999	585.925	79.999	19.996	100.967	19.855	11.526	0.498
1039.999	589.975	79.999	19.996	100.952	19.868	10.699	0.464
1047.999	594.016	80.000	19.995	100.954	19.888	9.389	0.510
1056.001	598.085	79.999	19.995	100.945	19.910	7.969	0.498
1063.999	602.065	80.001	19.994	100.939	19.942	5.920	0.504
1071.999	606.106	79.999	19.997	100.936	19.967	4.289	0.506
1080.000	610.178	80.001	19.997	100.934	19.978	3.559	0.474
1087.999	614.171	80.002	19.997	100.933	19.982	3.337	0.500
1095.999	618.241	80.002	19.996	100.943	19.981	3.355	0.508
1103.999	622.279	79.998	19.997	100.937	19.983	3.271	0.498
1111.999	626.318	80.000	19.996	100.950	19.986	3.077	0.475
1119.999	630.361	79.999	19.995	100.965	19.980	3.435	0.510
1127.999	634.422	80.000	19.996	100.968	19.979	3.522	0.503
1135.999	638.429	79.999	19.996	100.975	19.977	3.624	0.485
1143.999	642.427	80.001	19.996	100.975	19.977	3.649	0.486
1152.000	646.448	80.002	19.996	100.983	19.975	3.801	0.490
1160.000	650.539	79.999	19.996	100.988	19.973	3.874	0.506
1168.000	654.648	80.000	19.996	101.015	19.972	3.946	0.510
1176.000	658.705	80.002	19.997	101.014	19.970	4.084	0.503
1184.000	662.825	79.998	19.997	101.014	19.963	4.548	0.492
1192.001	666.804	79.999	19.996	101.018	19.963	4.532	0.486
1200.000	670.795	79.998	19.997	101.018	19.962	4.614	0.507
1208.000	674.845	79.998	19.997	101.033	19.959	4.791	0.534
1216.000	678.790	80.000	19.997	101.051	19.960	4.735	0.500
1224.000	682.781	79.999	19.996	101.049	19.961	4.666	0.503
1232.000	686.745	80.001	19.995	101.054	19.955	5.053	0.487
1240.000	690.730	80.000	19.996	101.072	19.954	5.112	0.494
1248.000	694.706	80.001	19.996	101.077	19.963	4.543	0.481
1256.000	698.751	80.001	19.997	101.096	19.947	5.572	0.498
1264.000	702.821	79.999	19.997	101.094	19.943	5.863	0.511
1272.000	706.825	80.000	19.996	101.115	19.942	5.903	0.494
1280.000	710.888	80.000	19.996	101.131	19.939	6.126	0.540
1288.000	714.883	79.999	19.997	101.153	19.933	6.480	0.475
1296.000	718.917	79.998	19.999	101.170	19.926	6.934	0.487
1304.001	722.996	79.999	19.996	101.176	19.924	7.064	0.494
1312.000	726.947	80.001	19.997	101.184	19.919	7.443	0.506
1320.000	730.952	80.000	19.995	101.194	19.918	7.470	0.510
1328.000	734.997	80.001	19.996	101.195	19.915	7.696	0.512
1336.000	739.037	80.003	19.995	101.173	19.914	7.751	0.526
1344.000	742.976	80.000	19.996	101.120	19.924	7.065	0.520
1345.000	743.576	80.000	19.995	101.115	19.925	7.050	0.526