File: 01_Data/Rug_Pad/MCC/Rug_Pad_MCC_30K_min_211008_R2.txt
Sample ID:	C:\MCC\MCC Cal\Test\Rug_pad_MCC_30K_min_211008_R2.txt
Sample Weight (mg):	4.16
Heating Rate (C/s):	0.5
Combustor Temp (C):	900
N2 Flow Rate (cc/min):	80
O2 Flow Rate (cc/min):	20
Calibration File:	C:\MCC\MCC Cal\Coeff1 JN10440_30_210304.txt.txt
T Correction Coefficients:	0	1.024463	0
Time Shift (s):	14
*
Time (s)	Temperature (C)	N2 flow rate (cc/min)	O2 flow rate (cc/min)	Flow Rate (cc/min)	Oxygen (%)	HRR (W/g)	Heating rate (C/s)
0.000	108.062	80.000	19.997	100.854	20.077	-0.376	-0.025
8.000	108.106	80.000	19.996	100.855	20.074	-0.158	0.022
16.001	108.071	79.998	19.995	100.876	20.071	0.095	0.000
24.000	108.160	79.997	19.998	100.940	20.062	0.795	0.003
32.000	108.636	79.997	19.995	101.054	20.046	1.955	0.061
40.001	109.618	79.997	19.995	101.020	20.039	2.539	0.125
48.000	110.921	79.997	19.997	101.050	20.039	2.473	0.181
56.000	112.533	79.999	19.997	101.054	20.038	2.573	0.214
64.000	114.499	79.999	19.996	101.072	20.029	3.278	0.260
72.001	116.747	80.001	19.997	101.090	20.033	2.979	0.289
80.000	119.311	79.999	19.996	101.092	20.030	3.175	0.343
88.000	122.043	79.999	19.997	101.098	20.030	3.213	0.380
96.000	124.978	79.997	19.995	101.107	20.031	3.126	0.338
104.000	128.078	79.998	19.995	101.102	20.032	3.062	0.371
112.000	131.359	79.998	19.994	101.106	20.028	3.354	0.396
120.000	134.790	79.998	19.996	101.100	20.025	3.569	0.448
128.000	138.226	79.998	19.996	101.100	20.027	3.414	0.438
136.000	141.828	79.998	19.995	101.097	20.028	3.315	0.482
144.000	145.449	79.998	19.996	101.096	20.025	3.538	0.445
152.001	149.164	79.999	19.997	101.097	20.022	3.825	0.471
160.000	152.957	79.997	19.996	101.097	20.021	3.909	0.463
168.000	156.762	80.000	19.995	101.093	20.027	3.439	0.477
176.000	160.672	80.000	19.996	101.089	20.021	3.885	0.482
184.000	164.601	79.998	19.998	101.116	20.017	4.166	0.515
192.001	168.613	79.998	19.995	101.101	20.018	4.127	0.524
200.000	172.707	79.999	19.995	101.091	20.015	4.325	0.508
208.000	176.875	79.998	19.996	101.093	20.016	4.239	0.502
216.000	181.025	79.997	19.996	101.094	20.018	4.109	0.519
224.000	185.185	79.999	19.995	101.089	20.014	4.420	0.540
232.000	189.267	80.000	19.994	101.076	20.009	4.751	0.461
240.000	193.430	79.999	19.996	101.071	20.016	4.227	0.526
248.000	197.401	80.000	19.996	101.059	20.010	4.726	0.503
256.000	201.422	80.002	19.995	101.062	20.009	4.791	0.506
264.000	205.395	79.998	19.996	101.052	20.006	4.993	0.476
272.000	209.399	79.996	19.997	101.052	20.007	4.931	0.479
280.000	213.279	79.997	19.996	101.052	20.001	5.362	0.512
288.000	217.080	79.998	19.996	101.047	19.999	5.538	0.467
296.000	220.832	79.997	19.997	101.050	19.999	5.560	0.494
304.000	224.649	79.999	19.996	101.052	19.998	5.646	0.494
312.000	228.411	80.000	19.996	101.050	19.987	6.415	0.502
320.000	232.191	79.999	19.997	101.050	19.987	6.444	0.480
328.000	235.998	80.001	19.996	101.049	19.982	6.834	0.499
336.000	239.847	80.002	19.998	101.050	19.976	7.312	0.497
344.000	243.673	79.998	19.994	101.053	19.974	7.435	0.468
352.000	247.559	79.998	19.995	101.047	19.975	7.353	0.493
360.000	251.520	79.998	19.997	101.052	19.965	8.109	0.506
368.000	255.453	79.997	19.998	101.051	19.958	8.651	0.486
376.000	259.412	79.998	19.997	101.049	19.958	8.676	0.501
384.000	263.422	79.999	19.996	101.051	19.947	9.463	0.546
392.000	267.445	80.000	19.996	101.046	19.945	9.626	0.525
400.000	271.528	79.999	19.996	101.050	19.943	9.780	0.499
408.000	275.596	79.999	19.996	101.048	19.944	9.714	0.488
416.000	279.679	80.001	19.994	101.044	19.942	9.880	0.517
424.000	283.717	80.000	19.994	101.039	19.936	10.304	0.483
432.000	287.770	79.998	19.996	101.035	19.943	9.751	0.510
440.000	291.846	79.999	19.996	101.027	19.940	9.975	0.531
448.000	295.943	80.002	19.997	101.018	19.941	9.948	0.526
456.001	299.942	79.999	19.996	101.026	19.943	9.783	0.509
464.000	303.999	79.999	19.997	101.015	19.943	9.817	0.534
472.000	308.022	80.000	19.997	101.016	19.938	10.162	0.509
480.001	312.120	80.002	19.996	101.015	19.933	10.511	0.530
488.000	316.174	79.999	19.996	101.015	19.923	11.279	0.547
496.000	320.181	80.001	19.997	101.020	19.917	11.736	0.529
504.000	324.220	80.001	19.996	101.020	19.898	13.174	0.504
512.000	328.275	80.000	19.996	101.014	19.880	14.533	0.532
520.000	332.223	79.998	19.997	101.012	19.841	17.494	0.521
528.000	336.229	79.999	19.996	101.012	19.801	20.557	0.500
536.000	340.238	79.999	19.997	101.016	19.748	24.521	0.502
544.000	344.236	79.999	19.997	101.016	19.675	30.118	0.492
552.000	348.303	79.998	19.997	101.017	19.587	36.741	0.466
560.000	352.368	80.000	19.997	101.014	19.473	45.374	0.521
568.000	356.427	80.000	19.996	101.007	19.345	55.089	0.511
576.000	360.510	79.999	19.996	100.995	19.192	66.686	0.541
584.000	364.572	80.002	19.996	100.982	19.041	78.060	0.515
592.000	368.596	79.998	19.996	100.970	18.890	89.483	0.518
600.000	372.641	79.998	19.996	100.952	18.781	97.758	0.523
608.000	376.618	80.000	19.996	100.937	18.725	101.960	0.490
616.000	380.629	79.998	19.997	100.931	18.735	101.205	0.495
624.000	384.533	79.997	19.996	100.929	18.808	95.714	0.468
632.001	388.565	80.000	19.997	100.933	18.938	85.837	0.526
640.000	392.603	80.000	19.997	100.935	19.078	75.281	0.515
648.000	396.689	79.998	19.997	100.951	19.216	64.803	0.519
656.000	400.659	80.000	19.996	100.970	19.328	56.397	0.515
664.000	404.724	80.001	19.996	100.980	19.408	50.279	0.483
672.000	408.817	80.000	19.996	101.001	19.478	45.022	0.529
680.000	412.899	79.997	19.996	101.010	19.512	42.396	0.506
688.000	416.946	79.999	19.996	101.015	19.545	39.903	0.516
696.000	421.061	79.999	19.996	101.014	19.567	38.292	0.501
704.000	425.190	79.998	19.997	101.014	19.588	36.684	0.538
712.000	429.284	79.998	19.997	101.012	19.618	34.406	0.531
720.000	433.329	79.999	19.995	101.011	19.652	31.853	0.489
728.000	437.472	79.999	19.995	101.012	19.690	28.943	0.503
736.001	441.566	79.998	19.997	101.012	19.729	26.027	0.522
744.000	445.592	80.000	19.998	101.007	19.768	23.036	0.507
752.000	449.622	80.001	19.996	101.008	19.802	20.499	0.501
760.000	453.679	79.999	19.996	101.006	19.836	17.885	0.513
768.000	457.724	79.998	19.997	101.011	19.870	15.328	0.518
776.000	461.773	79.999	19.996	101.007	19.905	12.640	0.510
784.000	465.803	79.999	19.996	101.005	19.935	10.387	0.517
792.001	469.810	79.999	19.995	101.011	19.962	8.371	0.499
800.000	473.859	80.000	19.996	101.015	19.980	6.967	0.494
808.001	477.999	79.998	19.996	101.012	19.997	5.663	0.523
816.000	482.039	79.999	19.995	101.012	20.004	5.121	0.486
824.000	486.196	80.000	19.996	101.011	20.012	4.561	0.517
832.000	490.310	80.002	19.997	101.008	20.014	4.365	0.555
840.000	494.373	79.998	19.998	101.009	20.022	3.769	0.506
848.000	498.472	79.999	19.997	101.005	20.019	4.054	0.513
856.000	502.529	79.998	19.996	101.002	20.020	3.970	0.507
864.000	506.542	79.998	19.996	101.012	20.021	3.898	0.500
872.000	510.599	79.998	19.996	101.014	20.020	3.949	0.506
880.001	514.647	80.000	19.995	101.015	20.017	4.143	0.491
888.000	518.815	80.001	19.995	101.012	20.015	4.307	0.515
896.000	522.930	80.001	19.996	101.009	20.015	4.342	0.510
904.000	527.065	80.000	19.997	101.009	20.017	4.211	0.498
912.000	531.215	80.002	19.996	101.008	20.007	4.967	0.529
920.000	535.374	79.998	19.996	101.007	20.007	4.940	0.521
928.000	539.488	79.998	19.997	101.013	19.995	5.803	0.508
936.000	543.589	79.997	19.996	101.012	19.986	6.506	0.517
944.000	547.659	79.998	19.995	101.015	19.980	6.963	0.543
952.000	551.728	79.999	19.996	101.013	19.971	7.663	0.472
960.000	555.896	80.001	19.996	101.017	19.964	8.194	0.552
968.000	560.020	80.003	19.995	101.021	19.951	9.187	0.516
976.000	564.116	80.001	19.996	101.037	19.945	9.641	0.500
984.000	568.194	80.001	19.995	101.035	19.940	9.979	0.510
992.000	572.230	80.001	19.996	101.025	19.938	10.128	0.499
1000.000	576.414	80.001	19.996	101.031	19.942	9.862	0.492
1008.000	580.422	79.998	19.997	101.026	19.943	9.779	0.517
1016.000	584.457	79.998	19.997	101.015	19.955	8.852	0.478
1024.000	588.442	80.000	19.996	101.013	19.971	7.645	0.477
1032.001	592.416	79.999	19.995	101.010	19.995	5.832	0.470
1040.001	596.369	80.000	19.995	101.011	20.014	4.429	0.517
1048.000	600.319	80.001	19.996	101.004	20.024	3.655	0.495
1056.001	604.266	80.001	19.995	101.014	20.031	3.096	0.484
1064.000	608.349	80.000	19.995	101.014	20.034	2.878	0.509
1072.000	612.457	80.001	19.994	101.014	20.031	3.125	0.520
1080.000	616.609	80.000	19.995	101.018	20.030	3.193	0.541
1088.000	620.731	79.999	19.996	101.018	20.033	2.938	0.511
1096.001	624.909	80.001	19.996	101.036	20.028	3.349	0.529
1104.001	628.998	80.000	19.995	101.038	20.030	3.155	0.491
1112.000	633.118	79.999	19.997	101.048	20.028	3.357	0.511
1120.001	637.178	79.999	19.997	101.051	20.028	3.374	0.510
1128.001	641.265	80.000	19.995	101.054	20.027	3.388	0.511
1136.001	645.290	80.001	19.995	101.063	20.022	3.789	0.487
1144.000	649.309	80.001	19.995	101.063	20.017	4.154	0.500
1152.000	653.359	80.003	19.995	101.083	20.018	4.071	0.513
1160.000	657.378	80.002	19.995	101.085	20.015	4.325	0.507
1168.000	661.436	80.000	19.996	101.089	20.015	4.367	0.526
1176.000	665.460	80.001	19.997	101.095	20.014	4.412	0.517
1184.000	669.503	80.000	19.995	101.105	20.014	4.421	0.525
1192.000	673.611	80.000	19.996	101.113	20.008	4.888	0.503
1200.001	677.671	79.999	19.996	101.124	20.005	5.104	0.521
1208.001	681.699	79.999	19.997	101.126	20.003	5.230	0.509
1216.000	685.743	80.002	19.996	101.126	20.005	5.091	0.519
1224.000	689.835	80.001	19.997	101.129	20.001	5.374	0.535
1232.000	693.875	80.002	19.995	101.144	19.999	5.560	0.518
1240.000	697.931	80.003	19.996	101.158	19.996	5.782	0.493
1248.000	701.903	80.000	19.995	101.169	19.995	5.840	0.480
1256.000	705.893	79.999	19.995	101.199	19.990	6.250	0.480
1264.000	709.881	80.000	19.997	101.209	19.983	6.727	0.503
1272.000	713.916	79.999	19.996	101.213	19.978	7.110	0.488
1280.001	717.937	79.998	19.996	101.224	19.979	7.097	0.492
1288.000	721.992	80.001	19.997	101.247	19.973	7.534	0.520
1296.000	726.018	80.001	19.996	101.246	19.973	7.497	0.515
1304.000	730.046	80.001	19.996	101.245	19.969	7.816	0.516
1312.001	734.129	80.001	19.995	101.247	19.968	7.908	0.536
1320.000	738.182	80.002	19.995	101.211	19.966	8.032	0.531
1328.000	742.315	80.001	19.996	101.129	19.991	6.143	0.527
1330.500	743.565	79.999	19.996	101.092	19.997	5.713	0.521