File: 01_Data/Masonite_Board/FTIR/IS/Masonite_Board_IS_T_220818_R1.dpt
7497.03,0.02912
7473.89,0.02449
7450.74,0.02851
7427.6,0.01958
7404.45,0.01296
7381.31,0.02590
7358.16,0.02098
7335.02,0.02909
7311.87,0.01913
7288.73,0.01846
7265.58,0.02378
7242.44,0.02094
7219.29,0.01837
7196.15,0.01872
7173,0.02309
7149.86,0.02735
7126.71,0.02059
7103.57,0.02153
7080.42,0.01463
7057.28,0.01997
7034.13,0.02228
7010.99,0.02646
6987.84,0.02063
6964.7,0.02197
6941.55,0.02268
6918.41,0.02112
6895.26,0.01565
6872.12,0.01797
6848.97,0.02311
6825.83,0.01916
6802.68,0.01836
6779.54,0.02158
6756.39,0.02050
6733.25,0.01752
6710.1,0.01810
6686.96,0.02065
6663.82,0.02211
6640.67,0.01906
6617.53,0.02218
6594.38,0.02111
6571.24,0.01749
6548.09,0.01662
6524.95,0.02163
6501.8,0.02213
6478.66,0.01836
6455.51,0.02251
6432.37,0.02071
6409.22,0.01829
6386.08,0.01972
6362.93,0.01985
6339.79,0.02035
6316.64,0.01825
6293.5,0.01771
6270.35,0.02117
6247.21,0.01762
6224.06,0.02093
6200.92,0.02143
6177.77,0.01988
6154.63,0.01932
6131.48,0.01822
6108.34,0.02031
6085.19,0.01839
6062.05,0.01887
6038.9,0.02001
6015.76,0.01767
5992.61,0.01877
5969.47,0.01853
5946.32,0.01632
5923.18,0.01851
5900.03,0.01906
5876.89,0.01489
5853.74,0.02244
5830.6,0.01967
5807.45,0.01902
5784.31,0.01629
5761.16,0.01903
5738.02,0.01912
5714.87,0.01719
5691.73,0.01973
5668.58,0.01724
5645.44,0.01933
5622.29,0.02073
5599.15,0.01718
5576,0.01869
5552.86,0.01969
5529.71,0.01907
5506.57,0.01828
5483.42,0.01934
5460.28,0.01999
5437.13,0.01863
5413.99,0.01898
5390.84,0.01949
5367.7,0.01813
5344.55,0.01915
5321.41,0.01883
5298.26,0.01806
5275.12,0.01912
5251.97,0.01951
5228.83,0.02074
5205.68,0.01908
5182.54,0.02065
5159.39,0.02055
5136.25,0.01841
5113.1,0.01905
5089.96,0.01906
5066.81,0.01967
5043.67,0.01950
5020.52,0.02075
4997.38,0.01910
4974.23,0.01900
4951.09,0.01961
4927.94,0.01936
4904.8,0.02006
4881.65,0.02084
4858.51,0.01900
4835.36,0.01911
4812.22,0.01825
4789.07,0.02005
4765.93,0.01927
4742.78,0.01975
4719.64,0.01914
4696.49,0.01883
4673.35,0.02014
4650.2,0.01883
4627.06,0.01892
4603.92,0.01871
4580.77,0.01987
4557.63,0.01987
4534.48,0.01957
4511.34,0.01946
4488.19,0.01945
4465.05,0.01971
4441.9,0.01941
4418.76,0.01848
4395.61,0.02030
4372.47,0.01959
4349.32,0.01979
4326.18,0.02001
4303.03,0.01915
4279.89,0.01955
4256.74,0.01863
4233.6,0.01922
4210.45,0.01887
4187.31,0.01940
4164.16,0.01947
4141.02,0.01981
4117.87,0.01951
4094.73,0.01900
4071.58,0.01962
4048.44,0.01970
4025.29,0.01963
4002.15,0.01935
3979,0.01960
3955.86,0.01976
3932.71,0.01969
3909.57,0.01968
3886.42,0.01891
3863.28,0.01942
3840.13,0.02021
3816.99,0.01974
3793.84,0.01960
3770.7,0.01954
3747.55,0.01981
3724.41,0.01879
3701.26,0.01956
3678.12,0.01972
3654.97,0.01878
3631.83,0.01857
3608.68,0.01883
3585.54,0.01897
3562.39,0.01780
3539.25,0.01863
3516.1,0.01798
3492.96,0.01771
3469.81,0.01820
3446.67,0.01843
3423.52,0.01807
3400.38,0.01739
3377.23,0.01754
3354.09,0.01735
3330.94,0.01651
3307.8,0.01725
3284.65,0.01809
3261.51,0.01845
3238.36,0.01775
3215.22,0.01760
3192.07,0.01728
3168.93,0.01757
3145.78,0.01730
3122.64,0.01813
3099.49,0.01814
3076.35,0.01763
3053.2,0.01743
3030.06,0.01766
3006.91,0.01698
2983.77,0.01695
2960.62,0.01640
2937.48,0.01669
2914.33,0.01776
2891.19,0.01754
2868.04,0.01746
2844.9,0.01805
2821.75,0.01865
2798.61,0.01834
2775.46,0.01809
2752.32,0.01848
2729.17,0.01839
2706.03,0.01858
2682.88,0.01859
2659.74,0.01807
2636.59,0.01830
2613.45,0.01839
2590.3,0.01828
2567.16,0.01794
2544.02,0.01863
2520.87,0.01819
2497.73,0.01824
2474.58,0.01820
2451.44,0.01813
2428.29,0.01850
2405.15,0.01823
2382,0.01796
2358.86,0.01842
2335.71,0.01827
2312.57,0.01789
2289.42,0.01843
2266.28,0.01827
2243.13,0.01802
2219.99,0.01841
2196.84,0.01820
2173.7,0.01817
2150.55,0.01831
2127.41,0.01840
2104.26,0.01772
2081.12,0.01821
2057.97,0.01770
2034.83,0.01790
2011.68,0.01808
1988.54,0.01790
1965.39,0.01785
1942.25,0.01762
1919.1,0.01814
1895.96,0.01791
1872.81,0.01785
1849.67,0.01769
1826.52,0.01726
1803.38,0.01656
1780.23,0.01615
1757.09,0.01464
1733.94,0.01682
1710.8,0.01769
1687.65,0.01600
1664.51,0.01559
1641.36,0.01556
1618.22,0.01620
1595.07,0.01590
1571.93,0.01559
1548.78,0.01537
1525.64,0.01575
1502.49,0.01570
1479.35,0.01519
1456.2,0.01602
1433.06,0.01584
1409.91,0.01533
1386.77,0.01540
1363.62,0.01525
1340.48,0.01500
1317.33,0.01427
1294.19,0.01462
1271.04,0.01675
1247.9,0.01693
1224.75,0.01623
1201.61,0.01523
1178.46,0.01455
1155.32,0.01423
1132.17,0.01522
1109.03,0.01499
1085.88,0.01514
1062.74,0.01678
1039.59,0.01674
1016.45,0.01688
993.304,0.01850
970.159,0.01730
947.014,0.01650
923.869,0.01639
900.724,0.01595
877.579,0.01676
854.434,0.01563
831.289,0.01581
808.144,0.01607
784.999,0.01629
761.854,0.01498
738.709,0.01522
715.565,0.01491
692.42,0.01536
669.275,0.01235
646.13,0.01365
622.985,0.01237
599.84,0.01199