File: 01_Data/Masonite_Board/FTIR/IS/Masonite_Board_IS_S_220818_R1.dpt
7497.01,0.73279
7473.87,0.72887
7450.72,0.72028
7427.58,0.71064
7404.43,0.69796
7381.29,0.69975
7358.14,0.69258
7335,0.68062
7311.85,0.67552
7288.71,0.67646
7265.56,0.67598
7242.42,0.67817
7219.27,0.67079
7196.13,0.66454
7172.99,0.66191
7149.84,0.64458
7126.7,0.63107
7103.55,0.61650
7080.41,0.59795
7057.26,0.57751
7034.12,0.55931
7010.97,0.54526
6987.83,0.53450
6964.68,0.52838
6941.54,0.51828
6918.39,0.51677
6895.25,0.51706
6872.1,0.51516
6848.96,0.51265
6825.81,0.51108
6802.67,0.50975
6779.52,0.51059
6756.38,0.51103
6733.23,0.51193
6710.09,0.51512
6686.94,0.51276
6663.8,0.51951
6640.65,0.52262
6617.51,0.52860
6594.36,0.53466
6571.22,0.53920
6548.07,0.54043
6524.93,0.54195
6501.78,0.54146
6478.64,0.53912
6455.49,0.54460
6432.35,0.54576
6409.2,0.54780
6386.06,0.54755
6362.91,0.54905
6339.77,0.55271
6316.62,0.55517
6293.48,0.55477
6270.33,0.56309
6247.19,0.56835
6224.04,0.57837
6200.9,0.58375
6177.76,0.59345
6154.61,0.59716
6131.47,0.60358
6108.32,0.60560
6085.18,0.60513
6062.03,0.60268
6038.89,0.60000
6015.74,0.59660
5992.6,0.59374
5969.45,0.58941
5946.31,0.58871
5923.16,0.58533
5900.02,0.58077
5876.87,0.57554
5853.73,0.57560
5830.58,0.57233
5807.44,0.56603
5784.29,0.56697
5761.15,0.57034
5738,0.57581
5714.86,0.57579
5691.71,0.57328
5668.57,0.57081
5645.42,0.57120
5622.28,0.57075
5599.13,0.56964
5575.99,0.57234
5552.84,0.57458
5529.7,0.57626
5506.55,0.57697
5483.41,0.57782
5460.26,0.58062
5437.12,0.58526
5413.97,0.59189
5390.83,0.59044
5367.68,0.58944
5344.54,0.58652
5321.39,0.57134
5298.25,0.54300
5275.1,0.49649
5251.96,0.44618
5228.81,0.41243
5205.67,0.40018
5182.53,0.40097
5159.38,0.41202
5136.24,0.42650
5113.09,0.44017
5089.95,0.45395
5066.8,0.46694
5043.66,0.47795
5020.51,0.48732
4997.37,0.49201
4974.22,0.48949
4951.08,0.47785
4927.93,0.46008
4904.79,0.44071
4881.64,0.42033
4858.5,0.40277
4835.35,0.38786
4812.21,0.37541
4789.06,0.36728
4765.92,0.36058
4742.77,0.35807
4719.63,0.36049
4696.48,0.36381
4673.34,0.37074
4650.19,0.38025
4627.05,0.38917
4603.9,0.39852
4580.76,0.40632
4557.61,0.41291
4534.47,0.41792
4511.32,0.41891
4488.18,0.40795
4465.03,0.38319
4441.89,0.35388
4418.74,0.32620
4395.6,0.31744
4372.45,0.33011
4349.31,0.33424
4326.16,0.32418
4303.02,0.31863
4279.87,0.31201
4256.73,0.31420
4233.58,0.31726
4210.44,0.31836
4187.3,0.31870
4164.15,0.32412
4141.01,0.31955
4117.86,0.30726
4094.72,0.29091
4071.57,0.27297
4048.43,0.25370
4025.28,0.24139
4002.14,0.24259
3978.99,0.24759
3955.85,0.25486
3932.7,0.26470
3909.56,0.27258
3886.41,0.28078
3863.27,0.29015
3840.12,0.30039
3816.98,0.30222
3793.83,0.29931
3770.69,0.29450
3747.54,0.28735
3724.4,0.26947
3701.25,0.23835
3678.11,0.18749
3654.96,0.13128
3631.82,0.09924
3608.67,0.08160
3585.53,0.07020
3562.38,0.06177
3539.24,0.05620
3516.09,0.05298
3492.95,0.05007
3469.8,0.04804
3446.66,0.04695
3423.51,0.04666
3400.37,0.04796
3377.22,0.04755
3354.08,0.04864
3330.93,0.05165
3307.79,0.05374
3284.64,0.05613
3261.5,0.06057
3238.35,0.06478
3215.21,0.06927
3192.07,0.07249
3168.92,0.07745
3145.78,0.08248
3122.63,0.08734
3099.49,0.09206
3076.34,0.09670
3053.2,0.10119
3030.05,0.10341
3006.91,0.09843
2983.76,0.09130
2960.62,0.07713
2937.47,0.07163
2914.33,0.06994
2891.18,0.07227
2868.04,0.07625
2844.89,0.08194
2821.75,0.10080
2798.6,0.11251
2775.46,0.11748
2752.31,0.11916
2729.17,0.11971
2706.02,0.12541
2682.88,0.13229
2659.73,0.13574
2636.59,0.13969
2613.44,0.14435
2590.3,0.14783
2567.15,0.14950
2544.01,0.14996
2520.86,0.15305
2497.72,0.15968
2474.57,0.16566
2451.43,0.16987
2428.28,0.17682
2405.14,0.18556
2381.99,0.19198
2358.85,0.19828
2335.7,0.20328
2312.56,0.20505
2289.41,0.20354
2266.27,0.19969
2243.12,0.19222
2219.98,0.19337
2196.84,0.19186
2173.69,0.18017
2150.55,0.17011
2127.4,0.16792
2104.26,0.17134
2081.11,0.17369
2057.97,0.17198
2034.82,0.17583
2011.68,0.18558
1988.53,0.19137
1965.39,0.19186
1942.24,0.19400
1919.1,0.20397
1895.95,0.20589
1872.81,0.20378
1849.66,0.19714
1826.52,0.18615
1803.37,0.16500
1780.23,0.13607
1757.08,0.08052
1733.94,0.06940
1710.79,0.08448
1687.65,0.08904
1664.5,0.07749
1641.36,0.07402
1618.21,0.07003
1595.07,0.06324
1571.92,0.09127
1548.78,0.09806
1525.63,0.07687
1502.49,0.05978
1479.34,0.06248
1456.2,0.05406
1433.05,0.05147
1409.91,0.05951
1386.76,0.05317
1363.62,0.05268
1340.47,0.05103
1317.33,0.05393
1294.18,0.05693
1271.04,0.05084
1247.89,0.04859
1224.75,0.05293
1201.61,0.05272
1178.46,0.04272
1155.32,0.05143
1132.17,0.04022
1109.03,0.05377
1085.88,0.04782
1062.74,0.07487
1039.59,0.08505
1016.45,0.09476
993.301,0.09447
970.156,0.10548
947.011,0.11608
923.867,0.10784
900.722,0.09644
877.577,0.10324
854.432,0.10043
831.287,0.09376
808.142,0.09206
784.997,0.08704
761.852,0.07890
738.708,0.07088
715.563,0.06411
692.418,0.06371
669.273,0.06195
646.128,0.06176
622.983,0.06020
599.838,0.06491