File: 01_Data/Masonite_Board/FTIR/IS/Masonite_Board_IS_S_220818_R2.dpt
7497.03,0.73069
7473.89,0.72429
7450.74,0.72027
7427.6,0.70192
7404.45,0.69467
7381.31,0.69179
7358.16,0.69283
7335.02,0.68438
7311.87,0.66862
7288.73,0.67277
7265.58,0.67016
7242.44,0.67528
7219.29,0.67501
7196.15,0.65723
7173,0.65843
7149.86,0.64025
7126.71,0.62827
7103.57,0.61047
7080.42,0.59222
7057.28,0.57525
7034.13,0.55392
7010.99,0.53892
6987.84,0.52411
6964.7,0.52377
6941.55,0.52109
6918.41,0.51975
6895.26,0.51576
6872.12,0.50926
6848.97,0.51181
6825.83,0.50975
6802.68,0.50583
6779.54,0.50352
6756.39,0.51098
6733.25,0.51272
6710.1,0.50923
6686.96,0.51100
6663.82,0.52230
6640.67,0.52039
6617.53,0.52551
6594.38,0.52613
6571.24,0.53634
6548.09,0.53501
6524.95,0.53688
6501.8,0.53782
6478.66,0.53620
6455.51,0.53690
6432.37,0.54222
6409.22,0.54104
6386.08,0.54374
6362.93,0.54727
6339.79,0.55256
6316.64,0.54896
6293.5,0.55366
6270.35,0.56083
6247.21,0.56822
6224.06,0.57344
6200.92,0.58073
6177.77,0.58552
6154.63,0.59246
6131.48,0.59943
6108.34,0.60262
6085.19,0.60142
6062.05,0.60075
6038.9,0.59766
6015.76,0.59446
5992.61,0.58685
5969.47,0.58625
5946.32,0.58471
5923.18,0.58251
5900.03,0.57599
5876.89,0.57312
5853.74,0.57285
5830.6,0.56933
5807.45,0.56343
5784.31,0.56180
5761.16,0.56975
5738.02,0.57032
5714.87,0.57259
5691.73,0.56884
5668.58,0.56811
5645.44,0.56793
5622.29,0.56804
5599.15,0.56723
5576,0.56641
5552.86,0.57019
5529.71,0.57227
5506.57,0.57336
5483.42,0.57404
5460.28,0.57834
5437.13,0.58266
5413.99,0.58826
5390.84,0.58860
5367.7,0.58528
5344.55,0.58286
5321.41,0.57017
5298.26,0.54160
5275.12,0.49632
5251.97,0.44696
5228.83,0.41385
5205.68,0.40284
5182.54,0.40487
5159.39,0.41471
5136.25,0.42917
5113.1,0.44227
5089.96,0.45650
5066.81,0.46742
5043.67,0.47865
5020.52,0.48873
4997.38,0.49150
4974.23,0.48787
4951.09,0.47700
4927.94,0.45867
4904.8,0.43730
4881.65,0.41509
4858.51,0.39760
4835.36,0.38290
4812.22,0.37140
4789.07,0.36193
4765.93,0.35621
4742.78,0.35433
4719.64,0.35603
4696.49,0.35944
4673.35,0.36720
4650.2,0.37546
4627.06,0.38557
4603.92,0.39436
4580.77,0.40285
4557.63,0.40955
4534.48,0.41407
4511.34,0.41582
4488.19,0.40424
4465.05,0.37926
4441.9,0.34952
4418.76,0.32178
4395.61,0.31269
4372.47,0.32486
4349.32,0.32885
4326.18,0.31867
4303.03,0.31369
4279.89,0.30715
4256.74,0.30940
4233.6,0.31278
4210.45,0.31419
4187.31,0.31457
4164.16,0.31971
4141.02,0.31570
4117.87,0.30428
4094.73,0.28680
4071.58,0.26905
4048.44,0.24974
4025.29,0.23703
4002.15,0.23889
3979,0.24365
3955.86,0.25131
3932.71,0.26089
3909.57,0.26936
3886.42,0.27693
3863.28,0.28577
3840.13,0.29564
3816.99,0.29792
3793.84,0.29695
3770.7,0.29244
3747.55,0.28338
3724.41,0.26758
3701.26,0.23830
3678.12,0.18804
3654.97,0.13152
3631.83,0.10114
3608.68,0.08280
3585.54,0.07007
3562.39,0.06102
3539.25,0.05519
3516.1,0.05234
3492.96,0.04907
3469.81,0.04703
3446.67,0.04620
3423.52,0.04666
3400.38,0.04616
3377.23,0.04703
3354.09,0.04735
3330.94,0.05003
3307.8,0.05247
3284.65,0.05518
3261.51,0.05874
3238.36,0.06375
3215.22,0.06761
3192.07,0.07183
3168.93,0.07704
3145.78,0.08129
3122.64,0.08585
3099.49,0.09089
3076.35,0.09546
3053.2,0.10021
3030.06,0.10186
3006.91,0.09645
2983.77,0.08863
2960.62,0.07461
2937.48,0.06872
2914.33,0.06769
2891.19,0.07010
2868.04,0.07362
2844.9,0.07935
2821.75,0.09777
2798.61,0.10997
2775.46,0.11465
2752.32,0.11628
2729.17,0.11731
2706.03,0.12251
2682.88,0.12961
2659.74,0.13275
2636.59,0.13683
2613.45,0.14175
2590.3,0.14520
2567.16,0.14656
2544.02,0.14732
2520.87,0.15080
2497.73,0.15708
2474.58,0.16320
2451.44,0.16741
2428.29,0.17437
2405.15,0.18277
2382,0.18969
2358.86,0.19633
2335.71,0.20152
2312.57,0.20303
2289.42,0.20166
2266.28,0.19810
2243.13,0.19092
2219.99,0.19209
2196.84,0.19135
2173.7,0.17930
2150.55,0.16886
2127.41,0.16731
2104.26,0.17037
2081.12,0.17292
2057.97,0.17143
2034.83,0.17513
2011.68,0.18535
1988.54,0.19099
1965.39,0.19118
1942.25,0.19336
1919.1,0.20282
1895.96,0.20538
1872.81,0.20293
1849.67,0.19582
1826.52,0.18442
1803.38,0.16340
1780.23,0.13342
1757.09,0.07757
1733.94,0.06777
1710.8,0.08306
1687.65,0.08827
1664.51,0.07790
1641.36,0.07428
1618.22,0.06933
1595.07,0.06276
1571.93,0.08999
1548.78,0.09681
1525.64,0.07528
1502.49,0.05849
1479.35,0.06132
1456.2,0.05256
1433.06,0.05082
1409.91,0.05874
1386.77,0.05292
1363.62,0.05179
1340.48,0.05038
1317.33,0.05315
1294.19,0.05601
1271.04,0.05075
1247.9,0.04759
1224.75,0.05223
1201.61,0.05214
1178.46,0.04207
1155.32,0.05019
1132.17,0.03884
1109.03,0.05341
1085.88,0.04763
1062.74,0.07390
1039.59,0.08536
1016.45,0.09419
993.304,0.09427
970.159,0.10520
947.014,0.11527
923.869,0.10820
900.724,0.09595
877.579,0.10271
854.434,0.10079
831.289,0.09489
808.144,0.09415
784.999,0.08843
761.854,0.07972
738.709,0.07176
715.565,0.06408
692.42,0.06477
669.275,0.06302
646.13,0.06041
622.985,0.05965
599.84,0.06661