File: 01_Data/Oak_Flooring/HFM/Oak_Flooring_Density_Wet_R2.csv
,Oak_Flooring_WET_2
Sample Mass [g],509.1
Sample Volume [cm3],699.4
Sample Density [kg/m3],728