File: 01_Data/Oak_Flooring/HFM/Oak_Flooring_Density_Dry_R2.csv
,Oak_Flooring_DRY_2
Sample Mass [g],470.9
Sample Volume [cm3],699.4
Sample Density [kg/m3],673