File: 01_Data/Oak_Flooring/HFM/Oak_Flooring_Density_Wet_R3.csv
,Oak_Flooring_WET_3
Sample Mass [g],431.8
Sample Volume [cm3],615.9
Sample Density [kg/m3],701