File: 01_Data/Oak_Flooring/HFM/Oak_Flooring_Density_Dry_R1.csv
,Oak_Flooring_DRY_1
Sample Mass [g],460.6
Sample Volume [cm3],699.4
Sample Density [kg/m3],659