File: 01_Data/Oak_Flooring/HFM/Oak_Flooring_Density_Wet_R1.csv
,Oak_Flooring_WET_1
Sample Mass [g],498.1
Sample Volume [cm3],699.4
Sample Density [kg/m3],712