File: 01_Data/Oak_Flooring/HFM/Oak_Flooring_Density_Dry_R3.csv
,Oak_Flooring_DRY_3
Sample Mass [g],399.6
Sample Volume [cm3],615.9
Sample Density [kg/m3],649