File: 01_Data/Cotton_Raw/Cone/Cotton_Raw_Cone_HF50-Frame+GridScan_200909_R2.csv
Names,Time,Stack TC,Smoke TC,Exh Press,Smoke Comp,Smoke Meas,CO Meter,CO2 Meter,O2 Meter,Sample Mass,Ext Coeff,Start Test,Flame Verif
Chan Gain,,500,500,1,1,1,1,1,1,1,1,1.0,1.0
Offset,,0,0,0.136754,0,0,0,0,0,0,0,0.0,0.0
Gain,,1,1,25.011,13.7501,16.9893,1,1,1,1.00105,1.02582,1.0,1.0
Units,sec,C,C,Pa,%,%,%,%,%,g,/m,,
Baseline,,30.7636,33.8264,163.684,102.669,103.841,-0.000467375,0.0537324,20.9599,-900.72,-0.102076,,
10,2.25,28.5567,31.4025,158.39,102.623,103.74,0.000483062,0.102153,20.9202,13.4641,-0.0974163,0.0,0.0
20,4.75,30.8113,36.8799,158.483,102.622,105.881,0.00101693,0.177749,20.846,13.2539,-0.281291,0.0,1.0
30,7.25,32.8787,39.6632,159.259,102.586,104.689,0.00128336,0.199777,20.8161,13.1438,-0.18258,0.0,1.0
40,9.75,33.0014,39.9385,156.896,102.591,104.517,0.00143826,0.202721,20.8082,12.9636,-0.167294,0.0,0.0
50,12.25,33.8366,40.654,155.192,102.593,104.405,0.00154065,0.208414,20.8008,12.7434,-0.1575,0.0,0.0
60,14.75,34.5726,42.3816,155.877,102.561,104.625,0.00154011,0.222264,20.7892,12.5932,-0.17935,0.0,0.0
70,17.25,35.3943,43.7574,152.457,102.537,104.177,0.00158911,0.23426,20.7758,12.373,-0.142839,0.0,0.0
80,19.75,36.7479,44.8331,153.496,102.498,104.465,0.00174655,0.238261,20.7698,12.0927,-0.171085,0.0,0.0
90,22.25,36.6992,45.347,155.327,102.497,104.636,0.00177092,0.240181,20.7681,11.9726,-0.185876,0.0,0.0
100,24.75,37.5979,45.9942,157.814,102.465,103.463,0.00164374,0.239918,20.7682,11.8925,-0.0872512,0.0,0.0
110,27.25,37.7462,45.6119,158.414,102.467,104.314,0.00140547,0.236941,20.7699,11.6823,-0.160806,0.0,0.0
120,29.75,37.793,45.9335,155.959,102.418,103.336,0.00114595,0.229272,20.7771,11.452,-0.0802877,0.0,0.0
130,32.25,37.7074,46.1656,159.701,102.417,104.123,0.000961258,0.223921,20.7829,11.3019,-0.148673,0.0,0.0
140,34.75,37.6319,46.0045,159.668,102.379,103.806,0.000944297,0.221039,20.785,11.2218,-0.124491,0.0,0.0
150,37.25,37.7562,44.5466,154.638,102.37,104.576,0.00098757,0.218897,20.7867,11.0015,-0.191798,0.0,0.0
160,39.75,37.5768,45.0917,156.99,102.337,104.216,0.00102948,0.217378,20.7878,10.8514,-0.163743,0.0,0.0
170,42.25,37.5295,45.2516,154.575,102.327,104.536,0.00114757,0.216065,20.7903,10.7313,-0.192207,0.0,0.0
180,44.75,37.3997,45.0632,156.891,102.293,104.639,0.00140006,0.210997,20.7957,10.6111,-0.20411,0.0,0.0
190,47.25,37.7261,45.23,160.78,102.282,105.155,0.0016398,0.204804,20.8008,10.491,-0.249243,0.0,0.0
200,49.75,37.2244,44.8656,158.862,102.211,104.939,0.00182565,0.200034,20.8029,10.3208,-0.237045,0.0,0.0
210,52.25,37.4655,44.538,156.323,102.189,105.184,0.00217712,0.196228,20.8069,10.2007,-0.25997,0.0,0.0
220,54.75,37.6978,44.8358,161.206,102.159,104.547,0.00264753,0.193398,20.8106,10.0205,-0.207871,0.0,0.0
230,57.25,37.8236,44.3833,158.594,102.132,103.796,0.00310626,0.189837,20.8136,9.97046,-0.145469,0.0,0.0
240,59.75,37.6467,44.2358,157.551,102.1,104.619,0.00330682,0.186498,20.8175,9.82031,-0.219293,0.0,0.0
250,62.25,37.6049,44.2478,162.019,102.052,103.781,0.00334076,0.182488,20.8224,9.73021,-0.151184,0.0,0.0
260,64.75,37.3267,42.7954,151.809,102.055,103.598,0.00347288,0.179704,20.8243,9.6201,-0.135087,0.0,0.0
270,67.25,37.6603,44.1228,156.815,102.069,103.965,0.00371804,0.178755,20.8249,9.46994,-0.165575,0.0,0.0
280,69.75,37.2996,44.1108,158.041,102.097,103.887,0.00395139,0.178059,20.8248,9.39987,-0.156318,0.0,0.0
290,72.25,37.5954,43.7561,154.036,102.093,104.367,0.00404312,0.175319,20.827,9.29976,-0.198259,0.0,0.0
300,74.75,37.4276,43.4925,159.519,102.121,104.776,0.00380938,0.172122,20.8313,9.2397,-0.230939,0.0,0.0
310,77.25,36.9446,43.1539,156.08,102.134,104.157,0.00368039,0.16898,20.8358,9.11957,-0.176513,0.0,0.0
320,79.75,37.0235,42.9089,156.061,102.143,103.642,0.00391272,0.16656,20.8389,8.96941,-0.131066,0.0,0.0
330,82.25,36.6705,42.8799,158.434,102.139,104.621,0.00411199,0.163821,20.8418,8.88933,-0.215988,0.0,0.0
340,84.75,36.4441,42.2671,155.016,102.159,104.747,0.00428489,0.160961,20.8449,8.74918,-0.225162,0.0,0.0
350,87.25,36.5543,42.3989,155.074,102.169,103.995,0.00452089,0.158098,20.8476,8.67911,-0.15946,0.0,0.0
360,89.75,36.6881,41.6011,163.947,102.199,104.486,0.00485066,0.154549,20.8508,8.60904,-0.199101,0.0,0.0
370,92.25,36.4424,42.3266,157.731,102.207,104.086,0.00507845,0.148948,20.8566,8.55898,-0.163862,0.0,0.0
380,94.75,36.2346,41.6962,163.961,102.214,103.754,0.00539157,0.141746,20.8627,8.58901,-0.134576,0.0,0.0
390,97.25,35.8654,40.6104,163.477,102.225,103.644,0.00581847,0.135944,20.8677,8.44887,-0.124004,0.0,0.0
400,99.75,35.7921,40.5347,158.681,102.236,103.422,0.00618396,0.129864,20.8745,8.45888,-0.103749,0.0,0.0
410,102.25,35.2048,39.9724,159.58,102.258,103.464,0.00639044,0.124235,20.8801,8.33875,-0.105481,0.0,0.0
420,104.75,35.1518,39.483,159.879,102.258,104.158,0.00640749,0.11883,20.8865,8.34876,-0.165703,0.0,0.0
430,107.25,35.177,39.4318,157.371,102.28,104.32,0.00620324,0.113744,20.8932,8.22864,-0.177629,0.0,0.0
440,109.75,34.8213,38.7065,156.164,102.286,104.158,0.00606885,0.108799,20.8966,8.30872,-0.163148,0.0,0.0
450,112.25,34.5707,38.4524,156.964,102.302,104.643,0.0060859,0.105673,20.9008,8.18859,-0.203529,0.0,0.0
460,114.75,34.4373,38.2701,160.891,102.304,104.549,0.00615434,0.101875,20.9046,8.21863,-0.195307,0.0,0.0
470,117.25,32.8701,36.8636,162.977,102.32,103.96,0.00604445,0.0986567,20.9074,8.06847,-0.143077,0.0,0.0
480,119.75,32.3455,36.3302,168.477,102.303,104.023,0.00597906,0.0953493,20.9097,8.08849,-0.150018,0.0,0.0
490,122.25,32.1966,36.0007,163.567,102.322,104.14,0.00603353,0.0948239,20.9093,8.11852,-0.15848,0.0,0.0
500,124.75,31.851,35.6024,163.007,102.317,103.928,0.00586827,0.0946405,20.9092,8.13854,-0.140626,0.0,0.0
510,127.25,31.9245,35.3759,160.098,102.338,103.545,0.00557529,0.0939105,20.9091,7.99839,-0.105508,0.0,0.0
520,129.75,31.924,35.9944,163.553,102.317,103.718,0.00534659,0.0930978,20.9091,7.96836,-0.122427,0.0,0.0
530,132.25,31.3705,35.5016,161.471,102.354,104.03,0.00515338,0.0933296,20.9091,7.93833,-0.146144,0.0,0.0
540,134.75,32.0421,35.7375,164.177,102.338,103.634,0.00500319,0.0939027,20.9091,8.11852,-0.113254,0.0,0.0
550,137.25,31.9227,35.8839,162.336,102.347,104.585,0.00492574,0.0938413,20.9091,7.89829,-0.194712,0.0,0.0
560,139.75,31.792,35.5423,165.029,102.347,103.741,0.00471306,0.09409,20.9091,7.93833,-0.121794,0.0,0.0
570,142.25,31.431,35.433,159.749,102.358,104.052,0.00461321,0.0943284,20.9091,7.88828,-0.147733,0.0,0.0
580,144.75,31.5152,35.6654,163.02,102.371,104.083,0.00493936,0.0943691,20.912,7.82822,-0.149279,0.0,0.0
590,147.25,32.1763,35.486,157.319,102.353,104.055,0.00514415,0.0947183,20.9115,7.84824,-0.148326,0.0,0.0
600,149.75,31.8008,35.5601,160.072,102.372,104.035,0.00503365,0.0946676,20.9113,7.82822,-0.145007,0.0,0.0
610,152.25,32.0353,36.3649,158.679,102.362,104.596,0.0048647,0.0947662,20.9125,7.8182,-0.194275,0.0,0.0
620,154.75,31.6743,35.995,160.328,102.387,104.435,0.00476694,0.095417,20.9132,7.83823,-0.178262,0.0,0.0
630,157.25,32.243,36.1224,165.856,102.36,104.483,0.00475164,0.0951685,20.9134,7.74813,-0.184694,0.0,0.0
640,159.75,32.2531,36.1296,162.836,102.381,103.793,0.00464216,0.094401,20.9135,7.63802,-0.123302,0.0,0.0
650,162.25,31.2915,35.4668,162.806,102.355,103.679,0.00444709,0.0944924,20.9135,7.76815,-0.11565,0.0,0.0
660,164.75,31.9919,35.343,161.268,102.377,103.908,0.00430411,0.0949655,20.9135,7.74813,-0.133644,0.0,0.0
670,167.25,31.5053,35.4114,160.469,102.393,104.098,0.00427545,0.0957695,20.9115,7.74813,-0.148624,0.0,0.0
680,169.75,31.8054,36.1765,166.958,102.393,104.115,0.00411292,0.0952425,20.9108,7.77816,-0.150058,0.0,0.0
690,172.25,31.835,36.1116,164.367,102.413,103.849,0.00393026,0.0944377,20.9107,7.65804,-0.125308,0.0,0.0
700,174.75,31.9325,36.0621,158.054,102.431,103.422,0.00392818,0.094539,20.911,7.65804,-0.0865992,0.0,0.0
710,177.25,32.066,36.1681,163.071,102.433,103.859,0.0040235,0.0941424,20.9113,7.64803,-0.124392,0.0,0.0
720,179.75,32.4125,35.8899,164.17,102.456,103.866,0.00404943,0.0932845,20.9127,7.60798,-0.122956,0.0,0.0
730,182.25,31.7561,36.2191,162.541,102.474,104.524,0.00386483,0.0929004,20.9134,7.57795,-0.178274,0.0,0.0
740,184.75,32.1568,36.1252,162.436,102.477,103.756,0.00378201,0.0920824,20.9132,7.54792,-0.111668,0.0,0.0
750,187.25,31.9159,36.0065,164.896,102.502,103.919,0.00388038,0.0914392,20.9145,7.59797,-0.123484,0.0,0.0
760,189.75,32.1519,36.0633,161.923,102.504,104.301,0.00390043,0.0920795,20.9143,7.59797,-0.156364,0.0,0.0
770,192.25,32.047,36.266,163.938,102.534,104.63,0.00382156,0.0927172,20.9138,7.5279,-0.182027,0.0,0.0
780,194.75,32.2687,36.2501,157.913,102.527,104.15,0.00385652,0.0941365,20.9124,7.618,-0.141357,0.0,0.0
790,197.25,32.4143,36.5496,159.475,102.563,104.125,0.00385794,0.0948515,20.9117,7.51789,-0.136031,0.0,0.0
800,199.75,32.3724,36.6712,159.224,102.55,104.226,0.00371242,0.0936324,20.9122,7.49787,-0.145906,0.0,0.0
810,202.25,32.2989,36.5306,162.767,102.572,104.478,0.00344637,0.0925836,20.9131,7.53791,-0.165601,0.0,0.0
820,204.75,32.1083,37.0253,160.414,102.599,104.42,0.0033207,0.091734,20.9146,7.36773,-0.158288,0.0,0.0
830,207.25,32.251,36.0467,158.726,102.616,104.365,0.00332983,0.0904005,20.9167,7.40777,-0.152034,0.0,0.0
840,209.75,32.6449,36.6431,160.203,102.622,103.789,0.00323582,0.089555,20.9176,7.4278,-0.101679,0.0,0.0
850,212.25,32.1575,36.2266,159.406,102.619,104.468,0.00322997,0.0890101,20.9186,7.40777,-0.160749,0.0,0.0
860,214.75,32.0614,36.2566,160.785,102.637,104.162,0.00340757,0.0888264,20.9194,7.43781,-0.13278,0.0,0.0
870,217.25,31.866,35.5553,164.817,102.632,103.823,0.00352151,0.0880704,20.9202,7.43781,-0.103836,0.0,0.0
880,219.75,32.4844,35.9679,159.479,102.64,104.218,0.00329585,0.0875603,20.9209,7.41778,-0.137358,0.0,0.0
890,222.25,31.9632,35.9283,158.102,102.638,104.163,0.00296609,0.0865551,20.9222,7.37774,-0.132723,0.0,0.0
900,224.75,32.5386,35.821,159.592,102.656,104.472,,0.0852797,,7.18754,-0.157788,0.0,0.0
910,227.25,32.0436,35.8957,158.837,102.672,104.508,,,,7.3377,-0.159508,0.0,0.0
920,229.75,32.4383,35.8694,159.25,102.67,104.416,,,,7.35772,-0.151713,0.0,0.0
930,232.25,31.9231,36.107,161.261,102.679,104.221,,,,7.2376,-0.134162,0.0,0.0
939,234.5,31.97,36.1778,160.694,102.704,103.771,,,,7.19755,-0.0930154,0.0,0.0