File: 01_Data/Cotton_Raw/Cone/Cotton_Raw_Cone_HF35-Frame+GridScalar_200909_R1.csv
LABORATORY,FSRI
TEST IDENT,RawCotton_35_1
OPERATOR,Dow
MATERIAL,Raw cotton
ORIENTATION,Horizontal
HEAT FLUX,35
SURF AREA,0.01
C FACTOR,0.0376049
SPEC HOLDER DIFF,345.4
SPECIMEN MASS,6.8
SCAN TIME,0.25
O2 DELAY TIME,11
CO DELAY TIME,11
CO2 DELAY TIME,8
FLOW FACTOR,1
SCAN COUNT,1095
TIME TO IGN,9
END OF TEST SCAN,615
END OF TEST TIME,153.75
TEST STATUS,1