File: 01_Data/Cotton_Raw/Cone/Cotton_Raw_Cone_HF75-Frame+GridScalar_200910_R3.csv
LABORATORY,FSRI
TEST IDENT,RawCotton_75_3
OPERATOR,Dow
MATERIAL,Raw cotton
ORIENTATION,Horizontal
HEAT FLUX,75
SURF AREA,0.01
C FACTOR,0.0367758
SPEC HOLDER DIFF,345.5
SPECIMEN MASS,4.4
SCAN TIME,0.25
O2 DELAY TIME,11
CO DELAY TIME,11
CO2 DELAY TIME,8
FLOW FACTOR,1
SCAN COUNT,718
TIME TO IGN,1
END OF TEST SCAN,238
END OF TEST TIME,59.5
TEST STATUS,1