File: 01_Data/Cotton_Raw/Cone/Cotton_Raw_Cone_HF25-Frame+GridScalar_200908_R1.csv
LABORATORY,FSRI
TEST IDENT,Raw_cotton_25_1
OPERATOR,Dow
MATERIAL,Raw cotton
ORIENTATION,Horizontal
HEAT FLUX,25
SURF AREA,0.01
C FACTOR,0.0387531
SPEC HOLDER DIFF,341.2
SPECIMEN MASS,6.9
SCAN TIME,0.25
O2 DELAY TIME,11
CO DELAY TIME,11
CO2 DELAY TIME,8
FLOW FACTOR,1
SCAN COUNT,984
TIME TO IGN,20
END OF TEST SCAN,504
END OF TEST TIME,126
TEST STATUS,1