File: 01_Data/Cotton_Raw/Cone/Cotton_Raw_Cone_HF25-Frame+GridScan_200908_R2.csv
Names,Time,Stack TC,Smoke TC,Exh Press,Smoke Comp,Smoke Meas,CO Meter,CO2 Meter,O2 Meter,Sample Mass,Ext Coeff,Start Test,Flame Verif
Chan Gain,,500,500,1,1,1,1,1,1,1,1,1.0,1.0
Offset,,0,0,0.136754,0,0,0,0,0,0,0,0.0,0.0
Gain,,1,1,25.011,13.5073,16.5741,1,1,1,1.00105,1.03303,1.0,1.0
Units,sec,C,C,Pa,%,%,%,%,%,g,/m,,
Baseline,,22.5526,24.5017,169.206,100.301,100.287,0.000821989,0.0591498,20.9604,-948.036,0.00128208,,
11,2.5,19.6893,21.6224,167.891,100.404,100.673,0.000526422,0.0601923,20.9636,-32.0936,-0.024209,0.0,0.0
22,5.25,20.1245,21.8024,166.092,100.411,100.643,0.000557574,0.0605552,20.9632,-32.1036,-0.0208898,0.0,0.0
33,8,20.234,22.3701,171.715,100.392,100.526,0.000553384,0.0618392,20.9627,-32.0635,-0.0120288,0.0,0.0
44,10.75,20.8362,22.2072,173.221,100.397,100.307,0.000724736,0.0633985,20.9604,-32.2137,0.00810675,0.0,0.0
55,13.5,21.1116,23.0747,166.63,100.383,99.8056,0.00104893,0.0643911,20.9589,-32.1436,0.0523113,0.0,0.0
66,16.25,21.4531,22.9211,173.093,100.383,99.3812,0.00155857,0.0648656,20.9584,-32.2237,0.0909234,0.0,0.0
77,19,21.2596,23.2573,164.443,100.376,99.5061,0.0021367,0.0658809,20.9582,-32.2737,0.0788692,0.0,0.0
88,21.75,21.5207,23.2763,169.754,100.379,99.3326,0.00276548,0.0674566,20.9556,-32.3038,0.09498,0.0,0.0
99,24.5,21.0625,22.9737,167.633,100.37,99.1895,0.00311432,0.0690532,20.9529,-32.3138,0.107191,0.0,0.0
110,27.25,21.6024,23.5707,168.93,100.39,98.7171,0.00336233,0.0703683,20.9519,-32.4139,0.152239,0.0,0.0
121,30,21.852,24.1076,173.879,100.378,98.5198,0.00388136,0.0714813,20.9503,-32.4239,0.169322,0.0,0.0
132,32.75,21.3906,23.3866,170.242,100.388,98.2993,0.00445677,0.0718004,20.9494,-32.4639,0.190559,0.0,0.0
143,35.5,21.1584,24.1255,171.738,100.388,98.1663,0.00515312,0.0728387,20.9485,-32.564,0.202757,0.0,0.0
154,38.25,21.7915,23.6318,166.433,100.368,96.5968,0.00581688,0.0752923,20.9432,-32.6441,0.347057,0.0,0.0
165,41,22.1985,25.2314,161.557,100.377,100.586,0.00530848,0.117845,20.8976,-32.6541,-0.0187847,0.0,1.0
176,43.75,23.753,27.7284,158.346,100.376,100.632,0.00413049,0.156823,20.8656,-32.8844,-0.023042,0.0,1.0
187,46.5,23.057,27.7889,161.041,100.383,101.095,0.00331809,0.172628,20.8512,-33.1146,-0.0640791,0.0,0.0
198,49.25,24.2699,28.3475,161.881,100.373,100.686,0.00289734,0.179726,20.8431,-33.1947,-0.0281827,0.0,0.0
209,52,24.6384,29.6189,160.984,100.359,101.006,0.00256467,0.182823,20.8414,-33.3849,-0.0581726,0.0,0.0
220,54.75,24.9797,30.3141,165.572,100.369,101.06,0.00249404,0.182904,20.8417,-33.455,-0.0622532,0.0,0.0
231,57.5,25.9357,30.7432,167.954,100.378,101.313,0.00265618,0.181471,20.8422,-33.6051,-0.0840455,0.0,0.0
242,60.25,25.2475,30.7726,158.92,100.384,101.061,0.00272988,0.17927,20.8423,-33.6652,-0.0609296,0.0,0.0
253,63,25.3881,30.6158,164.174,100.378,100.922,0.00263836,0.179478,20.8424,-33.8854,-0.0489699,0.0,0.0
264,65.75,26.2337,31.0201,167.859,100.367,100.867,0.00250666,0.179585,20.8424,-34.0056,-0.0449778,0.0,0.0
275,68.5,26.0795,31.0687,168.149,100.358,100.924,0.00259283,0.178313,20.843,-34.1457,-0.0509756,0.0,0.0
286,71.25,26.6118,31.2152,167.139,100.357,100.865,0.00268848,0.176691,20.8452,-34.2458,-0.0457719,0.0,0.0
297,74,25.5946,30.8592,167.777,100.343,101.003,0.00275983,0.17527,20.8469,-34.3559,-0.0593969,0.0,0.0
308,76.75,26.1684,31.252,167.062,100.352,101.094,0.00295279,0.173906,20.8474,-34.5661,-0.0668166,0.0,0.0
319,79.5,26.4627,31.7887,158.216,100.355,101.028,0.0032805,0.17274,20.8483,-34.5762,-0.0605696,0.0,0.0
330,82.25,26.3659,30.987,159.826,100.342,101.036,0.00374388,0.170831,20.8498,-34.8164,-0.0624577,0.0,0.0
341,85,26.7163,30.9545,163.941,100.343,100.819,0.00421889,0.16851,20.8523,-34.8765,-0.0428931,0.0,0.0
352,87.75,26.0907,30.9985,167.085,100.345,100.699,0.00446642,0.166189,20.8534,-34.9265,-0.0319718,0.0,0.0
363,90.5,26.0083,30.8967,168.529,100.331,100.505,0.00451913,0.164296,20.8551,-35.0967,-0.0156969,0.0,0.0
374,93.25,26.5131,30.9586,164.208,100.323,100.492,0.00481005,0.162781,20.8567,-35.2469,-0.0152641,0.0,0.0
385,96,26.2435,30.5123,166.26,100.322,101.156,0.0052853,0.160679,20.8598,-35.4671,-0.0749439,0.0,0.0
396,98.75,25.6322,30.1522,164.28,100.33,101.011,0.00590071,0.158561,20.8613,-35.5271,-0.0613516,0.0,0.0
407,101.5,26.1001,30.0565,164.196,100.322,100.31,0.00663197,0.155346,20.8642,-35.6773,0.00105749,0.0,0.0
418,104.25,25.7995,29.9901,164.006,100.326,100.85,0.00710937,0.15052,20.8673,-35.6773,-0.0471547,0.0,0.0
429,107,25.6376,30.2394,163.348,100.327,101.455,0.00745729,0.149328,20.8689,-35.8475,-0.101282,0.0,0.0
440,109.75,25.7775,29.9588,164.214,100.343,100.627,0.0076374,0.145785,20.8727,-35.8975,-0.0256551,0.0,0.0
451,112.5,24.9619,28.9888,166.874,100.342,100.817,0.0079031,0.141108,20.8755,-35.9876,-0.0427857,0.0,0.0
462,115.25,25.3638,28.8621,165.751,100.349,101.043,0.00860046,0.133662,20.8825,-36.2379,-0.0624523,0.0,0.0
473,118,25.3761,28.8682,162.558,100.362,100.721,0.00879412,0.131335,20.8855,-36.1478,-0.0323658,0.0,0.0
484,120.75,25.2702,28.9196,169.384,100.353,100.774,0.0086466,0.131476,20.8865,-36.2879,-0.0378785,0.0,0.0
495,123.5,25.0255,27.9054,169.494,100.366,100.906,0.00875445,0.129202,20.8892,-36.4081,-0.0485957,0.0,0.0
506,126.25,24.9534,27.9217,161.42,100.367,99.9922,0.00885971,0.127256,20.8908,-36.4381,0.0338936,0.0,0.0
517,129,25.1103,27.7693,169.319,100.368,100.47,0.00888435,0.125965,20.8913,-36.5582,-0.00920825,0.0,0.0
528,131.75,24.4401,27.3093,162.861,100.385,100.763,0.00892292,0.125337,20.8915,-36.6984,-0.0340122,0.0,0.0
539,134.5,24.732,27.7703,170.704,100.375,100.071,0.00902528,0.123611,20.8929,-36.7484,0.0274901,0.0,0.0
550,137.25,24.6121,26.8206,171.026,100.385,100.279,0.00914595,0.122414,20.894,-36.7384,0.00953235,0.0,0.0
561,140,24.2733,27.1279,165.997,100.371,100.558,0.00908106,0.122578,20.8946,-36.8385,-0.0168446,0.0,0.0
572,142.75,24.3311,27.1931,166.332,100.386,100.234,0.00942989,0.119864,20.8976,-36.9486,0.0137582,0.0,0.0
583,145.5,22.342,25.0738,168.328,100.403,99.2558,0.00986614,0.111833,20.9076,-36.9486,0.104155,0.0,0.0
594,148.25,21.7443,24.9306,164.941,100.392,98.7874,0.0101074,0.106399,20.9114,-37.0587,0.146011,0.0,0.0
605,151,21.947,24.1956,169.865,100.404,99.1273,0.0102948,0.103927,20.9139,-37.1488,0.115965,0.0,0.0
616,153.75,21.9379,24.5037,164.465,100.406,99.0883,0.0102309,0.102496,20.9156,-37.1789,0.119749,0.0,0.0
627,156.5,21.944,24.434,166.728,100.403,98.8562,0.0100668,0.101829,20.9161,-37.259,0.140671,0.0,0.0
638,159.25,21.8473,23.8745,165.68,100.393,99.367,0.00990652,0.100728,20.9179,-37.3491,0.0930706,0.0,0.0
649,162,21.7315,23.5525,168.833,100.416,99.1111,0.00974156,0.100381,20.9191,-37.4091,0.118486,0.0,0.0
660,164.75,22.0241,23.8099,165.696,100.414,99.0701,0.00940531,0.100045,20.9196,-37.3691,0.122121,0.0,0.0
671,167.5,21.7004,24.0299,170.832,100.399,99.4186,0.00895817,0.0987744,20.9211,-37.4592,0.0889244,0.0,0.0
682,170.25,21.2197,23.3086,166.496,100.409,99.9077,0.00880075,0.0984503,20.9208,-37.5092,0.0453468,0.0,0.0
693,173,21.7397,24.2192,163.703,100.415,99.5739,0.00878697,0.098678,20.9201,-37.6293,0.0762334,0.0,0.0
704,175.75,21.8692,23.5125,168.839,100.421,99.5855,0.00845528,0.0985507,20.9199,-37.6293,0.0757331,0.0,0.0
715,178.5,22.0196,23.5641,165.947,100.406,99.7226,0.00796164,0.098933,20.9198,-37.7094,0.0619304,0.0,0.0
726,181.25,20.9421,23.408,171.808,100.394,99.4738,0.00766192,0.0989132,20.9198,-37.6794,0.0834182,0.0,0.0
737,184,21.1663,23.518,166.94,100.395,100.25,0.00750175,0.0989775,20.9194,-37.7395,0.0130765,0.0,0.0
748,186.75,21.9304,23.3052,165.803,100.404,100.036,0.00725562,0.0989057,20.9188,-37.7395,0.0333383,0.0,0.0
759,189.5,21.8497,23.9788,165.276,100.4,99.6968,0.00709852,0.0994062,20.9185,-37.7795,0.063679,0.0,0.0
770,192.25,21.4668,23.947,166.079,100.383,100.095,0.00703789,0.0987248,20.9186,-37.8195,0.026007,0.0,0.0
781,195,21.0594,23.4874,163.058,100.382,99.9376,0.0067901,0.0973256,20.9191,-37.8896,0.0402216,0.0,0.0
792,197.75,21.5226,23.6005,166.154,100.371,99.8592,0.00664819,0.0974666,20.9197,-37.9897,0.0462916,0.0,0.0
803,200.5,21.6085,23.8596,167.433,100.362,99.9543,0.0064887,0.0972842,20.9202,-37.9597,0.036885,0.0,0.0
814,203.25,21.2911,23.7595,162.659,100.363,100.108,0.00626928,0.0965735,20.9216,-38.0198,0.0231134,0.0,0.0
825,206,21.4374,24.0254,167.656,100.367,100.13,0.0061009,0.0961215,20.9233,-38.0498,0.0214259,0.0,0.0
836,208.75,21.2116,23.4617,172.05,100.371,100.21,0.00594878,0.0953847,20.9227,-38.1799,0.0145304,0.0,0.0
847,211.5,21.2781,23.5402,166.17,100.375,100.129,0.00584009,0.0955324,20.9223,-38.1699,0.0222697,0.0,0.0
858,214.25,20.7573,23.2859,169.729,100.393,99.7965,0.00585299,0.0961885,20.9221,-38.0598,0.0540317,0.0,0.0
869,217,21.293,23.4475,166.914,100.4,100.096,0.00571849,0.0957534,20.9221,-38.1799,0.027432,0.0,0.0
880,219.75,21.5082,23.612,172.228,100.393,100.62,0.00549583,0.0953404,20.9233,-38.1699,-0.0204686,0.0,0.0
891,222.5,21.2626,23.7724,165.047,100.391,100.277,0.00545026,0.0947149,20.9251,-38.25,0.0102812,0.0,0.0
902,225.25,21.4279,23.444,167.681,100.399,100.203,0.00542575,0.0946444,20.9257,-38.2099,0.0177848,0.0,0.0
913,228,20.9701,23.5288,166.167,100.404,100.454,0.00519993,0.0944089,20.9262,-38.22,-0.0044738,0.0,0.0
924,230.75,21.5379,23.7221,170.126,100.399,100.252,0.00514674,0.0942678,20.9269,-38.22,0.0133116,0.0,0.0
935,233.5,21.4582,23.1023,164.266,100.41,100.204,0.00507474,0.0944542,20.9272,-38.28,0.0186235,0.0,0.0
946,236.25,21.3069,23.3975,169.026,100.406,100.607,0.00506681,0.0943942,20.9273,-38.3101,-0.0181315,0.0,0.0
957,239,21.0495,23.5913,165.063,100.4,100.227,0.00510397,0.0944681,20.9273,-38.3201,0.0155808,0.0,0.0
968,241.75,21.5475,23.6315,168.185,100.403,100.254,0.00502384,0.0943049,20.9273,-38.3601,0.0134173,0.0,0.0
979,244.5,21.3077,24.0719,166.74,100.407,100.416,0.00498949,0.0939512,20.9273,-38.3901,-0.00074485,0.0,0.0
990,247.25,21.2749,23.5431,170.36,100.41,100.49,0.00515934,0.0931735,20.9273,-38.3901,-0.00722855,0.0,0.0
1001,250,21.7493,23.7191,170.107,100.416,100.982,0.00528481,0.0927524,20.9273,-38.4602,-0.0509332,0.0,0.0
1012,252.75,21.6317,23.7356,167.241,100.435,100.432,,0.0929984,,-38.4202,0.000324064,0.0,0.0
1023,255.5,21.2414,23.9637,171.409,100.441,100.455,,0.0932796,,-38.4702,-0.0012094,0.0,0.0
1034,258.25,21.1783,23.6303,167.823,100.445,100.701,,,,-38.5103,-0.0230301,0.0,0.0
1045,261,21.1693,23.948,170.238,100.436,100.451,,,,-38.6304,-0.00137308,0.0,0.0
1055,263.5,21.448,24.2154,165.112,100.446,100.407,,,,-38.5903,0.0034442,0.0,0.0