File: 01_Data/Cotton_Raw/Cone/Cotton_Raw_Cone_HF25-Frame+GridScan_200908_R1.csv
Names,Time,Stack TC,Smoke TC,Exh Press,Smoke Comp,Smoke Meas,CO Meter,CO2 Meter,O2 Meter,Sample Mass,Ext Coeff,Start Test,Flame Verif
Chan Gain,,500,500,1,1,1,1,1,1,1,1,1.0,1.0
Offset,,0,0,0.136754,0,0,0,0,0,0,0,0.0,0.0
Gain,,1,1,25.011,13.5073,16.5741,1,1,1,1.00105,1.03303,1.0,1.0
Units,sec,C,C,Pa,%,%,%,%,%,g,/m,,
Baseline,,22.4509,24.4359,169.416,101.271,101.327,0.000779913,0.0581108,20.9667,-947.947,-0.00498878,,
11,2.5,19.8136,21.7219,166.306,101.187,101.719,0.00094849,0.0589203,20.9694,-32.7542,-0.0475364,0.0,0.0
22,5.25,19.892,22.2433,169.103,101.191,101.328,0.000885629,0.0588626,20.9687,-32.7743,-0.0121878,0.0,0.0
33,8,20.5297,22.4035,171.192,101.191,101.076,0.000623686,0.0587262,20.9685,-32.7843,0.0103665,0.0,0.0
44,10.75,20.8812,22.9386,168.042,101.165,100.728,0.000641605,0.0590046,20.9685,-32.9244,0.0392558,0.0,0.0
55,13.5,20.6745,23.0457,171.961,101.153,101.103,0.00114164,0.059923,20.9683,-32.9144,0.0044473,0.0,0.0
66,16.25,21.042,23.1846,168.246,101.144,100.313,0.00152658,0.0607766,20.9661,-32.8744,0.0747615,0.0,0.0
77,19,21.0325,23.2251,169.102,101.14,100.299,0.00168037,0.0721231,20.9538,-33.0746,0.0756635,0.0,0.0
88,21.75,22.1235,25.7078,167.445,101.134,101.794,0.00193883,0.127063,20.896,-33.1346,-0.0588924,0.0,1.0
99,24.5,24.24,27.5874,166.739,101.127,101.584,0.00219206,0.156157,20.8677,-33.2748,-0.0409343,0.0,1.0
110,27.25,22.6586,27.5881,165.014,101.113,101.942,0.00231865,0.162885,20.8607,-33.455,-0.0739593,0.0,0.0
121,30,23.1457,28.498,157.641,101.109,101.797,0.00244885,0.165819,20.8574,-33.495,-0.0614157,0.0,0.0
132,32.75,24.5439,29.1006,160.141,101.094,101.959,0.00252945,0.168943,20.8539,-33.7353,-0.0771792,0.0,0.0
143,35.5,25.0691,29.8825,166.717,101.065,101.836,0.00251358,0.172379,20.8519,-33.8154,-0.0689183,0.0,0.0
154,38.25,24.9912,30.1443,164.125,101.072,101.49,0.00252717,0.170962,20.8522,-33.9155,-0.0373698,0.0,0.0
165,41,24.5853,29.8931,158.239,101.055,101.995,0.00270315,0.168901,20.8549,-34.0856,-0.0838443,0.0,0.0
176,43.75,25.1584,29.7564,164.156,101.061,100.979,0.00288056,0.16399,20.8595,-34.1857,0.00735987,0.0,0.0
187,46.5,25.5345,29.5424,166.882,101.064,101.517,0.00322043,0.159804,20.8626,-34.2858,-0.040548,0.0,0.0
198,49.25,24.9034,29.782,167.449,101.058,101.569,0.00373074,0.155644,20.8676,-34.436,-0.0457513,0.0,0.0
209,52,24.8352,29.5041,167.279,101.028,101.447,0.00408933,0.151066,20.8719,-34.5962,-0.0374859,0.0,0.0
220,54.75,24.4958,29.2592,164.747,101.016,101.673,0.00421595,0.148757,20.8736,-34.6562,-0.0587679,0.0,0.0
231,57.5,24.8629,29.0109,166.352,101.018,101.449,0.00438821,0.146222,20.8757,-34.7463,-0.0385988,0.0,0.0
242,60.25,24.5017,29.2772,163.638,100.991,101.752,0.00454905,0.141954,20.8792,-34.8364,-0.068054,0.0,0.0
253,63,24.6714,28.862,167.251,100.983,101.705,0.00470328,0.138435,20.883,-34.9565,-0.0645741,0.0,0.0
264,65.75,24.8071,28.6666,164.978,100.968,101.168,0.00508503,0.134781,20.8858,-35.1267,-0.0179112,0.0,0.0
275,68.5,24.1221,28.1907,163.986,100.944,101.359,0.00578634,0.133052,20.8898,-35.1367,-0.0371664,0.0,0.0
286,71.25,24.1313,28.058,169.316,100.96,100.653,0.00654442,0.128052,20.8942,-35.2168,0.027586,0.0,0.0
297,74,24.0013,27.2273,163.616,100.942,101.018,0.00727185,0.126106,20.8954,-35.2969,-0.00685937,0.0,0.0
308,76.75,24.1542,27.4617,165.631,100.949,101.387,0.00782775,0.126392,20.8947,-35.4871,-0.0392465,0.0,0.0
319,79.5,24.1469,27.2935,164.715,100.925,101.202,0.00817236,0.124326,20.8954,-35.5972,-0.024841,0.0,0.0
330,82.25,23.5183,26.8044,168.022,100.908,100.98,0.00876109,0.119442,20.9004,-35.6072,-0.00645452,0.0,0.0
341,85,23.3981,26.6093,166.679,100.888,100.909,0.00926339,0.116298,20.9039,-35.7274,-0.00182902,0.0,0.0
352,87.75,23.096,26.6289,170.351,100.86,101.046,0.009523,0.114446,20.9063,-35.7474,-0.0166471,0.0,0.0
363,90.5,23.5116,26.6953,169.344,100.831,100.83,0.00990935,0.111749,20.9086,-35.8375,6.69741e-05,0.0,0.0
374,93.25,23.9331,26.0288,167.8,100.802,100.31,0.0103402,0.110938,20.9107,-35.9276,0.0442859,0.0,0.0
385,96,22.9606,25.5267,162.952,100.782,100.586,0.0105143,0.110285,20.9116,-36.0377,0.0177222,0.0,0.0
396,98.75,23.1425,25.7025,161.217,100.747,100.57,0.0104995,0.109504,20.9119,-36.0277,0.0159011,0.0,0.0
407,101.5,23.202,26.0617,169.258,100.732,100.468,0.0102986,0.109322,20.912,-36.1978,0.0237771,0.0,0.0
418,104.25,23.2073,25.6928,168.148,100.696,100.185,0.00972854,0.109452,20.912,-36.2079,0.0461336,0.0,0.0
429,107,23.3863,25.991,167.754,100.674,100.856,0.00939154,0.108966,20.912,-36.338,-0.0164139,0.0,0.0
440,109.75,22.831,25.9041,164.96,100.646,100.271,0.00946222,0.108059,20.9114,-36.368,0.0337957,0.0,0.0
451,112.5,22.9835,25.5875,167.263,100.629,100.483,0.00957156,0.107874,20.9101,-36.4381,0.0130948,0.0,0.0
462,115.25,22.835,25.6062,167.61,100.599,100.819,0.00940688,0.107552,20.9107,-36.5983,-0.0197687,0.0,0.0
473,118,22.9697,25.3902,167.561,100.548,100.094,0.00944847,0.106324,20.9121,-36.5983,0.0410454,0.0,0.0
484,120.75,22.8635,25.5319,164.612,100.512,100.518,0.00966866,0.105767,20.9131,-36.6984,-0.000553636,0.0,0.0
495,123.5,23.3174,25.5585,170.279,100.493,100.275,0.00968556,0.104155,20.9151,-36.8185,0.0196422,0.0,0.0
506,126.25,22.5998,25.2229,165.78,100.448,99.801,0.00975154,0.100615,20.9186,-36.9186,0.0585277,0.0,0.0
517,129,21.1319,23.0647,164.18,100.418,99.583,0.0100386,0.0981451,20.9198,-37.0187,0.0757021,0.0,0.0
528,131.75,20.7854,22.9659,166.953,100.402,99.6098,0.0102045,0.0974277,20.9221,-37.0487,0.0718126,0.0,0.0
539,134.5,20.5069,23.0202,167.722,100.397,99.8688,0.0102826,0.0970339,20.9236,-37.1088,0.0477638,0.0,0.0
550,137.25,20.7627,22.7489,166.788,100.363,99.7757,0.0103323,0.0973665,20.9242,-37.1288,0.0531608,0.0,0.0
561,140,20.8214,23.597,167.543,100.339,99.973,0.0102076,0.0972982,20.9244,-37.1889,0.0331037,0.0,0.0
572,142.75,21.1312,22.9226,172.637,100.348,99.7813,0.00997513,0.0968974,20.9244,-37.269,0.0513532,0.0,0.0
583,145.5,21.1561,23.183,166.125,100.319,100.05,0.00964731,0.0974653,20.9244,-37.299,0.0242684,0.0,0.0
594,148.25,21.0827,23.4812,160.053,100.328,99.9846,0.00925136,0.0969379,20.9244,-37.4191,0.0310445,0.0,0.0
605,151,20.8887,23.5111,168.446,100.313,100.139,0.00912206,0.0965843,20.9245,-37.4291,0.0157339,0.0,0.0
616,153.75,20.9253,22.9872,167.655,100.304,99.7241,0.00917438,0.097085,20.9247,-37.4792,0.0525604,0.0,0.0
627,156.5,21.1416,23.2292,170.274,100.298,99.2092,0.00914992,0.0970253,20.9225,-37.5292,0.0989493,0.0,0.0
638,159.25,21.3493,23.7856,168.403,100.295,99.8951,0.00893057,0.0966407,20.9218,-37.6293,0.0362201,0.0,0.0
649,162,21.1907,23.3102,170.092,100.312,99.9846,0.00881386,0.0964949,20.9216,-37.6994,0.0296298,0.0,0.0
660,164.75,21.2438,23.3587,167.279,100.316,99.9037,0.00860255,0.0977008,20.9202,-37.6394,0.0373024,0.0,0.0
671,167.5,20.677,23.4437,169.615,100.331,99.9988,0.00851754,0.0980304,20.9195,-37.7795,0.030096,0.0,0.0
682,170.25,21.0393,23.2653,165.019,100.317,99.7934,0.00856583,0.0983388,20.9189,-37.8596,0.047421,0.0,0.0
693,173,20.9326,23.415,168.369,100.319,100.061,0.00842222,0.0993383,20.9172,-37.8596,0.023261,0.0,0.0
704,175.75,21.1901,23.8649,166.784,100.354,99.4935,0.00822716,0.0993134,20.9164,-37.8596,0.0780114,0.0,0.0
715,178.5,20.9125,23.735,164.761,100.35,100.353,0.00806913,0.101939,20.9143,-37.8996,-0.00030193,0.0,0.0
726,181.25,21.2234,23.7752,168.768,100.379,100.648,0.00786619,0.103389,20.9128,-38.0198,-0.0242014,0.0,0.0
737,184,21.0963,23.5483,168.755,100.387,100.621,0.00781678,0.103849,20.9127,-38.0198,-0.0210809,0.0,0.0
748,186.75,21.4342,23.7625,170.423,100.407,100.383,0.00782074,0.102844,20.9138,-38.0097,0.00222176,0.0,0.0
759,189.5,21.2158,23.7281,170.097,100.428,99.6837,0.00790512,0.0999141,20.9161,-38.0498,0.0674411,0.0,0.0
770,192.25,21.325,24.0952,169.476,100.481,100.139,0.00808096,0.0964903,20.9202,-38.0798,0.0308765,0.0,0.0
781,195,21.1339,23.721,166.827,100.508,100.217,0.00807271,0.0947733,20.9215,-38.0998,0.0263215,0.0,0.0
792,197.75,20.7823,23.4504,171.747,100.523,100.078,0.0078336,0.0938708,20.9219,-38.1699,0.0401614,0.0,0.0
803,200.5,20.6701,23.5193,164.536,100.527,100.05,0.00754469,0.0936043,20.9221,-38.2099,0.0431345,0.0,0.0
814,203.25,20.7767,23.6011,168.853,100.56,99.929,0.00744127,0.0930571,20.9237,-38.3401,0.0570625,0.0,0.0
825,206,20.6048,23.469,164.157,100.595,100.356,0.00732725,0.092694,20.9242,-38.3701,0.0215078,0.0,0.0
836,208.75,21.3297,23.2181,170.532,100.596,100.336,0.007089,0.0923665,20.9246,-38.3301,0.0234463,0.0,0.0
847,211.5,20.847,23.4573,170.545,100.634,100.278,0.00682969,0.0911891,20.9261,-38.4602,0.03208,0.0,0.0
858,214.25,21.1558,23.0325,167.395,100.649,100.554,0.00672285,0.0908477,20.9265,-38.4002,0.00853089,0.0,0.0
869,217,20.4613,23.4549,167.088,100.658,100.617,0.0068833,0.0918617,20.9254,-38.4102,0.00369688,0.0,0.0
880,219.75,20.9568,23.1919,168.737,100.674,100.441,0.00680515,0.0921477,20.9262,-38.5103,0.0209733,0.0,0.0
891,222.5,20.6989,23.0164,181.016,100.679,100.349,0.00666555,0.0914758,20.9266,-38.4202,0.0296815,0.0,0.0
902,225.25,21.0335,23.6679,164.938,100.696,100.54,0.00654604,0.0913481,20.9262,-38.5203,0.0139912,0.0,0.0
913,228,20.8185,23.4166,161.891,100.705,100.636,0.00647289,0.0904192,20.9259,-38.6304,0.00623295,0.0,0.0
924,230.75,20.8379,23.9417,167.654,100.721,100.324,0.00627024,0.0902076,20.9258,-38.5103,0.0358693,0.0,0.0
935,233.5,21.0498,23.6282,171.314,100.722,100.691,0.00611584,0.0901577,20.9262,-38.6504,0.00279845,0.0,0.0
946,236.25,21.3882,23.4558,165.554,100.74,100.475,,0.0899632,,-38.6804,0.0238503,0.0,0.0
957,239,21.2224,23.1339,172.156,100.761,100.718,,,,-38.7405,0.0038718,0.0,0.0
968,241.75,20.9194,23.3703,166.686,100.76,101.062,,,,-38.7205,-0.027148,0.0,0.0
979,244.5,21.248,23.9606,167.343,100.753,100.566,,,,-38.7105,0.0168295,0.0,0.0
984,245.75,20.8347,23.8715,167.707,100.77,100.572,,,,-38.7505,0.0178775,0.0,0.0