File: 01_Data/Cotton_Raw/Cone/Cotton_Raw_Cone_HF75-Frame+GridScan_200910_R3.csv
Names,Time,Stack TC,Smoke TC,Exh Press,Smoke Comp,Smoke Meas,CO Meter,CO2 Meter,O2 Meter,Sample Mass,Ext Coeff,Start Test,Flame Verif
Chan Gain,,500,500,1,1,1,1,1,1,1,1,1.0,1.0
Offset,,0,0,0.140826,0,0,0,0,0,0,0,0.0,0.0
Gain,,1,1,25.011,13.7435,17.0229,1,1,1,1.00129,1.0222,1.0,1.0
Units,sec,C,C,Pa,%,%,%,%,%,g,/m,,
Baseline,,39.9992,43.8882,166.852,102.488,105.214,0.000465416,0.0526998,20.9554,-898.882,-0.235379,,
8,1.75,36.1363,40.0361,152.225,102.964,105.974,0.00188157,0.140861,20.874,18.0432,-0.258375,0.0,1.0
16,3.75,39.4807,45.2907,160.059,102.963,106.494,0.00204457,0.216091,20.797,17.5726,-0.302375,0.0,1.0
24,5.75,41.9488,49.666,156.331,102.948,106.336,0.00212855,0.257596,20.747,17.5426,-0.290267,0.0,1.0
32,7.75,42.6856,50.9662,153.03,102.939,105.351,0.00215234,0.284555,20.7149,17.3624,-0.207708,0.0,0.0
40,9.75,44.0584,53.5835,156.668,102.933,105.573,0.00215898,0.302525,20.6971,17.1821,-0.227043,0.0,0.0
48,11.75,45.3535,55.336,155.179,102.948,104.969,0.00224485,0.310521,20.6874,16.9719,-0.174266,0.0,0.0
56,13.75,46.6041,56.3832,156.463,102.938,104.249,0.00231833,0.310176,20.6863,16.6915,-0.113542,0.0,0.0
64,15.75,47.2386,57.96,157.893,102.914,105.674,0.00221516,0.306141,20.6889,16.5013,-0.237316,0.0,0.0
72,17.75,48.2658,58.8488,155.686,102.894,106.531,0.00187137,0.302534,20.6917,16.311,-0.311517,0.0,0.0
80,19.75,48.2857,59.6482,156.938,102.868,106.842,0.00170078,0.299498,20.693,16.261,-0.339893,0.0,0.0
88,21.75,48.9261,60.147,162.544,102.857,105.941,0.00172112,0.295569,20.6976,16.0407,-0.264916,0.0,0.0
96,23.75,49.3629,60.7678,161.334,102.836,105.701,0.00187317,0.291477,20.7012,15.8704,-0.246407,0.0,0.0
104,25.75,49.1396,61.0558,162.573,102.822,106.13,0.00199274,0.287504,20.7048,15.7403,-0.283942,0.0,0.0
112,27.75,49.6279,60.7072,157.651,102.78,107.327,0.0019405,0.283619,20.7076,15.54,-0.388166,0.0,0.0
120,29.75,49.4322,61.2124,158.871,102.77,106.541,0.00180992,0.282432,20.7093,15.3798,-0.323093,0.0,0.0
128,31.75,49.7605,60.5822,158.813,102.751,105.682,0.00170757,0.280431,20.7113,15.1896,-0.252167,0.0,0.0
136,33.75,50.0018,61.3553,158.325,102.737,106.273,0.00169789,0.276624,20.7154,15.0594,-0.303439,0.0,0.0
144,35.75,50.1865,61.1589,156.621,102.719,105.867,0.00176386,0.270464,20.7204,14.8992,-0.270671,0.0,0.0
152,37.75,49.8058,60.5217,166.356,102.704,106.815,0.00183217,0.258744,20.7329,14.7991,-0.351925,0.0,0.0
160,39.75,49.1911,60.5964,161.377,102.702,106.05,0.00197255,0.242709,20.7463,14.709,-0.287691,0.0,0.0
168,41.75,49.4976,59.4467,160.837,102.675,106.145,0.00218747,0.225843,20.7651,14.5487,-0.298032,0.0,0.0
176,43.75,48.2164,58.2979,157.92,102.65,106.089,0.00237199,0.208454,20.7818,14.4286,-0.29549,0.0,0.0
184,45.75,47.7978,57.3747,165.068,102.632,107.108,0.00272582,0.194107,20.796,14.4787,-0.382794,0.0,0.0
192,47.75,48.0078,56.4293,165.517,102.611,105.855,0.00337476,0.182011,20.8101,14.4186,-0.279029,0.0,0.0
200,49.75,47.0566,55.0774,163.814,102.599,105.663,0.00402751,0.1679,20.8252,14.3385,-0.263803,0.0,0.0
208,51.75,46.4489,53.9159,160.375,102.567,106.157,0.00470714,0.154491,20.8387,14.3485,-0.30849,0.0,0.0
216,53.75,45.5859,52.7233,160.076,102.52,105.98,0.00549014,0.14315,20.8508,14.2884,-0.297666,0.0,0.0
224,55.75,45.5138,51.9767,163.613,102.491,105.88,0.00626858,0.132956,20.8634,14.1983,-0.291674,0.0,0.0
232,57.75,44.9512,51.0407,164.051,102.475,105.633,0.00705161,0.121546,20.8751,14.1683,-0.272183,0.0,0.0
240,59.75,43.954,49.9194,166.672,102.443,105.554,0.00781467,0.112262,20.884,14.2083,-0.26826,0.0,0.0
248,61.75,42.2935,47.5092,164.127,102.4,105.788,0.00839088,0.106249,20.8903,14.2083,-0.291849,0.0,0.0
256,63.75,41.9875,46.5569,166.341,102.395,105.041,0.00857154,0.102621,20.8943,14.2083,-0.228701,0.0,0.0
264,65.75,41.3522,46.2079,162.612,102.362,105.261,0.0084228,0.100731,20.897,14.0882,-0.250468,0.0,0.0
272,67.75,41.3149,46.0447,166.91,102.347,105.753,0.0082307,0.0996785,20.8992,14.0982,-0.293483,0.0,0.0
280,69.75,40.8876,45.7365,161.867,102.325,105.119,0.00813673,0.0983584,20.9008,14.0982,-0.241568,0.0,0.0
288,71.75,40.2924,45.6657,159.445,102.289,105.171,0.00808623,0.097245,20.9018,14.0982,-0.249203,0.0,0.0
296,73.75,40.5229,45.427,167.397,102.282,106.043,0.00805411,0.0971077,20.9022,14.008,-0.323725,0.0,0.0
304,75.75,40.5611,45.7591,162.012,102.225,105.466,0.00816044,0.0975279,20.9014,14.0882,-0.279879,0.0,0.0
312,77.75,40.3975,45.1221,162.389,102.215,105.273,0.00826417,0.098942,20.9007,13.998,-0.264354,0.0,0.0
320,79.75,40.738,45.8078,171.858,102.188,105.856,0.0081682,0.0989202,20.9011,14.008,-0.316174,0.0,0.0
328,81.75,40.4999,45.0638,170.818,102.176,105.091,0.00791031,0.097427,20.9023,14.008,-0.252194,0.0,0.0
336,83.75,40.7721,45.3824,163.723,102.168,104.905,0.00777075,0.0963321,20.9037,13.978,-0.237056,0.0,0.0
344,85.75,39.5504,44.9808,163.846,102.18,105.272,0.00771248,0.0957402,20.9053,13.978,-0.267283,0.0,0.0
352,87.75,39.7912,45.1481,167.492,102.167,105.151,0.00762656,0.0949988,20.9063,13.8979,-0.258145,0.0,0.0
360,89.75,39.6599,45.5096,166.539,102.158,105.582,0.00758142,0.0942974,20.9068,13.958,-0.295566,0.0,0.0
368,91.75,40.1046,44.9415,164.463,102.143,105.221,0.00758296,0.0940144,20.9069,13.998,-0.266214,0.0,0.0
376,93.75,40.0175,44.993,160.705,102.139,105.094,0.0076369,0.0937046,20.9067,13.9179,-0.2557,0.0,0.0
384,95.75,40.1592,45.0375,162.743,102.136,105.175,0.00771576,0.0938017,20.9065,13.8278,-0.2629,0.0,0.0
392,97.75,40.1138,44.6563,157.94,102.1,105.462,0.00773936,0.094297,20.9065,13.8579,-0.290525,0.0,0.0
400,99.75,40.1163,45.4469,161.786,102.084,104.982,0.0076848,0.0942342,20.9065,13.8078,-0.251027,0.0,0.0
408,101.75,40.2989,45.2482,164.909,102.077,105.891,0.00757105,0.0933239,20.9075,13.7177,-0.328931,0.0,0.0
416,103.75,40.0159,45.1732,161.875,102.039,105.039,0.00742305,0.0924438,20.9081,13.7677,-0.259886,0.0,0.0
424,105.75,40.2234,44.6823,166.925,102.018,106.486,0.00729586,0.0916635,20.908,13.8178,-0.384355,0.0,0.0
432,107.75,39.4717,44.3442,165.445,102.006,105.076,0.00723212,0.0916315,20.9087,13.7878,-0.265873,0.0,0.0
440,109.75,39.6865,44.9018,163.631,101.983,105.136,0.00723003,0.0917241,20.9082,13.8278,-0.272997,0.0,0.0
448,111.75,39.7688,44.298,165.83,101.972,104.941,0.00723816,0.0915337,20.908,13.7277,-0.257282,0.0,0.0
456,113.75,38.9005,44.723,165.533,101.962,105.281,0.00717951,0.0910548,20.9079,13.8178,-0.287231,0.0,0.0
464,115.75,39.5419,45.0672,164.712,101.956,105.285,0.00702065,0.0910992,20.9079,13.6776,-0.288057,0.0,0.0
472,117.75,39.5831,44.4374,168.302,101.942,105.656,0.00690856,0.090388,20.9099,13.7878,-0.320845,0.0,0.0
480,119.75,39.9298,44.8958,159.29,101.947,105.588,0.00685164,0.0898547,20.9115,13.8178,-0.314625,0.0,0.0
488,121.75,40.0094,45.0986,162.328,101.946,105.197,0.00680843,0.0889338,20.9133,13.7077,-0.281462,0.0,0.0
496,123.75,40.1055,45.3517,161.641,101.92,104.637,0.00670447,0.0882357,20.914,13.6075,-0.235933,0.0,0.0
504,125.75,39.8766,45.677,164.717,101.895,104.758,0.00652344,0.0866912,20.9152,13.7377,-0.248513,0.0,0.0
512,127.75,40.0948,45.1181,165.414,101.883,104.746,0.00632857,0.08497,20.9175,13.6876,-0.248524,0.0,0.0
520,129.75,40.1133,45.4146,168.697,101.883,104.99,0.0060273,0.0836108,20.9195,13.7778,-0.269393,0.0,0.0
528,131.75,40.1166,45.2379,162.266,101.852,104.565,0.00571634,0.0825475,20.9207,13.6476,-0.235722,0.0,0.0
536,133.75,40.2457,45.3948,162.473,101.837,105.352,0.00553817,0.0814953,20.9222,13.6976,-0.304244,0.0,0.0
544,135.75,40.6179,45.7312,161.428,101.811,104.917,0.00532921,0.0793833,20.9237,13.6776,-0.269494,0.0,0.0
552,137.75,40.5245,45.7899,165.981,101.782,104.379,0.00494423,0.0775798,20.9279,13.6276,-0.225883,0.0,0.0
560,139.75,40.2171,45.8823,167.165,101.769,104.948,0.00460591,0.0763437,20.93,13.6075,-0.275726,0.0,0.0
568,141.75,39.971,45.5349,165.543,101.763,104.912,0.00434623,0.0745437,20.9315,13.5975,-0.273217,0.0,0.0
576,143.75,40.1352,45.041,165.061,101.759,104.63,0.00406309,0.0719834,20.9338,13.6376,-0.249527,0.0,0.0
584,145.75,40.4988,45.207,166.579,101.731,105.058,0.00383333,0.0699528,20.9364,13.6476,-0.288539,0.0,0.0
592,147.75,40.72,45.1255,167.229,101.722,105.058,0.0035739,0.0681758,20.9371,13.6075,-0.289345,0.0,0.0
600,149.75,40.2279,44.7838,160.45,101.698,104.378,0.0032397,0.066611,20.9388,13.6276,-0.233269,0.0,0.0
608,151.75,40.155,44.8363,163.431,101.672,104.961,0.00279758,0.0648544,20.9403,13.5475,-0.285495,0.0,0.0
616,153.75,40.4708,45.6221,163.559,101.651,105.362,0.00235327,0.0630233,20.9438,13.4974,-0.321504,0.0,0.0
624,155.75,39.578,44.4551,163.819,101.632,104.731,0.00202369,0.0612234,20.9455,13.5475,-0.269335,0.0,0.0
632,157.75,39.6679,44.6429,165.777,101.618,104.936,0.00182758,0.0604217,20.9463,13.5174,-0.288056,0.0,0.0
640,159.75,39.9444,45.0564,160.346,101.58,104.76,0.0016719,0.0597243,20.9478,13.6376,-0.276371,0.0,0.0
648,161.75,39.4571,44.8317,166.216,101.552,105.484,0.00153428,0.058859,20.9486,13.6075,-0.340659,0.0,0.0
656,163.75,40.0512,44.3938,167.599,101.523,104.66,0.00141338,0.058135,20.9494,13.5875,-0.272903,0.0,0.0
664,165.75,40.0631,44.5471,160.854,101.475,104.615,0.00130322,0.0574887,20.9508,13.5675,-0.273217,0.0,0.0
672,167.75,39.7568,44.8966,164.895,101.426,105.456,0.00117828,0.0565788,20.9517,13.6075,-0.34931,0.0,0.0
680,169.75,39.9102,45.1461,168.267,101.421,104.961,,0.055745,,13.6175,-0.307679,0.0,0.0
688,171.75,40.051,45.6372,165.641,101.4,104.396,,,,13.6175,-0.261087,0.0,0.0
696,173.75,39.3509,45.1947,168.471,101.375,103.953,,,,13.5975,-0.225164,0.0,0.0
704,175.75,40.088,45.2802,160.761,101.345,104.429,,,,13.5374,-0.268833,0.0,0.0
712,177.75,39.991,44.7686,168.063,101.359,104.489,,,,13.5675,-0.272744,0.0,0.0
718,179.25,39.8748,44.7794,169.628,101.329,104.246,,,,13.5675,-0.254446,0.0,0.0