File: 01_Data/Cotton_Raw/Cone/Cotton_Raw_Cone_HF50-Frame+GridScalar_200909_R1.csv
LABORATORY,FSRI
TEST IDENT,RawCotton_50_1
OPERATOR,Dow
MATERIAL,Raw cotton
ORIENTATION,Horizontal
HEAT FLUX,35
SURF AREA,0.01
C FACTOR,0.0376049
SPEC HOLDER DIFF,345.5
SPECIMEN MASS,5.9
SCAN TIME,0.25
O2 DELAY TIME,11
CO DELAY TIME,11
CO2 DELAY TIME,8
FLOW FACTOR,1
SCAN COUNT,882
TIME TO IGN,3
END OF TEST SCAN,402
END OF TEST TIME,100.5
TEST STATUS,1