File: 01_Data/Cotton_Raw/Cone/Cotton_Raw_Cone_HF35-Frame+GridScalar_200909_R3.csv
LABORATORY,FSRI
TEST IDENT,RawCotton_35_3
OPERATOR,Dow
MATERIAL,Raw cotton
ORIENTATION,Horizontal
HEAT FLUX,35
SURF AREA,0.01
C FACTOR,0.0376049
SPEC HOLDER DIFF,348.5
SPECIMEN MASS,7.2
SCAN TIME,0.25
O2 DELAY TIME,11
CO DELAY TIME,11
CO2 DELAY TIME,8
FLOW FACTOR,1
SCAN COUNT,1066
TIME TO IGN,6.75
END OF TEST SCAN,586
END OF TEST TIME,146.5
TEST STATUS,1