File: 01_Data/Cotton_Raw/Cone/Cotton_Raw_Cone_HF50-Frame+GridScalar_200909_R2.csv
LABORATORY,FSRI
TEST IDENT,RawCotton_50_2
OPERATOR,Dow
MATERIAL,Raw cotton
ORIENTATION,Horizontal
HEAT FLUX,35
SURF AREA,0.01
C FACTOR,0.0376049
SPEC HOLDER DIFF,341.1
SPECIMEN MASS,6.21
SCAN TIME,0.25
O2 DELAY TIME,11
CO DELAY TIME,11
CO2 DELAY TIME,8
FLOW FACTOR,1
SCAN COUNT,939
TIME TO IGN,2.75
END OF TEST SCAN,459
END OF TEST TIME,114.75
TEST STATUS,1