File: 01_Data/Cotton_Raw/Cone/Raw_Cotton_Cone_HF75-Frame+GridScan_200910_R2.csv
Names,Time,Stack TC,Smoke TC,Exh Press,Smoke Comp,Smoke Meas,CO Meter,CO2 Meter,O2 Meter,Sample Mass,Ext Coeff,Start Test,Flame Verif
Chan Gain,,500,500,1,1,1,1,1,1,1,1,1.0,1.0
Offset,,0,0,0.140826,0,0,0,0,0,0,0,0.0,0.0
Gain,,1,1,25.011,13.7435,17.0229,1,1,1,1.00129,1.0222,1.0,1.0
Units,sec,C,C,Pa,%,%,%,%,%,g,/m,,
Baseline,,38.6433,42.6719,167.786,102.345,105.226,0.000436156,0.0514809,20.9493,-898.688,-0.24889,,
9,2,37.1114,42.4516,161.029,102.109,105.101,0.00138231,0.154479,20.8613,16.2409,-0.258972,0.0,1.0
18,4.25,40.4926,47.1932,162.585,101.989,105.975,0.00159504,0.225194,20.7877,16.0106,-0.343707,0.0,1.0
27,6.5,41.1315,49.8805,157.006,101.866,105.068,0.00166978,0.257206,20.7513,15.7703,-0.277522,0.0,0.0
36,8.75,43.3105,51.7496,160.127,101.726,105.478,0.00179622,0.27318,20.7307,15.55,-0.324782,0.0,0.0
45,11,44.2085,54.2193,159.762,101.615,104.298,0.00187841,0.286749,20.7121,15.3598,-0.233719,0.0,0.0
54,13.25,45.4366,55.9725,157.418,101.468,102.763,0.00210205,0.297211,20.701,15.0594,-0.11368,0.0,0.0
63,15.5,45.8211,57.0506,158.384,101.302,104.301,0.00241681,0.300732,20.6952,14.8692,-0.261556,0.0,0.0
72,17.75,46.3886,57.8618,162.784,101.164,103.993,0.00258488,0.302711,20.6936,14.6789,-0.247294,0.0,0.0
81,20,48.0042,58.5317,155.478,101.06,104.368,0.00268013,0.30202,20.6942,14.4186,-0.288799,0.0,0.0
90,22.25,47.8161,59.9176,156.771,100.92,103.487,0.00280257,0.298589,20.697,14.2083,-0.225221,0.0,0.0
99,24.5,48.2484,59.6611,160,100.825,104.486,0.00274511,0.295493,20.6988,13.998,-0.319797,0.0,0.0
108,26.75,48.3719,59.9843,158.636,100.744,104.946,0.00250885,0.293134,20.7004,13.7177,-0.366485,0.0,0.0
117,29,49.0543,59.9168,160.113,100.674,103.807,0.00231559,0.289391,20.7025,13.5975,-0.274814,0.0,0.0
126,31.25,49.0138,60.4586,160.061,100.593,104.419,0.00219475,0.286178,20.7047,13.4573,-0.33465,0.0,0.0
135,33.5,48.9771,60.0967,154.412,100.56,104.633,0.00206684,0.282431,20.7071,13.207,-0.356008,0.0,0.0
144,35.75,48.8275,60.2399,156.265,100.558,103.816,0.00190751,0.277841,20.7123,13.0168,-0.285893,0.0,0.0
153,38,49.5292,60.1842,156.849,100.55,104.175,0.00197629,0.274571,20.7155,12.8466,-0.317592,0.0,0.0
162,40.25,49.3012,60.4529,154.21,100.587,103.9,0.00221728,0.272428,20.7168,12.6463,-0.290534,0.0,0.0
171,42.5,48.6281,59.8417,155.499,100.655,104.598,0.00241581,0.271669,20.7172,12.5261,-0.344495,0.0,0.0
180,44.75,49.1284,60.0926,160.398,100.741,104.611,0.00239349,0.27125,20.7163,12.3459,-0.337998,0.0,0.0
189,47,49.2335,59.7846,158.333,100.819,104.895,0.00226809,0.270802,20.7159,12.1657,-0.355336,0.0,0.0
198,49.25,49.3293,59.7753,163.806,100.924,104.406,0.00212939,0.270723,20.7167,11.9955,-0.304123,0.0,0.0
207,51.5,49.6669,59.9088,156.513,101.019,105.102,0.0021177,0.269336,20.7176,11.8653,-0.355292,0.0,0.0
216,53.75,49.6315,60.0343,159.087,101.126,104.942,0.00214046,0.264728,20.7206,11.6851,-0.332149,0.0,0.0
225,56,49.5731,59.7285,159.307,101.215,105.936,0.00213829,0.256318,20.7291,11.5549,-0.408746,0.0,0.0
234,58.25,49.4238,59.5758,155.558,101.327,104.997,0.00236177,0.244558,20.7421,11.4147,-0.319013,0.0,0.0
243,60.5,49.2529,58.5424,162.644,101.431,104.902,0.00282691,0.230383,20.7552,11.3346,-0.301699,0.0,0.0
252,62.75,48.6658,57.6638,160.178,101.515,104.919,0.00351338,0.215105,20.7695,11.1944,-0.295744,0.0,0.0
261,65,48.6073,57.0988,167.767,101.593,104.46,0.00424165,0.198866,20.7881,11.1744,-0.249529,0.0,0.0
270,67.25,47.458,55.8496,161.551,101.678,104.833,0.00491916,0.1859,20.8024,11.0743,-0.274016,0.0,0.0
279,69.5,46.7502,55.2303,163.411,101.769,106.428,0.00546372,0.175537,20.8104,11.0142,-0.401297,0.0,0.0
288,71.75,46.515,54.4914,159.615,101.834,105.979,0.00578543,0.167959,20.8179,10.9641,-0.357757,0.0,0.0
297,74,46.3389,52.8539,160.805,101.902,104.89,0.00596789,0.162528,20.8254,10.904,-0.259165,0.0,0.0
306,76.25,45.728,52.5021,166.523,101.986,105.424,0.00629706,0.156643,20.8326,10.844,-0.297332,0.0,0.0
315,78.5,45.239,52.0838,171.232,102.019,105.759,0.00667082,0.151086,20.8378,10.7939,-0.32283,0.0,0.0
324,80.75,44.5721,51.0116,161.612,102.05,105.214,0.00685946,0.146249,20.8427,10.7438,-0.27378,0.0,0.0
333,83,44.1816,49.968,165.413,102.07,105.637,0.0070468,0.140807,20.8477,10.7138,-0.308057,0.0,0.0
342,85.25,43.9358,49.9074,161.985,102.1,105.538,0.00727574,0.136136,20.8532,10.6738,-0.296972,0.0,0.0
351,87.5,43.6241,49.4504,160.07,102.084,105.365,0.00744192,0.130518,20.8592,10.6137,-0.283625,0.0,0.0
360,89.75,43.4187,48.7087,164.346,102.066,105.46,0.00756897,0.125263,20.8652,10.6437,-0.293377,0.0,0.0
369,92,43.4195,48.1499,162.051,102.076,104.972,0.00763784,0.12028,20.8698,10.6037,-0.250847,0.0,0.0
378,94.25,43.1014,48.1583,169.857,102.022,104.932,0.00768731,0.116273,20.8745,10.5836,-0.252221,0.0,0.0
387,96.5,43.1525,48.1127,166.21,101.984,105.469,0.00797818,0.11208,20.8792,10.5836,-0.301316,0.0,0.0
396,98.75,42.9529,47.6139,168.99,101.944,105.011,0.00840834,0.108758,20.8827,10.4935,-0.265781,0.0,0.0
405,101,40.8343,45.7297,165.749,101.938,105.181,0.00880684,0.106988,20.884,10.4635,-0.280835,0.0,0.0
414,103.25,40.3261,46.2322,167.122,101.899,105.158,0.00908609,0.107853,20.8836,10.4535,-0.282273,0.0,0.0
423,105.5,40.6588,45.6084,167.831,101.869,104.696,0.009023,0.108521,20.883,10.4234,-0.24542,0.0,0.0
432,107.75,40.7266,45.4694,162.84,101.835,104.979,0.00869425,0.108448,20.883,10.4134,-0.272626,0.0,0.0
441,110,40.7919,45.3211,164.454,101.804,104.954,0.00834969,0.107623,20.8841,10.3634,-0.273192,0.0,0.0
450,112.25,40.8217,45.2677,164.643,101.772,104.339,0.00810192,0.106746,20.8847,10.3634,-0.22337,0.0,0.0
459,114.5,40.2025,44.5127,163.38,101.744,105.236,0.00806533,0.107234,20.8853,10.3533,-0.302588,0.0,0.0
468,116.75,40.1477,44.6662,163.466,101.742,105.118,0.00809073,0.108419,20.884,10.3133,-0.292757,0.0,0.0
477,119,40.3074,45.4957,163.236,101.813,105.847,0.00798834,0.109296,20.8827,10.3033,-0.348469,0.0,0.0
486,121.25,40.3612,45.2669,166.379,101.991,105.269,0.00798175,0.108235,20.8838,10.2832,-0.283625,0.0,0.0
495,123.5,40.5493,45.3933,162.35,102.171,104.914,0.00808969,0.105925,20.8866,10.2732,-0.237509,0.0,0.0
504,125.75,40.2934,45.3509,167.234,102.309,105.129,0.0080825,0.103788,20.8874,10.2632,-0.243851,0.0,0.0
513,128,40.5121,45.4841,164.263,102.418,107.073,0.00801271,0.102171,20.8891,10.2031,-0.398507,0.0,0.0
522,130.25,40.5333,45.1098,165.923,102.52,106.051,0.00790546,0.101679,20.8898,10.1731,-0.303685,0.0,0.0
531,132.5,40.0264,45.3228,161.897,102.593,105.993,0.00771724,0.101589,20.8901,10.2031,-0.292384,0.0,0.0
540,134.75,40.2487,45.0286,164.503,102.632,105.944,0.00743552,0.102496,20.8902,10.1931,-0.284799,0.0,0.0
549,137,40.0744,44.5099,157.817,102.654,105.83,0.00716,0.102404,20.8907,10.1831,-0.273223,0.0,0.0
558,139.25,40.7294,45.3764,161.935,102.652,105.998,0.00708604,0.101825,20.8918,10.1331,-0.287612,0.0,0.0
567,141.5,40.2615,45.5599,164.465,102.611,105.871,0.00723483,0.100668,20.8923,10.123,-0.280437,0.0,0.0
576,143.75,40.291,45.3738,162.099,102.531,106.237,0.00724297,0.100742,20.8926,10.093,-0.318442,0.0,0.0
585,146,40.7053,44.9362,161.012,102.438,105.096,0.00702362,0.0992369,20.8931,10.073,-0.229737,0.0,0.0
594,148.25,40.8578,45.7274,160.124,102.311,105.462,0.00693235,0.0984075,20.8955,10.053,-0.272016,0.0,0.0
603,150.5,40.8311,45.885,162.183,102.123,105.761,0.0070388,0.0970612,20.8966,10.0429,-0.313824,0.0,0.0
612,152.75,40.5216,46.275,163.631,102.035,104.652,0.00713904,0.0959618,20.8987,10.0229,-0.227119,0.0,0.0
621,155,40.8191,46.396,167.211,102.091,105.557,0.00706434,0.0936665,20.9009,10.0029,-0.299341,0.0,0.0
630,157.25,41.2855,46.06,164.523,102.179,104.949,0.00688878,0.0919225,20.9032,9.98286,-0.239865,0.0,0.0
639,159.5,41.0791,46.0073,164.746,102.269,104.965,0.00667217,0.0901478,20.9053,9.97285,-0.233294,0.0,0.0
648,161.75,40.4827,45.6122,161.938,102.357,105.052,0.00634506,0.0881396,20.9076,9.97285,-0.233057,0.0,0.0
657,164,40.2788,45.5654,160.067,102.477,105.342,0.00602521,0.0859265,20.909,9.95282,-0.247307,0.0,0.0
666,166.25,40.3421,45.328,160.879,102.556,105.401,0.00583895,0.0843581,20.9102,9.94281,-0.245333,0.0,0.0
675,168.5,40.7206,45.582,167.113,102.641,105.551,0.00563234,0.0836532,20.9123,9.9328,-0.250684,0.0,0.0
684,170.75,40.3328,45.368,166.9,102.714,105.684,0.00543911,0.0826267,20.9142,9.90276,-0.255528,0.0,0.0
693,173,40.3434,45.4039,164.797,102.779,105.367,0.00525809,0.0813891,20.9153,9.9328,-0.223046,0.0,0.0
702,175.25,40.4986,45.3623,163.725,102.808,105.631,0.00508095,0.0808631,20.9158,9.86271,-0.242877,0.0,0.0
711,177.5,40.2691,45.495,166.819,102.83,105.584,0.00495673,0.0801934,20.9172,9.83267,-0.237006,0.0,0.0
720,179.75,39.9877,45.2847,164.473,102.815,105.739,0.00491242,0.0793208,20.9179,9.83267,-0.251416,0.0,0.0
729,182,40.2896,45.0772,166.722,102.791,106.389,0.00500973,0.0786916,20.9193,9.83267,-0.30848,0.0,0.0
738,184.25,40.3454,45.8966,161.311,102.728,106.084,0.00510666,0.077602,20.9213,9.81264,-0.288239,0.0,0.0
747,186.5,40.907,46.0635,163.479,102.639,106.353,0.00505517,0.0761326,20.9223,9.81264,-0.31872,0.0,0.0
756,188.75,40.6519,45.7621,166.045,102.532,105.308,0.00470992,0.0748251,20.924,9.87272,-0.239545,0.0,0.0
765,191,40.7132,46.2196,162.264,102.393,105.523,0.0041997,0.0735685,20.9253,9.81264,-0.269945,0.0,0.0
774,193.25,40.6891,45.5346,165.911,102.242,104.855,0.00373663,0.0725324,20.9258,9.84268,-0.226264,0.0,0.0
783,195.5,40.5059,45.5378,167.01,102.07,104.997,0.00347355,0.0720497,20.9274,9.77259,-0.253485,0.0,0.0
792,197.75,40.5005,45.7284,169.024,101.925,105.425,0.00346258,0.0719068,20.928,9.80263,-0.302769,0.0,0.0
801,200,40.7845,45.6264,168.031,101.725,104.923,0.00346771,0.0714292,20.9283,9.77259,-0.27755,0.0,0.0
810,202.25,40.6223,45.7933,164.033,101.543,105.78,0.00340423,0.0716714,20.9284,9.79262,-0.366491,0.0,0.0
819,204.5,41.4082,46.5373,164.126,101.376,104.045,0.0032117,0.073308,20.927,9.77259,-0.233062,0.0,0.0
828,206.75,40.7844,46.1539,161.57,101.194,104.045,0.00295088,0.0737389,20.9271,9.76258,-0.249103,0.0,0.0
837,209,40.4908,45.4218,163.463,101.058,104.176,,0.0731148,,9.73254,-0.272501,0.0,0.0
846,211.25,40.5754,45.6087,165.727,100.928,103.846,,,,9.74255,-0.255606,0.0,0.0
855,213.5,40.4491,46.4308,166.155,100.85,103.633,,,,9.71251,-0.244085,0.0,0.0
864,215.75,40.6656,45.862,165.878,100.77,104.578,,,,9.73254,-0.332527,0.0,0.0
873,218,41.0034,46.2055,169.463,100.765,104.818,,,,9.72253,-0.353612,0.0,0.0
876,218.75,40.9776,45.9974,168.501,100.771,104.725,,,,9.71251,-0.345086,0.0,0.0