File: 01_Data/Cotton_Raw/Cone/Raw_Cotton_Cone_HF75-Frame+GridScalar_200910_R2.csv
LABORATORY,FSRI
TEST IDENT,RawCotton_75_2
OPERATOR,Dow
MATERIAL,Raw cotton
ORIENTATION,Horizontal
HEAT FLUX,75
SURF AREA,0.01
C FACTOR,0.0367758
SPEC HOLDER DIFF,341.43
SPECIMEN MASS,6.47
SCAN TIME,0.25
O2 DELAY TIME,11
CO DELAY TIME,11
CO2 DELAY TIME,8
FLOW FACTOR,1
SCAN COUNT,876
TIME TO IGN,1
END OF TEST SCAN,396
END OF TEST TIME,99
TEST STATUS,1