File: 01_Data/Cotton_Raw/Cone/Raw_Cotton_Cone_HF50-Frame+GridScan_200909_R3.csv
Names,Time,Stack TC,Smoke TC,Exh Press,Smoke Comp,Smoke Meas,CO Meter,CO2 Meter,O2 Meter,Sample Mass,Ext Coeff,Start Test,Flame Verif
Chan Gain,,500,500,1,1,1,1,1,1,1,1,1.0,1.0
Offset,,0,0,0.136754,0,0,0,0,0,0,0,0.0,0.0
Gain,,1,1,25.011,13.7501,16.9893,1,1,1,1.00105,1.02582,1.0,1.0
Units,sec,C,C,Pa,%,%,%,%,%,g,/m,,
Baseline,,31.8444,34.8672,163.323,102.091,103.158,-0.000415174,0.0530955,20.9589,-900.838,-0.0935756,,
9,2,29.3802,32.2161,161.494,102.672,100.359,0.000738048,0.0691341,20.9428,12.7033,0.205,0.0,0.0
18,4.25,30.7391,34.0098,153.986,102.69,104.652,0.00137737,0.132937,20.8799,12.7033,-0.1703,0.0,1.0
27,6.5,32.4846,37.5027,156.635,102.68,104.725,0.00164816,0.177815,20.8304,12.4531,-0.177458,0.0,1.0
36,8.75,32.2938,38.5452,155.155,102.683,104.481,0.00172052,0.196663,20.809,12.343,-0.156156,0.0,0.0
45,11,33.3691,40.0676,157.928,102.684,105.007,0.0016644,0.209333,20.7943,12.0727,-0.201292,0.0,0.0
54,13.25,34.8613,42.0423,152.959,102.689,104.012,0.00146235,0.222994,20.7825,11.9626,-0.115221,0.0,0.0
63,15.5,35.6386,43.5555,156.97,102.673,103.788,0.00131937,0.233369,20.7723,11.8324,-0.0971837,0.0,0.0
72,17.75,36.4282,44.4512,153.814,102.673,104.522,0.00127363,0.238683,20.766,11.6522,-0.160647,0.0,0.0
81,20,36.8135,45.1019,156.773,102.685,104.393,0.00130295,0.237078,20.7668,11.452,-0.148496,0.0,0.0
90,22.25,37.2007,45.0978,156.232,102.685,104.249,0.00132802,0.234627,20.7691,11.3119,-0.136064,0.0,0.0
99,24.5,37.724,45.5965,158.731,102.653,104.288,0.00127444,0.231029,20.772,11.1117,-0.142178,0.0,0.0
108,26.75,37.8842,45.4298,158.368,102.668,104.703,0.00115123,0.225083,20.7788,11.0015,-0.176572,0.0,0.0
117,29,37.8438,45.1263,159.162,102.664,104.171,0.000950881,0.22052,20.7845,10.8113,-0.131068,0.0,0.0
126,31.25,37.8642,45.6121,155.084,102.658,104.122,0.000719572,0.217359,20.7871,10.6912,-0.127455,0.0,0.0
135,33.5,37.3609,45.4741,153.433,102.661,105.005,0.000725846,0.216289,20.7885,10.6111,-0.203145,0.0,0.0
144,35.75,38.6458,45.9915,154.084,102.665,104.677,0.000892618,0.215677,20.7893,10.441,-0.174646,0.0,0.0
153,38,37.6373,45.5852,157.944,102.679,104.734,0.0011124,0.214298,20.7912,10.2808,-0.178326,0.0,0.0
162,40.25,37.6893,45.5696,159.854,102.663,104.834,0.00120792,0.214171,20.7918,10.0005,-0.188317,0.0,0.0
171,42.5,38.0182,45.2597,156.794,102.668,105.136,0.00131959,0.215604,20.79,10.0405,-0.213738,0.0,0.0
180,44.75,38.4222,45.5259,157.253,102.685,104.771,0.00153965,0.216654,20.7873,9.93042,-0.181017,0.0,0.0
189,47,38.3911,46.0165,155.626,102.676,106.203,0.00180676,0.217285,20.7855,9.71019,-0.303948,0.0,0.0
198,49.25,38.8165,46.2893,154.854,102.685,104.744,0.00200736,0.218805,20.7842,9.59007,-0.17862,0.0,0.0
207,51.5,38.6598,46.7179,155.959,102.691,104.415,0.0021665,0.219081,20.7837,9.55002,-0.149822,0.0,0.0
216,53.75,38.6847,46.6373,152.127,102.698,104.395,0.00235017,0.220124,20.7835,9.44992,-0.147536,0.0,0.0
225,56,38.8554,46.8662,160.658,102.682,104.794,0.00254092,0.219153,20.784,9.24971,-0.183234,0.0,0.0
234,58.25,39.1828,46.9121,157.884,102.69,104.951,0.00260984,0.21713,20.7849,9.13959,-0.19597,0.0,0.0
243,60.5,39.0958,46.3601,157.819,102.69,104.678,0.00254973,0.215301,20.7858,9.06952,-0.172565,0.0,0.0
252,62.75,38.8438,46.4148,158.394,102.673,104.723,0.002616,0.21014,20.7907,8.90935,-0.177913,0.0,0.0
261,65,39.4928,46.768,156.956,102.677,105.341,0.00280999,0.202416,20.7987,8.80925,-0.230566,0.0,0.0
270,67.25,38.9103,45.7519,155.697,102.682,104.419,0.00305869,0.19471,20.8064,8.68912,-0.150952,0.0,0.0
279,69.5,38.4481,45.4105,159.621,102.684,104.568,0.00333651,0.187767,20.8136,8.54897,-0.163619,0.0,0.0
288,71.75,38.4197,44.949,159.555,102.674,103.969,0.00358486,0.179741,20.8192,8.54897,-0.112776,0.0,0.0
297,74,38.0136,44.4948,162.115,102.667,103.992,0.00404692,0.171307,20.8292,8.49892,-0.115347,0.0,0.0
306,76.25,38.0683,43.5434,162.68,102.669,104.554,0.0045057,0.160997,20.8382,8.51894,-0.163664,0.0,0.0
315,78.5,37.0322,42.465,160.79,102.664,104.19,0.00512913,0.149292,20.8503,8.41884,-0.1328,0.0,0.0
324,80.75,36.7934,42.1602,161.107,102.637,104.891,0.00578544,0.137339,20.8614,8.41884,-0.195454,0.0,0.0
333,83,36.6035,42.119,163.829,102.648,104.576,0.0064405,0.127493,20.8705,8.3888,-0.167495,0.0,0.0
342,85.25,35.5424,41.047,161.704,102.655,104.317,0.00667255,0.117124,20.8814,8.36878,-0.144544,0.0,0.0
351,87.5,35.51,40.2136,162.382,102.632,104.144,0.00655394,0.109,20.8916,8.31873,-0.131654,0.0,0.0
360,89.75,35.1391,39.6784,162.446,102.619,103.939,0.00629181,0.104476,20.8966,8.30872,-0.115037,0.0,0.0
369,92,35.2569,39.3034,160.554,102.622,104.078,0.00593016,0.103149,20.8985,8.27869,-0.126727,0.0,0.0
378,94.25,32.9061,36.893,157.19,102.617,104.052,0.0054742,0.10226,20.8995,8.2887,-0.124927,0.0,0.0
387,96.5,32.7506,36.7364,162.033,102.612,104.091,0.00501664,0.101537,20.901,8.2887,-0.128731,0.0,0.0
396,98.75,32.8878,36.695,163.19,102.618,103.925,0.004785,0.100056,20.9016,8.20861,-0.113862,0.0,0.0
405,101,32.6492,36.4152,159.74,102.628,104.166,0.00478947,0.0996493,20.9032,8.20861,-0.133785,0.0,0.0
414,103.25,32.2724,36.5074,160.136,102.623,103.7,0.0048832,0.100403,20.9039,8.21863,-0.0939524,0.0,0.0
423,105.5,32.4745,36.9425,160.278,102.622,103.507,0.00491388,0.0999903,20.9042,8.17858,-0.0771928,0.0,0.0
432,107.75,32.23,36.6433,157.765,102.618,104.09,0.00469211,0.0994416,20.9047,8.13854,-0.128126,0.0,0.0
441,110,32.1676,36.2157,161.04,102.62,104.693,0.00438576,0.0993732,20.9048,8.13854,-0.179918,0.0,0.0
450,112.25,32.414,36.8164,159.641,102.62,104.155,0.00424569,0.0986134,20.9061,8.13854,-0.133625,0.0,0.0
459,114.5,32.635,36.9048,160.729,102.616,104.184,0.00422545,0.0974411,20.9081,8.02843,-0.136464,0.0,0.0
468,116.75,32.1637,36.6676,161.132,102.644,103.642,0.00422794,0.0962121,20.9104,8.07848,-0.087118,0.0,0.0
477,119,32.1376,35.7903,162.093,102.626,103.909,0.00424008,0.0959879,20.9102,8.06847,-0.111808,0.0,0.0
486,121.25,32.2277,36.4783,162.478,102.637,103.849,0.00414482,0.096462,20.9098,8.05846,-0.105686,0.0,0.0
495,123.5,32.2291,36.6008,162.306,102.635,103.925,0.00390183,0.0958906,20.9107,7.93833,-0.112427,0.0,0.0
504,125.75,32.5482,35.9778,165.674,102.64,103.372,0.0037258,0.0946772,20.9114,7.95835,-0.0639656,0.0,0.0
513,128,32.0991,35.8451,155.851,102.652,104.327,0.00364057,0.0943165,20.9117,8.0985,-0.145688,0.0,0.0
522,130.25,32.3893,36.0233,162.548,102.619,103.78,0.00354608,0.0932532,20.9109,7.94834,-0.101254,0.0,0.0
531,132.5,32.4093,35.9458,161.91,102.643,104.533,0.00353241,0.0920323,20.9111,7.89829,-0.16416,0.0,0.0
540,134.75,31.8842,35.5273,159.299,102.638,103.946,0.00353054,0.093018,20.9105,7.93833,-0.113936,0.0,0.0
549,137,32.4447,36.1384,159.83,102.642,104.338,0.00352771,0.0929318,20.9095,8.0084,-0.147465,0.0,0.0
558,139.25,32.8892,36.1437,161.212,102.646,104.306,0.00355425,0.0922011,20.9117,8.0084,-0.144287,0.0,0.0
567,141.5,32.2987,36.0814,159.753,102.661,103.954,0.00363409,0.0913835,20.9128,8.01842,-0.11266,0.0,0.0
576,143.75,32.7644,36.0913,159.68,102.659,103.997,0.00361871,0.0907599,20.9132,7.89829,-0.116568,0.0,0.0
585,146,32.4692,36.3472,161.265,102.66,103.787,0.0033397,0.0893266,20.9143,7.88828,-0.0982703,0.0,0.0
594,148.25,32.5531,36.5822,159.72,102.664,104.207,0.00294105,0.0884358,20.9152,7.83823,-0.13424,0.0,0.0
603,150.5,32.3599,36.0585,163.71,102.677,103.72,0.00278144,0.0875449,20.9156,7.88828,-0.0908799,0.0,0.0
612,152.75,32.1292,35.7267,158.867,102.671,104.062,0.00300119,0.0875315,20.9174,7.85825,-0.121152,0.0,0.0
621,155,32.196,36.2566,165.898,102.672,103.84,0.00316001,0.0865205,20.9196,7.83823,-0.101752,0.0,0.0
630,157.25,32.3591,35.9678,165.96,102.672,104.822,0.00316157,0.0849043,20.9213,7.82822,-0.186528,0.0,0.0
639,159.5,32.0627,36.1237,164.818,102.679,103.498,0.00301482,0.0838291,20.922,7.8182,-0.0714977,0.0,0.0
648,161.75,32.3209,36.1937,158.654,102.67,104.194,0.00285125,0.083177,20.9223,7.83823,-0.132605,0.0,0.0
657,164,32.0797,36.4374,168.617,102.681,103.803,0.00270248,0.0827229,20.9232,7.80819,-0.0977438,0.0,0.0
666,166.25,31.9518,36.3985,163.763,102.674,104.059,0.00259283,0.0815589,20.9251,7.79818,-0.120589,0.0,0.0
675,168.5,32.0757,36.2867,157.729,102.676,104.147,0.00251528,0.0799613,20.9263,7.8182,-0.127978,0.0,0.0
684,170.75,32.4063,36.2832,166.72,102.675,103.567,0.0024749,0.0789031,20.9272,7.73812,-0.0778301,0.0,0.0
693,173,31.861,35.326,158.225,102.668,104.861,0.00238444,0.0776712,20.9276,7.67806,-0.190197,0.0,0.0
702,175.25,31.6963,35.6328,162.518,102.673,104.026,0.00215111,0.0768114,20.9291,7.77816,-0.117829,0.0,0.0
711,177.5,32.1093,36.0022,159.992,102.667,104.283,0.00206088,0.0764388,20.9306,7.72811,-0.140517,0.0,0.0
720,179.75,32.0601,35.9698,166.503,102.684,103.621,0.00213812,0.0755453,20.9311,7.77816,-0.0817332,0.0,0.0
729,182,32.1435,36.6402,158.973,102.682,104.116,0.00214802,0.0744229,20.9334,7.72811,-0.124857,0.0,0.0
738,184.25,32.467,36.236,160.717,102.685,104.506,0.00206763,0.0729569,20.9349,7.75814,-0.158197,0.0,0.0
747,186.5,32.4068,36.1355,161.755,102.677,104.253,0.00190056,0.0712663,20.9368,7.76815,-0.137121,0.0,0.0
756,188.75,32.4563,36.4471,164.008,102.691,103.737,0.00169608,0.0696751,20.9391,7.73812,-0.0911958,0.0,0.0
765,191,32.445,36.1572,157.927,102.695,104.238,0.00143959,0.0680752,20.9405,7.69808,-0.134197,0.0,0.0
774,193.25,32.477,36.6148,161.148,102.674,104.04,0.00130461,0.0668949,20.942,7.63802,-0.118848,0.0,0.0
783,195.5,32.1662,36.3367,156.18,102.69,103.934,0.00121295,0.0657799,20.9426,7.68807,-0.108417,0.0,0.0
792,197.75,31.9741,36.3087,160.617,102.677,103.613,0.00106524,0.0647148,20.9433,7.67806,-0.0816092,0.0,0.0
801,200,31.1838,35.5232,163.654,102.679,103.917,0.00107075,0.0636105,20.9441,7.63802,-0.107891,0.0,0.0
810,202.25,31.5095,35.9975,166.171,102.678,104.357,,0.0629762,,7.618,-0.145919,0.0,0.0
819,204.5,31.4825,35.6901,160.689,102.669,103.445,,,,7.73812,-0.0677892,0.0,0.0
828,206.75,32.0072,35.6129,161.435,102.671,103.263,,,,7.63802,-0.0517158,0.0,0.0
837,209,32.1632,35.3979,160.187,102.663,103.72,,,,7.7181,-0.0922123,0.0,0.0
846,211.25,32.1573,35.911,163.038,102.664,103.917,,,,7.64803,-0.109133,0.0,0.0
847,211.5,32.1272,36.1403,160.782,102.669,103.718,,,,7.62801,-0.0914445,0.0,0.0