File: 01_Data/Cotton_Raw/Cone/Raw_Cotton_Cone_HF75-Frame+GridScalar_200910_R1.csv
LABORATORY,FSRI
TEST IDENT,RawCotton_75_1
OPERATOR,Dow
MATERIAL,Raw cotton
ORIENTATION,Horizontal
HEAT FLUX,75
SURF AREA,0.01
C FACTOR,0.0367758
SPEC HOLDER DIFF,340.54
SPECIMEN MASS,7.36
SCAN TIME,0.25
O2 DELAY TIME,11
CO DELAY TIME,11
CO2 DELAY TIME,8
FLOW FACTOR,1
SCAN COUNT,933
TIME TO IGN,1.25
END OF TEST SCAN,453
END OF TEST TIME,113.25
TEST STATUS,1