File: 01_Data/Cotton_Raw/Cone/Raw_Cotton_Cone_HF25-Frame+GridScan_200908_R3.csv
Names,Time,Stack TC,Smoke TC,Exh Press,Smoke Comp,Smoke Meas,CO Meter,CO2 Meter,O2 Meter,Sample Mass,Ext Coeff,Start Test,Flame Verif
Chan Gain,,500,500,1,1,1,1,1,1,1,1,1.0,1.0
Offset,,0,0,0.136754,0,0,0,0,0,0,0,0.0,0.0
Gain,,1,1,25.011,13.5073,16.5741,1,1,1,1.00105,1.03303,1.0,1.0
Units,sec,C,C,Pa,%,%,%,%,%,g,/m,,
Baseline,,23.3372,24.7761,168.755,100.643,100.601,9.9223e-05,0.0591226,20.9666,-948.024,0.00381667,,
11,2.5,20.6152,21.4689,169.41,100.57,100.325,-1.32361e-05,0.0600614,20.9659,-28.8902,0.0221199,0.0,0.0
22,5.25,20.7617,21.7295,167.324,100.555,100.277,-0.000118791,0.0609019,20.9657,-29.0003,0.0250785,0.0,0.0
33,8,21.2243,22.169,171.775,100.557,100.27,-6.11468e-05,0.0614736,20.9638,-28.9302,0.0258584,0.0,0.0
44,10.75,21.4396,22.6155,174.881,100.551,100.572,0.000146137,0.0620091,20.9632,-28.9703,-0.00190087,0.0,0.0
55,13.5,21.4395,23.133,168.231,100.542,99.9796,0.00063907,0.0625342,20.9618,-28.9703,0.050843,0.0,0.0
66,16.25,21.2392,23.4185,169.468,100.543,100.089,0.00119365,0.0633239,20.9599,-29.0704,0.040983,0.0,0.0
77,19,21.8159,23.8361,172.705,100.52,99.5547,0.0017674,0.0647253,20.9578,-29.1104,0.0874631,0.0,0.0
88,21.75,21.8835,24.2185,168.126,100.523,99.3008,0.00226674,0.066399,20.9571,-29.1104,0.110827,0.0,0.0
99,24.5,22.0398,23.7176,173.401,100.528,99.3144,0.00267061,0.0674029,20.9556,-29.1104,0.110102,0.0,0.0
110,27.25,21.9006,23.4948,168.209,100.503,98.6796,0.00321372,0.0684665,20.9534,-29.2406,0.165864,0.0,0.0
121,30,21.8254,23.6417,165.566,100.496,98.409,0.00388382,0.0701815,20.9522,-29.2506,0.190153,0.0,0.0
132,32.75,21.9816,23.708,161.75,100.497,98.8,0.00378663,0.0871019,20.9399,-29.5008,0.154334,0.0,0.0
143,35.5,23.2003,26.1966,166.662,100.503,100.896,0.00329386,0.135595,20.8952,-29.5209,-0.0353769,0.0,1.0
154,38.25,23.2113,26.2994,166.665,100.49,100.951,0.00292955,0.152472,20.8742,-29.691,-0.041434,0.0,0.0
165,41,23.0237,27.114,165.157,100.493,100.969,0.00297804,0.156691,20.8675,-29.8712,-0.0428079,0.0,0.0
176,43.75,23.8587,28.1956,161.851,100.499,100.998,0.00308253,0.159547,20.8639,-29.9613,-0.0448752,0.0,0.0
187,46.5,24.6629,28.7238,159.565,100.502,100.978,0.00311168,0.164608,20.859,-30.0414,-0.0427992,0.0,0.0
198,49.25,24.5139,29.5142,164.218,100.512,100.789,0.003009,0.170575,20.855,-30.1515,-0.0249244,0.0,0.0
209,52,25.3774,29.9886,163.643,100.503,100.899,0.00305969,0.171088,20.8536,-30.2616,-0.0356415,0.0,0.0
220,54.75,25.562,30.0696,166.344,100.486,100.916,0.00307264,0.169177,20.8544,-30.3617,-0.0387551,0.0,0.0
231,57.5,25.7757,30.2327,165.114,100.499,101.039,0.00304522,0.165985,20.8566,-30.5219,-0.0485952,0.0,0.0
242,60.25,25.6059,30.215,165.473,100.509,100.95,0.00309496,0.162913,20.858,-30.6721,-0.0396707,0.0,0.0
253,63,24.8211,30.0106,163.93,100.5,101.456,0.00327689,0.160561,20.8597,-30.7421,-0.085831,0.0,0.0
264,65.75,25.4265,29.9651,171.436,100.501,100.741,0.00337627,0.156981,20.8622,-30.8823,-0.0216521,0.0,0.0
275,68.5,25.542,29.0898,169.1,100.507,100.974,0.00353932,0.154768,20.8646,-31.0024,-0.0420808,0.0,0.0
286,71.25,25.3633,29.2504,163.749,100.507,100.668,0.00381121,0.156467,20.863,-31.0825,-0.0144948,0.0,0.0
297,74,25.1588,29.2597,164.628,100.496,101.168,0.00372855,0.156685,20.8628,-31.2226,-0.0604527,0.0,0.0
308,76.75,25.3435,29.6743,165.044,100.478,101.416,0.00365276,0.155018,20.864,-31.3328,-0.0842232,0.0,0.0
319,79.5,25.6566,30.1578,161.965,100.477,100.662,0.00388181,0.152433,20.8659,-31.4128,-0.0166693,0.0,0.0
330,82.25,25.6869,29.8088,163.072,100.479,101.298,0.00431684,0.147899,20.8706,-31.573,-0.0736124,0.0,0.0
341,85,25.6356,29.3664,158.831,100.47,100.919,0.00478638,0.144311,20.8752,-31.6131,-0.0404774,0.0,0.0
352,87.75,25.6143,29.3331,165.827,100.461,101.551,0.00552893,0.14091,20.8794,-31.6731,-0.0977614,0.0,0.0
363,90.5,25.482,29.0471,165.083,100.462,101.013,0.00640126,0.135718,20.8834,-31.7732,-0.049545,0.0,0.0
374,93.25,25.2206,29.2342,166.511,100.463,100.567,0.00696631,0.132783,20.8866,-31.8833,-0.00936126,0.0,0.0
385,96,25.095,28.8923,162.309,100.459,100.531,0.00741363,0.13038,20.8888,-32.0435,-0.00649668,0.0,0.0
396,98.75,25.2251,28.6558,165.942,100.444,100.459,0.00808278,0.127832,20.8921,-32.0936,-0.00135903,0.0,0.0
407,101.5,25.2177,28.2672,168.847,100.456,100.242,0.00867493,0.124481,20.8937,-32.1336,0.01935,0.0,0.0
418,104.25,24.6645,27.7593,165.898,100.44,100.437,0.00880266,0.123191,20.8935,-32.3438,0.000314342,0.0,0.0
429,107,24.5382,27.5233,167.843,100.465,100.379,0.00871103,0.123101,20.893,-32.3338,0.00774843,0.0,0.0
440,109.75,24.4079,27.4822,165.09,100.449,100.363,0.0086925,0.12242,20.8939,-32.534,0.007797,0.0,0.0
451,112.5,24.5036,27.4958,164.647,100.456,101.008,0.00885169,0.121646,20.8949,-32.544,-0.0497313,0.0,0.0
462,115.25,24.1365,26.9979,164.338,100.466,99.8688,0.0091708,0.116573,20.9006,-32.5741,0.0540488,0.0,0.0
473,118,23.9826,27.1944,173.391,100.454,99.804,0.00951222,0.111212,20.905,-32.7042,0.0588099,0.0,0.0
484,120.75,23.6482,26.4066,165.202,100.464,100.05,0.00974373,0.108653,20.9078,-32.7743,0.037411,0.0,0.0
495,123.5,23.5219,25.9785,166.672,100.455,100.048,0.00983047,0.106786,20.9095,-32.8544,0.03673,0.0,0.0
506,126.25,23.6262,26.0523,167.355,100.455,99.6973,0.00992892,0.105631,20.9102,-32.9044,0.0686173,0.0,0.0
517,129,23.2541,25.9963,165.163,100.448,99.3119,0.00994598,0.103068,20.9136,-32.9845,0.103047,0.0,0.0
528,131.75,23.4772,25.8869,167.67,100.457,99.8754,0.00994188,0.0999315,20.917,-33.0245,0.052598,0.0,0.0
539,134.5,23.3502,25.1775,171.373,100.461,99.2856,0.0099303,0.0978684,20.9191,-33.0546,0.106673,0.0,0.0
550,137.25,21.5732,23.5785,165.094,100.459,99.0524,0.00982408,0.0968079,20.9204,-33.2147,0.127757,0.0,0.0
561,140,21.0754,22.9295,165.576,100.444,98.9781,0.00968746,0.0967774,20.9219,-33.1947,0.133223,0.0,0.0
572,142.75,21.6294,24.1838,168.573,100.439,98.9836,0.00947944,0.0962755,20.9224,-33.3248,0.132305,0.0,0.0
583,145.5,21.4541,23.3001,170.961,100.448,99.8521,0.00927887,0.0951884,20.9225,-33.3048,0.0539275,0.0,0.0
594,148.25,21.6607,23.9587,167.401,100.446,99.5016,0.00904381,0.0948311,20.9226,-33.3949,0.0855703,0.0,0.0
605,151,21.5763,23.5772,172.546,100.429,99.3716,0.00874627,0.0945524,20.9237,-33.495,0.0958918,0.0,0.0
616,153.75,21.1293,23.8155,166.578,100.431,99.9735,0.00832079,0.0947668,20.9245,-33.475,0.0413561,0.0,0.0
627,156.5,21.4772,23.3811,163.681,100.424,99.6012,0.00797802,0.0942041,20.9248,-33.5951,0.0745665,0.0,0.0
638,159.25,21.1333,23.5752,166.415,100.437,99.6832,0.00807834,0.0936527,20.9249,-33.6652,0.0682313,0.0,0.0
649,162,21.087,23.2921,167.774,100.409,99.5744,0.00815922,0.0944374,20.9249,-33.6352,0.0755928,0.0,0.0
660,164.75,21.2906,23.3056,166.617,100.405,99.5699,0.00797451,0.0951736,20.9249,-33.7253,0.0757096,0.0,0.0
671,167.5,21.2158,23.7,167.904,100.385,99.6695,0.00771681,0.0952814,20.9249,-33.7153,0.0648224,0.0,0.0
682,170.25,21.5692,23.8873,167.208,100.375,99.4328,0.00749729,0.0945846,20.9249,-33.8154,0.0854762,0.0,0.0
693,173,21.0692,23.4351,165.579,100.368,100.131,0.00739723,0.0945132,20.9249,-33.8954,0.021372,0.0,0.0
704,175.75,21.2097,23.223,165.167,100.371,100.103,0.00723951,0.0950327,20.9253,-33.8354,0.0241499,0.0,0.0
715,178.5,20.9608,23.3117,165.712,100.369,99.8941,0.0070489,0.0947473,20.9255,-33.9255,0.0429765,0.0,0.0
726,181.25,21.3155,23.435,169.268,100.37,100.084,0.0068494,0.0944346,20.9255,-33.8854,0.0258982,0.0,0.0
737,184,21.41,23.1318,167.316,100.36,99.7085,0.00673969,0.0939217,20.9256,-33.9855,0.0590482,0.0,0.0
748,186.75,21.7838,23.3426,165.726,100.357,100.17,0.00666608,0.094313,20.9256,-33.9655,0.0168877,0.0,0.0
759,189.5,21.3419,22.8387,164.746,100.374,99.8637,0.00661167,0.0945353,20.9241,-34.0156,0.0462131,0.0,0.0
770,192.25,21.1977,23.114,165.937,100.359,99.9937,0.00651225,0.0942667,20.9235,-33.9955,0.0330854,0.0,0.0
781,195,21.573,23.9837,168.415,100.357,100.021,0.00638756,0.0941569,20.9233,-34.1557,0.0303878,0.0,0.0
792,197.75,20.8977,23.5993,169.746,100.36,99.9168,0.00622459,0.094125,20.9226,-34.1357,0.0401302,0.0,0.0
803,200.5,21.4897,23.5697,169.193,100.37,100.17,0.00585127,0.0942327,20.9224,-34.2959,0.0180338,0.0,0.0
814,203.25,20.9994,23.0573,164.132,100.362,99.7803,0.00544132,0.0939031,20.9234,-34.2358,0.0526721,0.0,0.0
825,206,21.2655,23.2275,160.794,100.36,100.425,0.00543771,0.0944643,20.9238,-34.1857,-0.00589134,0.0,0.0
836,208.75,21.1351,23.2397,165.142,100.353,100.35,0.00550137,0.0939554,20.9239,-34.2758,0.000316502,0.0,0.0
847,211.5,21.4424,23.7833,165.228,100.351,100.522,0.00550222,0.0935551,20.9239,-34.2358,-0.0154313,0.0,0.0
858,214.25,21.3362,23.8384,165.882,100.355,100.18,0.00543816,0.0934813,20.9239,-34.3059,0.0157415,0.0,0.0
869,217,21.3572,23.4251,164.564,100.35,100.224,0.0052806,0.0936647,20.9239,-34.396,0.0114357,0.0,0.0
880,219.75,21.6616,23.9323,165.129,100.338,100.217,0.00514409,0.0932562,20.9245,-34.386,0.0109502,0.0,0.0
891,222.5,21.3833,23.6957,166.15,100.338,100.272,0.00504194,0.0929644,20.9257,-34.426,0.00592961,0.0,0.0
902,225.25,20.9793,23.8056,163.309,100.336,100.308,0.00503933,0.092207,20.9276,-34.4961,0.00254359,0.0,0.0
913,228,20.9803,22.9532,172.218,100.334,100.119,0.00498685,0.0918964,20.9282,-34.3559,0.0194255,0.0,0.0
924,230.75,21.058,23.8567,169.702,100.329,100.03,0.00503046,0.0922687,20.9271,-34.406,0.0271143,0.0,0.0
935,233.5,21.2883,23.713,165.615,100.314,100.05,0.00494087,0.0920607,20.9265,-34.4961,0.0238665,0.0,0.0
946,236.25,21.5403,23.4623,164.54,100.315,100.042,0.00487149,0.0913743,20.9263,-34.5261,0.0246745,0.0,0.0
957,239,21.1937,23.6627,163.733,100.317,100.565,0.00492526,0.0910579,20.9271,-34.5361,-0.0223511,0.0,0.0
968,241.75,21.1846,23.7235,165.192,100.36,100.121,0.0047299,0.0909248,20.9272,-34.5962,0.021663,0.0,0.0
979,244.5,21.5959,23.5256,166.502,100.43,100.541,,0.0908925,,-34.5962,-0.010049,0.0,0.0
990,247.25,20.7908,23.6886,164.095,100.496,100.448,,,,-34.6062,0.00424648,0.0,0.0
1001,250,21.1454,23.9122,167.494,100.545,100.641,,,,-34.6462,-0.00866328,0.0,0.0
1012,252.75,21.3606,23.8384,167.466,100.599,100.084,,,,-34.6462,0.0464463,0.0,0.0
1017,254,20.8054,23.5727,167.933,100.651,100.538,,,,-34.6662,0.0101377,0.0,0.0