File: 01_Data/Cotton_Raw/Cone/Raw_Cotton_Cone_HF50-Frame+GridScalar_200909_R3.csv
LABORATORY,FSRI
TEST IDENT,RawCotton_50_3
OPERATOR,Dow
MATERIAL,Raw cotton
ORIENTATION,Horizontal
HEAT FLUX,35
SURF AREA,0.01
C FACTOR,0.0376049
SPEC HOLDER DIFF,341.4
SPECIMEN MASS,5.2
SCAN TIME,0.25
O2 DELAY TIME,11
CO DELAY TIME,11
CO2 DELAY TIME,8
FLOW FACTOR,1
SCAN COUNT,847
TIME TO IGN,3.5
END OF TEST SCAN,367
END OF TEST TIME,91.75
TEST STATUS,1