File: 01_Data/Cotton_Raw/Cone/Raw_Cotton_Cone_HF35-Frame+GridScan_200909_R1.csv
Names,Time,Stack TC,Smoke TC,Exh Press,Smoke Comp,Smoke Meas,CO Meter,CO2 Meter,O2 Meter,Sample Mass,Ext Coeff,Start Test,Flame Verif
Chan Gain,,500,500,1,1,1,1,1,1,1,1,1.0,1.0
Offset,,0,0,0.136754,0,0,0,0,0,0,0,0.0,0.0
Gain,,1,1,25.011,13.7501,16.9893,1,1,1,1.00105,1.02582,1.0,1.0
Units,sec,C,C,Pa,%,%,%,%,%,g,/m,,
Baseline,,27.254,29.3184,167.069,102.649,103.332,8.26694e-05,0.0530394,20.9638,-900.749,-0.0596409,,
12,2.75,25.3242,27.5218,165.398,102.091,102.438,0.000317489,0.0542918,20.9628,18.6296,-0.0305974,0.0,0.0
24,5.75,25.6107,27.7655,167.257,102.055,100.522,0.00125211,0.055882,20.9606,18.5995,0.136183,0.0,0.0
36,8.75,25.5638,28.034,156.79,102.027,103.313,0.00200912,0.104245,20.9184,18.2992,-0.112646,0.0,1.0
48,11.75,27.9834,32.4762,162.585,102.115,104.055,0.00204694,0.155788,20.8695,18.1791,-0.169341,0.0,1.0
60,14.75,28.0692,32.9744,163.048,102.236,103.501,0.00193254,0.161879,20.8551,17.9789,-0.110611,0.0,0.0
72,17.75,28.6175,33.4706,167.224,102.338,103.535,0.00199026,0.164071,20.8501,17.8387,-0.104616,0.0,0.0
84,20.75,29.2324,35.0066,162.1,102.438,104.007,0.00205905,0.171263,20.8444,17.6886,-0.136796,0.0,0.0
96,23.75,29.4634,35.5182,164.65,102.488,103.669,0.00214615,0.18179,20.8335,17.4884,-0.103116,0.0,0.0
108,26.75,30.2936,36.3428,158.361,102.526,103.995,0.00222323,0.184924,20.8301,17.3682,-0.127982,0.0,0.0
120,29.75,30.572,36.8523,166.692,102.574,103.672,0.00226301,0.182883,20.831,17.188,-0.0958284,0.0,0.0
132,32.75,30.7385,36.5015,159.714,102.604,104.814,0.00252386,0.180355,20.8331,17.0679,-0.191695,0.0,0.0
144,35.75,31.4906,36.3667,162.509,102.631,104.124,0.00256337,0.17611,20.8372,16.9278,-0.129899,0.0,0.0
156,38.75,30.9474,36.9449,163.857,102.656,103.792,0.00235767,0.171735,20.8424,16.8076,-0.0990137,0.0,0.0
168,41.75,30.9828,37.1064,162.367,102.69,103.724,0.00221505,0.1661,20.8486,16.6475,-0.0901366,0.0,0.0
180,44.75,30.9991,36.3299,165.538,102.708,104.116,0.00228602,0.162993,20.8526,16.5374,-0.122533,0.0,0.0
192,47.75,30.5862,36.1476,162.038,102.712,103.8,0.00241273,0.162065,20.854,16.3972,-0.0948348,0.0,0.0
204,50.75,30.7979,36.4558,166.454,102.708,103.822,0.00237356,0.158864,20.8556,16.227,-0.0970612,0.0,0.0
216,53.75,30.3248,35.6681,166.146,102.702,103.632,0.00251362,0.156164,20.8584,16.187,-0.0811427,0.0,0.0
228,56.75,30.668,35.1317,168.127,102.682,104.629,0.00296277,0.152208,20.8621,16.0468,-0.168984,0.0,0.0
240,59.75,30.4311,35.4882,167.662,102.671,104.4,0.00343757,0.148695,20.8649,15.8566,-0.150255,0.0,0.0
252,62.75,30.0612,34.526,166.672,102.648,103.81,0.00419426,0.147339,20.8668,15.8266,-0.10136,0.0,0.0
264,65.75,29.6243,34.5109,161.816,102.615,103.84,0.00484188,0.143221,20.8711,15.7165,-0.106791,0.0,0.0
276,68.75,30.0583,34.4645,162.184,102.569,103.114,0.00565285,0.137782,20.8767,15.5763,-0.0476354,0.0,0.0
288,71.75,30.1079,34.4702,165.007,102.524,103.821,0.00694406,0.134128,20.8809,15.4662,-0.113079,0.0,0.0
300,74.75,29.727,33.8576,163.713,102.456,103.197,0.00782575,0.130707,20.883,15.3461,-0.0648618,0.0,0.0
312,77.75,29.7851,33.6459,167.62,102.408,103.946,0.00807173,0.126387,20.8862,15.1959,-0.134148,0.0,0.0
324,80.75,29.1724,33.117,160.142,102.352,103.291,0.00838006,0.124547,20.8879,15.0958,-0.0821489,0.0,0.0
336,83.75,28.8575,33.1439,163.084,102.275,102.907,0.00843671,0.124122,20.8896,15.1159,-0.055416,0.0,0.0
348,86.75,29.5376,32.7892,160.465,102.194,103.477,0.00850737,0.123746,20.8901,14.9056,-0.112231,0.0,0.0
360,89.75,29.5972,32.844,164.922,102.1,103.291,0.00862334,0.122195,20.8902,14.8356,-0.10443,0.0,0.0
372,92.75,29.12,33.173,165.732,101.977,102.767,0.00858216,0.121845,20.8902,14.7054,-0.06941,0.0,0.0
384,95.75,29.183,32.966,167.243,101.9,102.527,0.0085026,0.122075,20.8902,14.6654,-0.0551894,0.0,0.0
396,98.75,28.8625,32.6663,161.085,101.86,102.902,0.00840888,0.122669,20.8902,14.5052,-0.0916244,0.0,0.0
408,101.75,28.9095,32.6997,168.74,101.857,102.779,0.00841168,0.122622,20.8902,14.3651,-0.0811324,0.0,0.0
420,104.75,28.9777,32.0967,165.434,101.857,103.017,0.00822813,0.121742,20.89,14.3751,-0.101861,0.0,0.0
432,107.75,28.6825,32.3786,167.733,101.863,103.008,0.00794424,0.11934,20.8913,14.2249,-0.100535,0.0,0.0
444,110.75,29.1938,32.5173,161.644,101.881,102.835,0.00819098,0.122075,20.8908,14.2249,-0.0839201,0.0,0.0
456,113.75,29.0776,32.8523,165.135,101.887,102.667,0.00853795,0.122635,20.8892,14.0648,-0.068608,0.0,0.0
468,116.75,29.6012,32.8164,165.878,101.917,102.398,0.0083952,0.122224,20.8897,14.0748,-0.0424067,0.0,0.0
480,119.75,29.3725,32.9698,161.997,101.923,103.101,0.00827785,0.120243,20.8913,13.9747,-0.103421,0.0,0.0
492,122.75,28.9724,32.9645,166.544,101.934,102.893,0.0082777,0.119187,20.8922,13.8545,-0.0842492,0.0,0.0
504,125.75,29.0752,32.4247,163.462,101.96,102.595,0.00829127,0.117619,20.8944,13.7845,-0.0558888,0.0,0.0
516,128.75,29.2868,32.301,158.757,101.973,102.463,0.00828876,0.115921,20.8961,13.7544,-0.0431461,0.0,0.0
528,131.75,28.6889,32.4452,164.539,101.996,102.474,0.008294,0.114786,20.8968,13.6844,-0.0421394,0.0,0.0
540,134.75,28.6033,32.3584,163.208,102.006,102.335,0.00841338,0.113133,20.8986,13.5943,-0.0289674,0.0,0.0
552,137.75,28.7437,32.2737,163.993,102.037,103.176,0.00868705,0.110248,20.9016,13.4141,-0.0999465,0.0,0.0
564,140.75,28.2364,31.7997,160.507,102.047,103.37,0.00865206,0.107358,20.9046,13.4942,-0.115917,0.0,0.0
576,143.75,28.401,31.9274,162.091,102.055,102.605,0.00843585,0.104049,20.9073,13.4741,-0.0483946,0.0,0.0
588,146.75,28.6546,31.6344,167.306,102.061,102.55,0.00829083,0.101916,20.9099,13.324,-0.0430103,0.0,0.0
600,149.75,28.3822,31.2103,161.386,102.072,102.7,0.00834332,0.0994811,20.9124,13.314,-0.0551862,0.0,0.0
612,152.75,28.2347,31.1447,166.8,102.069,102.727,0.00835606,0.0973413,20.914,13.2839,-0.0578896,0.0,0.0
624,155.75,26.3364,29.6083,164.024,102.088,102.782,0.00812454,0.0962644,20.9146,13.2339,-0.0609563,0.0,0.0
636,158.75,26.7555,29.6352,169.031,102.092,102.605,0.00786991,0.0946282,20.9152,13.1738,-0.0451393,0.0,0.0
648,161.75,26.6272,29.3411,163.784,102.103,102.435,0.00772711,0.0935401,20.9159,13.1538,-0.0292429,0.0,0.0
660,164.75,26.5773,29.3455,166.821,102.112,102.639,0.00749959,0.0925321,20.9162,13.1038,-0.046356,0.0,0.0
672,167.75,26.4148,29.2833,165.963,102.111,102.377,0.00749748,0.0919474,20.9162,13.0537,-0.0234463,0.0,0.0
684,170.75,26.1599,29.1258,166.094,102.135,102.591,0.00732138,0.092872,20.9162,13.0337,-0.0400575,0.0,0.0
696,173.75,26.067,28.9803,164.265,102.152,102.715,0.00705875,0.0935724,20.9148,12.9836,-0.0494866,0.0,0.0
708,176.75,26.5566,29.2345,163.577,102.173,102.974,0.00672758,0.0933503,20.915,12.9136,-0.0702381,0.0,0.0
720,179.75,26.3096,29.2358,162.084,102.166,103.066,0.00620313,0.0930657,20.9168,12.8735,-0.0789192,0.0,0.0
732,182.75,26.0591,29.0902,165.756,102.178,102.948,0.00603765,0.0940852,20.9157,12.8835,-0.0675206,0.0,0.0
744,185.75,26.4804,29.3882,161.372,102.163,102.754,0.00597847,0.0951236,20.9153,12.8134,-0.051923,0.0,0.0
756,188.75,26.2187,29.4743,166.054,102.157,102.79,0.00592315,0.0949802,20.9152,12.7834,-0.0555812,0.0,0.0
768,191.75,26.2138,29.5299,162.359,102.143,102.602,0.00593696,0.0946654,20.9152,12.7734,-0.0403096,0.0,0.0
780,194.75,26.2404,29.5669,167.385,102.135,103.243,0.00570406,0.0944624,20.9152,12.7334,-0.0970405,0.0,0.0
792,197.75,26.5044,29.424,163.809,102.118,102.848,0.00552594,0.0945569,20.9152,12.7133,-0.0641012,0.0,0.0
804,200.75,26.561,29.8035,165.076,102.096,102.947,0.00549216,0.0937111,20.9154,12.6433,-0.0746841,0.0,0.0
816,203.75,26.6063,29.0319,166.783,102.08,103.241,0.00546043,0.0925735,20.9167,12.6132,-0.101704,0.0,0.0
828,206.75,26.7232,29.0579,167.423,102.059,102.977,0.0052938,0.0917351,20.9175,12.6132,-0.0805674,0.0,0.0
840,209.75,26.2572,29.5476,167.299,102.022,102.557,0.00493113,0.0914897,20.9177,12.5632,-0.0470892,0.0,0.0
852,212.75,26.1357,29.1743,163.464,101.972,102.739,0.00463431,0.0915184,20.9183,12.5732,-0.0674023,0.0,0.0
864,215.75,26.0778,29.5405,164.801,101.939,103.1,0.00464246,0.0925497,20.9185,12.5532,-0.101841,0.0,0.0
876,218.75,26.0386,29.0865,168.951,101.89,102.591,0.00462316,0.0924024,20.9186,12.5131,-0.061674,0.0,0.0
888,221.75,26.7389,29.4619,164.093,101.855,102.299,0.00446085,0.0911395,20.9197,12.4831,-0.0391853,0.0,0.0
900,224.75,26.3454,30.0009,164.057,101.934,102.486,0.00434878,0.0902753,20.9199,12.4631,-0.0486302,0.0,0.0
912,227.75,26.8296,29.1506,163.359,102.186,102.948,0.00426904,0.0893659,20.9202,12.4431,-0.066782,0.0,0.0
924,230.75,25.5727,29.51,165.379,102.391,103.038,0.00410129,0.0889114,20.9217,12.393,-0.0566493,0.0,0.0
936,233.75,26.2302,29.0963,163.999,102.558,103.465,0.00391835,0.0883431,20.9222,12.393,-0.0792536,0.0,0.0
948,236.75,26.5668,29.2523,165.768,102.659,103.811,0.00374979,0.0875914,20.9223,12.3329,-0.100448,0.0,0.0
960,239.75,26.0713,29.9419,167.214,102.713,103.297,0.00375491,0.0871811,20.9223,12.2829,-0.0509752,0.0,0.0
972,242.75,26.4931,29.9457,160.122,102.695,103.718,0.00376367,0.0870017,20.9223,12.2829,-0.0892379,0.0,0.0
984,245.75,26.2529,29.7365,163.902,102.603,103.611,0.00373804,0.0865072,20.9248,12.3029,-0.0879851,0.0,0.0
996,248.75,26.436,29.5568,162.374,102.429,103.091,0.00389508,0.0860255,20.9256,12.2428,-0.0579852,0.0,0.0
1008,251.75,26.6901,29.7377,166.545,102.167,102.984,0.00383408,0.0858866,20.9263,12.2128,-0.0716988,0.0,0.0
1020,254.75,26.5729,30.1915,161.513,102.074,102.903,0.00355509,0.0857186,20.9265,12.2028,-0.0727098,0.0,0.0
1032,257.75,26.3,29.4906,164.841,102.188,102.94,0.00337925,0.0854375,20.9265,12.2028,-0.0660358,0.0,0.0
1044,260.75,26.7505,29.8281,165.778,102.314,102.986,0.00325853,0.0848483,20.9266,12.1828,-0.0588716,0.0,0.0
1056,263.75,26.4006,29.8928,166.054,102.454,103.139,,0.0840825,,12.1427,-0.0599816,0.0,0.0
1068,266.75,26.1322,29.9212,163.856,102.589,103.526,,,,12.1427,-0.0817673,0.0,0.0
1080,269.75,26.3887,29.8885,167.24,102.715,103.723,,,,12.1027,-0.0878859,0.0,0.0
1092,272.75,26.4716,29.559,165.359,102.77,103.581,,,,12.1027,-0.0706938,0.0,0.0
1095,273.5,26.3721,29.9912,167.677,102.794,103.853,,,,12.0827,-0.0922231,0.0,0.0