File: 01_Data/Cotton_Raw/Cone/Raw_Cotton_Cone_HF35-Frame+GridScalar_200909_R2.csv
LABORATORY,FSRI
TEST IDENT,RawCotton_35_2
OPERATOR,Dow
MATERIAL,Raw cotton
ORIENTATION,Horizontal
HEAT FLUX,35
SURF AREA,0.01
C FACTOR,0.0376049
SPEC HOLDER DIFF,340.4
SPECIMEN MASS,5.7
SCAN TIME,0.25
O2 DELAY TIME,11
CO DELAY TIME,11
CO2 DELAY TIME,8
FLOW FACTOR,1
SCAN COUNT,951
TIME TO IGN,19
END OF TEST SCAN,471
END OF TEST TIME,117.75
TEST STATUS,1