File: 01_Data/Cotton_Raw/Cone/Raw_Cotton_Cone_HF25-Frame+GridScalar_200908_R2.csv
LABORATORY,FSRI
TEST IDENT,Raw_cotton_25_2
OPERATOR,Dow
MATERIAL,Raw cotton
ORIENTATION,Horizontal
HEAT FLUX,25
SURF AREA,0.01
C FACTOR,0.0387531
SPEC HOLDER DIFF,341.7
SPECIMEN MASS,7.1
SCAN TIME,0.25
O2 DELAY TIME,11
CO DELAY TIME,11
CO2 DELAY TIME,8
FLOW FACTOR,1
SCAN COUNT,1055
TIME TO IGN,40.25
END OF TEST SCAN,575
END OF TEST TIME,143.75
TEST STATUS,1