File: 01_Data/Cotton_Raw/Cone/Raw_Cotton_Cone_HF75-Frame+GridScan_200910_R1.csv
Names,Time,Stack TC,Smoke TC,Exh Press,Smoke Comp,Smoke Meas,CO Meter,CO2 Meter,O2 Meter,Sample Mass,Ext Coeff,Start Test,Flame Verif
Chan Gain,,500,500,1,1,1,1,1,1,1,1,1.0,1.0
Offset,,0,0,0.140826,0,0,0,0,0,0,0,0.0,0.0
Gain,,1,1,25.011,13.7435,17.0229,1,1,1,1.00129,1.0222,1.0,1.0
Units,sec,C,C,Pa,%,%,%,%,%,g,/m,,
Baseline,,34.8455,39.7336,168.723,102.441,105.114,0.000435624,0.0526617,20.9481,-898.4,-0.23086,,
10,2.25,33.1573,39.0348,153.138,102.358,105.889,0.00199388,0.158562,20.8728,16.5313,-0.304061,0.0,1.0
20,4.75,37.8167,45.3929,160.567,102.363,105.239,0.00217016,0.241672,20.7774,16.1808,-0.248535,0.0,1.0
30,7.25,38.8642,47.7989,162.344,102.36,105.226,0.00221574,0.282388,20.724,15.9005,-0.24765,0.0,0.0
40,9.75,41.0881,51.737,157.446,102.369,104.325,0.00258494,0.302038,20.7028,15.6101,-0.169661,0.0,0.0
50,12.25,42.919,53.5864,153.961,102.369,104.037,0.00292501,0.30039,20.6983,15.4199,-0.144935,0.0,0.0
60,14.75,43.3123,54.9268,157.288,102.391,103.418,0.00287106,0.28973,20.7067,15.1495,-0.0894589,0.0,0.0
70,17.25,43.5711,55.1196,158.47,102.39,104.227,0.00255295,0.280556,20.715,14.8792,-0.159426,0.0,0.0
80,19.75,44.2169,55.1567,159.298,102.411,104.498,0.00241257,0.272367,20.7236,14.749,-0.180881,0.0,0.0
90,22.25,44.0629,55.0826,160.245,102.417,104.81,0.00246459,0.267026,20.7292,14.5287,-0.207088,0.0,0.0
100,24.75,44.6157,55.1543,162.321,102.443,105.053,0.00237224,0.264291,20.7312,14.2684,-0.225543,0.0,0.0
110,27.25,43.9517,54.7597,164.604,102.437,105.819,0.00216293,0.260561,20.7348,14.0882,-0.291215,0.0,0.0
120,29.75,44.4798,54.7169,154.764,102.437,106.778,0.00195624,0.25633,20.7386,13.948,-0.372191,0.0,0.0
130,32.25,44.3052,55.2039,163.031,102.441,105.616,0.00180838,0.250369,20.7429,13.7377,-0.273701,0.0,0.0
140,34.75,44.3956,54.9093,159.277,102.443,105.728,0.00175005,0.245185,20.7468,13.5775,-0.282958,0.0,0.0
150,37.25,44.5664,55.6505,158.94,102.455,106.082,0.00172229,0.243888,20.7492,13.3973,-0.31192,0.0,0.0
160,39.75,45.086,55.1918,167.588,102.443,105.758,0.00172876,0.241716,20.7518,13.217,-0.285557,0.0,0.0
170,42.25,45.0903,55.762,164.066,102.464,105.635,0.00168625,0.238351,20.7543,13.0268,-0.27335,0.0,0.0
180,44.75,45.2991,55.0477,160.738,102.452,105.727,0.00153675,0.237212,20.7554,12.8666,-0.282179,0.0,0.0
190,47.25,45.0983,54.4173,155.099,102.459,106.687,0.00149835,0.239083,20.7524,12.6563,-0.362527,0.0,0.0
200,49.75,45.3138,54.93,163.589,102.454,106.349,0.00163125,0.24418,20.7448,12.5161,-0.334536,0.0,0.0
210,52.25,45.1858,55.3242,159.213,102.467,106.325,0.00178531,0.24927,20.7394,12.2958,-0.331419,0.0,0.0
220,54.75,45.6172,55.6152,161.224,102.45,106.287,0.00176892,0.252997,20.7357,12.0555,-0.329688,0.0,0.0
230,57.25,46.0178,55.793,155.147,102.464,106.927,0.00159794,0.254034,20.7344,11.9154,-0.382353,0.0,0.0
240,59.75,45.9693,56.4286,161.334,102.469,105.807,0.00148718,0.252343,20.7355,11.7752,-0.287413,0.0,0.0
250,62.25,46.0279,56.3935,157.495,102.467,106.458,0.00164046,0.246792,20.7391,11.5849,-0.342627,0.0,0.0
260,64.75,45.9901,56.0436,162.586,102.48,107.085,0.00194207,0.242409,20.7422,11.4748,-0.394155,0.0,0.0
270,67.25,46.1647,55.7034,158.483,102.464,106.133,0.00217043,0.23713,20.7488,11.3847,-0.315459,0.0,0.0
280,69.75,45.9848,55.3312,159.732,102.485,106.245,0.00245164,0.228144,20.7571,11.2144,-0.323135,0.0,0.0
290,72.25,45.9531,54.9702,162.679,102.468,106.672,0.00272813,0.218131,20.7656,11.1343,-0.36049,0.0,0.0
300,74.75,45.389,54.2061,161.183,102.477,106.46,0.00287746,0.21005,20.7754,11.0242,-0.341922,0.0,0.0
310,77.25,44.9296,53.0075,163.995,102.47,105.791,0.0029582,0.202128,20.7832,10.904,-0.285975,0.0,0.0
320,79.75,44.5895,52.7515,159.307,102.469,105.965,0.00315477,0.195933,20.7893,10.7739,-0.300823,0.0,0.0
330,82.25,44.6189,52.7109,158.922,102.46,106.185,0.00349642,0.189062,20.7973,10.7138,-0.320177,0.0,0.0
340,84.75,44.2546,51.8415,163.911,102.461,105.295,0.0038479,0.182022,20.8037,10.6437,-0.244633,0.0,0.0
350,87.25,43.8648,51.9691,160.88,102.444,105.645,0.00421622,0.176825,20.8094,10.5636,-0.275833,0.0,0.0
360,89.75,43.9976,51.3641,170.055,102.445,105.607,0.00456435,0.170949,20.8167,10.4835,-0.272576,0.0,0.0
370,92.25,43.6921,50.7389,157.684,102.439,105.925,0.00505201,0.16348,20.823,10.4334,-0.300044,0.0,0.0
380,94.75,43.7208,50.8003,165.089,102.441,106.076,0.00558502,0.156676,20.8294,10.3634,-0.312656,0.0,0.0
390,97.25,43.4095,49.8623,165.531,102.442,106.209,0.00600733,0.148628,20.8376,10.2933,-0.323773,0.0,0.0
400,99.75,43.4253,49.8071,168.648,102.445,105.053,0.0063487,0.141827,20.8444,10.2432,-0.225396,0.0,0.0
410,102.25,42.6039,48.5281,163.234,102.437,105.622,0.00660568,0.135827,20.8508,10.2132,-0.274517,0.0,0.0
420,104.75,42.3753,48.696,163.521,102.414,105.423,0.00692108,0.129907,20.858,10.1631,-0.259672,0.0,0.0
430,107.25,42.1322,47.7299,166.803,102.414,105.494,0.00743739,0.125391,20.8625,10.1631,-0.26568,0.0,0.0
440,109.75,41.9043,47.2888,163.292,102.387,105.598,0.0079282,0.122603,20.8654,10.113,-0.276937,0.0,0.0
450,112.25,41.6792,47.0322,171.016,102.385,104.831,0.00822004,0.120208,20.8687,10.0329,-0.211649,0.0,0.0
460,114.75,39.9508,45.4987,164.832,102.343,105.139,0.00825093,0.11825,20.8709,10.0429,-0.241634,0.0,0.0
470,117.25,40.0361,44.7239,162.163,102.347,106.054,0.0082485,0.115433,20.8727,10.0429,-0.319031,0.0,0.0
480,119.75,39.8029,44.8204,167.889,102.315,105.313,0.00829401,0.11125,20.8777,9.99287,-0.258964,0.0,0.0
490,122.25,39.1926,44.3839,164.497,102.306,104.786,0.00821921,0.106427,20.883,9.96284,-0.214772,0.0,0.0
500,124.75,39.4178,44.2943,164.623,102.313,105.632,0.0081724,0.103746,20.8869,9.89275,-0.286235,0.0,0.0
510,127.25,39.0957,44.5241,165.417,102.3,105.157,0.00807028,0.10104,20.889,9.90276,-0.247052,0.0,0.0
520,129.75,39.2617,43.9471,167.325,102.276,105.363,0.00794134,0.100145,20.8897,9.84268,-0.266636,0.0,0.0
530,132.25,39.2971,44.0286,166.715,102.262,105.218,0.00776689,0.0995333,20.8908,9.85269,-0.255505,0.0,0.0
540,134.75,38.3662,43.6236,168.94,102.238,104.803,0.00760792,0.0990482,20.8919,9.83267,-0.222188,0.0,0.0
550,137.25,38.552,43.9277,164.199,102.223,105.897,0.00752563,0.0989008,20.8922,9.73254,-0.316596,0.0,0.0
560,139.75,38.8599,44.102,164.19,102.208,105.155,0.00739034,0.0986404,20.8923,9.74255,-0.254929,0.0,0.0
570,142.25,39.1961,44.1643,168.286,102.191,105.477,0.00737583,0.0981466,20.8922,9.7025,-0.283824,0.0,0.0
580,144.75,39.1279,44.0325,164.488,102.193,104.646,0.0075975,0.0973985,20.8937,9.73254,-0.212663,0.0,0.0
590,147.25,38.5623,44.1436,158.091,102.206,105.144,0.00771519,0.096652,20.8942,9.6224,-0.254138,0.0,0.0
600,149.75,39.0793,44.5672,164.607,102.222,104.788,0.00759188,0.0958383,20.8954,9.60237,-0.22226,0.0,0.0
610,152.25,38.8863,44.6459,161.603,102.201,104.807,0.00727734,0.0951328,20.8963,9.6224,-0.225708,0.0,0.0
620,154.75,38.9337,44.7139,161.017,102.251,104.958,0.00707819,0.0958169,20.8956,9.61238,-0.234335,0.0,0.0
630,157.25,38.6247,44.4453,172.226,102.27,105.297,0.00688566,0.0979057,20.8936,9.56232,-0.261533,0.0,0.0
640,159.75,38.7677,44.5863,166.604,102.292,105.043,0.0068312,0.0990676,20.8913,9.59236,-0.237926,0.0,0.0
650,162.25,39.7146,44.553,166.098,102.316,105.031,0.00677876,0.102518,20.8896,9.52227,-0.234847,0.0,0.0
660,164.75,39.5872,44.7954,169.034,102.345,105.725,0.00654242,0.104252,20.8876,9.52227,-0.291332,0.0,0.0
670,167.25,39.3749,44.5812,165.594,102.348,105.974,0.00637889,0.101389,20.8897,9.49223,-0.312191,0.0,0.0
680,169.75,39.4632,44.5487,165.79,102.354,105.304,0.00635242,0.0987208,20.892,9.49223,-0.254837,0.0,0.0
690,172.25,39.5432,45.0608,163,102.376,105.031,0.0061324,0.0949965,20.8961,9.4722,-0.229512,0.0,0.0
700,174.75,39.7724,45.5298,163.676,102.376,105.848,0.00596993,0.0935086,20.8978,9.43215,-0.299041,0.0,0.0
710,177.25,38.865,44.8306,164.05,102.401,105.765,0.00603548,0.0929156,20.8989,9.42214,-0.289874,0.0,0.0
720,179.75,38.8367,44.6998,164.814,102.393,105.261,0.00605146,0.0921291,20.8999,9.3921,-0.247669,0.0,0.0
730,182.25,38.88,44.3921,170.468,102.411,105.39,0.00611698,0.0915372,20.9002,9.37208,-0.257139,0.0,0.0
740,184.75,39.0275,44.7754,161.955,102.402,105.732,0.0062635,0.0921515,20.9003,9.37208,-0.286953,0.0,0.0
750,187.25,39.63,44.9394,162.294,102.429,105.227,0.0061619,0.0919036,20.8999,9.25192,-0.24167,0.0,0.0
760,189.75,39.7291,44.726,161.177,102.41,106.37,0.0060081,0.0910238,20.9005,9.23189,-0.340193,0.0,0.0
770,192.25,39.3425,44.1609,166.278,102.429,105.097,0.00596565,0.0908704,20.9009,9.29197,-0.230515,0.0,0.0
780,194.75,39.1455,44.4066,164.227,102.419,106.321,0.00590921,0.0897384,20.9019,9.15179,-0.335297,0.0,0.0
790,197.25,38.9115,44.1738,163.121,102.436,106.011,0.00575869,0.0886248,20.9029,9.34204,-0.307679,0.0,0.0
800,199.75,39.0944,44.7129,163.355,102.421,105.612,0.00545122,0.0869223,20.9033,9.18183,-0.27511,0.0,0.0
810,202.25,38.9516,44.4547,168.509,102.444,105.873,0.00523491,0.0852469,20.9064,9.33202,-0.295249,0.0,0.0
820,204.75,39.2021,44.6713,163.29,102.445,105.618,0.00519989,0.0837337,20.9085,9.18183,-0.27351,0.0,0.0
830,207.25,39.445,45.215,164.117,102.455,105.058,0.00517847,0.0831783,20.9097,9.22188,-0.224952,0.0,0.0
840,209.75,39.011,44.8633,163.526,102.457,105.276,0.00510628,0.0824821,20.9108,9.21187,-0.243378,0.0,0.0
850,212.25,39.4786,45.1872,168.822,102.456,105.857,0.00508928,0.0814975,20.9121,9.25192,-0.292857,0.0,0.0
860,214.75,39.0314,45.6669,164.056,102.473,105.837,0.00499168,0.0800198,20.9134,9.23189,-0.289644,0.0,0.0
870,217.25,39.7597,45.0807,165.052,102.468,105.537,0.00479912,0.0790905,20.9138,9.17182,-0.264608,0.0,0.0
880,219.75,39.6083,44.4542,165.553,102.472,105.504,0.00456043,0.0795523,20.914,9.19184,-0.26149,0.0,0.0
890,222.25,39.6498,44.9847,164.804,102.46,105.259,,0.0794235,,9.20186,-0.241616,0.0,0.0
900,224.75,39.6896,45.4331,161.577,102.48,105.137,,0.0785167,,9.1618,-0.22953,0.0,0.0
910,227.25,39.5158,45.5412,166.171,102.457,106.015,,,,9.15179,-0.306114,0.0,0.0
920,229.75,39.5775,45.0959,164.859,102.475,106.163,,,,9.10173,-0.317006,0.0,0.0
930,232.25,39.732,45.9288,164.876,102.463,105.575,,,,9.10173,-0.268307,0.0,0.0
933,233,39.6586,45.4324,165.074,102.471,105.315,,,,9.13177,-0.245485,0.0,0.0