File: 01_Data/Pallet_Wood/STA/N2/10K_min/Pallet_Wood_STA_N2_10KData_220413_R2.csv
##Temp./Â°C,Time/min,Mass loss(subtr.2)/mg,DSC(subtr.2)/(mW/mg),Sensit./(uV/mW)
49.75,10.01,-0.00362,0.0219182,1.06051
52.85,11.30475,-0.00272609,0.14795,1.05986
55.95,11.7456,-0.002352191,0.20873,1.0592
59.05,12.12118,-0.002021468,0.24699,1.05852
62.15,12.47372,-0.002088801,0.27146,1.05782
65.25,12.81526,-0.001661495,0.28965,1.05711
68.35,13.15065,-0.00339807,0.30468,1.05637
71.45,13.4812,-0.003555949,0.31714,1.05562
74.55,13.8098,-0.006151569,0.33,1.05486
77.65,14.1327,-0.006473865,0.34187,1.05407
80.75,14.45318,-0.00881612,0.35091,1.05327
83.85,14.7714,-0.0107718,0.35575,1.05244
86.95,15.0859,-0.01207,0.36009,1.05161
90.05,15.39846,-0.01339034,0.35617,1.05075
93.15,15.70979,-0.01469951,0.35249,1.04988
96.25,16.0187,-0.01470061,0.35247,1.04899
99.35,16.32467,-0.01599186,0.34738,1.04808
102.45,16.63041,-0.01569,0.34226,1.04716
105.55,16.93457,-0.01594776,0.34021,1.04622
108.65,17.23838,-0.01601923,0.34122,1.04526
111.75,17.54165,-0.01733214,0.34084,1.04429
114.85,17.8444,-0.01733524,0.33747,1.0433
117.95,18.14752,-0.01688484,0.34074,1.04229
121.05,18.45,-0.01601875,0.34205,1.04127
124.15,18.7511,-0.01609472,0.34373,1.04023
127.25,19.05341,-0.0160105,0.34709,1.03917
130.35,19.35492,-0.01597341,0.351,1.0381
133.45,19.65556,-0.01634999,0.35386,1.03701
136.55,19.9561,-0.01470326,0.35872,1.0359
139.65,20.25545,-0.01469956,0.35991,1.03478
142.75,20.5545,-0.015355,0.36588,1.03365
145.85,20.8521,-0.01465601,0.36976,1.03249
148.95,21.1507,-0.01467924,0.37446,1.03133
152.05,21.44827,-0.01469112,0.37795,1.03014
155.15,21.74565,-0.01338013,0.38147,1.02894
158.25,22.04278,-0.01338009,0.38629,1.02773
161.35,22.33985,-0.01273005,0.38913,1.0265
164.45,22.63691,-0.01174593,0.39756,1.02525
167.55,22.93379,-0.01297689,0.40128,1.02399
170.65,23.23035,-0.01273,0.40434,1.02271
173.75,23.52659,-0.01470037,0.41087,1.02142
176.85,23.82333,-0.01338028,0.41248,1.02012
179.95,24.11962,-0.01370987,0.41416,1.01879
183.05,24.41587,-0.01435843,0.42058,1.01746
186.15,24.7115,-0.01338968,0.42467,1.01611
189.25,25.00731,-0.01471,0.42554,1.01474
192.35,25.3032,-0.01339047,0.43105,1.01336
195.45,25.5994,-0.01535424,0.43598,1.01197
198.55,25.89452,-0.01602,0.44415,1.01056
201.65,26.19065,-0.01635,0.44652,1.00913
204.75,26.48708,-0.01767,0.44954,1.0077
207.85,26.7828,-0.01766995,0.45374,1.00624
210.95,27.0791,-0.01831767,0.45837,1.00478
214.05,27.3747,-0.02095012,0.46315,1.0033
217.15,27.67075,-0.02359001,0.46816,1.0018
220.25,27.9661,-0.02687869,0.47518,1.0003
223.35,28.2619,-0.02950923,0.48154,0.99877
226.45,28.55712,-0.0328,0.48319,0.99724
229.55,28.85267,-0.03684181,0.48796,0.99569
232.65,29.14801,-0.0410163,0.4936,0.99413
235.75,29.44339,-0.04722678,0.49785,0.99255
238.85,29.73937,-0.05068438,0.49607,0.99096
241.95,30.0354,-0.05952197,0.50074,0.98936
245.05,30.33127,-0.06837032,0.50703,0.98775
248.15,30.62695,-0.07517556,0.50912,0.98612
251.25,30.92278,-0.08811984,0.5157,0.98448
254.35,31.2189,-0.09983734,0.517,0.98282
257.45,31.5149,-0.11494,0.52111,0.98116
260.55,31.8108,-0.13116,0.52815,0.97948
263.65,32.10668,-0.1513,0.53351,0.97779
266.75,32.40218,-0.17218,0.54492,0.97608
269.85,32.6991,-0.19846,0.55555,0.97436
272.95,32.99568,-0.22617,0.5621,0.97264
276.05,33.2926,-0.26024,0.56817,0.97089
279.15,33.5892,-0.29693,0.57694,0.96914
282.25,33.88558,-0.33781,0.58023,0.96738
285.35,34.18165,-0.3822,0.58491,0.9656
288.45,34.47828,-0.42829,0.58168,0.96381
291.55,34.77459,-0.47762,0.58033,0.96201
294.65,35.07134,-0.52997,0.57969,0.96019
297.75,35.36788,-0.58152,0.57618,0.95837
300.85,35.66469,-0.63497,0.57653,0.95653
303.95,35.9619,-0.68854,0.57655,0.95469
307.05,36.259,-0.74443,0.57847,0.95283
310.15,36.55637,-0.79969,0.58338,0.95096
313.25,36.85351,-0.85656,0.58931,0.94908
316.35,37.15072,-0.91576,0.60176,0.94718
319.45,37.4482,-0.97686,0.61371,0.94528
322.55,37.7466,-1.03926,0.63053,0.94337
325.65,38.04463,-1.10294,0.6438,0.94144
328.75,38.344,-1.17108,0.66043,0.93951
331.85,38.64315,-1.23868,0.68027,0.93756
334.95,38.94251,-1.31198,0.70058,0.9356
338.05,39.24207,-1.3851,0.7275,0.93364
341.15,39.5415,-1.46481,0.75799,0.93166
344.25,39.84078,-1.54955,0.7908,0.92967
347.35,40.14123,-1.64026,0.83032,0.92768
350.45,40.442,-1.73881,0.87697,0.92567
353.55,40.7423,-1.84415,0.92611,0.92365
356.65,41.04353,-1.95939,0.98166,0.92162
359.75,41.34472,-2.08314,1.02475,0.91958
362.85,41.64548,-2.21346,1.05803,0.91754
365.95,41.9469,-2.35152,1.07039,0.91548
369.05,42.2481,-2.4877,1.04482,0.91341
372.15,42.5482,-2.61808,0.96679,0.91134
375.25,42.84811,-2.73114,0.84039,0.90925
378.35,43.14772,-2.82186,0.66761,0.90716
381.45,43.44648,-2.88938,0.48989,0.90506
384.55,43.74568,-2.9283,0.33426,0.90294
387.65,44.04553,-2.95198,0.23755,0.90082
390.75,44.34617,-2.96451,0.1925,0.89869
393.85,44.6471,-2.97547,0.17682,0.89655
396.95,44.9486,-2.98336,0.16451,0.8944
400.05,45.25031,-2.9905,0.15361,0.89225
403.15,45.55235,-2.99377,0.14429,0.89008
406.25,45.8546,-3.00817,0.13877,0.88791
409.35,46.15687,-3.01676,0.1356,0.88573
412.45,46.45916,-3.0223,0.12794,0.88354
415.55,46.76169,-3.02998,0.12895,0.88134
418.65,47.06497,-3.0373,0.122,0.87913
421.75,47.36842,-3.04416,0.12318,0.87692
424.85,47.6721,-3.05254,0.12145,0.87469
427.95,47.97598,-3.05972,0.12423,0.87246
431.05,48.27961,-3.0665,0.12644,0.87022
434.15,48.5839,-3.07474,0.13468,0.86798
437.25,48.88848,-3.08031,0.13851,0.86572
440.35,49.19342,-3.08571,0.14886,0.86346
443.45,49.49827,-3.09259,0.15556,0.8612
446.55,49.80317,-3.09806,0.16206,0.85892
449.65,50.1081,-3.10324,0.16525,0.85664
452.75,50.41343,-3.10753,0.17195,0.85435
455.85,50.71883,-3.11245,0.17893,0.85205
458.95,51.02424,-3.11773,0.18634,0.84974
462.05,51.32945,-3.12167,0.18888,0.84743
465.15,51.63439,-3.12453,0.19621,0.84512
468.25,51.94014,-3.12924,0.20195,0.84279
471.35,52.24535,-3.13319,0.20367,0.84046
474.45,52.5512,-3.13714,0.20834,0.83812
477.55,52.8565,-3.13914,0.21314,0.83578
480.65,53.16203,-3.14205,0.21327,0.83343
483.75,53.4685,-3.14602,0.22307,0.83107
486.85,53.7749,-3.14997,0.22832,0.82871
489.95,54.08145,-3.1525,0.24141,0.82634
493.05,54.38754,-3.15655,0.25192,0.82396
496.15,54.6937,-3.15787,0.25417,0.82158
499.25,55.00014,-3.1605,0.26064,0.81919
502.35,55.3069,-3.16308,0.26492,0.8168
505.45,55.61384,-3.16745,0.26761,0.8144
508.55,55.92065,-3.17105,0.26685,0.812
511.65,56.2277,-3.17234,0.26473,0.80959
514.75,56.53524,-3.17529,0.26558,0.80717
517.85,56.8432,-3.17724,0.26105,0.80475
520.95,57.151,-3.18054,0.26428,0.80232
524.05,57.45936,-3.18192,0.25982,0.79989
527.15,57.7684,-3.18583,0.25058,0.79746
530.25,58.0765,-3.18847,0.24779,0.79501
533.35,58.38527,-3.19364,0.24732,0.79257
536.45,58.69341,-3.1912,0.24556,0.79012
539.55,59.0014,-3.19599,0.24604,0.78766
542.65,59.3089,-3.19536,0.24237,0.7852
545.75,59.61704,-3.19823,0.24595,0.78273
548.85,59.9257,-3.20119,0.24345,0.78026
551.95,60.23409,-3.20176,0.23916,0.77779
555.05,60.54257,-3.20403,0.2346,0.77531
558.15,60.85108,-3.20783,0.23139,0.77283
561.25,61.16029,-3.20943,0.22726,0.77034
564.35,61.4706,-3.21216,0.22437,0.76785
567.45,61.7806,-3.21353,0.22059,0.76535
570.55,62.09095,-3.21567,0.21281,0.76285
573.65,62.40106,-3.21831,0.21086,0.76035
576.75,62.71148,-3.22138,0.20477,0.75784
579.85,63.0214,-3.22159,0.20418,0.75533
582.95,63.33177,-3.22455,0.20073,0.75281
586.05,63.6424,-3.22564,0.20087,0.75029
589.15,63.95304,-3.22587,0.19962,0.74777
592.25,64.26392,-3.22828,0.19696,0.74525
595.35,64.57471,-3.22873,0.19893,0.74272
598.45,64.88595,-3.23148,0.19825,0.74019
601.55,65.19722,-3.23542,0.19176,0.73765
604.65,65.50815,-3.23686,0.19311,0.73511
607.75,65.8193,-3.23811,0.18859,0.73257
610.85,66.13024,-3.23882,0.20001,0.73003
613.95,66.44103,-3.23947,0.20052,0.72748
617.05,66.752,-3.24042,0.20576,0.72493
620.15,67.06387,-3.24276,0.20546,0.72238
623.25,67.37472,-3.24408,0.21143,0.71982
626.35,67.68566,-3.24517,0.21734,0.71726
629.45,67.99589,-3.24672,0.21908,0.7147
632.55,68.3066,-3.24666,0.22306,0.71214
635.65,68.6182,-3.24869,0.22613,0.70957
638.75,68.9289,-3.25066,0.23191,0.707
641.85,69.2397,-3.24967,0.23689,0.70443
644.95,69.55153,-3.2523,0.2431,0.70186
648.05,69.86264,-3.2533,0.24858,0.69929
651.15,70.17472,-3.25306,0.25228,0.69671
654.25,70.4866,-3.25428,0.25908,0.69413
657.35,70.79813,-3.25428,0.26325,0.69155
660.45,71.1097,-3.25655,0.26184,0.68897
663.55,71.42094,-3.2556,0.26489,0.68639
666.65,71.73345,-3.25659,0.26717,0.6838
669.75,72.04597,-3.25658,0.2655,0.68122
672.85,72.35764,-3.25526,0.27138,0.67863
675.95,72.66922,-3.25724,0.27542,0.67604
679.05,72.98037,-3.26012,0.27994,0.67345
682.15,73.2923,-3.25826,0.283,0.67086
685.25,73.60423,-3.25587,0.28797,0.66827
688.35,73.91751,-3.26086,0.2921,0.66567
691.45,74.23196,-3.26174,0.29566,0.66308
694.55,74.54551,-3.26042,0.29642,0.66048
697.65,74.85956,-3.26054,0.29804,0.65789
700.75,75.17319,-3.25944,0.30305,0.65529
703.85,75.48629,-3.26185,0.30817,0.65269
706.95,75.79946,-3.26378,0.31475,0.65009
710.05,76.11281,-3.2618,0.31783,0.64749
713.15,76.42599,-3.26373,0.3225,0.64489
716.25,76.73961,-3.26513,0.32638,0.64229
719.35,77.05364,-3.2665,0.32836,0.63969
722.45,77.36695,-3.26514,0.33294,0.63709
725.55,77.6798,-3.26578,0.33828,0.63449
728.65,77.99381,-3.26709,0.34015,0.63189
731.75,78.30895,-3.26809,0.34274,0.62929
734.85,78.62318,-3.26843,0.33948,0.62669
737.95,78.9378,-3.26909,0.34482,0.62408
741.05,79.25215,-3.27041,0.34279,0.62148
744.15,79.56582,-3.26909,0.35485,0.61888
747.25,79.8798,-3.2704,0.35867,0.61628
750.35,80.19389,-3.27041,0.36231,0.61368
753.45,80.5073,-3.27008,0.36569,0.61108
756.55,80.82219,-3.27172,0.36434,0.60848
759.65,81.13591,-3.27317,0.36949,0.60589
762.75,81.45013,-3.27304,0.36664,0.60329
765.85,81.76448,-3.27303,0.36225,0.60069
768.95,82.0804,-3.27337,0.35756,0.59809
772.05,82.397,-3.27436,0.35853,0.5955
775.15,82.71336,-3.27402,0.36252,0.5929
778.25,83.029,-3.276,0.36157,0.59031
781.35,83.34427,-3.27483,0.3613,0.58772
784.45,83.65907,-3.27775,0.36318,0.58513
787.55,83.97322,-3.27776,0.36387,0.58254
790.65,84.28711,-3.27686,0.36208,0.57995
793.75,84.6014,-3.2792,0.36526,0.57736
796.85,84.91547,-3.27874,0.36514,0.57477
797.65,84.9966,-3.27874,0.3638,0.57411