File: 01_Data/Pallet_Wood/STA/N2/10K_min/Pallet_Wood_STA_N2_10KData_220412_R1.csv
##Temp./Â°C,Time/min,Mass loss(subtr.2)/mg,DSC(subtr.2)/(mW/mg),Sensit./(uV/mW)
49.658,10.00917,-0.06055,0.0282296,1.06053
52.858,11.32037,-0.06359495,0.13525,1.05986
56.058,11.7722,-0.06437127,0.18653,1.05918
59.258,12.15767,-0.06564273,0.21479,1.05848
62.458,12.52052,-0.06908655,0.2357,1.05775
65.658,12.87242,-0.07049429,0.2533,1.05701
68.858,13.21805,-0.07216973,0.26411,1.05625
72.058,13.559,-0.07447929,0.27704,1.05547
75.258,13.8965,-0.07695653,0.29131,1.05468
78.458,14.2301,-0.07704452,0.30097,1.05386
81.658,14.5603,-0.08137596,0.30814,1.05303
84.858,14.88693,-0.08105915,0.31318,1.05217
88.058,15.2096,-0.08368997,0.31003,1.0513
91.258,15.53041,-0.08630812,0.30973,1.05041
94.458,15.84976,-0.08927996,0.30234,1.04951
97.658,16.1664,-0.09032719,0.29624,1.04858
100.858,16.48293,-0.09163668,0.29003,1.04764
104.058,16.79785,-0.09291166,0.28396,1.04667
107.258,17.11133,-0.09422,0.28214,1.04569
110.458,17.42447,-0.09552995,0.28031,1.0447
113.658,17.7376,-0.09688989,0.27747,1.04368
116.858,18.0498,-0.09552691,0.27747,1.04265
120.058,18.3628,-0.09686005,0.27717,1.0416
123.258,18.6749,-0.09817576,0.27997,1.04053
126.458,18.98564,-0.09817012,0.28171,1.03944
129.658,19.29614,-0.09817,0.2811,1.03834
132.858,19.6064,-0.09951227,0.28554,1.03722
136.058,19.91635,-0.10085,0.2882,1.03608
139.258,20.22547,-0.09951323,0.28978,1.03493
142.458,20.5346,-0.10072,0.29552,1.03375
145.658,20.84222,-0.10098,0.29906,1.03257
148.858,21.1502,-0.10205,0.30306,1.03136
152.058,21.4576,-0.1042,0.30573,1.03014
155.258,21.76548,-0.1031,0.31213,1.0289
158.458,22.0725,-0.10366,0.31432,1.02765
161.658,22.37963,-0.10427,0.31446,1.02637
164.858,22.6868,-0.10332,0.32035,1.02509
168.058,22.99352,-0.10333,0.32152,1.02378
171.258,23.30015,-0.10466,0.32839,1.02246
174.458,23.60644,-0.10596,0.33163,1.02113
177.658,23.91275,-0.10475,0.33827,1.01977
180.858,24.21895,-0.10595,0.34138,1.0184
184.058,24.5246,-0.10794,0.34719,1.01702
187.258,24.83004,-0.10627,0.34887,1.01562
190.458,25.13539,-0.1089,0.35188,1.01421
193.658,25.4408,-0.11155,0.35543,1.01277
196.858,25.74643,-0.11025,0.36049,1.01133
200.058,26.05174,-0.1109,0.36491,1.00987
203.258,26.35737,-0.11155,0.36763,1.00839
206.458,26.6628,-0.11337,0.37122,1.0069
209.658,26.96772,-0.11725,0.37848,1.00539
212.858,27.2725,-0.1185,0.38227,1.00387
216.058,27.5776,-0.12121,0.38417,1.00233
219.258,27.8828,-0.12415,0.38947,1.00078
222.458,28.1875,-0.1268,0.39368,0.99921
225.658,28.4926,-0.12976,0.39916,0.99763
228.858,28.79787,-0.13373,0.40521,0.99604
232.058,29.10278,-0.13975,0.41446,0.99443
235.258,29.40871,-0.1438,0.4181,0.9928
238.458,29.7146,-0.151,0.41842,0.99117
241.658,30.02021,-0.15424,0.41757,0.98951
244.858,30.3263,-0.1662,0.42041,0.98785
248.058,30.631,-0.17481,0.4254,0.98617
251.258,30.9359,-0.18969,0.42792,0.98447
254.458,31.2415,-0.20409,0.43494,0.98277
257.658,31.54615,-0.21782,0.43754,0.98105
260.858,31.8519,-0.23425,0.44254,0.97931
264.058,32.15733,-0.25534,0.44859,0.97756
267.258,32.46261,-0.27637,0.4575,0.9758
270.458,32.76896,-0.30458,0.46601,0.97403
273.658,33.07528,-0.33441,0.47141,0.97224
276.858,33.38238,-0.36789,0.47964,0.97044
280.058,33.68874,-0.40797,0.48132,0.96862
283.258,33.99537,-0.45009,0.48363,0.9668
286.458,34.30225,-0.49495,0.48254,0.96496
289.658,34.60835,-0.54298,0.48174,0.96311
292.858,34.9144,-0.5946,0.47855,0.96124
296.058,35.22061,-0.64622,0.47153,0.95937
299.258,35.5272,-0.69977,0.46984,0.95748
302.458,35.83355,-0.75128,0.46967,0.95558
305.658,36.13982,-0.80704,0.47121,0.95366
308.858,36.44565,-0.86339,0.4745,0.95174
312.058,36.75206,-0.92197,0.48081,0.9498
315.258,37.05903,-0.98067,0.48865,0.94785
318.458,37.36655,-1.03943,0.4995,0.94589
321.658,37.67391,-1.10203,0.51254,0.94392
324.858,37.982,-1.16579,0.5267,0.94194
328.058,38.2903,-1.23351,0.54394,0.93994
331.258,38.59864,-1.30316,0.56192,0.93793
334.458,38.90811,-1.3753,0.58089,0.93592
337.658,39.21683,-1.45129,0.60685,0.93389
340.858,39.52646,-1.52735,0.63484,0.93185
344.058,39.83644,-1.6173,0.67031,0.9298
347.258,40.14667,-1.70809,0.7078,0.92773
350.458,40.4565,-1.80627,0.75489,0.92566
353.658,40.7671,-1.91423,0.80845,0.92358
356.858,41.0775,-2.02904,0.8595,0.92149
360.058,41.3882,-2.15465,0.90157,0.91938
363.258,41.69915,-2.28969,0.93451,0.91727
366.458,42.00991,-2.42545,0.93295,0.91514
369.658,42.32105,-2.5604,0.89182,0.91301
372.858,42.63165,-2.68576,0.79661,0.91086
376.058,42.94137,-2.79432,0.65219,0.90871
379.258,43.25057,-2.87604,0.47189,0.90654
382.458,43.5599,-2.93356,0.29629,0.90437
385.658,43.86911,-2.96371,0.16358,0.90219
388.858,44.17922,-2.98138,0.09419235,0.89999
392.058,44.48887,-2.99287,0.06196008,0.89779
395.258,44.7999,-3.00133,0.04880968,0.89558
398.458,45.11063,-3.01198,0.0398835,0.89336
401.658,45.4222,-3.01946,0.03393844,0.89113
404.858,45.7346,-3.02579,0.02311997,0.88889
408.058,46.04704,-3.03646,0.01861576,0.88664
411.258,46.3594,-3.04303,0.01244201,0.88438
414.458,46.67072,-3.05142,0.008998351,0.88211
417.658,46.98303,-3.06066,0.00562328,0.87984
420.858,47.29575,-3.06776,0.00588821,0.87755
424.058,47.60843,-3.07374,0.002910495,0.87526
427.258,47.92154,-3.08268,0.004272178,0.87296
430.458,48.23604,-3.08827,0.004757725,0.87065
433.658,48.5503,-3.09423,0.007362972,0.86834
436.858,48.8649,-3.10124,0.01024798,0.86601
440.058,49.17942,-3.10653,0.01683353,0.86368
443.258,49.49409,-3.11271,0.02461932,0.86134
446.458,49.8084,-3.11816,0.03012842,0.85899
449.658,50.12249,-3.12345,0.03778842,0.85663
452.858,50.43718,-3.12737,0.04281654,0.85427
456.058,50.75184,-3.13132,0.04672453,0.85189
459.258,51.06678,-3.1379,0.05233363,0.84952
462.458,51.38235,-3.14284,0.056501,0.84713
465.658,51.69793,-3.14677,0.06035727,0.84474
468.858,52.01437,-3.15065,0.06294225,0.84233
472.058,52.33034,-3.15469,0.071402,0.83993
475.258,52.64545,-3.15772,0.0822652,0.83751
478.458,52.961,-3.16045,0.10029,0.83509
481.658,53.2768,-3.16258,0.10794,0.83266
484.858,53.59196,-3.16544,0.11334,0.83023
488.058,53.90804,-3.16911,0.11799,0.82778
491.258,54.224,-3.17475,0.11719,0.82534
494.458,54.5402,-3.17617,0.11516,0.82288
497.658,54.85654,-3.18012,0.11131,0.82042
500.858,55.1725,-3.18146,0.10503,0.81795
504.058,55.48976,-3.18671,0.09248231,0.81548
507.258,55.8066,-3.18802,0.08560006,0.813
510.458,56.12336,-3.19013,0.07995878,0.81051
513.658,56.4401,-3.19362,0.08183855,0.80802
516.858,56.7577,-3.19626,0.07787825,0.80552
520.058,57.0751,-3.19951,0.07916882,0.80302
523.258,57.39229,-3.20153,0.08116742,0.80051
526.458,57.71006,-3.20287,0.08284029,0.798
529.658,58.0279,-3.20547,0.07723172,0.79548
532.858,58.34594,-3.20839,0.07891816,0.79296
536.058,58.66465,-3.21055,0.07616981,0.79043
539.258,58.9829,-3.21334,0.07226364,0.78789
542.458,59.30194,-3.21501,0.06949322,0.78535
545.658,59.62047,-3.21764,0.06813937,0.78281
548.858,59.93937,-3.21764,0.06260848,0.78026
552.058,60.25825,-3.21897,0.05712868,0.7777
555.258,60.5769,-3.22444,0.05458075,0.77514
558.458,60.89603,-3.22709,0.04790793,0.77258
561.658,61.21549,-3.22906,0.04851534,0.77001
564.858,61.5358,-3.2314,0.0454534,0.76744
568.058,61.8562,-3.23298,0.03988174,0.76486
571.258,62.1768,-3.23562,0.0398187,0.76228
574.458,62.4979,-3.23563,0.03430656,0.75969
577.658,62.81865,-3.23826,0.03828109,0.7571
580.858,63.1388,-3.23947,0.03795968,0.75451
584.058,63.4592,-3.2421,0.03827575,0.75191
587.258,63.779,-3.24341,0.03896096,0.74931
590.458,64.09865,-3.24605,0.03747326,0.74671
593.658,64.41869,-3.24605,0.038331,0.7441
596.858,64.7386,-3.24836,0.03758224,0.74149
600.058,65.0587,-3.25231,0.0434788,0.73887
603.258,65.3792,-3.25395,0.04486081,0.73625
606.458,65.6991,-3.25493,0.04474819,0.73363
609.658,66.01958,-3.25724,0.05044619,0.731
612.858,66.34031,-3.25756,0.05568029,0.72838
616.058,66.66075,-3.26042,0.05757173,0.72574
619.258,66.98206,-3.26099,0.06432372,0.72311
622.458,67.30288,-3.26075,0.06552945,0.72047
625.658,67.6237,-3.26404,0.07248704,0.71783
628.858,67.94369,-3.2634,0.07825997,0.71519
632.058,68.26546,-3.26535,0.08715035,0.71254
635.258,68.5877,-3.26798,0.08826298,0.7099
638.458,68.9094,-3.26931,0.09288573,0.70725
641.658,69.23053,-3.27023,0.10264,0.70459
644.858,69.55124,-3.27161,0.10962,0.70194
648.058,69.87224,-3.27292,0.12117,0.69928
651.258,70.19332,-3.27156,0.1312,0.69662
654.458,70.5141,-3.27358,0.14533,0.69396
657.658,70.83666,-3.27485,0.15451,0.6913
660.858,71.15898,-3.27524,0.15985,0.68863
664.058,71.4812,-3.27488,0.1676,0.68597
667.258,71.80331,-3.27488,0.17828,0.6833
670.458,72.12379,-3.27752,0.19332,0.68063
673.658,72.44586,-3.27945,0.19843,0.67796
676.858,72.7675,-3.28016,0.20109,0.67528
680.058,73.08969,-3.28017,0.20218,0.67261
683.258,73.41216,-3.2801,0.20777,0.66993
686.458,73.73485,-3.28346,0.20897,0.66726
689.658,74.05804,-3.28242,0.20847,0.66458
692.858,74.38079,-3.28291,0.21475,0.6619
696.058,74.70379,-3.28313,0.21443,0.65922
699.258,75.0262,-3.28477,0.21832,0.65654
702.458,75.3503,-3.2874,0.2209,0.65386
705.658,75.6747,-3.28873,0.22313,0.65117
708.858,75.9983,-3.28669,0.22901,0.64849
712.058,76.32234,-3.28743,0.22694,0.64581
715.258,76.6455,-3.28872,0.22862,0.64312
718.458,76.9691,-3.29004,0.23194,0.64044
721.658,77.29295,-3.29134,0.2301,0.63775
724.858,77.61776,-3.2939,0.22577,0.63507
728.058,77.94288,-3.29256,0.2214,0.63239
731.258,78.26737,-3.29385,0.21965,0.6297
734.458,78.59275,-3.29651,0.21275,0.62701
737.658,78.917,-3.29355,0.20719,0.62433
740.858,79.24048,-3.29914,0.20395,0.62164
744.058,79.5648,-3.29651,0.195,0.61896
747.258,79.8888,-3.29651,0.1934,0.61628
750.458,80.21236,-3.29891,0.19039,0.61359
753.658,80.53612,-3.29639,0.18523,0.61091
756.858,80.8602,-3.29903,0.17825,0.60823
760.058,81.18415,-3.3004,0.17321,0.60554
763.258,81.50845,-3.29902,0.16914,0.60286
766.458,81.8331,-3.30167,0.16776,0.60018
769.658,82.1579,-3.30265,0.16147,0.5975
772.858,82.4829,-3.3049,0.15993,0.59482
776.058,82.80749,-3.30594,0.15577,0.59214
779.258,83.13197,-3.30524,0.15887,0.58947
782.458,83.45569,-3.30561,0.15798,0.58679
785.658,83.7796,-3.30793,0.15548,0.58412
788.858,84.1045,-3.30527,0.15495,0.58144
792.058,84.42944,-3.30693,0.15024,0.57877
795.258,84.75509,-3.30682,0.14198,0.5761
797.558,84.98923,-3.30923,0.13825,0.57418