File: 01_Data/Homasote/STA/N2/30K_min/Homasote_STA_N2_30KData_222104_R1.csv
##Temp./Â°C,Time/min,Mass loss(subtr.2)/mg,DSC(subtr.2)/(mW/mg),Sensit./(uV/mW)
48.5,10.00583,-0.04618,0.01453977,1.07506
51.5,10.86329,-0.0480363,0.15582,1.07373
54.5,11.08993,-0.04969097,0.25946,1.0724
57.5,11.26291,-0.05104128,0.35458,1.07105
60.5,11.41261,-0.0500286,0.42993,1.0697
63.5,11.5467,-0.05102975,0.47327,1.06833
66.5,11.6732,-0.05129968,0.5075,1.06696
69.5,11.79326,-0.05227338,0.5452,1.06557
72.5,11.90863,-0.05317066,0.5789,1.06418
75.5,12.0216,-0.05406608,0.61466,1.06278
78.5,12.13141,-0.05716906,0.64895,1.06136
81.5,12.2399,-0.05747235,0.68247,1.05994
84.5,12.34656,-0.05895445,0.71643,1.05851
87.5,12.451,-0.05926351,0.74726,1.05707
90.5,12.555,-0.06078955,0.77637,1.05562
93.5,12.65771,-0.0621252,0.8048,1.05416
96.5,12.76024,-0.06589458,0.82896,1.05269
99.5,12.8619,-0.06648371,0.84863,1.05121
102.5,12.96299,-0.06850088,0.86311,1.04973
105.5,13.0641,-0.07047231,0.87593,1.04823
108.5,13.1648,-0.0706261,0.87959,1.04673
111.5,13.2653,-0.0727329,0.8872,1.04522
114.5,13.36549,-0.07404297,0.88332,1.0437
117.5,13.4654,-0.07536,0.88345,1.04217
120.5,13.5649,-0.07759653,0.88509,1.04063
123.5,13.66394,-0.07898077,0.89022,1.03908
126.5,13.76261,-0.0806204,0.89427,1.03753
129.5,13.86081,-0.08324665,0.8938,1.03597
132.5,13.9585,-0.08456986,0.88855,1.0344
135.5,14.0555,-0.08589,0.88183,1.03282
138.5,14.15195,-0.08589,0.86833,1.03124
141.5,14.2486,-0.08717658,0.85547,1.02964
144.5,14.34424,-0.08851835,0.84532,1.02804
147.5,14.4397,-0.08950602,0.83737,1.02643
150.5,14.53496,-0.08983669,0.83012,1.02482
153.5,14.63001,-0.08885,0.82995,1.0232
156.5,14.7243,-0.0898402,0.83231,1.02156
159.5,14.8188,-0.0908288,0.83489,1.01993
162.5,14.91315,-0.09214,0.8373,1.01828
165.5,15.0067,-0.09345999,0.84416,1.01663
168.5,15.1012,-0.0929366,0.85002,1.01497
171.5,15.19486,-0.09205242,0.85805,1.0133
174.5,15.2882,-0.09412,0.86515,1.01163
177.5,15.38151,-0.09412,0.87429,1.00995
180.5,15.4745,-0.09412,0.88257,1.00826
183.5,15.567,-0.09619465,0.89026,1.00657
186.5,15.65947,-0.09642,0.89686,1.00487
189.5,15.75165,-0.09700937,0.9069,1.00316
192.5,15.84332,-0.09807398,0.91576,1.00145
195.5,15.9352,-0.09938,0.92246,0.99973
198.5,16.02693,-0.1007,0.93036,0.998
201.5,16.11852,-0.10201,0.93669,0.99627
204.5,16.20966,-0.10332,0.94527,0.99453
207.5,16.30113,-0.1033,0.95323,0.99278
210.5,16.39247,-0.10465,0.96135,0.99103
213.5,16.48337,-0.10729,0.97139,0.98928
216.5,16.5746,-0.10728,0.97838,0.98751
219.5,16.6657,-0.1099,0.98462,0.98574
222.5,16.75664,-0.11288,0.99662,0.98397
225.5,16.8476,-0.11529,1.00562,0.98219
228.5,16.93861,-0.11803,1.01349,0.9804
231.5,17.02944,-0.12078,1.02008,0.97861
234.5,17.12014,-0.12393,1.02661,0.97681
237.5,17.21096,-0.12761,1.0337,0.97501
240.5,17.3017,-0.13307,1.04056,0.9732
243.5,17.39216,-0.13892,1.05083,0.97138
246.5,17.48284,-0.14637,1.06089,0.96956
249.5,17.5733,-0.15184,1.06774,0.96774
252.5,17.66405,-0.15788,1.07803,0.96591
255.5,17.7545,-0.16492,1.08917,0.96407
258.5,17.84494,-0.17158,1.09945,0.96223
261.5,17.93548,-0.17987,1.11265,0.96038
264.5,18.02577,-0.18976,1.12325,0.95853
267.5,18.1161,-0.19956,1.13178,0.95668
270.5,18.20648,-0.20955,1.13936,0.95481
273.5,18.2968,-0.22093,1.14957,0.95295
276.5,18.38714,-0.2331,1.15531,0.95108
279.5,18.47768,-0.24649,1.16069,0.9492
282.5,18.5682,-0.25939,1.17102,0.94732
285.5,18.65875,-0.27664,1.17656,0.94544
288.5,18.74934,-0.29378,1.18148,0.94355
291.5,18.83994,-0.31136,1.19047,0.94165
294.5,18.93042,-0.33137,1.19722,0.93975
297.5,19.02104,-0.35398,1.20594,0.93785
300.5,19.11161,-0.37934,1.21337,0.93594
303.5,19.2023,-0.40459,1.22032,0.93403
306.5,19.2929,-0.43109,1.23174,0.93211
309.5,19.38356,-0.46183,1.24452,0.93019
312.5,19.47437,-0.49346,1.25809,0.92826
315.5,19.56524,-0.52867,1.27652,0.92633
318.5,19.65602,-0.56478,1.29615,0.9244
321.5,19.74705,-0.60487,1.31703,0.92246
324.5,19.83783,-0.64583,1.34361,0.92052
327.5,19.92882,-0.69324,1.37264,0.91857
330.5,20.02009,-0.74124,1.40409,0.91662
333.5,20.11122,-0.79093,1.43733,0.91467
336.5,20.20264,-0.84532,1.47187,0.91271
339.5,20.29403,-0.90131,1.50215,0.91074
342.5,20.38564,-0.96358,1.53786,0.90878
345.5,20.47726,-1.02956,1.57118,0.90681
348.5,20.56896,-1.09941,1.60756,0.90483
351.5,20.66084,-1.17328,1.64713,0.90285
354.5,20.75275,-1.25107,1.68684,0.90087
357.5,20.84477,-1.33169,1.72113,0.89889
360.5,20.937,-1.41715,1.7586,0.8969
363.5,21.02903,-1.50693,1.79661,0.8949
366.5,21.12143,-1.60272,1.83707,0.89291
369.5,21.21386,-1.70151,1.86602,0.89091
372.5,21.30624,-1.80592,1.88927,0.8889
375.5,21.39919,-1.91022,1.89231,0.88689
378.5,21.49185,-2.01688,1.87041,0.88488
381.5,21.5846,-2.12046,1.80159,0.88287
384.5,21.6773,-2.21957,1.68142,0.88085
387.5,21.7704,-2.30886,1.50077,0.87883
390.5,21.863,-2.38508,1.26513,0.87681
393.5,21.95572,-2.44417,1.003,0.87478
396.5,22.04841,-2.48454,0.75812,0.87275
399.5,22.14099,-2.51271,0.57063,0.87071
402.5,22.23388,-2.52972,0.44547,0.86867
405.5,22.32638,-2.54261,0.3771,0.86663
408.5,22.41982,-2.55064,0.33727,0.86459
411.5,22.51312,-2.55748,0.32014,0.86254
414.5,22.60632,-2.56713,0.31964,0.86049
417.5,22.69976,-2.57312,0.3198,0.85844
420.5,22.79329,-2.58181,0.31637,0.85638
423.5,22.88697,-2.5893,0.31129,0.85432
426.5,22.98084,-2.59799,0.30038,0.85226
429.5,23.0747,-2.60588,0.29287,0.85019
432.5,23.16874,-2.61248,0.28304,0.84812
435.5,23.26272,-2.61843,0.27641,0.84605
438.5,23.3572,-2.62497,0.27546,0.84397
441.5,23.45143,-2.63393,0.27762,0.84189
444.5,23.54601,-2.64247,0.28276,0.83981
447.5,23.64041,-2.64788,0.29027,0.83773
450.5,23.7351,-2.6557,0.29329,0.83564
453.5,23.82999,-2.66209,0.30711,0.83355
456.5,23.92485,-2.67055,0.31623,0.83146
459.5,24.01973,-2.67539,0.32419,0.82937
462.5,24.11492,-2.68287,0.33521,0.82727
465.5,24.21003,-2.68858,0.34659,0.82517
468.5,24.30526,-2.6967,0.35182,0.82306
471.5,24.40045,-2.70165,0.36159,0.82096
474.5,24.49573,-2.7079,0.36967,0.81885
477.5,24.5913,-2.71446,0.37182,0.81674
480.5,24.68667,-2.7198,0.37613,0.81462
483.5,24.7822,-2.72471,0.37687,0.81251
486.5,24.87797,-2.72952,0.37286,0.81039
489.5,24.9737,-2.73526,0.36937,0.80827
492.5,25.06943,-2.7402,0.36747,0.80614
495.5,25.1653,-2.74501,0.36688,0.80401
498.5,25.2611,-2.75094,0.35618,0.80188
501.5,25.3571,-2.7558,0.3524,0.79975
504.5,25.4531,-2.75853,0.34352,0.79762
507.5,25.54911,-2.76277,0.3344,0.79548
510.5,25.64537,-2.76605,0.32653,0.79334
513.5,25.74149,-2.77045,0.3167,0.7912
516.5,25.83769,-2.77413,0.30586,0.78906
519.5,25.93405,-2.77661,0.29628,0.78691
522.5,26.0303,-2.78067,0.28832,0.78476
525.5,26.12676,-2.7834,0.27726,0.78261
528.5,26.2233,-2.78493,0.26694,0.78046
531.5,26.32,-2.7889,0.25992,0.7783
534.5,26.41662,-2.79403,0.25168,0.77614
537.5,26.51329,-2.79645,0.24135,0.77398
540.5,26.6102,-2.7983,0.23365,0.77182
543.5,26.70706,-2.80094,0.22806,0.76965
546.5,26.80415,-2.80378,0.2178,0.76749
549.5,26.9012,-2.80623,0.21271,0.76532
552.5,26.9983,-2.81015,0.21089,0.76314
555.5,27.0953,-2.81046,0.21112,0.76097
558.5,27.1924,-2.81313,0.21165,0.7588
561.5,27.28945,-2.81599,0.21233,0.75662
564.5,27.38669,-2.81852,0.2155,0.75444
567.5,27.48385,-2.82108,0.21855,0.75226
570.5,27.5812,-2.82294,0.21557,0.75007
573.5,27.67851,-2.8264,0.21419,0.74788
576.5,27.77613,-2.82703,0.20994,0.7457
579.5,27.87375,-2.82882,0.20509,0.74351
582.5,27.97152,-2.83102,0.19992,0.74131
585.5,28.06927,-2.83232,0.1962,0.73912
588.5,28.167,-2.83496,0.18241,0.73692
591.5,28.26497,-2.83594,0.17211,0.73473
594.5,28.363,-2.83856,0.1658,0.73253
597.5,28.4612,-2.83877,0.15646,0.73032
600.5,28.55919,-2.84219,0.15308,0.72812
603.5,28.65751,-2.8425,0.14259,0.72591
606.5,28.7557,-2.84492,0.14008,0.72371
609.5,28.8542,-2.84625,0.1306,0.7215
612.5,28.9526,-2.84756,0.12622,0.71929
615.5,29.05116,-2.85017,0.12178,0.71707
618.5,29.1497,-2.85149,0.11572,0.71486
621.5,29.24842,-2.85159,0.10449,0.71264
624.5,29.3471,-2.85496,0.10457,0.71043
627.5,29.4459,-2.85547,0.10274,0.70821
630.5,29.54458,-2.85679,0.10203,0.70598
633.5,29.6434,-2.85908,0.1004,0.70376
636.5,29.7423,-2.85909,0.10314,0.70154
639.5,29.84082,-2.86188,0.10079,0.69931
642.5,29.9401,-2.86338,0.10479,0.69708
645.5,30.03892,-2.86596,0.11399,0.69485
648.5,30.1379,-2.86666,0.12496,0.69262
651.5,30.2371,-2.86929,0.13783,0.69039
654.5,30.3364,-2.86924,0.14891,0.68816
657.5,30.43542,-2.87187,0.16333,0.68592
660.5,30.5345,-2.87455,0.18151,0.68369
663.5,30.6334,-2.87591,0.1989,0.68145
666.5,30.7329,-2.87852,0.2193,0.67921
669.5,30.83196,-2.88153,0.24807,0.67697
672.5,30.93095,-2.88526,0.28064,0.67473
675.5,31.02968,-2.88793,0.32067,0.67248
678.5,31.12955,-2.89196,0.36811,0.67024
681.5,31.22846,-2.89562,0.41589,0.66799
684.5,31.32795,-2.90151,0.47462,0.66575
687.5,31.4273,-2.90483,0.52895,0.6635
690.5,31.52634,-2.90942,0.59184,0.66125
693.5,31.626,-2.91392,0.65864,0.659
696.5,31.7255,-2.91913,0.72741,0.65674
699.5,31.82491,-2.92776,0.79319,0.65449
702.5,31.92444,-2.93414,0.86022,0.65224
705.5,32.02397,-2.94179,0.92759,0.64998
708.5,32.1235,-2.94945,0.99267,0.64773
711.5,32.22319,-2.9561,1.05705,0.64547
714.5,32.32285,-2.96409,1.11189,0.64321
717.5,32.42279,-2.97407,1.15362,0.64095
720.5,32.52262,-2.9812,1.18868,0.63869
723.5,32.62235,-2.98994,1.2018,0.63643
726.5,32.72227,-2.99945,1.19573,0.63417
729.5,32.822,-3.01029,1.18167,0.63191
732.5,32.9219,-3.01801,1.15648,0.62965
735.5,33.02187,-3.02697,1.11311,0.62738
738.5,33.12178,-3.03609,0.99773,0.62512
741.5,33.22167,-3.04176,0.73786,0.62285
744.5,33.32162,-3.04404,0.21754,0.62058
747.5,33.42143,-3.04681,-0.03357973,0.61832
750.5,33.52148,-3.04895,-0.12211,0.61605
753.5,33.62148,-3.04912,-0.16078,0.61378
756.5,33.7216,-3.05176,-0.17629,0.61151
759.5,33.82172,-3.0506,-0.19565,0.60925
762.5,33.9219,-3.0519,-0.20393,0.60698
765.5,34.0221,-3.05212,-0.21411,0.60471
768.5,34.12227,-3.05355,-0.22193,0.60244
771.5,34.22255,-3.05487,-0.22749,0.60017
774.5,34.32264,-3.05487,-0.23639,0.59789
777.5,34.423,-3.05654,-0.2438,0.59562
780.5,34.52335,-3.05724,-0.24958,0.59335
783.5,34.62358,-3.05718,-0.25463,0.59108
786.5,34.7241,-3.0585,-0.26826,0.58881
789.5,34.82434,-3.05851,-0.27515,0.58654
792.5,34.92473,-3.05981,-0.2789,0.58426
794.7,34.99864,-3.06113,-0.2885,0.5826