File: 01_Data/Homasote/STA/N2/30K_min/Homasote_STA_N2_30KData_222104_R2.csv
##Temp./Â°C,Time/min,Mass loss(subtr.2)/mg,DSC(subtr.2)/(mW/mg),Sensit./(uV/mW)
48.56,10.00667,-0.03378,0.01883212,1.07503
51.66,10.8737,-0.03057229,0.16756,1.07366
54.76,11.10383,-0.03716593,0.27338,1.07228
57.86,11.28047,-0.03971575,0.3671,1.07089
60.96,11.43241,-0.04407803,0.441,1.06949
64.06,11.57033,-0.04105009,0.48055,1.06808
67.16,11.69925,-0.03937629,0.51233,1.06666
70.26,11.8221,-0.0376869,0.54566,1.06522
73.36,11.94027,-0.03674344,0.57998,1.06378
76.46,12.05605,-0.03683021,0.61564,1.06233
79.56,12.1692,-0.03965319,0.64743,1.06086
82.66,12.28043,-0.03994623,0.68112,1.05939
85.76,12.38985,-0.04222117,0.71165,1.05791
88.86,12.4977,-0.04338645,0.7444,1.05641
91.96,12.60482,-0.0435712,0.77405,1.05491
95.06,12.71083,-0.04485641,0.79799,1.0534
98.16,12.81616,-0.04507163,0.82273,1.05187
101.26,12.9207,-0.04749655,0.84103,1.05034
104.36,13.02525,-0.05013792,0.85624,1.0488
107.46,13.1295,-0.05144003,0.86598,1.04725
110.56,13.23325,-0.05276001,0.87285,1.04569
113.66,13.3368,-0.05473531,0.87438,1.04412
116.76,13.4401,-0.05538874,0.87491,1.04255
119.86,13.543,-0.05789698,0.87929,1.04096
122.96,13.6455,-0.0599301,0.88125,1.03936
126.06,13.74714,-0.06066001,0.88982,1.03776
129.16,13.8487,-0.06196997,0.89121,1.03615
132.26,13.94939,-0.06463273,0.88526,1.03453
135.36,14.05011,-0.0646232,0.87869,1.0329
138.46,14.15,-0.06592,0.86646,1.03126
141.56,14.24965,-0.06725874,0.85077,1.02961
144.66,14.34878,-0.06724,0.84051,1.02796
147.76,14.44755,-0.06724,0.83254,1.02629
150.86,14.54558,-0.06855838,0.82928,1.02462
153.96,14.64371,-0.06856,0.82691,1.02295
157.06,14.74148,-0.06855999,0.82837,1.02126
160.16,14.839,-0.06789996,0.83596,1.01957
163.26,14.9364,-0.06921,0.83874,1.01786
166.36,15.0335,-0.0692093,0.84529,1.01615
169.46,15.1301,-0.07052,0.85221,1.01444
172.56,15.227,-0.06919701,0.86026,1.01271
175.66,15.3234,-0.07052965,0.86851,1.01098
178.76,15.4197,-0.07051818,0.87934,1.00924
181.86,15.51552,-0.07315128,0.88627,1.00749
184.96,15.6111,-0.07315,0.89334,1.00574
188.06,15.7065,-0.07315,0.90141,1.00398
191.16,15.80166,-0.07315018,0.90839,1.00221
194.26,15.8959,-0.07447,0.91751,1.00044
197.36,15.9914,-0.0757014,0.92643,0.99866
200.46,16.08587,-0.07579057,0.93389,0.99687
203.56,16.18047,-0.0774809,0.94081,0.99507
206.66,16.27504,-0.07842004,0.95217,0.99327
209.76,16.36936,-0.07974111,0.9613,0.99147
212.86,16.4635,-0.08041754,0.97121,0.98965
215.96,16.55774,-0.08372547,0.98258,0.98783
219.06,16.65162,-0.08499845,0.9925,0.986
222.16,16.74573,-0.08854336,1.00115,0.98417
225.26,16.83959,-0.09159212,1.01015,0.98233
228.36,16.93347,-0.09422084,1.02306,0.98048
231.46,17.0273,-0.09860392,1.0309,0.97863
234.56,17.1211,-0.10148,1.03735,0.97677
237.66,17.21487,-0.10692,1.04378,0.97491
240.76,17.30866,-0.1118,1.05384,0.97304
243.86,17.40232,-0.11772,1.0599,0.97116
246.96,17.4958,-0.12252,1.06705,0.96928
250.06,17.58938,-0.12786,1.07801,0.9674
253.16,17.6828,-0.13487,1.08592,0.9655
256.26,17.7763,-0.14259,1.0971,0.9636
259.36,17.86985,-0.15016,1.10609,0.9617
262.46,17.96329,-0.15828,1.11879,0.95979
265.56,18.0567,-0.16765,1.12567,0.95788
268.66,18.14979,-0.17814,1.13602,0.95596
271.76,18.24338,-0.19025,1.14378,0.95403
274.86,18.33697,-0.20154,1.15365,0.9521
277.96,18.43068,-0.2158,1.15938,0.95017
281.06,18.5242,-0.23036,1.16858,0.94822
284.16,18.61769,-0.24552,1.17385,0.94628
287.26,18.71132,-0.2622,1.18348,0.94433
290.36,18.80491,-0.28181,1.1936,0.94237
293.46,18.89851,-0.30199,1.20381,0.94041
296.56,18.9922,-0.32546,1.20936,0.93845
299.66,19.08579,-0.34906,1.21845,0.93647
302.76,19.17941,-0.37384,1.22714,0.9345
305.86,19.273,-0.40234,1.23861,0.93252
308.96,19.36681,-0.43222,1.25078,0.93054
312.06,19.46066,-0.4654,1.26762,0.92855
315.16,19.55434,-0.50069,1.28301,0.92655
318.26,19.6482,-0.53851,1.30798,0.92455
321.36,19.74194,-0.57915,1.32977,0.92255
324.46,19.8362,-0.62158,1.3595,0.92054
327.56,19.9303,-0.66796,1.38849,0.91853
330.66,20.02448,-0.71835,1.41911,0.91652
333.76,20.1187,-0.77075,1.45191,0.9145
336.86,20.21303,-0.82696,1.48649,0.91247
339.96,20.3072,-0.8876,1.52257,0.91044
343.06,20.40202,-0.95276,1.56329,0.90841
346.16,20.49663,-1.01964,1.59758,0.90637
349.26,20.5914,-1.0919,1.6406,0.90433
352.36,20.68619,-1.16676,1.68392,0.90229
355.46,20.7812,-1.24916,1.73018,0.90024
358.56,20.8762,-1.33361,1.77923,0.89818
361.66,20.97123,-1.42268,1.8338,0.89613
364.76,21.06681,-1.51689,1.8864,0.89407
367.86,21.1621,-1.61875,1.93786,0.892
370.96,21.25769,-1.72314,1.97995,0.88993
374.06,21.3532,-1.83233,2.00655,0.88786
377.16,21.44894,-1.94036,2.00501,0.88578
380.26,21.5446,-2.04869,1.9626,0.8837
383.36,21.64029,-2.15214,1.86816,0.88162
386.46,21.7361,-2.24873,1.69857,0.87953
389.56,21.83204,-2.33577,1.46566,0.87744
392.66,21.92766,-2.40004,1.1883,0.87535
395.76,22.02339,-2.44798,0.90667,0.87325
398.86,22.11908,-2.48015,0.67918,0.87115
401.96,22.21506,-2.49972,0.52105,0.86904
405.06,22.31083,-2.5134,0.42687,0.86693
408.16,22.40684,-2.52316,0.37012,0.86482
411.26,22.50297,-2.53084,0.33085,0.8627
414.36,22.59949,-2.53848,0.30457,0.86059
417.46,22.69599,-2.54782,0.28693,0.85846
420.56,22.79267,-2.55579,0.27177,0.85634
423.66,22.8895,-2.56423,0.26124,0.85421
426.76,22.9865,-2.57246,0.24861,0.85208
429.86,23.08349,-2.58088,0.2437,0.84994
432.96,23.18062,-2.58837,0.23932,0.8478
436.06,23.27777,-2.5939,0.2389,0.84566
439.16,23.37507,-2.60163,0.24003,0.84352
442.26,23.47256,-2.61106,0.24254,0.84137
445.36,23.5701,-2.61957,0.24891,0.83922
448.46,23.66783,-2.62748,0.25628,0.83706
451.56,23.7656,-2.6343,0.26559,0.83491
454.66,23.86335,-2.6412,0.27555,0.83274
457.76,23.96109,-2.64842,0.29108,0.83058
460.86,24.0597,-2.65538,0.30221,0.82842
463.96,24.1581,-2.66204,0.31273,0.82625
467.06,24.2564,-2.66875,0.32168,0.82407
470.16,24.3548,-2.6736,0.3303,0.8219
473.26,24.45348,-2.68195,0.33703,0.81972
476.36,24.55205,-2.6889,0.34377,0.81754
479.46,24.65082,-2.6939,0.35029,0.81536
482.56,24.7496,-2.70013,0.35247,0.81317
485.66,24.84854,-2.70485,0.35281,0.81098
488.76,24.94749,-2.70901,0.35496,0.80879
491.86,25.04674,-2.71736,0.34674,0.80659
494.96,25.14573,-2.72197,0.3432,0.8044
498.06,25.245,-2.72384,0.33581,0.8022
501.16,25.34419,-2.72885,0.33219,0.79999
504.26,25.44363,-2.73426,0.32292,0.79779
507.36,25.5431,-2.73908,0.31308,0.79558
510.46,25.6424,-2.74178,0.3039,0.79337
513.56,25.74161,-2.74621,0.29671,0.79116
516.66,25.84142,-2.74999,0.2897,0.78894
519.76,25.94097,-2.75367,0.28482,0.78672
522.86,26.04064,-2.7563,0.27384,0.7845
525.96,26.1405,-2.76017,0.26725,0.78228
529.06,26.24022,-2.76378,0.25906,0.78005
532.16,26.34028,-2.76683,0.25498,0.77782
535.26,26.4402,-2.76947,0.2444,0.77559
538.36,26.54045,-2.77078,0.23695,0.77336
541.46,26.6404,-2.77499,0.22816,0.77113
544.56,26.7406,-2.77725,0.22264,0.76889
547.66,26.8406,-2.77992,0.21527,0.76665
550.76,26.9412,-2.78259,0.21852,0.7644
553.86,27.04165,-2.7857,0.21699,0.76216
556.96,27.1421,-2.78964,0.22357,0.75991
560.06,27.2425,-2.7904,0.23367,0.75766
563.16,27.34285,-2.79233,0.2336,0.75541
566.26,27.4436,-2.79372,0.23549,0.75316
569.36,27.5443,-2.79624,0.2381,0.7509
572.46,27.6449,-2.79961,0.23572,0.74864
575.56,27.7456,-2.80226,0.2335,0.74638
578.66,27.8466,-2.8049,0.22952,0.74412
581.76,27.9476,-2.80492,0.22248,0.74185
584.86,28.0486,-2.80754,0.21796,0.73959
587.96,28.14967,-2.81015,0.20999,0.73732
591.06,28.2509,-2.81146,0.202,0.73505
594.16,28.35218,-2.81369,0.1962,0.73277
597.26,28.4534,-2.81608,0.19066,0.7305
600.36,28.5548,-2.81981,0.18858,0.72822
603.46,28.6562,-2.82173,0.18153,0.72594
606.56,28.7577,-2.82135,0.18016,0.72366
609.66,28.85925,-2.82397,0.18148,0.72138
612.76,28.9608,-2.82531,0.17645,0.7191
615.86,29.06258,-2.82806,0.17344,0.71681
618.96,29.16437,-2.82935,0.17036,0.71452
622.06,29.2661,-2.83195,0.16627,0.71223
625.16,29.368,-2.83332,0.16607,0.70994
628.26,29.46987,-2.83461,0.16483,0.70764
631.36,29.57184,-2.83593,0.1645,0.70535
634.46,29.6739,-2.83828,0.16767,0.70305
637.56,29.77601,-2.83988,0.168,0.70075
640.66,29.87797,-2.84112,0.17316,0.69845
643.76,29.97999,-2.84252,0.1823,0.69615
646.86,30.08225,-2.84446,0.19604,0.69384
649.96,30.1844,-2.84587,0.20858,0.69154
653.06,30.2867,-2.84855,0.2271,0.68923
656.16,30.38901,-2.8514,0.2453,0.68692
659.26,30.4914,-2.85313,0.26853,0.68461
662.36,30.5938,-2.85536,0.28837,0.6823
665.46,30.696,-2.85931,0.314,0.67999
668.56,30.79867,-2.86192,0.3456,0.67767
671.66,30.9012,-2.86456,0.37791,0.67535
674.76,31.0037,-2.86882,0.41978,0.67304
677.86,31.10636,-2.87211,0.46982,0.67072
680.96,31.2087,-2.87488,0.52261,0.6684
684.06,31.31135,-2.87917,0.57995,0.66607
687.16,31.41422,-2.88399,0.64337,0.66375
690.26,31.517,-2.88877,0.71001,0.66143
693.36,31.6197,-2.89483,0.78076,0.6591
696.46,31.7226,-2.90006,0.8565,0.65677
699.56,31.8255,-2.90775,0.93552,0.65445
702.66,31.9285,-2.91339,1.00979,0.65212
705.76,32.03102,-2.9213,1.08701,0.64979
708.86,32.13446,-2.92809,1.15402,0.64746
711.96,32.23747,-2.93662,1.22377,0.64512
715.06,32.34045,-2.94497,1.28147,0.64279
718.16,32.44377,-2.95421,1.32656,0.64046
721.26,32.54695,-2.96198,1.35627,0.63812
724.36,32.64993,-2.9729,1.3655,0.63578
727.46,32.75318,-2.98213,1.35688,0.63345
730.56,32.85638,-2.98917,1.34316,0.63111
733.66,32.9596,-2.99944,1.31632,0.62877
736.76,33.06268,-3.00843,1.25006,0.62643
739.86,33.16565,-3.01668,1.08394,0.62409
742.96,33.26875,-3.02369,0.64997,0.62175
746.06,33.37184,-3.02712,0.201,0.61941
749.16,33.47468,-3.02888,0.05379275,0.61706
752.26,33.57777,-3.02993,0.000109778,0.61472
755.36,33.6807,-3.02975,-0.01681258,0.61238
758.46,33.78393,-3.03153,-0.0300319,0.61003
761.56,33.88709,-3.03185,-0.04133135,0.60769
764.66,33.99062,-3.03249,-0.04895882,0.60534
767.76,34.094,-3.03511,-0.0563657,0.603
770.86,34.19733,-3.03603,-0.06282518,0.60065
773.96,34.30049,-3.03677,-0.07098649,0.5983
777.06,34.40417,-3.03809,-0.08162208,0.59596
780.16,34.5077,-3.03908,-0.08293138,0.59361
783.26,34.61118,-3.03907,-0.08759538,0.59126
786.36,34.71468,-3.04039,-0.09872744,0.58891
789.46,34.81815,-3.04175,-0.10161,0.58657
792.56,34.9218,-3.04177,-0.10278,0.58422
794.86,34.99882,-3.04313,-0.10751,0.58247