File: 01_Data/Polyester_Microfiber_Sheet/STA/N2/10K_min/Polyester_Microfiber_Sheet_STA_N2_10KData_220526_R2.csv
##Temp./Â°C,Time/min,Mass loss(subtr.2)/mg,DSC(subtr.2)/(mW/mg),Sensit./(uV/mW)
49.713,10.01,-0.01054,0.00604463,1.07018
52.613,11.27863,-0.009472203,0.10439,1.06938
55.513,11.7043,-0.0124424,0.14808,1.06857
58.413,12.06243,-0.01143017,0.17441,1.06775
61.313,12.3958,-0.01152671,0.19238,1.06692
64.213,12.71654,-0.01046902,0.20233,1.06609
67.113,13.0321,-0.01031947,0.2138,1.06524
70.013,13.34205,-0.01031123,0.22274,1.06439
72.913,13.6486,-0.01027437,0.22943,1.06353
75.813,13.9525,-0.01162801,0.22301,1.06266
78.713,14.25295,-0.0103203,0.2127,1.06178
81.613,14.5524,-0.01304589,0.20564,1.06089
84.513,14.8469,-0.01040627,0.2054,1.06
87.413,15.1404,-0.01163959,0.20227,1.05909
90.313,15.4315,-0.01164007,0.19907,1.05818
93.213,15.72075,-0.01069766,0.19761,1.05726
96.113,16.0087,-0.01163758,0.19847,1.05632
99.013,16.29475,-0.01296331,0.20438,1.05538
101.913,16.5799,-0.01295062,0.21057,1.05443
104.813,16.86425,-0.01084455,0.21575,1.05347
107.713,17.14702,-0.01163142,0.22362,1.05251
110.613,17.43123,-0.01164115,0.22845,1.05153
113.513,17.71465,-0.01163988,0.23917,1.05054
116.413,17.99781,-0.01152899,0.24286,1.04955
119.313,18.2805,-0.0130701,0.24753,1.04854
122.213,18.56219,-0.0110904,0.25383,1.04753
125.113,18.8439,-0.01181935,0.25923,1.04651
128.013,19.12548,-0.01240988,0.2681,1.04548
130.913,19.40602,-0.01241,0.2738,1.04444
133.813,19.68656,-0.0127401,0.28029,1.04339
136.713,19.9669,-0.0132638,0.28446,1.04233
139.613,20.2467,-0.01243833,0.28614,1.04126
142.513,20.52515,-0.01371832,0.29057,1.04018
145.413,20.80395,-0.01273141,0.29449,1.03909
148.313,21.0819,-0.01505269,0.2982,1.038
151.213,21.36066,-0.01504,0.30134,1.03689
154.113,21.63832,-0.01507066,0.30346,1.03577
157.013,21.91571,-0.01374587,0.30681,1.03465
159.913,22.1938,-0.01549143,0.3102,1.03352
162.813,22.47093,-0.0163631,0.3136,1.03237
165.713,22.7477,-0.01635,0.31376,1.03122
168.613,23.0251,-0.01503997,0.31801,1.03006
171.513,23.30255,-0.01610268,0.32003,1.02889
174.413,23.57927,-0.01636002,0.32548,1.0277
177.313,23.8562,-0.01775332,0.32931,1.02651
180.213,24.13261,-0.01767017,0.33106,1.02531
183.113,24.40902,-0.0186685,0.33219,1.0241
186.013,24.68497,-0.01734998,0.33572,1.02288
188.913,24.9608,-0.01702,0.33732,1.02165
191.813,25.23636,-0.01669134,0.33877,1.02041
194.713,25.51245,-0.01933155,0.34068,1.01917
197.613,25.78848,-0.01865947,0.3438,1.01791
200.513,26.06448,-0.01731739,0.34927,1.01664
203.413,26.34044,-0.018,0.35071,1.01536
206.313,26.6162,-0.01867857,0.35463,1.01407
209.213,26.89231,-0.01857628,0.35643,1.01278
212.113,27.168,-0.01866051,0.3605,1.01147
215.013,27.44417,-0.01867702,0.36515,1.01015
217.913,27.72033,-0.02031028,0.36908,1.00882
220.813,27.99655,-0.02074573,0.37448,1.00749
223.713,28.27305,-0.01932,0.3804,1.00614
226.613,28.54873,-0.01997988,0.3855,1.00478
229.513,28.825,-0.01998001,0.39546,1.00342
232.413,29.1008,-0.0213,0.40317,1.00204
235.313,29.3753,-0.02262002,0.41775,1.00065
238.213,29.65182,-0.0222809,0.43425,0.99926
241.113,29.9281,-0.02392038,0.45457,0.99785
244.013,30.20358,-0.02292639,0.48449,0.99643
246.913,30.48064,-0.02262013,0.53532,0.99501
249.813,30.757,-0.02441567,0.61852,0.99357
252.713,31.03385,-0.02425882,0.78581,0.99212
255.613,31.31227,-0.02425682,1.10293,0.99067
258.513,31.59137,-0.02656838,1.27608,0.9892
261.413,31.86872,-0.02788327,0.92448,0.98772
264.313,32.1432,-0.02689545,0.62345,0.98624
267.213,32.41753,-0.02689998,0.49722,0.98474
270.113,32.69173,-0.02657075,0.44303,0.98323
273.013,32.96652,-0.02518236,0.4204,0.98172
275.913,33.24192,-0.02788,0.41113,0.98019
278.813,33.51783,-0.02788,0.40651,0.97865
281.713,33.79374,-0.0292001,0.40633,0.9771
284.613,34.06985,-0.02821,0.40506,0.97554
287.513,34.3476,-0.02823297,0.40353,0.97398
290.413,34.62447,-0.02951635,0.40562,0.9724
293.313,34.90161,-0.0292,0.40641,0.97081
296.213,35.17876,-0.03052041,0.40595,0.96921
299.113,35.45608,-0.03118,0.40544,0.9676
302.013,35.73319,-0.03154499,0.40697,0.96598
304.913,36.01021,-0.03151,0.408,0.96435
307.813,36.28787,-0.0324995,0.40812,0.96271
310.713,36.56606,-0.03244761,0.40755,0.96106
313.613,36.8433,-0.0325,0.40916,0.9594
316.513,37.1205,-0.03382,0.40939,0.95773
319.413,37.39898,-0.03514,0.4085,0.95605
322.313,37.67733,-0.03650826,0.4095,0.95436
325.213,37.95565,-0.03513823,0.40835,0.95266
328.113,38.23441,-0.03677818,0.40887,0.95094
331.013,38.51312,-0.03678002,0.41066,0.94922
333.913,38.7919,-0.03787142,0.4117,0.94749
336.813,39.07051,-0.03915855,0.41241,0.94575
339.713,39.34984,-0.04051135,0.41275,0.94399
342.613,39.6292,-0.03886862,0.41421,0.94223
345.513,39.9088,-0.04244627,0.415,0.94046
348.413,40.1882,-0.04249,0.41804,0.93867
351.313,40.46745,-0.04346996,0.41857,0.93688
354.213,40.74735,-0.04320825,0.42089,0.93507
357.113,41.02797,-0.04381262,0.42324,0.93326
360.013,41.30823,-0.04644549,0.42789,0.93144
362.913,41.5884,-0.04797595,0.43156,0.9296
365.813,41.8688,-0.05039056,0.43754,0.92775
368.713,42.14868,-0.05567278,0.44432,0.9259
371.613,42.42944,-0.05762454,0.45468,0.92403
374.513,42.7107,-0.06093004,0.46157,0.92216
377.413,42.99111,-0.06793427,0.47326,0.92027
380.313,43.27256,-0.07362577,0.47954,0.91837
383.213,43.5533,-0.08426964,0.48697,0.91647
386.113,43.83444,-0.09402311,0.4983,0.91455
389.013,44.11612,-0.10633,0.51274,0.91262
391.913,44.39788,-0.12513,0.52623,0.91069
394.813,44.6795,-0.14697,0.54458,0.90874
397.713,44.96051,-0.17341,0.5575,0.90678
400.613,45.24179,-0.20757,0.56577,0.90482
403.513,45.52321,-0.24378,0.56072,0.90284
406.413,45.805,-0.28893,0.54595,0.90085
409.313,46.08623,-0.33684,0.49875,0.89886
412.213,46.36768,-0.39104,0.44032,0.89685
415.113,46.64978,-0.44575,0.41925,0.89483
418.013,46.93172,-0.51537,0.45561,0.8928
420.913,47.2138,-0.60286,0.51566,0.89077
423.813,47.49749,-0.70813,0.58189,0.88872
426.713,47.78103,-0.83722,0.64331,0.88666
429.613,48.06586,-0.98917,0.70574,0.8846
432.513,48.35053,-1.16536,0.75007,0.88252
435.413,48.63473,-1.35971,0.78108,0.88043
438.313,48.91897,-1.57142,0.79677,0.87834
441.213,49.20319,-1.79536,0.79444,0.87623
444.113,49.48695,-2.02292,0.76903,0.87412
447.013,49.77086,-2.24131,0.70996,0.87199
449.913,50.0541,-2.43394,0.63325,0.86986
452.813,50.33703,-2.59183,0.53191,0.86771
455.713,50.61965,-2.70487,0.42615,0.86556
458.613,50.90272,-2.78696,0.34105,0.86339
461.513,51.18612,-2.84291,0.28083,0.86122
464.413,51.47018,-2.88404,0.23385,0.85904
467.313,51.75417,-2.91709,0.19234,0.85685
470.213,52.03893,-2.94367,0.1503,0.85465
473.113,52.32355,-2.96388,0.11201,0.85243
476.013,52.6083,-2.98279,0.08343131,0.85021
478.913,52.8927,-2.9972,0.05896767,0.84799
481.813,53.1777,-3.00903,0.03831194,0.84575
484.713,53.4626,-3.01858,0.007049372,0.8435
487.613,53.74864,-3.02781,0.002409206,0.84124
490.513,54.034,-3.03509,-0.005911419,0.83898
493.413,54.3196,-3.04074,-0.01433872,0.8367
496.313,54.6051,-3.04674,-0.01391223,0.83442
499.213,54.89091,-3.05099,-0.02245212,0.83213
502.113,55.177,-3.05494,-0.0283931,0.82982
505.013,55.4632,-3.06026,-0.03282244,0.82751
507.913,55.7491,-3.06418,-0.0362853,0.82519
510.813,56.0357,-3.0678,-0.04065778,0.82287
513.713,56.3221,-3.07007,-0.04668088,0.82053
516.613,56.60835,-3.07569,-0.04860072,0.81819
519.513,56.8965,-3.0777,-0.03911853,0.81583
522.413,57.18411,-3.07963,-0.04225638,0.81347
525.313,57.4718,-3.08228,-0.04210409,0.8111
528.213,57.7589,-3.08491,-0.04214841,0.80872
531.113,58.0462,-3.08619,-0.04193786,0.80633
534.013,58.33299,-3.08886,-0.0464049,0.80394
536.913,58.6205,-3.0915,-0.05061475,0.80153
539.813,58.90716,-3.09149,-0.04873415,0.79912
542.713,59.195,-3.09281,-0.04807773,0.7967
545.613,59.4827,-3.09512,-0.0512778,0.79427
548.513,59.7711,-3.09579,-0.05052441,0.79183
551.413,60.0596,-3.09677,-0.05276176,0.78939
554.313,60.3479,-3.09941,-0.05310592,0.78694
557.213,60.63616,-3.10204,-0.0525816,0.78448
560.113,60.92402,-3.10269,-0.05188163,0.78201
563.013,61.2123,-3.10534,-0.05560701,0.77953
565.913,61.50111,-3.10663,-0.05288333,0.77705
568.813,61.78949,-3.10929,-0.05765038,0.77456
571.713,62.07901,-3.11119,-0.05967688,0.77206
574.613,62.36785,-3.11356,-0.06356248,0.76956
577.513,62.65724,-3.11455,-0.0601326,0.76704
580.413,62.946,-3.11554,-0.06349574,0.76452
583.313,63.23511,-3.11884,-0.06199524,0.762
586.213,63.52544,-3.1205,-0.06238025,0.75946
589.113,63.81469,-3.1219,-0.06071389,0.75692
592.013,64.1039,-3.12592,-0.06389331,0.75437
594.913,64.39371,-3.12642,-0.06207488,0.75182
597.813,64.68304,-3.12906,-0.05625609,0.74926
600.713,64.9729,-3.13039,-0.05988141,0.74669
603.613,65.2626,-3.13267,-0.06142089,0.74411
606.513,65.55346,-3.13401,-0.05950188,0.74153
609.413,65.84353,-3.13681,-0.05507211,0.73894
612.313,66.134,-3.13685,-0.05737366,0.73635
615.213,66.42466,-3.13982,-0.05557249,0.73375
618.113,66.71509,-3.1428,-0.05963331,0.73114
621.013,67.00618,-3.1453,-0.06298964,0.72853
623.913,67.29705,-3.14648,-0.05840817,0.72591
626.813,67.58768,-3.14839,-0.05868963,0.72328
629.713,67.87793,-3.15056,-0.05944369,0.72065
632.613,68.1682,-3.15188,-0.06019438,0.71802
635.513,68.4581,-3.15352,-0.06244005,0.71537
638.413,68.74821,-3.15321,-0.06579332,0.71273
641.313,69.0385,-3.15715,-0.06943573,0.71007
644.213,69.32979,-3.15748,-0.06776763,0.70741
647.113,69.62029,-3.1588,-0.07206122,0.70475
650.013,69.91235,-3.16143,-0.07206312,0.70208
652.913,70.20322,-3.16145,-0.07233094,0.6994
655.813,70.49404,-3.1626,-0.07433334,0.69672
658.713,70.7842,-3.16527,-0.07798086,0.69404
661.613,71.07496,-3.16493,-0.07838978,0.69135
664.513,71.3661,-3.1678,-0.08349898,0.68865
667.413,71.65715,-3.16802,-0.08943131,0.68595
670.313,71.9485,-3.16933,-0.09175184,0.68325
673.213,72.23942,-3.17067,-0.09366998,0.68054
676.113,72.5307,-3.17197,-0.09914193,0.67783
679.013,72.82273,-3.1723,-0.10044,0.67511
681.913,73.11458,-3.17327,-0.10856,0.67239
684.813,73.4064,-3.17428,-0.114,0.66966
687.713,73.69807,-3.17527,-0.11761,0.66693
690.613,73.98993,-3.17395,-0.12634,0.6642
693.513,74.28184,-3.17658,-0.12534,0.66146
696.413,74.5732,-3.1779,-0.13378,0.65872
699.313,74.86521,-3.17658,-0.14,0.65597
700.613,74.99651,-3.17856,-0.1463,0.65474