File: 01_Data/Polyester_Microfiber_Sheet/STA/N2/10K_min/Polyester_Microfiber_Sheet_STA_N2_10KData_220526_R1.csv
##Temp./Â°C,Time/min,Mass loss(subtr.2)/mg,DSC(subtr.2)/(mW/mg),Sensit./(uV/mW)
49.856,10.01,0.01263,-0.00252688,1.07014
52.656,11.26039,0.01351121,0.08648851,1.06936
55.456,11.67508,0.0156066,0.13094,1.06858
58.256,12.0246,0.01602561,0.1539,1.06779
61.056,12.34755,0.01625133,0.16803,1.067
63.856,12.6592,0.01625011,0.18053,1.06619
66.656,12.96391,0.0149436,0.19062,1.06538
69.456,13.264,0.01491733,0.19759,1.06456
72.256,13.56037,0.01657666,0.20248,1.06373
75.056,13.8546,0.01757,0.20027,1.06289
77.856,14.146,0.01717976,0.19054,1.06204
80.656,14.4352,0.0162536,0.1823,1.06119
83.456,14.7219,0.01621545,0.18005,1.06033
86.256,15.00598,0.01625149,0.17745,1.05946
89.056,15.2886,0.01658001,0.17754,1.05858
91.856,15.5688,0.016244,0.17802,1.05769
94.656,15.8472,0.01626092,0.1754,1.05679
97.456,16.1243,0.01886449,0.17691,1.05589
100.256,16.3999,0.01756964,0.17924,1.05498
103.056,16.67541,0.0175699,0.18583,1.05406
105.856,16.95035,0.01690886,0.19278,1.05313
108.656,17.2246,0.01625995,0.19852,1.05219
111.456,17.4979,0.01757,0.20533,1.05124
114.256,17.7712,0.01756999,0.21265,1.05029
117.056,18.0435,0.0175674,0.21911,1.04933
119.856,18.31661,0.01756913,0.22235,1.04835
122.656,18.58928,0.01888981,0.22758,1.04737
125.456,18.86091,0.01889,0.23495,1.04639
128.256,19.1323,0.01888,0.24215,1.04539
131.056,19.40341,0.01757128,0.24794,1.04438
133.856,19.67486,0.01889005,0.24952,1.04337
136.656,19.94537,0.01823621,0.25495,1.04235
139.456,20.21575,0.01756916,0.25723,1.04132
142.256,20.48538,0.01756996,0.26072,1.04028
145.056,20.75429,0.01729423,0.26237,1.03923
147.856,21.02429,0.01687214,0.26728,1.03817
150.656,21.29277,0.01666079,0.26963,1.0371
153.456,21.56123,0.01559988,0.27283,1.03603
156.256,21.8297,0.0159196,0.27529,1.03494
159.056,22.0979,0.01690991,0.27928,1.03385
161.856,22.36674,0.01427913,0.28227,1.03275
164.656,22.63437,0.01486965,0.28298,1.03164
167.456,22.90201,0.01442883,0.28995,1.03052
170.256,23.1695,0.01688079,0.29159,1.02939
173.056,23.43654,0.01563043,0.29396,1.02826
175.856,23.70382,0.01591987,0.29733,1.02711
178.656,23.97165,0.01427008,0.30036,1.02596
181.456,24.23818,0.01558085,0.30089,1.02479
184.256,24.50512,0.01427999,0.30331,1.02362
187.056,24.77131,0.01527,0.30497,1.02244
189.856,25.03833,0.01395005,0.30731,1.02125
192.656,25.30455,0.01427988,0.30903,1.02005
195.456,25.5709,0.01526923,0.31155,1.01884
198.256,25.83754,0.01298291,0.31315,1.01763
201.056,26.10375,0.01427,0.316,1.0164
203.856,26.36978,0.01296,0.32044,1.01516
206.656,26.6361,0.01262951,0.32478,1.01392
209.456,26.90305,0.01329,0.32779,1.01267
212.256,27.16955,0.01194649,0.33095,1.0114
215.056,27.43597,0.01196999,0.33463,1.01013
217.856,27.70295,0.01196971,0.33935,1.00885
220.656,27.9693,0.01196969,0.34255,1.00756
223.456,28.23589,0.0109785,0.34729,1.00626
226.256,28.5028,0.01,0.35212,1.00495
229.056,28.76933,0.01,0.36009,1.00363
231.856,29.03615,0.0103305,0.37084,1.00231
234.656,29.30224,0.01032999,0.37996,1.00097
237.456,29.5695,0.009668016,0.39235,0.99962
240.256,29.83612,0.008012714,0.41416,0.99827
243.056,30.1023,0.009243688,0.44041,0.9969
245.856,30.3683,0.008678438,0.48276,0.99553
248.656,30.6354,0.00700034,0.54625,0.99415
251.456,30.90225,0.006700011,0.65696,0.99275
254.256,31.17093,0.0067,0.88223,0.99135
257.056,31.43945,0.00638,1.18901,0.98994
259.856,31.70928,0.006381386,1.1646,0.98852
262.656,31.97539,0.00506,0.78654,0.98709
265.456,32.2417,0.00374,0.54896,0.98565
268.256,32.50654,0.003080994,0.45035,0.9842
271.056,32.77156,0.001980749,0.40831,0.98274
273.856,33.0377,0.003566368,0.39347,0.98127
276.656,33.30295,0.00341009,0.38799,0.9798
279.456,33.56971,0.00176,0.38483,0.97831
282.256,33.83677,0.003898122,0.38453,0.97681
285.056,34.10322,0.00142879,0.38416,0.97531
287.856,34.37064,0.00143,0.38522,0.97379
290.656,34.6374,0.0007700036,0.38594,0.97226
293.456,34.90466,0.0007699995,0.38402,0.97073
296.256,35.17232,0.00011,0.38526,0.96919
299.056,35.43987,-0.00022,0.38644,0.96763
301.856,35.70778,-0.001199919,0.38655,0.96607
304.656,35.97487,-0.002189993,0.38608,0.9645
307.456,36.24366,-0.002371239,0.38818,0.96291
310.256,36.51158,-0.003510156,0.38947,0.96132
313.056,36.78008,-0.002520741,0.38741,0.95972
315.856,37.04838,-0.003826317,0.38944,0.95811
318.656,37.317,-0.004481509,0.38913,0.95649
321.456,37.58534,-0.00384,0.39088,0.95486
324.256,37.8543,-0.00482,0.39174,0.95322
327.056,38.12328,-0.004819324,0.39523,0.95157
329.856,38.39186,-0.00679972,0.39453,0.94991
332.656,38.66107,-0.008133738,0.39508,0.94824
335.456,38.9294,-0.009110256,0.39625,0.94656
338.256,39.19893,-0.00881806,0.39874,0.94488
341.056,39.4681,-0.0101015,0.40105,0.94318
343.856,39.7369,-0.01173886,0.40046,0.94147
346.656,40.00687,-0.01114424,0.40074,0.93975
349.456,40.27639,-0.01287823,0.40355,0.93803
352.256,40.54663,-0.0114685,0.40537,0.93629
355.056,40.81643,-0.01416034,0.40734,0.93455
357.856,41.0867,-0.01645057,0.40993,0.93279
360.656,41.35735,-0.01875634,0.41166,0.93103
363.456,41.62764,-0.01893948,0.41845,0.92926
366.256,41.89805,-0.02117903,0.42135,0.92747
369.056,42.168,-0.02569145,0.42972,0.92568
371.856,42.43865,-0.02699977,0.43631,0.92388
374.656,42.70973,-0.03160884,0.44383,0.92206
377.456,42.98104,-0.03701609,0.45385,0.92024
380.256,43.25308,-0.04240557,0.46562,0.91841
383.056,43.52466,-0.05116635,0.4783,0.91657
385.856,43.79632,-0.062098,0.49387,0.91472
388.656,44.06767,-0.07565191,0.50673,0.91286
391.456,44.3395,-0.09358245,0.5234,0.91099
394.256,44.61087,-0.11382,0.53907,0.90912
397.056,44.883,-0.13729,0.54689,0.90723
399.856,45.15495,-0.1688,0.55723,0.90533
402.656,45.42699,-0.20147,0.46696,0.90342
405.456,45.69907,-0.23896,0.43616,0.90151
408.256,45.97098,-0.2821,0.41805,0.89958
411.056,46.24333,-0.32886,0.39851,0.89765
413.856,46.516,-0.37748,0.36968,0.89571
416.656,46.7883,-0.44,0.39698,0.89375
419.456,47.06143,-0.51584,0.44111,0.89179
422.256,47.33489,-0.60886,0.49292,0.88982
425.056,47.60824,-0.71971,0.55654,0.88784
427.856,47.88204,-0.85161,0.61816,0.88585
430.656,48.15641,-1.00661,0.67382,0.88385
433.456,48.43029,-1.17915,0.70569,0.88184
436.256,48.70402,-1.36564,0.73559,0.87982
439.056,48.97825,-1.57176,0.74772,0.8778
441.856,49.25219,-1.78685,0.74244,0.87576
444.656,49.5261,-2.0014,0.71169,0.87372
447.456,49.79971,-2.20856,0.65556,0.87166
450.256,50.07282,-2.39194,0.57979,0.8696
453.056,50.34659,-2.53976,0.48584,0.86753
455.856,50.6195,-2.64742,0.38361,0.86545
458.656,50.89312,-2.72274,0.30151,0.86336
461.456,51.1669,-2.78052,0.23719,0.86126
464.256,51.4409,-2.81897,0.18896,0.85916
467.056,51.71578,-2.85183,0.14309,0.85704
469.856,51.98964,-2.87696,0.10354,0.85492
472.656,52.26396,-2.89785,0.06524102,0.85278
475.456,52.53826,-2.91566,0.03563756,0.85064
478.256,52.8138,-2.9319,0.01310723,0.84849
481.056,53.0895,-2.94306,-0.0036179,0.84633
483.856,53.3647,-2.95165,-0.02158034,0.84416
486.656,53.6404,-2.9622,-0.03536463,0.84199
489.456,53.9157,-2.96925,-0.05236528,0.8398
492.256,54.19174,-2.97389,-0.06861693,0.83761
495.056,54.46736,-2.98137,-0.07763402,0.83541
497.856,54.7429,-2.98546,-0.08031009,0.8332
500.656,55.01924,-2.98973,-0.08134458,0.83098
503.456,55.2947,-2.99367,-0.08546834,0.82876
506.256,55.5714,-2.99809,-0.08496525,0.82652
509.056,55.84749,-3.00158,-0.08745188,0.82428
511.856,56.12435,-3.0055,-0.08925923,0.82203
514.656,56.40191,-3.0078,-0.09090374,0.81977
517.456,56.67865,-3.01212,-0.08696073,0.8175
520.256,56.9564,-3.01405,-0.08409337,0.81523
523.056,57.23346,-3.01739,-0.08609315,0.81294
525.856,57.5115,-3.0187,-0.0831995,0.81065
528.656,57.7894,-3.022,-0.08381147,0.80835
531.456,58.0673,-3.02332,-0.08544154,0.80605
534.256,58.3453,-3.02546,-0.08805449,0.80373
537.056,58.6231,-3.02668,-0.08679977,0.80141
539.856,58.90055,-3.02826,-0.08990312,0.79908
542.656,59.1779,-3.02903,-0.09087426,0.79675
545.456,59.4562,-3.03167,-0.09718589,0.7944
548.256,59.73421,-3.03394,-0.09882178,0.79205
551.056,60.01256,-3.03394,-0.10235,0.78969
553.856,60.29011,-3.03628,-0.10572,0.78732
556.656,60.5683,-3.03884,-0.1031,0.78495
559.456,60.8467,-3.0403,-0.10332,0.78257
562.256,61.1258,-3.04209,-0.10574,0.78018
565.056,61.4046,-3.04484,-0.10968,0.77779
567.856,61.68374,-3.04483,-0.10989,0.77538
570.656,61.9626,-3.04678,-0.1081,0.77297
573.456,62.24224,-3.04944,-0.11057,0.77056
576.256,62.5212,-3.0501,-0.11198,0.76813
579.056,62.8005,-3.05424,-0.11077,0.7657
581.856,63.07904,-3.05407,-0.11654,0.76327
584.656,63.3588,-3.05636,-0.11676,0.76082
587.456,63.639,-3.05866,-0.11686,0.75838
590.256,63.918,-3.06054,-0.11368,0.75592
593.056,64.19715,-3.06262,-0.115,0.75346
595.856,64.4769,-3.06494,-0.11483,0.75099
598.656,64.7564,-3.0669,-0.11607,0.74851
601.456,65.03567,-3.06954,-0.11769,0.74603
604.256,65.31645,-3.07187,-0.1143,0.74354
607.056,65.59666,-3.07289,-0.11648,0.74105
609.856,65.87591,-3.07447,-0.11452,0.73855
612.656,66.15682,-3.07828,-0.11746,0.73604
615.456,66.43672,-3.07843,-0.11706,0.73353
618.256,66.71677,-3.08107,-0.11496,0.73101
621.056,66.9962,-3.0827,-0.11779,0.72849
623.856,67.2767,-3.08403,-0.11841,0.72596
626.656,67.55708,-3.08634,-0.11631,0.72343
629.456,67.8382,-3.08765,-0.11877,0.72089
632.256,68.1189,-3.08897,-0.12193,0.71834
635.056,68.39922,-3.09191,-0.12329,0.71579
637.856,68.6793,-3.09193,-0.12248,0.71323
640.656,68.95949,-3.09325,-0.12593,0.71067
643.456,69.24064,-3.09588,-0.12821,0.70811
646.256,69.52155,-3.09709,-0.12901,0.70554
649.056,69.80229,-3.0982,-0.12621,0.70296
651.856,70.0832,-3.09951,-0.1272,0.70038
654.656,70.36368,-3.09951,-0.1308,0.69779
657.456,70.6451,-3.10116,-0.13399,0.6952
660.256,70.92628,-3.10115,-0.13487,0.69261
663.056,71.20744,-3.10116,-0.13272,0.69001
665.856,71.48914,-3.10347,-0.13535,0.6874
668.656,71.77001,-3.10478,-0.14046,0.68479
671.456,72.05072,-3.10477,-0.14308,0.68218
674.256,72.33163,-3.10675,-0.14719,0.67956
677.056,72.6132,-3.10808,-0.14912,0.67694
679.856,72.89526,-3.10939,-0.15635,0.67432
682.656,73.17705,-3.11071,-0.1552,0.67169
685.456,73.45872,-3.11077,-0.16326,0.66905
688.256,73.73991,-3.11092,-0.17071,0.66642
691.056,74.02176,-3.11191,-0.17412,0.66378
693.856,74.30399,-3.11191,-0.17865,0.66113
696.656,74.5864,-3.11389,-0.18268,0.65849
699.456,74.8688,-3.11389,-0.18874,0.65583
700.756,74.99886,-3.11458,-0.19279,0.6546