File: 01_Data/Straw/STA/N2/10K_min/Straw_STA_N2_10KData_220429_R1.csv
##Temp./Â°C,Time/min,Mass loss(subtr.2)/mg,DSC(subtr.2)/(mW/mg),Sensit./(uV/mW)
49.83,10.01,0.01349,0.01762234,1.06049
52.83,11.29144,0.01353603,0.12113,1.05987
55.83,11.72295,0.01311318,0.16953,1.05923
58.83,12.09074,0.01441551,0.20314,1.05857
61.83,12.43368,0.01551497,0.21833,1.0579
64.83,12.76496,0.01330993,0.23546,1.05721
67.83,13.08986,0.01436582,0.24816,1.0565
70.83,13.41054,0.01469912,0.26104,1.05578
73.83,13.7287,0.01305038,0.27434,1.05504
76.83,14.04304,0.01173136,0.28441,1.05428
79.83,14.35539,0.01171594,0.29595,1.05351
82.83,14.6635,0.008991575,0.30499,1.05272
85.83,14.968,0.009001485,0.31396,1.05191
88.83,15.2701,0.00668,0.31897,1.05109
91.83,15.56962,0.006361236,0.32197,1.05025
94.83,15.86855,0.003055962,0.32249,1.0494
97.83,16.16551,0.00175,0.32096,1.04853
100.83,16.46115,0.001097794,0.31529,1.04764
103.83,16.75581,0.001090036,0.31207,1.04674
106.83,17.04993,0.0001041775,0.31208,1.04583
109.83,17.34389,-0.001514695,0.30364,1.04489
112.83,17.63745,-0.00286046,0.29915,1.04394
115.83,17.92979,-0.00285323,0.29592,1.04298
118.83,18.22227,-0.004169262,0.29571,1.042
121.83,18.5146,-0.002849741,0.29237,1.04101
124.83,18.8063,-0.00449032,0.28668,1.04
127.83,19.09789,-0.002849885,0.28632,1.03897
130.83,19.38865,-0.00315273,0.28804,1.03793
133.83,19.67886,-0.005479969,0.29071,1.03687
136.83,19.9682,-0.003840073,0.29345,1.0358
139.83,20.2582,-0.005829153,0.29481,1.03472
142.83,20.54663,-0.00515995,0.29847,1.03362
145.83,20.8361,-0.006149379,0.30014,1.0325
148.83,21.12483,-0.006526992,0.30405,1.03137
151.83,21.41374,-0.005782879,0.30876,1.03023
154.83,21.70192,-0.006479819,0.30925,1.02907
157.83,21.98992,-0.007790091,0.31056,1.02789
160.83,22.2778,-0.006470061,0.31322,1.0267
163.83,22.5656,-0.007129374,0.31661,1.0255
166.83,22.85347,-0.006800024,0.31832,1.02428
169.83,23.14128,-0.007471421,0.32305,1.02305
172.83,23.42804,-0.00878,0.32314,1.02181
175.83,23.71562,-0.009771551,0.32638,1.02055
178.83,24.00301,-0.012389,0.3274,1.01927
181.83,24.2899,-0.01305,0.33028,1.01799
184.83,24.5768,-0.01437,0.32992,1.01668
187.83,24.86351,-0.01633262,0.32652,1.01537
190.83,25.14958,-0.01930016,0.33013,1.01404
193.83,25.43593,-0.02151657,0.33394,1.0127
196.83,25.72178,-0.02494542,0.33938,1.01134
199.83,26.00626,-0.02734944,0.34158,1.00997
202.83,26.2914,-0.0321401,0.3437,1.00859
205.83,26.5765,-0.03677606,0.34067,1.00719
208.83,26.86164,-0.04412593,0.33716,1.00578
211.83,27.147,-0.04991956,0.33327,1.00436
214.83,27.4328,-0.05934796,0.3333,1.00292
217.83,27.7192,-0.06879509,0.33661,1.00147
220.83,28.00484,-0.0799096,0.33873,1.00001
223.83,28.29092,-0.09328064,0.3397,0.99854
226.83,28.57723,-0.10737,0.34516,0.99705
229.83,28.86297,-0.12322,0.35205,0.99555
232.83,29.1492,-0.13978,0.35718,0.99404
235.83,29.43473,-0.1572,0.36279,0.99251
238.83,29.7202,-0.17705,0.36161,0.99097
241.83,30.0066,-0.19766,0.36108,0.98942
244.83,30.2917,-0.21684,0.35754,0.98786
247.83,30.57677,-0.23888,0.35293,0.98629
250.83,30.86215,-0.26031,0.34797,0.9847
253.83,31.14798,-0.28209,0.33991,0.9831
256.83,31.4341,-0.30674,0.33342,0.98149
259.83,31.71985,-0.3319,0.32225,0.97987
262.83,32.0062,-0.35955,0.31639,0.97823
265.83,32.29222,-0.3904,0.30901,0.97659
268.83,32.57863,-0.42258,0.29908,0.97493
271.83,32.86566,-0.4593,0.28822,0.97326
274.83,33.15166,-0.50148,0.27903,0.97158
277.83,33.43793,-0.54669,0.26569,0.96989
280.83,33.7252,-0.59847,0.25712,0.96819
283.83,34.01163,-0.65575,0.24431,0.96647
286.83,34.29841,-0.71976,0.23497,0.96474
289.83,34.58494,-0.79052,0.22594,0.96301
292.83,34.87162,-0.86815,0.21701,0.96126
295.83,35.15818,-0.95011,0.20768,0.9595
298.83,35.44547,-1.03761,0.19474,0.95773
301.83,35.73222,-1.1337,0.18914,0.95595
304.83,36.01913,-1.23154,0.17819,0.95416
307.83,36.30695,-1.33619,0.16314,0.95236
310.83,36.5944,-1.44313,0.15039,0.95055
313.83,36.88153,-1.55179,0.13447,0.94872
316.83,37.17006,-1.66166,0.10783,0.94689
319.83,37.45825,-1.77135,0.07844599,0.94505
322.83,37.7468,-1.87441,0.04827266,0.94319
325.83,38.03519,-1.97107,0.0233805,0.94133
328.83,38.32347,-2.05391,0.00765192,0.93946
331.83,38.612,-2.11978,0.01740894,0.93757
334.83,38.90064,-2.16911,0.04025276,0.93568
337.83,39.18947,-2.20442,0.06044458,0.93378
340.83,39.47789,-2.23082,0.0704494,0.93187
343.83,39.7667,-2.25339,0.07245594,0.92994
346.83,40.05688,-2.27239,0.06960867,0.92801
349.83,40.346,-2.28701,0.06830934,0.92607
352.83,40.63556,-2.30421,0.06707572,0.92412
355.83,40.92505,-2.318,0.0660444,0.92216
358.83,41.21403,-2.33201,0.06042448,0.92019
361.83,41.5043,-2.3433,0.05772371,0.91821
364.83,41.7943,-2.35536,0.06026029,0.91623
367.83,42.08433,-2.36749,0.05444579,0.91423
370.83,42.37404,-2.37768,0.05115949,0.91222
373.83,42.66475,-2.38656,0.04869923,0.91021
376.83,42.95568,-2.39657,0.04555528,0.90819
379.83,43.2462,-2.40455,0.04661757,0.90616
382.83,43.53791,-2.41447,0.04363565,0.90412
385.83,43.82951,-2.42439,0.04065288,0.90207
388.83,44.121,-2.4341,0.03849661,0.90001
391.83,44.41245,-2.44216,0.03760739,0.89795
394.83,44.70453,-2.45066,0.03626045,0.89587
397.83,44.9964,-2.45809,0.03554016,0.89379
400.83,45.28833,-2.46652,0.03674645,0.8917
403.83,45.58097,-2.47496,0.03931882,0.88961
406.83,45.8735,-2.48306,0.03608113,0.8875
409.83,46.16617,-2.49036,0.04097149,0.88539
412.83,46.45874,-2.49626,0.03907882,0.88327
415.83,46.7514,-2.50322,0.04090015,0.88114
418.83,47.04435,-2.51214,0.04533181,0.879
421.83,47.33768,-2.51644,0.04666034,0.87686
424.83,47.63041,-2.52519,0.05146499,0.87471
427.83,47.92425,-2.53128,0.05274803,0.87255
430.83,48.21857,-2.5376,0.05062661,0.87038
433.83,48.51193,-2.54417,0.05544598,0.86821
436.83,48.80644,-2.55045,0.05606981,0.86603
439.83,49.1001,-2.55756,0.05976278,0.86384
442.83,49.39343,-2.56143,0.05911312,0.86165
445.83,49.68693,-2.56907,0.05891479,0.85945
448.83,49.98093,-2.57566,0.05996624,0.85724
451.83,50.27551,-2.57991,0.06060726,0.85503
454.83,50.5702,-2.58388,0.06209781,0.85281
457.83,50.8651,-2.59199,0.06091839,0.85058
460.83,51.1605,-2.59857,0.06350605,0.84834
463.83,51.45555,-2.6052,0.06614977,0.8461
466.83,51.75164,-2.6091,0.06303142,0.84386
469.83,52.0469,-2.61306,0.06306461,0.8416
472.83,52.34207,-2.61699,0.06504369,0.83934
475.83,52.63788,-2.62227,0.0656979,0.83708
478.83,52.9336,-2.62841,0.06521519,0.83481
481.83,53.22965,-2.62973,0.06030471,0.83253
484.83,53.52585,-2.63597,0.06272024,0.83025
487.83,53.82225,-2.63902,0.06104889,0.82796
490.83,54.11906,-2.64415,0.05863584,0.82566
493.83,54.4163,-2.64817,0.06096923,0.82336
496.83,54.7136,-2.65111,0.07006735,0.82106
499.83,55.0105,-2.65664,0.07643074,0.81875
502.83,55.30633,-2.65616,0.08340453,0.81643
505.83,55.602,-2.66142,0.09209919,0.81411
508.83,55.8979,-2.66297,0.09665376,0.81178
511.83,56.1938,-2.66698,0.09683979,0.80945
514.83,56.49045,-2.67392,0.10106,0.80711
517.83,56.7875,-2.67326,0.10124,0.80477
520.83,57.08497,-2.6759,0.10191,0.80242
523.83,57.38344,-2.68051,0.09974718,0.80006
526.83,57.68167,-2.68051,0.10041,0.79771
529.83,57.9801,-2.68216,0.09712413,0.79535
532.83,58.2788,-2.68578,0.09796462,0.79298
535.83,58.57676,-2.68741,0.09708329,0.79061
538.83,58.87475,-2.69137,0.09584202,0.78823
541.83,59.1731,-2.69192,0.09082632,0.78585
544.83,59.471,-2.69245,0.08910335,0.78347
547.83,59.7696,-2.69674,0.08492287,0.78108
550.83,60.0678,-2.701,0.08281528,0.77868
553.83,60.36727,-2.70102,0.08037852,0.77629
556.83,60.66594,-2.70426,0.08175073,0.77388
559.83,60.96586,-2.70432,0.08116768,0.77148
562.83,61.2645,-2.70739,0.08229617,0.76907
565.83,61.56361,-2.70922,0.07617172,0.76666
568.83,61.8624,-2.70936,0.07411956,0.76424
571.83,62.1613,-2.71199,0.07434115,0.76182
574.83,62.4612,-2.71331,0.0696817,0.75939
577.83,62.76105,-2.71363,0.07206336,0.75697
580.83,63.06151,-2.71626,0.0666488,0.75453
583.83,63.36195,-2.71894,0.06681715,0.7521
586.83,63.66215,-2.7189,0.06768031,0.74966
589.83,63.96304,-2.72154,0.06714976,0.74722
592.83,64.26437,-2.7209,0.06138662,0.74477
595.83,64.5655,-2.72216,0.05962804,0.74233
598.83,64.86654,-2.72585,0.05547056,0.73988
601.83,65.16713,-2.7255,0.05439579,0.73742
604.83,65.46862,-2.72549,0.0555669,0.73496
607.83,65.76913,-2.72879,0.05038651,0.7325
610.83,66.0694,-2.73009,0.05252284,0.73004
613.83,66.37003,-2.72976,0.0473977,0.72758
616.83,66.67087,-2.73108,0.04921312,0.72511
619.83,66.97216,-2.73203,0.04453991,0.72264
622.83,67.2743,-2.73107,0.04180398,0.72017
625.83,67.5763,-2.73502,0.04076239,0.71769
628.83,67.87816,-2.73667,0.03780106,0.71521
631.83,68.17886,-2.73465,0.03373793,0.71273
634.83,68.48001,-2.737,0.03471979,0.71025
637.83,68.78087,-2.73898,0.03190871,0.70777
640.83,69.08194,-2.73831,0.03087094,0.70528
643.83,69.38336,-2.74029,0.02652893,0.70279
646.83,69.6848,-2.7416,0.02424362,0.7003
649.83,69.9863,-2.74134,0.021302,0.69781
652.83,70.28798,-2.74391,0.01663082,0.69532
655.83,70.59047,-2.74457,0.0142546,0.69282
658.83,70.89224,-2.74544,0.01610442,0.69032
661.83,71.1947,-2.74522,0.01716475,0.68782
664.83,71.49686,-2.74621,0.01709682,0.68532
667.83,71.79907,-2.74749,0.009306059,0.68282
670.83,72.10183,-2.74786,0.0104444,0.68032
673.83,72.40417,-2.74756,0.00822421,0.67781
676.83,72.70572,-2.74918,0.01293151,0.67531
679.83,73.00875,-2.75181,0.01147325,0.6728
682.83,73.31178,-2.75115,0.01086273,0.67029
685.83,73.61451,-2.75401,0.00996658,0.66778
688.83,73.91704,-2.75312,0.005652195,0.66527
691.83,74.22,-2.75411,0.004644553,0.66276
694.83,74.5226,-2.75274,0.00555871,0.66025
697.83,74.8253,-2.75345,0.007163089,0.65773
700.83,75.128,-2.75476,0.002030849,0.65522
703.83,75.43093,-2.75608,0.008104309,0.65271
706.83,75.73387,-2.7574,0.005016263,0.65019
709.83,76.03619,-2.75785,0.007401781,0.64768
712.83,76.33934,-2.76013,0.003368018,0.64516
715.83,76.64269,-2.75752,0.001251085,0.64264
718.83,76.9459,-2.75849,0.004076585,0.64013
721.83,77.2487,-2.75981,-0.001039561,0.63761
724.83,77.5522,-2.75982,-0.008285798,0.63509
727.83,77.85565,-2.76113,-0.01367354,0.63258
730.83,78.15961,-2.7598,-0.01376678,0.63006
733.83,78.46315,-2.76113,-0.01291762,0.62754
736.83,78.76531,-2.76317,-0.01704452,0.62502
739.83,79.0686,-2.76202,-0.01670471,0.62251
742.83,79.3716,-2.76377,-0.0181495,0.61999
745.83,79.67506,-2.76577,-0.01991482,0.61747
748.83,79.97901,-2.76543,-0.02169241,0.61496
749.03,79.99909,-2.76541,-0.02264494,0.61479