File: 01_Data/Straw/STA/N2/10K_min/Straw_STA_N2_10KData_22052_R3.csv
##Temp./Â°C,Time/min,Mass loss(subtr.2)/mg,DSC(subtr.2)/(mW/mg),Sensit./(uV/mW)
49.733,10.01,0.00758,0.01540296,1.06051
52.933,11.3188,0.01176011,0.12259,1.05985
56.133,11.76736,0.008834876,0.17231,1.05916
59.333,12.15258,0.009334003,0.20206,1.05846
62.533,12.51446,0.01155236,0.21793,1.05774
65.733,12.86566,0.009520667,0.2396,1.057
68.933,13.2101,0.008782784,0.25619,1.05623
72.133,13.5504,0.00651929,0.27113,1.05546
75.333,13.88669,0.005495997,0.2848,1.05466
78.533,14.2195,0.002862565,0.29781,1.05384
81.733,14.54959,0.001553444,0.30816,1.05301
84.933,14.8751,-0.0001057234,0.31608,1.05215
88.133,15.19839,-0.00261447,0.32107,1.05128
91.333,15.51876,-0.003730082,0.31558,1.05039
94.533,15.8384,-0.0076081,0.3121,1.04948
97.733,16.15551,-0.00964326,0.30598,1.04856
100.933,16.4713,-0.008667306,0.29667,1.04761
104.133,16.7866,-0.009970068,0.28415,1.04665
107.333,17.10065,-0.01229203,0.27795,1.04567
110.533,17.4137,-0.01261108,0.27005,1.04467
113.733,17.72725,-0.0139156,0.25997,1.04366
116.933,18.03888,-0.01524348,0.25844,1.04262
120.133,18.35063,-0.01622,0.25744,1.04157
123.333,18.66235,-0.01361092,0.24958,1.0405
126.533,18.9731,-0.01489147,0.24495,1.03942
129.733,19.28254,-0.01620666,0.24557,1.03831
132.933,19.5926,-0.01622935,0.24225,1.03719
136.133,19.90202,-0.01557207,0.2434,1.03605
139.333,20.21048,-0.01754784,0.24364,1.0349
142.533,20.51925,-0.0162195,0.24564,1.03373
145.733,20.8271,-0.01490417,0.24712,1.03254
148.933,21.13526,-0.01754655,0.24671,1.03133
152.133,21.44249,-0.01622434,0.25086,1.03011
155.333,21.75027,-0.01654984,0.25293,1.02887
158.533,22.0575,-0.01896385,0.25171,1.02762
161.733,22.3651,-0.01786826,0.25338,1.02634
164.933,22.67178,-0.01887143,0.25714,1.02506
168.133,22.97879,-0.02149126,0.25918,1.02375
171.333,23.28517,-0.02124726,0.26014,1.02243
174.533,23.59231,-0.02170843,0.25948,1.02109
177.733,23.89944,-0.02166033,0.2602,1.01974
180.933,24.20551,-0.02501,0.25938,1.01837
184.133,24.51137,-0.02566913,0.2621,1.01699
187.333,24.8172,-0.02697999,0.26087,1.01559
190.533,25.12266,-0.03055498,0.26219,1.01417
193.733,25.42771,-0.03266418,0.265,1.01274
196.933,25.73262,-0.03663005,0.26686,1.01129
200.133,26.03712,-0.0392483,0.26807,1.00983
203.333,26.3422,-0.04225295,0.26709,1.00836
206.533,26.64735,-0.04879977,0.26845,1.00686
209.733,26.9519,-0.05539839,0.26698,1.00536
212.933,27.2564,-0.06493165,0.26482,1.00383
216.133,27.56115,-0.07370445,0.26383,1.0023
219.333,27.86603,-0.08495265,0.26421,1.00074
222.533,28.17095,-0.09798429,0.26887,0.99918
225.733,28.47575,-0.11222,0.27358,0.9976
228.933,28.78053,-0.12954,0.27786,0.996
232.133,29.08577,-0.14733,0.28174,0.99439
235.333,29.3905,-0.16607,0.28242,0.99277
238.533,29.69547,-0.1881,0.28463,0.99113
241.733,30.0008,-0.20651,0.28507,0.98948
244.933,30.3054,-0.22869,0.27752,0.98781
248.133,30.61034,-0.25172,0.27298,0.98613
251.333,30.91563,-0.27398,0.26791,0.98443
254.533,31.22,-0.29976,0.26146,0.98273
257.733,31.52461,-0.32624,0.25363,0.981
260.933,31.82886,-0.35409,0.24237,0.97927
264.133,32.1334,-0.38338,0.232,0.97752
267.333,32.43873,-0.41681,0.22444,0.97576
270.533,32.74407,-0.45612,0.21174,0.97398
273.733,33.04937,-0.49753,0.20057,0.9722
276.933,33.35523,-0.54674,0.18562,0.9704
280.133,33.6612,-0.59965,0.17499,0.96858
283.333,33.96718,-0.66094,0.16299,0.96676
286.533,34.2729,-0.72607,0.15142,0.96492
289.733,34.5794,-0.79947,0.13952,0.96306
292.933,34.88558,-0.88249,0.12905,0.9612
296.133,35.19147,-0.97144,0.12153,0.95932
299.333,35.49685,-1.06548,0.11027,0.95743
302.533,35.80247,-1.16787,0.09932676,0.95553
305.733,36.1087,-1.27329,0.08460759,0.95362
308.933,36.41495,-1.38667,0.07026247,0.95169
312.133,36.72206,-1.50115,0.05499745,0.94976
315.333,37.02928,-1.61836,0.03235769,0.94781
318.533,37.33632,-1.73716,0.005684355,0.94585
321.733,37.64367,-1.84851,-0.02728807,0.94387
324.933,37.9514,-1.95563,-0.0612351,0.94189
328.133,38.2594,-2.04872,-0.08030116,0.93989
331.333,38.56666,-2.12517,-0.07549018,0.93789
334.533,38.87508,-2.18056,-0.05340336,0.93587
337.733,39.18336,-2.21883,-0.03183473,0.93384
340.933,39.4928,-2.24513,-0.02704113,0.9318
344.133,39.80138,-2.27161,-0.02374104,0.92975
347.333,40.11071,-2.2894,-0.02661608,0.92769
350.533,40.41982,-2.30876,-0.03095276,0.92561
353.733,40.7297,-2.32566,-0.03642879,0.92353
356.933,41.039,-2.33911,-0.0399818,0.92144
360.133,41.34864,-2.35561,-0.04182739,0.91933
363.333,41.65801,-2.36638,-0.04809679,0.91722
366.533,41.96813,-2.37965,-0.05050274,0.91509
369.733,42.2774,-2.39096,-0.0495859,0.91296
372.933,42.58777,-2.404,-0.05604338,0.91081
376.133,42.89799,-2.41348,-0.05756391,0.90866
379.333,43.2091,-2.42198,-0.06168678,0.90649
382.533,43.52006,-2.43481,-0.06225872,0.90432
385.733,43.83123,-2.44365,-0.0633499,0.90213
388.933,44.14235,-2.45321,-0.06351153,0.89994
392.133,44.4546,-2.4619,-0.06049146,0.89774
395.333,44.76574,-2.47242,-0.05824913,0.89553
398.533,45.07739,-2.48166,-0.05809333,0.8933
401.733,45.38945,-2.48889,-0.05881781,0.89107
404.933,45.70148,-2.49716,-0.05423985,0.88883
408.133,46.01429,-2.50684,-0.05315113,0.88658
411.333,46.32647,-2.51299,-0.04512092,0.88433
414.533,46.63877,-2.52124,-0.04304438,0.88206
417.733,46.95129,-2.52947,-0.04036009,0.87978
420.933,47.2641,-2.53711,-0.03878544,0.8775
424.133,47.5771,-2.54587,-0.03244301,0.87521
427.333,47.89072,-2.55212,-0.03030271,0.87291
430.533,48.20433,-2.55964,-0.03198853,0.8706
433.733,48.5184,-2.5674,-0.02610184,0.86828
436.933,48.8322,-2.57495,-0.0263982,0.86596
440.133,49.14647,-2.58069,-0.02381593,0.86362
443.333,49.46022,-2.58705,-0.01945948,0.86128
446.533,49.77496,-2.59293,-0.01998485,0.85893
449.733,50.08941,-2.59918,-0.01728166,0.85658
452.933,50.40367,-2.60755,-0.01475334,0.85421
456.133,50.71754,-2.61052,-0.01244012,0.85184
459.333,51.03203,-2.6198,-0.01315485,0.84946
462.533,51.34601,-2.62344,-0.01471197,0.84707
465.733,51.66019,-2.62928,-0.01864932,0.84468
468.933,51.97462,-2.63342,-0.0152378,0.84228
472.133,52.2902,-2.64015,-0.01925723,0.83987
475.333,52.60541,-2.64559,-0.01842775,0.83745
478.533,52.9202,-2.64946,-0.01841992,0.83503
481.733,53.2363,-2.65355,-0.01981132,0.8326
484.933,53.5513,-2.66026,-0.01927181,0.83017
488.133,53.86755,-2.66514,-0.01471872,0.82773
491.333,54.18337,-2.66909,-0.008865331,0.82528
494.533,54.4993,-2.67403,0.0006151625,0.82282
497.733,54.8162,-2.67667,0.007188349,0.82036
500.933,55.13279,-2.68061,0.01726529,0.81789
504.133,55.44939,-2.68522,0.02231294,0.81542
507.333,55.7667,-2.6892,0.02021346,0.81294
510.533,56.08404,-2.69246,0.019048,0.81046
513.733,56.40121,-2.69515,0.01364756,0.80796
516.933,56.71853,-2.69772,0.01128062,0.80547
520.133,57.03589,-2.70036,0.01294534,0.80296
523.333,57.3533,-2.70397,0.01301899,0.80045
526.533,57.6704,-2.70957,0.01176857,0.79794
529.733,57.98704,-2.7113,0.00754782,0.79542
532.933,58.30549,-2.7146,-0.00568805,0.7929
536.133,58.6221,-2.71748,-0.01190737,0.79037
539.333,58.9397,-2.71977,-0.01485845,0.78783
542.533,59.25719,-2.72174,-0.01503305,0.78529
545.733,59.57546,-2.7224,-0.01729142,0.78275
548.933,59.89385,-2.72592,-0.0200876,0.7802
552.133,60.2125,-2.72819,-0.02164744,0.77764
555.333,60.53224,-2.7326,-0.01638626,0.77508
558.533,60.8514,-2.73293,-0.01653688,0.77252
561.733,61.17156,-2.73786,-0.01282772,0.76995
564.933,61.491,-2.7349,-0.01733166,0.76738
568.133,61.8094,-2.74039,-0.01683893,0.7648
571.333,62.1289,-2.74237,-0.02438899,0.76222
574.533,62.44882,-2.74401,-0.02412247,0.75963
577.733,62.7697,-2.74796,-0.02758722,0.75704
580.933,63.08975,-2.74796,-0.02985545,0.75445
584.133,63.41004,-2.75059,-0.03170161,0.75185
587.333,63.73109,-2.75191,-0.02843187,0.74925
590.533,64.05086,-2.75454,-0.03237434,0.74665
593.733,64.3713,-2.75452,-0.03233621,0.74404
596.933,64.69104,-2.75815,-0.03720091,0.74143
600.133,65.0119,-2.75685,-0.03570881,0.73881
603.333,65.33245,-2.75685,-0.03727115,0.73619
606.533,65.65285,-2.75831,-0.04336542,0.73357
609.733,65.97364,-2.76063,-0.04450933,0.73094
612.933,66.29483,-2.76211,-0.04337332,0.72831
616.133,66.61621,-2.76441,-0.04641582,0.72568
619.333,66.93683,-2.76666,-0.04576577,0.72305
622.533,67.2581,-2.76758,-0.05171393,0.72041
625.733,67.57932,-2.76822,-0.05210312,0.71777
628.933,67.9013,-2.76957,-0.05312752,0.71513
632.133,68.22284,-2.7722,-0.05869442,0.71248
635.333,68.5442,-2.76947,-0.05988688,0.70983
638.533,68.86625,-2.7722,-0.06112288,0.70718
641.733,69.18881,-2.77483,-0.06261418,0.70453
644.933,69.51066,-2.77724,-0.06462232,0.70188
648.133,69.83185,-2.77725,-0.06427997,0.69922
651.333,70.1537,-2.77856,-0.06927977,0.69656
654.533,70.47527,-2.77825,-0.06794467,0.6939
657.733,70.7968,-2.77922,-0.06702529,0.69124
660.933,71.11952,-2.77922,-0.06931255,0.68857
664.133,71.44167,-2.78449,-0.06705616,0.6859
667.333,71.76395,-2.78374,-0.06741234,0.68323
670.533,72.08551,-2.78317,-0.06893828,0.68056
673.733,72.40715,-2.78283,-0.07613476,0.67789
676.933,72.72892,-2.78551,-0.07034401,0.67522
680.133,73.0513,-2.78609,-0.06703378,0.67255
683.333,73.37321,-2.78753,-0.07108093,0.66987
686.533,73.69506,-2.78514,-0.07007899,0.66719
689.733,74.01702,-2.78791,-0.06715494,0.66452
692.933,74.3392,-2.79041,-0.06819884,0.66184
696.133,74.66144,-2.79145,-0.07126224,0.65916
699.333,74.98298,-2.79367,-0.07115306,0.65648
702.533,75.3061,-2.79436,-0.07045206,0.65379
705.733,75.62966,-2.79435,-0.07442851,0.65111
708.933,75.9534,-2.79337,-0.07850332,0.64843
712.133,76.2775,-2.79676,-0.08025025,0.64574
715.333,76.60081,-2.79601,-0.0807253,0.64306
718.533,76.92411,-2.79896,-0.08205187,0.64038
721.733,77.24786,-2.79632,-0.08395033,0.63769
724.933,77.57143,-2.7973,-0.08424531,0.63501
728.133,77.89453,-2.79962,-0.08385648,0.63232
731.333,78.21857,-2.80234,-0.0897167,0.62964
734.533,78.5428,-2.80214,-0.08895581,0.62695
737.733,78.86709,-2.80273,-0.09195655,0.62427
740.933,79.19123,-2.80609,-0.09616462,0.62158
744.133,79.51465,-2.80346,-0.09343487,0.6189
747.333,79.83841,-2.80472,-0.09046555,0.61621
748.833,79.9902,-2.80478,-0.08972791,0.61495