File: 01_Data/Particleboard/STA/N2/30K_min/Particleboard_STA_N2_30KData_220419_R1.csv
##Temp./Â°C,Time/min,Mass loss(subtr.2)/mg,DSC(subtr.2)/(mW/mg),Sensit./(uV/mW)
48.413,10.00583,-0.0351,0.01717737,1.07509
51.613,10.88231,-0.03862656,0.17832,1.07368
54.813,11.11726,-0.03843314,0.29328,1.07226
58.013,11.29751,-0.04018245,0.38367,1.07082
61.213,11.45282,-0.03571414,0.45875,1.06937
64.413,11.594,-0.03735007,0.52359,1.06792
67.613,11.7264,-0.04392955,0.58295,1.06645
70.813,11.85242,-0.04111765,0.6344,1.06497
74.013,11.9743,-0.0436795,0.68347,1.06347
77.213,12.09305,-0.04298784,0.7287,1.06197
80.413,12.20934,-0.04168357,0.77019,1.06046
83.613,12.32346,-0.04485638,0.80759,1.05893
86.813,12.43604,-0.04474641,0.8462,1.0574
90.013,12.54723,-0.04606984,0.8801,1.05585
93.213,12.65738,-0.05077765,0.9095,1.0543
96.413,12.7665,-0.0507834,0.93188,1.05273
99.613,12.87519,-0.05326957,0.95187,1.05116
102.813,12.983,-0.05473141,0.96377,1.04957
106.013,13.09028,-0.05473,0.97266,1.04798
109.213,13.19785,-0.05464062,0.9718,1.04637
112.413,13.3046,-0.0547303,0.96585,1.04476
115.613,13.41148,-0.06030512,0.96196,1.04313
118.813,13.5177,-0.0638558,0.95367,1.0415
122.013,13.6234,-0.06234397,0.94471,1.03985
125.213,13.7282,-0.06372004,0.93838,1.0382
128.413,13.83341,-0.06414308,0.93884,1.03654
131.613,13.9377,-0.06636023,0.93709,1.03486
134.813,14.0413,-0.06504999,0.94175,1.03318
138.013,14.14473,-0.06632725,0.94957,1.03149
141.213,14.2474,-0.0676843,0.95787,1.0298
144.413,14.3498,-0.06636,0.96922,1.02809
147.613,14.45174,-0.06767944,0.98069,1.02637
150.813,14.5533,-0.06636008,0.99275,1.02465
154.013,14.65449,-0.06768,1.00393,1.02292
157.213,14.7557,-0.06635955,1.02093,1.02118
160.413,14.8563,-0.07009626,1.03787,1.01943
163.613,14.95704,-0.06899639,1.0585,1.01767
166.813,15.0571,-0.07157631,1.07589,1.0159
170.013,15.1573,-0.07260328,1.10096,1.01413
173.213,15.2571,-0.07534079,1.12635,1.01235
176.413,15.35663,-0.07535,1.15922,1.01056
179.613,15.4559,-0.07535,1.19418,1.00876
182.813,15.5548,-0.07672196,1.23365,1.00696
186.013,15.6531,-0.08007924,1.27712,1.00514
189.213,15.75162,-0.08757909,1.32301,1.00332
192.413,15.84949,-0.09301696,1.37769,1.0015
195.613,15.94785,-0.09574995,1.42779,0.99966
198.813,16.0458,-0.09311986,1.48098,0.99782
202.013,16.1438,-0.09178932,1.53391,0.99597
205.213,16.2412,-0.10068,1.58957,0.99411
208.413,16.33895,-0.10215,1.64445,0.99225
211.613,16.4364,-0.10925,1.69975,0.99038
214.813,16.53389,-0.12583,1.75009,0.9885
218.013,16.63121,-0.13118,1.79515,0.98662
221.213,16.72849,-0.13305,1.82958,0.98473
224.413,16.8256,-0.14577,1.85786,0.98283
227.613,16.92259,-0.14877,1.87346,0.98093
230.813,17.01965,-0.16008,1.88321,0.97902
234.013,17.11657,-0.16795,1.88877,0.9771
237.213,17.21332,-0.17488,1.89012,0.97518
240.413,17.31002,-0.18641,1.89403,0.97325
243.613,17.40653,-0.1945,1.89583,0.97131
246.813,17.5033,-0.20656,1.88987,0.96937
250.013,17.59985,-0.21841,1.88324,0.96742
253.213,17.6963,-0.23302,1.87605,0.96547
256.413,17.79285,-0.24508,1.8657,0.96351
259.613,17.88917,-0.25927,1.85708,0.96155
262.813,17.98515,-0.27847,1.85046,0.95957
266.013,18.08181,-0.29143,1.84648,0.9576
269.213,18.17784,-0.31415,1.83896,0.95561
272.413,18.27441,-0.3344,1.83066,0.95363
275.613,18.3708,-0.3536,1.82004,0.95163
278.813,18.46722,-0.37353,1.80449,0.94963
282.013,18.56338,-0.39784,1.78412,0.94763
285.213,18.6599,-0.42053,1.75192,0.94562
288.413,18.75625,-0.44753,1.71155,0.9436
291.613,18.85254,-0.4789,1.66333,0.94158
294.813,18.94908,-0.5158,1.60576,0.93955
298.013,19.04547,-0.54633,1.54364,0.93752
301.213,19.14171,-0.58453,1.47651,0.93549
304.413,19.23801,-0.62478,1.40988,0.93344
307.613,19.33377,-0.66619,1.35081,0.9314
310.813,19.43083,-0.71708,1.29816,0.92935
314.013,19.5273,-0.76314,1.24996,0.92729
317.213,19.62333,-0.80612,1.21217,0.92523
320.413,19.7202,-0.85689,1.18173,0.92316
323.613,19.81675,-0.91628,1.16092,0.92109
326.813,19.91337,-0.97689,1.14563,0.91902
330.013,20.00999,-1.03587,1.13604,0.91694
333.213,20.10686,-1.10057,1.12776,0.91485
336.413,20.20371,-1.17488,1.12357,0.91276
339.613,20.30074,-1.2523,1.12424,0.91067
342.813,20.39795,-1.33421,1.12191,0.90857
346.013,20.4953,-1.4206,1.12285,0.90647
349.213,20.5928,-1.50955,1.12535,0.90436
352.413,20.69025,-1.60509,1.12604,0.90225
355.613,20.78806,-1.70822,1.12308,0.90014
358.813,20.88585,-1.81466,1.1111,0.89802
362.013,20.98388,-1.92531,1.08596,0.89589
365.213,21.08211,-2.03311,1.04601,0.89376
368.413,21.1804,-2.14212,0.98631,0.89163
371.613,21.27885,-2.23291,0.9151,0.8895
374.813,21.37743,-2.33332,0.82761,0.88735
378.013,21.47615,-2.41972,0.7359,0.88521
381.213,21.57488,-2.47945,0.6428,0.88306
384.413,21.67377,-2.53809,0.56077,0.88091
387.613,21.77273,-2.59086,0.48975,0.87875
390.813,21.8718,-2.62636,0.42843,0.87659
394.013,21.97095,-2.65769,0.37692,0.87443
397.213,22.07027,-2.68117,0.33183,0.87226
400.413,22.16979,-2.6899,0.28687,0.87009
403.613,22.2693,-2.70107,0.25174,0.86792
406.813,22.36891,-2.7227,0.21925,0.86574
410.013,22.46857,-2.72544,0.18282,0.86356
413.213,22.56835,-2.73651,0.15545,0.86137
416.413,22.6681,-2.7574,0.12844,0.85918
419.613,22.7681,-2.76872,0.10897,0.85699
422.813,22.86795,-2.78025,0.08651787,0.85479
426.013,22.96803,-2.79503,0.07137432,0.85259
429.213,23.06813,-2.80972,0.06375525,0.85039
432.413,23.1681,-2.81954,0.05304857,0.84818
435.613,23.26851,-2.8279,0.05442531,0.84597
438.813,23.36883,-2.83493,0.05405168,0.84376
442.013,23.46942,-2.83891,0.05723454,0.84154
445.213,23.57005,-2.85294,0.06622591,0.83932
448.413,23.67071,-2.86717,0.07941197,0.8371
451.613,23.77148,-2.87474,0.09708433,0.83487
454.813,23.87227,-2.88451,0.11309,0.83264
458.013,23.97344,-2.895,0.12342,0.8304
461.213,24.07463,-2.90386,0.1406,0.82817
464.413,24.17595,-2.91139,0.15691,0.82593
467.613,24.27737,-2.91522,0.1701,0.82369
470.813,24.3789,-2.92016,0.18659,0.82144
474.013,24.48045,-2.92948,0.19446,0.81919
477.213,24.58207,-2.93733,0.20466,0.81694
480.413,24.6836,-2.9454,0.21535,0.81469
483.613,24.78562,-2.95319,0.2204,0.81243
486.813,24.8875,-2.95545,0.22832,0.81017
490.013,24.98944,-2.96605,0.23306,0.8079
493.213,25.09163,-2.96971,0.2432,0.80564
496.413,25.19381,-2.9737,0.24342,0.80337
499.613,25.29617,-2.97598,0.24455,0.80109
502.813,25.39844,-2.98055,0.24599,0.79882
506.013,25.50079,-2.99033,0.24468,0.79654
509.213,25.60341,-2.99435,0.24967,0.79426
512.413,25.7059,-2.9952,0.24802,0.79198
515.613,25.8085,-3.00125,0.24663,0.78969
518.813,25.91133,-3.00693,0.24683,0.7874
522.013,26.01407,-3.01259,0.24725,0.78511
525.213,26.1169,-3.0174,0.24514,0.78281
528.413,26.2199,-3.02341,0.24513,0.78052
531.613,26.3229,-3.02327,0.24724,0.77822
534.813,26.426,-3.02997,0.24591,0.77592
538.013,26.5292,-3.03512,0.2451,0.77361
541.213,26.6322,-3.03684,0.24429,0.7713
544.413,26.7358,-3.03624,0.24437,0.76899
547.613,26.8391,-3.03961,0.24622,0.76668
550.813,26.9427,-3.04602,0.25221,0.76437
554.013,27.04601,-3.05423,0.25729,0.76205
557.213,27.1497,-3.05808,0.26329,0.75973
560.413,27.25344,-3.05802,0.26654,0.75741
563.613,27.35662,-3.06103,0.27002,0.75508
566.813,27.46094,-3.06473,0.27213,0.75275
570.013,27.565,-3.06737,0.27263,0.75043
573.213,27.669,-3.07058,0.27374,0.74809
576.413,27.77331,-3.07093,0.26791,0.74576
579.613,27.8774,-3.07743,0.27023,0.74342
582.813,27.98191,-3.0757,0.25885,0.74109
586.013,28.0865,-3.07619,0.25416,0.73874
589.213,28.19078,-3.07823,0.24624,0.7364
592.413,28.29563,-3.08446,0.23649,0.73406
595.613,28.4002,-3.08931,0.23214,0.73171
598.813,28.50497,-3.0915,0.22246,0.72936
602.013,28.60975,-3.09736,0.22033,0.72701
605.213,28.7146,-3.10241,0.21775,0.72465
608.413,28.81925,-3.10082,0.21125,0.7223
611.613,28.92418,-3.09595,0.20809,0.71994
614.813,29.02968,-3.09544,0.20276,0.71758
618.013,29.13472,-3.10528,0.19953,0.71522
621.213,29.2399,-3.10664,0.19685,0.71286
624.413,29.34484,-3.10529,0.1892,0.71049
627.613,29.45028,-3.10741,0.18995,0.70812
630.813,29.5557,-3.11564,0.18678,0.70575
634.013,29.6606,-3.11501,0.18174,0.70338
637.213,29.76588,-3.1164,0.17775,0.70101
640.413,29.87169,-3.11618,0.17771,0.69863
643.613,29.9771,-3.11477,0.17139,0.69626
646.813,30.08268,-3.11346,0.16958,0.69388
650.013,30.1882,-3.12353,0.17461,0.6915
653.213,30.29382,-3.12767,0.17377,0.68912
656.413,30.3994,-3.12901,0.17332,0.68673
659.613,30.5051,-3.13318,0.17002,0.68435
662.813,30.61032,-3.12912,0.16658,0.68196
666.013,30.71626,-3.12794,0.16255,0.67957
669.213,30.82181,-3.13432,0.15974,0.67718
672.413,30.9276,-3.13737,0.15994,0.67479
675.613,31.03357,-3.13889,0.15294,0.6724
678.813,31.1394,-3.14152,0.15344,0.67
682.013,31.24519,-3.14283,0.14979,0.66761
685.213,31.35105,-3.14283,0.14583,0.66521
688.413,31.45696,-3.14152,0.14256,0.66281
691.613,31.5629,-3.14282,0.13379,0.66041
694.813,31.6687,-3.14152,0.13012,0.65801
698.013,31.7747,-3.14289,0.12971,0.65561
701.213,31.88073,-3.14852,0.12766,0.65321
704.413,31.98681,-3.15238,0.12084,0.6508
707.613,32.093,-3.15023,0.12224,0.64839
710.813,32.19925,-3.1504,0.11204,0.64599
714.013,32.30546,-3.14407,0.10578,0.64358
717.213,32.41168,-3.14656,0.09884077,0.64117
720.413,32.518,-3.15229,0.09497856,0.63876
723.613,32.6243,-3.15419,0.08728908,0.63635
726.813,32.73016,-3.14863,0.0778476,0.63393
730.013,32.83728,-3.14744,0.07582783,0.63152
733.213,32.9439,-3.15548,0.07018593,0.62911
736.413,33.05062,-3.16016,0.06916993,0.62669
739.613,33.15722,-3.16543,0.06216121,0.62428
742.813,33.26382,-3.16545,0.05262275,0.62186
746.013,33.37053,-3.16874,0.0504976,0.61944
749.213,33.47736,-3.16283,0.0458448,0.61702
752.413,33.5841,-3.16346,0.04723621,0.6146
755.613,33.6908,-3.16479,0.04084111,0.61219
758.813,33.7975,-3.16828,0.03808132,0.60977
762.013,33.90428,-3.17014,0.03415646,0.60734
765.213,34.0111,-3.17011,0.03574452,0.60492
768.413,34.11788,-3.17013,0.03174735,0.6025
771.613,34.2248,-3.16883,0.0259705,0.60008
774.813,34.33163,-3.17454,0.02493983,0.59766
778.013,34.43867,-3.17476,0.02295533,0.59523
781.213,34.54541,-3.17607,0.0157414,0.59281
784.413,34.65283,-3.17311,0.01569304,0.59039
787.613,34.76007,-3.174,0.01471952,0.58796
790.813,34.86739,-3.17474,0.01418872,0.58554
794.013,34.97465,-3.17453,0.01464567,0.58312
794.713,34.9981,-3.17453,0.01047169,0.58259