File: 01_Data/Particleboard/STA/N2/30K_min/Particleboard_STA_N2_30KData_220420_R2.csv
##Temp./Â°C,Time/min,Mass loss(subtr.2)/mg,DSC(subtr.2)/(mW/mg),Sensit./(uV/mW)
48.42,10.00667,0.0329,0.01245006,1.07509
51.52,10.8736,0.03486443,0.17694,1.07372
54.62,11.1028,0.03729933,0.29124,1.07234
57.72,11.2799,0.03608986,0.38257,1.07095
60.82,11.43142,0.03646139,0.46032,1.06955
63.92,11.56867,0.03512103,0.52893,1.06814
67.02,11.6972,0.03758504,0.58626,1.06672
70.12,11.81982,0.03796719,0.6418,1.06529
73.22,11.93829,0.03746358,0.68774,1.06384
76.32,12.05311,0.03762004,0.73208,1.06239
79.42,12.16612,0.03613178,0.7723,1.06093
82.52,12.27702,0.03754168,0.81153,1.05946
85.62,12.38602,0.03675605,0.8453,1.05797
88.72,12.49348,0.03508143,0.87912,1.05648
91.82,12.60018,0.03540505,0.90883,1.05498
94.92,12.70612,0.03571778,0.93691,1.05346
98.02,12.81133,0.03504059,0.95919,1.05194
101.12,12.91602,0.03255578,0.97778,1.05041
104.22,13.0206,0.03366849,0.99476,1.04887
107.32,13.12456,0.03240126,1.00328,1.04732
110.42,13.2284,0.02976483,1.01083,1.04576
113.52,13.33185,0.03104,1.01317,1.04419
116.62,13.4354,0.0297199,1.01348,1.04262
119.72,13.53822,0.02841004,1.01236,1.04103
122.82,13.64073,0.02709744,1.01027,1.03944
125.92,13.7427,0.02709,1.01048,1.03783
129.02,13.8445,0.02840086,1.0123,1.03622
132.12,13.9457,0.02709497,1.0139,1.0346
135.22,14.0463,0.02808001,1.0207,1.03297
138.32,14.1464,0.02711256,1.03197,1.03133
141.42,14.2459,0.02708793,1.04313,1.02969
144.52,14.3455,0.02606227,1.05113,1.02803
147.62,14.4445,0.02742,1.0662,1.02637
150.72,14.54304,0.02742001,1.07967,1.0247
153.82,14.64131,0.02709,1.09439,1.02302
156.92,14.73956,0.02577011,1.11418,1.02134
160.02,14.8371,0.02442123,1.13025,1.01964
163.12,14.9344,0.02578,1.14911,1.01794
166.22,15.0319,0.02479183,1.17099,1.01623
169.32,15.129,0.0244593,1.1935,1.01451
172.42,15.2258,0.02313695,1.2205,1.01279
175.52,15.32262,0.02183,1.25148,1.01106
178.62,15.41925,0.02183,1.28904,1.00932
181.72,15.5153,0.01985145,1.3302,1.00757
184.82,15.61116,0.01793878,1.36907,1.00582
187.92,15.7068,0.01656009,1.41632,1.00406
191.02,15.802,0.0137924,1.46175,1.00229
194.12,15.89729,0.01040428,1.51011,1.00052
197.22,15.99226,0.008855078,1.56247,0.99874
200.32,16.08718,0.004820807,1.6137,0.99695
203.42,16.18196,0.00286211,1.66935,0.99516
206.52,16.27671,-0.001888713,1.72313,0.99335
209.62,16.3714,-0.00902763,1.77632,0.99155
212.72,16.46568,-0.01424606,1.82517,0.98973
215.82,16.56022,-0.01979239,1.87207,0.98791
218.92,16.6545,-0.02656663,1.91088,0.98609
222.02,16.7487,-0.03301765,1.94257,0.98425
225.12,16.84275,-0.03861258,1.96737,0.98241
228.22,16.9366,-0.04546094,1.98544,0.98057
231.32,17.03068,-0.05365199,1.99384,0.97872
234.42,17.12441,-0.06285369,2.00036,0.97686
237.52,17.21819,-0.07156489,2.00302,0.97499
240.62,17.31185,-0.08127457,2.00406,0.97312
243.72,17.40557,-0.08975732,2.00645,0.97125
246.82,17.4989,-0.10117,2.00314,0.96937
249.92,17.59256,-0.11136,1.99793,0.96748
253.02,17.68581,-0.12264,1.98958,0.96559
256.12,17.7791,-0.13681,1.97927,0.96369
259.22,17.87236,-0.15081,1.97085,0.96179
262.32,17.9657,-0.16328,1.9646,0.95988
265.42,18.05888,-0.17864,1.95904,0.95796
268.52,18.15229,-0.19601,1.94918,0.95604
271.62,18.24563,-0.21325,1.94085,0.95412
274.72,18.3387,-0.23039,1.93007,0.95219
277.82,18.43185,-0.25066,1.91175,0.95025
280.92,18.52518,-0.27096,1.89346,0.94831
284.02,18.61861,-0.295,1.86613,0.94637
287.12,18.7118,-0.32079,1.83011,0.94442
290.22,18.80506,-0.3472,1.78668,0.94246
293.32,18.89834,-0.37802,1.73417,0.9405
296.42,18.99169,-0.40873,1.67288,0.93853
299.52,19.08492,-0.44144,1.60839,0.93656
302.62,19.17809,-0.47514,1.5432,0.93459
305.72,19.2714,-0.51574,1.48038,0.93261
308.82,19.36443,-0.55596,1.42314,0.93062
311.92,19.45788,-0.59778,1.3734,0.92864
315.02,19.55114,-0.64224,1.33485,0.92664
318.12,19.64454,-0.68909,1.30187,0.92464
321.22,19.7381,-0.7405,1.27758,0.92264
324.32,19.83166,-0.79379,1.25642,0.92063
327.42,19.92523,-0.85105,1.24407,0.91862
330.52,20.019,-0.90907,1.22983,0.91661
333.62,20.11298,-0.97325,1.22547,0.91459
336.72,20.2072,-1.04037,1.21553,0.91256
339.82,20.3013,-1.11165,1.2135,0.91053
342.92,20.39561,-1.18645,1.21379,0.9085
346.02,20.4902,-1.26595,1.21229,0.90646
349.12,20.5843,-1.35175,1.21319,0.90442
352.22,20.67943,-1.44507,1.20686,0.90238
355.32,20.77432,-1.54037,1.20514,0.90033
358.42,20.8692,-1.6385,1.19204,0.89828
361.52,20.96424,-1.73931,1.16132,0.89622
364.62,21.05922,-1.84066,1.11831,0.89416
367.72,21.15448,-1.93858,1.06005,0.89209
370.82,21.2497,-2.03476,0.99229,0.89002
373.92,21.34504,-2.12592,0.90683,0.88795
377.02,21.4402,-2.2033,0.8185,0.88588
380.12,21.53582,-2.27709,0.73296,0.8838
383.22,21.63135,-2.33425,0.65437,0.88171
386.32,21.7269,-2.38039,0.58805,0.87963
389.42,21.8226,-2.41624,0.52434,0.87753
392.52,21.91851,-2.44572,0.47686,0.87544
395.62,22.0146,-2.46865,0.43148,0.87334
398.72,22.1107,-2.48679,0.39668,0.87124
401.82,22.20692,-2.50112,0.36272,0.86914
404.92,22.3033,-2.51441,0.33139,0.86703
408.02,22.3996,-2.52636,0.3037,0.86491
411.12,22.49615,-2.53765,0.28121,0.8628
414.22,22.59296,-2.54928,0.25658,0.86068
417.32,22.68962,-2.55959,0.2385,0.85856
420.42,22.7863,-2.57057,0.22156,0.85643
423.52,22.88328,-2.58159,0.20488,0.8543
426.62,22.9803,-2.59222,0.19492,0.85217
429.72,23.07745,-2.60104,0.1871,0.85004
432.82,23.17445,-2.61268,0.18253,0.8479
435.92,23.27143,-2.62238,0.18318,0.84576
439.02,23.36882,-2.63258,0.19277,0.84361
442.12,23.46634,-2.64264,0.19843,0.84146
445.22,23.56383,-2.65073,0.21375,0.83931
448.32,23.662,-2.65965,0.22586,0.83716
451.42,23.75984,-2.66909,0.24369,0.835
454.52,23.85775,-2.67672,0.26305,0.83284
457.62,23.95561,-2.68608,0.28458,0.83068
460.72,24.05371,-2.69215,0.29927,0.82851
463.82,24.15179,-2.69901,0.3165,0.82634
466.92,24.25005,-2.70693,0.3353,0.82417
470.02,24.34858,-2.71422,0.35096,0.822
473.12,24.44718,-2.72027,0.36539,0.81982
476.22,24.54569,-2.72797,0.38,0.81764
479.32,24.64435,-2.73359,0.39363,0.81546
482.42,24.74318,-2.73793,0.40165,0.81327
485.52,24.8419,-2.74449,0.41184,0.81108
488.62,24.9407,-2.75102,0.41589,0.80889
491.72,25.0396,-2.75674,0.42258,0.80669
494.82,25.1385,-2.76166,0.42883,0.8045
497.92,25.2374,-2.76609,0.43335,0.8023
501.02,25.33681,-2.77215,0.43401,0.80009
504.12,25.4361,-2.77602,0.4391,0.79789
507.22,25.5353,-2.77875,0.44259,0.79568
510.32,25.6346,-2.78408,0.44543,0.79347
513.42,25.73405,-2.78991,0.44407,0.79126
516.52,25.8336,-2.79184,0.44638,0.78904
519.62,25.93313,-2.79567,0.45029,0.78682
522.72,26.03276,-2.79984,0.45208,0.7846
525.82,26.13254,-2.80455,0.45377,0.78238
528.92,26.2325,-2.80738,0.45326,0.78015
532.02,26.33213,-2.81039,0.45532,0.77793
535.12,26.43223,-2.81453,0.45927,0.77569
538.22,26.53241,-2.81773,0.45784,0.77346
541.32,26.6326,-2.82057,0.46129,0.77123
544.42,26.73263,-2.82434,0.46191,0.76899
547.52,26.833,-2.82749,0.46759,0.76675
550.62,26.9334,-2.83166,0.46924,0.76451
553.72,27.03374,-2.83572,0.47543,0.76226
556.82,27.13428,-2.83714,0.48363,0.76001
559.92,27.235,-2.8385,0.48481,0.75776
563.02,27.33545,-2.84126,0.49174,0.75551
566.12,27.43623,-2.84443,0.49532,0.75326
569.22,27.53711,-2.8491,0.50013,0.751
572.32,27.6379,-2.85173,0.50191,0.74874
575.42,27.73885,-2.8543,0.50524,0.74648
578.52,27.83982,-2.85567,0.50464,0.74422
581.62,27.9409,-2.85872,0.50823,0.74196
584.72,28.042,-2.86091,0.50851,0.73969
587.82,28.1431,-2.86456,0.50497,0.73742
590.92,28.24427,-2.865,0.50324,0.73515
594.02,28.3457,-2.86773,0.50064,0.73288
597.12,28.447,-2.87038,0.49704,0.7306
600.22,28.5485,-2.87313,0.48784,0.72833
603.32,28.64992,-2.87422,0.48435,0.72605
606.42,28.75139,-2.87719,0.47528,0.72377
609.52,28.8529,-2.8801,0.47099,0.72148
612.62,28.9547,-2.88329,0.46666,0.7192
615.72,29.0564,-2.88513,0.4617,0.71691
618.82,29.158,-2.8865,0.45494,0.71462
621.92,29.25992,-2.88913,0.44881,0.71233
625.02,29.36195,-2.88911,0.44738,0.71004
628.12,29.46347,-2.89045,0.4421,0.70775
631.22,29.56536,-2.89308,0.43596,0.70545
634.32,29.66732,-2.89308,0.42915,0.70315
637.42,29.76955,-2.89595,0.43048,0.70085
640.52,29.87176,-2.89856,0.42351,0.69855
643.62,29.9738,-2.89988,0.42162,0.69625
646.72,30.0761,-2.9012,0.41593,0.69395
649.82,30.1783,-2.90251,0.4111,0.69164
652.92,30.28074,-2.90487,0.40611,0.68933
656.02,30.3832,-2.90646,0.40262,0.68703
659.12,30.4856,-2.90653,0.39984,0.68472
662.22,30.5881,-2.90914,0.39426,0.6824
665.32,30.6908,-2.9091,0.39254,0.68009
668.42,30.7931,-2.91042,0.38757,0.67778
671.52,30.89593,-2.91192,0.38157,0.67546
674.62,30.99827,-2.91436,0.38075,0.67314
677.72,31.1009,-2.91571,0.3731,0.67082
680.82,31.2035,-2.917,0.36849,0.6685
683.92,31.306,-2.91831,0.36273,0.66618
687.02,31.4086,-2.91976,0.36018,0.66386
690.12,31.5111,-2.91985,0.35006,0.66153
693.22,31.61373,-2.92094,0.34781,0.65921
696.32,31.7163,-2.92228,0.34401,0.65688
699.42,31.8189,-2.92227,0.34342,0.65455
702.52,31.92138,-2.92365,0.33719,0.65222
705.62,32.02415,-2.9239,0.33424,0.64989
708.72,32.12699,-2.92522,0.33474,0.64756
711.82,32.2298,-2.92785,0.32657,0.64523
714.92,32.33252,-2.92883,0.32442,0.6429
718.02,32.43545,-2.92975,0.31627,0.64056
721.12,32.5383,-2.93142,0.31277,0.63823
724.22,32.64135,-2.93423,0.30738,0.63589
727.32,32.7447,-2.93422,0.30624,0.63355
730.42,32.84766,-2.93422,0.29768,0.63121
733.52,32.95078,-2.93436,0.2946,0.62888
736.62,33.05403,-2.93553,0.29949,0.62654
739.72,33.1572,-2.93586,0.29295,0.6242
742.82,33.26047,-2.93684,0.29218,0.62185
745.92,33.36368,-2.93816,0.28705,0.61951
749.02,33.46691,-2.93948,0.2862,0.61717
752.12,33.57036,-2.94079,0.27743,0.61483
755.22,33.6738,-2.94179,0.28219,0.61248
758.32,33.7772,-2.942,0.27639,0.61014
761.42,33.88061,-2.94212,0.26772,0.60779
764.52,33.98424,-2.9431,0.26536,0.60545
767.62,34.08769,-2.94311,0.25994,0.6031
770.72,34.19154,-2.94343,0.24982,0.60076
773.82,34.295,-2.94342,0.24491,0.59841
776.92,34.39906,-2.94606,0.23571,0.59606
780.02,34.503,-2.94743,0.23278,0.59371
783.12,34.6069,-2.94607,0.22898,0.59137
786.22,34.71078,-2.94836,0.22552,0.58902
789.32,34.8148,-2.94902,0.22552,0.58667
792.42,34.9189,-2.94903,0.22267,0.58432
794.82,34.99921,-2.94936,0.21929,0.58251