File: 01_Data/Rug_Pad/Cone/Rug_Pad_Cone_HF50Scan_220920_R2.csv
Names,Time,Stack TC,Smoke TC,Exh Press,Smoke Comp,Smoke Meas,CO Meter,CO2 Meter,O2 Meter,Sample Mass,Ext Coeff,Start Test,Flame Verif
Chan Gain,,500,500,1,1,1,1,1,1,1,1,1.0,1.0
Offset,,0,0,0.143022,0,0,0,0,0,0,0,0.0,0.0
Gain,,1,1,25.011,14.5176,16.5692,1,1,1,1.00088,1.03055,1.0,1.0
Units,sec,C,C,Pa,%,%,%,%,%,g,/m,,
Baseline,,48.6301,50.1428,155.581,110.513,115.465,-0.000930378,0.0434181,20.9515,-447.457,-0.39618,,
13,3,46.4829,48.1283,155.364,109.746,114.257,-0.000630891,0.0433992,20.9529,591.041,-0.364168,0.0,0.0
26,6.25,46.5586,48.1842,155.72,109.789,111.41,-0.000254557,0.04544,20.9522,590.971,-0.132498,0.0,1.0
39,9.5,47.2506,48.6061,148.662,109.824,102.922,0.00140921,0.0799541,20.8895,590.871,0.586708,0.0,1.0
52,12.75,48.0206,48.4307,146.427,109.884,94.0677,0.00419175,0.18118,20.7052,590.671,1.40492,0.0,0.0
65,16,50.491,50.4025,134.441,109.896,89.7783,0.00764015,0.278754,20.5477,590.42,1.82781,0.0,0.0
78,19.25,53.9364,53.1503,128.457,109.936,79.9869,0.0112504,0.379501,20.3814,590.1,2.87499,0.0,0.0
91,22.5,57.6816,56.111,130.666,109.967,78.0583,0.0143157,0.470386,20.2424,589.74,3.0982,0.0,0.0
104,25.75,61.6314,59.7375,135.772,110.006,82.2795,0.0156993,0.524593,20.1824,589.339,2.62532,0.0,0.0
117,29,63.9023,62.6377,137.909,110.052,81.9741,0.0151287,0.511798,20.2096,588.949,2.66272,0.0,0.0
130,32.25,64.5368,64.5783,147.212,110.074,91.3099,0.0124069,0.446449,20.3532,588.809,1.68953,0.0,0.0
143,35.5,64.7855,65.391,145.824,110.113,100.127,0.00901357,0.362848,20.5041,588.639,0.859389,0.0,0.0
156,38.75,64.138,65.7119,144.259,110.153,107.253,0.00547786,0.287588,20.6221,588.549,0.241234,0.0,0.0
169,42,63.2251,64.6623,148.286,110.171,113.931,0.0031194,0.230335,20.7124,588.449,-0.303321,0.0,0.0
182,45.25,62.2496,64.83,150.741,110.182,115.514,0.00189446,0.188206,20.7738,588.359,-0.427206,0.0,0.0
195,48.5,61.5029,63.9974,150.039,110.223,115.942,0.00142594,0.158911,20.8134,588.349,-0.457275,0.0,0.0
208,51.75,60.4784,63.3708,153.862,110.23,115.111,0.0015371,0.140571,20.836,588.289,-0.391689,0.0,0.0
221,55,60.0444,62.8472,150.76,110.245,115.391,0.00172345,0.128565,20.8524,588.238,-0.412346,0.0,0.0
234,58.25,58.9023,61.9791,150.304,110.26,115.175,0.0018136,0.119102,20.8631,588.178,-0.394216,0.0,0.0
247,61.5,58.1856,61.5628,151.688,110.266,115.825,0.00191447,0.113804,20.8673,588.148,-0.444679,0.0,0.0
260,64.75,57.6598,60.6123,152.152,110.272,115.075,0.00166051,0.108706,20.8722,588.078,-0.385338,0.0,0.0
273,68,56.6602,60.0963,159.468,110.272,115.816,0.00131565,0.10357,20.8788,588.108,-0.443384,0.0,0.0
286,71.25,56.1779,59.2424,151.401,110.294,114.88,0.00104841,0.100628,20.8825,588.018,-0.368252,0.0,0.0
299,74.5,55.8682,59.1374,152.11,110.301,115.409,0.000696641,0.0989864,20.8843,587.958,-0.409236,0.0,0.0
312,77.75,55.2486,59.0774,153.987,110.291,114.925,0.000711358,0.0973496,20.8857,587.928,-0.372087,0.0,0.0
325,81,54.7989,58.3629,152.013,110.299,116.109,0.000810634,0.0953125,20.8884,587.898,-0.464028,0.0,0.0
338,84.25,54.6015,58.1065,151.899,110.331,115.382,0.000613457,0.092499,20.89,587.898,-0.404704,0.0,0.0
351,87.5,54.3002,58.0131,153.414,110.326,114.852,0.00014295,0.0900775,20.8925,587.868,-0.36341,0.0,0.0
364,90.75,53.9353,57.4738,152.811,110.327,114.983,1.97938e-05,0.0879091,20.8941,587.838,-0.373678,0.0,0.0
377,94,53.8803,57.3385,156.045,110.341,114.483,5.49477e-05,0.086277,20.896,587.788,-0.333154,0.0,0.0
390,97.25,53.3113,56.4789,150.14,110.32,114.361,7.81889e-05,0.0847389,20.8976,587.758,-0.325153,0.0,0.0
403,100.5,52.9767,56.5806,153.615,110.302,115.816,0.000132169,0.0843214,20.8997,587.728,-0.440987,0.0,0.0
416,103.75,53.184,56.3478,153.323,110.31,114.591,4.22083e-05,0.0835891,20.9007,587.708,-0.344233,0.0,0.0
429,107,52.7693,56.0578,151.25,110.31,114.368,-0.000116019,0.0831273,20.9021,587.628,-0.326624,0.0,0.0
442,110.25,52.1707,55.8444,151.539,110.278,115.789,-6.26477e-06,0.0832102,20.9006,587.658,-0.440856,0.0,0.0
455,113.5,52.431,55.2999,151.952,110.252,115.484,0.000270119,0.0826196,20.9009,587.598,-0.419123,0.0,0.0
468,116.75,52.3492,55.4884,152.042,110.242,115.946,0.000447366,0.0813111,20.9029,587.618,-0.455992,0.0,0.0
481,120,52.0592,55.0649,147.359,110.203,115.578,0.000291853,0.0803467,20.9036,587.578,-0.430519,0.0,0.0
494,123.25,51.619,55.0185,156.11,110.119,115.37,0.000297154,0.0796865,20.903,587.568,-0.421081,0.0,0.0
507,126.5,51.5181,54.9986,151.196,110.075,114.742,0.00057991,0.0785181,20.906,587.538,-0.375379,0.0,0.0
520,129.75,51.7573,54.7774,151.456,110.023,114.634,0.000573405,0.0770047,20.9086,587.518,-0.371108,0.0,0.0
533,133,51.7192,54.7588,153.611,109.918,116.055,0.000294791,0.0749954,20.9107,587.488,-0.491175,0.0,0.0
546,136.25,51.7659,53.9957,154.151,109.854,115.052,0.000330804,0.0732199,20.913,587.438,-0.41794,0.0,0.0
559,139.5,51.4273,54.1554,152.727,109.769,114.549,0.000536308,0.0717492,20.9153,587.458,-0.385322,0.0,0.0
572,142.75,51.2416,53.9657,154.741,109.68,114.729,0.000419587,0.0698778,20.9172,587.458,-0.406817,0.0,0.0
585,146,51.1283,53.7526,154.235,109.6,114.254,0.000279691,0.0683768,20.919,587.428,-0.37598,0.0,0.0
598,149.25,50.7769,53.6606,155.241,109.548,114.684,0.000206228,0.0665654,20.9221,587.368,-0.414159,0.0,0.0
611,152.5,50.9958,53.5234,162.229,109.453,114.798,0.000404931,0.0649246,20.9233,587.388,-0.430989,0.0,0.0
624,155.75,50.2549,53.463,156.125,109.392,114.19,0.000381278,0.0635601,20.9251,587.348,-0.388052,0.0,0.0
637,159,50.4252,53.114,151.801,109.333,114.261,0.000207937,0.0621434,20.9274,587.328,-0.398602,0.0,0.0
650,162.25,50.5759,53.1059,160.155,109.293,113.798,5.35142e-06,0.061277,20.9284,587.318,-0.365139,0.0,0.0
663,165.5,50.5501,52.9336,151.023,109.222,114.049,-0.000247536,0.0604095,20.9301,587.288,-0.390909,0.0,0.0
676,168.75,50.7987,53.0351,155.064,109.182,114.629,-0.00026284,0.0598805,20.9321,587.258,-0.440065,0.0,0.0
689,172,50.3875,52.481,153.838,109.164,113.786,8.82779e-05,0.0587083,20.9351,587.258,-0.374849,0.0,0.0
702,175.25,49.9536,52.7662,151.045,109.121,114.334,0.000211568,0.0574753,20.9367,587.248,-0.421887,0.0,0.0
715,178.5,48.9719,51.1685,153.8,109.064,114.406,0.000178385,0.0556105,20.9402,587.208,-0.432259,0.0,0.0
728,181.75,48.4921,50.6014,154.54,109.03,114.072,-5.05774e-07,0.0536803,20.9432,587.198,-0.408681,0.0,0.0
741,185,47.8337,50.5567,153.356,109.013,112.968,-0.000270543,0.052827,20.9442,587.158,-0.322172,0.0,0.0
754,188.25,48.0798,50.437,149.55,108.969,113.82,-0.000422647,0.0524447,20.9445,587.1875,-0.393811,0.0,0.0
767,191.5,48.2226,50.2726,153.761,108.951,112.847,-0.000535034,0.0519083,20.9439,587.168,-0.317604,0.0,0.0
780,194.75,48.1088,50.5123,151.665,108.942,113.405,-0.000447784,0.05133,20.9437,587.158,-0.362985,0.0,0.0
793,198,47.7464,50.3664,154.995,108.912,113.887,-0.000173706,0.050962,20.9448,587.158,-0.40378,0.0,0.0
806,201.25,47.8641,50.6784,155.029,108.91,113.762,-0.00013034,0.0506695,20.9457,587.097,-0.394004,0.0,0.0
819,204.5,47.9763,50.3111,152.05,108.922,114.122,-0.000298449,0.0503728,20.9459,587.097,-0.421538,0.0,0.0
832,207.75,47.8816,49.8829,151.281,108.935,114.213,-0.000532599,0.0501526,20.9445,587.047,-0.427755,0.0,0.0
845,211,47.9573,50.0947,154.416,108.94,114.354,-0.000619825,0.050071,20.9439,587.057,-0.43847,0.0,0.0
858,214.25,47.6828,49.4821,154.686,108.979,113.011,-0.000355452,0.049785,20.9442,587.047,-0.32848,0.0,0.0
871,217.5,47.9138,49.7817,156.731,108.985,113.052,-0.000326972,0.0494564,20.945,587.067,-0.331241,0.0,0.0
884,220.75,47.7513,49.9251,153.335,108.994,113.828,-0.000518314,0.0491289,20.9473,586.987,-0.392282,0.0,0.0
897,224,47.5848,49.6811,155.126,109.023,113.682,-0.000483017,0.0489665,20.9463,586.997,-0.378244,0.0,0.0
910,227.25,47.868,49.5983,157.179,109.089,112.546,-0.000453129,0.048563,20.9463,586.977,-0.281968,0.0,0.0
923,230.5,48.1664,49.4872,153.258,109.152,113.996,-0.000500519,0.0482088,20.947,586.967,-0.392536,0.0,0.0
936,233.75,47.5387,49.6514,153.103,109.186,113.237,-0.000607027,0.0481456,20.9486,586.927,-0.329396,0.0,0.0
949,237,47.6983,49.5201,152.288,109.243,113.801,-0.000497938,0.0478931,20.9478,586.917,-0.369526,0.0,0.0
962,240.25,48.0865,49.794,152.046,109.305,114.092,-0.000363274,0.0475664,20.9471,586.927,-0.387458,0.0,0.0
975,243.5,47.5202,49.6736,149.337,109.37,113.664,-0.000343464,0.0475411,20.9469,586.897,-0.348078,0.0,0.0
988,246.75,47.444,49.0445,150.129,109.435,113.938,-0.00041811,0.0472649,20.9468,586.927,-0.364508,0.0,0.0
1001,250,47.7216,49.6049,152.596,109.543,113.889,-0.000666711,0.0473221,20.9474,586.897,-0.351723,0.0,0.0
1014,253.25,47.385,49.7872,152.79,109.618,114.831,-0.000640267,0.0470787,20.9476,586.867,-0.419939,0.0,0.0
1027,256.5,47.4081,49.4073,152.574,109.704,114.581,-0.000519934,0.0469606,20.9477,586.887,-0.393241,0.0,0.0
1040,259.75,47.761,49.463,154.154,109.791,114.753,-0.000554674,0.0468718,20.9487,586.877,-0.399608,0.0,0.0
1053,263,47.6802,49.2564,156.531,109.871,113.811,-0.000647708,0.046702,20.9488,586.847,-0.318528,0.0,0.0
1066,266.25,47.6675,49.01,156.802,109.931,114.373,-0.00061756,0.0465724,20.9471,586.827,-0.35808,0.0,0.0
1079,269.5,47.2786,49.5059,153.242,110.021,115.03,-0.000719192,0.0466295,20.9484,586.807,-0.402458,0.0,0.0
1092,272.75,46.7469,48.9032,154.58,110.093,114.645,-0.000894431,0.0465974,20.9493,586.807,-0.366272,0.0,0.0
1105,276,47.3285,49.124,153.887,110.186,115.414,-0.0010723,0.046672,20.951,586.797,-0.419077,0.0,0.0
1118,279.25,47.334,49.0696,154.944,110.285,115.457,-0.00109803,0.0466814,20.95,586.787,-0.414305,0.0,0.0
1131,282.5,47.5156,49.0591,150.948,110.352,115.72,-0.000917765,0.0466746,20.95,586.747,-0.429384,0.0,0.0
1144,285.75,47.0227,49.3719,149.152,110.442,116.075,-0.000719575,0.046649,20.95,586.777,-0.449745,0.0,0.0
1157,289,47.325,49.2405,156.132,110.526,115.283,,0.0465437,,586.747,-0.380938,0.0,0.0
1170,292.25,47.907,49.3031,153.35,110.644,115.288,,,,586.767,-0.371704,0.0,0.0
1183,295.5,47.1039,49.3766,156.306,110.744,115.3,,,,586.737,-0.364399,0.0,0.0
1189,297,47.5929,49.2532,153.133,110.779,116.349,,,,586.727,-0.443473,0.0,0.0