File: 01_Data/Rug_Pad/Cone/Rug_Pad_Cone_HF75Scan_220920_R1.csv
Names,Time,Stack TC,Smoke TC,Exh Press,Smoke Comp,Smoke Meas,CO Meter,CO2 Meter,O2 Meter,Sample Mass,Ext Coeff,Start Test,Flame Verif
Chan Gain,,500,500,1,1,1,1,1,1,1,1,1.0,1.0
Offset,,0,0,0.143022,0,0,0,0,0,0,0,0.0,0.0
Gain,,1,1,25.011,14.5176,16.5692,1,1,1,1.00088,1.03055,1.0,1.0
Units,sec,C,C,Pa,%,%,%,%,%,g,/m,,
Baseline,,55.4068,57.4821,152.189,108.892,113.587,-0.000861286,0.043806,20.9477,-447.909,-0.38148,,
11,2.5,54.2661,56.5245,149.269,109.044,112.645,-0.000349111,0.0451751,20.944,598.718,-0.293707,0.0,0.0
22,5.25,55.2711,56.0123,140.846,109.082,96.4413,0.00144386,0.0910608,20.8767,598.477,1.11344,0.0,1.0
33,8,55.355,56.2354,137.784,109.061,89.258,0.00483595,0.182865,20.7163,598.227,1.81136,0.0,0.0
44,10.75,58.3485,58.7385,132.328,109.08,79.998,0.00949455,0.301919,20.4785,597.957,2.80307,0.0,0.0
55,13.5,61.4391,61.4733,131.282,109.098,71.3165,0.0150775,0.44235,20.2646,597.597,3.84307,0.0,0.0
66,16.25,66.3342,65.3854,118.001,109.111,65.5,0.0202784,0.587217,20.0428,597.156,4.61322,0.0,0.0
77,19,71.2364,70.0884,117.585,109.127,66.4703,0.0224062,0.685266,19.9211,596.746,4.48157,0.0,0.0
88,21.75,74.5828,73.7271,132.474,109.134,74.5066,0.0209527,0.67596,19.9455,596.436,3.45041,0.0,0.0
99,24.5,75.5385,75.5267,137.272,109.146,87.7051,0.0167367,0.574559,20.1281,596.165,1.97706,0.0,0.0
110,27.25,75.452,75.9583,145.765,109.162,96.2248,0.0118922,0.447659,20.3494,596.015,1.14032,0.0,0.0
121,30,74.5403,76.5627,148.994,109.192,106.123,0.00720961,0.346501,20.5326,595.955,0.257663,0.0,0.0
132,32.75,73.5327,76.0637,144.481,109.202,110.424,0.00438087,0.269341,20.6583,595.895,-0.100564,0.0,0.0
143,35.5,72.5252,75.3549,145.855,109.213,112.873,0.00292534,0.220781,20.7261,595.805,-0.298007,0.0,0.0
154,38.25,71.6763,74.8916,147.295,109.218,113.427,0.0022608,0.188767,20.7725,595.725,-0.341803,0.0,0.0
165,41,71.1842,74.4886,146.516,109.224,112.441,0.00198542,0.167118,20.8017,595.675,-0.262403,0.0,0.0
176,43.75,70.0484,73.542,148.364,109.24,113.654,0.00186278,0.153326,20.8188,595.645,-0.358083,0.0,0.0
187,46.5,69.3575,73.3315,145.211,109.233,114.233,0.00187889,0.144698,20.8263,595.585,-0.40457,0.0,0.0
198,49.25,68.7103,72.3231,147.687,109.26,114.041,0.00188909,0.138316,20.8344,595.565,-0.387229,0.0,0.0
209,52,67.9716,72.4545,147.957,109.272,113.253,0.00190439,0.133188,20.8405,595.495,-0.323457,0.0,0.0
220,54.75,67.0433,71.6011,142.166,109.298,114.265,0.00190876,0.130068,20.844,595.445,-0.401776,0.0,0.0
231,57.5,67.1098,71.2484,150.687,109.302,113.297,0.00188631,0.127526,20.8451,595.385,-0.324512,0.0,0.0
242,60.25,66.4832,70.8597,148.832,109.307,113.231,0.00189962,0.125453,20.8462,595.335,-0.318826,0.0,0.0
253,63,66.144,70.4166,149.818,109.307,112.568,0.00188591,0.124292,20.8455,595.295,-0.26571,0.0,0.0
264,65.75,65.3967,69.8044,149.103,109.334,113.848,0.00176532,0.122467,20.8474,595.245,-0.365749,0.0,0.0
275,68.5,65.502,69.9077,151.36,109.328,112.758,0.00172715,0.120261,20.8494,595.195,-0.279203,0.0,0.0
286,71.25,65.1576,69.3546,148.701,109.34,113.68,0.00158907,0.118231,20.8528,595.155,-0.351896,0.0,0.0
297,74,64.8896,68.8777,149.304,109.361,112.489,0.00135903,0.116466,20.8545,595.084,-0.254937,0.0,0.0
308,76.75,64.4277,68.7775,150.104,109.382,112.21,0.00134409,0.11451,20.8562,595.055,-0.230765,0.0,0.0
319,79.5,64.0279,68.5711,143.201,109.39,113.648,0.00117987,0.112909,20.8583,594.974,-0.345143,0.0,0.0
330,82.25,64.0523,68.5245,148.828,109.4,113.468,0.00106572,0.110983,20.8611,594.944,-0.330007,0.0,0.0
341,85,63.8674,68.42,149.367,109.379,114.142,0.00110492,0.108725,20.8637,594.954,-0.38527,0.0,0.0
352,87.75,63.3965,67.7584,147.303,109.403,114.089,0.000992737,0.106886,20.8663,594.914,-0.379167,0.0,0.0
363,90.5,63.3947,67.9546,149.1,109.405,114.701,0.00101256,0.104539,20.8709,594.864,-0.42733,0.0,0.0
374,93.25,63.087,67.6526,149.009,109.432,113.422,0.000963022,0.10169,20.8758,594.814,-0.323705,0.0,0.0
385,96,62.9187,67.3518,149.469,109.428,115.045,0.000877291,0.0986518,20.8801,594.744,-0.452449,0.0,0.0
396,98.75,62.4474,66.898,148.277,109.418,114.153,0.000902728,0.096242,20.8846,594.714,-0.382969,0.0,0.0
407,101.5,62.4769,67.1921,148.04,109.418,113.831,0.000899059,0.0934565,20.8886,594.684,-0.357386,0.0,0.0
418,104.25,62.2463,66.3603,147.438,109.42,114.559,0.000900039,0.0902731,20.8931,594.654,-0.414957,0.0,0.0
429,107,61.3148,66.5329,149.356,109.422,114.977,0.00089018,0.0866523,20.8999,594.634,-0.447675,0.0,0.0
440,109.75,62.0574,65.9545,151.996,109.4,114.637,0.000845748,0.0834882,20.9024,594.594,-0.422709,0.0,0.0
451,112.5,61.6339,65.8518,148.182,109.399,115.352,0.000854845,0.0805304,20.9073,594.564,-0.478987,0.0,0.0
462,115.25,61.9553,65.5742,148.705,109.376,113.759,0.000947446,0.0777194,20.9089,594.544,-0.35516,0.0,0.0
473,118,61.1641,65.4844,150.296,109.359,114.419,0.000998474,0.0753471,20.9116,594.504,-0.408877,0.0,0.0
484,120.75,61.751,64.9129,150.824,109.366,113.217,0.000875202,0.0728967,20.9158,594.484,-0.312787,0.0,0.0
495,123.5,60.8072,65.1761,149.202,109.306,114.321,0.000770285,0.0705699,20.9185,594.404,-0.405519,0.0,0.0
506,126.25,60.7881,64.8357,149.674,109.282,113.959,0.000946049,0.0682825,20.9217,594.414,-0.37882,0.0,0.0
517,129,60.604,64.6417,154.089,109.274,114.593,0.00114746,0.0663127,20.9244,594.364,-0.42964,0.0,0.0
528,131.75,60.2926,64.2869,149.353,109.248,114.162,0.00112325,0.0644623,20.9262,594.364,-0.397756,0.0,0.0
539,134.5,58.5992,62.7169,147.574,109.229,113.756,0.00113952,0.0628432,20.9286,594.384,-0.367083,0.0,0.0
550,137.25,58.5496,62.0761,148.567,109.212,114.207,0.00104332,0.0612674,20.9302,594.324,-0.404289,0.0,0.0
561,140,58.396,62.006,144.736,109.213,114.275,0.000892011,0.0600418,20.9314,594.284,-0.409614,0.0,0.0
572,142.75,58.2943,61.6301,147.526,109.185,114.16,0.000793444,0.0592532,20.9318,594.264,-0.402803,0.0,0.0
583,145.5,57.9612,61.3082,149.192,109.19,113.735,0.000968838,0.0589101,20.9327,594.254,-0.368663,0.0,0.0
594,148.25,57.4386,61.4118,150.327,109.161,115.176,0.00114217,0.0583508,20.9338,594.224,-0.48487,0.0,0.0
605,151,58.0833,61.0666,150.22,109.189,113.941,0.00100609,0.0576485,20.9341,594.164,-0.385156,0.0,0.0
616,153.75,57.2968,60.8224,149.647,109.199,114.435,0.000798074,0.0573101,20.9342,594.194,-0.423346,0.0,0.0
627,156.5,57.778,61.0352,150.308,109.216,114.637,0.000598116,0.0567474,20.9342,594.214,-0.437876,0.0,0.0
638,159.25,57.6704,60.3325,147.791,109.216,115.023,0.000518938,0.0563002,20.9343,594.184,-0.468365,0.0,0.0
649,162,57.3272,60.9744,149.858,109.21,114.279,0.000544248,0.0559074,20.9365,594.154,-0.410117,0.0,0.0
660,164.75,57.1755,60.6822,152.036,109.203,112.936,0.000623801,0.0553953,20.9369,594.094,-0.303834,0.0,0.0
671,167.5,56.9719,60.2387,148.302,109.2,113.782,0.000775158,0.0550082,20.937,594.094,-0.371552,0.0,0.0
682,170.25,56.7446,60.6264,146.216,109.229,113.729,0.000875298,0.0547725,20.937,594.104,-0.364957,0.0,0.0
693,173,56.9164,60.0956,146.938,109.252,114.528,0.000899546,0.0543878,20.9379,594.034,-0.426329,0.0,0.0
704,175.75,56.8165,60.3628,147.769,109.276,115.291,0.000930039,0.053881,20.9395,594.044,-0.484413,0.0,0.0
715,178.5,56.3721,60.1959,148.291,109.261,114.43,0.00082237,0.053418,20.94,594.024,-0.417849,0.0,0.0
726,181.25,56.5499,59.7449,152.484,109.27,114.389,0.000685984,0.0532406,20.9402,594.004,-0.41392,0.0,0.0
737,184,57.0573,59.541,147.393,109.294,113.884,0.000540568,0.0532739,20.9407,594.024,-0.371892,0.0,0.0
748,186.75,56.4261,59.9468,147.286,109.253,114.205,0.000345537,0.0530168,20.9407,593.943,-0.400756,0.0,0.0
759,189.5,56.2833,59.7822,147.075,109.238,113.826,0.000239438,0.0527879,20.9407,593.883,-0.371857,0.0,0.0
770,192.25,56.8802,59.2975,145.752,109.254,113.23,0.000415971,0.0526594,20.9409,593.883,-0.323147,0.0,0.0
781,195,56.541,59.6307,148.591,109.24,115.053,0.000545255,0.0525286,20.9425,593.843,-0.468653,0.0,0.0
792,197.75,56.4528,59.4269,148.692,109.238,113.701,0.000380634,0.052455,20.9435,593.803,-0.361932,0.0,0.0
803,200.5,56.3428,59.981,147.661,109.222,114.558,0.000279248,0.0523323,20.9438,593.773,-0.431217,0.0,0.0
814,203.25,56.6339,59.7278,146.999,109.231,114.023,0.000402213,0.0521183,20.9439,593.763,-0.388168,0.0,0.0
825,206,56.3602,59.37,149.661,109.233,114.038,0.000480789,0.0520012,20.9439,593.773,-0.389184,0.0,0.0
836,208.75,56.7547,59.6655,147.85,109.239,114.477,0.000571995,0.0521077,20.9435,593.673,-0.423437,0.0,0.0
847,211.5,57.0158,59.1237,154.61,109.224,113.699,0.000542695,0.0518791,20.9433,593.683,-0.362981,0.0,0.0
858,214.25,56.6759,59.4635,148.354,109.198,114.316,0.000439775,0.0516984,20.9433,593.713,-0.414024,0.0,0.0
869,217,56.4364,58.862,149.559,109.198,114.378,0.000431754,0.0515793,20.9432,593.703,-0.418981,0.0,0.0
880,219.75,56.7554,59.0555,148.458,109.2,113.695,0.000386372,0.0515091,20.9432,593.673,-0.364644,0.0,0.0
891,222.5,56.7837,59.4315,148.658,109.197,114.698,0.000308094,0.0514686,20.9432,593.653,-0.444313,0.0,0.0
902,225.25,56.9706,59.4144,149.476,109.178,113.993,0.000299801,0.0514186,20.9432,593.653,-0.390128,0.0,0.0
913,228,56.7864,59.2753,151.827,109.171,114.092,0.000283198,0.0514303,20.9432,593.633,-0.398607,0.0,0.0
924,230.75,56.875,59.2893,151.472,109.151,113.947,0.00025486,0.0514431,20.9445,593.553,-0.388752,0.0,0.0
935,233.5,56.8709,59.1976,150.769,109.167,114.375,0.000285609,0.0511844,20.9454,593.613,-0.421269,0.0,0.0
946,236.25,56.5635,58.6662,148.812,109.208,112.872,0.000310067,0.0511804,20.9457,593.573,-0.298333,0.0,0.0
957,239,56.12,59.1246,149.52,109.189,115.062,0.000288472,0.05116,20.9452,593.533,-0.473585,0.0,0.0
968,241.75,56.6048,59.1283,151.475,109.21,113.999,,0.0509736,,593.533,-0.388008,0.0,0.0
979,244.5,56.4474,59.411,147.096,109.194,114.057,,,,593.513,-0.393898,0.0,0.0
990,247.25,56.6188,59.1821,151.561,109.198,114.821,,,,593.483,-0.453846,0.0,0.0
1001,250,56.5814,59.1539,149.838,109.223,114.143,,,,593.453,-0.398248,0.0,0.0
1009,252,56.9355,59.0123,148.522,109.244,113.989,,,,593.443,-0.384382,0.0,0.0