File: 01_Data/Rug_Pad/Cone/Rug_Pad_Cone_HF25Scan_220920_R1.csv
Names,Time,Stack TC,Smoke TC,Exh Press,Smoke Comp,Smoke Meas,CO Meter,CO2 Meter,O2 Meter,Sample Mass,Ext Coeff,Start Test,Flame Verif
Chan Gain,,500,500,1,1,1,1,1,1,1,1,1.0,1.0
Offset,,0,0,0.143022,0,0,0,0,0,0,0,0.0,0.0
Gain,,1,1,25.011,14.5176,16.5692,1,1,1,1.00088,1.03055,1.0,1.0
Units,sec,C,C,Pa,%,%,%,%,%,g,/m,,
Baseline,,37.243,38.0296,161.218,110.188,114.283,-0.000893014,0.0448981,20.9483,-447.153,-0.329895,,
10,2.25,35.7566,36.5165,160.667,110.235,114.063,-0.000836824,0.0492508,20.9465,600.9,-0.30859,0.0,0.0
20,4.75,35.5527,36.7366,163.889,110.292,114.627,-0.00073615,0.0489502,20.9479,600.88,-0.348481,0.0,0.0
30,7.25,36.0318,36.4253,157.215,110.337,114.296,-0.00067919,0.0481536,20.9484,600.88,-0.318656,0.0,0.0
40,9.75,36.2334,36.8016,159.821,110.389,115.079,-0.000708356,0.0473884,20.9486,600.83,-0.376073,0.0,0.0
50,12.25,36.0859,37.248,161.822,110.437,114.47,-0.000899649,0.0465702,20.9478,600.81,-0.324204,0.0,0.0
60,14.75,36.0953,36.5162,159.313,110.494,113.882,-0.0010196,0.0458331,20.9476,600.82,-0.273006,0.0,0.0
70,17.25,35.8801,36.9331,162.422,110.558,113.797,-0.000991927,0.0453509,20.9475,600.8,-0.261043,0.0,0.0
80,19.75,35.8626,36.8153,158.209,110.627,113.821,-0.000994057,0.0449863,20.9475,600.779,-0.257321,0.0,0.0
90,22.25,36.1482,36.6709,156.114,110.691,113.774,-0.000963339,0.0447944,20.9475,600.779,-0.248337,0.0,0.0
100,24.75,35.8517,36.3988,162.924,110.758,114.035,-0.000837712,0.0448476,20.9469,600.779,-0.263619,0.0,0.0
110,27.25,36.5635,37.0177,157.988,110.817,113.654,-0.000827181,0.0447697,20.9467,600.8,-0.228536,0.0,0.0
120,29.75,36.2421,37.1369,163.412,110.882,113.229,-0.000957029,0.0449393,20.9458,600.759,-0.189374,0.0,0.0
130,32.25,36.4053,37.057,169.228,110.938,113.455,-0.00091565,0.0448632,20.9457,600.729,-0.202779,0.0,0.0
140,34.75,35.9221,36.6211,160.586,110.993,113.796,-0.000583849,0.0449969,20.947,600.74,-0.225494,0.0,0.0
150,37.25,36.1699,36.9934,161.909,111.045,113.725,-0.000138731,0.0483146,20.941,600.679,-0.215608,0.0,1.0
160,39.75,35.4179,36.3643,153.964,111.054,110.752,0.000417954,0.0661631,20.9012,600.769,0.0246347,0.0,1.0
170,42.25,35.6993,35.9073,151.846,111.097,105.606,0.00116708,0.0986396,20.8351,600.549,0.458273,0.0,1.0
180,44.75,36.8118,37.1788,154.462,111.106,101.81,0.0025074,0.143075,20.7657,600.429,0.789911,0.0,0.0
190,47.25,38.1684,37.885,152.829,111.138,99.5712,0.00384623,0.181245,20.7004,600.309,0.993486,0.0,0.0
200,49.75,39.317,38.6917,147.841,111.144,95.3248,0.0049872,0.213314,20.6501,600.109,1.38795,0.0,0.0
210,52.25,40.6279,39.6992,149.444,111.161,95.1771,0.0059675,0.238181,20.613,600.009,1.40336,0.0,0.0
220,54.75,42.1543,41.1997,144.216,111.158,95.9786,0.00684656,0.261528,20.5807,599.829,1.32734,0.0,0.0
230,57.25,43.3953,42.2213,149.64,111.182,95.972,0.00742576,0.280372,20.5602,599.699,1.32987,0.0,0.0
240,59.75,44.7629,43.7142,145.513,111.163,93.5889,0.0078778,0.295115,20.5453,599.528,1.55567,0.0,0.0
250,62.25,46.2223,45.1298,150.214,111.16,95.6256,0.00805045,0.306034,20.5389,599.328,1.36076,0.0,0.0
260,64.75,46.716,45.4705,150.982,111.149,97.9835,0.00788928,0.308498,20.5436,599.228,1.1397,0.0,0.0
270,67.25,47.4985,46.5502,146.328,111.136,98.158,0.0072805,0.303071,20.563,599.058,1.12257,0.0,0.0
280,69.75,47.9697,47.5116,152.497,111.119,98.0841,0.0066266,0.293903,20.587,598.918,1.128,0.0,0.0
290,72.25,47.8616,47.1856,151.603,111.12,100.451,0.00611063,0.280381,20.6115,598.828,0.912481,0.0,0.0
300,74.75,48.3934,48.4324,151.512,111.107,100.756,0.00540073,0.265588,20.6395,598.678,0.884038,0.0,0.0
310,77.25,48.5897,48.5642,153.153,111.078,105.125,0.00447201,0.249267,20.6675,598.648,0.49798,0.0,0.0
320,79.75,48.5237,48.8178,152.536,111.065,107.416,0.00342857,0.232418,20.6912,598.578,0.301955,0.0,0.0
330,82.25,48.3467,49.1375,154.993,111.034,111.276,0.00236514,0.215628,20.7186,598.528,-0.019683,0.0,0.0
340,84.75,48.2386,48.9469,159.413,111.021,114.587,0.00172625,0.198466,20.747,598.457,-0.285791,0.0,0.0
350,87.25,47.6726,48.8105,157.291,111.003,115.802,0.0012665,0.182206,20.7707,598.387,-0.382661,0.0,0.0
360,89.75,47.4526,48.8653,156.589,110.979,116.218,0.00113027,0.166743,20.7998,598.327,-0.417037,0.0,0.0
370,92.25,47.2919,48.7393,156.052,110.948,115.557,0.00116535,0.150946,20.8215,598.327,-0.367975,0.0,0.0
380,94.75,46.7416,48.1987,161.265,110.923,115.959,0.00111292,0.13795,20.8388,598.297,-0.401426,0.0,0.0
390,97.25,46.4345,48.0017,158.499,110.905,116.05,0.00107328,0.126666,20.8541,598.287,-0.409999,0.0,0.0
400,99.75,45.56,47.7235,156.876,110.876,115.387,0.00129591,0.115269,20.8685,598.217,-0.360484,0.0,0.0
410,102.25,45.331,47.2471,161.083,110.861,114.479,0.00142281,0.105373,20.8805,598.207,-0.290323,0.0,0.0
420,104.75,44.2953,47.1768,161.884,110.839,115.172,0.00143601,0.0968892,20.8931,598.197,-0.346664,0.0,0.0
430,107.25,44.1375,46.5941,159.442,110.827,115.102,0.0013321,0.0893174,20.9023,598.167,-0.3422,0.0,0.0
440,109.75,43.6717,46.2045,160.522,110.797,114.288,0.00128853,0.0839757,20.9091,598.127,-0.280421,0.0,0.0
450,112.25,41.2632,44.0135,162.275,110.79,114.013,0.0012959,0.0798553,20.9122,598.127,-0.259215,0.0,0.0
460,114.75,41.3806,44.3096,161.921,110.779,113.905,0.00123318,0.0766962,20.9155,598.107,-0.251612,0.0,0.0
470,117.25,40.4122,43.6661,161.473,110.769,114.107,0.0011954,0.0741747,20.9187,598.117,-0.268368,0.0,0.0
480,119.75,40.0453,43.0023,162.321,110.712,114.308,0.00114643,0.0723527,20.9208,598.087,-0.288963,0.0,0.0
490,122.25,40.0482,42.6134,162.895,110.692,114.197,0.00113157,0.070545,20.9217,598.057,-0.281786,0.0,0.0
500,124.75,39.9387,42.4679,158.475,110.656,115.012,0.0011026,0.0686901,20.9235,598.057,-0.349088,0.0,0.0
510,127.25,39.3421,42.4864,159.389,110.639,114.94,0.00104689,0.0673225,20.9232,598.037,-0.344819,0.0,0.0
520,129.75,39.404,41.8364,161.165,110.584,114.345,0.000991517,0.0663393,20.9236,598.047,-0.302303,0.0,0.0
530,132.25,39.0454,41.5527,157.788,110.586,114.804,0.000865094,0.0651129,20.9255,598.027,-0.338423,0.0,0.0
540,134.75,38.7129,41.0699,163.843,110.567,114.385,0.000617685,0.063787,20.9268,598.027,-0.306909,0.0,0.0
550,137.25,38.477,40.6729,161.595,110.558,113.982,0.00046743,0.0627025,20.9276,597.987,-0.275732,0.0,0.0
560,139.75,38.2967,40.5459,159.362,110.525,114.992,0.000396565,0.0615483,20.929,597.967,-0.358146,0.0,0.0
570,142.25,37.9534,40.3438,166.096,110.509,115.075,0.000223045,0.0604711,20.9303,597.937,-0.365968,0.0,0.0
580,144.75,37.7845,40.16,162.838,110.519,114.086,-6.6352e-05,0.0594172,20.9315,597.927,-0.287174,0.0,0.0
590,147.25,37.8118,40.1857,157.176,110.475,114.321,-0.000149573,0.0583903,20.9319,597.917,-0.309337,0.0,0.0
600,149.75,37.8204,40.0632,160.066,110.458,114.342,-0.000105021,0.0574032,20.9328,597.937,-0.312391,0.0,0.0
610,152.25,37.3098,39.3556,160.848,110.43,114.055,-0.000113678,0.0565087,20.9351,597.917,-0.29198,0.0,0.0
620,154.75,36.7762,39.8043,161.484,110.431,114.741,-0.000102051,0.0554129,20.9362,597.907,-0.346166,0.0,0.0
630,157.25,36.8489,39.1058,161.282,110.427,114.134,-0.000125186,0.0544151,20.9375,597.887,-0.298524,0.0,0.0
640,159.75,37.1202,39.4144,160.288,110.435,114.567,-0.000178206,0.0533798,20.9382,597.887,-0.332125,0.0,0.0
650,162.25,36.7116,38.937,160.768,110.417,114.88,-0.000313641,0.0527728,20.9393,597.867,-0.358203,0.0,0.0
660,164.75,36.5282,38.881,160.271,110.416,114.584,-0.000419239,0.0520993,20.9401,597.857,-0.334889,0.0,0.0
670,167.25,36.6772,38.635,163.015,110.404,114.636,-0.000528896,0.0513842,20.9413,597.777,-0.340048,0.0,0.0
680,169.75,36.4886,39.0184,159.236,110.385,114.064,-0.000617974,0.050811,20.9412,597.807,-0.296365,0.0,0.0
690,172.25,35.8947,38.3562,161.875,110.372,115.082,-0.000578576,0.0502877,20.9426,597.857,-0.377802,0.0,0.0
700,174.75,36.4038,38.2757,161.555,110.358,114.226,-0.000492418,0.0498131,20.9437,597.827,-0.311354,0.0,0.0
710,177.25,36.358,38.1286,163.829,110.355,114.37,-0.000461776,0.0491317,20.9442,597.827,-0.323045,0.0,0.0
720,179.75,36.3975,38.2256,160.485,110.353,114.484,-0.000512684,0.048591,20.9443,597.827,-0.332291,0.0,0.0
730,182.25,36.2969,37.7755,159.952,110.361,114.605,-0.000485339,0.0480991,20.9451,597.807,-0.341099,0.0,0.0
740,184.75,36.0008,37.9112,163.865,110.336,114.279,-0.000548525,0.047693,20.9462,597.807,-0.317445,0.0,0.0
750,187.25,36.0278,38.1471,160.284,110.34,114.179,-0.000567796,0.0471753,20.9465,597.787,-0.309159,0.0,0.0
760,189.75,35.7604,37.3911,161.337,110.334,114.285,-0.000580954,0.0468625,20.9453,597.737,-0.31807,0.0,0.0
770,192.25,36.0235,37.2359,163.314,110.33,114.882,-0.00058733,0.0465634,20.9443,597.757,-0.365474,0.0,0.0
780,194.75,35.7121,37.5898,158.645,110.319,115.111,-0.000682682,0.0460836,20.9448,597.807,-0.384425,0.0,0.0
790,197.25,35.7183,37.3369,159.383,110.313,113.786,-0.000787944,0.0459738,20.9478,597.677,-0.28025,0.0,0.0
800,199.75,35.4254,36.9505,159.289,110.29,114.164,-0.000818844,0.0456363,20.949,597.757,-0.31206,0.0,0.0
810,202.25,35.5757,37.1825,160.309,110.274,114.316,-0.000904432,0.045351,20.9495,597.757,-0.325412,0.0,0.0
820,204.75,35.3678,36.9839,157.932,110.263,114.416,-0.000991727,0.0452085,20.9496,597.727,-0.33427,0.0,0.0
830,207.25,35.2597,36.7032,161.696,110.278,114.562,-0.000944657,0.0451367,20.9506,597.757,-0.344573,0.0,0.0
840,209.75,35.8981,36.4576,158.977,110.285,114.691,-0.000695264,0.0449539,20.9515,597.737,-0.354085,0.0,0.0
850,212.25,35.037,37.2762,157.186,110.301,114.201,-0.000580794,0.045042,20.9517,597.737,-0.314152,0.0,0.0
860,214.75,35.3129,36.5184,161.944,110.326,114.475,-0.000576667,0.0449945,20.9513,597.717,-0.33375,0.0,0.0
870,217.25,35.2862,36.7783,162.353,110.318,113.999,-0.000597468,0.0448988,20.9506,597.717,-0.296711,0.0,0.0
880,219.75,35.2451,36.5781,159.497,110.359,115.259,-0.000725626,0.0448685,20.9506,597.677,-0.392745,0.0,0.0
890,222.25,35.282,36.5589,161.044,110.382,114.155,,0.044622,,597.687,-0.30383,0.0,0.0
900,224.75,35.2117,36.2324,161.309,110.441,114.57,,,,597.677,-0.33182,0.0,0.0
910,227.25,35.0505,36.2351,162.002,110.49,114.682,,,,597.677,-0.33657,0.0,0.0
920,229.75,34.9013,36.7424,158.688,110.518,114.194,,,,597.677,-0.295816,0.0,0.0
924,230.75,35.0254,36.3859,163.685,110.516,114.138,,,,597.657,-0.291517,0.0,0.0