File: 01_Data/Rug_Pad/Cone/Rug_Pad_Cone_HF75Scan_220920_R2.csv
Names,Time,Stack TC,Smoke TC,Exh Press,Smoke Comp,Smoke Meas,CO Meter,CO2 Meter,O2 Meter,Sample Mass,Ext Coeff,Start Test,Flame Verif
Chan Gain,,500,500,1,1,1,1,1,1,1,1,1.0,1.0
Offset,,0,0,0.143022,0,0,0,0,0,0,0,0.0,0.0
Gain,,1,1,25.011,14.5176,16.5692,1,1,1,1.00088,1.03055,1.0,1.0
Units,sec,C,C,Pa,%,%,%,%,%,g,/m,,
Baseline,,57.5973,59.6691,151.482,109.347,113.961,-0.00102751,0.0434148,20.9502,-448.099,-0.373539,,
11,2.5,56.2454,58.2052,146.981,109.243,111.807,-0.000599971,0.0455974,20.9501,590.07,-0.209781,0.0,0.0
22,5.25,56.9622,58.0425,140.469,109.237,95.0275,0.00139084,0.0854775,20.9022,589.94,1.25978,0.0,1.0
33,8,56.9057,58.2857,134.791,109.232,92.2246,0.00477153,0.182264,20.7101,589.74,1.52999,0.0,0.0
44,10.75,60.0151,60.3645,131.723,109.247,81.6186,0.00933618,0.306284,20.5213,589.44,2.63564,0.0,0.0
55,13.5,63.6215,63.1499,120.098,109.279,67.469,0.0148026,0.447313,20.2655,589.109,4.35934,0.0,0.0
66,16.25,69.0729,67.2193,118.229,109.293,65.6694,0.0192395,0.602482,20.0116,588.609,4.60491,0.0,0.0
77,19,73.5246,72.3838,120.224,109.286,64.3188,0.0220473,0.708159,19.8892,588.228,4.79222,0.0,0.0
88,21.75,76.7403,75.6572,121.701,109.283,67.5474,0.0217174,0.72117,19.9022,587.828,4.34921,0.0,0.0
99,24.5,78.7329,78.6903,134.695,109.289,79.0246,0.0187177,0.637776,20.0521,587.668,2.93105,0.0,0.0
110,27.25,78.5546,79.5321,137.63,109.305,91.7377,0.0144,0.502102,20.2456,587.478,1.58385,0.0,0.0
121,30,77.7767,79.7129,148.285,109.313,103.054,0.00909586,0.388857,20.4442,587.358,0.533015,0.0,0.0
132,32.75,76.6901,79.0945,144.14,109.313,111.273,0.00538418,0.292773,20.602,587.268,-0.160673,0.0,0.0
143,35.5,75.6114,78.6403,145.365,109.315,112.654,0.00341878,0.23116,20.7069,587.228,-0.271991,0.0,0.0
154,38.25,74.6537,78.2485,143.601,109.33,113.624,0.00269685,0.190041,20.7715,587.117,-0.348311,0.0,0.0
165,41,74.0082,77.2555,146.992,109.306,114.321,0.0026626,0.165273,20.806,587.087,-0.405555,0.0,0.0
176,43.75,72.7021,76.4782,152.581,109.3,114.285,0.00261591,0.148952,20.826,587.007,-0.403115,0.0,0.0
187,46.5,71.8075,75.6796,148.267,109.304,113.865,0.00254072,0.137524,20.8388,586.967,-0.369604,0.0,0.0
198,49.25,71.0193,75.2492,147.758,109.314,113.516,0.00255724,0.13087,20.8464,586.897,-0.340979,0.0,0.0
209,52,70.0956,74.7607,148.091,109.321,113.213,0.00243503,0.12839,20.8485,586.857,-0.316237,0.0,0.0
220,54.75,69.0653,74.2087,146.397,109.334,113.579,0.00217261,0.125805,20.8494,586.847,-0.344399,0.0,0.0
231,57.5,68.9345,73.8223,147.902,109.321,113.105,0.00216613,0.123429,20.8502,586.807,-0.307596,0.0,0.0
242,60.25,68.6859,73.1985,146.128,109.307,112.857,0.00199188,0.121809,20.8504,586.697,-0.288867,0.0,0.0
253,63,68.2605,72.8816,148.378,109.303,112.761,0.0014204,0.120809,20.8505,586.717,-0.281575,0.0,0.0
264,65.75,67.6679,72.372,147.503,109.319,112.728,0.000982581,0.119544,20.8505,586.647,-0.277584,0.0,0.0
275,68.5,67.1629,71.9007,147.3,109.334,112.77,0.000906739,0.11851,20.8505,586.577,-0.279777,0.0,0.0
286,71.25,66.656,71.5681,146.725,109.36,113.101,0.000792282,0.117733,20.8508,586.587,-0.304086,0.0,0.0
297,74,66.4545,70.9289,145.715,109.375,112.657,0.00062807,0.115827,20.8522,586.497,-0.267286,0.0,0.0
308,76.75,65.872,70.7024,146.603,109.435,113.45,0.000584276,0.113203,20.8566,586.457,-0.325706,0.0,0.0
319,79.5,66.0277,70.7292,147.533,109.48,112.775,0.000367819,0.111469,20.8613,586.437,-0.268066,0.0,0.0
330,82.25,65.654,70.3125,147.541,109.508,112.836,-1.44375e-05,0.110093,20.8628,586.327,-0.270663,0.0,0.0
341,85,65.8418,70.0789,147.49,109.55,113.145,-1.50782e-05,0.108333,20.8641,586.327,-0.291945,0.0,0.0
352,87.75,65.2636,69.5038,146.761,109.606,113.603,0.000241248,0.106716,20.8668,586.237,-0.323714,0.0,0.0
363,90.5,64.8574,69.5094,146.31,109.654,113.821,0.000438298,0.104564,20.8707,586.217,-0.33717,0.0,0.0
374,93.25,65.1742,69.2566,143.088,109.686,113.121,0.000499271,0.101842,20.8747,586.167,-0.278711,0.0,0.0
385,96,64.8214,68.9077,151.346,109.727,113.933,0.000486351,0.0990808,20.8782,586.157,-0.340094,0.0,0.0
396,98.75,64.5921,69.0145,148.837,109.773,113.958,0.000558949,0.0969387,20.881,586.087,-0.338227,0.0,0.0
407,101.5,64.2048,68.4849,147.928,109.83,114.32,0.000587481,0.0940516,20.886,586.026,-0.362233,0.0,0.0
418,104.25,63.8626,68.2473,145.701,109.886,113.95,0.000607075,0.0913152,20.8914,586.067,-0.328286,0.0,0.0
429,107,63.7841,67.5186,150.514,109.919,114.738,0.000608826,0.089151,20.8942,585.996,-0.387877,0.0,0.0
440,109.75,63.2052,67.3583,150.881,109.952,114.068,0.00063315,0.0866593,20.8986,585.966,-0.3322,0.0,0.0
451,112.5,63.3269,67.3125,148.137,109.975,114.79,0.000864462,0.0843423,20.9022,585.977,-0.38735,0.0,0.0
462,115.25,63.1022,66.8252,154.694,110.019,115.393,0.0010307,0.0818935,20.9048,585.966,-0.431127,0.0,0.0
473,118,62.669,66.9807,148.875,110.035,113.974,0.000884608,0.0785559,20.9098,585.896,-0.317974,0.0,0.0
484,120.75,62.6964,66.3186,150.419,110.041,115.047,0.00074899,0.0757721,20.9136,585.896,-0.402168,0.0,0.0
495,123.5,62.1726,66.0417,149.107,110.077,114.913,0.000802043,0.0734827,20.9168,585.856,-0.388612,0.0,0.0
506,126.25,61.8889,66.2342,147.8,110.085,116.117,0.000908052,0.0712533,20.9198,585.836,-0.482177,0.0,0.0
517,129,61.67,65.7968,147.523,110.103,116.135,0.00104091,0.0696169,20.9221,585.776,-0.482139,0.0,0.0
528,131.75,61.5465,65.6248,148.95,110.101,115.355,0.00119815,0.0674211,20.9256,585.726,-0.421423,0.0,0.0
539,134.5,61.5126,65.2846,147.84,110.108,115.3,0.00126706,0.0650341,20.9288,585.726,-0.416558,0.0,0.0
550,137.25,61.386,65.2812,145.189,110.122,115.794,0.00133999,0.0632159,20.9309,585.736,-0.454004,0.0,0.0
561,140,61.4164,64.6715,148.428,110.139,115.176,0.00128471,0.0619852,20.933,585.756,-0.404181,0.0,0.0
572,142.75,61.1037,64.8945,146.305,110.151,115.401,0.00098865,0.060898,20.9345,585.696,-0.420916,0.0,0.0
583,145.5,59.7869,63.0231,149.22,110.157,115.322,0.000750224,0.0600277,20.9345,585.616,-0.414226,0.0,0.0
594,148.25,58.8955,62.5446,151.619,110.143,114.961,0.000732674,0.0596819,20.9345,585.646,-0.387048,0.0,0.0
605,151,59.3391,62.7469,143.798,110.157,114.513,0.000809056,0.0593002,20.9345,585.656,-0.350546,0.0,0.0
616,153.75,59.3487,62.7032,147.864,110.164,114.928,0.000810987,0.0586544,20.9345,585.616,-0.382717,0.0,0.0
627,156.5,58.9859,62.4214,147.213,110.171,114.649,0.00066501,0.0580479,20.9352,585.596,-0.360151,0.0,0.0
638,159.25,59.0862,62.6815,150.639,110.19,114.753,0.000534893,0.0574963,20.9363,585.546,-0.366761,0.0,0.0
649,162,58.9157,62.1127,152.518,110.173,114.75,0.000581451,0.0570256,20.9367,585.536,-0.367976,0.0,0.0
660,164.75,58.5055,62.0743,149.319,110.19,115.578,0.000691591,0.0566282,20.9368,585.506,-0.431536,0.0,0.0
671,167.5,58.3043,61.9002,151.867,110.194,115.032,0.000797924,0.056137,20.9376,585.486,-0.388468,0.0,0.0
682,170.25,58.7139,61.4692,151.778,110.198,116.034,0.00064275,0.0557155,20.9385,585.446,-0.466486,0.0,0.0
693,173,58.6442,61.379,149.463,110.201,114.798,0.000451255,0.0553169,20.9395,585.416,-0.369472,0.0,0.0
704,175.75,58.0971,61.437,151.517,110.226,114.712,0.000474672,0.0552842,20.9406,585.446,-0.360629,0.0,0.0
715,178.5,57.9967,61.4496,150.635,110.22,115.259,0.00044436,0.0551185,20.941,585.436,-0.404112,0.0,0.0
726,181.25,58.4206,61.3486,148.08,110.24,115.221,0.000488887,0.0546113,20.9419,585.376,-0.399501,0.0,0.0
737,184,57.9884,61.296,150.974,110.225,114.797,0.000714913,0.0543216,20.943,585.346,-0.367395,0.0,0.0
748,186.75,58.0035,61.1449,151.57,110.221,115.021,0.000720711,0.0541614,20.9425,585.346,-0.385304,0.0,0.0
759,189.5,58.2066,61.1664,149.575,110.21,115.064,0.000583842,0.0538262,20.9424,585.316,-0.38959,0.0,0.0
770,192.25,58.3181,60.9437,149.532,110.226,115.154,0.000375926,0.053456,20.9418,585.286,-0.39535,0.0,0.0
781,195,58.1576,60.503,150.037,110.254,115.051,0.000263481,0.0534284,20.9414,585.236,-0.385036,0.0,0.0
792,197.75,57.9867,60.843,149.179,110.21,115.16,0.00038162,0.0533103,20.9419,585.226,-0.397211,0.0,0.0
803,200.5,57.9724,61.0055,151.347,110.215,115.049,0.000398592,0.053165,20.9421,585.186,-0.388074,0.0,0.0
814,203.25,57.7457,60.8328,148.579,110.219,115.285,0.000418872,0.053196,20.9421,585.186,-0.406243,0.0,0.0
825,206,57.9586,60.6487,150.114,110.231,114.813,0.000552757,0.0530473,20.9422,585.196,-0.368117,0.0,0.0
836,208.75,57.6959,61.0131,154.087,110.24,115.673,0.000613532,0.0528624,20.9422,585.146,-0.434896,0.0,0.0
847,211.5,57.6452,60.8498,149.736,110.213,114.912,0.000550295,0.0527721,20.9422,585.076,-0.377409,0.0,0.0
858,214.25,58.0628,60.4825,145.545,110.231,114.477,0.000472541,0.0526411,20.9429,585.006,-0.341682,0.0,0.0
869,217,57.5686,60.4676,146.019,110.219,115.117,0.000473683,0.0524642,20.9433,585.066,-0.393073,0.0,0.0
880,219.75,57.8611,60.7876,148.787,110.238,115.048,0.000434307,0.0524042,20.9434,585.066,-0.38603,0.0,0.0
891,222.5,58.3011,60.2631,149.433,110.216,114.507,0.000367071,0.0523466,20.9435,585.026,-0.345233,0.0,0.0
902,225.25,57.8031,60.0437,147.679,110.188,115.947,0.000319223,0.0522796,20.9435,585.026,-0.46058,0.0,0.0
913,228,57.9381,60.4072,150.508,110.175,116.205,0.000374254,0.0520544,20.9435,585.026,-0.481643,0.0,0.0
924,230.75,57.8592,60.71,148.775,110.17,115.32,0.000429335,0.0517921,20.9435,584.996,-0.41298,0.0,0.0
935,233.5,57.6753,60.1642,151.436,110.183,115.056,0.000329823,0.0517803,20.9435,584.996,-0.391247,0.0,0.0
946,236.25,57.9925,60.6471,146.473,110.178,114.807,0.000156993,0.0518853,20.9447,584.966,-0.372003,0.0,0.0
957,239,57.7506,60.376,142.454,110.156,114.724,8.4624e-05,0.0518656,20.9459,584.946,-0.367286,0.0,0.0
968,241.75,57.6181,60.3121,153.216,110.154,115.449,0.00036521,0.0518103,20.9463,584.956,-0.424427,0.0,0.0
979,244.5,57.902,60.3578,148.396,110.16,115.738,0.000512574,0.0517758,20.9464,584.956,-0.446534,0.0,0.0
990,247.25,57.7668,60.1575,149.263,110.155,114.936,0.000225953,0.0513755,20.9465,584.875,-0.384041,0.0,0.0
1001,250,58.2848,60.4754,147.909,110.147,113.633,3.85096e-05,0.0513758,20.9465,584.856,-0.281658,0.0,0.0
1012,252.75,57.7436,59.8387,147.145,110.159,115.146,,0.0514783,,584.865,-0.400243,0.0,0.0
1023,255.5,57.9314,60.0425,148.745,110.145,115.093,,,,584.815,-0.397273,0.0,0.0
1034,258.25,58.1921,60.3265,148.373,110.146,115.382,,,,584.815,-0.419814,0.0,0.0
1045,261,57.8827,60.2597,147.555,110.135,113.967,,,,584.775,-0.30915,0.0,0.0
1052,262.75,57.2686,60.4015,147.967,110.136,114.942,,,,584.745,-0.386078,0.0,0.0