File: 01_Data/Rug_Pad/Cone/Rug_Pad_Cone_HF75Scalar_220920_R2.csv
LABORATORY,FSRI
TEST IDENT,Rug_Pad_HF75_2
OPERATOR,Dow
MATERIAL,Rug Pad
ORIENTATION,Horizontal
HEAT FLUX,75
SURF AREA,0.01
C FACTOR,0.0391624
SPEC HOLDER DIFF,-566
SPECIMEN MASS,7.33
SCAN TIME,0.25
O2 DELAY TIME,11
CO DELAY TIME,11
CO2 DELAY TIME,8
FLOW FACTOR,1
SCAN COUNT,1052
TIME TO IGN,3.25
END OF TEST SCAN,572
END OF TEST TIME,143
TEST STATUS,1
PRE TEST CMT,Dimensions: 102.5 x 101.5 x 4.8 mm; with frame and grid; with calcium silicate substrate