File: 01_Data/Rug_Pad/Cone/Rug_Pad_Cone_HF50Scan_220920_R1.csv
Names,Time,Stack TC,Smoke TC,Exh Press,Smoke Comp,Smoke Meas,CO Meter,CO2 Meter,O2 Meter,Sample Mass,Ext Coeff,Start Test,Flame Verif
Chan Gain,,500,500,1,1,1,1,1,1,1,1,1.0,1.0
Offset,,0,0,0.143022,0,0,0,0,0,0,0,0.0,0.0
Gain,,1,1,25.011,14.5176,16.5692,1,1,1,1.00088,1.03055,1.0,1.0
Units,sec,C,C,Pa,%,%,%,%,%,g,/m,,
Baseline,,46.5423,48.0289,156.403,109.662,114.645,-0.000670506,0.0440522,20.9506,-447.355,-0.401623,,
14,3.25,45.005,46.5012,151.835,109.805,114.12,-0.000971215,0.0442842,20.9501,600.049,-0.348428,0.0,0.0
28,6.75,44.9089,46.6221,152.119,109.74,113.496,-0.000190449,0.0502187,20.9356,599.979,-0.304231,0.0,1.0
42,10.25,45.0816,46.6186,146.168,109.811,99.5601,0.00203803,0.107551,20.8196,599.819,0.885881,0.0,1.0
56,13.75,47.3261,47.2074,139.032,110.089,91.3681,0.00537777,0.206556,20.6649,599.548,1.68497,0.0,0.0
70,17.25,50.8017,50.1321,133.662,110.321,84.5484,0.0092857,0.313118,20.4899,599.228,2.40523,0.0,0.0
84,20.75,54.4923,53.2737,132.303,110.474,76.6117,0.0130491,0.423788,20.3089,598.868,3.30892,0.0,0.0
98,24.25,58.6412,56.8939,132.327,110.588,78.7116,0.0160637,0.514199,20.1788,598.447,3.07378,0.0,0.0
112,27.75,61.9538,60.7695,133.82,110.637,81.783,0.0162702,0.540799,20.1629,598.107,2.7317,0.0,0.0
126,31.25,63.4469,63.4365,139.383,110.669,86.7449,0.01348,0.488138,20.2978,597.757,2.2019,0.0,0.0
140,34.75,63.9826,64.4284,148.389,110.655,96.2552,0.0102124,0.390506,20.4626,597.617,1.26031,0.0,0.0
154,38.25,63.4965,64.363,144.733,110.629,105.964,0.00631354,0.307895,20.5918,597.507,0.389414,0.0,0.0
168,41.75,62.2203,64.3587,151.691,110.556,113.218,0.00337268,0.243453,20.692,597.386,-0.215077,0.0,0.0
182,45.25,61.7573,63.6579,152.609,110.493,114.612,0.002116,0.201244,20.7553,597.306,-0.330813,0.0,0.0
196,48.75,60.9329,63.4112,156.269,110.388,115.273,0.00151441,0.171572,20.7935,597.246,-0.391497,0.0,0.0
210,52.25,59.8773,62.4007,151.084,110.278,115.407,0.0012582,0.152087,20.8204,597.166,-0.410925,0.0,0.0
224,55.75,58.7404,62.1103,149.663,110.133,116.109,0.00134172,0.13871,20.8339,597.136,-0.477658,0.0,0.0
238,59.25,57.8853,61.0141,148.27,110.155,115.577,0.00172978,0.129458,20.8452,597.086,-0.434366,0.0,0.0
252,62.75,57.8551,60.6366,150.634,110.201,116.511,0.00178457,0.122559,20.853,597.046,-0.5033,0.0,0.0
266,66.25,57.3094,60.4932,153.941,110.238,115.714,0.00146328,0.116276,20.8607,596.996,-0.438205,0.0,0.0
280,69.75,56.4266,59.9189,151.159,110.318,115.728,0.00136724,0.112183,20.8659,596.916,-0.432774,0.0,0.0
294,73.25,55.7394,59.2884,153.398,110.364,116.473,0.00150032,0.108489,20.8711,596.896,-0.486994,0.0,0.0
308,76.75,54.794,58.8309,152.393,110.443,115.466,0.00145807,0.104597,20.876,596.866,-0.402095,0.0,0.0
322,80.25,55.1378,58.2724,151.503,110.474,115.456,0.00135888,0.0998165,20.8817,596.836,-0.398765,0.0,0.0
336,83.75,54.4672,57.9013,151.813,110.552,115.858,0.00130806,0.0958376,20.8877,596.796,-0.42381,0.0,0.0
350,87.25,53.8835,57.4891,154.746,110.599,116.483,0.00123886,0.0921061,20.8917,596.726,-0.468568,0.0,0.0
364,90.75,53.3705,57.2504,150.53,110.667,115.855,0.00122102,0.0896006,20.8939,596.766,-0.41416,0.0,0.0
378,94.25,52.7565,56.7964,156.389,110.737,116.192,0.00110756,0.0870715,20.8956,596.716,-0.434682,0.0,0.0
392,97.75,52.989,55.9373,157.445,110.777,116.262,0.000933281,0.0848202,20.8971,596.676,-0.436891,0.0,0.0
406,101.25,52.2287,56.2645,152.668,110.831,116.546,0.000703175,0.0830028,20.9007,596.676,-0.45459,0.0,0.0
420,104.75,51.7247,55.81,150.502,110.895,116.761,0.000644929,0.0816773,20.9012,596.606,-0.465965,0.0,0.0
434,108.25,51.7132,55.3409,155.497,110.955,117.095,0.000554018,0.0803883,20.9016,596.596,-0.486892,0.0,0.0
448,111.75,51.5351,55.0381,152.659,110.977,117.193,0.000516524,0.0790184,20.9021,596.596,-0.492661,0.0,0.0
462,115.25,51.0425,54.7618,156.496,111.026,116.493,0.000422939,0.0778191,20.9041,596.506,-0.434512,0.0,0.0
476,118.75,50.9834,54.0835,156.682,111.045,116.622,0.00040805,0.076138,20.9072,596.466,-0.442994,0.0,0.0
490,122.25,50.597,54.1462,149.936,111.073,116.552,0.000332495,0.0747237,20.9087,596.426,-0.43524,0.0,0.0
504,125.75,50.9719,53.7644,154.317,111.056,116.644,0.000371847,0.0737185,20.9091,596.446,-0.443778,0.0,0.0
518,129.25,50.9122,53.7079,152.955,111.096,115.955,0.000393512,0.0724305,20.9113,596.406,-0.38704,0.0,0.0
532,132.75,50.3768,53.537,157.944,111.082,116.972,0.000461133,0.0712185,20.9131,596.376,-0.467048,0.0,0.0
546,136.25,50.0527,53.5426,155.264,111.061,116.535,0.000462055,0.0701057,20.9148,596.326,-0.434916,0.0,0.0
560,139.75,50.2221,52.8611,153.623,111.057,115.906,0.000389469,0.0687884,20.916,596.316,-0.386316,0.0,0.0
574,143.25,49.8364,53.1418,157.029,111.033,116.823,0.000306167,0.0671883,20.9168,596.255,-0.459554,0.0,0.0
588,146.75,50.0207,52.7305,155.995,111.024,116.562,0.000303503,0.0659128,20.9191,596.266,-0.440024,0.0,0.0
602,150.25,49.3988,52.7279,156.447,110.983,116.32,0.0002982,0.0650948,20.9209,596.266,-0.424542,0.0,0.0
616,153.75,49.7377,52.2043,152.617,110.976,116.474,0.000127849,0.0643433,20.9239,596.236,-0.437059,0.0,0.0
630,157.25,49.4475,52.3307,151.903,110.943,115.543,-4.13628e-05,0.0634127,20.9259,596.205,-0.367301,0.0,0.0
644,160.75,49.2808,52.0044,154.806,110.917,116.045,9.78003e-05,0.0625655,20.9274,596.216,-0.40859,0.0,0.0
658,164.25,49.246,51.9502,154.344,110.885,116.969,0.000312232,0.0617637,20.9285,596.185,-0.482836,0.0,0.0
672,167.75,49.3669,51.5815,154.815,110.874,116.68,0.000330609,0.0609426,20.9294,596.155,-0.461361,0.0,0.0
686,171.25,48.8522,51.8193,157.178,110.872,116.189,0.000381081,0.0603051,20.9307,596.065,-0.423461,0.0,0.0
700,174.75,48.9765,51.3418,151.722,110.795,115.999,0.000145584,0.0596088,20.9324,596.065,-0.41494,0.0,0.0
714,178.25,48.9982,51.1791,156.751,110.793,115.989,-5.76606e-05,0.0589152,20.9327,596.085,-0.414261,0.0,0.0
728,181.75,48.6734,51.3506,150.86,110.743,115.878,-8.56335e-05,0.0582336,20.9328,596.075,-0.409787,0.0,0.0
742,185.25,49.1254,51.2714,149.04,110.733,116.536,-4.21059e-05,0.0573908,20.9344,596.055,-0.461755,0.0,0.0
756,188.75,48.9565,50.6747,153.657,110.698,116.659,-9.71867e-05,0.0564491,20.9363,596.045,-0.474104,0.0,0.0
770,192.25,48.6597,51.1723,151.648,110.703,115.593,-0.000209423,0.0556855,20.9388,596.035,-0.390731,0.0,0.0
784,195.75,47.7294,49.3843,155.078,110.658,115.989,-0.000306371,0.0543278,20.9401,596.005,-0.425294,0.0,0.0
798,199.25,46.8601,49.4303,153.889,110.614,115.661,-0.00032979,0.0523798,20.9413,596.005,-0.403303,0.0,0.0
812,202.75,46.8898,48.8788,152.12,110.585,116.204,-0.000486067,0.05146,20.9417,595.975,-0.448076,0.0,0.0
826,206.25,46.8241,48.9765,155.705,110.547,115.456,-0.00024527,0.0507701,20.9418,595.945,-0.392749,0.0,0.0
840,209.75,46.8239,49.0347,154.108,110.51,115.892,-0.000122703,0.0503324,20.9418,595.945,-0.429895,0.0,0.0
854,213.25,46.3493,48.8521,158.736,110.483,115.893,-0.00016248,0.0500594,20.9418,595.905,-0.432146,0.0,0.0
868,216.75,46.8407,48.7233,157.684,110.473,116.106,-0.000299332,0.0497016,20.9432,595.925,-0.449533,0.0,0.0
882,220.25,46.2384,49.2251,151.166,110.462,115.601,-0.000363703,0.0496777,20.9432,595.905,-0.411067,0.0,0.0
896,223.75,46.6595,48.9051,153.173,110.48,116.38,-0.000654239,0.0494008,20.945,595.865,-0.470306,0.0,0.0
910,227.25,46.847,48.6517,157.006,110.48,116.022,-0.000656317,0.0490022,20.9459,595.845,-0.442455,0.0,0.0
924,230.75,46.285,47.9482,155.708,110.495,115.64,-0.000516578,0.0486811,20.9461,595.815,-0.411425,0.0,0.0
938,234.25,46.6998,49.2346,150.882,110.494,115.911,-0.000482691,0.048488,20.9461,595.805,-0.432659,0.0,0.0
952,237.75,46.4889,48.3257,153.474,110.524,116.077,-0.00043214,0.0483962,20.9461,595.765,-0.443121,0.0,0.0
966,241.25,46.2501,48.3093,153.953,110.56,116.318,-0.000517144,0.0480418,20.9476,595.745,-0.458951,0.0,0.0
980,244.75,46.262,48.4292,153.097,110.546,116.387,-0.00043138,0.0478114,20.9483,595.735,-0.465453,0.0,0.0
994,248.25,46.1219,48.0524,151.146,110.561,116.735,-0.000563642,0.0475896,20.9467,595.725,-0.491166,0.0,0.0
1008,251.75,46.4184,48.4143,154.288,110.564,116.953,-0.000698435,0.0477182,20.9462,595.685,-0.507887,0.0,0.0
1022,255.25,46.7378,48.3613,154.533,110.588,116.372,-0.000685236,0.0475879,20.9461,595.675,-0.460836,0.0,0.0
1036,258.75,45.9313,48.2956,155.442,110.582,115.463,-0.000755283,0.0475527,20.9461,595.715,-0.390481,0.0,0.0
1050,262.25,46.2889,48.0106,153.396,110.607,116.644,-0.000761472,0.0472591,20.9469,595.685,-0.480384,0.0,0.0
1064,265.75,46.3301,48.4073,153.373,110.642,115.581,-0.000665129,0.0471626,20.9479,595.685,-0.394813,0.0,0.0
1078,269.25,46.3661,48.3952,158.123,110.686,116.119,-0.000699448,0.0469619,20.9475,595.615,-0.433176,0.0,0.0
1092,272.75,46.4309,47.887,156.842,110.713,115.267,-0.000731334,0.0469356,20.9491,595.575,-0.364393,0.0,0.0
1106,276.25,46.3399,48.3631,156.008,110.704,116.933,-0.00066601,0.046797,20.9496,595.625,-0.494885,0.0,0.0
1120,279.75,46.0343,47.941,157.936,110.743,116.01,-0.000572075,0.0467616,20.95,595.625,-0.420078,0.0,0.0
1134,283.25,46.4354,48.4479,155.175,110.744,115.553,-0.00044401,0.0465833,20.9505,595.625,-0.384275,0.0,0.0
1148,286.75,46.2245,48.2974,156.655,110.77,116.238,-0.000571465,0.0464696,20.9506,595.555,-0.435584,0.0,0.0
1162,290.25,46.4166,48.0437,153.729,110.785,116.393,-0.000658826,0.04638,20.9496,595.575,-0.446381,0.0,0.0
1176,293.75,46.0628,48.1014,151.596,110.83,116.697,-0.00061043,0.04622,20.9487,595.585,-0.466303,0.0,0.0
1190,297.25,46.3841,48.3037,155.408,110.86,116.357,-0.00067221,0.0461725,20.9479,595.555,-0.437524,0.0,0.0
1204,300.75,46.5642,47.738,156.553,110.893,116.155,-0.000780048,0.0461961,20.9465,595.485,-0.419084,0.0,0.0
1218,304.25,46.49,48.2085,155.661,110.907,115.602,,0.0460541,,595.535,-0.374777,0.0,0.0
1232,307.75,46.3104,48.3682,152.716,110.944,115.799,,,,595.525,-0.387188,0.0,0.0
1246,311.25,46.5737,48.361,153.523,110.935,117.192,,,,595.565,-0.496012,0.0,0.0
1255,313.5,46.3816,48.2878,155.19,110.964,116.151,,,,595.515,-0.41296,0.0,0.0