File: 01_Data/Rug_Pad/Cone/Rug_Pad_Cone_HF50Scalar_220920_R1.csv
LABORATORY,FSRI
TEST IDENT,Rug_Pad_HF50_1
OPERATOR,Dow
MATERIAL,Rug Pad
ORIENTATION,Horizontal
HEAT FLUX,50
SURF AREA,0.01
C FACTOR,0.0391624
SPEC HOLDER DIFF,-566
SPECIMEN MASS,7.16
SCAN TIME,0.25
O2 DELAY TIME,11
CO DELAY TIME,11
CO2 DELAY TIME,8
FLOW FACTOR,1
SCAN COUNT,1255
TIME TO IGN,6.25
END OF TEST SCAN,775
END OF TEST TIME,193.75
TEST STATUS,1
PRE TEST CMT,Dimensions: 101.5 x 102.5 x 4.6 mm; with frame and grid; with calcium silicate substrate