File: 01_Data/Rug_Pad/Cone/Rug_Pad_Cone_HF25Scalar_220920_R1.csv
LABORATORY,FSRI
TEST IDENT,Rug_Pad_HF25_1
OPERATOR,Dow
MATERIAL,Rug Pad
ORIENTATION,Horizontal
HEAT FLUX,25
SURF AREA,0.01
C FACTOR,0.0391624
SPEC HOLDER DIFF,-566
SPECIMEN MASS,7.21
SCAN TIME,0.25
O2 DELAY TIME,11
CO DELAY TIME,11
CO2 DELAY TIME,8
FLOW FACTOR,1
SCAN COUNT,924
TIME TO IGN,35.75
END OF TEST SCAN,444
END OF TEST TIME,111
TEST STATUS,1
PRE TEST CMT,Dimensions: 102.5 x 101.5 x 4.4 mm; with frame and grid; with calcium silicate substrate