File: 01_Data/Rug_Pad/Cone/Rug_Pad_Cone_HF25Scan_220920_R3.csv
Names,Time,Stack TC,Smoke TC,Exh Press,Smoke Comp,Smoke Meas,CO Meter,CO2 Meter,O2 Meter,Sample Mass,Ext Coeff,Start Test,Flame Verif
Chan Gain,,500,500,1,1,1,1,1,1,1,1,1.0,1.0
Offset,,0,0,0.143022,0,0,0,0,0,0,0,0.0,0.0
Gain,,1,1,25.011,14.5176,16.5692,1,1,1,1.00088,1.03055,1.0,1.0
Units,sec,C,C,Pa,%,%,%,%,%,g,/m,,
Baseline,,37.8322,38.648,161.393,110.194,114.216,-0.000947646,0.0436411,20.9527,-447.122,-0.324072,,
10,2.25,36.1723,37.1475,164.986,110.28,114.77,-0.00109023,0.044231,20.9534,592.392,-0.36074,0.0,0.0
20,4.75,35.9711,36.509,160.487,110.313,114.147,-0.00107465,0.0442604,20.9534,592.412,-0.308851,0.0,0.0
30,7.25,36.0489,36.6627,158.503,110.359,113.879,-0.000985327,0.0442079,20.9534,592.382,-0.283823,0.0,0.0
40,9.75,36.071,36.3764,164.111,110.369,113.845,-0.000952479,0.0443811,20.9534,592.402,-0.280303,0.0,0.0
50,12.25,36.2008,37.0757,163.074,110.414,113.924,-0.000933319,0.0443903,20.9534,592.352,-0.2829,0.0,0.0
60,14.75,36.2617,37.0759,161.912,110.389,114.007,-0.000994937,0.0442348,20.9532,592.322,-0.291505,0.0,0.0
70,17.25,36.2459,37.0024,160.851,110.411,114.093,-0.000964167,0.0440847,20.9531,592.282,-0.296541,0.0,0.0
80,19.75,36.2387,37.1865,164.898,110.385,113.894,-0.000714255,0.0440607,20.9531,592.342,-0.28289,0.0,0.0
90,22.25,36.1502,36.9569,160.469,110.386,113.908,-0.000583461,0.0440416,20.9534,592.322,-0.283941,0.0,0.0
100,24.75,35.7075,36.8015,160.85,110.37,113.18,-0.000647806,0.0441438,20.9526,592.292,-0.227272,0.0,0.0
110,27.25,36.6335,36.8826,165.779,110.357,112.953,-0.000642188,0.0439244,20.9519,592.302,-0.210209,0.0,0.0
120,29.75,36.2986,36.8212,160.806,110.335,112.109,-0.000488344,0.0439568,20.9517,592.272,-0.144155,0.0,0.0
130,32.25,36.1487,36.8733,162.562,110.317,112.878,-0.000241474,0.0442825,20.9508,592.262,-0.207485,0.0,0.0
140,34.75,36.1502,36.6425,156.943,110.297,112.46,8.56116e-05,0.0445254,20.9486,592.242,-0.17553,0.0,0.0
150,37.25,36.4863,36.9602,155.428,110.273,113.648,0.000507198,0.0523278,20.9318,592.192,-0.272468,0.0,1.0
160,39.75,36.954,37.3959,153.263,110.237,105.285,0.00114611,0.0859645,20.8606,592.042,0.415475,0.0,1.0
170,42.25,36.4423,36.2132,150.524,110.208,101.792,0.00195109,0.133748,20.7882,592.002,0.718082,0.0,0.0
180,44.75,37.9927,37.0316,151.103,110.184,100.545,0.00308698,0.176992,20.7263,591.872,0.827585,0.0,0.0
190,47.25,39.0874,38.6438,149.353,110.142,98.8492,0.00423832,0.21342,20.6639,591.742,0.977905,0.0,0.0
200,49.75,40.2429,39.2458,148.713,110.106,96.3487,0.00522465,0.242738,20.6206,591.611,1.20653,0.0,0.0
210,52.25,41.6786,40.5195,149.14,110.052,94.764,0.00624565,0.268972,20.5817,591.491,1.35202,0.0,0.0
220,54.75,43.2436,42.0364,149.754,110.025,94.3453,0.00742974,0.292156,20.5484,591.251,1.38982,0.0,0.0
230,57.25,44.2826,43.4731,148.353,109.994,88.8418,0.00831232,0.308445,20.5288,591.121,1.93061,0.0,0.0
240,59.75,45.4198,44.5345,146.255,109.968,89.4334,0.00869616,0.320481,20.513,590.951,1.86854,0.0,0.0
250,62.25,46.9011,45.9343,143.398,109.95,97.5921,0.00866538,0.32984,20.5073,590.761,1.07784,0.0,0.0
260,64.75,47.8876,46.8179,144.631,109.924,97.0076,0.00849529,0.329756,20.5145,590.611,1.12997,0.0,0.0
270,67.25,48.5485,47.8775,145.744,109.895,98.7637,0.00781784,0.319965,20.5439,590.47,0.96541,0.0,0.0
280,69.75,49.2378,48.4937,145.726,109.876,101.314,0.00674527,0.301017,20.5854,590.3,0.733356,0.0,0.0
290,72.25,49.316,48.6815,152.201,109.848,100.475,0.00537606,0.27718,20.6222,590.18,0.806222,0.0,0.0
300,74.75,48.9226,49.0411,154.852,109.844,101.682,0.00412766,0.253297,20.6615,590.14,0.697909,0.0,0.0
310,77.25,48.7746,49.427,151.384,109.821,104.846,0.00292454,0.23251,20.6941,590.1,0.419139,0.0,0.0
320,79.75,48.7266,49.4886,154.448,109.814,109.169,0.00211461,0.213261,20.7211,590.01,0.0532754,0.0,0.0
330,82.25,48.6397,49.709,156.333,109.789,111.168,0.00159626,0.193525,20.7563,589.94,-0.112865,0.0,0.0
340,84.75,48.3764,49.3546,156.604,109.77,113.788,0.00121054,0.174055,20.7834,589.9,-0.324996,0.0,0.0
350,87.25,47.6707,49.2855,153.87,109.765,114.29,0.00102784,0.158588,20.8078,589.86,-0.365159,0.0,0.0
360,89.75,47.4244,48.4981,154.47,109.744,114.183,0.00112769,0.144055,20.829,589.83,-0.358468,0.0,0.0
370,92.25,47.0521,48.791,157.405,109.745,114.435,0.00128808,0.131845,20.8435,589.79,-0.378349,0.0,0.0
380,94.75,46.9353,48.0589,158.237,109.731,115.133,0.00136248,0.120772,20.8597,589.8,-0.434397,0.0,0.0
390,97.25,45.8908,47.7397,159.683,109.719,113.652,0.00141299,0.109742,20.8736,589.74,-0.318343,0.0,0.0
400,99.75,45.1756,47.5664,160.863,109.711,113.954,0.00147647,0.100946,20.8832,589.71,-0.343056,0.0,0.0
410,102.25,45.0316,47.187,159.612,109.727,114.326,0.00145921,0.0940994,20.8927,589.69,-0.371174,0.0,0.0
420,104.75,44.1731,46.9994,159.458,109.754,113.782,0.0012793,0.0889072,20.9002,589.69,-0.325823,0.0,0.0
430,107.25,44.1925,46.0729,160.43,109.775,114.024,0.00116604,0.0839316,20.9066,589.68,-0.343259,0.0,0.0
440,109.75,42.9743,45.6517,163.169,109.791,113.687,0.00106651,0.0793221,20.9129,589.62,-0.315206,0.0,0.0
450,112.25,43.0303,45.0859,161.339,109.793,114.008,0.000987869,0.0761805,20.9158,589.63,-0.340556,0.0,0.0
460,114.75,42.3926,45.0774,159.664,109.792,113.181,0.000988029,0.0737331,20.9184,589.61,-0.274837,0.0,0.0
470,117.25,41.1217,43.302,158.321,109.814,113.635,0.000983397,0.0715726,20.9205,589.61,-0.309168,0.0,0.0
480,119.75,40.266,42.514,162.161,109.855,113.73,0.000868635,0.069527,20.9227,589.59,-0.313412,0.0,0.0
490,122.25,39.4798,42.7952,158.583,109.835,113.232,0.000721654,0.0676613,20.9252,589.58,-0.275373,0.0,0.0
500,124.75,39.4998,42.1113,155.486,109.848,113.879,0.000558168,0.0660846,20.9262,589.56,-0.325763,0.0,0.0
510,127.25,39.5027,41.6995,159.412,109.849,114.451,0.000586784,0.064879,20.929,589.55,-0.371015,0.0,0.0
520,129.75,39.423,41.5643,159.766,109.907,113.581,0.000583175,0.0635049,20.932,589.51,-0.297247,0.0,0.0
530,132.25,38.8443,41.4424,159.159,109.914,113.918,0.000504984,0.0624576,20.9331,589.5,-0.32346,0.0,0.0
540,134.75,38.5724,41.0791,160.387,109.926,114.232,0.000444698,0.0615334,20.9348,589.48,-0.347287,0.0,0.0
550,137.25,38.0741,40.1892,160.6,109.908,114.179,0.000391109,0.0603923,20.9364,589.47,-0.344695,0.0,0.0
560,139.75,38.1006,40.249,158.307,109.896,113.936,0.000351421,0.0596168,20.9372,589.49,-0.326402,0.0,0.0
570,142.25,37.5963,40.3137,158.849,109.9,113.931,0.000299847,0.0588516,20.9374,589.46,-0.325636,0.0,0.0
580,144.75,37.6505,40.2936,161.886,109.897,113.71,0.000258016,0.0580778,20.9381,589.419,-0.308338,0.0,0.0
590,147.25,37.0648,39.6974,158.319,109.868,113.743,0.000355336,0.0571557,20.9393,589.45,-0.313359,0.0,0.0
600,149.75,37.151,39.7305,160.281,109.838,113.709,0.000208794,0.0562865,20.9391,589.47,-0.313069,0.0,0.0
610,152.25,37.505,39.8359,159.985,109.845,113.488,-9.06425e-05,0.0555847,20.94,589.43,-0.294978,0.0,0.0
620,154.75,36.7651,39.2579,157.998,109.802,113.308,-0.000234358,0.0544989,20.9404,589.399,-0.284165,0.0,0.0
630,157.25,36.8525,38.9716,157.016,109.82,113.357,-0.000343222,0.0536931,20.942,589.379,-0.286582,0.0,0.0
640,159.75,36.7792,38.9197,158.707,109.793,113.711,-0.000591115,0.0526863,20.9426,589.389,-0.316954,0.0,0.0
650,162.25,36.9512,38.9128,165.034,109.806,113.705,-0.00076214,0.0521077,20.9437,589.409,-0.31545,0.0,0.0
660,164.75,36.4938,39.208,161.093,109.754,113.032,-0.00060542,0.0514644,20.9447,589.359,-0.265975,0.0,0.0
670,167.25,36.5569,38.4663,159.059,109.765,113.863,-0.000374713,0.0508106,20.945,589.379,-0.331377,0.0,0.0
680,169.75,36.6254,37.9052,159.694,109.759,113.173,-0.000278736,0.0502871,20.9451,589.399,-0.276887,0.0,0.0
690,172.25,36.1166,38.3974,155.788,109.753,113.685,-0.000251511,0.0497009,20.9459,589.359,-0.31822,0.0,0.0
700,174.75,35.7271,38.0709,159.21,109.757,113.12,-0.000226981,0.0491116,20.9467,589.349,-0.272831,0.0,0.0
710,177.25,36.5017,37.665,165.426,109.745,113.578,-0.000314007,0.0486116,20.947,589.329,-0.310353,0.0,0.0
720,179.75,36.5621,37.9358,160.659,109.738,113.55,-0.000515285,0.048292,20.9484,589.329,-0.308759,0.0,0.0
730,182.25,35.7402,37.9553,161.55,109.741,113.702,-0.000527597,0.0478089,20.9491,589.329,-0.320572,0.0,0.0
740,184.75,36.2765,37.5733,158.787,109.735,113.326,-0.000439095,0.0473761,20.9494,589.299,-0.291123,0.0,0.0
750,187.25,35.3953,37.2461,161.007,109.704,113.5,-0.000419298,0.0470378,20.9495,589.329,-0.30751,0.0,0.0
760,189.75,35.4256,37.4627,161.187,109.717,113.743,-0.000429724,0.0466485,20.9495,589.299,-0.325799,0.0,0.0
770,192.25,35.8658,37.4873,159.652,109.712,113.481,-0.00042681,0.046279,20.9495,589.279,-0.305282,0.0,0.0
780,194.75,35.3398,37.6814,161.801,109.715,113.42,-0.000552688,0.0459752,20.9495,589.289,-0.300188,0.0,0.0
790,197.25,35.6042,37.0261,164.286,109.707,113.396,-0.000751229,0.0458359,20.9502,589.249,-0.299027,0.0,0.0
800,199.75,34.7407,37.0577,161.843,109.736,113.357,-0.000841919,0.0457446,20.9504,589.269,-0.293437,0.0,0.0
810,202.25,35.7089,36.5397,163.902,109.72,114.325,-0.000885346,0.045567,20.9505,589.269,-0.371682,0.0,0.0
820,204.75,35.2562,36.977,162.598,109.741,113.738,-0.000943774,0.0453274,20.9505,589.269,-0.323385,0.0,0.0
830,207.25,35.3348,37.0146,159.16,109.736,113.605,-0.000951133,0.0452503,20.9505,589.249,-0.313215,0.0,0.0
840,209.75,35.1317,36.8026,163.935,109.759,113.544,-0.000922679,0.0452163,20.9505,589.279,-0.306487,0.0,0.0
850,212.25,35.2556,36.9248,162.747,109.755,113.54,-0.000897637,0.0451718,20.9505,589.239,-0.30653,0.0,0.0
860,214.75,34.634,36.2587,162.418,109.759,113.7,-0.000785089,0.045001,20.9505,589.219,-0.318875,0.0,0.0
870,217.25,35.0636,36.624,163.403,109.764,113.985,-0.000633598,0.0450145,20.9505,589.229,-0.341124,0.0,0.0
880,219.75,35.1416,36.5943,160.187,109.756,113.455,-0.000605305,0.0449031,20.9505,589.219,-0.299614,0.0,0.0
890,222.25,35.1726,36.4131,156.501,109.759,113.823,-0.000764606,0.0447249,20.9505,589.249,-0.328679,0.0,0.0
900,224.75,35.0005,35.9911,159.291,109.764,112.879,-0.000867767,0.0444892,20.9505,589.229,-0.252988,0.0,0.0
910,227.25,34.8988,36.4928,156.173,109.766,114.151,,0.0446607,,589.229,-0.354121,0.0,0.0
920,229.75,34.8018,36.5929,153.613,109.766,113.965,,,,589.189,-0.339332,0.0,0.0
930,232.25,35.0592,36.1467,161.542,109.773,113.391,,,,589.189,-0.293187,0.0,0.0
940,234.75,35.0419,36.4918,161.103,109.757,113.527,,,,589.229,-0.305298,0.0,0.0
948,236.75,35.1458,35.6616,164,109.761,113.338,,,,589.209,-0.289861,0.0,0.0