File: 01_Data/Rug_Pad/Cone/Rug_Pad_Cone_HF50Scalar_220920_R3.csv
LABORATORY,FSRI
TEST IDENT,Rug_Pad_HF50_3
OPERATOR,Dow
MATERIAL,Rug Pad
ORIENTATION,Horizontal
HEAT FLUX,50
SURF AREA,0.01
C FACTOR,0.0391624
SPEC HOLDER DIFF,-566
SPECIMEN MASS,7.47
SCAN TIME,0.25
O2 DELAY TIME,11
CO DELAY TIME,11
CO2 DELAY TIME,8
FLOW FACTOR,1
SCAN COUNT,1561
TIME TO IGN,5.75
END OF TEST SCAN,1081
END OF TEST TIME,270.25
TEST STATUS,1
PRE TEST CMT,Dimensions: 102.5 x 104 x 4.8 mm; with frame and grid; with calcium silicate substrate