File: 01_Data/Rug_Pad/Cone/Rug_Pad_Cone_HF25Scan_220920_R2.csv
Names,Time,Stack TC,Smoke TC,Exh Press,Smoke Comp,Smoke Meas,CO Meter,CO2 Meter,O2 Meter,Sample Mass,Ext Coeff,Start Test,Flame Verif
Chan Gain,,500,500,1,1,1,1,1,1,1,1,1.0,1.0
Offset,,0,0,0.143022,0,0,0,0,0,0,0,0.0,0.0
Gain,,1,1,25.011,14.5176,16.5692,1,1,1,1.00088,1.03055,1.0,1.0
Units,sec,C,C,Pa,%,%,%,%,%,g,/m,,
Baseline,,37.4396,38.2411,161.712,110.142,114.04,-0.000973659,0.0435256,20.9544,-447.134,-0.314379,,
10,2.25,35.2854,36.1946,164.44,109.806,113.29,-0.000847465,0.0445032,20.9544,592.182,-0.282385,0.0,0.0
20,4.75,34.9066,36.3648,156.115,109.749,113.807,-0.000851127,0.0444566,20.9557,592.262,-0.328196,0.0,0.0
30,7.25,35.5915,36.4472,163.351,109.653,113.291,-0.000917271,0.0442085,20.9551,592.222,-0.295094,0.0,0.0
40,9.75,35.2425,36.4146,158.979,109.565,112.665,-0.000922299,0.0439231,20.9546,592.212,-0.252199,0.0,0.0
50,12.25,35.1141,36.5492,158.789,109.489,112.293,-0.000817742,0.044044,20.9544,592.192,-0.228659,0.0,0.0
60,14.75,35.34,36.1564,159.848,109.438,112.671,-0.000668278,0.0440183,20.9543,592.172,-0.263188,0.0,0.0
70,17.25,35.6142,36.1782,160.962,109.373,112.087,-0.0005594,0.0439537,20.9543,592.232,-0.221552,0.0,0.0
80,19.75,35.6613,36.245,160.941,109.309,111.849,-0.000432481,0.0438162,20.9537,592.172,-0.207635,0.0,0.0
90,22.25,35.5911,36.7172,163.012,109.25,112.069,-0.000525839,0.0439285,20.9527,592.192,-0.230269,0.0,0.0
100,24.75,35.6413,36.4469,160.532,109.192,110.851,-0.000708884,0.0440827,20.9522,592.152,-0.136314,0.0,0.0
110,27.25,35.3808,36.033,162.801,109.132,111.291,-0.000664733,0.0443921,20.9515,592.172,-0.177035,0.0,0.0
120,29.75,35.5535,36.9456,161.596,109.089,110.261,-0.000647809,0.0444928,20.9512,592.182,-0.0966137,0.0,0.0
130,32.25,35.8328,36.5425,163.361,109.073,110.93,-0.000612033,0.0445947,20.951,592.112,-0.152621,0.0,0.0
140,34.75,36.0872,36.0674,163.285,109.012,111.166,-0.000360652,0.0458061,20.9465,592.132,-0.176835,0.0,1.0
150,37.25,36.1394,36.8961,156.272,108.996,108.654,0.000140583,0.0582478,20.9152,592.092,0.0283492,0.0,1.0
160,39.75,35.3172,35.6043,155.312,108.977,102.745,0.00119454,0.0952712,20.8517,591.942,0.53235,0.0,1.0
170,42.25,36.5491,35.8919,150.79,108.981,97.0349,0.00266932,0.147274,20.7596,591.792,1.04959,0.0,0.0
180,44.75,37.6557,36.7533,146.63,108.995,94.2007,0.00408052,0.191377,20.6937,591.661,1.3187,0.0,0.0
190,47.25,38.8379,38.3426,146.963,109.035,97.9041,0.00516697,0.222665,20.6471,591.571,0.973381,0.0,0.0
200,49.75,40.3274,39.0244,148.733,109.07,94.1947,0.0059051,0.248797,20.6118,591.371,1.32552,0.0,0.0
210,52.25,41.41,40.2021,151.066,109.14,89.1098,0.00660224,0.269048,20.5862,591.251,1.83295,0.0,0.0
220,54.75,42.7804,41.222,145.971,109.198,90.8735,0.00729557,0.287573,20.5588,591.121,1.66061,0.0,0.0
230,57.25,44.4849,43.5776,148.554,109.268,95.1766,0.00787231,0.303096,20.5374,590.891,1.2481,0.0,0.0
240,59.75,45.7014,44.3613,147.144,109.353,92.4663,0.00810251,0.312555,20.5301,590.741,1.51633,0.0,0.0
250,62.25,46.4467,45.7262,148.571,109.408,91.0394,0.00807675,0.313052,20.5384,590.601,1.66142,0.0,0.0
260,64.75,46.9841,46.3391,152.719,109.499,93.5778,0.00783471,0.307695,20.5524,590.46,1.42036,0.0,0.0
270,67.25,47.6564,47.4235,151.373,109.574,97.272,0.00706989,0.297176,20.581,590.3,1.07652,0.0,0.0
280,69.75,48.1741,47.668,150.235,109.659,98.1266,0.00618926,0.28126,20.6119,590.17,1.00447,0.0,0.0
290,72.25,48.053,47.8713,150.906,109.746,99.818,0.00514153,0.262827,20.6416,590.08,0.857132,0.0,0.0
300,74.75,48.0306,48.7316,152.422,109.843,103.108,0.00374661,0.244657,20.6709,589.99,0.571947,0.0,0.0
310,77.25,47.8871,48.3871,154.694,109.922,108.388,0.00244583,0.225324,20.7064,589.95,0.127057,0.0,0.0
320,79.75,48.1805,48.7959,152.836,110.022,111.511,0.00151552,0.206177,20.7384,589.89,-0.121528,0.0,0.0
330,82.25,47.7364,48.0923,155.583,110.089,112.895,0.000994771,0.187809,20.766,589.84,-0.227537,0.0,0.0
340,84.75,47.1701,48.5968,153.501,110.176,114.634,0.000850011,0.17152,20.7948,589.79,-0.358558,0.0,0.0
350,87.25,46.6881,47.9833,157.375,110.271,114.682,0.00102246,0.155526,20.8179,589.71,-0.354606,0.0,0.0
360,89.75,46.2897,47.7386,158.51,110.357,114.539,0.00119693,0.142696,20.8378,589.75,-0.336163,0.0,0.0
370,92.25,46.4708,47.5965,155.044,110.433,114.596,0.00131609,0.130736,20.854,589.66,-0.334508,0.0,0.0
380,94.75,45.8932,47.2931,158.012,110.532,114.286,0.00155761,0.119881,20.8653,589.66,-0.301899,0.0,0.0
390,97.25,45.0174,46.6846,162.806,110.621,114.715,0.00170834,0.11109,20.8765,589.63,-0.328516,0.0,0.0
400,99.75,44.8654,46.8411,158.217,110.685,114.079,0.00163454,0.102759,20.8879,589.59,-0.273074,0.0,0.0
410,102.25,44.3972,46.3437,162.309,110.773,113.502,0.00142065,0.0954719,20.8988,589.57,-0.219965,0.0,0.0
420,104.75,43.7441,45.481,155.119,110.811,113.339,0.0013349,0.0889232,20.906,589.56,-0.203875,0.0,0.0
430,107.25,42.4197,45.8695,159.377,110.872,113.615,0.00119648,0.0829925,20.9129,589.55,-0.220958,0.0,0.0
440,109.75,42.5845,44.8851,158.226,110.889,113.377,0.0010504,0.0790904,20.917,589.51,-0.20058,0.0,0.0
450,112.25,41.6805,43.3999,160.729,110.923,113.306,0.000885414,0.0758844,20.9213,589.48,-0.19219,0.0,0.0
460,114.75,39.8753,42.8868,162.67,110.94,113.975,0.000839063,0.0734986,20.9237,589.5,-0.243921,0.0,0.0
470,117.25,39.8767,42.1511,157.988,110.96,113.599,0.000858375,0.071478,20.926,589.46,-0.212449,0.0,0.0
480,119.75,39.4739,42.0074,160.622,110.966,114.132,0.000802588,0.069521,20.925,589.419,-0.254292,0.0,0.0
490,122.25,39.3748,41.2883,159.931,110.979,113.743,0.000721383,0.0676287,20.9268,589.389,-0.222394,0.0,0.0
500,124.75,38.8401,41.2858,159.629,110.977,113.276,0.00063723,0.0659724,20.928,589.399,-0.185364,0.0,0.0
510,127.25,38.3748,40.8457,163.19,110.977,113.787,0.000442051,0.064519,20.928,589.399,-0.226029,0.0,0.0
520,129.75,38.0951,40.8294,159.516,110.962,113.184,0.000301514,0.0634443,20.9291,589.369,-0.179209,0.0,0.0
530,132.25,38.1295,39.9849,160.887,110.952,114.071,0.000414826,0.0624602,20.9311,589.329,-0.250599,0.0,0.0
540,134.75,37.7977,40.0677,159.342,110.938,114.152,0.000520889,0.06127,20.932,589.329,-0.258168,0.0,0.0
550,137.25,37.1566,39.8948,160.849,110.921,113.852,0.000432387,0.0601671,20.9338,589.329,-0.235723,0.0,0.0
560,139.75,37.3001,39.6875,160.289,110.887,113.679,0.000291466,0.0593117,20.9344,589.339,-0.224799,0.0,0.0
570,142.25,37.1043,39.2079,160.737,110.862,113.664,0.000127663,0.0583162,20.9358,589.329,-0.225615,0.0,0.0
580,144.75,36.7407,39.2578,166.551,110.831,113.918,-8.06905e-05,0.0571753,20.9368,589.299,-0.248346,0.0,0.0
590,147.25,36.31,38.8793,159.351,110.801,113.869,-0.000227288,0.0559696,20.9383,589.279,-0.246878,0.0,0.0
600,149.75,35.8412,38.7868,162.28,110.761,113.452,-0.000239125,0.0546126,20.9392,589.289,-0.216954,0.0,0.0
610,152.25,35.9335,38.8531,157.369,110.703,113.387,-0.0001474,0.0535439,20.9395,589.269,-0.216533,0.0,0.0
620,154.75,36.4117,38.4257,159.194,110.661,113.853,-0.000202507,0.0526252,20.9411,589.269,-0.257023,0.0,0.0
630,157.25,36.2483,38.1416,157.57,110.598,113.513,-0.000247227,0.051697,20.9432,589.259,-0.235176,0.0,0.0
640,159.75,36.089,37.8599,159.114,110.545,113.843,-0.000122077,0.0508479,20.9439,589.229,-0.265783,0.0,0.0
650,162.25,35.8048,38.1528,161.109,110.457,113.181,-7.4769e-05,0.0497058,20.945,589.229,-0.220243,0.0,0.0
660,164.75,35.4186,37.9628,160.917,110.38,113.393,-0.000159237,0.0490547,20.9452,589.239,-0.243461,0.0,0.0
670,167.25,35.659,37.8726,159.183,110.3,113.305,-0.000210171,0.0484526,20.9466,589.219,-0.242978,0.0,0.0
680,169.75,35.5032,37.3659,164.778,110.217,113.657,-0.000267932,0.0477631,20.9476,589.209,-0.277882,0.0,0.0
690,172.25,35.5107,37.4249,161.088,110.12,112.787,-0.000366038,0.047282,20.9479,589.209,-0.216402,0.0,0.0
700,174.75,35.3298,37.4321,159.592,109.993,113.366,-0.000441275,0.0469185,20.949,589.179,-0.273059,0.0,0.0
710,177.25,35.5641,36.9784,163.685,109.898,113.281,-0.000409074,0.0465777,20.9487,589.189,-0.274079,0.0,0.0
720,179.75,35.4742,36.9204,158.059,109.796,112.925,-0.000308328,0.046497,20.9483,589.189,-0.254086,0.0,0.0
730,182.25,35.1237,37.3656,159.503,109.718,113.019,-0.000400211,0.0463118,20.9495,589.179,-0.267953,0.0,0.0
740,184.75,35.2175,37.3775,158.046,109.64,112.84,-0.000567982,0.0461269,20.9501,589.169,-0.260051,0.0,0.0
750,187.25,34.9228,36.797,160.497,109.527,112.594,-0.000748267,0.0457198,20.9503,589.149,-0.249661,0.0,0.0
760,189.75,34.7309,37.0599,159.712,109.446,112.49,-0.000785952,0.0455734,20.9517,589.159,-0.247952,0.0,0.0
770,192.25,35.1172,36.2425,157.363,109.386,112.679,-0.000837816,0.0453934,20.9522,589.159,-0.268079,0.0,0.0
780,194.75,35.0258,36.4604,161.544,109.301,112.747,-0.000805061,0.0454484,20.9523,589.149,-0.280663,0.0,0.0
790,197.25,35.1782,36.2959,162.002,109.253,112.07,-0.000711853,0.0451536,20.9529,589.129,-0.230172,0.0,0.0
800,199.75,34.7844,36.3543,158.699,109.167,112.351,-0.000669873,0.0450071,20.9538,589.139,-0.259818,0.0,0.0
810,202.25,34.6125,36.0795,160.858,109.121,111.584,-0.000788722,0.045121,20.9536,589.139,-0.201784,0.0,0.0
820,204.75,35.0284,36.316,156.736,109.088,111.765,-0.000859036,0.0449136,20.9533,589.119,-0.219109,0.0,0.0
830,207.25,34.8242,36.2621,160.988,109.053,111.81,-0.000916892,0.0450042,20.9544,589.119,-0.225686,0.0,0.0
840,209.75,34.4505,36.2816,161.252,109.044,112.176,-0.00105083,0.0448462,20.9541,589.109,-0.255975,0.0,0.0
850,212.25,34.9407,36.2526,163.833,109.018,112.318,-0.0010527,0.0446401,20.9526,589.109,-0.269622,0.0,0.0
860,214.75,34.6235,36.0084,157.498,109.021,112.323,-0.000893647,0.0446233,20.9521,589.099,-0.269735,0.0,0.0
870,217.25,35.3366,35.9205,161.297,109.028,112.218,-0.000856959,0.0444791,20.9524,589.089,-0.260638,0.0,0.0
880,219.75,34.5153,36.5492,159.624,109.075,112.088,-0.000839718,0.044506,20.9516,589.069,-0.24627,0.0,0.0
890,222.25,34.7857,35.9447,160.206,109.079,112.224,,0.0445194,,589.089,-0.256903,0.0,0.0
900,224.75,35.0746,36.0165,159.425,109.129,112.364,,,,589.059,-0.264031,0.0,0.0
910,227.25,34.5491,35.6158,163.705,109.158,112.535,,,,589.059,-0.275422,0.0,0.0
920,229.75,34.7743,36.0879,157.551,109.228,112.603,,,,589.059,-0.275072,0.0,0.0
929,232,34.562,35.6954,160.282,109.271,113.112,,,,589.049,-0.312303,0.0,0.0