File: 01_Data/PMMA_R03/MCC/PMMA_R03_MCC_30K_min_211015_R1.txt
Sample ID:	C:\MCC\MCC Cal\Test\PMMA_R03_MCC_30K_min_211015_R1.txt
Sample Weight (mg):	4.61
Heating Rate (C/s):	0.5
Combustor Temp (C):	900
N2 Flow Rate (cc/min):	80
O2 Flow Rate (cc/min):	20
Calibration File:	C:\MCC\MCC Cal\Coeff1 JN10440_30_210304.txt.txt
T Correction Coefficients:	0	1.024463	0
Time Shift (s):	14
*
Time (s)	Temperature (C)	N2 flow rate (cc/min)	O2 flow rate (cc/min)	Flow Rate (cc/min)	Oxygen (%)	HRR (W/g)	Heating rate (C/s)
0.000	109.718	79.993	19.997	102.702	20.036	0.140	0.008
8.000	109.721	79.993	19.996	102.704	20.036	0.159	-0.001
16.000	109.725	79.993	19.996	102.747	20.027	0.718	-0.009
24.000	109.918	79.996	19.995	102.870	20.011	1.891	0.044
32.000	110.655	79.995	19.995	102.884	20.004	2.344	0.149
40.000	111.808	79.995	19.995	102.902	19.999	2.733	0.137
48.000	113.319	79.995	19.995	102.925	19.998	2.791	0.192
56.000	115.226	79.993	19.996	102.944	19.993	3.107	0.272
64.000	117.424	79.992	19.996	102.962	19.987	3.573	0.296
72.000	119.976	79.994	19.996	102.981	19.983	3.832	0.348
80.000	122.878	79.994	19.996	102.975	19.976	4.330	0.362
88.000	126.021	79.991	19.997	102.979	19.978	4.144	0.384
96.000	129.396	79.996	19.995	102.984	19.972	4.603	0.431
104.000	132.943	79.994	19.996	102.987	19.973	4.534	0.421
112.000	136.726	79.993	19.995	103.001	19.971	4.657	0.492
120.000	140.675	79.995	19.995	102.981	19.966	5.014	0.499
128.000	144.701	79.996	19.996	102.979	19.966	5.018	0.499
136.000	148.756	79.994	19.996	102.976	19.965	5.090	0.511
144.000	152.843	79.994	19.996	102.973	19.957	5.652	0.502
152.000	156.908	79.995	19.996	102.951	19.952	5.951	0.476
160.000	160.900	79.995	19.996	102.955	19.943	6.597	0.484
168.000	164.908	79.994	19.995	102.955	19.941	6.726	0.470
176.000	168.915	79.993	19.996	102.941	19.935	7.177	0.486
184.000	172.909	79.994	19.996	102.938	19.937	7.039	0.485
192.000	176.881	79.993	19.995	102.938	19.938	6.976	0.497
200.000	180.830	79.997	19.995	102.936	19.937	7.048	0.504
208.000	184.785	79.997	19.995	102.933	19.935	7.128	0.523
216.000	188.786	79.994	19.994	102.938	19.939	6.898	0.494
224.000	192.748	79.994	19.995	102.940	19.942	6.668	0.505
232.000	196.761	79.995	19.995	102.940	19.943	6.624	0.512
240.000	200.722	79.993	19.996	102.913	19.946	6.404	0.500
248.000	204.661	79.993	19.996	102.920	19.949	6.172	0.504
256.000	208.696	79.996	19.995	102.931	19.950	6.084	0.497
264.000	212.678	79.995	19.996	102.922	19.951	6.056	0.503
272.000	216.664	79.994	19.996	102.911	19.956	5.708	0.513
280.000	220.610	79.996	19.995	102.909	19.960	5.421	0.469
288.000	224.642	79.994	19.995	102.904	19.964	5.174	0.505
296.000	228.590	79.993	19.995	102.902	19.966	4.992	0.509
304.000	232.663	79.996	19.995	102.902	19.958	5.556	0.502
312.000	236.593	79.993	19.995	102.901	19.956	5.668	0.490
320.000	240.557	79.995	19.996	102.899	19.954	5.869	0.511
328.000	244.528	79.995	19.996	102.897	19.942	6.645	0.482
336.000	248.486	79.995	19.995	102.897	19.921	8.144	0.474
344.000	252.540	79.994	19.996	102.908	19.899	9.636	0.461
352.000	256.496	79.995	19.997	102.912	19.860	12.356	0.509
360.000	260.512	79.995	19.995	102.906	19.823	14.984	0.511
368.000	264.484	79.992	19.994	102.923	19.772	18.506	0.501
376.000	268.475	79.994	19.995	102.936	19.712	22.696	0.530
384.000	272.558	79.994	19.995	102.933	19.647	27.222	0.489
392.000	276.576	79.994	19.995	102.936	19.579	31.951	0.479
400.000	280.527	79.995	19.994	102.939	19.505	37.132	0.499
408.000	284.567	79.994	19.996	102.948	19.441	41.573	0.517
416.000	288.559	79.995	19.995	102.942	19.387	45.334	0.498
424.000	292.637	79.994	19.996	102.940	19.351	47.866	0.493
432.000	296.711	79.994	19.995	102.942	19.347	48.147	0.495
440.000	300.749	79.996	19.996	102.932	19.374	46.204	0.512
448.000	304.773	79.995	19.997	102.917	19.432	42.178	0.492
456.000	308.812	79.994	19.996	102.899	19.515	36.418	0.489
464.000	312.918	79.995	19.995	102.900	19.590	31.189	0.488
472.000	316.927	79.992	19.995	102.902	19.632	28.274	0.478
480.000	320.995	79.992	19.996	102.904	19.622	28.990	0.505
488.000	324.854	79.994	19.995	102.904	19.585	31.558	0.482
496.000	328.849	79.995	19.994	102.940	19.511	36.682	0.473
504.000	332.784	79.995	19.996	102.985	19.397	44.669	0.476
512.000	336.760	79.996	19.995	102.962	19.277	53.008	0.487
520.000	340.626	79.997	19.994	102.946	19.123	63.732	0.474
528.000	344.537	79.994	19.995	103.007	18.900	79.382	0.505
536.000	348.443	79.993	19.996	103.059	18.633	97.971	0.461
544.000	352.423	79.994	19.997	103.012	18.378	115.894	0.522
552.000	356.362	79.992	19.994	103.031	18.196	128.421	0.477
560.000	360.366	79.993	19.996	102.984	18.067	137.350	0.488
568.000	364.407	79.995	19.995	103.161	17.931	147.066	0.508
576.000	368.410	79.996	19.994	103.120	17.847	152.843	0.508
584.000	372.413	79.996	19.995	103.066	17.767	158.437	0.509
592.000	376.414	79.995	19.996	103.094	17.699	163.160	0.501
600.000	380.495	79.995	19.995	103.094	17.670	165.154	0.539
608.000	384.663	79.995	19.996	103.079	17.701	163.000	0.522
616.000	388.950	79.992	19.996	103.057	17.814	155.060	0.533
624.000	393.206	79.994	19.998	103.018	18.018	140.730	0.512
632.000	397.490	79.994	19.996	102.981	18.286	122.010	0.517
640.000	401.756	79.994	19.996	102.941	18.598	100.292	0.532
648.000	405.965	79.995	19.997	102.908	18.911	78.462	0.538
656.000	410.142	79.997	19.995	102.895	19.195	58.640	0.490
664.000	414.325	79.995	19.995	102.862	19.435	41.937	0.519
672.000	418.428	79.996	19.993	102.862	19.623	28.851	0.503
680.000	422.485	79.995	19.996	102.856	19.762	19.216	0.476
688.000	426.586	79.994	19.996	102.840	19.859	12.469	0.495
696.000	430.621	79.994	19.996	102.848	19.919	8.292	0.499
704.000	434.631	79.995	19.996	102.853	19.957	5.631	0.523
712.000	438.596	79.993	19.996	102.837	19.977	4.207	0.489
720.000	442.559	79.994	19.996	102.844	19.989	3.379	0.499
728.000	446.501	79.996	19.995	102.843	19.992	3.221	0.516
736.000	450.459	79.996	19.995	102.857	19.998	2.788	0.462
744.000	454.094	79.995	19.995	102.853	20.000	2.638	-0.078
752.000	458.406	79.997	19.995	102.848	19.998	2.765	0.498
760.000	462.306	79.999	19.994	102.835	19.998	2.756	0.488
768.000	466.123	79.995	19.996	102.857	19.995	3.014	0.464
776.000	470.037	79.995	19.996	102.845	19.997	2.845	0.471
784.000	473.987	79.993	19.996	102.847	19.994	3.018	0.496
792.000	477.941	79.993	19.996	102.856	19.999	2.735	0.513
800.000	481.895	79.993	19.995	102.842	19.996	2.891	0.484
808.000	485.900	79.995	19.995	102.847	19.997	2.868	0.483
816.000	489.907	79.995	19.995	102.843	19.997	2.839	0.524
824.000	494.025	79.996	19.994	102.847	20.001	2.551	0.532
832.000	498.190	79.997	19.997	102.853	20.001	2.581	0.526
840.000	502.489	79.996	19.995	102.852	19.998	2.775	0.516
848.000	506.835	79.994	19.995	102.856	19.994	3.054	0.565
856.000	511.179	79.995	19.995	102.860	19.998	2.761	0.557
864.000	515.554	79.994	19.995	102.850	19.996	2.921	0.546
872.000	519.880	79.993	19.995	102.860	19.998	2.792	0.544
880.000	524.177	79.994	19.995	102.859	19.998	2.750	0.516
888.000	528.513	79.996	19.995	102.857	19.997	2.843	0.555
896.000	532.806	79.996	19.997	102.850	19.996	2.927	0.543
904.000	537.095	79.996	19.995	102.853	19.995	2.952	0.518
912.000	541.316	79.997	19.996	102.853	19.995	3.001	0.514
920.000	545.506	79.995	19.996	102.856	19.991	3.236	0.516
928.000	549.662	79.994	19.994	102.860	19.990	3.295	0.531
936.000	553.875	79.995	19.995	102.856	19.990	3.316	0.549
944.000	558.056	79.996	19.994	102.852	19.992	3.189	0.524
952.000	562.248	79.993	19.995	102.843	19.988	3.456	0.539
960.000	566.295	79.993	19.996	102.844	19.994	3.018	0.522
968.000	570.388	79.996	19.996	102.842	19.988	3.462	0.506
976.000	574.480	79.995	19.996	102.851	19.989	3.422	0.530
984.000	578.473	79.996	19.996	102.845	19.993	3.092	0.456
992.000	582.501	79.996	19.994	102.842	19.986	3.618	0.521
1000.000	586.459	79.996	19.995	102.850	19.989	3.383	0.502
1008.000	590.431	79.993	19.995	102.847	19.984	3.737	0.519
1016.000	594.464	79.994	19.996	102.850	19.989	3.396	0.506
1024.000	598.410	79.997	19.994	102.839	19.990	3.359	0.499
1032.000	602.342	79.995	19.995	102.851	19.987	3.569	0.508
1040.000	606.245	79.995	19.996	102.843	19.984	3.779	0.509
1048.000	610.210	79.997	19.996	102.855	19.987	3.550	0.517
1056.000	614.221	79.994	19.995	102.859	19.988	3.483	0.526
1064.000	618.295	79.994	19.995	102.861	19.984	3.768	0.485
1072.001	622.388	79.997	19.996	102.847	19.986	3.601	0.527
1080.000	626.400	79.995	19.994	102.845	19.986	3.616	0.509
1088.000	630.522	79.995	19.995	102.856	19.985	3.692	0.516
1096.000	634.645	79.995	19.994	102.842	19.985	3.708	0.532
1104.000	638.774	79.993	19.994	102.856	19.985	3.654	0.503
1112.000	642.895	79.995	19.995	102.849	19.982	3.855	0.511
1120.000	646.961	79.992	19.996	102.856	19.987	3.567	0.530
1128.000	651.049	79.997	19.996	102.858	19.985	3.673	0.535
1136.000	655.050	79.995	19.995	102.849	19.981	3.979	0.486
1144.000	658.993	79.995	19.995	102.847	19.979	4.072	0.495
1152.001	662.968	79.997	19.994	102.823	19.978	4.150	0.510
1160.000	666.921	79.996	19.996	102.844	19.977	4.206	0.503
1168.000	670.958	79.993	19.997	102.846	19.978	4.148	0.501
1176.000	675.030	79.994	19.994	102.855	19.976	4.277	0.545
1184.000	679.066	79.994	19.995	102.851	19.970	4.687	0.485
1192.000	683.126	79.993	19.996	102.847	19.977	4.267	0.563
1200.000	687.276	79.995	19.994	102.849	19.971	4.674	0.511
1208.001	691.355	79.997	19.996	102.857	19.973	4.486	0.537
1216.000	695.504	79.994	19.999	102.841	19.973	4.507	0.535
1224.000	699.525	79.993	19.997	102.839	19.971	4.645	0.521
1232.001	703.636	79.996	19.994	102.847	19.968	4.854	0.515
1240.000	707.621	79.995	19.994	102.856	19.968	4.871	0.497
1248.000	711.652	79.985	20.001	102.857	19.965	5.058	0.505
1256.000	715.743	79.994	19.993	102.855	19.969	4.760	0.489
1264.000	719.731	79.996	19.991	102.851	19.968	4.860	0.508
1272.000	723.690	79.997	19.994	102.852	19.967	4.951	0.489
1280.000	727.584	79.991	19.996	102.840	19.963	5.232	0.465
1288.000	731.505	80.002	19.991	102.841	19.967	4.956	0.495
1296.000	735.371	79.992	19.991	102.844	19.961	5.356	0.488
1304.000	739.223	79.997	19.993	102.853	19.963	5.221	0.494
1312.000	743.194	79.996	19.993	102.849	19.964	5.124	0.476
1313.000	743.648	79.995	19.999	102.860	19.966	4.979	0.473