File: 01_Data/Vinyl_Tile/STA/N2/10K_min/Vinyl_Tile_STA_N2_10KData_22055_R1.csv
##Temp./Â°C,Time/min,Mass loss(subtr.2)/mg,DSC(subtr.2)/(mW/mg),Sensit./(uV/mW)
49.881,10.01,-0.00066,-0.0007212318,1.06048
52.881,11.28867,-0.000821535,0.07462261,1.05986
55.881,11.72092,0.000313175,0.10638,1.05922
58.881,12.08704,0.00157579,0.12475,1.05856
61.881,12.43033,0.0005497545,0.13128,1.05789
64.881,12.76074,0.000404563,0.13827,1.05719
67.881,13.0855,-0.00222887,0.14301,1.05649
70.881,13.4078,0.0004463118,0.14635,1.05576
73.881,13.7252,-0.002298578,0.15137,1.05502
76.881,14.03904,-0.002053571,0.15048,1.05427
79.881,14.3505,-0.00266968,0.15295,1.05349
82.881,14.6592,-0.0009894927,0.15749,1.0527
85.881,14.96473,-0.0009797745,0.16031,1.0519
88.881,15.2672,-0.00098619,0.16201,1.05108
91.881,15.5674,-0.002387535,0.16433,1.05024
94.881,15.86559,-0.0009858085,0.16953,1.04938
97.881,16.16185,-0.001273155,0.1697,1.04851
100.881,16.45705,-0.002298949,0.17493,1.04763
103.881,16.75127,-0.0009881668,0.17582,1.04673
106.881,17.0444,-0.0009799685,0.17857,1.04581
109.881,17.338,-0.0009899712,0.18032,1.04488
112.881,17.63109,-0.0009900687,0.18004,1.04393
115.881,17.92463,-0.002310238,0.18257,1.04296
118.881,18.2163,-0.0008789898,0.18056,1.04198
121.881,18.5081,-0.00197132,0.1843,1.04099
124.881,18.79982,-0.003289722,0.18402,1.03998
127.881,19.09176,-0.00296327,0.18448,1.03895
130.881,19.3843,-0.005562384,0.1882,1.03791
133.881,19.67429,-0.003062891,0.18785,1.03686
136.881,19.964,-0.00329,0.19066,1.03579
139.881,20.25337,-0.0046,0.19083,1.0347
142.881,20.54277,-0.00461,0.19387,1.0336
145.881,20.8323,-0.005603466,0.19515,1.03248
148.881,21.12061,-0.004276209,0.19447,1.03135
151.881,21.4091,-0.00625,0.19786,1.03021
154.881,21.69727,-0.005931058,0.20087,1.02905
157.881,21.98551,-0.00592974,0.20137,1.02787
160.881,22.27338,-0.006246808,0.20296,1.02668
163.881,22.56127,-0.00625044,0.20465,1.02548
166.881,22.84907,-0.00757,0.20992,1.02426
169.881,23.13661,-0.008880013,0.2085,1.02303
172.881,23.4242,-0.00856,0.2101,1.02179
175.881,23.71116,-0.009539302,0.21132,1.02053
178.881,23.99833,-0.009559758,0.21432,1.01925
181.881,24.28477,-0.01217028,0.21709,1.01796
184.881,24.57121,-0.01184022,0.21577,1.01666
187.881,24.85753,-0.01383297,0.21987,1.01535
190.881,25.14391,-0.01374478,0.22123,1.01402
193.881,25.4303,-0.01645119,0.22373,1.01267
196.881,25.71569,-0.0177701,0.22602,1.01132
199.881,26.00225,-0.01908045,0.22766,1.00995
202.881,26.2877,-0.02073,0.22976,1.00856
205.881,26.5736,-0.02471772,0.22956,1.00717
208.881,26.85956,-0.02467998,0.22962,1.00576
211.881,27.1455,-0.02860772,0.23569,1.00434
214.881,27.4306,-0.03258,0.23802,1.0029
217.881,27.7162,-0.03425242,0.23925,1.00145
220.881,28.0022,-0.03894852,0.24274,0.99999
223.881,28.28825,-0.04345289,0.24653,0.99851
226.881,28.574,-0.0500082,0.25155,0.99703
229.881,28.85987,-0.05559948,0.25779,0.99552
232.881,29.14555,-0.06282379,0.2589,0.99401
235.881,29.43145,-0.07028874,0.26324,0.99249
238.881,29.7174,-0.0796747,0.26493,0.99095
241.881,30.0031,-0.09055784,0.26959,0.9894
244.881,30.28872,-0.10092,0.27837,0.98784
247.881,30.57435,-0.11195,0.28556,0.98626
250.881,30.8601,-0.12713,0.28798,0.98467
253.881,31.147,-0.14083,0.29081,0.98308
256.881,31.433,-0.15733,0.29248,0.98146
259.881,31.71782,-0.17525,0.29034,0.97984
262.881,32.00555,-0.19465,0.29389,0.97821
265.881,32.29197,-0.21456,0.29142,0.97656
268.881,32.57865,-0.23597,0.29135,0.9749
271.881,32.86502,-0.2625,0.28865,0.97323
274.881,33.15195,-0.28775,0.28997,0.97155
277.881,33.43902,-0.31964,0.29906,0.96986
280.881,33.72551,-0.35309,0.32258,0.96816
283.881,34.0122,-0.38867,0.35263,0.96644
286.881,34.2996,-0.42827,0.38015,0.96472
289.881,34.5869,-0.46376,0.40059,0.96298
292.881,34.87443,-0.49859,0.40152,0.96123
295.881,35.16172,-0.52792,0.3863,0.95947
298.881,35.4486,-0.55293,0.36266,0.9577
301.881,35.73601,-0.57367,0.33456,0.95592
304.881,36.0243,-0.59333,0.3067,0.95413
307.881,36.3114,-0.60577,0.28435,0.95233
310.881,36.5985,-0.61921,0.26883,0.95052
313.881,36.88603,-0.63084,0.25366,0.94869
316.881,37.17323,-0.64013,0.24105,0.94686
319.881,37.46165,-0.64865,0.22637,0.94502
322.881,37.7504,-0.65636,0.21808,0.94316
325.881,38.03909,-0.66305,0.20793,0.9413
328.881,38.327,-0.67,0.20275,0.93943
331.881,38.6154,-0.67426,0.19623,0.93754
334.881,38.9043,-0.67885,0.19054,0.93565
337.881,39.19301,-0.68259,0.18266,0.93375
340.881,39.4803,-0.68685,0.17575,0.93183
343.881,39.77091,-0.68952,0.17026,0.92991
346.881,40.06075,-0.69343,0.16365,0.92798
349.881,40.35052,-0.69673,0.16348,0.92604
352.881,40.63968,-0.69936,0.16031,0.92409
355.881,40.92994,-0.70002,0.16173,0.92213
358.881,41.22096,-0.70133,0.16303,0.92016
361.881,41.5116,-0.70298,0.16282,0.91818
364.881,41.80231,-0.7066,0.16064,0.91619
367.881,42.09366,-0.70792,0.15852,0.9142
370.881,42.38493,-0.70784,0.15766,0.91219
373.881,42.6757,-0.7112,0.15663,0.91018
376.881,42.9664,-0.71219,0.15603,0.90815
379.881,43.25792,-0.71351,0.15682,0.90612
382.881,43.54978,-0.71482,0.15654,0.90408
385.881,43.84132,-0.71427,0.15424,0.90203
388.881,44.13317,-0.71954,0.15292,0.89998
391.881,44.42498,-0.72075,0.15231,0.89791
394.881,44.71667,-0.72246,0.15348,0.89584
397.881,45.00897,-0.72436,0.15169,0.89376
400.881,45.3011,-0.72742,0.14737,0.89167
403.881,45.59346,-0.73029,0.14571,0.88957
406.881,45.88674,-0.73194,0.1422,0.88746
409.881,46.17951,-0.73589,0.14316,0.88535
412.881,46.47309,-0.7391,0.13781,0.88323
415.881,46.7665,-0.74439,0.13797,0.8811
418.881,47.0597,-0.74815,0.13725,0.87897
421.881,47.3529,-0.7518,0.137,0.87682
424.881,47.64654,-0.75574,0.13922,0.87467
427.881,47.93987,-0.76232,0.13765,0.87251
430.881,48.23423,-0.76783,0.14147,0.87035
433.881,48.52864,-0.77602,0.14289,0.86817
436.881,48.8221,-0.78398,0.14879,0.86599
439.881,49.11587,-0.79212,0.15406,0.86381
442.881,49.41044,-0.80224,0.1593,0.86161
445.881,49.70425,-0.81089,0.16881,0.85941
448.881,49.99883,-0.82387,0.17788,0.8572
451.881,50.29351,-0.8345,0.18977,0.85499
454.881,50.589,-0.847,0.19819,0.85277
457.881,50.88423,-0.85929,0.21217,0.85054
460.881,51.18,-0.872,0.22021,0.84831
463.881,51.47555,-0.88533,0.22961,0.84607
466.881,51.77124,-0.8957,0.23569,0.84382
469.881,52.06694,-0.90675,0.23803,0.84157
472.881,52.36253,-0.91806,0.24451,0.83931
475.881,52.6578,-0.92557,0.24991,0.83704
478.881,52.95244,-0.93466,0.25472,0.83477
481.881,53.24794,-0.94276,0.25621,0.83249
484.881,53.54394,-0.94946,0.26208,0.83021
487.881,53.8398,-0.95471,0.26532,0.82792
490.881,54.1373,-0.96128,0.26636,0.82562
493.881,54.43345,-0.9652,0.26581,0.82332
496.881,54.72976,-0.96786,0.26686,0.82102
499.881,55.02609,-0.97245,0.2639,0.81871
502.881,55.3226,-0.97577,0.26774,0.81639
505.881,55.61971,-0.97839,0.27203,0.81407
508.881,55.9172,-0.98185,0.27407,0.81174
511.881,56.2148,-0.98531,0.27835,0.80941
514.881,56.5128,-0.9888,0.28412,0.80707
517.881,56.8103,-0.99222,0.2956,0.80473
520.881,57.10852,-0.99485,0.3033,0.80238
523.881,57.4065,-0.9988,0.32756,0.80002
526.881,57.7042,-1.00238,0.34799,0.79767
529.881,58.0007,-1.00769,0.38839,0.7953
532.881,58.29982,-1.01328,0.40826,0.79294
535.881,58.598,-1.01719,0.41265,0.79057
538.881,58.8971,-1.02127,0.41193,0.78819
541.881,59.19554,-1.02664,0.41267,0.78581
544.881,59.49449,-1.02989,0.40738,0.78342
547.881,59.79365,-1.03575,0.41083,0.78104
550.881,60.0926,-1.04161,0.41564,0.77864
553.881,60.3915,-1.04718,0.43012,0.77624
556.881,60.6902,-1.05329,0.43932,0.77384
559.881,60.98967,-1.05662,0.45034,0.77144
562.881,61.28937,-1.06388,0.46946,0.76903
565.881,61.589,-1.0699,0.48265,0.76661
568.881,61.88907,-1.07525,0.50243,0.7642
571.881,62.18939,-1.08316,0.52539,0.76178
574.881,62.4899,-1.09016,0.56553,0.75935
577.881,62.7902,-1.10114,0.60835,0.75692
580.881,63.091,-1.10979,0.63779,0.75449
583.881,63.3921,-1.12048,0.62105,0.75206
586.881,63.69205,-1.13251,0.46476,0.74962
589.881,63.99058,-1.13486,0.35758,0.74718
592.881,64.29025,-1.13645,0.32115,0.74473
595.881,64.59178,-1.13909,0.31265,0.74228
598.881,64.89232,-1.14041,0.31193,0.73983
601.881,65.19289,-1.1427,0.33901,0.73738
604.881,65.4943,-1.14304,0.36997,0.73492
607.881,65.79483,-1.14808,0.40122,0.73246
610.881,66.09584,-1.15016,0.4353,0.73
613.881,66.39665,-1.15469,0.46167,0.72754
616.881,66.69764,-1.15806,0.49031,0.72507
619.881,66.99915,-1.16483,0.52098,0.7226
622.881,67.30057,-1.17046,0.55515,0.72012
625.881,67.60155,-1.1775,0.58836,0.71765
628.881,67.9028,-1.18363,0.62841,0.71517
631.881,68.20519,-1.19132,0.66752,0.71269
634.881,68.50653,-1.20129,0.71159,0.71021
637.881,68.80885,-1.21174,0.76491,0.70772
640.881,69.11036,-1.2238,0.81239,0.70524
643.881,69.41206,-1.23556,0.87169,0.70275
646.881,69.7135,-1.24685,0.92911,0.70026
649.881,70.0157,-1.26124,0.98917,0.69777
652.881,70.31734,-1.2765,1.04462,0.69527
655.881,70.6188,-1.29157,1.09742,0.69278
658.881,70.9218,-1.30594,1.14878,0.69028
661.881,71.22404,-1.32224,1.20653,0.68778
664.881,71.52668,-1.34055,1.27542,0.68528
667.881,71.82967,-1.3593,1.37246,0.68278
670.881,72.13202,-1.37807,1.50272,0.68027
673.881,72.43566,-1.40041,1.66372,0.67777
676.881,72.73826,-1.42773,1.8462,0.67526
679.881,73.04177,-1.45481,2.0593,0.67276
682.881,73.346,-1.48705,2.33498,0.67025
685.881,73.65044,-1.52436,2.68098,0.66774
688.881,73.95452,-1.56523,2.83623,0.66523
691.881,74.25752,-1.60934,2.86141,0.66272
694.881,74.5613,-1.65865,2.96713,0.6602
697.881,74.86492,-1.70841,3.09314,0.65769
700.881,75.16872,-1.7627,3.22611,0.65518
703.881,75.47225,-1.81826,3.34165,0.65266
706.881,75.77626,-1.87477,3.39986,0.65015
709.881,76.07956,-1.93217,3.33319,0.64763
712.881,76.38235,-1.98446,2.93167,0.64512
715.881,76.6828,-2.0267,1.5029,0.6426
718.881,76.98183,-2.043,0.37286,0.64008
721.881,77.28271,-2.04411,0.28761,0.63757
724.881,77.58623,-2.04411,0.27544,0.63505
727.881,77.88979,-2.04444,0.26727,0.63253
730.881,78.194,-2.04576,0.25853,0.63002
733.881,78.49886,-2.04576,0.248,0.6275
736.881,78.80346,-2.04641,0.23514,0.62498
739.881,79.1082,-2.04707,0.22819,0.62246
742.881,79.41195,-2.04813,0.22185,0.61995
745.881,79.71511,-2.04939,0.20783,0.61743
748.681,79.99851,-2.04941,0.20262,0.61508