File: 01_Data/Vinyl_Tile/STA/N2/10K_min/Vinyl_Tile_STA_N2_10KData_22055_R2.csv
##Temp./Â°C,Time/min,Mass loss(subtr.2)/mg,DSC(subtr.2)/(mW/mg),Sensit./(uV/mW)
49.843,10.01,-0.01777,0.00446293,1.06049
52.843,11.2881,-0.02112409,0.09079634,1.05987
55.843,11.71992,-0.02139591,0.12922,1.05922
58.843,12.08636,-0.02137194,0.15249,1.05857
61.843,12.42863,-0.02239855,0.16468,1.05789
64.843,12.759,-0.02117186,0.17242,1.0572
67.843,13.08381,-0.02258629,0.17563,1.0565
70.843,13.4055,-0.0225423,0.17955,1.05577
73.843,13.72281,-0.02244038,0.1852,1.05503
76.843,14.03646,-0.02381019,0.18748,1.05428
79.843,14.3474,-0.02380999,0.1933,1.0535
82.843,14.6551,-0.02510534,0.19886,1.05271
85.843,14.9598,-0.02512001,0.20079,1.05191
88.843,15.26285,-0.02645131,0.20523,1.05109
91.843,15.56294,-0.02775474,0.20746,1.05025
94.843,15.8626,-0.02708691,0.21188,1.0494
97.843,16.15931,-0.02709001,0.21291,1.04853
100.843,16.45589,-0.02681689,0.21792,1.04764
103.843,16.75124,-0.02902385,0.21815,1.04674
106.843,17.0456,-0.02811039,0.22369,1.04582
109.843,17.33932,-0.02940257,0.22663,1.04489
112.843,17.63257,-0.03032223,0.22971,1.04394
115.843,17.92592,-0.02873982,0.23126,1.04298
118.843,18.21864,-0.03039055,0.2365,1.042
121.843,18.51144,-0.03039703,0.2346,1.041
124.843,18.8037,-0.03039,0.23713,1.03999
127.843,19.0947,-0.03037938,0.23734,1.03897
130.843,19.3862,-0.0323476,0.23899,1.03793
133.843,19.67654,-0.03050712,0.24042,1.03687
136.843,19.96655,-0.03170004,0.24061,1.0358
139.843,20.2566,-0.03404529,0.24258,1.03471
142.843,20.54642,-0.03302019,0.2471,1.03361
145.843,20.83509,-0.03361715,0.24819,1.0325
148.843,21.12306,-0.03271467,0.25013,1.03137
151.843,21.41208,-0.0353202,0.24944,1.03022
154.843,21.6999,-0.03499172,0.25296,1.02906
157.843,21.9885,-0.03499,0.25266,1.02789
160.843,22.27616,-0.03530015,0.25575,1.0267
163.843,22.56387,-0.03664027,0.25826,1.0255
166.843,22.85191,-0.03795022,0.25846,1.02428
169.843,23.13909,-0.03763,0.26193,1.02305
172.843,23.42628,-0.03796189,0.26214,1.0218
175.843,23.71302,-0.03861018,0.26615,1.02054
178.843,24.0003,-0.03993125,0.2667,1.01927
181.843,24.28646,-0.03862925,0.26776,1.01798
184.843,24.57261,-0.04125002,0.26812,1.01668
187.843,24.85901,-0.04255979,0.26883,1.01536
190.843,25.14534,-0.04388,0.2714,1.01403
193.843,25.43153,-0.04388,0.27345,1.01269
196.843,25.7171,-0.04651244,0.27459,1.01134
199.843,26.00305,-0.04749983,0.27503,1.00997
202.843,26.2888,-0.04880059,0.27747,1.00858
205.843,26.57467,-0.05078983,0.28022,1.00719
208.843,26.86018,-0.05276026,0.28123,1.00578
211.843,27.14586,-0.05666528,0.2858,1.00435
214.843,27.43192,-0.05919365,0.28413,1.00292
217.843,27.71785,-0.06329022,0.28708,1.00147
220.843,28.00357,-0.06733613,0.29093,1.00001
223.843,28.2891,-0.07119119,0.2935,0.99853
226.843,28.5753,-0.07595754,0.29819,0.99704
229.843,28.8613,-0.0823939,0.30234,0.99554
232.843,29.1466,-0.08841978,0.30455,0.99403
235.843,29.4317,-0.09619532,0.3045,0.99251
238.843,29.71827,-0.10369,0.30917,0.99097
241.843,30.0045,-0.1119,0.31206,0.98942
244.843,30.29128,-0.12363,0.31791,0.98786
247.843,30.5777,-0.13503,0.32354,0.98628
250.843,30.86375,-0.14698,0.32716,0.98469
253.843,31.14957,-0.16059,0.32967,0.9831
256.843,31.43566,-0.17477,0.33299,0.98148
259.843,31.7214,-0.19083,0.33555,0.97986
262.843,32.00788,-0.2108,0.33389,0.97823
265.843,32.29425,-0.23035,0.33379,0.97658
268.843,32.58067,-0.25301,0.33281,0.97492
271.843,32.86727,-0.28001,0.33078,0.97325
274.843,33.15439,-0.30965,0.33504,0.97157
277.843,33.4412,-0.34351,0.34609,0.96988
280.843,33.72848,-0.3821,0.37335,0.96818
283.843,34.016,-0.42044,0.40551,0.96646
286.843,34.3033,-0.46344,0.43551,0.96474
289.843,34.59081,-0.50389,0.45542,0.963
292.843,34.87836,-0.53884,0.45743,0.96125
295.843,35.1657,-0.57349,0.43988,0.95949
298.843,35.45339,-0.60096,0.41392,0.95772
301.843,35.74091,-0.62221,0.38307,0.95594
304.843,36.02803,-0.64117,0.35511,0.95415
307.843,36.3149,-0.65732,0.33412,0.95235
310.843,36.60228,-0.67023,0.31152,0.95054
313.843,36.88977,-0.68215,0.30074,0.94872
316.843,37.1774,-0.69512,0.28448,0.94688
319.843,37.46545,-0.70197,0.27278,0.94504
322.843,37.75392,-0.71002,0.26044,0.94319
325.843,38.04205,-0.71819,0.25263,0.94132
328.843,38.33057,-0.72483,0.24448,0.93945
331.843,38.61913,-0.73133,0.23784,0.93757
334.843,38.9078,-0.73581,0.23006,0.93567
337.843,39.19704,-0.7406,0.2248,0.93377
340.843,39.48577,-0.74486,0.21892,0.93186
343.843,39.77512,-0.74685,0.21515,0.92993
346.843,40.0644,-0.74948,0.21398,0.928
349.843,40.35453,-0.75409,0.21164,0.92606
352.843,40.64451,-0.75541,0.21209,0.92411
355.843,40.93508,-0.75809,0.21243,0.92215
358.843,41.2256,-0.75936,0.20668,0.92018
361.843,41.5163,-0.76199,0.20576,0.9182
364.843,41.80683,-0.76331,0.20437,0.91622
367.843,42.0974,-0.76429,0.2035,0.91422
370.843,42.38834,-0.76809,0.20568,0.91222
373.843,42.67972,-0.76857,0.2051,0.9102
376.843,42.97118,-0.76989,0.20443,0.90818
379.843,43.26142,-0.7712,0.20559,0.90615
382.843,43.5527,-0.77383,0.20774,0.90411
385.843,43.84292,-0.77515,0.20983,0.90206
388.843,44.13458,-0.77878,0.20842,0.9
391.843,44.42561,-0.77944,0.20763,0.89794
394.843,44.71783,-0.78246,0.20675,0.89586
397.843,45.0097,-0.78371,0.20972,0.89378
400.843,45.30202,-0.78635,0.20392,0.89169
403.843,45.59476,-0.78929,0.20136,0.8896
406.843,45.88769,-0.79259,0.19995,0.88749
409.843,46.181,-0.79522,0.19923,0.88538
412.843,46.47463,-0.79851,0.19727,0.88326
415.843,46.7682,-0.80248,0.19424,0.88113
418.843,47.0617,-0.80638,0.19522,0.87899
421.843,47.35519,-0.81168,0.19361,0.87685
424.843,47.64867,-0.81649,0.19528,0.8747
427.843,47.94223,-0.82275,0.19347,0.87254
430.843,48.2359,-0.82879,0.19792,0.87037
433.843,48.52959,-0.83549,0.20263,0.8682
436.843,48.82286,-0.84208,0.20642,0.86602
439.843,49.11655,-0.85239,0.20944,0.86383
442.843,49.4108,-0.86374,0.21713,0.86164
445.843,49.70454,-0.87346,0.22222,0.85944
448.843,49.9989,-0.88541,0.23267,0.85723
451.843,50.29356,-0.8973,0.24064,0.85502
454.843,50.58873,-0.91159,0.24813,0.8528
457.843,50.88353,-0.9244,0.25671,0.85057
460.843,51.17953,-0.93711,0.26734,0.84833
463.843,51.47521,-0.95061,0.27572,0.84609
466.843,51.7705,-0.96382,0.28248,0.84385
469.843,52.06575,-0.97694,0.2857,0.84159
472.843,52.3613,-0.98667,0.2925,0.83933
475.843,52.65687,-0.99678,0.29716,0.83707
478.843,52.95338,-1.00502,0.29802,0.8348
481.843,53.2499,-1.01295,0.30086,0.83252
484.843,53.54605,-1.02127,0.30756,0.83024
487.843,53.84248,-1.02809,0.3069,0.82795
490.843,54.1388,-1.03348,0.30788,0.82565
493.843,54.43495,-1.03864,0.31107,0.82335
496.843,54.7317,-1.04301,0.31245,0.82105
499.843,55.0287,-1.04695,0.31038,0.81874
502.843,55.3253,-1.04866,0.31198,0.81642
505.843,55.6217,-1.05345,0.31829,0.8141
508.843,55.9181,-1.05811,0.32001,0.81177
511.843,56.2147,-1.06012,0.32443,0.80944
514.843,56.51189,-1.06276,0.33022,0.8071
517.843,56.80927,-1.06668,0.34442,0.80476
520.843,57.1061,-1.07065,0.3694,0.80241
523.843,57.40362,-1.07529,0.38927,0.80005
526.843,57.7012,-1.07822,0.40182,0.7977
529.843,57.99904,-1.08216,0.41101,0.79533
532.843,58.29756,-1.08801,0.42534,0.79297
535.843,58.5957,-1.09248,0.43388,0.7906
538.843,58.8942,-1.09801,0.44285,0.78822
541.843,59.19256,-1.10191,0.44273,0.78584
544.843,59.49145,-1.10816,0.43893,0.78346
547.843,59.78999,-1.11408,0.42998,0.78107
550.843,60.0883,-1.11902,0.4286,0.77867
553.843,60.38743,-1.12387,0.42818,0.77628
556.843,60.68674,-1.1306,0.42579,0.77387
559.843,60.9868,-1.13518,0.42698,0.77147
562.843,61.28615,-1.14195,0.43165,0.76906
565.843,61.5861,-1.14806,0.44489,0.76665
568.843,61.88439,-1.15456,0.46182,0.76423
571.843,62.18447,-1.16047,0.48966,0.76181
574.843,62.48611,-1.16792,0.51644,0.75938
577.843,62.78685,-1.17596,0.55354,0.75695
580.843,63.0874,-1.18399,0.59809,0.75452
583.843,63.38759,-1.19547,0.62328,0.75209
586.843,63.6879,-1.20395,0.59335,0.74965
589.843,63.9878,-1.2139,0.46661,0.74721
592.843,64.28772,-1.21916,0.36318,0.74476
595.843,64.58795,-1.2218,0.33008,0.74232
598.843,64.88851,-1.22344,0.31878,0.73986
601.843,65.18893,-1.2241,0.32064,0.73741
604.843,65.48988,-1.22706,0.33771,0.73495
607.843,65.79083,-1.2297,0.36933,0.73249
610.843,66.09221,-1.23102,0.39739,0.73003
613.843,66.39367,-1.23599,0.42659,0.72757
616.843,66.69561,-1.23997,0.45326,0.7251
619.843,66.99715,-1.24309,0.47416,0.72263
622.843,67.29809,-1.24763,0.50161,0.72016
625.843,67.59878,-1.25375,0.52908,0.71768
628.843,67.89971,-1.2603,0.56063,0.7152
631.843,68.2009,-1.26983,0.59598,0.71272
634.843,68.50206,-1.27507,0.62424,0.71024
637.843,68.80293,-1.28346,0.66071,0.70776
640.843,69.10359,-1.29243,0.70203,0.70527
643.843,69.4067,-1.30423,0.75187,0.70278
646.843,69.70834,-1.31356,0.80544,0.70029
649.843,70.0093,-1.32661,0.86086,0.6978
652.843,70.311,-1.33863,0.92105,0.6953
655.843,70.6125,-1.35387,0.98483,0.69281
658.843,70.91513,-1.36561,1.0448,0.69031
661.843,71.21761,-1.3811,1.11383,0.68781
664.843,71.51966,-1.39422,1.19001,0.68531
667.843,71.82203,-1.41228,1.27232,0.68281
670.843,72.12513,-1.42974,1.37129,0.68031
673.843,72.42667,-1.44837,1.50332,0.6778
676.843,72.73023,-1.47082,1.66119,0.6753
679.843,73.0334,-1.49518,1.85796,0.67279
682.843,73.33721,-1.52272,2.11519,0.67028
685.843,73.64086,-1.55358,2.43948,0.66777
688.843,73.94538,-1.58941,2.57141,0.66526
691.843,74.24927,-1.63102,2.57042,0.66275
694.843,74.5526,-1.67161,2.65073,0.66024
697.843,74.85642,-1.71547,2.74603,0.65772
700.843,75.15989,-1.76068,2.83532,0.65521
703.843,75.46276,-1.80695,2.90237,0.6527
706.843,75.7665,-1.85591,2.93254,0.65018
709.843,76.07026,-1.90486,2.92444,0.64767
712.843,76.37376,-1.95409,2.89343,0.64515
715.843,76.6776,-1.99985,2.83688,0.64263
718.843,76.98057,-2.04448,2.70156,0.64012
721.843,77.28336,-2.08643,2.29031,0.6376
724.843,77.58434,-2.11507,1.01855,0.63508
727.843,77.88413,-2.12457,0.35854,0.63257
730.843,78.18749,-2.12553,0.35183,0.63005
733.843,78.49175,-2.12682,0.35516,0.62753
736.843,78.7957,-2.12748,0.3568,0.62501
739.843,79.10014,-2.12648,0.35457,0.6225
742.843,79.40385,-2.1278,0.34996,0.61998
745.843,79.70926,-2.1271,0.35014,0.61746
748.643,79.99417,-2.12747,0.34297,0.61511