File: 01_Data/Cellulose_Insulation/HFM/Cellulose_Insulation_Density_Wet_R3.csv
,Cellulose_Insulation_WET_3
Sample Mass [g],25.0
Sample Volume [cm3],474.8
Sample Density [kg/m3],53