File: 01_Data/Cellulose_Insulation/HFM/Cellulose_Insulation_Ignition_Temp_Properties.csv
Thermal Conductivity (W/m-K),0.05
Heat Capacity (J/kg-K),1741.0
Density (kg/m3),68.0