File: 01_Data/Cellulose_Insulation/HFM/Cellulose_Insulation_Density_Wet_R1.csv
,Cellulose_Insulation_WET_1
Sample Mass [g],38.5
Sample Volume [cm3],479.9
Sample Density [kg/m3],80