File: 01_Data/Cellulose_Insulation/HFM/Cellulose_Insulation_Density_Wet_R2.csv
,Cellulose_Insulation_WET_2
Sample Mass [g],33.6
Sample Volume [cm3],472.2
Sample Density [kg/m3],71