File: 01_Data/Concrete_Block/MCC/Concrete_Block_MCC_30K_min_220224_R2.txt
Sample ID:	C:\MCC\MCC Cal\Test\Concrete_Block_MCC_30K_min_220224_R2.txt
Sample Weight (mg):	4.42
Heating Rate (C/s):	0.5
Combustor Temp (C):	900
N2 Flow Rate (cc/min):	80
O2 Flow Rate (cc/min):	20
Calibration File:	C:\MCC\MCC Cal\Coeff1 JN10440_30_210304.txt.txt
T Correction Coefficients:	0	1.024463	0
Time Shift (s):	14
*
Time (s)	Temperature (C)	N2 flow rate (cc/min)	O2 flow rate (cc/min)	Flow Rate (cc/min)	Oxygen (%)	HRR (W/g)	Heating rate (C/s)
0.000	112.407	80.006	19.995	103.792	20.035	-0.182	-0.016
8.000	112.434	80.005	19.994	103.786	20.033	-0.072	0.028
16.000	112.357	80.004	19.994	103.821	20.028	0.263	-0.006
24.000	112.532	80.004	19.995	103.908	20.009	1.689	0.053
32.000	113.114	80.005	19.993	103.977	20.005	2.003	0.089
40.000	114.190	80.004	19.994	104.003	19.992	2.958	0.178
48.000	115.744	80.003	19.994	104.066	19.991	3.023	0.200
56.000	117.693	80.005	19.994	104.023	19.989	3.185	0.294
64.000	119.856	80.006	19.994	104.015	19.991	3.015	0.305
72.001	122.308	80.005	19.994	104.026	19.989	3.144	0.331
80.000	125.015	80.006	19.994	104.027	19.986	3.405	0.339
88.000	127.843	80.008	19.994	104.026	19.985	3.451	0.366
96.000	130.934	80.004	19.994	104.037	19.984	3.563	0.407
104.000	134.204	80.005	19.994	104.044	19.981	3.772	0.426
112.000	137.637	80.004	19.994	104.056	19.981	3.731	0.472
120.000	141.252	80.005	19.994	104.063	19.980	3.817	0.496
128.000	144.921	80.006	19.993	104.055	19.983	3.598	0.471
136.000	148.843	80.005	19.994	104.058	19.986	3.407	0.450
144.000	152.753	80.006	19.994	104.052	19.982	3.672	0.529
152.000	156.779	80.006	19.994	104.051	19.983	3.632	0.510
160.000	160.865	80.006	19.994	104.041	19.984	3.519	0.540
168.000	165.028	80.007	19.995	104.038	19.987	3.294	0.536
176.000	169.147	80.004	19.995	104.030	19.991	3.001	0.508
184.000	173.296	80.003	19.994	104.021	19.993	2.858	0.484
192.000	177.384	80.004	19.994	104.026	19.993	2.856	0.500
200.000	181.527	80.003	19.994	103.994	19.992	2.914	0.478
208.000	185.586	80.002	19.993	103.991	19.993	2.854	0.525
216.000	189.598	80.004	19.994	103.987	19.998	2.533	0.514
224.000	193.619	80.005	19.994	103.989	19.998	2.533	0.515
232.000	197.501	80.006	19.993	103.988	19.998	2.491	0.506
240.000	201.449	80.004	19.995	103.989	20.001	2.264	0.474
248.000	205.306	80.007	19.993	103.986	20.000	2.356	0.463
256.000	209.215	80.007	19.993	103.985	20.003	2.108	0.447
264.000	213.168	80.003	19.994	103.978	19.999	2.427	0.511
272.000	217.033	80.004	19.995	103.982	20.001	2.248	0.474
280.000	220.927	80.006	19.993	103.980	20.004	2.023	0.462
288.000	224.880	80.002	19.994	103.972	20.000	2.352	0.481
296.000	228.836	80.002	19.995	103.984	20.003	2.146	0.516
304.000	232.813	80.006	19.994	103.974	20.004	2.047	0.486
312.000	236.785	80.007	19.993	103.967	20.003	2.134	0.473
320.000	240.820	80.005	19.993	103.970	20.006	1.937	0.504
328.000	244.771	80.006	19.994	103.963	20.010	1.598	0.480
336.000	248.821	80.007	19.993	103.954	20.008	1.754	0.475
344.000	252.915	80.005	19.993	103.955	20.011	1.532	0.518
352.000	256.904	80.005	19.994	103.951	20.011	1.550	0.515
360.000	260.944	80.005	19.993	103.955	20.012	1.437	0.512
368.000	264.949	80.004	19.993	103.952	20.011	1.554	0.508
376.000	268.967	80.005	19.993	103.953	20.010	1.616	0.539
384.000	272.960	80.005	19.994	103.952	20.013	1.413	0.486
392.000	276.986	80.006	19.995	103.947	20.015	1.229	0.511
400.000	280.988	80.006	19.994	103.948	20.013	1.407	0.488
408.000	284.959	80.007	19.993	103.946	20.018	1.052	0.489
416.000	288.966	80.007	19.995	103.946	20.015	1.229	0.484
424.000	293.019	80.004	19.993	103.949	20.017	1.135	0.487
432.000	297.049	80.006	19.993	103.935	20.018	1.010	0.489
440.000	301.036	80.005	19.992	103.940	20.014	1.297	0.488
448.000	305.044	80.005	19.993	103.929	20.017	1.072	0.485
456.000	309.085	80.003	19.995	103.934	20.019	0.936	0.471
464.000	313.158	80.004	19.994	103.931	20.021	0.784	0.509
472.000	317.189	80.007	19.994	103.913	20.022	0.731	0.487
480.000	321.227	80.005	19.994	103.933	20.022	0.750	0.500
488.000	325.246	80.005	19.994	103.914	20.022	0.719	0.515
496.000	329.341	80.006	19.993	103.918	20.024	0.585	0.510
504.000	333.418	80.004	19.993	103.917	20.024	0.583	0.527
512.000	337.432	80.004	19.993	103.917	20.024	0.581	0.490
520.000	341.471	80.006	19.994	103.912	20.023	0.669	0.515
528.000	345.472	80.005	19.994	103.912	20.027	0.333	0.512
536.000	349.450	80.004	19.994	103.912	20.025	0.529	0.496
544.000	353.507	80.004	19.995	103.911	20.026	0.427	0.499
552.000	357.521	80.005	19.993	103.911	20.028	0.281	0.512
560.000	361.543	80.006	19.993	103.914	20.028	0.269	0.489
568.000	365.537	80.005	19.996	103.908	20.028	0.293	0.493
576.000	369.569	80.006	19.993	103.907	20.028	0.260	0.517
584.000	373.592	80.005	19.994	103.907	20.029	0.232	0.500
592.000	377.611	80.006	19.994	103.908	20.029	0.248	0.493
600.000	381.671	80.005	19.993	103.906	20.030	0.134	0.499
608.000	385.712	80.006	19.994	103.898	20.030	0.112	0.508
616.000	389.702	80.003	19.994	103.912	20.033	-0.072	0.499
624.000	393.797	80.006	19.993	103.911	20.033	-0.100	0.484
632.000	397.834	80.006	19.995	103.909	20.033	-0.076	0.497
640.000	401.842	80.004	19.994	103.893	20.034	-0.154	0.494
648.000	405.894	80.005	19.994	103.903	20.033	-0.042	0.511
656.000	409.828	80.008	19.994	103.903	20.034	-0.136	0.476
664.000	413.842	80.005	19.994	103.897	20.034	-0.108	0.514
672.000	417.820	80.004	19.995	103.904	20.035	-0.200	0.475
680.000	421.819	80.005	19.994	103.889	20.034	-0.132	0.506
688.000	425.826	80.005	19.994	103.894	20.037	-0.335	0.507
696.000	429.855	80.004	19.993	103.883	20.035	-0.242	0.493
704.000	433.819	80.005	19.993	103.892	20.035	-0.240	0.474
712.000	437.854	80.006	19.993	103.880	20.039	-0.505	0.489
720.000	441.805	80.007	19.993	103.892	20.034	-0.168	0.485
728.000	445.843	80.006	19.994	103.884	20.036	-0.272	0.523
736.000	449.902	80.008	19.995	103.883	20.037	-0.353	0.509
744.000	453.966	80.007	19.994	103.877	20.038	-0.449	0.514
752.000	458.027	80.004	19.994	103.876	20.035	-0.184	0.520
760.000	462.170	80.004	19.995	103.881	20.037	-0.331	0.508
768.000	466.264	80.004	19.994	103.879	20.036	-0.315	0.538
776.000	470.388	80.005	19.994	103.886	20.040	-0.619	0.504
784.000	474.606	80.005	19.993	103.878	20.040	-0.563	0.552
792.000	478.804	80.006	19.993	103.872	20.043	-0.823	0.522
800.000	482.996	80.006	19.993	103.874	20.042	-0.739	0.495
808.000	487.169	80.007	19.993	103.873	20.044	-0.873	0.519
816.000	491.269	80.007	19.994	103.876	20.043	-0.783	0.499
824.000	495.411	80.007	19.994	103.876	20.046	-1.030	0.554
832.000	499.533	80.003	19.994	103.875	20.047	-1.062	0.503
840.000	503.622	80.006	19.994	103.874	20.043	-0.797	0.526
848.000	507.693	80.006	19.994	103.876	20.047	-1.132	0.449
856.000	511.830	80.005	19.994	103.874	20.046	-1.030	0.516
864.000	516.012	80.004	19.995	103.872	20.053	-1.520	0.528
872.000	520.128	80.005	19.995	103.874	20.049	-1.274	0.507
880.000	524.085	80.005	19.993	103.881	20.052	-1.500	0.471
888.000	528.150	80.005	19.993	103.874	20.052	-1.452	0.483
896.000	532.226	80.008	19.994	103.875	20.054	-1.645	0.494
904.000	536.319	80.008	19.993	103.871	20.050	-1.302	0.521
912.000	540.366	80.006	19.994	103.870	20.051	-1.422	0.487
920.000	544.368	80.003	19.994	103.871	20.050	-1.306	0.505
928.000	548.430	80.007	19.994	103.869	20.051	-1.422	0.497
936.000	552.520	80.004	19.994	103.871	20.053	-1.562	0.502
944.000	556.646	80.005	19.993	103.873	20.052	-1.452	0.502
952.000	560.835	80.005	19.996	103.875	20.056	-1.739	0.523
960.000	565.009	80.006	19.993	103.874	20.054	-1.586	0.511
968.000	569.169	80.006	19.993	103.872	20.054	-1.634	0.516
976.000	573.328	80.007	19.993	103.870	20.054	-1.611	0.486
984.000	577.563	80.007	19.993	103.870	20.052	-1.474	0.511
992.000	581.675	80.006	19.994	103.869	20.058	-1.911	0.510
1000.000	585.762	80.006	19.993	103.874	20.058	-1.891	0.515
1008.000	589.830	80.004	19.993	103.870	20.057	-1.817	0.526
1016.000	593.862	80.004	19.996	103.872	20.058	-1.883	0.549
1024.000	597.919	80.004	19.994	103.875	20.061	-2.157	0.527
1031.999	601.925	80.006	19.994	103.879	20.061	-2.126	0.502
1039.999	605.946	80.005	19.995	103.870	20.059	-1.975	0.518
1047.999	610.062	80.006	19.995	103.871	20.072	-2.949	0.506
1055.999	614.285	80.007	19.993	103.872	20.059	-1.955	0.479
1064.000	618.247	80.008	19.993	103.873	20.061	-2.099	0.971
1071.999	622.461	80.004	19.994	103.877	20.061	-2.156	0.483
1079.999	626.602	80.006	19.994	103.872	20.064	-2.332	0.529
1087.999	630.683	80.006	19.993	103.879	20.062	-2.184	0.542
1095.999	634.764	80.005	19.994	103.878	20.060	-2.078	0.530
1103.999	638.782	80.002	19.995	103.893	20.059	-1.993	0.509
1111.999	642.872	80.005	19.994	103.876	20.059	-1.992	0.528
1119.999	646.846	80.007	19.995	103.893	20.058	-1.936	0.481
1128.000	650.975	80.004	19.994	103.898	20.056	-1.772	0.537
1135.999	654.916	80.005	19.996	103.912	20.060	-2.064	0.502
1143.999	659.014	80.007	19.993	103.910	20.056	-1.734	0.521
1151.999	663.065	80.005	19.992	103.915	20.058	-1.924	0.484
1159.999	667.034	80.004	19.993	103.917	20.057	-1.846	0.486
1167.999	671.013	80.005	19.994	103.933	20.057	-1.828	0.486
1175.999	674.953	80.005	19.995	103.942	20.053	-1.510	0.498
1183.999	678.985	80.005	19.994	103.946	20.050	-1.333	0.500
1191.999	683.020	80.006	19.993	103.951	20.054	-1.594	0.490
1199.999	686.950	80.006	19.993	103.957	20.050	-1.346	0.499
1207.999	691.065	80.005	19.995	103.986	20.053	-1.536	0.524
1215.999	695.193	80.006	19.993	103.990	20.048	-1.145	0.517
1224.001	699.335	80.008	19.994	103.992	20.050	-1.302	0.528
1232.000	703.323	80.005	19.996	104.021	20.048	-1.202	0.504
1239.999	707.393	80.005	19.993	104.021	20.051	-1.408	0.481
1248.000	711.475	80.005	19.994	104.048	20.048	-1.158	0.501
1255.999	715.558	80.006	19.995	104.059	20.045	-0.923	0.520
1264.000	719.638	80.004	19.994	104.081	20.041	-0.630	0.479
1271.999	723.665	80.006	19.994	104.095	20.034	-0.116	0.507
1279.999	727.620	80.005	19.993	104.110	20.031	0.058	0.472
1288.000	731.608	80.006	19.994	104.126	20.026	0.424	0.498
1295.999	735.624	80.007	19.994	104.145	20.029	0.203	0.481
1303.999	739.588	80.008	19.994	104.152	20.027	0.404	0.494
1311.999	743.574	80.005	19.994	104.185	20.018	1.053	0.474