File: 01_Data/Concrete_Block/MCC/Concrete_Block_MCC_30K_min_220224_R1.txt
Sample ID:	C:\MCC\MCC Cal\Test\Concrete_Block_MCC_30K_min_220224_R1.txt
Sample Weight (mg):	4.83
Heating Rate (C/s):	0.5
Combustor Temp (C):	900
N2 Flow Rate (cc/min):	80
O2 Flow Rate (cc/min):	20
Calibration File:	C:\MCC\MCC Cal\Coeff1 JN10440_30_210304.txt.txt
T Correction Coefficients:	0	1.024463	0
Time Shift (s):	14
*
Time (s)	Temperature (C)	N2 flow rate (cc/min)	O2 flow rate (cc/min)	Flow Rate (cc/min)	Oxygen (%)	HRR (W/g)	Heating rate (C/s)
0.000	115.107	80.005	19.994	103.856	20.048	-0.033	0.002
8.000	115.062	80.004	19.993	103.862	20.044	0.255	-0.001
16.000	115.059	80.002	19.996	103.896	20.041	0.441	0.035
24.000	115.174	80.003	19.995	104.004	20.027	1.397	0.023
32.000	115.750	80.006	19.993	104.061	20.014	2.231	0.058
40.000	116.867	80.004	19.992	104.055	20.014	2.228	0.134
48.000	118.300	80.004	19.993	104.064	20.010	2.516	0.169
56.000	120.133	80.007	19.994	104.069	20.009	2.587	0.227
64.000	122.211	80.006	19.992	104.074	20.006	2.756	0.302
72.000	124.582	80.005	19.992	104.100	20.002	3.054	0.293
80.001	127.213	80.004	19.992	104.110	20.001	3.133	0.368
88.000	130.081	80.005	19.993	104.110	20.003	2.958	0.341
96.000	133.192	80.005	19.994	104.112	20.005	2.846	0.403
104.000	136.396	80.005	19.994	104.109	20.005	2.826	0.417
112.000	139.724	80.005	19.994	104.109	20.003	3.011	0.400
120.000	143.218	80.004	19.994	104.108	20.003	2.964	0.455
128.000	146.842	80.006	19.993	104.109	20.002	3.048	0.430
136.000	150.624	80.006	19.993	104.111	20.004	2.945	0.470
144.000	154.394	80.006	19.994	104.111	20.000	3.188	0.488
152.000	158.280	80.003	19.993	104.111	20.001	3.147	0.503
160.001	162.228	80.003	19.992	104.113	20.007	2.692	0.502
168.000	166.303	80.005	19.993	104.105	20.007	2.697	0.524
176.000	170.380	80.004	19.994	104.101	20.009	2.583	0.491
184.000	174.428	80.004	19.994	104.094	20.014	2.248	0.546
192.000	178.517	80.005	19.994	104.090	20.014	2.239	0.521
200.000	182.604	80.005	19.994	104.073	20.016	2.121	0.500
208.001	186.702	80.004	19.995	104.080	20.014	2.250	0.522
216.000	190.730	80.005	19.994	104.071	20.019	1.916	0.517
224.000	194.701	80.006	19.993	104.071	20.021	1.789	0.487
232.000	198.603	80.005	19.993	104.057	20.022	1.688	0.463
240.000	202.561	80.003	19.994	104.058	20.018	1.978	0.477
248.000	206.456	80.005	19.994	104.058	20.017	2.018	0.487
256.000	210.372	80.005	19.993	104.055	20.025	1.537	0.482
264.000	214.277	80.005	19.994	104.046	20.024	1.563	0.477
272.000	218.204	80.004	19.995	104.053	20.028	1.316	0.494
280.000	222.149	80.004	19.993	104.036	20.025	1.500	0.486
288.000	226.087	80.003	19.995	104.035	20.026	1.419	0.495
296.000	230.021	80.005	19.994	104.030	20.030	1.147	0.519
304.000	234.000	80.007	19.995	104.031	20.032	1.028	0.516
312.000	237.997	80.003	19.994	104.029	20.029	1.206	0.505
320.000	241.890	80.005	19.993	104.030	20.027	1.353	0.484
328.000	245.889	80.003	19.994	104.033	20.032	1.034	0.486
336.000	249.867	80.004	19.993	104.031	20.033	0.968	0.510
344.000	253.864	80.002	19.993	104.035	20.034	0.879	0.499
352.000	257.876	80.003	19.993	104.030	20.036	0.745	0.502
360.000	261.862	80.005	19.993	104.022	20.037	0.677	0.526
368.000	265.889	80.003	19.995	104.019	20.034	0.890	0.495
376.000	269.924	80.005	19.995	104.024	20.036	0.791	0.507
384.000	273.975	80.005	19.995	104.018	20.033	0.968	0.511
392.000	277.987	80.003	19.994	104.020	20.039	0.562	0.500
400.000	282.041	80.002	19.993	104.027	20.039	0.587	0.539
408.000	286.127	80.002	19.993	104.029	20.039	0.547	0.498
416.000	290.234	80.003	19.992	103.997	20.046	0.079	0.516
424.000	294.265	80.001	19.994	103.994	20.044	0.248	0.479
432.000	298.256	80.003	19.994	103.994	20.045	0.160	0.435
440.000	302.321	80.005	19.994	103.993	20.045	0.173	0.498
448.000	306.250	80.004	19.993	103.992	20.051	-0.239	0.457
456.000	310.266	80.004	19.994	104.003	20.046	0.073	0.541
464.000	314.356	80.006	19.993	103.994	20.048	-0.066	0.543
472.000	318.461	80.003	19.994	103.996	20.047	-0.002	0.534
480.000	322.533	80.001	19.994	103.996	20.053	-0.351	0.507
488.000	326.674	80.003	19.995	103.984	20.048	-0.051	0.529
496.000	330.736	80.003	19.993	103.981	20.051	-0.231	0.504
504.000	334.787	80.004	19.993	103.981	20.054	-0.418	0.530
512.000	338.773	80.004	19.993	103.977	20.050	-0.206	0.499
520.000	342.748	80.004	19.993	103.980	20.053	-0.367	0.469
528.000	346.714	80.004	19.994	103.977	20.053	-0.352	0.486
536.000	350.683	80.005	19.993	103.977	20.057	-0.640	0.457
544.000	354.803	80.004	19.994	103.971	20.057	-0.640	0.505
552.000	358.774	80.002	19.994	103.970	20.056	-0.576	0.510
560.000	362.751	80.002	19.994	103.966	20.059	-0.760	0.497
568.000	366.799	80.003	19.994	103.963	20.063	-1.070	0.502
576.000	370.847	80.003	19.995	103.956	20.059	-0.760	0.512
584.000	374.882	80.002	19.995	103.963	20.063	-1.066	0.516
592.000	378.855	80.003	19.993	103.964	20.063	-1.020	0.496
600.000	382.860	80.005	19.994	103.966	20.063	-1.055	0.511
608.000	386.916	80.005	19.993	103.975	20.064	-1.117	0.494
616.000	390.948	80.004	19.995	103.975	20.064	-1.082	0.499
624.000	395.106	80.006	19.994	103.961	20.064	-1.082	0.528
632.000	399.251	80.006	19.994	103.959	20.065	-1.213	0.530
640.000	403.380	80.002	19.993	103.953	20.068	-1.374	0.521
648.000	407.552	80.004	19.994	103.954	20.067	-1.297	0.509
656.000	411.688	80.004	19.995	103.957	20.073	-1.717	0.506
664.000	415.767	80.003	19.995	103.958	20.068	-1.374	0.498
672.000	419.880	80.002	19.994	103.958	20.072	-1.633	0.504
680.000	423.959	80.004	19.995	103.950	20.074	-1.780	0.515
688.000	428.041	80.004	19.993	103.951	20.076	-1.910	0.487
696.000	432.126	80.005	19.994	103.954	20.071	-1.614	0.519
704.000	436.214	80.006	19.994	103.953	20.076	-1.921	0.507
712.000	440.265	80.004	19.992	103.950	20.071	-1.559	0.528
720.000	444.249	80.005	19.994	103.954	20.071	-1.587	0.451
728.000	448.229	80.003	19.993	103.953	20.074	-1.814	0.491
736.000	452.226	80.003	19.994	103.950	20.071	-1.583	0.510
744.000	456.226	80.003	19.993	103.947	20.074	-1.756	0.489
752.000	460.219	80.003	19.994	103.951	20.076	-1.921	0.530
760.000	464.300	80.003	19.993	103.948	20.073	-1.688	0.507
768.000	468.471	80.004	19.995	103.947	20.075	-1.879	0.523
776.000	472.641	80.005	19.994	103.951	20.077	-1.989	0.533
784.000	476.872	80.007	19.993	103.953	20.077	-1.990	0.519
792.000	481.089	80.005	19.994	103.949	20.082	-2.345	0.506
800.000	485.252	80.003	19.994	103.936	20.077	-1.979	0.515
808.000	489.404	80.004	19.994	103.943	20.079	-2.128	0.520
816.000	493.488	80.003	19.994	103.948	20.083	-2.401	0.497
824.000	497.567	80.003	19.995	103.944	20.083	-2.412	0.521
832.000	501.616	80.005	19.994	103.947	20.084	-2.469	0.492
840.000	505.643	80.006	19.994	103.940	20.082	-2.346	0.520
848.000	509.654	80.004	19.995	103.933	20.085	-2.546	0.491
856.000	513.637	80.004	19.994	103.940	20.080	-2.199	0.532
864.000	517.691	80.005	19.994	103.934	20.083	-2.408	0.525
872.000	521.718	80.005	19.993	103.938	20.087	-2.651	0.524
880.000	525.830	80.002	19.992	103.920	20.082	-2.331	0.513
888.000	529.966	80.004	19.994	103.934	20.091	-2.898	0.493
896.000	534.141	80.005	19.994	103.927	20.086	-2.610	0.551
904.000	538.380	80.003	19.994	103.934	20.085	-2.522	0.507
912.000	542.588	80.003	19.994	103.945	20.087	-2.639	0.529
920.000	546.811	80.004	19.993	103.929	20.085	-2.505	0.501
928.000	551.064	80.004	19.994	103.919	20.086	-2.592	0.527
936.000	555.283	80.004	19.994	103.921	20.085	-2.505	0.559
944.000	559.467	80.005	19.994	103.914	20.087	-2.661	0.542
952.000	563.642	80.004	19.994	103.921	20.090	-2.854	0.519
960.000	567.791	80.003	19.994	103.918	20.087	-2.687	0.511
968.000	571.930	80.003	19.993	103.918	20.091	-2.944	0.484
976.000	576.148	80.004	19.993	103.921	20.092	-2.958	0.498
984.000	580.229	80.003	19.994	103.921	20.091	-2.920	0.506
992.000	584.330	80.002	19.993	103.919	20.091	-2.925	0.531
1000.000	588.344	80.004	19.992	103.916	20.096	-3.277	0.479
1008.000	592.346	80.004	19.993	103.920	20.089	-2.780	0.501
1016.000	596.371	80.004	19.994	103.917	20.091	-2.942	0.531
1024.000	600.370	80.006	19.994	103.915	20.094	-3.103	0.512
1032.001	604.353	80.006	19.993	103.928	20.091	-2.911	0.466
1040.000	608.396	80.003	19.995	103.921	20.091	-2.901	0.528
1048.001	612.387	80.003	19.994	103.918	20.090	-2.879	0.487
1056.000	616.481	80.004	19.993	103.919	20.093	-3.070	0.522
1064.000	620.684	80.002	19.994	103.920	20.092	-3.001	0.528
1072.001	624.743	80.003	19.993	103.920	20.092	-3.021	0.486
1080.000	628.921	80.005	19.994	103.917	20.095	-3.170	0.631
1088.001	633.018	80.005	19.993	103.931	20.095	-3.174	0.516
1096.000	637.165	80.005	19.993	103.918	20.093	-3.032	0.554
1104.000	641.294	80.006	19.994	103.935	20.093	-3.067	0.503
1112.000	645.446	80.005	19.994	103.940	20.091	-2.901	0.514
1120.001	649.592	80.001	19.992	103.957	20.088	-2.737	0.497
1128.000	653.728	80.003	19.993	103.949	20.091	-2.917	0.445
1136.001	657.761	80.004	19.995	103.952	20.089	-2.780	0.459
1144.000	661.781	80.002	19.994	103.959	20.089	-2.796	0.487
1152.000	665.772	80.004	19.995	103.969	20.085	-2.532	0.489
1160.001	669.762	80.005	19.993	103.978	20.089	-2.780	0.486
1168.000	673.747	80.005	19.993	103.982	20.087	-2.641	0.484
1176.000	677.843	80.004	19.993	103.994	20.085	-2.511	0.507
1184.001	681.925	80.006	19.993	104.008	20.086	-2.581	0.508
1192.000	685.992	80.005	19.993	104.009	20.088	-2.713	0.523
1200.000	689.965	80.003	19.995	104.031	20.088	-2.714	0.489
1208.000	693.951	80.003	19.994	104.036	20.085	-2.514	0.509
1216.000	697.940	80.004	19.993	104.058	20.085	-2.523	0.499
1224.000	701.852	80.002	19.994	104.067	20.082	-2.320	0.491
1232.000	705.773	80.003	19.995	104.074	20.079	-2.124	0.491
1240.000	709.693	80.004	19.992	104.098	20.079	-2.126	0.506
1248.001	713.663	80.004	19.994	104.111	20.078	-2.067	0.490
1256.000	717.686	80.005	19.994	104.128	20.070	-1.489	0.507
1264.000	721.750	80.007	19.993	104.147	20.069	-1.445	0.509
1272.000	725.947	80.005	19.994	104.160	20.064	-1.136	0.533
1280.001	730.129	80.004	19.994	104.189	20.062	-0.997	0.519
1288.000	734.257	80.003	19.995	104.208	20.062	-0.997	0.489
1296.001	738.463	80.004	19.994	104.225	20.056	-0.594	0.534
1304.000	742.632	80.003	19.994	104.251	20.055	-0.541	0.495
1305.500	743.384	80.004	19.994	104.255	20.054	-0.464	0.502