File: 01_Data/PUF_Mattress_Pad/MCC/PUF_Mattress_Pad_MCC_30K_min_210110_R1.txt
Sample ID:	C:\MCC\MCC Cal\Test\PUF_Mattress_Pad_MCC_30K_min_211219_R1.txt
Sample Weight (mg):	4.45
Heating Rate (C/s):	0.5
Combustor Temp (C):	900
N2 Flow Rate (cc/min):	80
O2 Flow Rate (cc/min):	20
Calibration File:	C:\MCC\MCC Cal\Coeff1 JN10440_30_210304.txt.txt
T Correction Coefficients:	0	1.024463	0
Time Shift (s):	14
*
Time (s)	Temperature (C)	N2 flow rate (cc/min)	O2 flow rate (cc/min)	Flow Rate (cc/min)	Oxygen (%)	HRR (W/g)	Heating rate (C/s)
0.000	110.619	80.003	19.992	104.030	19.980	-0.066	-0.012
8.001	110.656	80.001	19.994	104.027	19.979	-0.042	0.024
16.000	110.651	80.001	19.995	104.037	19.976	0.170	-0.010
24.000	110.740	80.002	19.993	104.145	19.961	1.294	0.027
32.000	111.316	80.004	19.994	104.189	19.946	2.413	0.125
40.001	112.289	80.002	19.993	104.228	19.947	2.345	0.162
48.001	113.775	80.002	19.995	104.246	19.936	3.089	0.216
56.001	115.486	80.003	19.993	104.231	19.932	3.371	0.254
64.001	117.612	80.001	19.994	104.266	19.939	2.928	0.305
72.001	119.975	79.999	19.994	104.284	19.931	3.483	0.318
80.000	122.662	80.001	19.995	104.289	19.926	3.866	0.371
88.000	125.609	80.001	19.994	104.303	19.920	4.317	0.370
96.000	128.838	80.000	19.994	104.304	19.923	4.103	0.428
104.001	132.173	80.001	19.994	104.375	19.926	3.824	0.431
112.000	135.762	80.004	19.994	104.305	19.925	3.884	0.461
120.000	139.536	80.003	19.993	104.304	19.918	4.461	0.487
128.001	143.419	80.002	19.994	104.312	19.917	4.481	0.497
136.001	147.350	80.002	19.994	104.296	19.926	3.865	0.483
144.001	151.433	80.001	19.993	104.276	19.918	4.403	0.519
152.001	155.427	79.999	19.993	104.278	19.925	3.883	0.484
160.000	159.499	80.001	19.995	104.275	19.929	3.597	0.506
168.001	163.628	80.002	19.995	104.271	19.921	4.191	0.502
176.001	167.645	80.001	19.993	104.262	19.923	4.077	0.522
184.001	171.583	80.001	19.993	104.265	19.918	4.398	0.450
192.000	175.595	80.002	19.992	104.270	19.918	4.402	0.492
200.001	179.557	80.002	19.993	104.267	19.916	4.578	0.519
208.001	183.545	80.001	19.993	104.266	19.916	4.585	0.499
216.001	187.519	80.004	19.993	104.259	19.920	4.263	0.482
224.000	191.509	80.003	19.995	104.259	19.913	4.811	0.495
232.000	195.433	80.001	19.993	104.250	19.906	5.337	0.452
240.000	199.403	80.003	19.993	104.248	19.901	5.680	0.496
248.001	203.379	80.002	19.994	104.242	19.892	6.329	0.503
256.000	207.384	80.000	19.995	104.249	19.885	6.833	0.522
264.000	211.305	80.001	19.994	104.254	19.868	8.097	0.487
272.001	215.333	80.001	19.993	104.250	19.857	8.921	0.518
280.000	219.244	80.002	19.993	104.251	19.840	10.129	0.505
288.000	223.260	80.003	19.995	104.265	19.823	11.358	0.511
296.000	227.204	80.003	19.994	104.263	19.795	13.403	0.498
304.000	231.200	80.002	19.994	104.266	19.771	15.169	0.500
312.001	235.189	80.002	19.993	104.265	19.742	17.323	0.473
320.001	239.093	80.002	19.994	104.284	19.708	19.779	0.497
328.001	243.002	80.001	19.995	104.302	19.664	23.005	0.480
336.001	246.925	80.001	19.994	104.303	19.623	26.013	0.513
344.001	250.869	80.000	19.993	104.306	19.569	29.935	0.469
352.000	254.830	80.000	19.995	104.308	19.509	34.356	0.517
360.000	258.774	80.002	19.995	104.336	19.429	40.185	0.489
368.001	262.750	80.003	19.994	104.362	19.344	46.434	0.503
376.000	266.786	80.002	19.995	104.381	19.223	55.323	0.509
384.001	270.793	80.005	19.993	104.420	19.064	67.002	0.505
392.000	274.854	80.003	19.993	104.458	18.839	83.526	0.523
400.001	278.827	80.002	19.993	104.490	18.606	100.590	0.491
408.001	282.822	80.002	19.997	104.506	18.470	110.488	0.493
416.000	286.828	80.002	19.992	104.449	18.607	100.496	0.501
424.001	290.848	80.000	19.994	104.465	18.991	72.224	0.487
432.000	294.828	80.002	19.994	104.389	19.225	55.122	0.485
440.001	298.932	80.004	19.995	104.386	19.269	51.915	0.529
448.000	303.064	80.002	19.995	104.276	19.300	49.630	0.524
456.000	307.263	80.002	19.997	104.306	19.406	41.858	0.522
464.000	311.478	80.002	19.993	104.300	19.507	34.474	0.528
472.000	315.642	80.004	19.992	104.257	19.576	29.451	0.521
480.001	319.737	80.003	19.993	104.253	19.636	25.014	0.527
488.000	323.715	80.002	19.995	104.238	19.673	22.296	0.508
496.000	327.678	80.003	19.993	104.221	19.684	21.554	0.467
504.000	331.675	80.001	19.993	104.220	19.695	20.731	0.499
512.001	335.623	80.002	19.994	104.220	19.682	21.674	0.502
520.000	339.574	80.002	19.994	104.224	19.662	23.115	0.480
528.000	343.467	80.004	19.993	104.215	19.633	25.258	0.470
536.000	347.421	80.003	19.993	104.225	19.577	29.353	0.472
544.001	351.376	80.003	19.994	104.223	19.488	35.876	0.504
552.001	355.454	80.003	19.995	104.222	19.366	44.798	0.492
560.000	359.403	80.004	19.992	104.223	19.190	57.686	0.506
568.001	363.451	80.002	19.993	104.245	18.955	74.804	0.519
576.001	367.454	80.003	19.993	104.249	18.655	96.804	0.475
584.001	371.452	80.001	19.994	104.302	18.263	125.449	0.476
592.000	375.518	80.001	19.993	104.258	17.840	156.330	0.522
600.000	379.543	80.002	19.992	104.266	17.424	186.452	0.494
608.001	383.519	80.003	19.993	104.145	17.088	210.930	0.486
616.000	387.484	80.004	19.994	104.164	16.911	223.851	0.509
624.001	391.429	80.004	19.993	104.105	16.944	221.420	0.491
632.000	395.451	80.004	19.993	104.048	17.212	201.908	0.498
640.000	399.485	80.005	19.995	104.060	17.654	169.626	0.480
648.000	403.435	80.000	19.995	104.072	18.142	134.008	0.508
656.000	407.481	80.002	19.994	104.071	18.625	98.779	0.524
664.000	411.493	80.004	19.993	104.100	19.023	69.726	0.506
672.001	415.498	80.002	19.993	104.113	19.321	48.009	0.477
680.000	419.515	80.002	19.995	104.130	19.536	32.287	0.490
688.000	423.549	80.004	19.995	104.138	19.674	22.256	0.523
696.000	427.661	80.005	19.993	104.136	19.763	15.757	0.515
704.000	431.800	80.002	19.993	104.137	19.812	12.142	0.532
712.000	436.016	80.002	19.993	104.118	19.839	10.181	0.523
720.000	440.216	80.003	19.992	104.133	19.859	8.712	0.566
728.000	444.403	80.003	19.993	104.144	19.866	8.244	0.523
736.000	448.551	80.001	19.994	104.164	19.876	7.478	0.516
744.001	452.663	80.002	19.993	104.147	19.880	7.175	0.511
752.001	456.835	80.003	19.994	104.165	19.883	6.969	0.546
760.000	460.956	80.002	19.993	104.150	19.879	7.264	0.483
768.000	465.029	80.002	19.994	104.153	19.880	7.237	0.515
776.001	469.131	80.005	19.993	104.153	19.886	6.749	0.497
784.000	473.190	80.005	19.994	104.150	19.885	6.837	0.520
792.001	477.285	80.004	19.993	104.161	19.883	6.990	0.522
800.000	481.306	80.004	19.992	104.154	19.885	6.808	0.521
808.000	485.343	80.005	19.994	104.149	19.884	6.872	0.529
816.001	489.386	80.002	19.994	104.141	19.882	7.045	0.517
824.000	493.431	80.001	19.994	104.158	19.882	7.087	0.471
832.000	497.494	80.000	19.995	104.168	19.881	7.156	0.490
840.001	501.457	80.002	19.993	104.165	19.881	7.127	0.476
848.000	505.535	80.002	19.996	104.154	19.878	7.333	0.544
856.000	509.609	80.002	19.993	104.166	19.877	7.388	0.570
864.001	513.638	80.006	19.994	104.158	19.877	7.428	0.607
872.001	517.820	80.003	19.993	104.159	19.876	7.487	0.514
880.000	522.040	80.003	19.993	104.147	19.877	7.425	0.513
888.000	526.324	80.006	19.995	104.157	19.875	7.597	0.552
896.000	530.467	80.005	19.994	104.151	19.873	7.681	0.503
904.000	534.637	80.002	19.994	104.152	19.875	7.553	0.535
912.000	538.711	80.000	19.994	104.142	19.876	7.497	0.521
920.001	542.805	80.003	19.995	104.150	19.876	7.483	0.517
928.001	546.897	80.002	19.995	104.156	19.877	7.413	0.517
936.000	551.063	79.999	19.994	104.163	19.875	7.589	0.554
944.000	555.211	80.001	19.993	104.148	19.876	7.496	0.500
952.000	559.259	80.005	19.993	104.146	19.873	7.695	0.504
960.000	563.313	80.005	19.993	104.147	19.873	7.693	0.547
968.001	567.284	80.005	19.993	104.144	19.871	7.839	0.519
976.000	571.298	80.004	19.994	104.145	19.871	7.863	0.484
984.000	575.296	80.004	19.993	104.155	19.869	8.018	0.484
992.000	579.343	79.997	19.995	104.170	19.866	8.226	0.532
1000.000	583.458	80.002	19.994	104.165	19.865	8.270	0.513
1008.000	587.572	80.000	19.994	104.162	19.866	8.196	0.498
1016.000	591.744	80.002	19.994	104.154	19.866	8.245	0.514
1024.000	595.938	80.001	19.994	104.160	19.865	8.304	0.523
1032.000	600.132	80.001	19.994	104.143	19.866	8.198	0.520
1040.000	604.329	79.989	19.994	104.169	19.864	8.404	0.503
1048.000	608.516	79.987	19.996	104.161	19.861	8.564	0.474
1056.000	612.760	79.999	19.993	104.158	19.864	8.377	0.493
1064.001	616.948	79.997	19.994	104.160	19.864	8.349	0.509
1072.000	621.108	80.005	19.993	104.150	19.861	8.597	0.498
1080.000	625.235	80.017	19.993	104.150	19.860	8.648	0.551
1088.000	629.338	80.000	19.995	104.163	19.863	8.459	0.508
1096.000	633.650	80.013	19.992	104.151	19.859	8.744	0.579
1104.000	637.978	80.002	19.995	104.158	19.856	8.934	0.523
1112.000	642.233	80.002	19.993	104.157	19.862	8.491	0.544
1120.000	646.466	79.999	19.994	104.145	19.857	8.908	0.540
1128.001	650.744	80.009	19.994	104.156	19.856	8.961	0.481
1136.000	654.963	80.008	19.992	104.150	19.859	8.762	0.560
1144.000	659.090	80.008	19.993	104.152	19.854	9.067	0.471
1152.000	663.253	80.005	19.994	104.149	19.854	9.134	0.532
1160.001	667.294	80.003	19.993	104.149	19.853	9.139	0.488
1168.000	671.218	80.002	19.993	104.151	19.853	9.190	0.484
1176.000	675.183	80.002	19.993	104.150	19.852	9.210	0.517
1184.000	678.980	80.004	19.992	104.149	19.852	9.242	0.457
1192.000	682.879	80.001	19.994	104.150	19.850	9.417	0.484
1200.000	686.834	80.004	19.994	104.153	19.850	9.420	0.504
1208.001	690.884	80.005	19.994	104.164	19.851	9.322	0.502
1216.001	695.050	80.003	19.995	104.150	19.850	9.420	0.521
1224.001	699.258	80.006	19.994	104.148	19.849	9.457	0.533
1232.000	703.357	80.005	19.994	104.146	19.853	9.184	0.497
1240.000	707.376	80.003	19.994	104.164	19.854	9.070	0.486
1248.000	711.335	80.002	19.994	104.145	19.856	8.970	0.473
1256.001	715.084	80.002	19.993	104.148	19.850	9.386	0.483
1264.000	718.844	80.002	19.994	104.148	19.851	9.329	0.454
1272.001	722.543	80.004	19.994	104.162	19.851	9.307	0.479
1280.000	726.231	80.005	19.993	104.148	19.847	9.605	0.453
1288.000	730.135	80.000	19.998	104.146	19.850	9.359	0.497
1296.001	734.058	80.006	19.992	104.144	19.845	9.790	0.530
1304.000	737.943	80.004	19.993	104.153	19.845	9.775	0.496
1312.000	741.857	80.006	19.994	104.157	19.844	9.847	0.499
1315.500	743.607	80.004	19.990	104.149	19.841	10.034	0.534