File: 01_Data/PUF_Mattress_Pad/MCC/PUF_Mattress_Pad_MCC_30K_min_220110_R2.txt
Sample ID:	C:\MCC\MCC Cal\Test\PUF_Mattress_Pad_MCC_30K_min_220110_R2.txt
Sample Weight (mg):	4.25
Heating Rate (C/s):	0.5
Combustor Temp (C):	900
N2 Flow Rate (cc/min):	80
O2 Flow Rate (cc/min):	20
Calibration File:	C:\MCC\MCC Cal\Coeff1 JN10440_30_210304.txt.txt
T Correction Coefficients:	0	1.024463	0
Time Shift (s):	14
*
Time (s)	Temperature (C)	N2 flow rate (cc/min)	O2 flow rate (cc/min)	Flow Rate (cc/min)	Oxygen (%)	HRR (W/g)	Heating rate (C/s)
0.000	110.936	80.011	19.990	104.074	20.052	-0.212	0.003
8.000	110.931	79.997	19.993	104.074	20.051	-0.101	0.016
16.000	111.013	80.014	19.992	104.116	20.039	0.789	0.029
24.000	111.317	80.001	19.994	104.196	20.024	1.943	0.090
32.001	112.087	80.003	19.993	104.268	20.014	2.711	0.135
40.001	113.367	80.003	19.993	104.280	20.007	3.270	0.195
48.000	115.133	80.002	19.995	104.300	20.004	3.466	0.260
56.000	117.189	80.003	19.994	104.327	19.998	3.973	0.269
64.000	119.615	80.005	19.993	104.312	20.001	3.731	0.326
72.001	122.409	80.005	19.993	104.328	20.001	3.684	0.366
80.000	125.508	80.008	19.992	104.371	19.998	3.955	0.393
88.000	128.739	80.004	19.996	104.327	20.001	3.759	0.404
96.000	132.119	80.002	19.996	104.324	20.001	3.721	0.455
104.000	135.625	80.002	19.997	104.317	20.002	3.636	0.420
112.000	139.242	80.004	19.993	104.318	20.002	3.650	0.436
120.000	142.977	80.003	19.994	104.332	20.003	3.601	0.533
128.000	146.657	80.005	19.994	104.325	20.001	3.747	0.440
136.000	150.488	80.004	19.994	104.320	19.998	3.940	0.496
144.000	154.301	80.004	19.994	104.312	19.995	4.145	0.509
152.000	158.164	80.004	19.994	104.307	19.995	4.182	0.456
160.001	162.126	80.005	19.994	104.303	20.002	3.631	0.516
168.000	166.164	80.007	19.993	104.304	19.998	3.964	0.514
176.001	170.122	80.004	19.992	104.306	19.995	4.168	0.501
184.000	174.132	80.004	19.992	104.303	19.993	4.352	0.496
192.000	178.069	80.004	19.992	104.301	19.998	3.968	0.504
200.001	182.077	80.006	19.993	104.296	19.994	4.253	0.483
208.000	186.106	80.003	19.993	104.289	19.990	4.532	0.517
216.000	190.085	80.004	19.995	104.296	19.988	4.742	0.503
224.000	193.974	80.006	19.993	104.278	19.985	4.954	0.505
232.001	197.901	80.005	19.996	104.287	19.978	5.495	0.470
240.000	201.898	80.004	19.994	104.270	19.972	5.938	0.486
248.000	205.845	80.005	19.993	104.282	19.966	6.416	0.483
256.001	209.797	80.005	19.993	104.272	19.955	7.271	0.464
264.000	213.773	80.003	19.993	104.296	19.940	8.393	0.508
272.001	217.765	80.004	19.992	104.289	19.924	9.604	0.497
280.000	221.750	80.004	19.993	104.295	19.906	11.004	0.519
288.000	225.727	80.005	19.993	104.300	19.882	12.801	0.483
296.001	229.724	80.004	19.993	104.294	19.862	14.350	0.512
304.001	233.725	80.006	19.994	104.298	19.832	16.664	0.495
312.000	237.776	80.007	19.993	104.309	19.798	19.249	0.496
320.000	241.743	80.005	19.993	104.310	19.757	22.396	0.504
328.000	245.783	80.006	19.993	104.341	19.717	25.487	0.493
336.000	249.822	80.006	19.994	104.346	19.661	29.810	0.538
344.000	253.895	80.003	19.994	104.344	19.600	34.478	0.511
352.001	257.921	80.004	19.994	104.378	19.528	39.945	0.521
360.000	261.916	80.005	19.993	104.377	19.446	46.290	0.526
368.000	265.881	80.006	19.994	104.405	19.350	53.613	0.467
376.000	269.850	80.004	19.993	104.420	19.233	62.606	0.499
384.000	273.832	80.005	19.994	104.472	19.072	75.019	0.483
392.001	277.819	80.006	19.992	104.504	18.867	90.777	0.525
400.000	281.815	80.005	19.992	104.526	18.672	105.601	0.511
408.000	285.755	80.006	19.994	104.497	18.690	104.259	0.494
416.000	289.739	80.006	19.993	104.455	19.057	76.083	0.471
424.000	293.861	80.005	19.995	104.440	19.333	54.891	0.508
432.000	297.945	80.003	19.994	104.381	19.425	47.817	0.558
440.000	302.132	80.004	19.994	104.340	19.400	49.769	0.555
448.001	306.472	80.005	19.995	104.357	19.484	43.354	0.555
456.000	310.746	80.003	19.993	104.339	19.597	34.623	0.550
464.001	314.995	80.003	19.994	104.305	19.680	28.283	0.527
472.000	319.192	80.007	19.994	104.294	19.733	24.236	0.546
480.000	323.299	80.005	19.994	104.271	19.762	22.047	0.502
488.000	327.404	80.006	19.991	104.260	19.779	20.724	0.498
496.000	331.545	80.008	19.992	104.254	19.785	20.282	0.536
504.001	335.638	80.006	19.993	104.258	19.774	21.118	0.490
512.000	339.666	80.005	19.994	104.255	19.756	22.484	0.486
520.000	343.664	80.004	19.993	104.255	19.715	25.573	0.481
528.001	347.612	80.005	19.992	104.255	19.657	30.067	0.474
536.000	351.654	80.005	19.994	104.250	19.565	37.068	0.496
544.000	355.705	80.004	19.993	104.258	19.438	46.803	0.485
552.000	359.744	80.007	19.993	104.263	19.249	61.301	0.527
560.000	363.740	80.007	19.993	104.263	19.015	79.181	0.499
568.000	367.689	80.005	19.993	104.294	18.702	103.167	0.477
576.001	371.631	80.006	19.993	104.304	18.338	131.040	0.461
584.000	375.562	80.006	19.993	104.270	17.951	160.574	0.503
592.001	379.384	80.004	19.992	104.269	17.576	189.205	0.468
600.000	383.229	80.003	19.994	104.183	17.316	208.986	0.498
608.000	387.106	80.005	19.994	104.142	17.215	216.664	0.473
616.000	391.023	80.005	19.994	104.113	17.307	209.605	0.553
624.000	395.017	80.003	19.993	104.104	17.588	188.153	0.537
632.000	399.063	80.003	19.994	104.127	17.984	157.891	0.499
640.000	403.157	80.006	19.994	104.096	18.436	123.336	0.492
648.000	407.272	80.007	19.993	104.105	18.859	90.981	0.508
656.001	411.418	80.005	19.993	104.114	19.212	64.036	0.545
664.001	415.487	80.007	19.993	104.144	19.484	43.221	0.519
672.000	419.525	80.007	19.994	104.145	19.675	28.647	0.537
680.000	423.590	80.006	19.993	104.151	19.807	18.526	0.503
688.000	427.711	80.006	19.994	104.163	19.889	12.268	0.480
696.000	431.424	80.004	19.993	104.149	19.935	8.774	0.609
704.001	435.735	80.005	19.994	104.181	19.959	6.959	0.703
712.001	439.665	80.003	19.994	104.182	19.978	5.477	0.476
720.000	443.583	80.005	19.993	104.183	19.985	4.945	0.511
728.000	447.543	80.005	19.994	104.177	19.992	4.381	0.497
736.000	451.549	80.004	19.994	104.180	19.992	4.417	0.498
744.000	455.549	80.007	19.995	104.181	19.996	4.092	0.501
752.000	459.597	80.007	19.992	104.186	19.994	4.285	0.486
760.001	463.817	80.004	19.993	104.191	19.996	4.122	0.502
768.000	468.051	80.005	19.993	104.189	20.001	3.716	0.537
776.000	472.281	80.005	19.993	104.189	20.000	3.819	0.514
784.001	476.450	80.005	19.993	104.185	19.996	4.100	0.515
792.001	480.430	80.004	19.994	104.180	20.000	3.811	0.496
800.000	484.365	80.007	19.994	104.182	19.996	4.127	0.529
808.000	488.322	80.007	19.994	104.183	19.995	4.142	0.484
816.001	492.381	80.006	19.993	104.182	19.994	4.225	0.523
824.001	496.508	80.005	19.995	104.180	19.995	4.173	0.521
832.000	500.579	80.007	19.993	104.184	19.997	4.046	0.487
840.001	504.697	80.006	19.993	104.187	19.998	3.970	0.491
848.000	508.825	80.005	19.994	104.185	20.003	3.584	0.523
856.000	512.787	80.005	19.993	104.188	20.000	3.811	0.509
864.000	516.826	80.005	19.994	104.179	19.995	4.178	0.520
872.000	520.876	80.004	19.994	104.174	19.997	4.050	0.486
880.000	524.921	80.006	19.995	104.183	19.997	4.046	0.527
888.000	528.929	80.005	19.994	104.184	19.997	4.044	0.508
896.001	533.108	80.007	19.994	104.198	19.999	3.895	0.524
904.001	537.479	80.005	19.994	104.190	19.997	3.996	0.571
912.000	541.872	80.007	19.994	104.191	19.997	3.998	0.545
920.000	546.285	80.005	19.994	104.191	19.997	4.050	0.554
928.001	550.704	80.004	19.995	104.187	19.997	4.021	0.528
936.000	555.051	80.002	19.994	104.191	19.999	3.878	0.561
944.000	559.280	80.004	19.995	104.184	20.001	3.744	0.525
952.000	563.427	80.004	19.994	104.185	19.998	3.922	0.490
960.000	567.507	80.003	19.994	104.182	19.994	4.251	0.524
968.000	571.467	80.006	19.994	104.180	20.001	3.689	0.504
976.000	575.444	80.005	19.994	104.183	19.997	4.040	0.499
984.000	579.383	80.005	19.995	104.185	19.999	3.865	0.506
992.000	583.286	80.007	19.995	104.185	19.994	4.259	0.482
1000.000	587.200	80.007	19.994	104.180	19.997	4.054	0.480
1008.000	591.226	80.004	19.996	104.183	19.996	4.127	0.482
1016.001	595.258	80.004	19.995	104.188	19.992	4.387	0.510
1024.001	599.289	80.005	19.994	104.178	19.991	4.478	0.501
1032.000	603.370	80.005	19.994	104.185	19.995	4.146	0.516
1040.000	607.463	80.004	19.993	104.186	19.989	4.641	0.548
1048.001	611.587	80.004	19.994	104.185	19.993	4.307	0.520
1056.001	615.747	80.007	19.994	104.198	19.995	4.199	0.545
1064.000	619.913	80.006	19.992	104.186	19.993	4.307	0.517
1072.000	624.071	80.006	19.994	104.182	19.995	4.184	0.519
1080.001	628.244	80.007	19.995	104.176	19.990	4.559	0.512
1088.000	632.367	80.007	19.994	104.174	19.988	4.687	0.534
1096.000	636.501	80.006	19.993	104.182	19.988	4.733	0.497
1104.000	640.677	80.005	19.995	104.183	19.988	4.708	0.553
1112.001	644.726	80.003	19.995	104.171	19.990	4.557	0.510
1120.000	648.758	80.005	19.994	104.180	19.992	4.385	0.491
1128.000	652.761	80.004	19.993	104.174	19.992	4.419	0.499
1136.000	656.718	80.006	19.994	104.180	19.991	4.475	0.490
1144.001	660.706	80.005	19.994	104.178	19.988	4.712	0.467
1152.000	664.686	80.006	19.994	104.177	19.989	4.632	0.484
1160.001	668.639	80.008	19.993	104.169	19.990	4.570	0.486
1168.000	672.626	80.008	19.993	104.173	19.991	4.456	0.503
1176.001	676.653	80.004	19.993	104.182	19.990	4.553	0.516
1184.001	680.666	80.004	19.993	104.184	19.989	4.618	0.519
1192.000	684.689	80.005	19.994	104.184	19.992	4.400	0.537
1200.001	688.771	80.005	19.995	104.178	19.990	4.584	0.540
1208.001	692.811	80.004	19.995	104.180	19.992	4.414	0.497
1216.001	696.942	80.007	19.994	104.175	19.986	4.879	0.506
1224.000	701.033	80.007	19.993	104.177	19.990	4.563	0.529
1232.000	705.072	80.006	19.993	104.175	19.986	4.861	0.469
1240.001	709.071	80.006	19.993	104.167	19.988	4.674	0.494
1248.000	713.001	80.007	19.993	104.181	19.987	4.798	0.507
1256.001	716.958	80.005	19.994	104.183	19.986	4.871	0.458
1264.001	720.891	80.005	19.993	104.179	19.985	4.922	0.503
1272.000	724.930	80.005	19.994	104.182	19.982	5.184	0.548
1280.000	729.190	80.006	19.994	104.185	19.978	5.469	0.571
1288.000	733.648	80.005	19.994	104.185	19.981	5.219	0.581
1296.000	738.037	80.004	19.994	104.184	19.986	4.877	0.559
1304.000	742.271	80.005	19.994	104.164	19.986	4.859	0.521
1306.500	743.554	80.005	19.994	104.176	19.982	5.146	0.475