File: 01_Data/Roof_Felt/MCC/Roof_Felt_MCC_30K_min_210929_R1.txt
Sample ID:	C:\MCC\MCC Cal\Test\Roof_Felt_MCC_30K_min_2109299_R1.txt
Sample Weight (mg):	4.68
Heating Rate (C/s):	0.5
Combustor Temp (C):	900
N2 Flow Rate (cc/min):	80
O2 Flow Rate (cc/min):	20
Calibration File:	C:\MCC\MCC Cal\Coeff1 JN10440_30_210304.txt.txt
T Correction Coefficients:	0	1.024463	0
Time Shift (s):	14
*
Time (s)	Temperature (C)	N2 flow rate (cc/min)	O2 flow rate (cc/min)	Flow Rate (cc/min)	Oxygen (%)	HRR (W/g)	Heating rate (C/s)
0.000	107.701	80.007	19.995	100.636	20.058	0.138	0.002
8.001	107.727	80.001	19.996	100.630	20.058	0.136	0.009
16.000	107.723	80.005	19.996	100.656	20.056	0.298	0.012
24.000	107.845	80.004	19.995	100.697	20.046	0.959	0.005
32.001	108.244	79.997	19.997	100.803	20.028	2.169	0.061
40.000	109.217	79.987	19.996	100.838	20.021	2.618	0.151
48.000	110.533	80.002	19.996	100.842	20.018	2.835	0.202
56.000	112.216	79.998	19.995	100.860	20.014	3.109	0.219
64.000	114.310	80.005	19.994	100.843	20.015	3.033	0.271
72.000	116.625	80.002	19.996	100.851	20.010	3.337	0.304
80.000	119.199	80.010	19.994	100.876	20.008	3.491	0.331
88.000	121.979	80.014	19.994	100.872	20.009	3.449	0.358
96.000	124.875	79.993	19.996	100.873	20.007	3.589	0.387
104.000	128.083	79.999	19.996	100.881	20.006	3.601	0.429
112.001	131.386	80.001	19.996	100.885	20.009	3.438	0.429
120.001	134.870	80.003	19.994	100.909	20.008	3.525	0.426
128.000	138.499	80.000	19.996	100.901	20.004	3.737	0.449
136.000	142.260	80.004	19.995	100.908	20.001	3.948	0.492
144.000	146.196	80.002	19.995	100.896	20.005	3.724	0.519
152.000	150.082	79.998	19.995	100.880	20.003	3.813	0.502
160.000	154.105	79.996	19.996	100.875	20.005	3.674	0.462
168.000	158.132	80.016	19.993	100.876	20.007	3.581	0.494
176.000	162.173	79.996	19.997	100.866	20.011	3.285	0.428
184.000	166.117	80.002	19.996	100.871	20.012	3.238	0.507
192.000	170.164	80.003	19.996	100.871	20.012	3.244	0.472
200.000	174.176	80.007	19.995	100.866	20.004	3.786	0.522
208.000	178.214	80.005	19.996	100.839	20.004	3.737	0.596
216.000	181.854	80.018	19.993	100.837	20.004	3.757	0.472
224.000	185.732	80.002	19.996	100.843	20.009	3.453	0.533
232.000	189.597	80.012	19.993	100.833	20.005	3.728	0.505
240.000	193.489	80.004	19.995	100.838	20.006	3.637	0.473
248.000	197.340	80.004	19.994	100.836	20.004	3.748	0.537
256.000	201.093	80.002	19.995	100.835	20.002	3.915	0.461
264.000	204.879	80.006	19.994	100.839	19.996	4.274	0.502
272.000	208.667	80.011	19.994	100.838	19.991	4.649	0.500
280.000	212.396	80.009	19.994	100.838	19.987	4.896	0.462
288.000	216.271	80.002	19.996	100.842	19.985	5.015	0.480
296.000	220.174	80.006	19.996	100.847	19.980	5.352	0.524
304.000	224.204	80.011	19.995	100.840	19.971	5.965	0.476
312.000	228.216	80.005	19.995	100.842	19.969	6.143	0.483
320.000	232.308	79.997	19.995	100.841	19.959	6.799	0.478
328.001	236.398	80.001	19.994	100.837	19.957	6.951	0.514
336.000	240.400	79.999	19.996	100.837	19.948	7.526	0.486
344.000	244.448	80.003	19.993	100.834	19.937	8.269	0.502
352.000	248.427	80.010	19.996	100.841	19.927	8.937	0.481
360.000	252.535	79.996	19.997	100.835	19.914	9.781	0.487
368.000	256.559	80.008	19.997	100.846	19.900	10.785	0.494
376.000	260.551	80.000	19.997	100.848	19.887	11.652	0.454
384.001	264.591	79.994	19.997	100.845	19.873	12.555	0.504
392.000	268.594	80.000	19.995	100.843	19.855	13.748	0.529
400.000	272.651	80.011	19.995	100.839	19.834	15.202	0.487
408.000	276.659	80.017	19.992	100.858	19.816	16.388	0.509
416.000	280.684	80.000	19.995	100.872	19.791	18.058	0.502
424.000	284.765	80.011	19.994	100.869	19.763	19.940	0.523
432.000	288.756	80.001	19.995	100.855	19.740	21.515	0.497
440.000	292.763	80.001	19.994	100.874	19.709	23.592	0.506
448.000	296.680	79.999	19.995	100.876	19.686	25.143	0.469
456.000	300.658	80.002	19.997	100.876	19.649	27.614	0.511
464.000	304.647	79.999	19.996	100.882	19.615	29.899	0.486
472.000	308.643	80.011	19.994	100.876	19.584	31.982	0.494
480.000	312.689	79.998	19.997	100.892	19.555	33.958	0.515
488.000	316.821	80.001	19.997	100.902	19.517	36.506	0.538
496.000	320.894	80.005	19.996	100.904	19.479	39.094	0.514
504.000	324.918	80.006	19.994	100.908	19.435	42.048	0.502
512.000	328.908	80.010	19.993	100.914	19.389	45.176	0.517
520.000	332.869	80.002	19.996	100.939	19.341	48.387	0.484
528.000	336.965	80.003	19.995	100.953	19.286	52.087	0.519
536.000	341.098	80.002	19.996	100.958	19.223	56.350	0.519
544.000	345.160	80.004	19.997	100.978	19.147	61.434	0.500
552.000	349.284	80.002	19.996	100.989	19.080	65.934	0.526
560.000	353.404	80.005	19.996	100.981	19.018	70.135	0.492
568.000	357.508	80.007	19.994	100.959	18.984	72.386	0.474
576.000	361.605	80.003	19.995	100.918	18.992	71.820	0.488
584.000	365.580	80.001	19.997	100.879	19.047	68.054	0.495
592.000	369.531	80.003	19.996	100.837	19.145	61.488	0.497
600.000	373.462	80.004	19.995	100.800	19.253	54.197	0.498
608.000	377.366	80.005	19.995	100.782	19.337	48.580	0.475
616.000	381.340	80.002	19.997	100.767	19.398	44.492	0.492
624.000	385.311	80.007	19.995	100.760	19.422	42.835	0.523
632.000	389.295	80.005	19.996	100.771	19.420	42.974	0.518
640.000	393.278	80.004	19.995	100.785	19.405	44.029	0.542
648.001	397.231	80.006	19.995	100.771	19.386	45.282	0.497
656.000	401.233	80.006	19.994	100.764	19.360	47.051	0.518
664.000	405.228	80.004	19.995	100.770	19.333	48.853	0.516
672.000	409.252	80.004	19.996	100.774	19.304	50.799	0.526
680.000	413.259	80.003	19.996	100.776	19.262	53.569	0.501
688.000	417.381	80.006	19.995	100.758	19.225	56.084	0.520
696.000	421.561	80.005	19.995	100.764	19.178	59.214	0.531
704.000	425.748	80.003	19.996	100.763	19.130	62.459	0.508
712.000	429.844	80.006	19.996	100.762	19.092	65.037	0.503
720.000	433.914	80.003	19.995	100.763	19.051	67.754	0.512
728.001	437.979	80.005	19.995	100.739	19.023	69.652	0.534
736.000	441.938	80.010	19.994	100.735	19.006	70.772	0.484
744.000	445.836	80.002	19.997	100.723	18.998	71.344	0.475
752.000	449.725	80.002	19.996	100.721	19.008	70.632	0.476
760.000	453.626	80.005	19.996	100.732	19.037	68.678	0.533
768.000	457.596	80.003	19.996	100.746	19.087	65.315	0.497
776.000	461.621	80.002	19.998	100.758	19.157	60.651	0.518
784.000	465.737	80.003	19.994	100.760	19.240	55.095	0.506
792.000	469.918	80.005	19.997	100.754	19.332	48.896	0.498
800.000	474.124	80.006	19.996	100.762	19.436	41.941	0.542
808.000	478.305	80.003	19.996	100.758	19.536	35.212	0.491
816.000	482.440	80.009	19.993	100.761	19.629	28.932	0.478
824.000	486.658	80.008	19.994	100.726	19.707	23.717	0.538
832.000	490.898	80.002	19.997	100.784	19.770	19.507	0.537
840.000	495.210	80.004	19.998	100.761	19.819	16.201	0.554
848.000	499.560	80.006	19.996	100.760	19.855	13.784	0.554
856.000	503.889	80.003	19.995	100.755	19.882	11.930	0.529
864.000	508.220	80.002	19.997	100.754	19.905	10.380	0.524
872.000	512.488	80.003	20.005	100.751	19.921	9.365	0.511
880.000	516.777	80.007	19.994	100.736	19.934	8.472	0.542
888.000	521.011	80.007	19.999	100.755	19.941	7.972	0.559
896.000	525.238	80.008	19.992	100.730	19.943	7.834	0.552
904.000	529.323	80.007	19.995	100.744	19.952	7.220	0.495
912.000	533.404	80.004	19.995	100.756	19.952	7.273	0.501
920.000	537.522	80.003	19.996	100.762	19.955	7.018	0.521
928.000	541.558	80.006	19.996	100.755	19.956	6.972	0.483
936.000	545.582	80.006	19.997	100.746	19.955	7.060	0.492
944.000	549.564	80.004	19.995	100.751	19.960	6.687	0.505
952.000	553.552	80.003	19.996	100.749	19.958	6.833	0.479
960.000	557.552	80.006	19.996	100.728	19.956	6.964	0.452
968.000	561.508	80.004	19.995	100.729	19.957	6.907	0.537
976.000	565.369	80.011	19.991	100.745	19.955	7.060	0.484
984.000	569.295	80.008	19.994	100.758	19.957	6.887	0.505
992.000	573.249	80.005	19.997	100.748	19.957	6.908	0.505
1000.000	577.229	80.005	19.992	100.735	19.957	6.913	0.481
1008.000	581.241	80.008	19.993	100.757	19.956	6.964	0.479
1016.000	585.262	80.012	19.993	100.746	19.956	6.971	0.490
1024.000	589.278	80.009	19.996	100.759	19.954	7.100	0.510
1032.001	593.386	80.003	19.998	100.760	19.954	7.111	0.526
1040.000	597.633	80.006	19.997	100.758	19.958	6.837	0.543
1048.000	601.839	80.012	19.993	100.750	19.958	6.840	0.549
1056.000	606.045	79.999	20.007	100.756	19.952	7.243	0.508
1064.001	610.066	80.007	19.995	100.748	19.954	7.088	0.475
1072.000	614.154	80.002	19.992	100.757	19.959	6.774	0.500
1080.000	618.163	80.005	19.992	100.750	19.953	7.177	0.488
1088.000	622.080	80.002	19.993	100.742	19.957	6.902	0.493
1096.000	626.041	80.005	19.998	100.759	19.954	7.119	0.538
1104.000	630.077	80.004	19.994	100.761	19.957	6.944	0.531
1112.000	634.231	80.006	19.995	100.767	19.954	7.107	0.536
1120.001	638.357	80.003	19.999	100.758	19.954	7.142	0.501
1128.000	642.455	80.009	19.997	100.758	19.954	7.122	0.491
1136.001	646.556	80.005	19.996	100.759	19.954	7.093	0.509
1144.000	650.646	80.005	19.995	100.756	19.950	7.409	0.554
1152.000	654.780	80.009	19.996	100.757	19.951	7.299	0.581
1160.000	658.852	80.003	19.997	100.758	19.950	7.393	0.525
1168.000	662.960	80.005	19.994	100.759	19.950	7.370	0.520
1176.001	667.228	80.008	19.994	100.757	19.951	7.322	0.552
1184.000	671.504	80.003	19.998	100.758	19.949	7.442	0.545
1192.001	675.775	80.005	19.995	100.761	19.948	7.545	0.539
1200.001	679.869	80.005	19.995	100.757	19.944	7.786	0.471
1208.000	683.876	80.008	19.994	100.753	19.942	7.904	0.495
1216.000	687.769	80.007	19.995	100.758	19.947	7.610	0.476
1224.000	691.598	80.005	19.997	100.733	19.945	7.744	0.473
1232.000	695.487	80.005	19.994	100.748	19.949	7.419	0.472
1240.000	699.505	80.006	19.995	100.736	19.949	7.438	0.541
1248.000	703.583	80.004	19.996	100.732	19.946	7.681	0.504
1256.001	707.744	80.005	19.995	100.729	19.945	7.720	0.490
1264.001	711.869	80.005	19.995	100.739	19.941	8.000	0.503
1272.001	716.023	80.005	19.996	100.724	19.943	7.829	0.547
1280.000	720.068	80.003	19.997	100.737	19.945	7.709	0.533
1288.000	724.172	80.005	19.996	100.729	19.943	7.869	0.493
1296.000	728.279	80.008	19.994	100.724	19.941	7.978	0.506
1304.001	732.339	80.007	19.994	100.727	19.940	8.069	0.488
1312.000	736.313	80.006	19.993	100.725	19.943	7.887	0.488
1320.001	740.285	80.009	19.995	100.728	19.943	7.824	0.518
1327.000	743.783	80.006	19.995	100.724	19.944	7.778	0.485