File: 01_Data/Roof_Felt/MCC/Roof_Felt_MCC_30K_min_210929_R2.txt
Sample ID:	C:\MCC\MCC Cal\Test\Roof_Felt_MCC_30K_min_2109299_R2.txt
Sample Weight (mg):	5
Heating Rate (C/s):	0.5
Combustor Temp (C):	900
N2 Flow Rate (cc/min):	80
O2 Flow Rate (cc/min):	20
Calibration File:	C:\MCC\MCC Cal\Coeff1 JN10440_30_210304.txt.txt
T Correction Coefficients:	0	1.024463	0
Time Shift (s):	14
*
Time (s)	Temperature (C)	N2 flow rate (cc/min)	O2 flow rate (cc/min)	Flow Rate (cc/min)	Oxygen (%)	HRR (W/g)	Heating rate (C/s)
-0.001	106.539	80.002	19.995	100.682	19.972	0.121	0.004
8.000	106.528	80.003	19.995	100.688	19.966	0.488	-0.006
16.000	106.535	80.004	19.997	100.708	19.971	0.175	-0.014
24.000	106.667	80.003	19.996	100.754	19.964	0.622	0.041
32.000	107.013	80.003	19.997	100.859	19.946	1.717	0.084
39.999	107.934	80.002	19.994	100.911	19.929	2.782	0.157
47.999	109.280	80.004	19.994	100.902	19.927	2.958	0.181
55.999	110.940	80.005	19.994	100.898	19.927	2.956	0.224
63.999	112.900	80.004	19.996	100.891	19.930	2.762	0.267
71.999	115.129	80.003	19.995	100.914	19.929	2.817	0.290
80.000	117.469	80.005	19.996	100.915	19.924	3.107	0.293
87.999	120.074	80.004	19.994	100.914	19.923	3.204	0.338
96.000	122.851	80.002	19.996	100.925	19.927	2.920	0.339
103.999	125.753	80.002	19.996	100.924	19.924	3.090	0.382
111.999	128.776	80.005	19.996	100.953	19.922	3.244	0.378
119.999	131.954	80.003	19.995	100.938	19.919	3.433	0.374
128.000	135.222	80.002	19.997	100.951	19.921	3.310	0.415
136.000	138.531	80.004	19.995	100.948	19.911	3.909	0.415
144.000	142.014	80.005	19.997	100.951	19.913	3.803	0.450
152.000	145.572	80.003	19.996	100.944	19.911	3.936	0.482
160.000	149.221	80.003	19.996	100.951	19.918	3.469	0.488
168.000	152.892	80.002	19.995	100.946	19.918	3.491	0.473
176.000	156.609	80.005	19.994	100.956	19.914	3.759	0.486
184.000	160.349	80.002	19.995	100.959	19.913	3.826	0.498
192.000	164.221	80.002	19.996	100.952	19.906	4.246	0.477
200.000	168.139	80.003	19.996	100.931	19.905	4.304	0.477
208.000	172.121	80.003	19.996	100.922	19.905	4.286	0.510
216.000	176.077	80.007	19.997	100.929	19.908	4.130	0.504
224.000	180.108	79.997	19.996	100.921	19.904	4.392	0.510
232.000	184.191	80.002	19.995	100.915	19.900	4.602	0.497
240.000	188.258	79.986	19.999	100.918	19.902	4.503	0.504
248.001	192.227	79.998	19.997	100.919	19.903	4.463	0.474
256.000	196.255	80.002	19.995	100.916	19.898	4.755	0.509
264.000	200.274	80.006	19.996	100.908	19.902	4.506	0.500
272.000	204.191	80.004	19.994	100.914	19.894	5.007	0.504
280.000	208.164	80.004	19.996	100.906	19.888	5.391	0.500
288.000	211.989	80.003	19.997	100.894	19.888	5.380	0.464
296.000	215.901	79.998	19.998	100.921	19.880	5.903	0.461
304.000	219.792	80.005	19.996	100.890	19.879	5.943	0.492
312.000	223.695	80.003	19.996	100.891	19.870	6.511	0.504
320.000	227.595	80.003	19.996	100.903	19.866	6.773	0.484
328.000	231.590	80.006	19.994	100.896	19.860	7.148	0.511
336.000	235.525	80.005	19.996	100.880	19.852	7.667	0.498
344.000	239.465	80.007	19.994	100.893	19.844	8.142	0.498
352.000	243.413	80.008	19.994	100.901	19.833	8.822	0.489
360.000	247.332	80.000	19.995	100.901	19.822	9.541	0.467
368.000	251.361	80.010	19.993	100.910	19.809	10.381	0.529
376.000	255.333	80.005	19.994	100.898	19.798	11.073	0.463
384.000	259.337	80.002	19.996	100.902	19.786	11.799	0.539
392.000	263.241	80.013	19.995	100.903	19.767	12.990	0.504
400.000	267.225	80.006	19.996	100.902	19.750	14.105	0.516
408.000	271.167	80.010	19.997	100.910	19.733	15.163	0.516
416.000	275.101	80.006	19.994	100.912	19.712	16.459	0.508
424.000	279.047	80.009	19.994	100.913	19.688	17.995	0.498
432.000	283.001	80.002	19.996	100.918	19.659	19.837	0.510
440.000	287.003	80.007	19.994	100.917	19.635	21.304	0.488
448.000	291.019	80.014	19.994	100.920	19.607	23.087	0.538
456.001	294.989	80.005	19.994	100.925	19.576	25.013	0.501
464.000	298.878	80.008	19.995	100.923	19.543	27.089	0.473
472.000	302.757	80.007	19.996	100.942	19.513	28.979	0.503
480.000	306.720	80.004	19.996	100.941	19.476	31.336	0.499
488.000	310.775	79.998	19.997	100.949	19.442	33.463	0.528
496.000	314.867	80.005	19.995	100.950	19.404	35.850	0.512
504.000	318.929	80.002	19.996	100.948	19.364	38.378	0.517
512.000	322.885	80.000	19.996	100.956	19.325	40.853	0.459
520.000	326.964	80.004	19.998	100.967	19.277	43.920	0.493
528.000	330.959	80.011	19.993	100.975	19.225	47.141	0.492
536.000	335.030	80.006	19.995	100.991	19.170	50.671	0.522
544.000	339.039	80.010	19.996	100.999	19.102	54.933	0.495
552.000	343.004	80.003	19.995	101.028	19.031	59.428	0.472
560.000	346.991	80.004	19.996	101.038	18.961	63.854	0.505
568.000	350.927	79.999	19.994	101.036	18.899	67.733	0.465
576.000	355.017	80.001	19.996	101.034	18.854	70.542	0.515
584.000	358.973	80.003	19.995	101.010	18.841	71.357	0.505
592.000	363.063	80.007	19.996	100.971	18.875	69.172	0.519
600.000	367.159	80.002	19.995	100.915	18.950	64.410	0.493
608.000	371.282	80.000	19.998	100.873	19.052	57.961	0.512
616.000	375.486	80.006	19.994	100.831	19.156	51.412	0.548
624.000	379.658	80.006	19.999	100.829	19.235	46.445	0.538
632.000	383.771	80.000	19.993	100.832	19.271	44.179	0.473
640.000	387.846	80.003	19.996	100.832	19.280	43.640	0.477
648.000	391.951	80.007	19.998	100.816	19.269	44.313	0.522
656.000	395.967	80.005	20.002	100.827	19.251	45.466	0.507
664.000	399.916	80.002	19.998	100.812	19.225	47.070	0.472
672.000	403.841	79.999	20.003	100.823	19.198	48.759	0.500
680.001	407.783	80.004	19.995	100.817	19.166	50.818	0.518
688.000	411.682	80.001	19.997	100.812	19.132	52.910	0.485
696.000	415.563	80.009	19.996	100.810	19.100	54.965	0.447
704.000	419.593	80.000	19.993	100.814	19.062	57.348	0.516
712.000	423.722	80.010	19.993	100.824	19.020	60.006	0.499
720.000	427.866	80.001	19.997	100.812	18.975	62.830	0.484
728.000	432.203	80.006	19.995	100.798	18.930	65.627	0.548
736.000	436.402	80.007	19.994	100.796	18.888	68.291	0.550
744.000	440.545	80.007	19.993	100.795	18.857	70.201	0.520
752.000	444.647	80.003	19.992	100.789	18.835	71.589	0.539
760.000	448.678	80.005	19.997	100.796	18.839	71.345	0.504
768.000	452.633	80.004	19.993	100.779	18.858	70.190	0.476
776.000	456.618	80.004	19.994	100.790	18.903	67.314	0.481
784.000	460.496	80.006	19.993	100.795	18.976	62.766	0.486
792.001	464.458	80.006	19.996	100.797	19.062	57.358	0.468
800.000	468.485	80.005	19.992	100.793	19.170	50.572	0.515
808.000	472.505	80.010	19.995	100.800	19.280	43.626	0.522
816.000	476.677	80.005	19.994	100.812	19.384	37.082	0.537
824.000	480.714	80.006	19.993	100.811	19.489	30.474	0.489
832.000	484.744	80.004	19.996	100.831	19.576	24.985	0.459
840.000	488.832	80.007	19.992	100.841	19.645	20.697	0.530
848.000	492.980	80.004	19.998	100.837	19.698	17.317	0.574
856.000	497.159	80.006	19.998	100.835	19.741	14.608	0.506
864.000	501.320	80.005	19.997	100.834	19.779	12.228	0.554
872.000	505.434	80.009	19.998	100.826	19.801	10.834	0.512
880.000	509.494	80.006	19.996	100.832	19.821	9.617	0.521
888.000	513.392	80.006	19.997	100.825	19.842	8.261	0.479
896.000	517.476	80.006	19.994	100.832	19.846	8.010	0.520
904.000	521.523	80.005	19.994	100.825	19.854	7.512	0.485
912.000	525.641	80.003	19.997	100.827	19.860	7.145	0.526
920.000	529.738	80.008	19.997	100.796	19.871	6.476	0.498
928.000	533.935	80.004	19.995	100.800	19.870	6.530	0.535
936.000	538.345	80.005	19.996	100.800	19.873	6.344	0.533
944.000	542.843	80.007	19.994	100.800	19.872	6.400	0.536
952.000	547.385	80.007	19.995	100.800	19.874	6.259	0.567
960.000	552.024	80.005	19.995	100.800	19.878	6.024	0.583
968.000	556.627	80.007	19.994	100.801	19.884	5.645	0.580
976.000	561.214	80.005	19.996	100.799	19.881	5.807	0.580
984.000	565.623	80.006	19.996	100.796	19.882	5.747	0.542
992.000	570.049	80.006	19.995	100.799	19.881	5.814	0.559
1000.000	574.335	80.007	19.995	100.798	19.882	5.732	0.537
1008.000	578.513	80.007	19.995	100.796	19.881	5.790	0.500
1016.000	582.586	80.005	19.995	100.799	19.882	5.739	0.493
1024.000	586.613	80.007	19.995	100.799	19.884	5.647	0.522
1031.999	590.559	80.007	19.995	100.799	19.885	5.582	0.487
1039.999	594.561	80.006	19.996	100.802	19.886	5.492	0.496
1047.999	598.550	80.009	19.996	100.797	19.885	5.545	0.513
1056.000	602.454	80.007	19.994	100.794	19.885	5.591	0.481
1064.000	606.427	80.005	19.995	100.796	19.883	5.681	0.504
1071.999	610.479	80.005	19.996	100.796	19.880	5.872	0.495
1079.999	614.615	80.006	19.995	100.795	19.881	5.821	0.546
1087.999	618.706	80.005	19.995	100.800	19.881	5.797	0.500
1095.999	622.788	80.005	19.995	100.801	19.884	5.634	0.527
1104.000	626.934	80.006	19.994	100.803	19.882	5.729	0.495
1111.999	631.066	80.008	19.995	100.813	19.885	5.548	0.530
1120.000	635.220	80.006	19.995	100.796	19.883	5.705	0.519
1128.000	639.415	80.007	19.994	100.800	19.883	5.705	0.507
1136.000	643.549	80.008	19.995	100.796	19.883	5.684	0.530
1144.000	647.531	80.005	19.995	100.796	19.885	5.576	0.521
1151.999	651.560	80.007	19.995	100.800	19.884	5.612	0.513
1159.999	655.603	80.005	19.996	100.808	19.887	5.474	0.512
1167.999	659.572	80.004	19.996	100.802	19.883	5.676	0.489
1175.999	663.527	80.005	19.995	100.801	19.884	5.652	0.478
1183.999	667.298	80.006	19.995	100.798	19.890	5.286	0.456
1191.999	671.005	80.007	19.995	100.798	19.886	5.533	0.446
1199.999	674.789	80.006	19.994	100.801	19.884	5.603	0.487
1208.001	678.595	80.006	19.995	100.815	19.883	5.724	0.514
1215.999	682.681	80.007	19.995	100.820	19.883	5.693	0.530
1224.000	687.051	80.005	19.994	100.823	19.884	5.654	0.560
1231.999	691.618	80.005	19.995	100.821	19.880	5.883	0.563
1239.999	696.217	80.005	19.996	100.831	19.882	5.774	0.561
1247.999	700.787	80.006	19.995	100.827	19.878	6.003	0.559
1255.999	705.324	80.004	19.997	100.793	19.881	5.809	0.598
1263.999	709.821	80.005	19.997	100.796	19.882	5.746	0.557
1271.999	714.211	80.007	19.995	100.808	19.877	6.073	0.515
1279.999	718.533	80.007	19.994	100.796	19.879	5.938	0.515
1287.999	722.739	80.007	19.995	100.798	19.885	5.543	0.510
1295.999	726.878	80.008	19.994	100.796	19.884	5.637	0.495
1303.999	731.003	80.007	19.994	100.798	19.882	5.728	0.540
1311.999	735.071	80.005	19.995	100.793	19.882	5.757	0.513
1319.999	739.135	80.007	19.995	100.795	19.883	5.700	0.501
1327.999	743.204	80.006	19.995	100.796	19.882	5.780	0.499
1328.499	743.445	80.006	19.995	100.795	19.881	5.798	0.498