File: 01_Data/PC/MCC/PC_MCC_30K_min_210921_R3.txt
Sample ID:	C:\MCC\MCC Cal\Test\PC_MCC_30K_min_210921_R3.txt
Sample Weight (mg):	4.83
Heating Rate (C/s):	0.5
Combustor Temp (C):	900
N2 Flow Rate (cc/min):	80
O2 Flow Rate (cc/min):	20
Calibration File:	C:\MCC\MCC Cal\Coeff1 JN10440_30_210304.txt.txt
T Correction Coefficients:	0	1.024463	0
Time Shift (s):	14
*
Time (s)	Temperature (C)	N2 flow rate (cc/min)	O2 flow rate (cc/min)	Flow Rate (cc/min)	Oxygen (%)	HRR (W/g)	Heating rate (C/s)
0.000	109.475	79.996	19.995	100.139	19.973	0.103	-0.002
8.000	109.438	79.995	19.994	100.148	19.974	0.059	-0.030
16.000	109.445	79.997	19.995	100.160	19.973	0.122	0.008
24.000	109.503	80.000	19.996	100.256	19.958	1.110	0.030
32.000	109.992	79.999	19.996	100.310	19.948	1.710	0.078
40.000	110.959	79.999	19.996	100.315	19.941	2.196	0.147
48.000	112.354	80.000	19.995	100.348	19.938	2.377	0.198
56.000	114.123	79.996	19.995	100.351	19.933	2.729	0.225
64.000	116.258	79.995	19.996	100.368	19.934	2.681	0.291
72.001	118.680	79.996	19.996	100.369	19.933	2.725	0.334
80.000	121.404	79.996	19.995	100.398	19.929	2.999	0.363
88.000	124.525	79.995	19.995	100.404	19.924	3.308	0.407
96.000	127.882	79.997	19.996	100.407	19.921	3.502	0.434
104.000	131.518	79.999	19.994	100.394	19.926	3.146	0.480
112.000	135.209	79.999	19.995	100.403	19.926	3.182	0.505
120.000	139.116	79.998	19.994	100.393	19.925	3.222	0.497
128.000	143.083	79.998	19.994	100.391	19.928	3.021	0.518
136.000	147.213	79.996	19.995	100.390	19.933	2.703	0.502
144.000	151.391	79.996	19.995	100.391	19.931	2.854	0.517
152.000	155.591	79.997	19.996	100.363	19.934	2.673	0.537
160.000	159.679	79.997	19.997	100.351	19.931	2.861	0.526
168.000	163.728	79.997	19.996	100.357	19.936	2.550	0.497
176.000	167.795	79.998	19.996	100.351	19.936	2.533	0.473
184.000	171.784	79.998	19.996	100.348	19.942	2.145	0.485
192.000	175.770	79.999	19.995	100.340	19.939	2.345	0.492
200.000	179.707	80.000	19.994	100.337	19.942	2.111	0.460
208.000	183.634	79.999	19.994	100.332	19.946	1.865	0.477
216.000	187.474	79.996	19.996	100.317	19.947	1.797	0.462
224.000	191.374	79.996	19.996	100.312	19.942	2.111	0.499
232.000	195.156	79.996	19.995	100.311	19.940	2.235	0.466
240.000	198.952	79.996	19.996	100.311	19.943	2.064	0.467
248.000	202.779	79.995	19.997	100.313	19.943	2.092	0.462
256.000	206.642	79.998	19.996	100.314	19.948	1.715	0.506
264.000	210.617	79.999	19.994	100.315	19.952	1.468	0.529
272.000	214.513	79.997	19.996	100.315	19.951	1.528	0.508
280.000	218.443	79.999	19.996	100.310	19.950	1.596	0.477
288.000	222.374	79.999	19.996	100.310	19.952	1.502	0.499
296.000	226.182	79.995	19.995	100.312	19.955	1.313	0.429
304.000	230.220	79.997	19.996	100.307	19.955	1.257	0.505
312.000	234.206	79.997	19.996	100.300	19.954	1.357	0.522
320.000	238.070	79.996	19.996	100.295	19.954	1.323	0.484
328.000	241.941	79.994	19.996	100.295	19.956	1.248	0.485
336.000	245.864	79.996	19.996	100.285	19.951	1.533	0.507
344.000	249.847	79.999	19.996	100.285	19.955	1.313	0.506
352.000	253.765	79.998	19.994	100.280	19.954	1.358	0.507
360.000	257.710	79.999	19.995	100.277	19.954	1.340	0.510
368.000	261.674	79.999	19.995	100.271	19.957	1.140	0.480
376.000	265.628	79.997	19.995	100.271	19.957	1.138	0.500
384.000	269.598	79.997	19.995	100.276	19.958	1.063	0.473
392.000	273.638	79.996	19.995	100.274	19.964	0.730	0.503
400.000	277.617	79.996	19.996	100.274	19.961	0.902	0.481
408.000	281.602	79.996	19.996	100.276	19.962	0.855	0.485
416.000	285.665	79.999	19.996	100.269	19.963	0.759	0.490
424.000	289.661	79.998	19.996	100.261	19.964	0.707	0.496
432.000	293.740	79.999	19.996	100.265	19.969	0.412	0.494
440.000	297.647	80.000	19.996	100.263	19.969	0.360	0.493
448.000	301.678	80.000	19.994	100.258	19.967	0.527	0.484
456.000	305.640	79.998	19.996	100.252	19.967	0.527	0.503
464.000	309.670	79.996	19.994	100.260	19.967	0.532	0.492
472.000	313.678	79.997	19.994	100.248	19.968	0.464	0.529
480.000	317.588	79.997	19.996	100.246	19.966	0.604	0.484
488.000	321.736	79.996	19.996	100.236	19.972	0.183	0.496
496.000	325.673	79.999	19.996	100.240	19.968	0.443	0.468
504.000	329.732	79.999	19.996	100.247	19.976	-0.049	0.498
512.000	333.787	79.997	19.996	100.247	19.971	0.220	0.515
520.000	337.876	80.000	19.995	100.246	19.970	0.307	0.541
528.000	341.925	80.000	19.994	100.240	19.973	0.154	0.513
536.000	346.013	79.996	19.995	100.233	19.972	0.185	0.530
544.000	350.056	79.998	19.994	100.235	19.971	0.249	0.500
552.000	354.103	79.997	19.994	100.230	19.969	0.391	0.482
560.000	358.131	79.999	19.994	100.233	19.973	0.091	0.471
568.000	362.153	79.997	19.996	100.233	19.970	0.305	0.499
576.000	366.217	79.998	19.995	100.235	19.970	0.344	0.521
584.000	370.196	80.000	19.995	100.230	19.966	0.567	0.509
592.000	374.305	79.998	19.994	100.231	19.971	0.260	0.514
600.001	378.312	79.999	19.995	100.232	19.973	0.103	0.488
608.000	382.367	80.000	19.996	100.221	19.971	0.230	0.498
616.000	386.387	79.996	19.995	100.221	19.970	0.330	0.504
624.000	390.337	79.997	19.995	100.232	19.968	0.415	0.465
632.000	394.359	79.996	19.994	100.223	19.968	0.424	0.487
640.000	398.372	79.998	19.995	100.226	19.969	0.396	0.521
648.000	402.420	79.996	19.995	100.233	19.974	0.063	0.478
656.000	406.455	79.996	19.995	100.230	19.970	0.295	0.476
664.000	410.505	79.998	19.995	100.230	19.968	0.445	0.501
672.000	414.541	79.999	19.996	100.276	19.968	0.413	0.484
680.000	418.595	79.999	19.996	100.226	19.963	0.799	0.502
688.000	422.689	79.999	19.995	100.211	19.956	1.202	0.500
696.000	426.760	79.997	19.997	100.218	19.949	1.668	0.514
704.000	430.842	79.996	19.995	100.228	19.935	2.605	0.516
712.000	434.919	79.997	19.995	100.232	19.917	3.779	0.526
720.000	438.971	79.995	19.995	100.235	19.892	5.366	0.496
728.000	443.000	79.995	19.997	100.257	19.850	8.082	0.504
736.000	447.092	79.997	19.995	100.248	19.789	12.058	0.514
744.000	451.146	79.998	19.996	100.272	19.705	17.485	0.499
752.000	455.201	79.998	19.995	100.284	19.600	24.242	0.531
760.000	459.250	79.997	19.996	100.299	19.493	31.258	0.504
768.000	463.284	79.999	19.997	100.284	19.624	22.742	0.495
776.000	467.311	79.996	19.995	100.236	19.534	28.536	0.499
784.000	471.456	79.995	19.996	100.339	19.355	40.137	0.551
792.000	475.566	79.996	19.996	100.546	18.913	69.021	0.488
800.000	479.636	79.998	19.995	100.461	18.818	75.054	0.498
808.000	483.617	79.996	19.996	100.160	18.768	78.212	0.492
816.000	487.671	79.997	19.995	100.429	18.562	91.880	0.515
824.000	491.748	79.999	19.996	100.522	18.407	101.571	0.504
832.000	495.825	79.998	19.995	100.290	18.094	122.105	0.493
840.000	499.950	79.999	19.994	100.583	18.078	123.208	0.519
848.000	504.026	79.999	19.996	100.545	17.967	130.443	0.511
856.000	508.015	79.998	19.997	100.613	17.666	150.045	0.521
864.000	512.054	79.997	19.995	100.602	17.416	166.328	0.510
872.000	516.108	79.997	19.996	100.605	17.249	177.179	0.517
880.000	520.200	79.997	19.997	100.621	17.142	184.041	0.540
888.000	524.298	79.996	19.997	100.604	17.169	182.215	0.473
896.000	528.423	79.997	19.996	100.560	17.417	166.002	0.525
904.000	532.494	79.997	19.994	100.474	17.865	136.808	0.466
912.000	536.604	79.998	19.995	100.400	18.432	99.964	0.524
920.000	540.717	79.999	19.995	100.345	18.925	67.995	0.535
928.000	544.794	80.000	19.995	100.275	19.276	45.262	0.498
936.000	548.946	79.998	19.995	100.236	19.500	30.711	0.510
944.000	553.088	79.997	19.996	100.215	19.634	22.088	0.493
952.000	557.313	79.997	19.995	100.194	19.723	16.275	0.541
960.000	561.420	79.996	19.996	100.190	19.775	12.911	0.529
968.000	565.491	79.995	19.996	100.180	19.808	10.812	0.513
976.000	569.538	79.997	19.995	100.190	19.832	9.272	0.495
984.000	573.614	79.998	19.995	100.182	19.840	8.742	0.506
992.000	577.675	79.998	19.996	100.177	19.854	7.802	0.488
1000.000	581.718	79.998	19.995	100.155	19.855	7.746	0.475
1008.000	585.786	80.000	19.996	100.153	19.867	6.952	0.524
1016.000	589.883	79.995	19.995	100.161	19.872	6.682	0.521
1024.000	593.949	79.996	19.994	100.161	19.879	6.203	0.528
1032.000	598.002	79.996	19.995	100.159	19.880	6.111	0.562
1040.000	601.959	79.998	19.996	100.177	19.886	5.739	0.530
1048.000	605.957	79.996	19.996	100.181	19.893	5.308	0.499
1056.000	609.929	79.996	19.997	100.162	19.894	5.230	0.481
1064.000	613.945	80.000	19.996	100.155	19.905	4.514	0.502
1072.000	618.016	79.997	19.994	100.155	19.905	4.547	0.497
1080.000	622.085	79.999	19.996	100.168	19.914	3.959	0.509
1088.000	626.244	80.000	19.994	100.159	19.920	3.544	0.533
1096.000	630.338	79.998	19.995	100.155	19.922	3.434	0.542
1104.000	634.404	79.997	19.996	100.158	19.922	3.412	0.529
1112.001	638.436	79.997	19.995	100.153	19.929	2.990	0.489
1120.001	642.422	79.998	19.995	100.152	19.934	2.639	0.501
1128.000	646.462	79.996	19.997	100.154	19.934	2.624	0.503
1136.000	650.493	79.996	19.995	100.154	19.937	2.481	0.539
1144.000	654.582	80.000	19.996	100.164	19.936	2.498	0.540
1152.000	658.647	79.995	19.997	100.155	19.939	2.289	0.499
1160.000	662.777	80.000	19.995	100.155	19.938	2.362	0.499
1168.000	666.810	80.001	19.994	100.161	19.946	1.874	0.508
1176.000	670.850	79.996	19.996	100.152	19.946	1.888	0.487
1184.001	674.959	79.997	19.995	100.160	19.946	1.848	0.539
1192.001	678.956	79.998	19.994	100.153	19.949	1.689	0.517
1200.000	682.892	79.999	19.997	100.155	19.943	2.050	0.494
1208.000	686.873	79.995	19.997	100.154	19.948	1.735	0.478
1216.000	690.924	79.998	19.996	100.159	19.948	1.768	0.523
1224.000	694.934	79.998	19.994	100.163	19.946	1.857	0.464
1232.000	699.011	79.997	19.996	100.178	19.944	1.986	0.496
1240.000	703.201	79.999	19.996	100.169	19.947	1.777	0.533
1248.000	707.440	79.998	19.995	100.172	19.937	2.471	0.535
1256.000	711.712	79.998	19.995	100.158	19.943	2.064	0.527
1264.000	715.858	79.998	19.996	100.163	19.941	2.198	0.527
1272.000	719.828	79.998	19.995	100.155	19.942	2.101	0.483
1280.000	723.687	79.998	19.994	100.165	19.941	2.167	0.483
1288.001	727.549	79.999	19.993	100.170	19.938	2.417	0.493
1296.000	731.511	79.996	19.995	100.174	19.932	2.792	0.519
1304.000	735.566	79.999	19.994	100.187	19.934	2.633	0.517
1312.000	739.692	79.999	19.995	100.192	19.926	3.190	0.510
1319.500	743.590	80.001	19.997	100.183	19.936	2.546	0.521