File: 01_Data/PC/MCC/PC_MCC_30K_min_211013_O5.txt
Sample ID:	C:\MCC\MCC Cal\Test\PC\PC_MCC_30K_min_211013_R5.txt
Sample Weight (mg):	4.29
Heating Rate (C/s):	0.5
Combustor Temp (C):	900
N2 Flow Rate (cc/min):	80
O2 Flow Rate (cc/min):	20
Calibration File:	C:\MCC\MCC Cal\Coeff1 JN10440_30_210304.txt.txt
T Correction Coefficients:	0	1.024463	0
Time Shift (s):	14
*
Time (s)	Temperature (C)	N2 flow rate (cc/min)	O2 flow rate (cc/min)	Flow Rate (cc/min)	Oxygen (%)	HRR (W/g)	Heating rate (C/s)
-0.001	107.857	79.988	19.996	103.152	20.215	0.068	-0.021
8.000	107.864	79.988	19.997	103.165	20.211	0.365	0.004
16.000	107.926	79.990	19.997	103.231	20.199	1.260	0.040
24.000	108.357	79.990	19.995	103.271	20.190	1.945	0.085
32.000	109.078	79.989	19.996	103.308	20.182	2.538	0.129
39.999	110.136	79.990	19.996	103.319	20.182	2.559	0.149
47.999	111.564	79.990	19.996	103.355	20.175	3.067	0.184
55.999	113.324	79.987	19.993	103.350	20.174	3.175	0.235
64.000	115.336	79.987	19.995	103.363	20.173	3.268	0.256
71.999	117.578	79.989	19.995	103.380	20.169	3.556	0.291
79.999	120.042	79.988	19.997	103.390	20.166	3.796	0.336
87.999	122.799	79.989	19.996	103.391	20.169	3.554	0.351
95.999	125.754	79.991	19.996	103.414	20.169	3.550	0.384
103.999	128.960	79.987	19.996	103.414	20.169	3.513	0.427
111.999	132.266	79.990	19.996	103.410	20.165	3.875	0.428
119.999	135.719	79.990	19.995	103.425	20.165	3.827	0.439
127.999	139.303	79.989	19.995	103.415	20.167	3.676	0.448
136.000	142.973	79.989	19.996	103.411	20.167	3.678	0.441
144.000	146.786	79.990	19.996	103.406	20.168	3.614	0.453
152.000	150.647	79.991	19.995	103.394	20.166	3.785	0.464
160.000	154.447	79.989	19.996	103.388	20.168	3.601	0.501
168.000	158.344	79.988	19.996	103.389	20.171	3.370	0.516
176.000	162.268	79.989	19.995	103.395	20.172	3.322	0.483
184.000	166.244	79.988	19.995	103.391	20.173	3.237	0.503
192.000	170.138	79.988	19.996	103.386	20.173	3.237	0.479
200.000	174.035	79.992	19.997	103.376	20.175	3.130	0.521
208.000	177.971	79.990	19.996	103.372	20.178	2.832	0.486
216.000	181.967	79.990	19.996	103.375	20.177	2.931	0.487
224.000	185.888	79.988	19.996	103.376	20.178	2.848	0.510
232.000	189.860	79.989	19.996	103.373	20.183	2.474	0.440
240.000	193.780	79.989	19.994	103.369	20.182	2.584	0.490
248.000	197.727	79.986	19.995	103.362	20.177	2.979	0.508
256.000	201.649	79.990	19.996	103.353	20.180	2.718	0.488
264.000	205.632	79.991	19.997	103.347	20.183	2.489	0.519
272.000	209.613	79.991	19.996	103.349	20.184	2.396	0.459
280.000	213.558	79.992	19.997	103.348	20.189	2.047	0.492
288.000	217.544	79.990	19.997	103.345	20.183	2.464	0.506
296.000	221.451	79.988	19.995	103.348	20.188	2.131	0.469
304.000	225.407	79.988	19.996	103.344	20.187	2.226	0.481
312.000	229.417	79.986	19.995	103.345	20.186	2.269	0.486
320.000	233.376	79.988	19.996	103.348	20.182	2.542	0.504
328.000	237.384	79.988	19.995	103.331	20.189	2.079	0.528
336.000	241.334	79.990	19.996	103.330	20.198	1.367	0.492
344.000	245.348	79.990	19.996	103.326	20.195	1.590	0.493
352.000	249.311	79.988	19.997	103.314	20.193	1.743	0.487
360.000	253.328	79.993	19.996	103.310	20.196	1.530	0.495
368.000	257.272	79.987	19.994	103.311	20.200	1.243	0.490
376.000	261.241	79.988	19.998	103.309	20.197	1.420	0.501
384.000	265.132	79.989	19.995	103.314	20.199	1.292	0.487
392.000	269.090	79.990	19.996	103.310	20.202	1.096	0.477
400.000	273.118	79.988	19.995	103.309	20.197	1.420	0.472
408.000	277.156	79.990	19.997	103.307	20.203	1.012	0.547
416.000	281.155	79.989	19.995	103.305	20.205	0.809	0.493
424.000	285.240	79.991	19.994	103.311	20.206	0.741	0.542
432.000	289.305	79.990	19.996	103.305	20.209	0.514	0.489
440.000	293.395	79.991	19.996	103.306	20.198	1.348	0.505
448.000	297.584	79.991	19.995	103.295	20.197	1.439	0.800
456.000	301.530	79.988	19.995	103.279	20.206	0.793	0.535
464.000	305.623	79.988	19.997	103.290	20.204	0.881	0.518
472.000	309.667	79.990	19.997	103.281	20.207	0.658	0.501
480.000	313.740	79.989	19.995	103.272	20.207	0.667	0.504
488.000	317.794	79.990	19.996	103.275	20.212	0.334	0.487
496.000	321.833	79.993	19.997	103.273	20.213	0.206	0.511
504.000	325.855	79.991	19.995	103.276	20.216	0.031	0.508
512.000	329.872	79.991	19.995	103.273	20.210	0.460	0.499
520.000	333.982	79.993	19.994	103.270	20.213	0.266	0.531
528.000	337.972	79.992	19.997	103.271	20.209	0.514	0.553
536.000	341.981	79.991	19.996	103.268	20.207	0.691	0.470
544.000	346.028	79.991	19.996	103.268	20.210	0.479	0.503
552.000	350.151	79.989	19.997	103.292	20.211	0.415	0.534
560.000	354.250	79.988	19.998	103.270	20.210	0.479	0.518
568.000	358.288	79.990	19.996	103.273	20.214	0.200	0.504
576.000	362.316	79.990	19.995	103.268	20.212	0.334	0.485
584.000	366.337	79.990	19.996	103.262	20.206	0.794	0.484
592.000	370.382	79.991	19.997	103.267	20.206	0.772	0.479
600.000	374.420	79.993	19.996	103.265	20.205	0.807	0.501
608.000	378.522	79.991	19.996	103.262	20.210	0.448	0.516
616.000	382.524	79.990	19.996	103.262	20.209	0.557	0.462
624.000	386.618	79.989	19.996	103.266	20.208	0.584	0.498
632.000	390.724	79.989	19.996	103.261	20.200	1.246	0.517
640.000	394.870	79.989	19.997	103.257	20.200	1.230	0.551
648.000	398.937	79.988	19.997	103.247	20.199	1.294	0.520
656.000	402.963	79.992	19.995	103.249	20.196	1.517	0.506
664.000	406.985	79.991	19.995	103.266	20.189	2.074	0.484
672.000	411.070	79.991	19.996	103.261	20.182	2.596	0.505
680.000	415.088	79.993	19.995	103.268	20.174	3.201	0.487
688.000	419.170	79.990	19.995	103.269	20.160	4.208	0.526
696.000	423.236	79.990	19.996	103.270	20.137	5.947	0.481
704.000	427.330	79.989	19.996	103.254	20.103	8.520	0.503
712.000	431.364	79.989	19.996	103.284	20.051	12.384	0.522
720.000	435.433	79.990	19.997	103.306	19.995	16.620	0.500
728.000	439.541	79.990	19.997	103.315	19.947	20.244	0.510
736.000	443.658	79.991	19.998	103.341	19.882	25.081	0.490
744.000	447.771	79.992	19.997	103.261	19.838	28.406	0.513
752.000	451.835	79.990	19.995	103.461	19.748	35.261	0.464
760.000	456.014	79.992	19.995	103.405	19.611	45.454	0.515
768.000	460.159	79.990	19.997	103.291	19.354	64.884	0.514
776.000	464.265	79.989	19.997	103.548	19.042	88.269	0.508
784.000	468.336	79.991	19.995	103.522	18.644	118.144	0.493
792.000	472.393	79.990	19.996	103.625	18.412	136.118	0.505
800.000	476.590	79.989	19.996	103.741	18.377	138.494	0.557
808.000	480.685	79.988	19.996	103.307	18.389	137.499	0.522
816.000	484.789	79.990	19.996	103.658	18.257	147.515	0.523
824.000	488.877	79.989	19.996	103.542	18.297	144.504	0.510
832.000	493.025	79.990	19.997	103.538	18.347	140.721	0.523
840.000	497.152	79.992	19.995	103.528	18.362	139.579	0.543
848.000	501.260	79.990	19.996	103.539	18.327	142.253	0.524
856.000	505.330	79.990	19.997	103.541	18.284	145.528	0.528
864.000	509.339	79.989	19.997	103.527	18.266	146.776	0.527
872.000	513.348	79.989	19.996	103.507	18.313	143.251	0.500
880.000	517.529	79.988	19.996	103.503	18.445	133.237	0.536
888.000	521.594	79.990	19.995	103.470	18.651	117.666	0.503
896.000	525.662	79.990	19.996	103.423	18.923	97.225	0.510
904.000	529.820	79.990	19.995	103.384	19.210	75.605	0.560
912.000	533.832	79.990	19.997	103.337	19.475	55.646	0.507
920.000	537.918	79.991	19.997	103.296	19.687	39.757	0.527
928.000	541.981	79.991	19.995	103.266	19.830	29.012	0.513
936.000	546.007	79.989	19.994	103.260	19.927	21.677	0.483
944.000	550.049	79.988	19.996	103.232	19.993	16.740	0.496
952.000	554.086	79.990	19.996	103.234	20.036	13.489	0.508
960.000	558.156	79.989	19.996	103.228	20.065	11.360	0.515
968.000	562.220	79.989	19.996	103.228	20.088	9.601	0.519
976.000	566.305	79.992	19.995	103.227	20.102	8.590	0.516
984.000	570.442	79.989	19.997	103.225	20.113	7.746	0.502
992.000	574.619	79.990	19.996	103.229	20.115	7.568	0.547
1000.000	578.759	79.992	19.996	103.233	20.121	7.127	0.528
1008.000	582.792	79.989	19.997	103.224	20.129	6.570	0.529
1016.000	586.872	79.989	19.995	103.230	20.133	6.213	0.539
1024.000	590.925	79.990	19.996	103.226	20.138	5.897	0.510
1031.999	595.028	79.990	19.996	103.223	20.142	5.549	0.480
1039.999	599.156	79.991	19.996	103.225	20.148	5.150	0.499
1048.000	603.238	79.991	19.996	103.227	20.150	4.943	0.518
1055.999	607.318	79.992	19.996	103.226	20.153	4.761	0.531
1064.000	611.388	79.990	19.996	103.228	20.156	4.529	0.503
1072.000	615.497	79.991	19.995	103.228	20.161	4.115	0.504
1080.000	619.597	79.994	19.995	103.221	20.165	3.845	0.508
1088.000	623.666	79.990	19.997	103.220	20.164	3.919	0.514
1095.999	627.651	79.989	19.998	103.216	20.166	3.739	0.510
1104.001	631.739	79.991	19.997	103.207	20.167	3.698	0.495
1111.999	635.827	79.989	19.996	103.202	20.170	3.488	0.542
1119.999	639.901	79.991	19.997	103.210	20.171	3.385	0.498
1127.999	644.021	79.991	19.996	103.229	20.174	3.170	0.500
1135.999	648.053	79.992	19.996	103.209	20.177	2.976	0.517
1143.999	652.117	79.991	19.996	103.207	20.172	3.320	0.490
1151.999	656.109	79.991	19.996	103.191	20.173	3.271	0.503
1160.000	659.998	79.992	19.997	103.193	20.178	2.848	0.473
1167.999	663.936	79.991	19.996	103.191	20.178	2.852	0.497
1175.999	667.832	79.990	19.995	103.203	20.173	3.225	0.468
1183.999	671.720	79.990	19.998	103.209	20.181	2.669	0.469
1192.000	675.718	79.991	19.997	103.206	20.181	2.607	0.526
1200.000	679.820	79.989	19.996	103.199	20.181	2.650	0.508
1207.999	684.016	79.990	19.995	103.207	20.182	2.561	0.530
1215.999	688.225	79.992	19.996	103.197	20.182	2.564	0.507
1223.999	692.408	79.990	19.997	103.207	20.182	2.584	0.540
1231.999	696.614	79.990	19.996	103.194	20.183	2.454	0.515
1240.000	700.762	79.993	19.996	103.196	20.182	2.547	0.524
1248.000	704.852	79.991	19.996	103.196	20.181	2.609	0.467
1256.000	708.866	79.992	19.996	103.208	20.180	2.691	0.476
1263.999	712.898	79.987	19.996	103.197	20.178	2.840	0.470
1271.999	716.919	79.989	19.996	103.193	20.176	3.020	0.486
1279.999	720.806	79.988	19.996	103.145	20.179	2.761	0.475
1288.000	724.587	79.987	19.997	103.190	20.181	2.623	0.483
1295.999	728.338	79.992	19.995	103.212	20.180	2.683	0.499
1304.000	732.087	79.990	19.996	103.194	20.180	2.708	0.478
1311.999	735.883	79.990	19.996	103.208	20.180	2.708	0.409
1320.000	739.860	79.992	19.995	103.201	20.178	2.854	0.476
1326.999	743.369	79.991	19.994	103.198	20.174	3.134	0.504