File: 01_Data/PC/MCC/PC_MCC_30K_min_210921_R2.txt
Sample ID:	C:\MCC\MCC Cal\Test\PC_MCC_30K_min_210921_R2.txt
Sample Weight (mg):	4.36
Heating Rate (C/s):	0.5
Combustor Temp (C):	900
N2 Flow Rate (cc/min):	80
O2 Flow Rate (cc/min):	20
Calibration File:	C:\MCC\MCC Cal\Coeff1 JN10440_30_210304.txt.txt
T Correction Coefficients:	0	1.024463	0
Time Shift (s):	14
*
Time (s)	Temperature (C)	N2 flow rate (cc/min)	O2 flow rate (cc/min)	Flow Rate (cc/min)	Oxygen (%)	HRR (W/g)	Heating rate (C/s)
0.000	107.454	79.997	19.996	100.111	19.986	-0.098	0.001
8.001	107.459	80.000	19.994	100.110	19.985	-0.025	-0.005
16.000	107.461	79.995	19.996	100.146	19.979	0.379	-0.009
24.000	107.659	79.996	19.997	100.251	19.958	1.902	0.051
32.001	108.362	79.997	19.994	100.315	19.947	2.711	0.093
40.000	109.572	79.996	19.995	100.340	19.937	3.448	0.164
48.001	111.372	79.995	19.994	100.355	19.939	3.257	0.220
56.000	113.492	79.996	19.996	100.357	19.936	3.494	0.287
64.001	115.967	79.998	19.994	100.362	19.930	3.953	0.317
72.000	118.709	79.998	19.995	100.389	19.933	3.717	0.355
80.000	121.752	79.998	19.995	100.385	19.929	3.970	0.375
88.000	125.012	80.001	19.994	100.389	19.927	4.129	0.401
96.000	128.465	79.998	19.995	100.391	19.932	3.792	0.437
104.000	132.054	79.997	19.996	100.389	19.929	3.984	0.474
112.000	135.750	79.996	19.995	100.389	19.927	4.165	0.467
120.000	139.495	79.998	19.995	100.392	19.931	3.836	0.467
128.000	143.357	79.996	19.994	100.379	19.927	4.111	0.489
136.000	147.297	79.999	19.994	100.387	19.930	3.936	0.477
144.000	151.276	79.999	19.994	100.382	19.931	3.863	0.498
152.000	155.185	79.997	19.995	100.362	19.936	3.464	0.497
160.000	159.121	79.998	19.994	100.362	19.938	3.375	0.515
168.000	163.013	79.999	19.995	100.357	19.933	3.721	0.465
176.000	167.008	79.997	19.996	100.353	19.935	3.557	0.499
184.000	170.877	79.997	19.995	100.351	19.933	3.744	0.506
192.000	174.768	79.998	19.997	100.362	19.935	3.576	0.504
200.000	178.626	79.996	19.995	100.351	19.935	3.543	0.500
208.000	182.496	79.997	19.995	100.348	19.937	3.416	0.505
216.000	186.393	79.997	19.996	100.339	19.938	3.378	0.505
224.000	190.215	79.998	19.996	100.341	19.941	3.142	0.482
232.000	194.050	79.998	19.996	100.322	19.942	3.082	0.505
240.000	197.821	79.998	19.995	100.343	19.946	2.770	0.488
248.000	201.594	80.000	19.994	100.336	19.943	2.977	0.479
256.000	205.431	79.998	19.994	100.337	19.945	2.881	0.479
264.000	209.314	79.995	19.997	100.327	19.942	3.037	0.502
272.000	213.149	79.996	19.996	100.322	19.944	2.905	0.493
280.000	217.008	79.997	19.995	100.317	19.944	2.931	0.493
288.000	220.809	79.996	19.997	100.330	19.939	3.298	0.460
296.000	224.660	79.996	19.997	100.321	19.943	2.985	0.452
304.000	228.591	79.996	19.995	100.315	19.945	2.816	0.511
312.000	232.514	79.997	19.995	100.324	19.946	2.772	0.493
320.000	236.474	79.997	19.994	100.318	19.945	2.865	0.469
328.000	240.420	79.999	19.995	100.315	19.948	2.665	0.483
336.000	244.355	79.999	19.994	100.313	19.947	2.696	0.492
344.000	248.305	79.998	19.995	100.312	19.946	2.810	0.499
352.000	252.269	79.995	19.996	100.310	19.946	2.758	0.477
360.000	256.222	79.996	19.997	100.312	19.948	2.665	0.529
368.000	260.165	79.996	19.995	100.314	19.949	2.553	0.484
376.000	264.181	79.997	19.996	100.313	19.952	2.381	0.497
384.000	268.258	79.997	19.997	100.314	19.947	2.696	0.474
392.000	272.376	79.996	19.995	100.312	19.945	2.822	0.489
400.000	276.479	79.998	19.994	100.307	19.945	2.874	0.482
408.000	280.608	79.999	19.994	100.309	19.946	2.764	0.532
416.000	284.686	79.998	19.995	100.305	19.949	2.597	0.499
424.000	288.764	79.997	19.995	100.302	19.947	2.690	0.520
432.000	292.861	79.997	19.994	100.302	19.948	2.653	0.528
440.000	296.931	79.997	19.994	100.299	19.948	2.636	0.485
448.000	301.012	79.995	19.996	100.308	19.950	2.462	0.518
456.000	305.104	79.996	19.996	100.290	19.951	2.396	0.520
464.000	309.130	79.997	19.995	100.293	19.945	2.835	0.496
472.000	313.271	79.998	19.995	100.276	19.948	2.632	0.512
480.000	317.315	79.997	19.996	100.294	19.949	2.529	0.495
488.000	321.447	79.998	19.995	100.280	19.953	2.307	0.534
496.000	325.511	79.998	19.995	100.286	19.949	2.588	0.535
504.000	329.737	79.996	19.996	100.302	19.949	2.543	0.517
512.000	333.962	79.996	19.995	100.298	19.949	2.537	0.527
520.000	338.196	79.998	19.995	100.299	19.949	2.583	0.505
528.000	342.458	79.996	19.995	100.289	19.950	2.487	0.543
536.000	346.556	79.996	19.996	100.277	19.951	2.425	0.532
544.000	350.750	79.998	19.996	100.277	19.949	2.579	0.534
552.000	354.853	79.998	19.995	100.271	19.954	2.173	0.516
560.000	358.929	79.996	19.997	100.275	19.955	2.140	0.533
568.000	362.935	79.997	19.996	100.273	19.952	2.314	0.507
576.000	366.938	79.997	19.996	100.274	19.950	2.502	0.452
584.000	370.881	79.997	19.996	100.273	19.949	2.560	0.528
592.000	374.844	79.996	19.996	100.272	19.953	2.293	0.495
600.000	378.796	79.995	19.994	100.272	19.948	2.628	0.517
608.000	382.771	79.996	19.995	100.271	19.945	2.883	0.496
616.000	386.742	79.996	19.995	100.271	19.944	2.941	0.517
624.000	390.799	79.997	19.995	100.275	19.946	2.782	0.521
632.000	394.910	79.996	19.996	100.273	19.945	2.825	0.510
640.000	399.002	79.997	19.995	100.274	19.946	2.761	0.487
648.000	403.098	79.999	19.996	100.273	19.946	2.800	0.505
656.000	407.193	79.998	19.996	100.270	19.943	2.964	0.502
664.000	411.300	79.998	19.996	100.265	19.939	3.256	0.531
672.000	415.285	79.997	19.996	100.273	19.939	3.299	0.484
680.000	419.376	79.997	19.995	100.267	19.929	3.971	0.513
688.000	423.349	79.995	19.995	100.273	19.920	4.652	0.476
696.000	427.383	79.996	19.995	100.272	19.908	5.532	0.498
704.000	431.372	79.997	19.995	100.278	19.885	7.172	0.489
712.000	435.427	80.000	19.994	100.280	19.859	9.052	0.544
720.000	439.410	79.997	19.997	100.283	19.820	11.803	0.496
728.000	443.497	79.998	19.995	100.304	19.766	15.734	0.518
736.000	447.593	80.000	19.995	100.310	19.703	20.199	0.503
744.000	451.664	79.997	19.996	100.320	19.624	25.849	0.510
752.000	455.743	79.996	19.997	100.300	19.625	25.855	0.516
760.000	459.882	79.997	19.994	100.398	19.633	25.256	0.497
768.000	463.981	79.997	19.994	100.377	19.364	44.658	0.511
776.000	468.141	79.998	19.995	100.323	19.359	44.931	0.554
784.000	472.273	80.000	19.996	100.407	19.034	68.438	0.533
792.000	476.420	79.998	19.995	100.443	19.005	70.278	0.532
800.000	480.508	79.999	19.996	100.363	18.780	86.796	0.489
808.000	484.547	80.000	19.995	100.596	18.745	88.984	0.486
816.000	488.586	79.999	19.995	100.307	18.643	96.620	0.514
824.000	492.597	79.996	19.994	100.612	18.668	94.663	0.484
832.000	496.681	79.996	19.996	100.489	18.387	114.929	0.527
840.000	500.833	79.996	19.995	100.427	18.345	118.170	0.503
848.000	504.941	79.997	19.995	100.585	18.129	133.543	0.522
856.000	508.960	79.996	19.995	100.521	17.697	164.759	0.528
864.000	512.946	79.997	19.995	100.627	17.481	180.340	0.484
872.000	517.022	79.999	19.995	100.639	17.352	189.611	0.508
880.000	521.146	79.997	19.995	100.637	17.327	191.246	0.501
888.000	525.330	79.999	19.993	100.593	17.479	180.225	0.559
896.000	529.518	79.999	19.995	100.539	17.827	155.061	0.538
904.000	533.720	79.997	19.995	100.460	18.298	121.116	0.535
912.000	537.933	79.997	19.995	100.385	18.790	85.766	0.514
920.000	542.155	79.996	19.996	100.316	19.168	58.579	0.567
928.000	546.199	79.997	19.996	100.278	19.423	40.258	0.502
936.000	550.271	79.996	19.996	100.261	19.588	28.488	0.512
944.000	554.341	79.997	19.995	100.238	19.682	21.682	0.530
952.000	558.388	79.999	19.994	100.237	19.749	16.900	0.542
960.000	562.459	79.998	19.994	100.237	19.787	14.206	0.491
968.000	566.549	79.999	19.995	100.232	19.811	12.446	0.506
976.000	570.625	80.001	19.994	100.222	19.825	11.466	0.559
984.000	574.750	79.997	19.997	100.216	19.839	10.485	0.571
992.000	578.753	79.998	19.996	100.215	19.848	9.780	0.521
1000.000	582.663	79.998	19.996	100.208	19.858	9.053	0.463
1008.000	586.574	79.997	19.996	100.220	19.867	8.465	0.487
1016.000	590.423	79.996	19.996	100.223	19.869	8.300	0.476
1024.000	594.266	79.996	19.995	100.220	19.875	7.840	0.527
1032.001	598.244	79.998	19.996	100.221	19.882	7.345	0.525
1040.000	602.224	79.997	19.994	100.204	19.889	6.847	0.511
1048.000	606.315	79.998	19.995	100.278	19.890	6.808	0.520
1056.000	610.608	80.001	19.994	100.210	19.892	6.676	0.551
1064.000	614.948	79.997	19.995	100.214	19.898	6.238	0.567
1072.000	619.289	79.999	19.995	100.220	19.894	6.525	0.527
1080.000	623.597	79.997	19.996	100.224	19.906	5.621	0.539
1088.000	627.813	79.998	19.995	100.203	19.904	5.780	0.542
1096.000	632.028	79.997	19.995	100.266	19.909	5.448	0.500
1104.000	636.179	79.999	19.997	100.203	19.909	5.459	0.524
1112.000	640.219	80.000	19.996	100.212	19.912	5.184	0.488
1120.000	644.245	79.997	19.995	100.205	19.917	4.878	0.514
1128.000	648.225	79.999	19.994	100.212	19.919	4.746	0.493
1136.000	652.242	80.001	19.995	100.213	19.926	4.230	0.495
1144.000	656.259	79.997	19.994	100.215	19.928	4.039	0.524
1152.000	660.278	79.999	19.996	100.198	19.929	4.004	0.495
1160.000	664.282	79.998	19.994	100.216	19.931	3.849	0.527
1168.000	668.266	79.997	19.996	100.225	19.926	4.186	0.511
1176.000	672.259	79.998	19.996	100.214	19.929	3.964	0.492
1184.000	676.387	79.999	19.995	100.214	19.932	3.801	0.498
1192.000	680.397	79.999	19.996	100.214	19.932	3.803	0.482
1200.000	684.340	79.997	19.997	100.229	19.929	3.972	0.507
1208.000	688.338	79.998	19.995	100.230	19.932	3.757	0.509
1216.000	692.408	80.000	19.995	100.236	19.930	3.945	0.521
1224.000	696.447	79.998	19.995	100.223	19.931	3.877	0.496
1232.000	700.493	79.996	19.994	100.228	19.930	3.918	0.510
1240.001	704.612	79.999	19.996	100.230	19.927	4.134	0.529
1248.000	708.758	79.996	19.995	100.233	19.924	4.351	0.495
1256.000	712.913	79.996	19.995	100.235	19.931	3.881	0.535
1264.000	716.954	79.998	19.997	100.235	19.929	3.999	0.499
1272.000	721.024	79.999	19.995	100.232	19.923	4.412	0.530
1280.000	725.006	79.999	19.994	100.240	19.926	4.227	0.490
1288.000	728.971	79.999	19.995	100.231	19.923	4.391	0.500
1296.000	733.015	80.001	19.994	100.232	19.926	4.210	0.519
1304.000	737.039	79.998	19.994	100.235	19.926	4.241	0.484
1312.001	741.191	79.999	19.995	100.236	19.922	4.508	0.522
1316.500	743.503	79.999	19.995	100.237	19.917	4.828	0.504