File: 01_Data/PC/MCC/PC_MCC_30K_min_210924_O4.txt
Sample ID:	C:\MCC\MCC Cal\Test\PC_MCC_30K_min_210924_R4.txt
Sample Weight (mg):	4.81
Heating Rate (C/s):	0.5
Combustor Temp (C):	900
N2 Flow Rate (cc/min):	80
O2 Flow Rate (cc/min):	20
Calibration File:	C:\MCC\MCC Cal\Coeff1 JN10440_30_210304.txt.txt
T Correction Coefficients:	0	1.024463	0
Time Shift (s):	14
*
Time (s)	Temperature (C)	N2 flow rate (cc/min)	O2 flow rate (cc/min)	Flow Rate (cc/min)	Oxygen (%)	HRR (W/g)	Heating rate (C/s)
0.000	108.660	80.008	19.996	100.060	20.387	0.097	-0.011
7.999	108.635	80.007	19.995	100.061	20.387	0.115	-0.016
16.000	108.614	80.009	19.996	100.107	20.378	0.682	0.011
24.000	108.804	80.008	19.995	100.179	20.367	1.391	0.036
32.000	109.366	80.010	19.994	100.237	20.358	1.974	0.083
40.000	110.422	80.010	19.996	100.249	20.357	2.071	0.162
47.999	111.837	80.009	19.994	100.258	20.352	2.356	0.208
55.999	113.557	80.009	19.995	100.283	20.349	2.579	0.275
63.999	115.632	80.008	19.996	100.303	20.345	2.814	0.250
71.999	118.061	80.007	19.995	100.308	20.345	2.850	0.304
80.000	120.780	80.007	19.995	100.330	20.342	3.057	0.334
87.999	123.839	80.006	19.996	100.331	20.342	3.050	0.368
95.999	127.032	80.007	19.996	100.331	20.338	3.266	0.442
103.999	130.440	80.008	19.995	100.329	20.341	3.110	0.443
112.000	133.997	80.009	19.996	100.329	20.342	3.027	0.458
119.999	137.711	80.008	19.995	100.322	20.340	3.158	0.498
127.999	141.523	80.009	19.996	100.331	20.340	3.151	0.438
136.000	145.423	80.010	19.994	100.327	20.343	2.934	0.517
144.000	149.445	80.008	19.994	100.326	20.345	2.837	0.492
152.000	153.568	80.007	19.996	100.310	20.345	2.831	0.518
160.000	157.737	80.009	19.995	100.300	20.347	2.680	0.562
168.000	161.831	80.007	19.995	100.296	20.351	2.418	0.469
176.000	166.036	80.006	19.996	100.291	20.353	2.283	0.531
184.000	170.162	80.007	19.996	100.290	20.356	2.090	0.524
192.000	174.239	80.008	19.996	100.287	20.358	2.013	0.493
200.000	178.314	80.009	19.995	100.279	20.357	2.024	0.529
208.000	182.300	80.008	19.995	100.281	20.360	1.852	0.501
216.000	186.308	80.012	19.994	100.257	20.363	1.669	0.545
224.000	190.200	80.007	19.994	100.256	20.361	1.788	0.489
232.000	194.205	80.006	19.994	100.262	20.366	1.460	0.507
240.000	198.073	80.006	19.995	100.255	20.365	1.559	0.492
248.000	202.000	80.007	19.995	100.255	20.365	1.501	0.505
256.000	205.832	80.005	19.996	100.255	20.369	1.249	0.504
264.000	209.773	80.005	19.996	100.252	20.366	1.457	0.490
272.000	213.720	80.007	19.995	100.255	20.368	1.341	0.478
280.000	217.606	80.010	19.996	100.254	20.374	0.953	0.487
288.000	221.482	80.005	19.995	100.251	20.373	0.982	0.450
296.000	225.474	80.007	19.995	100.254	20.376	0.829	0.515
304.000	229.481	80.009	19.995	100.250	20.372	1.084	0.488
312.000	233.462	80.011	19.996	100.248	20.369	1.297	0.485
320.000	237.394	80.008	19.996	100.251	20.372	1.088	0.486
328.000	241.362	80.009	19.996	100.248	20.372	1.072	0.509
336.000	245.415	80.009	19.995	100.248	20.375	0.881	0.519
344.000	249.373	80.006	19.996	100.254	20.377	0.760	0.509
352.000	253.429	80.009	19.996	100.239	20.378	0.693	0.494
360.000	257.393	80.012	19.995	100.234	20.381	0.517	0.485
368.000	261.417	80.008	19.995	100.227	20.383	0.329	0.515
376.000	265.445	80.009	19.996	100.220	20.383	0.381	0.524
384.000	269.451	80.010	19.995	100.222	20.380	0.581	0.496
392.000	273.452	80.006	19.996	100.222	20.383	0.333	0.491
400.000	277.490	80.009	19.995	100.220	20.382	0.443	0.532
408.000	281.516	80.005	19.996	100.220	20.384	0.298	0.500
416.000	285.527	80.008	19.995	100.218	20.381	0.480	0.504
424.000	289.567	80.010	19.995	100.220	20.387	0.076	0.529
432.000	293.607	80.004	19.995	100.219	20.387	0.073	0.522
440.000	297.616	80.009	19.995	100.214	20.389	-0.035	0.522
448.000	301.612	80.009	19.995	100.213	20.386	0.143	0.512
456.000	305.578	80.005	19.996	100.213	20.388	0.030	0.517
464.000	309.640	80.010	19.995	100.212	20.386	0.138	0.528
472.000	313.710	80.008	19.995	100.213	20.388	0.039	0.502
480.000	317.713	80.006	19.996	100.213	20.389	-0.019	0.477
488.000	321.716	80.008	19.996	100.213	20.387	0.087	0.509
496.000	325.726	80.011	19.996	100.217	20.389	-0.060	0.494
504.000	329.737	80.008	19.994	100.213	20.393	-0.266	0.530
512.000	333.806	80.005	19.995	100.211	20.393	-0.262	0.523
520.000	337.847	80.011	19.995	100.208	20.393	-0.305	0.528
528.000	341.848	80.010	19.995	100.210	20.391	-0.182	0.469
536.000	345.861	80.007	19.994	100.213	20.394	-0.340	0.498
544.000	349.886	80.009	19.994	100.207	20.393	-0.259	0.495
552.000	353.966	80.010	19.995	100.203	20.390	-0.120	0.554
560.000	357.973	80.006	19.995	100.207	20.392	-0.255	0.507
568.000	361.955	80.005	19.995	100.206	20.394	-0.352	0.484
576.000	366.020	80.009	19.995	100.208	20.392	-0.213	0.556
584.000	370.019	80.006	19.997	100.209	20.394	-0.344	0.520
592.000	374.018	80.004	19.996	100.208	20.392	-0.223	0.515
600.000	378.068	80.008	19.995	100.212	20.394	-0.384	0.512
608.000	382.123	80.009	19.995	100.205	20.399	-0.671	0.533
616.000	386.173	80.008	19.995	100.215	20.394	-0.349	0.532
624.000	390.229	80.009	19.995	100.198	20.397	-0.528	0.519
632.000	394.283	80.011	19.994	100.210	20.393	-0.294	0.514
640.000	398.299	80.008	19.995	100.212	20.385	0.227	0.499
648.000	402.342	80.007	19.997	100.209	20.381	0.503	0.513
656.000	406.320	80.008	19.996	100.209	20.375	0.855	0.504
664.000	410.334	80.009	19.995	100.209	20.370	1.176	0.494
672.000	414.257	80.007	19.996	100.214	20.359	1.915	0.453
680.000	418.305	80.006	19.996	100.216	20.345	2.800	0.524
688.000	422.244	80.007	19.995	100.216	20.316	4.727	0.500
696.000	426.315	80.008	19.996	100.227	20.274	7.477	0.541
704.000	430.334	80.008	19.995	100.246	20.226	10.559	0.514
712.000	434.321	80.010	19.995	100.252	20.168	14.352	0.515
720.000	438.312	80.009	19.995	100.254	20.098	18.921	0.486
728.000	442.282	80.009	19.995	100.255	20.079	20.148	0.493
736.000	446.279	80.007	19.996	100.277	20.132	16.669	0.511
744.000	450.282	80.006	19.995	100.249	20.039	22.742	0.470
752.000	454.325	80.005	19.996	100.384	19.804	38.141	0.480
760.000	458.326	80.007	19.995	100.425	19.627	49.700	0.485
768.000	462.441	80.023	19.995	100.310	19.437	62.108	0.498
776.000	466.418	80.016	19.996	100.304	19.187	78.216	0.490
784.000	470.515	80.008	19.997	100.330	18.760	106.069	0.490
792.000	474.682	80.011	19.996	100.324	19.080	85.350	0.523
800.000	478.788	80.010	19.995	100.649	18.963	93.173	0.498
808.000	482.807	80.007	19.995	100.297	18.841	100.797	0.478
816.000	486.959	80.008	19.995	100.394	18.479	124.491	0.503
824.000	491.047	80.008	19.996	100.560	18.333	134.107	0.494
832.000	495.153	80.008	19.995	100.555	18.277	137.732	0.536
840.000	499.275	80.007	19.995	100.573	18.159	145.499	0.543
848.000	503.302	80.007	19.996	100.593	18.007	155.430	0.493
856.000	507.417	80.007	19.995	100.605	17.833	166.797	0.512
864.000	511.490	80.009	19.996	100.610	17.737	173.014	0.473
872.000	515.629	80.010	19.996	100.607	17.733	173.201	0.535
880.000	519.750	80.010	19.996	100.565	17.928	160.348	0.517
888.000	523.796	80.007	19.995	100.506	18.293	136.493	0.508
896.000	527.900	80.006	19.995	100.430	18.776	104.942	0.514
904.000	531.995	80.009	19.996	100.364	19.238	74.820	0.521
912.000	536.153	80.007	19.996	100.302	19.602	51.146	0.514
920.000	540.261	80.008	19.995	100.253	19.847	35.212	0.547
928.000	544.296	80.010	19.996	100.221	20.011	24.531	0.511
936.000	548.400	80.010	19.996	100.215	20.108	18.254	0.537
944.000	552.488	80.009	19.996	100.211	20.171	14.149	0.519
952.000	556.534	80.009	19.995	100.200	20.213	11.380	0.477
960.000	560.576	80.011	19.995	100.204	20.243	9.464	0.489
968.000	564.615	80.008	19.996	100.183	20.263	8.160	0.493
976.000	568.650	80.008	19.996	100.175	20.275	7.393	0.487
984.000	572.732	80.008	19.995	100.191	20.286	6.694	0.513
992.000	576.836	80.008	19.996	100.193	20.295	6.113	0.492
1000.000	580.925	80.008	19.996	100.178	20.297	5.964	0.528
1008.000	584.916	80.009	19.995	100.185	20.303	5.592	0.492
1016.000	588.946	80.011	19.996	100.197	20.311	5.014	0.497
1024.000	593.020	80.009	19.995	100.188	20.315	4.802	0.519
1031.999	597.111	80.010	19.995	100.183	20.325	4.108	0.509
1039.999	601.183	80.012	19.995	100.187	20.331	3.717	0.504
1047.999	605.279	80.009	19.996	100.173	20.331	3.729	0.514
1055.999	609.326	80.009	19.996	100.178	20.339	3.208	0.478
1063.999	613.396	80.008	19.996	100.174	20.344	2.927	0.505
1071.999	617.548	80.008	19.997	100.176	20.351	2.438	0.509
1080.000	621.614	80.007	19.998	100.175	20.358	2.013	0.510
1087.999	625.636	80.006	19.996	100.176	20.359	1.937	0.492
1096.000	629.658	80.010	19.995	100.176	20.363	1.641	0.487
1103.999	633.639	80.009	19.996	100.175	20.363	1.675	0.495
1112.000	637.752	80.008	19.995	100.172	20.367	1.413	0.518
1119.999	641.752	80.011	19.995	100.173	20.371	1.170	0.482
1128.000	645.714	80.011	19.995	100.172	20.376	0.829	0.494
1136.000	649.782	80.008	19.996	100.178	20.374	0.931	0.504
1143.999	653.883	80.009	19.996	100.183	20.381	0.489	0.520
1152.000	657.907	80.009	19.995	100.175	20.382	0.432	0.483
1159.999	662.043	80.007	19.996	100.177	20.386	0.191	0.515
1168.000	666.104	80.009	19.996	100.173	20.384	0.319	0.487
1175.999	670.211	80.010	19.997	100.170	20.384	0.294	0.527
1184.000	674.317	80.009	19.996	100.171	20.387	0.108	0.524
1191.999	678.393	80.009	19.995	100.172	20.386	0.152	0.500
1199.999	682.452	80.011	19.995	100.172	20.388	0.016	0.461
1207.999	686.546	80.011	19.995	100.174	20.389	-0.012	0.174
1216.000	690.460	80.008	19.996	100.175	20.387	0.073	0.501
1223.999	694.452	80.009	19.995	100.170	20.386	0.145	0.496
1231.999	698.327	80.009	19.995	100.177	20.389	0.002	0.461
1239.999	702.246	80.008	19.996	100.172	20.391	-0.168	0.500
1247.999	706.121	80.008	19.997	100.173	20.390	-0.119	0.486
1255.999	710.012	80.008	19.995	100.172	20.389	-0.050	0.487
1263.999	713.976	80.010	19.997	100.172	20.385	0.207	0.500
1271.999	717.955	80.008	19.997	100.170	20.389	-0.016	0.484
1279.999	721.954	80.009	19.996	100.175	20.391	-0.163	0.517
1288.000	725.988	80.009	19.996	100.176	20.385	0.212	0.490
1296.000	730.043	80.008	19.995	100.175	20.385	0.228	0.496
1303.999	734.131	80.009	19.995	100.175	20.383	0.366	0.519
1311.999	738.065	80.009	19.996	100.173	20.384	0.289	0.484
1319.999	742.077	80.010	19.995	100.173	20.389	0.002	0.504
1322.999	743.614	80.011	19.995	100.174	20.385	0.239	0.501