File: 01_Data/PC/MCC/PC_MCC_30K_min_211018_R6.txt
Sample ID:	C:\MCC\MCC Cal\Test\PC\PC_MCC_30K_min_211018_R6.txt
Sample Weight (mg):	4.81
Heating Rate (C/s):	0.5
Combustor Temp (C):	900
N2 Flow Rate (cc/min):	80
O2 Flow Rate (cc/min):	20
Calibration File:	C:\MCC\MCC Cal\Coeff1 JN10440_30_210304.txt.txt
T Correction Coefficients:	0	1.024463	0
Time Shift (s):	14
*
Time (s)	Temperature (C)	N2 flow rate (cc/min)	O2 flow rate (cc/min)	Flow Rate (cc/min)	Oxygen (%)	HRR (W/g)	Heating rate (C/s)
0.000	108.932	79.999	19.995	102.924	20.105	0.189	-0.020
8.001	108.913	79.999	19.994	103.006	20.103	0.330	-0.032
16.000	108.984	79.997	19.995	102.999	20.096	0.764	0.018
24.000	109.240	79.997	19.996	103.107	20.082	1.726	0.027
32.001	109.920	80.000	19.994	103.130	20.073	2.312	0.071
40.000	110.999	80.000	19.995	103.164	20.071	2.438	0.156
48.000	112.404	79.999	19.995	103.174	20.067	2.737	0.195
56.000	114.261	80.000	19.995	103.184	20.062	3.063	0.268
64.000	116.424	79.999	19.995	103.206	20.060	3.208	0.268
72.000	118.879	79.999	19.995	103.224	20.056	3.461	0.307
80.000	121.649	79.998	19.995	103.240	20.053	3.665	0.354
88.000	124.713	79.998	19.995	103.234	20.055	3.531	0.393
96.000	128.078	79.997	19.996	103.237	20.049	3.920	0.438
104.000	131.533	79.998	19.994	103.241	20.054	3.568	0.436
112.000	135.295	80.000	19.995	103.197	20.050	3.884	0.472
120.000	139.192	79.999	19.995	103.235	20.051	3.784	0.499
128.000	143.211	80.000	19.995	103.238	20.052	3.740	0.524
136.000	147.267	79.999	19.994	103.212	20.053	3.686	0.514
144.000	151.418	79.999	19.994	103.209	20.054	3.624	0.526
152.000	155.529	79.998	19.995	103.202	20.059	3.295	0.507
160.000	159.635	79.998	19.994	103.202	20.057	3.372	0.567
168.000	163.733	79.999	19.995	103.190	20.064	2.943	0.521
176.000	167.910	80.001	19.995	103.193	20.063	3.015	0.520
184.000	171.938	80.000	19.996	103.157	20.064	2.956	0.506
192.000	175.943	79.998	19.994	103.194	20.066	2.819	0.511
200.000	179.996	80.002	19.995	103.147	20.065	2.838	0.515
208.000	183.884	79.998	19.996	103.154	20.065	2.886	0.487
216.000	187.877	79.998	19.996	103.146	20.062	3.041	0.495
224.000	191.790	79.998	19.994	103.154	20.062	3.063	0.499
232.000	195.711	79.999	19.995	103.164	20.070	2.559	0.505
240.000	199.630	79.997	19.995	103.164	20.070	2.555	0.512
248.000	203.508	79.999	19.995	103.154	20.068	2.689	0.466
256.000	207.471	79.999	19.995	103.139	20.068	2.630	0.454
264.000	211.405	80.000	19.994	103.144	20.074	2.279	0.484
272.000	215.340	80.000	19.995	103.153	20.069	2.564	0.465
280.000	219.337	80.002	19.995	103.156	20.073	2.311	0.488
288.000	223.282	80.000	19.994	103.130	20.072	2.368	0.492
296.000	227.232	79.997	19.996	103.146	20.075	2.216	0.482
304.000	231.265	79.996	19.997	103.128	20.073	2.338	0.513
312.000	235.338	79.997	19.996	103.144	20.072	2.358	0.554
320.000	239.172	79.998	19.996	103.150	20.075	2.208	0.447
328.000	243.166	79.999	19.995	103.125	20.077	2.051	0.500
336.000	247.129	80.001	19.995	103.128	20.076	2.102	0.489
344.000	251.122	79.999	19.995	103.119	20.075	2.212	0.483
352.000	255.061	80.000	19.994	103.125	20.076	2.111	0.471
360.000	259.040	80.000	19.994	103.128	20.078	2.014	0.491
368.000	263.006	80.000	19.994	103.123	20.074	2.225	0.489
376.000	266.947	79.997	19.996	103.120	20.076	2.140	0.483
384.000	271.003	79.999	19.994	103.119	20.074	2.228	0.528
392.000	274.945	79.999	19.996	103.120	20.078	1.962	0.479
400.000	278.956	79.999	19.996	103.115	20.078	1.972	0.519
408.000	282.934	79.998	19.996	103.119	20.081	1.807	0.506
416.000	286.970	80.000	19.995	103.115	20.077	2.063	0.490
424.000	291.037	80.001	19.995	103.121	20.079	1.939	0.521
432.000	295.039	80.000	19.995	103.114	20.079	1.938	0.467
440.000	299.075	80.001	19.994	103.116	20.081	1.790	0.493
448.000	303.106	80.001	19.993	103.114	20.081	1.818	0.491
456.000	307.162	80.000	19.996	103.101	20.083	1.676	0.508
464.000	311.220	79.999	19.995	103.104	20.083	1.633	0.529
472.000	315.297	80.000	19.995	103.119	20.084	1.585	0.499
480.000	319.317	79.999	19.996	103.112	20.079	1.935	0.511
488.000	323.310	79.999	19.997	103.091	20.080	1.836	0.500
496.000	327.347	79.997	19.996	103.096	20.081	1.808	0.482
504.000	331.382	80.001	19.995	103.107	20.081	1.784	0.498
512.000	335.436	80.001	19.994	103.082	20.086	1.453	0.521
520.000	339.471	80.000	19.995	103.103	20.083	1.678	0.513
528.000	343.448	80.003	19.994	103.089	20.081	1.810	0.502
536.000	347.405	79.999	19.995	103.103	20.082	1.702	0.497
544.001	351.471	80.002	19.995	103.090	20.080	1.832	0.505
552.000	355.562	79.999	19.994	103.095	20.077	2.055	0.477
560.000	359.617	80.001	19.995	103.084	20.075	2.202	0.506
568.000	363.664	80.000	19.995	103.085	20.082	1.716	0.513
576.000	367.721	80.000	19.995	103.083	20.082	1.711	0.539
584.000	371.798	80.000	19.995	103.080	20.084	1.579	0.519
592.000	375.891	79.999	19.995	103.081	20.081	1.758	0.490
600.000	379.934	80.003	19.995	103.083	20.082	1.691	0.491
608.000	383.897	80.003	19.995	103.097	20.077	2.033	0.468
616.000	387.964	80.002	19.995	103.085	20.078	1.995	0.514
624.000	392.018	80.001	19.994	103.105	20.074	2.238	0.492
632.000	396.106	79.999	19.996	103.095	20.073	2.337	0.467
640.000	400.184	79.997	19.995	103.065	20.073	2.302	0.485
648.000	404.250	80.000	19.997	103.080	20.072	2.396	0.478
656.000	408.356	80.000	19.996	103.089	20.072	2.423	0.517
664.000	412.441	80.001	19.995	103.078	20.060	3.174	0.490
672.000	416.545	79.998	19.993	103.081	20.049	3.918	0.518
680.000	420.638	80.000	19.995	103.084	20.038	4.674	0.557
688.000	424.643	80.001	19.995	103.106	20.033	5.027	0.505
696.000	428.697	79.999	19.994	103.115	20.023	5.690	0.490
704.000	432.747	80.003	19.995	103.083	20.000	7.207	0.531
712.000	436.860	79.999	19.996	103.094	19.973	9.004	0.515
720.000	440.867	80.000	19.995	103.104	19.939	11.319	0.493
728.000	444.912	80.001	19.996	103.116	19.889	14.645	0.509
736.000	448.991	79.999	19.996	103.155	19.838	18.026	0.523
744.000	453.032	79.998	19.995	103.163	19.766	22.861	0.490
752.000	457.106	80.001	19.995	103.161	19.646	30.889	0.483
760.000	461.210	80.002	19.995	103.133	19.607	33.534	0.511
768.000	465.285	80.002	19.994	103.320	19.672	29.135	0.518
776.000	469.323	80.001	19.996	103.014	19.523	39.120	0.549
784.000	473.427	79.999	19.995	103.297	19.324	52.487	0.520
792.000	477.622	79.997	19.994	103.284	19.023	72.551	0.523
800.000	481.794	79.998	19.997	103.381	18.446	111.588	0.510
808.000	485.916	80.001	19.995	103.219	18.770	89.398	0.511
816.000	490.056	80.000	19.996	103.642	18.336	119.362	0.497
824.000	494.206	80.000	19.994	103.429	18.277	122.596	0.522
832.000	498.408	80.001	19.995	103.181	18.015	140.399	0.512
840.000	502.650	80.000	19.996	103.541	17.886	149.190	0.519
848.000	506.771	80.001	19.995	103.453	17.717	160.449	0.502
856.000	510.970	80.001	19.996	103.442	17.455	178.078	0.522
864.000	515.097	80.000	19.998	103.504	17.321	187.105	0.497
872.000	519.208	79.999	19.994	103.488	17.274	190.208	0.503
880.000	523.352	80.001	19.997	103.476	17.386	182.592	0.509
888.000	527.404	80.000	19.996	103.450	17.700	161.422	0.477
896.001	531.493	79.997	19.995	103.428	18.188	128.584	0.524
904.000	535.601	79.997	19.996	103.322	18.718	93.034	0.507
912.000	539.688	80.002	19.995	103.263	19.165	63.069	0.527
920.000	543.768	80.000	19.995	103.181	19.465	42.970	0.530
928.000	547.805	80.001	19.996	103.128	19.652	30.501	0.547
936.000	551.893	80.002	19.995	103.120	19.771	22.486	0.491
944.000	556.002	80.002	19.995	103.092	19.843	17.680	0.532
952.000	560.102	80.000	19.996	103.081	19.887	14.728	0.519
960.000	564.220	79.999	19.997	103.085	19.917	12.728	0.502
968.000	568.360	79.998	19.996	103.064	19.938	11.332	0.519
976.000	572.400	80.001	19.995	103.046	19.949	10.624	0.507
984.000	576.554	79.998	19.994	103.072	19.961	9.781	0.505
992.001	580.672	79.998	19.994	103.061	19.968	9.335	0.495
1000.000	584.733	79.999	19.994	103.063	19.976	8.833	0.480
1008.000	588.873	80.001	19.994	103.047	19.978	8.671	0.541
1016.000	592.932	80.001	19.995	103.077	19.989	7.912	0.481
1024.000	597.083	80.003	19.995	103.068	19.994	7.578	0.515
1032.000	601.257	79.998	19.995	103.035	19.995	7.521	0.538
1040.000	605.316	79.998	19.994	103.078	20.003	6.971	0.495
1048.000	609.426	80.000	19.994	103.040	20.007	6.754	0.492
1056.000	613.464	80.000	19.997	103.041	20.012	6.392	0.501
1064.001	617.585	80.000	19.995	103.046	20.017	6.041	0.518
1072.000	621.658	80.001	19.995	103.052	20.021	5.788	0.506
1080.000	625.748	80.003	19.995	103.046	20.029	5.272	0.520
1088.000	629.749	80.001	19.994	103.047	20.029	5.248	0.488
1096.000	633.900	80.002	19.995	103.044	20.037	4.753	0.536
1104.000	638.045	80.003	19.994	103.041	20.039	4.616	0.482
1112.000	642.183	79.999	19.994	103.035	20.042	4.405	0.513
1120.000	646.304	79.999	19.996	103.037	20.039	4.625	0.486
1128.001	650.476	80.000	19.995	103.045	20.043	4.321	0.525
1136.000	654.556	79.999	19.995	103.024	20.040	4.539	0.513
1144.000	658.683	79.999	19.995	103.043	20.043	4.310	0.534
1152.001	662.763	79.997	19.994	103.040	20.046	4.114	0.514
1160.000	666.832	80.001	19.996	103.027	20.053	3.678	0.509
1168.000	670.909	80.000	19.995	103.040	20.051	3.783	0.492
1176.000	675.032	80.002	19.996	103.034	20.047	4.030	0.497
1184.000	679.091	80.003	19.994	103.039	20.049	3.920	0.493
1192.000	683.118	80.002	19.995	103.040	20.049	3.916	0.503
1200.000	687.201	79.999	19.994	103.025	20.046	4.101	0.516
1208.001	691.213	80.001	19.995	103.038	20.049	3.911	0.546
1216.000	695.204	80.001	19.996	103.045	20.049	3.949	0.495
1224.000	699.172	80.000	19.996	103.033	20.046	4.121	0.477
1232.000	703.256	79.998	19.995	103.038	20.046	4.123	0.504
1240.000	707.317	80.000	19.995	103.017	20.050	3.828	0.530
1248.000	711.372	80.000	19.996	103.031	20.047	4.046	0.532
1256.000	715.474	80.000	19.996	103.028	20.050	3.885	0.544
1264.000	719.554	80.002	19.994	103.025	20.046	4.121	0.503
1272.001	723.567	80.002	19.995	103.025	20.049	3.933	0.498
1280.000	727.636	79.999	19.994	103.034	20.049	3.898	0.494
1288.000	731.742	79.999	19.994	103.039	20.047	4.056	0.543
1296.001	735.727	80.001	19.994	103.038	20.047	4.083	0.497
1304.000	739.804	80.001	19.995	103.036	20.047	4.044	0.525
1311.500	743.657	80.000	19.996	103.013	20.051	3.786	0.528