File: 01_Data/PC/MCC/PC_MCC_30K_min_210921_R1.txt
Sample ID:	C:\MCC\MCC Cal\Test\PC_MCC_30K_min_210921_R1.txt
Sample Weight (mg):	4.34
Heating Rate (C/s):	0.5
Combustor Temp (C):	900
N2 Flow Rate (cc/min):	80
O2 Flow Rate (cc/min):	20
Calibration File:	C:\MCC\MCC Cal\Coeff1 JN10440_30_210304.txt.txt
T Correction Coefficients:	0	1.024463	0
Time Shift (s):	14
*
Time (s)	Temperature (C)	N2 flow rate (cc/min)	O2 flow rate (cc/min)	Flow Rate (cc/min)	Oxygen (%)	HRR (W/g)	Heating rate (C/s)
0.000	106.785	79.994	19.995	99.866	20.008	0.008	0.020
8.000	106.787	79.994	19.994	99.864	20.007	0.017	0.018
16.000	106.814	79.996	19.994	99.892	20.000	0.521	0.057
24.000	106.890	79.996	19.996	99.949	19.991	1.227	0.032
32.000	107.288	79.995	19.995	100.041	19.978	2.108	0.082
40.000	108.184	79.996	19.994	100.112	19.964	3.146	0.129
48.000	109.640	79.997	19.995	100.120	19.956	3.756	0.189
56.001	111.548	79.996	19.996	100.129	19.949	4.241	0.253
64.000	113.869	79.996	19.996	100.157	19.949	4.204	0.303
72.000	116.512	79.997	19.995	100.146	19.949	4.217	0.311
80.000	119.541	79.996	19.996	100.144	19.949	4.253	0.375
88.000	122.743	79.995	19.995	100.153	19.945	4.497	0.397
96.000	126.106	79.996	19.995	100.155	19.952	3.992	0.439
104.000	129.664	79.996	19.995	100.151	19.951	4.086	0.448
112.000	133.333	79.996	19.994	100.162	19.953	3.942	0.495
120.000	137.009	79.996	19.995	100.147	19.951	4.095	0.469
128.000	140.828	79.997	19.995	100.152	19.948	4.283	0.477
136.000	144.691	79.997	19.995	100.129	19.950	4.118	0.476
144.000	148.531	79.997	19.996	100.140	19.951	4.108	0.489
152.000	152.407	79.997	19.996	100.133	19.949	4.222	0.478
160.000	156.269	79.998	19.995	100.126	19.952	4.036	0.497
168.000	160.229	79.995	19.994	100.120	19.952	4.011	0.515
176.000	164.246	79.996	19.996	100.135	19.953	3.935	0.522
184.000	168.259	79.996	19.995	100.125	19.954	3.898	0.504
192.000	172.252	79.995	19.994	100.124	19.953	3.947	0.487
200.000	176.214	79.996	19.995	100.120	19.954	3.873	0.485
208.000	180.190	79.998	19.996	100.118	19.954	3.883	0.499
216.000	184.146	79.996	19.996	100.116	19.955	3.782	0.458
224.000	188.117	79.996	19.995	100.114	19.957	3.617	0.507
232.000	192.085	79.998	19.996	100.116	19.957	3.677	0.486
240.000	196.061	79.997	19.996	100.116	19.959	3.504	0.508
248.000	199.976	79.995	19.996	100.118	19.959	3.503	0.474
256.000	203.885	79.995	19.994	100.120	19.956	3.720	0.461
264.000	207.892	79.997	19.995	100.120	19.956	3.693	0.495
272.000	211.837	79.996	19.995	100.115	19.958	3.555	0.501
280.000	215.822	79.996	19.996	100.118	19.960	3.452	0.484
288.000	219.785	79.998	19.994	100.115	19.958	3.598	0.499
296.000	223.772	79.997	19.996	100.117	19.957	3.673	0.494
304.000	227.703	79.997	19.994	100.115	19.956	3.690	0.478
312.000	231.738	79.997	19.995	100.118	19.959	3.530	0.508
320.000	235.675	79.996	19.995	100.114	19.956	3.704	0.505
328.000	239.650	79.996	19.995	100.107	19.956	3.698	0.470
336.000	243.611	79.995	19.997	100.111	19.955	3.758	0.480
344.000	247.539	79.996	19.995	100.110	19.952	4.042	0.486
352.000	251.604	79.997	19.995	100.116	19.952	4.007	0.507
360.000	255.526	79.996	19.995	100.113	19.957	3.665	0.514
368.000	259.529	79.997	19.995	100.114	19.957	3.654	0.497
376.000	263.531	79.996	19.994	100.114	19.954	3.830	0.516
384.000	267.493	79.997	19.995	100.116	19.950	4.125	0.517
392.000	271.497	79.997	19.994	100.108	19.950	4.169	0.521
400.000	275.487	79.998	19.995	100.102	19.954	3.882	0.520
408.000	279.475	79.996	19.995	100.114	19.949	4.214	0.485
416.000	283.514	79.996	19.996	100.104	19.948	4.270	0.551
424.000	287.540	79.995	19.997	100.113	19.951	4.069	0.515
432.000	291.569	79.995	19.996	100.116	19.951	4.051	0.510
440.000	295.590	79.994	19.995	100.118	19.951	4.076	0.515
448.000	299.617	79.997	19.995	100.118	19.951	4.094	0.459
456.000	303.663	79.998	19.996	100.110	19.948	4.309	0.460
464.000	307.680	79.997	19.995	100.112	19.948	4.292	0.483
472.000	311.675	79.999	19.995	100.108	19.947	4.395	0.492
480.000	315.749	79.997	19.996	100.116	19.948	4.284	0.487
488.000	319.747	79.995	19.995	100.115	19.946	4.412	0.469
496.000	324.065	79.997	19.995	100.120	19.949	4.237	0.677
504.000	327.783	79.996	19.998	100.118	19.950	4.154	0.475
512.000	331.797	79.995	19.997	100.113	19.946	4.445	0.503
520.000	335.732	79.994	19.996	100.112	19.951	4.076	0.466
528.000	339.630	79.998	19.995	100.114	19.947	4.393	0.479
536.000	343.457	79.998	19.995	100.117	19.946	4.418	0.464
544.000	347.451	79.997	19.995	100.116	19.946	4.430	0.494
552.000	351.476	79.999	19.995	100.119	19.950	4.123	0.561
560.000	355.488	79.999	19.995	100.120	19.946	4.422	0.468
568.000	359.521	79.996	19.995	100.124	19.946	4.465	0.518
576.000	363.538	79.995	19.995	100.125	19.942	4.734	0.528
584.000	367.531	79.997	19.996	100.118	19.943	4.633	0.482
592.000	371.523	79.997	19.995	100.119	19.942	4.744	0.503
600.000	375.581	79.995	19.996	100.118	19.939	4.946	0.489
608.000	379.638	79.997	19.996	100.120	19.935	5.202	0.505
616.000	383.714	79.998	19.995	100.127	19.939	4.973	0.522
624.000	387.712	79.996	19.994	100.133	19.939	4.917	0.498
632.000	391.802	79.998	19.996	100.128	19.935	5.206	0.495
640.000	395.961	79.999	19.995	100.080	19.930	5.574	0.544
648.000	399.969	79.996	19.996	100.120	19.930	5.613	0.512
656.000	403.976	79.997	19.996	100.119	19.927	5.836	0.502
664.000	408.025	79.996	19.995	100.122	19.929	5.650	0.513
672.000	412.032	79.997	19.996	100.128	19.924	6.026	0.490
680.000	416.035	79.996	19.995	100.125	19.921	6.209	0.496
688.000	420.003	79.997	19.996	100.135	19.909	7.081	0.486
696.000	424.026	79.998	19.996	100.149	19.894	8.199	0.527
704.000	428.035	79.996	19.997	100.156	19.881	9.121	0.493
712.000	432.032	80.000	19.996	100.155	19.862	10.456	0.493
720.000	436.151	80.000	19.994	100.160	19.832	12.621	0.523
728.000	440.159	79.997	19.994	100.166	19.781	16.349	0.482
736.000	444.257	79.998	19.996	100.182	19.720	20.710	0.505
744.000	448.335	79.997	19.995	100.165	19.713	21.202	0.522
752.000	452.422	79.996	19.995	100.163	19.726	20.310	0.547
760.000	456.507	79.995	19.997	100.219	19.550	32.930	0.487
768.000	460.611	79.997	19.995	100.182	19.450	40.179	0.532
776.000	464.733	79.998	19.996	100.346	19.324	49.255	0.502
784.000	468.821	79.998	19.996	100.124	19.289	51.908	0.505
792.000	472.928	79.998	19.997	100.340	19.090	66.116	0.518
800.000	477.057	79.999	19.997	100.056	18.872	81.845	0.501
808.000	481.197	79.997	19.997	100.538	18.582	102.745	0.547
816.000	485.340	79.996	19.995	100.174	18.672	96.477	0.520
824.000	489.400	79.996	19.995	100.466	18.716	93.176	0.504
832.000	493.493	79.996	19.995	100.209	18.562	104.305	0.508
840.000	497.637	79.997	19.995	100.418	18.361	119.012	0.517
848.000	501.757	79.996	19.996	100.448	18.262	125.934	0.498
856.000	505.756	79.997	19.996	100.391	17.903	152.047	0.517
864.000	509.818	79.997	19.996	100.508	17.745	163.442	0.530
872.000	513.792	79.998	19.997	100.497	17.552	177.422	0.503
880.000	517.898	79.998	19.995	100.511	17.438	185.601	0.504
888.000	521.930	79.999	19.996	100.490	17.429	186.207	0.497
896.000	526.038	79.997	19.995	100.467	17.585	174.864	0.551
904.000	530.118	79.998	19.996	100.398	17.928	149.987	0.537
912.000	534.184	79.997	19.996	100.351	18.395	116.234	0.511
920.000	538.282	79.997	19.996	100.278	18.847	83.594	0.513
928.000	542.384	79.998	19.995	100.230	19.194	58.627	0.508
936.000	546.440	79.999	19.995	100.185	19.427	41.824	0.524
944.000	550.485	79.997	19.996	100.159	19.575	31.129	0.528
952.000	554.618	79.997	19.995	100.155	19.666	24.587	0.490
960.000	558.773	79.998	19.995	100.153	19.724	20.397	0.507
968.000	562.926	79.998	19.995	100.131	19.760	17.858	0.506
976.000	567.081	79.996	19.997	100.127	19.790	15.694	0.488
984.000	571.235	79.997	19.996	100.122	19.803	14.706	0.523
992.000	575.390	79.996	19.995	100.134	19.814	13.926	0.515
1000.000	579.372	79.997	19.996	100.122	19.823	13.309	0.483
1008.000	583.423	79.995	19.995	100.141	19.831	12.725	0.510
1016.000	587.441	79.999	19.997	100.147	19.838	12.199	0.500
1024.000	591.514	79.999	19.995	100.128	19.842	11.920	0.502
1032.000	595.614	79.998	19.996	100.137	19.845	11.729	0.537
1040.000	599.661	79.999	19.996	100.122	19.851	11.275	0.534
1048.000	603.677	80.000	19.996	100.123	19.860	10.634	0.491
1056.000	607.773	79.997	19.997	100.130	19.860	10.645	0.523
1064.000	611.873	79.996	19.998	100.148	19.867	10.154	0.547
1072.000	615.907	79.996	19.997	100.143	19.868	10.032	0.506
1080.000	619.844	79.996	19.996	100.141	19.874	9.595	0.502
1088.000	623.839	79.996	19.996	100.143	19.874	9.638	0.514
1096.000	627.854	79.997	19.996	100.151	19.880	9.180	0.481
1104.000	631.826	79.998	19.996	100.155	19.877	9.417	0.499
1112.000	635.983	79.997	19.996	100.147	19.882	9.019	0.508
1120.000	640.131	79.999	19.996	100.147	19.891	8.427	0.527
1128.000	644.256	80.000	19.995	100.152	19.898	7.886	0.531
1136.000	648.435	79.994	19.996	100.156	19.893	8.228	0.526
1144.000	652.635	79.996	19.996	100.156	19.900	7.728	0.513
1152.000	656.760	79.998	19.995	100.156	19.896	8.005	0.505
1160.000	660.825	79.995	19.997	100.158	19.898	7.902	0.472
1168.000	664.759	79.994	19.995	100.157	19.898	7.873	0.499
1176.000	668.736	79.998	19.994	100.157	19.897	7.939	0.497
1184.000	672.701	79.998	19.995	100.155	19.897	7.955	0.507
1192.000	676.675	79.997	19.996	100.156	19.897	7.968	0.492
1200.000	680.590	79.999	19.995	100.161	19.901	7.681	0.503
1208.000	684.472	79.998	19.995	100.161	19.895	8.118	0.512
1216.000	688.446	79.994	19.996	100.161	19.897	7.937	0.538
1224.000	692.460	79.994	19.994	100.166	19.897	7.978	0.521
1232.000	696.496	79.996	19.994	100.158	19.899	7.848	0.526
1240.000	700.546	79.996	19.995	100.166	19.893	8.262	0.483
1248.000	704.631	79.998	19.996	100.166	19.895	8.081	0.518
1256.000	708.701	79.994	19.996	100.160	19.894	8.164	0.497
1264.000	712.880	79.998	19.996	100.179	19.890	8.492	0.554
1272.000	717.020	79.997	19.995	100.177	19.892	8.320	0.546
1280.000	721.030	79.995	19.994	100.167	19.894	8.205	0.516
1288.000	725.170	80.000	19.995	100.172	19.890	8.497	0.528
1296.000	729.156	79.997	19.994	100.177	19.889	8.567	0.482
1304.000	733.215	79.996	19.995	100.176	19.889	8.577	0.506
1312.000	737.222	79.996	19.995	100.184	19.885	8.853	0.504
1320.000	741.282	79.997	19.996	100.174	19.888	8.595	0.514
1328.000	745.293	79.994	19.995	100.169	19.888	8.614	0.485