File: 01_Data/PET/HFM/PET_Density_Wet_R2.csv
,PETG_WET_2
Sample Mass [g],141.2
Sample Volume [cm3],107.6
Sample Density [kg/m3],1312