File: 01_Data/Polyester_Batting/Cone/Polyester_Batting_Cone_HF25Scalar_210324_R1.csv
LABORATORY,FSRI
TEST IDENT,PEbat_H25_1
OPERATOR,Morrissey
MATERIAL,1.75'' PE Batting
ORIENTATION,Horizontal
HEAT FLUX,25
SURF AREA,0.01
C FACTOR,0.0386052
SPEC HOLDER DIFF,-98.3
SPECIMEN MASS,6.7
SCAN TIME,0.25
O2 DELAY TIME,11
CO DELAY TIME,11
CO2 DELAY TIME,8
FLOW FACTOR,1
SCAN COUNT,3129
TIME TO IGN,604.5
END OF TEST SCAN,2649
END OF TEST TIME,662.25
TEST STATUS,1
PRE TEST CMT,test w/o retainer grid or frame
POST TEST CMT,Severe foil lift towards last few seconds