File: 01_Data/Polyester_Batting/Cone/Polyester_Batting_Cone_HF50Scalar_210326_R2.csv
LABORATORY,FSRI
TEST IDENT,PEbat_HF50_2
OPERATOR,Dow
MATERIAL,"PE batting, 1.75 inch thick"
ORIENTATION,Horizontal
HEAT FLUX,50
SURF AREA,0.01
C FACTOR,0.0386052
SPEC HOLDER DIFF,-96.46
SPECIMEN MASS,6.02
SCAN TIME,0.25
O2 DELAY TIME,11
CO DELAY TIME,11
CO2 DELAY TIME,8
FLOW FACTOR,1
SCAN COUNT,807
TIME TO IGN,48
END OF TEST SCAN,327
END OF TEST TIME,81.75
TEST STATUS,1
PRE TEST CMT,without frame or grid
POST TEST CMT,corners of foil collapsed towards center shortly prior to extinguishment