File: 01_Data/Polyester_Bed_Skirt/STA/N2/10K_min/Polyester_Bed_Skirt_STA_N2_10KData_220524_R2.csv
##Temp./Â°C,Time/min,Mass loss(subtr.2)/mg,DSC(subtr.2)/(mW/mg),Sensit./(uV/mW)
49.772,10.01,0.02788,0.002364291,1.07016
52.572,11.26308,0.03020795,0.09021476,1.06939
55.372,11.6792,0.03122067,0.13217,1.06861
58.172,12.02938,0.03206794,0.1571,1.06782
60.972,12.35228,0.03380016,0.17456,1.06702
63.772,12.66433,0.0345934,0.18209,1.06622
66.572,12.96818,0.03380059,0.19219,1.0654
69.372,13.26816,0.03513267,0.19765,1.06458
72.172,13.5666,0.03395137,0.20104,1.06375
74.972,13.86064,0.03775981,0.1963,1.06291
77.772,14.15221,0.03512677,0.18821,1.06207
80.572,14.4413,0.03644302,0.18179,1.06121
83.372,14.7278,0.03655309,0.17892,1.06035
86.172,15.01184,0.03658235,0.17857,1.05948
88.972,15.2922,0.03783044,0.17387,1.0586
91.772,15.57269,0.03786339,0.17139,1.05772
94.572,15.8507,0.03786762,0.17093,1.05682
97.372,16.12699,0.03957603,0.17219,1.05592
100.172,16.40278,0.04075816,0.17344,1.055
102.972,16.67807,0.03944612,0.1784,1.05408
105.772,16.9529,0.03953973,0.18552,1.05315
108.572,17.22707,0.04076086,0.19141,1.05222
111.372,17.5002,0.04071236,0.19938,1.05127
114.172,17.77277,0.03940972,0.20598,1.05032
116.972,18.04615,0.04093092,0.21106,1.04936
119.772,18.31941,0.0413723,0.2131,1.04838
122.572,18.5917,0.03942195,0.22016,1.0474
125.372,18.86393,0.04176041,0.22852,1.04642
128.172,19.13545,0.04172044,0.23218,1.04542
130.972,19.407,0.04117062,0.2374,1.04441
133.772,19.67786,0.04115977,0.24206,1.0434
136.572,19.94851,0.04110514,0.24631,1.04238
139.372,20.2178,0.04249003,0.24832,1.04135
142.172,20.48832,0.04248,0.25239,1.04031
144.972,20.75776,0.04118219,0.25505,1.03926
147.772,21.02626,0.04116195,0.25944,1.0382
150.572,21.29547,0.04216008,0.26137,1.03714
153.372,21.56341,0.04281025,0.26403,1.03606
156.172,21.83229,0.04261793,0.26645,1.03498
158.972,22.10089,0.0421383,0.2707,1.03389
161.772,22.3687,0.04215161,0.26982,1.03278
164.572,22.63747,0.04302331,0.27337,1.03167
167.372,22.90503,0.04315568,0.27615,1.03056
170.172,23.17309,0.04314005,0.27926,1.02943
172.972,23.4408,0.04314115,0.28183,1.02829
175.772,23.70784,0.04215001,0.28435,1.02715
178.572,23.97551,0.04328507,0.28737,1.02599
181.372,24.2428,0.04348,0.28874,1.02483
184.172,24.5094,0.04314005,0.2933,1.02366
186.972,24.77649,0.04183953,0.29435,1.02248
189.772,25.04252,0.04184111,0.29635,1.02129
192.572,25.30874,0.04182,0.29663,1.02009
195.372,25.57499,0.04263022,0.29948,1.01888
198.172,25.8412,0.04577288,0.30222,1.01766
200.972,26.10783,0.04205428,0.30714,1.01644
203.772,26.37394,0.04271,0.30877,1.0152
206.572,26.6408,0.0420463,0.30964,1.01396
209.372,26.9074,0.04337392,0.31419,1.0127
212.172,27.1731,0.0407189,0.31734,1.01144
214.972,27.43883,0.04336011,0.32059,1.01017
217.772,27.7054,0.04138,0.32274,1.00889
220.572,27.97225,0.04072234,0.32777,1.0076
223.372,28.23879,0.04271021,0.33518,1.0063
226.172,28.5055,0.04073012,0.34014,1.00499
228.972,28.77205,0.04203999,0.34658,1.00367
231.772,29.03831,0.04065514,0.35414,1.00235
234.572,29.30504,0.04063096,0.36436,1.00101
237.372,29.571,0.04334281,0.37969,0.99966
240.172,29.83805,0.04138,0.39866,0.99831
242.972,30.10489,0.04277272,0.42468,0.99694
245.772,30.3718,0.04066685,0.46577,0.99557
248.572,30.63898,0.0400665,0.53264,0.99419
251.372,30.9063,0.04007003,0.64618,0.99279
254.172,31.174,0.03940707,0.86659,0.99139
256.972,31.4434,0.03940742,1.13769,0.98998
259.772,31.71244,0.03940999,1.06209,0.98856
262.572,31.9785,0.03940892,0.73022,0.98713
265.372,32.24281,0.04073,0.51648,0.98569
268.172,32.508,0.03941003,0.42067,0.98424
270.972,32.77335,0.04007,0.38078,0.98278
273.772,33.03924,0.0407227,0.36429,0.98132
276.572,33.30511,0.03841515,0.36055,0.97984
279.372,33.57168,0.0382195,0.35933,0.97835
282.172,33.83747,0.03810064,0.35917,0.97686
284.972,34.10433,0.03846941,0.35897,0.97535
287.772,34.37105,0.03842,0.35766,0.97384
290.572,34.6386,0.03842,0.3583,0.97231
293.372,34.90632,0.03709489,0.3592,0.97078
296.172,35.17386,0.03842,0.35856,0.96923
298.972,35.44102,0.03711,0.35893,0.96768
301.772,35.70864,0.0371,0.36091,0.96612
304.572,35.97575,0.03742572,0.36335,0.96454
307.372,36.24346,0.03705247,0.36367,0.96296
310.172,36.5115,0.0367683,0.36047,0.96137
312.972,36.77915,0.0367603,0.36278,0.95977
315.772,37.04735,0.03601236,0.36439,0.95816
318.572,37.3163,0.03490342,0.36371,0.95654
321.372,37.58528,0.03603422,0.36208,0.95491
324.172,37.85439,0.03613899,0.36251,0.95327
326.972,38.1234,0.03513505,0.36374,0.95162
329.772,38.39224,0.0336386,0.36054,0.94996
332.572,38.66064,0.03382207,0.35652,0.94829
335.372,38.9296,0.03381001,0.35178,0.94661
338.172,39.19849,0.03249008,0.33696,0.94493
340.972,39.46768,0.03187458,0.3119,0.94323
343.772,39.73637,0.03051742,0.29083,0.94152
346.572,40.00607,0.02977795,0.28321,0.93981
349.372,40.27572,0.02860013,0.28208,0.93808
352.172,40.54566,0.02546,0.28288,0.93635
354.972,40.81564,0.02480978,0.28456,0.9346
357.772,41.08578,0.02315959,0.28114,0.93285
360.572,41.35683,0.02053635,0.28328,0.93108
363.372,41.62791,0.01784442,0.29968,0.92931
366.172,41.89883,0.01789388,0.33913,0.92753
368.972,42.16944,0.01397515,0.37604,0.92573
371.772,42.43978,0.01097096,0.39644,0.92393
374.572,42.71133,0.008916307,0.40572,0.92212
377.372,42.98222,0.00163445,0.42006,0.9203
380.172,43.2538,-0.00293395,0.42826,0.91847
382.972,43.52512,-0.01005991,0.43777,0.91663
385.772,43.79618,-0.01969452,0.45151,0.91478
388.572,44.0676,-0.03059373,0.4629,0.91292
391.372,44.33943,-0.04619542,0.47826,0.91105
394.172,44.6115,-0.06421909,0.49518,0.90917
396.972,44.88371,-0.0901597,0.51329,0.90728
399.772,45.15591,-0.11592,0.53121,0.90539
402.572,45.42811,-0.15433,0.5461,0.90348
405.372,45.70063,-0.19439,0.57192,0.90157
408.172,45.97345,-0.24803,0.61348,0.89964
410.972,46.24595,-0.31216,0.65198,0.89771
413.772,46.51893,-0.38653,0.68613,0.89576
416.572,46.79116,-0.4749,0.73324,0.89381
419.372,47.06505,-0.57864,0.77102,0.89185
422.172,47.33889,-0.7009,0.81436,0.88988
424.972,47.61213,-0.84213,0.84682,0.8879
427.772,47.8856,-0.99971,0.87573,0.88591
430.572,48.15964,-1.17631,0.90956,0.88391
433.372,48.43345,-1.37031,0.92993,0.8819
436.172,48.7068,-1.57555,0.93742,0.87989
438.972,48.9816,-1.79273,0.92562,0.87786
441.772,49.2553,-2.00985,0.89612,0.87582
444.572,49.5287,-2.21598,0.84463,0.87378
447.372,49.8025,-2.40206,0.77369,0.87173
450.172,50.07631,-2.55344,0.68757,0.86966
452.972,50.34926,-2.6711,0.59487,0.86759
455.772,50.62259,-2.74943,0.51615,0.86551
458.572,50.89631,-2.81147,0.45294,0.86342
461.372,51.1697,-2.85796,0.4005,0.86133
464.172,51.44375,-2.89278,0.35409,0.85922
466.972,51.7181,-2.92032,0.31002,0.8571
469.772,51.99256,-2.94525,0.27081,0.85498
472.572,52.26708,-2.96722,0.23695,0.85285
475.372,52.54215,-2.9796,0.20848,0.85071
478.172,52.81678,-2.99202,0.18549,0.84856
480.972,53.09206,-3.00451,0.16557,0.8464
483.772,53.36806,-3.01537,0.15155,0.84423
486.572,53.6439,-3.02381,0.13967,0.84205
489.372,53.9196,-3.0312,0.12953,0.83987
492.172,54.19535,-3.03718,0.12364,0.83768
494.972,54.4713,-3.0439,0.11985,0.83548
497.772,54.747,-3.04889,0.11811,0.83327
500.572,55.0236,-3.05458,0.11403,0.83105
503.372,55.3,-3.05757,0.10708,0.82882
506.172,55.5763,-3.06204,0.10509,0.82659
508.972,55.853,-3.06745,0.10221,0.82435
511.772,56.12922,-3.07009,0.10179,0.8221
514.572,56.4064,-3.07339,0.10338,0.81984
517.372,56.68345,-3.0757,0.10225,0.81757
520.172,56.96066,-3.076,0.10747,0.8153
522.972,57.2385,-3.08316,0.11395,0.81301
525.772,57.51511,-3.08448,0.11994,0.81072
528.572,57.7919,-3.08546,0.12921,0.80842
531.372,58.069,-3.08807,0.14196,0.80612
534.172,58.3467,-3.09112,0.15043,0.8038
536.972,58.62389,-3.09106,0.16281,0.80148
539.772,58.9015,-3.09339,0.1729,0.79915
542.572,59.1794,-3.09531,0.18173,0.79682
545.372,59.4576,-3.09734,0.18407,0.79447
548.172,59.7354,-3.09995,0.18896,0.79212
550.972,60.01324,-3.09989,0.19648,0.78976
553.772,60.29186,-3.10226,0.20117,0.7874
556.572,60.57062,-3.10259,0.20654,0.78502
559.372,60.8497,-3.10522,0.21461,0.78264
562.172,61.1281,-3.10523,0.21927,0.78025
564.972,61.40727,-3.10753,0.22186,0.77786
567.772,61.6859,-3.11089,0.23006,0.77546
570.572,61.965,-3.11157,0.23488,0.77305
573.372,62.2438,-3.11412,0.24033,0.77063
576.172,62.5226,-3.11609,0.24608,0.76821
578.972,62.80118,-3.11742,0.25084,0.76578
581.772,63.08,-3.11873,0.25675,0.76334
584.572,63.3587,-3.12201,0.25999,0.7609
587.372,63.63856,-3.12235,0.27125,0.75845
590.172,63.91815,-3.12469,0.273,0.75599
592.972,64.19781,-3.1226,0.28334,0.75353
595.772,64.47651,-3.12967,0.29091,0.75106
598.572,64.75663,-3.1327,0.29374,0.74859
601.372,65.03652,-3.13395,0.29736,0.7461
604.172,65.31655,-3.12959,0.29827,0.74362
606.972,65.59691,-3.13684,0.30955,0.74112
609.772,65.87684,-3.13947,0.3171,0.73862
612.572,66.15709,-3.13653,0.32555,0.73612
615.372,66.43688,-3.13869,0.33059,0.73361
618.172,66.7158,-3.142,0.34251,0.73109
620.972,66.99595,-3.142,0.35487,0.72857
623.772,67.2761,-3.14502,0.36922,0.72604
626.572,67.55627,-3.14628,0.38413,0.7235
629.372,67.83706,-3.14869,0.4085,0.72096
632.172,68.11752,-3.14837,0.43433,0.71842
634.972,68.3986,-3.14968,0.45121,0.71587
637.772,68.67936,-3.14969,0.46431,0.71331
640.572,68.95995,-3.15265,0.4773,0.71075
643.372,69.23982,-3.15232,0.49297,0.70818
646.172,69.52104,-3.15364,0.50046,0.70561
648.972,69.80179,-3.15631,0.50822,0.70304
651.772,70.08259,-3.15825,0.51608,0.70046
654.572,70.36423,-3.16232,0.52623,0.69787
657.372,70.64559,-3.16187,0.53678,0.69528
660.172,70.9269,-3.15841,0.5482,0.69268
662.972,71.20841,-3.15878,0.55491,0.69008
665.772,71.49056,-3.16014,0.57018,0.68748
668.572,71.7723,-3.16277,0.58609,0.68487
671.372,72.05286,-3.16549,0.60389,0.68226
674.172,72.33444,-3.16539,0.62208,0.67964
676.972,72.61456,-3.16805,0.63588,0.67702
679.772,72.8964,-3.16505,0.64451,0.6744
682.572,73.17834,-3.16647,0.6522,0.67177
685.372,73.45994,-3.16802,0.6623,0.66913
688.172,73.7406,-3.16934,0.6763,0.6665
690.972,74.02162,-3.16934,0.68684,0.66386
693.772,74.3026,-3.16861,0.69344,0.66121
696.572,74.58405,-3.17004,0.70339,0.65856
699.372,74.86593,-3.17005,0.71058,0.65591
700.672,74.9966,-3.16871,0.71459,0.65468