File: 01_Data/Polyester_Bed_Skirt/STA/N2/10K_min/Polyester_Bed_Skirt_STA_N2_10KData_220524_R1.csv
##Temp./Â°C,Time/min,Mass loss(subtr.2)/mg,DSC(subtr.2)/(mW/mg),Sensit./(uV/mW)
49.835,10.01,0.02767,-0.01033758,1.07014
52.635,11.26239,0.03071187,0.08612792,1.06937
55.435,11.67783,0.03286735,0.13337,1.06859
58.235,12.0268,0.0313499,0.16122,1.0678
61.035,12.35004,0.03370329,0.17644,1.067
63.835,12.66072,0.0343132,0.18895,1.0662
66.635,12.96578,0.03305402,0.19634,1.06538
69.435,13.26687,0.03445457,0.20525,1.06456
72.235,13.5633,0.03449464,0.2064,1.06373
75.035,13.8587,0.03567378,0.20176,1.0629
77.835,14.14995,0.03567914,0.1945,1.06205
80.635,14.439,0.03627178,0.19029,1.0612
83.435,14.72548,0.03567998,0.1892,1.06033
86.235,15.00963,0.03568012,0.1865,1.05946
89.035,15.29066,0.0382599,0.18464,1.05858
91.835,15.56981,0.03700154,0.18161,1.0577
94.635,15.8485,0.03832742,0.18185,1.0568
97.435,16.12455,0.03893279,0.1835,1.0559
100.235,16.4004,0.04029046,0.18408,1.05498
103.035,16.6757,0.03965971,0.19115,1.05406
105.835,16.94974,0.03963027,0.1949,1.05313
108.635,17.22371,0.04095277,0.20356,1.0522
111.435,17.4967,0.04097524,0.21155,1.05125
114.235,17.7695,0.0399683,0.21686,1.0503
117.035,18.04299,0.04095765,0.22312,1.04933
119.835,18.31577,0.0406293,0.2298,1.04836
122.635,18.58814,0.04225918,0.23561,1.04738
125.435,18.85925,0.04157907,0.24176,1.04639
128.235,19.1314,0.04259999,0.2484,1.0454
131.035,19.4018,0.0435901,0.25402,1.04439
133.835,19.67298,0.04357998,0.25699,1.04338
136.635,19.94339,0.04358,0.26042,1.04235
139.435,20.2138,0.04359,0.26393,1.04132
142.235,20.48274,0.04359,0.26606,1.04028
145.035,20.75225,0.04489947,0.27109,1.03923
147.835,21.0208,0.04495585,0.27658,1.03818
150.635,21.2904,0.04489477,0.2779,1.03711
153.435,21.5589,0.04484569,0.28125,1.03604
156.235,21.8274,0.04391189,0.28593,1.03495
159.035,22.09605,0.04268878,0.2883,1.03386
161.835,22.36373,0.04457075,0.29038,1.03276
164.635,22.63233,0.04393252,0.29427,1.03165
167.435,22.8999,0.04391958,0.29447,1.03053
170.235,23.16762,0.04392197,0.29845,1.0294
173.035,23.43533,0.04426573,0.30155,1.02827
175.835,23.70257,0.04523108,0.30275,1.02712
178.635,23.97019,0.04489694,0.30508,1.02597
181.435,24.2373,0.04496253,0.30909,1.0248
184.235,24.50408,0.04491,0.30965,1.02363
187.035,24.77159,0.04615813,0.31209,1.02245
189.835,25.03814,0.04555324,0.31268,1.02126
192.635,25.3052,0.04489976,0.31678,1.02006
195.435,25.57222,0.04622124,0.31888,1.01885
198.235,25.83933,0.04616817,0.32074,1.01764
201.035,26.10575,0.04359001,0.32483,1.01641
203.835,26.37248,0.04489995,0.32815,1.01517
206.635,26.63917,0.04556217,0.33218,1.01393
209.435,26.9047,0.04359746,0.33653,1.01268
212.235,27.17025,0.04358008,0.33963,1.01141
215.035,27.4357,0.04490022,0.34292,1.01014
217.835,27.702,0.04588136,0.34968,1.00886
220.635,27.96793,0.04588571,0.35296,1.00757
223.435,28.23306,0.04456688,0.35885,1.00627
226.235,28.5,0.04523,0.36478,1.00496
229.035,28.7664,0.04391,0.37124,1.00364
231.835,29.03264,0.04523,0.38022,1.00232
234.635,29.29944,0.04457001,0.39135,1.00098
237.435,29.566,0.04592169,0.40486,0.99963
240.235,29.83206,0.0442364,0.42429,0.99828
243.035,30.0992,0.04425,0.45111,0.99691
245.835,30.36595,0.04523,0.49105,0.99554
248.635,30.634,0.04523,0.55909,0.99416
251.435,30.90124,0.04391,0.67817,0.99276
254.235,31.16912,0.04555999,0.90096,0.99136
257.035,31.43875,0.04427045,1.18487,0.98995
259.835,31.70825,0.04423997,1.11789,0.98853
262.635,31.97455,0.04424,0.77894,0.9871
265.435,32.24007,0.04292001,0.54915,0.98566
268.235,32.50415,0.04279506,0.44932,0.98421
271.035,32.76915,0.04424004,0.409,0.98275
273.835,33.034,0.04348298,0.39463,0.98128
276.635,33.2992,0.04392098,0.38616,0.97981
279.435,33.56476,0.04357969,0.38586,0.97832
282.235,33.83171,0.04355438,0.38614,0.97682
285.035,34.098,0.0449,0.38637,0.97532
287.835,34.36476,0.04424991,0.38787,0.9738
290.635,34.63176,0.04424954,0.38639,0.97228
293.435,34.89866,0.04359,0.38521,0.97074
296.235,35.16643,0.04359,0.38833,0.9692
299.035,35.43391,0.04457498,0.38824,0.96764
301.835,35.70133,0.04326008,0.39066,0.96608
304.635,35.96882,0.04227004,0.38974,0.96451
307.435,36.23646,0.04128001,0.38936,0.96293
310.235,36.50496,0.04154619,0.39106,0.96133
313.035,36.77312,0.04227,0.39079,0.95973
315.835,37.04116,0.04095039,0.3936,0.95812
318.635,37.30958,0.04094878,0.39364,0.9565
321.435,37.57738,0.04194,0.396,0.95487
324.235,37.8465,0.04061999,0.39656,0.95323
327.035,38.11508,0.03962995,0.39647,0.95158
329.835,38.38354,0.03995928,0.39754,0.94992
332.635,38.6527,0.03897,0.39948,0.94825
335.435,38.92106,0.03864001,0.40177,0.94658
338.235,39.19082,0.03764999,0.4025,0.94489
341.035,39.46048,0.03799135,0.40367,0.94319
343.835,39.72961,0.03567996,0.40498,0.94148
346.635,39.99944,0.03436002,0.40816,0.93977
349.435,40.26907,0.03428747,0.41054,0.93804
352.235,40.53911,0.03370022,0.41334,0.93631
355.035,40.80932,0.03270669,0.41612,0.93456
357.835,41.07962,0.03107077,0.42104,0.93281
360.635,41.3495,0.0314,0.42445,0.93104
363.435,41.6197,0.02875849,0.43182,0.92927
366.235,41.89051,0.02612768,0.43894,0.92749
369.035,42.1614,0.02210938,0.44707,0.92569
371.835,42.43222,0.01954001,0.45595,0.92389
374.635,42.70268,0.01682047,0.46212,0.92208
377.435,42.9732,0.01149561,0.46987,0.92026
380.235,43.2447,0.007224373,0.4751,0.91843
383.035,43.51587,-0.0005646157,0.48034,0.91659
385.835,43.78751,-0.00919767,0.48851,0.91474
388.635,44.05963,-0.02126438,0.50043,0.91288
391.435,44.33162,-0.03835648,0.51333,0.91101
394.235,44.60355,-0.05722519,0.52278,0.90913
397.035,44.87624,-0.07853394,0.534,0.90724
399.835,45.14799,-0.1102,0.55206,0.90535
402.635,45.41957,-0.14472,0.56329,0.90344
405.435,45.69182,-0.18554,0.58856,0.90152
408.235,45.96474,-0.23542,0.60104,0.8996
411.035,46.2374,-0.29699,0.63502,0.89766
413.835,46.5105,-0.3664,0.67416,0.89572
416.635,46.78399,-0.45332,0.7073,0.89377
419.435,47.05775,-0.55306,0.7428,0.89181
422.235,47.33132,-0.66922,0.78668,0.88983
425.035,47.6055,-0.80243,0.81881,0.88785
427.835,47.87962,-0.95739,0.87391,0.88586
430.635,48.1537,-1.12903,0.92857,0.88386
433.435,48.4277,-1.32633,0.97196,0.88186
436.235,48.7012,-1.53811,0.96327,0.87984
439.035,48.9754,-1.76087,0.94858,0.87781
441.835,49.24815,-1.98659,0.92235,0.87578
444.635,49.52225,-2.20667,0.87087,0.87373
447.435,49.79439,-2.40441,0.79471,0.87168
450.235,50.06889,-2.57418,0.69656,0.86962
453.035,50.34243,-2.70537,0.5922,0.86755
455.835,50.6153,-2.79883,0.50053,0.86547
458.635,50.8896,-2.86879,0.4261,0.86338
461.435,51.16338,-2.92068,0.3722,0.86128
464.235,51.43828,-2.9582,0.32653,0.85917
467.035,51.71278,-2.99016,0.28288,0.85706
469.835,51.98686,-3.0123,0.24635,0.85493
472.635,52.26108,-3.03294,0.21615,0.8528
475.435,52.53598,-3.04864,0.1854,0.85066
478.235,52.81129,-3.06176,0.16146,0.84851
481.035,53.0868,-3.07531,0.14227,0.84635
483.835,53.3628,-3.08426,0.12812,0.84418
486.635,53.63885,-3.0926,0.11719,0.84201
489.435,53.9145,-3.09952,0.10786,0.83982
492.235,54.1909,-3.10682,0.10398,0.83763
495.035,54.4663,-3.11261,0.10107,0.83543
497.835,54.7423,-3.11892,0.09818212,0.83322
500.635,55.0184,-3.12156,0.09935187,0.831
503.435,55.2943,-3.1264,0.09525269,0.82877
506.235,55.5703,-3.13102,0.09139388,0.82654
509.035,55.84649,-3.13271,0.08919738,0.8243
511.835,56.1233,-3.13761,0.08783908,0.82204
514.635,56.3994,-3.14022,0.08773978,0.81979
517.435,56.6762,-3.14298,0.08593888,0.81752
520.235,56.9527,-3.14709,0.0869487,0.81524
523.035,57.2297,-3.14913,0.08636867,0.81296
525.835,57.50603,-3.15036,0.08529795,0.81067
528.635,57.78371,-3.15341,0.08631353,0.80837
531.435,58.0609,-3.15839,0.0836484,0.80607
534.235,58.3387,-3.15968,0.0835374,0.80375
537.035,58.61675,-3.16231,0.0852859,0.80143
539.835,58.8948,-3.16329,0.08245661,0.7991
542.635,59.17244,-3.16594,0.08043834,0.79676
545.435,59.45025,-3.16694,0.08285992,0.79442
548.235,59.72824,-3.17124,0.08177738,0.79207
551.035,60.00707,-3.16989,0.07892565,0.78971
553.835,60.2862,-3.17247,0.07972545,0.78734
556.635,60.5643,-3.17384,0.07670368,0.78497
559.435,60.84378,-3.17581,0.07342049,0.78259
562.235,61.12146,-3.17779,0.07531099,0.7802
565.035,61.3996,-3.18042,0.07209219,0.7778
567.835,61.678,-3.18034,0.07179909,0.7754
570.635,61.9573,-3.18305,0.07155625,0.77299
573.435,62.2361,-3.18471,0.06923217,0.77058
576.235,62.5159,-3.1879,0.06689009,0.76815
579.035,62.7955,-3.18998,0.06917538,0.76572
581.835,63.0742,-3.18964,0.06714932,0.76329
584.635,63.35402,-3.19456,0.06406193,0.76084
587.435,63.63313,-3.1952,0.06613341,0.75839
590.235,63.91301,-3.1973,0.06158194,0.75594
593.035,64.19334,-3.19931,0.05890043,0.75347
595.835,64.47349,-3.20062,0.06040359,0.75101
598.635,64.75279,-3.20255,0.05876799,0.74853
601.435,65.03195,-3.20323,0.06199047,0.74605
604.235,65.3115,-3.20655,0.06497008,0.74356
607.035,65.59188,-3.20689,0.06620276,0.74107
609.835,65.87131,-3.20919,0.06662792,0.73857
612.635,66.15212,-3.21188,0.06683124,0.73606
615.435,66.43235,-3.21213,0.06800671,0.73355
618.235,66.71252,-3.21611,0.06840561,0.73103
621.035,66.99249,-3.21629,0.05666736,0.72851
623.835,67.27303,-3.21756,0.07221016,0.72598
626.635,67.55237,-3.2194,0.07185276,0.72345
629.435,67.83274,-3.22269,0.07356916,0.72091
632.235,68.11329,-3.22401,0.07244371,0.71836
635.035,68.39372,-3.22401,0.07785388,0.71581
637.835,68.67349,-3.22533,0.08346025,0.71325
640.635,68.95355,-3.22796,0.08748079,0.71069
643.435,69.23343,-3.22796,0.08870533,0.70813
646.235,69.51406,-3.2306,0.0911501,0.70556
649.035,69.79486,-3.23092,0.09294518,0.70298
651.835,70.07566,-3.23228,0.09446581,0.7004
654.635,70.35674,-3.23129,0.09396189,0.69781
657.435,70.63789,-3.23323,0.09769811,0.69522
660.235,70.91965,-3.23422,0.10356,0.69263
663.035,71.20091,-3.23553,0.10315,0.69003
665.835,71.48209,-3.23606,0.09924403,0.68742
668.635,71.76307,-3.23686,0.103,0.68481
671.435,72.0448,-3.23817,0.10012,0.6822
674.235,72.32607,-3.23817,0.10156,0.67958
677.035,72.60705,-3.23817,0.09779404,0.67696
679.835,72.88845,-3.23947,0.10002,0.67434
682.635,73.16929,-3.23952,0.09599749,0.67171
685.435,73.45009,-3.2408,0.0915068,0.66907
688.235,73.73185,-3.24146,0.09161115,0.66644
691.035,74.01382,-3.24245,0.09108832,0.6638
693.835,74.29609,-3.24392,0.09695594,0.66115
696.635,74.5783,-3.24476,0.09084464,0.65851
699.435,74.86019,-3.24608,0.08754905,0.65585
700.735,74.99127,-3.24608,0.08699743,0.65462