File: 01_Data/Eucalyptus_Flooring/MCC/Eucalyptus_Flooring_30K_min_211026_R2.txt
Sample ID:	C:\MCC\MCC Cal\Test\Eucalyptus_Flooring_30K_min_211026_R2.txt
Sample Weight (mg):	4.14
Heating Rate (C/s):	0.5
Combustor Temp (C):	900
N2 Flow Rate (cc/min):	80
O2 Flow Rate (cc/min):	20
Calibration File:	C:\MCC\MCC Cal\Coeff1 JN10440_30_210304.txt.txt
T Correction Coefficients:	0	1.024463	0
Time Shift (s):	14
*
Time (s)	Temperature (C)	N2 flow rate (cc/min)	O2 flow rate (cc/min)	Flow Rate (cc/min)	Oxygen (%)	HRR (W/g)	Heating rate (C/s)
-0.001	105.916	79.999	19.996	103.030	20.452	-0.004	-0.009
8.000	105.894	79.997	19.997	102.946	20.448	0.345	-0.028
16.000	105.927	79.996	19.997	102.995	20.445	0.522	-0.001
24.000	106.015	79.996	19.996	103.069	20.430	1.741	0.002
32.000	106.470	79.996	19.996	103.125	20.428	1.842	0.061
39.999	107.180	79.996	19.995	103.157	20.423	2.268	0.123
47.999	108.201	79.997	19.998	103.143	20.412	3.107	0.162
55.999	109.551	79.997	19.996	103.201	20.405	3.655	0.231
63.999	111.251	79.997	19.995	103.172	20.403	3.828	0.220
71.999	113.300	79.997	19.996	103.183	20.403	3.842	0.273
79.999	115.488	79.999	19.996	103.212	20.398	4.241	0.270
87.999	117.917	79.997	19.996	103.239	20.399	4.131	0.313
95.999	120.527	79.996	19.996	103.204	20.392	4.690	0.336
103.999	123.394	79.997	19.996	103.206	20.387	5.096	0.396
111.999	126.393	79.996	19.996	103.239	20.389	4.876	0.388
119.999	129.533	79.996	19.996	103.225	20.384	5.292	0.399
128.000	132.878	79.997	19.995	103.209	20.382	5.472	0.417
136.000	136.333	79.997	19.995	103.245	20.379	5.688	0.420
144.000	139.907	79.997	19.995	103.242	20.372	6.232	0.457
152.000	143.620	79.998	19.996	103.279	20.379	5.679	0.469
160.000	147.468	80.000	19.995	103.252	20.379	5.700	0.477
168.000	151.378	79.999	19.996	103.189	20.372	6.259	0.550
176.000	155.282	79.996	19.997	103.249	20.371	6.274	0.487
184.000	159.252	79.995	19.995	103.257	20.375	5.956	0.507
192.000	163.189	79.996	19.995	103.187	20.371	6.296	0.474
200.000	167.251	79.997	19.996	103.189	20.366	6.674	0.487
208.000	171.263	79.995	19.996	103.238	20.364	6.878	0.523
216.000	175.274	79.999	19.995	103.233	20.360	7.139	0.512
224.000	179.305	80.000	19.996	103.197	20.355	7.552	0.523
232.000	183.334	79.997	19.995	103.241	20.356	7.474	0.488
240.000	187.438	79.998	19.995	103.236	20.350	7.931	0.524
248.000	191.534	79.998	19.995	103.182	20.346	8.213	0.531
256.000	195.492	79.997	19.995	103.204	20.348	8.087	0.482
264.000	199.552	79.997	19.995	103.155	20.338	8.864	0.555
272.000	203.554	79.998	19.996	103.245	20.338	8.855	0.472
280.000	207.537	79.996	19.997	103.215	20.331	9.381	0.472
288.000	211.552	79.996	19.997	103.189	20.323	10.072	0.490
296.000	215.479	79.998	19.997	103.205	20.322	10.118	0.464
304.000	219.457	79.999	19.995	103.196	20.315	10.678	0.470
312.000	223.425	79.998	19.996	103.206	20.304	11.541	0.491
320.000	227.342	80.000	19.995	103.221	20.301	11.755	0.497
328.000	231.322	79.999	19.995	103.209	20.289	12.702	0.482
336.000	235.253	79.998	19.994	103.220	20.285	12.964	0.505
344.000	239.226	79.998	19.996	103.165	20.270	14.167	0.496
352.000	243.178	79.998	19.995	103.194	20.264	14.616	0.480
360.000	247.142	79.997	19.997	103.217	20.252	15.566	0.492
368.000	251.143	79.997	19.997	103.262	20.241	16.387	0.502
376.000	255.173	79.996	19.996	103.250	20.227	17.486	0.506
384.000	259.252	79.997	19.996	103.254	20.209	18.937	0.523
392.000	263.240	79.997	19.996	103.194	20.188	20.518	0.540
400.000	267.267	79.998	19.996	103.297	20.169	22.041	0.494
408.000	271.314	80.000	19.996	103.231	20.141	24.178	0.522
416.000	275.327	79.998	19.995	103.264	20.111	26.592	0.493
424.000	279.308	79.997	19.996	103.298	20.076	29.274	0.510
432.000	283.199	79.997	19.996	103.263	20.040	32.087	0.498
440.000	287.218	79.998	19.996	103.313	19.998	35.383	0.514
448.000	291.199	79.997	19.996	103.331	19.958	38.472	0.495
456.000	295.183	79.997	19.996	103.345	19.910	42.194	0.512
464.000	299.195	79.998	19.996	103.363	19.859	46.194	0.520
472.000	303.184	79.999	19.995	103.325	19.812	49.877	0.552
480.000	307.283	79.998	19.996	103.395	19.764	53.607	0.411
488.000	311.231	79.997	19.997	103.384	19.715	57.484	0.567
496.000	315.260	80.000	19.997	103.401	19.668	61.133	0.504
504.000	319.220	79.998	19.995	103.398	19.623	64.650	0.458
512.000	323.283	79.998	19.996	103.443	19.591	67.076	0.471
520.000	327.394	79.997	19.996	103.398	19.578	68.140	0.492
528.000	331.473	79.997	19.996	103.365	19.589	67.203	0.523
536.000	335.553	79.998	19.996	103.319	19.624	64.449	0.513
544.000	339.624	79.999	19.996	103.371	19.698	58.629	0.540
552.000	343.626	79.999	19.996	103.291	19.787	51.717	0.481
560.000	347.673	79.999	19.997	103.228	19.882	44.328	0.511
568.000	351.668	79.999	19.996	103.200	19.978	36.827	0.511
576.000	355.727	80.000	19.997	103.165	20.046	31.600	0.505
584.000	359.743	80.000	19.997	103.236	20.104	27.083	0.511
592.000	363.731	79.998	19.998	103.147	20.138	24.432	0.513
600.000	367.771	79.997	19.995	103.201	20.162	22.535	0.494
608.000	371.731	79.999	19.996	103.139	20.179	21.236	0.449
616.000	375.750	79.997	19.995	103.154	20.189	20.413	0.495
624.000	379.846	79.996	19.995	103.164	20.196	19.888	0.507
632.000	383.868	79.998	19.996	103.154	20.201	19.536	0.473
640.000	387.954	80.000	19.995	103.132	20.207	19.034	0.528
648.000	391.962	79.999	19.996	103.197	20.213	18.591	0.520
656.000	396.091	79.999	19.995	103.157	20.217	18.304	0.496
664.000	400.135	79.999	19.995	103.167	20.216	18.361	0.522
672.000	404.182	80.000	19.996	103.161	20.216	18.386	0.505
680.000	408.174	79.997	19.997	103.131	20.213	18.567	0.526
688.000	412.219	79.999	19.997	103.128	20.214	18.503	0.499
696.000	416.257	79.999	19.995	103.173	20.218	18.211	0.508
704.000	420.302	79.999	19.995	103.147	20.215	18.409	0.503
712.000	424.393	79.997	19.995	103.141	20.212	18.627	0.525
720.000	428.503	79.998	19.996	103.171	20.212	18.686	0.515
728.000	432.629	79.997	19.994	103.131	20.212	18.641	0.536
736.000	436.795	79.999	19.995	103.152	20.210	18.805	0.519
744.000	440.944	80.002	19.996	103.151	20.218	18.166	0.541
752.000	444.996	80.002	19.996	103.132	20.217	18.243	0.491
760.000	449.072	79.999	19.997	103.127	20.217	18.293	0.496
768.000	453.150	80.000	19.997	103.114	20.216	18.329	0.508
776.000	457.208	79.997	19.996	103.177	20.220	18.061	0.473
784.000	461.228	79.998	19.996	103.134	20.223	17.832	0.516
792.000	465.247	79.998	19.996	103.117	20.223	17.834	0.492
800.000	469.333	79.999	19.996	103.129	20.221	17.963	0.513
808.000	473.447	80.001	19.995	103.122	20.225	17.612	0.514
816.000	477.518	80.000	19.995	103.124	20.223	17.807	0.517
824.000	481.636	80.000	19.996	103.129	20.226	17.591	0.534
832.000	485.677	80.002	19.995	103.130	20.223	17.800	0.503
840.000	489.716	80.001	19.995	103.126	20.224	17.708	0.504
848.000	493.861	79.999	19.995	103.128	20.222	17.900	0.519
856.000	497.940	79.999	19.996	103.129	20.222	17.854	0.510
864.000	501.928	79.997	19.996	103.091	20.224	17.757	0.515
872.000	505.923	79.999	19.997	103.129	20.224	17.727	0.520
880.000	509.862	79.998	19.997	103.127	20.220	18.010	0.494
888.000	513.836	80.000	19.995	103.099	20.215	18.415	0.499
896.000	517.826	80.000	19.996	103.123	20.218	18.224	0.486
904.000	521.885	80.001	19.995	103.122	20.217	18.260	0.507
912.000	525.929	80.000	19.995	103.125	20.210	18.802	0.511
920.000	530.031	80.002	19.994	103.125	20.217	18.282	0.535
928.000	534.066	80.000	19.993	103.110	20.215	18.460	0.482
936.000	538.208	80.000	19.997	103.124	20.211	18.716	0.502
944.000	542.253	79.999	19.997	103.122	20.206	19.094	0.518
952.000	546.511	80.000	19.996	103.121	20.205	19.231	0.546
960.000	550.884	79.997	19.994	103.144	20.208	18.964	0.584
968.000	555.383	79.999	19.998	103.121	20.202	19.420	0.578
976.000	559.846	79.999	19.996	103.134	20.203	19.348	0.563
984.000	564.337	80.000	19.994	103.123	20.201	19.508	0.554
992.000	568.772	80.000	19.995	103.123	20.201	19.529	0.561
1000.000	573.274	80.001	19.996	103.110	20.200	19.559	0.573
1008.000	577.737	80.002	19.994	103.119	20.194	20.039	0.565
1016.000	582.081	80.001	19.995	103.111	20.199	19.647	0.532
1024.000	586.482	80.000	19.995	103.096	20.195	19.976	0.572
1031.999	590.863	80.000	19.997	103.177	20.193	20.144	0.556
1039.999	595.172	80.000	19.996	103.130	20.188	20.537	0.564
1047.999	599.455	79.999	19.995	103.162	20.195	19.962	0.513
1055.999	603.679	80.000	19.995	103.090	20.187	20.628	0.519
1063.999	607.748	79.998	19.995	103.152	20.193	20.144	0.510
1071.999	611.806	80.001	19.997	103.083	20.186	20.642	0.450
1079.999	615.852	80.001	19.996	103.094	20.189	20.415	0.511
1087.999	619.893	80.004	19.996	103.117	20.185	20.729	0.484
1095.999	623.973	79.999	19.996	103.098	20.185	20.787	0.507
1103.999	628.052	79.997	19.996	103.125	20.187	20.582	0.517
1111.999	632.110	80.000	19.996	103.125	20.188	20.555	0.493
1119.999	636.202	80.002	19.994	103.123	20.188	20.497	0.526
1128.000	640.239	79.998	19.994	103.086	20.178	21.291	0.512
1136.000	644.262	79.999	19.996	103.092	20.180	21.150	0.484
1143.999	648.248	80.001	19.998	103.102	20.177	21.361	0.511
1152.000	652.333	80.000	19.996	103.089	20.178	21.304	0.500
1159.999	656.372	80.004	19.998	103.081	20.174	21.571	0.511
1167.999	660.384	80.002	19.997	103.114	20.181	21.026	0.539
1175.999	664.436	80.000	19.997	103.083	20.174	21.643	0.521
1183.999	668.455	79.999	19.996	103.085	20.175	21.505	0.501
1191.999	672.483	80.001	19.995	103.123	20.169	22.005	0.499
1199.999	676.508	80.001	19.997	103.111	20.173	21.685	0.466
1207.999	680.480	79.999	19.995	103.078	20.165	22.301	0.465
1215.999	684.506	79.998	19.996	103.090	20.164	22.367	0.488
1223.999	688.516	80.000	19.996	103.086	20.168	22.049	0.495
1231.999	692.575	80.000	19.996	103.079	20.163	22.461	0.498
1239.999	696.608	80.000	19.996	103.070	20.159	22.758	0.503
1247.999	700.675	80.002	19.996	103.131	20.164	22.419	0.521
1255.999	704.752	80.002	19.997	103.091	20.159	22.760	0.543
1263.999	708.835	80.000	19.997	103.096	20.158	22.831	0.517
1271.999	712.893	79.999	19.997	103.079	20.155	23.129	0.512
1279.999	716.964	80.000	19.996	103.045	20.153	23.279	0.503
1287.999	720.966	80.001	19.996	103.043	20.151	23.359	0.482
1295.999	724.985	79.999	19.996	103.068	20.150	23.451	0.492
1303.999	728.995	79.999	19.996	103.059	20.149	23.561	0.522
1311.999	733.014	80.002	19.995	103.122	20.145	23.855	0.494
1319.999	737.075	80.002	19.995	103.113	20.146	23.780	0.494
1327.999	741.187	80.001	19.996	103.094	20.146	23.801	0.509
1332.499	743.503	80.001	19.996	103.084	20.145	23.875	0.508