File: 01_Data/Eucalyptus_Flooring/MCC/Eucalyptus_Flooring_30K_min_211026_R3.txt
Sample ID:	C:\MCC\MCC Cal\Test\Eucalyptus_Flooring_30K_min_211026_R3.txt
Sample Weight (mg):	4.48
Heating Rate (C/s):	0.5
Combustor Temp (C):	900
N2 Flow Rate (cc/min):	80
O2 Flow Rate (cc/min):	20
Calibration File:	C:\MCC\MCC Cal\Coeff1 JN10440_30_210304.txt.txt
T Correction Coefficients:	0	1.024463	0
Time Shift (s):	14
*
Time (s)	Temperature (C)	N2 flow rate (cc/min)	O2 flow rate (cc/min)	Flow Rate (cc/min)	Oxygen (%)	HRR (W/g)	Heating rate (C/s)
0.000	106.563	79.997	19.997	103.006	20.476	0.077	0.008
8.000	106.509	80.000	19.995	102.989	20.479	-0.081	-0.004
16.000	106.483	80.000	19.995	102.980	20.475	0.141	0.020
24.000	106.472	79.997	19.996	103.006	20.477	0.014	-0.028
32.000	106.554	79.998	19.995	103.052	20.469	0.583	0.012
40.000	106.882	80.000	19.995	103.111	20.458	1.372	0.050
48.000	107.484	79.997	19.996	103.088	20.446	2.279	0.084
56.001	108.467	79.995	19.996	103.207	20.445	2.336	0.149
64.000	109.874	79.998	19.995	103.232	20.432	3.248	0.202
72.000	111.653	79.999	19.995	103.244	20.431	3.357	0.197
80.000	113.857	79.998	19.997	103.254	20.434	3.110	0.305
88.000	116.355	79.999	19.996	103.229	20.429	3.512	0.302
96.000	119.139	80.001	19.996	103.235	20.429	3.446	0.367
104.000	122.034	79.997	19.995	103.251	20.425	3.803	0.354
112.000	125.187	79.998	19.995	103.242	20.427	3.655	0.383
120.000	128.450	79.999	19.996	103.238	20.429	3.501	0.430
128.000	131.869	79.998	19.996	103.271	20.425	3.761	0.436
136.000	135.429	79.996	19.995	103.244	20.427	3.616	0.453
144.000	139.083	79.998	19.996	103.243	20.427	3.620	0.442
152.000	142.899	79.998	19.996	103.270	20.429	3.477	0.492
160.000	146.701	79.997	19.997	103.244	20.427	3.652	0.455
168.000	150.590	79.999	19.996	103.265	20.424	3.860	0.454
176.000	154.516	80.000	19.996	103.237	20.425	3.801	0.467
184.000	158.396	79.998	19.997	103.245	20.425	3.762	0.477
192.000	162.380	79.998	19.995	103.267	20.419	4.186	0.500
200.000	166.369	79.998	19.996	103.240	20.420	4.129	0.518
208.000	170.347	79.997	19.995	103.263	20.422	3.956	0.488
216.000	174.310	79.995	19.996	103.223	20.418	4.279	0.494
224.000	178.257	80.000	19.996	103.203	20.418	4.288	0.497
232.000	182.229	79.999	19.996	103.239	20.414	4.579	0.485
240.000	186.186	79.998	19.995	103.233	20.418	4.247	0.464
248.000	190.190	79.999	19.996	103.225	20.410	4.819	0.505
256.000	194.170	80.000	19.996	103.230	20.410	4.870	0.489
264.000	198.155	79.997	19.997	103.217	20.407	5.045	0.566
272.000	202.056	79.997	19.996	103.215	20.404	5.273	0.496
280.000	206.004	79.997	19.996	103.227	20.402	5.417	0.503
288.000	209.996	79.998	19.995	103.208	20.397	5.810	0.529
296.000	213.961	79.998	19.995	103.216	20.392	6.167	0.472
304.000	217.926	79.998	19.996	103.213	20.387	6.496	0.501
312.000	221.917	80.000	19.995	103.204	20.378	7.127	0.530
320.000	225.894	79.999	19.994	103.238	20.374	7.424	0.515
328.000	229.840	79.999	19.996	103.226	20.365	8.112	0.475
336.000	233.768	80.000	19.995	103.205	20.355	8.764	0.477
344.000	237.670	79.998	19.995	103.205	20.355	8.835	0.467
352.000	241.595	79.997	19.995	103.236	20.343	9.692	0.482
360.000	245.588	79.997	19.995	103.220	20.333	10.354	0.519
368.000	249.617	79.997	19.996	103.233	20.322	11.155	0.511
376.000	253.561	79.997	19.996	103.228	20.312	11.862	0.504
384.000	257.503	79.997	19.995	103.239	20.295	13.089	0.488
392.000	261.486	79.997	19.995	103.246	20.276	14.508	0.468
400.000	265.452	79.998	19.995	103.244	20.263	15.428	0.497
408.000	269.445	79.998	19.995	103.258	20.237	17.263	0.526
416.000	273.481	79.999	19.994	103.254	20.213	19.003	0.488
424.000	277.510	79.996	19.996	103.278	20.183	21.155	0.488
432.000	281.513	79.998	19.996	103.277	20.148	23.700	0.521
440.000	285.521	79.996	19.995	103.300	20.108	26.577	0.548
448.000	289.551	79.995	19.996	103.313	20.065	29.685	0.505
456.000	293.560	79.995	19.996	103.317	20.021	32.823	0.490
464.000	297.586	79.997	19.995	103.353	19.977	35.992	0.501
472.000	301.642	79.999	19.995	103.361	19.925	39.793	0.488
480.000	305.604	79.998	19.995	103.357	19.875	43.389	0.502
488.000	309.650	79.999	19.995	103.406	19.816	47.608	0.548
496.000	313.849	80.001	19.994	103.428	19.756	51.965	0.547
504.000	318.007	79.999	19.995	103.433	19.700	55.980	0.532
512.000	322.326	79.998	19.995	103.471	19.647	59.847	0.528
520.000	326.680	79.998	19.996	103.468	19.608	62.644	0.561
528.000	331.023	79.996	19.995	103.438	19.596	63.490	0.569
536.000	335.414	79.998	19.996	103.405	19.607	62.612	0.546
544.000	339.693	79.997	19.996	103.360	19.673	57.890	0.515
552.000	343.921	79.998	19.997	103.310	19.769	50.927	0.512
560.000	348.170	79.999	19.996	103.249	19.890	42.243	0.526
568.000	352.361	79.998	19.995	103.205	20.004	33.997	0.525
576.000	356.567	80.000	19.996	103.197	20.109	26.507	0.542
584.000	360.674	80.000	19.996	103.196	20.181	21.263	0.529
592.000	364.673	79.997	19.995	103.165	20.232	17.608	0.525
600.000	368.673	79.998	19.994	103.166	20.268	15.064	0.507
608.000	372.653	79.998	19.997	103.163	20.287	13.672	0.531
616.000	376.637	79.997	19.997	103.158	20.307	12.241	0.491
624.000	380.696	79.997	19.997	103.155	20.315	11.641	0.500
632.000	384.730	79.999	19.997	103.138	20.323	11.120	0.525
640.000	388.806	79.998	19.997	103.157	20.331	10.514	0.515
648.000	392.887	80.000	19.996	103.152	20.333	10.366	0.520
656.000	396.995	80.000	19.995	103.169	20.341	9.800	0.508
664.000	401.074	79.999	19.995	103.121	20.337	10.059	0.526
672.000	405.110	79.996	19.996	103.159	20.343	9.645	0.501
680.000	409.157	80.000	19.996	103.146	20.350	9.150	0.510
688.000	413.237	79.999	19.995	103.125	20.352	9.009	0.513
696.000	417.245	79.998	19.995	103.133	20.350	9.139	0.499
704.000	421.336	79.997	19.997	103.140	20.353	8.906	0.523
712.000	425.354	80.000	19.996	103.122	20.351	9.054	0.509
720.000	429.367	79.999	19.995	103.133	20.347	9.341	0.483
728.000	433.480	79.998	19.996	103.126	20.357	8.617	0.516
736.000	437.178	79.999	19.995	103.123	20.361	8.330	0.176
744.000	441.479	80.000	19.995	103.117	20.363	8.188	0.539
752.000	445.428	79.998	19.995	103.131	20.368	7.854	0.468
760.000	449.389	79.996	19.995	103.138	20.377	7.226	0.482
768.000	453.279	79.998	19.996	103.120	20.375	7.380	0.512
776.000	457.213	79.998	19.995	103.122	20.371	7.625	0.478
784.000	461.058	79.997	19.995	103.130	20.378	7.126	0.481
792.000	464.949	79.998	19.995	103.118	20.379	7.051	0.485
800.000	468.824	80.000	19.996	103.123	20.382	6.863	0.496
808.000	472.765	79.999	19.996	103.106	20.386	6.577	0.506
816.000	476.778	79.999	19.996	103.133	20.380	6.973	0.511
824.000	480.780	80.000	19.996	103.110	20.387	6.498	0.470
832.000	484.751	79.997	19.996	103.126	20.386	6.537	0.509
840.000	488.734	79.997	19.995	103.121	20.392	6.163	0.497
848.000	492.695	79.999	19.994	103.127	20.388	6.403	0.497
856.000	496.791	79.997	19.995	103.115	20.388	6.411	0.495
864.000	500.852	79.998	19.995	103.113	20.385	6.647	0.542
872.000	504.932	80.000	19.995	103.114	20.393	6.090	0.485
880.000	509.006	80.000	19.995	103.119	20.392	6.137	0.505
888.000	513.074	79.999	19.996	103.122	20.394	6.005	0.542
896.000	517.141	79.999	19.995	103.135	20.395	5.898	0.507
904.000	521.263	80.001	19.995	103.134	20.396	5.835	0.506
912.000	525.280	79.998	19.997	103.105	20.392	6.135	0.488
920.000	529.345	79.999	19.996	103.107	20.389	6.358	0.517
928.000	533.358	79.999	19.996	103.118	20.390	6.248	0.506
936.000	537.349	79.998	19.996	103.121	20.392	6.158	0.501
944.000	541.521	79.998	19.995	103.118	20.392	6.136	0.539
952.000	545.633	80.000	19.996	103.113	20.391	6.174	0.523
960.000	549.753	79.999	19.995	103.139	20.397	5.781	0.522
968.000	553.939	79.998	19.995	103.093	20.398	5.667	0.516
976.000	558.093	79.999	19.995	103.086	20.400	5.541	0.561
984.000	562.155	80.000	19.995	103.092	20.395	5.890	0.497
992.000	566.131	79.998	19.996	103.087	20.396	5.882	0.475
1000.000	570.043	79.998	19.996	103.105	20.396	5.865	0.483
1008.000	574.078	79.997	19.997	103.106	20.394	5.994	0.506
1016.000	578.121	79.998	19.996	103.112	20.392	6.126	0.514
1024.000	582.180	79.998	19.996	103.120	20.397	5.742	0.478
1032.000	586.326	79.998	19.996	103.103	20.398	5.710	0.529
1040.000	590.522	80.000	19.996	103.116	20.398	5.704	0.540
1048.000	594.770	79.997	19.994	103.121	20.395	5.921	0.506
1056.000	598.966	80.001	19.995	103.083	20.393	6.073	0.510
1064.001	603.100	80.001	19.996	103.103	20.390	6.282	0.501
1072.000	607.272	79.998	19.996	103.099	20.393	6.081	0.530
1080.001	611.404	79.997	19.997	103.094	20.394	5.963	0.511
1088.000	615.507	79.997	19.997	103.102	20.398	5.703	0.523
1096.001	619.584	79.998	19.996	103.106	20.395	5.937	0.525
1104.000	623.678	79.997	19.997	103.092	20.392	6.112	0.505
1112.000	627.703	79.998	19.996	103.084	20.392	6.143	0.503
1120.000	631.727	80.001	19.995	103.084	20.394	5.963	0.520
1128.000	635.763	79.999	19.995	103.096	20.398	5.719	0.497
1136.000	639.875	80.001	19.996	103.085	20.395	5.914	0.509
1144.000	643.944	80.001	19.995	103.092	20.399	5.610	0.511
1152.000	648.027	79.999	19.994	103.086	20.397	5.798	0.485
1160.000	652.194	79.997	19.995	103.084	20.398	5.705	0.533
1168.000	656.371	79.997	19.997	103.095	20.395	5.902	0.554
1176.000	660.452	79.997	19.995	103.084	20.394	5.991	0.483
1184.000	664.485	79.998	19.996	103.079	20.395	5.947	0.511
1192.000	668.545	79.997	19.997	103.081	20.394	5.976	0.503
1200.000	672.536	79.999	19.997	103.080	20.390	6.249	0.503
1208.000	676.531	79.999	19.996	103.075	20.392	6.155	0.475
1216.000	680.522	79.999	19.995	103.046	20.392	6.100	0.513
1224.000	684.422	80.001	19.996	103.082	20.395	5.933	0.494
1232.000	688.318	79.999	19.996	103.077	20.395	5.916	0.456
1240.000	692.352	79.998	19.995	103.084	20.393	6.096	0.495
1248.001	696.403	79.999	19.995	103.071	20.389	6.323	0.510
1256.000	700.434	79.998	19.995	103.079	20.393	6.047	0.508
1264.000	704.369	79.997	19.998	103.080	20.394	5.987	0.452
1272.000	708.175	79.998	19.995	103.098	20.394	6.021	0.488
1280.000	711.989	79.998	19.996	103.066	20.397	5.761	0.490
1288.000	715.862	79.997	19.997	103.080	20.393	6.030	0.467
1296.000	719.686	79.997	19.996	103.071	20.391	6.217	0.471
1304.000	723.362	79.999	19.995	103.081	20.391	6.201	0.458
1312.000	727.086	80.000	19.995	103.070	20.391	6.223	0.456
1320.000	730.722	79.999	19.997	103.068	20.391	6.189	0.459
1328.000	734.379	79.998	19.996	103.079	20.392	6.155	0.470
1336.000	738.227	79.999	19.995	103.089	20.391	6.185	0.482
1344.000	742.445	79.997	19.995	103.079	20.384	6.698	0.538
1345.000	742.997	79.998	19.995	103.081	20.384	6.679	0.532