File: 01_Data/Eucalyptus_Flooring/MCC/Eucalyptus_Flooring_30K_min_211026_O1.txt
Sample ID:	C:\MCC\MCC Cal\Test\Eucalyptus_Flooring_30K_min_211026_R1.txt
Sample Weight (mg):	5
Heating Rate (C/s):	0.5
Combustor Temp (C):	900
N2 Flow Rate (cc/min):	80
O2 Flow Rate (cc/min):	20
Calibration File:	C:\MCC\MCC Cal\Coeff1 JN10440_30_210304.txt.txt
T Correction Coefficients:	0	1.024463	0
Time Shift (s):	14
*
Time (s)	Temperature (C)	N2 flow rate (cc/min)	O2 flow rate (cc/min)	Flow Rate (cc/min)	Oxygen (%)	HRR (W/g)	Heating rate (C/s)
0.000	108.630	79.991	19.995	102.996	20.244	0.318	-0.017
8.000	108.633	79.993	19.996	102.986	20.238	0.736	-0.001
16.000	108.625	79.993	19.996	102.972	20.231	1.167	-0.014
24.000	108.928	79.991	19.995	103.109	20.215	2.217	0.097
32.000	109.677	79.991	19.997	103.176	20.203	2.992	0.151
40.000	110.935	79.993	19.996	103.225	20.203	3.003	0.178
48.000	112.640	79.993	19.995	103.256	20.202	3.071	0.220
56.000	114.698	79.994	19.996	103.212	20.196	3.454	0.302
64.000	117.039	79.996	19.995	103.211	20.199	3.215	0.306
72.000	119.675	79.994	19.996	103.261	20.192	3.696	0.337
80.000	122.623	79.993	19.996	103.232	20.188	3.958	0.375
88.000	125.872	79.993	19.996	103.290	20.196	3.445	0.408
96.000	129.253	79.993	19.997	103.267	20.189	3.906	0.429
104.000	132.810	79.991	19.997	103.245	20.193	3.612	0.445
112.000	136.493	79.992	19.997	103.224	20.191	3.783	0.459
120.000	140.305	79.994	19.996	103.215	20.192	3.685	0.479
128.000	144.215	79.993	19.996	103.243	20.191	3.743	0.514
136.000	148.133	79.993	19.996	103.210	20.193	3.660	0.509
144.000	152.077	79.996	19.995	103.244	20.190	3.798	0.507
152.000	155.937	79.993	19.996	103.231	20.191	3.733	0.507
160.000	159.849	79.994	19.995	103.226	20.191	3.731	0.491
168.000	163.767	79.994	19.997	103.189	20.189	3.892	0.491
176.000	167.722	79.994	19.996	103.244	20.187	4.048	0.480
184.000	171.672	79.993	19.995	103.183	20.184	4.216	0.471
192.000	175.601	79.992	19.998	103.202	20.187	4.027	0.485
200.000	179.538	79.996	19.995	103.186	20.187	4.038	0.483
208.000	183.487	79.993	19.996	103.202	20.188	3.922	0.491
216.000	187.515	79.995	19.997	103.229	20.186	4.051	0.495
224.000	191.480	79.995	19.995	103.185	20.185	4.177	0.484
232.000	195.397	79.995	19.996	103.205	20.186	4.091	0.476
240.000	199.436	79.994	19.997	103.183	20.183	4.256	0.523
248.000	203.406	79.993	19.996	103.184	20.174	4.864	0.499
256.000	207.414	79.994	19.995	103.179	20.175	4.765	0.506
264.000	211.433	79.993	19.995	103.199	20.170	5.133	0.519
272.000	215.408	79.991	19.997	103.206	20.165	5.448	0.491
280.000	219.371	79.995	19.996	103.198	20.161	5.688	0.493
288.000	223.330	79.994	19.996	103.174	20.154	6.157	0.503
296.000	227.270	79.994	19.996	103.174	20.150	6.430	0.471
304.000	231.292	79.994	19.996	103.195	20.140	7.046	0.494
312.000	235.243	79.995	19.996	103.178	20.136	7.286	0.537
320.000	239.174	79.992	19.995	103.184	20.131	7.648	0.502
328.000	243.110	79.992	19.995	103.175	20.116	8.590	0.492
336.000	246.994	79.993	19.995	103.185	20.109	9.038	0.493
344.000	250.995	79.991	19.995	103.207	20.100	9.612	0.497
352.000	254.976	79.993	19.995	103.204	20.092	10.163	0.488
360.000	258.981	79.996	19.996	103.189	20.078	11.048	0.542
368.000	262.956	79.994	19.998	103.215	20.063	11.976	0.486
376.000	266.946	79.994	19.995	103.228	20.046	13.086	0.491
384.000	271.013	79.994	19.996	103.212	20.026	14.408	0.534
392.000	275.046	79.995	19.996	103.217	19.996	16.319	0.478
400.000	279.093	79.993	19.997	103.249	19.968	18.123	0.502
408.000	283.053	79.994	19.995	103.256	19.930	20.607	0.476
416.000	287.088	79.995	19.996	103.262	19.892	23.055	0.520
424.000	291.055	79.992	19.996	103.294	19.846	25.976	0.494
432.000	295.104	79.992	19.996	103.295	19.799	29.064	0.506
440.000	299.129	79.994	19.995	103.320	19.760	31.520	0.501
448.000	303.113	79.994	19.997	103.330	19.708	34.932	0.487
456.000	307.106	79.994	19.996	103.360	19.654	38.374	0.505
464.000	311.085	79.996	19.996	103.366	19.604	41.619	0.487
472.000	315.118	79.994	19.995	103.370	19.552	45.008	0.494
480.000	319.150	79.992	19.997	103.397	19.498	48.477	0.517
488.000	323.131	79.994	19.995	103.417	19.457	51.139	0.474
496.000	327.076	79.993	19.996	103.409	19.426	53.116	0.485
504.000	331.038	79.993	19.995	103.397	19.423	53.304	0.472
512.000	335.041	79.993	19.996	103.361	19.446	51.783	0.516
520.000	339.047	79.996	19.996	103.305	19.493	48.708	0.496
528.000	343.024	79.995	19.996	103.268	19.577	43.284	0.506
536.000	347.066	79.994	19.995	103.225	19.678	36.798	0.531
544.000	351.113	79.994	19.996	103.171	19.778	30.346	0.505
552.000	355.290	79.995	19.997	103.138	19.876	24.014	0.507
560.000	359.373	79.993	19.996	103.197	19.954	19.011	0.497
568.000	363.490	79.993	19.996	103.130	20.003	15.857	0.526
576.000	367.531	79.992	19.997	103.126	20.041	13.412	0.497
584.000	371.627	79.994	19.997	103.162	20.067	11.745	0.495
592.000	375.690	79.992	19.996	103.142	20.086	10.517	0.477
600.000	379.769	79.995	19.995	103.092	20.104	9.352	0.527
608.000	383.771	79.995	19.995	103.091	20.104	9.342	0.499
616.000	387.806	79.994	19.995	103.101	20.110	8.966	0.512
624.000	391.778	79.995	19.995	103.135	20.130	7.652	0.498
632.000	395.849	79.993	19.995	103.110	20.124	8.056	0.518
640.000	399.847	79.993	19.997	103.092	20.126	7.926	0.521
648.000	403.832	79.992	19.996	103.165	20.134	7.396	0.494
656.000	407.868	79.993	19.996	103.124	20.141	6.999	0.511
664.000	411.957	79.992	19.996	103.095	20.137	7.210	0.517
672.000	416.017	79.993	19.997	103.116	20.137	7.238	0.544
680.000	420.149	79.993	19.996	103.167	20.141	6.970	0.539
688.000	424.288	79.994	19.995	103.133	20.140	7.018	0.519
696.000	428.465	79.992	19.996	103.096	20.135	7.346	0.502
704.000	432.610	79.996	19.994	103.126	20.144	6.808	0.535
712.000	436.796	79.996	19.995	103.095	20.150	6.410	0.537
720.000	440.933	79.992	19.996	103.077	20.154	6.107	0.506
728.000	445.076	79.993	19.997	103.123	20.155	6.056	0.542
736.000	449.165	79.993	19.997	103.088	20.158	5.906	0.509
744.000	453.178	79.992	19.995	103.111	20.161	5.658	0.506
752.000	457.248	79.991	19.996	103.107	20.167	5.311	0.515
760.000	461.245	79.992	19.997	103.096	20.169	5.142	0.492
768.000	465.262	79.996	19.995	103.099	20.175	4.776	0.512
776.000	469.292	79.993	19.996	103.097	20.177	4.688	0.500
784.000	473.383	79.996	19.995	103.093	20.174	4.835	0.513
792.000	477.474	79.996	19.995	103.072	20.181	4.391	0.496
800.000	481.517	79.992	19.996	103.098	20.180	4.435	0.506
808.000	485.632	79.992	19.995	103.092	20.184	4.228	0.553
816.000	489.660	79.994	19.997	103.074	20.187	3.994	0.498
824.000	493.835	79.994	19.996	103.099	20.192	3.707	0.549
832.000	497.956	79.993	19.997	103.096	20.190	3.840	0.528
840.000	502.071	79.995	19.997	103.093	20.187	4.041	0.470
848.000	506.203	79.993	19.997	103.094	20.189	3.868	0.513
856.000	510.337	79.995	19.996	103.069	20.185	4.150	0.494
864.000	514.404	79.995	19.996	103.083	20.189	3.857	0.504
872.000	518.497	79.996	19.996	103.066	20.192	3.678	0.531
880.000	522.514	79.992	19.995	103.091	20.194	3.588	0.493
888.000	526.533	79.993	19.995	103.090	20.191	3.781	0.497
896.000	530.635	79.995	19.997	103.088	20.194	3.586	0.479
904.000	534.751	79.995	19.996	103.069	20.195	3.483	0.549
912.000	538.814	79.994	19.998	103.082	20.190	3.830	0.539
920.000	542.997	79.994	19.996	103.061	20.197	3.381	0.514
928.000	547.181	79.994	19.997	103.103	20.199	3.209	0.515
936.000	551.065	79.994	19.996	103.046	20.196	3.403	0.538
944.000	555.153	79.993	19.996	103.074	20.197	3.377	0.499
952.000	559.127	79.996	19.996	103.030	20.196	3.463	0.513
960.000	563.016	79.995	19.997	103.083	20.200	3.203	0.489
968.000	566.880	79.995	19.997	103.055	20.203	2.994	0.508
976.000	570.858	79.994	19.996	103.056	20.203	2.975	0.516
984.000	574.835	79.996	19.997	103.038	20.205	2.864	0.513
992.000	578.838	79.994	19.996	103.071	20.202	3.055	0.509
1000.000	582.862	79.993	19.996	103.118	20.207	2.741	0.535
1008.000	586.900	79.995	19.996	103.100	20.199	3.210	0.484
1016.000	591.086	79.995	19.996	103.095	20.201	3.136	0.529
1024.000	595.253	79.996	19.996	103.075	20.201	3.140	0.529
1032.000	599.391	79.995	19.998	103.045	20.204	2.925	0.519
1040.000	603.541	79.995	19.997	103.092	20.202	3.067	0.502
1048.000	607.780	79.992	19.997	103.081	20.200	3.168	0.528
1056.000	612.191	79.994	19.996	103.091	20.201	3.121	0.581
1064.000	616.624	79.992	19.996	103.056	20.197	3.383	0.577
1072.000	621.100	79.991	19.996	103.109	20.204	2.943	0.548
1080.000	625.570	79.994	19.995	103.067	20.198	3.305	0.532
1088.000	630.056	79.994	19.996	103.050	20.198	3.293	0.539
1096.000	634.497	79.993	19.996	103.075	20.204	2.942	0.586
1104.000	638.851	79.995	19.996	103.086	20.202	3.029	0.555
1112.000	643.111	79.995	19.996	103.056	20.201	3.128	0.509
1120.001	647.310	79.993	19.996	103.069	20.203	3.006	0.524
1128.000	651.476	79.994	19.996	103.025	20.201	3.079	0.551
1136.001	655.578	79.994	19.996	103.066	20.205	2.830	0.563
1144.001	659.624	79.995	19.995	103.046	20.202	3.016	0.479
1152.000	663.722	79.993	19.997	103.058	20.204	2.927	0.485
1160.000	667.759	79.995	19.996	103.072	20.209	2.578	0.515
1168.000	671.890	79.996	19.994	103.069	20.202	3.055	0.489
1176.001	675.858	79.995	19.996	103.059	20.203	2.970	0.062
1184.000	680.139	79.994	19.996	103.075	20.205	2.876	0.489
1192.001	684.182	79.995	19.996	103.035	20.200	3.145	0.515
1200.000	688.226	79.993	19.996	103.053	20.205	2.835	0.497
1208.000	692.232	79.991	19.998	103.048	20.200	3.158	0.471
1216.000	696.305	79.994	19.997	103.056	20.203	2.986	0.493
1224.000	700.326	79.993	19.996	103.054	20.204	2.929	0.514
1232.000	704.399	79.994	19.996	103.048	20.204	2.932	0.488
1240.000	708.480	79.994	19.996	103.052	20.201	3.090	0.507
1248.000	712.521	79.995	19.996	103.047	20.199	3.224	0.521
1256.000	716.603	79.994	19.995	103.061	20.206	2.810	0.533
1264.000	720.627	79.992	19.996	103.048	20.203	2.956	0.485
1272.000	724.652	79.995	19.995	103.034	20.201	3.131	0.502
1280.001	728.677	79.994	19.996	103.053	20.201	3.103	0.513
1288.000	732.718	79.994	19.996	103.052	20.201	3.135	0.510
1296.001	736.724	79.993	19.997	103.030	20.200	3.152	0.506
1304.000	740.749	79.994	19.997	103.059	20.200	3.177	0.507
1309.500	743.532	79.994	19.996	103.010	20.201	3.090	0.507