File: 01_Data/Eucalyptus_Flooring/MCC/Eucalyptus_Flooring_30K_min_211028_R4.txt
Sample ID:	C:\MCC\MCC Cal\Test\Eucalyptus_Flooring\Eucalyptus_Flooring_30K_min_211028_R4.txt
Sample Weight (mg):	4.42
Heating Rate (C/s):	0.5
Combustor Temp (C):	900
N2 Flow Rate (cc/min):	80
O2 Flow Rate (cc/min):	20
Calibration File:	C:\MCC\MCC Cal\Coeff1 JN10440_30_210304.txt.txt
T Correction Coefficients:	0	1.024463	0
Time Shift (s):	14
*
Time (s)	Temperature (C)	N2 flow rate (cc/min)	O2 flow rate (cc/min)	Flow Rate (cc/min)	Oxygen (%)	HRR (W/g)	Heating rate (C/s)
-0.001	107.722	80.000	19.995	102.937	20.177	-0.124	-0.032
8.000	107.758	80.001	19.994	102.948	20.177	-0.150	0.017
16.000	107.736	80.001	19.995	102.931	20.179	-0.311	0.007
24.000	107.750	80.000	19.997	102.989	20.171	0.269	0.013
32.000	107.975	79.999	19.996	103.095	20.155	1.495	0.049
40.000	108.716	79.997	19.997	103.118	20.143	2.377	0.141
47.999	109.903	79.998	19.995	103.150	20.138	2.675	0.168
55.999	111.426	79.998	19.996	103.144	20.137	2.783	0.216
63.999	113.332	79.998	19.992	103.152	20.139	2.658	0.258
71.999	115.464	79.998	19.995	103.153	20.136	2.850	0.280
80.000	117.831	79.998	19.996	103.157	20.135	2.919	0.288
87.999	120.356	79.998	19.995	103.189	20.131	3.224	0.288
95.999	123.203	80.000	19.994	103.190	20.132	3.160	0.383
103.999	126.235	80.001	19.994	103.189	20.130	3.306	0.404
111.999	129.465	79.999	19.995	103.191	20.129	3.338	0.415
119.999	132.860	79.998	19.995	103.195	20.132	3.160	0.445
127.999	136.407	79.997	19.995	103.192	20.131	3.204	0.488
136.000	140.118	79.997	19.996	103.195	20.135	2.921	0.476
144.000	143.887	79.996	19.996	103.194	20.131	3.234	0.499
152.000	147.676	79.998	19.997	103.192	20.133	3.073	0.443
160.000	151.547	79.999	19.995	103.188	20.134	3.011	0.464
168.000	155.448	79.997	19.996	103.180	20.133	3.037	0.505
176.000	159.385	79.997	19.996	103.191	20.129	3.372	0.515
184.000	163.375	80.001	19.994	103.185	20.130	3.320	0.502
192.000	167.325	79.999	19.998	103.186	20.128	3.434	0.500
200.000	171.354	79.999	19.994	103.180	20.130	3.285	0.519
208.000	175.327	79.998	19.996	103.162	20.131	3.181	0.524
216.000	179.324	79.999	19.995	103.166	20.132	3.128	0.488
224.000	183.394	80.000	19.994	103.154	20.134	3.022	0.541
232.000	187.375	79.998	19.996	103.159	20.133	3.098	0.500
240.000	191.280	80.000	19.997	103.148	20.131	3.209	0.486
248.000	195.232	79.998	19.996	103.150	20.132	3.132	0.490
256.000	199.116	79.999	19.994	103.152	20.125	3.620	0.481
264.000	203.036	80.001	19.994	103.156	20.126	3.602	0.490
272.000	206.917	79.997	19.997	103.154	20.122	3.892	0.463
280.000	210.915	79.999	19.993	103.149	20.115	4.371	0.490
288.000	214.861	79.999	19.994	103.156	20.112	4.568	0.474
296.000	218.886	80.000	19.994	103.154	20.106	5.036	0.501
304.000	222.918	79.997	19.993	103.156	20.103	5.283	0.504
312.000	226.845	79.999	19.997	103.156	20.095	5.865	0.509
320.000	230.962	79.996	20.001	103.156	20.092	6.092	0.508
328.000	234.992	79.997	19.996	103.164	20.082	6.811	0.531
336.000	238.963	79.999	19.995	103.152	20.078	7.040	0.455
344.000	243.045	80.000	19.995	103.156	20.071	7.550	0.517
352.000	247.005	80.001	19.994	103.152	20.059	8.424	0.470
360.000	251.078	79.999	19.996	103.158	20.049	9.221	0.479
368.000	255.106	79.997	19.995	103.161	20.042	9.729	0.503
376.000	259.086	79.999	19.992	103.167	20.029	10.645	0.516
384.000	263.059	79.998	19.995	103.219	20.011	11.927	0.505
392.000	267.037	79.997	19.994	103.188	19.992	13.375	0.497
400.000	271.011	80.000	19.995	103.190	19.971	14.852	0.482
408.000	275.004	79.999	19.995	103.190	19.941	17.058	0.500
416.000	278.922	79.999	19.995	103.209	19.914	19.042	0.483
424.000	282.815	80.000	19.997	103.216	19.878	21.627	0.483
432.000	286.778	79.997	19.994	103.229	19.845	24.102	0.500
440.000	290.814	79.997	19.997	103.249	19.799	27.446	0.540
448.000	294.742	79.999	19.996	103.271	19.754	30.732	0.497
456.000	298.728	79.998	19.995	103.283	19.710	33.954	0.474
464.000	302.752	79.998	19.994	103.296	19.658	37.717	0.506
472.000	306.751	79.999	19.996	103.309	19.607	41.466	0.493
480.000	310.750	80.001	19.995	103.324	19.554	45.283	0.516
488.000	314.775	79.997	19.997	103.344	19.504	48.951	0.500
496.000	318.773	80.001	19.995	103.349	19.459	52.228	0.519
504.000	322.734	80.001	19.996	103.352	19.419	55.147	0.496
512.000	326.630	79.999	19.993	103.350	19.395	56.922	0.456
520.000	330.599	79.998	19.996	103.351	19.393	57.019	0.503
528.000	334.551	79.995	19.994	103.334	19.413	55.533	0.489
536.000	338.562	79.999	19.995	103.283	19.461	52.037	0.491
544.000	342.611	79.997	19.997	103.241	19.543	46.073	0.508
552.000	346.745	79.999	19.995	103.203	19.640	38.952	0.550
560.000	350.867	80.001	19.994	103.156	19.740	31.671	0.494
568.000	355.071	80.000	19.995	103.138	19.828	25.256	0.531
576.000	359.182	80.000	19.995	103.131	19.898	20.210	0.530
584.000	363.283	80.001	19.996	103.113	19.954	16.118	0.524
592.000	367.359	79.998	19.997	103.109	19.986	13.766	0.512
600.000	371.421	79.999	19.996	103.085	20.013	11.802	0.483
608.000	375.414	79.998	19.996	103.091	20.035	10.184	0.502
616.000	379.429	80.001	19.996	103.081	20.048	9.272	0.500
624.000	383.420	79.997	19.995	103.087	20.060	8.411	0.501
632.000	387.372	80.000	19.995	103.088	20.066	7.938	0.484
640.000	391.421	80.000	19.995	103.019	20.072	7.520	0.507
648.000	395.520	80.000	19.995	103.080	20.076	7.185	0.517
656.000	399.580	80.002	19.994	103.080	20.078	7.071	0.480
664.000	403.626	80.002	19.995	103.071	20.078	7.063	0.484
672.000	407.668	80.000	19.995	103.075	20.083	6.711	0.515
680.000	411.737	79.999	19.996	103.071	20.083	6.702	0.518
688.000	415.747	79.997	19.995	103.075	20.087	6.397	0.491
696.000	419.814	79.996	19.997	103.022	20.085	6.593	0.489
704.000	423.854	79.998	19.995	103.076	20.082	6.778	0.490
712.000	427.917	79.999	19.993	103.077	20.089	6.243	0.525
720.000	431.923	80.000	19.996	103.010	20.092	6.029	0.480
728.000	436.038	79.998	19.997	103.064	20.092	6.043	0.505
736.000	439.998	80.001	19.998	103.072	20.095	5.868	0.472
744.000	443.986	79.998	19.998	103.066	20.096	5.729	0.497
752.000	447.844	79.997	19.995	103.072	20.101	5.387	0.493
760.000	451.863	79.993	20.001	103.077	20.099	5.578	0.505
768.000	456.146	80.001	19.989	103.076	20.098	5.612	0.528
776.000	460.448	79.998	19.995	103.077	20.103	5.263	0.563
784.000	464.808	79.998	19.996	103.073	20.106	5.046	0.554
792.000	469.226	80.000	19.995	103.070	20.108	4.877	0.571
800.000	473.673	80.000	19.994	103.069	20.114	4.482	0.578
808.000	478.072	79.999	19.994	103.072	20.111	4.692	0.536
816.000	482.458	80.001	19.996	103.063	20.114	4.415	0.581
824.000	486.805	80.001	19.994	103.055	20.120	4.048	0.591
832.000	490.658	79.999	19.994	103.045	20.122	3.871	0.734
840.000	495.137	79.999	19.994	103.052	20.126	3.550	0.466
848.000	499.265	79.998	19.997	103.048	20.128	3.464	0.502
856.000	503.437	80.000	19.996	103.062	20.124	3.695	0.553
864.000	507.507	80.000	19.996	103.053	20.131	3.245	0.509
872.000	511.628	80.000	19.997	103.047	20.127	3.494	0.565
880.000	515.785	80.000	19.996	103.048	20.130	3.321	0.519
888.000	519.925	80.001	19.996	103.039	20.130	3.287	0.539
896.000	524.089	80.002	19.995	103.038	20.134	3.031	0.546
904.000	528.198	80.000	19.995	103.047	20.128	3.430	0.489
912.000	532.345	80.002	19.996	103.044	20.131	3.219	0.500
920.000	536.459	79.998	19.995	103.034	20.132	3.149	0.505
928.000	540.592	80.001	19.993	103.034	20.135	2.888	0.519
936.000	544.687	79.998	19.996	103.034	20.136	2.834	0.516
944.000	548.768	79.996	19.995	103.034	20.137	2.760	0.511
952.000	552.826	80.001	19.995	103.034	20.136	2.822	0.502
960.000	556.950	79.998	19.995	103.035	20.135	2.934	0.504
968.000	560.960	80.000	19.995	103.033	20.135	2.892	0.504
976.000	564.973	80.003	19.994	103.031	20.141	2.509	0.519
984.000	568.988	80.000	19.993	103.032	20.141	2.491	0.466
992.000	573.108	79.999	19.996	103.029	20.142	2.385	0.499
1000.000	577.216	79.999	19.994	103.029	20.140	2.529	0.501
1008.000	581.331	80.001	19.994	103.035	20.137	2.784	0.522
1016.000	585.369	79.999	19.992	103.030	20.143	2.361	0.512
1024.000	589.444	79.997	19.997	103.030	20.141	2.481	0.519
1031.999	593.483	79.999	19.995	103.032	20.143	2.352	0.497
1039.999	597.549	80.001	19.995	103.020	20.144	2.234	0.499
1047.999	601.596	80.000	19.992	103.028	20.144	2.244	0.513
1055.999	605.503	80.001	20.000	103.017	20.141	2.513	0.480
1063.999	609.456	80.003	19.993	103.024	20.143	2.342	0.523
1071.999	613.388	79.998	19.997	103.027	20.144	2.238	0.479
1079.999	617.378	79.996	19.997	103.029	20.139	2.635	0.497
1087.999	621.355	79.995	19.995	103.031	20.140	2.539	0.494
1096.000	625.365	79.999	19.995	103.009	20.139	2.653	0.522
1104.000	629.416	80.003	19.992	103.028	20.137	2.763	0.514
1111.999	633.372	80.000	19.994	103.029	20.137	2.768	0.487
1119.999	637.443	80.002	19.992	103.024	20.137	2.773	0.508
1127.999	641.445	80.001	19.995	103.031	20.138	2.739	0.487
1135.999	645.503	80.002	19.995	103.034	20.140	2.587	0.514
1143.999	649.501	79.998	19.996	103.023	20.132	3.111	0.516
1151.999	653.555	79.999	19.995	103.033	20.130	3.248	0.458
1160.000	657.613	79.998	19.994	103.021	20.137	2.749	0.515
1167.999	661.637	80.000	19.994	103.027	20.137	2.759	0.534
1175.999	665.699	79.999	19.996	103.023	20.136	2.823	0.528
1183.999	669.741	79.999	19.994	103.011	20.133	3.052	0.513
1191.999	673.789	80.002	19.994	103.023	20.137	2.769	0.508
1199.999	677.810	80.000	19.995	103.024	20.136	2.817	0.476
1207.999	681.801	79.998	19.995	103.009	20.141	2.510	0.509
1215.999	685.756	80.001	19.994	102.998	20.139	2.622	0.523
1223.999	689.735	79.998	19.995	103.006	20.138	2.705	0.494
1231.999	693.759	79.999	19.995	102.995	20.139	2.650	0.486
1239.999	697.810	79.999	19.996	102.996	20.142	2.420	0.525
1247.999	701.894	80.000	19.994	103.001	20.137	2.777	0.478
1255.999	706.134	80.001	19.994	103.006	20.139	2.605	0.535
1263.999	710.319	79.997	19.996	103.014	20.142	2.420	0.495
1272.000	714.535	79.998	20.000	103.000	20.141	2.500	0.538
1279.999	718.669	79.998	19.991	103.004	20.142	2.400	0.511
1287.999	722.606	80.000	19.994	103.000	20.143	2.354	0.495
1295.999	726.532	80.001	19.994	103.001	20.143	2.354	0.477
1303.999	730.525	80.000	19.992	102.998	20.141	2.454	0.495
1311.999	734.442	79.999	19.995	102.999	20.141	2.520	0.466
1319.999	738.412	79.994	19.999	102.997	20.141	2.460	0.499
1327.999	742.528	79.999	19.996	103.012	20.145	2.168	0.511
1329.999	743.483	79.998	19.997	103.004	20.144	2.240	0.481