File: 01_Data/Fiber_Cement_Board/MCC/Fiber_Cement_Board_30K_min_210608_R2.txt
Sample ID:	C:\MCC\MCC Cal\Test\Fiber_Cement_Board\Fiber_Cement_Board_30_2.txt
Sample Weight (mg):	3.79
Heating Rate (C/s):	0.5
Combustor Temp (C):	900
N2 Flow Rate (cc/min):	80
O2 Flow Rate (cc/min):	20
Calibration File:	C:\MCC\MCC Cal\Coeff1 JN10440_30_210304.txt.txt
T Correction Coefficients:	0	1.024463	0
Time Shift (s):	14
*
Time (s)	Temperature (C)	N2 flow rate (cc/min)	O2 flow rate (cc/min)	Flow Rate (cc/min)	Oxygen (%)	HRR (W/g)	Heating rate (C/s)
0.000	106.272	79.985	19.992	99.866	20.034	-0.168	-0.009
8.000	106.285	79.985	19.992	99.875	20.036	-0.337	-0.002
16.001	106.392	79.985	19.992	99.937	20.019	1.087	0.012
24.000	106.779	79.986	19.993	100.057	20.012	1.640	0.051
32.000	107.538	79.985	19.992	100.027	20.000	2.648	0.136
40.000	108.683	79.983	19.992	100.060	20.001	2.575	0.173
48.000	110.251	79.982	19.993	100.060	19.995	3.101	0.233
56.000	112.014	79.983	19.994	100.063	19.993	3.276	0.244
64.000	114.141	79.984	19.993	100.031	19.988	3.686	0.293
72.000	116.429	79.984	19.991	100.086	19.988	3.693	0.276
80.000	118.979	79.986	19.991	100.096	19.985	3.913	0.339
88.001	121.715	79.984	19.991	100.106	19.993	3.235	0.365
96.001	124.734	79.986	19.992	100.104	19.981	4.210	0.365
104.000	127.950	79.987	19.992	100.109	19.987	3.731	0.403
112.001	131.210	79.983	19.992	100.103	19.980	4.308	0.419
120.000	134.733	79.984	19.993	100.105	19.985	3.940	0.456
128.000	138.326	79.983	19.993	100.108	19.989	3.566	0.471
136.000	142.031	79.984	19.993	100.115	19.988	3.633	0.475
144.000	145.735	79.982	19.994	100.106	19.987	3.713	0.430
152.000	149.555	79.984	19.990	100.105	19.982	4.183	0.449
160.000	153.311	79.985	19.992	100.115	19.989	3.586	0.492
168.000	157.197	79.986	19.993	100.101	19.982	4.150	0.480
176.000	161.110	79.986	19.991	100.101	19.989	3.564	0.492
184.000	165.044	79.988	19.991	100.102	19.991	3.409	0.467
192.000	169.008	79.985	19.992	100.093	19.992	3.322	0.504
200.000	173.037	79.985	19.993	100.101	19.996	3.008	0.528
208.000	177.037	79.983	19.991	100.086	19.990	3.492	0.472
216.000	180.976	79.986	19.993	100.073	19.996	3.026	0.474
224.000	184.939	79.982	19.994	100.089	19.997	2.930	0.518
232.000	188.925	79.984	19.994	100.073	19.987	3.762	0.484
240.000	192.899	79.985	19.992	100.072	19.994	3.121	0.513
248.000	196.792	79.984	19.991	100.067	20.000	2.664	0.482
256.000	200.744	79.987	19.992	100.068	20.000	2.657	0.497
264.000	204.742	79.986	19.992	100.073	20.000	2.655	0.482
272.000	208.716	79.985	19.993	100.065	20.003	2.455	0.475
280.000	212.623	79.985	19.992	100.068	19.999	2.744	0.522
288.000	216.650	79.985	19.992	100.072	20.002	2.479	0.495
296.000	220.691	79.984	19.993	100.063	20.003	2.422	0.520
304.000	224.739	79.983	19.992	100.056	20.005	2.249	0.493
312.000	228.842	79.984	19.993	100.065	20.007	2.122	0.534
320.000	232.875	79.985	19.993	100.055	20.006	2.175	0.524
328.000	236.856	79.984	19.991	100.059	19.998	2.845	0.497
336.000	240.812	79.988	19.993	100.045	20.006	2.162	0.472
344.000	244.778	79.984	19.991	100.042	20.000	2.659	0.498
352.000	248.828	79.984	19.993	100.053	20.008	1.964	0.525
360.000	252.788	79.985	19.992	100.049	20.009	1.891	0.503
368.000	256.771	79.985	19.992	100.040	20.009	1.902	0.493
376.000	260.744	79.983	19.993	100.039	20.005	2.237	0.507
384.000	264.704	79.983	19.992	100.048	20.011	1.738	0.508
392.000	268.678	79.984	19.991	100.047	20.007	2.088	0.505
400.000	272.689	79.983	19.993	100.042	20.006	2.148	0.495
408.000	276.654	79.985	19.993	100.041	20.005	2.266	0.462
416.000	280.616	79.987	19.992	100.037	20.004	2.359	0.501
424.000	284.639	79.986	19.991	100.034	20.009	1.951	0.504
432.000	288.650	79.984	19.991	100.036	20.010	1.817	0.485
440.000	292.745	79.985	19.992	100.041	20.003	2.445	0.497
448.000	296.801	79.984	19.991	100.052	20.000	2.623	0.508
456.000	300.851	79.984	19.992	100.036	20.001	2.585	0.512
464.000	304.902	79.983	19.992	100.030	19.998	2.802	0.502
472.000	308.955	79.988	19.994	100.025	20.001	2.607	0.542
480.000	313.000	79.985	19.993	100.023	19.998	2.829	0.472
488.000	317.049	79.985	19.994	100.023	19.997	2.940	0.490
496.000	321.046	79.987	19.994	100.023	19.994	3.158	0.491
504.000	325.096	79.984	19.991	100.034	19.992	3.328	0.545
512.000	329.123	79.984	19.992	100.029	19.992	3.311	0.507
520.000	333.190	79.986	19.992	100.029	19.992	3.355	0.544
528.000	337.232	79.985	19.993	100.035	19.987	3.746	0.516
536.000	341.288	79.983	19.992	100.025	19.988	3.681	0.523
544.000	345.268	79.987	19.994	100.024	19.985	3.934	0.496
552.000	349.308	79.987	19.993	100.025	19.974	4.817	0.488
560.000	353.431	79.985	19.992	100.024	19.973	4.848	0.503
568.000	357.490	79.982	19.992	100.029	19.971	5.012	0.516
576.000	361.537	79.986	19.992	100.027	19.968	5.261	0.511
584.000	365.578	79.984	19.993	100.024	19.968	5.336	0.483
592.000	369.636	79.984	19.991	100.024	19.963	5.687	0.488
600.000	373.685	79.985	19.992	100.023	19.966	5.474	0.488
608.000	377.760	79.985	19.991	100.022	19.973	4.923	0.528
616.000	381.729	79.983	19.992	100.021	19.972	4.996	0.477
624.000	385.786	79.984	19.992	100.010	19.991	3.379	0.497
632.000	389.781	79.985	19.992	100.020	19.998	2.853	0.483
640.000	393.906	79.984	19.992	100.018	20.012	1.690	0.533
648.000	397.930	79.986	19.994	100.027	20.006	2.156	0.488
656.000	402.031	79.985	19.992	100.018	20.012	1.677	0.526
664.000	406.057	79.984	19.993	100.004	20.011	1.782	0.476
672.000	410.146	79.985	19.993	100.011	20.011	1.748	0.511
680.000	414.141	79.985	19.992	100.009	20.011	1.777	0.469
688.000	418.172	79.985	19.993	100.022	20.011	1.755	0.490
696.000	422.221	79.984	19.992	100.009	20.016	1.373	0.507
704.000	426.278	79.986	19.991	100.009	20.015	1.409	0.497
712.000	430.369	79.987	19.992	100.005	20.013	1.619	0.556
720.000	434.577	79.987	19.993	100.015	20.008	1.983	0.382
728.000	438.498	79.986	19.992	100.013	20.013	1.571	0.436
736.000	442.467	79.987	19.992	100.006	20.006	2.161	0.520
744.000	446.465	79.983	19.993	99.995	20.009	1.961	0.510
752.000	450.457	79.983	19.994	100.005	20.010	1.872	0.496
760.000	454.478	79.982	19.992	100.022	20.006	2.163	0.478
768.000	458.536	79.983	19.991	100.006	20.008	2.001	0.506
776.000	462.633	79.983	19.991	100.005	20.008	2.043	0.550
784.000	466.623	79.985	19.992	100.001	20.006	2.177	0.504
792.000	470.724	79.986	19.993	100.014	20.009	1.919	0.514
800.000	474.843	79.985	19.993	100.014	20.011	1.786	0.532
808.000	478.985	79.986	19.993	100.005	20.008	1.976	0.507
816.000	483.100	79.987	19.993	100.012	20.010	1.808	0.538
824.000	487.131	79.984	19.992	100.011	20.010	1.863	0.490
832.001	491.234	79.983	19.992	100.020	20.011	1.728	0.487
840.000	495.407	79.983	19.993	99.998	20.007	2.094	0.521
848.000	499.545	79.983	19.992	99.987	20.013	1.622	0.516
856.000	503.646	79.983	19.992	99.996	20.013	1.573	0.528
864.000	507.736	79.986	19.993	100.005	20.008	1.972	0.508
872.001	511.743	79.985	19.992	100.002	20.009	1.941	0.516
880.000	515.928	79.984	19.992	100.019	20.003	2.447	0.518
888.000	520.045	79.986	19.992	100.015	20.004	2.336	0.503
896.000	524.097	79.986	19.991	100.010	20.007	2.125	0.534
904.000	528.206	79.985	19.992	100.008	20.004	2.338	0.489
912.000	532.355	79.983	19.993	99.992	20.010	1.825	0.528
920.000	536.511	79.984	19.992	99.998	20.004	2.309	0.518
928.000	540.655	79.983	19.993	99.997	20.005	2.258	0.510
936.001	544.769	79.984	19.992	99.997	20.008	1.976	0.506
944.000	548.890	79.985	19.991	100.008	20.008	1.979	0.523
952.000	553.027	79.986	19.993	100.014	20.005	2.232	0.531
960.000	557.137	79.986	19.991	99.999	20.006	2.154	0.470
968.000	561.273	79.987	19.992	99.996	20.007	2.105	0.504
976.000	565.359	79.989	19.992	99.996	20.010	1.850	0.521
984.000	569.469	79.986	19.992	99.995	20.004	2.353	0.517
992.000	573.550	79.986	19.994	99.996	20.004	2.302	0.489
1000.000	577.627	79.984	19.992	99.987	20.001	2.602	0.484
1008.000	581.684	79.985	19.993	100.006	20.003	2.414	0.498
1016.000	585.637	79.982	19.993	99.992	20.004	2.355	0.497
1024.000	589.738	79.986	19.993	99.993	20.001	2.613	0.534
1032.001	593.842	79.989	19.992	100.043	20.002	2.500	0.504
1040.000	597.935	79.986	19.991	99.994	19.999	2.755	0.519
1048.000	602.006	79.985	19.992	100.004	20.004	2.360	0.494
1056.000	606.087	79.987	19.992	99.992	20.001	2.602	0.509
1064.000	610.127	79.987	19.992	99.991	20.005	2.291	0.500
1072.000	614.250	79.985	19.992	100.004	20.003	2.456	0.522
1080.000	618.402	79.983	19.993	99.995	20.006	2.198	0.555
1088.000	622.416	79.982	19.991	99.997	20.001	2.571	0.530
1096.001	626.478	79.983	19.993	99.989	19.998	2.797	0.504
1104.000	630.528	79.984	19.993	99.998	19.999	2.755	0.535
1112.000	634.617	79.986	19.992	99.987	19.995	3.039	0.527
1120.000	638.688	79.985	19.993	99.989	19.996	2.966	0.504
1128.001	642.775	79.985	19.991	99.986	19.996	2.974	0.508
1136.000	646.844	79.986	19.991	99.988	19.998	2.827	0.538
1144.000	650.885	79.985	19.991	99.985	19.997	2.883	0.515
1152.001	654.971	79.984	19.991	100.008	19.992	3.320	0.515
1160.000	659.104	79.985	19.992	99.986	19.996	3.001	0.498
1168.000	663.223	79.987	19.992	99.985	19.997	2.886	0.518
1176.001	667.342	79.985	19.993	99.989	19.993	3.205	0.504
1184.000	671.458	79.986	19.992	99.985	19.992	3.349	0.524
1192.001	675.599	79.984	19.994	99.986	19.993	3.207	0.537
1200.000	679.596	79.984	19.992	99.989	19.998	2.863	0.489
1208.001	683.658	79.987	19.991	99.987	19.995	3.037	0.505
1216.000	687.693	79.988	19.991	99.987	19.991	3.418	0.496
1224.000	691.770	79.984	19.992	99.985	19.994	3.172	0.517
1232.001	695.840	79.987	19.993	99.986	19.989	3.551	0.494
1240.001	699.901	79.987	19.992	99.986	19.991	3.431	0.499
1248.000	703.967	79.983	19.992	99.985	19.991	3.394	0.523
1256.000	707.970	79.985	19.993	99.988	19.988	3.673	0.489
1264.000	712.077	79.984	19.992	99.988	19.993	3.274	0.509
1272.000	716.241	79.986	19.992	99.985	19.993	3.263	0.544
1280.000	720.336	79.985	19.993	99.989	19.993	3.207	0.552
1288.000	724.456	79.987	19.992	99.989	19.992	3.334	0.539
1296.000	728.579	79.987	19.992	99.990	19.986	3.844	0.495
1304.000	732.623	79.986	19.992	99.991	19.985	3.884	0.489
1312.000	736.633	79.985	19.992	99.985	19.983	4.097	0.491
1320.001	740.710	79.984	19.991	99.988	19.981	4.188	0.473
1325.501	743.527	79.987	19.991	99.987	19.982	4.130	0.506