File: 01_Data/Feather_Pillow_Feathers/MCC/Feather_Pillow_Feathers_MCC_30K_min_220106_R1.txt
Sample ID:	C:\MCC\MCC Cal\Test\Feather_PillowB_Feathers_MCC_30K_min_220106_R1.txt
Sample Weight (mg):	4.91
Heating Rate (C/s):	0.5
Combustor Temp (C):	900
N2 Flow Rate (cc/min):	80
O2 Flow Rate (cc/min):	20
Calibration File:	C:\MCC\MCC Cal\Coeff1 JN10440_30_210304.txt.txt
T Correction Coefficients:	0	1.024463	0
Time Shift (s):	14
*
Time (s)	Temperature (C)	N2 flow rate (cc/min)	O2 flow rate (cc/min)	Flow Rate (cc/min)	Oxygen (%)	HRR (W/g)	Heating rate (C/s)
-0.001	112.287	80.008	19.994	104.216	20.096	-0.194	-0.012
8.000	112.268	80.007	19.995	104.211	20.093	0.007	-0.011
16.000	112.248	80.008	19.994	104.224	20.089	0.269	-0.016
24.000	112.424	80.011	19.993	104.338	20.071	1.495	0.015
32.000	112.940	80.009	19.993	104.380	20.057	2.359	0.081
40.000	114.031	80.011	19.993	104.425	20.049	2.894	0.158
47.999	115.555	80.012	19.992	104.448	20.043	3.318	0.228
56.000	117.498	80.011	19.992	104.452	20.045	3.213	0.288
64.000	119.766	80.008	19.992	104.464	20.041	3.433	0.275
71.999	122.412	80.009	19.993	104.475	20.039	3.591	0.361
80.000	125.315	80.008	19.992	104.469	20.035	3.849	0.375
87.999	128.402	80.008	19.994	104.479	20.036	3.788	0.423
96.000	131.707	80.011	19.994	104.483	20.036	3.810	0.432
104.000	135.169	80.009	19.995	104.484	20.035	3.836	0.437
111.999	138.849	80.008	19.994	104.482	20.036	3.770	0.453
119.999	142.641	80.009	19.996	104.484	20.034	3.890	0.472
128.000	146.608	80.012	19.994	104.481	20.035	3.830	0.481
136.000	150.532	80.010	19.993	104.473	20.037	3.721	0.461
144.001	154.578	80.008	19.993	104.463	20.034	3.948	0.502
152.000	158.605	80.009	19.992	104.461	20.032	4.055	0.505
160.000	162.637	80.010	19.992	104.464	20.035	3.883	0.484
168.000	166.709	80.009	19.994	104.456	20.035	3.824	0.495
176.000	170.735	80.011	19.995	104.450	20.031	4.095	0.463
184.000	174.810	80.010	19.995	104.448	20.030	4.169	0.503
192.000	178.782	80.009	19.992	104.448	20.028	4.328	0.519
200.000	182.748	80.009	19.992	104.453	20.025	4.504	0.464
208.000	186.781	80.010	19.996	104.423	20.024	4.603	0.520
216.000	190.747	80.010	19.993	104.421	20.020	4.848	0.500
224.000	194.712	80.008	19.994	104.420	20.013	5.322	0.502
232.000	198.635	80.010	19.995	104.415	20.006	5.777	0.482
240.000	202.616	80.010	19.993	104.414	19.991	6.799	0.488
248.000	206.495	80.010	19.993	104.413	19.973	7.943	0.495
256.000	210.471	80.009	19.993	104.406	19.959	8.905	0.491
264.000	214.330	80.010	19.994	104.386	19.942	10.019	0.483
272.000	218.225	80.011	19.992	104.379	19.923	11.257	0.495
280.000	222.161	80.009	19.993	104.374	19.909	12.217	0.485
288.000	226.055	80.012	19.993	104.365	19.897	12.993	0.484
296.000	230.021	80.011	19.994	104.373	19.894	13.196	0.495
304.000	234.051	80.012	19.994	104.382	19.887	13.681	0.498
312.000	238.016	80.009	19.993	104.401	19.885	13.815	0.494
320.000	242.003	80.010	19.994	104.413	19.879	14.220	0.515
328.000	246.018	80.011	19.993	104.416	19.861	15.384	0.500
336.000	250.102	80.011	19.993	104.417	19.856	15.730	0.535
344.000	254.152	80.008	19.992	104.414	19.840	16.777	0.508
352.000	258.204	80.012	19.992	104.412	19.826	17.727	0.531
360.000	262.211	80.011	19.994	104.408	19.808	18.923	0.498
368.000	266.193	80.011	19.993	104.405	19.779	20.838	0.524
376.000	270.156	80.012	19.993	104.406	19.750	22.769	0.492
384.000	274.178	80.009	19.994	104.411	19.715	25.094	0.483
392.000	278.169	80.008	19.993	104.416	19.671	28.034	0.497
400.000	282.205	80.008	19.994	104.441	19.631	30.639	0.525
408.000	286.173	80.008	19.993	104.455	19.589	33.480	0.500
416.000	290.174	80.009	19.994	104.453	19.555	35.696	0.518
424.000	294.204	80.010	19.993	104.449	19.555	35.744	0.503
432.000	298.154	80.010	19.993	104.484	19.564	35.127	0.506
440.000	302.124	80.011	19.994	104.570	19.462	41.884	0.486
448.000	306.148	80.011	19.993	104.546	19.297	52.871	0.512
456.000	310.272	80.011	19.994	104.402	19.222	58.059	0.512
464.000	314.449	80.011	19.992	104.474	19.233	57.092	0.541
472.000	318.597	80.009	19.993	104.213	19.259	55.289	0.510
480.000	322.774	80.010	19.994	104.512	19.159	62.220	0.526
488.000	326.754	80.007	19.993	104.566	19.195	59.498	0.482
496.000	330.767	80.009	19.993	104.208	19.062	68.505	0.471
504.000	334.800	80.008	19.993	104.595	19.104	65.705	0.501
512.000	338.801	80.012	19.992	104.418	19.029	70.595	0.491
520.000	342.837	80.011	19.993	104.433	19.077	67.435	0.516
528.000	346.824	80.010	19.993	104.625	19.134	63.685	0.513
536.001	350.839	80.012	19.992	104.454	19.235	56.910	0.492
544.000	354.946	80.011	19.992	104.611	19.204	59.103	0.542
552.000	359.082	80.008	19.994	104.372	19.253	55.728	0.553
560.000	363.250	80.009	19.994	104.327	19.333	50.413	0.491
568.000	367.479	80.008	19.994	104.467	19.437	43.564	0.532
576.000	371.647	80.009	19.994	104.459	19.442	43.169	0.536
584.000	375.863	80.007	19.993	104.364	19.473	41.131	0.572
592.000	379.780	80.011	19.993	104.417	19.530	37.370	0.354
600.000	384.230	80.009	19.993	104.406	19.581	33.976	0.589
608.000	388.256	80.010	19.994	104.384	19.625	31.025	0.527
616.000	392.274	80.012	19.993	104.375	19.659	28.808	0.516
624.000	396.296	80.012	19.993	104.373	19.689	26.804	0.496
632.000	400.181	80.010	19.994	104.371	19.717	24.937	0.464
640.000	404.155	80.009	19.994	104.373	19.728	24.205	0.489
648.000	408.120	80.010	19.994	104.371	19.743	23.192	0.487
656.000	412.065	80.011	19.995	104.363	19.766	21.710	0.485
664.000	416.004	80.008	19.995	104.348	19.780	20.786	0.472
672.000	420.060	80.009	19.993	104.367	19.801	19.356	0.510
680.000	424.107	80.010	19.993	104.345	19.821	18.069	0.526
688.000	428.148	80.011	19.994	104.336	19.834	17.149	0.488
696.000	432.202	80.011	19.993	104.337	19.848	16.249	0.530
704.000	436.276	80.012	19.994	104.345	19.860	15.461	0.531
712.000	440.266	80.010	19.993	104.336	19.865	15.139	0.475
720.000	444.187	80.008	19.992	104.308	19.878	14.267	0.499
728.000	447.685	80.010	19.994	104.307	19.888	13.613	0.442
736.000	451.168	80.009	19.993	104.337	19.893	13.292	0.414
744.000	454.923	80.008	19.993	104.333	19.899	12.864	0.489
752.000	458.801	80.009	19.993	104.336	19.903	12.575	0.497
760.000	462.887	80.010	19.993	104.333	19.908	12.254	0.531
768.000	466.968	80.011	19.995	104.334	19.914	11.860	0.525
776.000	471.179	80.010	19.995	104.327	19.924	11.237	0.533
784.000	475.439	80.009	19.993	104.331	19.925	11.111	0.508
792.000	479.611	80.011	19.993	104.327	19.930	10.830	0.509
800.000	483.818	80.010	19.993	104.329	19.938	10.253	0.532
808.000	487.984	80.010	19.994	104.316	19.944	9.882	0.519
816.000	492.152	80.011	19.992	104.315	19.944	9.855	0.521
824.000	496.302	80.009	19.994	104.306	19.950	9.463	0.472
832.000	500.386	80.011	19.995	104.319	19.956	9.054	0.489
840.000	504.516	80.011	19.996	104.325	19.960	8.835	0.505
848.000	508.603	80.010	19.994	104.313	19.963	8.645	0.528
856.000	512.738	80.010	19.993	104.309	19.968	8.287	0.502
864.000	517.018	80.011	19.993	104.313	19.972	8.005	0.550
872.000	521.260	80.011	19.993	104.299	19.973	7.974	0.520
880.000	525.484	80.009	19.993	104.312	19.976	7.741	0.504
888.000	529.769	80.009	19.994	104.308	19.977	7.678	0.542
896.000	534.030	80.011	19.994	104.313	19.983	7.303	0.539
904.000	538.280	80.009	19.994	104.304	19.987	7.047	0.538
912.000	542.521	80.009	19.992	104.313	19.992	6.692	0.544
920.000	546.645	80.010	19.993	104.309	19.993	6.650	0.536
928.000	550.811	80.010	19.994	104.304	19.995	6.510	0.514
936.000	554.975	80.012	19.994	104.312	19.990	6.804	0.534
944.000	559.027	80.012	19.993	104.298	19.995	6.522	0.489
952.000	563.043	80.011	19.994	104.297	19.991	6.746	0.483
960.000	567.106	80.009	19.995	104.298	20.000	6.169	0.518
968.000	571.168	80.009	19.992	104.307	19.992	6.679	0.520
976.000	575.269	80.010	19.993	104.304	19.993	6.610	0.537
984.000	579.328	80.008	19.993	104.306	19.994	6.578	0.488
992.000	583.407	80.009	19.994	104.303	20.000	6.184	0.514
1000.000	587.501	80.011	19.994	104.300	20.001	6.132	0.507
1008.000	591.548	80.011	19.992	104.299	20.004	5.885	0.512
1016.000	595.685	80.010	19.994	104.312	20.001	6.105	0.504
1024.000	599.800	80.013	19.995	104.301	20.004	5.896	0.535
1032.000	603.858	80.014	19.995	104.303	20.000	6.183	0.518
1039.999	607.892	80.010	19.993	104.299	20.002	6.020	0.501
1048.000	611.914	80.009	19.994	104.303	20.008	5.615	0.516
1055.999	616.041	80.009	19.995	104.306	20.007	5.709	0.549
1063.999	620.143	80.009	19.994	104.296	20.005	5.822	0.553
1072.000	624.131	80.009	19.995	104.299	20.005	5.823	0.502
1080.000	628.145	80.011	19.994	104.303	20.007	5.685	0.488
1087.999	632.175	80.012	19.993	104.297	20.007	5.698	0.522
1095.999	636.224	80.011	19.993	104.298	20.007	5.685	0.533
1104.000	640.333	80.012	19.994	104.301	20.011	5.424	0.491
1111.999	644.381	80.012	19.994	104.298	20.006	5.780	0.521
1119.999	648.533	80.009	19.993	104.303	20.006	5.772	0.529
1127.999	652.576	80.011	19.995	104.300	20.011	5.444	0.501
1135.999	656.689	80.010	19.994	104.301	20.012	5.355	0.505
1143.999	660.781	80.008	19.995	104.294	20.013	5.296	0.490
1151.999	664.803	80.009	19.994	104.296	20.013	5.306	0.476
1160.000	668.850	80.010	19.993	104.297	20.017	5.039	0.526
1167.999	672.938	80.009	19.993	104.299	20.016	5.124	0.552
1175.999	676.985	80.011	19.994	104.298	20.017	5.051	0.488
1184.001	681.034	80.010	19.993	104.297	20.015	5.183	0.503
1191.999	685.100	80.012	19.992	104.297	20.013	5.275	0.530
1199.999	689.104	80.010	19.994	104.292	20.012	5.356	0.512
1207.999	693.083	80.007	19.994	104.281	20.019	4.886	0.498
1215.999	697.125	80.010	19.994	104.288	20.017	5.048	0.512
1223.999	701.133	80.009	19.994	104.290	20.016	5.118	0.516
1231.999	705.131	80.008	19.994	104.293	20.012	5.339	0.490
1239.999	709.139	80.009	19.995	104.295	20.012	5.338	0.487
1247.999	713.188	80.010	19.992	104.298	20.015	5.198	0.542
1255.999	717.194	80.010	19.993	104.286	20.023	4.633	0.485
1263.999	721.222	80.011	19.993	104.294	20.019	4.937	0.525
1271.999	725.241	80.011	19.994	104.287	20.024	4.582	0.499
1280.000	729.162	80.009	19.993	104.293	20.021	4.791	0.462
1287.999	733.177	80.009	19.993	104.294	20.021	4.788	0.492
1296.000	737.132	80.008	19.993	104.285	20.022	4.686	0.488
1304.000	741.214	80.009	19.995	104.297	20.019	4.936	0.540
1308.499	743.465	80.009	19.993	104.280	20.023	4.670	0.490