File: 01_Data/Feather_Pillow_Feathers/MCC/Feather_Pillow_Feathers_MCC_30K_min_220106_R2.txt
Sample ID:	C:\MCC\MCC Cal\Test\Feather_PillowB_Feathers_MCC_30K_min_220106_R2.txt
Sample Weight (mg):	4.5
Heating Rate (C/s):	0.5
Combustor Temp (C):	900
N2 Flow Rate (cc/min):	80
O2 Flow Rate (cc/min):	20
Calibration File:	C:\MCC\MCC Cal\Coeff1 JN10440_30_210304.txt.txt
T Correction Coefficients:	0	1.024463	0
Time Shift (s):	14
*
Time (s)	Temperature (C)	N2 flow rate (cc/min)	O2 flow rate (cc/min)	Flow Rate (cc/min)	Oxygen (%)	HRR (W/g)	Heating rate (C/s)
-0.001	111.263	80.010	19.997	104.158	20.098	-0.085	0.006
7.499	111.241	80.011	19.993	104.179	20.098	-0.107	0.001
14.999	111.300	80.010	19.993	104.245	20.089	0.557	0.023
22.499	111.626	80.012	19.994	104.309	20.074	1.596	0.067
29.999	112.355	80.011	19.995	104.358	20.064	2.347	0.131
37.499	113.422	80.007	19.992	104.379	20.059	2.683	0.186
44.999	114.948	80.008	19.993	104.417	20.052	3.240	0.223
52.499	116.847	80.008	19.995	104.420	20.049	3.419	0.271
59.999	119.142	80.009	19.996	104.427	20.050	3.386	0.348
67.500	121.645	80.009	19.995	104.433	20.049	3.449	0.302
74.999	124.512	80.008	19.995	104.450	20.047	3.588	0.389
82.499	127.488	80.010	19.994	104.450	20.047	3.599	0.407
89.999	130.737	80.008	19.994	104.450	20.046	3.684	0.465
97.499	134.140	80.009	19.994	104.454	20.045	3.737	0.474
104.999	137.678	80.010	19.992	104.421	20.042	3.955	0.446
112.499	141.342	80.011	19.994	104.455	20.046	3.663	0.484
119.999	145.098	80.008	19.994	104.439	20.047	3.615	0.552
127.499	148.867	80.008	19.992	104.424	20.044	3.831	0.493
134.999	152.695	80.008	19.995	104.423	20.048	3.482	0.542
142.499	156.461	80.008	19.994	104.416	20.052	3.182	0.524
149.999	160.247	80.008	19.994	104.415	20.049	3.430	0.530
157.499	163.998	80.007	19.994	104.413	20.047	3.591	0.481
164.999	167.826	80.011	19.993	104.415	20.051	3.254	0.493
172.499	171.567	80.010	19.991	104.400	20.051	3.317	0.522
179.999	175.261	80.010	19.992	104.404	20.051	3.281	0.510
187.499	178.949	80.012	19.993	104.389	20.051	3.295	0.480
194.999	182.657	80.011	19.992	104.385	20.050	3.358	0.475
202.499	186.350	80.008	19.993	104.377	20.044	3.800	0.505
210.000	190.074	80.009	19.994	104.388	20.039	4.153	0.492
217.499	193.669	80.008	19.993	104.375	20.038	4.223	0.473
224.999	197.340	80.010	19.995	104.375	20.035	4.433	0.501
232.499	201.031	80.007	19.993	104.373	20.025	5.142	0.481
239.999	204.694	80.006	19.994	104.376	20.019	5.600	0.506
247.499	208.412	80.010	19.996	104.350	20.008	6.384	0.507
254.999	212.071	80.010	19.993	104.346	19.997	7.221	0.464
262.499	215.727	80.009	19.994	104.335	19.981	8.333	0.481
269.999	219.379	80.011	19.992	104.333	19.966	9.457	0.470
277.500	223.045	80.010	19.993	104.321	19.952	10.475	0.486
284.999	226.738	80.008	19.992	104.311	19.942	11.154	0.495
292.499	230.455	80.008	19.995	104.316	19.937	11.564	0.492
299.999	234.210	80.009	19.995	104.333	19.932	11.869	0.491
307.499	237.924	80.007	19.995	104.339	19.932	11.881	0.507
314.999	241.630	80.008	19.994	104.352	19.930	12.063	0.450
322.499	245.451	80.010	19.993	104.341	19.922	12.628	0.529
329.999	249.219	80.010	19.995	104.357	19.915	13.126	0.521
337.499	253.055	80.008	19.994	104.365	19.901	14.137	0.483
344.999	256.817	80.009	19.994	104.366	19.892	14.815	0.483
352.499	260.632	80.010	19.992	104.367	19.879	15.719	0.534
359.999	264.347	80.008	19.993	104.364	19.861	17.064	0.494
367.500	268.131	80.008	19.992	104.365	19.840	18.557	0.467
374.999	271.932	80.009	19.995	104.372	19.820	19.992	0.445
382.499	275.541	80.009	19.993	104.376	19.791	22.107	0.478
389.999	279.220	80.007	19.993	104.375	19.751	24.983	0.529
397.500	282.772	80.006	19.994	104.384	19.718	27.411	0.450
404.999	286.427	80.008	19.995	104.387	19.680	30.155	0.474
412.499	290.128	80.009	19.993	104.412	19.648	32.485	0.501
420.000	293.840	80.007	19.993	104.415	19.624	34.190	0.482
427.499	297.546	80.008	19.994	104.409	19.622	34.400	0.488
435.000	301.317	80.010	19.993	104.428	19.631	33.736	0.529
442.499	305.055	80.007	19.992	104.498	19.558	39.003	0.507
450.000	308.866	80.007	19.993	104.529	19.397	50.708	0.540
457.499	312.684	80.009	19.994	104.473	19.314	56.652	0.516
464.999	316.541	80.009	19.993	104.604	19.037	76.991	0.529
472.500	320.526	80.008	19.989	104.123	19.199	65.030	0.496
479.999	324.506	80.010	19.993	104.367	19.268	59.956	0.536
487.499	328.436	80.010	19.994	104.541	19.209	64.295	0.536
494.999	332.355	80.007	19.993	104.507	19.203	64.642	0.527
502.499	336.137	80.008	19.992	104.448	19.177	66.556	0.492
509.999	339.989	80.009	19.992	104.560	19.163	67.756	0.500
517.500	343.731	80.008	19.992	104.475	19.212	63.929	0.493
524.999	347.544	80.008	19.994	104.262	19.151	68.457	0.501
532.499	351.259	80.007	19.996	104.531	19.315	56.597	0.482
540.000	354.974	80.007	19.993	104.494	19.409	49.681	0.477
547.500	358.610	80.007	19.993	104.524	19.247	61.547	0.449
555.000	362.382	80.006	19.993	104.257	19.331	55.391	0.535
562.500	366.124	80.008	19.992	104.370	19.449	46.866	0.508
570.000	369.859	80.009	19.993	104.385	19.532	40.858	0.451
577.499	373.523	80.010	19.994	104.370	19.576	37.657	0.464
584.999	377.231	80.007	19.994	104.360	19.604	35.622	0.513
592.499	380.935	80.011	19.995	104.362	19.641	32.975	0.501
599.999	384.648	80.010	19.993	104.348	19.682	30.007	0.451
607.500	388.382	80.007	19.994	104.362	19.713	27.772	0.494
614.999	392.108	80.006	19.994	104.344	19.733	26.303	0.491
622.500	395.865	80.008	19.994	104.339	19.756	24.599	0.494
630.000	399.617	80.008	19.996	104.340	19.775	23.254	0.499
637.500	403.528	80.007	19.994	104.339	19.793	21.983	0.515
644.999	407.410	80.008	19.992	104.335	19.805	21.070	0.544
652.499	411.315	80.010	19.994	104.335	19.820	20.002	0.513
659.999	415.232	80.008	19.993	104.333	19.830	19.283	0.531
667.500	419.142	80.009	19.993	104.316	19.847	18.023	0.516
675.000	422.956	80.010	19.992	104.318	19.858	17.235	0.517
682.500	426.799	80.008	19.994	104.300	19.875	16.018	0.500
690.000	430.519	80.007	19.994	104.299	19.887	15.171	0.505
697.500	434.249	80.008	19.995	104.297	19.899	14.308	0.486
705.000	437.774	80.008	19.993	104.289	19.909	13.544	0.464
712.499	441.376	80.006	19.995	104.285	19.920	12.789	0.452
719.999	444.925	80.007	19.993	104.295	19.927	12.261	0.463
727.499	448.560	80.010	19.995	104.288	19.935	11.646	0.500
734.999	452.238	80.009	19.993	104.295	19.937	11.542	0.503
742.499	455.914	80.009	19.993	104.297	19.941	11.208	0.540
750.000	459.520	80.007	19.994	104.296	19.948	10.732	0.356
757.499	463.819	80.009	19.993	104.296	19.956	10.164	0.475
764.999	467.714	80.008	19.994	104.290	19.951	10.518	0.570
772.500	471.792	80.007	19.994	104.282	19.958	10.013	0.581
779.999	475.849	80.009	19.993	104.281	19.966	9.422	0.521
787.500	479.781	80.008	19.992	104.277	19.971	9.053	0.538
795.000	483.694	80.007	19.994	104.269	19.975	8.795	0.516
802.499	487.569	80.005	19.993	104.269	19.980	8.434	0.506
810.000	491.455	80.009	19.994	104.270	19.985	8.042	0.519
817.499	495.372	80.007	19.991	104.275	19.994	7.433	0.501
824.999	499.251	80.008	19.992	104.265	19.996	7.281	0.533
832.499	503.056	80.009	19.992	104.258	20.000	6.969	0.482
839.999	506.843	80.009	19.991	104.258	20.008	6.373	0.500
847.499	510.561	80.008	19.995	104.271	20.012	6.094	0.524
855.000	514.168	80.008	19.993	104.261	20.011	6.163	0.477
862.499	517.773	80.006	19.996	104.259	20.017	5.724	0.503
869.999	521.381	80.007	19.995	104.262	20.020	5.512	0.482
877.499	525.140	80.005	19.994	104.263	20.020	5.511	0.496
884.999	528.930	80.005	19.993	104.267	20.027	5.028	0.488
892.499	532.693	80.009	19.994	104.258	20.029	4.877	0.529
900.000	536.554	80.011	19.994	104.278	20.029	4.911	0.549
907.499	540.654	80.010	19.995	104.288	20.025	5.156	0.588
915.000	544.955	80.011	19.996	104.293	20.029	4.883	0.571
922.499	549.476	80.010	19.994	104.277	20.031	4.716	0.618
930.000	554.038	80.007	19.994	104.278	20.030	4.785	0.591
937.500	558.606	80.008	19.993	104.280	20.031	4.757	0.595
945.000	563.068	80.008	19.993	104.273	20.029	4.852	0.593
952.500	567.262	80.006	19.993	104.259	20.031	4.713	0.540
959.999	571.167	80.008	19.993	104.258	20.031	4.709	0.498
967.499	574.979	80.009	19.995	104.257	20.031	4.697	0.503
974.999	578.556	80.010	19.994	104.256	20.034	4.481	0.448
982.500	582.195	80.010	19.994	104.258	20.031	4.729	0.509
989.999	585.798	80.009	19.995	104.263	20.034	4.499	0.503
997.499	589.521	80.010	19.993	104.258	20.034	4.505	0.466
1005.000	593.312	80.008	19.993	104.260	20.031	4.697	0.501
1012.499	597.155	80.007	19.993	104.268	20.033	4.614	0.522
1019.999	600.887	80.008	19.992	104.258	20.034	4.519	0.479
1027.499	604.626	80.008	19.994	104.257	20.035	4.424	0.500
1034.999	608.382	80.009	19.994	104.259	20.039	4.178	0.521
1042.499	612.129	80.007	19.994	104.256	20.033	4.608	0.526
1049.999	615.871	80.009	19.994	104.258	20.035	4.414	0.504
1057.499	619.681	80.008	19.993	104.260	20.034	4.485	0.492
1064.999	623.646	80.009	19.994	104.266	20.033	4.577	0.524
1072.499	627.754	80.010	19.994	104.264	20.031	4.760	0.576
1079.999	632.029	80.009	19.994	104.257	20.029	4.844	0.586
1087.499	636.336	80.008	19.994	104.263	20.029	4.863	0.572
1094.999	640.604	80.008	19.994	104.256	20.026	5.107	0.591
1102.499	644.786	80.008	19.993	104.257	20.029	4.862	0.528
1109.999	648.920	80.007	19.994	104.256	20.028	4.973	0.603
1117.499	652.989	80.007	19.994	104.262	20.027	5.028	0.553
1124.999	657.078	80.007	19.994	104.260	20.030	4.780	0.542
1132.499	661.213	80.009	19.993	104.258	20.028	4.978	0.574
1139.999	665.172	80.008	19.993	104.254	20.030	4.807	0.526
1147.499	668.932	80.008	19.995	104.255	20.028	4.911	0.489
1154.999	672.581	80.010	19.994	104.251	20.030	4.818	0.508
1162.499	676.326	80.009	19.994	104.255	20.030	4.824	0.506
1169.999	680.048	80.007	19.996	104.255	20.033	4.608	0.498
1177.499	683.881	80.007	19.993	104.256	20.031	4.735	0.529
1184.999	687.680	80.008	19.992	104.259	20.034	4.493	0.482
1192.500	691.500	80.009	19.994	104.251	20.035	4.475	0.501
1199.999	695.377	80.007	19.994	104.248	20.034	4.536	0.520
1207.499	699.196	80.008	19.994	104.235	20.036	4.389	0.493
1214.999	703.035	80.010	19.993	104.229	20.029	4.890	0.523
1222.499	706.818	80.009	19.994	104.224	20.026	5.077	0.506
1229.999	710.520	80.009	19.995	104.221	20.032	4.656	0.502
1237.499	714.220	80.011	19.994	104.228	20.031	4.730	0.497
1244.999	717.909	80.007	19.993	104.223	20.035	4.437	0.488
1252.499	721.615	80.007	19.993	104.253	20.029	4.874	0.501
1259.999	725.358	80.007	19.994	104.234	20.027	5.002	0.474
1267.499	729.076	80.006	19.995	104.228	20.025	5.155	0.494
1274.999	732.900	80.009	19.994	104.352	20.030	4.767	0.504
1282.499	736.769	80.008	19.994	104.227	20.032	4.646	0.509
1289.999	740.726	80.010	19.996	104.219	20.034	4.486	0.546
1294.999	743.380	80.010	19.995	104.219	20.028	4.933	0.513