File: 01_Data/Pine_Lap_Siding/STA/N2/30K_min/Pine_Lap_Siding_STA_N2_30KData_220321_R1.csv
##Temp./Â°C,Time/min,Mass loss(subtr.2)/mg,DSC(subtr.2)/(mW/mg),Sensit./(uV/mW)
48.799,10.00917,-0.06845,0.02259075,1.08889
52.199,10.89153,-0.06989635,0.17431,1.08603
55.599,11.13035,-0.07541875,0.28134,1.08318
58.999,11.3148,-0.07742281,0.36533,1.08036
62.399,11.47441,-0.0788657,0.43448,1.07756
65.799,11.62011,-0.07743498,0.49467,1.07478
69.199,11.75698,-0.07833701,0.54724,1.07201
72.599,11.88825,-0.08341554,0.59604,1.06927
75.999,12.0154,-0.0826315,0.64081,1.06655
79.399,12.1392,-0.08391136,0.6814,1.06385
82.799,12.26121,-0.08314695,0.71717,1.06116
86.199,12.381,-0.08626008,0.74782,1.0585
89.599,12.49906,-0.08752769,0.77682,1.05585
92.999,12.616,-0.08903628,0.80442,1.05323
96.399,12.73172,-0.09046778,0.82298,1.05063
99.799,12.84716,-0.09168462,0.83461,1.04804
103.199,12.96156,-0.09564473,0.84441,1.04548
106.599,13.07589,-0.09762247,0.84532,1.04293
109.999,13.19,-0.09828301,0.83888,1.0404
113.399,13.3037,-0.09869143,0.83227,1.03789
116.799,13.41704,-0.09958639,0.82186,1.0354
120.199,13.52994,-0.1019,0.81122,1.03293
123.599,13.64231,-0.1019,0.7999,1.03048
126.999,13.7542,-0.10197,0.78902,1.02805
130.399,13.86565,-0.10286,0.78753,1.02564
133.799,13.97644,-0.1019,0.78846,1.02324
137.199,14.08641,-0.10337,0.79165,1.02086
140.599,14.19607,-0.10585,0.79354,1.01851
143.999,14.3053,-0.10715,0.80478,1.01617
147.399,14.41373,-0.11,0.80973,1.01384
150.799,14.5219,-0.111,0.82121,1.01154
154.199,14.62977,-0.10719,0.83295,1.00925
157.599,14.7372,-0.10741,0.84013,1.00698
160.999,14.84446,-0.11013,0.85182,1.00473
164.399,14.9512,-0.11276,0.86365,1.00249
167.799,15.0579,-0.11276,0.87292,1.00027
171.199,15.1647,-0.11372,0.88259,0.99807
174.599,15.271,-0.11157,0.89187,0.99588
177.999,15.37696,-0.11155,0.90423,0.99371
181.399,15.4825,-0.11292,0.91288,0.99156
184.799,15.5875,-0.11287,0.92302,0.98942
188.199,15.6923,-0.11288,0.93238,0.9873
191.599,15.79675,-0.1155,0.9441,0.98519
194.999,15.9008,-0.11684,0.95297,0.9831
198.399,16.005,-0.11617,0.96256,0.98103
201.799,16.10885,-0.11989,0.97244,0.97896
205.199,16.21257,-0.11989,0.98293,0.97692
208.599,16.31635,-0.12121,0.98932,0.97488
211.999,16.41984,-0.12121,0.99973,0.97287
215.399,16.5231,-0.12053,1.01147,0.97086
218.799,16.62664,-0.12532,1.01971,0.96887
222.199,16.73,-0.12789,1.02956,0.96689
225.599,16.8333,-0.12919,1.03885,0.96493
228.999,16.9364,-0.12987,1.04662,0.96298
232.399,17.0395,-0.13053,1.05522,0.96104
235.799,17.1424,-0.13314,1.06393,0.95911
239.199,17.24548,-0.13409,1.07231,0.9572
242.599,17.34856,-0.1374,1.08031,0.9553
245.999,17.4514,-0.13871,1.09072,0.95341
249.399,17.55426,-0.14185,1.09928,0.95153
252.799,17.65711,-0.14772,1.11278,0.94966
256.199,17.75984,-0.15448,1.12397,0.9478
259.599,17.8627,-0.16637,1.13929,0.94596
262.999,17.96544,-0.17552,1.15412,0.94412
266.399,18.0683,-0.1811,1.16354,0.94229
269.799,18.17101,-0.19075,1.17855,0.94048
273.199,18.27392,-0.20093,1.18982,0.93867
276.599,18.37678,-0.211,1.20232,0.93687
279.999,18.4799,-0.22227,1.21322,0.93508
283.399,18.5828,-0.23474,1.22238,0.9333
286.799,18.68573,-0.25522,1.2364,0.93153
290.199,18.78882,-0.27264,1.24817,0.92976
293.599,18.892,-0.28576,1.26025,0.928
296.999,18.9951,-0.30594,1.27203,0.92625
300.399,19.09827,-0.32982,1.28391,0.92451
303.799,19.20149,-0.35892,1.29941,0.92277
307.199,19.30475,-0.38592,1.31742,0.92104
310.599,19.40796,-0.41909,1.3368,0.91932
313.999,19.51122,-0.44773,1.36061,0.9176
317.399,19.6147,-0.48247,1.39019,0.91589
320.799,19.71815,-0.52482,1.4264,0.91418
324.199,19.82161,-0.5662,1.46389,0.91248
327.599,19.92545,-0.61547,1.50871,0.91078
330.999,20.02895,-0.66643,1.56105,0.90909
334.399,20.1328,-0.72321,1.61477,0.9074
337.799,20.23658,-0.78416,1.67111,0.90571
341.199,20.3403,-0.84927,1.72374,0.90403
344.599,20.44493,-0.91875,1.76971,0.90235
347.999,20.54888,-0.99333,1.81145,0.90068
351.399,20.65309,-1.07209,1.84529,0.899
354.799,20.75739,-1.14665,1.8757,0.89733
358.199,20.86178,-1.22937,1.90485,0.89566
361.599,20.9662,-1.3139,1.93659,0.89399
364.999,21.07084,-1.39962,1.98507,0.89233
368.399,21.17558,-1.49579,2.05547,0.89066
371.799,21.28022,-1.59232,2.15403,0.88899
375.199,21.38521,-1.69064,2.27241,0.88733
378.599,21.4905,-1.80171,2.40616,0.88566
381.999,21.59585,-1.91546,2.5379,0.884
385.399,21.701,-2.03755,2.63145,0.88233
388.799,21.80685,-2.16692,2.6546,0.88067
392.199,21.91229,-2.28693,2.57138,0.879
395.599,22.01774,-2.40639,2.35376,0.87733
398.999,22.1231,-2.51025,2.00846,0.87566
402.399,22.22832,-2.59154,1.57077,0.87399
405.799,22.33312,-2.65604,1.12052,0.87231
409.199,22.43798,-2.69666,0.72917,0.87063
412.599,22.5428,-2.72387,0.44198,0.86895
415.999,22.64798,-2.74226,0.26777,0.86727
419.399,22.75323,-2.75793,0.17094,0.86558
422.799,22.85876,-2.77009,0.11601,0.86389
426.199,22.96448,-2.77998,0.08264031,0.86219
429.599,23.0705,-2.79004,0.04953128,0.86049
432.999,23.1767,-2.79944,0.02481469,0.85879
436.399,23.28289,-2.80891,-0.003059315,0.85708
439.799,23.38934,-2.81819,-0.03303749,0.85537
443.199,23.49589,-2.82635,-0.05771644,0.85365
446.599,23.6029,-2.83639,-0.07964108,0.85192
449.999,23.7096,-2.84541,-0.09607646,0.85019
453.399,23.81692,-2.85362,-0.10476,0.84845
456.799,23.9242,-2.86472,-0.11273,0.84671
460.199,24.03172,-2.87176,-0.11605,0.84496
463.599,24.13907,-2.87815,-0.10849,0.8432
466.999,24.24683,-2.88768,-0.09696609,0.84144
470.399,24.35454,-2.89721,-0.08187156,0.83966
473.799,24.4624,-2.89975,-0.06433117,0.83788
477.199,24.5704,-2.91138,-0.0460267,0.8361
480.599,24.67831,-2.91287,-0.02732431,0.8343
483.999,24.78687,-2.91798,-0.00811144,0.8325
487.399,24.895,-2.92533,0.01081636,0.83068
490.799,25.00362,-2.9329,0.02533562,0.82886
494.199,25.11199,-2.93864,0.03768784,0.82703
497.599,25.2206,-2.94038,0.04712875,0.82519
500.999,25.3295,-2.94247,0.05629246,0.82334
504.399,25.4383,-2.94903,0.05961748,0.82148
507.799,25.54734,-2.95256,0.06410663,0.81961
511.199,25.65631,-2.95677,0.06614915,0.81773
514.599,25.7656,-2.96137,0.07192008,0.81584
517.999,25.87438,-2.96692,0.07007571,0.81394
521.399,25.98433,-2.97171,0.06971194,0.81203
524.799,26.09389,-2.97454,0.07016927,0.81011
528.199,26.20397,-2.97665,0.06802014,0.80818
531.599,26.31411,-2.98026,0.06677428,0.80623
534.999,26.4248,-2.98333,0.05782974,0.80428
538.399,26.53534,-2.99025,0.05143116,0.80231
541.799,26.64599,-2.99129,0.04484314,0.80033
545.199,26.75709,-2.99666,0.0364227,0.79834
548.599,26.868,-2.99937,0.03058245,0.79633
551.999,26.97895,-2.99806,0.02708332,0.79432
555.399,27.0898,-3.002,0.03581783,0.79229
558.799,27.2008,-3.00591,0.03857347,0.79025
562.199,27.31158,-3.00858,0.03630572,0.78819
565.599,27.42264,-3.01167,0.03817864,0.78613
568.999,27.5335,-3.01601,0.03301583,0.78405
572.399,27.6445,-3.01981,0.03320038,0.78196
575.799,27.75527,-3.02284,0.03091361,0.77985
579.199,27.8662,-3.02284,0.03142295,0.77773
582.599,27.97717,-3.02671,0.02524279,0.7756
585.999,28.0881,-3.02679,0.01969989,0.77345
589.399,28.1992,-3.02778,0.008969442,0.77129
592.799,28.3104,-3.03096,-0.008806928,0.76912
596.199,28.4217,-3.03367,-0.02254219,0.76693
599.599,28.5328,-3.03455,-0.03529264,0.76472
602.999,28.6441,-3.03649,-0.04349911,0.76251
606.399,28.7553,-3.04019,-0.05060906,0.76028
609.799,28.8671,-3.04242,-0.05513506,0.75803
613.199,28.9787,-3.04562,-0.05662276,0.75577
616.599,29.0906,-3.04806,-0.05824781,0.7535
619.999,29.20275,-3.05203,-0.06371237,0.75121
623.399,29.3152,-3.05461,-0.06333196,0.74891
626.799,29.4276,-3.0563,-0.06136233,0.74659
630.199,29.5401,-3.05641,-0.05849313,0.74426
633.599,29.6525,-3.05866,-0.05400047,0.74191
636.999,29.7652,-3.06135,-0.04791901,0.73955
640.399,29.8781,-3.06597,-0.0420148,0.73717
643.799,29.99098,-3.06595,-0.03420538,0.73478
647.199,30.10363,-3.06874,-0.01613049,0.73237
650.599,30.2164,-3.07244,-0.001899163,0.72995
653.999,30.3293,-3.07571,0.02194935,0.72751
657.399,30.44182,-3.07823,0.0515233,0.72506
660.799,30.55453,-3.08099,0.07931559,0.72259
664.199,30.6674,-3.08584,0.11827,0.72011
667.599,30.78026,-3.09107,0.15754,0.71761
670.999,30.893,-3.09717,0.20034,0.7151
674.399,31.0057,-3.10085,0.24371,0.71258
677.799,31.11855,-3.10538,0.29441,0.71003
681.199,31.2317,-3.11024,0.34575,0.70748
684.599,31.3449,-3.1171,0.39618,0.70491
687.999,31.458,-3.12407,0.44339,0.70232
691.399,31.57137,-3.12864,0.49322,0.69972
694.799,31.6845,-3.13469,0.5313,0.6971
698.199,31.7977,-3.14346,0.55412,0.69447
701.599,31.9112,-3.15067,0.56144,0.69182
704.999,32.0245,-3.15375,0.53317,0.68916
708.399,32.1377,-3.16271,0.48068,0.68648
711.799,32.2512,-3.16993,0.39815,0.68379
715.199,32.36455,-3.17668,0.31571,0.68109
718.599,32.47795,-3.18156,0.21329,0.67837
721.999,32.59125,-3.18398,-0.01750145,0.67563
725.399,32.7046,-3.18678,-0.27085,0.67289
728.799,32.81795,-3.19087,-0.35424,0.67012
732.199,32.93118,-3.19252,-0.38631,0.66735
735.599,33.0446,-3.1954,-0.40314,0.66455
738.999,33.15791,-3.1955,-0.42017,0.66175
742.399,33.2716,-3.19549,-0.43057,0.65893
745.799,33.38519,-3.19582,-0.43908,0.6561
749.199,33.49882,-3.20108,-0.44685,0.65325
752.599,33.6126,-3.19807,-0.45588,0.65039
755.999,33.7264,-3.19801,-0.46623,0.64751
759.399,33.8403,-3.19647,-0.46952,0.64462
762.799,33.9542,-3.19786,-0.47886,0.64172
766.199,34.0679,-3.202,-0.48158,0.63881
769.599,34.1821,-3.20306,-0.48697,0.63588
772.999,34.29634,-3.20437,-0.49269,0.63294
776.399,34.41048,-3.20553,-0.495,0.62998
779.799,34.52483,-3.20557,-0.50465,0.62702
783.199,34.63919,-3.20689,-0.50321,0.62404
786.599,34.75355,-3.20559,-0.50655,0.62105
789.999,34.86801,-3.20688,-0.51313,0.61804
793.399,34.98272,-3.20809,-0.51687,0.61503
796.799,35.09722,-3.20953,-0.52126,0.612
800.199,35.2121,-3.21084,-0.52149,0.60896
803.599,35.32674,-3.20953,-0.52848,0.60591
806.999,35.44151,-3.20823,-0.52525,0.60284
810.399,35.5562,-3.20917,-0.53292,0.59977
813.799,35.67098,-3.21135,-0.52817,0.59668
817.199,35.78577,-3.2127,-0.52758,0.59359
820.599,35.90087,-3.21268,-0.52559,0.59048
823.999,36.01575,-3.21358,-0.52344,0.58736
827.399,36.13074,-3.21654,-0.52272,0.58423
830.799,36.24583,-3.21654,-0.5223,0.58109
834.199,36.36105,-3.2149,-0.52345,0.57794
837.599,36.47618,-3.21392,-0.52068,0.57478
840.999,36.5913,-3.21523,-0.51662,0.57161
843.199,36.66581,-3.21655,-0.51692,0.56956