File: 01_Data/Pine_Lap_Siding/STA/N2/30K_min/Pine_Lap_Siding_STA_N2_30KData_220323_R2.csv
##Temp./Â°C,Time/min,Mass loss(subtr.2)/mg,DSC(subtr.2)/(mW/mg),Sensit./(uV/mW)
48.746,10.01,0.0102,0.01369277,1.08893
52.146,10.8904,0.008002288,0.17578,1.08607
55.546,11.13009,0.01031483,0.28786,1.08323
58.946,11.31564,0.01027253,0.37235,1.08041
62.346,11.47602,0.00892483,0.4397,1.0776
65.746,11.62202,0.00757667,0.50074,1.07482
69.146,11.75972,0.01218387,0.55295,1.07206
72.546,11.89108,0.00914737,0.5999,1.06931
75.946,12.01826,0.008084114,0.6463,1.06659
79.346,12.14265,0.006576751,0.68649,1.06389
82.746,12.2644,0.005169386,0.72612,1.0612
86.146,12.38428,0.00436311,0.75559,1.05854
89.546,12.50228,0.004269226,0.78778,1.0559
92.946,12.619,0.002317622,0.816,1.05327
96.346,12.73479,0.002276884,0.83899,1.05067
99.746,12.84987,-0.0003294457,0.85356,1.04808
103.146,12.96451,-0.00166272,0.86585,1.04552
106.546,13.0787,-0.003083135,0.87114,1.04297
109.946,13.19263,-0.00438981,0.8667,1.04044
113.346,13.30615,-0.004388558,0.85819,1.03793
116.746,13.41881,-0.0049512,0.84724,1.03544
120.146,13.53154,-0.00618311,0.83332,1.03297
123.546,13.6442,-0.00701421,0.82119,1.03052
126.946,13.7559,-0.008339381,0.8135,1.02809
130.346,13.867,-0.008339766,0.80753,1.02567
133.746,13.9773,-0.008660318,0.80352,1.02328
137.146,14.0875,-0.00833034,0.80323,1.0209
140.546,14.19713,-0.009679759,0.8053,1.01854
143.946,14.30611,-0.009756426,0.80972,1.0162
147.346,14.4149,-0.00736117,0.81428,1.01388
150.746,14.523,-0.007350296,0.82394,1.01157
154.146,14.6309,-0.00768008,0.83049,1.00928
157.546,14.73836,-0.00771607,0.84152,1.00701
160.946,14.84557,-0.008445245,0.85104,1.00476
164.346,14.95263,-0.00886743,0.86051,1.00252
167.746,15.0595,-0.00767,0.87239,1.0003
171.146,15.16585,-0.00767,0.88195,0.9981
174.546,15.27196,-0.00767,0.89316,0.99592
177.946,15.37774,-0.00767,0.90258,0.99375
181.346,15.4833,-0.008996878,0.91152,0.99159
184.746,15.58833,-0.00899,0.9224,0.98945
188.146,15.6928,-0.008989995,0.93175,0.98733
191.546,15.79764,-0.007666664,0.94253,0.98523
194.946,15.90182,-0.008789218,0.95143,0.98313
198.346,16.0058,-0.01030846,0.96288,0.98106
201.746,16.10955,-0.01163052,0.9713,0.979
205.146,16.21349,-0.01047502,0.98232,0.97695
208.546,16.3171,-0.01162952,0.99302,0.97492
211.946,16.4204,-0.01295002,1.00215,0.9729
215.346,16.5239,-0.01163015,1.01201,0.97089
218.746,16.627,-0.01285142,1.02245,0.9689
222.146,16.7301,-0.01492608,1.03138,0.96692
225.546,16.8329,-0.016583,1.04303,0.96496
228.946,16.93569,-0.01796644,1.05035,0.96301
232.346,17.0386,-0.02045755,1.05902,0.96107
235.746,17.14133,-0.02185994,1.06762,0.95914
239.146,17.24403,-0.02446164,1.07302,0.95723
242.546,17.34703,-0.02602566,1.08214,0.95533
245.946,17.44984,-0.02982895,1.0904,0.95344
249.346,17.55255,-0.03244418,1.0994,0.95156
252.746,17.6551,-0.03545014,1.11198,0.94969
256.146,17.7577,-0.04278222,1.12095,0.94783
259.546,17.8603,-0.04838008,1.13387,0.94598
262.946,17.96284,-0.05537582,1.14652,0.94415
266.346,18.06545,-0.06253107,1.16081,0.94232
269.746,18.16798,-0.0704304,1.17353,0.9405
273.146,18.27065,-0.07883178,1.18332,0.9387
276.546,18.37329,-0.09098179,1.19358,0.9369
279.946,18.47596,-0.10417,1.20232,0.93511
283.346,18.57863,-0.11897,1.21226,0.93333
286.746,18.68144,-0.13508,1.2242,0.93155
290.146,18.78461,-0.14998,1.23565,0.92979
293.546,18.88737,-0.16627,1.24349,0.92803
296.946,18.9903,-0.18465,1.25564,0.92628
300.346,19.09319,-0.20512,1.267,0.92454
303.746,19.19613,-0.2335,1.28311,0.9228
307.146,19.29909,-0.26261,1.29444,0.92107
310.546,19.40225,-0.29203,1.31608,0.91935
313.946,19.50536,-0.32373,1.33624,0.91763
317.346,19.60865,-0.35844,1.36152,0.91592
320.746,19.7119,-0.39674,1.39422,0.91421
324.146,19.8152,-0.43686,1.43311,0.91251
327.546,19.91859,-0.48484,1.47535,0.91081
330.946,20.02206,-0.5339,1.52148,0.90912
334.346,20.1256,-0.58798,1.57174,0.90743
337.746,20.22934,-0.6511,1.62609,0.90574
341.146,20.333,-0.71419,1.6743,0.90406
344.546,20.43695,-0.7832,1.72265,0.90238
347.946,20.54095,-0.85613,1.76267,0.9007
351.346,20.6449,-0.9319,1.79614,0.89903
354.746,20.74926,-1.01497,1.83033,0.89736
358.146,20.85377,-1.09664,1.86123,0.89569
361.546,20.95815,-1.1818,1.90251,0.89402
364.946,21.06275,-1.27101,1.95145,0.89235
368.346,21.1679,-1.36289,2.02179,0.89069
371.746,21.2729,-1.45886,2.11926,0.88902
375.146,21.3782,-1.55704,2.23515,0.88736
378.546,21.4838,-1.66502,2.35941,0.88569
381.946,21.5891,-1.78227,2.47883,0.88403
385.346,21.6952,-1.90339,2.55724,0.88236
388.746,21.80092,-2.03078,2.56582,0.88069
392.146,21.9071,-2.15646,2.46612,0.87902
395.546,22.0128,-2.26925,2.23859,0.87736
398.946,22.11871,-2.37129,1.88949,0.87568
402.346,22.2244,-2.4536,1.47202,0.87401
405.746,22.3302,-2.51244,1.04622,0.87234
409.146,22.43565,-2.5516,0.67928,0.87066
412.546,22.5412,-2.57561,0.41826,0.86898
415.946,22.6468,-2.59319,0.26075,0.86729
419.346,22.75277,-2.60937,0.17805,0.86561
422.746,22.85849,-2.61884,0.12582,0.86391
426.146,22.96473,-2.63254,0.09478938,0.86222
429.546,23.07108,-2.643,0.06588736,0.86052
432.946,23.1777,-2.65087,0.0426158,0.85882
436.346,23.2843,-2.6611,0.01741746,0.85711
439.746,23.391,-2.67113,-0.003862226,0.85539
443.146,23.49788,-2.67983,-0.02649433,0.85367
446.546,23.60484,-2.69001,-0.04569856,0.85195
449.946,23.7119,-2.69833,-0.06089728,0.85022
453.346,23.81908,-2.70556,-0.07050064,0.84848
456.746,23.92641,-2.71629,-0.07760191,0.84674
460.146,24.03398,-2.72647,-0.07532925,0.84499
463.546,24.14147,-2.72989,-0.06832564,0.84323
466.946,24.24943,-2.73476,-0.05375369,0.84146
470.346,24.35725,-2.74278,-0.03315563,0.83969
473.746,24.4654,-2.75143,-0.01567169,0.83791
477.146,24.57338,-2.75816,0.009059514,0.83612
480.546,24.6814,-2.76487,0.03260721,0.83433
483.946,24.78974,-2.76989,0.05087508,0.83252
487.346,24.89797,-2.77521,0.07280363,0.83071
490.746,25.00655,-2.78143,0.09005393,0.82889
494.146,25.11502,-2.78698,0.10354,0.82706
497.546,25.2237,-2.7898,0.11781,0.82522
500.946,25.33226,-2.79319,0.12802,0.82337
504.346,25.4409,-2.79984,0.13319,0.82151
507.746,25.54981,-2.80303,0.14107,0.81964
511.146,25.65883,-2.8064,0.14729,0.81776
514.546,25.7679,-2.81268,0.15284,0.81587
517.946,25.87705,-2.81599,0.15653,0.81397
521.346,25.98627,-2.81686,0.16284,0.81206
524.746,26.0955,-2.81988,0.1632,0.81014
528.146,26.20496,-2.82241,0.16578,0.80821
531.546,26.31467,-2.82382,0.16596,0.80626
534.946,26.4243,-2.83115,0.1663,0.80431
538.346,26.53397,-2.83642,0.16296,0.80234
541.746,26.64415,-2.83942,0.15768,0.80036
545.146,26.7541,-2.84055,0.15099,0.79837
548.546,26.8644,-2.84186,0.14532,0.79637
551.946,26.97462,-2.84466,0.14051,0.79435
555.346,27.08493,-2.84738,0.13606,0.79232
558.746,27.19525,-2.85136,0.13803,0.79028
562.146,27.30588,-2.85583,0.14051,0.78823
565.546,27.41671,-2.86026,0.14879,0.78616
568.946,27.52761,-2.8614,0.15221,0.78408
572.346,27.63873,-2.86204,0.15452,0.78199
575.746,27.75,-2.86544,0.1522,0.77988
579.146,27.8613,-2.86916,0.15766,0.77776
582.546,27.9727,-2.87069,0.16105,0.77563
585.946,28.08411,-2.87066,0.16372,0.77348
589.346,28.1957,-2.8748,0.16695,0.77132
592.746,28.3074,-2.87738,0.16679,0.76915
596.146,28.41909,-2.88134,0.16616,0.76696
599.546,28.5309,-2.87988,0.16242,0.76476
602.946,28.64286,-2.88005,0.16302,0.76254
606.346,28.75415,-2.88483,0.16027,0.76031
609.746,28.8667,-2.88974,0.15436,0.75807
613.146,28.9788,-2.89066,0.15216,0.75581
616.546,29.09106,-2.89329,0.14964,0.75353
619.946,29.20327,-2.89462,0.14986,0.75125
623.346,29.3155,-2.89593,0.14863,0.74894
626.746,29.42776,-2.89782,0.15279,0.74663
630.146,29.54027,-2.90054,0.15663,0.74429
633.546,29.6529,-2.90282,0.16769,0.74195
636.946,29.76551,-2.90406,0.17716,0.73958
640.346,29.8782,-2.9066,0.18471,0.73721
643.746,29.9909,-2.91085,0.1958,0.73482
647.146,30.1038,-2.91316,0.21278,0.73241
650.546,30.21645,-2.91347,0.23043,0.72999
653.946,30.32933,-2.91623,0.25226,0.72755
657.346,30.44195,-2.92009,0.27438,0.7251
660.746,30.5547,-2.92155,0.30176,0.72263
664.146,30.66722,-2.92545,0.3363,0.72015
667.546,30.77999,-2.92873,0.37235,0.71765
670.946,30.8927,-2.93129,0.40832,0.71514
674.346,31.0053,-2.93907,0.45642,0.71262
677.746,31.11804,-2.9453,0.50706,0.71007
681.146,31.23075,-2.94884,0.55349,0.70752
684.546,31.3433,-2.95308,0.6079,0.70495
687.946,31.4559,-2.95741,0.65991,0.70236
691.346,31.5689,-2.96352,0.72088,0.69976
694.746,31.6817,-2.96931,0.77431,0.69714
698.146,31.79458,-2.97775,0.82012,0.69451
701.546,31.90768,-2.98416,0.85547,0.69186
704.946,32.0208,-2.99179,0.87294,0.6892
708.346,32.13378,-2.99946,0.86377,0.68653
711.746,32.24703,-3.00606,0.82294,0.68384
715.146,32.36036,-3.01278,0.76244,0.68113
718.546,32.4736,-3.02012,0.68991,0.67841
721.946,32.58704,-3.02598,0.59518,0.67568
725.346,32.70061,-3.02779,0.37449,0.67293
728.746,32.81395,-3.03365,0.05590283,0.67017
732.146,32.92727,-3.03644,-0.0472769,0.66739
735.546,33.0409,-3.03513,-0.08497346,0.6646
738.946,33.1547,-3.03514,-0.10103,0.66179
742.346,33.26838,-3.03777,-0.11574,0.65897
745.746,33.38223,-3.03763,-0.13074,0.65614
749.146,33.49623,-3.03709,-0.13779,0.65329
752.546,33.61016,-3.03777,-0.14294,0.65043
755.946,33.72441,-3.04039,-0.15378,0.64756
759.346,33.83853,-3.04169,-0.16106,0.64467
762.746,33.95268,-3.04336,-0.16252,0.64177
766.146,34.06685,-3.04473,-0.16967,0.63885
769.546,34.1813,-3.04433,-0.17163,0.63593
772.946,34.29573,-3.04501,-0.17701,0.63298
776.346,34.41028,-3.04499,-0.18155,0.63003
779.746,34.5247,-3.04559,-0.18432,0.62706
783.146,34.63925,-3.04697,-0.18283,0.62409
786.546,34.75376,-3.04805,-0.18369,0.62109
789.946,34.86827,-3.0484,-0.18495,0.61809
793.346,34.98288,-3.04938,-0.18678,0.61507
796.746,35.09745,-3.04938,-0.19039,0.61205
800.146,35.2118,-3.04947,-0.19589,0.60901
803.546,35.32654,-3.05005,-0.19204,0.60595
806.946,35.44121,-3.05268,-0.19315,0.60289
810.346,35.5558,-3.05399,-0.18812,0.59982
813.746,35.67055,-3.05328,-0.18365,0.59673
817.146,35.78512,-3.05378,-0.18141,0.59363
820.546,35.89982,-3.05244,-0.18329,0.59053
823.946,36.01489,-3.05376,-0.18012,0.58741
827.346,36.12979,-3.05377,-0.17569,0.58428
830.746,36.2449,-3.0531,-0.17679,0.58114
834.146,36.35998,-3.05574,-0.17421,0.57799
837.546,36.47489,-3.05771,-0.17279,0.57483
840.946,36.5899,-3.0564,-0.17511,0.57166
843.146,36.66495,-3.0564,-0.17098,0.56961