File: 01_Data/PP/STA/N2/10K_min/PP_STA_N2_10KData_210824_R1.csv
##Temp./Â°C,Time/min,Mass loss(subtr.2)/mg,DSC(subtr.2)/(mW/mg),Sensit./(uV/mW)
49.735,10.00917,0.00987,0.03283151,1.03585
52.335,12.39434,0.01307739,0.12738,1.03571
54.935,13.09579,0.016275,0.17226,1.03555
57.535,13.65359,0.01737215,0.20238,1.03535
60.135,14.13926,0.01491499,0.22564,1.03513
62.735,14.5832,0.0174097,0.24831,1.03488
65.335,14.99296,0.01632798,0.2693,1.0346
67.935,15.3775,0.01886092,0.28722,1.03429
70.535,15.7407,0.01802338,0.30169,1.03395
73.135,16.08962,0.01843784,0.31327,1.03359
75.735,16.42669,0.01958742,0.32356,1.03319
78.335,16.75064,0.02700628,0.33288,1.03277
80.935,17.06472,0.02098757,0.34557,1.03232
83.535,17.37194,0.0199289,0.35565,1.03184
86.135,17.67071,0.0214209,0.36521,1.03134
88.735,17.96329,0.02215226,0.37499,1.03081
91.335,18.24867,0.02175851,0.38331,1.03025
93.935,18.52929,0.02085055,0.39003,1.02966
96.535,18.80573,0.02465432,0.40162,1.02905
99.135,19.0777,0.02280673,0.4094,1.02841
101.735,19.34617,0.02842422,0.41684,1.02775
104.335,19.6121,0.0240767,0.42403,1.02706
106.935,19.87545,0.02274647,0.43334,1.02634
109.535,20.138,0.02382415,0.44358,1.0256
112.135,20.3984,0.02541781,0.45211,1.02483
114.735,20.65648,0.02487586,0.4599,1.02404
117.335,20.91284,0.02585838,0.47129,1.02322
119.935,21.1673,0.01660973,0.47941,1.02238
122.535,21.4207,0.02423511,0.49215,1.02151
125.135,21.67197,0.02544456,0.50336,1.02062
127.735,21.92144,0.0241562,0.52023,1.0197
130.335,22.16897,0.01811118,0.53849,1.01876
132.935,22.41525,0.02654546,0.55801,1.01779
135.535,22.6605,0.02588685,0.57837,1.0168
138.135,22.90396,0.02626867,0.60675,1.01579
140.735,23.14623,0.02714948,0.6425,1.01476
143.335,23.38734,0.03309798,0.68736,1.0137
145.935,23.6281,0.02598693,0.74439,1.01262
148.535,23.8684,0.02731,0.81909,1.01152
151.135,24.10715,0.02796589,0.91517,1.01039
153.735,24.34746,0.02978609,1.03367,1.00924
156.335,24.5858,0.02697956,1.16722,1.00807
158.935,24.82469,0.02750127,1.27649,1.00688
161.535,25.0623,0.02787798,1.2743,1.00567
164.135,25.29917,0.0283,1.04154,1.00443
166.735,25.53443,0.02961166,0.76919,1.00318
169.335,25.7687,0.02866982,0.62882,1.0019
171.935,26.0034,0.02829958,0.58404,1.0006
174.535,26.23763,0.02960999,0.56947,0.99928
177.135,26.47168,0.0309067,0.57034,0.99795
179.735,26.70593,0.02960639,0.57417,0.99659
182.335,26.93927,0.03092914,0.57622,0.99521
184.935,27.17255,0.02237899,0.57967,0.99381
187.535,27.40506,0.02977115,0.58032,0.9924
190.135,27.63748,0.03004971,0.5851,0.99096
192.735,27.87091,0.02974865,0.58736,0.98951
195.335,28.1033,0.03268813,0.59015,0.98803
197.935,28.33575,0.03149055,0.58982,0.98654
200.535,28.56782,0.03256418,0.59612,0.98503
203.135,28.8002,0.03092931,0.59631,0.98351
205.735,29.0322,0.03095566,0.59865,0.98196
208.335,29.26398,0.03094,0.60249,0.9804
210.935,29.49667,0.03224719,0.60566,0.97882
213.535,29.729,0.03224992,0.60542,0.97722
216.135,29.96139,0.03092611,0.60992,0.97561
218.735,30.1939,0.03221604,0.61291,0.97398
221.335,30.4268,0.03256765,0.61473,0.97233
223.935,30.65895,0.03225015,0.61729,0.97067
226.535,30.89172,0.03223135,0.61764,0.96899
229.135,31.1249,0.03355994,0.61957,0.96729
231.735,31.3571,0.03357,0.61984,0.96558
234.335,31.59003,0.03381674,0.62168,0.96386
236.935,31.82297,0.03356,0.62462,0.96212
239.535,32.0561,0.03238056,0.62728,0.96037
242.135,32.2894,0.03225002,0.62749,0.9586
244.735,32.52252,0.03356016,0.62808,0.95681
247.335,32.7562,0.03265685,0.62911,0.95502
249.935,32.98969,0.03484741,0.63135,0.95321
252.535,33.22375,0.03454879,0.63143,0.95138
255.135,33.45693,0.03421775,0.63456,0.94954
257.735,33.69086,0.03245857,0.63514,0.94769
260.335,33.9246,0.03458306,0.63602,0.94583
262.935,34.15875,0.03425542,0.6381,0.94395
265.535,34.39233,0.03488046,0.63838,0.94207
268.135,34.62656,0.0341471,0.64175,0.94017
270.735,34.86143,0.03357012,0.63983,0.93825
273.335,35.09581,0.03350147,0.64155,0.93633
275.935,35.32986,0.03618982,0.64183,0.93439
278.535,35.56487,0.03467561,0.63899,0.93245
281.135,35.79978,0.03477004,0.64178,0.93049
283.735,36.03529,0.03476991,0.64394,0.92852
286.335,36.2701,0.03477007,0.64325,0.92654
288.935,36.50627,0.03477001,0.64442,0.92456
291.535,36.742,0.03577664,0.64225,0.92256
294.135,36.97807,0.03509995,0.64435,0.92055
296.735,37.2147,0.03414887,0.64466,0.91853
299.335,37.45117,0.03574718,0.64561,0.9165
301.935,37.68797,0.03577578,0.64784,0.91446
304.535,37.92494,0.03477,0.64757,0.91242
307.135,38.16193,0.03444938,0.65125,0.91037
309.735,38.39953,0.03379039,0.65001,0.9083
312.335,38.63657,0.03513219,0.64983,0.90623
314.935,38.87445,0.03575499,0.64913,0.90415
317.535,39.1127,0.03454859,0.64663,0.90207
320.135,39.3506,0.03410969,0.65149,0.89997
322.735,39.58869,0.03410999,0.64929,0.89787
325.335,39.82732,0.03444484,0.65038,0.89576
327.935,40.0664,0.03514905,0.65201,0.89365
330.535,40.3054,0.03240798,0.65318,0.89152
333.135,40.54397,0.03311991,0.65471,0.8894
335.735,40.78369,0.03245964,0.6556,0.88726
338.335,41.02292,0.03227417,0.65682,0.88512
340.935,41.26273,0.03181,0.65714,0.88297
343.535,41.50245,0.03067775,0.65761,0.88082
346.135,41.7425,0.02951,0.65857,0.87866
348.735,41.98265,0.02851996,0.65964,0.8765
351.335,42.2232,0.02819952,0.65922,0.87433
353.935,42.46427,0.02532559,0.66161,0.87216
356.535,42.70495,0.02533815,0.65842,0.86998
359.135,42.9472,0.02279063,0.65818,0.8678
361.735,43.18857,0.02139,0.66153,0.86562
364.335,43.43043,0.01842897,0.66174,0.86343
366.935,43.67197,0.01706097,0.66004,0.86124
369.535,43.91466,0.01480673,0.6624,0.85904
372.135,44.15667,0.012523,0.66083,0.85684
374.735,44.3988,0.009210016,0.65842,0.85464
377.335,44.6421,0.006564758,0.66072,0.85243
379.935,44.8847,0.00124491,0.66371,0.85023
382.535,45.12836,-0.002747025,0.66541,0.84802
385.135,45.37154,-0.005468926,0.67127,0.8458
387.735,45.61603,-0.01151319,0.67465,0.84359
390.335,45.86077,-0.01689894,0.67182,0.84137
392.935,46.1047,-0.02482348,0.67866,0.83915
395.535,46.3498,-0.02963871,0.68721,0.83693
398.135,46.59472,-0.03838584,0.6937,0.83471
400.735,46.84015,-0.04694652,0.69786,0.83249
403.335,47.08648,-0.0570297,0.71179,0.83027
405.935,47.3328,-0.06791068,0.72236,0.82805
408.535,47.57958,-0.07956468,0.73463,0.82582
411.135,47.82597,-0.09380524,0.76376,0.8236
413.735,48.0718,-0.11108,0.78645,0.82137
416.335,48.31879,-0.13061,0.80982,0.81915
418.935,48.56555,-0.15303,0.86583,0.81692
421.535,48.81235,-0.181,0.88251,0.8147
424.135,49.05984,-0.21093,0.90572,0.81248
426.735,49.30684,-0.24372,0.966,0.81025
429.335,49.55532,-0.2861,1.03844,0.80803
431.935,49.80314,-0.33551,1.11972,0.80581
434.535,50.05164,-0.39531,1.22327,0.80359
437.135,50.29992,-0.46972,1.35121,0.80137
439.735,50.54874,-0.56031,1.49113,0.79916
442.335,50.797,-0.66347,1.6424,0.79694
444.935,51.04557,-0.78834,1.81923,0.79473
447.535,51.295,-0.946,1.98259,0.79252
450.135,51.54356,-1.11917,2.10172,0.79031
452.735,51.79353,-1.31382,2.26228,0.7881
455.335,52.04306,-1.55297,2.34384,0.7859
457.935,52.29184,-1.82096,2.37176,0.7837
460.535,52.54015,-2.12291,2.31436,0.7815
463.135,52.7887,-2.45322,2.15372,0.77931
465.735,53.03702,-2.78999,1.88165,0.77712
468.335,53.28521,-3.11885,1.50188,0.77493
470.935,53.5348,-3.4189,1.03867,0.77274
473.535,53.78439,-3.66779,0.56829,0.77056
476.135,54.03442,-3.8531,0.21411,0.76838
478.735,54.2854,-3.97351,0.02569554,0.76621
481.335,54.53689,-4.0411,-0.01766385,0.76404
483.935,54.78821,-4.06735,-0.004778681,0.76188
486.535,55.04,-4.09107,-0.02231256,0.75971
489.135,55.29136,-4.11378,-0.06968185,0.75756
491.735,55.54195,-4.1122,-0.10748,0.75541
494.335,55.7934,-4.11027,-0.13671,0.75326
496.935,56.045,-4.11125,-0.14191,0.75112
499.535,56.2967,-4.11028,-0.16635,0.74898
502.135,56.54883,-4.11158,-0.17706,0.74685
504.735,56.80154,-4.11026,-0.18417,0.74472
507.335,57.05367,-4.1087,-0.19013,0.7426
509.935,57.3075,-4.10797,-0.19218,0.74048
512.535,57.5606,-4.10764,-0.1935,0.73837
515.135,57.8142,-4.10928,-0.20168,0.73627
517.735,58.06725,-4.10928,-0.20573,0.73417
520.335,58.32,-4.10796,-0.20569,0.73207
522.935,58.57339,-4.10829,-0.2099,0.72999
525.535,58.8284,-4.10825,-0.2122,0.72791
528.135,59.0818,-4.10829,-0.2206,0.72583
530.735,59.337,-4.10829,-0.22259,0.72376
533.335,59.59117,-4.10566,-0.22799,0.7217
535.935,59.84599,-4.10566,-0.23228,0.71965
538.535,60.10111,-4.10566,-0.23624,0.7176
541.135,60.3562,-4.10566,-0.2422,0.71556
543.735,60.61139,-4.10434,-0.24754,0.71352
546.335,60.8677,-4.10434,-0.25346,0.7115
548.935,61.1235,-4.10566,-0.25638,0.70948
551.535,61.37882,-4.10499,-0.26199,0.70746
554.135,61.634,-4.10646,-0.26763,0.70546
556.735,61.88915,-4.105,-0.27241,0.70346
559.335,62.14606,-4.10588,-0.2776,0.70147
561.935,62.4026,-4.1049,-0.28013,0.69948
564.535,62.65885,-4.10568,-0.28169,0.69751
567.135,62.9162,-4.10501,-0.28716,0.69554
569.735,63.1729,-4.10379,-0.29444,0.69358
572.335,63.43049,-4.105,-0.29723,0.69162
574.935,63.68772,-4.10237,-0.2905,0.68968
577.535,63.94392,-4.10368,-0.29187,0.68774
580.135,64.20084,-4.10368,-0.30136,0.68581
582.735,64.45792,-4.10238,-0.30845,0.68389
585.335,64.71595,-4.10368,-0.30878,0.68198
587.935,64.97391,-4.10436,-0.31186,0.68008
590.535,65.23085,-4.10324,-0.31683,0.67818
593.135,65.48869,-4.10304,-0.31896,0.67629
595.735,65.74647,-4.10303,-0.32577,0.67441
598.335,66.0041,-4.10369,-0.32817,0.67254
600.935,66.26258,-4.10237,-0.3341,0.67068
603.535,66.52073,-4.10302,-0.33568,0.66883
606.135,66.77919,-4.10171,-0.33804,0.66698
608.735,67.039,-4.10204,-0.34002,0.66515
611.335,67.29774,-4.10204,-0.34409,0.66332
613.935,67.5565,-4.10324,-0.34722,0.6615
616.535,67.81478,-4.10204,-0.35077,0.65969
619.135,68.07369,-4.10104,-0.35276,0.65789
621.735,68.33312,-4.10236,-0.35684,0.6561
624.335,68.59315,-4.10073,-0.36473,0.65432
626.935,68.85271,-4.10209,-0.36432,0.65254
629.535,69.11275,-4.10073,-0.37256,0.65078
632.135,69.3727,-4.10069,-0.37947,0.64902
634.735,69.63309,-4.10072,-0.38295,0.64728
637.335,69.893,-4.10072,-0.38964,0.64554
638.335,69.9932,-4.09928,-0.39016,0.64487