File: 01_Data/PP/STA/N2/10K_min/PP_STA_N2_10KData_210825_R2.csv
##Temp./Â°C,Time/min,Mass loss(subtr.2)/mg,DSC(subtr.2)/(mW/mg),Sensit./(uV/mW)
49.226,10.01,-0.00593,0.03889283,1.03587
51.826,12.33804,-0.005174655,0.12106,1.03574
54.426,13.04318,-0.00590821,0.16257,1.03558
57.026,13.5995,-0.00593616,0.19463,1.03539
59.626,14.08826,-0.006330252,0.21738,1.03518
62.226,14.53169,-0.004769869,0.23782,1.03493
64.826,14.94111,-0.005907901,0.25189,1.03466
67.426,15.32576,-0.01316869,0.26576,1.03435
70.026,15.6912,-0.005434932,0.27802,1.03402
72.626,16.03963,-0.005385956,0.29048,1.03366
75.226,16.37688,-0.003023047,0.30237,1.03327
77.826,16.7022,-0.004649369,0.31208,1.03285
80.426,17.01676,-0.004138108,0.32319,1.03241
83.026,17.32301,-0.003848505,0.33482,1.03194
85.626,17.62196,-0.0029582,0.3441,1.03144
88.226,17.91292,-0.004500015,0.35206,1.03091
90.826,18.1993,-0.004127049,0.35861,1.03036
93.426,18.4799,-0.00307042,0.36911,1.02978
96.026,18.75621,-0.001934674,0.37801,1.02917
98.626,19.02889,-0.00330095,0.387,1.02854
101.226,19.29896,-0.00267776,0.39476,1.02788
103.826,19.56512,-0.003272021,0.40158,1.02719
106.426,19.82987,-0.00330001,0.40915,1.02648
109.026,20.09186,-0.001980096,0.41783,1.02575
111.626,20.35162,-0.001980117,0.4312,1.02498
114.226,20.60998,-0.00165197,0.43802,1.02419
116.826,20.86658,-0.000653913,0.44812,1.02338
119.426,21.12092,-0.001982969,0.45465,1.02254
122.026,21.37301,-0.001982014,0.46888,1.02168
124.626,21.62504,-0.001986652,0.48253,1.02079
127.226,21.8749,-0.001980458,0.49782,1.01988
129.826,22.1229,-0.002108177,0.51233,1.01894
132.426,22.36901,-0.001979831,0.53239,1.01798
135.026,22.61403,-0.0019819,0.55132,1.017
137.626,22.85745,-0.001954558,0.57889,1.01599
140.226,23.10035,-0.001981555,0.61209,1.01496
142.826,23.34156,-0.001329648,0.65449,1.01391
145.426,23.58186,5.08792e-06,0.70554,1.01283
148.026,23.822,-0.001320218,0.7745,1.01173
150.626,24.06081,-0.001316184,0.86409,1.01061
153.226,24.29961,3.682473e-05,0.97175,1.00947
155.826,24.53813,-8.491617e-05,1.10468,1.0083
158.426,24.7767,5.786329e-07,1.23593,1.00711
161.026,25.01401,0.001341057,1.29125,1.00591
163.626,25.251,-0.000325893,1.13851,1.00467
166.226,25.48709,-1.454822e-05,0.84951,1.00342
168.826,25.72144,-1.189471e-05,0.65819,1.00215
171.426,25.95579,-6.222757e-05,0.5818,1.00086
174.026,26.18971,-7.71819e-06,0.55866,0.99954
176.626,26.42375,0.002765434,0.55386,0.99821
179.226,26.65796,0.000980003,0.55759,0.99686
181.826,26.8912,0.0007512632,0.55688,0.99548
184.426,27.12459,-3.192587e-08,0.56241,0.99409
187.026,27.3574,0.0004353223,0.56702,0.99268
189.626,27.58995,0.0009800008,0.56881,0.99124
192.226,27.82175,0.0009806269,0.57424,0.98979
194.826,28.05408,0.002289581,0.57774,0.98832
197.426,28.2861,0.0029452,0.57998,0.98684
200.026,28.5183,0.002300196,0.58327,0.98533
202.626,28.75,0.000989997,0.58757,0.98381
205.226,28.98208,0.00230124,0.58828,0.98226
207.826,29.214,0.003584355,0.59233,0.9807
210.426,29.44609,0.002289997,0.59238,0.97913
213.026,29.67823,0.002299999,0.59613,0.97753
215.626,29.91,0.00295758,0.59709,0.97592
218.226,30.1426,0.001638033,0.60139,0.9743
220.826,30.3747,0.004244605,0.60172,0.97265
223.426,30.60705,0.002960083,0.60675,0.97099
226.026,30.83938,0.004626998,0.60877,0.96932
228.626,31.07167,0.003289979,0.61173,0.96763
231.226,31.3042,0.00374435,0.61096,0.96592
233.826,31.5365,0.00492934,0.61332,0.9642
236.426,31.76916,0.001999242,0.61923,0.96246
239.026,32.0021,0.00460022,0.62137,0.96071
241.626,32.23523,0.004787154,0.62279,0.95894
244.226,32.46852,0.01444265,0.62142,0.95716
246.826,32.70153,0.004070748,0.62552,0.95537
249.426,32.93469,0.00272905,0.63022,0.95356
252.026,33.16762,0.003729465,0.62987,0.95174
254.626,33.401,0.003829934,0.63258,0.94991
257.226,33.6349,0.00383025,0.63463,0.94806
259.826,33.86808,0.002540654,0.63567,0.9462
262.426,34.1018,0.004820095,0.6406,0.94432
265.026,34.33558,0.004821586,0.64217,0.94244
267.626,34.56994,0.00482,0.64231,0.94054
270.226,34.80415,0.004893934,0.64491,0.93863
272.826,35.03819,0.006155019,0.65022,0.93671
275.426,35.2727,0.004834159,0.65095,0.93477
278.026,35.50734,0.004388127,0.6523,0.93283
280.626,35.7425,0.004819957,0.65564,0.93088
283.226,35.97723,0.005110972,0.65675,0.92891
285.826,36.2126,0.004500024,0.6586,0.92693
288.426,36.4484,0.00584613,0.65911,0.92495
291.026,36.68442,0.00515504,0.66146,0.92295
293.626,36.9205,0.005156497,0.66267,0.92094
296.226,37.15656,0.00614,0.66502,0.91893
298.826,37.39318,0.007458891,0.6684,0.9169
301.426,37.62988,0.00614,0.66521,0.91486
304.026,37.86692,0.00613,0.66726,0.91282
306.626,38.10426,0.00613,0.67157,0.91077
309.226,38.3412,0.00613,0.67424,0.90871
311.826,38.5781,0.005149982,0.67188,0.90664
314.426,38.8147,0.00515,0.67576,0.90456
317.026,39.0526,0.005164892,0.68148,0.90247
319.626,39.29014,0.00580999,0.6805,0.90038
322.226,39.52825,0.004829642,0.68363,0.89828
324.826,39.76645,0.005154985,0.68425,0.89617
327.426,40.00435,0.00418562,0.68649,0.89406
330.026,40.24264,0.00537352,0.69044,0.89194
332.626,40.48134,0.005585928,0.68972,0.88981
335.226,40.71971,0.00294966,0.6922,0.88768
337.826,40.9585,0.00525866,0.692,0.88554
340.426,41.19762,0.004272222,0.69726,0.88339
343.026,41.43688,0.00347313,0.69906,0.88124
345.626,41.67657,0.001319445,0.70151,0.87909
348.226,41.9163,0.00128377,0.70499,0.87692
350.826,42.15614,0.0005747002,0.70697,0.87476
353.426,42.396,-0.000120135,0.70891,0.87259
356.026,42.63641,-0.00143001,0.71255,0.87041
358.626,42.87672,-0.002598375,0.71709,0.86823
361.226,43.1176,-0.004726812,0.71919,0.86605
363.826,43.3587,-0.00604,0.72366,0.86386
366.426,43.60037,-0.008350584,0.72865,0.86167
369.026,43.84198,-0.01064,0.73376,0.85947
371.626,44.08359,-0.01368475,0.73962,0.85727
374.226,44.32578,-0.0146931,0.74705,0.85507
376.826,44.5682,-0.01873817,0.75256,0.85287
379.426,44.81172,-0.02435055,0.7553,0.85066
382.026,45.0548,-0.02698998,0.76116,0.84845
384.626,45.29845,-0.03093222,0.76663,0.84624
387.226,45.54185,-0.03631967,0.77452,0.84402
389.826,45.78553,-0.04146509,0.79047,0.84181
392.426,46.02916,-0.04847338,0.80441,0.83959
395.026,46.27414,-0.05714267,0.80523,0.83737
397.626,46.51852,-0.06328657,0.80477,0.83515
400.226,46.76324,-0.07332015,0.81305,0.83293
402.826,47.00826,-0.08553637,0.82554,0.8307
405.426,47.25357,-0.09714633,0.83607,0.82848
408.026,47.4992,-0.1085,0.85157,0.82626
410.626,47.745,-0.1204,0.87527,0.82403
413.226,47.99106,-0.13294,0.9008,0.82181
415.826,48.23724,-0.15308,0.9307,0.81958
418.426,48.4848,-0.17378,0.96849,0.81736
421.026,48.73198,-0.19967,1.01249,0.81513
423.626,48.97936,-0.2148,1.06952,0.81291
426.226,49.22668,-0.25815,1.13211,0.81069
428.826,49.47361,-0.29479,1.20929,0.80847
431.426,49.72068,-0.33742,1.30223,0.80625
434.026,49.9684,-0.39028,1.4027,0.80403
436.626,50.21698,-0.45414,1.53729,0.80181
439.226,50.46523,-0.53243,1.69162,0.79959
441.826,50.71392,-0.62515,1.86497,0.79738
444.426,50.96294,-0.74229,2.04958,0.79516
447.026,51.21265,-0.87395,2.21658,0.79295
449.626,51.46165,-1.033,2.39398,0.79074
452.226,51.712,-1.21579,2.51072,0.78854
454.826,51.96095,-1.42206,2.54736,0.78633
457.426,52.20977,-1.66659,2.57073,0.78413
460.026,52.4589,-1.94778,2.5351,0.78193
462.626,52.7075,-2.25278,2.40533,0.77974
465.226,52.9563,-2.57156,2.144,0.77754
467.826,53.2053,-2.88865,1.76765,0.77536
470.426,53.45479,-3.1774,1.30635,0.77317
473.026,53.7042,-3.41992,0.83124,0.77099
475.626,53.9542,-3.5984,0.44029,0.76881
478.226,54.20469,-3.71826,0.19211,0.76664
480.826,54.4561,-3.78713,0.12585,0.76447
483.426,54.7072,-3.82683,0.14907,0.7623
486.026,54.95927,-3.84955,0.15818,0.76014
488.626,55.211,-3.86139,0.12054,0.75798
491.226,55.4622,-3.8682,0.08166151,0.75583
493.826,55.7139,-3.87299,0.04662166,0.75368
496.426,55.9654,-3.87308,0.0319168,0.75154
499.026,56.21689,-3.87311,0.02290924,0.7494
501.626,56.46889,-3.8718,0.001122628,0.74726
504.226,56.72055,-3.87214,0.00144785,0.74514
506.826,56.97319,-3.87084,0.001665263,0.74301
509.426,57.22577,-3.87182,-0.003465155,0.7409
512.026,57.47928,-3.86919,-0.006841511,0.73878
514.626,57.7321,-3.8705,-0.00682031,0.73668
517.226,57.98588,-3.87017,-0.004925001,0.73458
519.826,58.2389,-3.8705,-0.00760892,0.73248
522.426,58.4925,-3.86722,-0.006292159,0.7304
525.026,58.74666,-3.86951,-0.00546374,0.72831
527.626,59.00039,-3.86819,-0.004413108,0.72624
530.226,59.2551,-3.86851,-0.003109505,0.72417
532.826,59.5099,-3.87116,-0.002438277,0.72211
535.426,59.76481,-3.86868,-0.006901877,0.72005
538.026,60.0197,-3.86984,-0.003757199,0.718
540.626,60.27496,-3.86853,-0.007509583,0.71596
543.226,60.5303,-3.86853,-0.005204274,0.71392
545.826,60.78553,-3.86852,-0.004947858,0.71189
548.426,61.04084,-3.86819,-0.0002640893,0.70987
551.026,61.29693,-3.86753,-0.000588889,0.70786
553.626,61.55316,-3.86884,-0.003796323,0.70585
556.226,61.80973,-3.86855,-0.00170574,0.70385
558.826,62.0663,-3.86754,0.003823247,0.70186
561.426,62.3228,-3.86886,0.004831959,0.69987
564.026,62.5794,-3.86886,0.005661148,0.69789
566.626,62.83615,-3.86754,0.004543598,0.69592
569.226,63.09267,-3.86885,0.004915305,0.69396
571.826,63.34887,-3.86721,0.00889998,0.69201
574.426,63.6049,-3.86751,0.004941933,0.69006
577.026,63.8613,-3.86786,0.00584943,0.68812
579.626,64.11791,-3.86885,0.007660359,0.68619
582.226,64.37473,-3.86589,0.007861235,0.68427
584.826,64.63212,-3.86709,0.007252186,0.68235
587.426,64.88901,-3.86695,0.006927745,0.68045
590.026,65.14588,-3.86787,0.00674049,0.67855
592.626,65.40311,-3.86787,0.00993846,0.67666
595.226,65.6606,-3.86715,0.01299538,0.67478
597.826,65.91834,-3.86687,0.0117827,0.67291
600.426,66.17703,-3.86824,0.015544,0.67104
603.026,66.43466,-3.86538,0.01764154,0.66919
605.626,66.69264,-3.8682,0.01995934,0.66734
608.226,66.95148,-3.8672,0.01345033,0.66551
610.826,67.21044,-3.8672,0.01182546,0.66368
613.426,67.46913,-3.86688,0.01869548,0.66186
616.026,67.7286,-3.86688,0.01733859,0.66004
618.626,67.9872,-3.86619,0.01321288,0.65824
621.226,68.24675,-3.86634,0.01271437,0.65645
623.826,68.50545,-3.86555,0.01433772,0.65466
626.426,68.7646,-3.86539,0.01144124,0.65289
629.026,69.024,-3.8645,0.01056609,0.65112
631.626,69.2836,-3.86545,0.01366597,0.64937
634.226,69.54387,-3.86611,0.01484935,0.64762
636.826,69.80425,-3.86579,0.01861136,0.64588
638.726,69.99416,-3.8671,0.02191744,0.64461