File: 01_Data/Latex_Pillow_Outer_Fabric/STA/N2/10K_min/Latex_Pillow_Outer_Fabric_A_STA_N2_10KData_220801_R1.csv
##Temp./Â°C,Time/min,Mass loss(subtr.2)/mg,DSC(subtr.2)/mW,Sensit./(uV/mW)
49.387,10.00917,0.00396,3.21E-02,1.07026
51.887,11.20394,0.004866591,0.25584,1.06958
54.387,11.59132,0.0056626,0.34951,1.06888
56.887,11.91272,0.006186392,0.3981,1.06818
59.387,12.20789,0.004849147,0.42903,1.06747
61.887,12.49089,0.006414026,0.44421,1.06676
64.387,12.76656,0.005696875,0.46367,1.06604
66.887,13.03832,0.005708286,0.47655,1.06531
69.387,13.30731,0.005847344,0.49127,1.06458
71.887,13.57366,0.007025529,0.4895,1.06384
74.387,13.8375,0.007019452,0.45261,1.06309
76.887,14.09884,0.007388404,0.40713,1.06234
79.387,14.35748,0.006696248,0.36451,1.06158
81.887,14.61401,0.006941908,0.33793,1.06081
84.387,14.86859,0.007019272,0.3281,1.06004
86.887,15.12131,0.008355469,0.323,1.05926
89.387,15.37174,0.008540263,0.31108,1.05847
91.887,15.62027,0.008348206,0.29422,1.05768
94.387,15.86888,0.008340672,0.29158,1.05688
96.887,16.11645,0.008391658,0.28904,1.05607
99.387,16.36277,0.00949949,0.29455,1.05526
101.887,16.60816,0.008338966,0.30335,1.05444
104.387,16.85396,0.008684172,0.31304,1.05362
106.887,17.09853,0.009660747,0.33051,1.05278
109.387,17.34292,0.00867979,0.33911,1.05194
111.887,17.58726,0.008425741,0.35069,1.0511
114.387,17.83094,0.008340688,0.36593,1.05024
116.887,18.07448,0.007922437,0.36826,1.04938
119.387,18.31797,0.009310686,0.37532,1.04852
121.887,18.56144,0.007360836,0.3719,1.04764
124.387,18.80481,0.008558285,0.39449,1.04676
126.887,19.04763,0.008569989,0.41279,1.04588
129.387,19.2895,0.009895276,0.42704,1.04498
131.887,19.53094,0.01021006,0.43048,1.04408
134.387,19.77285,0.008571518,0.44832,1.04318
136.887,20.01344,0.008569651,0.44557,1.04226
139.387,20.25468,0.008569973,0.45115,1.04134
141.887,20.49541,0.01076311,0.45029,1.04041
144.387,20.73607,0.009549919,0.46185,1.03948
146.887,20.97747,0.008706245,0.46703,1.03854
149.387,21.21714,0.006920004,0.47166,1.03759
151.887,21.45672,0.008239574,0.46555,1.03663
154.387,21.69686,0.00823,0.46989,1.03567
156.887,21.93644,0.006477722,0.47988,1.0347
159.387,22.17548,0.006869305,0.47899,1.03372
161.887,22.41507,0.008246947,0.46827,1.03274
164.387,22.65405,0.007909689,0.4729,1.03175
166.887,22.89364,0.005613597,0.47274,1.03075
169.387,23.13251,0.006594859,0.47213,1.02975
171.887,23.37202,0.0056,0.47232,1.02873
174.387,23.61122,0.004281487,0.47542,1.02771
176.887,23.85073,0.004279997,0.48011,1.02669
179.387,24.08928,0.002969997,0.47754,1.02566
181.887,24.32824,0.002640202,0.48358,1.02462
184.387,24.56673,0.000330583,0.48258,1.02357
186.887,24.80569,-0.000518189,0.48319,1.02251
189.387,25.04399,0.001037516,0.4917,1.02145
191.887,25.28172,-0.001649943,0.49809,1.02038
194.387,25.52044,-0.003290415,0.49189,1.01931
196.887,25.75812,-0.001970036,0.49679,1.01822
199.387,25.99636,-0.004280475,0.50064,1.01713
201.887,26.23408,-0.004371505,0.5037,1.01603
204.387,26.47178,-0.00428,0.49666,1.01493
206.887,26.70997,-0.004281896,0.49661,1.01382
209.387,26.94733,-0.005590108,0.49837,1.0127
211.887,27.18596,-0.004600107,0.50104,1.01157
214.387,27.42407,-0.005919994,0.50842,1.01044
216.887,27.66213,-0.00724,0.49653,1.00929
219.387,27.89983,-0.007589933,0.50908,1.00815
221.887,28.13761,-0.008882545,0.51854,1.00699
224.387,28.37554,-0.008560228,0.52933,1.00583
226.887,28.61312,-0.008558134,0.55046,1.00465
229.387,28.85088,-0.007569766,0.57654,1.00348
231.887,29.0883,-0.007567039,0.59978,1.00229
234.387,29.32605,-0.01021003,0.64525,1.0011
236.887,29.56427,-0.009589544,0.70083,0.9999
239.387,29.80236,-0.009109965,0.76309,0.99869
241.887,30.04071,-0.008951854,0.85818,0.99747
244.387,30.27913,-0.009762262,1.00013,0.99625
246.887,30.51701,-0.01075,1.27264,0.99502
249.387,30.75595,-0.01042248,2.20752,0.99378
251.887,30.99669,-0.01174016,3.77314,0.99254
254.387,31.23843,-0.01009967,4.62602,0.99129
256.887,31.47817,-0.009769967,3.4947,0.99002
259.387,31.71521,-0.009358732,1.6455,0.98876
261.887,31.95075,-0.01043,0.9722,0.98748
264.387,32.18709,-0.01043,0.78998,0.9862
266.887,32.42396,-0.009675892,0.71848,0.98491
269.387,32.66135,-0.009071636,0.70312,0.98361
271.887,32.89887,-0.009109782,0.69742,0.98231
274.387,33.13718,-0.009110529,0.69305,0.98099
276.887,33.37479,-0.0107525,0.6885,0.97967
279.387,33.61332,-0.009770007,0.6838,0.97834
281.887,33.85185,-0.00977,0.67919,0.97701
284.387,34.09087,-0.009111005,0.68818,0.97567
286.887,34.32953,-0.01042841,0.68296,0.97432
289.387,34.5684,-0.01042997,0.68216,0.97296
291.887,34.80708,-0.01141982,0.68548,0.97159
294.387,35.04565,-0.01076,0.69373,0.97022
296.887,35.28573,-0.01076,0.69805,0.96884
299.387,35.52476,-0.01043,0.70114,0.96745
301.887,35.76506,-0.01043,0.70739,0.96605
304.387,36.0043,-0.01041674,0.70502,0.96465
306.887,36.24389,-0.00977,0.70984,0.96324
309.387,36.48364,-0.009770108,0.7129,0.96182
311.887,36.72301,-0.01101422,0.70945,0.96039
314.387,36.96186,-0.01172478,0.73515,0.95896
316.887,37.20245,-0.01103077,0.74916,0.95751
319.387,37.44245,-0.01075,0.74516,0.95606
321.887,37.68318,-0.01074447,0.74314,0.95461
324.387,37.92336,-0.01207536,0.74109,0.95314
326.887,38.16412,-0.01206874,0.73487,0.95167
329.387,38.40461,-0.01206989,0.7423,0.95019
331.887,38.64478,-0.01141003,0.72817,0.9487
334.387,38.88499,-0.01272852,0.728,0.94721
336.887,39.12584,-0.01173398,0.73804,0.9457
339.387,39.36639,-0.0130726,0.75133,0.94419
341.887,39.60721,-0.01306,0.74721,0.94267
344.387,39.8487,-0.01305999,0.74992,0.94115
346.887,40.09044,-0.01341657,0.75751,0.93961
349.387,40.33155,-0.01528424,0.78674,0.93807
351.887,40.57315,-0.01669729,0.78644,0.93652
354.387,40.81414,-0.01622541,0.80326,0.93497
356.887,41.05526,-0.01669504,0.81016,0.9334
359.387,41.29673,-0.01810571,0.81786,0.93183
361.887,41.53848,-0.02140608,0.83029,0.93025
364.387,41.78,-0.02081953,0.85701,0.92866
366.887,42.02214,-0.02239588,0.87245,0.92707
369.387,42.26423,-0.02403998,0.90489,0.92547
371.887,42.50596,-0.02789402,0.9325,0.92386
374.387,42.74883,-0.03129034,0.90023,0.92224
376.887,42.9915,-0.03663122,0.88814,0.92061
379.387,43.23408,-0.04183625,0.91335,0.91898
381.887,43.47663,-0.05006475,0.9547,0.91734
384.387,43.719,-0.06191551,0.959,0.91569
386.887,43.96259,-0.07303768,0.98109,0.91404
389.387,44.20514,-0.08821022,0.98562,0.91238
391.887,44.44817,-0.1061,1.00245,0.91071
394.387,44.69157,-0.12704,1.05162,0.90903
396.887,44.93444,-0.14938,1.09602,0.90734
399.387,45.17797,-0.17816,1.17548,0.90565
401.887,45.42173,-0.21183,1.10049,0.90395
404.387,45.66627,-0.25008,1.17645,0.90224
406.887,45.91065,-0.29627,1.28706,0.90053
409.387,46.15514,-0.35228,1.44072,0.8988
411.887,46.39954,-0.41529,1.57267,0.89707
414.387,46.64401,-0.48714,1.72207,0.89534
416.887,46.88884,-0.57041,1.86952,0.89359
419.387,47.13361,-0.66404,1.93963,0.89184
421.887,47.37885,-0.7713,2.10501,0.89008
424.387,47.6235,-0.88818,2.23758,0.88831
426.887,47.86827,-1.02498,2.46313,0.88654
429.387,48.11296,-1.17133,2.5335,0.88476
431.887,48.35787,-1.33604,2.67353,0.88297
434.387,48.60281,-1.51311,2.69999,0.88117
436.887,48.84815,-1.70092,2.69062,0.87937
439.387,49.09261,-1.90134,2.6683,0.87756
441.887,49.33869,-2.1069,2.55541,0.87574
444.387,49.58348,-2.30189,2.36088,0.87392
446.887,49.82794,-2.4848,2.0698,0.87208
449.387,50.07216,-2.64411,1.71665,0.87024
451.887,50.31668,-2.77405,1.31399,0.8684
454.387,50.56054,-2.87273,0.92926,0.86654
456.887,50.80505,-2.94735,0.59751,0.86468
459.387,51.05012,-3.00226,0.34054,0.86281
461.887,51.29468,-3.04493,0.12875,0.86094
464.387,51.53887,-3.07816,-5.92E-02,0.85906
466.887,51.78468,-3.10803,-0.22872,0.85717
469.387,52.02986,-3.12966,-0.41765,0.85527
471.887,52.2751,-3.1477,-0.56269,0.85337
474.387,52.52112,-3.16438,-0.68159,0.85146
476.887,52.76669,-3.17731,-0.77453,0.84954
479.387,53.01131,-3.18798,-0.78347,0.84762
481.887,53.25673,-3.19635,-0.74436,0.84569
484.387,53.50314,-3.20397,-0.74148,0.84375
486.887,53.7488,-3.21083,-0.74503,0.84181
489.387,53.99521,-3.21479,-0.76465,0.83986
491.887,54.24182,-3.22062,-0.77788,0.8379
494.387,54.48805,-3.22448,-0.79384,0.83594
496.887,54.7347,-3.22936,-0.81177,0.83397
499.387,54.9816,-3.23289,-0.84128,0.83199
501.887,55.22875,-3.23737,-0.87231,0.83
504.387,55.47592,-3.23918,-0.89216,0.82801
506.887,55.72174,-3.24342,-0.91733,0.82602
509.387,55.96868,-3.24333,-0.95199,0.82401
511.887,56.2158,-3.24634,-0.98275,0.822
514.387,56.46422,-3.24728,-1.01522,0.81999
516.887,56.7109,-3.25131,-1.04363,0.81796
519.387,56.95898,-3.25122,-1.07431,0.81593
521.887,57.20719,-3.2527,-1.09644,0.8139
524.387,57.45528,-3.25382,-1.12694,0.81186
526.887,57.70401,-3.25683,-1.13992,0.80981
529.387,57.95247,-3.25617,-1.15654,0.80775
531.887,58.20072,-3.25918,-1.166,0.80569
534.387,58.44878,-3.26177,-1.19051,0.80363
536.887,58.69716,-3.26242,-1.22041,0.80155
539.387,58.94519,-3.26453,-1.21943,0.79947
541.887,59.19334,-3.26737,-1.23471,0.79739
544.387,59.44099,-3.26872,-1.25077,0.7953
546.887,59.68939,-3.27099,-1.26588,0.7932
549.387,59.9371,-3.27358,-1.28148,0.7911
551.887,60.18518,-3.27362,-1.29837,0.78899
554.387,60.43356,-3.27626,-1.30657,0.78687
556.887,60.68199,-3.27978,-1.32471,0.78475
559.387,60.93114,-3.28021,-1.33286,0.78263
561.887,61.18043,-3.28087,-1.34993,0.7805
564.387,61.42975,-3.28616,-1.37102,0.77836
566.887,61.67956,-3.28844,-1.38182,0.77622
569.387,61.92845,-3.28845,-1.39553,0.77407
571.887,62.17801,-3.29086,-1.41461,0.77191
574.387,62.42706,-3.29185,-1.43759,0.76975
576.887,62.67565,-3.29221,-1.44773,0.76759
579.387,62.92474,-3.29449,-1.45138,0.76542
581.887,63.17397,-3.29843,-1.47552,0.76324
584.387,63.42331,-3.29976,-1.48804,0.76106
586.887,63.6736,-3.29976,-1.49346,0.75887
589.387,63.92327,-3.30239,-1.50855,0.75668
591.887,64.17423,-3.30371,-1.52438,0.75449
594.387,64.42413,-3.30502,-1.54329,0.75228
596.887,64.67482,-3.30634,-1.541,0.75008
599.387,64.9248,-3.30931,-1.56265,0.74786
601.887,65.17423,-3.31031,-1.57038,0.74565
604.387,65.4245,-3.31194,-1.57038,0.74343
605.587,65.54462,-3.31293,-1.57038,0.74236