File: 01_Data/Latex_Pillow_Outer_Fabric/STA/N2/10K_min/Latex_Pillow_Outer_Fabric_A_STA_N2_10KData_220802_R2.csv
##Temp./Â°C,Time/min,Mass loss(subtr.2)/mg,DSC(subtr.2)/mW,Sensit./(uV/mW)
49.56,10.00917,0.0573,0.02994109,1.07022
51.86,11.16736,0.06214796,0.38123,1.06958
54.16,11.53748,0.06396587,0.57115,1.06895
56.46,11.84104,0.06335454,0.66857,1.0683
58.76,12.1174,0.06595413,0.74079,1.06765
61.06,12.3799,0.06596614,0.7952,1.067
63.36,12.63518,0.06604805,0.84522,1.06633
65.66,12.88599,0.06600135,0.87408,1.06567
67.96,13.1342,0.06729573,0.90319,1.065
70.26,13.3792,0.06828422,0.92831,1.06432
72.56,13.6232,0.06856455,0.93775,1.06364
74.86,13.86341,0.06860997,0.91736,1.06295
77.16,14.1038,0.07133324,0.87723,1.06225
79.46,14.3412,0.07132003,0.852,1.06155
81.76,14.57724,0.07123968,0.84014,1.06085
84.06,14.81201,0.07268221,0.84648,1.06014
86.36,15.04451,0.075299,0.85646,1.05942
88.66,15.27573,0.07493034,0.85519,1.0587
90.96,15.5063,0.0769519,0.86502,1.05797
93.26,15.7352,0.07694064,0.8648,1.05724
95.56,15.96349,0.07701922,0.87166,1.0565
97.86,16.19067,0.07694967,0.88993,1.05576
100.16,16.41609,0.07543701,0.91625,1.05501
102.46,16.64193,0.07695431,0.93103,1.05425
104.76,16.86713,0.07737717,0.95001,1.05349
107.06,17.09241,0.07860621,0.95911,1.05272
109.36,17.3174,0.07785941,0.98494,1.05195
111.66,17.54185,0.07989696,1.00514,1.05117
113.96,17.7659,0.07886863,1.02488,1.05039
116.26,17.9906,0.08122999,1.04385,1.0496
118.56,18.21388,0.08188081,1.06171,1.04881
120.86,18.43769,0.08169832,1.07005,1.048
123.16,18.66131,0.08123295,1.09519,1.0472
125.46,18.88458,0.08318447,1.11198,1.04638
127.76,19.10792,0.08320675,1.14206,1.04557
130.06,19.3307,0.08321013,1.16474,1.04474
132.36,19.55266,0.0832,1.1671,1.04391
134.66,19.77497,0.08188979,1.18693,1.04308
136.96,19.9968,0.08288004,1.19884,1.04224
139.26,20.2191,0.08320835,1.21173,1.04139
141.56,20.4403,0.08324917,1.22407,1.04053
143.86,20.66166,0.08443249,1.24509,1.03968
146.16,20.8831,0.08584,1.25418,1.03881
148.46,21.10427,0.0850345,1.25895,1.03794
150.76,21.32597,0.08584987,1.28467,1.03706
153.06,21.54656,0.0856339,1.29241,1.03618
155.36,21.76802,0.08716,1.30663,1.03529
157.66,21.98951,0.08614225,1.32093,1.0344
159.96,22.21031,0.08552442,1.33495,1.0335
162.26,22.43121,0.08767653,1.34326,1.03259
164.56,22.6514,0.08714397,1.36041,1.03168
166.86,22.87189,0.08683113,1.37735,1.03076
169.16,23.092,0.08789828,1.38103,1.02984
171.46,23.31189,0.08716,1.39221,1.02891
173.76,23.53114,0.08852053,1.40255,1.02797
176.06,23.751,0.08716675,1.41272,1.02703
178.36,23.97085,0.08782617,1.41532,1.02608
180.66,24.19088,0.08717144,1.4243,1.02513
182.96,24.41071,0.08584996,1.44181,1.02417
185.26,24.62961,0.0865,1.45246,1.0232
187.56,24.8492,0.0878158,1.46287,1.02223
189.86,25.0684,0.0865002,1.47766,1.02125
192.16,25.28704,0.08420394,1.48346,1.02027
194.46,25.50603,0.08550968,1.5062,1.01927
196.76,25.72479,0.0848714,1.51102,1.01828
199.06,25.9435,0.08551,1.51411,1.01728
201.36,26.16249,0.08551,1.5248,1.01627
203.66,26.3816,0.08419,1.53236,1.01525
205.96,26.6011,0.0828808,1.54219,1.01423
208.26,26.81917,0.08387007,1.55117,1.0132
210.56,27.03821,0.08321024,1.55387,1.01217
212.86,27.25638,0.08321001,1.58709,1.01113
215.16,27.4756,0.08321,1.57512,1.01008
217.46,27.6942,0.08315725,1.60158,1.00903
219.76,27.9146,0.08257535,1.61896,1.00797
222.06,28.13223,0.08386016,1.61365,1.00691
224.36,28.35213,0.08254,1.64184,1.00584
226.66,28.57242,0.08523071,1.6681,1.00476
228.96,28.79155,0.08330735,1.68873,1.00368
231.26,29.0102,0.08287877,1.71065,1.00259
233.56,29.2294,0.08288015,1.75907,1.00149
235.86,29.44858,0.08355905,1.79887,1.00039
238.16,29.66767,0.08123054,1.86391,0.99928
240.46,29.88591,0.08387674,1.94254,0.99817
242.76,30.10486,0.08254996,2.05904,0.99705
245.06,30.3243,0.08387002,2.21523,0.99592
247.36,30.5434,0.08386812,2.47861,0.99479
249.66,30.76285,0.08386113,3.38962,0.99365
251.96,30.98371,0.08254678,4.76964,0.9925
254.26,31.20625,0.08385808,5.69428,0.99135
256.56,31.42802,0.08254071,5.05344,0.99019
258.86,31.6474,0.0832,3.25703,0.98903
261.16,31.8651,0.0832,2.30673,0.98785
263.46,32.08188,0.08320007,2.02012,0.98668
265.76,32.29848,0.08321,1.95482,0.98549
268.06,32.51717,0.08354,1.90912,0.9843
270.36,32.7354,0.08186395,1.90504,0.9831
272.66,32.95486,0.08321615,1.89823,0.9819
274.96,33.17372,0.08325323,1.89678,0.98069
277.26,33.3915,0.08351752,1.89068,0.97948
279.56,33.61168,0.08295121,1.89492,0.97825
281.86,33.83157,0.08406396,1.89296,0.97702
284.16,34.0498,0.08282535,1.90318,0.97579
286.46,34.26938,0.08222007,1.90075,0.97455
288.76,34.4889,0.08046006,1.90249,0.9733
291.06,34.70835,0.08112005,1.90566,0.97204
293.36,34.92838,0.08309,1.91205,0.97078
295.66,35.14568,0.08341999,1.90816,0.96952
297.96,35.36501,0.08047534,1.91246,0.96824
300.26,35.58712,0.08170124,1.90148,0.96696
302.56,35.808,0.0821,1.89444,0.96567
304.86,36.02802,0.08145947,1.89851,0.96438
307.16,36.24799,0.08244,1.89981,0.96308
309.46,36.46935,0.08244,1.91416,0.96178
311.76,36.69036,0.08461254,1.90544,0.96046
314.06,36.90987,0.08320065,1.90981,0.95914
316.36,37.12997,0.08152616,1.91329,0.95782
318.66,37.35239,0.08250688,1.91282,0.95649
320.96,37.57193,0.08255024,1.9175,0.95515
323.26,37.79508,0.08255565,1.90781,0.9538
325.56,38.0163,0.08120042,1.9018,0.95245
327.86,38.23717,0.08255,1.92216,0.95109
330.16,38.45868,0.08123199,1.91448,0.94973
332.46,38.67944,0.08025,1.92198,0.94836
334.76,38.90023,0.08082045,1.93687,0.94698
337.06,39.12198,0.08156982,1.94988,0.9456
339.36,39.34304,0.08222579,1.93431,0.94421
341.66,39.56456,0.0801401,1.94046,0.94281
343.96,39.7849,0.07948,1.95211,0.94141
346.26,40.00843,0.0794799,1.9573,0.94
348.56,40.22987,0.08079077,1.96602,0.93858
350.86,40.45237,0.07917359,1.94539,0.93716
353.16,40.67516,0.07971909,1.95358,0.93573
355.46,40.89703,0.07838312,1.95441,0.9343
357.76,41.12023,0.07708592,1.96064,0.93285
360.06,41.34233,0.07466634,1.97331,0.93141
362.36,41.56365,0.07475992,1.98868,0.92995
364.66,41.78541,0.07377323,2.0117,0.92849
366.96,42.0092,0.07377023,2.01718,0.92702
369.26,42.23133,0.07064908,2.02933,0.92555
371.56,42.4536,0.06849989,2.05508,0.92407
373.86,42.6763,0.06595155,2.06851,0.92258
376.16,42.89969,0.06190987,2.08413,0.92109
378.46,43.12292,0.05936316,2.10899,0.91959
380.76,43.34313,0.05168713,2.14663,0.91808
383.06,43.56904,0.04358076,2.15915,0.91657
385.36,43.79218,0.03625122,2.17222,0.91505
387.66,44.01448,0.02263406,2.20391,0.91353
389.96,44.23956,0.00895689,2.22107,0.91199
392.26,44.46354,-0.007393126,2.25031,0.91046
394.56,44.68567,-0.0228111,2.29113,0.90891
396.86,44.9084,-0.04513747,2.35406,0.90736
399.16,45.13134,-0.06863485,2.41171,0.9058
401.46,45.35546,-0.09967819,2.4707,0.90424
403.76,45.5816,-0.13289,2.54016,0.90267
406.06,45.804,-0.17209,2.56365,0.90109
408.36,46.0285,-0.21899,2.63215,0.89951
410.66,46.2522,-0.26769,2.6611,0.89792
412.96,46.47723,-0.3247,2.71848,0.89633
415.26,46.70235,-0.38994,2.81478,0.89473
417.56,46.92739,-0.46459,2.93404,0.89312
419.86,47.1535,-0.54614,3.0825,0.89151
422.16,47.3795,-0.6395,3.19309,0.88989
424.46,47.6062,-0.74534,3.29212,0.88826
426.76,47.832,-0.86099,3.43998,0.88663
429.06,48.05814,-0.99119,3.57321,0.88499
431.36,48.28415,-1.13398,3.67021,0.88335
433.66,48.50932,-1.28819,3.67064,0.8817
435.96,48.7351,-1.45407,3.69958,0.88004
438.26,48.95952,-1.62819,3.70459,0.87838
440.56,49.18482,-1.80852,3.6558,0.87671
442.86,49.41005,-1.99128,3.55428,0.87503
445.16,49.63469,-2.16319,3.38337,0.87335
447.46,49.85937,-2.33347,3.15151,0.87166
449.76,50.08448,-2.48498,2.86965,0.86997
452.06,50.3093,-2.60808,2.54364,0.86827
454.36,50.53382,-2.70369,2.22343,0.86656
456.66,50.75775,-2.77479,1.96074,0.86485
458.96,50.9831,-2.82774,1.74834,0.86313
461.26,51.20835,-2.86781,1.56761,0.86141
463.56,51.43373,-2.90121,1.40058,0.85968
465.86,51.659,-2.92757,1.26902,0.85795
468.16,51.88552,-2.9499,1.1337,0.8562
470.46,52.11184,-2.96832,1.00099,0.85446
472.76,52.33842,-2.98208,0.89395,0.8527
475.06,52.56494,-2.99689,0.79042,0.85095
477.36,52.7916,-3.00945,0.7275,0.84918
479.66,53.01739,-3.01809,0.76973,0.84741
481.96,53.24329,-3.02654,0.78271,0.84563
484.26,53.4699,-3.0352,0.79468,0.84385
486.56,53.69582,-3.04218,0.80406,0.84206
488.86,53.9227,-3.04698,0.78714,0.84027
491.16,54.14926,-3.05243,0.75432,0.83847
493.46,54.37669,-3.06134,0.72277,0.83667
495.76,54.6043,-3.0628,0.68992,0.83485
498.06,54.8314,-3.0682,0.66943,0.83304
500.36,55.05894,-3.06704,0.94157,0.83122
502.66,55.28663,-3.07435,0.92917,0.82939
504.96,55.5146,-3.08032,0.89864,0.82756
507.26,55.74225,-3.08425,0.87474,0.82572
509.56,55.97048,-3.0869,0.83339,0.82387
511.86,56.19826,-3.08854,0.80358,0.82202
514.16,56.42645,-3.0909,0.77577,0.82017
516.46,56.65465,-3.09348,0.75177,0.81831
518.76,56.88239,-3.0948,0.71152,0.81644
521.06,57.11022,-3.09743,0.69971,0.81457
523.36,57.33855,-3.10008,0.68058,0.8127
525.66,57.56694,-3.10139,0.67335,0.81081
527.96,57.79472,-3.1027,0.66564,0.80893
530.26,58.02228,-3.10402,0.64644,0.80703
532.56,58.25056,-3.10632,0.64281,0.80514
534.86,58.4787,-3.10665,0.64968,0.80323
537.16,58.70729,-3.10797,0.63691,0.80133
539.46,58.9362,-3.11081,0.6476,0.79941
541.76,59.165,-3.11335,0.65033,0.79749
544.06,59.3939,-3.1127,0.63246,0.79557
546.36,59.6225,-3.11396,0.64127,0.79364
548.66,59.85207,-3.11617,0.62589,0.79171
550.96,60.0808,-3.11631,0.63099,0.78977
553.26,60.3096,-3.11763,0.63724,0.78783
555.56,60.5386,-3.11895,0.64659,0.78588
557.86,60.76721,-3.12159,0.65533,0.78393
560.16,60.99572,-3.12192,0.65227,0.78197
562.46,61.22453,-3.12354,0.64745,0.78001
564.76,61.4535,-3.12488,0.65667,0.77804
567.06,61.68225,-3.1262,0.66249,0.77607
569.36,61.91112,-3.12755,0.65115,0.77409
571.66,62.1387,-3.13015,0.64912,0.77211
573.96,62.3675,-3.13022,0.64154,0.77012
576.26,62.5958,-3.13222,0.64221,0.76813
578.56,62.8247,-3.13355,0.64242,0.76614
580.86,63.05375,-3.13515,0.64064,0.76414
583.16,63.28301,-3.13748,0.64577,0.76213
585.46,63.5129,-3.13786,0.64124,0.76012
587.76,63.7428,-3.14049,0.63094,0.75811
590.06,63.9737,-3.14179,0.62611,0.75609
592.36,64.20461,-3.14311,0.62415,0.75407
594.66,64.43581,-3.14311,0.6152,0.75204
596.96,64.66632,-3.14574,0.60458,0.75001
599.26,64.89676,-3.14706,0.60333,0.74798
600.26,64.99719,-3.14838,0.62161,0.74709