File: 01_Data/PE_Foam_Pipe_Insulation/Cone/PE_Foam_Pipe_Insulation_Cone_HF75Scan_220316_R1.csv
Names,Time,Stack TC,Smoke TC,Exh Press,Smoke Comp,Smoke Meas,CO Meter,CO2 Meter,O2 Meter,Sample Mass,Ext Coeff,Start Test,Flame Verif
Chan Gain,,500,500,1,1,1,1,1,1,1,1,1.0,1.0
Offset,,0,0,0.135167,0,0,0,0,0,0,0,0.0,0.0
Gain,,1,1,25.011,13.0486,13.2841,1,1,1,1.00089,1.0079,1.0,1.0
Units,sec,C,C,Pa,%,%,%,%,%,g,/m,,
Baseline,,37.5775,39.0256,151.993,99.0594,95.4444,0.000660779,0.0604723,20.9913,-491.991,0.328767,,
7,1.5,35.7784,37.2908,142.893,98.3019,94.2008,0.00133354,0.0768122,20.9541,2.242,0.37677,0.0,1.0
14,3.25,35.5555,36.8138,138.905,98.2816,90.1796,0.00181233,0.113289,20.8783,2.0218,0.760644,0.0,1.0
21,5,37.1048,38.0123,146.358,98.241,92.1855,0.00246338,0.147539,20.8306,2.08186,0.562482,0.0,1.0
28,6.75,37.0921,38.548,139.508,98.2338,86.8107,0.00329711,0.167465,20.8042,2.0218,1.09296,0.0,1.0
35,8.5,38.0609,39.0597,137.619,98.2282,79.124,0.00477391,0.190816,20.7823,1.93172,1.91217,0.0,0.0
42,10.25,39.426,40.3462,133.336,98.2238,75.7839,0.00742602,0.227913,20.7228,1.77158,2.2931,0.0,0.0
49,12,40.256,41.4463,129.216,98.1884,66.1832,0.0109128,0.304191,20.5219,1.52136,3.48754,0.0,0.0
56,13.75,41.9635,43.3971,125.746,98.1765,64.2377,0.0149413,0.432693,20.2088,1.30116,3.75026,0.0,0.0
63,15.5,44.7059,46.1572,99.6745,98.1645,61.847,0.0189781,0.594257,19.9051,1.02091,4.0845,0.0,0.0
70,17.25,48.8093,50.0643,101.608,98.1609,63.5529,0.0229311,0.812542,19.5438,0.770687,3.84361,0.0,0.0
77,19,53.5349,55.1179,87.5353,98.1502,60.87,0.0263067,1.03148,19.1764,0.310277,4.22399,0.0,0.0
84,20.75,59.6616,62.1791,116.47,98.1072,61.723,0.0286859,1.24605,18.8428,0.0300268,4.09708,0.0,0.0
91,22.5,65.1129,68.8104,95.4528,98.0956,62.464,0.0296031,1.38166,18.6693,-0.260232,3.99052,0.0,0.0
98,24.25,69.6425,73.9318,100.018,98.0893,64.5498,0.0293314,1.43963,18.6184,-0.580517,3.69954,0.0,0.0
105,26,74.7765,79.5415,100.978,98.0646,66.7455,0.0283886,1.44299,18.6592,-0.83074,3.40159,0.0,0.0
112,27.75,77.8757,83.6508,108.442,98.0208,66.4455,0.0273911,1.40964,18.7124,-1.07095,3.43746,0.0,0.0
119,29.5,81.491,87.4364,100.816,98.0104,68.6873,0.026201,1.36306,18.8035,-1.33119,3.14315,0.0,0.0
126,31.25,84.4758,91.3781,109.284,97.9833,69.0765,0.0253731,1.30445,18.9012,-1.59142,3.09075,0.0,0.0
133,33,86.2691,93.5103,108.274,97.9853,69.5289,0.0245861,1.24234,19.0054,-1.85165,3.03321,0.0,0.0
140,34.75,88.8817,96.6041,110.131,97.9423,70.78,0.0238972,1.19767,19.0781,-2.11188,2.87166,0.0,0.0
147,36.5,91.2822,99.0549,114.777,97.9188,69.0514,0.0228725,1.16062,19.1403,-2.3621,3.08815,0.0,0.0
154,38.25,93.3371,101.453,117.154,97.8941,70.2749,0.0215399,1.12458,19.2065,-2.5823,2.93063,0.0,0.0
161,40,95.1066,103.829,109.382,97.8862,71.798,0.0197657,1.06824,19.326,-2.81251,2.74034,0.0,0.0
168,41.75,96.1181,104.954,119.21,97.873,72.9603,0.0177072,0.99288,19.4966,-2.98266,2.59718,0.0,0.0
175,43.5,96.9098,106.246,135.674,97.8639,91.0739,0.0148792,0.843263,19.7615,-2.99267,0.635738,0.0,0.0
182,45.25,95.2994,104.757,145.159,97.844,92.7653,0.0113519,0.668152,20.1538,-2.97265,0.471254,0.0,0.0
189,47,93.0845,102.748,146.829,97.8157,94.3589,0.00837472,0.489385,20.4821,-2.99267,0.318103,0.0,0.0
196,48.75,90.0741,100.235,145.683,97.8029,93.8274,0.00611097,0.335672,20.6837,-2.99267,0.366891,0.0,0.0
203,50.5,87.9368,97.8625,148.546,97.7755,94.4919,0.00446615,0.23645,20.8041,-2.97265,0.302017,0.0,0.0
210,52.25,86.0544,95.3996,151.889,97.7607,93.3932,0.00332835,0.174641,20.8762,-2.99267,0.404082,0.0,0.0
217,54,83.7499,93.6577,147.007,97.7249,93.7326,0.00256955,0.135756,20.9206,-2.99267,0.368776,0.0,0.0
224,55.75,81.9881,91.4414,149.928,97.7094,93.3507,0.00207371,0.11248,20.9442,-2.98266,0.403466,0.0,0.0
231,57.5,80.3572,89.3709,147.663,97.7094,93.9571,0.0017506,0.0971098,20.9597,-3.01268,0.346212,0.0,0.0
238,59.25,78.7418,87.6724,150.67,97.7141,93.4938,0.00150393,0.0870928,20.9702,-3.00268,0.390356,0.0,0.0
245,61,76.7961,85.3105,150.814,97.6875,92.9716,0.00129117,0.080062,20.9787,-3.00268,0.437457,0.0,0.0
252,62.75,75.4382,83.8933,148.429,97.6795,93.358,0.00111777,0.0750116,20.9842,-3.01268,0.400073,0.0,0.0
259,64.5,74.4153,82.9266,147.867,97.6588,93.4293,0.000939447,0.07139,20.9883,-3.01268,0.391444,0.0,0.0
266,66.25,73.2321,81.1464,147.886,97.648,93.2274,0.000778318,0.0689123,20.9905,-3.01268,0.409596,0.0,0.0
273,68,71.3553,80.0285,145.266,97.6381,93.5444,0.000679497,0.0668316,20.9934,-3.00268,0.37868,0.0,0.0
280,69.75,70.2289,78.0847,151.534,97.6369,93.4492,0.000615284,0.0652558,20.9951,-3.02269,0.387581,0.0,0.0
287,71.5,68.637,76.2347,154.511,97.6122,93.6823,0.000559579,0.0641265,20.9956,-3.02269,0.363317,0.0,0.0
294,73.25,67.8162,75.9025,149.375,97.6003,92.7073,0.000494199,0.0631667,20.9958,-3.02269,0.454732,0.0,0.0
301,75,66.6863,74.4975,148.411,97.5907,92.7332,0.000478602,0.0623014,20.9967,-3.00268,0.451393,0.0,0.0
308,76.75,65.8418,73.3061,150.317,97.5517,93.6348,0.000489654,0.061622,20.9975,-3.01268,0.362311,0.0,0.0
315,78.5,64.7312,72.2683,146.776,97.5361,93.0997,0.000528215,0.0611097,20.9985,-3.04271,0.411577,0.0,0.0
322,80.25,63.4108,71.0565,146.098,97.517,92.8467,0.000659975,0.0606894,20.9991,-3.05272,0.433901,0.0,0.0
329,82,62.8342,70.2871,149.388,97.5051,93.4601,0.000810483,0.0602962,21.0001,-3.0327,0.374601,0.0,0.0
336,83.75,61.8065,69.274,154.835,97.4669,93.1488,0.000909057,0.05989,21.0015,-3.05272,0.400637,0.0,0.0
343,85.5,61.1579,68.0295,148.15,97.4322,93.3588,0.000981428,0.0595641,21.0026,-3.0327,0.377584,0.0,0.0
350,87.25,60.1689,67.186,148.266,97.4039,92.8699,0.00102205,0.0592391,21.0031,-3.0327,0.421441,0.0,0.0
357,89,59.4216,66.7673,151.228,97.3888,93.4467,0.00101549,0.0591056,21.0034,-3.04271,0.365317,0.0,0.0
364,90.75,58.9375,65.5768,150.946,97.3741,93.8294,0.000958561,0.0590694,21.0035,-3.02269,0.327846,0.0,0.0
371,92.5,57.9381,64.1773,149.2,97.341,92.9793,0.000804115,0.0588432,21.0035,-3.04271,0.405313,0.0,0.0
378,94.25,57.3603,63.6096,154.168,97.3167,93.2809,0.000628121,0.0586218,21.0036,-3.04271,0.374474,0.0,0.0
385,96,56.5008,63.0897,147.924,97.2964,93.3949,0.000480813,0.0586305,21.0036,-3.05272,0.361837,0.0,0.0
392,97.75,56.7757,62.3126,147.758,97.2873,92.8099,0.000432152,0.0586311,21.0036,-3.07274,0.416557,0.0,0.0
399,99.5,55.962,61.8209,150.631,97.265,93.3709,0.000512925,0.0586921,21.0036,-3.05272,0.361243,0.0,0.0
406,101.25,55.0119,60.9068,149.139,97.2327,92.8451,0.000542441,0.0586947,21.0022,-3.06273,0.408239,0.0,0.0
413,103,54.9536,60.4094,148.543,97.2239,93.4674,0.000467075,0.0587636,21.0004,-3.06273,0.348383,0.0,0.0
420,104.75,53.6854,59.9379,150.421,97.218,92.49,0.000338276,0.0588421,20.9995,-3.06273,0.440782,0.0,0.0
427,106.5,53.2954,58.6817,151.241,97.2001,92.9586,0.00023952,0.0590194,20.9991,-3.05272,0.394467,0.0,0.0
434,108.25,52.861,58.6704,152.526,97.1766,93.0717,0.000320954,0.0591764,20.9979,-3.04271,0.381578,0.0,0.0
441,110,52.6284,58.268,151.154,97.1646,92.8046,0.000510407,0.0593404,20.9971,-3.06273,0.405907,0.0,0.0
448,111.75,52.4856,57.5887,148.606,97.1507,92.4418,0.000603583,0.0594579,20.9955,-3.06273,0.439273,0.0,0.0
455,113.5,51.7653,56.9365,150.189,97.1411,93.088,0.000530746,0.0594909,20.9947,-3.07274,0.376813,0.0,0.0
462,115.25,51.5062,56.4808,145.94,97.1192,93.0122,0.000486443,0.0596714,20.9938,-3.04271,0.382023,0.0,0.0
469,117,51.3645,55.6371,150.142,97.1045,93.4958,0.000512884,0.0598643,20.9927,-3.06273,0.334827,0.0,0.0
476,118.75,50.436,56.0158,148.699,97.1021,93.2651,0.00055652,0.0600768,20.9928,-3.05272,0.356451,0.0,0.0
483,120.5,50.5191,55.087,151.366,97.1101,93.3162,0.0005933,0.0601598,20.9934,-3.07274,0.352335,0.0,0.0
490,122.25,50.2797,54.6845,148.958,97.0973,93.285,0.000654474,0.0601355,20.9937,-3.08275,0.354132,0.0,0.0
497,124,49.8466,54.1391,147.484,97.0921,92.5853,0.000679743,0.0600991,20.9956,-3.10276,0.420229,0.0,0.0
504,125.75,48.7722,53.9991,150.288,97.0802,92.8828,0.000646928,0.0602715,20.9969,-3.06273,0.390771,0.0,0.0
511,127.5,48.7354,53.1633,149.828,97.0814,92.9696,0.000599258,0.060207,20.9976,-3.08275,0.382626,0.0,0.0
518,129.25,48.4744,52.7673,152.138,97.0882,92.6639,0.000578645,0.0601828,20.9979,-3.09276,0.412359,0.0,0.0
525,131,48.1185,52.6115,151.779,97.0746,93.3296,0.000648156,0.0601841,20.998,-3.10276,0.34784,0.0,0.0
532,132.75,47.7589,52.1069,148.622,97.0714,93.2635,0.000700763,0.0601775,20.9987,-3.09276,0.353812,0.0,0.0
539,134.5,48.1343,52.0416,154.09,97.0758,92.7944,0.000645093,0.0601191,20.9997,-3.09276,0.398788,0.0,0.0
546,136.25,47.1907,51.1269,145.178,97.0913,93.4196,0.00055544,0.060146,20.9995,-3.09276,0.340842,0.0,0.0
553,138,47.7015,51.1597,150.23,97.0917,93.4751,0.000451836,0.0601635,20.9988,-3.09276,0.335623,0.0,0.0
560,139.75,46.9449,51.3986,151.524,97.0826,93.0839,0.000399583,0.0599115,20.9985,-3.10276,0.371869,0.0,0.0
567,141.5,47.2213,51.1148,148.484,97.0965,93.2501,0.000432347,0.0598801,20.9983,-3.11277,0.357365,0.0,0.0
574,143.25,46.5055,50.3581,148.479,97.1045,93.0762,0.000512001,0.0598254,20.9982,-3.11277,0.374595,0.0,0.0
581,145,46.6728,50.4865,150.749,97.1144,93.0032,0.000528783,0.0596995,20.9982,-3.09276,0.382436,0.0,0.0
588,146.75,45.8519,49.8185,151.115,97.1212,92.8236,0.000397924,0.0596786,20.9977,-3.09276,0.400141,0.0,0.0
595,148.5,46.5223,50.0941,148.821,97.1212,93.0884,0.000247765,0.059693,20.9974,-3.10276,0.374963,0.0,0.0
602,150.25,46.3823,49.6043,149.404,97.1539,93.377,0.00022237,0.0597832,20.9976,-3.10276,0.350562,0.0,0.0
609,152,46.0032,49.4211,151.241,97.1618,93.4771,0.000310812,0.0597117,20.9977,-3.11277,0.341812,0.0,0.0
616,153.75,45.7617,49.3783,145.661,97.175,93.7958,0.000392739,0.0596955,20.9972,-3.11277,0.31292,0.0,0.0
623,155.5,46.1184,48.7201,152.115,97.1929,93.6154,0.000391756,0.0595993,20.9963,-3.11277,0.331571,0.0,0.0
630,157.25,45.5249,48.7102,149.66,97.2132,93.5278,,0.059705,,-3.11277,0.341692,0.0,0.0
637,159,45.5318,48.4702,150.182,97.2363,93.2363,,0.0598547,,-3.11277,0.371391,0.0,0.0
644,160.75,44.7595,48.377,147.039,97.2582,93.2343,,,,-3.10276,0.373572,0.0,0.0
651,162.5,44.878,48.1743,149.021,97.2745,93.7844,,,,-3.09276,0.323043,0.0,0.0
658,164.25,44.3769,48.1465,156.31,97.2948,93.4848,,,,-3.13279,0.353177,0.0,0.0
665,166,45.1233,47.8777,146.514,97.3358,93.0308,,,,-3.12278,0.399949,0.0,0.0
670,167.25,45.0676,47.5409,148.354,97.3394,94.2515,,,,-3.13279,0.285023,0.0,0.0