File: 01_Data/PE_Foam_Pipe_Insulation/Cone/PE_Foam_Pipe_Insulation_Cone_HF25Scan_220316_R3.csv
Names,Time,Stack TC,Smoke TC,Exh Press,Smoke Comp,Smoke Meas,CO Meter,CO2 Meter,O2 Meter,Sample Mass,Ext Coeff,Start Test,Flame Verif
Chan Gain,,500,500,1,1,1,1,1,1,1,1,1.0,1.0
Offset,,0,0,0.136382,0,0,0,0,0,0,0,0.0,0.0
Gain,,1,1,25.011,13.0548,13.4146,1,1,1,1.00087,1.01298,1.0,1.0
Units,sec,C,C,Pa,%,%,%,%,%,g,/m,,
Baseline,,19.7104,20.0484,157.777,98.4488,97.3684,0.000179045,0.0419453,21.0357,-832.983,0.098103,,
11,2.5,18.1165,18.8064,154.798,99.0937,97.4552,0.000412068,0.0471141,21.0299,-336.722,0.148147,0.0,0.0
22,5.25,18.8212,18.9139,156.337,99.1275,97.1769,0.000140435,0.0463494,21.0317,-336.722,0.176601,0.0,0.0
33,8,18.4628,19.0734,159.646,99.1327,97.4651,0.000146333,0.0461506,21.0322,-336.742,0.150752,0.0,0.0
44,10.75,18.5946,19.1368,155.307,99.1208,96.9427,0.000398912,0.0462617,21.0308,-336.782,0.197432,0.0,0.0
55,13.5,18.3979,18.7959,159.565,99.1128,96.8326,0.000603214,0.0457833,21.0288,-336.832,0.206817,0.0,0.0
66,16.25,18.9854,19.5959,153.917,99.1299,97.2645,0.000641924,0.0449254,21.0298,-339.044,0.168809,0.0,0.0
77,19,18.1318,19.2181,159.249,99.1192,97.3721,0.000669748,0.0443081,21.0317,-339.485,0.158013,0.0,0.0
88,21.75,18.837,19.6008,158.053,99.1188,96.7638,0.000802145,0.0438772,21.0323,-339.585,0.213667,0.0,0.0
99,24.5,18.107,19.5181,153.945,99.1092,96.8788,0.000812986,0.043742,21.0309,-338.704,0.202252,0.0,0.0
110,27.25,19.0387,19.4274,157.471,99.0841,96.8387,0.000789505,0.044043,21.0289,-337.863,0.203682,0.0,0.0
121,30,18.8412,19.4516,158.364,99.0933,97.2166,0.000930519,0.0441983,21.0284,-337.363,0.169898,0.0,0.0
132,32.75,18.7436,19.3966,156.224,99.0901,96.9022,0.000842034,0.0441265,21.029,-337.023,0.198398,0.0,0.0
143,35.5,19.032,19.401,158.271,99.077,97.1376,0.000748846,0.0444052,21.0293,-336.882,0.175659,0.0,0.0
154,38.25,18.8922,19.4556,157.942,99.0666,96.9009,0.00075655,0.0448607,21.0279,-336.842,0.196402,0.0,0.0
165,41,18.9349,19.5818,158.661,99.0499,97.1343,0.000703159,0.0497925,21.0177,-336.872,0.173529,0.0,1.0
176,43.75,19.2746,19.0863,154.948,99.0578,96.1792,0.000730645,0.064735,20.9884,-336.892,0.262046,0.0,1.0
187,46.5,19.5683,19.9583,150.086,99.0554,95.8845,0.000882391,0.0864347,20.9526,-336.923,0.289106,0.0,0.0
198,49.25,19.8212,20.0002,156.017,99.0367,95.8693,0.000984931,0.101978,20.9371,-336.973,0.288829,0.0,0.0
209,52,20.3381,20.3214,154.708,99.0216,95.7944,0.00105812,0.108817,20.9313,-336.973,0.294417,0.0,0.0
220,54.75,20.4096,20.5264,147.485,99.0164,95.3715,0.00116362,0.111881,20.9254,-337.043,0.333266,0.0,0.0
231,57.5,21.2115,21.7873,149.703,99.02,93.8281,0.00127832,0.12242,20.9018,-337.133,0.47856,0.0,0.0
242,60.25,21.8467,22.042,147.483,99.0056,87.9658,0.00218922,0.160788,20.818,-337.263,1.05055,0.0,0.0
253,63,23.5443,23.3749,143.117,98.9897,83.1314,0.00408152,0.225952,20.6949,-337.423,1.55139,0.0,0.0
264,65.75,24.445,24.8921,135.731,98.9849,79.0581,0.0060475,0.306534,20.5419,-337.643,1.99738,0.0,0.0
275,68.5,27.1806,27.7712,136.621,98.9781,82.914,0.00721819,0.362018,20.4683,-337.823,1.57362,0.0,0.0
286,71.25,28.8661,29.364,135.295,98.9778,80.7177,0.00803968,0.393954,20.4235,-337.963,1.81214,0.0,0.0
297,74,31.0315,31.6875,140.046,98.9722,78.4485,0.00918471,0.419828,20.3744,-338.184,2.06502,0.0,0.0
308,76.75,33.5909,33.8381,130.925,98.9702,77.2916,0.0100475,0.458489,20.307,-338.384,2.19686,0.0,0.0
319,79.5,35.2359,35.901,139.73,98.9602,77.4639,0.0108128,0.494185,20.2451,-338.644,2.17617,0.0,0.0
330,82.25,38.0939,38.8678,130.514,98.9702,77.3808,0.0112847,0.523743,20.1976,-338.894,2.1866,0.0,0.0
341,85,40.1895,41.1301,128.832,98.9586,76.7733,0.0114208,0.544827,20.1677,-339.084,2.2556,0.0,0.0
352,87.75,41.5287,43.4794,133.551,98.9574,76.5924,0.0115565,0.553065,20.1592,-339.305,2.27646,0.0,0.0
363,90.5,43.8241,46.3517,131.567,98.9622,80.2817,0.0112965,0.552244,20.1631,-339.525,1.85887,0.0,0.0
374,93.25,46.0076,47.6991,129.622,98.9558,79.858,0.0109163,0.546202,20.1807,-339.775,1.90532,0.0,0.0
385,96,47.1822,49.792,130.457,98.9586,81.1082,0.0108784,0.537222,20.1954,-339.915,1.76753,0.0,0.0
396,98.75,48.5359,50.839,129.866,98.9634,78.9664,0.0110722,0.534061,20.1975,-340.205,2.00577,0.0,0.0
407,101.5,50.0394,52.5101,130.674,98.9594,76.5752,0.0112062,0.540757,20.1839,-340.416,2.27864,0.0,0.0
418,104.25,51.3436,53.8671,132.46,98.9594,75.3855,0.0111472,0.548109,20.1733,-340.646,2.41777,0.0,0.0
429,107,52.489,55.9818,135.365,98.9666,79.2947,0.0106708,0.556,20.1721,-340.876,1.96918,0.0,0.0
440,109.75,53.8233,57.3812,134.488,98.9658,79.5731,0.00998618,0.539548,20.2057,-341.046,1.93797,0.0,0.0
451,112.5,54.9952,58.2526,133.129,98.9666,73.8552,0.00934245,0.511217,20.2515,-341.296,2.60064,0.0,0.0
462,115.25,54.8177,58.933,142.587,98.969,79.0761,0.00764419,0.46502,20.3868,-341.366,1.99393,0.0,0.0
473,118,54.1516,58.3871,143.862,98.9566,87.6964,0.00562962,0.361553,20.5444,-341.426,1.07341,0.0,0.0
484,120.75,53.3191,57.4377,150.617,98.9582,94.8438,0.0037426,0.260545,20.7137,-341.376,0.377347,0.0,0.0
495,123.5,51.1059,55.1225,154.546,98.9678,96.0826,0.00225969,0.174218,20.8658,-341.406,0.262896,0.0,0.0
506,126.25,49.9135,53.9451,155.356,98.9614,97.402,0.00141172,0.112491,20.9483,-341.386,0.141132,0.0,0.0
517,129,47.0889,50.83,154.324,98.9487,97.5867,0.000797088,0.0783174,20.9943,-341.366,0.12316,0.0,0.0
528,131.75,45.1982,49.6505,155.363,98.9423,97.2477,0.000455429,0.0611139,21.0145,-341.356,0.153505,0.0,0.0
539,134.5,44.281,47.9731,155.331,98.9439,96.695,0.000368663,0.0530973,21.0231,-341.366,0.204292,0.0,0.0
550,137.25,43.0056,46.7678,156.96,98.9319,97.3066,0.000347726,0.0488519,21.0281,-341.356,0.147192,0.0,0.0
561,140,41.1738,45.3357,153.689,98.9287,97.1883,0.000463703,0.0466302,21.0309,-341.376,0.157716,0.0,0.0
572,142.75,40.2233,44.3174,153.894,98.918,97.1584,0.000597655,0.0450197,21.0317,-341.396,0.159482,0.0,0.0
583,145.5,38.5984,42.655,153.908,98.9287,97.8585,0.00049679,0.0441339,21.0324,-341.406,0.0966546,0.0,0.0
594,148.25,37.7071,41.7875,159.771,98.9287,97.1953,0.000254287,0.0435302,21.0332,-341.406,0.157079,0.0,0.0
605,151,36.5054,40.0902,160.586,98.9295,97.6051,0.00016969,0.0430835,21.0335,-341.396,0.119765,0.0,0.0
616,153.75,35.9166,39.4399,161.181,98.9351,97.3087,4.24658e-05,0.042723,21.0337,-341.376,0.14729,0.0,0.0
627,156.5,34.878,38.1577,158.104,98.9331,97.2935,-0.000136284,0.0424575,21.0342,-341.386,0.148495,0.0,0.0
638,159.25,33.7244,37.5449,152.895,98.9519,97.0528,-6.48036e-05,0.0422594,21.0344,-341.376,0.172187,0.0,0.0
649,162,33.1307,36.3777,155.499,98.9582,97.3721,3.52933e-05,0.0420754,21.0358,-341.376,0.143573,0.0,0.0
660,164.75,32.2291,35.7882,154.653,98.9491,97.0213,-2.16523e-05,0.0419018,21.0361,-341.416,0.174824,0.0,0.0
671,167.5,31.3028,34.6134,157.697,98.9602,97.208,-5.94726e-05,0.0418709,21.0345,-341.386,0.158745,0.0,0.0
682,170.25,30.8891,34.0575,156.613,98.9654,96.5292,0.000118004,0.0416896,21.0344,-341.376,0.221473,0.0,0.0
693,173,30.2486,33.2526,151.346,98.9742,97.3742,0.000241089,0.0415919,21.0353,-341.416,0.144817,0.0,0.0
704,175.75,30.0817,33.0102,158.661,98.9774,97.6689,7.05526e-05,0.0416259,21.0355,-341.416,0.118247,0.0,0.0
715,178.5,29.1763,32.2615,154.072,98.9718,97.1261,-3.04013e-05,0.0416018,21.0351,-341.416,0.16727,0.0,0.0
726,181.25,28.8366,31.8227,156.733,98.9825,97.4278,2.46221e-05,0.0414914,21.035,-341.396,0.140676,0.0,0.0
737,184,28.388,30.8498,159.483,98.9678,97.3304,-4.44698e-05,0.0414628,21.0349,-341.376,0.148242,0.0,0.0
748,186.75,27.9227,30.9941,153.299,98.971,96.9394,-4.09458e-05,0.0414411,21.0351,-341.396,0.184293,0.0,0.0
759,189.5,26.8453,30.0006,156.152,98.973,97.3288,9.62322e-05,0.0413702,21.0363,-341.386,0.148858,0.0,0.0
770,192.25,26.7792,29.5847,150.604,98.9578,96.9411,5.29494e-05,0.0413283,21.0375,-341.386,0.182963,0.0,0.0
781,195,26.2975,29.1309,151.127,98.9279,97.7934,7.84519e-05,0.041301,21.0379,-341.386,0.102495,0.0,0.0
792,197.75,26.0298,28.2616,155.088,98.922,97.5781,0.00023613,0.0413028,21.038,-341.386,0.121546,0.0,0.0
803,200.5,26.185,28.0485,155.633,98.9052,97.6108,0.000305041,0.041303,21.0381,-341.416,0.11706,0.0,0.0
814,203.25,25.8392,27.807,160.642,98.8957,96.8207,0.000432433,0.041312,21.0381,-341.386,0.18842,0.0,0.0
825,206,25.4184,27.3872,153.909,98.8722,97.1818,0.000513801,0.0411784,21.0381,-341.376,0.153231,0.0,0.0
836,208.75,25.5055,26.7465,155.267,98.8515,97.3672,0.000349024,0.041186,21.0381,-341.366,0.134428,0.0,0.0
847,211.5,25.3405,26.7642,154.823,98.8363,97.2899,0.000249005,0.0412296,21.0379,-341.366,0.140132,0.0,0.0
858,214.25,24.4924,26.6257,156.633,98.8056,97.4245,0.000263325,0.0411375,21.0376,-341.386,0.12508,0.0,0.0
869,217,24.5374,26.5079,155.72,98.7746,97.5781,0.00023675,0.0411468,21.0375,-341.376,0.108294,0.0,0.0
880,219.75,24.457,25.8019,158.267,98.7391,97.4045,0.000128647,0.0412701,21.0374,-341.366,0.120924,0.0,0.0
891,222.5,23.5214,25.2425,156.299,98.712,97.0778,7.68598e-05,0.0412089,21.0374,-341.366,0.148339,0.0,0.0
902,225.25,24.524,25.9034,160.816,98.6985,97.0012,-2.2717e-06,0.0411004,21.0361,-341.376,0.154129,0.0,0.0
913,228,23.5826,24.8147,160.283,98.6825,97.8339,0.0001054,0.0411429,21.0354,-341.416,0.0767429,0.0,0.0
924,230.75,23.8665,25.2289,156.469,98.6566,96.8461,0.000150119,0.0411276,21.0356,-341.416,0.164586,0.0,0.0
935,233.5,23.1802,24.7424,157.986,98.6415,97.5097,8.52328e-05,0.0412462,21.0366,-341.366,0.102543,0.0,0.0
946,236.25,23.1663,24.3753,154.283,98.6052,96.9001,,0.0414732,,-341.356,0.154999,0.0,0.0
957,239,23.217,24.2749,152.911,98.5909,97.5727,,,,-341.386,0.0922423,0.0,0.0
968,241.75,23.1723,24.0354,155.327,98.5399,97.0012,,,,-341.366,0.139843,0.0,0.0
979,244.5,23.0705,24.3868,155,98.528,96.7036,,,,-341.386,0.166069,0.0,0.0
984,245.75,22.6288,23.9712,156.591,98.5323,96.7757,,,,-341.396,0.159848,0.0,0.0