File: 01_Data/PE_Foam_Pipe_Insulation/Cone/PE_Foam_Pipe_Insulation_Cone_HF50Scan_220316_R1.csv
Names,Time,Stack TC,Smoke TC,Exh Press,Smoke Comp,Smoke Meas,CO Meter,CO2 Meter,O2 Meter,Sample Mass,Ext Coeff,Start Test,Flame Verif
Chan Gain,,500,500,1,1,1,1,1,1,1,1,1.0,1.0
Offset,,0,0,0.136382,0,0,0,0,0,0,0,0.0,0.0
Gain,,1,1,25.011,13.0548,13.4146,1,1,1,1.00087,1.01298,1.0,1.0
Units,sec,C,C,Pa,%,%,%,%,%,g,/m,,
Baseline,,29.5535,30.7778,152.143,98.5761,95.9904,0.000405417,0.0425421,21.0298,-833.252,0.236263,,
8,1.75,28.3308,29.6495,149.616,98.5929,93.9898,0.000787186,0.0527945,21.0153,-338.784,0.424851,0.0,0.0
16,3.75,28.3237,29.4946,146.86,98.5881,94.6592,0.00126787,0.0612972,20.9908,-338.884,0.361365,0.0,1.0
24,5.75,28.8166,29.4998,142.997,98.6044,94.8958,0.00154821,0.0914481,20.9424,-338.994,0.340652,0.0,1.0
32,7.75,29.4851,30.4218,144.267,98.5845,94.7963,0.00172367,0.114257,20.9167,-338.914,0.348177,0.0,1.0
40,9.75,29.38,30.6678,144.977,98.5837,93.7282,0.00195394,0.122779,20.9056,-338.994,0.44879,0.0,0.0
48,11.75,29.9377,30.7219,145.696,98.5829,90.7025,0.00241177,0.128678,20.8902,-339.014,0.7403,0.0,0.0
56,13.75,30.1196,31.5763,143.892,98.573,85.5251,0.00306289,0.141954,20.8525,-339.134,1.26167,0.0,0.0
64,15.75,30.9124,32.2599,140.694,98.5825,80.0725,0.00405967,0.175182,20.7879,-339.255,1.84789,0.0,0.0
72,17.75,32.187,33.1493,139.733,98.5762,77.5892,0.00560695,0.232803,20.6683,-339.425,2.12726,0.0,0.0
80,19.75,34.182,34.5487,129.962,98.5857,74.2699,0.00785955,0.294117,20.5087,-339.635,2.51662,0.0,0.0
88,21.75,35.5708,36.433,130.677,98.5897,71.1697,0.0104328,0.384773,20.3623,-339.845,2.89586,0.0,0.0
96,23.75,38.3622,39.2388,124.338,98.5786,75.4531,0.012673,0.471175,20.2373,-340.045,2.37554,0.0,0.0
104,25.75,40.4506,41.876,117.173,98.5678,71.8935,0.0145112,0.555099,20.0733,-340.235,2.80398,0.0,0.0
112,27.75,43.6102,45.048,121.57,98.569,74.2401,0.0156463,0.643953,19.9217,-340.476,2.51869,0.0,0.0
120,29.75,46.4913,47.9527,111.889,98.5734,70.1094,0.016487,0.714052,19.8203,-340.706,3.02777,0.0,0.0
128,31.75,49.596,51.6923,110.774,98.575,70.8463,0.017419,0.767359,19.7303,-341.006,2.93501,0.0,0.0
136,33.75,52.7975,55.1169,118.622,98.5746,70.4377,0.0185463,0.821611,19.6311,-341.256,2.98636,0.0,0.0
144,35.75,56.4185,58.4761,111.62,98.5821,69.2861,0.0196557,0.87891,19.5455,-341.547,3.13352,0.0,0.0
152,37.75,59.2893,62.5788,116.183,98.5821,68.3544,0.0203239,0.926831,19.4785,-341.717,3.25382,0.0,0.0
160,39.75,62.3379,65.4687,114.31,98.5933,70.5994,0.020489,0.955771,19.4496,-342.037,2.96767,0.0,0.0
168,41.75,65.1588,69.1206,113.319,98.5925,69.8323,0.0207185,0.962354,19.4511,-342.277,3.06469,0.0,0.0
176,43.75,67.7848,72.3567,109.586,98.5973,68.6274,0.0212145,0.954591,19.4653,-342.517,3.21976,0.0,0.0
184,45.75,70.0144,74.5737,113.885,98.5965,70.1888,0.0215921,0.94291,19.478,-342.798,3.01979,0.0,0.0
192,47.75,72.0285,76.8368,110.786,98.6068,66.8536,0.0217282,0.928972,19.503,-342.998,3.45332,0.0,0.0
200,49.75,74.0155,79.2436,119.968,98.6072,67.6834,0.0216991,0.918746,19.5151,-343.288,3.34374,0.0,0.0
208,51.75,75.4935,80.9658,114.425,98.6072,67.1594,0.0216993,0.919788,19.5118,-343.548,3.4128,0.0,0.0
216,53.75,77.2315,83.0864,114.938,98.6112,68.5697,0.0215759,0.925838,19.5104,-343.778,3.2285,0.0,0.0
224,55.75,78.951,85.5097,123.811,98.6168,67.4026,0.0207912,0.915941,19.5408,-343.999,3.38155,0.0,0.0
232,57.75,80.559,86.5969,119.833,98.6212,68.9529,0.0185233,0.872004,19.6534,-344.169,3.17988,0.0,0.0
240,59.75,80.783,87.6045,135.162,98.6272,81.8934,0.0150564,0.744275,19.943,-344.269,1.65211,0.0,0.0
248,61.75,80.7369,87.6434,145.069,98.6363,94.644,0.0112786,0.56419,20.3355,-344.249,0.367131,0.0,0.0
256,63.75,77.9358,85.3822,151.113,98.6415,94.565,0.00787957,0.382268,20.6052,-344.199,0.375019,0.0,0.0
264,65.75,75.3351,82.78,152.225,98.6335,95.2757,0.00525558,0.253796,20.7821,-344.199,0.307771,0.0,0.0
272,67.75,73.4514,80.4516,148.324,98.6443,94.8495,0.00333221,0.169069,20.8962,-344.179,0.348575,0.0,0.0
280,69.75,71.2587,79.1118,149.885,98.6543,94.9695,0.00215807,0.119293,20.9552,-344.169,0.338243,0.0,0.0
288,71.75,69.7101,76.3442,147.623,98.6519,94.7447,0.00144602,0.0922586,20.9802,-344.189,0.35908,0.0,0.0
296,73.75,67.8899,74.5539,148.254,98.6495,94.8258,0.00115019,0.0747879,20.9984,-344.199,0.351266,0.0,0.0
304,75.75,65.9428,73.3529,154.319,98.6554,95.055,0.00106128,0.064339,21.0094,-344.209,0.330348,0.0,0.0
312,77.75,64.6464,71.021,150.812,98.6519,95.1398,0.000867652,0.0580327,21.0164,-344.209,0.322107,0.0,0.0
320,79.75,62.6572,68.8838,151.045,98.6566,95.3518,0.000570981,0.0539931,21.0207,-344.219,0.302754,0.0,0.0
328,81.75,61.2756,68.4892,148.037,98.6327,95.3887,0.000376925,0.0509534,21.0241,-344.229,0.297167,0.0,0.0
336,83.75,59.4592,66.2142,152.002,98.6383,95.6343,0.00034133,0.0487563,21.0263,-344.229,0.274818,0.0,0.0
344,85.75,58.8358,65.4219,148.257,98.6295,95.7743,0.000393782,0.0470852,21.0277,-344.219,0.26103,0.0,0.0
352,87.75,57.5847,63.5793,148.846,98.6172,95.0346,0.000392575,0.0459254,21.0288,-344.219,0.328816,0.0,0.0
360,89.75,56.5986,62.7051,151.262,98.6192,95.148,0.000357022,0.0450549,21.0293,-344.209,0.318399,0.0,0.0
368,91.75,54.5458,61.0874,150.918,98.6064,95.3404,0.000392618,0.0443093,21.0301,-344.209,0.299299,0.0,0.0
376,93.75,53.9353,60.2982,151.896,98.5985,94.8852,0.000444925,0.0437941,21.0315,-344.219,0.341111,0.0,0.0
384,95.75,53.0563,59.135,146.075,98.5793,95.27,0.000427033,0.0433874,21.0321,-344.229,0.303422,0.0,0.0
392,97.75,51.8435,58.3861,150.515,98.5658,95.6208,0.000432509,0.0430168,21.0324,-344.229,0.26954,0.0,0.0
400,99.75,51.0524,57.0619,156.981,98.5507,96.1166,0.000402182,0.0427446,21.0325,-344.229,0.222225,0.0,0.0
408,101.75,50.7232,56.173,148.512,98.5423,94.6932,0.000236636,0.0424639,21.0334,-344.199,0.354045,0.0,0.0
416,103.75,49.5607,55.4781,151.252,98.5264,95.1754,3.95402e-05,0.0422795,21.0343,-344.209,0.30747,0.0,0.0
424,105.75,48.2389,54.5001,147.747,98.5176,95.3588,-0.000103866,0.0420663,21.0346,-344.209,0.289573,0.0,0.0
432,107.75,48.1329,53.6868,148.788,98.5041,94.9314,-0.000182101,0.0419517,21.0348,-344.209,0.328267,0.0,0.0
440,109.75,47.7245,53.0695,147.96,98.5056,95.8828,-0.000160012,0.0419075,21.0349,-344.219,0.239801,0.0,0.0
448,111.75,46.928,52.4941,147.579,98.4841,95.4869,-6.41889e-05,0.0418818,21.0349,-344.229,0.274622,0.0,0.0
456,113.75,46.4292,51.3861,147.691,98.4674,95.3142,5.89874e-05,0.0418336,21.0349,-344.199,0.289204,0.0,0.0
464,115.75,45.6956,50.7595,149.533,98.4547,96.1362,0.000148522,0.0416878,21.0345,-344.209,0.211746,0.0,0.0
472,117.75,45.2423,49.8975,150.886,98.418,95.1181,0.000220908,0.0416282,21.0345,-344.199,0.303045,0.0,0.0
480,119.75,43.958,48.9698,149.658,98.4136,95.0071,0.000200261,0.041667,21.0345,-344.209,0.313018,0.0,0.0
488,121.75,43.6714,48.7259,151.884,98.4088,94.5413,0.000164864,0.0416257,21.0345,-344.209,0.356266,0.0,0.0
496,123.75,43.8575,47.8242,150.559,98.3929,94.3636,0.00022622,0.0415085,21.0345,-344.199,0.371542,0.0,0.0
504,125.75,43.0522,47.4432,149.645,98.3746,95.4849,0.000312763,0.0414296,21.0345,-344.219,0.264922,0.0,0.0
512,127.75,42.843,46.9946,150.074,98.3634,95.2937,0.000409926,0.0414302,21.0345,-344.219,0.281724,0.0,0.0
520,129.75,42.136,46.2587,154.314,98.3427,94.3738,0.000460169,0.0414452,21.0334,-344.229,0.366044,0.0,0.0
528,131.75,41.6767,45.8409,149.706,98.3248,95.4259,0.000429442,0.0414659,21.0327,-344.229,0.265909,0.0,0.0
536,133.75,40.9923,45.3292,154.368,98.306,95.5926,0.000403193,0.0415248,21.0324,-344.239,0.248716,0.0,0.0
544,135.75,40.4075,44.9926,150.258,98.2945,94.8307,0.000387619,0.0415227,21.0329,-344.219,0.318775,0.0,0.0
552,137.75,40.6675,44.3902,150.422,98.2825,94.9306,0.000280499,0.0414022,21.0334,-344.229,0.308339,0.0,0.0
560,139.75,40.4247,44.5874,152.741,98.2726,95.629,0.000148201,0.0414252,21.0332,-344.239,0.242305,0.0,0.0
568,141.75,39.5001,43.3871,156.051,98.2515,95.3461,7.93786e-05,0.0414834,21.0331,-344.249,0.266719,0.0,0.0
576,143.75,39.4463,43.0124,146.964,98.2535,94.6551,2.15377e-05,0.0415379,21.033,-344.229,0.331535,0.0,0.0
584,145.75,38.9415,42.3091,151.207,98.2439,94.7713,-1.70086e-05,0.0414967,21.033,-344.209,0.319763,0.0,0.0
592,147.75,39.1481,42.5134,151.442,98.3017,95.0112,-2.23485e-05,0.0414067,21.033,-344.249,0.302521,0.0,0.0
600,149.75,38.5267,41.6727,151.439,98.3849,95.069,-3.60428e-05,0.0414787,21.033,-344.249,0.304649,0.0,0.0
608,151.75,38.4746,42.1572,147.565,98.4614,95.6253,2.44072e-05,0.0414797,21.033,-344.249,0.259706,0.0,0.0
616,153.75,38.92,41.4756,147.684,98.5391,95.0006,0.000162951,0.0414036,21.0339,-344.199,0.324954,0.0,0.0
624,155.75,37.9789,41.4529,149.472,98.624,96.1751,0.000304192,0.0412624,21.0334,-344.239,0.22342,0.0,0.0
632,157.75,38.1401,41.0575,151.606,98.6925,95.2589,0.000312881,0.0412681,21.0331,-344.239,0.314647,0.0,0.0
640,159.75,37.1053,40.3543,154.362,98.7523,95.2581,0.000356888,0.0412683,21.033,-344.239,0.320102,0.0,0.0
648,161.75,37.5033,40.8182,147.777,98.8156,96.0183,0.000439496,0.0413344,21.0332,-344.229,0.255167,0.0,0.0
656,163.75,36.7131,39.8978,151.482,98.867,95.7567,0.000351503,0.0412561,21.0335,-344.209,0.28403,0.0,0.0
664,165.75,37.3057,39.78,151.083,98.9112,95.9798,0.000247928,0.0412302,21.0348,-344.209,0.267324,0.0,0.0
672,167.75,36.5661,39.9866,149.534,98.9459,95.9778,0.000209943,0.0411957,21.0354,-344.249,0.270626,0.0,0.0
680,169.75,37.3285,40.0562,148.414,98.9817,95.4788,0.00020812,0.0412368,21.0348,-344.219,0.320168,0.0,0.0
688,171.75,36.6124,39.0718,148.798,99.0024,95.1312,,0.0412473,,-344.219,0.354432,0.0,0.0
696,173.75,36.0656,39.236,154.973,99.0359,96.1653,,0.0412509,,-344.229,0.261366,0.0,0.0
704,175.75,35.8486,38.872,149.147,99.0447,96.0928,,,,-344.229,0.268851,0.0,0.0
712,177.75,36.59,38.737,150.645,99.057,94.863,,,,-344.229,0.384411,0.0,0.0
720,179.75,35.8432,38.6611,152.84,99.0638,95.9242,,,,-344.209,0.286177,0.0,0.0
728,181.75,35.4327,37.8878,151.24,99.0785,95.934,,,,-344.249,0.286588,0.0,0.0