File: 01_Data/PE_Foam_Pipe_Insulation/Cone/PE_Foam_Pipe_Insulation_Cone_HF75Scan_220316_R2.csv
Names,Time,Stack TC,Smoke TC,Exh Press,Smoke Comp,Smoke Meas,CO Meter,CO2 Meter,O2 Meter,Sample Mass,Ext Coeff,Start Test,Flame Verif
Chan Gain,,500,500,1,1,1,1,1,1,1,1,1.0,1.0
Offset,,0,0,0.135167,0,0,0,0,0,0,0,0.0,0.0
Gain,,1,1,25.011,13.0486,13.2841,1,1,1,1.00089,1.0079,1.0,1.0
Units,sec,C,C,Pa,%,%,%,%,%,g,/m,,
Baseline,,40.7229,42.0087,150.434,99.0272,95.6898,0.000328657,0.0601087,20.9941,-492.294,0.303185,,
7,1.5,39.2462,40.437,147.771,98.5273,93.6004,0.0013555,0.0738291,20.9614,5.13458,0.453548,0.0,0.0
14,3.25,38.7582,39.9566,139.823,98.497,92.2662,0.00184381,0.0996773,20.8996,5.01447,0.577761,0.0,1.0
21,5,39.8022,40.736,145.299,98.4636,91.4785,0.00249074,0.137021,20.8464,5.06451,0.650562,0.0,1.0
28,6.75,39.4423,40.941,139.67,98.4441,83.7459,0.00353113,0.165705,20.8063,5.0445,1.42964,0.0,1.0
35,8.5,40.9199,41.8569,139.656,98.4194,78.419,0.00530318,0.199642,20.7588,4.89436,2.00849,0.0,0.0
42,10.25,41.5916,42.6392,127.191,98.3919,67.6848,0.00801999,0.255156,20.6609,4.67417,3.30749,0.0,0.0
49,12,43.6595,44.5797,127.864,98.3497,70.2591,0.0118067,0.361229,20.4117,4.484,2.97367,0.0,0.0
56,13.75,45.0617,47.1749,115.928,98.3254,63.7832,0.0158554,0.499618,20.1121,4.20375,3.82643,0.0,0.0
63,15.5,49.046,49.9522,109.171,98.2907,63.5408,0.0197188,0.665957,19.8259,3.99356,3.85698,0.0,0.0
70,17.25,52.2657,54.0049,103.295,98.2593,64.9982,0.0229314,0.842883,19.5527,3.66326,3.65366,0.0,0.0
77,19,57.8896,58.9547,99.9576,98.2243,61.2414,0.0250037,1.00139,19.2926,3.363,4.17688,0.0,0.0
84,20.75,62.081,63.8509,103.449,98.184,64.1387,0.0261842,1.10914,19.1309,3.18284,3.76457,0.0,0.0
91,22.5,65.9856,68.9905,104.101,98.1486,62.9935,0.0265867,1.17118,19.0515,2.87256,3.92067,0.0,0.0
98,24.25,69.703,73.5599,109.727,98.1255,63.313,0.0262562,1.19772,19.0265,2.64235,3.87386,0.0,0.0
105,26,73.2434,77.5796,103.699,98.0889,65.6241,0.0254996,1.20043,19.0316,2.41215,3.55357,0.0,0.0
112,27.75,76.3867,81.1098,115.058,98.0407,67.8587,0.0244736,1.18532,19.0586,2.18194,3.25319,0.0,0.0
119,29.5,79.3929,84.6906,108.2,98.0116,68.376,0.0233742,1.15296,19.1202,1.90169,3.18342,0.0,0.0
126,31.25,81.606,87.6086,113.224,97.9829,64.6808,0.0223697,1.11056,19.1924,1.71153,3.67204,0.0,0.0
133,33,83.5724,89.8251,114.211,97.9395,68.3411,0.0210896,1.05944,19.2838,1.50134,3.18143,0.0,0.0
140,34.75,85.9029,91.5655,111.305,97.889,71.8839,0.0198542,1.01974,19.3642,1.30116,2.73002,0.0,0.0
147,36.5,86.9683,93.3661,116.231,97.8583,69.6794,0.0186387,0.972956,19.4479,1.11099,3.00264,0.0,0.0
154,38.25,88.6781,95.2332,119.908,97.8304,70.0029,0.0175553,0.925629,19.5308,0.940838,2.95917,0.0,0.0
161,40,89.8242,96.3631,114.123,97.8117,73.962,0.0163896,0.876633,19.6282,0.780696,2.47107,0.0,0.0
168,41.75,90.3256,97.6268,118.62,97.7631,71.7862,0.0153084,0.82421,19.7264,0.600535,2.73067,0.0,0.0
175,43.5,90.875,98.5542,123.129,97.7209,75.5816,0.0134828,0.756461,19.8445,0.490437,2.27135,0.0,0.0
182,45.25,91.0983,98.1255,130.647,97.691,79.6879,0.0112611,0.670718,20.0112,0.420375,1.8009,0.0,0.0
189,47,90.0385,98.0809,146.095,97.6624,93.1034,0.00899772,0.528824,20.2953,0.420375,0.422665,0.0,0.0
196,48.75,88.6907,96.3996,145.495,97.6198,93.3012,0.00715602,0.387105,20.5324,0.420375,0.40004,0.0,0.0
203,50.5,86.4738,94.5874,145.974,97.5779,93.7917,0.00553362,0.277014,20.6987,0.410366,0.349891,0.0,0.0
210,52.25,84.538,92.0797,144.612,97.5652,93.5412,0.00436093,0.205039,20.8115,0.410366,0.372385,0.0,0.0
217,54,82.8411,90.5022,147.623,97.5345,92.8463,0.00342278,0.156023,20.8815,0.420375,0.435527,0.0,0.0
224,55.75,80.802,88.4488,144.395,97.5055,93.8923,0.00270648,0.124926,20.92,0.440392,0.33385,0.0,0.0
231,57.5,78.4758,86.5189,153.901,97.4899,94.0698,0.00205777,0.105559,20.9429,0.410366,0.315737,0.0,0.0
238,59.25,77.9694,85.2278,150.918,97.437,93.992,0.00157632,0.0927178,20.9581,0.410366,0.318251,0.0,0.0
245,61,76.1915,83.7826,147.174,97.4171,93.4042,0.00125428,0.0841288,20.9697,0.400357,0.371912,0.0,0.0
252,62.75,74.2809,82.2018,146.343,97.4075,93.5193,0.0010419,0.078118,20.9763,0.360321,0.360153,0.0,0.0
259,64.5,73.1623,80.6172,149.62,97.3761,93.9677,0.000861965,0.073755,20.981,0.380339,0.31501,0.0,0.0
266,66.25,72.2227,79.1461,149.6,97.3573,94.4485,0.000752577,0.070857,20.9851,0.37033,0.268187,0.0,0.0
273,68,71.4365,77.4444,148.049,97.3319,94.2109,0.000653068,0.0686302,20.9873,0.380339,0.288139,0.0,0.0
280,69.75,70.3634,76.8611,147.839,97.3239,93.508,0.000562836,0.0669807,20.9893,0.350312,0.353633,0.0,0.0
287,71.5,69.0958,75.6172,147.012,97.3048,93.2603,0.000526874,0.0657241,20.9906,0.380339,0.375347,0.0,0.0
294,73.25,67.5874,74.1577,146.134,97.2689,93.8071,0.000548359,0.0646169,20.9911,0.390348,0.320396,0.0,0.0
301,75,66.6588,73.0712,148.36,97.2443,93.5489,0.000542722,0.0639057,20.9914,0.380339,0.342524,0.0,0.0
308,76.75,65.5452,72.0831,146.711,97.2279,93.8829,0.000541833,0.0633747,20.9915,0.380339,0.309526,0.0,0.0
315,78.5,64.3743,71.299,151.088,97.212,93.0344,0.000599833,0.0629171,20.9918,0.360321,0.388347,0.0,0.0
322,80.25,63.5122,70.2795,145.698,97.1825,93.1634,0.00068973,0.0624139,20.993,0.350312,0.373423,0.0,0.0
329,82,62.6099,69.346,149.979,97.1825,93.3596,0.000730413,0.0620914,20.9935,0.360321,0.354822,0.0,0.0
336,83.75,62.1118,68.4395,147.177,97.1614,93.6097,0.000734443,0.0618116,20.9938,0.360321,0.329245,0.0,0.0
343,85.5,61.2296,67.5101,151.135,97.1515,93.1621,0.000714649,0.0615621,20.9939,0.360321,0.370713,0.0,0.0
350,87.25,60.8048,66.4756,146.204,97.1347,93.0851,0.000609039,0.0613408,20.9942,0.360321,0.376503,0.0,0.0
357,89,59.5253,65.8529,149.322,97.1252,92.5918,0.000488176,0.0611517,20.9953,0.350312,0.422618,0.0,0.0
364,90.75,59.6777,65.4868,149.275,97.1085,92.8038,0.00044123,0.0610252,20.9958,0.390348,0.400872,0.0,0.0
371,92.5,58.3204,64.1883,150.028,97.1053,92.9696,0.000405877,0.0607878,20.9961,0.380339,0.384801,0.0,0.0
378,94.25,58.1101,63.4715,147.881,97.1037,92.9149,0.000356005,0.0607501,20.9962,0.37033,0.389863,0.0,0.0
385,96,57.3844,63.1598,148.87,97.0862,93.2408,0.000345063,0.0607758,20.9963,0.360321,0.357306,0.0,0.0
392,97.75,56.8496,62.3442,145.897,97.0834,93.2084,0.000366395,0.0606437,20.9963,0.37033,0.360129,0.0,0.0
399,99.5,56.6291,61.5278,147.693,97.0886,93.5432,0.000408784,0.0605469,20.9963,0.360321,0.328894,0.0,0.0
406,101.25,55.9943,61.1954,145.914,97.0893,92.8176,0.0004193,0.0603547,20.9963,0.360321,0.39782,0.0,0.0
413,103,55.5797,60.4231,145.922,97.0818,93.1792,0.000389106,0.0601167,20.9971,0.37033,0.362752,0.0,0.0
420,104.75,54.9982,59.5635,144,97.0953,93.4094,0.000348889,0.0599149,20.9976,0.330294,0.342163,0.0,0.0
427,106.5,53.9431,59.3694,144.991,97.1001,93.298,0.000219723,0.059846,20.9978,0.340303,0.353157,0.0,0.0
434,108.25,54.0636,59.1704,147.786,97.0993,93.9831,0.000149525,0.0597465,20.9989,0.360321,0.288397,0.0,0.0
441,110,53.4601,58.5537,147.879,97.112,92.8832,0.00019758,0.0595603,20.9996,0.360321,0.393633,0.0,0.0
448,111.75,53.3621,57.7277,152.769,97.1244,94.1562,0.000301599,0.0593001,21,0.350312,0.274411,0.0,0.0
455,113.5,52.523,57.5425,145.288,97.1312,93.5436,0.000389788,0.0591603,21.0002,0.37033,0.332734,0.0,0.0
462,115.25,52.608,57.2181,151.223,97.1467,93.4573,0.000423849,0.059064,21.0003,0.350312,0.342313,0.0,0.0
469,117,52.0952,56.6639,150.396,97.1646,92.9765,0.000383591,0.0588868,21.0003,0.350312,0.389547,0.0,0.0
476,118.75,51.6719,55.9706,149.253,97.1726,93.4017,0.000260833,0.0587988,21.0003,0.330294,0.349925,0.0,0.0
483,120.5,51.717,55.9186,154.153,97.1821,93.6916,0.000195632,0.0586822,21.0003,0.320285,0.323398,0.0,0.0
490,122.25,51.2167,55.0497,151.928,97.2084,92.9445,0.000176149,0.0586249,21.0014,0.330294,0.396578,0.0,0.0
497,124,51.0834,55.036,146.33,97.2395,93.6259,0.000165837,0.0585378,21.0025,0.310277,0.334813,0.0,0.0
504,125.75,50.5732,54.2794,147.101,97.2518,93.4082,0.000189401,0.0584898,21.003,0.310277,0.356517,0.0,0.0
511,127.5,50.1365,54.2946,146.552,97.2733,93.21,0.000276208,0.0583853,21.0031,0.330294,0.377256,0.0,0.0
518,129.25,50.3322,53.775,144.129,97.2885,93.0588,0.000293807,0.0583115,21.0032,0.310277,0.392986,0.0,0.0
525,131,49.8329,53.7559,150.754,97.3179,93.9016,0.000173744,0.058446,21.0033,0.310277,0.315949,0.0,0.0
532,132.75,49.83,53.1662,149.381,97.3518,94.4623,2.64017e-05,0.058461,21.0033,0.330294,0.266391,0.0,0.0
539,134.5,49.118,53.1652,151.249,97.341,93.5088,-4.36594e-06,0.0584622,21.0027,0.310277,0.355112,0.0,0.0
546,136.25,48.8706,52.3711,146.095,97.3685,93.3989,3.43582e-05,0.058658,21.0013,0.310277,0.368001,0.0,0.0
553,138,49.0773,52.086,149.299,97.3896,93.9028,5.58812e-05,0.0588293,21.0007,0.320285,0.322344,0.0,0.0
560,139.75,48.4981,52.3151,149.73,97.4254,92.9826,3.81063e-05,0.059046,21.0004,0.310277,0.412669,0.0,0.0
567,141.5,48.4803,51.7764,151.441,97.431,93.5765,-7.78355e-06,0.0590029,21.0003,0.300268,0.356883,0.0,0.0
574,143.25,48.011,51.3287,150.353,97.4418,93.5546,-2.43546e-05,0.0590067,21.0002,0.320285,0.359927,0.0,0.0
581,145,48.1997,51.151,145.643,97.4637,93.1269,3.51473e-05,0.0589614,21.0002,0.300268,0.402427,0.0,0.0
588,146.75,47.9173,51.5999,149.696,97.4915,93.9652,5.73017e-05,0.0589446,21.0001,0.290259,0.325717,0.0,0.0
595,148.5,47.6055,50.3452,144.337,97.5194,93.7435,-2.08057e-06,0.0590774,21.0002,0.290259,0.349135,0.0,0.0
602,150.25,47.5759,49.8577,152.015,97.5365,94.1197,1.78026e-05,0.0591371,21.0006,0.300268,0.315276,0.0,0.0
609,152,46.8762,50.4167,148.171,97.5413,93.2067,0.000149554,0.0591654,21.0008,0.310277,0.401889,0.0,0.0
616,153.75,47.2896,49.9529,147.935,97.5644,93.5817,0.000269553,0.0590711,21.0009,0.290259,0.368482,0.0,0.0
623,155.5,46.6101,49.1231,147.351,97.5995,93.9409,,0.0591419,,0.300268,0.337788,0.0,0.0
630,157.25,46.3516,49.3957,146.18,97.6086,93.4934,,0.0592155,,0.300268,0.38084,0.0,0.0
637,159,46.8978,50.0054,147.654,97.6297,93.7715,,,,0.320285,0.356492,0.0,0.0
644,160.75,46.5723,49.45,144.407,97.6345,94.0686,,,,0.300268,0.328951,0.0,0.0
651,162.5,46.504,48.9782,151.744,97.6699,94.2438,,,,0.300268,0.315714,0.0,0.0
658,164.25,46.2494,49.3864,148.945,97.6747,94.6102,,,,0.310277,0.281834,0.0,0.0
665,166,46.1528,49.2826,146.742,97.6787,94.0796,,,,0.310277,0.331924,0.0,0.0