File: 01_Data/PE_Foam_Pipe_Insulation/Cone/PE_Foam_Pipe_Insulation_Cone_HF50Scan_220316_R3.csv
Names,Time,Stack TC,Smoke TC,Exh Press,Smoke Comp,Smoke Meas,CO Meter,CO2 Meter,O2 Meter,Sample Mass,Ext Coeff,Start Test,Flame Verif
Chan Gain,,500,500,1,1,1,1,1,1,1,1,1.0,1.0
Offset,,0,0,0.135167,0,0,0,0,0,0,0,0.0,0.0
Gain,,1,1,25.011,13.0486,13.2841,1,1,1,1.00089,1.0079,1.0,1.0
Units,sec,C,C,Pa,%,%,%,%,%,g,/m,,
Baseline,,33.6446,34.1774,156.623,98.4939,94.9105,0.000439878,0.0569577,21.005,-493.099,0.327736,,
8,1.75,31.7409,32.1884,163.82,97.566,92.477,0.000792826,0.0646692,20.9888,0.860767,0.473616,0.0,0.0
16,3.75,31.338,31.6009,154.836,97.5353,93.0203,0.00139396,0.0734882,20.9667,0.83074,0.419054,0.0,1.0
24,5.75,31.9123,32.1946,146.757,97.5246,92.3408,0.00175327,0.101762,20.9178,0.730651,0.482895,0.0,1.0
32,7.75,32.3044,32.507,156.004,97.5122,92.9067,0.00187416,0.126053,20.8921,0.750669,0.427755,0.0,1.0
40,9.75,32.4061,33.1574,151.608,97.4824,90.9341,0.00201613,0.134219,20.8779,0.690615,0.614794,0.0,0.0
48,11.75,32.4858,33.2356,150.183,97.4669,88.1753,0.00235688,0.142171,20.8612,0.690615,0.885764,0.0,0.0
56,13.75,33.1601,33.6442,145.753,97.4442,86.9089,0.0029505,0.156555,20.8386,0.600535,1.01161,0.0,0.0
64,15.75,33.6507,34.4475,143.166,97.4346,79.565,0.00409306,0.183723,20.7981,0.500446,1.7913,0.0,0.0
72,17.75,35.0529,35.5944,137.75,97.4143,74.8774,0.00679887,0.235237,20.7059,0.210187,2.32632,0.0,0.0
80,19.75,36.3447,37.0559,129.957,97.4035,72.1186,0.00987247,0.336645,20.5024,0.0100089,2.65724,0.0,0.0
88,21.75,38.277,38.6112,126.327,97.4059,71.1611,0.0124681,0.440366,20.3153,-0.140125,2.77563,0.0,0.0
96,23.75,41.105,41.9562,119.503,97.3936,66.9948,0.0145412,0.521448,20.1835,-0.350312,3.30792,0.0,0.0
104,25.75,42.988,44.5831,127.812,97.3892,68.5994,0.0160198,0.592843,20.0495,-0.570508,3.09826,0.0,0.0
112,27.75,45.7584,46.7783,119.251,97.3844,66.6401,0.0170763,0.669696,19.8965,-0.760678,3.35402,0.0,0.0
120,29.75,49.1041,50.7439,121.81,97.3705,67.0207,0.0178579,0.750355,19.7703,-0.990883,3.3024,0.0,0.0
128,31.75,51.7348,53.8468,117.638,97.3661,70.4508,0.0184579,0.831267,19.6469,-1.25111,2.86071,0.0,0.0
136,33.75,55.6562,58.1568,114.16,97.3609,69.9283,0.0186631,0.88725,19.5556,-1.54137,2.92606,0.0,0.0
144,35.75,58.4806,61.5572,119.565,97.3617,71.3861,0.0186933,0.914817,19.5153,-1.78159,2.74371,0.0,0.0
152,37.75,61.4302,65.0351,120.131,97.349,69.3919,0.0187286,0.9276,19.494,-2.05183,2.99305,0.0,0.0
160,39.75,64.1962,68.4307,118.177,97.3502,70.6953,0.0188441,0.949677,19.466,-2.34209,2.82864,0.0,0.0
168,41.75,67.2212,71.4137,111.753,97.3458,69.2687,0.0190079,0.973087,19.4247,-2.57229,3.00848,0.0,0.0
176,43.75,70.1011,74.7293,115.692,97.3518,71.1104,0.0191692,0.993674,19.394,-2.82252,2.77702,0.0,0.0
184,45.75,72.5308,77.5884,105.501,97.3331,69.3429,0.0191794,1.0133,19.3707,-3.11277,2.99785,0.0,0.0
192,47.75,75.0692,80.5968,117.76,97.3331,68.8426,0.0188094,1.02867,19.3625,-3.34298,3.06187,0.0,0.0
200,49.75,77.4575,84.1533,119.239,97.3271,69.0331,0.0182211,1.00267,19.4005,-3.54316,3.03689,0.0,0.0
208,51.75,79.5254,85.8198,119.546,97.3279,69.7815,0.0172767,0.941856,19.4933,-3.75334,2.94163,0.0,0.0
216,53.75,80.4751,87.4832,128.142,97.3315,71.9816,0.0159317,0.849975,19.6674,-3.89347,2.66751,0.0,0.0
224,55.75,80.9366,88.0176,129.379,97.3259,71.9476,0.0143092,0.752948,19.8493,-4.07363,2.67119,0.0,0.0
232,57.75,81.2391,88.46,128.464,97.3271,76.0064,0.0121994,0.661228,19.9894,-4.21376,2.18609,0.0,0.0
240,59.75,80.4449,87.9483,147.546,97.3271,88.9103,0.0095265,0.557917,20.1894,-4.21376,0.799684,0.0,0.0
248,61.75,78.5604,86.5137,155.14,97.3191,92.6639,0.00712702,0.401243,20.433,-4.17372,0.433367,0.0,0.0
256,63.75,76.7756,84.1806,152.811,97.3235,93.4561,0.00481177,0.271725,20.6419,-4.21376,0.358504,0.0,0.0
264,65.75,74.6368,82.3168,154.66,97.3159,93.4934,0.00312928,0.182821,20.7824,-4.17372,0.354289,0.0,0.0
272,67.75,73.5663,80.0469,155.837,97.3203,93.4573,0.0021767,0.131564,20.8771,-4.20375,0.3581,0.0,0.0
280,69.75,71.1919,78.2484,155.279,97.3123,92.5901,0.00159999,0.101925,20.9319,-4.18373,0.439794,0.0,0.0
288,71.75,69.3862,76.2991,154.275,97.3131,93.1994,0.00116603,0.0848078,20.961,-4.21376,0.381874,0.0,0.0
296,73.75,68.1303,74.7901,154.546,97.3064,93.3612,0.000826789,0.0751927,20.9758,-4.19374,0.365928,0.0,0.0
304,75.75,66.5617,72.9028,157.639,97.2996,93.3519,0.00059603,0.0699555,20.9852,-4.16371,0.366196,0.0,0.0
312,77.75,64.9587,71.269,155.484,97.3032,93.2315,0.000527535,0.0661352,20.9915,-4.19374,0.377932,0.0,0.0
320,79.75,63.9407,69.9352,155.784,97.2944,93.1171,0.000491642,0.0637554,20.9944,-4.21376,0.387985,0.0,0.0
328,81.75,62.473,68.6733,154.809,97.3036,93.7411,0.000468327,0.0620174,20.9965,-4.21376,0.329775,0.0,0.0
336,83.75,60.8662,67.1468,157.009,97.3012,93.6243,0.000424492,0.0608534,20.9979,-4.21376,0.340576,0.0,0.0
344,85.75,59.9438,66.1131,153.579,97.296,93.0523,0.000360996,0.0601487,20.9988,-4.18373,0.39429,0.0,0.0
352,87.75,58.928,64.4211,153.328,97.2936,93.2384,0.000341293,0.0595856,21,-4.17372,0.37641,0.0,0.0
360,89.75,57.4781,63.099,154.964,97.2857,94.1197,0.000399779,0.0589786,21.0012,-4.19374,0.292507,0.0,0.0
368,91.75,56.5029,62.2859,153.114,97.292,92.6805,0.000394869,0.0584529,21.0017,-4.21376,0.42932,0.0,0.0
376,93.75,56.1885,61.2847,157.077,97.2956,93.4626,0.000334599,0.0581402,21.0019,-4.23377,0.355358,0.0,0.0
384,95.75,54.4754,60.1737,154.076,97.2932,94.1696,0.000298051,0.0579316,21.0028,-4.20375,0.288511,0.0,0.0
392,97.75,53.9543,59.3028,154.633,97.2952,93.0097,0.000321408,0.057648,21.0037,-4.22376,0.398262,0.0,0.0
400,99.75,53.0241,57.8038,152.266,97.2968,93.3434,0.000303785,0.0574166,21.0041,-4.22376,0.366749,0.0,0.0
408,101.75,51.9857,57.0265,155.214,97.2896,93.3162,0.000240403,0.057284,21.0043,-4.20375,0.368671,0.0,0.0
416,103.75,51.6345,56.3443,156.042,97.2912,93.9357,0.000205087,0.0570754,21.0044,-4.18373,0.310319,0.0,0.0
424,105.75,50.8309,55.3484,152.855,97.3024,93.5911,0.000218915,0.0568958,21.005,-4.22376,0.343825,0.0,0.0
432,107.75,49.9327,54.7252,153.962,97.2956,93.2939,0.000230422,0.0567476,21.006,-4.21376,0.371326,0.0,0.0
440,109.75,49.1488,53.7017,152.805,97.3092,93.2647,0.000242543,0.0565975,21.0064,-4.25379,0.375322,0.0,0.0
448,111.75,48.4618,53.3442,158.033,97.3008,92.7839,0.000319535,0.0565774,21.0066,-4.22376,0.42026,0.0,0.0
456,113.75,48.4404,52.1734,151.359,97.2992,93.9563,0.000435873,0.0563672,21.0062,-4.19374,0.309096,0.0,0.0
464,115.75,47.6559,51.5059,156.654,97.3032,92.9984,0.000499794,0.0562876,21.0063,-4.22376,0.400066,0.0,0.0
472,117.75,47.0816,51.0527,154.491,97.3072,93.3332,0.000527111,0.056306,21.0056,-4.21376,0.36865,0.0,0.0
480,119.75,46.4239,50.5815,156.726,97.308,92.7426,0.000529575,0.0562614,21.0063,-4.20375,0.424853,0.0,0.0
488,121.75,45.7425,49.9183,155.57,97.306,93.1321,0.000468689,0.0563549,21.0065,-4.20375,0.387609,0.0,0.0
496,123.75,45.4294,49.442,157.396,97.3052,94.0646,0.000399915,0.056376,21.0067,-4.23377,0.29946,0.0,0.0
504,125.75,44.7167,48.7714,156.67,97.3084,93.2149,0.000412028,0.0563488,21.0067,-4.20375,0.379979,0.0,0.0
512,127.75,44.9622,48.2913,157.444,97.3108,93.4017,0.000406417,0.0561799,21.0067,-4.23377,0.362488,0.0,0.0
520,129.75,44.3239,47.8352,154.413,97.3143,93.8919,0.000339678,0.0562178,21.0056,-4.21376,0.31654,0.0,0.0
528,131.75,43.4801,47.2719,158.568,97.3135,93.5286,0.000290564,0.0563318,21.0048,-4.20375,0.350737,0.0,0.0
536,133.75,43.2234,46.431,155.828,97.3048,93.6977,0.000216209,0.0563955,21.0042,-4.20375,0.333975,0.0,0.0
544,135.75,42.9,46.5601,153.81,97.3088,93.688,0.000149094,0.0564278,21.004,-4.21376,0.335256,0.0,0.0
552,137.75,43.0018,45.7,151.515,97.3064,93.2051,9.25229e-05,0.0564283,21.0041,-4.23377,0.380721,0.0,0.0
560,139.75,42.3383,45.7882,159.007,97.3263,92.8565,3.38893e-05,0.0563996,21.0044,-4.24378,0.415664,0.0,0.0
568,141.75,42.358,45.1257,150.667,97.3147,93.6981,-3.46277e-06,0.056468,21.0045,-4.25379,0.334842,0.0,0.0
576,143.75,41.092,44.3747,154.728,97.3123,94.2239,4.77085e-05,0.0565205,21.0046,-4.21376,0.285149,0.0,0.0
584,145.75,41.175,44.4011,153.647,97.312,93.4828,0.00015179,0.056518,21.0046,-4.22376,0.354925,0.0,0.0
592,147.75,41.3502,43.9895,153.961,97.3024,93.3276,0.000237593,0.0565209,21.0044,-4.2638,0.368753,0.0,0.0
600,149.75,40.487,43.3257,153.764,97.3143,93.7334,0.000280972,0.0563897,21.0041,-4.22376,0.331478,0.0,0.0
608,151.75,40.5178,43.1172,156.221,97.3139,93.1301,0.000286089,0.0563125,21.0039,-4.23377,0.388525,0.0,0.0
616,153.75,40.4218,42.754,153.729,97.3088,93.8011,0.000300708,0.0561985,21.0038,-4.23377,0.324588,0.0,0.0
624,155.75,40.6162,42.4681,151.595,97.3064,93.6284,0.000324464,0.0561139,21.0033,-4.25379,0.340665,0.0,0.0
632,157.75,39.8266,42.5494,153.058,97.3155,92.2569,0.000264809,0.0561737,21.003,-4.25379,0.471961,0.0,0.0
640,159.75,39.7829,41.993,155.153,97.3048,93.2939,0.000186082,0.0561302,21.0028,-4.28382,0.372158,0.0,0.0
648,161.75,39.1846,41.6783,155.716,97.3036,94.1992,0.000172796,0.0560198,21.0041,-4.28382,0.286673,0.0,0.0
656,163.75,39.0746,41.0579,160.008,97.308,93.4411,0.000108472,0.0560493,21.0047,-4.23377,0.358513,0.0,0.0
664,165.75,38.9513,41.2672,157.011,97.308,93.33,-1.82926e-05,0.0559798,21.0049,-4.22376,0.36903,0.0,0.0
672,167.75,39.1302,40.8043,155.148,97.3044,92.6899,-0.000104543,0.0558715,21.005,-4.25379,0.429552,0.0,0.0
680,169.75,38.6445,40.8523,155.505,97.3052,93.8238,,0.05584,,-4.24378,0.322123,0.0,0.0
688,171.75,38.5196,40.4805,161.045,97.3012,93.5331,,0.0558169,,-4.22376,0.349194,0.0,0.0
696,173.75,38.5077,40.0175,151.514,97.3167,93.4548,,,,-4.21376,0.358004,0.0,0.0
704,175.75,37.5991,39.6387,152.794,97.3044,93.5663,,,,-4.24378,0.346342,0.0,0.0
712,177.75,37.9457,40.0262,152.198,97.3028,92.8674,,,,-4.23377,0.412486,0.0,0.0
720,179.75,37.9106,39.7534,155.33,97.3024,94.0216,,,,-4.23377,0.303247,0.0,0.0
723,180.5,37.7859,39.9448,151.015,97.3048,93.4573,,,,-4.24378,0.356688,0.0,0.0