File: 01_Data/PE_Foam_Pipe_Insulation/Cone/PE_Foam_Pipe_Insulation_Cone_HF25Scan_220316_R1.csv
Names,Time,Stack TC,Smoke TC,Exh Press,Smoke Comp,Smoke Meas,CO Meter,CO2 Meter,O2 Meter,Sample Mass,Ext Coeff,Start Test,Flame Verif
Chan Gain,,500,500,1,1,1,1,1,1,1,1,1.0,1.0
Offset,,0,0,0.136382,0,0,0,0,0,0,0,0.0,0.0
Gain,,1,1,25.011,13.0548,13.4146,1,1,1,1.00087,1.01298,1.0,1.0
Units,sec,C,C,Pa,%,%,%,%,%,g,/m,,
Baseline,,18.2446,18.8654,158.783,98.5256,97.18,0.00049463,0.0446014,21.0254,-833.018,0.122217,,
10,2.25,17.2396,17.8158,156.6,98.414,97.2014,0.000811895,0.0550447,21.0188,-336.442,0.110163,0.0,0.0
20,4.75,17.0761,17.9169,157.234,98.4029,97.1494,0.000945598,0.0515291,21.0228,-336.582,0.11391,0.0,0.0
30,7.25,17.544,17.8131,157.898,98.3857,96.2468,0.00100113,0.0494829,21.0242,-336.492,0.195313,0.0,0.0
40,9.75,17.2706,17.7707,159.831,98.3702,95.9471,0.000920408,0.0484164,21.0247,-336.562,0.221618,0.0,0.0
50,12.25,17.6065,17.8345,159.302,98.3678,95.6703,0.000935668,0.0470976,21.0252,-336.552,0.247069,0.0,0.0
60,14.75,17.1996,17.9765,161.595,98.3523,96.0507,0.00108674,0.0459013,21.0252,-336.852,0.210413,0.0,1.0
70,17.25,16.528,17.413,157.121,98.3252,96.2451,0.00127539,0.0450195,21.0248,-338.354,0.189994,0.0,0.0
80,19.75,17.655,18.111,159.999,98.3096,95.6118,0.00141578,0.0447204,21.0256,-339.224,0.247252,0.0,0.0
90,22.25,17.6456,18.1837,162.189,98.3092,96.0842,0.00141206,0.0444578,21.0262,-339.134,0.20342,0.0,0.0
100,24.75,17.782,18.6345,157.065,98.2809,95.6597,0.00135657,0.0439931,21.025,-338.844,0.240208,0.0,0.0
110,27.25,17.8039,18.0805,159.071,98.279,95.4738,0.00141069,0.0438714,21.0245,-338.124,0.25731,0.0,0.0
120,29.75,18.0607,17.6715,161.133,98.2395,95.4051,0.00157631,0.0446562,21.0239,-337.443,0.260146,0.0,0.0
130,32.25,17.7172,18.1624,161.888,98.2284,96.004,0.0016356,0.0470026,21.0201,-337.003,0.20353,0.0,0.0
140,34.75,18.2921,18.0094,160.476,98.2192,95.6323,0.00140642,0.050613,21.0129,-336.802,0.237173,0.0,0.0
150,37.25,17.7211,18.721,155.22,98.2188,95.7846,0.00138417,0.059424,20.9928,-336.722,0.222998,0.0,1.0
160,39.75,18.3847,18.3331,155.256,98.1985,94.2686,0.00172153,0.0800973,20.9514,-336.682,0.362915,0.0,1.0
170,42.25,18.4133,18.2888,152.574,98.2048,94.1176,0.00192366,0.102137,20.9228,-336.732,0.377742,0.0,1.0
180,44.75,18.7185,19.0404,152.896,98.1953,95.1066,0.00187611,0.115581,20.9141,-336.802,0.283985,0.0,1.0
190,47.25,18.5381,19.7842,155.291,98.2084,95.507,0.0017553,0.119122,20.9138,-336.852,0.247846,0.0,0.0
200,49.75,19.4815,19.9336,157.094,98.1989,95.3273,0.00171634,0.118593,20.9145,-336.862,0.263717,0.0,0.0
210,52.25,19.7513,20.5672,151.235,98.1877,93.944,0.00190583,0.123452,20.8932,-336.973,0.392595,0.0,0.0
220,54.75,20.5456,20.7199,144.569,98.2084,92.288,0.00242788,0.144341,20.8499,-337.033,0.552495,0.0,0.0
230,57.25,21.2824,21.4718,149.217,98.1865,88.6675,0.00349378,0.177829,20.772,-337.123,0.906133,0.0,0.0
240,59.75,22.2531,22.8932,145.602,98.1945,83.7193,0.00504448,0.226749,20.6686,-337.283,1.41711,0.0,0.0
250,62.25,24.1812,24.4713,141.005,98.1742,76.3643,0.00684612,0.282761,20.569,-337.413,2.23235,0.0,0.0
260,64.75,25.7312,25.9289,129.619,98.1726,76.7905,0.00881184,0.349008,20.4385,-337.643,2.18275,0.0,0.0
270,67.25,27.5576,27.8378,141.96,98.159,76.3066,0.0104151,0.419635,20.3327,-337.873,2.23769,0.0,0.0
280,69.75,30.2027,30.7796,130.156,98.1654,75.2443,0.0114988,0.465779,20.2739,-338.053,2.36285,0.0,0.0
290,72.25,31.4383,32.314,129.258,98.1523,73.3226,0.0120435,0.491314,20.2505,-338.254,2.59154,0.0,0.0
300,74.75,34.0737,35.1542,131.723,98.1487,77.5307,0.0121367,0.500697,20.2436,-338.414,2.09535,0.0,0.0
310,77.25,36.1041,37.0825,134.188,98.1439,75.5288,0.0121876,0.503159,20.2359,-338.644,2.32736,0.0,0.0
320,79.75,37.6107,38.9006,134.981,98.1212,72.5714,0.0123693,0.508384,20.2265,-338.844,2.68023,0.0,0.0
330,82.25,39.4471,40.6784,130.737,98.0905,74.7727,0.0123424,0.514342,20.218,-339.064,2.41193,0.0,0.0
340,84.75,41.114,42.8549,139.189,98.0809,77.041,0.0122737,0.517926,20.2158,-339.224,2.14551,0.0,0.0
350,87.25,42.6801,45.2584,130.08,98.0666,76.9432,0.0122904,0.514176,20.2266,-339.395,2.1555,0.0,0.0
360,89.75,43.7136,45.8808,137.451,98.0674,74.9503,0.0125172,0.507411,20.2321,-339.575,2.38875,0.0,0.0
370,92.25,45.0137,47.1952,131.307,98.0475,74.6863,0.0128051,0.507398,20.2296,-339.825,2.41831,0.0,0.0
380,94.75,46.3124,48.4014,130.795,98.03,79.4007,0.012579,0.519864,20.2114,-340.025,1.87281,0.0,0.0
390,97.25,47.5248,50.645,138.918,98.0228,78.8669,0.0121898,0.526785,20.2075,-340.215,1.93211,0.0,0.0
400,99.75,48.6695,51.5367,134.379,98.0084,74.484,0.012054,0.524264,20.2134,-340.436,2.43886,0.0,0.0
410,102.25,49.6393,52.8083,137.912,98.0064,77.8778,0.0120567,0.522691,20.2195,-340.636,2.04276,0.0,0.0
420,104.75,50.6171,53.7602,131.746,97.9754,75.0257,0.0120817,0.516778,20.2275,-340.816,2.37148,0.0,0.0
430,107.25,51.0194,54.4991,136.188,97.963,76.6149,0.0119937,0.50797,20.2395,-341.026,2.18411,0.0,0.0
440,109.75,52.4851,55.6684,128.697,97.9551,74.543,0.0115684,0.50211,20.2512,-341.226,2.42699,0.0,0.0
450,112.25,53.4491,56.5085,139.154,97.9387,80.1798,0.0103481,0.487346,20.2878,-341.266,1.77778,0.0,0.0
460,114.75,53.26,56.8891,143.666,97.9112,80.0349,0.00806198,0.431551,20.428,-341.386,1.79136,0.0,0.0
470,117.25,52.4002,56.4389,151.669,97.8869,86.264,0.00597789,0.343945,20.5857,-341.436,1.12317,0.0,0.0
480,119.75,51.4111,55.3196,152.683,97.8714,93.4208,0.00395032,0.256092,20.7658,-341.436,0.413546,0.0,0.0
490,122.25,49.1768,53.309,154.758,97.8435,95.8018,0.00237606,0.173176,20.8954,-341.416,0.187384,0.0,0.0
500,124.75,47.1735,51.8334,157.27,97.8307,95.2397,0.00133363,0.116482,20.9612,-341.426,0.238514,0.0,0.0
510,127.25,46.3757,49.6452,166.284,97.7905,95.7006,0.000739887,0.0825056,20.9968,-341.416,0.191955,0.0,0.0
520,129.75,44.885,48.3488,157.281,97.7977,95.0866,0.000393279,0.0648924,21.0139,-341.426,0.249806,0.0,0.0
530,132.25,43.2342,47.5374,161.528,97.7582,95.1312,0.000270377,0.0558139,21.0211,-341.446,0.242053,0.0,0.0
540,134.75,41.799,45.9122,155.275,97.7427,95.4964,0.000471389,0.0509715,21.0251,-341.426,0.206598,0.0,0.0
550,137.25,40.6938,44.7254,158.282,97.7025,94.9949,0.000601645,0.0484697,21.0289,-341.436,0.249725,0.0,0.0
560,139.75,39.0035,43.549,155.361,97.71,95.4202,0.00045298,0.0469319,21.0307,-341.426,0.210716,0.0,0.0
570,142.25,38.209,42.0174,156.273,97.6762,95.2908,0.000177854,0.0460408,21.0315,-341.416,0.21969,0.0,0.0
580,144.75,37.339,40.9981,158.706,97.6861,95.0252,7.04998e-05,0.0454251,21.0318,-341.416,0.245406,0.0,0.0
590,147.25,36.5182,40.2967,156.355,97.6734,94.6121,9.07007e-05,0.0449156,21.0319,-341.426,0.282955,0.0,0.0
600,149.75,35.5562,39.1547,157.557,97.6531,95.0837,6.76876e-05,0.0446777,21.0315,-341.416,0.236925,0.0,0.0
610,152.25,34.567,38.7326,156.962,97.6483,95.3416,-6.44168e-06,0.044474,21.0312,-341.416,0.21242,0.0,0.0
620,154.75,33.6437,36.7547,157.138,97.6487,95.4726,8.87806e-05,0.0445194,21.0314,-341.406,0.200256,0.0,0.0
630,157.25,32.5035,36.5752,160.505,97.6395,95.6421,0.000261758,0.0446351,21.0323,-341.426,0.183661,0.0,0.0
640,159.75,32.4642,35.6665,158.449,97.6268,95.5717,0.000441147,0.0445313,21.0317,-341.416,0.189046,0.0,0.0
650,162.25,31.6819,34.8984,157.122,97.63,95.1922,0.000481895,0.0442811,21.0315,-341.426,0.224689,0.0,0.0
660,164.75,30.79,34.5035,162.266,97.6323,95.0849,0.000336186,0.0439485,21.0315,-341.446,0.234925,0.0,0.0
670,167.25,30.8315,33.7384,151.557,97.6292,95.4824,0.000263526,0.0436668,21.0315,-341.406,0.197565,0.0,0.0
680,169.75,29.3971,32.6731,158.325,97.6256,95.543,0.000297016,0.0433706,21.0312,-341.416,0.191602,0.0,0.0
690,172.25,29.4915,32.0178,156.826,97.6296,95.3314,0.000392762,0.0430502,21.0316,-341.426,0.21167,0.0,0.0
700,174.75,28.8736,31.9851,156.439,97.6192,95.8845,0.000505431,0.0429133,21.031,-341.436,0.159324,0.0,0.0
710,177.25,28.5454,31.4331,160.401,97.6316,95.7788,0.000564641,0.0429777,21.0307,-341.416,0.170242,0.0,0.0
720,179.75,27.6171,30.1453,159.808,97.6164,95.333,0.000575046,0.0427995,21.0306,-341.426,0.210321,0.0,0.0
730,182.25,27.3124,30.4746,154.754,97.6128,95.5942,0.000549018,0.0426431,21.0313,-341.426,0.185683,0.0,0.0
740,184.75,27.2807,30.2877,158.083,97.5949,95.5492,0.000593159,0.0425001,21.0319,-341.446,0.188237,0.0,0.0
750,187.25,26.8793,29.3172,158.208,97.5865,95.1824,0.0006076,0.0424317,21.0321,-341.416,0.221654,0.0,0.0
760,189.75,26.6353,28.958,157.455,97.5774,95.2876,0.00061762,0.0423671,21.0322,-341.436,0.211002,0.0,0.0
770,192.25,25.9522,28.1845,158.742,97.573,95.1398,0.000612527,0.0423424,21.0322,-341.416,0.224395,0.0,0.0
780,194.75,25.463,28.4219,155.82,97.5686,95.4558,0.000507055,0.0423769,21.0322,-341.426,0.194528,0.0,0.0
790,197.25,25.0419,27.8227,157.377,97.5638,95.8611,0.000386052,0.0422386,21.0322,-341.416,0.156445,0.0,0.0
800,199.75,25.2732,27.2615,156.387,97.5367,95.7604,0.000177176,0.0422405,21.0322,-341.416,0.163317,0.0,0.0
810,202.25,24.6283,27.0381,159.079,97.5228,95.2937,6.13954e-05,0.0420188,21.0325,-341.416,0.205458,0.0,0.0
820,204.75,24.5602,26.4337,156.039,97.5136,95.247,4.01178e-05,0.0420642,21.0328,-341.416,0.208976,0.0,0.0
830,207.25,24.3267,26.7542,156.124,97.4925,95.5913,0.000183294,0.0420746,21.0328,-341.416,0.17499,0.0,0.0
840,209.75,23.9252,25.549,157.087,97.4774,95.7735,0.00022658,0.0419881,21.0329,-341.396,0.156692,0.0,0.0
850,212.25,23.9309,25.2943,155.919,97.4566,95.5217,6.13564e-05,0.0419738,21.0327,-341.416,0.178193,0.0,0.0
860,214.75,23.9779,25.266,161.582,97.4694,95.828,-1.21816e-05,0.0420888,21.0322,-341.416,0.150916,0.0,0.0
870,217.25,23.1159,25.4545,160.334,97.4471,95.6593,6.34693e-05,0.0421293,21.0321,-341.446,0.164535,0.0,0.0
880,219.75,23.5785,25.155,160.724,97.4387,95.2573,0.000144385,0.0420448,21.032,-341.426,0.201194,0.0,0.0
890,222.25,22.7993,24.9719,160.831,97.4343,95.3314,0.000274746,0.0420556,21.032,-341.436,0.193884,0.0,0.0
900,224.75,22.7944,24.5972,160.986,97.4244,95.3875,0.000364706,0.0419508,21.0326,-341.436,0.187751,0.0,0.0
910,227.25,23.0246,24.6293,157.693,97.3981,95.1152,0.00040976,0.0419273,21.0328,-341.416,0.210748,0.0,0.0
920,229.75,23.0294,24.3427,156.517,97.4033,95.1521,,0.0418618,,-341.406,0.20778,0.0,0.0
930,232.25,22.2374,23.884,157.142,97.3754,95.3756,,0.0420814,,-341.426,0.184386,0.0,0.0
940,234.75,22.2787,24.1112,155.504,97.361,95.1283,,,,-341.446,0.206143,0.0,0.0
950,237.25,22.4656,23.8023,153.923,97.3714,95.1406,,,,-341.436,0.205941,0.0,0.0
960,239.75,22.1544,23.5714,156.136,97.3467,95.3645,,,,-341.426,0.182797,0.0,0.0
963,240.5,22.3288,23.504,156.498,97.3531,95.0575,,,,-341.416,0.212034,0.0,0.0