File: 01_Data/PE_Foam_Pipe_Insulation/Cone/PE_Foam_Pipe_Insulation_Cone_HF25Scalar_220316_R1.csv
LABORATORY,FSRI
TEST IDENT,PE_FPI_HF25_1
OPERATOR,Dow
MATERIAL,PE Foam Pipe Insulation
ORIENTATION,Horizontal
HEAT FLUX,25
SURF AREA,0.01
C FACTOR,0.0390023
SPEC HOLDER DIFF,-566
SPECIMEN MASS,4.8
SCAN TIME,0.25
O2 DELAY TIME,11
CO DELAY TIME,11
CO2 DELAY TIME,8
FLOW FACTOR,1
SCAN COUNT,963
TIME TO IGN,35.5
END OF TEST SCAN,483
END OF TEST TIME,120.75
TEST STATUS,1
PRE TEST CMT,Dimensions: 101.12 x 101.42 x 10.39 mm
POST TEST CMT,"Prior to ignition, sample corners rose and curled towards the center. The sample impacted the spark ignitor, possibly causing a spike in mass data. After ignition, the sample melted and spread out, with flames filling the entire foil pan.  See test pictures."