File: 01_Data/PE_Foam_Pipe_Insulation/Cone/PE_Foam_Pipe_Insulation_Cone_HF25Scan_220316_R2.csv
Names,Time,Stack TC,Smoke TC,Exh Press,Smoke Comp,Smoke Meas,CO Meter,CO2 Meter,O2 Meter,Sample Mass,Ext Coeff,Start Test,Flame Verif
Chan Gain,,500,500,1,1,1,1,1,1,1,1,1.0,1.0
Offset,,0,0,0.136382,0,0,0,0,0,0,0,0.0,0.0
Gain,,1,1,25.011,13.0548,13.4146,1,1,1,1.00087,1.01298,1.0,1.0
Units,sec,C,C,Pa,%,%,%,%,%,g,/m,,
Baseline,,19.2269,19.5991,158.828,98.8587,97.3561,0.000249293,0.0422321,21.0344,-832.995,0.136137,,
11,2.5,18.6986,18.577,156.416,99.1562,97.6579,0.000179442,0.0525335,21.022,-338.854,0.135297,0.0,0.0
22,5.25,18.6409,19.0343,158.354,99.165,96.8792,0.000250182,0.0531674,21.0213,-338.874,0.207214,0.0,0.0
33,8,18.8938,19.1368,159.264,99.1606,96.9259,0.000561918,0.0517771,21.0211,-338.934,0.202541,0.0,0.0
44,10.75,19.1027,18.9554,158.299,99.1542,96.2058,0.000831194,0.0502348,21.0216,-338.954,0.268232,0.0,0.0
55,13.5,18.8812,19.1758,158.415,99.1503,96.7249,0.00105735,0.048317,21.0231,-338.984,0.22006,0.0,0.0
66,16.25,18.6102,19.0051,161.725,99.1451,97.8568,0.00117735,0.0465289,21.0258,-339.685,0.116212,0.0,0.0
77,19,19.3342,18.9257,157.075,99.1451,96.4854,0.00102344,0.0457392,21.0277,-340.926,0.241624,0.0,0.0
88,21.75,18.9092,19.1461,159.113,99.1307,96.8015,0.000881594,0.0465348,21.0269,-339.905,0.211281,0.0,0.0
99,24.5,18.7998,19.2235,157.861,99.1291,96.6676,0.000903148,0.0482979,21.0245,-339.184,0.223433,0.0,0.0
110,27.25,18.711,19.3838,157.426,99.1256,97.0459,0.000999311,0.0510067,21.0216,-339.004,0.18841,0.0,0.0
121,30,18.8351,18.99,162.805,99.1124,97.0651,0.00101929,0.0522839,21.0207,-338.964,0.18547,0.0,0.0
132,32.75,18.9464,18.9555,156.094,99.0997,96.5775,0.000911148,0.051762,21.0203,-338.994,0.229074,0.0,0.0
143,35.5,18.7007,19.0531,156.404,99.0861,96.8985,0.000963709,0.0516811,21.0169,-338.994,0.198378,0.0,0.0
154,38.25,18.9683,19.067,148.344,99.0853,96.3118,0.00115312,0.062004,20.9896,-339.014,0.252266,0.0,1.0
165,41,18.8097,18.9676,157.469,99.0642,95.4341,0.00124378,0.0843677,20.9553,-339.064,0.331722,0.0,1.0
176,43.75,19.1611,19.6133,154.957,99.0706,95.6941,0.00140461,0.101013,20.9361,-339.094,0.308122,0.0,0.0
187,46.5,19.7518,19.984,150.648,99.061,95.62,0.00141237,0.108238,20.9311,-339.134,0.314147,0.0,0.0
198,49.25,20.2582,20.3037,155.136,99.0554,95.7051,0.00134064,0.111839,20.9266,-339.184,0.305738,0.0,0.0
209,52,20.731,21.1357,154.311,99.0475,94.5454,0.00190292,0.121312,20.8946,-339.305,0.413361,0.0,0.0
220,54.75,21.1043,21.7846,148.565,99.0371,91.0067,0.00295685,0.151629,20.8347,-339.405,0.751395,0.0,0.0
231,57.5,22.318,22.5496,147.626,99.0379,89.5595,0.0040854,0.186668,20.7687,-339.565,0.8939,0.0,0.0
242,60.25,23.2613,23.4413,146.517,99.0391,88.7563,0.00491589,0.220662,20.7128,-339.705,0.974059,0.0,0.0
253,63,24.6136,24.9429,140.459,99.0303,82.0449,0.00633617,0.276737,20.6031,-339.845,1.67194,0.0,0.0
264,65.75,26.2893,26.5698,142.941,99.0116,77.2195,0.00809206,0.342767,20.4846,-339.995,2.20886,0.0,0.0
275,68.5,27.9964,28.3515,130.97,98.9869,77.2478,0.00952843,0.397796,20.4073,-340.185,2.2034,0.0,0.0
286,71.25,30.8936,31.5002,139.696,98.9841,80.0746,0.0103275,0.441785,20.3356,-340.426,1.88379,0.0,0.0
297,74,32.7783,33.3701,134.052,98.9582,79.6844,0.0104203,0.473837,20.2828,-340.626,1.92487,0.0,0.0
308,76.75,35.1022,36.2292,126.01,98.9463,78.7117,0.010401,0.495284,20.2542,-340.786,2.03293,0.0,0.0
319,79.5,37.0387,38.2951,133.291,98.9228,76.9276,0.010891,0.510882,20.2169,-341.126,2.23454,0.0,0.0
330,82.25,39.435,40.7215,134.58,98.9009,76.8654,0.0114839,0.535281,20.1707,-341.276,2.23976,0.0,0.0
341,85,42.1173,43.738,128.617,98.8646,77.2015,0.0117204,0.560496,20.1386,-341.547,2.19773,0.0,0.0
352,87.75,43.462,45.2701,131.146,98.8407,77.4291,0.0120703,0.571098,20.1337,-341.777,2.16942,0.0,0.0
363,90.5,46.1358,48.3007,132.136,98.8076,77.172,0.0121044,0.557799,20.1558,-341.957,2.196,0.0,0.0
374,93.25,47.4338,49.802,138.362,98.757,79.1743,0.0118514,0.53777,20.197,-342.177,1.96384,0.0,0.0
385,96,48.0667,50.8017,135.549,98.7288,73.1429,0.0121445,0.52316,20.2137,-342.437,2.66538,0.0,0.0
396,98.75,49.5266,52.2958,128.529,98.6805,76.9285,0.0119928,0.52159,20.2179,-342.617,2.21266,0.0,0.0
407,101.5,50.0227,52.9523,137.726,98.6327,79.325,0.0112139,0.510074,20.2524,-342.818,1.93576,0.0,0.0
418,104.25,51.7111,54.8453,135.946,98.5873,78.844,0.0103008,0.488762,20.2831,-343.008,1.98572,0.0,0.0
429,107,51.8952,55.0356,131.163,98.5622,79.5538,0.00940606,0.469057,20.3211,-343.158,1.90381,0.0,0.0
440,109.75,53.0058,56.5947,138.889,98.5754,80.0467,0.00891457,0.447025,20.365,-343.338,1.85011,0.0,0.0
451,112.5,53.9263,57.3646,137.322,98.577,79.7045,0.00853535,0.421477,20.4048,-343.488,1.88833,0.0,0.0
462,115.25,53.0362,56.6878,138.763,98.6017,80.0111,0.00816367,0.396683,20.4469,-343.648,1.85644,0.0,0.0
473,118,53.5578,57.5162,142.661,98.61,80.5437,0.0078591,0.37622,20.4762,-343.758,1.79824,0.0,0.0
484,120.75,53.1823,57.0782,144.836,98.6399,80.6068,0.00686601,0.353729,20.5283,-343.919,1.79398,0.0,0.0
495,123.5,52.3425,56.218,151.651,98.659,90.5191,0.0052701,0.300683,20.6607,-343.949,0.765142,0.0,0.0
506,126.25,51.1733,55.517,153.86,98.6833,94.2048,0.00346611,0.220526,20.797,-343.949,0.412702,0.0,0.0
517,129,49.3958,53.9563,158.442,98.7064,96.4326,0.00207438,0.146056,20.9079,-343.969,0.207088,0.0,0.0
528,131.75,47.4871,51.9091,153.358,98.72,96.4203,0.00114697,0.100134,20.9761,-343.929,0.20944,0.0,0.0
539,134.5,45.9542,49.6816,158.064,98.763,97.0209,0.000680741,0.0711569,21.0089,-343.929,0.158138,0.0,0.0
550,137.25,43.9849,47.9835,157.064,98.7821,96.4506,0.000306681,0.0576325,21.0221,-343.919,0.212241,0.0,0.0
561,140,42.4771,46.75,153.047,98.7921,97.1212,9.91447e-05,0.051153,21.0274,-343.939,0.151573,0.0,0.0
572,142.75,41.4922,45.6214,158.03,98.8116,96.7675,0.000112533,0.0480287,21.0302,-343.919,0.185749,0.0,0.0
583,145.5,40.3539,43.995,158.93,98.824,96.7699,0.000240986,0.0460885,21.0322,-343.909,0.186634,0.0,0.0
594,148.25,38.7293,42.7416,157.123,98.8439,96.598,0.000264578,0.044902,21.0329,-343.909,0.204227,0.0,0.0
605,151,37.8384,40.9021,157.34,98.8726,96.451,0.000208159,0.0443489,21.0344,-343.919,0.220335,0.0,0.0
616,153.75,36.6925,40.6878,157.029,98.8773,97.1822,0.00018746,0.0438298,21.0351,-343.929,0.153658,0.0,0.0
627,156.5,35.5697,39.1549,158.383,98.8909,96.5395,0.000223608,0.0433529,21.0354,-343.949,0.213838,0.0,0.0
638,159.25,34.623,38.6837,159.48,98.9124,96.5485,0.000226797,0.0431607,21.0352,-343.949,0.214943,0.0,0.0
649,162,34.3801,37.5237,158.292,98.9343,96.8027,0.000209365,0.042931,21.0343,-343.919,0.193544,0.0,0.0
660,164.75,32.8864,36.7554,159.037,98.9439,97.0708,0.000259653,0.0427515,21.0341,-343.939,0.169824,0.0,0.0
671,167.5,32.0569,35.742,154.144,98.9511,96.2271,0.000158567,0.0424571,21.0324,-343.939,0.24804,0.0,0.0
682,170.25,31.977,34.9213,159.035,98.9479,96.9599,0.000280384,0.0422407,21.0333,-343.949,0.180342,0.0,0.0
693,173,31.1153,34.1098,157.111,98.9674,96.9034,0.00040414,0.0420655,21.0338,-343.939,0.187275,0.0,0.0
704,175.75,30.8436,33.4346,158.211,98.9869,96.51,0.000294237,0.0417817,21.0339,-343.929,0.225176,0.0,0.0
715,178.5,29.4017,32.7249,153.686,99.0021,96.675,3.09168e-05,0.0417623,21.0339,-343.919,0.211357,0.0,0.0
726,181.25,28.7938,31.4374,155.737,99.0132,97.1187,-0.000115035,0.0418604,21.034,-343.919,0.171663,0.0,0.0
737,184,28.435,31.1409,159.205,99.0188,97.1216,-0.000161219,0.0417228,21.0347,-343.929,0.171902,0.0,0.0
748,186.75,28.4155,31.5618,156.598,99.0455,97.2207,-5.29817e-05,0.0416654,21.0351,-343.929,0.165237,0.0,0.0
759,189.5,27.652,30.7506,160.263,99.0642,97.3701,0.000132813,0.0416337,21.0352,-343.919,0.15327,0.0,0.0
770,192.25,27.6552,30.3091,157.909,99.0965,97.2325,0.000305702,0.041558,21.0347,-343.939,0.168726,0.0,0.0
781,195,26.8857,29.4005,155.897,99.1256,97.1896,0.000333902,0.0417768,21.0345,-343.939,0.175262,0.0,0.0
792,197.75,26.4052,29.0999,157.777,99.1311,97.3071,0.000308978,0.0415956,21.0344,-343.949,0.165027,0.0,0.0
803,200.5,26.4873,28.469,156.793,99.1614,97.339,0.000280761,0.0414865,21.0361,-343.919,0.164826,0.0,0.0
814,203.25,26.0379,28.3876,155.791,99.1845,97.1777,0.000274938,0.041375,21.0371,-343.929,0.181633,0.0,0.0
825,206,25.7761,27.4746,161.014,99.2208,97.2825,0.000273546,0.041429,21.0376,-343.909,0.175302,0.0,0.0
836,208.75,25.592,27.8494,152.986,99.2339,97.2612,0.000282104,0.0415324,21.038,-343.919,0.178424,0.0,0.0
847,211.5,25.4692,27.4274,159.149,99.2514,97.9911,0.000185164,0.0415938,21.0382,-343.919,0.113556,0.0,0.0
858,214.25,24.6741,26.6289,158.592,99.2813,97.567,0.000155658,0.0414921,21.0382,-343.909,0.154773,0.0,0.0
869,217,24.084,25.9665,158.964,99.2993,97.7394,0.000130359,0.0415764,21.0382,-343.919,0.140696,0.0,0.0
880,219.75,25.0524,26.5097,159.905,99.3268,97.4946,0.000288047,0.0415524,21.0382,-343.909,0.165439,0.0,0.0
891,222.5,24.144,26.1075,154.856,99.3176,97.689,0.000289919,0.0416536,21.0382,-343.919,0.146915,0.0,0.0
902,225.25,23.9431,25.7924,156.404,99.3283,97.759,0.000107638,0.0416693,21.0382,-343.929,0.141511,0.0,0.0
913,228,23.6417,25.8351,162.322,99.3327,97.682,-3.13117e-06,0.0414753,21.0382,-343.919,0.148901,0.0,0.0
924,230.75,23.4504,25.3939,153.802,99.3343,97.3038,-0.000111076,0.0414011,21.0382,-343.909,0.18352,0.0,0.0
935,233.5,23.9132,24.3589,157.917,99.3248,97.4078,-2.71287e-06,0.0415704,21.0382,-343.919,0.173174,0.0,0.0
946,236.25,23.4343,25.1002,157.032,99.3323,97.3337,-1.02209e-05,0.0415756,21.0382,-343.919,0.180613,0.0,0.0
957,239,23.3994,24.4375,163.898,99.3256,97.9395,,0.0414373,,-343.929,0.124867,0.0,0.0
968,241.75,23.4234,24.7137,157.354,99.3279,97.978,,,,-343.929,0.121591,0.0,0.0
979,244.5,22.9203,24.1536,154.891,99.3028,97.4954,,,,-343.939,0.163226,0.0,0.0
990,247.25,22.7724,24.0723,158.598,99.2634,97.6206,,,,-343.929,0.148286,0.0,0.0
996,248.75,22.7508,23.9526,157.327,99.2674,97.7365,,,,-343.919,0.138103,0.0,0.0