File: 01_Data/OSB/FTIR/ATR/OSB_ATR_210608_R4.tst
4497.79,-0.00801
4484.29,-0.00785
4470.79,-0.00787
4457.29,-0.00816
4443.79,-0.00775
4430.28,-0.00787
4416.78,-0.00749
4403.28,-0.00767
4389.78,-0.00737
4376.28,-0.00738
4362.78,-0.00732
4349.28,-0.00747
4335.78,-0.00735
4322.28,-0.00721
4308.77,-0.00724
4295.27,-0.00728
4281.77,-0.00720
4268.27,-0.00728
4254.77,-0.00698
4241.27,-0.00712
4227.77,-0.00710
4214.27,-0.00717
4200.77,-0.00683
4187.26,-0.00696
4173.76,-0.00685
4160.26,-0.00668
4146.76,-0.00676
4133.26,-0.00637
4119.76,-0.00672
4106.26,-0.00631
4092.76,-0.00650
4079.26,-0.00625
4065.75,-0.00642
4052.25,-0.00637
4038.75,-0.00642
4025.25,-0.00591
4011.75,-0.00586
3998.25,-0.00604
3984.75,-0.00572
3971.25,-0.00503
3957.75,-0.00472
3944.25,-0.00374
3930.74,-0.00286
3917.24,-0.00301
3903.74,0.00106
3890.24,-0.00275
3876.74,-0.00347
3863.24,-0.00037
3849.74,-0.00203
3836.24,0.00026
3822.74,-0.00019
3809.23,-0.00372
3795.73,-0.00304
3782.23,-0.00344
3768.73,-0.00194
3755.23,0.00023
3741.73,0.00147
3728.23,-0.00070
3714.73,-0.00162
3701.23,-0.00295
3687.72,-0.00056
3674.22,0.00130
3660.72,-0.00381
3647.22,0.00164
3633.72,-0.00223
3620.22,0.00008
3606.72,-0.00187
3593.22,-0.00249
3579.72,-0.00332
3566.21,0.00169
3552.71,-0.00321
3539.21,-0.00485
3525.71,-0.00160
3512.21,-0.00451
3498.71,-0.00476
3485.21,-0.00470
3471.71,-0.00567
3458.21,-0.00541
3444.7,-0.00472
3431.2,-0.00582
3417.7,-0.00566
3404.2,-0.00605
3390.7,-0.00582
3377.2,-0.00601
3363.7,-0.00558
3350.2,-0.00609
3336.7,-0.00546
3323.2,-0.00580
3309.69,-0.00528
3296.19,-0.00566
3282.69,-0.00538
3269.19,-0.00548
3255.69,-0.00511
3242.19,-0.00516
3228.69,-0.00503
3215.19,-0.00498
3201.69,-0.00474
3188.18,-0.00476
3174.68,-0.00468
3161.18,-0.00486
3147.68,-0.00455
3134.18,-0.00430
3120.68,-0.00388
3107.18,-0.00426
3093.68,-0.00417
3080.18,-0.00386
3066.67,-0.00375
3053.17,-0.00384
3039.67,-0.00392
3026.17,-0.00391
3012.67,-0.00361
2999.17,-0.00382
2985.67,-0.00372
2972.17,-0.00359
2958.67,-0.00347
2945.16,-0.00350
2931.66,-0.00316
2918.16,-0.00309
2904.66,-0.00331
2891.16,-0.00339
2877.66,-0.00341
2864.16,-0.00324
2850.66,-0.00298
2837.16,-0.00318
2823.66,-0.00314
2810.15,-0.00311
2796.65,-0.00303
2783.15,-0.00299
2769.65,-0.00293
2756.15,-0.00288
2742.65,-0.00286
2729.15,-0.00287
2715.65,-0.00278
2702.15,-0.00274
2688.64,-0.00261
2675.14,-0.00269
2661.64,-0.00260
2648.14,-0.00268
2634.64,-0.00270
2621.14,-0.00264
2607.64,-0.00264
2594.14,-0.00242
2580.64,-0.00231
2567.13,-0.00228
2553.63,-0.00232
2540.13,-0.00218
2526.63,-0.00214
2513.13,-0.00227
2499.63,-0.00211
2486.13,-0.00209
2472.63,-0.00198
2459.13,-0.00194
2445.62,-0.00200
2432.12,-0.00171
2418.62,-0.00176
2405.12,-0.00176
2391.62,-0.00174
2378.12,-0.00123
2364.62,-0.00708
2351.12,-0.00330
2337.62,-0.00624
2324.12,-0.00305
2310.61,-0.00064
2297.11,-0.00120
2283.61,-0.00158
2270.11,-0.00175
2256.61,-0.00140
2243.11,-0.00118
2229.61,-0.00134
2216.11,-0.00142
2202.61,-0.00155
2189.1,-0.00145
2175.6,-0.00175
2162.1,-0.00190
2148.6,-0.00050
2135.1,-0.00084
2121.6,-0.00177
2108.1,-0.00182
2094.6,-0.00133
2081.1,-0.00122
2067.59,-0.00060
2054.09,-0.00097
2040.59,-0.00024
2027.09,-0.00049
2013.59,0.00000
2000.09,-0.00019
1986.59,0.00013
1973.09,0.00016
1959.59,0.00001
1946.08,0.00092
1932.58,0.00005
1919.08,0.00134
1905.58,0.00028
1892.08,0.00080
1878.58,-0.00013
1865.08,0.00121
1851.58,0.00009
1838.08,0.00089
1824.57,0.00181
1811.07,0.00176
1797.57,0.00297
1784.07,0.00170
1770.57,0.00410
1757.07,0.00248
1743.57,0.00458
1730.07,0.00297
1716.57,0.00804
1703.07,0.00572
1689.56,0.00337
1676.06,0.00255
1662.56,0.00122
1649.06,0.00425
1635.56,0.00263
1622.06,0.00152
1608.56,0.00020
1595.06,-0.00046
1581.56,-0.00077
1568.05,0.00166
1554.55,0.00533
1541.05,0.01170
1527.55,0.00597
1514.05,0.00604
1500.55,0.00405
1487.05,0.00389
1473.55,0.00575
1460.05,0.00280
1446.54,0.00126
1433.04,0.00227
1419.54,0.00351
1406.04,0.00065
1392.54,0.00127
1379.04,0.00058
1365.54,0.00061
1352.04,-0.00032
1338.54,0.00331
1325.03,-0.00041
1311.53,0.00060
1298.03,-0.00038
1284.53,-0.00019
1271.03,0.00040
1257.53,0.00034
1244.03,-0.00055
1230.53,-0.00056
1217.03,-0.00054
1203.53,-0.00038
1190.02,-0.00035
1176.52,-0.00020
1163.02,-0.00037
1149.52,-0.00049
1136.02,-0.00038
1122.52,-0.00048
1109.02,0.00001
1095.52,0.00048
1082.02,0.00013
1068.51,0.00006
1055.01,-0.00004
1041.51,0.00012
1028.01,0.00033
1014.51,0.00050
1001.01,-0.00028
987.508,-0.00035
974.007,-0.00057
960.506,-0.00013
947.005,-0.00049
933.503,-0.00020
920.002,-0.00031
906.501,0.00009
893,-0.00016
879.499,0.00017
865.998,0.00005
852.497,0.00033
838.996,0.00038
825.495,0.00035
811.994,0.00121
798.493,0.00147
784.992,0.00063
771.49,0.00066
757.989,-0.00042
744.488,0.00022
730.987,0.00032
717.486,0.00060
703.985,0.00043
690.484,0.00033
676.983,-0.00050
663.482,-0.00040
649.981,-0.00034
636.48,0.00058
622.979,0.00236
609.477,0.00270
599.834,0.00099