File: 01_Data/OSB/FTIR/ATR/OSB_ATR_210608_R5.tst
4497.79,-0.00850
4484.29,-0.00835
4470.79,-0.00820
4457.29,-0.00820
4443.79,-0.00813
4430.28,-0.00813
4416.78,-0.00802
4403.28,-0.00788
4389.78,-0.00774
4376.28,-0.00793
4362.78,-0.00763
4349.28,-0.00770
4335.78,-0.00769
4322.28,-0.00761
4308.77,-0.00770
4295.27,-0.00758
4281.77,-0.00755
4268.27,-0.00740
4254.77,-0.00744
4241.27,-0.00746
4227.77,-0.00719
4214.27,-0.00716
4200.77,-0.00722
4187.26,-0.00728
4173.76,-0.00708
4160.26,-0.00710
4146.76,-0.00695
4133.26,-0.00695
4119.76,-0.00698
4106.26,-0.00670
4092.76,-0.00681
4079.26,-0.00660
4065.75,-0.00665
4052.25,-0.00681
4038.75,-0.00666
4025.25,-0.00624
4011.75,-0.00636
3998.25,-0.00619
3984.75,-0.00601
3971.25,-0.00536
3957.75,-0.00523
3944.25,-0.00418
3930.74,-0.00308
3917.24,-0.00325
3903.74,0.00032
3890.24,-0.00297
3876.74,-0.00391
3863.24,-0.00029
3849.74,-0.00217
3836.24,-0.00039
3822.74,-0.00107
3809.23,-0.00402
3795.73,-0.00362
3782.23,-0.00378
3768.73,-0.00210
3755.23,-0.00028
3741.73,0.00087
3728.23,-0.00149
3714.73,-0.00197
3701.23,-0.00341
3687.72,-0.00132
3674.22,0.00021
3660.72,-0.00423
3647.22,0.00115
3633.72,-0.00277
3620.22,-0.00034
3606.72,-0.00238
3593.22,-0.00275
3579.72,-0.00378
3566.21,0.00101
3552.71,-0.00342
3539.21,-0.00495
3525.71,-0.00196
3512.21,-0.00497
3498.71,-0.00488
3485.21,-0.00504
3471.71,-0.00609
3458.21,-0.00574
3444.7,-0.00509
3431.2,-0.00618
3417.7,-0.00618
3404.2,-0.00623
3390.7,-0.00612
3377.2,-0.00620
3363.7,-0.00589
3350.2,-0.00652
3336.7,-0.00564
3323.2,-0.00612
3309.69,-0.00560
3296.19,-0.00593
3282.69,-0.00571
3269.19,-0.00571
3255.69,-0.00545
3242.19,-0.00533
3228.69,-0.00531
3215.19,-0.00527
3201.69,-0.00508
3188.18,-0.00504
3174.68,-0.00496
3161.18,-0.00508
3147.68,-0.00489
3134.18,-0.00461
3120.68,-0.00418
3107.18,-0.00445
3093.68,-0.00430
3080.18,-0.00407
3066.67,-0.00396
3053.17,-0.00399
3039.67,-0.00410
3026.17,-0.00393
3012.67,-0.00373
2999.17,-0.00390
2985.67,-0.00394
2972.17,-0.00379
2958.67,-0.00360
2945.16,-0.00370
2931.66,-0.00336
2918.16,-0.00318
2904.66,-0.00336
2891.16,-0.00353
2877.66,-0.00353
2864.16,-0.00334
2850.66,-0.00304
2837.16,-0.00324
2823.66,-0.00330
2810.15,-0.00315
2796.65,-0.00317
2783.15,-0.00308
2769.65,-0.00297
2756.15,-0.00297
2742.65,-0.00300
2729.15,-0.00292
2715.65,-0.00287
2702.15,-0.00274
2688.64,-0.00267
2675.14,-0.00262
2661.64,-0.00268
2648.14,-0.00278
2634.64,-0.00279
2621.14,-0.00283
2607.64,-0.00284
2594.14,-0.00257
2580.64,-0.00251
2567.13,-0.00252
2553.63,-0.00258
2540.13,-0.00242
2526.63,-0.00235
2513.13,-0.00228
2499.63,-0.00229
2486.13,-0.00220
2472.63,-0.00212
2459.13,-0.00222
2445.62,-0.00234
2432.12,-0.00196
2418.62,-0.00196
2405.12,-0.00195
2391.62,-0.00195
2378.12,-0.00165
2364.62,-0.00798
2351.12,-0.00402
2337.62,-0.00670
2324.12,-0.00378
2310.61,-0.00112
2297.11,-0.00157
2283.61,-0.00198
2270.11,-0.00214
2256.61,-0.00193
2243.11,-0.00169
2229.61,-0.00200
2216.11,-0.00187
2202.61,-0.00229
2189.1,-0.00267
2175.6,-0.00272
2162.1,-0.00331
2148.6,-0.00181
2135.1,-0.00145
2121.6,-0.00215
2108.1,-0.00237
2094.6,-0.00179
2081.1,-0.00160
2067.59,-0.00112
2054.09,-0.00153
2040.59,-0.00125
2027.09,-0.00105
2013.59,-0.00059
2000.09,-0.00091
1986.59,-0.00068
1973.09,-0.00107
1959.59,-0.00046
1946.08,0.00028
1932.58,-0.00044
1919.08,0.00082
1905.58,-0.00007
1892.08,0.00033
1878.58,-0.00039
1865.08,0.00092
1851.58,0.00003
1838.08,0.00073
1824.57,0.00162
1811.07,0.00166
1797.57,0.00277
1784.07,0.00146
1770.57,0.00390
1757.07,0.00234
1743.57,0.00443
1730.07,0.00309
1716.57,0.00793
1703.07,0.00564
1689.56,0.00327
1676.06,0.00248
1662.56,0.00123
1649.06,0.00441
1635.56,0.00267
1622.06,0.00162
1608.56,0.00032
1595.06,-0.00034
1581.56,-0.00070
1568.05,0.00172
1554.55,0.00531
1541.05,0.01153
1527.55,0.00599
1514.05,0.00623
1500.55,0.00412
1487.05,0.00397
1473.55,0.00588
1460.05,0.00279
1446.54,0.00138
1433.04,0.00236
1419.54,0.00350
1406.04,0.00079
1392.54,0.00139
1379.04,0.00077
1365.54,0.00070
1352.04,-0.00024
1338.54,0.00335
1325.03,-0.00025
1311.53,0.00067
1298.03,-0.00024
1284.53,-0.00008
1271.03,0.00049
1257.53,0.00049
1244.03,-0.00039
1230.53,-0.00035
1217.03,-0.00033
1203.53,-0.00029
1190.02,-0.00021
1176.52,-0.00007
1163.02,-0.00018
1149.52,-0.00049
1136.02,-0.00028
1122.52,-0.00033
1109.02,0.00009
1095.52,0.00051
1082.02,0.00030
1068.51,0.00025
1055.01,0.00024
1041.51,0.00029
1028.01,0.00046
1014.51,0.00069
1001.01,0.00006
987.508,-0.00015
974.007,-0.00038
960.506,-0.00030
947.005,-0.00046
933.503,-0.00027
920.002,-0.00050
906.501,-0.00014
893,-0.00015
879.499,-0.00029
865.998,-0.00025
852.497,0.00029
838.996,0.00036
825.495,0.00074
811.994,0.00070
798.493,0.00126
784.992,-0.00008
771.49,0.00062
757.989,-0.00042
744.488,0.00019
730.987,-0.00039
717.486,0.00016
703.985,0.00043
690.484,0.00024
676.983,-0.00059
663.482,-0.00014
649.981,-0.00037
636.48,0.00077
622.979,-0.00035
609.477,-0.00404
599.834,0.00133