File: 01_Data/OSB/FTIR/ATR/OSB_ATR_210608_R1.tst
4497.79,-0.00810
4484.29,-0.00780
4470.79,-0.00793
4457.29,-0.00783
4443.79,-0.00764
4430.28,-0.00782
4416.78,-0.00778
4403.28,-0.00764
4389.78,-0.00728
4376.28,-0.00719
4362.78,-0.00730
4349.28,-0.00709
4335.78,-0.00749
4322.28,-0.00706
4308.77,-0.00715
4295.27,-0.00711
4281.77,-0.00719
4268.27,-0.00713
4254.77,-0.00693
4241.27,-0.00700
4227.77,-0.00712
4214.27,-0.00694
4200.77,-0.00671
4187.26,-0.00689
4173.76,-0.00675
4160.26,-0.00681
4146.76,-0.00663
4133.26,-0.00651
4119.76,-0.00668
4106.26,-0.00624
4092.76,-0.00661
4079.26,-0.00610
4065.75,-0.00653
4052.25,-0.00645
4038.75,-0.00635
4025.25,-0.00600
4011.75,-0.00598
3998.25,-0.00614
3984.75,-0.00584
3971.25,-0.00501
3957.75,-0.00476
3944.25,-0.00386
3930.74,-0.00290
3917.24,-0.00315
3903.74,0.00082
3890.24,-0.00285
3876.74,-0.00365
3863.24,-0.00061
3849.74,-0.00225
3836.24,-0.00008
3822.74,-0.00028
3809.23,-0.00375
3795.73,-0.00365
3782.23,-0.00364
3768.73,-0.00212
3755.23,-0.00028
3741.73,0.00093
3728.23,-0.00128
3714.73,-0.00151
3701.23,-0.00321
3687.72,-0.00136
3674.22,0.00062
3660.72,-0.00395
3647.22,0.00109
3633.72,-0.00246
3620.22,0.00003
3606.72,-0.00210
3593.22,-0.00256
3579.72,-0.00367
3566.21,0.00094
3552.71,-0.00330
3539.21,-0.00476
3525.71,-0.00172
3512.21,-0.00447
3498.71,-0.00464
3485.21,-0.00478
3471.71,-0.00552
3458.21,-0.00547
3444.7,-0.00475
3431.2,-0.00578
3417.7,-0.00575
3404.2,-0.00592
3390.7,-0.00568
3377.2,-0.00595
3363.7,-0.00540
3350.2,-0.00596
3336.7,-0.00531
3323.2,-0.00568
3309.69,-0.00519
3296.19,-0.00547
3282.69,-0.00529
3269.19,-0.00531
3255.69,-0.00503
3242.19,-0.00498
3228.69,-0.00489
3215.19,-0.00495
3201.69,-0.00461
3188.18,-0.00477
3174.68,-0.00463
3161.18,-0.00473
3147.68,-0.00441
3134.18,-0.00431
3120.68,-0.00396
3107.18,-0.00427
3093.68,-0.00418
3080.18,-0.00379
3066.67,-0.00375
3053.17,-0.00387
3039.67,-0.00392
3026.17,-0.00392
3012.67,-0.00364
2999.17,-0.00381
2985.67,-0.00382
2972.17,-0.00367
2958.67,-0.00348
2945.16,-0.00351
2931.66,-0.00310
2918.16,-0.00303
2904.66,-0.00334
2891.16,-0.00338
2877.66,-0.00335
2864.16,-0.00325
2850.66,-0.00296
2837.16,-0.00328
2823.66,-0.00327
2810.15,-0.00322
2796.65,-0.00318
2783.15,-0.00313
2769.65,-0.00311
2756.15,-0.00300
2742.65,-0.00295
2729.15,-0.00298
2715.65,-0.00295
2702.15,-0.00285
2688.64,-0.00282
2675.14,-0.00282
2661.64,-0.00286
2648.14,-0.00294
2634.64,-0.00291
2621.14,-0.00289
2607.64,-0.00283
2594.14,-0.00266
2580.64,-0.00254
2567.13,-0.00263
2553.63,-0.00248
2540.13,-0.00250
2526.63,-0.00253
2513.13,-0.00252
2499.63,-0.00235
2486.13,-0.00238
2472.63,-0.00223
2459.13,-0.00236
2445.62,-0.00241
2432.12,-0.00212
2418.62,-0.00200
2405.12,-0.00205
2391.62,-0.00199
2378.12,-0.00178
2364.62,-0.00813
2351.12,-0.00406
2337.62,-0.00679
2324.12,-0.00367
2310.61,-0.00132
2297.11,-0.00175
2283.61,-0.00205
2270.11,-0.00221
2256.61,-0.00208
2243.11,-0.00187
2229.61,-0.00179
2216.11,-0.00243
2202.61,-0.00204
2189.1,-0.00275
2175.6,-0.00279
2162.1,-0.00329
2148.6,-0.00162
2135.1,-0.00140
2121.6,-0.00206
2108.1,-0.00230
2094.6,-0.00201
2081.1,-0.00174
2067.59,-0.00125
2054.09,-0.00157
2040.59,-0.00103
2027.09,-0.00116
2013.59,-0.00112
2000.09,-0.00129
1986.59,-0.00044
1973.09,-0.00082
1959.59,-0.00109
1946.08,0.00021
1932.58,-0.00042
1919.08,0.00060
1905.58,-0.00034
1892.08,0.00025
1878.58,-0.00065
1865.08,0.00062
1851.58,-0.00014
1838.08,0.00056
1824.57,0.00130
1811.07,0.00134
1797.57,0.00234
1784.07,0.00116
1770.57,0.00336
1757.07,0.00200
1743.57,0.00401
1730.07,0.00262
1716.57,0.00743
1703.07,0.00533
1689.56,0.00293
1676.06,0.00216
1662.56,0.00108
1649.06,0.00412
1635.56,0.00246
1622.06,0.00135
1608.56,0.00006
1595.06,-0.00056
1581.56,-0.00096
1568.05,0.00133
1554.55,0.00476
1541.05,0.01126
1527.55,0.00556
1514.05,0.00590
1500.55,0.00373
1487.05,0.00353
1473.55,0.00552
1460.05,0.00268
1446.54,0.00107
1433.04,0.00202
1419.54,0.00333
1406.04,0.00066
1392.54,0.00108
1379.04,0.00055
1365.54,0.00046
1352.04,-0.00049
1338.54,0.00298
1325.03,-0.00055
1311.53,0.00038
1298.03,-0.00055
1284.53,-0.00037
1271.03,0.00028
1257.53,0.00033
1244.03,-0.00063
1230.53,-0.00062
1217.03,-0.00053
1203.53,-0.00061
1190.02,-0.00059
1176.52,-0.00049
1163.02,-0.00045
1149.52,-0.00065
1136.02,-0.00047
1122.52,-0.00046
1109.02,0.00008
1095.52,0.00065
1082.02,0.00039
1068.51,0.00039
1055.01,0.00053
1041.51,0.00053
1028.01,0.00100
1014.51,0.00100
1001.01,0.00033
987.508,0.00014
974.007,-0.00030
960.506,-0.00010
947.005,-0.00036
933.503,-0.00011
920.002,-0.00057
906.501,-0.00050
893,-0.00006
879.499,-0.00001
865.998,-0.00044
852.497,0.00005
838.996,0.00028
825.495,0.00020
811.994,0.00074
798.493,0.00110
784.992,0.00025
771.49,0.00045
757.989,-0.00034
744.488,-0.00000
730.987,-0.00004
717.486,0.00046
703.985,0.00048
690.484,0.00028
676.983,-0.00046
663.482,0.00026
649.981,-0.00005
636.48,0.00111
622.979,-0.00024
609.477,-0.00127
599.834,-0.00056