File: 01_Data/OSB/FTIR/ATR/OSB_ATR_210608_R2.tst
4497.79,-0.00825
4484.29,-0.00799
4470.79,-0.00813
4457.29,-0.00810
4443.79,-0.00791
4430.28,-0.00803
4416.78,-0.00780
4403.28,-0.00778
4389.78,-0.00747
4376.28,-0.00755
4362.78,-0.00752
4349.28,-0.00761
4335.78,-0.00751
4322.28,-0.00740
4308.77,-0.00739
4295.27,-0.00743
4281.77,-0.00740
4268.27,-0.00735
4254.77,-0.00713
4241.27,-0.00717
4227.77,-0.00726
4214.27,-0.00727
4200.77,-0.00697
4187.26,-0.00714
4173.76,-0.00686
4160.26,-0.00696
4146.76,-0.00699
4133.26,-0.00680
4119.76,-0.00687
4106.26,-0.00633
4092.76,-0.00683
4079.26,-0.00653
4065.75,-0.00657
4052.25,-0.00677
4038.75,-0.00660
4025.25,-0.00602
4011.75,-0.00623
3998.25,-0.00637
3984.75,-0.00600
3971.25,-0.00534
3957.75,-0.00504
3944.25,-0.00406
3930.74,-0.00320
3917.24,-0.00348
3903.74,0.00041
3890.24,-0.00302
3876.74,-0.00391
3863.24,-0.00043
3849.74,-0.00245
3836.24,-0.00057
3822.74,-0.00092
3809.23,-0.00395
3795.73,-0.00369
3782.23,-0.00393
3768.73,-0.00237
3755.23,-0.00035
3741.73,0.00046
3728.23,-0.00133
3714.73,-0.00222
3701.23,-0.00350
3687.72,-0.00153
3674.22,0.00005
3660.72,-0.00419
3647.22,0.00041
3633.72,-0.00274
3620.22,-0.00064
3606.72,-0.00283
3593.22,-0.00303
3579.72,-0.00394
3566.21,0.00068
3552.71,-0.00365
3539.21,-0.00522
3525.71,-0.00213
3512.21,-0.00491
3498.71,-0.00500
3485.21,-0.00513
3471.71,-0.00601
3458.21,-0.00585
3444.7,-0.00515
3431.2,-0.00607
3417.7,-0.00604
3404.2,-0.00632
3390.7,-0.00607
3377.2,-0.00632
3363.7,-0.00593
3350.2,-0.00646
3336.7,-0.00578
3323.2,-0.00623
3309.69,-0.00577
3296.19,-0.00592
3282.69,-0.00572
3269.19,-0.00580
3255.69,-0.00544
3242.19,-0.00552
3228.69,-0.00525
3215.19,-0.00520
3201.69,-0.00513
3188.18,-0.00514
3174.68,-0.00502
3161.18,-0.00509
3147.68,-0.00486
3134.18,-0.00478
3120.68,-0.00430
3107.18,-0.00451
3093.68,-0.00441
3080.18,-0.00411
3066.67,-0.00410
3053.17,-0.00418
3039.67,-0.00430
3026.17,-0.00408
3012.67,-0.00394
2999.17,-0.00416
2985.67,-0.00411
2972.17,-0.00389
2958.67,-0.00382
2945.16,-0.00376
2931.66,-0.00343
2918.16,-0.00334
2904.66,-0.00368
2891.16,-0.00368
2877.66,-0.00381
2864.16,-0.00359
2850.66,-0.00327
2837.16,-0.00348
2823.66,-0.00356
2810.15,-0.00348
2796.65,-0.00340
2783.15,-0.00336
2769.65,-0.00331
2756.15,-0.00324
2742.65,-0.00320
2729.15,-0.00321
2715.65,-0.00311
2702.15,-0.00309
2688.64,-0.00299
2675.14,-0.00304
2661.64,-0.00299
2648.14,-0.00310
2634.64,-0.00315
2621.14,-0.00312
2607.64,-0.00311
2594.14,-0.00287
2580.64,-0.00282
2567.13,-0.00290
2553.63,-0.00289
2540.13,-0.00269
2526.63,-0.00275
2513.13,-0.00271
2499.63,-0.00268
2486.13,-0.00254
2472.63,-0.00250
2459.13,-0.00264
2445.62,-0.00267
2432.12,-0.00233
2418.62,-0.00236
2405.12,-0.00224
2391.62,-0.00227
2378.12,-0.00196
2364.62,-0.00921
2351.12,-0.00443
2337.62,-0.00765
2324.12,-0.00472
2310.61,-0.00153
2297.11,-0.00204
2283.61,-0.00250
2270.11,-0.00277
2256.61,-0.00253
2243.11,-0.00209
2229.61,-0.00229
2216.11,-0.00263
2202.61,-0.00255
2189.1,-0.00327
2175.6,-0.00329
2162.1,-0.00418
2148.6,-0.00198
2135.1,-0.00192
2121.6,-0.00258
2108.1,-0.00293
2094.6,-0.00237
2081.1,-0.00213
2067.59,-0.00184
2054.09,-0.00210
2040.59,-0.00177
2027.09,-0.00151
2013.59,-0.00152
2000.09,-0.00151
1986.59,-0.00125
1973.09,-0.00173
1959.59,-0.00117
1946.08,0.00012
1932.58,-0.00099
1919.08,0.00012
1905.58,-0.00054
1892.08,-0.00010
1878.58,-0.00098
1865.08,0.00040
1851.58,-0.00050
1838.08,0.00031
1824.57,0.00106
1811.07,0.00124
1797.57,0.00223
1784.07,0.00099
1770.57,0.00328
1757.07,0.00184
1743.57,0.00377
1730.07,0.00241
1716.57,0.00706
1703.07,0.00504
1689.56,0.00271
1676.06,0.00204
1662.56,0.00075
1649.06,0.00370
1635.56,0.00209
1622.06,0.00097
1608.56,-0.00029
1595.06,-0.00091
1581.56,-0.00118
1568.05,0.00104
1554.55,0.00453
1541.05,0.01080
1527.55,0.00532
1514.05,0.00544
1500.55,0.00349
1487.05,0.00320
1473.55,0.00509
1460.05,0.00215
1446.54,0.00071
1433.04,0.00162
1419.54,0.00286
1406.04,0.00023
1392.54,0.00074
1379.04,0.00011
1365.54,0.00015
1352.04,-0.00089
1338.54,0.00269
1325.03,-0.00100
1311.53,0.00002
1298.03,-0.00094
1284.53,-0.00083
1271.03,-0.00025
1257.53,-0.00021
1244.03,-0.00115
1230.53,-0.00109
1217.03,-0.00110
1203.53,-0.00112
1190.02,-0.00095
1176.52,-0.00084
1163.02,-0.00090
1149.52,-0.00121
1136.02,-0.00106
1122.52,-0.00106
1109.02,-0.00059
1095.52,-0.00024
1082.02,-0.00045
1068.51,-0.00049
1055.01,-0.00059
1041.51,-0.00061
1028.01,-0.00028
1014.51,-0.00008
1001.01,-0.00069
987.508,-0.00101
974.007,-0.00115
960.506,-0.00097
947.005,-0.00120
933.503,-0.00084
920.002,-0.00113
906.501,-0.00125
893,-0.00099
879.499,-0.00087
865.998,-0.00093
852.497,-0.00068
838.996,-0.00053
825.495,-0.00037
811.994,0.00020
798.493,0.00052
784.992,-0.00083
771.49,0.00029
757.989,-0.00080
744.488,-0.00108
730.987,-0.00137
717.486,-0.00078
703.985,-0.00047
690.484,-0.00062
676.983,-0.00152
663.482,-0.00090
649.981,-0.00084
636.48,0.00004
622.979,-0.00475
609.477,-0.00502
599.834,0.00012