File: 01_Data/OSB/FTIR/ATR/OSB_ATR_210608_R3.tst
4497.79,-0.00766
4484.29,-0.00787
4470.79,-0.00796
4457.29,-0.00788
4443.79,-0.00777
4430.28,-0.00788
4416.78,-0.00747
4403.28,-0.00725
4389.78,-0.00741
4376.28,-0.00737
4362.78,-0.00730
4349.28,-0.00725
4335.78,-0.00706
4322.28,-0.00718
4308.77,-0.00720
4295.27,-0.00725
4281.77,-0.00711
4268.27,-0.00700
4254.77,-0.00711
4241.27,-0.00683
4227.77,-0.00702
4214.27,-0.00702
4200.77,-0.00673
4187.26,-0.00679
4173.76,-0.00659
4160.26,-0.00675
4146.76,-0.00663
4133.26,-0.00643
4119.76,-0.00662
4106.26,-0.00635
4092.76,-0.00660
4079.26,-0.00615
4065.75,-0.00648
4052.25,-0.00640
4038.75,-0.00637
4025.25,-0.00582
4011.75,-0.00580
3998.25,-0.00583
3984.75,-0.00574
3971.25,-0.00499
3957.75,-0.00475
3944.25,-0.00370
3930.74,-0.00282
3917.24,-0.00281
3903.74,0.00100
3890.24,-0.00276
3876.74,-0.00357
3863.24,-0.00056
3849.74,-0.00177
3836.24,0.00055
3822.74,-0.00016
3809.23,-0.00361
3795.73,-0.00314
3782.23,-0.00353
3768.73,-0.00165
3755.23,-0.00015
3741.73,0.00100
3728.23,-0.00089
3714.73,-0.00173
3701.23,-0.00301
3687.72,-0.00081
3674.22,0.00097
3660.72,-0.00377
3647.22,0.00098
3633.72,-0.00226
3620.22,0.00001
3606.72,-0.00185
3593.22,-0.00252
3579.72,-0.00354
3566.21,0.00134
3552.71,-0.00282
3539.21,-0.00467
3525.71,-0.00144
3512.21,-0.00451
3498.71,-0.00459
3485.21,-0.00477
3471.71,-0.00562
3458.21,-0.00544
3444.7,-0.00472
3431.2,-0.00583
3417.7,-0.00563
3404.2,-0.00603
3390.7,-0.00581
3377.2,-0.00598
3363.7,-0.00547
3350.2,-0.00612
3336.7,-0.00536
3323.2,-0.00578
3309.69,-0.00528
3296.19,-0.00559
3282.69,-0.00543
3269.19,-0.00521
3255.69,-0.00511
3242.19,-0.00507
3228.69,-0.00498
3215.19,-0.00493
3201.69,-0.00463
3188.18,-0.00482
3174.68,-0.00456
3161.18,-0.00480
3147.68,-0.00451
3134.18,-0.00422
3120.68,-0.00393
3107.18,-0.00425
3093.68,-0.00413
3080.18,-0.00390
3066.67,-0.00372
3053.17,-0.00388
3039.67,-0.00392
3026.17,-0.00372
3012.67,-0.00349
2999.17,-0.00377
2985.67,-0.00379
2972.17,-0.00351
2958.67,-0.00335
2945.16,-0.00343
2931.66,-0.00307
2918.16,-0.00308
2904.66,-0.00322
2891.16,-0.00337
2877.66,-0.00344
2864.16,-0.00317
2850.66,-0.00287
2837.16,-0.00308
2823.66,-0.00320
2810.15,-0.00305
2796.65,-0.00300
2783.15,-0.00299
2769.65,-0.00290
2756.15,-0.00293
2742.65,-0.00288
2729.15,-0.00286
2715.65,-0.00285
2702.15,-0.00274
2688.64,-0.00267
2675.14,-0.00267
2661.64,-0.00262
2648.14,-0.00270
2634.64,-0.00279
2621.14,-0.00264
2607.64,-0.00273
2594.14,-0.00250
2580.64,-0.00239
2567.13,-0.00244
2553.63,-0.00241
2540.13,-0.00228
2526.63,-0.00231
2513.13,-0.00225
2499.63,-0.00216
2486.13,-0.00214
2472.63,-0.00201
2459.13,-0.00221
2445.62,-0.00213
2432.12,-0.00180
2418.62,-0.00193
2405.12,-0.00183
2391.62,-0.00176
2378.12,-0.00152
2364.62,-0.00736
2351.12,-0.00359
2337.62,-0.00689
2324.12,-0.00353
2310.61,-0.00095
2297.11,-0.00140
2283.61,-0.00166
2270.11,-0.00191
2256.61,-0.00170
2243.11,-0.00144
2229.61,-0.00153
2216.11,-0.00156
2202.61,-0.00157
2189.1,-0.00221
2175.6,-0.00245
2162.1,-0.00284
2148.6,-0.00146
2135.1,-0.00105
2121.6,-0.00181
2108.1,-0.00203
2094.6,-0.00150
2081.1,-0.00168
2067.59,-0.00091
2054.09,-0.00119
2040.59,-0.00052
2027.09,-0.00062
2013.59,-0.00050
2000.09,-0.00086
1986.59,-0.00014
1973.09,-0.00067
1959.59,-0.00039
1946.08,0.00057
1932.58,-0.00018
1919.08,0.00084
1905.58,0.00001
1892.08,0.00071
1878.58,-0.00019
1865.08,0.00101
1851.58,0.00006
1838.08,0.00072
1824.57,0.00163
1811.07,0.00166
1797.57,0.00277
1784.07,0.00150
1770.57,0.00384
1757.07,0.00251
1743.57,0.00438
1730.07,0.00294
1716.57,0.00769
1703.07,0.00561
1689.56,0.00317
1676.06,0.00244
1662.56,0.00115
1649.06,0.00425
1635.56,0.00259
1622.06,0.00149
1608.56,0.00021
1595.06,-0.00050
1581.56,-0.00081
1568.05,0.00162
1554.55,0.00513
1541.05,0.01133
1527.55,0.00573
1514.05,0.00590
1500.55,0.00400
1487.05,0.00372
1473.55,0.00561
1460.05,0.00261
1446.54,0.00117
1433.04,0.00205
1419.54,0.00333
1406.04,0.00068
1392.54,0.00124
1379.04,0.00064
1365.54,0.00057
1352.04,-0.00036
1338.54,0.00313
1325.03,-0.00049
1311.53,0.00047
1298.03,-0.00049
1284.53,-0.00034
1271.03,0.00022
1257.53,0.00029
1244.03,-0.00068
1230.53,-0.00066
1217.03,-0.00063
1203.53,-0.00056
1190.02,-0.00042
1176.52,-0.00029
1163.02,-0.00052
1149.52,-0.00065
1136.02,-0.00047
1122.52,-0.00062
1109.02,-0.00005
1095.52,0.00034
1082.02,0.00019
1068.51,-0.00001
1055.01,0.00001
1041.51,-0.00003
1028.01,0.00025
1014.51,0.00048
1001.01,-0.00021
987.508,-0.00055
974.007,-0.00046
960.506,-0.00029
947.005,-0.00076
933.503,-0.00041
920.002,-0.00058
906.501,-0.00058
893,-0.00014
879.499,-0.00027
865.998,-0.00025
852.497,0.00045
838.996,0.00046
825.495,0.00048
811.994,0.00079
798.493,0.00105
784.992,-0.00008
771.49,0.00067
757.989,-0.00010
744.488,0.00011
730.987,-0.00089
717.486,0.00005
703.985,0.00019
690.484,-0.00003
676.983,-0.00067
663.482,-0.00014
649.981,-0.00070
636.48,0.00053
622.979,-0.00083
609.477,-0.00501
599.834,0.00025