File: 01_Data/PC/HFM/PC_Density_Wet_R2.csv
,PC_WET_2
Sample Mass [g],258.3
Sample Volume [cm3],211.1
Sample Density [kg/m3],1223