File: 01_Data/PC/HFM/PC_Density_Wet_R1.csv
,PC_WET_1
Sample Mass [g],258.2
Sample Volume [cm3],212.9
Sample Density [kg/m3],1213