File: 01_Data/PC/HFM/PC_Density_Wet_R3.csv
,PC_WET_3
Sample Mass [g],271.1
Sample Volume [cm3],221.6
Sample Density [kg/m3],1224