File: 01_Data/PVC/MCC/PVC_MCC_30K_min_210920_R1.txt
Sample ID:	C:\MCC\PVC_MCC_30K_min_210920_R1.txt
Sample Weight (mg):	4.51
Heating Rate (C/s):	0.5
Combustor Temp (C):	900
N2 Flow Rate (cc/min):	80
O2 Flow Rate (cc/min):	20
Calibration File:	C:\MCC\MCC Cal\Coeff1 JN10440_30_210304.txt.txt
T Correction Coefficients:	0	1.024463	0
Time Shift (s):	14
*
Time (s)	Temperature (C)	N2 flow rate (cc/min)	O2 flow rate (cc/min)	Flow Rate (cc/min)	Oxygen (%)	HRR (W/g)	Heating rate (C/s)
0.000	107.299	79.995	19.995	100.111	20.303	0.066	-0.009
8.000	107.329	79.998	19.996	100.106	20.299	0.370	0.051
16.000	107.298	79.997	19.995	100.147	20.291	0.871	0.039
24.001	107.497	79.997	19.995	100.176	20.290	0.995	0.029
32.000	107.849	79.998	19.994	100.193	20.285	1.306	0.057
40.000	108.460	79.999	19.995	100.222	20.281	1.616	0.068
48.000	109.270	79.997	19.995	100.180	20.289	0.999	0.114
56.000	110.107	79.999	19.994	100.272	20.283	1.478	0.116
64.001	111.273	79.998	19.994	100.307	20.266	2.603	0.183
72.000	112.932	79.997	19.995	100.347	20.259	3.084	0.250
80.000	114.976	79.998	19.995	100.358	20.255	3.368	0.254
88.000	117.376	79.998	19.996	100.371	20.250	3.744	0.312
96.000	120.200	79.997	19.996	100.379	20.250	3.748	0.376
104.000	123.278	79.997	19.994	100.378	20.252	3.630	0.418
112.000	126.591	79.999	19.995	100.383	20.253	3.524	0.441
120.000	130.154	79.999	19.995	100.380	20.250	3.736	0.460
128.000	133.755	79.998	19.995	100.377	20.248	3.872	0.485
136.000	137.553	79.998	19.995	100.380	20.247	3.971	0.493
144.000	141.439	79.998	19.994	100.357	20.248	3.884	0.494
152.000	145.462	79.996	19.995	100.349	20.251	3.637	0.536
160.000	149.470	79.996	19.995	100.350	20.252	3.570	0.511
168.000	153.542	79.997	19.996	100.348	20.257	3.284	0.493
176.000	157.576	79.997	19.993	100.348	20.258	3.200	0.520
184.000	161.601	79.995	19.996	100.344	20.258	3.208	0.511
192.000	165.640	79.996	19.995	100.322	20.260	3.017	0.505
200.000	169.640	79.998	19.996	100.315	20.261	2.941	0.474
208.000	173.640	79.997	19.993	100.310	20.257	3.249	0.487
216.000	177.561	80.000	19.994	100.306	20.259	3.136	0.481
224.001	181.476	79.999	19.993	100.308	20.264	2.742	0.491
232.001	185.450	79.998	19.994	100.310	20.262	2.880	0.484
240.000	189.380	79.996	19.993	100.310	20.264	2.761	0.497
248.000	193.295	79.998	19.995	100.312	20.261	2.948	0.462
256.000	197.166	79.997	19.995	100.308	20.259	3.130	0.463
264.000	201.085	79.997	19.995	100.307	20.261	2.963	0.501
272.001	204.948	79.998	19.995	100.292	20.265	2.721	0.487
280.000	208.917	79.999	19.996	100.297	20.265	2.690	0.496
288.000	212.833	79.999	19.994	100.283	20.267	2.560	0.477
296.000	216.726	79.999	19.995	100.292	20.266	2.626	0.530
304.000	220.619	79.999	19.993	100.273	20.269	2.416	0.486
312.000	224.612	79.997	19.994	100.275	20.267	2.556	0.489
320.000	228.627	79.997	19.994	100.280	20.266	2.641	0.491
328.000	232.588	79.998	19.995	100.279	20.265	2.690	0.490
336.000	236.618	79.998	19.995	100.272	20.260	3.013	0.482
344.000	240.623	79.996	19.997	100.270	20.249	3.819	0.508
352.000	244.581	79.998	19.994	100.275	20.239	4.509	0.470
360.000	248.627	79.998	19.995	100.297	20.220	5.844	0.509
368.000	252.676	79.997	19.995	100.311	20.190	7.886	0.503
376.000	256.685	79.999	19.995	100.311	20.154	10.416	0.486
384.000	260.609	80.000	19.993	100.271	20.141	11.268	0.471
392.000	264.649	79.999	19.994	100.271	20.151	10.598	0.504
400.000	268.583	79.997	19.994	100.270	20.167	9.470	0.475
408.000	272.600	79.998	19.994	100.275	20.182	8.456	0.506
416.000	276.560	79.997	19.995	100.281	20.187	8.122	0.511
424.000	280.567	79.995	19.994	100.307	20.192	7.791	0.493
432.000	284.509	79.997	19.995	100.311	20.186	8.148	0.494
440.000	288.498	79.999	19.993	100.313	20.182	8.427	0.514
448.000	292.528	79.999	19.996	100.343	20.175	8.958	0.494
456.000	296.568	79.999	19.996	100.345	20.161	9.906	0.504
464.000	300.543	79.999	19.995	100.346	20.141	11.337	0.485
472.000	304.393	79.998	19.994	100.349	20.124	12.475	0.555
480.000	308.616	79.997	19.995	100.345	20.113	13.230	0.517
488.000	312.817	79.998	19.995	100.312	20.107	13.671	0.536
496.000	316.878	79.997	19.994	100.314	20.113	13.249	0.524
504.000	321.002	79.998	19.994	100.308	20.118	12.891	0.534
512.000	325.156	80.000	19.995	100.275	20.121	12.679	0.525
520.000	329.285	80.001	19.995	100.263	20.135	11.706	0.526
528.001	333.400	80.000	19.994	100.240	20.136	11.641	0.524
536.000	337.545	80.000	19.994	100.200	20.140	11.342	0.541
544.000	341.603	79.999	19.995	100.258	20.155	10.286	0.526
552.000	345.673	79.997	19.995	100.156	20.158	10.134	0.541
560.000	349.787	79.997	19.995	100.159	20.163	9.772	0.515
568.000	353.864	79.999	19.994	100.176	20.164	9.685	0.496
576.000	358.011	79.999	19.994	100.189	20.159	10.014	0.536
584.000	362.074	79.997	19.995	100.218	20.161	9.940	0.481
592.000	366.134	79.999	19.996	100.234	20.164	9.724	0.504
600.000	370.193	79.999	19.994	100.228	20.162	9.857	0.527
608.001	374.222	79.998	19.995	100.230	20.163	9.738	0.511
616.000	378.243	79.998	19.995	100.229	20.161	9.904	0.509
624.000	382.248	80.000	19.994	100.231	20.154	10.411	0.503
632.000	386.206	79.996	19.995	100.235	20.141	11.299	0.466
640.000	390.141	79.995	19.995	100.243	20.127	12.270	0.498
648.000	394.118	79.998	19.995	100.259	20.113	13.241	0.506
656.000	398.095	79.998	19.994	100.232	20.090	14.853	0.487
664.000	402.077	79.998	19.996	100.232	20.068	16.350	0.524
672.000	405.998	79.997	19.995	100.220	20.042	18.123	0.469
680.000	409.927	79.999	19.994	100.224	20.004	20.815	0.460
688.001	413.961	79.998	19.994	100.224	19.956	24.114	0.509
696.001	417.933	79.999	19.995	100.248	19.900	28.041	0.531
704.000	421.979	80.000	19.994	100.252	19.824	33.295	0.531
712.000	426.051	79.997	19.995	100.259	19.733	39.581	0.484
720.000	430.142	79.996	19.995	100.264	19.635	46.411	0.495
728.000	434.225	79.997	19.996	100.264	19.528	53.844	0.496
736.000	438.404	79.997	19.994	100.268	19.431	60.568	0.514
744.000	442.464	79.997	19.993	100.271	19.340	66.840	0.503
752.000	446.609	79.997	19.995	100.271	19.266	71.962	0.491
760.000	450.647	79.999	19.995	100.248	19.240	73.799	0.505
768.000	454.699	79.999	19.995	100.248	19.288	70.456	0.530
776.000	458.727	80.000	19.994	100.266	19.320	68.238	0.495
784.000	462.860	80.001	19.994	100.232	19.372	64.616	0.472
792.001	466.942	79.999	19.995	100.262	19.447	59.412	0.524
800.000	471.037	79.997	19.994	100.269	19.552	52.168	0.498
808.000	475.187	79.998	19.995	100.266	19.614	47.873	0.553
816.000	479.425	79.997	19.995	100.267	19.693	42.368	0.525
824.000	483.710	79.997	19.996	100.262	19.778	36.495	0.530
832.000	487.952	79.998	19.994	100.257	19.820	33.527	0.510
840.000	492.243	80.000	19.994	100.254	19.842	32.059	0.526
848.000	496.509	79.999	19.995	100.255	19.901	27.910	0.530
856.000	500.764	79.998	19.994	100.232	19.961	23.747	0.542
864.000	504.934	80.000	19.993	100.238	20.011	20.337	0.503
872.000	509.121	79.998	19.994	100.252	20.059	16.998	0.537
880.000	513.243	79.997	19.994	100.244	20.092	14.662	0.528
888.000	517.364	79.997	19.995	100.240	20.121	12.689	0.518
896.000	521.355	79.998	19.995	100.232	20.139	11.438	0.499
904.000	525.296	79.997	19.995	100.230	20.159	10.067	0.517
912.000	529.164	79.996	19.996	100.232	20.174	9.007	0.539
920.001	533.149	79.995	19.995	100.239	20.182	8.426	0.492
928.000	537.167	80.000	19.993	100.237	20.193	7.668	0.503
936.000	541.204	79.998	19.994	100.239	20.200	7.176	0.512
944.000	545.222	79.999	19.994	100.245	20.205	6.837	0.502
952.000	549.311	80.000	19.994	100.239	20.218	5.942	0.519
960.000	553.471	79.997	19.993	100.249	20.218	5.986	0.533
968.000	557.622	79.997	19.994	100.247	20.220	5.835	0.527
976.000	561.849	79.999	19.994	100.239	20.225	5.501	0.565
984.001	565.987	79.999	19.995	100.248	20.221	5.738	0.518
992.000	570.166	79.996	19.995	100.250	20.230	5.121	0.515
1000.000	574.326	79.997	19.995	100.244	20.235	4.754	0.518
1008.000	578.381	79.997	19.994	100.252	20.233	4.889	0.481
1016.001	582.419	79.998	19.994	100.244	20.239	4.527	0.515
1024.000	586.443	80.001	19.995	100.248	20.239	4.524	0.525
1032.000	590.510	80.001	19.994	100.255	20.239	4.522	0.479
1040.000	594.632	79.998	19.996	100.251	20.235	4.809	0.518
1048.000	598.710	79.998	19.994	100.252	20.233	4.909	0.504
1056.000	602.716	79.999	19.995	100.250	20.232	4.976	0.532
1064.000	606.751	79.997	19.996	100.256	20.236	4.723	0.505
1072.000	610.772	79.997	19.995	100.259	20.236	4.734	0.532
1080.001	614.820	79.998	19.993	100.270	20.236	4.739	0.514
1088.000	618.890	80.000	19.995	100.255	20.236	4.688	0.507
1096.001	622.939	79.997	19.995	100.245	20.233	4.913	0.489
1104.000	626.954	80.000	19.995	100.235	20.232	5.003	0.483
1112.000	631.008	79.999	19.993	100.258	20.232	4.968	0.506
1120.000	635.105	79.998	19.994	100.240	20.236	4.686	0.539
1128.000	639.132	79.998	19.995	100.253	20.230	5.095	0.519
1136.001	643.146	79.998	19.994	100.261	20.230	5.128	0.520
1144.001	647.073	79.998	19.993	100.262	20.226	5.398	0.492
1152.002	650.990	79.996	19.994	100.260	20.234	4.872	0.491
1160.000	654.997	79.999	19.997	100.262	20.231	5.029	0.527
1168.000	658.987	80.000	19.996	100.265	20.229	5.215	0.473
1176.000	663.054	79.999	19.995	100.265	20.222	5.695	0.499
1184.000	667.038	79.998	19.995	100.255	20.226	5.377	0.493
1192.000	671.138	79.999	19.996	100.262	20.231	5.065	0.533
1200.000	675.171	79.997	19.994	100.263	20.221	5.775	0.486
1208.000	679.267	79.998	19.993	100.261	20.222	5.685	0.522
1216.002	683.334	79.997	19.994	100.254	20.216	6.090	0.490
1224.000	687.381	79.999	19.995	100.262	20.218	5.964	0.522
1232.000	691.376	79.997	19.995	100.256	20.213	6.292	0.494
1240.001	695.385	79.999	19.994	100.252	20.214	6.245	0.525
1248.000	699.392	79.999	19.995	100.261	20.214	6.219	0.490
1256.000	703.392	79.997	19.995	100.266	20.215	6.152	0.521
1264.000	707.416	79.997	19.994	100.265	20.215	6.155	0.478
1272.000	711.400	80.000	19.996	100.269	20.216	6.124	0.476
1280.000	715.333	79.999	19.996	100.262	20.212	6.344	0.470
1288.000	719.339	79.997	19.995	100.266	20.210	6.482	0.491
1296.000	723.370	79.999	19.996	100.267	20.210	6.545	0.506
1304.001	727.465	79.999	19.996	100.268	20.208	6.626	0.524
1312.000	731.597	79.998	19.995	100.268	20.200	7.197	0.506
1320.001	735.762	79.999	19.994	100.272	20.203	6.997	0.518
1328.000	739.897	79.999	19.993	100.271	20.202	7.054	0.501
1334.501	743.319	79.998	19.995	100.271	20.204	6.959	0.516