File: 01_Data/PVC/MCC/PVC_MCC_30K_min_210920_R2.txt
Sample ID:	C:\MCC\PVC_MCC_30K_min_210920_R2.txt
Sample Weight (mg):	4.32
Heating Rate (C/s):	0.5
Combustor Temp (C):	900
N2 Flow Rate (cc/min):	80
O2 Flow Rate (cc/min):	20
Calibration File:	C:\MCC\MCC Cal\Coeff1 JN10440_30_210304.txt.txt
T Correction Coefficients:	0	1.024463	0
Time Shift (s):	14
*
Time (s)	Temperature (C)	N2 flow rate (cc/min)	O2 flow rate (cc/min)	Flow Rate (cc/min)	Oxygen (%)	HRR (W/g)	Heating rate (C/s)
0.000	108.164	80.002	19.995	100.159	20.073	-0.012	-0.028
8.000	108.147	80.003	19.994	100.152	20.072	0.037	-0.023
16.001	108.149	80.003	19.994	100.182	20.073	0.000	0.023
24.000	108.253	80.001	19.994	100.211	20.065	0.594	0.020
32.000	108.444	80.002	19.995	100.202	20.067	0.448	0.003
40.000	108.750	80.002	19.994	100.234	20.061	0.868	0.048
48.000	109.262	80.000	19.993	100.338	20.048	1.802	0.094
56.000	110.183	80.001	19.995	100.366	20.045	2.026	0.117
64.000	111.492	80.002	19.995	100.378	20.040	2.362	0.174
72.000	113.185	80.003	19.995	100.378	20.036	2.667	0.229
80.000	115.195	80.003	19.995	100.386	20.036	2.638	0.282
88.000	117.468	80.000	19.996	100.414	20.031	3.055	0.310
96.000	120.018	80.003	19.996	100.415	20.031	3.036	0.335
104.000	122.923	80.001	19.995	100.418	20.031	3.010	0.372
112.000	125.934	80.001	19.994	100.424	20.030	3.087	0.355
120.000	129.268	80.000	19.994	100.425	20.028	3.250	0.412
128.001	132.765	80.001	19.994	100.419	20.030	3.083	0.419
136.000	136.378	80.000	19.993	100.421	20.029	3.184	0.460
144.000	140.173	80.007	19.992	100.417	20.024	3.514	0.491
152.000	143.973	80.002	19.996	100.416	20.025	3.473	0.508
160.001	147.878	79.996	19.994	100.416	20.028	3.279	0.457
168.001	151.844	79.994	19.997	100.411	20.029	3.167	0.480
176.000	155.864	79.992	19.991	100.397	20.031	3.060	0.517
184.000	159.915	80.005	19.990	100.386	20.033	2.896	0.534
192.000	163.902	80.001	19.996	100.387	20.031	3.040	0.514
200.000	167.936	79.998	19.995	100.382	20.036	2.661	0.482
208.000	171.952	80.012	19.993	100.380	20.040	2.378	0.508
216.001	175.884	79.989	19.995	100.382	20.038	2.525	0.452
224.001	179.891	79.991	19.991	100.378	20.038	2.548	0.486
232.000	183.895	80.005	19.992	100.372	20.038	2.517	0.511
240.000	187.811	80.004	19.991	100.379	20.038	2.554	0.464
248.000	191.777	80.002	19.993	100.375	20.041	2.299	0.489
256.000	195.694	79.998	19.992	100.377	20.041	2.277	0.472
264.000	199.604	80.005	19.995	100.375	20.043	2.127	0.475
272.000	203.535	79.994	19.998	100.375	20.040	2.408	0.497
280.000	207.450	80.000	19.995	100.377	20.040	2.342	0.491
288.000	211.381	80.000	19.995	100.370	20.045	1.981	0.491
296.000	215.307	80.000	19.994	100.374	20.046	1.949	0.489
304.000	219.310	80.000	19.994	100.379	20.045	1.987	0.507
312.000	223.227	79.998	19.994	100.365	20.045	2.014	0.484
320.000	227.166	80.002	19.994	100.379	20.044	2.086	0.491
328.000	231.250	80.001	19.995	100.375	20.045	2.048	0.511
336.000	235.241	80.002	19.994	100.371	20.039	2.471	0.504
344.000	239.197	80.004	19.996	100.373	20.028	3.278	0.470
352.000	243.217	80.002	19.995	100.379	20.017	4.063	0.512
360.000	247.242	80.002	19.995	100.386	19.996	5.562	0.505
368.000	251.355	80.001	19.994	100.391	19.974	7.143	0.543
376.000	255.302	80.000	19.996	100.389	19.957	8.359	0.487
384.000	259.373	80.002	19.995	100.382	19.944	9.308	0.512
392.000	263.375	80.002	19.994	100.384	19.945	9.226	0.510
400.001	267.424	80.003	19.994	100.383	19.956	8.434	0.507
408.000	271.511	80.003	19.994	100.380	19.970	7.475	0.517
416.000	275.552	80.002	19.994	100.396	19.977	6.944	0.515
424.000	279.545	80.005	19.993	100.419	19.980	6.764	0.525
432.000	283.511	80.004	19.993	100.423	19.974	7.164	0.515
440.000	287.533	80.002	19.996	100.452	19.964	7.879	0.520
448.000	291.509	80.001	19.994	100.461	19.948	9.042	0.526
456.000	295.371	80.001	19.995	100.462	19.938	9.742	0.448
464.000	299.407	80.000	19.996	100.459	19.920	11.048	0.514
472.000	303.371	80.001	19.996	100.459	19.915	11.479	0.492
480.000	307.318	80.002	19.994	100.457	19.903	12.340	0.489
488.000	311.329	80.003	19.994	100.441	19.903	12.309	0.506
496.000	315.321	80.003	19.995	100.423	19.908	11.925	0.453
504.000	319.324	80.003	19.994	100.420	19.915	11.429	0.447
512.000	323.380	80.003	19.993	100.390	19.926	10.645	0.498
520.000	327.422	80.002	19.994	100.372	19.934	10.029	0.494
528.000	331.430	80.001	19.995	100.341	19.945	9.272	0.514
536.001	335.540	80.002	19.996	100.326	19.953	8.652	0.533
544.000	339.627	80.003	19.996	100.308	19.963	7.961	0.480
552.000	343.693	80.001	19.995	100.265	19.973	7.204	0.503
560.000	347.687	80.001	19.996	100.266	19.980	6.712	0.513
568.000	351.748	80.002	19.997	100.283	19.987	6.234	0.486
576.000	355.794	80.001	19.994	100.319	19.983	6.540	0.509
584.000	359.821	80.002	19.994	100.345	19.978	6.836	0.483
592.001	363.832	80.006	19.995	100.370	19.976	6.999	0.495
600.000	367.800	80.003	19.995	100.380	19.976	6.992	0.507
608.001	371.819	80.002	19.994	100.405	19.974	7.169	0.531
616.001	375.815	80.004	19.994	100.417	19.974	7.195	0.492
624.000	379.831	80.003	19.996	100.417	19.966	7.737	0.521
632.001	383.786	80.001	19.995	100.417	19.957	8.392	0.448
640.000	387.875	80.002	19.995	100.422	19.944	9.370	0.519
648.000	391.870	80.004	19.996	100.422	19.924	10.802	0.498
656.000	395.976	80.001	19.995	100.417	19.904	12.214	0.514
664.000	400.014	80.002	19.995	100.420	19.879	14.022	0.528
672.000	404.062	80.007	19.993	100.419	19.848	16.306	0.512
680.000	408.163	80.003	19.995	100.417	19.814	18.757	0.528
688.000	412.314	80.002	19.996	100.420	19.767	22.208	0.532
696.000	416.429	80.004	19.994	100.423	19.705	26.678	0.520
704.000	420.526	80.004	19.994	100.421	19.628	32.242	0.519
712.000	424.611	80.001	19.995	100.424	19.537	38.822	0.524
720.000	428.660	80.001	19.995	100.424	19.446	45.462	0.516
728.000	432.665	80.004	19.994	100.417	19.355	52.041	0.516
736.000	436.734	80.003	19.996	100.419	19.272	58.082	0.508
744.000	440.670	80.003	19.996	100.418	19.199	63.340	0.479
752.001	444.621	80.004	19.996	100.413	19.151	66.879	0.471
760.000	448.629	80.004	19.995	100.415	19.137	67.853	0.503
768.000	452.603	80.003	19.994	100.421	19.157	66.378	0.510
776.000	456.609	80.001	19.994	100.422	19.166	65.787	0.558
784.000	460.656	80.002	19.995	100.387	19.264	58.637	0.509
792.000	464.784	80.002	19.995	100.407	19.341	53.092	0.493
800.000	468.975	80.003	19.995	100.419	19.429	46.704	0.524
808.000	473.144	80.003	19.995	100.374	19.521	40.010	0.551
816.001	477.309	80.004	19.996	100.417	19.586	35.328	0.560
824.000	481.400	80.004	19.995	100.395	19.640	31.404	0.503
832.000	485.487	80.004	19.995	100.380	19.664	29.601	0.531
840.000	489.551	80.003	19.996	100.370	19.710	26.321	0.478
848.000	493.616	80.001	19.997	100.363	19.750	23.390	0.505
856.000	497.750	80.003	19.995	100.350	19.812	18.872	0.510
864.000	501.844	80.002	19.996	100.342	19.867	14.883	0.493
872.000	505.999	80.002	19.993	100.368	19.899	12.581	0.520
880.000	510.203	80.002	19.995	100.365	19.933	10.105	0.540
888.000	514.458	80.003	19.994	100.348	19.965	7.795	0.566
896.000	518.768	80.003	19.994	100.362	19.982	6.597	0.533
904.000	523.092	80.004	19.995	100.346	20.005	4.929	0.518
912.000	527.392	80.003	19.996	100.344	20.017	4.014	0.526
920.000	531.725	80.006	19.995	100.347	20.034	2.808	0.545
928.000	535.986	80.004	19.995	100.346	20.043	2.176	0.535
936.000	540.215	80.002	19.995	100.345	20.053	1.443	0.553
944.000	544.373	80.002	19.995	100.343	20.063	0.737	0.501
952.000	548.537	80.002	19.994	100.351	20.067	0.431	0.511
960.000	552.637	80.002	19.994	100.346	20.076	-0.219	0.477
968.000	556.786	80.004	19.995	100.346	20.081	-0.632	0.541
976.000	560.794	80.005	19.993	100.348	20.087	-1.024	0.492
984.000	564.820	80.003	19.994	100.342	20.086	-0.986	0.493
992.000	568.778	80.005	19.996	100.345	20.091	-1.330	0.499
1000.000	572.735	80.005	19.995	100.344	20.095	-1.603	0.516
1008.000	576.747	80.005	19.995	100.344	20.096	-1.662	0.486
1016.000	580.666	80.002	19.995	100.344	20.097	-1.787	0.505
1024.001	584.616	80.002	19.995	100.372	20.102	-2.115	0.500
1032.000	588.573	80.002	19.996	100.350	20.098	-1.850	0.467
1040.001	592.591	80.003	19.995	100.358	20.100	-2.000	0.496
1048.001	596.594	80.001	19.994	100.358	20.099	-1.915	0.472
1056.001	600.588	80.005	19.994	100.359	20.101	-2.048	0.506
1064.001	604.590	80.005	19.995	100.360	20.104	-2.230	0.517
1072.000	608.563	80.002	19.994	100.350	20.105	-2.334	0.533
1080.000	612.519	80.005	19.994	100.363	20.104	-2.269	0.508
1088.000	616.609	80.005	19.994	100.358	20.105	-2.321	0.484
1096.000	620.661	80.002	19.995	100.364	20.111	-2.764	0.509
1104.000	624.719	80.002	19.994	100.375	20.104	-2.242	0.507
1112.000	628.822	80.003	19.996	100.370	20.107	-2.487	0.519
1120.000	632.858	80.000	19.996	100.378	20.105	-2.366	0.499
1128.000	637.025	80.003	19.997	100.374	20.105	-2.343	0.506
1136.000	641.136	80.003	19.995	100.379	20.110	-2.708	0.485
1144.000	645.239	80.003	19.994	100.380	20.111	-2.764	0.488
1152.000	649.390	80.004	19.995	100.381	20.110	-2.726	0.487
1160.000	653.578	80.003	19.994	100.381	20.111	-2.766	0.549
1168.001	657.642	80.006	19.993	100.381	20.110	-2.710	0.514
1176.000	661.665	80.004	19.994	100.379	20.111	-2.750	0.520
1184.000	665.696	80.004	19.995	100.379	20.111	-2.801	0.499
1192.000	669.749	80.002	19.995	100.378	20.116	-3.108	0.511
1200.001	673.809	80.005	19.994	100.378	20.114	-3.003	0.531
1208.000	677.837	80.002	19.996	100.379	20.114	-2.979	0.490
1216.000	681.894	80.001	19.996	100.379	20.116	-3.110	0.514
1224.001	685.911	80.005	19.994	100.381	20.113	-2.884	0.527
1232.000	689.859	80.003	19.994	100.384	20.116	-3.137	0.511
1240.000	693.833	80.008	19.994	100.376	20.113	-2.906	0.503
1248.000	697.841	80.007	19.994	100.385	20.118	-3.246	0.498
1256.001	701.839	80.002	19.995	100.371	20.114	-2.955	0.504
1264.000	705.901	80.004	19.993	100.381	20.114	-2.985	0.490
1272.000	709.915	80.002	19.995	100.377	20.115	-3.027	0.513
1280.000	714.005	80.002	19.996	100.379	20.115	-3.040	0.524
1288.001	718.103	80.001	19.995	100.381	20.114	-3.013	0.546
1296.000	722.118	80.002	19.995	100.385	20.111	-2.756	0.489
1304.000	726.174	80.004	19.994	100.382	20.112	-2.845	0.534
1312.001	730.209	80.003	19.995	100.376	20.111	-2.746	0.525
1320.001	734.290	80.006	19.995	100.377	20.112	-2.843	0.504
1328.000	738.373	80.006	19.994	100.378	20.111	-2.775	0.489
1336.001	742.426	80.004	19.994	100.378	20.111	-2.805	0.516
1338.000	743.430	80.003	19.994	100.378	20.111	-2.764	0.517