File: 01_Data/PE_Foam_Pipe_Insulation/HFM/PE_Foam_Pipe_Insulation_Density_Wet_R2.csv
,PE_Foam_Pipe_Insulation_WET_2
Sample Mass [g],20.2
Sample Volume [cm3],570.7
Sample Density [kg/m3],35