File: 01_Data/PE_Foam_Pipe_Insulation/HFM/PE_Foam_Pipe_Insulation_Density_Wet_R3.csv
,PE_Foam_Pipe_Insulation_WET_3
Sample Mass [g],20.0
Sample Volume [cm3],563.3
Sample Density [kg/m3],36