File: 01_Data/Cotton_Sheet/MCC/Cotton_Sheet_MCC_30K_min_220107_R1.txt
Sample ID:	C:\MCC\MCC Cal\Test\Cotton_Sheets_MCC_30K_min_220107_R1.txt
Sample Weight (mg):	4.99
Heating Rate (C/s):	0.5
Combustor Temp (C):	900
N2 Flow Rate (cc/min):	80
O2 Flow Rate (cc/min):	20
Calibration File:	C:\MCC\MCC Cal\Coeff1 JN10440_30_210304.txt.txt
T Correction Coefficients:	0	1.024463	0
Time Shift (s):	14
*
Time (s)	Temperature (C)	N2 flow rate (cc/min)	O2 flow rate (cc/min)	Flow Rate (cc/min)	Oxygen (%)	HRR (W/g)	Heating rate (C/s)
-0.001	110.551	80.006	19.993	104.150	20.024	0.187	0.012
8.001	110.555	80.006	19.994	104.106	20.030	-0.243	0.016
15.999	110.534	80.005	19.994	104.127	20.026	0.059	-0.007
23.999	110.762	80.006	19.993	104.245	20.008	1.201	0.036
31.999	111.367	80.007	19.994	104.315	19.998	1.834	0.091
39.999	112.464	80.007	19.993	104.301	19.992	2.253	0.156
48.000	114.008	80.008	19.994	104.326	19.990	2.402	0.209
55.999	115.809	80.006	19.993	104.337	19.988	2.496	0.253
63.999	118.013	80.007	19.994	104.353	19.993	2.178	0.290
71.999	120.377	80.006	19.994	104.338	19.991	2.347	0.299
80.001	123.042	80.005	19.994	104.364	19.983	2.865	0.334
88.000	125.908	80.005	19.995	104.372	19.980	3.018	0.405
95.999	128.968	80.006	19.992	104.379	19.980	3.053	0.428
103.999	132.151	80.007	19.995	104.383	19.981	2.978	0.384
111.999	135.646	80.008	19.994	104.377	19.982	2.919	0.435
119.999	139.280	80.006	19.993	104.397	19.982	2.908	0.445
127.999	142.976	80.009	19.993	104.392	19.980	3.009	0.478
136.000	146.781	80.007	19.992	104.373	19.983	2.828	0.490
144.000	150.667	80.006	19.995	104.374	19.983	2.837	0.510
152.000	154.561	80.006	19.993	104.376	19.981	2.972	0.511
160.000	158.466	80.005	19.993	104.370	19.985	2.717	0.519
168.000	162.442	80.005	19.993	104.362	19.981	2.996	0.522
176.000	166.441	80.004	19.995	104.374	19.982	2.890	0.518
184.000	170.413	80.005	19.993	104.370	19.986	2.623	0.493
192.000	174.446	80.007	19.993	104.349	19.986	2.668	0.514
200.000	178.464	80.006	19.994	104.342	19.983	2.863	0.519
208.000	182.509	80.007	19.994	104.364	19.986	2.647	0.511
216.000	186.574	80.007	19.993	104.333	19.983	2.856	0.532
224.000	190.583	80.006	19.995	104.332	19.986	2.633	0.493
232.000	194.617	80.005	19.994	104.324	19.985	2.682	0.534
240.000	198.628	80.006	19.994	104.314	19.987	2.587	0.529
248.000	202.645	80.008	19.991	104.319	19.983	2.815	0.520
256.000	206.607	80.005	19.991	104.331	19.986	2.674	0.504
264.000	210.576	80.007	19.993	104.397	19.987	2.602	0.501
272.000	214.576	80.008	19.993	104.324	19.986	2.621	0.509
280.000	218.485	80.007	19.995	104.320	19.977	3.205	0.505
288.000	222.400	80.007	19.997	104.331	19.984	2.757	0.491
296.000	226.363	80.007	19.990	104.308	19.983	2.861	0.481
304.000	230.381	80.008	19.996	104.312	19.984	2.774	0.476
312.000	234.331	80.005	19.991	104.295	19.983	2.862	0.497
320.000	238.282	80.005	19.991	104.331	19.985	2.677	0.502
328.000	242.266	80.006	19.994	104.297	19.981	2.981	0.546
336.000	246.200	80.006	19.994	104.319	19.987	2.552	0.501
344.000	250.267	80.005	19.995	104.300	19.985	2.704	0.517
352.000	254.304	80.007	19.996	104.303	19.983	2.848	0.502
360.000	258.307	80.007	19.994	104.300	19.986	2.659	0.457
368.000	262.328	80.007	19.994	104.334	19.982	2.928	0.510
376.000	266.331	80.007	19.992	104.303	19.981	2.974	0.461
384.000	270.383	80.008	19.993	104.305	19.978	3.175	0.498
392.000	274.455	80.006	19.992	104.300	19.966	3.923	0.494
400.000	278.445	80.006	19.993	104.296	19.957	4.545	0.458
408.000	282.443	80.007	19.994	104.312	19.952	4.863	0.507
416.000	286.411	80.007	19.993	104.314	19.934	6.018	0.488
424.000	290.383	80.005	19.994	104.332	19.919	6.997	0.476
432.000	294.406	80.006	19.993	104.342	19.895	8.606	0.485
440.000	298.420	80.007	19.994	104.359	19.871	10.168	0.504
448.000	302.424	80.006	19.995	104.373	19.842	12.069	0.523
456.000	306.395	80.007	19.996	104.384	19.811	14.100	0.519
464.000	310.439	80.008	19.995	104.382	19.769	16.820	0.507
472.000	314.528	80.006	19.994	104.407	19.723	19.804	0.555
480.000	318.531	80.006	19.993	104.450	19.670	23.308	0.513
488.000	322.503	80.006	19.992	104.463	19.599	27.947	0.492
496.000	326.481	80.005	19.992	104.511	19.510	33.772	0.503
504.000	330.477	80.006	19.994	104.547	19.405	40.660	0.477
512.000	334.475	80.006	19.993	104.604	19.273	49.345	0.486
520.000	338.523	80.007	19.993	104.670	19.121	59.313	0.517
528.000	342.502	80.006	19.994	104.764	18.947	70.802	0.518
536.000	346.477	80.006	19.995	104.818	18.751	83.637	0.476
544.000	350.489	80.008	19.993	104.859	18.537	97.703	0.526
552.000	354.475	80.007	19.993	104.955	18.332	111.337	0.497
560.000	358.468	80.005	19.994	104.981	18.147	123.449	0.482
568.000	362.457	80.005	19.993	104.997	18.008	132.431	0.510
576.000	366.443	80.006	19.994	105.009	17.935	137.117	0.490
584.000	370.536	80.006	19.992	104.919	17.982	133.847	0.500
592.000	374.633	80.006	19.993	104.770	18.202	119.234	0.538
600.000	378.789	80.008	19.993	104.586	18.581	94.322	0.560
608.000	382.903	80.009	19.993	104.424	19.027	65.195	0.524
616.000	387.084	80.008	19.994	104.329	19.417	39.733	0.543
624.000	391.225	80.007	19.995	104.255	19.696	21.550	0.530
632.000	395.388	80.009	19.993	104.222	19.864	10.598	0.516
640.000	399.434	80.007	19.994	104.228	19.942	5.537	0.506
648.000	403.506	80.006	19.994	104.243	19.968	3.837	0.499
656.000	407.443	80.006	19.994	104.241	19.976	3.265	0.459
664.000	411.440	80.007	19.993	104.254	19.979	3.110	0.498
672.000	415.338	80.006	19.992	104.256	19.981	2.948	0.499
680.000	419.236	80.009	19.993	104.249	19.979	3.110	0.494
688.000	423.204	80.007	19.993	104.252	19.980	3.066	0.495
696.000	427.115	80.009	19.993	104.251	19.979	3.082	0.473
704.000	431.125	80.008	19.993	104.258	19.981	2.944	0.521
712.000	435.132	80.009	19.994	104.258	19.986	2.631	0.484
720.000	439.184	80.007	19.994	104.252	19.987	2.565	0.474
728.000	443.336	80.006	19.994	104.237	19.989	2.444	0.497
736.000	447.473	80.008	19.994	104.254	19.992	2.247	0.507
744.000	451.606	80.006	19.994	104.254	19.995	2.038	0.526
752.000	455.780	80.004	19.994	104.232	19.994	2.126	0.537
760.000	459.912	80.006	19.993	104.246	19.996	2.017	0.538
768.000	464.014	80.008	19.993	104.248	19.991	2.324	0.504
776.000	468.140	80.007	19.993	104.234	20.002	1.586	0.531
784.000	471.808	80.006	19.993	104.228	20.002	1.631	0.085
792.000	476.419	80.010	19.992	104.230	20.005	1.414	0.505
800.000	480.515	80.009	19.993	104.223	20.007	1.259	0.546
808.000	484.457	80.006	19.994	104.226	20.004	1.495	0.442
816.000	488.454	80.006	19.994	104.217	20.007	1.297	0.539
824.000	492.396	80.007	19.994	104.253	20.010	1.093	0.489
832.000	496.428	80.005	19.993	104.246	20.008	1.218	0.520
840.000	500.335	80.004	19.995	104.234	20.008	1.214	0.485
848.000	504.250	80.006	19.996	104.221	20.013	0.880	0.474
856.000	508.215	80.007	19.993	104.217	20.017	0.647	0.493
864.000	512.039	80.007	19.993	104.247	20.010	1.071	0.475
872.000	515.914	80.008	19.995	104.228	20.018	0.582	0.481
880.000	519.727	80.009	19.994	104.244	20.014	0.827	0.472
888.000	523.612	80.006	19.991	104.218	20.020	0.439	0.464
896.000	527.437	80.005	19.993	104.222	20.018	0.559	0.474
904.000	531.406	80.006	19.993	104.217	20.014	0.795	0.482
912.000	535.330	80.006	19.994	104.229	20.017	0.645	0.498
920.000	539.252	80.007	19.994	104.219	20.022	0.327	0.491
928.000	543.155	80.006	19.993	104.216	20.021	0.330	0.493
936.000	547.006	80.008	19.994	104.212	20.020	0.411	0.461
944.000	550.925	80.008	19.995	104.211	20.021	0.338	0.501
952.000	554.980	80.008	19.993	104.224	20.024	0.170	0.521
960.000	559.037	80.010	19.992	104.228	20.023	0.241	0.494
968.000	563.206	80.006	19.993	104.238	20.020	0.445	0.528
976.000	567.398	80.006	19.994	104.230	20.018	0.525	0.520
984.000	571.655	80.007	19.994	104.220	20.021	0.339	0.531
992.000	575.951	80.006	19.993	104.219	20.021	0.379	0.493
1000.000	580.177	80.005	19.995	104.216	20.021	0.377	0.524
1008.000	584.368	80.006	19.993	104.218	20.022	0.289	0.523
1016.000	588.537	80.007	19.994	104.218	20.025	0.091	0.476
1024.000	592.748	80.005	19.993	104.238	20.022	0.288	0.515
1032.000	596.930	80.007	19.994	104.219	20.025	0.132	0.510
1040.000	601.080	80.008	19.993	104.218	20.026	0.050	0.507
1047.999	605.189	80.007	19.993	104.208	20.022	0.325	0.530
1055.999	609.262	80.005	19.994	104.218	20.027	0.000	0.495
1063.999	613.285	80.005	19.995	104.218	20.029	-0.186	0.518
1071.999	617.231	80.007	19.993	104.216	20.028	-0.070	0.468
1079.999	621.084	80.005	19.992	104.216	20.029	-0.163	0.467
1087.999	624.922	80.005	19.994	104.215	20.024	0.188	0.447
1095.999	628.823	80.006	19.994	104.204	20.028	-0.109	0.482
1103.999	632.758	80.006	19.994	104.221	20.026	0.064	0.478
1111.999	636.926	80.005	19.992	104.220	20.034	-0.509	0.538
1119.999	641.102	80.008	19.994	104.218	20.030	-0.250	0.515
1127.999	645.477	80.007	19.993	104.206	20.030	-0.218	0.571
1135.999	649.616	80.006	19.993	104.213	20.037	-0.711	0.530
1143.999	653.688	80.007	19.994	104.212	20.036	-0.623	0.520
1151.999	657.701	80.006	19.994	104.215	20.033	-0.407	0.487
1160.000	661.689	80.006	19.994	104.218	20.032	-0.327	0.493
1167.999	665.745	80.006	19.993	104.225	20.031	-0.309	0.541
1176.000	669.760	80.008	19.993	104.220	20.033	-0.443	0.493
1183.999	673.854	80.007	19.994	104.216	20.035	-0.538	0.516
1191.999	677.983	80.006	19.994	104.206	20.032	-0.348	0.493
1199.999	682.115	80.007	19.994	104.206	20.032	-0.337	0.526
1207.999	686.160	80.009	19.993	104.213	20.037	-0.671	0.497
1215.999	690.394	80.005	19.994	104.214	20.039	-0.830	0.555
1223.999	694.532	80.005	19.993	104.192	20.032	-0.388	0.540
1231.999	698.581	80.008	19.993	104.219	20.040	-0.896	0.500
1239.999	702.521	80.006	19.992	104.202	20.036	-0.639	0.480
1247.999	706.335	80.006	19.993	104.201	20.041	-0.930	0.467
1255.999	710.074	80.006	19.992	104.219	20.036	-0.605	0.481
1263.999	713.827	80.011	19.994	104.185	20.039	-0.798	0.457
1271.999	717.675	80.006	19.993	104.201	20.038	-0.757	0.481
1279.999	721.631	80.007	19.994	104.216	20.039	-0.816	0.506
1287.999	725.925	80.011	19.993	104.211	20.035	-0.530	0.572
1296.000	730.441	80.005	19.992	104.217	20.029	-0.159	0.581
1303.999	735.213	80.006	19.995	104.229	20.033	-0.448	0.607
1311.999	740.127	80.007	19.995	104.236	20.036	-0.611	0.637
1315.499	742.286	80.007	19.994	104.231	20.037	-0.668	0.612