File: 01_Data/Cotton_Sheet/MCC/Cotton_Sheet_MCC_30K_min_220107_R2.txt
Sample ID:	C:\MCC\MCC Cal\Test\Cotton_Sheets_MCC_30K_min_220107_R2.txt
Sample Weight (mg):	4.97
Heating Rate (C/s):	0.5
Combustor Temp (C):	900
N2 Flow Rate (cc/min):	80
O2 Flow Rate (cc/min):	20
Calibration File:	C:\MCC\MCC Cal\Coeff1 JN10440_30_210304.txt.txt
T Correction Coefficients:	0	1.024463	0
Time Shift (s):	14
*
Time (s)	Temperature (C)	N2 flow rate (cc/min)	O2 flow rate (cc/min)	Flow Rate (cc/min)	Oxygen (%)	HRR (W/g)	Heating rate (C/s)
0.000	110.953	80.004	19.995	104.081	20.243	0.120	-0.142
8.000	110.966	80.004	19.993	104.068	20.243	0.106	0.046
16.000	110.912	80.003	19.993	104.065	20.243	0.167	-0.035
24.000	110.941	80.003	19.993	104.063	20.241	0.295	-0.035
32.000	111.011	80.004	19.993	104.065	20.238	0.448	0.037
40.000	111.027	80.004	19.994	104.102	20.237	0.530	0.052
48.000	110.996	80.003	19.993	104.100	20.230	0.957	-0.004
56.000	111.205	80.006	19.995	104.178	20.222	1.530	0.039
64.000	111.682	80.003	19.992	104.221	20.211	2.249	0.122
72.000	112.549	80.003	19.994	104.244	20.202	2.808	0.134
80.000	113.804	80.004	19.993	104.268	20.195	3.273	0.150
88.001	115.429	80.003	19.992	104.307	20.192	3.492	0.188
96.000	117.426	80.003	19.993	104.305	20.189	3.681	0.249
104.001	119.675	80.003	19.993	104.304	20.190	3.580	0.301
112.000	122.116	80.005	19.992	104.298	20.188	3.745	0.288
120.001	124.821	80.004	19.995	104.306	20.188	3.710	0.361
128.000	127.693	80.004	19.993	104.302	20.182	4.104	0.382
136.000	130.616	80.004	19.993	104.311	20.183	4.077	0.423
144.000	133.795	80.005	19.993	104.295	20.176	4.546	0.411
152.000	137.118	80.002	19.992	104.344	20.172	4.763	0.438
160.000	140.535	80.003	19.993	104.347	20.175	4.613	0.422
168.000	144.170	80.002	19.993	104.352	20.176	4.492	0.461
176.000	147.859	80.002	19.993	104.318	20.173	4.707	0.433
184.000	151.660	80.002	19.992	104.310	20.170	4.926	0.488
192.000	155.484	80.004	19.994	104.342	20.173	4.735	0.520
200.000	159.373	80.006	19.994	104.340	20.178	4.400	0.479
208.000	163.347	80.004	19.993	104.335	20.181	4.216	0.492
216.000	167.381	80.005	19.993	104.328	20.175	4.581	0.503
224.000	171.375	80.007	19.995	104.325	20.174	4.684	0.495
232.000	175.413	80.003	19.994	104.316	20.172	4.760	0.470
240.000	179.474	80.004	19.993	104.302	20.176	4.524	0.476
248.000	183.508	80.003	19.992	104.298	20.177	4.445	0.501
256.000	187.577	80.003	19.993	104.310	20.174	4.669	0.523
264.000	191.526	80.003	19.994	104.289	20.177	4.430	0.480
272.000	195.561	80.005	19.994	104.289	20.175	4.592	0.490
280.001	199.543	80.006	19.993	104.297	20.173	4.730	0.493
288.000	203.535	80.005	19.994	104.297	20.174	4.658	0.500
296.000	207.471	80.005	19.994	104.299	20.172	4.818	0.496
304.000	211.446	80.007	19.993	104.296	20.171	4.831	0.484
312.000	215.429	80.004	19.993	104.298	20.168	5.038	0.484
320.000	219.391	80.003	19.994	104.282	20.167	5.081	0.517
328.000	223.378	80.005	19.993	104.281	20.167	5.108	0.504
336.001	227.385	80.004	19.993	104.276	20.164	5.285	0.491
344.000	231.396	80.004	19.994	104.283	20.170	4.914	0.488
352.000	235.421	80.004	19.992	104.286	20.171	4.835	0.500
360.000	239.377	80.006	19.993	104.274	20.165	5.238	0.496
368.000	243.391	80.005	19.993	104.280	20.162	5.432	0.502
376.000	247.337	80.005	19.994	104.291	20.158	5.669	0.481
384.000	251.383	80.006	19.993	104.265	20.158	5.689	0.509
392.000	255.407	80.005	19.993	104.279	20.157	5.788	0.530
400.000	259.444	80.003	19.995	104.265	20.156	5.851	0.512
408.000	263.360	80.004	19.993	104.268	20.151	6.184	0.494
416.000	267.393	80.003	19.994	104.280	20.148	6.359	0.509
424.000	271.457	80.004	19.992	104.268	20.145	6.578	0.557
432.000	275.454	80.004	19.993	104.278	20.140	6.872	0.495
440.000	279.491	80.005	19.994	104.274	20.128	7.635	0.510
448.000	283.508	80.005	19.993	104.274	20.119	8.258	0.501
456.000	287.500	80.005	19.994	104.296	20.101	9.450	0.511
464.000	291.496	80.007	19.992	104.291	20.101	9.403	0.519
472.000	295.545	80.005	19.993	104.292	20.068	11.594	0.498
480.000	299.559	80.002	19.994	104.304	20.045	13.080	0.509
488.000	303.598	80.003	19.993	104.339	20.023	14.571	0.483
496.000	307.671	80.004	19.994	104.338	19.994	16.440	0.494
504.000	311.735	80.001	19.995	104.336	19.955	19.018	0.517
512.000	315.789	80.001	19.994	104.375	19.912	21.805	0.496
520.000	319.768	80.005	19.992	104.382	19.853	25.713	0.488
528.000	323.752	80.005	19.993	104.420	19.779	30.582	0.508
536.000	327.785	80.006	19.993	104.451	19.691	36.389	0.498
544.000	331.810	80.004	19.993	104.521	19.581	43.612	0.505
552.000	335.855	80.006	19.992	104.564	19.448	52.369	0.515
560.000	339.862	80.004	19.993	104.618	19.289	62.876	0.504
568.000	343.877	80.004	19.994	104.703	19.107	74.864	0.498
576.000	347.873	80.005	19.993	104.767	18.910	87.912	0.522
584.000	351.925	80.005	19.993	104.860	18.688	102.547	0.527
592.000	355.985	80.003	19.994	104.911	18.468	117.081	0.484
600.000	359.980	80.006	19.994	104.939	18.271	130.103	0.470
608.000	363.904	80.006	19.994	104.952	18.130	139.372	0.450
616.001	367.890	80.006	19.993	104.958	18.065	143.529	0.499
624.000	371.890	80.006	19.993	104.885	18.106	140.605	0.492
632.000	375.986	80.006	19.993	104.748	18.295	127.940	0.515
640.001	380.126	80.004	19.994	104.566	18.657	104.028	0.531
648.000	384.240	80.003	19.993	104.399	19.101	74.898	0.517
656.000	388.372	80.005	19.994	104.289	19.505	48.420	0.534
664.000	392.549	80.005	19.994	104.216	19.812	28.324	0.511
672.000	396.698	80.004	19.994	104.204	19.997	16.221	0.486
680.000	400.746	80.005	19.993	104.189	20.083	10.630	0.490
688.000	404.812	80.004	19.994	104.215	20.110	8.841	0.516
696.000	408.807	80.004	19.994	104.216	20.120	8.162	0.500
704.000	412.730	80.006	19.993	104.200	20.122	8.051	0.483
712.000	416.646	80.008	19.992	104.219	20.123	8.007	0.504
720.000	420.529	80.004	19.994	104.215	20.122	8.067	0.456
728.000	424.523	80.005	19.994	104.207	20.124	7.919	0.499
736.000	428.484	80.005	19.993	104.221	20.122	8.050	0.471
744.000	432.538	80.004	19.992	104.221	20.124	7.944	0.500
752.000	436.612	80.001	19.994	104.221	20.117	8.354	0.508
760.000	440.702	80.005	19.994	104.220	20.116	8.431	0.518
768.000	444.757	80.006	19.994	104.211	20.119	8.226	0.515
776.000	448.823	80.006	19.994	104.217	20.121	8.150	0.529
784.000	452.897	80.006	19.993	104.219	20.120	8.179	0.507
792.000	456.966	80.006	19.992	104.218	20.122	8.060	0.506
800.000	461.111	80.007	19.989	104.214	20.121	8.121	0.512
808.000	465.186	80.005	19.993	104.217	20.117	8.381	0.500
816.000	469.295	80.003	19.993	104.219	20.120	8.215	0.496
824.000	473.389	80.002	19.995	104.218	20.121	8.128	0.528
832.000	477.519	80.005	19.994	104.194	20.119	8.246	0.493
840.000	481.621	80.002	19.995	104.214	20.115	8.520	0.512
848.000	485.680	80.004	19.994	104.201	20.122	8.069	0.496
856.000	489.776	80.007	19.993	104.214	20.121	8.112	0.518
864.000	493.963	80.007	19.993	104.195	20.121	8.119	0.532
872.000	498.072	80.005	19.993	104.203	20.121	8.099	0.509
880.000	502.271	80.004	19.995	104.197	20.121	8.112	0.545
888.000	506.313	80.004	19.993	104.196	20.122	8.068	0.538
896.000	510.372	80.005	19.995	104.215	20.123	8.013	0.500
904.000	514.418	80.004	19.994	104.216	20.122	8.047	0.501
912.000	518.581	80.005	19.992	104.205	20.119	8.264	0.498
920.000	522.772	80.002	19.994	104.213	20.116	8.440	0.502
928.000	526.868	80.004	19.993	104.199	20.120	8.165	0.469
936.000	530.937	80.004	19.993	104.204	20.122	8.020	0.506
944.000	535.030	80.003	19.994	104.185	20.118	8.335	0.491
952.000	538.987	80.006	19.992	104.200	20.117	8.376	0.531
960.000	542.979	80.007	19.993	104.191	20.113	8.639	0.509
968.000	547.021	80.004	19.994	104.208	20.116	8.451	0.525
976.000	551.054	80.004	19.994	104.200	20.114	8.589	0.493
984.000	555.122	80.006	19.995	104.208	20.115	8.510	0.485
992.000	559.224	80.006	19.992	104.199	20.111	8.789	0.483
1000.000	563.354	80.005	19.994	104.204	20.116	8.459	0.527
1008.000	567.504	80.004	19.993	104.208	20.110	8.820	0.539
1016.000	571.715	80.007	19.992	104.199	20.108	8.939	0.501
1024.001	576.023	80.005	19.993	104.189	20.108	8.956	0.517
1032.000	580.286	80.006	19.994	104.196	20.111	8.787	0.513
1040.000	584.596	80.007	19.996	104.194	20.109	8.891	0.542
1048.000	588.741	80.003	19.994	104.211	20.109	8.891	0.547
1056.000	592.869	79.999	19.994	104.178	20.108	8.946	0.479
1064.000	597.024	80.003	19.994	104.213	20.104	9.214	0.533
1072.000	601.225	80.005	19.993	104.180	20.108	8.999	0.536
1080.000	605.107	80.003	19.993	104.190	20.107	9.045	0.555
1088.000	609.249	80.004	19.993	104.194	20.106	9.096	0.475
1096.000	613.244	80.007	19.994	104.181	20.101	9.434	0.440
1104.000	617.276	80.004	19.995	104.179	20.103	9.305	0.522
1112.001	621.208	80.006	19.992	104.203	20.105	9.140	0.493
1120.000	625.150	80.011	19.992	104.186	20.104	9.231	0.512
1128.000	629.103	79.998	19.995	104.176	20.102	9.346	0.483
1136.000	633.139	80.008	19.992	104.183	20.102	9.342	0.508
1144.000	637.152	79.998	19.994	104.180	20.101	9.413	0.502
1152.000	641.203	80.003	19.995	104.179	20.100	9.465	0.477
1160.001	645.219	80.008	19.994	104.207	20.099	9.540	0.493
1168.001	649.199	80.012	19.992	104.190	20.095	9.846	0.467
1176.000	653.228	80.012	19.993	104.213	20.098	9.595	0.508
1184.000	657.219	80.001	19.994	104.178	20.097	9.675	0.492
1192.000	661.218	79.998	19.994	104.167	20.092	10.011	0.470
1200.001	665.186	80.018	19.992	104.170	20.098	9.621	0.496
1208.001	669.130	80.005	19.993	104.221	20.099	9.566	0.509
1216.000	673.142	80.011	19.993	104.195	20.093	9.920	0.510
1224.000	677.207	80.001	19.996	104.183	20.096	9.753	0.537
1232.000	681.391	79.996	19.993	104.175	20.095	9.837	0.968
1240.000	685.531	80.007	19.994	104.191	20.097	9.701	0.526
1248.000	689.871	80.007	19.994	104.190	20.092	10.026	0.542
1256.000	694.072	80.009	19.993	104.184	20.091	10.106	0.548
1264.001	698.338	80.004	19.993	104.179	20.087	10.337	0.523
1272.001	702.505	80.005	19.993	104.182	20.088	10.307	0.530
1280.000	706.626	80.009	19.993	104.196	20.092	9.986	0.533
1288.000	710.598	80.003	19.992	104.183	20.089	10.186	0.509
1296.000	714.566	79.993	19.994	104.189	20.086	10.413	0.513
1304.000	718.604	80.007	19.993	104.176	20.087	10.323	0.498
1312.001	722.592	80.008	19.993	104.176	20.087	10.364	0.522
1320.000	726.562	80.006	19.993	104.187	20.085	10.473	0.507
1328.000	730.550	80.001	19.994	104.202	20.087	10.349	0.482
1336.000	734.548	80.006	19.993	104.196	20.079	10.888	0.498
1344.000	738.544	80.006	19.994	104.199	20.079	10.840	0.502
1352.000	742.522	80.006	19.993	104.181	20.078	10.920	0.493
1354.500	743.768	80.007	19.992	104.179	20.079	10.849	0.510