File: 01_Data/Nylon_Carpet_High_Pile/MCC/Nylon_Carpet_High_Pile_MCC_30K_min_211028_O3.txt
Sample ID:	C:\MCC\MCC Cal\Test\Nylon_Carpet_HighPile_MCC_30K_min_211028_R3.txt
Sample Weight (mg):	4.37
Heating Rate (C/s):	0.5
Combustor Temp (C):	900
N2 Flow Rate (cc/min):	80
O2 Flow Rate (cc/min):	20
Calibration File:	C:\MCC\MCC Cal\Coeff1 JN10440_30_210304.txt.txt
T Correction Coefficients:	0	1.024463	0
Time Shift (s):	14
*
Time (s)	Temperature (C)	N2 flow rate (cc/min)	O2 flow rate (cc/min)	Flow Rate (cc/min)	Oxygen (%)	HRR (W/g)	Heating rate (C/s)
0.000	107.488	79.997	19.997	102.928	20.061	-0.010	-0.005
8.000	107.439	79.997	19.995	102.931	20.063	-0.166	0.006
16.000	107.481	79.999	19.995	102.934	20.064	-0.243	0.025
24.000	107.454	79.999	19.996	102.955	20.056	0.363	0.013
32.000	107.574	79.995	19.997	103.060	20.048	0.928	0.031
40.000	108.108	79.997	19.996	103.125	20.029	2.399	0.085
48.000	109.250	79.999	19.995	103.159	20.022	2.881	0.164
56.000	110.788	79.998	19.996	103.180	20.019	3.096	0.202
64.000	112.786	79.998	19.995	103.197	20.015	3.375	0.244
72.000	115.245	80.001	19.994	103.198	20.021	2.946	0.326
80.000	117.974	79.999	19.994	103.196	20.013	3.522	0.360
88.000	120.993	79.997	19.994	103.209	20.012	3.587	0.393
96.000	124.198	79.998	19.995	103.203	20.010	3.761	0.431
104.000	127.613	79.999	19.995	103.205	20.013	3.570	0.447
112.000	131.248	79.998	19.995	103.201	20.014	3.499	0.469
120.000	134.958	79.997	19.996	103.198	20.019	3.111	0.442
128.000	138.710	79.996	19.997	103.197	20.021	2.972	0.460
136.000	142.577	79.998	19.995	103.196	20.018	3.155	0.491
144.000	146.512	79.997	19.996	103.194	20.021	2.936	0.485
152.000	150.441	79.999	19.995	103.190	20.018	3.180	0.478
160.000	154.353	79.997	19.995	103.198	20.020	3.019	0.448
168.000	158.296	79.998	19.995	103.184	20.023	2.813	0.501
176.000	162.306	79.999	19.994	103.179	20.020	3.055	0.518
184.000	166.295	80.000	19.996	103.161	20.024	2.756	0.486
192.000	170.251	79.997	19.995	103.158	20.024	2.719	0.529
200.000	174.172	79.998	19.995	103.158	20.029	2.360	0.471
208.000	178.099	79.998	19.997	103.155	20.030	2.273	0.507
216.000	181.961	79.996	19.998	103.157	20.028	2.465	0.491
224.000	185.850	79.995	19.995	103.159	20.026	2.571	0.467
232.000	189.741	79.998	19.995	103.151	20.029	2.355	0.472
240.000	193.639	80.000	19.995	103.155	20.033	2.043	0.501
248.000	197.440	80.000	19.995	103.146	20.030	2.293	0.512
256.000	201.257	79.999	19.995	103.141	20.029	2.344	0.463
264.000	205.100	79.998	19.995	103.137	20.035	1.958	0.490
272.000	209.039	79.996	19.996	103.140	20.034	1.996	0.492
280.000	212.985	80.000	19.996	103.142	20.033	2.094	0.504
288.000	217.025	79.999	19.996	103.135	20.032	2.173	0.529
296.000	220.969	79.997	19.995	103.138	20.034	1.992	0.511
304.000	224.989	79.996	19.997	103.133	20.035	1.929	0.497
312.000	229.001	79.999	19.995	103.124	20.038	1.720	0.510
320.000	233.019	79.999	19.995	103.118	20.039	1.622	0.502
328.000	237.000	80.000	19.995	103.118	20.035	1.921	0.510
336.000	240.851	79.998	19.996	103.117	20.037	1.778	0.475
344.000	244.791	80.001	19.995	103.117	20.035	1.939	0.453
352.000	248.810	79.998	19.996	103.118	20.032	2.174	0.504
360.000	252.812	79.998	19.995	103.121	20.035	1.902	0.493
368.000	256.800	79.997	19.995	103.121	20.031	2.217	0.528
376.000	260.808	79.998	19.996	103.121	20.029	2.365	0.503
384.000	264.840	79.997	19.995	103.119	20.026	2.554	0.509
392.000	268.892	79.996	19.996	103.117	20.026	2.614	0.492
400.000	273.015	79.999	19.995	103.115	20.025	2.620	0.517
408.000	277.118	79.997	19.996	103.113	20.022	2.905	0.531
416.000	281.188	79.996	19.995	103.106	20.025	2.679	0.529
424.000	285.276	79.999	19.995	103.091	20.021	2.941	0.487
432.000	289.290	79.997	19.995	103.095	20.017	3.256	0.497
440.000	293.305	79.996	19.996	103.099	20.014	3.458	0.525
448.000	297.304	79.998	19.995	103.090	20.011	3.692	0.476
456.000	301.291	79.998	19.995	103.085	19.997	4.737	0.468
464.000	305.180	79.997	19.996	103.083	19.985	5.634	0.475
472.000	309.137	79.998	19.996	103.084	19.965	7.039	0.517
480.000	313.116	79.998	19.996	103.110	19.955	7.795	0.537
488.000	317.096	79.995	19.996	103.095	19.930	9.678	0.525
496.000	321.100	79.998	19.995	103.095	19.904	11.532	0.515
504.000	325.131	79.999	19.994	103.099	19.877	13.527	0.513
512.000	329.133	79.997	19.995	103.090	19.849	15.630	0.520
520.000	333.146	79.997	19.995	103.099	19.812	18.341	0.495
528.000	337.214	79.999	19.994	103.117	19.771	21.389	0.490
536.000	341.264	79.997	19.995	103.093	19.715	25.490	0.521
544.000	345.202	79.995	19.996	103.109	19.656	29.830	0.515
552.000	349.211	79.995	19.996	103.118	19.586	34.948	0.514
560.000	353.334	79.997	19.996	103.116	19.513	40.328	0.513
568.000	357.376	79.997	19.995	103.120	19.422	47.021	0.471
576.000	361.382	79.999	19.996	103.114	19.324	54.231	0.495
584.000	365.267	79.999	19.996	103.116	19.215	62.282	0.444
592.001	369.159	79.998	19.995	103.117	19.097	70.984	0.485
600.000	373.078	79.999	19.994	103.136	18.963	80.878	0.505
608.000	377.085	79.997	19.995	103.134	18.813	91.871	0.456
616.000	381.152	79.997	19.995	103.128	18.647	104.136	0.493
624.000	385.248	79.996	19.996	103.122	18.482	116.244	0.499
632.000	389.360	79.997	19.995	103.123	18.325	127.766	0.503
640.000	393.472	79.999	19.996	103.092	18.202	136.829	0.516
648.000	397.612	79.998	19.996	103.077	18.121	142.703	0.509
656.000	401.665	79.999	19.996	103.042	18.116	143.037	0.541
664.000	405.702	80.000	19.996	103.015	18.216	135.655	0.514
672.000	409.731	79.997	19.996	102.992	18.422	120.498	0.531
680.000	413.717	79.996	19.995	102.994	18.723	98.420	0.514
688.000	417.709	79.996	19.995	102.995	19.055	74.007	0.480
696.000	421.739	79.998	19.994	103.014	19.322	54.356	0.528
704.000	425.788	79.997	19.995	103.040	19.481	42.687	0.543
712.000	429.892	79.998	19.995	103.031	19.565	36.467	0.509
720.000	433.889	79.999	19.996	103.029	19.608	33.319	0.518
728.000	437.895	79.999	19.996	103.028	19.626	32.026	0.511
736.000	441.864	79.997	19.996	103.038	19.635	31.373	0.482
744.000	445.852	79.999	19.995	103.039	19.634	31.444	0.504
752.000	449.965	79.998	19.994	103.039	19.623	32.253	0.526
760.000	454.021	79.997	19.995	103.027	19.612	33.039	0.509
768.000	458.137	79.997	19.996	103.022	19.594	34.339	0.519
776.000	462.272	79.997	19.994	103.021	19.572	35.936	0.539
784.000	466.324	79.997	19.995	103.002	19.557	37.089	0.558
792.000	470.456	79.998	19.994	103.000	19.541	38.204	0.474
800.000	474.287	79.997	19.995	102.994	19.552	37.449	0.237
808.000	478.754	79.998	19.995	102.992	19.602	33.768	0.536
816.000	482.801	79.998	19.996	103.050	19.707	26.071	0.514
824.000	486.802	79.997	19.995	103.011	19.842	16.087	0.507
832.000	490.762	80.000	19.996	103.031	19.950	8.157	0.484
840.000	494.843	79.998	19.996	103.040	20.005	4.163	0.506
848.000	498.884	79.997	19.996	103.040	20.031	2.213	0.536
856.000	503.011	79.997	19.996	103.037	20.039	1.611	0.499
864.000	507.117	79.995	19.995	103.042	20.047	1.053	0.511
872.000	511.173	79.997	19.995	103.042	20.049	0.917	0.515
880.000	515.212	79.997	19.996	103.043	20.046	1.088	0.548
888.000	519.198	79.998	19.995	103.044	20.045	1.175	0.478
896.000	523.321	79.998	19.995	103.058	20.044	1.292	0.515
904.000	527.607	79.999	19.995	103.058	20.041	1.453	0.523
912.000	531.966	79.998	19.994	103.047	20.043	1.345	0.534
920.000	536.426	79.998	19.995	103.045	20.043	1.315	0.557
928.000	540.909	79.998	19.996	103.043	20.045	1.211	0.577
936.000	545.264	79.996	19.996	103.050	20.048	0.945	0.554
944.000	549.727	79.996	19.997	103.046	20.047	1.053	0.553
952.000	554.109	79.996	19.995	103.051	20.047	1.020	0.553
960.001	558.384	79.999	19.995	103.049	20.043	1.361	0.529
968.001	562.659	79.999	19.995	103.040	20.046	1.102	0.513
976.000	566.807	79.997	19.995	103.040	20.043	1.365	0.540
984.000	570.963	79.998	19.995	103.042	20.044	1.231	0.481
992.000	575.139	79.999	19.994	103.041	20.046	1.128	0.519
1000.000	579.199	79.997	19.996	103.042	20.050	0.801	0.483
1008.000	583.242	79.997	19.996	103.043	20.046	1.108	0.531
1016.000	587.234	79.996	19.996	103.042	20.048	0.978	0.491
1024.000	591.196	79.997	19.995	103.043	20.046	1.136	0.482
1032.000	595.174	79.996	19.995	103.041	20.042	1.396	0.502
1040.000	599.133	79.998	19.996	103.044	20.044	1.276	0.459
1048.000	603.160	79.998	19.995	103.049	20.044	1.231	0.511
1056.000	607.105	79.996	19.995	103.046	20.041	1.451	0.488
1064.001	611.189	79.998	19.995	103.059	20.042	1.437	0.532
1072.001	615.279	80.001	19.996	103.071	20.038	1.693	0.533
1080.001	619.377	79.996	19.995	103.068	20.042	1.406	0.508
1088.000	623.462	79.997	19.996	103.073	20.040	1.567	0.500
1096.000	627.528	79.999	19.995	103.077	20.040	1.581	0.492
1104.000	631.630	79.997	19.996	103.077	20.038	1.721	0.503
1112.000	635.678	79.997	19.997	103.081	20.038	1.727	0.543
1120.000	639.692	79.998	19.996	103.081	20.036	1.869	0.488
1128.000	643.789	79.998	19.996	103.092	20.035	1.955	0.487
1136.000	647.833	79.997	19.995	103.097	20.039	1.659	0.507
1144.000	651.905	79.999	19.995	103.106	20.038	1.703	0.510
1152.000	655.991	80.001	19.995	103.103	20.036	1.839	0.494
1160.000	659.970	79.997	19.995	103.114	20.032	2.170	0.440
1168.000	663.988	79.998	19.995	103.120	20.033	2.036	0.517
1176.000	667.986	79.997	19.995	103.134	20.037	1.787	0.483
1184.001	672.035	79.997	19.995	103.138	20.032	2.136	0.501
1192.000	676.077	79.996	19.995	103.151	20.033	2.092	0.529
1200.000	680.169	79.998	19.996	103.158	20.027	2.543	0.522
1208.000	684.185	79.998	19.996	103.159	20.031	2.202	0.523
1216.000	688.262	79.998	19.996	103.167	20.025	2.669	0.512
1224.000	692.318	79.998	19.996	103.161	20.023	2.804	0.532
1232.000	696.335	80.001	19.994	103.193	20.017	3.236	0.458
1240.000	700.375	79.996	19.996	103.195	20.013	3.511	0.518
1248.000	704.316	79.997	19.996	103.203	20.010	3.747	0.504
1256.000	708.360	79.996	19.996	103.206	20.012	3.642	0.495
1264.000	712.412	79.997	19.996	103.217	20.011	3.719	0.487
1272.000	716.530	79.997	19.995	103.232	20.010	3.732	0.532
1280.000	720.565	79.997	19.996	103.234	20.012	3.650	0.487
1288.000	724.607	79.998	19.996	103.213	20.011	3.708	0.499
1296.000	728.613	79.998	19.995	103.203	20.014	3.475	0.525
1304.000	732.660	79.998	19.997	103.187	20.018	3.191	0.522
1312.000	736.698	79.999	19.997	103.137	20.024	2.697	0.523
1320.000	740.868	79.996	19.996	103.078	20.035	1.927	0.505
1325.000	743.458	79.998	19.995	103.058	20.039	1.592	0.525