File: 01_Data/Nylon_Carpet_High_Pile/MCC/Nylon_Carpet_High_Pile_MCC_30K_min_211027_R2.txt
Sample ID:	C:\MCC\MCC Cal\Test\Nylon_Carpet_HighPile_MCC_30K_min_211027_R2.txt
Sample Weight (mg):	4.14
Heating Rate (C/s):	1
Combustor Temp (C):	900
N2 Flow Rate (cc/min):	80
O2 Flow Rate (cc/min):	20
Calibration File:	C:\MCC\MCC Cal\Coeff1 JN10440_30_210304.txt.txt
T Correction Coefficients:	0	1.024463	0
Time Shift (s):	14
*
Time (s)	Temperature (C)	N2 flow rate (cc/min)	O2 flow rate (cc/min)	Flow Rate (cc/min)	Oxygen (%)	HRR (W/g)	Heating rate (C/s)
0.000	108.464	80.001	19.995	103.045	20.031	0.333	-0.000
4.000	108.438	80.001	19.994	103.053	20.032	0.260	-0.004
8.000	108.392	80.000	19.994	103.070	20.027	0.634	-0.030
12.000	108.453	80.000	19.996	103.159	20.019	1.244	-0.007
16.000	108.591	80.001	19.995	103.257	20.006	2.283	0.071
20.000	108.892	80.000	19.996	103.316	19.993	3.295	0.094
24.000	109.452	80.001	19.994	103.384	19.979	4.417	0.161
28.000	110.239	80.002	19.996	103.387	19.968	5.220	0.187
32.001	111.290	80.001	19.997	103.419	19.968	5.259	0.246
36.001	112.509	79.999	19.996	103.395	19.962	5.701	0.387
40.001	113.800	80.000	19.995	103.402	19.963	5.619	0.378
44.000	115.377	80.001	19.995	103.391	19.967	5.358	0.484
48.000	116.974	80.000	19.995	103.410	19.964	5.547	0.395
52.000	118.719	80.000	19.996	103.420	19.962	5.689	0.440
56.001	120.616	80.000	19.995	103.417	19.962	5.725	0.480
60.000	122.603	79.999	19.995	103.430	19.955	6.272	0.479
64.000	124.776	80.000	19.996	103.465	19.952	6.517	0.529
68.001	127.053	80.001	19.994	103.498	19.951	6.606	0.541
72.000	129.500	79.998	19.995	103.499	19.946	6.965	0.627
76.001	132.079	80.000	19.995	103.492	19.947	6.855	0.685
80.000	134.763	80.003	19.994	103.500	19.943	7.232	0.675
84.000	137.594	80.003	19.993	103.494	19.943	7.190	0.721
88.000	140.541	80.002	19.996	103.489	19.945	7.036	0.725
92.000	143.525	80.002	19.996	103.501	19.944	7.119	0.745
96.001	146.706	80.001	19.995	103.501	19.945	7.044	0.803
100.000	149.986	80.003	19.995	103.501	19.945	7.024	0.846
104.000	153.372	80.003	19.995	103.500	19.945	7.033	0.878
108.001	156.741	80.004	19.995	103.494	19.947	6.849	0.843
112.000	160.217	80.003	19.995	103.492	19.943	7.180	0.884
116.000	163.785	80.000	19.997	103.493	19.946	6.961	0.907
120.000	167.439	80.000	19.998	103.500	19.946	6.948	0.904
124.000	171.196	80.000	19.996	103.494	19.946	6.980	0.941
128.000	174.971	80.000	19.995	103.479	19.947	6.860	0.927
132.000	178.800	79.999	19.997	103.471	19.949	6.712	0.990
136.000	182.698	80.001	19.995	103.471	19.949	6.693	0.984
140.000	186.703	80.000	19.995	103.466	19.950	6.669	1.017
144.000	190.673	80.000	19.996	103.466	19.950	6.647	0.994
148.001	194.696	80.000	19.996	103.459	19.953	6.452	1.000
152.000	198.715	80.002	19.994	103.456	19.953	6.413	1.004
156.000	202.815	80.002	19.995	103.451	19.957	6.130	0.997
160.000	206.945	80.001	19.996	103.442	19.958	6.034	1.079
164.000	211.069	80.003	19.995	103.427	19.954	6.339	1.073
168.000	215.264	80.001	19.994	103.424	19.957	6.108	1.056
172.000	219.421	80.002	19.995	103.423	19.956	6.184	1.036
176.000	223.582	80.002	19.995	103.412	19.958	6.030	1.039
180.000	227.748	80.001	19.995	103.409	19.961	5.825	1.038
184.001	231.953	80.003	19.996	103.394	19.960	5.873	1.030
188.000	236.093	80.003	19.996	103.387	19.960	5.882	1.028
192.000	240.203	80.003	19.995	103.388	19.966	5.407	1.018
196.000	244.303	80.000	19.994	103.383	19.963	5.614	1.030
200.000	248.359	80.001	19.996	103.387	19.962	5.669	1.009
204.000	252.554	80.000	19.995	103.382	19.963	5.613	1.020
208.000	256.544	80.000	19.996	103.363	19.962	5.726	1.016
212.000	260.504	80.001	19.996	103.355	19.958	6.036	0.965
216.001	264.512	80.001	19.997	103.353	19.960	5.886	0.997
220.000	268.459	80.001	19.995	103.349	19.958	6.029	0.992
224.000	272.453	80.002	19.995	103.344	19.956	6.145	0.988
228.000	276.341	80.001	19.995	103.344	19.951	6.553	0.973
232.000	280.296	80.001	19.995	103.346	19.953	6.424	1.009
236.000	284.217	80.001	19.995	103.344	19.952	6.516	0.992
240.000	288.076	80.002	19.994	103.329	19.944	7.083	0.995
244.000	291.995	80.002	19.997	103.340	19.943	7.158	0.986
248.000	295.876	80.002	19.995	103.344	19.938	7.565	0.967
252.000	299.731	80.000	19.995	103.345	19.937	7.629	0.984
256.000	303.599	80.001	19.996	103.326	19.924	8.629	0.992
260.000	307.470	80.001	19.993	103.344	19.913	9.547	0.957
264.000	311.410	80.002	19.995	103.337	19.903	10.317	1.002
268.000	315.371	80.004	19.995	103.336	19.884	11.771	0.975
272.000	319.292	80.002	19.994	103.335	19.863	13.448	0.969
276.000	323.202	80.000	19.994	103.332	19.839	15.288	1.003
280.000	327.204	80.001	19.994	103.336	19.806	17.896	1.007
284.000	331.183	80.000	19.995	103.340	19.773	20.415	0.982
288.000	335.229	80.001	19.994	103.339	19.732	23.586	0.999
292.000	339.212	80.001	19.995	103.341	19.688	27.065	1.010
296.000	343.164	80.001	19.995	103.347	19.636	31.083	0.975
300.000	347.152	80.001	19.997	103.351	19.578	35.649	0.980
304.000	351.208	80.001	19.996	103.356	19.510	40.940	0.999
308.000	355.243	80.000	19.997	103.352	19.432	47.000	1.028
312.000	359.281	79.999	19.995	103.370	19.341	54.120	0.998
316.000	363.314	80.000	19.995	103.375	19.235	62.358	1.022
320.000	367.362	80.001	19.995	103.387	19.120	71.343	1.006
324.000	371.428	80.001	19.995	103.389	18.985	81.854	1.036
328.000	375.484	80.000	19.995	103.401	18.838	93.344	1.022
332.000	379.525	80.000	19.994	103.420	18.667	106.654	0.976
336.000	383.557	80.000	19.995	103.427	18.479	121.318	1.006
340.000	387.611	80.002	19.995	103.428	18.270	137.567	1.011
344.000	391.619	80.003	19.995	103.433	18.045	155.122	0.999
348.000	395.705	80.003	19.994	103.441	17.803	173.926	1.033
352.000	399.788	80.002	19.994	103.426	17.556	193.086	1.011
356.000	403.733	80.002	19.993	103.418	17.310	212.135	0.991
360.000	407.766	80.000	19.995	103.389	17.080	229.830	1.001
364.000	411.801	80.000	19.995	103.341	16.880	245.251	0.988
368.000	415.733	79.998	19.995	103.259	16.737	256.300	0.994
372.001	419.748	80.001	19.995	103.190	16.689	259.925	0.988
376.001	423.731	80.000	19.996	103.131	16.756	254.657	0.990
380.000	427.719	80.000	19.995	103.094	16.962	238.728	1.004
384.000	431.700	79.999	19.994	103.054	17.310	211.778	0.991
388.000	435.850	79.999	19.995	103.036	17.759	177.004	1.036
392.000	439.298	79.999	19.995	103.080	18.220	141.150	0.408
396.000	443.818	79.999	19.996	103.138	18.586	112.679	0.969
400.000	447.786	79.999	19.995	103.193	18.837	93.152	1.033
404.000	451.814	80.000	19.996	103.192	18.987	81.527	0.974
408.000	455.757	80.002	19.994	103.189	19.069	75.131	1.004
412.000	459.761	80.001	19.994	103.190	19.116	71.462	1.024
416.000	463.683	80.001	19.994	103.191	19.137	69.816	0.967
420.000	467.673	80.001	19.995	103.174	19.143	69.344	1.009
424.000	471.571	80.002	19.995	103.164	19.139	69.676	0.969
428.000	475.596	80.002	19.995	103.149	19.129	70.466	0.995
432.000	479.509	80.002	19.994	103.149	19.115	71.497	0.973
436.000	483.476	80.002	19.995	103.144	19.099	72.749	1.007
440.000	487.445	80.001	19.994	103.126	19.108	71.985	0.967
444.000	491.420	80.000	19.993	103.105	19.153	68.518	0.985
448.000	495.419	80.000	19.993	103.076	19.252	60.902	1.005
452.000	499.388	80.000	19.994	103.062	19.416	48.145	0.997
456.000	503.345	80.001	19.994	103.086	19.610	33.041	1.009
460.001	507.349	80.000	19.995	103.160	19.774	20.309	1.013
464.000	511.320	80.000	19.996	103.203	19.881	11.979	0.997
468.000	515.303	79.999	19.995	103.205	19.940	7.382	1.016
472.000	519.327	79.998	19.995	103.189	19.969	5.127	0.964
476.000	523.430	80.001	19.995	103.196	19.984	3.999	1.030
480.000	527.543	80.000	19.995	103.203	19.990	3.485	1.020
484.000	531.722	80.000	19.995	103.217	19.993	3.284	1.089
488.000	535.884	80.002	19.996	103.227	19.999	2.796	1.047
492.000	540.067	80.000	19.996	103.227	20.005	2.335	1.059
496.000	544.297	80.001	19.996	103.225	20.004	2.463	1.084
500.000	548.516	80.001	19.995	103.229	20.006	2.309	1.053
504.000	552.772	80.002	19.994	103.226	20.010	1.957	1.070
508.000	557.024	80.002	19.994	103.226	20.008	2.121	1.045
512.000	561.325	80.003	19.995	103.213	20.007	2.219	1.057
516.000	565.554	80.002	19.994	103.227	20.007	2.222	1.076
520.000	569.770	80.000	19.995	103.222	20.009	2.012	1.073
524.000	574.007	79.999	19.994	103.223	20.010	1.955	1.105
528.000	578.209	80.000	19.995	103.230	20.014	1.630	1.036
532.000	582.380	79.999	19.994	103.215	20.014	1.662	1.070
536.000	586.477	80.001	19.995	103.219	20.015	1.600	1.028
540.000	590.613	80.001	19.995	103.209	20.015	1.587	1.053
544.000	594.720	79.999	19.994	103.200	20.012	1.813	1.051
548.000	598.758	80.000	19.996	103.198	20.016	1.530	0.985
552.000	602.819	80.000	19.996	103.201	20.020	1.169	1.027
556.000	606.792	80.000	19.996	103.195	20.019	1.255	0.997
560.000	610.792	80.002	19.996	103.203	20.021	1.122	1.024
564.000	614.746	80.002	19.995	103.197	20.021	1.144	0.979
568.000	618.619	80.003	19.995	103.212	20.017	1.445	0.973
572.000	622.632	80.001	19.995	103.225	20.015	1.552	1.005
576.000	626.665	80.002	19.996	103.232	20.018	1.362	1.034
580.000	630.661	80.001	19.996	103.233	20.018	1.315	1.016
584.000	634.795	80.001	19.995	103.230	20.018	1.381	1.047
588.000	638.915	80.002	19.995	103.234	20.016	1.473	1.040
592.000	643.097	80.002	19.995	103.247	20.017	1.435	1.080
596.000	647.258	80.001	19.994	103.246	20.014	1.665	1.042
600.000	651.380	80.000	19.996	103.265	20.020	1.177	1.013
604.000	655.581	80.000	19.994	103.269	20.017	1.396	1.067
608.000	659.763	80.000	19.996	103.269	20.020	1.215	1.038
612.000	663.883	80.001	19.996	103.285	20.019	1.234	1.044
616.000	668.018	80.001	19.996	103.294	20.013	1.719	1.040
620.000	672.169	80.001	19.995	103.300	20.011	1.905	1.011
624.000	676.314	80.001	19.994	103.306	20.013	1.699	1.009
628.000	680.459	80.000	19.995	103.323	20.014	1.645	1.037
632.000	684.474	80.000	19.994	103.338	20.011	1.876	1.001
636.000	688.598	79.998	19.994	103.349	20.009	2.020	1.025
640.000	692.661	79.999	19.996	103.354	20.007	2.174	1.027
644.001	696.717	80.001	19.995	103.350	20.008	2.163	0.981
648.000	700.765	80.002	19.995	103.383	20.001	2.702	1.007
652.000	704.814	79.999	19.995	103.387	20.000	2.739	1.035
656.000	708.798	80.001	19.995	103.388	19.996	3.056	0.975
660.000	712.837	80.002	19.996	103.409	19.992	3.351	0.988
664.000	716.875	80.001	19.995	103.424	19.994	3.245	1.027
668.000	720.883	80.001	19.995	103.456	19.987	3.729	1.015
672.000	724.835	80.002	19.996	103.458	19.988	3.723	1.021
676.000	728.816	80.001	19.995	103.472	19.986	3.855	0.994
680.000	732.831	80.000	19.995	103.500	19.979	4.354	1.029
684.000	736.786	80.002	19.995	103.500	19.979	4.422	0.985
684.500	737.273	80.000	19.995	103.505	19.981	4.204	0.994