File: 01_Data/Carpet_Polyolefin_LowPile/Cone/Polyolefin_Carpet_LowPile_Cone_HF25Scan_220406_R3.csv
Names,Time,Stack TC,Smoke TC,Exh Press,Smoke Comp,Smoke Meas,CO Meter,CO2 Meter,O2 Meter,Sample Mass,Ext Coeff,Start Test,Flame Verif
Chan Gain,,500,500,1,1,1,1,1,1,1,1,1.0,1.0
Offset,,0,0,0.132524,0,0,0,0,0,0,0,0.0,0.0
Gain,,1,1,25.011,13.2301,13.3727,1,1,1,1.0009,1.0066,1.0,1.0
Units,sec,C,C,Pa,%,%,%,%,%,g,/m,,
Baseline,,19.0079,19.5015,161.895,98.2814,95.5032,0.000813716,0.0664175,21.006,-833.808,0.253251,,
13,3,18.448,18.9781,165.963,97.8654,95.0689,0.000614,0.0761838,20.9941,195.955,0.255986,0.0,0.0
26,6.25,18.3565,18.9565,157.698,97.8698,94.7134,0.000478243,0.0760179,20.9945,195.945,0.289463,0.0,0.0
39,9.5,19.0214,19.0715,162.46,97.8839,94.7003,0.000724624,0.0739383,20.9967,195.945,0.291955,0.0,0.0
52,12.75,18.6222,19.3147,161.413,97.8734,94.8379,0.000947386,0.070431,20.9988,195.925,0.278195,0.0,0.0
65,16,18.6147,19.2465,160.211,97.8912,95.2888,0.000908565,0.0683151,21.0019,195.925,0.237911,0.0,0.0
78,19.25,18.3368,19.321,161.061,97.8908,94.9154,0.000782496,0.0671113,21.0044,195.905,0.272544,0.0,0.0
91,22.5,18.179,19.1983,162.543,97.8989,94.8101,0.000766962,0.067091,21.003,195.895,0.283073,0.0,0.0
104,25.75,18.8206,19.2139,162.765,97.8843,94.1319,0.000883529,0.0702997,20.9976,195.905,0.345157,0.0,0.0
117,29,18.8472,19.3149,159.522,97.8884,94.1616,0.00101809,0.0744879,20.9922,195.905,0.342727,0.0,0.0
130,32.25,18.7736,19.5085,161.356,97.8771,94.0245,0.00105132,0.0759193,20.9906,195.885,0.354576,0.0,0.0
143,35.5,18.9962,19.5413,161.993,97.8734,94.1412,0.0013161,0.0732235,20.991,195.855,0.343293,0.0,0.0
156,38.75,18.7023,19.1443,162.107,97.8734,94.3775,0.00171285,0.0861888,20.9682,195.925,0.321158,0.0,1.0
169,42,19.0215,19.0474,154.706,97.8755,92.4407,0.0020083,0.133758,20.9063,195.725,0.504434,0.0,1.0
182,45.25,19.8422,19.8816,153.477,97.8686,87.0798,0.00298003,0.190683,20.8073,195.645,1.03132,0.0,1.0
195,48.5,20.443,20.9872,149.856,97.8617,81.3039,0.00458871,0.245716,20.7141,195.505,1.6367,0.0,0.0
208,51.75,22.0855,22.8907,141.243,97.8605,75.819,0.00629995,0.302211,20.6175,195.345,2.25331,0.0,0.0
221,55,24.1187,24.3514,145.163,97.8593,74.0213,0.00762952,0.351673,20.5335,195.165,2.46508,0.0,0.0
234,58.25,26.2804,26.6152,136.6,97.8436,72.7721,0.00887364,0.392138,20.4685,194.984,2.61394,0.0,0.0
247,61.5,28.2197,29.1512,143.003,97.8403,72.5359,0.0099663,0.429424,20.4013,194.734,2.64237,0.0,0.0
260,64.75,30.3866,31.5788,136.416,97.8444,71.7511,0.010659,0.459225,20.3612,194.514,2.73879,0.0,0.0
273,68,32.5712,34.1757,138.497,97.829,71.4564,0.0110888,0.489977,20.3042,194.264,2.77374,0.0,0.0
286,71.25,35.1342,37.1277,137.07,97.8153,72.8672,0.0116474,0.513954,20.265,193.983,2.59986,0.0,0.0
299,74.5,37.5096,39.7043,138.852,97.8048,70.6423,0.0120804,0.531389,20.2324,193.753,2.87273,0.0,0.0
312,77.75,39.4962,41.9429,132.738,97.8004,71.7241,0.0121305,0.545111,20.2089,193.503,2.73813,0.0,0.0
325,81,41.2479,44.2097,141.386,97.7927,72.633,0.0116713,0.550365,20.1986,193.253,2.62625,0.0,0.0
338,84.25,43.7082,46.883,128.192,97.7826,72.1947,0.0114336,0.551433,20.1973,192.983,2.67879,0.0,0.0
351,87.5,45.5335,48.9823,130.579,97.7882,76.1431,0.0114523,0.54354,20.2088,192.742,2.20913,0.0,0.0
364,90.75,46.9437,50.3625,134.423,97.7794,74.0026,0.0113218,0.535773,20.2249,192.492,2.4601,0.0,0.0
377,94,48.6527,52.9929,141.659,97.7713,76.2222,0.0110777,0.529607,20.2358,192.252,2.19842,0.0,0.0
390,97.25,50.2517,54.1056,132.986,97.7632,76.8442,0.0106033,0.518549,20.2571,191.982,2.12594,0.0,0.0
403,100.5,51.2041,55.8118,135.748,97.7458,77.4257,0.0100703,0.500224,20.2888,191.772,2.0578,0.0,0.0
416,103.75,51.4715,56.0489,136.052,97.7236,76.8952,0.00950904,0.481647,20.321,191.621,2.1165,0.0,0.0
429,107,52.7471,57.473,139.645,97.7043,75.1881,0.00903456,0.456886,20.3611,191.421,2.31298,0.0,0.0
442,110.25,52.5686,57.5524,142.539,97.7115,81.0909,0.00852348,0.431259,20.3971,191.191,1.6463,0.0,0.0
455,113.5,52.3114,57.6303,148.435,97.6905,79.0675,0.00809204,0.404609,20.4487,191.051,1.86752,0.0,0.0
468,116.75,52.9043,57.7844,144.151,97.6667,82.6495,0.00750371,0.366932,20.5202,190.911,1.47416,0.0,0.0
481,120,52.4418,57.2463,149.726,97.6586,83.0535,0.00671526,0.330856,20.5797,190.791,1.43037,0.0,0.0
494,123.25,51.8916,56.8168,154.178,97.6429,81.9071,0.00591196,0.296724,20.6438,190.661,1.55167,0.0,0.0
507,126.5,50.8588,55.7661,153.435,97.6195,84.7022,0.00493184,0.26281,20.6933,190.55,1.25326,0.0,0.0
520,129.75,49.4639,54.6687,155.248,97.6219,86.3599,0.00392841,0.235257,20.7464,190.48,1.08234,0.0,0.0
533,133,48.4945,53.5268,152.962,97.6082,87.874,0.00322168,0.211097,20.7806,190.39,0.927634,0.0,0.0
546,136.25,47.5996,52.6556,154.728,97.5961,90.6193,0.00271331,0.191152,20.8144,190.34,0.654904,0.0,0.0
559,139.5,46.5792,51.1262,153.238,97.5775,90.9197,0.00239033,0.171532,20.8473,190.29,0.624005,0.0,0.0
572,142.75,45.2675,50.0401,159.074,97.5573,93.1067,0.0020301,0.154458,20.8763,190.25,0.412296,0.0,0.0
585,146,43.7602,48.4611,158.191,97.5311,93.4058,0.00197861,0.140019,20.8995,190.21,0.381597,0.0,0.0
598,149.25,42.7457,47.0962,153.97,97.5169,93.3932,0.00180518,0.12919,20.9163,190.17,0.381513,0.0,0.0
611,152.5,41.7134,46.1298,157.214,97.5238,93.8033,0.00169412,0.120271,20.9312,190.16,0.343443,0.0,0.0
624,155.75,40.7392,44.7363,157.555,97.4887,93.4413,0.00161416,0.112111,20.9417,190.13,0.374403,0.0,0.0
637,159,39.7056,43.8186,152.6,97.4802,93.5568,0.00129951,0.105761,20.9499,190.13,0.362728,0.0,0.0
650,162.25,38.4361,42.4218,156.535,97.4656,93.8641,0.0013057,0.100516,20.9578,190.11,0.332456,0.0,0.0
663,165.5,37.2851,40.8698,160.169,97.4697,93.7915,0.00150665,0.0950831,20.966,190.09,0.339658,0.0,0.0
676,168.75,36.5374,40.2107,158.952,97.4394,93.8788,0.00155611,0.0903039,20.9729,190.08,0.328696,0.0,0.0
689,172,35.5588,39.1206,159.4,97.4568,93.7323,0.00166728,0.0863894,20.9793,190.06,0.344059,0.0,0.0
702,175.25,34.9375,37.4972,162.7,97.4479,93.6821,0.00167669,0.0833574,20.9844,190.04,0.347985,0.0,0.0
715,178.5,34.0219,37.2422,159.398,97.4434,93.8001,0.00169246,0.0804921,20.9889,190.05,0.336473,0.0,0.0
728,181.75,32.9712,36.4978,160.96,97.4358,93.4724,0.00144885,0.0775857,20.9927,190.05,0.36668,0.0,0.0
741,185,31.5972,34.3536,160.819,97.4527,93.1128,0.00121847,0.0728242,20.9987,190.05,0.402246,0.0,0.0
754,188.25,30.4271,33.9576,159.17,97.462,94.2555,0.00115573,0.0699446,21.0035,190.03,0.295387,0.0,0.0
767,191.5,30.2533,33.3474,160.261,97.4689,94.3486,0.00104658,0.0684364,21.0057,190.01,0.287296,0.0,0.0
780,194.75,30.0751,32.1102,161.371,97.4883,93.7327,0.00100234,0.0673456,21.0063,190.02,0.346873,0.0,0.0
793,198,29.5016,31.3788,160.08,97.506,94.0564,0.000940453,0.0664613,21.0071,190.02,0.31805,0.0,0.0
806,201.25,28.5332,30.831,160.002,97.542,93.4748,0.000841397,0.0660086,21.0073,189.99,0.376066,0.0,0.0
819,204.5,27.962,30.665,162.692,97.5726,93.6123,0.000770139,0.0659353,21.0083,190.01,0.365862,0.0,0.0
832,207.75,27.4792,29.4998,159.886,97.5912,94.2384,0.000846995,0.0657183,21.0102,190,0.30869,0.0,0.0
845,211,26.8381,29.3846,155.122,97.6057,94.0106,0.000916405,0.0654079,21.011,189.99,0.331367,0.0,0.0
858,214.25,26.9203,28.6937,160.646,97.6191,93.363,0.000854702,0.0652006,21.0112,189.99,0.393614,0.0,0.0
871,217.5,26.3943,28.2017,165.049,97.6562,94.1767,0.000990269,0.065037,21.0111,189.98,0.320345,0.0,0.0
884,220.75,25.498,27.7541,156.667,97.6679,94.1098,0.00087292,0.0650231,21.0106,189.97,0.327681,0.0,0.0
897,224,25.3437,27.5987,159.945,97.6716,94.5118,0.000713555,0.0650565,21.0104,189.98,0.290375,0.0,0.0
910,227.25,25.4059,27.1214,160.977,97.7067,94.5983,0.00061366,0.0649187,21.011,189.97,0.28547,0.0,0.0
923,230.5,25.31,26.5783,162.113,97.7196,94.7407,0.000674748,0.0647998,21.0134,190.01,0.273353,0.0,0.0
936,233.75,24.8349,26.3842,158.841,97.7224,94.4102,0.000728881,0.0648092,21.0127,189.97,0.304471,0.0,0.0
949,237,24.6085,25.9923,158.158,97.7628,94.7616,0.00079436,0.064741,21.0123,189.99,0.275316,0.0,0.0
962,240.25,24.0412,25.7636,165.774,97.7681,94.5073,0.000888816,0.06479,21.0121,189.97,0.299512,0.0,0.0
975,243.5,23.9788,25.1506,159.787,97.783,94.9236,0.000961992,0.0650994,21.0121,189.96,0.262056,0.0,0.0
988,246.75,23.5172,24.617,159.487,97.8088,94.9105,0.000974588,0.0656992,21.0121,189.96,0.265604,0.0,0.0
1001,250,23.267,24.9332,162.821,97.8399,94.5069,0.00107563,0.0660493,21.0117,189.96,0.306039,0.0,0.0
1014,253.25,22.8895,24.7329,164.768,97.8855,94.7379,0.000876667,0.0659311,21.0114,189.96,0.288601,0.0,0.0
1027,256.5,22.5441,24.1556,160.274,97.9009,94.42,0.000833477,0.0653278,21.0113,189.95,0.319665,0.0,0.0
1040,259.75,22.8031,24.1724,155.858,97.9457,94.0355,0.000788091,0.0648041,21.0113,189.95,0.35973,0.0,0.0
1053,263,22.3501,23.5766,159.876,97.9691,94.1163,0.000821851,0.0646189,21.0113,189.94,0.354257,0.0,0.0
1066,266.25,22.6245,23.4286,161.023,97.9946,94.2775,0.000994042,0.0645363,21.0113,189.91,0.341439,0.0,0.0
1079,269.5,22.2937,23.4915,162.584,98.0273,95.2027,0.00091454,0.064433,21.0113,189.93,0.258159,0.0,0.0
1092,272.75,22.1821,23.1487,162.033,98.0648,94.6722,0.000820668,0.0648561,21.0115,189.91,0.310884,0.0,0.0
1105,276,22.1524,22.865,162.412,98.0907,94.7489,0.00101698,0.0659203,21.0091,189.92,0.306057,0.0,0.0
1118,279.25,21.89,23.0943,157.281,98.1201,95.1272,0.0010061,0.0668582,21.0084,189.92,0.273524,0.0,0.0
1131,282.5,21.8836,22.7915,164.609,98.1452,95.259,0.000917031,0.0673988,21.0086,189.91,0.263549,0.0,0.0
1144,285.75,21.5246,22.7353,160.149,98.171,95.146,0.000787189,0.0669498,21.0087,189.9,0.276359,0.0,0.0
1157,289,21.5364,22.7184,164.585,98.2037,94.7579,0.000591489,0.0664931,21.0087,189.91,0.31539,0.0,0.0
1170,292.25,21.432,22.9,162.072,98.2308,94.9134,,0.0661599,,189.88,0.303345,0.0,0.0
1183,295.5,21.6292,22.5024,158.814,98.2558,94.7432,,,,189.9,0.321442,0.0,0.0
1196,298.75,21.8326,22.0249,150.7,98.303,94.815,,,,189.9,0.318994,0.0,0.0
1207,301.5,20.9882,21.9947,159.027,98.339,95.4357,,,,189.88,0.264604,0.0,0.0