File: 01_Data/Carpet_Polyolefin_LowPile/Cone/Polyolefin_Carpet_LowPile_Cone_HF75Scan_220411_R3.csv
Names,Time,Stack TC,Smoke TC,Exh Press,Smoke Comp,Smoke Meas,CO Meter,CO2 Meter,O2 Meter,Sample Mass,Ext Coeff,Start Test,Flame Verif
Chan Gain,,500,500,1,1,1,1,1,1,1,1,1.0,1.0
Offset,,0,0,0.133936,0,0,0,0,0,0,0,0.0,0.0
Gain,,1,1,25.011,13.0656,13.5076,1,1,1,1.00089,1.01037,1.0,1.0
Units,sec,C,C,Pa,%,%,%,%,%,g,/m,,
Baseline,,42.975,44.4554,142.436,98.5093,94.4693,0.000516927,0.0524298,21.0007,-839.889,0.3712,,
19,4.5,41.0959,42.7285,140.917,98.8462,94.3069,0.000974097,0.0743616,20.953,189.879,0.416649,0.0,0.0
38,9.25,42.6546,43.5139,120.931,98.8681,74.8931,0.00620941,0.23936,20.6209,189.549,2.46146,0.0,1.0
57,14,46.9227,48.2941,120.524,98.8761,59.1851,0.014343,0.493678,20.2282,189.069,4.54843,0.0,0.0
76,18.75,54.0154,55.8434,101.135,98.8797,51.0837,0.0272611,0.834549,19.5912,188.268,5.8534,0.0,0.0
95,23.5,65.1158,68.261,98.5916,98.8856,49.7259,0.0362903,1.19141,19.0608,187.467,6.09271,0.0,0.0
114,28.25,76.7412,81.068,101.71,98.8976,54.6902,0.0346222,1.26151,18.9659,186.667,5.25039,0.0,0.0
133,33,84.0887,90.0674,105.521,98.9279,57.5766,0.0277649,1.08366,19.2937,186.036,4.79728,0.0,0.0
152,37.75,87.0568,95.0567,115.878,98.9446,62.4626,0.0210674,0.849687,19.7058,185.525,4.07688,0.0,0.0
171,42.5,88.3716,95.6355,124.324,98.9522,66.8849,0.0163965,0.645512,20.0438,185.105,3.47129,0.0,0.0
190,47.25,87.7961,95.2972,127.302,98.9674,73.1193,0.0125814,0.493905,20.2786,184.745,2.68279,0.0,0.0
209,52,86.1966,93.6715,131.898,98.9865,78.6735,0.0084864,0.379105,20.4896,184.495,2.03561,0.0,0.0
228,56.75,83.9216,91.528,131.229,99.01,83.2273,0.00598968,0.302983,20.6146,184.284,1.53901,0.0,0.0
247,61.5,81.751,89.0604,133.206,99.0344,85.4339,0.00447834,0.252247,20.7043,184.104,1.30927,0.0,0.0
266,66.25,79.0108,86.2851,129.876,99.0375,87.8796,0.00376564,0.21785,20.7618,183.954,1.0594,0.0,0.0
285,71,76.7326,84.0351,132.484,99.0531,91.031,0.00297467,0.189259,20.8054,183.844,0.748527,0.0,0.0
304,75.75,74.2599,81.2936,135.369,99.0599,92.1782,0.00224129,0.1625,20.8471,183.784,0.638137,0.0,0.0
323,80.5,71.8705,78.5735,139.69,99.079,95.0382,0.00198217,0.14069,20.8846,183.714,0.369043,0.0,0.0
342,85.25,69.8588,76.3729,138.31,99.0978,94.2776,0.00170118,0.120273,20.9186,183.654,0.44193,0.0,0.0
361,90,67.3478,73.8164,142.633,99.097,94.4879,0.00184475,0.103814,20.9428,183.604,0.422117,0.0,0.0
380,94.75,65.5939,71.4687,140.48,99.0862,94.5373,0.00164502,0.0935168,20.9535,183.534,0.416515,0.0,0.0
399,99.5,63.57,69.6085,143.445,99.081,94.6511,0.00127775,0.0868831,20.9608,183.524,0.405392,0.0,0.0
418,104.25,61.4915,67.6975,139.291,99.0818,94.5588,0.00120576,0.0813856,20.9655,183.504,0.414114,0.0,0.0
437,109,59.8238,65.7878,140.413,99.0894,94.7294,0.00136162,0.0779284,20.97,183.464,0.398811,0.0,0.0
456,113.75,58.9764,64.5133,141.257,99.0683,94.5114,0.00154052,0.0755468,20.9724,183.444,0.417345,0.0,0.0
475,118.5,57.3215,62.437,139.783,99.0527,94.7414,0.00122241,0.0738297,20.9742,183.404,0.39441,0.0,0.0
494,123.25,56.7217,61.1714,138.272,99.0344,94.7941,0.00124884,0.072317,20.9767,183.384,0.387835,0.0,0.0
513,128,54.9688,60.1148,140.65,99.0224,93.7059,0.00131857,0.0711212,20.9786,183.364,0.489101,0.0,0.0
532,132.75,54.1077,59.4105,141.516,99.018,94.1585,0.00155631,0.0702927,20.9788,183.334,0.446002,0.0,0.0
551,137.5,53.4507,57.753,146.447,98.9917,94.4231,0.00147807,0.0699658,20.9787,183.324,0.41877,0.0,0.0
570,142.25,53.3269,57.1921,139.647,98.957,93.9153,0.0013455,0.0698374,20.9798,183.294,0.463461,0.0,0.0
589,147,52.4255,56.0449,138.937,98.9183,94.8226,0.00106596,0.0698602,20.9801,183.273,0.374785,0.0,0.0
608,151.75,51.2594,55.9809,140.584,98.8968,94.3646,0.00130994,0.0703355,20.9801,183.243,0.415766,0.0,0.0
627,156.5,51.2385,54.6378,139.947,98.8593,94.628,0.00142434,0.0704829,20.9784,183.243,0.387701,0.0,0.0
646,161.25,50.4203,54.0927,142.917,98.8083,93.9507,0.00115346,0.0700637,20.9784,183.203,0.446787,0.0,0.0
665,166,50.1558,53.4911,141.789,98.7684,93.9911,0.00117192,0.0694735,20.9803,183.183,0.439399,0.0,0.0
684,170.75,49.9695,53.0941,143.558,98.7285,94.0744,0.00108707,0.0705433,20.9788,183.123,0.427973,0.0,0.0
703,175.5,49.5601,52.972,142.114,98.6835,94.0608,0.00125074,0.0701981,20.9801,183.113,0.425209,0.0,0.0
722,180.25,49.7215,51.9075,142.794,98.6376,94.3123,0.00138339,0.068386,20.9822,183.123,0.397427,0.0,0.0
741,185,49.2433,51.876,140.36,98.5962,94.0303,0.00112699,0.0672952,20.9829,183.113,0.420236,0.0,0.0
760,189.75,48.8464,51.1415,136.957,98.5531,94.0686,0.000890521,0.0663542,20.9849,183.063,0.412753,0.0,0.0
779,194.5,47.8659,50.5499,139.817,98.4749,93.9878,0.000820679,0.0654456,20.9858,183.053,0.413337,0.0,0.0
798,199.25,48.116,50.6548,140.346,98.4275,94.2286,0.000785838,0.0648683,20.988,182.993,0.386394,0.0,0.0
817,204,47.4691,50.3489,139.874,98.3733,93.9124,0.000924787,0.0640948,20.9883,182.973,0.411297,0.0,0.0
836,208.75,48.1477,50.2607,140.214,98.3111,93.8897,0.000813596,0.063389,20.9889,182.953,0.407832,0.0,0.0
855,213.5,47.5557,50.3616,141.775,98.2688,93.6383,0.0010876,0.063266,20.9903,182.953,0.427789,0.0,0.0
874,218.25,47.0795,49.7177,137.217,98.2337,93.5814,0.00132949,0.06398,20.9889,182.923,0.43001,0.0,0.0
893,223,47.4379,49.3285,139.18,98.1655,93.6849,0.00127122,0.0637421,20.9901,182.923,0.414062,0.0,0.0
912,227.75,47.214,49.4614,144.597,98.1352,93.2306,0.00132406,0.0632767,20.9904,182.893,0.454405,0.0,0.0
931,232.5,46.8715,49.1078,142.495,98.1005,93.4145,0.00108364,0.0625285,20.9909,182.883,0.433812,0.0,0.0
950,237.25,47.2964,48.7907,142.632,98.0754,93.3407,0.000782197,0.0616605,20.993,182.823,0.438545,0.0,0.0
969,242,46.5274,48.4711,142.046,98.0523,93.5245,0.0008915,0.0612036,20.9934,182.833,0.419015,0.0,0.0
988,246.75,46.6812,48.4781,138.711,98.0036,93.8023,0.00114985,0.0613597,20.9931,182.813,0.388327,0.0,0.0
1007,251.5,46.1386,48.3064,139.846,97.9769,93.6857,0.00101822,0.0641919,20.9889,182.773,0.39694,0.0,0.0
1026,256.25,46.1065,48.3025,139.054,97.9283,93.6457,0.000951234,0.0640298,20.9919,182.773,0.396322,0.0,0.0
1045,261,46.0147,47.9161,137.954,97.8796,93.9363,0.000968943,0.0630322,20.9937,182.743,0.364457,0.0,0.0
1064,265.75,46.1295,48.179,140.874,97.8442,93.8019,0.00100443,0.0618001,20.9963,182.753,0.373932,0.0,0.0
1083,270.5,45.9522,47.8212,138.288,97.7943,93.0814,0.00106832,0.0604011,20.9974,182.723,0.43776,0.0,0.0
1102,275.25,46.3563,48.0707,141.241,97.7401,93.6692,0.00110637,0.0599626,20.998,182.703,0.377049,0.0,0.0
1121,280,45.8095,47.6684,140.91,97.7102,94.0612,0.00112022,0.0598981,20.9961,182.673,0.337322,0.0,0.0
1140,284.75,46.2339,47.9322,141.137,97.6715,93.3473,0.000950162,0.0589993,20.9958,182.643,0.401343,0.0,0.0
1159,289.5,45.6005,47.741,140.246,97.6663,93.607,0.000848984,0.0585744,20.9958,182.613,0.37625,0.0,0.0
1178,294.25,45.8106,47.4101,142.014,97.5989,93.5987,0.00111595,0.0581522,20.9958,182.633,0.370913,0.0,0.0
1197,299,45.7725,47.4818,140.297,97.5834,93.3485,0.00105831,0.0579164,20.9972,182.613,0.393225,0.0,0.0
1216,303.75,45.3513,47.0952,140.318,97.5483,93.2661,0.000945014,0.0574481,20.998,182.593,0.397869,0.0,0.0
1235,308.5,45.8383,47.1594,142.93,97.5327,93.1358,0.000964024,0.0571406,20.9981,182.583,0.408843,0.0,0.0
1254,313.25,45.9219,47.188,140.199,97.52,93.0913,0.00100028,0.0567414,20.9989,182.543,0.411921,0.0,0.0
1273,318,45.6789,47.2549,138.973,97.4941,93.2083,0.00111808,0.0567028,20.9982,182.543,0.398426,0.0,0.0
1292,322.75,44.8648,46.7969,139.075,97.4733,92.8147,0.0010081,0.0560825,20.9994,182.493,0.434054,0.0,0.0
1311,327.5,44.7418,46.5111,142.333,97.451,93.4664,0.000981216,0.0556867,21.0008,182.463,0.370008,0.0,0.0
1330,332.25,44.9032,47.065,140.595,97.4478,93.4355,0.000894102,0.0556489,21.0016,182.443,0.372649,0.0,0.0
1349,337,44.624,46.3843,140.798,97.4414,93.1321,0.00073923,0.0554385,21.0019,182.423,0.400895,0.0,0.0
1368,341.75,44.7677,46.2093,144.564,97.4315,93.182,0.000758257,0.0553783,21.0019,182.403,0.395243,0.0,0.0
1387,346.5,45.0607,46.348,141.26,97.4159,93.1642,0.000726773,0.0553127,21.002,182.423,0.395514,0.0,0.0
1406,351.25,44.8038,46.7035,138.483,97.3904,93.184,0.000811916,0.0552104,21.0023,182.393,0.39131,0.0,0.0
1425,356,44.8319,46.3239,142.401,97.3752,93.3514,0.000942982,0.0556022,21.0019,182.333,0.374028,0.0,0.0
1444,360.75,44.8693,46.5821,143.268,97.3545,92.966,0.00105075,0.0568359,21.0004,182.293,0.408809,0.0,0.0
1463,365.5,44.9944,46.7649,138.344,97.3593,92.7772,0.000820385,0.0568533,21.0001,182.283,0.427262,0.0,0.0
1482,370.25,44.6864,46.6648,142.858,97.3326,93.6894,0.000890776,0.0561766,21.001,182.253,0.338109,0.0,0.0
1501,375,44.9111,46.9558,140.051,97.3083,92.4589,0.00102599,0.0558838,20.9996,182.243,0.453066,0.0,0.0
1520,379.75,45.1778,46.7139,142.34,97.2847,93.2875,0.00105307,0.0556746,21.0002,182.243,0.371854,0.0,0.0
1539,384.5,44.6768,47.0049,141.561,97.2887,92.4152,0.000919519,0.0555617,21.0002,182.223,0.455476,0.0,0.0
1558,389.25,44.7321,46.4466,141.325,97.2792,92.9037,0.00107092,0.0557166,20.9978,182.183,0.407881,0.0,0.0
1577,394,44.5148,46.7719,142.14,97.2688,93.1972,0.00102769,0.0563578,20.9984,182.152,0.378981,0.0,0.0
1596,398.75,44.8588,46.4976,142.544,97.2636,92.5055,0.000746725,0.0568857,20.9994,182.112,0.444535,0.0,0.0
1615,403.5,44.5004,46.2179,143.942,97.2485,93.0435,0.00105538,0.0564846,21.0011,182.142,0.391763,0.0,0.0
1634,408.25,44.8092,46.3799,137.95,97.2329,92.9433,0.00118646,0.0560197,21.0011,182.112,0.399892,0.0,0.0
1653,413,45.1382,46.2712,139.206,97.2401,93.4454,0.0012199,0.0556418,21.0013,182.092,0.352798,0.0,0.0
1672,417.75,44.3227,46.5892,141.711,97.2293,92.9631,0.00104567,0.0554117,21.0015,182.092,0.397678,0.0,0.0
1691,422.5,44.4558,46.3382,143.345,97.2429,93.2265,0.000959081,0.0551023,21.0007,182.082,0.373836,0.0,0.0
1710,427.25,44.5114,45.9504,142.254,97.2485,93.8617,0.000823527,0.0550014,21.0018,182.032,0.31416,0.0,0.0
1729,432,44.4672,46.3036,139.65,97.2301,93.3609,,,,181.992,0.359907,0.0,0.0
1748,436.75,44.0717,45.8226,140.617,97.2465,92.8118,,,,181.992,0.413676,0.0,0.0
1759,439.5,44.5138,46.3721,143.668,97.2453,92.8044,,,,181.962,0.414276,0.0,0.0