File: 01_Data/Carpet_Polyolefin_LowPile/Cone/Polyolefin_Carpet_LowPile_Cone_HF75Scan_220411_R2.csv
Names,Time,Stack TC,Smoke TC,Exh Press,Smoke Comp,Smoke Meas,CO Meter,CO2 Meter,O2 Meter,Sample Mass,Ext Coeff,Start Test,Flame Verif
Chan Gain,,500,500,1,1,1,1,1,1,1,1,1.0,1.0
Offset,,0,0,0.133936,0,0,0,0,0,0,0,0.0,0.0
Gain,,1,1,25.011,13.0656,13.5076,1,1,1,1.00089,1.01037,1.0,1.0
Units,sec,C,C,Pa,%,%,%,%,%,g,/m,,
Baseline,,42.7731,44.2981,142.557,98.8534,94.9229,0.000624809,0.0514667,21.005,-839.885,0.359659,,
15,3.5,41.1487,42.5237,137.823,97.9582,93.6037,0.000540374,0.0566957,20.989,194.764,0.403009,0.0,0.0
30,7.25,41.1493,42.6031,131.504,97.9091,87.5379,0.00169257,0.103348,20.9333,194.694,0.992368,0.0,1.0
45,11,42.8143,44.4118,121.343,97.8274,65.5357,0.00707575,0.282564,20.5757,194.373,3.55057,0.0,1.0
60,14.75,47.0389,48.7239,113.705,97.7461,56.0419,0.0151009,0.500667,20.1908,193.923,4.93021,0.0,0.0
75,18.5,52.2969,53.957,107.821,97.6659,50.3178,0.0259467,0.751121,19.7279,193.363,5.87783,0.0,0.0
90,22.25,60.5173,63.0643,90.146,97.5993,46.6273,0.0388036,1.11249,19.1025,192.612,6.54691,0.0,0.0
105,26,71.0386,75.52,101.045,97.528,51.4514,0.0433479,1.39604,18.6872,191.911,5.66785,0.0,0.0
120,29.75,80.6997,86.7634,103.076,97.4618,53.7059,0.0402707,1.3975,18.6779,191.291,5.28175,0.0,0.0
135,33.5,87.6434,94.9398,102.788,97.3968,51.8303,0.0337154,1.25898,18.9313,190.7,5.5909,0.0,0.0
150,37.25,91.3539,99.7614,112.055,97.3481,57.9361,0.0280642,1.05185,19.346,190.21,4.59945,0.0,0.0
165,41,93.3728,102.068,116.562,97.2943,60.7828,0.0222395,0.84102,19.6897,189.839,4.16941,0.0,0.0
180,44.75,93.2885,101.991,122.681,97.2576,67.3895,0.0168161,0.658156,20.0285,189.529,3.25158,0.0,0.0
195,48.5,92.0659,101.256,127.218,97.2313,70.8504,0.0123719,0.516349,20.2722,189.229,2.80531,0.0,0.0
210,52.25,90.9747,99.071,130.294,97.1898,75.6017,0.00896737,0.417257,20.4452,189.019,2.22626,0.0,0.0
225,56,88.9213,97.4193,128.855,97.1551,80.9815,0.00679123,0.33902,20.5616,188.838,1.61383,0.0,0.0
240,59.75,86.7915,95.0444,131.922,97.1304,83.3522,0.00531388,0.281318,20.6635,188.708,1.35585,0.0,0.0
255,63.5,84.2615,92.4928,134.931,97.1244,86.7011,0.00408467,0.238116,20.7382,188.588,1.00618,0.0,0.0
270,67.25,81.829,90.0592,132.107,97.1101,88.8326,0.00303517,0.202779,20.8002,188.518,0.789608,0.0,0.0
285,71,79.637,87.7586,137.368,97.1041,90.665,0.00228951,0.175852,20.8362,188.458,0.60811,0.0,0.0
300,74.75,77.7118,85.1535,135.316,97.138,90.9642,0.00194391,0.156534,20.8688,188.388,0.581996,0.0,0.0
315,78.5,75.268,82.8043,140.525,97.1591,91.6897,0.00183674,0.140042,20.8914,188.308,0.513517,0.0,0.0
330,82.25,73.1925,80.3021,139.75,97.1827,92.5323,0.00182371,0.123996,20.9111,188.248,0.434589,0.0,0.0
345,86,71.2604,78.1394,140.596,97.2209,92.5838,0.00152851,0.114186,20.9253,188.238,0.433146,0.0,0.0
360,89.75,68.9933,76.153,138.906,97.2417,93.0484,0.0015207,0.106929,20.9345,188.198,0.390673,0.0,0.0
375,93.5,67.6602,74.7209,138.195,97.2851,92.954,0.00149247,0.101478,20.9408,188.158,0.40363,0.0,0.0
390,97.25,66.4442,72.9325,138.757,97.3294,92.9697,0.00144582,0.0977153,20.9447,188.158,0.406168,0.0,0.0
405,101,64.3658,70.5013,140.324,97.3892,92.6733,0.00116375,0.0942178,20.948,188.088,0.439911,0.0,0.0
420,104.75,63.0732,69.1591,141.049,97.4291,93.3069,0.001162,0.0916431,20.9501,188.038,0.383153,0.0,0.0
435,108.5,61.6009,67.8328,140.067,97.4821,92.8353,0.00144924,0.0894284,20.9534,188.028,0.432883,0.0,0.0
450,112.25,60.5727,66.9577,138.467,97.5395,93.4783,0.00158003,0.0880252,20.955,187.988,0.376921,0.0,0.0
465,116,59.4955,65.595,140.539,97.6013,93.1927,0.00135925,0.0865257,20.9561,187.998,0.409661,0.0,0.0
480,119.75,58.7756,63.7267,137.129,97.6703,93.6288,0.00119813,0.0860655,20.9567,187.948,0.374542,0.0,0.0
495,123.5,57.858,62.9622,140.165,97.7194,93.4367,0.00117463,0.0858589,20.9575,187.898,0.397195,0.0,0.0
510,127.25,56.8511,62.2057,138.766,97.758,93.2355,0.000944541,0.0846302,20.9609,187.838,0.419803,0.0,0.0
525,131,56.3396,61.4572,140.159,97.8509,93.4206,0.000988694,0.0837429,20.9617,187.838,0.410646,0.0,0.0
540,134.75,55.5717,60.3028,142.729,97.8944,92.7842,0.00133195,0.0840731,20.9611,187.818,0.47517,0.0,0.0
555,138.5,55.2587,59.386,138.035,97.9514,94.3432,0.0014208,0.0838137,20.9622,187.788,0.332648,0.0,0.0
570,142.25,54.4703,59.098,138.078,97.9841,93.2166,0.00133991,0.0823347,20.9643,187.757,0.44208,0.0,0.0
585,146,54.0417,58.3026,138.318,98.0272,93.8827,0.00137503,0.0804962,20.9665,187.717,0.382863,0.0,0.0
600,149.75,53.627,57.6768,139.351,98.0702,93.6638,0.00112839,0.0788121,20.9679,187.727,0.407444,0.0,0.0
615,153.5,52.7491,57.144,141.078,98.144,94.0876,0.000992474,0.0773974,20.9692,187.697,0.3741,0.0,0.0
630,157.25,52.6332,56.454,143.92,98.1847,93.2281,0.001192,0.0758922,20.9722,187.657,0.459106,0.0,0.0
645,161,52.2258,55.7129,141.508,98.2022,93.4816,0.00134126,0.0735311,20.9763,187.627,0.43662,0.0,0.0
660,164.75,51.7755,55.6098,139.076,98.2265,93.6581,0.00138599,0.0711756,20.9789,187.617,0.422103,0.0,0.0
675,168.5,51.3777,54.9844,139.708,98.2528,94.3914,0.00122687,0.0696584,20.9821,187.577,0.355351,0.0,0.0
690,172.25,51.0196,54.3793,141.247,98.2744,94.6111,0.00117719,0.0683435,20.9824,187.597,0.336688,0.0,0.0
705,176,50.2409,53.6477,145.551,98.3059,93.5554,0.00112916,0.0683103,20.9824,187.587,0.438978,0.0,0.0
720,179.75,50.035,53.5237,136.407,98.3242,93.8469,0.00120487,0.0693515,20.9824,187.527,0.413065,0.0,0.0
735,183.5,49.8951,53.328,138.855,98.3278,94.6672,0.00128874,0.0686494,20.9834,187.517,0.336255,0.0,0.0
750,187.25,49.9851,53.0313,141.663,98.3521,93.9701,0.00114972,0.0670659,20.9845,187.527,0.403948,0.0,0.0
765,191,49.8516,52.9659,140.324,98.3697,94.0336,0.00114553,0.0656986,20.9865,187.467,0.399544,0.0,0.0
780,194.75,49.5244,52.5995,138.836,98.3932,93.8753,0.00110633,0.0642944,20.9887,187.487,0.416595,0.0,0.0
795,198.5,49.1673,52.0451,140.258,98.3948,94.7414,0.00120608,0.0631743,20.9898,187.457,0.335348,0.0,0.0
810,202.25,49.2949,51.7797,141.643,98.3944,94.2574,0.00137576,0.0622565,20.99,187.457,0.380699,0.0,0.0
825,206,48.7999,51.5588,135.178,98.4016,94.3766,0.00125572,0.0627858,20.9896,187.437,0.370151,0.0,0.0
840,209.75,48.6998,51.385,139.538,98.4167,93.9005,0.00103855,0.0638682,20.989,187.387,0.41634,0.0,0.0
855,213.5,48.0584,50.792,139.168,98.4135,94.9594,0.00077948,0.0635449,20.9891,187.397,0.316659,0.0,0.0
870,217.25,48.1405,50.7115,142.834,98.4068,94.4648,0.000945532,0.0629397,20.9893,187.417,0.362338,0.0,0.0
885,221,47.994,50.0982,138.161,98.402,94.7096,0.00107481,0.0635815,20.9882,187.367,0.338962,0.0,0.0
900,224.75,48.1749,50.5049,138.416,98.394,93.6395,0.00122439,0.0621723,20.9913,187.327,0.438956,0.0,0.0
915,228.5,47.7365,49.6497,141.053,98.3964,93.9565,0.00107722,0.0595403,20.995,187.307,0.409219,0.0,0.0
930,232.25,47.5987,49.5179,140.901,98.4,94.3094,0.00084379,0.0576896,20.9975,187.327,0.37632,0.0,0.0
945,236,47.1272,49.155,139.628,98.3804,94.2999,0.000866427,0.0564207,20.9991,187.327,0.375451,0.0,0.0
960,239.75,46.8873,48.8444,141.7,98.3565,94.0468,0.000967448,0.055792,21.0003,187.277,0.397116,0.0,0.0
975,243.5,47.0544,49.1622,141.991,98.3541,94.2298,0.000918645,0.0552924,21.001,187.247,0.379668,0.0,0.0
990,247.25,46.5191,48.6865,141.197,98.3147,93.8897,0.00100089,0.0551122,21.0029,187.227,0.408155,0.0,0.0
1005,251,46.809,48.6332,139.954,98.3047,94.1713,0.00108706,0.0552134,21.0025,187.247,0.380718,0.0,0.0
1020,254.75,46.3597,48.7231,142.682,98.2768,94.3939,0.00111311,0.0549403,21.0015,187.217,0.357277,0.0,0.0
1035,258.5,46.543,48.6028,138.906,98.2329,93.9891,0.0010315,0.055065,21.0013,187.197,0.39141,0.0,0.0
1050,262.25,47.0439,48.4639,142.111,98.2202,93.8671,0.000823003,0.0549525,21.0011,187.187,0.401773,0.0,0.0
1065,266,46.3779,48.0146,143.329,98.1763,94.0658,0.00101021,0.0548854,21,187.177,0.379074,0.0,0.0
1080,269.75,45.8153,48.1115,140.147,98.158,94.0035,0.000844222,0.0548373,20.9998,187.157,0.383285,0.0,0.0
1095,273.5,46.0045,48.1583,140.063,98.132,94.7406,0.000667839,0.0548624,21.0001,187.127,0.311725,0.0,0.0
1110,277.25,46.2886,47.5137,138.266,98.1348,94.039,0.000655619,0.0550312,21.0005,187.127,0.377854,0.0,0.0
1125,281,46.1979,47.777,140.882,98.091,93.8617,0.000685592,0.0549603,20.9994,187.077,0.390613,0.0,0.0
1140,284.75,46.3555,47.8397,139.223,98.0858,93.6206,0.000613086,0.0549621,20.9982,187.087,0.412945,0.0,0.0
1155,288.5,45.6418,47.7755,139.157,98.073,94.6763,0.000760689,0.0549935,21.0006,187.077,0.31241,0.0,0.0
1170,292.25,45.9846,47.333,143.219,98.0547,93.7236,0.000860594,0.0549984,20.9998,187.097,0.400383,0.0,0.0
1185,296,46.0153,47.4244,141.652,98.0192,94.4454,0.000773331,0.0549831,21.0012,187.067,0.329181,0.0,0.0
1200,299.75,45.9518,47.9518,140.747,98.006,93.3992,0.000683317,0.0549328,21.0024,187.037,0.426717,0.0,0.0
1215,303.5,45.826,47.9905,140.751,97.9997,94.1152,0.000865425,0.0549238,21.0027,186.987,0.358454,0.0,0.0
1230,307.25,45.7859,47.561,141.793,98.0124,93.9755,0.000768946,0.0548223,21.0021,187.007,0.372777,0.0,0.0
1245,311,45.1439,47.0721,141.163,97.9961,93.4858,0.000991579,0.0548946,21.0034,186.967,0.417605,0.0,0.0
1260,314.75,45.8054,47.7968,142.358,97.9821,93.4511,0.000972152,0.0548866,21.004,186.987,0.419626,0.0,0.0
1275,318.5,46.1232,47.202,140.324,97.9865,93.9466,0.000597845,0.0548818,21.0046,186.937,0.373155,0.0,0.0
1290,322.25,45.4529,47.6343,142.955,97.9765,93.6156,0.000596223,0.0549258,21.0047,186.917,0.403536,0.0,0.0
1305,326,45.4027,47.6287,138.738,97.9757,94.7739,0.000808998,0.0548956,21.003,186.897,0.294472,0.0,0.0
1320,329.75,45.1837,47.1952,139.767,97.9626,94.2471,0.000890219,0.0548747,21.0025,186.897,0.342685,0.0,0.0
1335,333.5,45.4219,46.8406,142.412,97.9398,93.5439,0.000941738,0.0549618,21.0037,186.867,0.407011,0.0,0.0
1350,337.25,45.4747,46.9318,142.504,97.941,94.1985,,0.0549971,,186.827,0.345313,0.0,0.0
1365,341,45.4459,47.174,141.142,97.9315,93.9697,,,,186.827,0.365999,0.0,0.0
1380,344.75,45.511,47.3161,141.968,97.9319,93.642,,,,186.827,0.396998,0.0,0.0
1390,347.25,45.3002,47.0968,142.801,97.9191,93.9165,,,,186.797,0.369897,0.0,0.0