File: 01_Data/Carpet_Polyolefin_LowPile/Cone/Polyolefin_Carpet_LowPile_Cone_HF50Scan_220411_R1.csv
Names,Time,Stack TC,Smoke TC,Exh Press,Smoke Comp,Smoke Meas,CO Meter,CO2 Meter,O2 Meter,Sample Mass,Ext Coeff,Start Test,Flame Verif
Chan Gain,,500,500,1,1,1,1,1,1,1,1,1.0,1.0
Offset,,0,0,0.133936,0,0,0,0,0,0,0,0.0,0.0
Gain,,1,1,25.011,13.0656,13.5076,1,1,1,1.00089,1.01037,1.0,1.0
Units,sec,C,C,Pa,%,%,%,%,%,g,/m,,
Baseline,,29.106,30.2865,149.019,98.0413,94.8889,0.00115553,0.0536855,21.0035,-834.922,0.289718,,
21,5,28.0271,28.9827,149.559,98.0969,94.506,0.000807695,0.0561774,20.9999,199.258,0.330524,0.0,0.0
42,10.25,28.0739,29.2417,146.544,98.0938,92.6852,0.00144745,0.0611295,20.9859,199.198,0.502657,0.0,0.0
63,15.5,29.188,29.7339,134.857,98.1029,81.5195,0.00432897,0.179902,20.7753,199.008,1.64119,0.0,1.0
84,20.75,31.3481,32.359,125.697,98.1109,70.9304,0.0102436,0.387463,20.4281,198.627,2.87513,0.0,0.0
105,26,37.2801,38.4108,114.105,98.1169,62.3744,0.0167688,0.595043,20.0765,198.037,4.01494,0.0,0.0
126,31.25,44.697,46.1035,104.577,98.1133,59.04,0.0230225,0.844064,19.6462,197.356,4.50155,0.0,0.0
147,36.5,54.8351,57.4252,106.711,98.1296,59.1282,0.0267134,1.04478,19.3456,196.545,4.4898,0.0,0.0
168,41.75,64.6585,69.0178,102.134,98.1384,63.2067,0.0255953,1.08824,19.2851,195.775,3.89941,0.0,0.0
189,47,72.4416,77.8704,107.171,98.1368,64.3914,0.0221576,0.986441,19.4464,195.054,3.73468,0.0,0.0
210,52.25,77.6475,83.8056,124.273,98.1528,72.954,0.0172803,0.792153,19.8055,194.554,2.6296,0.0,0.0
231,57.5,78.3795,85.0626,129.722,98.1747,77.6376,0.0130238,0.587932,20.1316,194.203,2.0801,0.0,0.0
252,62.75,76.8903,84.0461,138.302,98.1823,83.2137,0.00908559,0.405603,20.4612,193.883,1.46605,0.0,0.0
273,68,74.146,80.8355,141.221,98.2086,88.1933,0.0054677,0.288403,20.6517,193.713,0.953321,0.0,0.0
294,73.25,70.6709,77.9577,146.935,98.2261,91.5813,0.00371331,0.213678,20.7802,193.573,0.620804,0.0,0.0
315,78.5,67.2595,73.6554,144.883,98.2321,93.1655,0.00288379,0.168422,20.8492,193.463,0.469345,0.0,0.0
336,83.75,64.0883,70.3755,144.395,98.2604,93.5183,0.00187536,0.140956,20.8844,193.423,0.438394,0.0,0.0
357,89,61.1656,67.3027,142.982,98.2879,94.3333,0.0015737,0.123723,20.9081,193.372,0.363975,0.0,0.0
378,94.25,57.2051,64.1842,145.877,98.3039,94.5621,0.00194142,0.111667,20.9253,193.302,0.343945,0.0,0.0
399,99.5,56.03,61.8863,146.042,98.3318,95.0658,0.0017216,0.103001,20.9362,193.262,0.299374,0.0,0.0
420,104.75,52.9169,58.8696,143.681,98.4008,94.2282,0.00160191,0.0965995,20.9461,193.222,0.384026,0.0,0.0
441,110,51.1267,56.8403,146.507,98.4299,94.6548,0.00154186,0.0917416,20.9527,193.172,0.346609,0.0,0.0
462,115.25,49.5297,54.9794,146.305,98.4542,95.3997,0.00160236,0.0869168,20.9588,193.142,0.279325,0.0,0.0
483,120.5,47.6016,52.758,146.259,98.5076,95.027,0.00170955,0.083515,20.9632,193.122,0.318822,0.0,0.0
504,125.75,46.2783,50.9267,148.288,98.5459,94.8646,0.00180622,0.0803715,20.9671,193.092,0.337426,0.0,0.0
525,131,44.9037,49.6497,145.14,98.5734,94.7624,0.00186226,0.0775448,20.972,193.062,0.349456,0.0,0.0
546,136.25,43.7393,48.6176,145.951,98.6296,94.7167,0.00184973,0.0754233,20.9749,193.042,0.358789,0.0,0.0
567,141.5,42.5657,46.9348,142.679,98.6392,94.7929,0.00195529,0.0739544,20.977,193.022,0.352516,0.0,0.0
588,146.75,41.8101,45.5563,147.694,98.6627,94.4743,0.00200862,0.072237,20.9795,193.002,0.384473,0.0,0.0
609,152,40.3346,44.1376,148.135,98.7066,95.0596,0.00167793,0.0703742,20.9785,192.972,0.333668,0.0,0.0
630,157.25,39.847,43.3184,147.723,98.7218,94.7933,0.00151161,0.0692273,20.9806,192.952,0.359892,0.0,0.0
651,162.5,39.1645,42.7497,147.148,98.7385,95.0415,0.00169141,0.0679279,20.9826,192.922,0.338223,0.0,0.0
672,167.75,38.3995,42.2483,146.966,98.7576,94.882,0.00185671,0.0666799,20.9844,192.922,0.354829,0.0,0.0
693,173,37.4819,40.7446,144.387,98.7756,95.504,0.00197592,0.0657756,20.9884,192.892,0.298525,0.0,0.0
714,178.25,37.6678,40.7335,145.135,98.7612,95.6557,0.00187595,0.0654396,20.9902,192.862,0.28317,0.0,0.0
735,183.5,37.4107,39.8416,143.914,98.7652,95.0951,0.00199388,0.0650619,20.9904,192.832,0.335625,0.0,0.0
756,188.75,37.3116,39.1232,145.642,98.7644,94.4718,0.00158801,0.064296,20.9917,192.812,0.393834,0.0,0.0
777,194,36.6585,39.3731,144.752,98.7413,94.3436,0.00146601,0.0635231,20.9926,192.822,0.403794,0.0,0.0
798,199.25,36.6968,38.8957,148.599,98.7381,95.1829,0.0012583,0.0630212,20.9927,192.772,0.325012,0.0,0.0
819,204.5,36.6929,38.0225,147.776,98.7265,95.1359,0.0013971,0.0627541,20.9927,192.742,0.328351,0.0,0.0
840,209.75,36.0673,37.8883,149.558,98.6982,95.0303,0.00123355,0.0623218,20.9935,192.722,0.335645,0.0,0.0
861,215,35.3314,37.9786,146.612,98.6843,95.1334,0.00142103,0.0621625,20.9923,192.692,0.324786,0.0,0.0
882,220.25,36.0058,37.2557,148.94,98.6707,94.5963,0.00139192,0.0620437,20.9948,192.692,0.373749,0.0,0.0
903,225.5,35.3213,37.272,148.285,98.634,94.7566,0.00146495,0.0619968,20.9966,192.692,0.355443,0.0,0.0
924,230.75,34.7571,37.0343,144.597,98.6097,95.0254,0.00109492,0.0618453,20.996,192.662,0.328154,0.0,0.0
945,236,35.9317,36.6591,148.248,98.5914,94.4203,0.000952909,0.0614756,20.9953,192.632,0.383127,0.0,0.0
966,241.25,35.0031,36.4271,144.987,98.5575,94.52,0.00123885,0.0614122,20.9951,192.612,0.370721,0.0,0.0
987,246.5,34.8794,36.2395,145.788,98.5367,94.3176,0.00115203,0.0616168,20.9956,192.602,0.387855,0.0,0.0
1008,251.75,34.8144,36.4344,147.264,98.5268,94.7884,0.00107451,0.0618312,20.9955,192.572,0.342832,0.0,0.0
1029,257,35.1513,35.9586,143.663,98.4654,93.7953,0.00100504,0.0621802,20.9934,192.542,0.430647,0.0,0.0
1050,262.25,35.0449,36.0644,144.924,98.4004,94.2006,0.00095327,0.0624261,20.9932,192.532,0.386588,0.0,0.0
1071,267.5,34.2237,35.5258,148.764,98.3713,94.4124,0.000818054,0.0623388,20.9942,192.502,0.364054,0.0,0.0
1092,272.75,34.2518,36.4612,146.394,98.2792,94.5019,0.00101832,0.0622377,20.9959,192.502,0.347358,0.0,0.0
1113,278,34.7452,35.6751,146.462,98.1815,94.7026,0.00118377,0.062194,20.9954,192.472,0.319736,0.0,0.0
1134,283.25,34.1007,35.4559,148.126,98.1085,94.4252,0.00123157,0.0623417,20.9942,192.462,0.339148,0.0,0.0
1155,288.5,34.4575,35.57,145.599,98.0064,94.4875,0.00132542,0.0626305,20.9938,192.432,0.324082,0.0,0.0
1176,293.75,34.7086,35.712,147.657,97.8828,94.006,0.00119437,0.0624929,20.9922,192.382,0.358175,0.0,0.0
1197,299,34.0582,35.0887,144.967,97.7855,93.5938,0.00122924,0.0622634,20.9939,192.362,0.388311,0.0,0.0
1218,304.25,34.1349,35.9073,147.85,97.642,93.2562,0.00109869,0.0624103,20.9939,192.352,0.407319,0.0,0.0
1239,309.5,34.5014,35.3061,148.563,97.4929,93.7636,0.0011973,0.0626013,20.9921,192.342,0.345676,0.0,0.0
1260,314.75,34.2503,35.1941,147.656,97.3517,94.0039,0.00107912,0.0626439,20.992,192.312,0.310149,0.0,0.0
1281,320,34.4011,35.7186,145.063,97.2026,93.8258,0.00111491,0.0621963,20.9916,192.282,0.313368,0.0,0.0
1302,325.25,34.4692,35.549,145.532,97.0666,94.0204,0.00118335,0.062069,20.9912,192.272,0.282601,0.0,0.0
1323,330.5,34.5478,35.617,145.094,96.9626,93.5752,0.000985506,0.0617193,20.9932,192.242,0.31516,0.0,0.0
1344,335.75,34.2403,35.1602,150.236,96.8728,92.9227,0.00124924,0.0614276,20.9942,192.211,0.368977,0.0,0.0
1365,341,33.9679,35.2558,145.888,96.8071,92.717,0.00100928,0.0610886,20.9943,192.191,0.382598,0.0,0.0
1386,346.25,34.2845,35.3688,145.877,96.7465,93.1024,0.00106232,0.0609141,20.9943,192.181,0.34028,0.0,0.0
1407,351.5,34.2391,35.3654,145.971,96.7086,93.0909,0.00118146,0.0603517,20.9943,192.171,0.337909,0.0,0.0
1428,356.75,34.1631,35.3434,147.366,96.6898,93.2867,0.00129049,0.0602046,20.995,192.141,0.317568,0.0,0.0
1449,362,34.2901,35.3417,148.585,96.697,92.8567,0.00131662,0.0597606,20.9973,192.111,0.359169,0.0,0.0
1470,367.25,34.3055,35.0685,147.137,96.7146,93.1923,0.00109574,0.0592736,20.996,192.091,0.328807,0.0,0.0
1491,372.5,33.3135,34.6884,147.406,96.7229,93.2562,0.00123268,0.0590515,20.9968,192.071,0.3235,0.0,0.0
1512,377.75,33.6493,34.987,149.949,96.75,93.44,0.001389,0.0584228,21.0003,192.071,0.308528,0.0,0.0
1533,383,34.0063,35.0475,147.835,96.8186,93.3856,0.00129683,0.0578024,21.0008,192.051,0.319971,0.0,0.0
1554,388.25,33.5548,34.3509,144.48,96.8445,93.0966,0.00107337,0.0558868,21.0037,192.031,0.34981,0.0,0.0
1575,393.5,33.2337,34.6299,146.251,96.8748,93.4037,0.00111845,0.0550626,21.0053,192.021,0.323395,0.0,0.0
1596,398.75,33.2457,34.3128,141.044,96.9462,93.0525,0.00116321,0.0547036,21.0055,191.991,0.363311,0.0,0.0
1617,404,32.1806,33.3003,146.558,97.01,93.0233,0.00119756,0.0546635,21.0055,191.991,0.37193,0.0,0.0
1638,409.25,33.245,34.0726,146.169,97.0583,93.4087,0.000882586,0.0546259,21.0053,191.951,0.33969,0.0,0.0
1659,414.5,32.9422,34.5169,146.041,97.142,93.1997,0.00088467,0.0545519,21.0055,191.921,0.367186,0.0,0.0
1680,419.75,32.9697,34.5008,146.056,97.2114,93.6234,0.000806405,0.054424,21.0055,191.911,0.333307,0.0,0.0
1701,425,32.655,34.1027,146.318,97.274,93.4985,0.000892305,0.0544787,21.0055,191.891,0.350844,0.0,0.0
1722,430.25,33.1898,34.0326,145.39,97.3346,93.5282,0.000866045,0.0543605,21.006,191.871,0.353551,0.0,0.0
1743,435.5,32.3025,33.8728,147.389,97.394,94.0625,0.000685206,0.0543933,21.0061,191.911,0.308478,0.0,0.0
1764,440.75,32.4444,33.7907,144.695,97.4223,93.5773,0.00116626,0.0546179,21.0049,191.841,0.356887,0.0,0.0
1785,446,32.787,33.6434,147.013,97.5008,94.1123,0.00102272,0.0547733,21.004,191.841,0.313499,0.0,0.0
1806,451.25,32.9388,33.9537,147.054,97.5662,93.6424,0.00132663,0.0550266,21.0045,191.831,0.363807,0.0,0.0
1827,456.5,33.0315,33.9925,150.322,97.6109,94.3679,0.00130499,0.055119,21.0042,191.801,0.299461,0.0,0.0
1848,461.75,32.8886,33.8828,148.257,97.6779,94.06,0.000878026,0.0549136,21.0037,191.761,0.334508,0.0,0.0
1869,467,33.183,33.6336,145.311,97.7138,94.75,0.00113043,0.054876,21.0046,191.761,0.27298,0.0,0.0
1890,472.25,32.563,33.7956,148.108,97.7732,93.9458,0.00115503,0.0548787,21.0074,191.731,0.353916,0.0,0.0
1911,477.5,32.9583,33.641,144.569,97.8382,94.6058,0.00100337,0.0548326,21.0058,191.711,0.297763,0.0,0.0
1932,482.75,32.0716,33.2409,145.622,97.9135,94.309,0.000909808,0.0547742,21.005,191.691,0.332435,0.0,0.0
1953,488,33.0094,34.0827,147.328,97.9466,94.325,0.000972998,0.05467,21.0046,191.681,0.333919,0.0,0.0
1974,493.25,32.4006,34.0657,151.576,97.9881,94.4969,0.00119994,0.0544754,21.0041,191.671,0.321534,0.0,0.0
1995,498.5,32.5118,33.352,144.632,98.0347,94.196,,,,191.651,0.354021,0.0,0.0
2016,503.75,32.7908,34.192,147.174,98.0419,95.0184,,,,191.631,0.277628,0.0,0.0
2021,505,32.7071,33.6365,145.475,98.0483,94.9174,,,,191.621,0.28763,0.0,0.0