File: 01_Data/PP/STA/N2/30K_min/PP_STA_N2_30KData_210826_R2.csv
##Temp./Â°C,Time/min,Mass loss(subtr.2)/mg,DSC(subtr.2)/mW,Sensit./(uV/mW)
49.087,10.01,-0.04058,0.007962356,1.054
51.587,11.52863,-0.04344957,0.51065,1.05405
54.087,11.8804,-0.04563661,0.88014,1.05406
56.587,12.13505,-0.04799772,1.18221,1.05405
59.087,12.34959,-0.04674907,1.43156,1.054
61.587,12.53932,-0.04730806,1.64163,1.05392
64.087,12.71442,-0.04792825,1.82158,1.05382
66.587,12.87815,-0.04766848,1.97015,1.05368
69.087,13.03463,-0.04824922,2.08316,1.05352
71.587,13.18397,-0.0393724,2.19402,1.05332
74.087,13.3283,-0.04777219,2.26999,1.05309
76.587,13.4677,-0.045817,2.36784,1.05284
79.087,13.6031,-0.0490782,2.43818,1.05255
81.587,13.7339,-0.04846014,2.54419,1.05224
84.087,13.86108,-0.05005541,2.63355,1.0519
86.587,13.9843,-0.05206834,2.72838,1.05153
89.087,14.1042,-0.05375641,2.8195,1.05113
91.587,14.22065,-0.04535505,2.9365,1.0507
94.087,14.3341,-0.05779994,3.01415,1.05024
96.587,14.44495,-0.05188539,3.12533,1.04976
99.087,14.5531,-0.05381465,3.22462,1.04925
101.587,14.65894,-0.05343961,3.3318,1.04871
104.087,14.76283,-0.05370823,3.43025,1.04814
106.587,14.86469,-0.05346654,3.53956,1.04755
109.087,14.9651,-0.0543947,3.64541,1.04692
111.587,15.0638,-0.0546066,3.76908,1.04628
114.087,15.16115,-0.05294108,3.87991,1.0456
116.587,15.25699,-0.05312463,3.99369,1.0449
119.087,15.3516,-0.05407015,4.12486,1.04417
121.587,15.44466,-0.05555726,4.25004,1.04341
124.087,15.53685,-0.05427735,4.39633,1.04263
126.587,15.6271,-0.05586758,4.55259,1.04183
129.087,15.7173,-0.05638401,4.72309,1.04099
131.587,15.80597,-0.06709433,4.91541,1.04014
134.087,15.89359,-0.05287443,5.14306,1.03925
136.587,15.9801,-0.05724254,5.4024,1.03835
139.087,16.06605,-0.05679187,5.70368,1.03741
141.587,16.151,-0.05668531,6.06272,1.03646
144.087,16.23511,-0.05708821,6.50326,1.03547
146.587,16.31832,-0.05664202,7.04398,1.03447
149.087,16.40128,-0.05668475,7.69218,1.03344
151.587,16.48357,-0.05627988,8.45819,1.03238
154.087,16.56508,-0.05825,9.30392,1.03131
156.587,16.64605,-0.0583571,10.18367,1.03021
159.087,16.72685,-0.05803434,10.99877,1.02908
161.587,16.8068,-0.05703345,11.363,1.02794
164.087,16.88627,-0.05856711,10.95006,1.02677
166.587,16.96513,-0.05673432,9.94282,1.02558
169.087,17.0431,-0.05627539,8.75844,1.02436
171.587,17.12051,-0.05910795,7.76067,1.02313
174.087,17.1974,-0.05642829,7.06328,1.02187
176.587,17.27368,-0.05778983,6.60862,1.02059
179.087,17.34959,-0.05910996,6.34384,1.01929
181.587,17.42502,-0.05780165,6.19227,1.01797
184.087,17.49993,-0.05746647,6.10875,1.01663
186.587,17.5745,-0.05794286,6.07532,1.01526
189.087,17.64892,-0.05909734,6.09176,1.01388
191.587,17.7226,-0.0578005,6.10062,1.01248
194.087,17.79598,-0.05910909,6.13429,1.01105
196.587,17.8691,-0.06040998,6.18914,1.00961
199.087,17.94215,-0.05914181,6.22957,1.00815
201.587,18.01465,-0.06018599,6.27356,1.00667
204.087,18.08707,-0.05980564,6.32665,1.00516
206.587,18.1595,-0.06175475,6.36545,1.00364
209.087,18.23135,-0.06043104,6.41886,1.00211
211.587,18.3029,-0.06174546,6.47246,1.00055
214.087,18.37446,-0.06045361,6.52901,0.99898
216.587,18.4459,-0.06043724,6.57485,0.99738
219.087,18.51701,-0.06043,6.61898,0.99577
221.587,18.58791,-0.06043003,6.67079,0.99415
224.087,18.65866,-0.06303314,6.71355,0.9925
226.587,18.7291,-0.06175267,6.76544,0.99084
229.087,18.7995,-0.06306886,6.8151,0.98916
231.587,18.86956,-0.06306998,6.85702,0.98747
234.087,18.93998,-0.06502727,6.89985,0.98576
236.587,19.00989,-0.06536001,6.94526,0.98403
239.087,19.07958,-0.06439369,6.99167,0.98229
241.587,19.1493,-0.06537001,7.04357,0.98053
244.087,19.21882,-0.06537,7.07831,0.97876
246.587,19.28811,-0.06537,7.12136,0.97697
249.087,19.35732,-0.06537,7.16148,0.97517
251.587,19.42641,-0.06537101,7.1991,0.97335
254.087,19.4955,-0.06667782,7.23586,0.97152
256.587,19.56438,-0.06590189,7.27711,0.96968
259.087,19.63319,-0.06629187,7.31538,0.96782
261.587,19.70187,-0.06669011,7.35412,0.96595
264.087,19.7706,-0.0653542,7.39166,0.96406
266.587,19.8389,-0.06537097,7.42412,0.96217
269.087,19.90772,-0.06668912,7.47084,0.96026
271.587,19.9763,-0.06689914,7.49843,0.95833
274.087,20.04459,-0.06600403,7.52669,0.9564
276.587,20.11274,-0.0660995,7.57436,0.95445
279.087,20.18134,-0.06699813,7.6029,0.95249
281.587,20.2497,-0.0670072,7.63462,0.95052
284.087,20.31788,-0.06800014,7.66768,0.94854
286.587,20.386,-0.068,7.70319,0.94655
289.087,20.45423,-0.068,7.73973,0.94454
291.587,20.52242,-0.06799643,7.77124,0.94253
294.087,20.59049,-0.06931013,7.79597,0.94051
296.587,20.65857,-0.06930998,7.83166,0.93847
299.087,20.72665,-0.06996029,7.86163,0.93643
301.587,20.79468,-0.07062999,7.89278,0.93437
304.087,20.86299,-0.07063426,7.91835,0.93231
306.587,20.93103,-0.06930503,7.95674,0.93024
309.087,20.99904,-0.07195326,7.9834,0.92816
311.587,21.0672,-0.07062971,8.01585,0.92607
314.087,21.1353,-0.07151918,8.05119,0.92397
316.587,21.20327,-0.07195458,8.07227,0.92186
319.087,21.27149,-0.07062967,8.10662,0.91975
321.587,21.33955,-0.07063,8.136,0.91763
324.087,21.40767,-0.07064202,8.16825,0.9155
326.587,21.47576,-0.07194209,8.19709,0.91336
329.087,21.5439,-0.07326867,8.22485,0.91122
331.587,21.61208,-0.07326637,8.24231,0.90907
334.087,21.6804,-0.07325369,8.28392,0.90691
336.587,21.74836,-0.0748461,8.31359,0.90475
339.087,21.81682,-0.0741785,8.34367,0.90258
341.587,21.88513,-0.07382349,8.39116,0.90041
344.087,21.95362,-0.07643427,8.41143,0.89823
346.587,22.02209,-0.07676875,8.44724,0.89604
349.087,22.09069,-0.07545921,8.51333,0.89385
351.587,22.15921,-0.07677974,8.53746,0.89166
354.087,22.2279,-0.07677943,8.5587,0.88946
356.587,22.29662,-0.07656655,8.58082,0.88725
359.087,22.36531,-0.07908227,8.61596,0.88504
361.587,22.43412,-0.07919041,8.64619,0.88283
364.087,22.5031,-0.08044083,8.66228,0.88062
366.587,22.57216,-0.0803908,8.69322,0.8784
369.087,22.64116,-0.08170897,8.73569,0.87617
371.587,22.71033,-0.08171001,8.76387,0.87395
374.087,22.77964,-0.08234853,8.7891,0.87172
376.587,22.84889,-0.08390722,8.81773,0.86948
379.087,22.91825,-0.08565806,8.8569,0.86725
381.587,22.98783,-0.0863598,8.90513,0.86501
384.087,23.05738,-0.08719182,8.94985,0.86277
386.587,23.1269,-0.0898028,9.00055,0.86053
389.087,23.19673,-0.09125696,9.04956,0.85829
391.587,23.26654,-0.09168173,9.1157,0.85605
394.087,23.33641,-0.09530105,9.19522,0.8538
396.587,23.40641,-0.09780295,9.25926,0.85155
399.087,23.47651,-0.10078,9.3485,0.84931
401.587,23.54675,-0.104,9.41784,0.84706
404.087,23.61694,-0.10689,9.50205,0.84481
406.587,23.6874,-0.11333,9.59604,0.84256
409.087,23.75791,-0.11773,9.73114,0.84032
411.587,23.82865,-0.12152,9.88496,0.83807
414.087,23.89925,-0.12829,9.99694,0.83582
416.587,23.9699,-0.13392,10.0679,0.83357
419.087,24.0409,-0.13949,10.08893,0.83133
421.587,24.1121,-0.14966,10.12406,0.82908
424.087,24.18309,-0.15652,10.22363,0.82683
426.587,24.2542,-0.16835,10.34528,0.82459
429.087,24.3257,-0.1771,10.48891,0.82235
431.587,24.39716,-0.18946,10.69386,0.82011
434.087,24.46865,-0.19867,10.96139,0.81787
436.587,24.54056,-0.21347,11.27719,0.81563
439.087,24.6123,-0.23031,11.6622,0.8134
441.587,24.6841,-0.24981,12.16716,0.81117
444.087,24.75602,-0.2737,12.73258,0.80894
446.587,24.828,-0.3012,13.37266,0.80671
449.087,24.9003,-0.33081,14.03541,0.80449
451.587,24.97254,-0.36484,14.94268,0.80227
454.087,25.04474,-0.40799,15.94902,0.80005
456.587,25.11714,-0.45962,16.94772,0.79784
459.087,25.18966,-0.51978,18.2144,0.79562
461.587,25.26221,-0.58999,19.54897,0.79342
464.087,25.33473,-0.6726,20.8699,0.79121
466.587,25.40728,-0.76697,22.37071,0.78902
469.087,25.47975,-0.87862,24.26513,0.78682
471.587,25.55246,-1.01547,25.7577,0.78463
474.087,25.62481,-1.17381,27.4519,0.78244
476.587,25.6971,-1.36693,28.83776,0.78026
479.087,25.76954,-1.57173,29.9518,0.77808
481.587,25.84189,-1.79385,30.8981,0.77591
484.087,25.91408,-2.04285,31.0935,0.77375
486.587,25.98661,-2.31171,30.21422,0.77158
489.087,26.05932,-2.61083,28.1708,0.76943
491.587,26.13249,-2.89608,25.06152,0.76728
494.087,26.20549,-3.18427,21.04004,0.76513
496.587,26.27745,-3.43953,16.49184,0.76299
499.087,26.3513,-3.59307,11.5764,0.76086
501.587,26.42748,-3.75129,7.38376,0.75873
504.087,26.5042,-3.8612,4.61492,0.75661
506.587,26.5813,-3.93037,3.15044,0.75449
509.087,26.65815,-3.97064,2.35919,0.75238
511.587,26.7347,-3.99734,1.79624,0.75028
514.087,26.81077,-4.01195,1.36222,0.74818
516.587,26.88666,-4.01976,0.97849,0.74609
519.087,26.9621,-4.02518,0.68712,0.74401
521.587,27.0378,-4.029,0.47017,0.74194
524.087,27.1133,-4.02811,0.32876,0.73987
526.587,27.18877,-4.03069,0.23821,0.73781
529.087,27.26448,-4.03074,0.19205,0.73575
531.587,27.3403,-4.03074,0.15492,0.73371
534.087,27.416,-4.03074,0.10743,0.73167
536.587,27.49162,-4.02924,0.09467526,0.72963
539.087,27.56803,-4.02522,0.06809581,0.72761
541.587,27.6441,-4.02658,0.03323768,0.72559
544.087,27.7203,-4.02789,0.02313314,0.72359
546.587,27.7965,-4.02927,-0.006784573,0.72159
549.087,27.87285,-4.03024,-0.03618846,0.71959
551.587,27.9492,-4.03151,-0.05094779,0.71761
554.087,28.0257,-4.03057,-0.06159824,0.71563
556.587,28.10235,-4.03014,-0.07871055,0.71366
559.087,28.17912,-4.03151,-0.07676071,0.71171
561.587,28.25579,-4.03151,-0.08787922,0.70975
564.087,28.33255,-4.03184,-0.08300824,0.70781
566.587,28.4094,-4.03184,-0.08573897,0.70588
569.087,28.48658,-4.03183,-0.0744324,0.70395
571.587,28.56353,-4.03184,-0.0852268,0.70204
574.087,28.64072,-4.03315,-0.07743529,0.70013
576.587,28.7178,-4.03246,-0.068822,0.69823
579.087,28.7951,-4.03191,-0.06590253,0.69634
581.587,28.87257,-4.03337,-0.07229764,0.69446
584.087,28.95005,-4.03304,-0.08481844,0.69259
586.587,29.0277,-4.03205,-0.07813708,0.69073
589.087,29.10534,-4.03073,-0.06204891,0.68888
591.587,29.18318,-4.03166,-0.05747366,0.68703
594.087,29.26105,-4.03163,-0.04321024,0.6852
596.587,29.33892,-4.03075,-0.05320005,0.68337
599.087,29.417,-4.03337,-0.03450736,0.68156
601.587,29.49509,-4.03468,-0.03540439,0.67975
604.087,29.57317,-4.03337,-0.02349278,0.67795
606.587,29.65137,-4.03335,-0.00634897,0.67617
609.087,29.7297,-4.03468,-0.01167371,0.67439
611.587,29.808,-4.03608,-0.000935792,0.67262
614.087,29.88638,-4.03469,-0.01350441,0.67086
616.587,29.9649,-4.03469,-0.00959721,0.66912
617.687,29.9991,-4.03469,0.01011027,0.66835