File: 01_Data/PP/STA/N2/30K_min/PP_STA_N2_30KData_210826_R1.csv
##Temp./Â°C,Time/min,Mass loss(subtr.2)/mg,DSC(subtr.2)/mW,Sensit./(uV/mW)
49.15,10.00917,-0.02237,0.03257322,1.054
51.65,11.53011,-0.02747095,0.51588,1.05405
54.15,11.88088,-0.02555416,0.84148,1.05406
56.65,12.1356,-0.02593447,1.11043,1.05405
59.15,12.34902,-0.02611397,1.34841,1.054
61.65,12.5382,-0.02623841,1.53553,1.05392
64.15,12.7128,-0.02918956,1.70016,1.05382
66.65,12.8763,-0.02819831,1.83248,1.05368
69.15,13.03224,-0.02645375,1.94249,1.05351
71.65,13.1817,-0.02677457,2.03816,1.05331
74.15,13.32593,-0.02786021,2.12088,1.05309
76.65,13.465,-0.0283851,2.20583,1.05283
79.15,13.60014,-0.02768029,2.28869,1.05255
81.65,13.731,-0.02856673,2.37952,1.05223
84.15,13.85803,-0.02789045,2.46047,1.05189
86.65,13.98158,-0.03017804,2.54445,1.05152
89.15,14.10089,-0.02936815,2.63792,1.05112
91.65,14.2176,-0.02977651,2.73007,1.05069
94.15,14.3313,-0.03048096,2.81111,1.05023
96.65,14.442,-0.02912758,2.92011,1.04975
99.15,14.55,-0.03115373,3.0104,1.04924
101.65,14.65575,-0.03158433,3.1125,1.04869
104.15,14.75966,-0.03009844,3.21189,1.04813
106.65,14.86183,-0.03057799,3.30272,1.04753
109.15,14.96204,-0.03054101,3.39317,1.04691
111.65,15.0605,-0.03185921,3.49365,1.04626
114.15,15.15753,-0.03266766,3.59706,1.04558
116.65,15.25345,-0.03292497,3.70926,1.04488
119.15,15.3476,-0.03180286,3.81555,1.04415
121.65,15.44096,-0.03140055,3.93416,1.04339
124.15,15.53271,-0.03107193,4.06335,1.04261
126.65,15.62355,-0.03112475,4.21393,1.04181
129.15,15.71305,-0.03119374,4.36869,1.04097
131.65,15.8016,-0.03221731,4.5444,1.04011
134.15,15.8892,-0.03181311,4.75365,1.03923
136.65,15.97586,-0.03157366,4.98057,1.03832
139.15,16.06161,-0.03160261,5.26826,1.03739
141.65,16.1464,-0.03041234,5.60814,1.03643
144.15,16.23056,-0.0303735,6.01392,1.03545
146.65,16.314,-0.03077161,6.52557,1.03444
149.15,16.3967,-0.03061511,7.11805,1.03341
151.65,16.4789,-0.03181017,7.8475,1.03236
154.15,16.5605,-0.03180916,8.62887,1.03128
156.65,16.64157,-0.03172578,9.39108,1.03018
159.15,16.72192,-0.03040997,10.07499,1.02906
161.65,16.80195,-0.03137702,10.3293,1.02791
164.15,16.88141,-0.03072088,9.90414,1.02674
166.65,16.9602,-0.03179602,8.96827,1.02555
169.15,17.03824,-0.03181081,7.89903,1.02433
171.65,17.11555,-0.03313694,6.98623,1.0231
174.15,17.19241,-0.03181814,6.35632,1.02184
176.65,17.26882,-0.0314822,5.95629,1.02056
179.15,17.3447,-0.03181177,5.71264,1.01926
181.65,17.4201,-0.03312576,5.56403,1.01794
184.15,17.49502,-0.0308647,5.49416,1.01659
186.65,17.56955,-0.03182007,5.46908,1.01523
189.15,17.64374,-0.03212315,5.46814,1.01384
191.65,17.7177,-0.03312938,5.4895,1.01244
194.15,17.79141,-0.03443244,5.51189,1.01102
196.65,17.8645,-0.03182978,5.55796,1.00957
199.15,17.93747,-0.03310092,5.59262,1.00811
201.65,18.0103,-0.03312894,5.6325,1.00663
204.15,18.08278,-0.03309226,5.66922,1.00513
206.65,18.15498,-0.03445022,5.71528,1.00361
209.15,18.22705,-0.03444848,5.76174,1.00207
211.65,18.29869,-0.03313016,5.80275,1.00051
214.15,18.3702,-0.03240728,5.85577,0.99894
216.65,18.4418,-0.03345044,5.89293,0.99734
219.15,18.51278,-0.03367384,5.93241,0.99573
221.65,18.58369,-0.03442129,5.98065,0.9941
224.15,18.65445,-0.03337461,6.01636,0.99246
226.65,18.72492,-0.03312995,6.06033,0.9908
229.15,18.7954,-0.03373005,6.08998,0.98912
231.65,18.86564,-0.03443999,6.13683,0.98743
234.15,18.9356,-0.03443999,6.17173,0.98571
236.65,19.00551,-0.03449189,6.20959,0.98399
239.15,19.07531,-0.0334667,6.25543,0.98225
241.65,19.1449,-0.03443994,6.27857,0.98049
244.15,19.21461,-0.03444,6.32422,0.97872
246.65,19.2839,-0.03444,6.35917,0.97693
249.15,19.35331,-0.03444149,6.39369,0.97513
251.65,19.42243,-0.03575816,6.4318,0.97331
254.15,19.49155,-0.03576,6.45839,0.97148
256.65,19.56038,-0.03578143,6.4945,0.96963
259.15,19.6293,-0.03444983,6.52522,0.96777
261.65,19.69812,-0.0357597,6.56108,0.9659
264.15,19.76687,-0.03475258,6.59416,0.96402
266.65,19.83534,-0.03478,6.62979,0.96212
269.15,19.90392,-0.03477997,6.6676,0.96021
271.65,19.97203,-0.03500917,6.69145,0.95828
274.15,20.04068,-0.03608999,6.72454,0.95635
276.65,20.10918,-0.03609,6.75085,0.9544
279.15,20.17754,-0.03609,6.79525,0.95244
281.65,20.2457,-0.03609,6.81728,0.95047
284.15,20.31394,-0.03609,6.85411,0.94849
286.65,20.38214,-0.03609,6.87984,0.9465
289.15,20.45036,-0.03609001,6.91296,0.94449
291.65,20.5186,-0.03612096,6.95207,0.94248
294.15,20.5869,-0.03475363,6.97958,0.94045
296.65,20.65488,-0.03606995,7.00027,0.93842
299.15,20.723,-0.03675013,7.01613,0.93638
301.65,20.79116,-0.03675,7.04694,0.93432
304.15,20.8592,-0.03675,7.079,0.93226
306.65,20.9274,-0.03669702,7.10956,0.93019
309.15,20.9954,-0.03801495,7.1341,0.92811
311.65,21.06346,-0.0388115,7.1547,0.92602
314.15,21.1315,-0.03740997,7.18475,0.92392
316.65,21.1996,-0.03741,7.20749,0.92181
319.15,21.26761,-0.03740477,7.23017,0.9197
321.65,21.33578,-0.03838862,7.2599,0.91758
324.15,21.40399,-0.03838983,7.28731,0.91545
326.65,21.47211,-0.03871085,7.31089,0.91331
329.15,21.54034,-0.03872013,7.34085,0.91117
331.65,21.6085,-0.03844267,7.36181,0.90902
334.15,21.67679,-0.03818767,7.4041,0.90686
336.65,21.7451,-0.04031846,7.43019,0.9047
339.15,21.8135,-0.04140473,7.45028,0.90253
341.65,21.88189,-0.0400246,7.47194,0.90035
344.15,21.95039,-0.03971539,7.50307,0.89817
346.65,22.01892,-0.04102895,7.5384,0.89599
349.15,22.08756,-0.04233191,7.56599,0.8938
351.65,22.1561,-0.04234,7.59456,0.8916
354.15,22.2249,-0.04234,7.61615,0.8894
356.65,22.29362,-0.04234,7.63347,0.8872
359.15,22.3625,-0.04233966,7.66998,0.88499
361.65,22.43139,-0.04365589,7.69946,0.88278
364.15,22.50029,-0.04365,7.73509,0.88056
366.65,22.56943,-0.04364978,7.78003,0.87834
369.15,22.63862,-0.04595709,7.80299,0.87612
371.65,22.7077,-0.0462875,7.83995,0.87389
374.15,22.77711,-0.04759955,7.8789,0.87166
376.65,22.84647,-0.04760657,7.92189,0.86943
379.15,22.9161,-0.04891867,7.97812,0.86719
381.65,22.98564,-0.05024449,8.01868,0.86496
384.15,23.05521,-0.05155854,8.06966,0.86272
386.65,23.12507,-0.05158426,8.12811,0.86048
389.15,23.1947,-0.0558324,8.1936,0.85823
391.65,23.26492,-0.05698759,8.25839,0.85599
394.15,23.33488,-0.05975725,8.3228,0.85374
396.65,23.40504,-0.06150809,8.37239,0.8515
399.15,23.4753,-0.06290039,8.4282,0.84925
401.65,23.54557,-0.06858379,8.45561,0.847
404.15,23.61593,-0.067206,8.50378,0.84476
406.65,23.68657,-0.07222576,8.55553,0.84251
409.15,23.7571,-0.07788536,8.64168,0.84026
411.65,23.82771,-0.08246636,8.71104,0.83801
414.15,23.89845,-0.08648802,8.78372,0.83576
416.65,23.9694,-0.09261293,8.90083,0.83352
419.15,24.0403,-0.0998357,9.02492,0.83127
421.65,24.11134,-0.10588,9.16089,0.82902
424.15,24.18255,-0.11325,9.3214,0.82678
426.65,24.25391,-0.12272,9.49272,0.82453
429.15,24.32508,-0.13155,9.66306,0.82229
431.65,24.3964,-0.14131,9.84576,0.82005
434.15,24.4684,-0.15406,10.07893,0.81781
436.65,24.54009,-0.17744,10.38465,0.81558
439.15,24.61185,-0.17367,10.69859,0.81334
441.65,24.68369,-0.19833,11.11173,0.81111
444.15,24.75564,-0.22034,11.62463,0.80888
446.65,24.82769,-0.24407,12.2463,0.80666
449.15,24.8999,-0.27224,12.92507,0.80443
451.65,24.9722,-0.30602,13.71427,0.80221
454.15,25.04447,-0.34688,14.5527,0.79999
456.65,25.1169,-0.39116,15.6334,0.79778
459.15,25.18945,-0.44606,16.91311,0.79557
461.65,25.26194,-0.51482,18.1381,0.79336
464.15,25.33454,-0.59404,19.32875,0.79116
466.65,25.4072,-0.68641,20.9933,0.78896
469.15,25.4797,-0.79905,22.27705,0.78676
471.65,25.55226,-0.92149,24.05806,0.78457
474.15,25.62477,-1.06843,25.41164,0.78239
476.65,25.6973,-1.23459,26.61293,0.78021
479.15,25.76981,-1.45223,27.56728,0.77803
481.65,25.84222,-1.65644,27.9038,0.77586
484.15,25.91485,-1.88869,27.5648,0.77369
486.65,25.98749,-2.14215,26.4368,0.77153
489.15,26.06032,-2.40365,24.34154,0.76937
491.65,26.13291,-2.67715,21.23832,0.76722
494.15,26.20497,-2.94195,17.43981,0.76508
496.65,26.2767,-3.16957,13.32034,0.76294
499.15,26.35088,-3.32228,9.06276,0.7608
501.65,26.4268,-3.46205,5.54732,0.75868
504.15,26.50334,-3.55788,3.39561,0.75655
506.65,26.5805,-3.61853,2.3772,0.75444
509.15,26.65761,-3.65755,1.83751,0.75233
511.65,26.73433,-3.68125,1.41274,0.75023
514.15,26.81069,-3.6931,1.02042,0.74813
516.65,26.8867,-3.70039,0.71387,0.74604
519.15,26.96241,-3.70475,0.43082,0.74396
521.65,27.03807,-3.70654,0.24481,0.74188
524.15,27.1138,-3.70589,0.10531,0.73982
526.65,27.1895,-3.70859,0.01749156,0.73775
529.15,27.26538,-3.70859,-0.03628804,0.7357
531.65,27.3412,-3.70859,-0.06995379,0.73365
534.15,27.417,-3.70925,-0.09782904,0.73161
536.65,27.49335,-3.71061,-0.1457,0.72958
539.15,27.5696,-3.71059,-0.21527,0.72756
541.65,27.6458,-3.71058,-0.23976,0.72554
544.15,27.72196,-3.70818,-0.26439,0.72353
546.65,27.7984,-3.70887,-0.27587,0.72153
549.15,27.8749,-3.71112,-0.29552,0.71954
551.65,27.95141,-3.71121,-0.32751,0.71756
554.15,28.02795,-3.71199,-0.34398,0.71558
556.65,28.1045,-3.70991,-0.32914,0.71362
559.15,28.18117,-3.70853,-0.34283,0.71166
561.65,28.2581,-3.70993,-0.33073,0.70971
564.15,28.335,-3.7099,-0.338,0.70776
566.65,28.41204,-3.71024,-0.32723,0.70583
569.15,28.4892,-3.71189,-0.31105,0.70391
571.65,28.56638,-3.71189,-0.32288,0.70199
574.15,28.64378,-3.71068,-0.33437,0.70008
576.65,28.721,-3.71057,-0.33247,0.69818
579.15,28.7986,-3.71057,-0.31389,0.69629
581.65,28.8761,-3.71156,-0.31505,0.69441
584.15,28.9535,-3.71153,-0.31895,0.69254
586.65,29.0313,-3.71189,-0.30831,0.69068
589.15,29.10936,-3.71056,-0.29124,0.68883
591.65,29.1871,-3.71057,-0.27741,0.68699
594.15,29.2649,-3.71295,-0.28095,0.68515
596.65,29.343,-3.71321,-0.27213,0.68333
599.15,29.42095,-3.71321,-0.25986,0.68151
601.65,29.49908,-3.71321,-0.23577,0.67971
604.15,29.5774,-3.71322,-0.23194,0.67791
606.65,29.65571,-3.71189,-0.22306,0.67612
609.15,29.73395,-3.71332,-0.21166,0.67435
611.65,29.8123,-3.71335,-0.20493,0.67258
614.15,29.891,-3.71466,-0.1973,0.67082
616.65,29.9694,-3.71431,-0.19595,0.66907
617.55,29.99755,-3.7143,-0.18062,0.66844