File: 01_Data/Fiberglass_Insulation_R13_Paper_Faced_Paper/MCC/Fiberglass_Insulation_R13_Paper_Faced_Paper_MCC_30K_min_220214_R1.txt
Sample ID:	C:\MCC\MCC Cal\Test\R13_Fiberglas_InsulationA_MCC_30K_min_220214_R1.txt
Sample Weight (mg):	4.83
Heating Rate (C/s):	0.5
Combustor Temp (C):	900
N2 Flow Rate (cc/min):	80
O2 Flow Rate (cc/min):	20
Calibration File:	C:\MCC\MCC Cal\Coeff1 JN10440_30_210304.txt.txt
T Correction Coefficients:	0	1.024463	0
Time Shift (s):	14
*
Time (s)	Temperature (C)	N2 flow rate (cc/min)	O2 flow rate (cc/min)	Flow Rate (cc/min)	Oxygen (%)	HRR (W/g)	Heating rate (C/s)
0.000	113.252	80.004	19.994	103.645	20.018	0.005	0.005
8.000	113.175	80.003	19.994	103.651	20.014	0.275	-0.010
16.001	113.240	80.008	19.992	103.682	20.013	0.312	0.019
24.000	113.385	80.006	19.993	103.727	20.006	0.821	0.024
32.000	113.941	80.004	19.993	103.826	19.991	1.800	0.101
40.000	114.896	80.004	19.994	103.855	19.984	2.264	0.113
48.000	116.330	80.006	19.994	103.889	19.975	2.896	0.216
56.000	118.231	80.005	19.994	103.907	19.971	3.119	0.251
64.000	120.534	80.004	19.995	103.913	19.971	3.169	0.300
72.000	123.194	80.004	19.993	103.926	19.967	3.424	0.357
80.000	126.215	80.004	19.993	103.948	19.963	3.667	0.398
88.000	129.430	80.003	19.994	103.948	19.964	3.607	0.421
96.000	132.852	80.004	19.994	103.932	19.968	3.364	0.425
104.000	136.513	80.004	19.993	103.934	19.964	3.623	0.484
112.000	140.286	80.005	19.992	103.938	19.964	3.605	0.456
120.000	144.167	80.003	19.994	103.921	19.968	3.352	0.497
128.000	148.072	80.009	19.994	103.923	19.964	3.595	0.486
136.000	152.085	80.008	19.992	103.929	19.966	3.458	0.499
144.000	156.092	80.003	19.993	103.932	19.968	3.363	0.518
152.000	160.107	80.006	19.993	103.910	19.969	3.284	0.499
160.000	164.155	80.005	19.995	103.904	19.971	3.136	0.504
168.000	168.171	80.005	19.993	103.907	19.969	3.267	0.527
176.000	172.161	80.006	19.993	103.901	19.971	3.149	0.522
184.000	176.187	80.004	19.994	103.892	19.977	2.773	0.491
192.000	180.139	80.006	19.993	103.896	19.981	2.466	0.484
200.000	184.150	80.004	19.994	103.908	19.976	2.815	0.540
208.000	188.119	80.007	19.993	103.882	19.973	3.043	0.470
216.000	192.021	80.004	19.993	103.880	19.976	2.822	0.455
224.000	195.977	80.003	19.993	103.871	19.978	2.649	0.463
232.000	199.912	80.007	19.992	103.872	19.973	3.042	0.489
240.000	203.866	80.005	19.995	103.870	19.973	2.984	0.478
248.000	207.862	80.002	19.995	103.868	19.976	2.791	0.500
256.000	211.807	80.004	19.994	103.871	19.972	3.110	0.495
264.000	215.808	80.003	19.993	103.877	19.971	3.177	0.483
272.000	219.811	80.004	19.993	103.873	19.967	3.422	0.510
280.000	223.832	80.001	19.994	103.874	19.965	3.570	0.514
288.000	227.810	80.004	19.993	103.866	19.965	3.544	0.497
296.000	231.886	80.006	19.994	103.870	19.962	3.763	0.520
304.000	235.907	80.004	19.993	103.869	19.960	3.868	0.497
312.000	239.885	80.007	19.994	103.868	19.954	4.273	0.503
320.000	243.927	80.005	19.993	103.869	19.948	4.680	0.495
328.000	247.878	80.003	19.994	103.868	19.940	5.215	0.479
336.000	251.979	80.003	19.993	103.870	19.931	5.811	0.513
344.001	255.894	80.003	19.994	103.867	19.921	6.524	0.486
352.000	259.943	80.004	19.993	103.872	19.908	7.378	0.507
360.000	263.887	80.002	19.993	103.871	19.896	8.186	0.516
368.000	267.900	80.005	19.993	103.869	19.884	9.008	0.503
376.000	271.941	80.005	19.993	103.881	19.862	10.446	0.532
384.000	275.928	80.004	19.993	103.903	19.843	11.765	0.527
392.000	279.910	80.006	19.993	103.908	19.816	13.560	0.500
400.000	283.892	80.004	19.994	103.910	19.792	15.193	0.500
408.000	287.856	80.004	19.994	103.916	19.762	17.194	0.476
416.001	291.893	80.006	19.994	103.932	19.733	19.111	0.494
424.000	296.015	80.003	19.994	103.937	19.699	21.408	0.523
432.000	300.050	80.003	19.995	103.945	19.660	24.066	0.513
440.000	304.062	80.004	19.994	103.947	19.622	26.621	0.517
448.000	308.078	80.004	19.994	103.984	19.575	29.718	0.472
456.000	312.187	80.004	19.993	103.990	19.529	32.841	0.522
464.000	316.217	80.003	19.993	104.008	19.476	36.437	0.502
472.000	320.211	80.006	19.993	104.025	19.424	39.948	0.447
480.000	324.246	80.008	19.992	104.040	19.369	43.639	0.532
488.000	328.280	80.005	19.994	104.062	19.305	47.945	0.481
496.001	332.334	80.005	19.993	104.063	19.245	52.000	0.519
504.000	336.374	80.005	19.993	104.085	19.178	56.466	0.469
512.000	340.438	80.004	19.995	104.097	19.121	60.340	0.494
520.000	344.443	80.002	19.994	104.108	19.074	63.487	0.545
528.000	348.481	80.004	19.993	104.098	19.047	65.272	0.504
536.000	352.579	80.006	19.994	104.067	19.052	64.860	0.472
544.000	356.633	80.006	19.994	104.008	19.108	61.045	0.516
552.000	360.664	80.006	19.993	103.937	19.216	53.802	0.489
560.000	364.708	80.005	19.992	103.868	19.364	43.829	0.505
568.000	368.764	80.006	19.993	103.821	19.505	34.406	0.506
576.000	372.850	80.007	19.993	103.808	19.608	27.462	0.536
584.000	376.885	80.004	19.994	103.800	19.663	23.765	0.514
592.000	380.934	80.004	19.993	103.794	19.680	22.679	0.495
600.000	384.937	80.004	19.993	103.793	19.680	22.645	0.524
608.000	388.974	80.005	19.994	103.796	19.670	23.333	0.513
616.000	393.044	80.004	19.994	103.786	19.654	24.380	0.511
624.000	397.111	80.004	19.993	103.789	19.632	25.895	0.505
632.000	401.165	80.006	19.992	103.789	19.613	27.124	0.518
640.000	405.199	80.006	19.994	103.789	19.589	28.756	0.507
648.000	409.237	80.004	19.993	103.788	19.566	30.306	0.498
656.000	413.313	80.005	19.993	103.793	19.539	32.097	0.526
664.000	417.408	80.004	19.992	103.787	19.506	34.306	0.535
672.000	421.515	80.005	19.994	103.785	19.477	36.286	0.511
680.000	425.599	80.003	19.994	103.764	19.448	38.165	0.545
688.000	429.660	80.006	19.994	103.754	19.412	40.625	0.503
696.000	433.775	80.004	19.993	103.750	19.379	42.841	0.521
704.000	437.861	80.005	19.995	103.752	19.348	44.879	0.525
712.000	441.949	80.006	19.994	103.746	19.319	46.807	0.511
720.000	445.966	80.004	19.992	103.752	19.296	48.384	0.499
728.000	449.999	80.005	19.992	103.746	19.285	49.123	0.522
736.000	454.031	80.004	19.993	103.735	19.279	49.510	0.498
744.000	458.121	80.004	19.993	103.725	19.285	49.114	0.495
752.000	462.145	80.005	19.993	103.748	19.311	47.397	0.506
760.000	466.140	80.004	19.993	103.746	19.354	44.467	0.511
768.000	470.219	80.007	19.994	103.742	19.413	40.527	0.514
776.000	474.262	80.004	19.994	103.750	19.482	35.883	0.504
784.000	478.287	80.004	19.994	103.755	19.564	30.420	0.496
792.000	482.335	80.005	19.994	103.750	19.642	25.162	0.530
800.000	486.408	80.005	19.994	103.747	19.713	20.436	0.521
808.000	490.404	80.004	19.993	103.779	19.772	16.491	0.488
816.000	494.528	80.004	19.993	103.755	19.817	13.450	0.523
824.000	498.723	80.006	19.993	103.767	19.858	10.707	0.524
832.000	502.818	80.005	19.993	103.769	19.886	8.856	0.471
840.000	506.997	80.005	19.993	103.766	19.907	7.451	0.507
848.000	511.135	80.004	19.994	103.775	19.923	6.379	0.504
856.000	515.236	80.006	19.993	103.754	19.939	5.304	0.524
864.000	519.402	80.005	19.994	103.753	19.951	4.455	0.506
872.000	523.558	80.008	19.994	103.776	19.956	4.178	0.544
880.000	527.676	80.003	19.993	103.757	19.962	3.771	0.522
888.000	531.855	80.002	19.994	103.754	19.965	3.567	0.523
896.000	535.937	80.003	19.995	103.755	19.972	3.105	0.505
904.000	540.077	80.003	19.994	103.757	19.973	2.977	0.486
912.000	544.183	80.004	19.993	103.759	19.973	2.977	0.510
920.000	548.279	80.004	19.993	103.757	19.973	3.023	0.500
928.000	552.427	80.007	19.994	103.755	19.976	2.811	0.506
936.000	556.567	80.005	19.993	103.761	19.980	2.560	0.526
944.000	560.706	80.006	19.993	103.758	19.981	2.474	0.490
952.000	564.804	80.006	19.995	103.755	19.980	2.525	0.498
960.000	568.897	80.003	19.994	103.757	19.983	2.352	0.479
968.000	573.056	80.003	19.994	103.761	19.982	2.438	0.516
976.000	577.246	80.005	19.995	103.761	19.981	2.498	0.480
984.000	581.382	80.004	19.995	103.751	19.986	2.159	0.504
992.000	585.490	80.005	19.993	103.752	19.982	2.392	0.541
1000.000	589.579	80.004	19.994	103.752	19.987	2.099	0.523
1008.000	593.639	80.006	19.993	103.755	19.988	2.010	0.530
1016.000	597.744	80.006	19.993	103.759	19.983	2.319	0.495
1024.000	601.790	80.006	19.992	103.753	19.986	2.110	0.517
1032.000	605.828	80.009	19.992	103.756	19.984	2.245	0.521
1040.000	609.861	80.006	19.992	103.755	19.985	2.214	0.500
1048.000	613.906	80.006	19.994	103.752	19.987	2.073	0.516
1056.000	617.957	80.003	19.992	103.751	19.989	1.933	0.516
1064.000	622.011	80.005	19.994	103.750	19.987	2.077	0.495
1072.000	626.117	80.003	19.995	103.749	19.986	2.154	0.528
1080.000	630.237	80.004	19.994	103.754	19.985	2.181	0.509
1088.001	634.376	80.005	19.993	103.756	19.987	2.073	0.516
1096.000	638.532	80.006	19.993	103.754	19.991	1.807	0.518
1104.000	642.660	80.005	19.994	103.765	19.987	2.066	0.545
1112.000	646.744	80.006	19.993	103.749	19.986	2.126	0.492
1120.000	650.855	80.006	19.993	103.749	19.991	1.813	0.533
1128.000	654.993	80.004	19.995	103.751	19.992	1.762	0.513
1136.000	659.131	80.004	19.994	103.751	19.994	1.623	0.540
1144.000	663.230	80.004	19.993	103.752	19.993	1.674	0.486
1152.000	667.216	80.003	19.993	103.753	19.990	1.836	0.493
1160.000	671.209	80.002	19.994	103.747	19.992	1.729	0.463
1168.000	675.263	80.004	19.994	103.753	19.995	1.556	0.511
1176.000	679.312	80.006	19.994	103.746	19.992	1.707	0.487
1184.000	683.295	80.005	19.993	103.745	19.991	1.835	0.480
1192.000	687.344	80.008	19.993	103.747	19.990	1.856	0.531
1200.000	691.431	80.005	19.993	103.745	19.988	2.028	0.493
1208.000	695.558	80.004	19.994	103.752	19.990	1.875	0.541
1216.000	699.652	80.005	19.993	103.753	19.991	1.789	0.565
1224.000	703.788	80.002	19.994	103.754	19.993	1.680	0.540
1232.000	707.901	80.004	19.993	103.751	19.989	1.942	0.538
1240.000	711.980	80.004	19.995	103.743	19.995	1.545	0.521
1248.000	716.073	80.005	19.994	103.751	19.995	1.561	0.506
1256.000	720.099	80.005	19.995	103.746	19.995	1.534	0.510
1264.000	724.058	80.005	19.993	103.749	19.987	2.062	0.491
1272.001	728.052	80.005	19.993	103.748	19.990	1.846	0.499
1280.000	732.118	80.005	19.993	103.751	19.991	1.802	0.532
1288.000	736.177	80.003	19.992	103.750	19.986	2.137	0.485
1296.000	740.333	80.002	19.993	103.753	19.987	2.071	0.521
1304.000	744.432	80.004	19.994	103.746	19.992	1.705	0.523
1305.501	745.152	80.004	19.992	103.750	19.992	1.765	0.505