File: 01_Data/Fiberglass_Insulation_R13_Paper_Faced_Paper/MCC/R13_Fiberglass_InsulationA_MCC_30K_min_220215_R3.txt
Sample ID:	C:\MCC\MCC Cal\Test\R13_Fiberglas_InsulationA_MCC_30K_min_220215_R3.txt
Sample Weight (mg):	4.42
Heating Rate (C/s):	0.5
Combustor Temp (C):	900
N2 Flow Rate (cc/min):	80
O2 Flow Rate (cc/min):	20
Calibration File:	C:\MCC\MCC Cal\Coeff1 JN10440_30_210304.txt.txt
T Correction Coefficients:	0	1.024463	0
Time Shift (s):	14
*
Time (s)	Temperature (C)	N2 flow rate (cc/min)	O2 flow rate (cc/min)	Flow Rate (cc/min)	Oxygen (%)	HRR (W/g)	Heating rate (C/s)
-0.001	114.947	80.006	19.993	103.684	20.210	-0.249	0.030
7.500	114.910	80.006	19.993	103.689	20.210	-0.241	0.018
15.000	114.944	80.007	19.993	103.696	20.211	-0.301	0.008
22.500	115.002	80.006	19.993	103.737	20.206	0.072	0.015
30.000	115.263	80.008	19.993	103.848	20.185	1.572	0.039
37.500	116.000	80.005	19.993	103.870	20.169	2.774	0.130
44.999	117.099	80.004	19.992	103.906	20.158	3.624	0.168
52.499	118.616	80.005	19.994	103.936	20.157	3.626	0.214
59.999	120.533	80.004	19.992	103.940	20.156	3.730	0.268
67.499	122.806	80.004	19.993	103.933	20.160	3.453	0.322
74.999	125.316	80.005	19.992	103.944	20.158	3.596	0.358
82.499	128.025	80.006	19.993	103.945	20.159	3.504	0.374
89.999	130.991	80.008	19.992	103.963	20.155	3.812	0.422
97.499	134.152	80.007	19.993	103.949	20.161	3.373	0.446
104.999	137.413	80.007	19.994	103.954	20.156	3.759	0.472
112.499	140.920	80.008	19.994	103.949	20.157	3.639	0.468
120.000	144.544	80.009	19.994	103.959	20.156	3.718	0.534
127.500	148.229	80.005	19.994	103.955	20.155	3.820	0.486
135.000	152.049	80.004	19.994	103.942	20.158	3.582	0.504
142.500	155.848	80.006	19.994	103.942	20.161	3.336	0.522
150.000	159.715	80.007	19.992	103.883	20.157	3.674	0.542
157.500	163.553	80.005	19.991	103.922	20.160	3.412	0.517
165.000	167.378	80.006	19.994	103.909	20.163	3.186	0.502
172.500	171.221	80.007	19.993	103.925	20.161	3.388	0.509
180.000	175.081	80.007	19.992	103.906	20.164	3.116	0.523
187.500	178.856	80.007	19.993	103.904	20.163	3.204	0.500
195.000	182.596	80.008	19.993	103.902	20.166	2.985	0.503
202.500	186.370	80.007	19.994	103.903	20.164	3.134	0.482
210.000	190.092	80.006	19.995	103.894	20.167	2.924	0.501
217.500	193.730	80.006	19.992	103.901	20.166	2.967	0.479
225.000	197.452	80.006	19.994	103.897	20.165	3.104	0.486
232.500	201.126	80.006	19.994	103.899	20.165	3.040	0.482
240.000	204.749	80.005	19.994	103.890	20.165	3.058	0.481
247.500	208.490	80.006	19.995	103.896	20.167	2.920	0.513
255.000	212.169	80.008	19.992	103.894	20.167	2.956	0.457
262.500	215.858	80.005	19.993	103.873	20.163	3.233	0.456
270.000	219.577	80.006	19.992	103.878	20.163	3.233	0.505
277.500	223.348	80.010	19.992	103.876	20.161	3.398	0.530
285.000	227.075	80.008	19.993	103.869	20.158	3.558	0.514
292.500	230.833	80.005	19.994	103.869	20.157	3.661	0.482
300.000	234.568	80.007	19.994	103.866	20.154	3.879	0.485
307.500	238.358	80.007	19.994	103.872	20.151	4.096	0.520
315.000	242.094	80.005	19.994	103.872	20.147	4.409	0.496
322.500	245.904	80.005	19.994	103.869	20.141	4.835	0.514
330.000	249.721	80.006	19.993	103.872	20.134	5.377	0.529
337.500	253.472	80.006	19.992	103.865	20.131	5.600	0.479
345.000	257.258	80.008	19.994	103.878	20.119	6.421	0.483
352.500	261.086	80.009	19.992	103.868	20.109	7.191	0.514
360.000	264.821	80.008	19.993	103.874	20.098	7.973	0.494
367.500	268.611	80.008	19.995	103.890	20.084	9.004	0.527
375.000	272.375	80.007	19.993	103.900	20.069	10.095	0.497
382.500	276.179	80.007	19.994	103.901	20.050	11.508	0.504
390.000	279.921	80.006	19.994	103.904	20.027	13.161	0.468
397.500	283.702	80.005	19.994	103.909	20.007	14.641	0.524
405.000	287.432	80.007	19.994	103.909	19.985	16.266	0.502
412.500	291.203	80.007	19.993	103.926	19.954	18.558	0.556
420.000	294.938	80.007	19.994	103.935	19.923	20.838	0.502
427.500	298.731	80.007	19.993	103.939	19.890	23.256	0.514
435.000	302.471	80.008	19.993	103.947	19.855	25.814	0.517
442.500	306.184	80.010	19.993	103.968	19.820	28.428	0.490
450.000	309.954	80.006	19.993	103.979	19.776	31.670	0.501
457.500	313.763	80.006	19.992	103.999	19.734	34.739	0.508
465.000	317.576	80.007	19.992	104.022	19.690	37.969	0.500
472.500	321.351	80.007	19.993	104.023	19.639	41.736	0.502
480.000	325.172	80.005	19.993	104.042	19.581	45.968	0.503
487.500	328.965	80.006	19.994	104.029	19.527	49.920	0.498
495.000	332.788	80.008	19.993	104.063	19.477	53.603	0.536
502.500	336.558	80.007	19.993	104.092	19.417	58.008	0.496
510.000	340.395	80.008	19.994	104.097	19.365	61.856	0.487
517.500	344.101	80.007	19.995	104.097	19.318	65.284	0.470
525.000	347.932	80.007	19.991	104.098	19.292	67.217	0.510
532.500	351.723	80.006	19.992	104.065	19.291	67.199	0.512
540.000	355.550	80.006	19.993	104.021	19.324	64.788	0.493
547.500	359.428	80.006	19.994	103.956	19.403	58.946	0.485
555.000	363.253	80.006	19.993	103.883	19.529	49.669	0.512
562.500	367.054	80.007	19.993	103.843	19.661	39.981	0.528
570.000	370.837	80.005	19.993	103.821	19.783	31.078	0.501
577.500	374.631	80.007	19.994	103.793	19.853	25.936	0.513
585.000	378.384	80.006	19.993	103.793	19.891	23.148	0.470
592.500	382.161	80.005	19.994	103.800	19.893	23.018	0.510
600.000	385.866	80.008	19.993	103.795	19.890	23.247	0.510
607.500	389.599	80.007	19.995	103.806	19.878	24.097	0.497
615.000	393.382	80.006	19.994	103.800	19.861	25.354	0.524
622.500	397.163	80.006	19.994	103.794	19.846	26.441	0.505
630.000	400.960	80.007	19.994	103.791	19.828	27.793	0.525
637.500	404.735	80.008	19.993	103.792	19.811	28.983	0.508
645.000	408.563	80.006	19.993	103.787	19.787	30.736	0.511
652.500	412.396	80.008	19.993	103.788	19.765	32.377	0.485
660.000	416.161	80.008	19.993	103.786	19.743	33.996	0.515
667.500	419.988	80.007	19.994	103.789	19.714	36.081	0.494
675.000	423.825	80.006	19.994	103.776	19.685	38.204	0.529
682.500	427.585	80.007	19.992	103.781	19.656	40.318	0.464
690.000	431.419	80.009	19.993	103.768	19.624	42.724	0.503
697.500	435.245	80.005	19.993	103.768	19.596	44.733	0.483
705.000	439.046	80.006	19.994	103.776	19.574	46.324	0.489
712.500	442.867	80.006	19.994	103.780	19.550	48.140	0.510
720.000	446.693	80.007	19.993	103.751	19.533	49.346	0.527
727.500	450.470	80.006	19.994	103.753	19.518	50.461	0.525
735.000	454.252	80.005	19.993	103.748	19.515	50.647	0.485
742.500	458.067	80.011	19.994	103.743	19.527	49.757	0.508
750.000	461.851	80.007	19.994	103.743	19.543	48.615	0.510
757.500	465.679	80.008	19.993	103.742	19.579	45.986	0.518
765.000	469.457	80.008	19.993	103.747	19.625	42.641	0.515
772.500	473.307	80.010	19.993	103.759	19.692	37.711	0.519
780.000	477.171	80.007	19.995	103.755	19.759	32.838	0.523
787.500	480.998	80.008	19.993	103.764	19.829	27.689	0.494
795.000	484.859	80.008	19.995	103.773	19.893	22.979	0.501
802.500	488.683	80.009	19.994	103.775	19.951	18.728	0.503
810.000	492.574	80.006	19.994	103.778	19.997	15.341	0.529
817.500	496.514	80.013	19.992	103.777	20.031	12.868	0.516
825.000	500.394	80.005	19.992	103.773	20.065	10.360	0.504
832.500	504.245	80.000	19.994	103.780	20.090	8.587	0.499
840.000	508.123	80.015	19.994	103.772	20.103	7.584	0.513
847.500	511.950	79.993	19.994	103.782	20.122	6.237	0.486
855.000	515.917	80.014	19.990	103.782	20.130	5.656	0.560
862.500	519.722	80.014	19.992	103.784	20.138	5.034	0.477
870.000	523.665	80.004	19.994	103.782	20.142	4.719	0.566
877.500	527.516	80.007	19.995	103.777	20.145	4.536	0.505
885.000	531.459	80.002	19.996	103.779	20.151	4.124	0.540
892.500	535.312	80.005	19.994	103.785	20.149	4.210	0.491
900.000	539.698	80.013	19.995	103.787	20.147	4.397	0.744
907.500	543.043	80.004	19.998	103.777	20.149	4.254	0.498
915.000	546.739	80.008	19.992	103.790	20.151	4.116	0.474
922.500	550.591	80.004	19.991	103.782	20.151	4.067	0.534
930.000	554.523	80.012	19.995	103.783	20.153	3.961	0.509
937.500	558.331	80.009	19.994	103.764	20.154	3.853	0.524
945.000	562.237	80.006	19.996	103.776	20.153	3.971	0.540
952.500	566.077	80.026	19.989	103.779	20.156	3.741	0.546
960.000	569.891	80.009	19.992	103.779	20.153	3.961	0.513
967.500	573.788	80.005	19.998	103.785	20.156	3.758	0.515
975.000	577.640	80.006	19.999	103.777	20.155	3.822	0.483
982.500	581.544	80.006	19.993	103.783	20.151	4.070	0.518
990.000	585.365	80.004	19.995	103.785	20.150	4.154	0.520
997.500	589.208	80.011	19.997	103.782	20.152	4.003	0.545
1005.000	593.016	80.004	19.993	103.787	20.150	4.140	0.510
1012.500	596.880	80.011	19.995	103.785	20.148	4.286	0.505
1020.000	600.787	80.017	19.992	103.785	20.150	4.202	0.522
1027.499	604.582	80.012	19.991	103.786	20.150	4.192	0.525
1035.000	608.423	80.002	19.996	103.777	20.148	4.308	0.501
1042.499	612.242	80.005	19.994	103.784	20.146	4.469	0.504
1049.999	616.113	80.003	19.991	103.779	20.150	4.166	0.544
1057.500	619.948	80.008	19.991	103.779	20.146	4.445	0.545
1064.999	623.726	80.007	19.994	103.778	20.144	4.584	0.480
1072.499	627.492	80.005	19.994	103.780	20.143	4.688	0.493
1079.999	631.301	80.010	19.992	103.775	20.143	4.662	0.503
1087.500	635.182	80.010	19.989	103.779	20.142	4.728	0.520
1094.999	639.001	80.009	19.993	103.785	20.141	4.799	0.522
1102.500	642.773	80.011	19.992	103.784	20.138	5.045	0.491
1109.999	646.619	80.008	19.997	103.783	20.139	4.967	0.510
1117.499	650.469	80.007	19.995	103.774	20.134	5.359	0.563
1124.999	654.283	80.007	19.993	103.778	20.138	5.080	0.521
1132.500	658.142	80.011	19.984	103.780	20.141	4.861	0.512
1139.999	661.945	80.010	19.991	103.783	20.138	5.052	0.512
1147.499	665.761	80.007	19.994	103.780	20.138	5.020	0.511
1154.999	669.565	80.004	19.993	103.782	20.140	4.913	0.493
1162.499	673.386	80.009	19.993	103.780	20.138	5.062	0.550
1170.000	677.235	80.009	19.992	103.783	20.137	5.134	0.493
1177.499	681.061	80.007	19.993	103.781	20.132	5.504	0.536
1184.999	684.872	80.010	19.991	103.777	20.130	5.658	0.526
1192.500	688.643	80.010	19.993	103.779	20.133	5.441	0.505
1200.000	692.472	80.007	19.992	103.776	20.132	5.498	0.504
1207.499	696.384	80.008	19.993	103.774	20.129	5.680	0.534
1214.999	700.160	80.009	19.992	103.769	20.127	5.827	0.499
1222.499	703.913	80.008	19.993	103.779	20.127	5.831	0.486
1229.999	707.691	80.009	19.993	103.783	20.127	5.885	0.501
1237.499	711.385	80.008	19.992	103.778	20.123	6.118	0.488
1245.000	715.152	80.009	19.991	103.783	20.122	6.205	0.538
1252.499	718.880	80.008	19.995	103.783	20.123	6.155	0.500
1259.999	722.671	80.007	19.993	103.776	20.119	6.412	0.524
1267.500	726.481	80.010	19.994	103.777	20.120	6.344	0.491
1274.999	730.238	80.009	19.993	103.777	20.118	6.532	0.503
1282.500	734.049	80.008	19.994	103.767	20.118	6.534	0.517
1289.999	737.720	80.007	19.994	103.776	20.114	6.803	0.462
1297.499	741.524	80.008	19.993	103.782	20.115	6.699	0.510
1301.499	743.560	80.007	19.993	103.780	20.114	6.787	0.500