File: 01_Data/Engineered_Wood_Furniture/MCC/Engineered_Wood_Furniture_MCC_30K_min_211216_R1.txt
Sample ID:	C:\MCC\MCC Cal\Test\Engineered_Wood_Furniture_MCC_30K_min_211216_R1.txt
Sample Weight (mg):	4.92
Heating Rate (C/s):	0.5
Combustor Temp (C):	900
N2 Flow Rate (cc/min):	80
O2 Flow Rate (cc/min):	20
Calibration File:	C:\MCC\MCC Cal\Coeff1 JN10440_30_210304.txt.txt
T Correction Coefficients:	0	1.024463	0
Time Shift (s):	14
*
Time (s)	Temperature (C)	N2 flow rate (cc/min)	O2 flow rate (cc/min)	Flow Rate (cc/min)	Oxygen (%)	HRR (W/g)	Heating rate (C/s)
-0.001	110.276	80.002	19.995	103.034	19.937	-0.144	0.005
8.000	110.274	80.002	19.995	103.046	19.939	-0.253	-0.003
16.000	110.336	80.005	19.995	103.097	19.928	0.418	0.015
24.000	110.583	80.003	19.995	103.158	19.916	1.213	0.046
32.000	111.137	80.004	19.995	103.177	19.914	1.356	0.086
39.999	112.096	80.003	19.996	103.213	19.909	1.697	0.134
47.999	113.445	80.005	19.994	103.251	19.897	2.448	0.180
55.999	115.108	80.006	19.994	103.281	19.894	2.665	0.219
63.999	117.183	80.004	19.995	103.279	19.894	2.691	0.263
71.999	119.604	80.004	19.996	103.295	19.891	2.889	0.346
79.999	122.267	80.005	19.995	103.303	19.884	3.292	0.325
87.999	125.268	80.004	19.995	103.311	19.884	3.324	0.365
96.000	128.520	80.003	19.995	103.305	19.882	3.428	0.441
103.999	131.919	80.003	19.996	103.324	19.884	3.328	0.435
111.999	135.458	80.003	19.995	103.317	19.883	3.358	0.438
119.999	139.168	80.003	19.994	103.314	19.883	3.381	0.455
127.999	143.052	80.005	19.995	103.312	19.883	3.363	0.463
136.000	146.995	80.004	19.995	103.311	19.882	3.456	0.469
144.000	151.005	80.005	19.995	103.297	19.882	3.466	0.471
152.000	154.971	80.004	19.995	103.294	19.881	3.538	0.515
160.000	158.953	80.003	19.994	103.294	19.886	3.211	0.475
168.000	163.041	80.006	19.994	103.298	19.883	3.391	0.507
176.000	167.117	80.003	19.994	103.295	19.882	3.429	0.519
184.000	171.123	80.004	19.994	103.278	19.879	3.660	0.493
192.000	175.098	80.005	19.995	103.282	19.874	3.969	0.478
200.000	179.119	80.004	19.995	103.289	19.869	4.334	0.515
208.000	183.045	80.005	19.996	103.282	19.862	4.762	0.452
216.000	187.055	80.006	19.994	103.282	19.856	5.165	0.521
224.000	190.933	80.004	19.995	103.285	19.849	5.634	0.476
232.000	194.903	80.002	19.996	103.278	19.839	6.294	0.481
240.000	198.773	80.003	19.994	103.296	19.835	6.505	0.491
248.000	202.748	80.003	19.995	103.287	19.827	7.065	0.510
256.000	206.797	80.005	19.996	103.290	19.820	7.513	0.522
264.000	210.828	80.003	19.995	103.287	19.815	7.832	0.546
272.000	214.879	80.005	19.994	103.284	19.813	8.005	0.508
280.000	218.914	80.005	19.994	103.279	19.806	8.400	0.507
288.000	223.010	80.005	19.995	103.279	19.808	8.326	0.525
296.000	227.031	80.006	19.995	103.275	19.801	8.758	0.494
304.000	231.148	80.006	19.994	103.273	19.794	9.195	0.512
312.000	235.147	80.002	19.994	103.267	19.793	9.314	0.477
320.000	239.143	80.003	19.995	103.281	19.783	9.919	0.491
328.000	243.142	80.004	19.996	103.277	19.776	10.404	0.512
336.000	247.117	80.003	19.994	103.274	19.764	11.160	0.495
344.000	251.149	80.003	19.995	103.290	19.751	12.046	0.524
352.000	255.112	80.006	19.994	103.293	19.740	12.766	0.549
360.000	259.021	80.006	19.995	103.297	19.723	13.849	0.531
368.000	263.001	80.004	19.994	103.309	19.707	14.930	0.476
376.000	266.966	80.007	19.993	103.327	19.687	16.223	0.529
384.000	270.959	80.006	19.994	103.329	19.668	17.472	0.497
392.000	274.935	80.003	19.995	103.333	19.645	18.960	0.522
400.000	278.945	80.003	19.995	103.337	19.618	20.764	0.520
408.000	282.917	80.004	19.995	103.351	19.588	22.717	0.499
416.000	286.966	80.002	19.995	103.367	19.561	24.473	0.483
424.000	290.981	80.003	19.996	103.365	19.534	26.272	0.510
432.000	295.056	80.006	19.994	103.374	19.506	28.120	0.499
440.000	299.021	80.005	19.994	103.373	19.481	29.714	0.449
448.000	302.995	80.004	19.994	103.380	19.456	31.410	0.518
456.000	306.916	80.005	19.996	103.375	19.426	33.326	0.502
464.000	310.941	80.007	19.994	103.390	19.399	35.145	0.489
472.000	315.010	80.005	19.994	103.408	19.372	36.877	0.502
480.000	319.119	80.004	19.996	103.409	19.340	39.006	0.548
488.000	323.134	80.004	19.995	103.418	19.304	41.337	0.516
496.000	327.215	80.004	19.995	103.431	19.258	44.416	0.506
504.000	331.291	80.002	19.997	103.452	19.210	47.553	0.506
512.000	335.388	80.002	19.995	103.464	19.154	51.222	0.512
520.000	339.433	80.005	19.997	103.478	19.110	54.150	0.537
528.000	343.457	80.005	19.994	103.493	19.053	57.891	0.487
536.000	347.525	80.004	19.994	103.507	19.012	60.571	0.575
544.000	351.494	80.007	19.994	103.506	18.985	62.330	0.485
552.000	355.580	80.005	19.994	103.483	18.992	61.833	0.523
560.000	359.574	80.003	19.995	103.443	19.036	58.876	0.477
568.000	363.589	80.005	19.995	103.382	19.134	52.436	0.474
576.000	367.659	80.004	19.994	103.331	19.274	43.265	0.510
584.000	371.679	80.004	19.994	103.258	19.431	32.970	0.477
592.000	375.710	80.003	19.995	103.219	19.576	23.468	0.498
600.000	379.830	80.005	19.995	103.187	19.682	16.543	0.529
608.000	383.827	80.006	19.993	103.177	19.741	12.645	0.489
616.000	387.898	80.004	19.994	103.180	19.773	10.553	0.521
624.000	391.915	80.005	19.995	103.181	19.786	9.716	0.504
632.000	396.028	80.005	19.994	103.185	19.793	9.246	0.507
640.000	400.054	80.004	19.993	103.183	19.798	8.968	0.497
648.000	404.043	80.004	19.994	103.186	19.805	8.506	0.517
656.000	408.088	80.005	19.993	103.180	19.807	8.328	0.520
664.000	412.123	80.005	19.993	103.177	19.812	7.999	0.499
672.000	416.069	80.003	19.995	103.179	19.815	7.863	0.486
680.000	420.198	80.004	19.994	103.178	19.820	7.500	0.529
688.000	424.234	80.005	19.994	103.178	19.821	7.439	0.535
696.000	428.312	80.004	19.995	103.185	19.828	6.998	0.537
704.000	432.353	80.004	19.995	103.177	19.835	6.540	0.538
712.000	436.409	80.006	19.996	103.180	19.837	6.365	0.504
720.000	440.499	80.005	19.995	103.176	19.838	6.305	0.484
728.000	444.582	80.003	19.995	103.175	19.839	6.296	0.502
736.000	448.626	80.005	19.995	103.171	19.842	6.050	0.502
744.000	452.743	80.004	19.994	103.168	19.846	5.831	0.528
752.000	456.871	80.004	19.995	103.171	19.845	5.895	0.517
760.000	460.950	80.005	19.994	103.181	19.851	5.446	0.508
768.000	465.002	80.005	19.995	103.178	19.856	5.119	0.504
776.000	469.048	80.004	19.995	103.175	19.861	4.792	0.492
784.000	473.153	80.004	19.994	103.174	19.861	4.807	0.530
792.000	477.337	80.005	19.995	103.169	19.868	4.333	0.534
800.000	481.367	80.005	19.995	103.159	19.873	4.018	0.544
808.000	485.464	80.003	19.995	103.165	19.879	3.654	0.451
816.000	489.544	80.004	19.996	103.178	19.872	4.082	0.522
824.000	493.674	80.005	19.994	103.172	19.878	3.717	0.482
832.000	497.735	80.005	19.995	103.173	19.881	3.490	0.522
840.000	501.846	80.004	19.993	103.159	19.880	3.583	0.524
848.000	505.919	80.005	19.993	103.177	19.881	3.535	0.517
856.000	510.030	80.007	19.994	103.172	19.883	3.380	0.499
864.000	514.212	80.007	19.995	103.156	19.887	3.152	0.528
872.000	518.328	80.008	19.994	103.163	19.885	3.278	0.507
880.000	522.483	80.006	19.994	103.153	19.886	3.218	0.481
888.000	526.513	80.004	19.996	103.151	19.886	3.165	0.499
896.000	530.639	80.003	19.996	103.156	19.883	3.377	0.513
904.000	534.735	80.003	19.995	103.161	19.882	3.434	0.520
912.000	538.855	80.005	19.994	103.156	19.885	3.225	0.520
920.000	542.954	80.005	19.994	103.166	19.891	2.879	0.503
928.000	547.030	80.002	19.994	103.166	19.891	2.876	0.520
936.000	551.173	80.005	19.994	103.160	19.889	3.018	0.535
944.000	555.243	80.006	19.994	103.156	19.888	3.050	0.512
952.000	559.231	80.006	19.994	103.153	19.890	2.944	0.491
960.000	563.314	80.006	19.994	103.168	19.893	2.743	0.499
968.000	567.391	80.006	19.993	103.149	19.889	3.005	0.538
976.000	571.399	80.005	19.994	103.152	19.888	3.032	0.485
984.000	575.537	80.005	19.995	103.152	19.893	2.762	0.529
992.000	579.655	80.003	19.995	103.162	19.892	2.799	0.514
1000.000	583.836	80.004	19.995	103.151	19.889	3.017	0.499
1008.000	588.010	80.004	19.995	103.165	19.891	2.885	0.523
1016.000	592.162	80.006	19.994	103.149	19.889	2.964	0.556
1024.000	596.270	80.005	19.995	103.144	19.889	3.004	0.529
1031.999	600.372	80.004	19.994	103.146	19.889	3.005	0.514
1039.999	604.492	80.005	19.993	103.155	19.887	3.103	0.511
1047.999	608.541	80.005	19.994	103.136	19.892	2.809	0.518
1055.999	612.489	80.003	19.995	103.141	19.889	3.011	0.495
1063.999	616.480	80.004	19.995	103.140	19.890	2.941	0.509
1071.999	620.496	80.003	19.995	103.154	19.886	3.176	0.508
1079.999	624.446	80.002	19.996	103.142	19.888	3.064	0.501
1087.999	628.421	80.004	19.996	103.151	19.892	2.825	0.481
1095.999	632.396	80.005	19.994	103.143	19.890	2.911	0.514
1103.999	636.445	80.006	19.995	103.142	19.885	3.278	0.493
1112.000	640.462	80.007	19.994	103.146	19.889	3.011	0.507
1119.999	644.519	80.006	19.994	103.144	19.887	3.095	0.506
1127.999	648.575	80.007	19.995	103.152	19.888	3.032	0.512
1135.999	652.549	80.004	19.994	103.145	19.889	2.961	0.502
1143.999	656.622	80.004	19.995	103.151	19.888	3.064	0.492
1152.000	660.778	80.004	19.996	103.152	19.886	3.180	0.494
1160.000	664.875	80.004	19.995	103.140	19.884	3.298	0.512
1168.000	669.033	80.003	19.994	103.145	19.890	2.902	0.534
1176.000	673.170	80.005	19.996	103.145	19.893	2.751	0.544
1184.000	677.454	80.006	19.996	103.138	19.888	3.087	0.526
1192.000	681.674	80.006	19.995	103.138	19.890	2.929	0.506
1200.000	685.952	80.005	19.994	103.137	19.887	3.128	0.541
1208.000	690.242	80.007	19.995	103.135	19.891	2.863	0.554
1216.000	694.442	80.005	19.994	103.139	19.886	3.192	0.548
1224.000	698.619	80.003	19.995	103.141	19.888	3.075	0.496
1232.000	702.780	80.005	19.994	103.141	19.887	3.105	0.523
1240.000	706.896	80.003	19.993	103.138	19.885	3.253	0.521
1248.000	711.013	80.002	19.995	103.137	19.885	3.249	0.519
1256.000	715.051	80.005	19.994	103.134	19.886	3.158	0.520
1264.000	719.132	80.006	19.994	103.136	19.889	2.962	0.522
1272.000	723.196	80.004	19.996	103.135	19.887	3.101	0.505
1280.000	727.184	80.005	19.995	103.144	19.886	3.164	0.514
1288.000	731.213	80.007	19.994	103.140	19.889	3.023	0.502
1296.000	735.162	80.001	19.993	103.140	19.886	3.192	0.477
1304.000	739.071	80.001	19.994	103.136	19.882	3.450	0.483
1312.000	742.962	80.006	19.995	103.140	19.881	3.535	0.490
1313.500	743.647	80.005	19.995	103.134	19.883	3.404	0.450