File: 01_Data/Engineered_Wood_Furniture/MCC/Engineered_Wood_Furniture_MCC_30K_min_211216_R2.txt
Sample ID:	C:\MCC\MCC Cal\Test\Engineered_Wood_Furniture_MCC_30K_min_211216_R2.txt
Sample Weight (mg):	4.54
Heating Rate (C/s):	0.5
Combustor Temp (C):	900
N2 Flow Rate (cc/min):	80
O2 Flow Rate (cc/min):	20
Calibration File:	C:\MCC\MCC Cal\Coeff1 JN10440_30_210304.txt.txt
T Correction Coefficients:	0	1.024463	0
Time Shift (s):	14
*
Time (s)	Temperature (C)	N2 flow rate (cc/min)	O2 flow rate (cc/min)	Flow Rate (cc/min)	Oxygen (%)	HRR (W/g)	Heating rate (C/s)
0.000	111.582	80.003	19.995	103.062	19.972	0.114	-0.007
8.000	111.558	80.001	19.994	103.076	19.971	0.187	-0.009
16.000	111.608	80.003	19.994	103.121	19.959	1.033	0.020
24.000	111.906	80.003	19.995	103.141	19.950	1.663	0.037
32.000	112.423	80.003	19.994	103.192	19.943	2.159	0.076
39.999	113.323	80.005	19.995	103.254	19.931	3.024	0.145
47.999	114.694	80.003	19.994	103.292	19.930	3.106	0.203
55.999	116.387	80.002	19.994	103.298	19.922	3.676	0.236
63.999	118.503	80.003	19.994	103.325	19.918	3.978	0.274
72.000	120.988	80.003	19.993	103.323	19.915	4.196	0.365
79.999	123.735	80.001	19.995	103.334	19.913	4.326	0.360
88.000	126.754	80.003	19.994	103.327	19.916	4.061	0.382
95.999	129.965	80.004	19.994	103.333	19.910	4.535	0.429
104.000	133.327	80.005	19.994	103.328	19.910	4.523	0.419
112.000	136.859	80.005	19.996	103.331	19.910	4.544	0.449
119.999	140.608	80.005	19.993	103.333	19.910	4.513	0.485
127.999	144.457	80.003	19.994	103.332	19.906	4.806	0.516
136.000	148.331	80.003	19.995	103.322	19.910	4.527	0.490
144.000	152.330	80.002	19.994	103.331	19.910	4.520	0.509
152.000	156.314	80.002	19.995	103.325	19.910	4.511	0.516
160.000	160.342	80.002	19.994	103.319	19.906	4.792	0.526
168.000	164.409	80.004	19.993	103.315	19.907	4.700	0.533
176.000	168.437	80.004	19.994	103.304	19.902	5.067	0.524
184.000	172.477	80.004	19.993	103.304	19.902	5.075	0.533
192.000	176.446	80.003	19.993	103.303	19.895	5.586	0.482
200.000	180.436	80.005	19.993	103.299	19.890	5.975	0.480
208.000	184.429	80.003	19.993	103.297	19.883	6.462	0.480
216.000	188.414	80.004	19.995	103.296	19.875	6.974	0.473
224.000	192.351	80.002	19.995	103.298	19.870	7.347	0.478
232.000	196.299	80.002	19.995	103.298	19.865	7.710	0.507
240.000	200.202	80.003	19.994	103.299	19.863	7.872	0.507
248.000	204.191	80.003	19.993	103.298	19.852	8.618	0.528
256.000	208.132	80.005	19.993	103.298	19.851	8.715	0.478
264.000	212.091	80.003	19.994	103.297	19.847	9.026	0.479
272.000	216.015	80.005	19.993	103.297	19.843	9.267	0.455
280.000	220.026	80.005	19.992	103.291	19.845	9.126	0.514
288.000	223.961	80.005	19.994	103.292	19.837	9.711	0.513
296.000	227.956	80.002	19.995	103.288	19.834	9.893	0.504
304.000	232.013	80.002	19.994	103.294	19.829	10.280	0.494
312.000	235.969	80.002	19.994	103.296	19.827	10.413	0.494
320.000	239.981	80.002	19.995	103.296	19.819	10.993	0.515
328.000	243.980	80.003	19.995	103.297	19.816	11.209	0.494
336.000	247.927	80.005	19.993	103.297	19.799	12.409	0.486
344.000	251.952	80.004	19.993	103.293	19.787	13.268	0.493
352.000	255.935	80.005	19.993	103.295	19.779	13.835	0.503
360.000	259.950	80.005	19.995	103.305	19.760	15.143	0.481
368.000	263.944	80.005	19.994	103.314	19.745	16.267	0.499
376.000	267.933	80.003	19.993	103.333	19.727	17.536	0.472
384.000	272.048	80.004	19.994	103.329	19.706	19.019	0.514
392.000	276.072	80.003	19.994	103.335	19.684	20.601	0.477
400.000	280.087	80.003	19.995	103.337	19.650	22.997	0.484
408.000	284.102	80.003	19.995	103.338	19.632	24.275	0.512
416.000	288.074	80.004	19.994	103.347	19.600	26.529	0.500
424.000	292.154	80.006	19.994	103.364	19.578	28.127	0.504
432.000	296.131	80.003	19.994	103.359	19.553	29.874	0.497
440.000	300.177	80.005	19.993	103.370	19.528	31.632	0.535
448.000	304.174	80.005	19.994	103.376	19.501	33.615	0.495
456.000	308.181	80.003	19.993	103.374	19.480	35.099	0.487
464.000	312.249	80.002	19.994	103.387	19.448	37.339	0.493
472.000	316.271	80.003	19.995	103.379	19.420	39.362	0.497
480.000	320.325	80.004	19.995	103.395	19.392	41.356	0.497
488.000	324.396	80.003	19.994	103.410	19.360	43.602	0.507
496.000	328.419	80.003	19.994	103.439	19.318	46.617	0.495
504.000	332.497	80.003	19.996	103.449	19.266	50.332	0.536
512.000	336.541	80.004	19.995	103.463	19.216	53.918	0.523
520.000	340.553	80.003	19.994	103.484	19.162	57.745	0.507
528.000	344.507	80.006	19.994	103.490	19.114	61.105	0.486
536.000	348.548	80.003	19.993	103.489	19.075	63.904	0.503
544.000	352.610	80.003	19.993	103.490	19.063	64.767	0.508
552.000	356.624	80.004	19.993	103.457	19.087	63.024	0.489
560.000	360.724	80.004	19.994	103.412	19.164	57.511	0.516
568.000	364.812	80.001	19.996	103.341	19.289	48.595	0.493
576.000	368.932	80.004	19.994	103.284	19.439	37.899	0.510
584.000	372.969	80.006	19.995	103.235	19.594	26.948	0.513
592.000	377.055	80.003	19.994	103.218	19.709	18.759	0.527
600.000	381.074	80.003	19.996	103.215	19.782	13.611	0.507
608.000	385.146	80.006	19.995	103.213	19.811	11.570	0.540
616.000	389.132	80.005	19.994	103.211	19.828	10.360	0.536
624.000	393.160	80.004	19.995	103.209	19.838	9.590	0.475
632.000	397.195	80.003	19.994	103.205	19.839	9.571	0.490
640.000	401.259	80.003	19.994	103.205	19.849	8.831	0.490
648.000	405.237	80.003	19.994	103.206	19.851	8.693	0.511
656.000	409.330	80.002	19.992	103.201	19.853	8.570	0.550
664.000	413.237	80.005	19.995	103.204	19.861	7.960	0.482
672.000	417.195	80.004	19.994	103.180	19.861	7.995	0.504
680.000	421.215	80.005	19.994	103.210	19.865	7.687	0.515
688.000	425.213	80.006	19.996	103.185	19.866	7.611	0.456
696.000	429.321	80.004	19.994	103.193	19.871	7.313	0.510
704.000	433.409	80.004	19.994	103.192	19.873	7.130	0.523
712.000	437.500	80.003	19.994	103.204	19.872	7.233	0.514
720.000	441.584	80.003	19.995	103.191	19.879	6.698	0.522
728.000	445.668	80.003	19.995	103.179	19.885	6.284	0.450
736.000	449.805	80.004	19.994	103.191	19.884	6.335	0.570
744.000	453.811	80.005	19.993	103.184	19.882	6.488	0.445
752.000	458.029	80.005	19.993	103.194	19.886	6.197	0.574
760.000	462.261	80.003	19.994	103.187	19.890	5.948	0.521
768.000	466.433	80.004	19.994	103.208	19.892	5.801	0.532
776.000	470.670	80.005	19.993	103.197	19.897	5.442	0.516
784.000	474.913	80.002	19.996	103.189	19.900	5.204	0.539
792.000	479.109	80.002	19.994	103.187	19.900	5.225	0.514
800.000	483.313	80.004	19.994	103.190	19.907	4.731	0.490
808.000	487.452	80.003	19.994	103.186	19.912	4.372	0.526
816.000	491.596	80.002	19.994	103.185	19.916	4.121	0.476
824.000	495.714	80.004	19.993	103.178	19.912	4.378	0.514
832.000	499.737	80.004	19.993	103.193	19.913	4.331	0.495
840.000	503.811	80.004	19.994	103.181	19.915	4.160	0.554
848.000	507.816	80.004	19.994	103.179	19.916	4.076	0.516
856.000	511.875	80.004	19.994	103.181	19.923	3.621	0.532
864.000	515.932	80.003	19.994	103.173	19.917	4.042	0.510
872.000	520.065	80.002	19.995	103.179	19.919	3.891	0.479
880.000	524.142	80.003	19.995	103.167	19.917	4.003	0.528
888.000	528.214	80.003	19.995	103.178	19.921	3.762	0.495
896.000	532.400	80.002	19.995	103.181	19.922	3.685	0.496
904.000	536.518	80.004	19.994	103.180	19.919	3.876	0.525
912.000	540.587	80.003	19.993	103.179	19.920	3.814	0.448
920.000	544.657	80.004	19.994	103.176	19.924	3.536	0.507
928.000	548.725	80.006	19.995	103.178	19.926	3.387	0.509
936.000	552.881	80.006	19.994	103.174	19.924	3.522	0.493
944.000	557.027	80.003	19.994	103.176	19.920	3.791	0.530
952.000	561.240	80.004	19.994	103.178	19.923	3.584	0.505
960.000	565.375	80.004	19.994	103.180	19.923	3.627	0.521
968.000	569.569	80.003	19.994	103.169	19.922	3.634	0.525
976.000	573.735	80.001	19.995	103.164	19.924	3.534	0.511
984.000	577.819	80.004	19.994	103.175	19.924	3.541	0.480
992.000	581.922	80.006	19.993	103.175	19.919	3.889	0.524
1000.000	586.014	80.004	19.994	103.173	19.921	3.725	0.538
1008.000	590.055	80.005	19.995	103.177	19.919	3.845	0.490
1016.000	594.209	80.007	19.993	103.176	19.921	3.767	0.517
1024.000	598.357	80.003	19.994	103.176	19.922	3.650	0.516
1031.999	602.466	80.004	19.992	103.167	19.927	3.321	0.506
1039.999	606.491	80.003	19.994	103.175	19.924	3.512	0.499
1047.999	610.474	80.004	19.994	103.171	19.925	3.416	0.491
1055.999	614.438	80.001	19.995	103.150	19.925	3.460	0.488
1063.999	618.461	80.002	19.996	103.174	19.925	3.470	0.512
1071.999	622.482	80.004	19.995	103.168	19.924	3.536	0.468
1079.999	626.520	80.003	19.994	103.170	19.922	3.654	0.478
1087.999	630.614	80.005	19.994	103.174	19.921	3.710	0.513
1095.999	634.919	80.006	19.994	103.175	19.920	3.797	0.563
1103.999	639.216	80.004	19.995	103.173	19.928	3.258	0.542
1111.999	643.562	80.003	19.994	103.176	19.923	3.559	0.548
1119.999	647.866	80.004	19.993	103.164	19.924	3.551	0.530
1128.001	652.118	80.003	19.994	103.178	19.924	3.536	0.524
1136.000	656.424	80.002	19.994	103.174	19.924	3.518	0.577
1143.999	660.656	80.003	19.994	103.169	19.924	3.501	0.555
1151.999	664.846	80.004	19.993	103.162	19.925	3.453	0.516
1159.999	668.987	80.002	19.995	103.173	19.925	3.478	0.503
1167.999	673.142	80.003	19.995	103.170	19.923	3.576	0.492
1175.999	677.312	80.005	19.994	103.165	19.921	3.732	0.549
1183.999	681.374	80.002	19.994	103.158	19.921	3.768	0.512
1192.000	685.449	80.003	19.995	103.146	19.923	3.624	0.512
1199.999	689.462	80.003	19.995	103.148	19.922	3.687	0.481
1207.999	693.547	80.003	19.994	103.164	19.921	3.734	0.520
1215.999	697.574	80.003	19.996	103.147	19.921	3.713	0.498
1223.999	701.511	80.002	19.994	103.158	19.925	3.421	0.467
1231.999	705.445	80.005	19.994	103.146	19.925	3.423	0.484
1239.999	709.432	80.006	19.994	103.152	19.925	3.442	0.474
1247.999	713.426	80.005	19.994	103.169	19.927	3.344	0.495
1255.999	717.526	80.005	19.996	103.141	19.924	3.517	0.498
1263.999	721.628	80.005	19.994	103.140	19.929	3.188	0.515
1271.999	725.668	80.003	19.994	103.158	19.928	3.250	0.504
1280.000	729.684	80.004	19.995	103.147	19.929	3.171	0.474
1287.999	733.738	80.004	19.994	103.161	19.930	3.124	0.505
1295.999	737.718	80.003	19.994	103.151	19.924	3.524	0.515
1303.999	741.697	80.005	19.993	103.147	19.925	3.471	0.514
1307.499	743.436	80.005	19.994	103.155	19.927	3.278	0.495