File: 02_Data/MDF/Cone/MDF_Cone_HF50scan_210326_R1.csv
Names,Time,Stack TC,Smoke TC,Exh Press,Smoke Comp,Smoke Meas,CO Meter,CO2 Meter,O2 Meter,Sample Mass,Ext Coeff,Start Test,Flame Verif
Chan Gain,,500,500,1,1,1,1,1,1,1,1,1,1
Offset,,0,0,0.138348,0,0,0,0,0,0,0,0,0
Gain,,1,1,25.011,13.5067,16.616,1,1,1,1.00091,1.04608,1,1
Units,sec,C,C,Pa,%,%,%,%,%,g,/m,,
Baseline,,24.7095,27.2458,162.152,100.501,97.457,-0.000839825,0.0622675,20.9266,-0.111351,0.282233,,
46,11.25,24.0849,26.7777,161.517,99.6382,96.2786,-0.000807352,0.0660817,20.9215,612.518,0.314735,0,0
92,22.75,24.7671,26.9652,158.568,99.1526,94.735,-0.000492956,0.078362,20.9093,612.257,0.418214,0,0
138,34.25,28.2642,33.3029,152.513,99.3587,95.5809,0.000451025,0.201732,20.6612,611.457,0.355704,0,1
184,45.75,43.194,57.0967,139.111,99.9927,94.0642,0.003703443,0.604244,20.2169,609.094,0.56084,0,0
230,57.25,51.7538,69.3957,140.361,100.493,92.1616,0.005220369,0.672871,20.2001,606.692,0.794184,0,0
276,68.75,55.8393,73.0463,137.03,100.532,90.7981,0.006041849,0.636637,20.269,604.33,0.934496,0,0
322,80.25,56.6006,73.0287,144.812,100.331,89.8164,0.005459991,0.581539,20.3411,602.228,1.01583,0,0
368,91.75,56.0181,71.4897,145.81,100.369,91.9705,0.005271667,0.537214,20.3918,600.236,0.801827,0,0
414,103.25,56.7157,70.0182,138.166,101.058,92.6449,0.004231839,0.496416,20.443,598.315,0.797577,0,0
460,114.75,55.6348,67.4586,147.517,100.961,93.7042,0.00370239,0.465659,20.4743,596.543,0.684491,0,0
506,126.25,55.4551,66.9745,143.402,100.628,93.6281,0.003268652,0.443547,20.4955,594.791,0.661623,0,0
552,137.75,54.9406,66.2978,148.487,101.048,94.6164,0.003495035,0.428902,20.5085,593.11,0.603493,0,0
598,149.25,54.8723,65.1294,143.81,101.317,95.7228,0.002601248,0.420032,20.5168,591.488,0.521144,0,0
644,160.75,54.6594,65.3681,142.006,101.139,95.6123,0.002592653,0.41092,20.5255,589.867,0.515681,0,0
690,172.25,55.514,65.617,145.62,100.56,96.2806,0.002214131,0.406234,20.5288,588.235,0.399031,0,0
736,183.75,55.6034,65.3214,145.94,99.841,95.7756,0.002061705,0.40049,20.5381,586.574,0.38146,0,0
782,195.25,55.2856,65.0112,146.279,99.3847,96.1909,0.002174876,0.391228,20.5474,584.972,0.299725,0,0
828,206.75,55.5802,64.3543,142.389,99.4181,96.4824,0.002108141,0.383987,20.5564,583.361,0.275035,0,0
874,218.25,55.8887,63.4473,147.741,99.841,96.807,0.001975243,0.375902,20.5664,581.73,0.283172,0,0
920,229.75,55.9467,63.8518,144.782,100.408,97.1584,0.001749858,0.370824,20.5698,580.198,0.301865,0,0
966,241.25,55.226,63.0835,142.118,100.745,97.5351,0.001391825,0.367361,20.5721,578.647,0.297152,0,0
1012,252.75,56.0635,63.5967,139.171,100.64,98.2461,0.001526249,0.364047,20.5765,577.145,0.220893,0,0
1058,264.25,55.7839,63.2504,147.078,100.381,97.8318,0.001275461,0.356994,20.5841,575.634,0.236074,0,0
1104,275.75,56.0595,62.2,147.205,100.754,98.1441,0.000904163,0.351437,20.5907,574.223,0.240784,0,0
1150,287.25,54.6488,63.0078,144.924,101.252,98.3657,0.00086328,0.345637,20.5962,572.821,0.265365,0,0
1196,298.75,54.9273,62.5376,146.348,100.93,98.9499,0.000630724,0.341575,20.6041,571.42,0.181848,0,0
1242,310.25,54.5797,62.8494,147.058,100.896,98.4149,0.000436415,0.332814,20.6157,570.099,0.228445,0,0
1288,321.75,54.7405,61.7504,144.121,101.331,100.192,0.00075576,0.330978,20.6138,568.798,0.103794,0,0
1334,333.25,54.8407,61.6961,140.815,101.477,100.206,0.000647691,0.325938,20.6189,567.467,0.115577,0,0
1380,344.75,54.5996,61.4351,142.669,101.204,99.3505,0.000557029,0.32109,20.6237,566.185,0.169624,0,0
1426,356.25,54.5149,61.0303,144.717,100.547,100.102,0.000247257,0.316178,20.6307,564.974,0.0407472,0,0
1472,367.75,54.0937,60.7662,148.319,99.8859,98.5392,0.00032622,0.311449,20.6386,563.723,0.124562,0,0
1518,379.25,53.9048,60.131,143.56,99.552,97.9819,7.17142E-05,0.304916,20.6491,562.622,0.145881,0,0
1564,390.75,53.8712,58.8809,150.773,99.6621,97.7795,0.000100545,0.300327,20.6536,561.381,0.174988,0,0
1610,402.25,53.1321,59.1134,144.507,100.144,98.8282,-1.66532E-05,0.297009,20.6563,560.26,0.121323,0,0
1656,413.75,52.8389,58.2942,143.735,100.627,99.4854,0.0002015,0.293604,20.6623,559.119,0.10474,0,0
1702,425.25,52.7866,58.6247,151.643,100.913,99.7688,0.000246536,0.292664,20.6624,557.988,0.104681,0,0
1748,436.75,52.6235,58.0045,149.254,100.811,98.3049,3.14103E-05,0.290858,20.6625,556.897,0.230984,0,0
1794,448.25,52.3141,58.0566,143.509,100.52,98.9676,0.000104263,0.291586,20.6602,555.826,0.142839,0,0
1840,459.75,52.329,57.727,149.341,100.623,99.3895,-0.000135482,0.288859,20.6652,554.725,0.113171,0,0
1886,471.25,52.1122,57.4784,145.533,101.267,100.394,8.55086E-05,0.287541,20.6665,553.624,0.0794578,0,0
1932,482.75,52.3967,57.1629,147.159,101.369,100.713,0.000106983,0.288046,20.6656,552.583,0.0596094,0,0
1978,494.25,52.1713,57.271,146.752,100.925,99.4189,0.000236595,0.290508,20.6644,551.502,0.138004,0,0
2024,505.75,52.0612,58.1445,151.282,101.034,99.4331,0.000414046,0.293517,20.6624,550.411,0.146545,0,0
2070,517.25,51.9649,57.8926,149.742,101.374,99.5969,0.000361929,0.29553,20.6576,549.32,0.162239,0,0
2116,528.75,52.3817,57.5156,144.586,101.615,98.9727,0.000453072,0.299137,20.6546,548.239,0.24173,0,0
2162,540.25,51.9975,58.4948,153.117,101.612,99.2764,0.00045338,0.301385,20.6526,547.128,0.213352,0,0
2208,551.75,52.447,58.5675,143.412,101.313,99.6284,0.0003405,0.3090446,20.6433,546.017,0.153856,0,0
2254,563.25,52.0427,59.5167,149.28,100.753,97.6817,0.00043583,0.314088,20.6392,544.856,0.28405,0,0
2300,574.75,52.768,59.8158,143.731,100.164,96.4622,0.000804477,0.321555,20.6298,543.665,0.345529,0,0
2346,586.25,53.7681,60.0376,145.946,99.7684,97.2892,0.000475597,0.329064,20.6211,542.464,0.230906,0,0
2392,597.75,53.5861,61.2147,146.429,99.7342,96.6209,0.000406495,0.334411,20.6125,541.233,0.291012,0,0
2438,609.25,54.3899,60.9177,147.805,100.042,96.3242,0.000880065,0.343223,20.6027,540.042,0.347475,0,0
2484,620.75,55.2868,61.111,148.599,100.445,96.8982,0.00107933,0.349045,20.5974,538.82,0.329893,0,0
2530,632.25,55.7673,61.671,140.267,100.826,96.8891,0.000790273,0.353211,20.5928,537.539,0.365449,0,0
2576,643.75,55.4173,62.8988,145.714,101.073,97.3572,0.001066604,0.357245,20.5866,536.278,0.343747,0,0
2622,655.25,55.5296,63.021,146.521,101.057,96.6604,0.001089201,0.360053,20.5841,534.997,0.408155,0,0
2668,666.75,56.4692,63.7036,141.357,100.887,95.9358,0.000938546,0.367568,20.5732,533.626,0.461731,0,0
2714,678.25,56.4957,63.8534,148.315,100.699,95.2259,0.00128274,0.375145,20.5623,532.335,0.512774,0,0
2760,689.75,57.2456,64.7274,141.012,100.541,94.947,0.001409019,0.383843,20.5516,531.003,0.525291,0,0
2806,701.25,58.2026,65.6936,139.081,101.099,95.0479,0.001765274,0.396543,20.5314,529.582,0.56634,0,0
2852,712.75,57.9978,66.6445,144.079,101.44,95.374,0.001828905,0.407284,20.5182,528.151,0.565842,0,0
2898,724.25,59.2817,67.1986,141.792,101.498,94.3852,0.001564215,0.420753,20.5014,526.679,0.666692,0,0
2944,735.75,60.0218,69.1556,137.847,101.371,93.7696,0.002020275,0.437831,20.4795,525.098,0.715214,0,0
2990,747.25,61.0135,69.72,140.818,101.023,93.2473,0.002227946,0.451401,20.4625,523.497,0.734922,0,0
3036,758.75,62.1515,71.193,141.369,101.056,92.5561,0.003261895,0.465146,20.4441,521.915,0.80622,0,0
3082,770.25,62.816,72.1801,136.21,101.282,92.511,0.003437383,0.479512,20.4233,520.193,0.831183,0,0
3128,781.75,63.7898,73.5323,140.156,101.549,92.2458,0.004107208,0.485706,20.4156,518.512,0.881693,0,0
3174,793.25,64.6195,74.7494,142.899,101.734,91.2159,0.004395804,0.497879,20.3976,516.75,1.00139,0,0
3220,804.75,65.6526,75.831,135.428,101.782,91.655,0.005414272,0.505532,20.3868,514.949,0.961704,0,0
3266,816.25,66.1746,76.879,136.835,101.688,90.217,0.005692064,0.519594,20.3659,513.137,1.09831,0,0
3312,827.75,67.141,77.5791,139.075,101.423,89.2251,0.005590003,0.520754,20.3654,511.375,1.17576,0,0
3358,839.25,67.3669,77.1347,136.679,101.045,90.6637,0.00531274,0.502103,20.3957,509.684,0.99477,0,0
3404,850.75,66.0349,74.6264,141.464,100.628,91.294,0.003113532,0.449087,20.459,508.203,0.893239,0,0
3450,862.25,63.3824,70.6676,151.395,100.2,92.8776,0.001365681,0.354699,20.5818,507.162,0.696372,0,0
3496,873.75,60.0772,64.0744,148.262,99.9498,95.2386,0.001015031,0.259457,20.6824,506.561,0.443049,0,0
3542,885.25,55.8982,59.1475,149.009,99.876,96.275,0.001557704,0.206801,20.7426,506.151,0.33695,0,0
3588,896.75,52.9551,55.5595,139.803,99.9745,98.6183,0.002039284,0.184685,20.7654,505.85,0.125336,0,0
3634,908.25,51.3026,52.6478,148.794,100.2,98.2866,0.002147444,0.173373,20.7777,505.52,0.176917,0,0
3680,919.75,49.3044,50.7814,156.746,100.489,98.7643,0.002210893,0.166608,20.7854,505.27,0.158889,0,0
3726,931.25,48.5791,49.6252,155.951,100.83,99.1938,0.002779595,0.160983,20.7892,505.05,0.150147,0,0
3772,942.75,47.6705,48.4966,151.35,101.087,99.6933,0.002864598,0.158313,20.7926,504.769,0.127398,0,0
3818,954.25,46.5688,47.5453,153.552,101.22,98.9458,0.00289348,0.155561,20.7961,504.589,0.208494,0,0
3864,965.75,45.9341,47.0459,157.385,101.223,98.9372,0.003016665,0.15689,20.7945,504.359,0.209555,0,0
3910,977.25,45.2837,46.1455,155.467,101.073,98.8449,0.003581967,0.156303,20.7996,504.159,0.204582,0,0
3956,988.75,44.5983,45.1282,155.821,100.831,98.8601,0.003559586,0.154038,20.8025,503.949,0.181139,0,0
4002,1000.25,43.8013,45.2235,153.154,100.709,98.7161,0.003963002,0.148442,20.8109,503.729,0.183369,0,0
4048,1011.75,43.525,44.8675,153.79,100.834,99.1096,0.004396454,0.148494,20.8109,503.548,0.158238,0,0
4094,1023.25,42.4774,43.9962,154.239,101.208,99.5127,0.004519224,0.144511,20.8118,503.338,0.155022,0,0
4140,1034.75,41.7325,43.6097,153.643,101.498,99.2927,0.004658822,0.157515,20.7965,503.178,0.201536,0,0
4186,1046.25,41.1618,43.0608,153.838,101.624,99.4058,0.005242184,0.148748,20.8131,502.978,0.202487,0,0
4232,1057.75,41.0399,42.7146,154.609,101.564,99.2186,0.005430987,0.145229,20.8154,502.798,0.214341,0,0
4278,1069.25,40.1155,42.1173,155.232,101.382,99.1578,0.006324563,0.149793,20.8062,502.648,0.203569,0,0
4324,1080.75,39.7251,41.7123,155.604,101.08,99.3799,0.005882028,0.14565,20.8113,502.437,0.155653,0,0
4370,1092.25,39.1702,41.188,157.657,101.219,99.1056,0.00655382,0.143373,20.8159,502.297,0.193619,0,0
4416,1103.75,39.5615,41.6073,149.515,101.436,99.0929,0.006406367,0.143607,20.8168,502.157,0.214465,0,0
4462,1115.25,38.6939,41.3307,157.635,101.608,99.1324,0.006807921,0.143577,20.8173,501.957,0.226375,0,0
4508,1126.75,39.1924,41.0231,158.703,101.737,99.3155,0.007315844,0.144359,20.8164,501.767,0.22109,0,0
4554,1138.25,39.064,40.8533,158.852,101.849,99.1532,0.006999523,0.143065,20.8176,501.647,0.246127,0,0
4600,1149.75,38.3816,40.5085,156.144,101.901,99.5219,,,,501.446,0.216789,0,0
4615,1153.5,38.4189,40.4415,154.992,101.905,99.6319,,,,501.406,0.20702,0,0
,,,,,,,,,,,,,
,,,,,,,,,,,,,
,,,,,,,,,,,,,
,,,,,,,,,,,,,
,,,,,,,,,,,,,
,,,,,,,,,,,,,
,,,,,,,,,,,,,
,,,,,,,,,,,,,
,,,,,,,,,,,,,
,,,,,,,,,,,,,
,,,,,,,,,,,,,
,,,,,,,,,,,,,
,,,,,,,,,,,,,
,,,,,,,,,,,,,
,,,,,,,,,,,,,
,,,,,,,,,,,,,
,,,,,,,,,,,,,
,,,,,,,,,,,,,
,,,,,,,,,,,,,
,,,,,,,,,,,,,