File: 02_Data/MDF/Cone/MDF_Cone_HF25scan_210323_R1.csv
Names,Time,Stack TC,Smoke TC,Exh Press,Smoke Comp,Smoke Meas,CO Meter,CO2 Meter,O2 Meter,Sample Mass,Ext Coeff,Start Test,Flame Verif
Chan Gain,,500,500,1,1,1,1,1,1,1,1,1,1
Offset,,0,0,0.194005,0,0,0,0,0,0,0,0,0
Gain,,1,1,25.011,13.5067,16.616,1,1,1,1.00091,1.04608,1,1
Units,sec,C,C,Pa,%,%,%,%,%,g,/m,,
Baseline,,18.6598,20.0589,175.721,101.346,101.076,0.000296106,0.0424434,20.9654,-0.0313619,0.02450805,,
66,16.25,17.4871,18.8542,174.742,101.749,101.526,0.000515977,0.0492895,20.9626,621.636,0.02014789,0,0
132,32.75,17.4593,19.5271,170.311,101.813,101.893,0.000572508,0.0437859,20.9673,621.406,-0.007177008,0,0
198,49.25,17.4851,19.369,172.666,101.54,101.341,0.000134026,0.043163,20.9696,621.235,0.0179417,0,0
264,65.75,17.4386,19.192,172.899,100.25,99.8956,0.000120657,0.0429765,20.9686,621.065,0.0324853,0,0
330,82.25,17.6911,18.964,176.444,101.279,100.555,3.41031E-05,0.0433024,20.9689,620.885,0.0658607,0,0
396,98.75,18.2212,18.7686,179.766,101.439,100.563,0.000145428,0.0441349,20.9659,620.725,0.0796367,0,0
462,115.25,17.852,18.6673,169.82,100.967,99.7141,0.000783346,0.0458731,20.9665,620.535,0.114589,0,0
528,131.75,18.1015,19.9364,178.157,101.465,98.5554,0.001367532,0.0487178,20.9646,620.185,0.26702,0,0
594,148.25,28.9546,37.3404,151.725,101.8,100.886,0.002427769,0.286203,20.5828,618.573,0.0826943,0,0
660,164.75,40.1917,52.5641,152.034,101.792,100.388,0.003928713,0.464679,20.4731,615.931,0.127429,0,0
726,181.25,41.8047,53.8573,152.982,101.557,99.5533,0.003681462,0.446459,20.5272,613.378,0.1828821,0,0
792,197.75,41.1609,50.9122,156.856,101.347,97.9347,0.003785068,0.399747,20.5891,611.166,0.314286,0,0
858,214.25,40.1885,48.4857,164.227,101.478,98.6822,0.002858297,0.352727,20.643,609.145,0.256342,0,0
924,230.75,38.7243,46.1209,161.954,101.643,100.217,0.00249231,0.320151,20.6753,607.283,0.129657,0,0
990,247.25,38.5196,44.1153,166.202,101.787,101.484,0.002000608,0.297825,20.6986,605.491,0.0274088,0,0
1056,263.75,37.6588,43.019,162.542,101.911,102.127,0.001968818,0.27794,20.716,603.84,-0.0194495,0,0
1122,280.25,37.1075,42.3664,160.589,101.926,102.067,0.001988058,0.26767,20.7295,602.338,-0.0126907,0,0
1188,296.75,36.8283,41.8234,162.673,101.952,101.443,0.001924046,0.255717,20.74,600.787,0.04593711,0,0
1254,313.25,36.7793,41.5097,162.792,101.929,102.7,0.001590372,0.245459,20.7526,599.316,-0.0691937,0,0
1320,329.75,37.3599,41.4489,164.187,101.88,103.641,0.001372268,0.234125,20.7628,597.844,-0.157272,0,0
1386,346.25,35.9682,40.6142,167.2556,101.823,103.483,0.001519993,0.228889,20.7656,596.373,-0.148342,0,0
1452,362.75,35.9906,39.8507,165.966,101.757,102.061,0.001764889,0.223297,20.772,594.862,-0.0273329,0,0
1518,379.25,35.5513,39.3169,163.909,101.623,102.387,0.001773263,0.219701,20.7774,593.53,-0.0687352,0,0
1584,395.75,34.6368,38.198,166.427,101.499,102.497,0.001708989,0.215331,20.7815,592.059,-0.0897555,0,0
1650,412.25,34.2407,37.8022,166.743,101.378,102.686,0.001366242,0.210294,20.7862,590.738,-0.117598,0,0
1716,428.75,33.8351,37.5236,157.869,101.559,102.681,0.001452178,0.209377,20.7859,589.396,-0.100781,0,0
1782,445.25,33.7529,37.2503,166.105,101.817,102.781,0.00155368,0.208606,20.7868,588.095,-0.0865029,0,0
1848,461.75,33.9401,37.7952,165.653,101.811,102.734,0.001501783,0.205603,20.7906,586.914,-0.0828033,0,0
1914,478.25,33.6097,36.677,165.222,101.518,102.684,0.001431062,0.200652,20.7926,585.653,-0.104816,0,0
1980,494.75,33.3318,37.0578,166.565,100.992,101.749,0.001407211,0.198271,20.7962,584.462,-0.0685468,0,0
2046,511.25,33.1059,35.9429,164.601,100.981,101.581,0.001488535,0.196296,20.7953,583.281,-0.0543629,0,0
2112,527.75,32.0348,36.0061,161.542,101.189,101.887,0.001496073,0.194509,20.7998,582.13,-0.0630832,0,0
2178,544.25,32.2247,35.5849,163.07,101.394,101.872,0.001976732,0.191873,20.8004,580.929,-0.0431547,0,0
2244,560.75,31.7787,34.8843,160.639,101.527,102.405,0.001982638,0.188505,20.8035,579.878,-0.0790016,0,0
2310,577.25,31.8828,35.2786,165.336,101.584,102.217,0.002363523,0.183459,20.8086,578.747,-0.0570268,0,0
2376,593.75,31.6968,34.909,168.497,101.506,102.009,0.002290112,0.18216,20.8149,577.676,-0.045347,0,0
2442,610.25,30.6839,33.7958,170.174,101.409,102.296,0.002712792,0.178772,20.8167,576.525,-0.0799174,0,0
2508,626.75,31.257,34.2353,167.144,101.304,102.119,0.00257898,0.179495,20.8149,575.634,-0.0735163,0,0
2574,643.25,30.41,33.5376,171.656,101.17,102.207,0.003814812,0.175043,20.8186,574.593,-0.0935755,0,0
2640,659.75,30.4407,33.4603,169.664,100.955,101.607,0.003217787,0.172873,20.8211,573.662,-0.0590578,0,0
2706,676.25,30.6306,33.0196,165.044,100.824,101.287,0.002764244,0.171379,20.8222,572.621,-0.0420761,0,0
2772,692.75,30.6999,33.4699,172.695,100.751,101.174,0.003120873,0.170348,20.8236,571.61,-0.0385147,0,0
2838,709.25,29.6906,32.4242,166.94,100.677,101.002,0.004231442,0.167307,20.8274,570.699,-0.0295862,0,0
2904,725.75,29.4158,32.5404,171.688,100.634,101.108,0.004017804,0.166141,20.8312,569.759,-0.0430338,0,0
2970,742.25,29.8014,32.0109,165.395,100.503,101.3,0.003850807,0.165419,20.8299,568.848,-0.0724655,0,0
3036,758.75,29.471,31.8674,167.771,100.349,100.563,0.004510432,0.162734,20.8334,567.857,-0.019558,0,0
3102,775.25,29.5244,32.2329,168.721,100.236,100.394,0.003803936,0.166766,20.8262,567.026,-0.0144237,0,0
3168,791.75,29.0015,31.6093,167.648,100.343,100.533,0.005050701,0.162744,20.8323,566.115,-0.01731766,0,0
3234,808.25,29.7054,32.6942,169.849,100.742,101.025,0.004721187,0.163546,20.8303,565.215,-0.0256879,0,0
3300,824.75,28.674,31.2405,165.603,101.288,101.66,0.00433744,0.16354,20.8301,564.294,-0.033681,0,0
3366,841.25,29.0357,31.4691,162.855,101.737,102.125,0.004377214,0.16446,20.8303,563.393,-0.0348608,0,0
3432,857.75,29.1743,32.115,167.108,102.001,102.205,0.003591035,0.169435,20.8234,562.522,-0.018377,0,0
3498,874.25,29.4,32.7648,168.563,102.13,102.158,0.003065092,0.173784,20.8211,561.621,-0.002497118,0,0
3564,890.75,29.7491,33.0557,169.834,102.153,102.699,0.003173176,0.178667,20.8147,560.7,-0.0489023,0,0
3630,907.25,29.8323,32.8641,168.51,102.094,102.192,0.002495805,0.18018,20.8161,559.75,-0.00877108,0,0
3696,923.75,30.194,33.3299,171.333,101.932,102.095,0.002539726,0.185287,20.8085,558.799,-0.0146045,0,0
3762,940.25,30.6612,33.9799,164.284,101.701,101.991,0.002778643,0.191065,20.8017,557.858,-0.0261794,0,0
3828,956.75,31.1826,35.0629,163.977,101.469,101.944,0.002211371,0.196522,20.7932,556.897,-0.04281459,0,0
3894,973.25,31.7816,35.6432,164.121,101.495,101.818,0.001967067,0.20274,20.7886,555.876,-0.0291862,0,0
3960,989.75,32.2296,36.1914,164.284,101.827,102.48,0.001881368,0.21122,20.7799,554.805,-0.0586351,0,0
4026,1006.25,32.8342,36.9477,163.064,101.882,103.113,0.001846005,0.219411,20.7698,553.634,-0.110186,0,0
4092,1022.75,33.8345,38.519,164.512,101.64,102.646,0.001246154,0.229653,20.7589,552.463,-0.0904028,0,0
4158,1039.25,34.7996,39.6215,162.868,101.186,101.349,0.001178878,0.241094,20.7458,551.252,-0.014725,0,0
4224,1055.75,34.797,40.3956,164.556,101.003,101.315,0.001353225,0.25313,20.7315,549.881,-0.0282601,0,0
4290,1072.25,36.1849,41.6545,159.746,101.139,101.303,0.001542152,0.2685,20.7139,548.439,-0.0149299,0,0
4356,1088.75,38.561,43.3194,159.568,101.358,101.042,0.001704069,0.286487,20.6937,546.868,0.0286662,0,0
4422,1105.25,39.324,45.2924,157.885,101.483,101.111,0.002063099,0.30606,20.6704,545.226,0.0337518,0,0
4488,1121.75,40.6419,47.106,167.414,101.551,100.334,0.002131244,0.326049,20.6462,543.395,0.110589,0,0
4554,1138.25,41.5147,48.6927,154.031,101.559,100.288,0.002366199,0.3463,20.6226,541.463,0.115593,0,0
4620,1154.75,43.0811,50.5448,158.802,101.527,98.852,0.00271044,0.366177,20.5985,539.431,0.244995,0,0
4686,1171.25,44.8617,52.6436,147.926,101.515,97.9951,0.002946427,0.3889,20.571,537.249,0.323848,0,0
4752,1187.75,46.9657,55.3822,155.023,101.49,96.8587,0.003968209,0.416219,20.53722,534.947,0.428604,0,0
4818,1204.25,48.7134,57.6511,159.556,101.484,96.2451,0.004560493,0.44515,20.4991,532.525,0.486321,0,0
4884,1220.75,51.211,60.8876,154.436,101.486,95.4825,0.005531561,0.473549,20.4618,529.912,0.559544,0,0
4950,1237.25,53.402,63.606,155.708,101.48,95.2249,0.006598134,0.49989,20.4314,527.18,0.583775,0,0
5016,1253.75,54.5778,65.1184,146.859,101.481,95.2715,0.007385851,0.508517,20.4229,524.508,0.57943,0,0
5082,1270.25,54.393,63.6247,152.243,101.495,96.1564,0.006667117,0.472579,20.4733,522.015,0.495828,0,0
5148,1286.75,50.4077,57.1979,154.883,101.536,98.0072,0.003062824,0.371423,20.6001,520.143,0.324608,0,0
5214,1303.25,45.0933,48.7794,160.481,101.559,98.8419,0.002790701,0.253383,20.7221,519.093,0.248879,0,0
5280,1319.75,41.1181,43.412,163.515,101.55,100.121,0.004768257,0.203536,20.7696,518.392,0.129976,0,0
5346,1336.25,37.7743,38.4909,164.238,101.504,101.693,0.005981016,0.166554,20.8135,517.811,-0.0170261,0,0
5412,1352.75,35.2229,34.9594,169.832,101.359,101.512,0.007340401,0.145974,20.8349,517.351,-0.0138392,0,0
5478,1369.25,33.5905,33.3416,172.916,101.191,101.651,0.007915295,0.136364,20.844,516.901,-0.0416365,0,0
5544,1385.75,32.2121,32.0125,171.293,101.042,101.152,0.007807454,0.139173,20.8406,516.49,-0.009978862,0,0
5610,1402.25,30.4553,30.7815,166.714,100.947,101.407,0.007660238,0.132091,20.8543,516.11,-0.0417102,0,0
5676,1418.75,30.1714,30.1067,172.21,101.291,101.314,0.007630452,0.134166,20.848,515.729,-0.002067663,0,0
5742,1435.25,29.3143,29.6289,166.073,101.661,101.708,0.009013002,0.128892,20.8557,515.369,-0.004295572,0,0
5808,1451.75,28.2205,28.9179,171.453,101.824,101.781,0.009013978,0.125485,20.8575,514.999,0.003886821,0,0
5874,1468.25,27.8063,28.4076,173.349,101.877,101.658,0.009495208,0.124847,20.8628,514.708,0.0197921,0,0
5940,1484.75,26.43,27.1329,167.948,101.777,101.756,0.0113768,0.116379,20.8739,514.378,0.001853937,0,0
6006,1501.25,25.5293,25.8268,168.713,101.573,101.229,0.012423,0.112479,20.8766,514.058,0.0311107,0,0
6072,1517.75,24.9256,24.5629,172.2,101.337,101.267,0.0117727,0.111481,20.8777,513.758,0.006347769,0,0
6138,1534.25,24.4841,24.7138,168.906,101.374,101.13,0.0115425,0.111135,20.8787,513.497,0.022084,0,0
6204,1550.75,24.4417,24.6185,167.395,101.466,101.285,0.011751,0.110884,20.8784,513.217,0.0163608,0,0
6270,1567.25,24.0957,24.9346,173.48,101.627,101.475,0.0117202,0.109999,20.8781,512.957,0.0137682,0,0
6336,1583.75,24.0654,24.46,169.155,101.793,101.784,0.01163178,0.110185,20.8792,512.697,0.000825841,0,0
6402,1600.25,23.5888,23.9926,168.253,101.911,101.777,,,,512.466,0.0120412,0,0
6410,1602.25,23.2168,24.5235,173.356,101.921,101.665,,,,512.406,0.0231239,0,0