File: 01_Data/Lightweight_Gypsum_Wallboard_Gypsum_Core/STA/N2/10K_min/Lightweight_Gypsum_Wallboard_Gypsum_Core_STA_N2_10KData_222402_R1.csv
##Temp./Â°C,Time/min,Mass loss(subtr.2)/mg,DSC(subtr.2)/(mW/mg),Sensit./(uV/mW)
49.816,10.00917,-0.00197,0.01053938,1.07509
53.416,11.37503,-0.004719605,0.10373,1.07322
57.016,11.86614,-0.006013564,0.14522,1.07135
60.616,12.29162,-0.006183007,0.16841,1.06947
64.216,12.69355,-0.00635,0.18796,1.0676
67.816,13.0848,-0.00769435,0.2053,1.06574
71.416,13.46964,-0.01031625,0.22439,1.06387
75.016,13.84844,-0.01129544,0.24514,1.06201
78.616,14.22473,-0.01295,0.2669,1.06015
82.216,14.5962,-0.01690013,0.29483,1.05829
85.816,14.9635,-0.01848791,0.33681,1.05643
89.416,15.32501,-0.02280509,0.39462,1.05458
93.016,15.6868,-0.03202921,0.48152,1.05272
96.616,16.04815,-0.04026643,0.60409,1.05087
100.216,16.40916,-0.05494945,0.76887,1.04902
103.816,16.76667,-0.07431805,0.94223,1.04718
107.416,17.1236,-0.0985744,1.12165,1.04533
111.016,17.4803,-0.13,1.38716,1.04349
114.616,17.84113,-0.17728,2.11917,1.04165
118.216,18.2062,-0.24554,2.86979,1.03981
121.816,18.57287,-0.33345,3.44592,1.03797
125.416,18.93504,-0.42501,3.42725,1.03613
129.016,19.29,-0.50111,3.05062,1.0343
132.616,19.6418,-0.57236,3.25982,1.03247
136.216,19.99355,-0.64537,3.17991,1.03064
139.816,20.3365,-0.68866,1.42995,1.02881
143.416,20.66733,-0.69672,0.6024,1.02698
147.016,20.99983,-0.702,0.37894,1.02516
150.616,21.33621,-0.70661,0.29853,1.02333
154.216,21.67557,-0.70826,0.25941,1.02151
157.816,22.01695,-0.71121,0.23438,1.01969
161.416,22.35783,-0.71155,0.21979,1.01787
165.016,22.70058,-0.71549,0.20811,1.01605
168.616,23.04279,-0.7168,0.20138,1.01423
172.216,23.3866,-0.71812,0.19553,1.01241
175.816,23.73026,-0.71878,0.19161,1.01059
179.416,24.07466,-0.72204,0.18782,1.00878
183.016,24.41935,-0.72272,0.18564,1.00696
186.616,24.76406,-0.72266,0.18135,1.00515
190.216,25.10802,-0.72404,0.18001,1.00333
193.816,25.45182,-0.72468,0.17786,1.00152
197.416,25.79525,-0.72601,0.17969,0.99971
201.016,26.13935,-0.72601,0.17998,0.99789
204.616,26.4826,-0.72667,0.17797,0.99608
208.216,26.82625,-0.72733,0.1778,0.99427
211.816,27.1697,-0.72997,0.17819,0.99245
215.416,27.5124,-0.72931,0.17398,0.99064
219.016,27.85694,-0.7316,0.17351,0.98882
222.616,28.20148,-0.73029,0.16868,0.98701
226.216,28.54662,-0.73227,0.16684,0.98519
229.816,28.8906,-0.73161,0.16414,0.98337
233.416,29.2344,-0.73293,0.16303,0.98156
237.016,29.5785,-0.73392,0.16262,0.97974
240.616,29.922,-0.73392,0.15798,0.97792
244.216,30.2655,-0.73524,0.15609,0.9761
247.816,30.6095,-0.73556,0.15253,0.97427
251.416,30.95451,-0.73622,0.14997,0.97245
255.016,31.29788,-0.73458,0.14744,0.97062
258.616,31.64191,-0.73721,0.14662,0.9688
262.216,31.98599,-0.73688,0.14461,0.96697
265.816,32.3309,-0.73736,0.14197,0.96513
269.416,32.67474,-0.73982,0.14199,0.9633
273.016,33.01853,-0.73918,0.13693,0.96146
276.616,33.3634,-0.73885,0.1382,0.95962
280.216,33.70821,-0.74017,0.13451,0.95778
283.816,34.05308,-0.73953,0.13664,0.95593
287.416,34.3989,-0.7418,0.13576,0.95409
291.016,34.74403,-0.74148,0.13834,0.95223
294.616,35.08937,-0.74214,0.13454,0.95038
298.216,35.43554,-0.74346,0.13441,0.94852
301.816,35.7817,-0.74346,0.13085,0.94666
305.416,36.12786,-0.74478,0.12777,0.94479
309.016,36.4743,-0.74543,0.12215,0.94292
312.616,36.82065,-0.7474,0.12047,0.94105
316.216,37.1678,-0.7474,0.12021,0.93917
319.816,37.5144,-0.74773,0.12037,0.93729
323.416,37.86085,-0.74872,0.12253,0.9354
327.016,38.20697,-0.74806,0.1236,0.93351
330.616,38.55355,-0.7507,0.12447,0.93161
334.216,38.90097,-0.7507,0.12602,0.92971
337.816,39.2496,-0.74938,0.12929,0.9278
341.416,39.59771,-0.75168,0.12761,0.92589
345.016,39.94594,-0.7533,0.12625,0.92397
348.616,40.29401,-0.75201,0.12605,0.92205
352.216,40.64282,-0.75333,0.12451,0.92012
355.816,40.99256,-0.7553,0.12008,0.91819
359.416,41.3416,-0.75695,0.11844,0.91624
363.016,41.69138,-0.75563,0.11609,0.9143
366.616,42.0404,-0.75695,0.11449,0.91234
370.216,42.3904,-0.75661,0.11439,0.91038
373.816,42.7402,-0.75892,0.11692,0.90841
377.416,43.0906,-0.7576,0.11315,0.90644
381.016,43.43967,-0.75826,0.11019,0.90446
384.616,43.78975,-0.76054,0.106,0.90247
388.216,44.14029,-0.76056,0.10088,0.90048
391.816,44.49137,-0.76056,0.0929498,0.89847
395.416,44.842,-0.7629,0.08290746,0.89646
399.016,45.19279,-0.76089,0.07070103,0.89444
402.616,45.54231,-0.76122,0.05632632,0.89242
406.216,45.89373,-0.76088,0.04070015,0.89038
409.816,46.2464,-0.7632,0.01899948,0.88834
413.416,46.5986,-0.76188,-6.814645e-05,0.88629
417.016,46.95062,-0.76155,-0.0197601,0.88423
420.616,47.30279,-0.76221,-0.03340472,0.88216
424.216,47.65576,-0.76346,-0.04653336,0.88009
427.816,48.00888,-0.76385,-0.05151047,0.878
431.416,48.3621,-0.76417,-0.04692651,0.87591
435.016,48.71629,-0.76609,-0.03725908,0.87381
438.616,49.06987,-0.7655,-0.02004849,0.87169
442.216,49.42371,-0.76616,-0.000153979,0.86957
445.816,49.7766,-0.76748,0.01887427,0.86744
449.416,50.1314,-0.76715,0.03780258,0.8653
453.016,50.48558,-0.76847,0.05455428,0.86315
456.616,50.84,-0.76748,0.06491062,0.86099
460.216,51.19532,-0.76879,0.07404932,0.85882
463.816,51.5512,-0.76747,0.08443775,0.85664
467.416,51.90657,-0.76747,0.08792658,0.85445
471.016,52.26076,-0.76749,0.09518882,0.85225
474.616,52.6155,-0.76748,0.10242,0.85004
478.216,52.9703,-0.76773,0.10054,0.84782
481.816,53.3265,-0.76847,0.10475,0.84559
485.416,53.6824,-0.76716,0.10926,0.84335
489.016,54.0386,-0.76945,0.10955,0.8411
492.616,54.39408,-0.76846,0.10873,0.83883
496.216,54.7501,-0.77011,0.10767,0.83656
499.816,55.1059,-0.76879,0.10816,0.83428
503.416,55.46206,-0.76945,0.10465,0.83198
507.016,55.81875,-0.76945,0.10623,0.82967
510.616,56.17565,-0.76912,0.10504,0.82735
514.216,56.5327,-0.76945,0.10449,0.82502
517.816,56.8903,-0.76911,0.10318,0.82268
521.416,57.2476,-0.76978,0.10611,0.82033
525.016,57.60575,-0.77043,0.10467,0.81797
528.616,57.96362,-0.77043,0.1049,0.81559
532.216,58.32102,-0.77143,0.10322,0.81321
535.816,58.6785,-0.77044,0.10342,0.81081
539.416,59.0369,-0.76945,0.10354,0.8084
543.016,59.39507,-0.77076,0.10527,0.80598
546.616,59.7539,-0.76945,0.10364,0.80354
550.216,60.1121,-0.76948,0.10211,0.8011
553.816,60.46994,-0.76945,0.10384,0.79864
557.416,60.82883,-0.77076,0.10937,0.79617
561.016,61.1881,-0.77043,0.11467,0.79369
564.616,61.54826,-0.77176,0.11158,0.7912
568.216,61.90791,-0.77243,0.11447,0.78869
571.816,62.2671,-0.77273,0.1181,0.78618
575.416,62.62624,-0.77419,0.1157,0.78365
579.016,62.9856,-0.77471,0.11845,0.78111
582.616,63.34629,-0.77636,0.12086,0.77855
586.216,63.70685,-0.77801,0.11827,0.77599
589.816,64.06759,-0.77873,0.12021,0.77341
593.416,64.42885,-0.77962,0.12153,0.77082
597.016,64.7895,-0.77998,0.12733,0.76822
600.616,65.1503,-0.78196,0.12842,0.76561
604.216,65.51099,-0.78393,0.13711,0.76298
607.816,65.87127,-0.78532,0.14447,0.76034
611.416,66.2324,-0.78525,0.14835,0.75769
615.016,66.5926,-0.78755,0.15928,0.75503
618.616,66.95477,-0.79018,0.16336,0.75236
622.216,67.31703,-0.79167,0.17233,0.74967
625.816,67.6795,-0.79511,0.18196,0.74698
629.416,68.04037,-0.79634,0.19337,0.74427
633.016,68.40255,-0.80129,0.20393,0.74155
636.616,68.76451,-0.804,0.2063,0.73881
640.216,69.12606,-0.81033,0.21503,0.73607
643.816,69.4871,-0.81182,0.21658,0.73331
647.416,69.849,-0.81717,0.21868,0.73054
651.016,70.21074,-0.82025,0.2193,0.72776
654.616,70.5737,-0.82594,0.2184,0.72497
658.216,70.93658,-0.82923,0.21227,0.72217
661.816,71.29972,-0.83329,0.20813,0.71935
665.416,71.66275,-0.83965,0.20834,0.71652
669.016,72.02565,-0.84349,0.20846,0.71369
672.616,72.38871,-0.85018,0.20882,0.71084
676.216,72.7529,-0.85281,0.2073,0.70798
679.816,73.11522,-0.85807,0.20106,0.7051
683.416,73.47758,-0.86333,0.18916,0.70222
687.016,73.8394,-0.86762,0.1766,0.69933
690.616,74.2025,-0.87028,0.15089,0.69642
694.216,74.56715,-0.87421,0.12667,0.69351
697.816,74.93138,-0.87701,0.10227,0.69058
701.416,75.29651,-0.8816,0.0830533,0.68764
705.016,75.6611,-0.8821,0.0637681,0.6847
708.616,76.0244,-0.88209,0.06357805,0.68174
712.216,76.38856,-0.88473,0.057862,0.67877
715.816,76.75315,-0.88608,0.05589522,0.67579
719.416,77.11747,-0.8864,0.05925472,0.6728
723.016,77.48214,-0.887,0.05441934,0.6698
726.616,77.84648,-0.88894,0.05200955,0.66679
730.216,78.21002,-0.89064,0.051712,0.66377
733.816,78.5735,-0.89201,0.05673706,0.66075
737.416,78.9379,-0.89226,0.05695975,0.65771
741.016,79.3031,-0.89093,0.05249183,0.65466
744.616,79.66764,-0.89361,0.05501129,0.6516
748.216,80.03255,-0.89327,0.05467336,0.64854
751.816,80.39794,-0.8955,0.05729214,0.64546
755.416,80.76396,-0.8992,0.05843001,0.64238
759.016,81.12872,-0.89921,0.05768234,0.63929
762.616,81.4936,-0.89954,0.05673278,0.63618
766.216,81.85934,-0.90053,0.05851771,0.63308
769.816,82.22496,-0.90217,0.06648927,0.62996
773.416,82.5899,-0.90348,0.06568623,0.62683
777.016,82.95464,-0.9048,0.07628441,0.6237
780.616,83.31936,-0.90744,0.08036741,0.62055
784.216,83.68519,-0.90843,0.08176431,0.6174
787.816,84.05065,-0.91104,0.08261292,0.61425
791.416,84.41605,-0.91318,0.08206735,0.61108
795.016,84.78226,-0.91446,0.0863053,0.60791
798.616,85.14796,-0.91711,0.08788421,0.60473
802.216,85.51388,-0.9184,0.0900562,0.60154
805.816,85.87913,-0.92038,0.09815819,0.59835
809.416,86.24537,-0.92432,0.10392,0.59515
813.016,86.6112,-0.92697,0.11562,0.59195
816.616,86.97654,-0.92825,0.1263,0.58873
820.216,87.3429,-0.93354,0.13455,0.58552
823.816,87.70877,-0.93683,0.14824,0.58229
827.416,88.07525,-0.94142,0.15955,0.57906
831.016,88.44155,-0.94407,0.18065,0.57583
834.616,88.8078,-0.94802,0.19535,0.57259
838.216,89.17407,-0.95328,0.2112,0.56934
841.816,89.5402,-0.95855,0.23552,0.56609
845.416,89.9064,-0.96379,0.2453,0.56284
849.016,90.2741,-0.96909,0.26129,0.55958
852.616,90.64085,-0.97435,0.27321,0.55631
856.216,91.00873,-0.98093,0.27952,0.55304
859.816,91.37566,-0.98623,0.27979,0.54977
863.416,91.74224,-0.99143,0.27459,0.54649
867.016,92.10677,-0.99729,0.25958,0.54321
870.616,92.47289,-1.00264,0.21243,0.53993
874.216,92.83914,-1.00528,0.15905,0.53664
877.816,93.2054,-1.00824,0.12554,0.53336
881.416,93.5723,-1.01186,0.11238,0.53006
885.016,93.9382,-1.01416,0.09953533,0.52677
888.616,94.30449,-1.0158,0.10129,0.52347
892.216,94.6735,-1.01844,0.09888917,0.52017
895.316,94.99105,-1.02009,0.10244,0.51733