File: 01_Data/Lightweight_Gypsum_Wallboard_Gypsum_Core/STA/N2/10K_min/Lightweight_Gypsum_Wallboard_Core_STA_N2_10KData_222502_R3.csv
##Temp./Â°C,Time/min,Mass loss(subtr.2)/mg,DSC(subtr.2)/(mW/mg),Sensit./(uV/mW)
49.714,10.01,-0.01975,0.01254367,1.07515
53.314,11.37987,-0.03070913,0.11544,1.07327
56.914,11.8694,-0.03312354,0.16148,1.0714
60.514,12.29562,-0.03203478,0.19106,1.06953
64.114,12.6973,-0.03061919,0.21244,1.06766
67.714,13.08876,-0.03225,0.23204,1.06579
71.314,13.4746,-0.03359317,0.25412,1.06392
74.914,13.85641,-0.03879593,0.27538,1.06206
78.514,14.2328,-0.03883209,0.29879,1.0602
82.114,14.60571,-0.04286448,0.32428,1.05834
85.714,14.97435,-0.04935999,0.35729,1.05648
89.314,15.34019,-0.05396476,0.40776,1.05463
92.914,15.70294,-0.06023389,0.48999,1.05277
96.514,16.06483,-0.06954668,0.6072,1.05092
100.114,16.42351,-0.08284649,0.76637,1.04907
103.714,16.78203,-0.10221,0.92969,1.04723
107.314,17.13974,-0.12359,1.0981,1.04538
110.914,17.4972,-0.15123,1.359,1.04354
114.514,17.85768,-0.1955,2.08364,1.0417
118.114,18.22259,-0.26445,2.84892,1.03986
121.714,18.58853,-0.34917,3.54537,1.03802
125.314,18.95291,-0.44293,3.65389,1.03619
128.914,19.30854,-0.52261,3.07754,1.03435
132.514,19.6587,-0.58952,3.16153,1.03252
136.114,20.01034,-0.66105,3.30631,1.03069
139.714,20.3554,-0.71288,1.81445,1.02886
143.314,20.68713,-0.72321,0.73093,1.02703
146.914,21.0193,-0.72952,0.44138,1.02521
150.514,21.35603,-0.73413,0.34098,1.02338
154.114,21.69481,-0.73739,0.29419,1.02156
157.714,22.03549,-0.74148,0.26857,1.01974
161.314,22.37671,-0.74148,0.24937,1.01792
164.914,22.719,-0.74511,0.23807,1.0161
168.514,23.06239,-0.74626,0.22694,1.01428
172.114,23.40631,-0.74451,0.22362,1.01246
175.714,23.74999,-0.74938,0.2177,1.01065
179.314,24.09375,-0.75266,0.21264,1.00883
182.914,24.43843,-0.75519,0.21175,1.00701
186.514,24.7817,-0.75519,0.20745,1.0052
190.114,25.12568,-0.75925,0.20558,1.00339
193.714,25.46923,-0.75387,0.20253,1.00157
197.314,25.8129,-0.75663,0.19976,0.99976
200.914,26.1548,-0.75551,0.19941,0.99794
204.514,26.49847,-0.75914,0.1981,0.99613
208.114,26.84252,-0.75881,0.1971,0.99432
211.714,27.18625,-0.75848,0.19521,0.9925
215.314,27.536,-0.76014,0.19405,0.99069
218.914,27.88427,-0.76309,0.19194,0.98887
222.514,28.22815,-0.76587,0.19233,0.98706
226.114,28.5714,-0.76321,0.18608,0.98524
229.714,28.9151,-0.76485,0.18606,0.98343
233.314,29.2595,-0.76769,0.18317,0.98161
236.914,29.6031,-0.76638,0.18321,0.97979
240.514,29.94677,-0.76637,0.17983,0.97797
244.114,30.29,-0.76813,0.17606,0.97615
247.714,30.6338,-0.76912,0.17139,0.97433
251.314,30.97659,-0.76911,0.16399,0.9725
254.914,31.3226,-0.77238,0.16229,0.97068
258.514,31.66736,-0.77174,0.15893,0.96885
262.114,32.01201,-0.7757,0.15586,0.96702
265.714,32.35678,-0.77281,0.15297,0.96519
269.314,32.70173,-0.77538,0.15011,0.96335
272.914,33.04654,-0.77409,0.15057,0.96151
276.514,33.3908,-0.77374,0.14936,0.95967
280.114,33.73557,-0.77264,0.14874,0.95783
283.714,34.08067,-0.77804,0.1451,0.95599
287.314,34.42635,-0.77659,0.14252,0.95414
290.914,34.77243,-0.77693,0.14391,0.95229
294.514,35.11741,-0.77537,0.14165,0.95043
298.114,35.46374,-0.77486,0.13964,0.94857
301.714,35.8086,-0.77757,0.14132,0.94671
305.314,36.1539,-0.78119,0.13803,0.94485
308.914,36.50047,-0.78275,0.13429,0.94298
312.514,36.84653,-0.78108,0.13392,0.9411
316.114,37.19275,-0.78042,0.12945,0.93922
319.714,37.53887,-0.78304,0.12919,0.93734
323.314,37.88511,-0.78305,0.12997,0.93545
326.914,38.23196,-0.78601,0.12923,0.93356
330.514,38.57946,-0.78437,0.12836,0.93167
334.114,38.9268,-0.78536,0.13119,0.92976
337.714,39.2743,-0.78535,0.13013,0.92786
341.314,39.6218,-0.78908,0.13053,0.92595
344.914,39.9698,-0.78776,0.13239,0.92403
348.514,40.31803,-0.78941,0.13166,0.9221
352.114,40.6663,-0.79106,0.12866,0.92018
355.714,41.01502,-0.79028,0.12737,0.91824
359.314,41.3645,-0.79151,0.12691,0.9163
362.914,41.7141,-0.79259,0.12306,0.91435
366.514,42.06368,-0.79522,0.12515,0.9124
370.114,42.4138,-0.7939,0.12523,0.91044
373.714,42.76405,-0.79366,0.12491,0.90847
377.314,43.11391,-0.7949,0.12617,0.9065
380.914,43.46347,-0.7949,0.12317,0.90452
384.514,43.81406,-0.79582,0.1191,0.90253
388.114,44.16426,-0.79644,0.11433,0.90053
391.714,44.5163,-0.79885,0.10488,0.89853
395.314,44.86758,-0.79622,0.09447962,0.89652
398.914,45.21802,-0.79501,0.08112696,0.8945
402.514,45.5704,-0.79402,0.06333127,0.89248
406.114,45.9223,-0.79657,0.04592146,0.89044
409.714,46.27317,-0.7973,0.0292594,0.8884
413.314,46.6243,-0.79764,0.01119072,0.88635
416.914,46.97672,-0.79761,-0.00683063,0.88429
420.514,47.32895,-0.795,-0.02164727,0.88222
424.114,47.68196,-0.79632,-0.03172356,0.88015
427.714,48.0351,-0.79637,-0.03774918,0.87806
431.314,48.38821,-0.79797,-0.03562892,0.87597
434.914,48.74151,-0.79929,-0.02277972,0.87387
438.514,49.09463,-0.79829,-0.0085735,0.87175
442.114,49.44641,-0.79928,0.01119704,0.86963
445.714,49.8009,-0.79895,0.03349404,0.8675
449.314,50.15571,-0.79797,0.05266578,0.86536
452.914,50.51228,-0.80002,0.07035233,0.86321
456.514,50.8671,-0.80459,0.08835189,0.86105
460.114,51.2211,-0.80189,0.09586986,0.85888
463.714,51.5756,-0.80222,0.10473,0.8567
467.314,51.93016,-0.80224,0.11339,0.85452
470.914,52.28629,-0.80127,0.11528,0.85232
474.514,52.6428,-0.80126,0.11853,0.85011
478.114,52.99715,-0.80562,0.12622,0.84789
481.714,53.3538,-0.80224,0.1283,0.84565
485.314,53.70867,-0.80347,0.13095,0.84341
488.914,54.0644,-0.80495,0.13329,0.84116
492.514,54.4211,-0.80422,0.13181,0.8389
496.114,54.77746,-0.80427,0.1318,0.83663
499.714,55.1347,-0.80718,0.13304,0.83434
503.314,55.49191,-0.80521,0.13537,0.83204
506.914,55.84978,-0.80521,0.13118,0.82974
510.514,56.2069,-0.80672,0.13097,0.82742
514.114,56.56389,-0.80817,0.13697,0.82509
517.714,56.9204,-0.80576,0.1369,0.82275
521.314,57.27751,-0.81069,0.13774,0.8204
524.914,57.6348,-0.80937,0.1378,0.81804
528.514,57.9932,-0.80805,0.13354,0.81566
532.114,58.35241,-0.80986,0.13339,0.81327
535.714,58.7113,-0.80871,0.13369,0.81088
539.314,59.07062,-0.81036,0.12943,0.80847
542.914,59.42952,-0.81222,0.13664,0.80605
546.514,59.7873,-0.80992,0.14194,0.80361
550.114,60.1459,-0.81091,0.14043,0.80117
553.714,60.505,-0.81065,0.13961,0.79871
557.314,60.8636,-0.81081,0.14041,0.79624
560.914,61.2223,-0.81453,0.14066,0.79376
564.514,61.5823,-0.8109,0.14368,0.79127
568.114,61.9414,-0.81354,0.14552,0.78876
571.714,62.30075,-0.81355,0.1503,0.78625
575.314,62.6613,-0.81386,0.14993,0.78372
578.914,63.02052,-0.81354,0.15222,0.78118
582.514,63.38041,-0.81716,0.15038,0.77863
586.114,63.74069,-0.81453,0.14986,0.77606
589.714,64.1011,-0.81716,0.15208,0.77348
593.314,64.46262,-0.82199,0.16067,0.7709
596.914,64.82326,-0.81762,0.15984,0.76829
600.514,65.18431,-0.82147,0.16274,0.76568
604.114,65.54541,-0.82155,0.16789,0.76306
607.714,65.90772,-0.8222,0.17439,0.76042
611.314,66.26889,-0.82813,0.18313,0.75777
614.914,66.63115,-0.82539,0.19349,0.75511
618.514,66.99164,-0.82495,0.20235,0.75244
622.114,67.35089,-0.82673,0.21641,0.74975
625.714,67.71276,-0.83164,0.22667,0.74705
629.314,68.07415,-0.83449,0.23297,0.74434
632.914,68.4354,-0.83867,0.24181,0.74162
636.514,68.79674,-0.83997,0.24814,0.73889
640.114,69.15847,-0.84518,0.25239,0.73614
643.714,69.51918,-0.8505,0.25794,0.73339
647.314,69.88086,-0.85577,0.25884,0.73062
650.914,70.24237,-0.86061,0.25237,0.72784
654.514,70.604,-0.86027,0.25243,0.72505
658.114,70.96608,-0.86323,0.24676,0.72224
661.714,71.32858,-0.86894,0.24583,0.71943
665.314,71.69066,-0.87288,0.24483,0.7166
668.914,72.05245,-0.88093,0.24379,0.71377
672.514,72.41591,-0.88562,0.24582,0.71092
676.114,72.77768,-0.89317,0.24237,0.70806
679.714,73.13975,-0.89767,0.2339,0.70519
683.314,73.5014,-0.89701,0.22039,0.7023
686.914,73.86326,-0.90122,0.21183,0.69941
690.514,74.2264,-0.90319,0.19997,0.6965
694.114,74.5897,-0.9082,0.17834,0.69359
697.714,74.95543,-0.91443,0.16155,0.69066
701.314,75.32007,-0.9115,0.14177,0.68773
704.914,75.68449,-0.91182,0.1278,0.68478
708.514,76.04868,-0.91676,0.12463,0.68182
712.114,76.4119,-0.91828,0.12585,0.67885
715.714,76.77282,-0.91771,0.12334,0.67587
719.314,77.136,-0.91643,0.11856,0.67289
722.914,77.50041,-0.92049,0.11927,0.66989
726.514,77.86455,-0.92048,0.11827,0.66688
730.114,78.22805,-0.92179,0.11934,0.66386
733.714,78.59388,-0.92167,0.11678,0.66083
737.314,78.95831,-0.92312,0.1199,0.65779
740.914,79.3226,-0.92578,0.12135,0.65475
744.514,79.6876,-0.92444,0.11983,0.65169
748.114,80.05233,-0.92236,0.12069,0.64862
751.714,80.41571,-0.92642,0.1181,0.64555
755.314,80.77977,-0.92784,0.12273,0.64247
758.914,81.14485,-0.92915,0.12184,0.63937
762.514,81.50861,-0.92916,0.11774,0.63627
766.114,81.87308,-0.93185,0.11552,0.63316
769.714,82.23821,-0.92793,0.11696,0.63005
773.314,82.60472,-0.93416,0.1159,0.62692
776.914,82.97064,-0.9308,0.11712,0.62379
780.514,83.33618,-0.93409,0.1136,0.62064
784.114,83.70054,-0.93946,0.11101,0.61749
787.714,84.06334,-0.93908,0.11699,0.61434
791.314,84.42911,-0.93913,0.11493,0.61117
794.914,84.79646,-0.9395,0.13471,0.608
798.514,85.16144,-0.94341,0.14075,0.60482
802.114,85.5273,-0.94802,0.14784,0.60163
805.714,85.89381,-0.94698,0.14997,0.59844
809.314,86.2594,-0.95109,0.15284,0.59524
812.914,86.62509,-0.95241,0.15052,0.59204
816.514,86.99083,-0.95647,0.1566,0.58883
820.114,87.35661,-0.95844,0.16507,0.58561
823.714,87.72304,-0.96107,0.18478,0.58238
827.314,88.0886,-0.9657,0.19432,0.57915
830.914,88.45312,-0.96962,0.20399,0.57592
834.514,88.81945,-0.97369,0.22018,0.57268
838.114,89.18651,-0.975,0.23201,0.56943
841.714,89.554,-0.98499,0.24289,0.56618
845.314,89.92,-0.98366,0.25224,0.56293
848.914,90.28614,-0.98968,0.26535,0.55967
852.514,90.65202,-0.99669,0.27585,0.5564
856.114,91.01814,-1.00198,0.27825,0.55314
859.714,91.3849,-1.00461,0.27662,0.54986
863.314,91.75023,-1.01141,0.25199,0.54659
866.914,92.11654,-1.02118,0.21344,0.54331
870.514,92.48292,-1.01695,0.16837,0.54002
874.114,92.84975,-1.02052,0.1454,0.53674
877.714,93.2173,-1.02448,0.12563,0.53345
881.314,93.5847,-1.02383,0.11619,0.53016
884.914,93.95065,-1.0271,0.10889,0.52686
888.514,94.31661,-1.02897,0.10494,0.52356
892.114,94.6832,-1.03143,0.10546,0.52027
895.214,94.99786,-1.03126,0.10685,0.51742