File: 01_Data/Vinyl_Siding/MCC/Vinyl_Siding_30K_min_210609_R2.txt
Sample ID:	C:\MCC\MCC Cal\Test\Vinyl Siding\Vinyl_Siding_30_2.txt
Sample Weight (mg):	3.72
Heating Rate (C/s):	0.5
Combustor Temp (C):	900
N2 Flow Rate (cc/min):	80
O2 Flow Rate (cc/min):	20
Calibration File:	C:\MCC\MCC Cal\Coeff1 JN10440_30_210304.txt.txt
T Correction Coefficients:	0	1.024463	0
Time Shift (s):	14
*
Time (s)	Temperature (C)	N2 flow rate (cc/min)	O2 flow rate (cc/min)	Flow Rate (cc/min)	Oxygen (%)	HRR (W/g)	Heating rate (C/s)
0.000	111.185	79.981	19.993	99.879	20.067	0.434	0.009
8.000	111.138	79.981	19.993	99.874	20.069	0.307	0.033
16.000	111.080	79.980	19.992	99.885	20.071	0.107	0.008
24.000	111.095	79.980	19.993	99.935	20.063	0.797	0.020
32.000	111.403	79.982	19.993	100.056	20.038	2.924	0.048
39.999	112.269	79.980	19.993	100.079	20.035	3.183	0.117
47.999	113.669	79.982	19.992	100.078	20.034	3.271	0.162
55.999	115.435	79.983	19.992	100.101	20.027	3.852	0.238
63.999	117.558	79.981	19.993	100.116	20.028	3.706	0.280
72.000	119.948	79.981	19.994	100.119	20.024	4.099	0.311
79.999	122.631	79.983	19.992	100.124	20.020	4.414	0.337
87.999	125.595	79.981	19.994	100.149	20.020	4.394	0.372
96.000	128.757	79.981	19.994	100.151	20.012	5.096	0.397
103.999	132.180	79.983	19.994	100.152	20.010	5.263	0.415
111.999	135.760	79.981	19.994	100.146	20.017	4.674	0.456
119.999	139.523	79.981	19.994	100.151	20.013	5.009	0.477
127.999	143.403	79.983	19.994	100.147	20.015	4.810	0.527
136.000	147.359	79.983	19.994	100.132	20.021	4.318	0.495
144.000	151.381	79.981	19.993	100.132	20.017	4.629	0.498
152.000	155.395	79.982	19.993	100.128	20.018	4.563	0.493
160.000	159.456	79.983	19.993	100.113	20.015	4.814	0.515
168.000	163.531	79.982	19.993	100.115	20.018	4.592	0.513
176.000	167.611	79.980	19.993	100.113	20.019	4.466	0.503
184.000	171.645	79.980	19.993	100.106	20.018	4.542	0.484
192.000	175.754	79.981	19.992	100.101	20.019	4.519	0.507
200.000	179.662	79.979	19.993	100.109	20.022	4.231	0.476
208.000	183.686	79.980	19.993	100.101	20.018	4.539	0.477
216.000	187.745	79.984	19.993	100.079	20.017	4.676	0.474
224.000	191.699	79.982	19.992	100.086	20.014	4.926	0.482
232.000	195.635	79.982	19.994	100.079	20.019	4.501	0.446
240.000	199.514	79.985	19.993	100.060	20.019	4.471	0.466
248.000	203.455	79.981	19.993	100.084	20.014	4.913	0.493
256.000	207.373	79.981	19.993	100.085	20.012	5.072	0.492
264.000	211.289	79.981	19.995	100.078	20.010	5.281	0.527
272.000	215.225	79.982	19.993	100.071	20.010	5.218	0.473
280.000	219.197	79.980	19.994	100.078	20.007	5.498	0.487
288.000	223.140	79.982	19.993	100.073	20.003	5.814	0.495
296.000	227.141	79.982	19.993	100.072	20.000	6.097	0.505
304.000	231.132	79.982	19.992	100.077	19.990	6.912	0.477
312.000	235.060	79.982	19.994	100.072	19.976	8.111	0.473
320.000	239.088	79.983	19.993	100.076	19.961	9.336	0.524
328.000	243.020	79.980	19.994	100.075	19.944	10.819	0.480
336.000	247.040	79.981	19.994	100.052	19.943	10.839	0.487
344.000	251.107	79.981	19.992	100.061	19.952	10.150	0.512
352.000	255.174	79.981	19.995	100.070	19.956	9.741	0.504
360.000	259.246	79.981	19.993	100.069	19.955	9.838	0.494
368.000	263.192	79.982	19.993	100.073	19.946	10.588	0.524
376.000	267.210	79.982	19.992	100.076	19.931	11.845	0.527
384.000	271.227	79.980	19.992	100.085	19.923	12.555	0.481
392.000	275.214	79.981	19.993	100.109	19.925	12.423	0.518
400.000	279.229	79.984	19.991	100.114	19.921	12.760	0.482
408.000	283.244	79.981	19.993	100.140	19.928	12.128	0.531
416.000	287.221	79.981	19.994	100.154	19.938	11.264	0.498
424.000	291.278	79.980	19.992	100.154	19.939	11.197	0.538
432.000	295.280	79.980	19.993	100.161	19.936	11.503	0.485
440.000	299.283	79.979	19.993	100.157	19.931	11.856	0.490
448.000	303.280	79.981	19.993	100.131	19.929	12.008	0.493
456.000	307.331	79.982	19.992	100.098	19.930	11.942	0.519
464.000	311.415	79.982	19.992	100.036	19.938	11.287	0.511
472.000	315.429	79.983	19.992	99.997	19.948	10.430	0.534
480.000	319.460	79.984	19.991	99.987	19.957	9.646	0.510
488.000	323.467	79.980	19.993	99.989	19.970	8.612	0.506
496.000	327.436	79.980	19.993	99.968	19.975	8.157	0.503
504.000	331.530	79.979	19.993	99.996	19.975	8.167	0.517
512.000	335.594	79.979	19.993	99.995	19.974	8.287	0.492
520.000	339.619	79.979	19.994	100.003	19.980	7.759	0.541
528.000	343.609	79.980	19.994	100.003	19.978	7.930	0.523
536.000	347.671	79.983	19.994	100.007	19.977	8.008	0.510
544.000	351.708	79.981	19.992	100.016	19.973	8.329	0.487
552.000	355.802	79.985	19.994	100.019	19.969	8.709	0.512
560.000	359.792	79.983	19.993	100.036	19.961	9.359	0.513
568.000	363.821	79.983	19.992	100.038	19.962	9.293	0.470
576.000	367.689	79.980	19.991	100.041	19.957	9.666	0.612
584.000	371.828	79.981	19.992	100.042	19.955	9.865	0.478
592.000	375.846	79.981	19.994	100.037	19.939	11.181	0.551
600.000	379.769	79.978	19.993	100.040	19.923	12.557	0.483
608.000	383.657	79.983	19.993	100.046	19.906	13.930	0.481
616.000	387.593	79.982	19.994	100.044	19.888	15.443	0.478
624.000	391.564	79.981	19.992	100.048	19.862	17.699	0.499
632.000	395.599	79.985	19.992	100.059	19.836	19.879	0.470
640.000	399.575	79.981	19.992	100.054	19.810	22.054	0.485
648.000	403.552	79.982	19.993	100.046	19.777	24.763	0.452
656.000	407.578	79.980	19.992	100.049	19.744	27.546	0.480
664.000	411.615	79.983	19.993	100.051	19.721	29.485	0.485
672.000	415.621	79.982	19.992	100.055	19.702	31.046	0.512
680.000	419.633	79.981	19.995	100.060	19.689	32.171	0.492
688.000	423.726	79.980	19.992	100.041	19.671	33.722	0.516
696.000	427.800	79.982	19.993	100.052	19.658	34.772	0.525
704.000	431.885	79.978	19.993	100.041	19.636	36.620	0.519
712.000	436.032	79.983	19.993	100.040	19.592	40.282	0.538
720.000	440.080	79.984	19.992	100.033	19.530	45.499	0.507
728.000	444.161	79.982	19.993	100.038	19.461	51.267	0.516
736.000	448.192	79.980	19.993	100.033	19.396	56.785	0.523
744.000	452.229	79.981	19.992	100.032	19.335	61.892	0.486
752.000	456.262	79.984	19.992	100.036	19.301	64.750	0.491
760.000	460.298	79.982	19.993	100.028	19.285	66.096	0.506
768.000	464.302	79.981	19.992	100.015	19.285	66.058	0.491
776.000	468.270	79.980	19.992	100.026	19.317	63.377	0.479
784.000	472.349	79.983	19.993	100.028	19.377	58.316	0.515
792.000	476.438	79.984	19.993	100.024	19.441	52.966	0.504
800.000	480.500	79.983	19.993	100.019	19.497	48.240	0.507
808.000	484.601	79.982	19.992	100.023	19.564	42.629	0.499
816.000	488.663	79.980	19.992	100.031	19.625	37.566	0.497
824.000	492.818	79.981	19.992	100.020	19.683	32.671	0.485
832.000	496.979	79.979	19.992	100.018	19.745	27.474	0.521
840.000	501.100	79.981	19.993	100.008	19.790	23.698	0.544
848.000	505.218	79.982	19.993	100.013	19.830	20.318	0.545
856.000	509.276	79.983	19.993	100.004	19.867	17.227	0.497
864.000	513.330	79.982	19.993	100.001	19.898	14.639	0.512
872.000	517.499	79.984	19.993	100.003	19.922	12.595	0.515
880.000	521.636	79.984	19.993	100.002	19.942	10.980	0.520
888.000	525.827	79.981	19.992	100.003	19.956	9.779	0.494
896.000	529.920	79.982	19.992	100.000	19.963	9.204	0.539
904.000	534.065	79.981	19.993	100.011	19.974	8.246	0.537
912.000	538.167	79.980	19.993	99.999	19.982	7.615	0.504
920.000	542.234	79.981	19.992	99.997	19.985	7.317	0.516
928.000	546.336	79.984	19.993	99.998	19.990	6.910	0.529
936.000	550.377	79.983	19.993	99.996	19.994	6.582	0.494
944.000	554.478	79.981	19.993	100.002	19.996	6.458	0.474
952.000	558.616	79.984	19.993	100.001	19.998	6.273	0.551
960.000	562.722	79.981	19.993	100.006	19.999	6.149	0.497
968.000	566.804	79.980	19.994	100.000	20.003	5.856	0.541
976.000	570.897	79.982	19.992	99.997	20.002	5.892	0.539
984.000	575.021	79.981	19.993	99.998	20.008	5.419	0.526
992.000	579.083	79.981	19.994	100.006	20.009	5.307	0.486
1000.000	583.208	79.982	19.992	100.000	20.013	5.000	0.526
1008.000	587.295	79.985	19.993	100.008	20.014	4.900	0.496
1016.000	591.479	79.982	19.992	100.003	20.012	5.105	0.517
1024.000	595.608	79.983	19.993	100.012	20.013	4.997	0.499
1031.999	599.712	79.984	19.993	100.004	20.009	5.357	0.489
1039.999	603.742	79.984	19.993	99.998	20.012	5.043	0.494
1047.999	607.759	79.981	19.993	100.004	20.013	5.018	0.463
1055.999	611.879	79.981	19.994	100.006	20.011	5.120	0.541
1063.999	616.021	79.982	19.992	100.011	20.014	4.888	0.545
1071.999	619.984	79.980	19.993	100.001	20.016	4.772	0.477
1079.999	623.978	79.982	19.992	99.999	20.013	4.979	0.496
1087.999	627.999	79.984	19.994	100.001	20.014	4.922	0.510
1096.001	632.074	79.983	19.993	99.996	20.016	4.772	0.488
1103.999	636.222	79.983	19.993	99.996	20.014	4.867	0.508
1112.000	640.278	79.984	19.993	99.993	20.016	4.772	0.503
1119.999	644.379	79.983	19.994	99.992	20.011	5.177	0.502
1127.999	648.373	79.981	19.992	99.999	20.014	4.947	0.467
1135.999	652.449	79.981	19.994	99.999	20.010	5.280	0.526
1143.999	656.488	79.982	19.994	99.999	20.012	5.095	0.489
1151.999	660.525	79.981	19.993	100.002	20.014	4.895	0.516
1159.999	664.555	79.982	19.994	99.998	20.015	4.863	0.502
1167.999	668.641	79.983	19.993	99.996	20.010	5.218	0.489
1175.999	672.678	79.984	19.992	99.992	20.014	4.929	0.515
1183.999	676.693	79.983	19.992	99.995	20.012	5.034	0.480
1192.000	680.760	79.985	19.992	99.996	20.012	5.100	0.494
1199.999	684.727	79.980	19.993	99.998	20.013	4.995	0.506
1207.999	688.886	79.981	19.993	100.001	20.008	5.396	0.538
1215.999	692.992	79.980	19.992	100.005	20.013	5.029	0.558
1223.999	697.085	79.981	19.993	99.996	20.014	4.924	0.546
1231.999	701.150	79.981	19.993	99.999	20.011	5.186	0.507
1239.999	705.241	79.982	19.992	100.000	20.010	5.252	0.494
1248.000	709.346	79.982	19.993	99.996	20.010	5.270	0.540
1256.000	713.399	79.982	19.993	99.998	20.009	5.362	0.540
1263.999	717.438	79.985	19.992	99.999	20.012	5.031	0.488
1271.999	721.524	79.984	19.992	99.984	20.009	5.347	0.496
1279.999	725.620	79.983	19.992	99.997	20.010	5.254	0.518
1287.999	729.677	79.982	19.993	99.993	20.012	5.090	0.509
1296.000	733.724	79.983	19.994	99.994	20.008	5.368	0.541
1303.999	737.700	79.982	19.993	100.042	20.014	4.885	0.507
1312.000	741.702	79.982	19.994	99.995	20.010	5.209	0.515
1316.000	743.735	79.982	19.994	99.992	20.014	4.924	0.554