File: 01_Data/Homasote/STA/N2/10K_min/Homasote_STA_N2_10KData_222104_R2.csv
##Temp./Â°C,Time/min,Mass loss(subtr.2)/mg,DSC(subtr.2)/(mW/mg),Sensit./(uV/mW)
49.688,10.01,0.01579,0.01238463,1.06052
52.988,11.33636,0.02047392,0.13541,1.05983
56.288,11.79583,0.01943034,0.19237,1.05913
59.588,12.18989,0.01687704,0.23138,1.0584
62.888,12.5604,0.0187508,0.24474,1.05765
66.188,12.92,0.02007048,0.24782,1.05689
69.488,13.27483,0.01826711,0.25688,1.0561
72.788,13.6246,0.01710564,0.26966,1.05529
76.088,13.97154,0.01477805,0.28239,1.05447
79.388,14.3137,0.01479379,0.29251,1.05362
82.688,14.6525,0.01373756,0.30056,1.05275
85.988,14.9882,0.01218148,0.30626,1.05187
89.288,15.31872,0.01086121,0.31014,1.05096
92.588,15.64947,0.01150777,0.31177,1.05004
95.888,15.9769,0.01006608,0.31333,1.04909
99.188,16.30371,0.00653262,0.31298,1.04813
102.488,16.62871,0.00623589,0.31356,1.04715
105.788,16.95309,0.00622428,0.31485,1.04615
109.088,17.27627,0.004152436,0.32088,1.04512
112.388,17.59941,0.004929742,0.31863,1.04409
115.688,17.92217,0.003610445,0.31962,1.04303
118.988,18.24384,0.002630515,0.31241,1.04195
122.288,18.5647,0.002618306,0.3056,1.04085
125.588,18.88474,0.001303031,0.29989,1.03974
128.888,19.20455,0.00131,0.29661,1.03861
132.188,19.52423,0.001308528,0.29425,1.03745
135.488,19.84381,0.00358127,0.2905,1.03628
138.788,20.16251,-0.0001424555,0.2949,1.0351
142.088,20.48266,0.0023,0.29415,1.03389
145.388,20.80043,0.00164041,0.29389,1.03267
148.688,21.11799,0.0009427458,0.30043,1.03143
151.988,21.4352,0.003290405,0.30336,1.03017
155.288,21.7525,0.002619085,0.30634,1.02889
158.588,22.06895,0.001309981,0.30763,1.02759
161.888,22.38505,0.00360999,0.31072,1.02628
165.188,22.70178,0.0009807331,0.31141,1.02495
168.488,23.01855,0.000968676,0.31349,1.02361
171.788,23.33474,0.00268021,0.31652,1.02224
175.088,23.65089,0.001280114,0.32185,1.02086
178.388,23.9653,-0.00033,0.32378,1.01946
181.688,24.28033,-9.999467e-06,0.32896,1.01805
184.988,24.595,8.206348e-05,0.33045,1.01662
188.288,24.91155,-0.00133,0.33119,1.01517
191.588,25.22476,-0.0030687,0.33431,1.0137
194.888,25.53941,-0.000871537,0.33957,1.01222
198.188,25.85399,-0.006457613,0.34261,1.01072
201.488,26.1676,-0.00813006,0.34721,1.00921
204.788,26.48195,-0.01206249,0.35194,1.00768
208.088,26.79695,-0.01469999,0.35658,1.00613
211.388,27.11208,-0.01721,0.36285,1.00457
214.688,27.4268,-0.01921405,0.36721,1.00299
217.988,27.74232,-0.02524638,0.36691,1.0014
221.288,28.05756,-0.02949003,0.37075,0.99979
224.588,28.37193,-0.03581412,0.36795,0.99816
227.888,28.68644,-0.04072594,0.37137,0.99652
231.188,29.0006,-0.047079,0.37163,0.99487
234.488,29.31458,-0.05625656,0.37544,0.9932
237.788,29.6295,-0.06283471,0.38044,0.99151
241.088,29.94459,-0.07349722,0.38257,0.98981
244.388,30.2591,-0.08429846,0.38528,0.98809
247.688,30.57338,-0.09394314,0.38659,0.98636
250.988,30.88812,-0.10679,0.39077,0.98462
254.288,31.20277,-0.11814,0.39392,0.98286
257.588,31.5174,-0.13362,0.39736,0.98108
260.888,31.83128,-0.1469,0.40167,0.97929
264.188,32.1474,-0.16436,0.40601,0.97749
267.488,32.46278,-0.18376,0.40816,0.97567
270.788,32.77773,-0.20322,0.41013,0.97384
274.088,33.0929,-0.22192,0.41636,0.972
277.388,33.40842,-0.24653,0.42083,0.97014
280.688,33.72391,-0.2724,0.42738,0.96827
283.988,34.0392,-0.29932,0.4333,0.96638
287.288,34.35454,-0.32761,0.44038,0.96448
290.588,34.67078,-0.36142,0.44582,0.96257
293.888,34.98709,-0.3952,0.45559,0.96064
297.188,35.30315,-0.43208,0.46222,0.9587
300.488,35.61939,-0.47291,0.47699,0.95675
303.788,35.93679,-0.51773,0.48599,0.95478
307.088,36.25343,-0.56653,0.49744,0.9528
310.388,36.57025,-0.61857,0.5122,0.95081
313.688,36.8874,-0.67162,0.52753,0.94881
316.988,37.20456,-0.73085,0.5427,0.94679
320.288,37.5218,-0.79572,0.56031,0.94477
323.588,37.83856,-0.86467,0.57818,0.94272
326.888,38.15591,-0.93904,0.59908,0.94067
330.188,38.4733,-1.01977,0.61981,0.93861
333.488,38.79096,-1.10115,0.64162,0.93653
336.788,39.10863,-1.19661,0.66534,0.93444
340.088,39.42745,-1.29347,0.69481,0.93234
343.388,39.7465,-1.40063,0.72024,0.93023
346.688,40.06512,-1.50918,0.74525,0.9281
349.988,40.38475,-1.62422,0.76646,0.92597
353.288,40.70411,-1.74484,0.78077,0.92382
356.588,41.02326,-1.86755,0.77875,0.92166
359.888,41.34255,-1.98744,0.75104,0.91949
363.188,41.66199,-2.09756,0.68022,0.91731
366.488,41.9803,-2.1926,0.57628,0.91512
369.788,42.2996,-2.26801,0.43756,0.91292
373.088,42.6185,-2.31637,0.3088,0.91071
376.388,42.93807,-2.34836,0.21218,0.90849
379.688,43.25651,-2.36793,0.15756,0.90625
382.988,43.57694,-2.37873,0.13296,0.90401
386.288,43.89759,-2.39012,0.12186,0.90176
389.588,44.21679,-2.39812,0.11277,0.89949
392.888,44.53699,-2.4074,0.10585,0.89722
396.188,44.85696,-2.41592,0.10069,0.89493
399.488,45.17752,-2.42505,0.09818027,0.89264
402.788,45.49884,-2.43304,0.09526425,0.89034
406.088,45.8206,-2.44206,0.08971241,0.88802
409.388,46.14177,-2.44929,0.09219459,0.8857
412.688,46.46414,-2.45566,0.08882293,0.88337
415.988,46.78698,-2.46542,0.08893394,0.88103
419.288,47.10964,-2.47341,0.08921057,0.87868
422.588,47.43249,-2.48047,0.09511718,0.87632
425.888,47.7556,-2.48983,0.09661029,0.87395
429.188,48.07858,-2.49615,0.10188,0.87157
432.488,48.40077,-2.50414,0.10719,0.86918
435.788,48.72508,-2.5149,0.10891,0.86679
439.088,49.04775,-2.52129,0.11992,0.86439
442.388,49.37036,-2.52609,0.12107,0.86197
445.688,49.69345,-2.53466,0.1268,0.85955
448.988,50.01737,-2.54069,0.13002,0.85712
452.288,50.3419,-2.54589,0.12818,0.85469
455.588,50.66632,-2.55262,0.13332,0.85224
458.888,50.991,-2.55788,0.13513,0.84979
462.188,51.31572,-2.56583,0.13334,0.84733
465.488,51.64067,-2.56886,0.13137,0.84486
468.788,51.96565,-2.57408,0.12771,0.84239
472.088,52.28928,-2.57807,0.12584,0.8399
475.388,52.6158,-2.58355,0.11931,0.83741
478.688,52.9414,-2.58816,0.12084,0.83492
481.988,53.2671,-2.59442,0.11957,0.83241
485.288,53.5933,-2.596,0.11702,0.8299
488.588,53.91956,-2.60111,0.11649,0.82738
491.888,54.24567,-2.60506,0.11063,0.82485
495.188,54.57212,-2.60868,0.10841,0.82232
498.488,54.8982,-2.61264,0.10381,0.81978
501.788,55.2238,-2.6179,0.10791,0.81723
505.088,55.5496,-2.62019,0.11525,0.81468
508.388,55.8745,-2.62282,0.12624,0.81212
511.688,56.20222,-2.62527,0.13098,0.80956
514.988,56.529,-2.62807,0.13302,0.80698
518.288,56.8561,-2.6317,0.1306,0.80441
521.588,57.18245,-2.63171,0.12081,0.80182
524.888,57.51028,-2.63635,0.11404,0.79923
528.188,57.83811,-2.6396,0.11159,0.79664
531.488,58.1659,-2.64093,0.09798794,0.79404
534.788,58.49436,-2.64355,0.08866607,0.79143
538.088,58.8249,-2.64734,0.07621359,0.78882
541.388,59.15371,-2.65145,0.07072996,0.7862
544.688,59.4823,-2.65145,0.06316087,0.78358
547.988,59.8113,-2.65276,0.05985821,0.78095
551.288,60.1397,-2.65539,0.05261038,0.77832
554.588,60.46714,-2.65673,0.0441308,0.77568
557.888,60.79636,-2.6595,0.03656801,0.77304
561.188,61.12471,-2.66143,0.02944912,0.77039
564.488,61.45301,-2.66492,0.02122377,0.76774
567.788,61.78082,-2.66589,0.01394836,0.76508
571.088,62.1091,-2.66812,0.01222843,0.76242
574.388,62.43741,-2.66571,0.003148728,0.75975
577.688,62.76614,-2.67262,0.002592971,0.75708
580.988,63.0947,-2.66908,-0.00420451,0.75441
584.288,63.42383,-2.675,-0.006728765,0.75173
587.588,63.75356,-2.67635,-0.01094712,0.74904
590.888,64.08482,-2.6787,-0.0121627,0.74636
594.188,64.41583,-2.68129,-0.01013303,0.74367
597.488,64.74551,-2.68127,-0.00696911,0.74097
600.788,65.07566,-2.67997,-0.0004964279,0.73827
604.088,65.40479,-2.6849,0.004263446,0.73557
607.388,65.73389,-2.68491,0.01209532,0.73287
610.688,66.06424,-2.68837,0.01825063,0.73016
613.988,66.39502,-2.68986,0.02557407,0.72745
617.288,66.72569,-2.69148,0.04287636,0.72473
620.588,67.05688,-2.69475,0.05315479,0.72201
623.888,67.3879,-2.69774,0.06841435,0.71929
627.188,67.71948,-2.69898,0.08637183,0.71657
630.488,68.05179,-2.70487,0.10395,0.71384
633.788,68.384,-2.70752,0.12666,0.71111
637.088,68.71599,-2.71114,0.14166,0.70838
640.388,69.04765,-2.71777,0.16537,0.70565
643.688,69.37807,-2.71773,0.18318,0.70291
646.988,69.71051,-2.72283,0.20865,0.70017
650.288,70.0433,-2.7296,0.23243,0.69743
653.588,70.37598,-2.73788,0.26216,0.69468
656.888,70.70735,-2.74282,0.29232,0.69194
660.188,71.03846,-2.74992,0.32245,0.68919
663.488,71.36931,-2.75673,0.35147,0.68644
666.788,71.69941,-2.76476,0.3808,0.68369
670.088,72.02946,-2.77387,0.41076,0.68094
673.388,72.36123,-2.78618,0.4373,0.67818
676.688,72.69409,-2.79462,0.4489,0.67542
679.988,73.02702,-2.80393,0.45011,0.67267
683.288,73.36215,-2.81335,0.44339,0.66991
686.588,73.69548,-2.82427,0.42711,0.66715
689.888,74.02756,-2.83545,0.40418,0.66439
693.188,74.36057,-2.84169,0.38502,0.66162
696.488,74.6926,-2.84941,0.34069,0.65886
699.788,75.02675,-2.85864,0.22035,0.65609
703.088,75.3604,-2.86358,0.01883362,0.65333
706.388,75.69402,-2.864,-0.008742018,0.65056
709.688,76.03186,-2.86424,-0.01328378,0.6478
712.988,76.37079,-2.86489,-0.01892453,0.64503
716.288,76.70858,-2.8649,-0.01906078,0.64226
719.588,77.04477,-2.86786,-0.02294465,0.63949
722.888,77.37915,-2.86918,-0.02097564,0.63672
726.188,77.7124,-2.8695,-0.02679508,0.63395
729.488,78.04584,-2.8695,-0.02352224,0.63119
732.788,78.37836,-2.86972,-0.02908751,0.62842
736.088,78.71131,-2.87339,-0.02734605,0.62565
739.388,79.04481,-2.87479,-0.02666393,0.62288
742.688,79.37902,-2.87609,-0.03429886,0.62011
745.988,79.71304,-2.87478,-0.04266994,0.61734
749.288,80.04601,-2.87741,-0.04565613,0.61457
752.588,80.3779,-2.87627,-0.0498273,0.61181
755.888,80.71171,-2.87945,-0.04872556,0.60904
759.188,81.04528,-2.87938,-0.06266979,0.60627
762.488,81.37925,-2.88037,-0.06987484,0.60351
765.788,81.71281,-2.88036,-0.07112124,0.60074
769.088,82.04688,-2.88034,-0.08291589,0.59798
772.388,82.3798,-2.88037,-0.09278913,0.59522
775.688,82.714,-2.88464,-0.09734761,0.59245
778.988,83.04847,-2.88337,-0.10673,0.58969
782.288,83.38405,-2.88398,-0.11584,0.58693
785.588,83.71908,-2.88464,-0.11854,0.58418
788.888,84.0552,-2.88644,-0.12603,0.58142
792.188,84.3917,-2.88629,-0.13572,0.57866
795.488,84.72807,-2.88629,-0.14274,0.57591
798.088,84.99298,-2.88629,-0.15337,0.57374