File: 01_Data/Homasote/STA/N2/10K_min/Homasote_STA_N2_10KData_222004_R1.csv
##Temp./Â°C,Time/min,Mass loss(subtr.2)/mg,DSC(subtr.2)/(mW/mg),Sensit./(uV/mW)
49.734,10.01,-0.01448,0.01431476,1.06051
52.934,11.32441,-0.01506613,0.12417,1.05985
56.134,11.7753,-0.01535612,0.17653,1.05916
59.334,12.1617,-0.01560956,0.213,1.05846
62.534,12.52342,-0.01815252,0.22916,1.05774
65.734,12.87472,-0.01548465,0.22774,1.05699
68.934,13.2194,-0.01831988,0.24033,1.05623
72.134,13.5597,-0.02094638,0.24851,1.05546
75.334,13.89676,-0.02026035,0.26247,1.05466
78.534,14.22918,-0.02095,0.27405,1.05384
81.734,14.55906,-0.02355551,0.28193,1.05301
84.934,14.88585,-0.0272138,0.29042,1.05215
88.134,15.2097,-0.02852002,0.29637,1.05128
91.334,15.53081,-0.02845522,0.29625,1.05039
94.534,15.8502,-0.03048995,0.29747,1.04948
97.734,16.1671,-0.03311998,0.29305,1.04856
100.934,16.4829,-0.0344466,0.29117,1.04761
104.134,16.79733,-0.03578186,0.29158,1.04665
107.334,17.11078,-0.03707,0.29339,1.04567
110.534,17.42383,-0.03839,0.29635,1.04467
113.734,17.73627,-0.03838485,0.29484,1.04366
116.934,18.0485,-0.0403331,0.29302,1.04262
120.134,18.3593,-0.04300006,0.29081,1.04157
123.334,18.67076,-0.04167999,0.27941,1.0405
126.534,18.98126,-0.04299916,0.27264,1.03942
129.734,19.2909,-0.04405656,0.27064,1.03831
132.934,19.6003,-0.04399,0.26741,1.03719
136.134,19.90866,-0.04333502,0.26512,1.03605
139.334,20.2175,-0.0444479,0.26905,1.0349
142.534,20.5265,-0.04432135,0.27052,1.03373
145.734,20.83474,-0.04433458,0.27174,1.03254
148.934,21.14285,-0.04497047,0.27341,1.03133
152.134,21.45089,-0.04530024,0.27438,1.03011
155.334,21.7586,-0.04594035,0.27737,1.02887
158.534,22.06615,-0.04628996,0.27898,1.02762
161.734,22.37275,-0.0450921,0.28193,1.02634
164.934,22.67998,-0.0476007,0.28519,1.02506
168.134,22.98655,-0.04496741,0.28732,1.02375
171.334,23.29306,-0.04858889,0.29023,1.02243
174.534,23.59959,-0.04826043,0.29239,1.02109
177.734,23.90576,-0.04858997,0.29489,1.01974
180.934,24.21205,-0.05127168,0.29552,1.01837
184.134,24.51899,-0.05122,0.30013,1.01699
187.334,24.8244,-0.05359966,0.30278,1.01559
190.534,25.1285,-0.05483996,0.30529,1.01417
193.734,25.43383,-0.05484,0.30746,1.01274
196.934,25.73944,-0.05582607,0.31066,1.01129
200.134,26.0441,-0.0564899,0.31743,1.00983
203.334,26.3492,-0.06010727,0.32065,1.00835
206.534,26.6534,-0.06172421,0.32458,1.00686
209.734,26.95812,-0.06503997,0.33213,1.00535
212.934,27.26138,-0.0683299,0.33466,1.00383
216.134,27.56656,-0.07217143,0.34024,1.0023
219.334,27.87102,-0.07623017,0.34275,1.00074
222.534,28.17538,-0.08147671,0.34922,0.99918
225.734,28.4792,-0.08545041,0.35156,0.9976
228.934,28.78371,-0.09205602,0.3509,0.996
232.134,29.0881,-0.09880394,0.35183,0.99439
235.334,29.39232,-0.1052,0.3529,0.99277
238.534,29.6978,-0.11309,0.35417,0.99113
241.734,30.00334,-0.12113,0.36028,0.98947
244.934,30.30888,-0.13145,0.36338,0.98781
248.134,30.61366,-0.14094,0.36656,0.98613
251.334,30.9188,-0.15178,0.37268,0.98443
254.534,31.2239,-0.16424,0.37639,0.98273
257.734,31.52905,-0.17732,0.37654,0.981
260.934,31.8342,-0.19129,0.38062,0.97927
264.134,32.1402,-0.20567,0.38412,0.97752
267.334,32.44571,-0.2227,0.39047,0.97576
270.534,32.75085,-0.2416,0.39183,0.97398
273.734,33.0565,-0.26102,0.39448,0.9722
276.934,33.362,-0.28383,0.39963,0.9704
280.134,33.66652,-0.30694,0.40617,0.96858
283.334,33.97293,-0.33282,0.41166,0.96675
286.534,34.27819,-0.36072,0.41821,0.96492
289.734,34.5835,-0.39006,0.42245,0.96306
292.934,34.8883,-0.4223,0.4301,0.9612
296.134,35.1935,-0.45812,0.44004,0.95932
299.334,35.49844,-0.49627,0.44986,0.95743
302.534,35.80208,-0.53604,0.4615,0.95553
305.734,36.1074,-0.58298,0.47064,0.95362
308.934,36.41217,-0.62908,0.4844,0.95169
312.134,36.7179,-0.68084,0.49541,0.94976
315.334,37.0236,-0.73604,0.50626,0.94781
318.534,37.33031,-0.79804,0.51995,0.94585
321.734,37.6374,-0.85889,0.53664,0.94387
324.934,37.94458,-0.92775,0.55285,0.94189
328.134,38.25295,-1.00127,0.56595,0.93989
331.334,38.5608,-1.07854,0.58699,0.93789
334.534,38.86817,-1.16192,0.60857,0.93587
337.734,39.1758,-1.25029,0.628,0.93384
340.934,39.48388,-1.34675,0.65255,0.9318
344.134,39.7932,-1.44547,0.67624,0.92975
347.334,40.10248,-1.55341,0.69903,0.92769
350.534,40.41185,-1.66602,0.71651,0.92561
353.734,40.72139,-1.78028,0.72864,0.92353
356.934,41.03117,-1.89719,0.71983,0.92144
360.134,41.34132,-2.01228,0.68486,0.91933
363.334,41.65079,-2.11544,0.62161,0.91722
366.534,41.96052,-2.20462,0.52491,0.91509
369.734,42.26985,-2.27563,0.40464,0.91296
372.934,42.57849,-2.32399,0.29215,0.91081
376.134,42.89002,-2.35342,0.21162,0.90866
379.334,43.20053,-2.37226,0.16814,0.90649
382.534,43.5112,-2.38555,0.14674,0.90432
385.734,43.82213,-2.39727,0.13479,0.90213
388.934,44.13377,-2.40826,0.12962,0.89994
392.134,44.4452,-2.41743,0.12591,0.89774
395.334,44.75732,-2.42621,0.11945,0.89552
398.534,45.07069,-2.43485,0.11037,0.8933
401.734,45.3853,-2.44462,0.10583,0.89107
404.934,45.7001,-2.45335,0.10358,0.88883
408.134,46.0141,-2.46251,0.10302,0.88658
411.334,46.32841,-2.47102,0.10207,0.88433
414.534,46.64223,-2.47855,0.10558,0.88206
417.734,46.95588,-2.48637,0.10415,0.87978
420.934,47.2694,-2.49588,0.10796,0.8775
424.134,47.5833,-2.50268,0.11017,0.87521
427.334,47.89683,-2.51013,0.11529,0.87291
430.534,48.20928,-2.51834,0.12086,0.8706
433.734,48.5229,-2.52706,0.12655,0.86828
436.934,48.83613,-2.53426,0.12974,0.86595
440.134,49.15032,-2.53956,0.13507,0.86362
443.334,49.46423,-2.54751,0.13554,0.86128
446.534,49.77901,-2.55405,0.13963,0.85893
449.734,50.09316,-2.56062,0.14442,0.85657
452.934,50.40762,-2.5671,0.14731,0.85421
456.134,50.722,-2.57247,0.14767,0.85184
459.334,51.03723,-2.57832,0.14961,0.84946
462.534,51.3526,-2.58453,0.14811,0.84707
465.734,51.66845,-2.59076,0.15033,0.84468
468.934,51.9835,-2.5955,0.14803,0.84228
472.134,52.29889,-2.6011,0.14505,0.83987
475.334,52.6143,-2.60536,0.1446,0.83745
478.534,52.9299,-2.61064,0.14213,0.83503
481.734,53.245,-2.61496,0.13977,0.8326
484.934,53.56018,-2.61865,0.13805,0.83017
488.134,53.8759,-2.62259,0.13433,0.82773
491.334,54.19189,-2.62523,0.13052,0.82528
494.534,54.50721,-2.63018,0.13258,0.82282
497.734,54.82221,-2.63346,0.12587,0.82036
500.934,55.1372,-2.63705,0.12728,0.81789
504.134,55.45316,-2.64071,0.13519,0.81542
507.334,55.7679,-2.64426,0.14293,0.81294
510.534,56.0839,-2.64837,0.15227,0.81045
513.734,56.4007,-2.65145,0.14923,0.80796
516.934,56.7164,-2.65407,0.15325,0.80547
520.134,57.034,-2.6567,0.14081,0.80296
523.334,57.3519,-2.66034,0.13608,0.80045
526.534,57.66978,-2.66197,0.12178,0.79794
529.734,57.98715,-2.66493,0.105,0.79542
532.934,58.3051,-2.66606,0.09644474,0.7929
536.134,58.62282,-2.66987,0.09468666,0.79037
539.334,58.94,-2.67119,0.09264289,0.78783
542.534,59.25813,-2.67374,0.09504789,0.78529
545.734,59.57705,-2.67612,0.08695037,0.78275
548.934,59.89533,-2.67878,0.08398839,0.7802
552.134,60.21388,-2.6814,0.0798363,0.77764
555.334,60.53213,-2.68393,0.07800058,0.77508
558.534,60.8507,-2.68532,0.07676231,0.77252
561.734,61.1696,-2.68731,0.07372705,0.76995
564.934,61.48885,-2.68994,0.06771589,0.76738
568.134,61.808,-2.69126,0.06766728,0.7648
571.334,62.1283,-2.6925,0.06600811,0.76222
574.534,62.44784,-2.69489,0.0650711,0.75963
577.734,62.76803,-2.69751,0.06261954,0.75704
580.934,63.08815,-2.70014,0.06410631,0.75445
584.134,63.4075,-2.70146,0.06437769,0.75185
587.334,63.72811,-2.70278,0.06990161,0.74925
590.534,64.0475,-2.70406,0.0703959,0.74665
593.734,64.3678,-2.70541,0.07234547,0.74404
596.934,64.68732,-2.70804,0.07523539,0.74142
600.134,65.00724,-2.71034,0.08012924,0.73881
603.334,65.32726,-2.71295,0.08386235,0.73619
606.534,65.64735,-2.71409,0.0877788,0.73357
609.734,65.96786,-2.71561,0.09246475,0.73094
612.934,66.288,-2.7158,0.10511,0.72831
616.134,66.6086,-2.71792,0.11084,0.72568
619.334,66.92917,-2.71988,0.12243,0.72305
622.534,67.24914,-2.72252,0.13411,0.72041
625.734,67.56992,-2.72581,0.15048,0.71777
628.934,67.89057,-2.7278,0.16134,0.71513
632.134,68.21171,-2.72909,0.17531,0.71248
635.334,68.53325,-2.73175,0.19163,0.70983
638.534,68.85409,-2.7372,0.21232,0.70718
641.734,69.17622,-2.74096,0.22535,0.70453
644.934,69.4984,-2.74521,0.24367,0.70188
648.134,69.82003,-2.74851,0.26471,0.69922
651.334,70.14251,-2.75248,0.28465,0.69656
654.534,70.46483,-2.75769,0.30605,0.6939
657.734,70.78756,-2.76234,0.33375,0.69123
660.934,71.1095,-2.76893,0.35922,0.68857
664.134,71.43186,-2.77565,0.38755,0.6859
667.334,71.75429,-2.78341,0.41968,0.68323
670.534,72.0779,-2.78978,0.44984,0.68056
673.734,72.40083,-2.79897,0.4775,0.67789
676.934,72.72221,-2.80698,0.50431,0.67522
680.134,73.0446,-2.81585,0.52687,0.67254
683.334,73.3673,-2.82587,0.54283,0.66987
686.534,73.68934,-2.83546,0.55559,0.66719
689.734,74.01228,-2.84513,0.55178,0.66451
692.934,74.33499,-2.8539,0.5445,0.66184
696.134,74.6577,-2.86369,0.53768,0.65916
699.334,74.9802,-2.87203,0.52531,0.65647
702.534,75.30414,-2.88061,0.48581,0.65379
705.734,75.62735,-2.88824,0.3863,0.65111
708.934,75.95015,-2.89287,0.14852,0.64843
712.134,76.2728,-2.89253,0.10345,0.64574
715.334,76.59639,-2.89479,0.09816514,0.64306
718.534,76.9207,-2.89648,0.08709529,0.64038
721.734,77.24473,-2.89747,0.07826904,0.63769
724.934,77.56873,-2.89878,0.0789337,0.63501
728.134,77.89291,-2.89872,0.07439547,0.63232
731.334,78.2157,-2.90075,0.06898098,0.62964
734.534,78.53833,-2.90076,0.06287777,0.62695
737.734,78.85982,-2.90109,0.05670026,0.62427
740.934,79.18174,-2.9034,0.05429439,0.62158
744.134,79.50362,-2.9047,0.05384144,0.6189
747.334,79.82715,-2.90471,0.04854433,0.61621
750.534,80.1506,-2.90603,0.04021816,0.61353
753.734,80.4747,-2.90744,0.03773769,0.61084
756.934,80.79842,-2.90792,0.03343082,0.60816
760.134,81.12226,-2.9073,0.02875419,0.60548
763.334,81.4466,-2.90893,0.02612496,0.6028
766.534,81.77109,-2.91062,0.0239915,0.60012
769.734,82.09464,-2.91129,0.02388926,0.59744
772.934,82.41843,-2.9126,0.02473539,0.59476
776.134,82.74277,-2.91359,0.02701101,0.59208
779.334,83.06589,-2.91324,0.02830469,0.5894
782.534,83.3897,-2.91393,0.02927603,0.58673
785.734,83.71387,-2.91524,0.02897543,0.58405
788.934,84.038,-2.91491,0.02461541,0.58138
792.134,84.36288,-2.9159,0.02604917,0.57871
795.334,84.6879,-2.91589,0.02360353,0.57604
798.334,84.99292,-2.91722,0.02766572,0.57354