File: 01_Data/Feather_Pillow_Feathers/STA/N2/30K_min/Feather_Pillow_Feathers_STA_N2_30KData_2236_R2.csv
##Temp./Â°C,Time/min,Mass loss(subtr.2)/mg,DSC(subtr.2)/(mW/mg),Sensit./(uV/mW)
48.557,10.01,-0.05797,0.03745291,1.054
51.757,10.8872,-0.06288591,0.18114,1.05335
54.957,11.1217,-0.06319708,0.2843,1.05267
58.157,11.30172,-0.06699702,0.36895,1.05198
61.357,11.45665,-0.06342459,0.4392,1.05127
64.557,11.59752,-0.06839917,0.50346,1.05054
67.757,11.7292,-0.06734708,0.56158,1.04979
70.957,11.85546,-0.06841779,0.61756,1.04902
74.157,11.97724,-0.06855009,0.67078,1.04824
77.357,12.09573,-0.07021622,0.72584,1.04743
80.557,12.21192,-0.07415003,0.7794,1.04661
83.757,12.32569,-0.07643976,0.83571,1.04577
86.957,12.4384,-0.0793979,0.88896,1.04491
90.157,12.54893,-0.08202383,0.937,1.04404
93.357,12.6591,-0.08471627,0.98096,1.04315
96.557,12.76798,-0.08879471,1.01798,1.04223
99.757,12.87606,-0.09282721,1.04649,1.04131
102.957,12.98396,-0.09578064,1.06586,1.04036
106.157,13.09104,-0.09838402,1.0676,1.03939
109.357,13.1987,-0.10243,1.06398,1.03841
112.557,13.30525,-0.10649,1.04938,1.03741
115.757,13.41196,-0.10781,1.02535,1.0364
118.957,13.51776,-0.11056,0.99529,1.03536
122.157,13.62365,-0.11341,0.95976,1.03431
125.357,13.7292,-0.11483,0.92383,1.03325
128.557,13.83365,-0.1189,0.88436,1.03216
131.757,13.93785,-0.1189,0.85027,1.03106
134.957,14.0413,-0.12033,0.81745,1.02994
138.157,14.14448,-0.12302,0.78532,1.02881
141.357,14.2471,-0.12428,0.76238,1.02765
144.557,14.349,-0.123,0.74281,1.02649
147.757,14.4507,-0.12428,0.72974,1.0253
150.957,14.552,-0.12428,0.72036,1.0241
154.157,14.65288,-0.1236,0.71542,1.02288
157.357,14.75366,-0.12459,0.71492,1.02165
160.557,14.854,-0.12593,0.7123,1.0204
163.757,14.9543,-0.12698,0.71705,1.01914
166.957,15.0543,-0.12758,0.72104,1.01786
170.157,15.1541,-0.12738,0.72526,1.01656
173.357,15.25349,-0.12758,0.73123,1.01525
176.557,15.35261,-0.12889,0.73762,1.01392
179.757,15.4515,-0.12889,0.74535,1.01257
182.957,15.54998,-0.13021,0.75429,1.01121
186.157,15.64811,-0.13218,0.76494,1.00984
189.357,15.74615,-0.13075,0.77616,1.00845
192.557,15.8439,-0.13207,0.79123,1.00704
195.757,15.94144,-0.13351,0.80653,1.00562
198.957,16.03869,-0.13405,0.82559,1.00419
202.157,16.13574,-0.13405,0.84553,1.00274
205.357,16.2328,-0.13546,0.87193,1.00127
208.557,16.32948,-0.13675,0.90332,0.99979
211.757,16.42621,-0.13557,0.94443,0.9983
214.957,16.5229,-0.13808,0.99678,0.99679
218.157,16.61946,-0.14098,1.06933,0.99527
221.357,16.71611,-0.1436,1.16509,0.99373
224.557,16.8128,-0.1489,1.29831,0.99218
227.757,16.90915,-0.15469,1.47302,0.99061
230.957,17.00619,-0.16246,1.6954,0.98903
234.157,17.1026,-0.17023,1.92535,0.98744
237.357,17.19981,-0.18343,2.0932,0.98583
240.557,17.29675,-0.19698,2.16495,0.98421
243.757,17.3936,-0.21326,2.17537,0.98257
246.957,17.4904,-0.2294,2.14387,0.98093
250.157,17.58691,-0.24776,2.09636,0.97926
253.357,17.68346,-0.26304,2.04798,0.97759
256.557,17.77965,-0.28077,2.01543,0.9759
259.757,17.8761,-0.29845,2.00017,0.9742
262.957,17.9726,-0.31591,2.00064,0.97248
266.157,18.0689,-0.33495,2.01813,0.97075
269.357,18.16531,-0.35518,2.046,0.96901
272.557,18.26165,-0.37854,2.07409,0.96726
275.757,18.3582,-0.40231,2.10014,0.96549
278.957,18.4546,-0.4274,2.1157,0.96372
282.157,18.55132,-0.45401,2.12334,0.96192
285.357,18.64793,-0.48107,2.1298,0.96012
288.557,18.74444,-0.51027,2.13601,0.9583
291.757,18.84094,-0.53996,2.14716,0.95648
294.957,18.9377,-0.57125,2.16482,0.95464
298.157,19.03414,-0.6027,2.18928,0.95278
301.357,19.13097,-0.63559,2.21413,0.95092
304.557,19.2271,-0.66883,2.21675,0.94904
307.757,19.32396,-0.70367,2.1591,0.94716
310.957,19.42073,-0.74079,1.97575,0.94526
314.157,19.51724,-0.77561,1.90243,0.94335
317.357,19.61395,-0.8133,1.90146,0.94142
320.557,19.7105,-0.85225,1.94737,0.93949
323.757,19.80725,-0.89573,2.01739,0.93755
326.957,19.90409,-0.95296,2.12126,0.93559
330.157,20.00121,-1.00796,2.14483,0.93362
333.357,20.09817,-1.06924,2.18723,0.93165
336.557,20.1954,-1.13436,2.25456,0.92966
339.757,20.29259,-1.20291,2.29956,0.92766
342.957,20.38997,-1.27721,2.332,0.92565
346.157,20.48745,-1.35291,2.34878,0.92363
349.357,20.58496,-1.43185,2.33385,0.9216
352.557,20.68253,-1.50718,2.29354,0.91956
355.757,20.78002,-1.59122,2.23416,0.91751
358.957,20.8777,-1.66622,2.14822,0.91544
362.157,20.97531,-1.74083,2.02776,0.91337
365.357,21.0732,-1.8096,1.9055,0.91129
368.557,21.1708,-1.87765,1.77273,0.9092
371.757,21.26861,-1.94045,1.64454,0.9071
374.957,21.36652,-1.99692,1.52323,0.90499
378.157,21.46423,-2.05142,1.41584,0.90287
381.357,21.56244,-2.10197,1.31975,0.90074
384.557,21.66074,-2.15069,1.23468,0.8986
387.757,21.75893,-2.19523,1.15931,0.89645
390.957,21.85726,-2.23689,1.08893,0.8943
394.157,21.95566,-2.27683,1.02144,0.89213
397.357,22.05415,-2.31539,0.95321,0.88996
400.557,22.1528,-2.34989,0.89184,0.88777
403.757,22.25157,-2.38372,0.8336,0.88558
406.957,22.3505,-2.41347,0.78067,0.88338
410.157,22.4494,-2.43965,0.7316,0.88117
413.357,22.5485,-2.46864,0.68982,0.87895
416.557,22.64752,-2.49409,0.65047,0.87672
419.757,22.74683,-2.51498,0.61564,0.87449
422.957,22.8463,-2.53972,0.58547,0.87224
426.157,22.94586,-2.55979,0.55413,0.86999
429.357,23.04567,-2.57867,0.52457,0.86773
432.557,23.1452,-2.59696,0.49696,0.86547
435.757,23.24514,-2.6148,0.47269,0.86319
438.957,23.3451,-2.63083,0.45152,0.86091
442.157,23.44523,-2.64439,0.43203,0.85862
445.357,23.5454,-2.65772,0.41138,0.85632
448.557,23.64578,-2.67246,0.39505,0.85401
451.757,23.74615,-2.68546,0.38099,0.8517
454.957,23.84696,-2.69614,0.36713,0.84938
458.157,23.94765,-2.70824,0.35138,0.84705
461.357,24.0485,-2.71874,0.3408,0.84472
464.557,24.14943,-2.72927,0.32756,0.84238
467.757,24.25054,-2.74092,0.31759,0.84003
470.957,24.3515,-2.74829,0.30721,0.83768
474.157,24.453,-2.7586,0.29844,0.83532
477.357,24.554,-2.76676,0.28849,0.83295
480.557,24.65575,-2.77554,0.27666,0.83057
483.757,24.75713,-2.78578,0.2685,0.82819
486.957,24.8588,-2.79198,0.26071,0.82581
490.157,24.96045,-2.80151,0.25328,0.82341
493.357,25.0621,-2.80902,0.24293,0.82101
496.557,25.16378,-2.81542,0.23663,0.81861
499.757,25.26576,-2.82229,0.22779,0.8162
502.957,25.36796,-2.82921,0.22012,0.81378
506.157,25.47002,-2.83527,0.21145,0.81135
509.357,25.57207,-2.8399,0.20444,0.80893
512.557,25.67429,-2.84715,0.19712,0.80649
515.757,25.77669,-2.85241,0.19004,0.80405
518.957,25.87908,-2.85832,0.18281,0.80161
522.157,25.98155,-2.86371,0.17576,0.79916
525.357,26.08391,-2.86734,0.17034,0.7967
528.557,26.18665,-2.87371,0.1662,0.79424
531.757,26.2893,-2.8781,0.15949,0.79177
534.957,26.39215,-2.88379,0.15124,0.7893
538.157,26.4951,-2.88579,0.14599,0.78683
541.357,26.59817,-2.88851,0.14465,0.78435
544.557,26.7013,-2.89243,0.14203,0.78186
547.757,26.8045,-2.89383,0.13561,0.77937
550.957,26.90782,-2.89819,0.13445,0.77688
554.157,27.011,-2.90151,0.13382,0.77438
557.357,27.11445,-2.90725,0.13213,0.77187
560.557,27.21782,-2.90872,0.13045,0.76937
563.757,27.3215,-2.91154,0.13017,0.76686
566.957,27.42495,-2.91436,0.13506,0.76434
570.157,27.5289,-2.9163,0.13405,0.76182
573.357,27.63255,-2.91991,0.1377,0.7593
576.557,27.73638,-2.92397,0.13899,0.75677
579.757,27.84011,-2.92683,0.13941,0.75424
582.957,27.94404,-2.92829,0.14036,0.7517
586.157,28.0476,-2.93107,0.14207,0.74916
589.357,28.1521,-2.93398,0.14209,0.74662
592.557,28.25644,-2.937,0.14499,0.74408
595.757,28.3605,-2.93968,0.14955,0.74153
598.957,28.4649,-2.94179,0.15181,0.73898
602.157,28.56907,-2.94415,0.15278,0.73642
605.357,28.67362,-2.94573,0.15342,0.73386
608.557,28.77807,-2.94879,0.15262,0.7313
611.757,28.8826,-2.94986,0.15044,0.72874
614.957,28.98695,-2.95152,0.14736,0.72617
618.157,29.092,-2.95481,0.14257,0.7236
621.357,29.19663,-2.95727,0.13755,0.72103
624.557,29.3017,-2.95855,0.132,0.71845
627.757,29.40655,-2.96152,0.13052,0.71588
630.957,29.51117,-2.96414,0.12206,0.7133
634.157,29.6162,-2.96741,0.11802,0.71071
637.357,29.7212,-2.96888,0.11334,0.70813
640.557,29.8264,-2.9701,0.10553,0.70554
643.757,29.93158,-2.97295,0.0965759,0.70295
646.957,30.0369,-2.97508,0.08803446,0.70036
650.157,30.14188,-2.978,0.0780036,0.69777
653.357,30.24725,-2.97853,0.0680387,0.69518
656.557,30.3527,-2.98225,0.05883948,0.69258
659.757,30.4582,-2.98239,0.04850755,0.68998
662.957,30.56338,-2.98537,0.03783035,0.68738
666.157,30.6688,-2.98809,0.02814787,0.68478
669.357,30.77423,-2.99102,0.02087833,0.68218
672.557,30.87957,-2.99128,0.00788451,0.67957
675.757,30.9851,-2.9927,-0.003172564,0.67697
678.957,31.09051,-2.99548,-0.01583703,0.67436
682.157,31.19623,-2.99683,-0.02449948,0.67176
685.357,31.3018,-2.99823,-0.03334981,0.66915
688.557,31.40751,-3.00148,-0.04392938,0.66654
691.757,31.51318,-3.00272,-0.05587092,0.66393
694.957,31.61895,-3.00557,-0.06752727,0.66131
698.157,31.7248,-3.00682,-0.08385494,0.6587
701.357,31.8306,-3.00811,-0.0908256,0.65609
704.557,31.9365,-3.01093,-0.09848455,0.65348
707.757,32.04247,-3.01376,-0.10994,0.65086
710.957,32.14832,-3.01369,-0.11896,0.64825
714.157,32.25464,-3.0153,-0.12412,0.64563
717.357,32.36072,-3.01795,-0.13574,0.64302
720.557,32.46705,-3.0193,-0.14373,0.6404
723.757,32.57331,-3.02129,-0.15091,0.63778
726.957,32.67945,-3.02311,-0.15683,0.63517
730.157,32.78581,-3.02461,-0.16414,0.63255
733.357,32.8922,-3.02518,-0.16721,0.62994
736.557,32.99842,-3.02666,-0.17591,0.62732
739.757,33.10507,-3.0287,-0.1784,0.62471
742.957,33.21157,-3.03002,-0.18564,0.62209
746.157,33.31816,-3.03163,-0.194,0.61948
749.357,33.4249,-3.03157,-0.19783,0.61686
752.557,33.53152,-3.03441,-0.20126,0.61425
755.757,33.63839,-3.03596,-0.20796,0.61163
758.957,33.74517,-3.03601,-0.21159,0.60902
762.157,33.85191,-3.03616,-0.20972,0.60641
765.357,33.95897,-3.03764,-0.21679,0.6038
768.557,34.06585,-3.04042,-0.23176,0.60119
771.757,34.1729,-3.04267,-0.23295,0.59858
774.957,34.2799,-3.04265,-0.23756,0.59597
778.157,34.38706,-3.04398,-0.23568,0.59336
781.357,34.49423,-3.044,-0.24443,0.59075
784.557,34.60132,-3.04398,-0.25068,0.58815
787.757,34.70865,-3.04672,-0.25761,0.58555
790.957,34.81595,-3.04739,-0.26066,0.58294
794.157,34.92334,-3.04952,-0.26302,0.58034
796.357,34.99727,-3.04946,-0.26435,0.57855