File: 01_Data/Feather_Pillow_Feathers/STA/N2/30K_min/Feather_Pillow_Feathers_STA_N2_30KData_2236_R3.csv
##Temp./Â°C,Time/min,Mass loss(subtr.2)/mg,DSC(subtr.2)/(mW/mg),Sensit./(uV/mW)
48.491,10.01,-0.07497,0.04904603,1.05402
51.591,10.87707,-0.08020966,0.21017,1.05338
54.691,11.10853,-0.08098906,0.3254,1.05273
57.791,11.28577,-0.08038139,0.41894,1.05206
60.891,11.43832,-0.08096607,0.49594,1.05137
63.991,11.57681,-0.08268811,0.56859,1.05067
67.091,11.70571,-0.08602476,0.63481,1.04995
70.191,11.8291,-0.08490359,0.69838,1.04921
73.291,11.94805,-0.08677748,0.76085,1.04845
76.391,12.06391,-0.08798625,0.82314,1.04768
79.491,12.17689,-0.09035374,0.88063,1.04689
82.591,12.28823,-0.09067091,0.94011,1.04608
85.691,12.3977,-0.09388677,0.99457,1.04526
88.791,12.50571,-0.09771986,1.0493,1.04442
91.891,12.61261,-0.10047,1.09738,1.04356
94.991,12.71832,-0.10462,1.13287,1.04268
98.091,12.82368,-0.10725,1.1634,1.04179
101.191,12.92811,-0.11166,1.18767,1.04088
104.291,13.03209,-0.11537,1.19959,1.03996
107.391,13.1364,-0.11801,1.20133,1.03902
110.491,13.2399,-0.12064,1.19355,1.03806
113.591,13.34312,-0.12469,1.17712,1.03709
116.691,13.4459,-0.12593,1.15683,1.0361
119.791,13.54853,-0.12854,1.12661,1.03509
122.891,13.6509,-0.13085,1.09595,1.03407
125.991,13.7524,-0.1325,1.066,1.03303
129.091,13.8536,-0.13355,1.03591,1.03198
132.191,13.95434,-0.13478,1.01,1.03091
135.291,14.0543,-0.13646,0.98537,1.02982
138.391,14.154,-0.13718,0.96624,1.02872
141.491,14.2531,-0.13842,0.95171,1.02761
144.591,14.3521,-0.13842,0.94361,1.02647
147.691,14.45064,-0.13842,0.94111,1.02533
150.791,14.5488,-0.13974,0.94103,1.02416
153.891,14.6465,-0.13974,0.94114,1.02299
156.991,14.74394,-0.13974,0.94973,1.02179
160.091,14.84141,-0.13975,0.95473,1.02058
163.191,14.93844,-0.13971,0.96421,1.01936
166.291,15.0349,-0.14074,0.97187,1.01812
169.391,15.13214,-0.14188,0.98022,1.01687
172.491,15.2286,-0.14041,0.99262,1.0156
175.591,15.3248,-0.14041,1.00093,1.01432
178.691,15.4206,-0.14244,1.01146,1.01302
181.791,15.51624,-0.14304,1.02477,1.01171
184.891,15.61156,-0.14305,1.03691,1.01038
187.991,15.70659,-0.14421,1.04908,1.00904
191.091,15.8013,-0.14436,1.06779,1.00769
194.191,15.89616,-0.14567,1.08244,1.00632
197.291,15.99056,-0.14699,1.09963,1.00494
200.391,16.085,-0.14832,1.1203,1.00354
203.491,16.17933,-0.1496,1.14475,1.00213
206.591,16.27345,-0.15091,1.1739,1.0007
209.691,16.36746,-0.15089,1.21021,0.99927
212.791,16.4614,-0.15358,1.25516,0.99781
215.891,16.55542,-0.15489,1.31577,0.99635
218.991,16.64929,-0.15764,1.39278,0.99487
222.091,16.74305,-0.16043,1.49352,0.99337
225.191,16.83697,-0.16483,1.63085,0.99187
228.291,16.93091,-0.17152,1.80563,0.99035
231.391,17.02476,-0.1769,2.02129,0.98882
234.491,17.11872,-0.18784,2.24246,0.98727
237.591,17.21278,-0.19923,2.39601,0.98571
240.691,17.3067,-0.21439,2.46639,0.98414
243.791,17.40052,-0.22733,2.47688,0.98256
246.891,17.49428,-0.24413,2.44833,0.98096
249.991,17.58802,-0.26078,2.40465,0.97935
253.091,17.6816,-0.27742,2.36047,0.97773
256.191,17.77494,-0.29293,2.32674,0.97609
259.291,17.86804,-0.31033,2.31211,0.97445
262.391,17.96125,-0.32797,2.31033,0.97279
265.491,18.0547,-0.34468,2.33028,0.97112
268.591,18.148,-0.3637,2.35284,0.96943
271.691,18.2411,-0.38544,2.3805,0.96774
274.791,18.3344,-0.40719,2.40825,0.96603
277.891,18.42752,-0.43174,2.43044,0.96431
280.991,18.521,-0.45453,2.44524,0.96258
284.091,18.61422,-0.4821,2.454,0.96084
287.191,18.7075,-0.50834,2.46042,0.95908
290.291,18.80066,-0.53514,2.47067,0.95732
293.391,18.89418,-0.56384,2.4884,0.95554
296.491,18.98751,-0.59455,2.51024,0.95375
299.591,19.08095,-0.62497,2.53656,0.95195
302.691,19.17438,-0.65931,2.56394,0.95014
305.791,19.2678,-0.69532,2.58091,0.94832
308.891,19.36141,-0.7297,2.55513,0.94648
311.991,19.45495,-0.76895,2.41954,0.94464
315.091,19.54826,-0.80461,2.26578,0.94279
318.191,19.64166,-0.83854,2.22948,0.94092
321.291,19.73495,-0.87827,2.2539,0.93905
324.391,19.82884,-0.92214,2.33676,0.93716
327.491,19.92248,-0.9725,2.4401,0.93526
330.591,20.0162,-1.02916,2.51458,0.93336
333.691,20.1102,-1.08739,2.57616,0.93144
336.791,20.20426,-1.14979,2.61226,0.92951
339.891,20.2984,-1.21509,2.64696,0.92757
342.991,20.39266,-1.28194,2.6877,0.92563
346.091,20.48691,-1.35387,2.7093,0.92367
349.191,20.58135,-1.42866,2.72294,0.9217
352.291,20.67567,-1.5016,2.70061,0.91973
355.391,20.77015,-1.57881,2.64355,0.91774
358.491,20.8649,-1.65369,2.55618,0.91575
361.591,20.95952,-1.7252,2.45261,0.91374
364.691,21.05399,-1.79655,2.34112,0.91173
367.791,21.14858,-1.85974,2.21375,0.9097
370.891,21.2434,-1.92066,2.09654,0.90767
373.991,21.33817,-1.98183,1.98749,0.90563
377.091,21.43289,-2.03389,1.87921,0.90358
380.191,21.52778,-2.08483,1.76735,0.90152
383.291,21.62276,-2.1332,1.66419,0.89945
386.391,21.71756,-2.17482,1.5784,0.89737
389.491,21.8129,-2.21646,1.50216,0.89529
392.591,21.9085,-2.25491,1.42687,0.89319
395.691,22.00398,-2.2896,1.36389,0.89109
398.791,22.09958,-2.32517,1.29686,0.88898
401.891,22.1951,-2.35491,1.23686,0.88686
404.991,22.29075,-2.38355,1.18205,0.88473
408.091,22.3866,-2.4131,1.12866,0.88259
411.191,22.48261,-2.43853,1.08523,0.88045
414.291,22.57859,-2.46305,1.04643,0.8783
417.391,22.6748,-2.48527,1.01248,0.87614
420.491,22.77081,-2.50641,0.98234,0.87397
423.591,22.8674,-2.52694,0.95359,0.8718
426.691,22.96392,-2.5463,0.9308,0.86962
429.791,23.06046,-2.56363,0.91132,0.86743
432.891,23.15719,-2.5815,0.88901,0.86523
435.991,23.2539,-2.59731,0.87487,0.86302
439.091,23.3509,-2.61074,0.85954,0.86081
442.191,23.44801,-2.62784,0.84667,0.85859
445.291,23.54455,-2.63933,0.83455,0.85637
448.391,23.64185,-2.65095,0.81966,0.85413
451.491,23.73938,-2.66315,0.80476,0.85189
454.591,23.83685,-2.67559,0.78892,0.84965
457.691,23.93435,-2.68615,0.77617,0.84739
460.791,24.03201,-2.69638,0.76264,0.84513
463.891,24.1297,-2.70546,0.74884,0.84287
466.991,24.2278,-2.71571,0.73451,0.84059
470.091,24.32583,-2.72551,0.71867,0.83831
473.191,24.42384,-2.73484,0.69626,0.83603
476.291,24.52204,-2.74323,0.67762,0.83374
479.391,24.62025,-2.75141,0.66076,0.83144
482.491,24.71817,-2.75814,0.6472,0.82913
485.591,24.81645,-2.76585,0.63567,0.82682
488.691,24.9149,-2.77299,0.62819,0.82451
491.791,25.01359,-2.78006,0.61863,0.82219
494.891,25.11244,-2.78673,0.61224,0.81986
497.991,25.21144,-2.79496,0.60419,0.81753
501.091,25.3104,-2.80111,0.59925,0.81519
504.191,25.4091,-2.80612,0.59302,0.81284
507.291,25.50814,-2.81108,0.5862,0.81049
510.391,25.6071,-2.81834,0.58069,0.80814
513.491,25.70628,-2.82253,0.57561,0.80578
516.591,25.80544,-2.82827,0.57067,0.80342
519.691,25.9047,-2.83397,0.56497,0.80104
522.791,26.0043,-2.83836,0.56127,0.79867
525.891,26.1035,-2.84244,0.5577,0.79629
528.991,26.2031,-2.84609,0.55189,0.79391
532.091,26.30232,-2.84966,0.54709,0.79152
535.191,26.4021,-2.85393,0.54117,0.78912
538.291,26.5017,-2.85928,0.53983,0.78672
541.391,26.60142,-2.8624,0.53752,0.78432
544.491,26.7012,-2.86533,0.53442,0.78191
547.591,26.8011,-2.86885,0.53176,0.7795
550.691,26.9011,-2.87232,0.53054,0.77708
553.791,27.00088,-2.87673,0.52891,0.77466
556.891,27.10128,-2.87906,0.5303,0.77224
559.991,27.20151,-2.88092,0.52971,0.76981
563.091,27.3019,-2.88597,0.52892,0.76738
566.191,27.40226,-2.88725,0.5304,0.76494
569.291,27.5027,-2.88992,0.53167,0.7625
572.391,27.60313,-2.8925,0.53175,0.76006
575.491,27.704,-2.89535,0.53513,0.75761
578.591,27.8046,-2.89946,0.53759,0.75516
581.691,27.9053,-2.89951,0.54197,0.75271
584.791,28.00602,-2.90343,0.54475,0.75025
587.891,28.10691,-2.90728,0.54936,0.74779
590.991,28.2079,-2.90766,0.55367,0.74532
594.091,28.3088,-2.91057,0.55936,0.74285
597.191,28.40993,-2.91451,0.56611,0.74038
600.291,28.51098,-2.91494,0.57443,0.73791
603.391,28.612,-2.91715,0.57917,0.73543
606.491,28.71317,-2.92111,0.58006,0.73296
609.591,28.8147,-2.92232,0.57784,0.73047
612.691,28.91595,-2.92288,0.5783,0.72799
615.791,29.0172,-2.9264,0.57427,0.7255
618.891,29.1186,-2.93024,0.57617,0.72301
621.991,29.21988,-2.93022,0.57666,0.72052
625.091,29.32113,-2.93285,0.57468,0.71802
628.191,29.42253,-2.93546,0.57637,0.71553
631.291,29.52416,-2.93793,0.57624,0.71303
634.391,29.6255,-2.93952,0.57384,0.71052
637.491,29.7272,-2.94206,0.57318,0.70802
640.591,29.8289,-2.94472,0.57539,0.70552
643.691,29.93042,-2.94736,0.57232,0.70301
646.791,30.0322,-2.948,0.57262,0.7005
649.891,30.134,-2.94926,0.56656,0.69799
652.991,30.23582,-2.95122,0.56577,0.69547
656.091,30.33762,-2.95327,0.55803,0.69296
659.191,30.43958,-2.95459,0.55339,0.69044
662.291,30.5416,-2.95767,0.54946,0.68792
665.391,30.64343,-2.95988,0.54647,0.6854
668.491,30.7452,-2.96015,0.54103,0.68288
671.591,30.84736,-2.96184,0.53719,0.68036
674.691,30.9493,-2.96448,0.53256,0.67784
677.791,31.0517,-2.96576,0.52891,0.67531
680.891,31.1542,-2.96732,0.52318,0.67279
683.991,31.2563,-2.96971,0.51404,0.67026
687.091,31.35858,-2.97099,0.51109,0.66773
690.191,31.46094,-2.974,0.50471,0.6652
693.291,31.5632,-2.97601,0.50093,0.66267
696.391,31.66565,-2.97666,0.49684,0.66014
699.491,31.76813,-2.9781,0.49053,0.65761
702.591,31.8706,-2.97995,0.48315,0.65508
705.691,31.97317,-2.98227,0.4766,0.65255
708.791,32.07567,-2.9849,0.47019,0.65002
711.891,32.17822,-2.98489,0.46095,0.64748
714.991,32.2812,-2.98719,0.45598,0.64495
718.091,32.38394,-2.98851,0.44333,0.64242
721.191,32.4872,-2.98974,0.43964,0.63988
724.291,32.59024,-2.99247,0.4332,0.63735
727.391,32.6935,-2.98711,0.42674,0.63481
730.491,32.79684,-2.99036,0.421,0.63228
733.591,32.90013,-2.99301,0.41194,0.62975
736.691,33.00355,-2.99566,0.40404,0.62721
739.791,33.1071,-2.99841,0.39981,0.62468
742.891,33.21066,-2.99961,0.39027,0.62214
745.991,33.31381,-3.00282,0.38187,0.61961
749.091,33.4176,-3.00355,0.37446,0.61708
752.191,33.52112,-3.00356,0.36611,0.61455
755.291,33.62441,-3.00492,0.35124,0.61201
758.391,33.72783,-3.0062,0.34594,0.60948
761.491,33.83137,-3.00751,0.33504,0.60695
764.591,33.9347,-3.00883,0.3261,0.60442
767.691,34.0383,-3.00757,0.31398,0.60189
770.791,34.1417,-3.00752,0.30209,0.59937
773.891,34.24543,-3.00797,0.29361,0.59684
776.991,34.34924,-3.00926,0.286,0.59431
780.091,34.45286,-3.01475,0.28224,0.59179
783.191,34.55676,-3.01877,0.27659,0.58926
786.291,34.66065,-3.0266,0.27144,0.58674
789.391,34.7643,-3.02734,0.25755,0.58422
792.491,34.86813,-3.02413,0.25154,0.5817
795.591,34.97187,-3.02192,0.24456,0.57918
796.391,34.99837,-3.02075,0.24576,0.57853