File: 01_Data/Wood_Stud/STA/N2/30K_min/Wood_Stud_STA_N2_30KData_220128_R2.csv
##Temp./Â°C,Time/min,Mass loss(subtr.2)/mg,DSC(subtr.2)/(mW/mg),Sensit./(uV/mW)
48.382,10.01,-0.04344,0.0314623,1.06965
51.582,10.87759,-0.04619591,0.18933,1.06936
54.782,11.1111,-0.04692225,0.30034,1.06904
57.982,11.29074,-0.04629174,0.38541,1.06869
61.182,11.44623,-0.04720218,0.45785,1.06831
64.382,11.58731,-0.04678752,0.52084,1.06791
67.582,11.71925,-0.04787757,0.57771,1.06748
70.782,11.8457,-0.04873422,0.62674,1.06702
73.982,11.96768,-0.04975832,0.67061,1.06653
77.182,12.08646,-0.05040128,0.71448,1.06601
80.382,12.20308,-0.0528387,0.75355,1.06547
83.582,12.31738,-0.05316069,0.79015,1.0649
86.782,12.42983,-0.05364222,0.8255,1.0643
89.982,12.54168,-0.0549238,0.85683,1.06367
93.182,12.65185,-0.05640514,0.88742,1.06302
96.382,12.76131,-0.05785891,0.91353,1.06234
99.582,12.87008,-0.06044034,0.9312,1.06163
102.782,12.97846,-0.06169442,0.94322,1.0609
105.982,13.08646,-0.06439491,0.95051,1.06014
109.182,13.1942,-0.0657175,0.94677,1.05935
112.382,13.3015,-0.0673511,0.94137,1.05853
115.582,13.4088,-0.06964998,0.9307,1.05769
118.782,13.5156,-0.06964316,0.91828,1.05683
121.982,13.6219,-0.07112341,0.90231,1.05594
125.182,13.72766,-0.07227968,0.89126,1.05502
128.382,13.83296,-0.07227578,0.88155,1.05408
131.582,13.93779,-0.07360012,0.87017,1.05311
134.782,14.0419,-0.0749099,0.86497,1.05211
137.982,14.1456,-0.07362177,0.86218,1.05109
141.182,14.24885,-0.07416371,0.86344,1.05005
144.382,14.35167,-0.07624235,0.86991,1.04898
147.582,14.45396,-0.07491973,0.87438,1.04789
150.782,14.55587,-0.07492206,0.88297,1.04677
153.982,14.6575,-0.07590989,0.8945,1.04563
157.182,14.759,-0.07722054,0.90365,1.04446
160.382,14.85997,-0.07589981,0.91621,1.04327
163.582,14.96085,-0.07624508,0.92592,1.04206
166.782,15.06149,-0.07754991,0.93851,1.04082
169.982,15.16195,-0.07755002,0.94458,1.03956
173.182,15.2621,-0.07787943,0.9576,1.03827
176.382,15.362,-0.07788,0.96875,1.03697
179.582,15.46146,-0.07787886,0.97871,1.03563
182.782,15.56095,-0.07986014,0.98908,1.03428
185.982,15.66,-0.07986,0.99873,1.03291
189.182,15.7587,-0.07986,1.00821,1.03151
192.382,15.8573,-0.07856197,1.02035,1.03009
195.582,15.95556,-0.0813894,1.03074,1.02865
198.782,16.05365,-0.08269989,1.04322,1.02718
201.982,16.1518,-0.0817045,1.05335,1.0257
205.182,16.24948,-0.08037017,1.06481,1.02419
208.382,16.34734,-0.08390358,1.07553,1.02266
211.582,16.44491,-0.08523003,1.08719,1.02111
214.782,16.54244,-0.08588046,1.09934,1.01954
217.982,16.63991,-0.0872,1.11259,1.01795
221.182,16.7372,-0.08790641,1.12198,1.01634
224.382,16.8344,-0.08881463,1.13195,1.01471
227.582,16.93132,-0.09157161,1.14302,1.01306
230.782,17.02832,-0.0928008,1.15049,1.01139
233.982,17.12514,-0.09411179,1.16278,1.0097
237.182,17.22192,-0.09683441,1.17245,1.00799
240.382,17.31856,-0.09948153,1.18718,1.00626
243.582,17.41516,-0.10222,1.19733,1.00451
246.782,17.51174,-0.10599,1.20683,1.00274
249.982,17.6082,-0.11039,1.2189,1.00096
253.182,17.70487,-0.11568,1.23095,0.99915
256.382,17.8013,-0.12071,1.24325,0.99733
259.582,17.89776,-0.12718,1.25414,0.99549
262.782,17.99415,-0.13456,1.26909,0.99363
265.982,18.0905,-0.14319,1.28229,0.99175
269.182,18.18689,-0.15304,1.29309,0.98986
272.382,18.28321,-0.16318,1.30593,0.98795
275.582,18.37959,-0.17621,1.31307,0.98602
278.782,18.47615,-0.19015,1.3205,0.98408
281.982,18.57273,-0.20457,1.33053,0.98212
285.182,18.66939,-0.22224,1.33846,0.98014
288.382,18.76618,-0.23961,1.34366,0.97814
291.582,18.86287,-0.26023,1.34911,0.97613
294.782,18.95966,-0.28117,1.35402,0.97411
297.982,19.0565,-0.30565,1.36077,0.97207
301.182,19.15353,-0.33015,1.36762,0.97001
304.382,19.2504,-0.35749,1.37637,0.96794
307.582,19.34737,-0.38723,1.38429,0.96585
310.782,19.44462,-0.41783,1.40126,0.96375
313.982,19.54177,-0.45342,1.41619,0.96164
317.182,19.63887,-0.48973,1.43764,0.95951
320.382,19.73641,-0.53124,1.46497,0.95736
323.582,19.83377,-0.57398,1.49909,0.9552
326.782,19.93137,-0.62193,1.53451,0.95303
329.982,20.02891,-0.67529,1.57549,0.95084
333.182,20.1266,-0.73063,1.62073,0.94865
336.382,20.22436,-0.79495,1.66572,0.94643
339.582,20.32216,-0.86172,1.7085,0.94421
342.782,20.42014,-0.93419,1.74658,0.94197
345.982,20.51829,-1.00789,1.7821,0.93972
349.182,20.61648,-1.08924,1.81345,0.93746
352.382,20.7147,-1.17025,1.84131,0.93518
355.582,20.81299,-1.25546,1.86753,0.9329
358.782,20.91144,-1.34345,1.89746,0.9306
361.982,21.00994,-1.43397,1.9416,0.92829
365.182,21.10843,-1.52858,2.00083,0.92597
368.382,21.20707,-1.62372,2.07323,0.92364
371.582,21.30594,-1.72651,2.16575,0.92129
374.782,21.40493,-1.83287,2.27181,0.91894
377.982,21.50395,-1.94828,2.37815,0.91657
381.182,21.6032,-2.06494,2.46447,0.9142
384.382,21.7025,-2.19191,2.507,0.91182
387.582,21.80179,-2.31394,2.48208,0.90942
390.782,21.90105,-2.43881,2.37222,0.90702
393.982,22.00031,-2.54976,2.1637,0.9046
397.182,22.09933,-2.65165,1.86752,0.90218
400.382,22.1984,-2.73339,1.51465,0.89975
403.582,22.29701,-2.79908,1.14462,0.89731
406.782,22.39569,-2.8481,0.80096,0.89486
409.982,22.49442,-2.88101,0.5235,0.8924
413.182,22.59326,-2.90342,0.32912,0.88993
416.382,22.69226,-2.91997,0.20779,0.88745
419.582,22.7915,-2.93328,0.14024,0.88497
422.782,22.8911,-2.94558,0.09579268,0.88248
425.982,22.99064,-2.95424,0.06522736,0.87998
429.182,23.09059,-2.96555,0.03720372,0.87748
432.382,23.19042,-2.97607,0.01127345,0.87496
435.582,23.29049,-2.98527,-0.01020675,0.87244
438.782,23.3907,-2.99612,-0.03547042,0.86991
441.982,23.49111,-3.00516,-0.05686792,0.86738
445.182,23.59143,-3.01621,-0.07368396,0.86484
448.382,23.6919,-3.02491,-0.09113699,0.86229
451.582,23.79249,-3.03282,-0.10303,0.85974
454.782,23.89311,-3.04266,-0.10833,0.85718
457.982,23.9939,-3.04966,-0.1103,0.85462
461.182,24.09481,-3.05691,-0.10731,0.85204
464.382,24.1957,-3.06629,-0.09950283,0.84947
467.582,24.29675,-3.07357,-0.08324027,0.84689
470.782,24.39811,-3.08307,-0.06183101,0.8443
473.982,24.4995,-3.08852,-0.03830805,0.84171
477.182,24.60096,-3.09525,-0.01252845,0.83911
480.382,24.70253,-3.10125,0.01291123,0.83651
483.582,24.80416,-3.10869,0.03950729,0.8339
486.782,24.9058,-3.11395,0.06495128,0.83129
489.982,25.0075,-3.1193,0.08523537,0.82868
493.182,25.1095,-3.12507,0.10833,0.82606
496.382,25.2116,-3.12886,0.12049,0.82344
499.582,25.31391,-3.13438,0.13399,0.82081
502.782,25.41617,-3.13808,0.1467,0.81819
505.982,25.51859,-3.14259,0.1545,0.81555
509.182,25.62116,-3.14721,0.1631,0.81292
512.382,25.72373,-3.15182,0.16879,0.81028
515.582,25.82624,-3.1558,0.17453,0.80764
518.782,25.92912,-3.16051,0.17958,0.80499
521.982,26.03189,-3.16336,0.18425,0.80234
525.182,26.13478,-3.16617,0.18587,0.79969
528.382,26.23797,-3.17014,0.18722,0.79704
531.582,26.3413,-3.17432,0.18676,0.79439
534.782,26.44452,-3.17575,0.18909,0.79173
537.982,26.54818,-3.18153,0.19194,0.78907
541.182,26.6517,-3.18299,0.18938,0.78641
544.382,26.75545,-3.18843,0.18975,0.78375
547.582,26.85923,-3.1911,0.1869,0.78109
550.782,26.96293,-3.19255,0.18993,0.77842
553.982,27.06656,-3.19505,0.19134,0.77576
557.182,27.17045,-3.19846,0.19399,0.77309
560.382,27.2743,-3.2023,0.19918,0.77042
563.582,27.37813,-3.20394,0.20172,0.76775
566.782,27.48194,-3.208,0.20945,0.76508
569.982,27.58584,-3.20926,0.2176,0.76241
573.182,27.6898,-3.21204,0.22147,0.75974
576.382,27.7941,-3.21436,0.22289,0.75707
579.582,27.89824,-3.2162,0.22319,0.7544
582.782,28.00258,-3.21876,0.22232,0.75173
585.982,28.1069,-3.22232,0.22236,0.74906
589.182,28.21135,-3.22399,0.22569,0.74639
592.382,28.3159,-3.22779,0.22286,0.74371
595.582,28.42046,-3.23048,0.22351,0.74104
598.782,28.52532,-3.23098,0.22372,0.73837
601.982,28.63,-3.2318,0.21883,0.7357
605.182,28.7348,-3.23479,0.21921,0.73303
608.382,28.83922,-3.23816,0.21546,0.73037
611.582,28.94442,-3.24084,0.21032,0.7277
614.782,29.04937,-3.24211,0.20387,0.72503
617.982,29.15447,-3.24484,0.19763,0.72237
621.182,29.25968,-3.24616,0.19367,0.7197
624.382,29.3648,-3.24881,0.18473,0.71704
627.582,29.46991,-3.25011,0.18232,0.71438
630.782,29.57522,-3.25377,0.17208,0.71172
633.982,29.68072,-3.25504,0.16815,0.70906
637.182,29.78616,-3.25646,0.16206,0.70641
640.382,29.89173,-3.25774,0.15794,0.70375
643.582,29.9974,-3.25899,0.15528,0.7011
646.782,30.1029,-3.26163,0.15034,0.69845
649.982,30.20842,-3.26297,0.14696,0.6958
653.182,30.314,-3.26461,0.14531,0.69315
656.382,30.41925,-3.2669,0.14219,0.69051
659.582,30.52522,-3.27107,0.13606,0.68787
662.782,30.631,-3.26975,0.13547,0.68523
665.982,30.73667,-3.27009,0.13198,0.68259
669.182,30.8423,-3.27204,0.12992,0.67996
672.382,30.9482,-3.27369,0.12437,0.67732
675.582,31.05395,-3.27575,0.12507,0.67469
678.782,31.15975,-3.27863,0.12009,0.67207
681.982,31.2655,-3.27899,0.12053,0.66944
685.182,31.3715,-3.28027,0.11452,0.66682
688.382,31.4776,-3.28161,0.11063,0.66421
691.582,31.58366,-3.28291,0.10839,0.66159
694.782,31.6898,-3.28421,0.10511,0.65898
697.982,31.7958,-3.28554,0.09771976,0.65637
701.182,31.90186,-3.28686,0.09351734,0.65377
704.382,32.00803,-3.28784,0.09125455,0.65117
707.582,32.11432,-3.28916,0.0822082,0.64857
710.782,32.22059,-3.29047,0.07102366,0.64597
713.982,32.3271,-3.29179,0.06960774,0.64338
717.182,32.43365,-3.29109,0.0645443,0.64079
720.382,32.54007,-3.29376,0.05693164,0.63821
723.582,32.64689,-3.29449,0.05042306,0.63563
726.782,32.75365,-3.29443,0.0465724,0.63305
729.982,32.86052,-3.29575,0.03615575,0.63048
733.182,32.96738,-3.29701,0.03000731,0.62791
736.382,33.07412,-3.29837,0.0228145,0.62535
739.582,33.1811,-3.29969,0.01993552,0.62279
742.782,33.28805,-3.29887,0.01431073,0.62023
745.982,33.39483,-3.301,0.01232583,0.61768
749.182,33.50197,-3.30182,0.004124949,0.61513
752.382,33.6086,-3.30094,0.001653126,0.61259
755.582,33.7159,-3.30362,-0.003083005,0.61005
758.782,33.823,-3.30496,-0.00573555,0.60751
761.982,33.92991,-3.30364,-0.009796619,0.60498
765.182,34.0375,-3.30625,-0.007474499,0.60245
768.382,34.14481,-3.30778,-0.01587434,0.59993
771.582,34.2522,-3.30441,-0.02244451,0.59741
774.782,34.35954,-3.30572,-0.02306729,0.5949
777.982,34.4668,-3.30677,-0.02794726,0.59239
781.182,34.57432,-3.30769,-0.03067877,0.58988
784.382,34.68172,-3.309,-0.03397571,0.58738
787.582,34.78921,-3.30866,-0.03789653,0.58489
790.782,34.89686,-3.30967,-0.03925868,0.5824
793.782,34.99787,-3.31037,-0.04902395,0.58007