File: 01_Data/Wood_Stud/STA/N2/30K_min/Wood_Stud_STA_N2_30KData_220127_R1.csv
##Temp./Â°C,Time/min,Mass loss(subtr.2)/mg,DSC(subtr.2)/(mW/mg),Sensit./(uV/mW)
48.457,10.00917,-0.02556,0.01065389,1.06964
51.757,10.88425,-0.02693459,0.15707,1.06934
55.057,11.12077,-0.02586345,0.25592,1.06901
58.357,11.30291,-0.02587223,0.32517,1.06865
61.657,11.46027,-0.02612366,0.38638,1.06826
64.957,11.6038,-0.0268128,0.4363,1.06783
68.257,11.73794,-0.02692676,0.47989,1.06738
71.557,11.86625,-0.02800946,0.51914,1.0669
74.857,11.99114,-0.0289091,0.5505,1.06639
78.157,12.1129,-0.0303624,0.58106,1.06585
81.457,12.2318,-0.03027879,0.60647,1.06528
84.757,12.3492,-0.03158968,0.62842,1.06468
88.057,12.4648,-0.03236988,0.65305,1.06405
91.357,12.57899,-0.03300511,0.67109,1.0634
94.657,12.69225,-0.03376938,0.68949,1.06271
97.957,12.80475,-0.03507729,0.70324,1.06199
101.257,12.91672,-0.03640132,0.7155,1.06125
104.557,13.0281,-0.03774938,0.72378,1.06048
107.857,13.1393,-0.03904959,0.72727,1.05968
111.157,13.25039,-0.0390389,0.7253,1.05885
114.457,13.36115,-0.03905275,0.72432,1.05799
117.757,13.4716,-0.0404572,0.7191,1.05711
121.057,13.58146,-0.04023156,0.71575,1.0562
124.357,13.6908,-0.04168,0.71037,1.05526
127.657,13.7997,-0.04167811,0.70745,1.05429
130.957,13.9081,-0.04167988,0.70998,1.0533
134.257,14.0159,-0.04035966,0.71049,1.05228
137.557,14.1229,-0.04300226,0.71589,1.05123
140.857,14.22964,-0.04167999,0.72167,1.05016
144.157,14.3359,-0.04227814,0.72713,1.04906
147.457,14.44156,-0.04168047,0.73513,1.04793
150.757,14.54691,-0.04185129,0.74208,1.04678
154.057,14.652,-0.04167985,0.75137,1.0456
157.357,14.75642,-0.04299945,0.76059,1.0444
160.657,14.86111,-0.04300018,0.77047,1.04317
163.957,14.96491,-0.04168111,0.78325,1.04191
167.257,15.06884,-0.04299936,0.79018,1.04063
170.557,15.17235,-0.04331231,0.80089,1.03933
173.857,15.2758,-0.04332052,0.81169,1.038
177.157,15.3787,-0.04333,0.82199,1.03665
180.457,15.4814,-0.04333,0.83172,1.03527
183.757,15.58363,-0.04469234,0.84362,1.03387
187.057,15.68503,-0.04592472,0.85565,1.03244
190.357,15.78703,-0.04710149,0.86467,1.03099
193.657,15.8884,-0.04596005,0.87698,1.02952
196.957,15.9895,-0.04727997,0.88746,1.02802
200.257,16.09086,-0.04858863,0.89561,1.0265
203.557,16.1917,-0.04859,0.90794,1.02496
206.857,16.29253,-0.04858972,0.91875,1.02339
210.157,16.39323,-0.05122347,0.93081,1.02181
213.457,16.49393,-0.05122012,0.93726,1.0202
216.757,16.5945,-0.05261651,0.94604,1.01856
220.057,16.69453,-0.05379959,0.95433,1.01691
223.357,16.79523,-0.0557537,0.96513,1.01523
226.657,16.89528,-0.05648187,0.97214,1.01354
229.957,16.99537,-0.06047644,0.98039,1.01182
233.257,17.0956,-0.06174303,0.98597,1.01008
236.557,17.19558,-0.06446035,0.99267,1.00832
239.857,17.29552,-0.06585308,1.00358,1.00654
243.157,17.39542,-0.069969,1.01478,1.00474
246.457,17.49527,-0.07329851,1.02665,1.00292
249.757,17.595,-0.07690631,1.03406,1.00108
253.057,17.69494,-0.08210044,1.04588,0.99922
256.357,17.7946,-0.08673354,1.05925,0.99734
259.657,17.89431,-0.09463815,1.07517,0.99544
262.957,17.99411,-0.10397,1.08582,0.99353
266.257,18.09389,-0.11185,1.09846,0.99159
269.557,18.19356,-0.12168,1.11177,0.98964
272.857,18.29309,-0.13566,1.12421,0.98766
276.157,18.39293,-0.1475,1.13834,0.98567
279.457,18.4927,-0.16236,1.14846,0.98366
282.757,18.59252,-0.1788,1.16152,0.98164
286.057,18.6923,-0.19554,1.17186,0.97959
289.357,18.79223,-0.21516,1.17975,0.97753
292.657,18.89211,-0.23813,1.18861,0.97546
295.957,18.99194,-0.25958,1.19899,0.97336
299.257,19.0919,-0.28489,1.20913,0.97125
302.557,19.19194,-0.31322,1.22126,0.96912
305.857,19.29192,-0.34177,1.23388,0.96698
309.157,19.39209,-0.37326,1.25033,0.96482
312.457,19.49217,-0.40822,1.27112,0.96265
315.757,19.59225,-0.44527,1.29786,0.96046
319.057,19.69259,-0.48575,1.32976,0.95825
322.357,19.7929,-0.53051,1.36589,0.95603
325.657,19.89349,-0.57888,1.40871,0.9538
328.957,19.99365,-0.63162,1.45346,0.95155
332.257,20.09433,-0.68994,1.50589,0.94928
335.557,20.19516,-0.75256,1.55767,0.947
338.857,20.29603,-0.82064,1.60826,0.94471
342.157,20.39694,-0.89343,1.65307,0.94241
345.457,20.49803,-0.97233,1.69451,0.94009
348.757,20.59917,-1.05233,1.72952,0.93776
352.057,20.70039,-1.1367,1.75607,0.93541
355.357,20.80174,-1.22085,1.78325,0.93306
358.657,20.90332,-1.31184,1.81128,0.93069
361.957,21.0049,-1.40308,1.85112,0.92831
365.257,21.10674,-1.49851,1.90696,0.92591
368.557,21.20845,-1.59609,1.98715,0.92351
371.857,21.31065,-1.69883,2.08595,0.92109
375.157,21.41263,-1.8085,2.19943,0.91866
378.457,21.5151,-1.92184,2.31813,0.91622
381.757,21.61746,-2.04807,2.41886,0.91377
385.057,21.7198,-2.16984,2.47226,0.91131
388.357,21.8224,-2.29871,2.45614,0.90884
391.657,21.92492,-2.42201,2.34356,0.90636
394.957,22.02734,-2.53941,2.12539,0.90386
398.257,22.1297,-2.6413,1.80425,0.90136
401.557,22.23177,-2.7274,1.41486,0.89885
404.857,22.33367,-2.79277,1.00648,0.89633
408.157,22.43555,-2.84068,0.63407,0.8938
411.457,22.53766,-2.87036,0.34429,0.89126
414.757,22.63929,-2.8919,0.14998,0.88871
418.057,22.74152,-2.90736,0.03786975,0.88616
421.357,22.84384,-2.91893,-0.02433153,0.88359
424.657,22.9464,-2.93068,-0.06071643,0.88102
427.957,23.04926,-2.94069,-0.08755331,0.87844
431.257,23.1522,-2.95102,-0.1125,0.87585
434.557,23.25538,-2.96159,-0.13491,0.87325
437.857,23.3586,-2.96992,-0.15795,0.87065
441.157,23.46184,-2.9793,-0.18154,0.86803
444.457,23.56554,-2.98756,-0.20064,0.86542
447.757,23.6691,-2.99684,-0.21759,0.86279
451.057,23.77307,-3.00699,-0.23113,0.86016
454.357,23.87696,-3.01436,-0.24048,0.85752
457.657,23.9811,-3.02345,-0.24207,0.85488
460.957,24.08514,-3.03173,-0.23562,0.85223
464.257,24.18955,-3.03896,-0.22596,0.84957
467.557,24.29393,-3.04579,-0.20868,0.84691
470.857,24.39842,-3.05448,-0.19152,0.84424
474.157,24.5032,-3.0611,-0.16832,0.84157
477.457,24.60814,-3.06717,-0.14516,0.83889
480.757,24.71294,-3.07369,-0.11772,0.83621
484.057,24.81795,-3.08163,-0.09299312,0.83352
487.357,24.92311,-3.08627,-0.07127889,0.83083
490.657,25.02824,-3.09045,-0.05113699,0.82813
493.957,25.13361,-3.09775,-0.0366294,0.82543
497.257,25.239,-3.10235,-0.02252854,0.82272
500.557,25.34458,-3.10673,-0.01100521,0.82001
503.857,25.45027,-3.11164,-0.003090537,0.8173
507.157,25.55586,-3.1141,0.007028284,0.81459
510.457,25.66161,-3.11912,0.01182261,0.81187
513.757,25.7677,-3.12241,0.01479994,0.80914
517.057,25.87358,-3.12621,0.02038817,0.80642
520.357,25.97961,-3.13043,0.02297869,0.80369
523.657,26.0858,-3.1345,0.02321077,0.80096
526.957,26.19217,-3.13916,0.02420523,0.79822
530.257,26.2986,-3.14268,0.02250379,0.79549
533.557,26.4051,-3.14417,0.02324034,0.79275
536.857,26.51156,-3.14712,0.02339916,0.79001
540.157,26.6182,-3.15108,0.01934037,0.78726
543.457,26.72482,-3.1548,0.02261769,0.78452
546.757,26.8315,-3.15601,0.0219635,0.78177
550.057,26.9382,-3.15976,0.02453353,0.77903
553.357,27.045,-3.16216,0.0245496,0.77628
556.657,27.1522,-3.16642,0.02736053,0.77353
559.957,27.25941,-3.16773,0.03360468,0.77078
563.257,27.3665,-3.17164,0.03660782,0.76802
566.557,27.474,-3.17438,0.03688872,0.76527
569.857,27.5815,-3.17573,0.03721852,0.76252
573.157,27.6891,-3.18068,0.03001109,0.75976
576.457,27.79686,-3.18237,0.03307502,0.75701
579.757,27.90458,-3.18635,0.03147867,0.75425
583.057,28.0124,-3.1877,0.02781386,0.7515
586.357,28.1203,-3.19033,0.02226872,0.74874
589.657,28.22839,-3.19158,0.01306328,0.74599
592.957,28.3362,-3.19601,0.01322716,0.74323
596.257,28.4441,-3.19811,0.01024117,0.74048
599.557,28.5523,-3.20001,0.007728513,0.73773
602.857,28.6606,-3.20306,0.004774693,0.73497
606.157,28.7687,-3.20612,0.002220616,0.73222
609.457,28.8768,-3.20684,0.002191242,0.72947
612.757,28.98498,-3.20876,-0.000568927,0.72672
616.057,29.093,-3.21008,-0.005135572,0.72397
619.357,29.2013,-3.2114,-0.007884891,0.72122
622.657,29.3097,-3.21415,-0.01051865,0.71848
625.957,29.4181,-3.21677,-0.01279907,0.71573
629.257,29.5265,-3.21808,-0.01827618,0.71299
632.557,29.6349,-3.22083,-0.022632,0.71025
635.857,29.7435,-3.22076,-0.03225318,0.70751
639.157,29.85205,-3.22342,-0.04119179,0.70477
642.457,29.9608,-3.2255,-0.04325676,0.70203
645.757,30.06962,-3.22676,-0.05010194,0.6993
649.057,30.1784,-3.22806,-0.05153995,0.69656
652.357,30.28705,-3.23066,-0.05270622,0.69383
655.657,30.39578,-3.23138,-0.05380012,0.69111
658.957,30.50474,-3.23275,-0.06208192,0.68838
662.257,30.61355,-3.23531,-0.06530044,0.68566
665.557,30.72247,-3.23724,-0.06421243,0.68294
668.857,30.83158,-3.23945,-0.06987303,0.68022
672.157,30.94042,-3.23991,-0.07212906,0.67751
675.457,31.0496,-3.24122,-0.07119532,0.6748
678.757,31.1589,-3.24219,-0.07108835,0.67209
682.057,31.2682,-3.24385,-0.07248009,0.66938
685.357,31.37753,-3.24517,-0.07921704,0.66668
688.657,31.4869,-3.24584,-0.08100641,0.66398
691.957,31.59638,-3.24714,-0.09148775,0.66129
695.257,31.7058,-3.24781,-0.09542269,0.65859
698.557,31.81522,-3.24781,-0.09547181,0.6559
701.857,31.92496,-3.24907,-0.09511534,0.65322
705.157,32.03453,-3.24908,-0.09477294,0.65054
708.457,32.1441,-3.25044,-0.09986973,0.64786
711.757,32.25387,-3.25175,-0.10506,0.64518
715.057,32.36353,-3.25307,-0.10992,0.64251
718.357,32.47323,-3.25522,-0.1049,0.63985
721.657,32.5831,-3.25519,-0.11216,0.63718
724.957,32.693,-3.25505,-0.11796,0.63452
728.257,32.803,-3.25495,-0.11799,0.63187
731.557,32.91284,-3.25636,-0.12574,0.62922
734.857,33.0231,-3.25778,-0.13357,0.62657
738.157,33.1331,-3.25768,-0.12818,0.62393
741.457,33.2433,-3.25821,-0.13367,0.62129
744.757,33.35351,-3.25955,-0.13457,0.61866
748.057,33.46396,-3.25963,-0.13516,0.61603
751.357,33.5744,-3.25955,-0.13789,0.6134
754.657,33.685,-3.26307,-0.14807,0.61078
757.957,33.79565,-3.26351,-0.14893,0.60816
761.257,33.90619,-3.2648,-0.15133,0.60555
764.557,34.0169,-3.26341,-0.15346,0.60294
767.857,34.12791,-3.26612,-0.15408,0.60034
771.157,34.2386,-3.2648,-0.1608,0.59774
774.457,34.34957,-3.26613,-0.16286,0.59515
777.757,34.4605,-3.26544,-0.16611,0.59256
781.057,34.57163,-3.26618,-0.168,0.58998
784.357,34.68269,-3.26777,-0.17217,0.5874
787.657,34.79373,-3.26777,-0.16655,0.58483
790.957,34.90504,-3.26964,-0.17144,0.58226
793.657,34.99604,-3.2704,-0.17186,0.58016