File: 01_Data/LDPE/Cone/LDPE_Cone_HF50Scalar_220202_R2.csv
LABORATORY,FSRI
TEST IDENT,LDPE_HF50_2
OPERATOR,Dow
MATERIAL,LDPE
ORIENTATION,Horizontal
HEAT FLUX,50
SURF AREA,0.01
C FACTOR,0.0415673
SPEC HOLDER DIFF,300.73
SPECIMEN MASS,30
SCAN TIME,0.25
O2 DELAY TIME,11
CO DELAY TIME,11
CO2 DELAY TIME,8
FLOW FACTOR,1
SCAN COUNT,1185
TIME TO IGN,39.75
END OF TEST SCAN,705
END OF TEST TIME,176.25
TEST STATUS,1
PRE TEST CMT,Dimensions: 99.96 x 100.08 x 3.04 mm
POST TEST CMT,sample dripped from foil pan