File: 01_Data/LDPE/Cone/LDPE_Cone_HF25Scan_220202_R3.csv
Names,Time,Stack TC,Smoke TC,Exh Press,Smoke Comp,Smoke Meas,CO Meter,CO2 Meter,O2 Meter,Sample Mass,Ext Coeff,Start Test,Flame Verif
Chan Gain,,500,500,1,1,1,1,1,1,1,1,1.0,1.0
Offset,,0,0,0.14021,0,0,0,0,0,0,0,0.0,0.0
Gain,,1,1,25.011,13.3046,13.3037,1,1,1,1.00087,1.10262,1.0,1.0
Units,sec,C,C,Pa,%,%,%,%,%,g,/m,,
Baseline,,24.225,23.8983,142.676,100.463,102.799,0.00463444,0.102111,20.9112,0.00108428,-0.222165,,
18,4.25,21.9848,21.2096,138.933,100.871,102.183,0.00449352,0.106447,20.9049,898.444,-0.125028,0.0,0.0
36,8.75,22.2911,22.1927,145.474,100.708,101.843,0.00465401,0.107975,20.9027,898.444,-0.108396,0.0,0.0
54,13.25,22.3984,22.3091,142.116,100.4,101.707,0.00494599,0.108116,20.9042,898.404,-0.125113,0.0,0.0
72,17.75,22.0685,22.3909,140.165,100.297,102.001,0.0049461,0.106822,20.9071,921.023,-0.163004,0.0,0.0
90,22.25,22.1227,22.2877,141.357,100.898,102.698,0.00461661,0.105256,20.9111,944.134,-0.170988,0.0,0.0
108,26.75,21.8492,22.2125,139.156,101.139,103.018,0.00448071,0.103994,20.9133,951.44,-0.17798,0.0,0.0
126,31.25,22.1504,21.8825,143.59,101.05,102.587,0.00442563,0.103094,20.9108,956.865,-0.146036,0.0,0.0
144,35.75,21.6488,22.0863,144.418,100.705,102.189,0.00423519,0.102507,20.9117,958.056,-0.141541,0.0,0.0
162,40.25,21.9472,22.0138,141.306,100.781,102.178,0.00442411,0.102244,20.9104,955.784,-0.133176,0.0,0.0
180,44.75,22.3373,22.1738,140.962,101.004,102.544,0.00434916,0.10223,20.9118,950.529,-0.14637,0.0,0.0
198,49.25,21.9084,22.308,139.727,101.193,101.805,0.0042535,0.102223,20.911,943.833,-0.0582832,0.0,0.0
216,53.75,21.9955,21.8577,142.918,101.373,102.404,0.00437459,0.102274,20.9113,926.879,-0.0978717,0.0,0.0
234,58.25,22.0793,22.1156,141.887,101.456,102.983,0.00442902,0.102429,20.9114,900.856,-0.1445,0.0,0.0
252,62.75,21.963,22.1734,142.66,101.508,103.304,0.00461577,0.102842,20.9114,887.925,-0.169701,0.0,0.0
270,67.25,21.7265,22.0566,139.903,101.489,102.862,0.00466061,0.103145,20.9112,890.787,-0.129919,0.0,0.0
288,71.75,21.8948,22.3762,144.26,101.436,102.847,0.00442771,0.103517,20.9112,891.948,-0.133615,0.0,0.0
306,76.25,22.0782,22.7033,143.178,101.37,103.557,0.00413397,0.103872,20.9085,891.538,-0.206439,0.0,0.0
324,80.75,21.9727,22.2482,140.84,101.29,102.814,0.00423771,0.10426,20.9064,891.828,-0.14447,0.0,0.0
342,85.25,22.2334,22.129,142.528,101.218,102.934,0.00453698,0.104869,20.9042,893.169,-0.162672,0.0,0.0
360,89.75,22.0516,22.3619,142.141,101.156,102.388,0.0047939,0.105645,20.903,894.811,-0.117048,0.0,0.0
378,94.25,21.5059,22.2719,147.161,101.125,102.879,0.00460145,0.106956,20.9003,896.362,-0.166294,0.0,0.0
396,98.75,22.1208,22.481,138.265,101.123,102.312,0.00477516,0.108447,20.8949,897.773,-0.113055,0.0,0.0
414,103.25,21.4534,22.764,142.725,101.136,102.436,0.00497173,0.111335,20.888,898.154,-0.123512,0.0,1.0
432,107.75,21.868,22.2613,139.904,101.15,102.11,0.00488304,0.116135,20.875,898.194,-0.0913223,0.0,1.0
450,112.25,22.4639,23.7716,141.622,101.193,102.38,0.00501631,0.12317,20.8594,898.174,-0.112825,0.0,0.0
468,116.75,23.0798,24.0198,138.997,101.238,102.734,0.005178,0.132291,20.8453,898.174,-0.141829,0.0,0.0
486,121.25,23.0006,24.4375,135.405,101.288,101.941,0.00544563,0.14117,20.8302,898.094,-0.0620806,0.0,0.0
504,125.75,24.1221,25.8213,138.73,101.359,102.191,0.00531967,0.151581,20.811,898.003,-0.0791138,0.0,0.0
522,130.25,24.6824,26.3355,137.087,101.423,102.632,0.00514109,0.162935,20.7923,898.003,-0.114634,0.0,0.0
540,134.75,25.3697,27.7795,136.051,101.475,101.494,0.00516268,0.176577,20.7641,897.873,-0.00179597,0.0,0.0
558,139.25,26.1869,28.7756,137.704,101.509,100.513,0.00520019,0.192318,20.7355,897.803,0.0953843,0.0,0.0
576,143.75,26.723,29.9371,134.806,101.532,101.384,0.0052263,0.210566,20.7023,897.693,0.0141106,0.0,0.0
594,148.25,29.138,32.8779,128.195,101.504,97.9106,0.00530353,0.231131,20.6644,897.563,0.348645,0.0,0.0
612,152.75,30.7841,34.7005,132.34,101.446,98.7965,0.00579412,0.250378,20.6292,897.413,0.255991,0.0,0.0
630,157.25,31.8587,36.4838,130.54,101.361,97.8915,0.00622374,0.272008,20.5951,897.283,0.336902,0.0,0.0
648,161.75,33.29,38.3199,132.282,101.226,95.9671,0.00653781,0.291338,20.5545,897.053,0.516025,0.0,0.0
666,166.25,35.4866,40.9556,126.811,101.101,94.8275,0.00711838,0.314852,20.514,896.923,0.619615,0.0,0.0
684,170.75,36.9768,43.4486,122.611,100.954,93.5498,0.00789329,0.34602,20.4455,896.702,0.736747,0.0,0.0
702,175.25,39.8431,46.5587,122.945,100.845,89.5353,0.0091015,0.389699,20.3377,896.422,1.1505,0.0,0.0
720,179.75,42.3594,51.3505,121.986,100.733,85.5761,0.0099115,0.445724,20.2229,896.102,1.5772,0.0,0.0
738,184.25,46.4367,56.749,114.828,100.768,85.6885,0.0109179,0.511991,20.085,895.742,1.56784,0.0,0.0
756,188.75,50.5526,62.0455,115.207,100.992,84.2903,0.0117385,0.577824,19.9847,895.331,1.74842,0.0,0.0
774,193.25,54.6131,68.0761,111.445,101.119,83.8222,0.0123302,0.649146,19.8546,894.831,1.81449,0.0,0.0
792,197.75,59.2338,74.1682,110.281,101.192,84.2326,0.012825,0.731062,19.694,894.36,1.77419,0.0,0.0
810,202.25,63.1498,80.5397,105.072,101.18,82.2648,0.0136884,0.813664,19.5517,893.72,2.00175,0.0,0.0
828,206.75,68.7187,87.9596,103.076,101.095,79.9319,0.0148864,0.906468,19.3908,893.199,2.27184,0.0,0.0
846,211.25,74.2894,96.0342,99.8666,100.929,80.5917,0.0160682,0.998198,19.2549,892.559,2.17643,0.0,0.0
864,215.75,79.3717,103.871,103.746,100.693,80.5653,0.0173162,1.0852,19.1065,891.868,2.15697,0.0,0.0
882,220.25,85.0538,111.343,93.6581,100.396,78.9945,0.0180903,1.17173,18.9878,891.178,2.31886,0.0,0.0
900,224.75,90.2188,119.061,98.2469,100.343,78.9312,0.0197002,1.25935,18.828,890.437,2.32149,0.0,0.0
918,229.25,96.7972,128.25,90.9317,100.402,77.0278,0.0217704,1.35655,18.6619,889.646,2.56325,0.0,0.0
936,233.75,102.199,137.306,91.2676,100.471,75.293,0.0245777,1.47739,18.442,888.835,2.79022,0.0,0.0
954,238.25,109.341,147.827,95.1389,100.565,73.8725,0.0278231,1.62601,18.16,887.865,2.98348,0.0,0.0
972,242.75,118.062,160.958,70.8522,100.669,74.5992,0.0319655,1.81614,17.8183,886.854,2.89882,0.0,0.0
990,247.25,125.757,173.564,84.8072,100.772,74.0462,0.0362356,2.03099,17.4499,885.723,2.98069,0.0,0.0
1008,251.75,135.406,189.073,71.314,100.855,71.486,0.0395385,2.24182,17.1173,884.662,3.32893,0.0,0.0
1026,256.25,143.525,202.767,79.5917,100.916,68.9502,0.0435736,2.47278,16.7596,883.421,3.68411,0.0,0.0
1044,260.75,153.111,217.966,80.642,100.944,73.7957,0.0482551,2.75822,16.2902,882.1,3.0299,0.0,0.0
1062,265.25,163.085,234.274,83.0143,100.946,70.9233,0.0536424,3.09929,15.7007,880.628,3.41409,0.0,0.0
1080,269.75,173.291,250.724,73.6573,100.917,71.6472,0.0569329,3.42059,15.2574,879.097,3.31315,0.0,0.0
1098,274.25,184.02,268.892,76.576,100.872,69.2827,0.0601541,3.76011,14.7214,877.766,3.63337,0.0,0.0
1116,278.75,193.979,285.287,66.2199,100.794,73.8396,0.0630039,4.07976,14.2538,876.164,3.00982,0.0,0.0
1134,283.25,201.831,297.243,63.2103,100.698,70.916,0.063537,4.30679,14.0785,874.433,3.39129,0.0,0.0
1152,287.75,205.76,301.583,72.42,100.577,68.7658,0.0602209,4.23061,14.5682,873.122,3.67745,0.0,0.0
1170,292.25,205.304,295.735,77.2538,100.438,69.7256,0.0538,3.83005,15.4774,871.941,3.53003,0.0,0.0
1188,296.75,201.402,285.707,87.8717,100.307,69.5644,0.0450161,3.34211,16.3127,870.87,3.53977,0.0,0.0
1206,301.25,194.382,270.377,89.8112,100.186,73.8802,0.0355768,2.80382,17.2569,870.049,2.94597,0.0,0.0
1224,305.75,183.95,249.501,101.653,100.057,77.1176,0.0278085,2.29766,18.0052,869.459,2.51869,0.0,0.0
1242,310.25,169.82,225.53,112.675,99.957,79.0586,0.0218463,1.73302,19.0305,869.138,2.26859,0.0,0.0
1260,314.75,153.884,198.758,121.999,99.8664,91.7086,0.0157221,1.22249,19.8815,868.998,0.824227,0.0,0.0
1278,319.25,138.032,173.683,125.37,99.7876,96.6289,0.0103709,0.835078,20.4193,868.988,0.311119,0.0,0.0
1296,323.75,124.527,152.716,125.576,99.7263,96.7426,0.00774099,0.56815,20.6942,868.998,0.293802,0.0,0.0
1314,328.25,113.505,135.521,127.093,99.7158,96.4068,0.00644428,0.407437,20.7978,868.998,0.326407,0.0,0.0
1332,332.75,104.357,121.4,129.35,99.6699,96.8152,0.00561191,0.311308,20.845,869.028,0.281065,0.0,0.0
1350,337.25,97.3266,109.937,129.883,99.6943,96.2217,0.00519186,0.252126,20.869,869.038,0.34291,0.0,0.0
1368,341.75,91.1003,100.539,128.36,99.7527,95.9095,0.00505075,0.213286,20.8826,869.028,0.380015,0.0,0.0
1386,346.25,85.4294,92.3796,129.865,99.8632,96.7003,0.00489442,0.187213,20.8887,869.028,0.311287,0.0,0.0
1404,350.75,81.9574,86.041,133.161,100.054,96.8213,0.0047222,0.168274,20.8928,869.048,0.317618,0.0,0.0
1422,355.25,78.8642,80.7407,131.239,100.264,96.3926,0.00457906,0.154894,20.8945,869.038,0.380813,0.0,0.0
1440,359.75,75.7351,76.0709,131.855,100.543,96.8396,0.004662,0.144815,20.8972,869.048,0.362974,0.0,0.0
1458,364.25,72.1693,72.3071,130.319,100.823,97.1766,0.00451982,0.137225,20.8987,869.038,0.356251,0.0,0.0
1476,368.75,70.1586,68.2417,129.882,101.084,97.4888,0.00454408,0.13132,20.9008,869.028,0.350239,0.0,0.0
1494,373.25,67.2053,64.5527,133.258,101.308,98.0357,0.00465232,0.126513,20.9026,869.028,0.317595,0.0,0.0
1512,377.75,65.5185,61.9606,139.017,101.47,98.5586,0.00468295,0.122696,20.9022,869.018,0.281595,0.0,0.0
1530,382.25,64.9313,60.6434,131.336,101.555,98.5517,0.0044825,0.119786,20.9036,869.048,0.290358,0.0,0.0
1548,386.75,62.9413,58.5197,131.511,101.542,99.2979,0.00460553,0.117208,20.9057,869.028,0.2162,0.0,0.0
1566,391.25,61.6265,57.0718,135.5,101.445,98.0893,0.00469312,0.115088,20.9044,869.048,0.325324,0.0,0.0
1584,395.75,60.2072,54.9713,136.741,101.245,98.4542,0.00446233,0.11322,20.9052,869.028,0.270375,0.0,0.0
1602,400.25,58.8385,53.2809,134.074,101.051,97.814,0.00454639,0.112088,20.9055,869.038,0.31492,0.0,0.0
1620,404.75,57.8858,52.2063,134.029,100.858,98.7758,0.00441543,0.111027,20.9057,869.038,0.201762,0.0,0.0
1638,409.25,56.6022,51.2315,131.421,100.749,98.1798,0.00424314,0.110038,20.9056,869.028,0.249859,0.0,0.0
1656,413.75,55.4709,49.932,134.003,101.056,98.4835,0.0039861,0.109309,20.905,869.028,0.249373,0.0,0.0
1674,418.25,54.6619,49.0379,134.832,101.22,98.516,0.00415605,0.10872,20.9049,869.038,0.261909,0.0,0.0
1692,422.75,53.5245,48.01,136.889,101.234,99.5253,0.00432707,0.10815,20.9053,869.038,0.164641,0.0,0.0
1710,427.25,52.4104,46.9201,138.172,101.06,99.9865,0.00429465,0.107475,20.9067,869.028,0.103267,0.0,0.0
1728,431.75,51.7243,46.3327,134.49,100.809,99.2049,,0.106979,,869.038,0.15516,0.0,0.0
1746,436.25,51.0776,45.4883,139.192,100.373,99.2005,,,,869.018,0.113626,0.0,0.0
1762,440.25,50.2817,44.872,135.244,100.401,99.1477,,,,869.038,0.121512,0.0,0.0