File: 01_Data/LDPE/Cone/LDPE_Cone_HF25Scalar_220202_R2.csv
LABORATORY,FSRI
TEST IDENT,LDPE_HF25_2
OPERATOR,Dow
MATERIAL,LDPE
ORIENTATION,Horizontal
HEAT FLUX,25
SURF AREA,0.01
C FACTOR,0.0415673
SPEC HOLDER DIFF,331.03
SPECIMEN MASS,30.1
SCAN TIME,0.25
O2 DELAY TIME,11
CO DELAY TIME,11
CO2 DELAY TIME,8
FLOW FACTOR,1
SCAN COUNT,1775
TIME TO IGN,112.5
END OF TEST SCAN,1295
END OF TEST TIME,323.75
TEST STATUS,1
PRE TEST CMT,Dimensions: 100.17 x 100.32 x 3.06 mm
POST TEST CMT,"sample warped prior to ignition and touched the spark ignitor, causing spikes in mass measurement; sample dripped from foil tray (see test pictures) - about 2 grams of the sample remained unburned"