File: 01_Data/LDPE/Cone/LDPE_Cone_HF50Scan_220202_R1.csv
Names,Time,Stack TC,Smoke TC,Exh Press,Smoke Comp,Smoke Meas,CO Meter,CO2 Meter,O2 Meter,Sample Mass,Ext Coeff,Start Test,Flame Verif
Chan Gain,,500,500,1,1,1,1,1,1,1,1,1.0,1.0
Offset,,0,0,0.14021,0,0,0,0,0,0,0,0.0,0.0
Gain,,1,1,25.011,13.3046,13.3037,1,1,1,1.00087,1.10262,1.0,1.0
Units,sec,C,C,Pa,%,%,%,%,%,g,/m,,
Baseline,,29.4136,31.6827,138.593,100.433,101.316,0.00481575,0.102945,20.9074,-0.395929,-0.0845501,,
13,3,26.2048,26.7325,138.167,100.407,101.705,0.00440648,0.110061,20.9,897.503,-0.124216,0.0,0.0
26,6.25,26.6147,28.1047,140.381,100.322,102.306,0.0044754,0.109193,20.9021,935.556,-0.189329,0.0,0.0
39,9.5,27.1608,28.0493,140.218,100.329,101.368,0.00457768,0.108279,20.9031,958.636,-0.0996679,0.0,0.0
52,12.75,27.3727,28.723,140.606,100.346,101.945,0.00447164,0.107286,20.9034,962.64,-0.152876,0.0,0.0
65,16,27.2325,28.5332,138.788,100.344,102.839,0.00453292,0.106514,20.9035,960.018,-0.237521,0.0,0.0
78,19.25,26.989,28.9714,141.351,100.366,102.655,0.00452464,0.105971,20.905,951.32,-0.218094,0.0,0.0
91,22.5,28.1819,29.5508,139.203,100.39,101.881,0.00457798,0.105566,20.9039,932.984,-0.142562,0.0,0.0
104,25.75,28.1359,29.9319,137.142,100.419,101.902,0.00457928,0.105617,20.9019,911.385,-0.14175,0.0,0.0
117,29,27.8,30.0517,139.742,100.454,101.662,0.00465684,0.10606,20.8994,895.271,-0.115586,0.0,0.0
130,32.25,28.0586,29.826,138.051,100.508,101.049,0.00481408,0.106802,20.8959,887.985,-0.0520029,0.0,0.0
143,35.5,27.9741,30.0724,132.194,100.558,101.616,0.00519793,0.107833,20.8929,893.349,-0.101217,0.0,0.0
156,38.75,27.732,30.4571,139.287,100.62,100.865,0.00568653,0.10928,20.8872,897.333,-0.0234881,0.0,0.0
169,42,28.23,30.9733,133.261,100.696,101.766,0.00593874,0.115791,20.865,897.273,-0.102236,0.0,1.0
182,45.25,28.4335,31.1698,135.66,100.765,100.954,0.00593816,0.130886,20.823,897.243,-0.0181255,0.0,1.0
195,48.5,30.2218,33.4741,132.955,100.816,100.691,0.00593169,0.150978,20.7789,897.183,0.0119827,0.0,0.0
208,51.75,30.9099,34.1979,128.542,100.868,99.4652,0.00576978,0.172468,20.7392,897.083,0.135467,0.0,0.0
221,55,32.3201,36.7498,127.471,100.912,99.2727,0.00591923,0.198635,20.6901,897.033,0.158441,0.0,0.0
234,58.25,34.0714,38.8365,126.755,100.93,96.0666,0.00628922,0.228896,20.6291,896.872,0.477683,0.0,0.0
247,61.5,36.4223,41.8881,129.552,100.942,92.8365,0.00682883,0.26563,20.5337,896.742,0.809614,0.0,0.0
260,64.75,38.6753,45.7721,122.711,100.931,89.742,0.00770044,0.311264,20.436,896.582,1.13642,0.0,0.0
273,68,41.6302,49.7735,118.897,100.905,88.796,0.00868492,0.361268,20.3255,896.332,1.23642,0.0,0.0
286,71.25,44.4447,53.6931,115.437,100.847,88.5845,0.0096384,0.416644,20.2328,896.102,1.25392,0.0,0.0
299,74.5,48.241,59.0539,118.433,100.788,84.8104,0.0109281,0.474498,20.1078,895.832,1.66939,0.0,0.0
312,77.75,52.0234,64.0035,111.957,100.691,81.4516,0.0120376,0.545283,19.9872,895.521,2.05095,0.0,0.0
325,81,55.6016,70.0465,99.4438,100.609,79.8434,0.0133021,0.625367,19.8138,895.151,2.23591,0.0,0.0
338,84.25,60.85,77.3125,108.588,100.5,78.3822,0.0149881,0.729124,19.602,894.741,2.40412,0.0,0.0
351,87.5,66.9686,86.2164,97.9844,100.404,76.2666,0.0170343,0.838096,19.3715,894.26,2.65955,0.0,0.0
364,90.75,73.3084,95.8016,91.9247,100.301,73.5533,0.0194775,0.963632,19.1364,893.75,2.99997,0.0,0.0
377,94,79.9877,106.598,90.357,100.22,73.2091,0.0231079,1.12191,18.826,893.139,3.03752,0.0,0.0
390,97.25,88.4687,119.368,84.6545,100.127,71.2323,0.0267044,1.31176,18.4426,892.409,3.29334,0.0,0.0
403,100.5,97.0466,132.805,93.6291,100.026,70.2096,0.0317351,1.51983,18.1361,891.638,3.42344,0.0,0.0
416,103.75,107.006,148.122,72.9367,99.9241,67.5828,0.0378303,1.76187,17.6643,890.857,3.78235,0.0,0.0
429,107,117.576,165.899,76.8638,99.8546,65.2556,0.0446037,2.08154,17.0661,889.876,4.11455,0.0,0.0
442,110.25,129.349,186.981,84.4332,99.7986,71.0122,0.0523811,2.48686,16.2372,888.885,3.29144,0.0,0.0
455,113.5,142.595,209.136,78.3613,99.7475,74.3414,0.0609081,3.01895,15.4145,887.825,2.84335,0.0,0.0
468,116.75,156.967,235.898,50.7422,99.7223,70.404,0.0687607,3.65071,14.3437,886.293,3.36723,0.0,0.0
481,120,170.951,261.387,59.4779,99.6987,76.3153,0.0734633,4.29713,13.379,885.022,2.58515,0.0,0.0
494,123.25,185.351,286.743,61.8662,99.6748,75.1396,0.0759614,4.90173,12.6222,883.391,2.733,0.0,0.0
507,126.5,197.719,308.734,76.2158,99.6719,69.8158,0.0766532,5.35545,12.1806,882.03,3.44351,0.0,0.0
520,129.75,205.695,321.447,68.6746,99.6796,69.9773,0.0775209,5.55446,12.1892,880.738,3.4219,0.0,0.0
533,133,210.554,325.984,72.5719,99.7012,64.4984,0.0794025,5.47217,12.5329,879.517,4.21255,0.0,0.0
546,136.25,215.159,331.607,72.2162,99.7056,64.6535,0.0797522,5.34296,12.8198,878.206,4.18976,0.0,0.0
559,139.5,217.98,332.162,61.9402,99.7519,67.9356,0.0772338,5.12829,13.2679,877.125,3.71531,0.0,0.0
572,142.75,219.938,331.805,54.6922,99.797,67.8077,0.0723399,4.87005,13.7432,876.044,3.7379,0.0,0.0
585,146,220.446,329.94,66.7779,99.8636,67.7748,0.0683613,4.6131,14.0717,874.993,3.74905,0.0,0.0
598,149.25,221.515,329.305,67.0313,99.9306,66.5016,0.0664406,4.43577,14.2771,873.932,3.93896,0.0,0.0
611,152.5,223.761,331.09,85.7414,100.028,67.3193,0.0667063,4.34153,14.3651,872.922,3.83015,0.0,0.0
624,155.75,224.087,328.119,65.575,100.107,63.9203,0.0647177,4.23528,14.5399,871.781,4.33891,0.0,0.0
637,159,224.475,325.753,62.457,100.188,65.1151,0.061545,4.10977,14.7472,870.87,4.16763,0.0,0.0
650,162.25,223.275,321.752,68.4372,100.275,66.2154,0.0588389,3.9625,15.0244,869.849,4.01399,0.0,0.0
663,165.5,220.915,313.598,83.586,100.381,67.5657,0.0527077,3.67233,15.7234,869.178,3.8289,0.0,0.0
676,168.75,213.431,298.555,90.8981,100.477,72.3829,0.0432134,3.19664,16.5274,868.668,3.17203,0.0,0.0
689,172,200.527,274.963,109.644,100.582,84.5993,0.0309735,2.54313,18.076,868.468,1.67372,0.0,0.0
702,175.25,184.384,248.78,120.012,100.687,98.7072,0.0217502,1.83664,19.2834,868.488,0.192078,0.0,0.0
715,178.5,169.662,224.582,122.587,100.775,99.9239,0.0148082,1.28224,20.0491,868.478,0.0820379,0.0,0.0
728,181.75,156.665,202.78,120.422,100.834,99.1769,0.0109494,0.904573,20.4559,868.488,0.160305,0.0,0.0
741,185,145.817,185.459,121.905,100.917,99.5102,0.00886498,0.661335,20.6532,868.498,0.135757,0.0,0.0
754,188.25,137.485,170.476,120.858,101.005,99.7323,0.00777892,0.508118,20.7465,868.448,0.122597,0.0,0.0
767,191.5,129.613,157.898,122.855,101.051,99.1696,0.00726019,0.407675,20.7988,868.448,0.181793,0.0,0.0
780,194.75,121.243,145.593,121.369,101.115,99.3089,0.00673715,0.337158,20.8299,868.458,0.174321,0.0,0.0
793,198,117.075,137.446,123.433,101.188,99.3852,0.00624911,0.286927,20.8509,868.448,0.173878,0.0,0.0
806,201.25,111.978,129.644,123.99,101.255,99.2837,0.00600678,0.248768,20.8649,868.438,0.190162,0.0,0.0
819,204.5,107.557,121.556,123.765,101.312,99.1668,0.0057279,0.222469,20.8738,868.448,0.207027,0.0,0.0
832,207.75,103.673,115.469,122.118,101.365,99.4575,0.00545441,0.200871,20.8808,868.438,0.183754,0.0,0.0
845,211,100.279,110.648,121.481,101.443,99.0551,0.00531021,0.185167,20.8868,868.438,0.230397,0.0,0.0
858,214.25,96.8746,105.071,124.494,101.463,99.0539,0.0050205,0.172072,20.8916,868.428,0.232411,0.0,0.0
871,217.5,94.476,100.632,126.613,101.499,98.7051,0.0050926,0.16224,20.8889,868.418,0.270009,0.0,0.0
884,220.75,92.0863,97.3331,126.817,101.547,98.6264,0.00509533,0.154336,20.8892,868.458,0.282255,0.0,0.0
897,224,89.3187,93.7468,124.238,101.557,98.7165,0.00508179,0.147493,20.8919,868.448,0.274388,0.0,0.0
910,227.25,87.5901,91.0246,123.334,101.546,98.3641,0.00500736,0.141949,20.8935,868.468,0.307894,0.0,0.0
923,230.5,86.5248,88.2636,121.526,101.532,98.0552,0.00493493,0.137835,20.8939,868.448,0.337045,0.0,0.0
936,233.75,83.7087,85.1085,125.905,101.478,98.4222,0.00484281,0.134914,20.8928,868.468,0.295765,0.0,0.0
949,237,82.9109,83.181,125.97,101.398,98.6857,0.00459402,0.13228,20.892,868.398,0.262202,0.0,0.0
962,240.25,81.631,81.5606,125.033,101.323,98.0848,0.00467691,0.130439,20.8884,868.408,0.314183,0.0,0.0
975,243.5,80.1571,80.2055,125.69,101.231,98.0032,0.00495391,0.128359,20.8881,868.408,0.313431,0.0,0.0
988,246.75,78.8031,77.612,124.834,101.119,97.6483,0.00486883,0.126494,20.889,868.398,0.337762,0.0,0.0
1001,250,77.9232,77.1473,126.9,101.003,97.5793,0.00475392,0.124183,20.8906,868.408,0.333566,0.0,0.0
1014,253.25,76.5699,74.5608,125.005,100.922,97.2123,0.00463181,0.122278,20.8921,868.408,0.362234,0.0,0.0
1027,256.5,75.8397,73.9554,127.49,100.829,97.8026,0.00455021,0.120559,20.8939,868.408,0.294724,0.0,0.0
1040,259.75,74.6843,72.5917,128.707,100.74,97.1457,0.00446656,0.118884,20.8944,868.378,0.351373,0.0,0.0
1053,263,73.9544,71.6331,128.125,100.844,97.3122,0.00447126,0.117524,20.8971,868.378,0.344828,0.0,0.0
1066,266.25,73.0271,70.3773,129.302,101.031,97.518,0.00471446,0.116079,20.9003,868.378,0.342326,0.0,0.0
1079,269.5,72.0672,69.3835,128.892,101.128,97.6853,0.00480699,0.114835,20.9014,868.368,0.334997,0.0,0.0
1092,272.75,71.2717,68.3826,128.026,101.226,98.179,0.0046924,0.113755,20.9017,868.368,0.295632,0.0,0.0
1105,276,70.0452,67.628,125.429,101.25,97.8944,0.00454428,0.112874,20.9018,868.358,0.325998,0.0,0.0
1118,279.25,69.9339,66.8536,130.566,101.237,97.6349,0.00468926,0.112219,20.9021,868.348,0.350385,0.0,0.0
1131,282.5,69.2105,65.9054,130.738,101.164,97.5038,0.00475151,0.111541,20.9036,868.378,0.356439,0.0,0.0
1144,285.75,67.8893,65.5741,128.088,101.079,98.3077,0.00444483,0.111037,20.9023,868.348,0.268869,0.0,0.0
1157,289,67.8534,64.8044,130.233,100.928,97.5274,0.00429077,0.110627,20.9006,868.368,0.331483,0.0,0.0
1170,292.25,67.0513,63.6084,129.272,100.713,98.2651,,0.110408,,868.338,0.237994,0.0,0.0
1183,295.5,65.6012,62.5747,129.273,100.467,97.6309,,,,868.338,0.276997,0.0,0.0
1196,298.75,65.4533,62.5819,132.126,100.358,96.7876,,,,868.358,0.350339,0.0,0.0
1204,300.75,65.6727,62.3505,127.828,100.381,98.2387,,,,868.388,0.208682,0.0,0.0