File: 01_Data/LDPE/Cone/LDPE_Cone_HF25Scalar_220202_R3.csv
LABORATORY,FSRI
TEST IDENT,LDPE_HF25_3
OPERATOR,Dow
MATERIAL,LDPE
ORIENTATION,Horizontal
HEAT FLUX,25
SURF AREA,0.01
C FACTOR,0.0415673
SPEC HOLDER DIFF,301.45
SPECIMEN MASS,30
SCAN TIME,0.25
O2 DELAY TIME,11
CO DELAY TIME,11
CO2 DELAY TIME,8
FLOW FACTOR,1
SCAN COUNT,1762
TIME TO IGN,103.5
END OF TEST SCAN,1282
END OF TEST TIME,320.5
TEST STATUS,1
PRE TEST CMT,Dimensions: 99.66 x 100.06 x 3.03 mm
POST TEST CMT,"sample warped prior to ignition and touch the spark ignitor, affecting mass data"