File: 01_Data/LDPE/Cone/LDPE_Cone_HF25Scan_220202_R1.csv
Names,Time,Stack TC,Smoke TC,Exh Press,Smoke Comp,Smoke Meas,CO Meter,CO2 Meter,O2 Meter,Sample Mass,Ext Coeff,Start Test,Flame Verif
Chan Gain,,500,500,1,1,1,1,1,1,1,1,1.0,1.0
Offset,,0,0,0.14021,0,0,0,0,0,0,0,0.0,0.0
Gain,,1,1,25.011,13.3046,13.3037,1,1,1,1.00087,1.10262,1.0,1.0
Units,sec,C,C,Pa,%,%,%,%,%,g,/m,,
Baseline,,14.533,15.5524,146.82,101.01,105.057,0.00481248,0.106204,20.9013,-0.0405771,-0.379881,,
20,4.75,13.3149,14.3221,148.111,101.944,106.239,0.00492109,0.119846,20.8858,930.752,-0.399198,0.0,0.0
40,9.75,13.6547,14.4652,146.881,101.854,106.037,0.00467039,0.119806,20.8894,930.762,-0.389252,0.0,0.0
60,14.75,14.1268,14.8899,146.076,101.512,105.666,0.00464172,0.117207,20.8962,965.092,-0.387979,0.0,0.0
80,19.75,13.4423,14.3257,146.942,101.184,105.867,0.00467162,0.114367,20.9008,992.596,-0.437514,0.0,0.0
100,24.75,14.2452,15.1362,148.332,101.499,105.607,0.00457472,0.112351,20.9011,987.732,-0.383674,0.0,0.0
120,29.75,13.915,14.628,145.448,101.644,106.219,0.00476224,0.111431,20.9012,986.351,-0.425897,0.0,0.0
140,34.75,14.2319,15.0466,145.174,101.248,105.599,0.00485907,0.110311,20.9018,987.552,-0.40691,0.0,0.0
160,39.75,14.1753,15.351,149.196,100.799,105.305,0.0046257,0.109629,20.9025,987.371,-0.42298,0.0,0.0
180,44.75,14.1584,15.2611,146.861,101.067,105.237,0.00480272,0.108411,20.9051,980.065,-0.391074,0.0,0.0
200,49.75,14.4106,15.2253,148.214,101.309,105.78,0.00444833,0.10824,20.9041,965.953,-0.417663,0.0,0.0
220,54.75,14.1745,15.3424,145.269,101.21,105.833,0.00450038,0.10856,20.902,950.179,-0.43199,0.0,0.0
240,59.75,14.4466,15.7467,147.401,100.77,105.166,0.00447383,0.108483,20.903,925.507,-0.412948,0.0,0.0
260,64.75,14.6015,15.6642,148.541,100.231,104.439,0.0046817,0.108341,20.9044,921.724,-0.397733,0.0,0.0
280,69.75,14.1767,15.1405,144.152,100.007,104.144,0.00468677,0.10823,20.9045,923.175,-0.392049,0.0,0.0
300,74.75,14.3555,15.9115,151.258,100.312,104.685,0.00493598,0.108487,20.9014,923.876,-0.412734,0.0,0.0
320,79.75,14.8546,16.1225,148.37,101.02,105.737,0.00505689,0.109653,20.8956,925.057,-0.441407,0.0,0.0
340,84.75,14.877,16.4459,145.612,101.702,106.171,0.00486379,0.111803,20.8919,926.308,-0.415933,0.0,0.0
360,89.75,14.945,16.1001,149.273,101.947,106.412,0.00488407,0.112835,20.8905,928.59,-0.414586,0.0,0.0
380,94.75,15.6373,16.4817,145.828,101.707,106.191,0.00502427,0.1142,20.8885,929.281,-0.417322,0.0,0.0
400,99.75,15.466,16.566,143.354,101.258,105.557,0.0051487,0.115906,20.8834,929.861,-0.402147,0.0,0.0
420,104.75,15.7245,17.282,143.96,101.567,105.738,0.00538006,0.118874,20.8755,930.182,-0.389219,0.0,0.0
440,109.75,15.6689,17.7674,144.846,101.569,105.92,0.00532242,0.122332,20.8697,930.382,-0.405685,0.0,0.0
460,114.75,16.3679,18.3056,144.058,100.792,104.532,0.0054259,0.126485,20.86,930.462,-0.352343,0.0,0.0
480,119.75,15.8654,18.2235,142.76,101.086,104.548,0.00522732,0.133185,20.8418,930.452,-0.325755,0.0,1.0
500,124.75,17.087,19.0289,146.523,101.319,105.127,0.00508901,0.142954,20.8155,930.412,-0.356893,0.0,0.0
520,129.75,17.6487,20.1081,139.863,101.151,104.673,0.00538298,0.15508,20.7936,930.342,-0.331103,0.0,0.0
540,134.75,19.3785,22.3702,137.268,100.786,104.261,0.0053186,0.169198,20.758,930.282,-0.327837,0.0,0.0
560,139.75,20.654,23.795,137.559,100.298,103.536,0.00545593,0.185674,20.735,930.192,-0.307248,0.0,0.0
580,144.75,21.8879,25.5186,140.492,99.9773,101.395,0.00549423,0.204256,20.6952,930.011,-0.13622,0.0,0.0
600,149.75,22.8044,27.8445,137.49,100.032,99.9974,0.0057975,0.22471,20.6603,929.891,0.00338924,0.0,0.0
620,154.75,23.6896,29.5679,134.539,100.476,100.075,0.00621435,0.242749,20.6338,929.721,0.038667,0.0,0.0
640,159.75,25.472,30.5795,139.673,101.117,100.227,0.00657413,0.260385,20.6051,929.591,0.0855608,0.0,0.0
660,164.75,27.18,33.2576,137.1,101.645,98.2212,0.00656687,0.278502,20.5715,929.391,0.331427,0.0,0.0
680,169.75,28.9873,35.3214,130.363,101.889,96.6849,0.0072496,0.30099,20.5185,929.181,0.507059,0.0,0.0
700,174.75,30.8935,38.2348,128.251,101.769,95.6797,0.00792169,0.325597,20.4687,928.951,0.596808,0.0,0.0
720,179.75,33.4084,41.6883,129.301,101.413,92.4143,0.00834531,0.360927,20.3733,928.68,0.898768,0.0,0.0
740,184.75,36.967,46.1554,124.314,101.084,88.118,0.00933892,0.408307,20.2782,928.34,1.32771,0.0,0.0
760,189.75,40.2653,51.7409,120.053,101.503,85.7458,0.0109474,0.471161,20.1203,927.95,1.63167,0.0,0.0
780,194.75,44.7032,57.9674,110.891,101.565,85.5168,0.011882,0.546252,19.9748,927.479,1.66349,0.0,0.0
800,199.75,49.559,65.6515,114.825,101.103,85.4336,0.0127613,0.629267,19.8007,926.899,1.62877,0.0,0.0
820,204.75,54.8274,73.2039,116.024,100.75,83.7048,0.0139007,0.716749,19.6631,926.368,1.79263,0.0,0.0
840,209.75,60.7491,82.4164,103.052,100.933,82.5043,0.0150779,0.805921,19.5296,925.738,1.94992,0.0,0.0
860,214.75,66.5324,89.6518,102.213,101.14,82.8206,0.0161949,0.888403,19.4028,925.117,1.93278,0.0,0.0
880,219.75,72.0397,98.1572,102.829,101.118,79.6839,0.0176361,0.977985,19.2381,924.386,2.30408,0.0,0.0
900,224.75,78.9788,106.931,92.3232,100.829,77.6076,0.0197259,1.0777,19.0484,923.626,2.53178,0.0,0.0
920,229.75,85.4091,117.632,97.8943,100.363,77.0023,0.0213061,1.19003,18.8652,922.845,2.56275,0.0,0.0
940,234.75,91.9645,127.75,99.1713,99.9298,77.58,0.0224879,1.30493,18.6957,921.924,2.44857,0.0,0.0
960,239.75,98.6257,135.551,95.316,99.756,75.2829,0.0245887,1.41065,18.4959,921.054,2.72245,0.0,0.0
980,244.75,105.019,145.925,95.1229,99.9354,76.2362,0.0261554,1.53563,18.3033,920.073,2.61813,0.0,0.0
1000,249.75,111.56,155.78,86.004,100.417,75.2821,0.0289437,1.65506,18.1144,919.102,2.78643,0.0,0.0
1020,254.75,118.654,165.841,81.6778,101.01,76.282,0.0317016,1.78278,17.9136,918.081,2.71577,0.0,0.0
1040,259.75,125.193,175.731,91.5187,101.487,73.4311,0.0326985,1.89938,17.7734,916.97,3.12971,0.0,0.0
1060,264.75,130.657,184.348,72.0429,101.722,74.3645,0.0357117,2.02799,17.5301,915.839,3.02996,0.0,0.0
1080,269.75,138.668,195.345,82.6357,101.701,74.2435,0.0386466,2.16991,17.2918,914.628,3.0437,0.0,0.0
1100,274.75,145.723,206.772,83.663,101.482,69.236,0.0409582,2.32043,17.0425,913.347,3.69823,0.0,0.0
1120,279.75,153.934,219.002,67.9472,101.165,71.4401,0.0448267,2.5052,16.7738,912.106,3.36489,0.0,0.0
1140,284.75,161.209,229.653,68.8234,100.926,73.1888,0.0472614,2.66661,16.5309,910.715,3.1081,0.0,0.0
1160,289.75,168.836,241.522,87.9076,101.264,70.0098,0.0487846,2.83442,16.3043,909.303,3.56993,0.0,0.0
1180,294.75,173.951,250.321,79.7696,101.471,69.0533,0.050507,2.95298,16.1785,907.972,3.72274,0.0,0.0
1200,299.75,179.123,255.84,78.1033,101.402,69.497,0.0501058,3.01112,16.1946,906.651,3.65421,0.0,0.0
1220,304.75,179.998,255.429,72.7597,101.119,70.534,0.0473831,2.94662,16.4933,905.36,3.48397,0.0,0.0
1240,309.75,180.728,252.334,79.3963,100.605,73.8919,0.042054,2.78108,16.9103,904.229,2.98483,0.0,0.0
1260,314.75,176.296,243.746,96.1472,100.631,72.6573,0.0369606,2.51685,17.4791,903.278,3.1503,0.0,0.0
1280,319.75,169.893,229.759,82.3891,100.745,75.7218,0.0306536,2.17914,18.111,902.497,2.76169,0.0,0.0
1300,324.75,160.88,213.789,100.495,100.856,78.206,0.0251432,1.8449,18.6843,901.857,2.4601,0.0,0.0
1320,329.75,151.41,195.715,104.176,100.953,75.6499,0.0223081,1.52787,19.1962,901.376,2.79081,0.0,0.0
1340,334.75,140.441,176.894,115.002,100.981,77.5776,0.0191104,1.23944,19.6202,900.946,2.55005,0.0,0.0
1360,339.75,129.157,158.325,111.702,100.895,77.1549,0.0155101,0.98761,19.9995,900.686,2.59468,0.0,0.0
1380,344.75,118.924,142.264,120.698,100.713,81.9631,0.0115392,0.789071,20.2447,900.456,1.9925,0.0,0.0
1400,349.75,109.573,126.218,128.1,100.423,95.4836,0.00854649,0.617233,20.5507,900.406,0.487878,0.0,0.0
1420,354.75,99.4824,111.943,133.964,100.117,96.3471,0.00684185,0.462483,20.7238,900.406,0.371227,0.0,0.0
1440,359.75,91.2405,99.6299,129.102,99.8449,97.3808,0.00602695,0.35457,20.8161,900.416,0.241696,0.0,0.0
1460,364.75,84.1828,89.3003,131.051,99.6577,97.1242,0.0053716,0.282271,20.8578,900.436,0.249066,0.0,0.0
1480,369.75,78.8689,80.8394,129.489,99.5574,97.5647,0.00518236,0.233725,20.8744,900.446,0.19556,0.0,0.0
1500,374.75,74.8397,74.9995,134.243,99.5826,97.9204,0.00498024,0.200581,20.8856,900.416,0.162811,0.0,0.0
1520,379.75,70.6685,69.2679,130.661,99.7259,97.3276,0.0046707,0.178857,20.8918,900.446,0.235448,0.0,0.0
1540,384.75,67.9242,64.9882,130.647,99.9728,97.6333,0.00469866,0.162399,20.8954,900.446,0.229028,0.0,0.0
1560,389.75,64.9269,61.0093,132.348,100.264,98.1558,0.00472068,0.151227,20.897,900.466,0.205566,0.0,0.0
1580,394.75,62.7768,57.9225,134.787,100.594,99.2967,0.00466003,0.142864,20.8973,900.436,0.12551,0.0,0.0
1600,399.75,60.4221,55.2298,134.471,100.916,100.326,0.00446067,0.136371,20.8993,900.456,0.0567616,0.0,0.0
1620,404.75,58.8096,52.9231,131.588,101.19,101.435,0.00455826,0.131095,20.8996,900.456,-0.023313,0.0,0.0
1640,409.75,57.2909,51.3601,136.362,101.385,101.381,0.00494403,0.127072,20.8996,900.456,0.000409308,0.0,0.0
1660,414.75,55.622,49.5002,133.89,101.515,100.276,0.00498399,0.123856,20.8993,900.446,0.118729,0.0,0.0
1680,419.75,54.3459,48.1748,136.254,101.562,102.342,0.0045764,0.121354,20.8996,900.446,-0.0740834,0.0,0.0
1700,424.75,52.8862,46.7163,135.202,101.551,100.709,0.00436323,0.118992,20.9006,900.456,0.0804784,0.0,0.0
1720,429.75,51.7184,45.253,138.881,101.487,101.172,0.004609,0.117071,20.901,900.436,0.0300168,0.0,0.0
1740,434.75,50.649,44.8157,139.957,101.371,102.157,0.00456856,0.115477,20.9011,900.446,-0.0746847,0.0,0.0
1760,439.75,49.3911,43.0063,137.357,101.223,101.916,0.0042525,0.114167,20.9027,900.456,-0.0659746,0.0,0.0
1780,444.75,48.2098,42.5067,133.103,101.057,101.698,0.00453262,0.113031,20.9043,900.456,-0.0611424,0.0,0.0
1800,449.75,47.6136,41.1915,138.177,100.891,102.283,0.00456787,0.11198,20.9041,900.446,-0.13253,0.0,0.0
1820,454.75,46.5694,40.6869,138.814,100.783,101.859,0.00436224,0.111206,20.9045,900.466,-0.102726,0.0,0.0
1840,459.75,45.8824,40.1075,139.874,100.761,101.667,0.00418867,0.110652,20.9039,900.466,-0.0865397,0.0,0.0
1860,464.75,44.5653,38.9408,139.631,100.998,102.801,0.00453998,0.110276,20.9016,900.456,-0.171125,0.0,0.0
1880,469.75,44.6867,39.1569,141.544,101.104,102.757,,0.109979,,900.466,-0.156818,0.0,0.0
1900,474.75,43.2929,38.1153,136.878,101.186,101.859,,,,900.466,-0.0641092,0.0,0.0
1917,479,43.0428,37.4579,134.625,101.238,103.091,,,,900.486,-0.175447,0.0,0.0