File: 01_Data/LDPE/Cone/LDPE_Cone_HF25Scan_220202_R2.csv
Names,Time,Stack TC,Smoke TC,Exh Press,Smoke Comp,Smoke Meas,CO Meter,CO2 Meter,O2 Meter,Sample Mass,Ext Coeff,Start Test,Flame Verif
Chan Gain,,500,500,1,1,1,1,1,1,1,1,1.0,1.0
Offset,,0,0,0.14021,0,0,0,0,0,0,0,0.0,0.0
Gain,,1,1,25.011,13.3046,13.3037,1,1,1,1.00087,1.10262,1.0,1.0
Units,sec,C,C,Pa,%,%,%,%,%,g,/m,,
Baseline,,25.888,24.8513,142.4,100.644,103.657,0.00431179,0.103298,20.9088,-0.00421201,-0.285214,,
18,4.25,23.1954,22.4965,141.203,99.6041,101.914,0.0044183,0.10895,20.9079,929.711,-0.221753,0.0,0.0
36,8.75,23.0322,22.2833,143.747,99.5591,102.087,0.00446335,0.107918,20.9081,929.741,-0.242493,0.0,0.0
54,13.25,23.3047,22.618,144.358,99.9513,102.402,0.00436888,0.106807,20.9095,929.691,-0.234305,0.0,0.0
72,17.75,23.2213,22.8236,144.476,100.467,102.48,0.00472731,0.105494,20.9098,954.563,-0.191894,0.0,0.0
90,22.25,23.2704,22.9937,143.875,100.792,102.834,0.00472683,0.104492,20.9107,963.03,-0.19403,0.0,0.0
108,26.75,22.7251,22.5013,142.831,100.773,102.733,0.00469931,0.103608,20.911,959.457,-0.186386,0.0,0.0
126,31.25,22.2523,22.505,142.559,100.479,103.086,0.00454865,0.10327,20.9107,951.51,-0.247724,0.0,0.0
144,35.75,22.9902,22.5379,146.409,100.257,102.455,0.00430932,0.102914,20.9107,945.635,-0.209825,0.0,0.0
162,40.25,23.0729,22.8506,143.408,100.845,102.839,0.00443468,0.102596,20.9102,940.471,-0.189308,0.0,0.0
180,44.75,22.6651,22.7105,138.791,101.167,102.934,0.00434303,0.102682,20.9119,938.689,-0.167485,0.0,0.0
198,49.25,22.4541,22.563,140.987,101.038,103.226,0.00447234,0.102948,20.9118,934.515,-0.207189,0.0,0.0
216,53.75,22.6389,22.1562,142.519,100.65,103.124,0.00466151,0.103324,20.9097,929.541,-0.234825,0.0,0.0
234,58.25,22.8234,23.0442,143.463,100.871,103.811,0.00441427,0.103516,20.9086,927.689,-0.277838,0.0,0.0
252,62.75,22.3742,22.1987,141.984,101.142,103.714,0.00432652,0.104006,20.9091,925.077,-0.242861,0.0,0.0
270,67.25,22.41,22.3631,139.342,101.36,103.409,0.00405679,0.1042,20.9081,928.8,-0.193518,0.0,0.0
288,71.75,22.5316,22.518,142.202,101.45,104.15,0.0040838,0.105318,20.906,929.581,-0.254015,0.0,0.0
306,76.25,22.7136,22.9783,141.705,101.421,103.139,0.00434237,0.106524,20.9021,929.641,-0.162384,0.0,0.0
324,80.75,22.4541,22.5525,141.886,101.282,102.938,0.00461742,0.107277,20.901,929.601,-0.156809,0.0,0.0
342,85.25,22.7784,22.9463,143.414,101.068,102.606,0.00484068,0.107694,20.9009,929.551,-0.146086,0.0,0.0
360,89.75,22.4162,22.3995,144.434,100.805,102.891,0.00467312,0.108283,20.8991,929.571,-0.19809,0.0,0.0
378,94.25,22.5858,22.4603,140.916,100.551,102.179,0.00444541,0.10907,20.8957,929.601,-0.155332,0.0,0.0
396,98.75,22.4793,22.98,144.982,100.347,102.433,0.00433848,0.110577,20.8905,929.571,-0.199025,0.0,0.0
414,103.25,22.7065,22.7973,141.621,100.177,101.73,0.00465787,0.112943,20.8849,929.561,-0.148733,0.0,0.0
432,107.75,22.9959,23.3664,147.176,100.052,101.732,0.00514107,0.11692,20.8761,929.541,-0.161086,0.0,0.0
450,112.25,23.3128,24.0656,139.929,99.9229,101.211,0.00500601,0.122279,20.8638,929.501,-0.123846,0.0,1.0
468,116.75,23.8263,24.4276,139.654,99.836,101.083,0.00534267,0.129908,20.8464,929.481,-0.120109,0.0,1.0
486,121.25,23.874,24.8705,140.689,99.7523,102.066,0.00542656,0.139255,20.8287,929.371,-0.221812,0.0,0.0
504,125.75,24.353,25.6719,142.731,99.6983,101.139,0.00544371,0.149991,20.8079,929.341,-0.138813,0.0,0.0
522,130.25,25.0592,26.7242,140.95,99.6711,101.109,0.00514802,0.160547,20.7878,929.271,-0.13854,0.0,0.0
540,134.75,26.3199,28.1438,138.4,99.6492,100.768,0.00523396,0.171707,20.7745,929.181,-0.107989,0.0,0.0
558,139.25,26.7578,28.407,139.84,99.648,99.2967,0.00537711,0.184692,20.7508,929.111,0.0341573,0.0,0.0
576,143.75,27.7237,30.616,136.632,99.635,100.625,0.00525962,0.198447,20.7252,929.01,-0.0956031,0.0,0.0
594,148.25,28.6352,32.1605,134.154,99.6468,98.6552,0.00545998,0.213131,20.7001,928.89,0.0967257,0.0,0.0
612,152.75,30.0526,33.2002,132.452,99.6537,97.6967,0.00564503,0.22922,20.667,928.77,0.191831,0.0,0.0
630,157.25,31.0732,35.0717,131.476,99.6971,96.8956,0.00594125,0.246323,20.6437,928.67,0.275677,0.0,0.0
648,161.75,32.1497,36.4489,129.56,99.7414,95.4503,0.00624114,0.262526,20.6095,928.53,0.42533,0.0,0.0
666,166.25,32.5732,37.3095,129.642,99.8112,95.2635,0.00666277,0.278823,20.5795,928.34,0.451042,0.0,0.0
684,170.75,34.1791,39.4191,129.882,99.9192,93.9116,0.0067262,0.296678,20.5448,928.15,0.599751,0.0,0.0
702,175.25,36.5422,42.8093,132.82,100.028,91.9936,0.00724756,0.323313,20.4776,927.96,0.809893,0.0,0.0
720,179.75,38.3577,45.2454,127.028,100.177,89.1395,0.00842603,0.35677,20.4156,927.689,1.12913,0.0,0.0
738,184.25,40.6303,48.8648,121.87,100.32,88.4156,0.00971448,0.401835,20.3021,927.419,1.2217,0.0,0.0
756,188.75,44.0281,53.2747,115.59,100.468,85.3414,0.0107925,0.461958,20.1745,927.059,1.5783,0.0,0.0
774,193.25,47.2515,58.1483,121.441,100.627,83.6521,0.0116917,0.525413,20.0432,926.709,1.78696,0.0,0.0
792,197.75,51.5652,64.0371,116.594,100.739,82.2554,0.0127968,0.590952,19.9324,926.238,1.96053,0.0,0.0
810,202.25,54.9902,69.2384,118.025,100.872,81.7009,0.0143771,0.660622,19.8139,925.778,2.03878,0.0,0.0
828,206.75,59.372,75.6322,117.761,100.991,78.7107,0.0154556,0.732891,19.6641,925.227,2.41077,0.0,0.0
846,211.25,64.9512,82.8058,110.899,101.097,76.7753,0.0168895,0.820685,19.5064,924.697,2.66178,0.0,0.0
864,215.75,69.9896,90.8397,104.542,101.182,79.1033,0.0176552,0.914533,19.3398,924.036,2.38098,0.0,0.0
882,220.25,75.3596,99.0876,103.568,101.27,77.7599,0.0186502,1.01474,19.1598,923.426,2.55503,0.0,0.0
900,224.75,81.8328,108.805,99.6407,101.329,76.7501,0.0199838,1.12244,18.9996,922.685,2.68703,0.0,0.0
918,229.25,88.8864,118.873,90.1761,101.376,76.1391,0.0219342,1.25019,18.7389,921.954,2.76888,0.0,0.0
936,233.75,95.6861,129.87,85.1514,101.406,75.5257,0.0245083,1.38645,18.5054,921.094,2.84995,0.0,0.0
954,238.25,104.566,143.063,92.5941,101.435,74.9508,0.0284593,1.56589,18.1473,920.193,2.92664,0.0,0.0
972,242.75,111.858,155.324,76.1295,101.44,71.864,0.0314934,1.74211,17.8961,919.172,3.33391,0.0,0.0
990,247.25,121.059,168.333,89.309,101.458,69.4114,0.03489,1.93251,17.5995,918.091,3.67152,0.0,0.0
1008,251.75,129.927,181.835,74.7098,101.463,71.6825,0.040949,2.16196,17.1744,916.95,3.36058,0.0,0.0
1026,256.25,140.483,199.319,62.8646,101.462,70.5835,0.0482174,2.49147,16.4561,915.519,3.50986,0.0,0.0
1044,260.75,152.452,220.3,68.9708,101.448,67.8406,0.0539357,2.87357,15.8935,914.158,3.89194,0.0,0.0
1062,265.25,164.829,241.785,75.7189,101.442,73.9269,0.0561564,3.24431,15.3972,912.786,3.06038,0.0,0.0
1080,269.75,177.793,264.18,60.5808,101.406,73.8327,0.0588132,3.63284,14.7983,911.185,3.06926,0.0,0.0
1098,274.25,189.596,283.128,65.0094,101.384,69.3838,0.0612055,3.9835,14.3663,909.744,3.66828,0.0,0.0
1116,278.75,200.609,300.896,68.2105,101.351,67.988,0.06292,4.30218,13.9594,907.962,3.8617,0.0,0.0
1134,283.25,207.521,311.335,65.8184,101.318,72.9119,0.0636845,4.4446,13.9809,906.521,3.18224,0.0,0.0
1152,287.75,210.227,312.69,65.1681,101.286,67.4139,0.0623759,4.30694,14.4818,905.05,3.93752,0.0,0.0
1170,292.25,209.637,307.376,77.6026,101.23,65.1793,0.0560727,3.929,15.259,903.849,4.25816,0.0,0.0
1188,296.75,203.876,291.753,80.8649,101.173,68.8215,0.0454941,3.4277,16.2365,902.878,3.72686,0.0,0.0
1206,301.25,193.436,271.651,87.165,101.122,72.382,0.0346384,2.76306,17.4837,902.067,3.23408,0.0,0.0
1224,305.75,180.268,246.289,105.659,101.073,81.2587,0.0259102,2.14728,18.4596,901.667,2.11051,0.0,0.0
1242,310.25,164.594,218.235,116.198,101.027,86.585,0.0179137,1.58155,19.5262,901.477,1.49206,0.0,0.0
1260,314.75,146.866,189.454,127.435,100.994,98.5086,0.0113847,1.07188,20.2578,901.456,0.240992,0.0,0.0
1278,319.25,131.044,164.685,125.698,100.948,97.7888,0.00862561,0.727633,20.6111,901.456,0.307572,0.0,0.0
1296,323.75,118.602,144.673,127.881,100.896,97.4072,0.00738566,0.504491,20.7634,901.477,0.340334,0.0,0.0
1314,328.25,108.22,128.146,130.228,100.841,97.4076,0.00661937,0.38152,20.8272,901.477,0.335078,0.0,0.0
1332,332.75,100.516,114.713,133.007,100.823,97.2131,0.00595575,0.299527,20.8559,901.477,0.352692,0.0,0.0
1350,337.25,93.2323,104.001,126.94,100.752,97.7705,0.0057326,0.248981,20.8705,901.506,0.290571,0.0,0.0
1368,341.75,87.8903,95.0848,132.32,100.704,97.5351,0.00535382,0.215483,20.8784,901.506,0.309216,0.0,0.0
1386,346.25,83.2131,88.5154,131.253,100.653,97.5237,0.00517622,0.190109,20.8852,901.497,0.305468,0.0,0.0
1404,350.75,79.0028,82.0212,130.776,100.703,97.3114,0.00511348,0.172828,20.8895,901.506,0.331387,0.0,0.0
1422,355.25,75.3319,75.876,134.709,100.869,97.3292,0.00514446,0.159171,20.8933,901.497,0.345509,0.0,0.0
1440,359.75,72.8592,72.3211,129.501,101,97.0714,0.00501439,0.148979,20.8969,901.506,0.38369,0.0,0.0
1458,364.25,70.1994,68.281,129.364,101.108,98.2512,0.00455141,0.14117,20.9005,901.516,0.277258,0.0,0.0
1476,368.75,67.9819,65.3322,135.536,101.158,98.6223,0.00444592,0.134647,20.9021,901.506,0.245573,0.0,0.0
1494,373.25,65.9081,62.8755,131.817,101.165,98.4668,0.00460826,0.129991,20.9023,901.506,0.261456,0.0,0.0
1512,377.75,64.066,59.8963,133.661,101.095,97.8936,0.00445933,0.12578,20.9042,901.527,0.31129,0.0,0.0
1530,382.25,62.4646,58.1264,133.538,100.948,97.7117,0.00460532,0.122708,20.9052,901.506,0.315128,0.0,0.0
1548,386.75,61.7889,56.2164,136.71,100.695,97.5477,0.00465679,0.120225,20.9056,901.497,0.307149,0.0,0.0
1566,391.25,60.0768,54.7538,138.774,100.338,97.7693,0.00461386,0.118103,20.9057,901.506,0.250813,0.0,0.0
1584,395.75,58.6326,53.3417,137.956,100.298,97.5903,0.00465032,0.116298,20.9051,901.506,0.264667,0.0,0.0
1602,400.25,57.4378,52.1408,138.43,100.399,97.3057,0.00458388,0.115165,20.9036,901.527,0.30266,0.0,0.0
1620,404.75,56.3114,50.7674,132.504,100.515,99.2886,0.00483899,0.114257,20.9018,901.527,0.118724,0.0,0.0
1638,409.25,54.9284,48.2817,134.19,100.651,99.0701,0.00477613,0.113745,20.9009,901.516,0.153144,0.0,0.0
1656,413.75,53.5015,47.621,132.208,100.767,98.3467,0.00450272,0.113191,20.8998,901.506,0.235189,0.0,0.0
1674,418.25,53.0384,47.3672,137.796,100.822,98.8493,0.00445213,0.112133,20.901,901.497,0.191143,0.0,0.0
1692,422.75,51.9032,46.3408,136.503,100.82,99.7149,0.0043947,0.11142,20.9023,901.527,0.106582,0.0,0.0
1710,427.25,51.4599,45.6871,133.803,100.751,98.7567,0.00449425,0.110835,20.9027,901.527,0.193387,0.0,0.0
1728,431.75,50.1716,44.3793,137.967,100.603,98.2923,0.00451759,0.110606,20.9025,901.497,0.224705,0.0,0.0
1746,436.25,49.7811,44.0192,134.199,100.403,99.822,,,,901.477,0.0561449,0.0,0.0
1764,440.75,48.798,43.3563,134.003,100.138,99.4652,,,,901.537,0.0652493,0.0,0.0
1775,443.5,48.3958,43.056,138.934,99.9793,98.7571,,,,901.527,0.118962,0.0,0.0