File: 01_Data/LDPE/Cone/LDPE_Cone_HF50Scalar_220202_R1.csv
LABORATORY,FSRI
TEST IDENT,LDPE_HF50_1
OPERATOR,Dow
MATERIAL,LDPE
ORIENTATION,Horizontal
HEAT FLUX,50
SURF AREA,0.01
C FACTOR,0.0415673
SPEC HOLDER DIFF,300.86
SPECIMEN MASS,30.1
SCAN TIME,0.25
O2 DELAY TIME,11
CO DELAY TIME,11
CO2 DELAY TIME,8
FLOW FACTOR,1
SCAN COUNT,1204
TIME TO IGN,40.5
END OF TEST SCAN,724
END OF TEST TIME,181
TEST STATUS,1
PRE TEST CMT,Dimensions: 100.17 x 100.13 x 3.04 mm
POST TEST CMT,sample dripped from foil pan