File: 01_Data/LDPE/Cone/LDPE_Cone_HF50Scan_220202_R3.csv
Names,Time,Stack TC,Smoke TC,Exh Press,Smoke Comp,Smoke Meas,CO Meter,CO2 Meter,O2 Meter,Sample Mass,Ext Coeff,Start Test,Flame Verif
Chan Gain,,500,500,1,1,1,1,1,1,1,1,1.0,1.0
Offset,,0,0,0.14021,0,0,0,0,0,0,0,0.0,0.0
Gain,,1,1,25.011,13.3046,13.3037,1,1,1,1.00087,1.10262,1.0,1.0
Units,sec,C,C,Pa,%,%,%,%,%,g,/m,,
Baseline,,38.8542,39.5654,135.107,100.704,100.183,0.00449386,0.105077,20.901,-1.6828,0.0503756,,
12,2.75,35.192,35.524,134.131,101.162,100.839,0.00459303,0.116768,20.8842,896.592,0.0309294,0.0,0.0
24,5.75,35.1717,35.2001,136.257,101.183,100.554,0.00442606,0.115595,20.8865,935.636,0.0603625,0.0,0.0
36,8.75,35.1095,35.7256,135.573,100.961,100.448,0.00436631,0.114145,20.89,966.994,0.0493069,0.0,0.0
48,11.75,35.2884,35.7609,133.987,100.692,99.4818,0.00436287,0.112298,20.8921,977.423,0.116976,0.0,0.0
60,14.75,35.0582,35.9569,140.116,100.876,99.8915,0.00450199,0.110733,20.8943,974.54,0.0948808,0.0,0.0
72,17.75,35.623,36.4811,138.673,101.1,100.488,0.00463693,0.109709,20.8961,962.159,0.0587318,0.0,0.0
84,20.75,35.5377,36.2523,138.456,101.283,100.797,0.00464506,0.109448,20.8976,942.412,0.0465419,0.0,0.0
96,23.75,35.8941,36.61,135.516,101.426,100.483,0.00464058,0.109508,20.8959,923.025,0.0903802,0.0,0.0
108,26.75,35.8192,36.5785,136.837,101.497,100.912,0.0046009,0.109909,20.8953,899.585,0.0558961,0.0,0.0
120,29.75,35.8327,36.1511,136.285,101.482,101.276,0.00482909,0.11034,20.8943,888.966,0.0196998,0.0,0.0
132,32.75,36.1796,36.9178,138.078,101.404,100.636,0.00503613,0.110936,20.8908,886.343,0.0736061,0.0,0.0
144,35.75,35.7261,36.9142,138.815,101.242,100.186,0.00509838,0.111696,20.8892,896.482,0.101473,0.0,0.0
156,38.75,35.7982,36.6438,136.253,101.065,99.17,0.00546724,0.11439,20.8801,896.412,0.183037,0.0,0.0
168,41.75,36.5016,37.7904,132.679,100.835,99.4258,0.00576308,0.123697,20.8592,896.422,0.136104,0.0,1.0
180,44.75,36.5453,37.8348,131.109,100.624,98.5683,0.00587064,0.139757,20.8152,896.352,0.199645,0.0,1.0
192,47.75,37.4598,39.8,129.436,100.42,98.3186,0.00581736,0.162504,20.7668,896.272,0.204526,0.0,0.0
204,50.75,38.3194,40.4919,130.482,100.226,95.961,0.00574951,0.188401,20.719,896.182,0.420572,0.0,0.0
216,53.75,40.348,43.1168,127.68,100.056,95.2278,0.00576794,0.21561,20.6613,896.112,0.478367,0.0,0.0
228,56.75,41.3214,44.9304,128.387,99.9131,94.5607,0.00591509,0.245279,20.6102,895.982,0.532531,0.0,0.0
240,59.75,43.7257,47.6405,128.628,99.8059,91.582,0.00658846,0.277712,20.5407,895.852,0.831734,0.0,0.0
252,62.75,45.0724,50.086,124.609,99.7405,88.6771,0.0075756,0.317073,20.4645,895.701,1.13716,0.0,0.0
264,65.75,47.3315,53.2194,118.932,99.6878,86.801,0.00851973,0.358823,20.3874,895.521,1.33886,0.0,0.0
276,68.75,50.1372,57.2645,111.961,99.6638,86.5497,0.00961872,0.410678,20.2877,895.271,1.36458,0.0,0.0
288,71.75,52.8155,61.371,111.666,99.6581,83.8542,0.0110303,0.479555,20.1367,895.071,1.67004,0.0,0.0
300,74.75,57.5078,67.845,110.172,99.6553,80.1223,0.0126312,0.571388,19.8999,894.731,2.11009,0.0,0.0
312,77.75,62.2457,75.1754,104.971,99.6638,80.5434,0.0141432,0.688118,19.7055,894.32,2.06023,0.0,0.0
324,80.75,67.3061,82.4896,96.0945,99.689,76.615,0.0162317,0.807437,19.4631,893.93,2.54631,0.0,0.0
336,83.75,73.303,92.0872,100.025,99.7235,74.41,0.0189766,0.949227,19.2036,893.399,2.8321,0.0,0.0
348,86.75,80.4216,102.002,85.7552,99.758,74.6337,0.0214908,1.09533,18.9576,892.899,2.80641,0.0,0.0
360,89.75,86.6373,111.916,86.3017,99.7889,71.2047,0.0242675,1.24872,18.7232,892.379,3.26432,0.0,0.0
372,92.75,94.2824,123.641,79.7543,99.8319,72.4125,0.0277275,1.42293,18.3984,891.758,3.1058,0.0,0.0
384,95.75,102.451,137.462,68.364,99.8859,72.9005,0.0321653,1.63093,17.9789,891.097,3.04607,0.0,0.0
396,98.75,111.66,150.547,78.4094,99.9334,70.6217,0.0377566,1.86896,17.6407,890.337,3.35784,0.0,0.0
408,101.75,120.812,167.268,76.0494,99.9683,69.94,0.0437034,2.13464,17.1241,889.536,3.45503,0.0,0.0
420,104.75,131.541,183.73,65.4818,99.9976,68.6424,0.0483369,2.45786,16.6081,888.695,3.63899,0.0,0.0
432,107.75,141.345,200.922,68.68,100.035,70.0236,0.0528651,2.78489,16.0061,887.674,3.44995,0.0,0.0
444,110.75,153.211,222.378,59.6642,100.061,72.4864,0.0553906,3.20934,15.4001,886.604,3.1181,0.0,0.0
456,113.75,165.485,242.684,85.2713,100.072,69.1808,0.0577011,3.62533,14.8344,885.553,3.57061,0.0,0.0
468,116.75,176.426,262.023,55.2242,100.086,73.3881,0.0606339,4.07597,14.0761,884.422,3.00091,0.0,0.0
480,119.75,187.792,282.796,49.0981,100.127,77.2406,0.0629463,4.47871,13.5251,883.11,2.51006,0.0,0.0
492,122.75,198.021,299.718,46.4847,100.125,76.82,0.0653037,4.8689,12.9578,881.899,2.56264,0.0,0.0
504,125.75,208.958,318.178,62.4936,100.13,77.5138,0.0661361,5.31174,12.2047,880.618,2.47622,0.0,0.0
516,128.75,218.938,336.617,55.6814,100.145,77.0839,0.0650796,5.83067,11.4648,879.267,2.53147,0.0,0.0
528,131.75,230.386,358.597,55.1845,100.162,78.7095,0.0636069,6.4647,10.5402,877.536,2.33122,0.0,0.0
540,134.75,240.699,376.033,59.5306,100.188,74.9617,0.0630623,7.04288,9.75283,876.054,2.80555,0.0,0.0
552,137.75,249.567,392.136,50.5316,100.205,79.1877,0.0639134,7.5918,9.00851,874.283,2.27675,0.0,0.0
564,140.75,257.733,404.485,63.579,100.219,78.9543,0.0668082,8.02502,8.41889,872.912,2.30667,0.0,0.0
576,143.75,264.423,415.684,54.9776,100.244,70.0732,0.0738023,8.24972,8.26466,871.34,3.46331,0.0,0.0
588,146.75,266.894,416.025,56.6423,100.272,67.6209,0.0826239,7.99556,8.94771,870.059,3.81047,0.0,0.0
600,149.75,266.179,409.595,69.86,100.281,58.9907,0.0867883,7.35455,10.2737,868.848,5.13194,0.0,0.0
612,152.75,261.873,396.526,74.3183,100.298,63.0498,0.0802317,6.38212,11.9108,868.047,4.48999,0.0,0.0
624,155.75,255.217,377.962,69.5997,100.318,64.8931,0.0668896,5.34359,13.6528,867.357,4.21324,0.0,0.0
636,158.75,244.796,355.159,95.2366,100.352,72.6553,0.0499357,4.21349,15.4065,867.046,3.12368,0.0,0.0
648,161.75,229.034,324.73,108.205,100.372,94.3923,0.0346435,3.15603,17.2676,866.926,0.594132,0.0,0.0
660,164.75,211.266,294.387,114.754,100.41,98.0365,0.0223648,2.17093,18.8413,866.876,0.231347,0.0,0.0
672,167.75,195.881,267.718,117.301,100.424,99.9735,0.0155041,1.46934,19.7574,866.876,0.0434777,0.0,0.0
684,170.75,183.132,244.588,117.246,100.472,100.138,0.0115507,1.03618,20.2569,866.826,0.0321959,0.0,0.0
696,173.75,170.911,224.658,114.622,100.494,100.749,0.00940585,0.74901,20.5171,866.846,-0.0244533,0.0,0.0
708,176.75,159.989,207.184,118.207,100.54,100.639,0.00830373,0.568515,20.669,866.816,-0.00954871,0.0,0.0
720,179.75,152.394,192.017,119.18,100.557,100.336,0.00746633,0.443277,20.7514,866.826,0.0212829,0.0,0.0
732,182.75,144.289,178.818,119.733,100.599,100.772,0.00643326,0.365238,20.7957,866.856,-0.0165979,0.0,0.0
744,185.75,137.188,167.151,120.641,100.616,99.753,0.00581316,0.307373,20.8292,866.826,0.083348,0.0,0.0
756,188.75,132.029,157.826,120.96,100.655,100.087,0.0055355,0.263856,20.8488,866.826,0.0547497,0.0,0.0
768,191.75,127.375,148.949,117.799,100.691,99.8903,0.00546781,0.232921,20.8638,866.836,0.0772293,0.0,0.0
780,194.75,122.909,141.813,122.198,100.702,99.6905,0.0053414,0.209495,20.8727,866.816,0.0976047,0.0,0.0
792,197.75,118.624,135.258,121.142,100.726,99.3296,0.00521034,0.190977,20.8797,866.846,0.135064,0.0,0.0
804,200.75,114.63,128.907,119.949,100.762,99.7356,0.00490111,0.176361,20.8854,866.836,0.0990028,0.0,0.0
816,203.75,111.138,123.3,120.848,100.754,99.5517,0.00469901,0.165901,20.8856,866.836,0.116153,0.0,0.0
828,206.75,108.67,119.421,121.384,100.768,98.8448,0.00468498,0.157733,20.8849,866.826,0.186398,0.0,0.0
840,209.75,105.61,114.224,121.874,100.778,98.8627,0.00471241,0.150089,20.886,866.836,0.185586,0.0,0.0
852,212.75,102.886,110.59,124.069,100.804,99.2386,0.00471869,0.14403,20.8883,866.856,0.151329,0.0,0.0
864,215.75,100.45,107.204,122.558,100.81,99.2248,0.00485973,0.139333,20.8904,866.786,0.153298,0.0,0.0
876,218.75,98.277,102.845,124.565,100.807,99.2589,0.00494402,0.135387,20.8929,866.816,0.149702,0.0,0.0
888,221.75,96.714,100.947,120.354,100.819,98.6057,0.00488991,0.131902,20.8936,866.836,0.214735,0.0,0.0
900,224.75,95.1149,97.7713,126.384,100.819,98.9345,0.00479284,0.129197,20.8938,866.866,0.182493,0.0,0.0
912,227.75,93.7372,95.759,123.552,100.819,99.0174,0.00460869,0.127308,20.8892,866.826,0.174361,0.0,0.0
924,230.75,92.8757,93.316,123.577,100.811,98.4628,0.00457624,0.125871,20.8859,866.846,0.227984,0.0,0.0
936,233.75,90.7947,91.5614,123.641,100.818,98.6532,0.00445118,0.124915,20.8845,866.816,0.20996,0.0,0.0
948,236.75,89.4097,89.9701,126.084,100.825,98.021,0.00435455,0.124229,20.882,866.816,0.272758,0.0,0.0
960,239.75,88.1981,88.0599,125.507,100.822,97.924,0.00453249,0.123562,20.8805,866.796,0.282104,0.0,0.0
972,242.75,86.3365,86.2924,123.891,100.81,97.8952,0.00468922,0.122453,20.88,866.786,0.283782,0.0,0.0
984,245.75,85.8972,85.2861,125.166,100.813,97.9382,0.00456629,0.121341,20.8813,866.766,0.279843,0.0,0.0
996,248.75,84.456,83.3461,125.989,100.802,97.6617,0.00454645,0.120045,20.8845,866.796,0.306135,0.0,0.0
1008,251.75,83.8578,81.9935,121.69,100.788,97.6516,0.0045715,0.118857,20.8876,866.776,0.305737,0.0,0.0
1020,254.75,82.8983,80.8891,124.391,100.779,97.6865,0.0045526,0.117523,20.8902,866.776,0.301422,0.0,0.0
1032,257.75,81.5266,79.1114,124.001,100.761,97.5996,0.00470986,0.116334,20.8911,866.806,0.308353,0.0,0.0
1044,260.75,81.118,78.6445,125.779,100.727,97.6012,0.00478424,0.115414,20.8924,866.796,0.304878,0.0,0.0
1056,263.75,80.0406,77.7875,126.956,100.712,97.3106,0.00475394,0.114587,20.893,866.786,0.332325,0.0,0.0
1068,266.75,79.8859,76.6957,124.612,100.68,97.4632,0.00469202,0.11384,20.8933,866.746,0.314083,0.0,0.0
1080,269.75,77.8121,75.4481,125.568,100.646,97.3357,0.00461314,0.113235,20.8939,866.756,0.323504,0.0,0.0
1092,272.75,77.2455,75.1411,126.293,100.607,97.1567,0.00445401,0.112933,20.893,866.736,0.337565,0.0,0.0
1104,275.75,77.0731,73.9994,124.091,100.59,96.8847,0.00456615,0.112662,20.8917,866.756,0.363004,0.0,0.0
1116,278.75,76.0749,73.4706,125.658,100.532,96.9768,0.00467728,0.112354,20.8913,866.786,0.348263,0.0,0.0
1128,281.75,75.5489,72.5061,130.11,100.497,97.14,0.00472576,0.111739,20.892,866.756,0.328561,0.0,0.0
1140,284.75,74.8439,71.2674,128.57,100.447,97.127,,0.111201,,866.746,0.325124,0.0,0.0
1152,287.75,73.8558,71.055,126.616,100.382,96.7755,,,,866.726,0.353865,0.0,0.0
1164,290.75,73.0091,70.3328,125.356,100.328,96.57,,,,866.776,0.369291,0.0,0.0
1175,293.5,72.5892,68.9831,124,100.274,96.8936,,,,866.736,0.331652,0.0,0.0