File: 01_Data/LDPE/Cone/LDPE_Cone_HF50Scan_220202_R2.csv
Names,Time,Stack TC,Smoke TC,Exh Press,Smoke Comp,Smoke Meas,CO Meter,CO2 Meter,O2 Meter,Sample Mass,Ext Coeff,Start Test,Flame Verif
Chan Gain,,500,500,1,1,1,1,1,1,1,1,1.0,1.0
Offset,,0,0,0.14021,0,0,0,0,0,0,0,0.0,0.0
Gain,,1,1,25.011,13.3046,13.3037,1,1,1,1.00087,1.10262,1.0,1.0
Units,sec,C,C,Pa,%,%,%,%,%,g,/m,,
Baseline,,31.2643,33.6804,137.454,100.095,102.725,0.00474352,0.109076,20.8916,-1.58443,-0.250777,,
12,2.75,28.0687,29.2463,136.888,101.016,104.243,0.00460008,0.116729,20.8828,896.172,-0.304152,0.0,0.0
24,5.75,27.9376,29.9043,137.277,101.151,103.149,0.00457785,0.116413,20.8839,905.58,-0.189157,0.0,0.0
36,8.75,28.3995,29.173,138.195,101.233,104.59,0.0046709,0.116205,20.8848,936.447,-0.315454,0.0,0.0
48,11.75,28.5751,30.3649,138.532,101.252,104.914,0.00481573,0.11568,20.8864,946.045,-0.343661,0.0,0.0
60,14.75,28.8171,29.9376,140.064,101.233,103.955,0.00479988,0.114716,20.8879,955.313,-0.25663,0.0,0.0
72,17.75,28.3392,30.6672,138.875,101.161,104.059,0.0046343,0.11352,20.89,957.355,-0.273166,0.0,0.0
84,20.75,29.2095,31.1228,135.233,101.052,103.978,0.00445056,0.112352,20.8907,945.705,-0.276102,0.0,0.0
96,23.75,28.8114,30.9099,137.549,100.896,104.108,0.00439941,0.111623,20.8915,926.138,-0.303114,0.0,0.0
108,26.75,29.1109,30.9805,140.37,100.683,103.819,0.00434854,0.111337,20.8916,906.071,-0.296675,0.0,0.0
120,29.75,29.5214,31.1756,140.175,100.432,103.407,0.00442962,0.111485,20.89,893.249,-0.282343,0.0,0.0
132,32.75,29.8109,31.6299,132.216,100.358,103.037,0.004589,0.111841,20.8886,889.886,-0.254807,0.0,0.0
144,35.75,29.1872,31.582,135.958,100.409,103.064,0.00495013,0.112487,20.8866,887.394,-0.252469,0.0,0.0
156,38.75,30.2402,32.0387,134.664,100.48,103.435,0.0052522,0.113919,20.881,896.062,-0.280312,0.0,0.0
168,41.75,29.9301,32.8652,133.555,100.562,103.01,0.00561932,0.119572,20.8597,895.962,-0.232627,0.0,1.0
180,44.75,30.8075,33.026,132.93,100.644,102.777,0.00576933,0.13351,20.8224,895.962,-0.202836,0.0,0.0
192,47.75,31.2273,34.3863,132.001,100.756,102.547,0.005758,0.152753,20.7872,895.882,-0.170385,0.0,0.0
204,50.75,32.8355,36.3458,129.905,100.853,101.649,0.00577109,0.176317,20.7317,895.862,-0.0760361,0.0,0.0
216,53.75,33.8631,37.6485,134.112,100.91,99.6917,0.00582565,0.201595,20.6856,895.761,0.11751,0.0,0.0
228,56.75,35.2622,39.9887,130.04,100.928,97.3881,0.00599828,0.228232,20.6306,895.721,0.345303,0.0,0.0
240,59.75,37.1579,42.4526,124.959,100.912,96.747,0.00649351,0.25973,20.5638,895.551,0.407665,0.0,0.0
252,62.75,38.768,44.7264,123.505,100.839,93.0947,0.00723502,0.298179,20.4836,895.381,0.772863,0.0,0.0
264,65.75,40.8888,48.0153,121.109,100.74,90.4285,0.00826176,0.34153,20.3959,895.171,1.04444,0.0,0.0
276,68.75,43.4922,51.9604,116.575,100.608,88.8102,0.00927432,0.390534,20.3094,894.981,1.20642,0.0,0.0
288,71.75,47.317,57.05,118.362,100.463,85.1745,0.0103042,0.449874,20.1593,894.771,1.59672,0.0,0.0
300,74.75,50.7375,61.951,114.757,100.295,81.2344,0.0113455,0.53162,20.0032,894.41,2.03864,0.0,0.0
312,77.75,54.596,67.7115,106.333,100.111,80.2328,0.0127355,0.618142,19.8247,894.07,2.14088,0.0,0.0
324,80.75,59.513,74.9791,105.935,99.946,77.6624,0.0141475,0.717599,19.6221,893.69,2.43987,0.0,0.0
336,83.75,65.1642,83.3608,97.6462,99.7897,78.0014,0.0161729,0.836881,19.3886,893.229,2.3826,0.0,0.0
348,86.75,70.9499,92.8658,100.718,99.6723,73.8266,0.0186993,0.960532,19.1763,892.819,2.90327,0.0,0.0
360,89.75,77.1917,101.682,92.2881,99.6098,75.5906,0.0215935,1.08438,18.9626,892.328,2.66881,0.0,0.0
372,92.75,84.0208,112.232,81.4083,99.611,71.3305,0.0246393,1.24209,18.6904,891.718,3.22999,0.0,0.0
384,95.75,91.8617,124.018,85.556,99.6671,71.4706,0.0284182,1.41141,18.3857,891.067,3.21645,0.0,0.0
396,98.75,99.4535,136.382,80.4916,99.773,68.1719,0.0326431,1.61178,18.0045,890.537,3.68377,0.0,0.0
408,101.75,108.682,150.833,80.9496,99.9257,69.0172,0.0374141,1.86054,17.5593,889.676,3.57937,0.0,0.0
420,104.75,119.207,167.69,80.4451,100.105,67.949,0.043341,2.14924,17.042,888.805,3.74759,0.0,0.0
432,107.75,127.925,182.899,69.6638,100.29,66.1224,0.0495348,2.47341,16.5068,887.995,4.02899,0.0,0.0
444,110.75,138.234,200.416,63.9957,100.474,68.9542,0.0565057,2.81429,15.9189,887.024,3.64111,0.0,0.0
456,113.75,147.821,217.186,70.3714,100.694,66.055,0.0636436,3.23861,15.2268,885.793,4.07773,0.0,0.0
468,116.75,157.797,234.058,52.9885,100.872,69.8706,0.0711468,3.61683,14.7182,884.632,3.55169,0.0,0.0
480,119.75,168.159,252.801,67.2931,101.056,70.1994,0.0781502,4.14501,13.8635,883.371,3.52389,0.0,0.0
492,122.75,178.665,270.916,72.7238,101.213,68.3529,0.0821661,4.65816,13.1293,882.15,3.79669,0.0,0.0
504,125.75,188.557,288.194,57.2163,101.361,74.9861,0.0828155,5.04841,12.6394,880.889,2.91503,0.0,0.0
516,128.75,198.286,304.374,61.296,101.465,73.2919,0.0823787,5.33199,12.3587,879.567,3.14602,0.0,0.0
528,131.75,205.488,314.571,61.8868,101.531,72.2635,0.0814875,5.44193,12.3329,878.336,3.28893,0.0,0.0
540,134.75,211.382,322.489,58.3986,101.562,75.0027,0.0798737,5.50524,12.2809,877.155,2.93208,0.0,0.0
552,137.75,217.892,332.986,70.4607,101.564,69.3769,0.0778275,5.61922,12.154,875.854,3.68635,0.0,0.0
564,140.75,223.569,340.619,55.0853,101.526,71.592,0.0764697,5.67418,12.1313,874.723,3.37876,0.0,0.0
576,143.75,228.624,346.758,70.5324,101.465,73.622,0.0759845,5.67956,12.1836,873.392,3.10248,0.0,0.0
588,146.75,231.836,350.855,67.5503,101.373,70.9391,0.0751945,5.62749,12.3764,872.221,3.45277,0.0,0.0
600,149.75,233.605,351.569,71.4438,101.267,68.0704,0.07419,5.45536,12.7452,871.09,3.84192,0.0,0.0
612,152.75,234.311,350.5,63.0561,101.153,61.1892,0.0721085,5.24042,13.0788,870.169,4.86183,0.0,0.0
624,155.75,234.27,346.823,71.83,101.032,66.3449,0.0687234,4.94117,13.6703,869.268,4.06781,0.0,0.0
636,158.75,233.074,340.85,68.5334,100.944,62.49,0.0634844,4.55971,14.3071,868.368,4.63831,0.0,0.0
648,161.75,229.202,330.91,83.6493,100.846,65.1748,0.0568429,4.09151,15.052,867.797,4.2221,0.0,0.0
660,164.75,223.006,317.467,84.6156,100.777,68.5823,0.0483649,3.53145,16.0219,867.096,3.72253,0.0,0.0
672,167.75,214.754,300.611,93.5917,100.757,72.8826,0.0386333,2.92808,17.2068,866.746,3.13244,0.0,0.0
684,170.75,204.217,281.066,106.408,100.93,83.9306,0.0294776,2.32344,18.2459,866.586,1.78388,0.0,0.0
696,173.75,190.376,257.277,119.108,101.043,95.1328,0.0209409,1.74935,19.1505,866.466,0.582967,0.0,0.0
708,176.75,175.958,234.049,119.051,101.151,100.23,0.0149261,1.26623,19.9213,866.496,0.0884712,0.0,0.0
720,179.75,163.569,214.155,120.292,101.225,100.086,0.0114758,0.910307,20.3573,866.456,0.109452,0.0,0.0
732,182.75,153.787,197.577,118.5,101.278,99.4757,0.00956298,0.676288,20.5886,866.436,0.173645,0.0,0.0
744,185.75,144.736,182.771,122.062,101.301,99.9049,0.0081094,0.51686,20.7045,866.456,0.134218,0.0,0.0
756,188.75,137.132,169.761,120.229,101.29,99.8046,0.00687941,0.414655,20.7775,866.446,0.142885,0.0,0.0
768,191.75,130.448,158.807,124.155,101.266,99.2321,0.00611911,0.340495,20.8157,866.506,0.196273,0.0,0.0
780,194.75,124.474,148.98,123.606,101.22,99.3312,0.00571545,0.295194,20.8396,866.486,0.1822,0.0,0.0
792,197.75,118.715,140.895,124.942,101.153,99.5667,0.0055609,0.255116,20.8551,866.486,0.152855,0.0,0.0
804,200.75,114.774,133.227,122.476,101.063,99.2934,0.00546623,0.226477,20.8645,866.486,0.170851,0.0,0.0
816,203.75,110.626,126.697,118.444,100.947,98.9362,0.00519913,0.205511,20.8728,866.516,0.194596,0.0,0.0
828,206.75,106.828,120.716,121.589,100.799,98.246,0.00505892,0.189282,20.8786,866.466,0.248136,0.0,0.0
840,209.75,103.585,115.831,121.245,100.619,98.4445,0.00494041,0.177226,20.8789,866.496,0.211297,0.0,0.0
852,212.75,100.788,110.653,121.441,100.42,97.9516,0.00486673,0.166674,20.8801,866.486,0.240699,0.0,0.0
864,215.75,98.2419,106.683,122.527,100.408,97.8388,0.00480042,0.158765,20.8824,866.476,0.250678,0.0,0.0
876,218.75,95.2813,101.831,121.323,100.419,97.9435,0.00483291,0.152058,20.8848,866.466,0.241384,0.0,0.0
888,221.75,93.8202,99.4307,123.355,100.447,97.771,0.00476741,0.146829,20.8859,866.446,0.261176,0.0,0.0
900,224.75,91.8978,96.1024,127.519,100.475,97.7125,0.00472721,0.142211,20.8878,866.416,0.269697,0.0,0.0
912,227.75,90.0221,93.0733,122.477,100.518,97.9001,0.00478016,0.138512,20.8901,866.436,0.255251,0.0,0.0
924,230.75,88.2541,90.841,125.732,100.566,97.5408,0.00466386,0.134907,20.8885,866.436,0.295462,0.0,0.0
936,233.75,86.3976,88.3626,124.867,100.616,98.1579,0.00455825,0.132408,20.8873,866.456,0.239187,0.0,0.0
948,236.75,84.9052,86.6239,125.289,100.666,97.6236,0.00458702,0.129867,20.888,866.436,0.296855,0.0,0.0
960,239.75,83.4102,84.5115,126.483,100.687,97.7888,0.00468996,0.127647,20.8888,866.416,0.282448,0.0,0.0
972,242.75,82.6579,82.4759,126.229,100.739,97.868,0.00472836,0.125623,20.889,866.436,0.279651,0.0,0.0
984,245.75,80.5917,80.5404,126.284,100.775,97.7726,0.00456321,0.123832,20.8904,866.446,0.292515,0.0,0.0
996,248.75,80.3316,79.8591,127.134,100.813,97.9999,0.00441554,0.12252,20.8905,866.436,0.273751,0.0,0.0
1008,251.75,79.1307,78.453,124.826,100.836,98.5078,0.00441906,0.121475,20.8905,866.466,0.225895,0.0,0.0
1020,254.75,77.8204,76.587,125.31,100.863,97.7251,0.00440231,0.120296,20.8888,866.436,0.305668,0.0,0.0
1032,257.75,77.4049,75.7771,125.627,100.873,97.6146,0.00448154,0.11899,20.8889,866.476,0.317576,0.0,0.0
1044,260.75,76.6742,74.8588,126.77,100.894,98.4417,0.00454794,0.11803,20.889,866.436,0.237962,0.0,0.0
1056,263.75,75.706,73.5416,125.809,100.909,98.6658,0.00442888,0.117343,20.889,866.466,0.217448,0.0,0.0
1068,266.75,74.6379,72.8871,124.899,100.935,98.6349,0.00437582,0.11701,20.8886,866.476,0.223002,0.0,0.0
1080,269.75,74.0973,72.2101,129.024,100.913,98.0081,0.00437362,0.116774,20.8883,866.476,0.282487,0.0,0.0
1092,272.75,73.5721,71.223,124.288,100.934,98.2395,0.00430095,0.116756,20.8865,866.426,0.261702,0.0,0.0
1104,275.75,72.083,69.9815,127.69,100.936,98.7108,0.00434646,0.116548,20.8861,866.446,0.215638,0.0,0.0
1116,278.75,71.7584,69.7448,123.889,100.929,98.2622,0.00446536,0.116389,20.8875,866.406,0.258995,0.0,0.0
1128,281.75,71.6902,68.8714,131.562,100.933,99.0474,0.00456244,0.116132,20.8865,866.426,0.182366,0.0,0.0
1140,284.75,70.6273,67.6498,130.73,100.929,98.8513,0.00440615,0.115952,20.886,866.436,0.201144,0.0,0.0
1152,287.75,69.8613,67.6332,128.723,100.93,98.2581,,0.115681,,866.406,0.259474,0.0,0.0
1164,290.75,69.1847,66.7378,127.276,100.926,98.1603,,,,866.446,0.26876,0.0,0.0
1176,293.75,68.4829,65.9771,130.082,100.929,99.2313,,,,866.436,0.164033,0.0,0.0
1185,296,68.2773,65.4161,124.459,100.916,97.7003,,,,866.436,0.313179,0.0,0.0