File: 01_Data/LDPE/Cone/LDPE_Cone_HF75Scalar_220202_R2.csv
LABORATORY,FSRI
TEST IDENT,LDPE_HF75_2
OPERATOR,Dow
MATERIAL,LDPE
ORIENTATION,Horizontal
HEAT FLUX,75
SURF AREA,0.01
C FACTOR,0.0415673
SPEC HOLDER DIFF,301.4
SPECIMEN MASS,30
SCAN TIME,0.25
O2 DELAY TIME,11
CO DELAY TIME,11
CO2 DELAY TIME,8
FLOW FACTOR,1
SCAN COUNT,946
TIME TO IGN,27
END OF TEST SCAN,466
END OF TEST TIME,116.5
TEST STATUS,1
PRE TEST CMT,Dimensions: 100.12 x 99.98 x 3.06 mm
POST TEST CMT,see test pictures