File: 01_Data/LDPE/Cone/LDPE_Cone_HF75Scan_220202_R1.csv
Names,Time,Stack TC,Smoke TC,Exh Press,Smoke Comp,Smoke Meas,CO Meter,CO2 Meter,O2 Meter,Sample Mass,Ext Coeff,Start Test,Flame Verif
Chan Gain,,500,500,1,1,1,1,1,1,1,1,1.0,1.0
Offset,,0,0,0.14021,0,0,0,0,0,0,0,0.0,0.0
Gain,,1,1,25.011,13.3046,13.3037,1,1,1,1.00087,1.10262,1.0,1.0
Units,sec,C,C,Pa,%,%,%,%,%,g,/m,,
Baseline,,28.6401,31.9155,138.912,100.505,105.441,0.00453622,0.106403,20.8961,-1.59502,-0.463682,,
10,2.25,26.2499,29.261,137.123,100.603,105.589,0.00469189,0.114318,20.8908,896.242,-0.467848,0.0,0.0
20,4.75,26.9141,29.5627,137.812,100.617,105.642,0.00465629,0.113571,20.8925,933.284,-0.471352,0.0,0.0
30,7.25,27.3229,29.8487,139.756,100.618,104.705,0.00466049,0.113089,20.8939,956.705,-0.385177,0.0,0.0
40,9.75,27.2886,29.9644,136.747,100.637,105.214,0.00465266,0.112555,20.8951,963.801,-0.430258,0.0,0.0
50,12.25,28.492,30.6411,136.815,100.633,105.636,0.00461313,0.111903,20.8955,969.946,-0.46931,0.0,0.0
60,14.75,27.8606,30.3941,137.421,100.606,105.369,0.00472602,0.111389,20.8936,969.316,-0.447434,0.0,0.0
70,17.25,28.4154,30.9389,139.198,100.537,106.069,0.00493742,0.111652,20.891,956.064,-0.518106,0.0,0.0
80,19.75,28.4915,31.0051,136.131,100.462,105.18,0.00518709,0.112665,20.8864,921.774,-0.443919,0.0,0.0
90,22.25,28.2865,31.3886,137.356,100.365,104.788,0.00557323,0.116024,20.8756,900.466,-0.417171,0.0,0.0
100,24.75,28.9558,32.0644,137.237,100.254,103.837,0.00589294,0.123915,20.8537,889.266,-0.339655,0.0,0.0
110,27.25,29.4239,33.2383,133.866,100.12,103.904,0.00571604,0.137847,20.8244,885.683,-0.358828,0.0,1.0
120,29.75,30.3097,33.8763,128.01,99.9813,103.569,0.00554789,0.161113,20.7609,888.405,-0.340984,0.0,1.0
130,32.25,30.8886,35.4725,129.061,99.8246,97.0771,0.00596454,0.192615,20.6777,895.471,0.269939,0.0,1.0
140,34.75,33.322,38.2326,128.802,99.6906,93.9416,0.00692984,0.234284,20.5839,895.742,0.574505,0.0,0.0
150,37.25,35.2494,41.3137,121.778,99.5335,89.6409,0.0079853,0.288651,20.4534,895.631,1.0125,0.0,0.0
160,39.75,38.3631,45.2109,116.83,99.4234,87.8322,0.00925329,0.351571,20.3263,895.371,1.19895,0.0,0.0
170,42.25,41.1395,50.1693,109.079,99.3167,84.4714,0.0106029,0.4233,20.1632,895.231,1.56592,0.0,0.0
180,44.75,44.5447,54.9286,116.238,99.2334,81.4215,0.0120873,0.502155,19.9875,894.981,1.91348,0.0,0.0
190,47.25,48.2659,60.9758,97.7531,99.1944,76.3031,0.0143373,0.589496,19.8382,894.681,2.53765,0.0,0.0
200,49.75,53.653,68.3066,102.058,99.1693,73.4701,0.0170177,0.702336,19.6476,894.32,2.90114,0.0,0.0
210,52.25,60.1556,76.9017,85.3262,99.2046,72.3902,0.0202127,0.847071,19.2904,893.86,3.04782,0.0,0.0
220,54.75,66.6496,87.4242,79.5917,99.2432,71.2574,0.0241611,1.02213,18.9366,893.309,3.20412,0.0,0.0
230,57.25,75.1639,99.3667,89.1769,99.3264,68.357,0.0287789,1.23734,18.4859,892.809,3.61415,0.0,0.0
240,59.75,83.4675,112.055,85.8994,99.4283,64.6385,0.0345875,1.48982,18.0043,892.228,4.16507,0.0,0.0
250,62.25,92.2709,126.488,84.5919,99.5635,65.8098,0.0400736,1.76871,17.4699,891.468,4.00452,0.0,0.0
260,64.75,102.753,143.486,78.3911,99.6975,64.766,0.0475876,2.09506,16.8712,890.727,4.17216,0.0,0.0
270,67.25,113.882,162.124,60.116,99.8603,66.254,0.0561589,2.52633,16.1813,889.826,3.96825,0.0,0.0
280,69.75,126.11,182.954,61.3472,100.028,67.4054,0.0634563,3.03101,15.5372,889.076,3.81787,0.0,0.0
290,72.25,138.826,205.966,53.9457,100.179,65.554,0.0688127,3.58094,14.6095,887.835,4.10183,0.0,0.0
300,74.75,151.417,229.074,77.0859,100.342,68.7764,0.0719582,4.22869,13.5126,886.744,3.65337,0.0,0.0
310,77.25,164.742,256.078,43.5537,100.494,68.0574,0.0750283,4.93903,12.3847,885.583,3.76965,0.0,0.0
320,79.75,176.147,278.499,54.2197,100.646,72.0142,0.0759592,5.57794,11.5119,884.412,3.23773,0.0,0.0
330,82.25,188.533,301.393,58.3735,100.769,72.8607,0.0740097,6.12222,10.807,883.19,3.13648,0.0,0.0
340,84.75,200.525,323.006,51.6108,100.898,82.2286,0.069542,6.72995,9.88579,881.769,1.97899,0.0,0.0
350,87.25,213.169,344.387,52.8328,100.968,81.5892,0.0655563,7.34571,9.10355,880.528,2.06119,0.0,0.0
360,89.75,224.391,364.408,31.9489,101.062,81.5283,0.0640325,7.83487,8.52081,879.147,2.07739,0.0,0.0
370,92.25,233.365,380.27,67.7793,101.112,69.763,0.0667575,8.11306,8.28095,877.836,3.58957,0.0,0.0
380,94.75,237.653,384.625,39.906,101.19,75.1083,0.0715321,8.01081,8.62793,876.595,2.883,0.0,0.0
390,97.25,242.674,389.208,60.7526,101.203,70.4186,0.0762434,7.79192,9.0756,875.484,3.50775,0.0,0.0
400,99.75,246.762,394.113,39.4961,101.228,74.0072,0.0788541,7.59187,9.33445,874.243,3.02941,0.0,0.0
410,102.25,251.609,398.83,53.6358,101.227,65.8723,0.0809102,7.53487,9.4011,872.922,4.15559,0.0,0.0
420,104.75,254.869,402.975,66.7512,101.22,67.1764,0.0819455,7.56634,9.29973,871.751,3.96533,0.0,0.0
430,107.25,259.878,410.404,56.5981,101.212,67.9847,0.0820347,7.6856,9.11923,870.64,3.84886,0.0,0.0
440,109.75,263.117,414.688,58.8383,101.18,68.2864,0.0820147,7.71118,9.1462,869.419,3.80298,0.0,0.0
450,112.25,265.259,414.436,60.6076,101.16,60.9297,0.0823237,7.50958,9.61837,868.448,4.90355,0.0,0.0
460,114.75,265.115,410.544,64.1766,101.11,59.4101,0.078551,7.01138,10.7253,867.547,5.1431,0.0,0.0
470,117.25,259.867,394.974,86.6856,101.064,71.0276,0.0686465,5.95283,12.3914,867.257,3.41118,0.0,0.0
480,119.75,244.428,364.868,108.419,101.008,98.6471,0.0488704,4.79274,14.993,867.257,0.22877,0.0,0.0
490,122.25,226.753,333.001,115.879,100.964,100.303,0.0335813,3.32672,17.3781,867.247,0.0635451,0.0,0.0
500,124.75,211.398,305.7,116.34,100.906,100.196,0.0231807,2.31858,18.8732,867.217,0.0682838,0.0,0.0
510,127.25,198.036,281.516,116.755,100.873,100.476,0.0169975,1.62928,19.7615,867.217,0.0380882,0.0,0.0
520,129.75,186.273,261.859,115.511,100.811,100.091,0.0134466,1.17243,20.1938,867.187,0.0693668,0.0,0.0
530,132.25,175.512,242.65,115.487,100.786,100.207,0.0111999,0.877088,20.4258,867.177,0.0557769,0.0,0.0
540,134.75,166.04,225.459,117.781,100.723,99.9645,0.00993,0.685646,20.5715,867.177,0.0731186,0.0,0.0
550,137.25,159.399,213.109,115.803,100.705,100.113,0.00907368,0.552096,20.6604,867.167,0.0569989,0.0,0.0
560,139.75,151.933,199.772,115.869,100.677,99.8931,0.0083317,0.457129,20.7199,867.107,0.0756289,0.0,0.0
570,142.25,145.42,188.8,119.248,100.637,99.3454,0.00765298,0.387746,20.7651,867.117,0.124942,0.0,0.0
580,144.75,140.171,178.916,119.029,100.599,99.6872,0.00733799,0.333853,20.7937,867.127,0.0880885,0.0,0.0
590,147.25,134.611,169.47,116.261,100.584,99.4522,0.00699973,0.294014,20.8165,867.076,0.109479,0.0,0.0
600,149.75,130.71,161.367,119.974,100.542,99.7035,0.00659697,0.261155,20.8328,867.107,0.0810066,0.0,0.0
610,152.25,125.928,153.688,120.38,100.519,98.9333,0.00634974,0.236642,20.843,867.086,0.153822,0.0,0.0
620,154.75,122.326,147.588,119.325,100.511,98.8286,0.00621092,0.216716,20.8508,867.086,0.163248,0.0,0.0
630,157.25,118.701,141.38,118.733,100.48,98.4465,0.00599798,0.200806,20.8565,867.066,0.19778,0.0,0.0
640,159.75,115.916,136.004,118.425,100.462,98.8862,0.00584904,0.18823,20.8613,867.086,0.152879,0.0,0.0
650,162.25,112.144,130.343,123.339,100.442,98.3605,0.00569508,0.176621,20.867,867.066,0.202564,0.0,0.0
660,164.75,110.89,127.266,120.203,100.457,98.3531,0.00564864,0.167611,20.8706,867.056,0.20469,0.0,0.0
670,167.25,108.013,123.177,122.196,100.411,98.218,0.00561734,0.160121,20.8748,867.056,0.213615,0.0,0.0
680,169.75,104.631,118.693,119.163,100.429,98.127,0.00543341,0.15261,20.8789,867.036,0.224257,0.0,0.0
690,172.25,103.71,115.337,121.186,100.464,98.222,0.00520394,0.146888,20.8811,867.006,0.218299,0.0,0.0
700,174.75,101.991,112.516,118.671,100.504,98.44,0.00511087,0.142268,20.883,867.036,0.200684,0.0,0.0
710,177.25,100.014,109.911,120.166,100.534,98.3499,0.00506331,0.138491,20.885,867.026,0.212435,0.0,0.0
720,179.75,98.9386,107.304,122.415,100.575,98.0296,0.00501882,0.135092,20.8867,867.056,0.247933,0.0,0.0
730,182.25,97.3064,104.959,120.389,100.609,98.2074,0.00501233,0.132321,20.8879,867.026,0.233683,0.0,0.0
740,184.75,95.5605,102.788,119.459,100.639,98.468,0.00490239,0.130037,20.8888,867.006,0.210973,0.0,0.0
750,187.25,94.284,100.43,120.432,100.682,98.22,0.0047347,0.128002,20.8894,866.986,0.239428,0.0,0.0
760,189.75,93.1333,98.5368,121.054,100.687,98.5704,0.00464037,0.126171,20.8857,866.976,0.205493,0.0,0.0
770,192.25,91.3875,96.8169,120.819,100.706,98.1956,0.0046799,0.124129,20.8865,866.976,0.244206,0.0,0.0
780,194.75,91.0722,95.0403,124.123,100.729,98.3531,0.00481933,0.122366,20.8886,866.976,0.230846,0.0,0.0
790,197.25,89.4749,93.5117,118.694,100.75,98.3592,0.00477445,0.120629,20.8909,866.986,0.232236,0.0,0.0
800,199.75,89.017,91.9541,121.207,100.749,98.3998,0.00462942,0.11904,20.8931,866.966,0.228205,0.0,0.0
810,202.25,88.1518,90.5655,124.408,100.759,98.1591,0.00457209,0.117789,20.8956,867.016,0.252835,0.0,0.0
820,204.75,86.3535,89.732,122.908,100.776,98.2914,0.00468126,0.116906,20.8968,866.976,0.2414,0.0,0.0
830,207.25,85.7362,87.8291,121.433,100.786,97.7519,0.00478285,0.116225,20.8972,866.946,0.295693,0.0,0.0
840,209.75,85.108,87.1474,122.192,100.769,98.2898,0.00490753,0.115676,20.8969,866.956,0.240897,0.0,0.0
850,212.25,83.6052,85.1138,127.476,100.773,97.6691,0.00509881,0.115182,20.893,866.956,0.302644,0.0,0.0
860,214.75,83.1221,85.2912,127.59,100.775,98.0292,0.00509099,0.114709,20.8911,866.936,0.267164,0.0,0.0
870,217.25,82.6133,83.2666,122.087,100.766,98.0937,0.00486525,0.113886,20.8919,866.926,0.259939,0.0,0.0
880,219.75,82.0102,83.5018,121.035,100.758,98.3418,0.00471799,0.113346,20.8926,866.936,0.23481,0.0,0.0
890,222.25,81.8907,82.4191,124.268,100.753,97.9191,0.00465804,0.112813,20.8941,866.936,0.275921,0.0,0.0
900,224.75,80.3916,81.9032,126.293,100.734,97.9321,0.00469805,0.112261,20.8951,866.886,0.272885,0.0,0.0
910,227.25,78.8067,79.3187,127.301,100.732,97.9524,0.00473592,0.111793,20.8962,866.986,0.270607,0.0,0.0
920,229.75,79.4929,79.3183,125.703,100.726,97.7052,,0.111452,,866.936,0.294468,0.0,0.0
930,232.25,78.3848,79.2092,122.763,100.699,98.1323,,,,866.906,0.249745,0.0,0.0
940,234.75,77.9337,78.3782,124.463,100.696,97.6958,,,,866.896,0.292584,0.0,0.0
950,237.25,76.8092,77.1818,123.456,100.67,98.6382,,,,866.896,0.197205,0.0,0.0
960,239.75,76.8564,77.1937,122.462,100.676,97.7961,,,,866.886,0.280672,0.0,0.0