File: 01_Data/LDPE/Cone/LDPE_Cone_HF50Scalar_220202_R3.csv
LABORATORY,FSRI
TEST IDENT,LDPE_HF50_3
OPERATOR,Dow
MATERIAL,LDPE
ORIENTATION,Horizontal
HEAT FLUX,50
SURF AREA,0.01
C FACTOR,0.0415673
SPEC HOLDER DIFF,301.35
SPECIMEN MASS,30.1
SCAN TIME,0.25
O2 DELAY TIME,11
CO DELAY TIME,11
CO2 DELAY TIME,8
FLOW FACTOR,1
SCAN COUNT,1175
TIME TO IGN,40
END OF TEST SCAN,695
END OF TEST TIME,173.75
TEST STATUS,1
PRE TEST CMT,Dimensions: 100.10 x 100.05 x 3.08 mm
POST TEST CMT,sample spilled from foil pan