File: 01_Data/Engineered_Wood_Furniture/STA/N2/30K_min/Engineered_Wood_Furniture_STA_N2_30KData_22114_R1.csv
##Temp./Â°C,Time/min,Mass loss(subtr.2)/mg,DSC(subtr.2)/(mW/mg),Sensit./(uV/mW)
48.535,10.01,0.01645,0.006308327,1.07504
51.735,10.8843,0.01962964,0.15886,1.07363
54.935,11.11771,0.01945377,0.26663,1.0722
58.135,11.29797,0.01982827,0.35092,1.07077
61.335,11.45289,0.02084797,0.41973,1.06932
64.535,11.59348,0.02066844,0.47882,1.06786
67.735,11.72578,0.01998159,0.52964,1.06639
70.935,11.85185,0.01945301,0.57464,1.06491
74.135,11.97367,0.01885438,0.61533,1.06342
77.335,12.09252,0.01940247,0.65419,1.06191
80.535,12.20889,0.01833345,0.69034,1.0604
83.735,12.32306,0.01679027,0.72358,1.05888
86.935,12.43561,0.01545134,0.75715,1.05734
90.135,12.54665,0.01529491,0.78865,1.0558
93.335,12.65672,0.01527386,0.81554,1.05424
96.535,12.76603,0.01522969,0.83905,1.05267
99.735,12.87421,0.01250188,0.85578,1.0511
102.935,12.98231,0.01011336,0.86678,1.04951
106.135,13.09,0.0102,0.87043,1.04791
109.335,13.19699,0.00875159,0.87322,1.04631
112.535,13.3047,0.007569125,0.86997,1.04469
115.735,13.4117,0.006250052,0.86684,1.04307
118.935,13.5182,0.006252784,0.87914,1.04143
122.135,13.62432,0.00493998,0.8838,1.03979
125.335,13.7301,0.004939978,0.8837,1.03814
128.535,13.83511,0.003619967,0.87792,1.03647
131.735,13.9397,0.003619829,0.87286,1.0348
134.935,14.0436,0.00230007,0.86932,1.03312
138.135,14.1471,0.002300461,0.86328,1.03143
141.335,14.2501,0.0009899986,0.86311,1.02973
144.535,14.3527,0.00133392,0.86427,1.02802
147.735,14.4547,0.001650435,0.87197,1.02631
150.935,14.5563,0.000330098,0.87738,1.02458
154.135,14.6578,0.00033,0.88625,1.02285
157.335,14.7589,0.0003292491,0.89997,1.02111
160.535,14.8597,-0.0006537524,0.91496,1.01936
163.735,14.96031,-0.0009814736,0.93325,1.0176
166.935,15.0606,-0.001970931,0.94867,1.01584
170.135,15.16058,-0.002299999,0.97169,1.01406
173.335,15.26043,-0.00266873,0.99874,1.01228
176.535,15.36001,-0.004929996,1.02609,1.01049
179.735,15.45907,-0.004930109,1.06025,1.00869
182.935,15.55807,-0.00755296,1.09651,1.00689
186.135,15.65664,-0.007620445,1.13605,1.00507
189.335,15.7549,-0.009776627,1.17954,1.00325
192.535,15.85316,-0.01431261,1.22648,1.00143
195.735,15.9512,-0.01709165,1.27867,0.99959
198.935,16.04903,-0.02126889,1.33048,0.99775
202.135,16.14663,-0.02476663,1.38613,0.9959
205.335,16.2442,-0.03097768,1.44567,0.99404
208.535,16.34197,-0.03918975,1.50659,0.99218
211.735,16.43946,-0.04646,1.57436,0.99031
214.935,16.53709,-0.05279044,1.63909,0.98843
218.135,16.63436,-0.06108714,1.70198,0.98655
221.335,16.73149,-0.07046085,1.75822,0.98466
224.535,16.82873,-0.0739027,1.80335,0.98276
227.735,16.92592,-0.09050828,1.83669,0.98086
230.935,17.02313,-0.10082,1.85613,0.97895
234.135,17.12002,-0.10869,1.85868,0.97703
237.335,17.21699,-0.1198,1.84521,0.97511
240.535,17.31393,-0.13141,1.8222,0.97318
243.735,17.41079,-0.14114,1.79526,0.97124
246.935,17.50745,-0.15198,1.76699,0.9693
250.135,17.60378,-0.16431,1.73037,0.96735
253.335,17.7003,-0.17511,1.69738,0.9654
256.535,17.79682,-0.18946,1.66496,0.96344
259.735,17.89347,-0.20348,1.63257,0.96147
262.935,17.9897,-0.21713,1.60335,0.9595
266.135,18.0865,-0.23218,1.56864,0.95752
269.335,18.18301,-0.24828,1.53183,0.95554
272.535,18.27935,-0.26765,1.48931,0.95355
275.735,18.37588,-0.28708,1.44348,0.95156
278.935,18.47239,-0.30749,1.39268,0.94956
282.135,18.569,-0.32884,1.34032,0.94755
285.335,18.6657,-0.35394,1.28133,0.94554
288.535,18.76237,-0.38141,1.2168,0.94352
291.735,18.85889,-0.4111,1.15119,0.9415
294.935,18.95523,-0.44459,1.07908,0.93948
298.135,19.05206,-0.47823,1.00508,0.93744
301.335,19.14873,-0.51484,0.93002,0.93541
304.535,19.24532,-0.55418,0.85681,0.93337
307.735,19.34217,-0.5951,0.78336,0.93132
310.935,19.43879,-0.63976,0.71637,0.92927
314.135,19.5356,-0.68645,0.65484,0.92721
317.335,19.63239,-0.73446,0.60492,0.92515
320.535,19.72918,-0.78651,0.56454,0.92308
323.735,19.82616,-0.83863,0.53536,0.92101
326.935,19.9233,-0.89465,0.51894,0.91894
330.135,20.02054,-0.94889,0.51677,0.91686
333.335,20.11796,-1.00817,0.5228,0.91477
336.535,20.21501,-1.06628,0.53559,0.91268
339.735,20.3129,-1.1293,0.55345,0.91059
342.935,20.41059,-1.19368,0.57281,0.90849
346.135,20.50839,-1.2612,0.59189,0.90639
349.335,20.60622,-1.33391,0.61701,0.90428
352.535,20.70434,-1.40868,0.64152,0.90217
355.735,20.80236,-1.49163,0.67097,0.90005
358.935,20.90031,-1.57426,0.69304,0.89793
362.135,20.9987,-1.66676,0.71667,0.89581
365.335,21.09714,-1.75975,0.73148,0.89368
368.535,21.19562,-1.86243,0.7378,0.89155
371.735,21.29416,-1.96326,0.7271,0.88941
374.935,21.39286,-2.06841,0.70016,0.88727
378.135,21.49156,-2.17151,0.64895,0.88513
381.335,21.5903,-2.26955,0.56447,0.88298
384.535,21.68909,-2.35709,0.46062,0.88083
387.735,21.78799,-2.42859,0.34891,0.87867
390.935,21.88695,-2.48212,0.25283,0.87651
394.135,21.98613,-2.51732,0.18718,0.87435
397.335,22.0853,-2.54097,0.14216,0.87218
400.535,22.18439,-2.55752,0.108,0.87001
403.735,22.284,-2.57114,0.08147301,0.86783
406.935,22.38371,-2.58454,0.05666776,0.86565
410.135,22.48345,-2.59592,0.0358902,0.86347
413.335,22.58318,-2.60923,0.01890562,0.86129
416.535,22.68311,-2.62059,0.006250394,0.8591
419.735,22.78311,-2.63051,-0.010112,0.8569
422.935,22.88312,-2.63966,-0.01547178,0.85471
426.135,22.98345,-2.65305,-0.0226153,0.85251
429.335,23.08362,-2.65955,-0.03040032,0.8503
432.535,23.1844,-2.67009,-0.02922132,0.8481
435.735,23.28493,-2.68036,-0.02613466,0.84589
438.935,23.38554,-2.68997,-0.02338631,0.84367
442.135,23.48633,-2.69941,-0.016087,0.84145
445.335,23.5872,-2.70828,-0.00520082,0.83923
448.535,23.68806,-2.71754,0.00626113,0.83701
451.735,23.7893,-2.72486,0.01877056,0.83478
454.935,23.8904,-2.73462,0.03457055,0.83255
458.135,23.99152,-2.74307,0.04521302,0.83032
461.335,24.093,-2.7505,0.06243625,0.82808
464.535,24.19426,-2.75794,0.07704955,0.82584
467.735,24.29588,-2.76647,0.0892553,0.8236
470.935,24.3975,-2.77194,0.10081,0.82135
474.135,24.49894,-2.77998,0.11426,0.81911
477.335,24.60067,-2.78727,0.12505,0.81685
480.535,24.7025,-2.79279,0.13009,0.8146
483.735,24.8045,-2.79984,0.14068,0.81234
486.935,24.90622,-2.80538,0.15197,0.81008
490.135,25.00818,-2.81301,0.15727,0.80782
493.335,25.11034,-2.81864,0.16316,0.80555
496.535,25.21247,-2.82412,0.17191,0.80328
499.735,25.31485,-2.82955,0.17317,0.80101
502.935,25.41713,-2.83512,0.1778,0.79873
506.135,25.5195,-2.84102,0.1848,0.79645
509.335,25.62252,-2.84547,0.18171,0.79417
512.535,25.7248,-2.8505,0.19101,0.79189
515.735,25.8278,-2.85486,0.19345,0.7896
518.935,25.93064,-2.8599,0.19425,0.78731
522.135,26.0336,-2.86323,0.19344,0.78502
525.335,26.13649,-2.86932,0.19463,0.78273
528.535,26.2393,-2.87269,0.19165,0.78043
531.735,26.3429,-2.87727,0.19091,0.77813
534.935,26.44623,-2.88195,0.18972,0.77583
538.135,26.5496,-2.88473,0.19505,0.77352
541.335,26.6531,-2.88904,0.19824,0.77122
544.535,26.7567,-2.89061,0.20264,0.76891
547.735,26.8602,-2.89473,0.20596,0.76659
550.935,26.9639,-2.89731,0.21014,0.76428
554.135,27.06777,-2.90122,0.21131,0.76196
557.335,27.17166,-2.90556,0.2141,0.75964
560.535,27.2757,-2.90864,0.21706,0.75732
563.735,27.38,-2.91117,0.21682,0.75499
566.935,27.4841,-2.91422,0.21243,0.75267
570.135,27.5884,-2.91649,0.21394,0.75034
573.335,27.69277,-2.91901,0.20765,0.748
576.535,27.797,-2.92278,0.20617,0.74567
579.735,27.90137,-2.92545,0.19852,0.74333
582.935,28.0055,-2.92854,0.19482,0.741
586.135,28.10991,-2.92927,0.19205,0.73865
589.335,28.21422,-2.9331,0.19017,0.73631
592.535,28.3192,-2.93726,0.185,0.73397
595.735,28.42408,-2.93926,0.18048,0.73162
598.935,28.52876,-2.94201,0.17937,0.72927
602.135,28.6335,-2.94449,0.1787,0.72692
605.335,28.73842,-2.94527,0.17775,0.72456
608.535,28.84318,-2.94735,0.17469,0.72221
611.735,28.9478,-2.95134,0.17436,0.71985
614.935,29.05272,-2.95392,0.1709,0.71749
618.135,29.158,-2.95714,0.16815,0.71513
621.335,29.26315,-2.95766,0.16858,0.71277
624.535,29.3682,-2.96025,0.16355,0.7104
627.735,29.4733,-2.96178,0.16554,0.70803
630.935,29.5786,-2.96427,0.15986,0.70566
634.135,29.68392,-2.96577,0.16191,0.70329
637.335,29.78908,-2.96912,0.16564,0.70092
640.535,29.89443,-2.97094,0.16141,0.69854
643.735,29.99982,-2.97347,0.16721,0.69617
646.935,30.10531,-2.97437,0.16865,0.69379
650.135,30.2106,-2.97691,0.17227,0.69141
653.335,30.31598,-2.9782,0.17634,0.68903
656.535,30.4213,-2.98028,0.17879,0.68664
659.735,30.52695,-2.9816,0.18611,0.68426
662.935,30.6325,-2.98421,0.18855,0.68187
666.135,30.73808,-2.98551,0.19117,0.67948
669.335,30.844,-2.98851,0.19173,0.67709
672.535,30.9497,-2.99081,0.19402,0.6747
675.735,31.0558,-2.99082,0.1963,0.67231
678.935,31.1618,-2.99406,0.19912,0.66991
682.135,31.26748,-2.99663,0.20189,0.66752
685.335,31.3736,-2.99673,0.20856,0.66512
688.535,31.47953,-2.99937,0.20003,0.66272
691.735,31.58575,-3.00201,0.19263,0.66032
694.935,31.6918,-3.00246,0.17224,0.65792
698.135,31.79795,-3.00619,0.13682,0.65552
701.335,31.90417,-3.00648,0.11355,0.65311
704.535,32.01036,-3.00891,0.08915058,0.65071
707.735,32.11683,-3.01035,0.06764998,0.6483
710.935,32.22319,-3.01115,0.0549048,0.6459
714.135,32.3297,-3.01384,0.04255386,0.64349
717.335,32.43645,-3.01387,0.03349822,0.64108
720.535,32.543,-3.01516,0.02974304,0.63867
723.735,32.64974,-3.01648,0.02226291,0.63626
726.935,32.75645,-3.01685,0.01446431,0.63384
730.135,32.86326,-3.0179,0.01359981,0.63143
733.335,32.97018,-3.01911,0.00530972,0.62902
736.535,33.07708,-3.02029,0.002716268,0.6266
739.735,33.18391,-3.02179,-0.004582377,0.62418
742.935,33.29091,-3.02179,-0.01166677,0.62177
746.135,33.398,-3.02305,-0.02404509,0.61935
749.335,33.50526,-3.023,-0.0297092,0.61693
752.535,33.6123,-3.02536,-0.02928431,0.61451
755.735,33.71945,-3.02438,-0.03429562,0.61209
758.935,33.82673,-3.0257,-0.03578476,0.60967
762.135,33.93377,-3.02701,-0.0445037,0.60725
765.335,34.0409,-3.02897,-0.05080413,0.60483
768.535,34.14823,-3.02896,-0.05599637,0.60241
771.735,34.25538,-3.0303,-0.05553912,0.59999
774.935,34.3628,-3.0303,-0.05692919,0.59756
778.135,34.47003,-3.03029,-0.06235458,0.59514
781.335,34.57727,-3.03063,-0.06821892,0.59272
784.535,34.68462,-3.03195,-0.06824601,0.5903
787.735,34.7919,-3.03326,-0.07443265,0.58787
790.935,34.89934,-3.03458,-0.06604775,0.58545
793.835,34.99667,-3.03458,-0.07320936,0.58325