File: 01_Data/PMMA_R01/MCC/PMMA_MCC_30K_min_210920_R1.txt
Sample ID:	C:\MCC\PMMA_MCC_30K_min_210920_R1.txt
Sample Weight (mg):	4.57
Heating Rate (C/s):	0.5
Combustor Temp (C):	900
N2 Flow Rate (cc/min):	80
O2 Flow Rate (cc/min):	20
Calibration File:	C:\MCC\MCC Cal\Coeff1 JN10440_30_210304.txt.txt
T Correction Coefficients:	0	1.024463	0
Time Shift (s):	14
*
Time (s)	Temperature (C)	N2 flow rate (cc/min)	O2 flow rate (cc/min)	Flow Rate (cc/min)	Oxygen (%)	HRR (W/g)	Heating rate (C/s)
0.001	105.721	79.997	19.994	99.804	20.386	0.130	0.012
8.000	105.655	79.995	19.994	99.815	20.384	0.277	0.016
16.000	105.744	79.996	19.995	99.872	20.375	0.857	0.016
24.002	106.036	79.994	19.995	99.992	20.355	2.257	0.076
32.000	106.836	79.994	19.994	100.036	20.345	2.932	0.104
40.000	108.178	79.995	19.995	100.044	20.339	3.332	0.209
48.001	109.919	79.996	19.995	100.045	20.341	3.183	0.216
56.001	111.964	79.993	19.995	100.045	20.337	3.484	0.277
64.001	114.294	79.994	19.993	100.074	20.331	3.899	0.321
72.001	116.970	79.996	19.994	100.096	20.330	3.934	0.334
80.000	119.900	79.996	19.995	100.101	20.327	4.183	0.381
88.001	123.024	79.995	19.994	100.096	20.322	4.504	0.389
96.001	126.414	79.996	19.994	100.093	20.323	4.435	0.438
104.000	129.943	79.994	19.994	100.093	20.314	5.039	0.451
112.000	133.549	79.992	19.996	100.105	20.310	5.303	0.445
120.001	137.364	79.994	19.994	100.088	20.301	5.920	0.498
128.000	141.164	79.996	19.995	100.106	20.292	6.530	0.466
136.000	145.133	79.993	19.995	100.097	20.280	7.391	0.494
144.000	149.101	79.994	19.995	100.085	20.266	8.354	0.502
152.000	153.118	79.997	19.994	100.102	20.251	9.333	0.482
160.000	157.119	79.997	19.994	100.082	20.232	10.624	0.483
168.000	161.179	79.995	19.995	100.087	20.219	11.549	0.498
176.000	165.244	79.997	19.995	100.077	20.203	12.658	0.521
184.001	169.282	79.995	19.995	100.076	20.196	13.106	0.498
192.000	173.295	79.994	19.995	100.085	20.190	13.519	0.483
200.000	177.285	79.993	19.997	100.065	20.188	13.642	0.459
208.000	181.280	79.994	19.994	100.073	20.199	12.935	0.516
216.001	185.269	79.994	19.995	100.065	20.199	12.884	0.500
224.000	189.227	79.994	19.993	100.067	20.207	12.345	0.466
232.000	193.199	79.996	19.994	100.053	20.213	11.977	0.481
240.000	197.123	79.996	19.993	100.045	20.212	12.039	0.502
248.000	201.045	79.996	19.995	100.042	20.215	11.806	0.469
256.000	204.979	79.996	19.994	100.065	20.210	12.157	0.493
264.001	208.920	79.994	19.995	100.047	20.207	12.383	0.490
272.000	212.816	79.994	19.995	100.050	20.201	12.746	0.472
280.000	216.700	79.993	19.995	100.063	20.198	12.935	0.509
288.000	220.594	79.994	19.995	100.058	20.192	13.392	0.481
296.000	224.545	79.993	19.996	100.057	20.184	13.922	0.508
304.000	228.429	79.994	19.995	100.065	20.178	14.305	0.459
312.000	232.339	79.996	19.994	100.048	20.179	14.241	0.466
320.001	236.274	79.995	19.995	100.041	20.182	14.026	0.494
328.000	240.138	79.997	19.994	100.058	20.199	12.914	0.477
336.000	244.056	79.998	19.993	100.041	20.219	11.558	0.475
344.000	248.022	79.994	19.994	100.041	20.234	10.527	0.458
352.000	252.090	79.993	19.996	100.048	20.234	10.506	0.489
360.001	256.070	79.994	19.994	100.049	20.227	11.005	0.499
368.000	260.135	79.994	19.995	100.068	20.201	12.791	0.502
376.000	264.152	79.994	19.996	100.068	20.161	15.497	0.482
384.000	268.217	79.992	19.996	100.075	20.109	19.034	0.515
392.001	272.312	79.996	19.994	100.076	20.057	22.588	0.525
400.000	276.279	79.996	19.995	100.079	19.994	26.937	0.522
408.000	280.328	79.996	19.995	100.088	19.943	30.413	0.494
416.000	284.322	79.997	19.995	100.099	19.871	35.335	0.494
424.000	288.357	79.995	19.994	100.074	19.827	38.344	0.499
432.001	292.384	79.995	19.994	100.084	19.782	41.382	0.489
440.000	296.400	79.995	19.997	100.081	19.760	42.873	0.489
448.000	300.421	79.996	19.996	100.065	19.768	42.337	0.482
456.000	304.436	79.996	19.995	100.038	19.820	38.788	0.522
464.000	308.488	79.993	19.996	100.038	19.873	35.146	0.500
472.000	312.576	79.996	19.995	100.042	19.927	31.500	0.524
480.000	316.594	79.996	19.994	100.076	19.937	30.800	0.493
488.000	320.684	79.996	19.994	100.056	19.929	31.367	0.502
496.000	324.652	79.997	19.994	100.085	19.883	34.498	0.501
504.000	328.652	79.998	19.995	100.038	19.832	37.981	0.505
512.000	332.623	79.995	19.995	100.118	19.750	43.624	0.491
520.000	336.647	79.997	19.995	100.084	19.675	48.708	0.504
528.002	340.791	79.996	19.995	100.177	19.473	62.581	0.623
536.000	344.594	79.995	19.996	100.216	19.338	71.774	0.533
544.000	348.587	79.995	19.995	100.220	19.131	86.372	0.517
552.000	352.580	79.997	19.995	100.191	18.946	98.463	0.523
560.000	356.586	79.995	19.996	99.986	18.702	115.435	0.485
568.000	360.612	79.996	19.995	100.247	18.628	120.370	0.466
576.000	364.696	79.999	19.994	100.245	18.415	135.058	0.520
584.000	368.726	79.998	19.994	100.246	18.248	146.434	0.501
592.000	372.737	79.995	19.995	100.248	18.100	156.583	0.537
600.000	376.710	79.996	19.996	100.249	17.997	163.604	0.511
608.000	380.716	79.995	19.994	100.238	17.954	166.509	0.488
616.000	384.725	79.994	19.994	100.221	17.994	163.702	0.481
624.000	388.748	79.994	19.995	100.190	18.122	154.909	0.506
632.000	392.805	79.997	19.995	100.150	18.322	141.170	0.523
640.000	396.957	79.996	19.995	100.107	18.585	123.125	0.529
648.001	400.994	79.996	19.996	100.072	18.880	102.993	0.479
656.000	405.127	79.997	19.995	100.042	19.189	81.842	0.512
664.000	409.177	79.997	19.994	100.033	19.479	62.033	0.496
672.000	413.328	79.995	19.995	100.017	19.723	45.375	0.521
680.000	417.330	79.996	19.995	100.011	19.925	31.623	0.521
688.000	421.399	79.997	19.994	100.076	20.062	22.218	0.496
696.000	425.510	79.995	19.993	100.011	20.159	15.627	0.522
704.000	429.596	79.997	19.994	100.011	20.217	11.675	0.499
712.000	433.725	79.996	19.996	99.999	20.266	8.307	0.525
720.001	437.799	79.994	19.995	100.014	20.295	6.326	0.528
728.000	441.817	79.995	19.995	100.009	20.310	5.304	0.478
736.000	445.892	79.997	19.994	100.004	20.325	4.310	0.507
744.000	449.948	79.996	19.996	100.001	20.332	3.785	0.517
752.000	454.065	79.995	19.996	99.997	20.333	3.770	0.514
760.000	458.153	79.995	19.995	100.000	20.333	3.710	0.512
768.001	462.263	79.996	19.994	100.005	20.334	3.673	0.527
776.000	466.337	79.996	19.994	100.003	20.337	3.448	0.508
784.000	470.401	79.996	19.995	100.011	20.340	3.301	0.502
792.000	474.512	79.997	19.994	99.945	20.338	3.388	0.504
800.000	478.684	79.996	19.994	100.000	20.340	3.256	0.525
808.000	482.766	79.994	19.994	100.000	20.341	3.200	0.504
816.000	486.909	79.998	19.995	99.997	20.338	3.396	0.505
824.000	490.968	79.996	19.994	99.997	20.335	3.589	0.484
832.001	495.021	79.995	19.995	99.995	20.336	3.550	0.517
840.000	499.083	79.996	19.995	99.997	20.340	3.286	0.511
848.001	503.153	79.995	19.995	100.000	20.336	3.530	0.512
856.000	507.229	79.995	19.994	100.000	20.340	3.258	0.508
864.000	511.322	79.994	19.994	100.001	20.334	3.660	0.518
872.000	515.448	79.996	19.994	100.001	20.335	3.612	0.511
880.000	519.611	79.996	19.993	99.998	20.337	3.457	0.518
888.000	523.727	79.997	19.995	99.999	20.340	3.247	0.492
896.001	527.830	79.997	19.995	99.995	20.341	3.165	0.523
904.000	531.946	79.997	19.995	99.998	20.340	3.265	0.502
912.000	536.087	79.995	19.994	100.000	20.339	3.301	0.520
920.000	540.179	79.994	19.996	99.998	20.338	3.375	0.528
928.000	544.190	79.994	19.994	99.997	20.336	3.565	0.515
936.000	548.267	79.993	19.995	100.002	20.339	3.304	0.522
944.000	552.351	79.997	19.995	100.001	20.336	3.556	0.474
952.000	556.597	79.997	19.995	100.001	20.342	3.150	0.534
960.000	560.715	79.997	19.994	99.998	20.340	3.279	0.505
968.000	564.896	79.996	19.995	100.003	20.338	3.418	0.507
976.000	569.055	79.997	19.994	100.000	20.335	3.576	0.512
984.000	573.146	79.999	19.995	100.004	20.336	3.547	0.529
992.000	577.328	79.995	19.994	100.000	20.338	3.420	0.532
1000.000	581.424	79.995	19.996	100.000	20.336	3.569	0.536
1008.000	585.508	79.995	19.996	99.998	20.336	3.524	0.537
1016.000	589.596	79.994	19.996	100.005	20.339	3.364	0.523
1024.000	593.658	79.996	19.996	99.998	20.337	3.489	0.505
1032.001	597.742	79.996	19.994	100.002	20.338	3.414	0.527
1040.001	601.768	79.997	19.994	100.001	20.335	3.617	0.519
1048.000	605.788	79.996	19.995	99.997	20.333	3.712	0.512
1056.001	609.803	79.999	19.994	100.002	20.333	3.739	0.507
1064.001	613.823	80.000	19.994	100.000	20.335	3.589	0.544
1072.001	617.861	79.996	19.994	100.012	20.335	3.612	0.477
1080.001	621.923	79.996	19.995	100.002	20.335	3.582	0.532
1088.000	625.967	79.996	19.996	100.006	20.328	4.055	0.546
1096.000	630.014	79.994	19.995	100.002	20.331	3.910	0.505
1104.000	634.065	79.993	19.996	100.032	20.330	3.957	0.535
1112.000	638.112	79.997	19.995	100.065	20.333	3.718	0.511
1120.000	642.135	79.996	19.993	99.959	20.329	4.018	0.488
1128.000	646.177	79.996	19.994	100.017	20.330	3.951	0.496
1136.000	650.255	79.997	19.994	100.032	20.332	3.834	0.513
1144.000	654.372	79.999	19.994	100.011	20.325	4.292	0.509
1152.001	658.433	79.997	19.995	100.010	20.324	4.357	0.504
1160.000	662.465	79.994	19.995	100.009	20.329	4.001	0.492
1168.000	666.519	79.996	19.996	100.018	20.319	4.670	0.527
1176.000	670.520	79.996	19.995	100.020	20.326	4.215	0.522
1184.001	674.595	79.995	19.995	100.034	20.326	4.212	0.495
1192.001	678.701	79.996	19.995	100.021	20.326	4.252	0.518
1200.000	682.711	79.997	19.997	99.989	20.327	4.162	0.486
1208.000	686.800	79.995	19.995	100.027	20.329	4.004	0.506
1216.001	690.819	79.998	19.996	100.011	20.324	4.377	0.499
1224.000	694.910	79.998	19.994	100.019	20.324	4.341	0.516
1232.000	698.896	79.994	19.995	100.028	20.328	4.112	0.481
1240.000	702.903	79.996	19.995	100.034	20.315	4.960	0.511
1248.000	706.871	79.997	19.994	100.030	20.317	4.816	0.486
1256.000	710.889	79.995	19.995	100.021	20.321	4.542	0.509
1264.000	714.921	79.994	19.995	100.026	20.317	4.845	0.487
1272.000	719.020	79.995	19.996	100.027	20.317	4.805	0.527
1280.000	723.051	79.994	19.994	100.019	20.310	5.291	0.514
1288.000	727.114	79.995	19.996	100.016	20.317	4.844	0.536
1296.000	731.158	79.997	19.997	100.031	20.312	5.196	0.501
1304.000	735.256	79.997	19.994	100.030	20.318	4.782	0.509
1312.000	739.280	79.994	19.994	100.036	20.320	4.632	0.484
1320.001	743.463	79.996	19.994	100.033	20.319	4.688	0.523