File: 01_Data/PMMA_R01/MCC/PMMA_R01_MCC_30K_min_210920_R3.txt
Sample ID:	C:\MCC\PMMA_MCC_30K_min_210920_R3.txt
Sample Weight (mg):	4.62
Heating Rate (C/s):	0.5
Combustor Temp (C):	900
N2 Flow Rate (cc/min):	80
O2 Flow Rate (cc/min):	20
Calibration File:	C:\MCC\MCC Cal\Coeff1 JN10440_30_210304.txt.txt
T Correction Coefficients:	0	1.024463	0
Time Shift (s):	14
*
Time (s)	Temperature (C)	N2 flow rate (cc/min)	O2 flow rate (cc/min)	Flow Rate (cc/min)	Oxygen (%)	HRR (W/g)	Heating rate (C/s)
0.001	108.050	79.995	19.995	100.075	20.330	-0.289	-0.027
8.001	108.044	79.996	19.995	100.081	20.332	-0.454	-0.000
16.000	108.034	79.996	19.995	100.135	20.322	0.262	0.007
24.000	108.317	79.993	19.996	100.208	20.307	1.237	0.040
32.000	108.842	79.996	19.996	100.162	20.304	1.492	0.080
40.000	109.730	79.998	19.994	100.254	20.295	2.072	0.135
48.001	111.039	79.997	19.994	100.271	20.292	2.285	0.196
56.000	112.649	79.998	19.995	100.298	20.291	2.388	0.232
64.001	114.604	79.999	19.994	100.308	20.287	2.651	0.285
72.000	116.864	79.996	19.995	100.310	20.284	2.842	0.290
80.000	119.361	79.995	19.995	100.324	20.282	2.951	0.350
88.000	122.066	79.996	19.995	100.343	20.275	3.426	0.350
96.001	125.057	79.995	19.995	100.344	20.280	3.102	0.386
104.000	128.170	79.994	19.995	100.343	20.269	3.827	0.396
112.000	131.457	79.998	19.995	100.348	20.259	4.505	0.412
120.000	134.926	79.997	19.995	100.340	20.254	4.851	0.428
128.001	138.530	79.995	19.994	100.342	20.247	5.311	0.472
136.000	142.206	79.997	19.993	100.346	20.237	6.019	0.456
144.000	146.084	79.998	19.994	100.356	20.233	6.305	0.468
152.000	149.966	79.994	19.994	100.354	20.221	7.098	0.476
160.000	153.981	79.995	19.993	100.349	20.200	8.531	0.517
168.000	157.917	79.998	19.994	100.335	20.180	9.869	0.525
176.000	161.853	79.997	19.994	100.334	20.164	10.926	0.465
184.000	165.873	79.995	19.995	100.339	20.152	11.782	0.485
192.000	169.875	79.997	19.995	100.317	20.152	11.773	0.495
200.001	173.913	79.999	19.995	100.308	20.148	12.009	0.511
208.000	177.916	79.996	19.994	100.307	20.152	11.753	0.511
216.000	181.901	79.997	19.994	100.309	20.157	11.403	0.516
224.001	185.914	79.998	19.994	100.297	20.164	10.968	0.511
232.001	189.899	79.996	19.994	100.297	20.170	10.547	0.476
240.000	193.870	79.996	19.995	100.298	20.177	10.071	0.525
248.000	197.799	79.997	19.994	100.290	20.177	10.085	0.466
256.000	201.693	79.996	19.994	100.295	20.171	10.494	0.485
264.001	205.586	79.996	19.995	100.288	20.171	10.503	0.519
272.000	209.475	79.995	19.994	100.294	20.169	10.632	0.459
280.000	213.410	79.997	19.994	100.288	20.170	10.546	0.474
288.000	217.332	79.998	19.994	100.294	20.160	11.210	0.500
296.000	221.293	79.997	19.994	100.279	20.156	11.476	0.467
304.000	225.261	79.998	19.994	100.269	20.153	11.701	0.503
312.000	229.222	79.997	19.993	100.275	20.151	11.842	0.524
320.000	233.194	79.995	19.993	100.273	20.159	11.302	0.509
328.000	237.173	79.995	19.994	100.274	20.182	9.754	0.502
336.000	241.144	79.996	19.996	100.270	20.201	8.426	0.507
344.001	245.138	79.995	19.994	100.263	20.213	7.626	0.469
352.000	249.108	79.996	19.994	100.270	20.219	7.225	0.493
360.001	253.180	79.997	19.994	100.268	20.210	7.866	0.521
368.000	257.142	79.998	19.995	100.269	20.187	9.419	0.507
376.001	261.075	79.997	19.995	100.271	20.155	11.589	0.479
384.000	265.052	79.999	19.996	100.277	20.111	14.544	0.500
392.001	269.092	79.997	19.996	100.275	20.058	18.124	0.520
400.000	273.104	79.997	19.993	100.283	20.002	21.920	0.499
408.000	277.093	79.996	19.994	100.302	19.949	25.539	0.471
416.000	281.083	79.997	19.993	100.309	19.889	29.578	0.498
424.000	285.117	79.997	19.993	100.301	19.822	34.107	0.503
432.000	289.065	79.997	19.994	100.305	19.771	37.580	0.473
440.000	293.087	79.998	19.993	100.300	19.727	40.534	0.537
448.000	297.098	79.997	19.995	100.316	19.716	41.309	0.515
456.000	301.124	79.997	19.994	100.289	19.732	40.209	0.529
464.000	305.056	79.998	19.993	100.274	19.780	36.977	0.489
472.000	309.061	79.997	19.993	100.265	19.848	32.327	0.491
480.000	313.030	79.995	19.996	100.263	19.905	28.510	0.498
488.000	317.031	79.996	19.996	100.272	19.908	28.297	0.484
496.000	321.033	79.997	19.994	100.295	19.889	29.562	0.457
504.000	325.026	79.995	19.994	100.270	19.863	31.336	0.511
512.000	329.015	79.996	19.996	100.342	19.771	37.617	0.493
520.000	333.025	79.997	19.995	100.319	19.693	42.898	0.492
528.000	337.036	79.997	19.994	100.305	19.581	50.477	0.473
536.000	341.009	79.996	19.994	100.388	19.415	61.727	0.467
544.000	345.003	79.997	19.996	100.435	19.243	73.425	0.502
552.000	348.975	79.997	19.995	100.442	19.009	89.275	0.462
560.000	353.005	79.995	19.994	100.548	18.777	105.122	0.508
568.000	357.021	79.995	19.996	100.420	18.621	115.672	0.523
576.000	361.078	79.996	19.994	100.461	18.492	124.415	0.510
584.000	365.172	79.994	19.994	100.458	18.344	134.466	0.510
592.000	369.263	79.995	19.995	100.491	18.187	145.138	0.490
600.001	373.391	79.998	19.994	100.468	18.056	153.963	0.514
608.000	377.474	79.998	19.995	100.467	17.965	160.116	0.513
616.000	381.497	79.998	19.994	100.429	17.932	162.269	0.485
624.000	385.522	79.999	19.995	100.416	17.992	158.183	0.528
632.000	389.490	79.997	19.995	100.378	18.130	148.771	0.479
640.000	393.631	79.994	19.995	100.338	18.346	134.090	0.536
648.000	397.593	79.996	19.995	100.292	18.622	115.341	0.512
656.000	401.606	79.993	19.995	100.253	18.923	94.929	0.502
664.000	405.703	79.995	19.996	100.232	19.230	74.154	0.509
672.000	409.742	79.995	19.994	100.227	19.513	54.961	0.479
680.000	413.810	79.998	19.995	100.213	19.748	39.089	0.511
688.000	417.850	79.998	19.995	100.202	19.926	27.083	0.523
696.000	421.870	79.996	19.992	100.196	20.062	17.844	0.509
704.000	425.892	79.998	19.994	100.215	20.147	12.077	0.526
712.000	429.908	79.999	19.994	100.208	20.198	8.636	0.490
720.000	433.995	79.995	19.994	100.203	20.243	5.571	0.516
728.000	438.085	79.996	19.994	100.202	20.266	4.059	0.542
736.000	442.114	79.996	19.995	100.197	20.292	2.308	0.502
744.000	446.141	79.994	19.994	100.192	20.304	1.441	0.488
752.000	450.185	79.994	19.996	100.191	20.312	0.941	0.481
760.000	454.251	79.998	19.996	100.192	20.320	0.373	0.531
768.000	458.266	79.996	19.994	100.200	20.319	0.478	0.503
776.000	462.378	79.998	19.995	100.203	20.319	0.480	0.509
784.000	466.446	80.000	19.995	100.195	20.324	0.137	0.523
792.000	470.536	79.998	19.995	100.195	20.319	0.461	0.521
800.000	474.649	79.996	19.994	100.200	20.320	0.363	0.524
808.000	478.715	79.996	19.994	100.191	20.319	0.435	0.528
816.000	482.830	79.996	19.994	100.200	20.324	0.122	0.522
824.000	486.929	79.995	19.994	100.193	20.319	0.463	0.513
832.000	490.997	79.996	19.996	100.200	20.321	0.336	0.479
840.000	495.191	79.996	19.995	100.193	20.325	0.074	0.536
848.000	499.293	79.995	19.997	100.209	20.323	0.177	0.523
856.000	503.459	79.996	19.994	100.198	20.318	0.554	0.560
864.000	507.565	79.997	19.993	100.196	20.317	0.624	0.493
872.000	511.655	79.999	19.997	100.199	20.321	0.338	0.463
880.000	515.783	79.996	19.996	100.196	20.316	0.675	0.528
888.000	519.912	79.996	19.994	100.195	20.317	0.605	0.507
896.001	523.984	79.997	19.993	100.200	20.320	0.382	0.494
904.000	528.085	79.995	19.996	100.212	20.320	0.386	0.502
912.000	532.090	79.995	19.993	100.210	20.317	0.568	0.509
920.000	536.181	79.998	19.996	100.211	20.319	0.478	0.486
928.001	540.219	79.997	19.995	100.199	20.320	0.423	0.517
936.000	544.258	79.998	19.997	100.196	20.317	0.611	0.527
944.000	548.334	80.000	19.994	100.214	20.322	0.240	0.513
952.000	552.363	79.998	19.994	100.224	20.322	0.255	0.497
960.000	556.460	79.995	19.994	100.202	20.319	0.469	0.524
968.001	560.539	79.995	19.993	100.232	20.318	0.556	0.526
976.000	564.656	79.995	19.994	100.228	20.324	0.131	0.500
984.000	568.753	79.997	19.994	100.232	20.320	0.410	0.490
992.001	572.860	79.997	19.995	100.159	20.319	0.456	0.505
1000.000	577.009	79.996	19.994	100.226	20.318	0.500	0.509
1008.000	581.063	79.997	19.994	100.222	20.315	0.724	0.510
1016.000	585.031	79.996	19.994	100.225	20.317	0.618	0.492
1024.000	589.089	79.997	19.995	100.222	20.317	0.607	0.515
1032.000	593.162	79.999	19.993	100.229	20.315	0.724	0.533
1040.001	597.239	79.995	19.994	100.236	20.320	0.417	0.535
1048.000	601.313	79.995	19.994	100.234	20.321	0.323	0.504
1056.000	605.416	79.996	19.994	100.234	20.320	0.390	0.536
1064.001	609.457	79.996	19.994	100.240	20.319	0.473	0.501
1072.001	613.550	79.997	19.994	100.246	20.320	0.421	0.530
1080.001	617.603	79.997	19.994	100.239	20.319	0.469	0.505
1088.000	621.630	79.996	19.995	100.249	20.315	0.748	0.517
1096.000	625.657	79.996	19.995	100.250	20.317	0.591	0.502
1104.001	629.720	79.996	19.995	100.247	20.315	0.735	0.497
1112.000	633.832	79.997	19.996	100.242	20.315	0.722	0.529
1120.000	638.030	79.996	19.995	100.254	20.310	1.087	0.535
1128.001	642.170	79.996	19.995	100.241	20.312	0.938	0.546
1136.000	646.267	79.996	19.994	100.248	20.310	1.087	0.541
1144.001	650.371	79.997	19.995	100.261	20.312	0.953	0.509
1152.001	654.470	79.996	19.996	100.266	20.313	0.888	0.523
1160.000	658.542	79.999	19.994	100.266	20.313	0.842	0.482
1168.000	662.625	79.997	19.994	100.268	20.308	1.173	0.499
1176.001	666.598	79.997	19.996	100.258	20.312	0.936	0.460
1184.000	670.612	79.996	19.994	100.267	20.307	1.250	0.480
1192.000	674.663	79.998	19.995	100.267	20.317	0.595	0.513
1200.000	678.706	79.994	19.995	100.269	20.315	0.696	0.470
1208.000	682.789	79.995	19.995	100.268	20.306	1.331	0.525
1216.000	686.784	79.996	19.994	100.273	20.311	1.023	0.500
1224.000	690.821	79.998	19.996	100.273	20.307	1.293	0.491
1232.000	694.877	79.992	19.994	100.275	20.303	1.509	0.497
1240.000	699.007	79.996	19.994	100.271	20.300	1.736	0.518
1248.000	703.054	79.999	19.994	100.269	20.306	1.330	0.477
1256.000	707.121	79.998	19.996	100.272	20.307	1.237	0.507
1264.000	711.226	79.999	19.995	100.272	20.311	0.981	0.505
1272.001	715.337	79.998	19.994	100.270	20.306	1.352	0.520
1280.000	719.357	79.995	19.994	100.280	20.302	1.614	0.506
1288.001	723.360	79.995	19.994	100.282	20.303	1.575	0.494
1296.000	727.373	79.994	19.995	100.277	20.303	1.509	0.485
1304.000	731.433	79.993	19.994	100.271	20.305	1.405	0.506
1312.000	735.445	79.996	19.995	100.283	20.304	1.492	0.518
1320.001	739.468	79.995	19.997	100.337	20.302	1.621	0.508
1328.001	743.476	80.000	19.995	100.307	20.297	1.978	0.497