File: 01_Data/Cellulose_Insulation/MCC/Cellulose_Insulation_MCC_30K_min_220120_R1.txt
Sample ID:	C:\MCC\MCC Cal\Test\Cellulose_Insulation_MCC_30K_min_220120_R1.txt
Sample Weight (mg):	4.78
Heating Rate (C/s):	0.5
Combustor Temp (C):	900
N2 Flow Rate (cc/min):	80
O2 Flow Rate (cc/min):	20
Calibration File:	C:\MCC\MCC Cal\Coeff1 JN10440_30_210304.txt.txt
T Correction Coefficients:	0	1.024463	0
Time Shift (s):	14
*
Time (s)	Temperature (C)	N2 flow rate (cc/min)	O2 flow rate (cc/min)	Flow Rate (cc/min)	Oxygen (%)	HRR (W/g)	Heating rate (C/s)
0.000	110.810	80.012	19.995	103.723	20.107	0.098	0.012
7.500	110.794	80.006	19.993	103.744	20.103	0.386	0.025
15.000	110.827	80.003	19.993	103.768	20.102	0.459	0.024
22.500	110.891	80.006	19.993	103.798	20.095	0.956	0.010
30.000	111.240	80.008	19.992	103.918	20.076	2.251	0.057
37.501	112.068	80.005	19.993	103.979	20.065	2.980	0.133
45.000	113.344	80.005	19.994	104.009	20.056	3.608	0.205
52.500	115.077	80.005	19.994	104.021	20.054	3.714	0.241
60.000	117.200	80.010	19.995	104.033	20.049	4.025	0.300
67.500	119.733	80.009	19.990	104.043	20.048	4.144	0.351
75.000	122.580	80.007	19.994	104.036	20.046	4.276	0.415
82.500	125.669	80.009	19.995	104.037	20.046	4.232	0.444
90.000	128.999	80.009	19.990	104.033	20.046	4.224	0.469
97.500	132.489	80.008	19.990	104.051	20.046	4.250	0.499
105.000	136.104	80.002	19.999	104.033	20.044	4.390	0.457
112.500	139.872	80.008	19.993	104.031	20.047	4.175	0.508
120.000	143.777	80.013	19.990	104.028	20.049	4.036	0.569
127.500	147.703	80.001	19.993	104.008	20.048	4.096	0.556
135.000	151.577	80.006	19.992	104.016	20.049	4.040	0.497
142.500	155.456	80.003	19.996	103.992	20.053	3.755	0.514
150.000	159.328	80.004	19.997	103.996	20.048	4.120	0.515
157.500	163.169	80.003	19.995	103.991	20.047	4.166	0.491
165.000	166.959	80.003	19.995	103.987	20.046	4.272	0.483
172.500	170.761	80.007	19.995	103.990	20.046	4.242	0.501
180.000	174.460	80.006	19.995	103.985	20.044	4.400	0.468
187.500	178.158	80.005	19.993	103.969	20.047	4.158	0.452
195.000	181.881	80.009	19.993	103.972	20.044	4.374	0.522
202.500	185.472	80.003	19.995	103.982	20.045	4.308	0.472
210.000	189.148	80.007	19.992	103.961	20.044	4.408	0.494
217.500	192.790	80.006	19.993	103.954	20.040	4.668	0.487
225.000	196.445	80.004	19.994	103.959	20.038	4.820	0.475
232.500	200.090	80.006	19.994	103.975	20.037	4.875	0.487
240.000	203.747	80.003	19.994	103.985	20.033	5.116	0.501
247.500	207.497	80.005	19.995	103.989	20.030	5.349	0.514
255.000	211.175	80.007	19.994	103.987	20.019	6.057	0.481
262.500	214.912	80.006	19.994	104.019	20.001	7.338	0.478
270.000	218.698	80.008	19.992	104.083	19.944	11.228	0.507
277.500	222.472	80.008	19.992	104.178	19.848	17.723	0.479
285.000	226.166	80.006	19.993	104.247	19.725	26.121	0.513
292.500	229.928	80.007	19.994	104.230	19.607	34.078	0.493
300.000	233.656	80.005	19.993	104.124	19.557	37.432	0.468
307.500	237.425	80.005	19.995	104.000	19.592	35.046	0.497
315.000	241.216	80.004	19.995	103.951	19.681	29.040	0.508
322.500	245.009	80.004	19.996	103.933	19.770	22.974	0.499
330.000	248.872	80.005	19.995	103.922	19.835	18.566	0.534
337.500	252.778	80.007	19.997	103.949	19.877	15.686	0.506
345.000	256.601	80.006	19.996	103.949	19.906	13.783	0.489
352.500	260.425	80.008	19.993	103.951	19.925	12.470	0.514
360.000	264.183	80.007	19.993	103.952	19.936	11.744	0.495
367.500	267.920	80.004	19.993	103.959	19.940	11.433	0.488
375.000	271.715	80.006	19.993	103.955	19.940	11.478	0.503
382.500	275.456	80.007	19.994	103.957	19.946	11.015	0.509
390.000	279.238	80.005	19.994	103.953	19.943	11.258	0.527
397.500	282.933	80.003	19.995	103.977	19.943	11.267	0.526
405.000	286.665	80.006	19.994	103.968	19.937	11.683	0.509
412.500	290.394	80.007	19.993	103.985	19.931	12.047	0.492
420.000	294.139	80.007	19.994	103.973	19.929	12.209	0.479
427.500	297.873	80.006	19.994	103.967	19.924	12.556	0.492
435.000	301.672	80.008	19.994	103.973	19.922	12.657	0.503
442.500	305.403	80.008	19.994	103.981	19.923	12.609	0.503
450.000	309.215	80.006	19.994	103.979	19.924	12.506	0.516
457.500	313.041	80.006	19.993	103.980	19.923	12.596	0.512
465.000	316.849	80.006	19.994	103.987	19.924	12.559	0.499
472.500	320.658	80.005	19.994	103.977	19.922	12.647	0.505
480.000	324.438	80.004	19.993	103.984	19.919	12.887	0.498
487.500	328.237	80.007	19.994	103.986	19.921	12.740	0.507
495.000	332.057	80.007	19.994	103.990	19.926	12.408	0.537
502.500	335.906	80.006	19.993	103.990	19.929	12.222	0.524
510.000	339.684	80.006	19.994	103.975	19.929	12.191	0.480
517.500	343.504	80.009	19.994	103.963	19.926	12.364	0.509
525.000	347.271	80.004	19.995	103.974	19.931	12.027	0.514
532.500	351.033	80.004	19.996	103.962	19.932	11.979	0.504
540.000	354.855	80.006	19.992	103.958	19.932	11.985	0.505
547.500	358.623	80.006	19.993	103.956	19.931	12.053	0.500
555.000	362.380	80.006	19.994	103.964	19.931	12.075	0.498
562.500	366.192	80.004	19.994	103.975	19.931	12.080	0.510
570.000	369.961	80.007	19.993	103.953	19.930	12.098	0.512
577.500	373.798	80.008	19.992	103.951	19.934	11.831	0.500
585.000	377.568	80.005	19.994	103.957	19.939	11.519	0.513
592.500	381.357	80.008	19.994	103.955	19.943	11.222	0.500
600.000	385.183	80.008	19.993	103.950	19.947	10.942	0.492
607.500	389.021	80.005	19.993	103.935	19.951	10.709	0.536
615.000	392.798	80.004	19.994	103.944	19.955	10.452	0.509
622.500	396.638	80.004	19.994	103.947	19.960	10.060	0.512
630.000	400.409	80.005	19.993	103.953	19.968	9.531	0.512
637.500	404.172	80.005	19.992	103.936	19.975	9.080	0.447
645.000	407.963	80.005	19.995	103.912	19.978	8.893	0.503
652.500	411.772	80.007	19.993	103.917	19.989	8.137	0.531
660.000	415.515	80.008	19.993	103.912	19.993	7.815	0.514
667.501	419.386	80.008	19.994	103.920	19.998	7.491	0.507
675.000	423.187	80.009	19.994	103.910	20.001	7.302	0.517
682.500	426.998	80.007	19.994	103.906	20.011	6.594	0.501
690.000	430.806	80.006	19.994	103.907	20.012	6.571	0.478
697.500	434.723	80.006	19.994	103.909	20.011	6.654	0.529
705.000	438.522	80.007	19.994	103.897	20.015	6.344	0.525
712.500	442.295	80.005	19.995	103.893	20.022	5.876	0.502
720.000	446.075	80.003	19.994	103.890	20.019	6.063	0.510
727.500	449.926	80.006	19.993	103.884	20.028	5.476	0.491
735.000	453.766	80.007	19.994	103.893	20.030	5.344	0.535
742.500	457.612	80.006	19.993	103.888	20.031	5.255	0.537
750.000	461.456	80.005	19.994	103.900	20.033	5.106	0.513
757.500	465.245	80.007	19.992	103.881	20.039	4.691	0.505
765.000	469.113	80.007	19.991	103.875	20.044	4.379	0.523
772.500	472.949	80.006	19.994	103.877	20.043	4.459	0.501
780.000	476.875	80.006	19.994	103.872	20.044	4.383	0.534
787.500	480.706	80.008	19.992	103.874	20.044	4.373	0.496
795.000	484.542	80.004	19.995	103.871	20.046	4.251	0.496
802.500	488.453	80.005	19.995	103.872	20.050	4.009	0.533
810.000	492.296	80.004	19.995	103.873	20.050	3.987	0.519
817.500	496.195	80.008	19.993	103.871	20.051	3.918	0.510
825.000	499.988	80.006	19.992	103.877	20.054	3.732	0.503
832.500	503.845	80.008	19.993	103.875	20.054	3.684	0.484
840.000	507.683	80.010	19.993	103.870	20.056	3.543	0.510
847.500	511.544	80.007	19.993	103.872	20.060	3.294	0.496
855.000	515.405	80.007	19.994	103.870	20.061	3.216	0.514
862.500	519.295	80.004	19.994	103.868	20.066	2.917	0.502
870.000	523.144	80.005	19.995	103.873	20.063	3.078	0.498
877.500	527.033	80.006	19.994	103.875	20.064	3.038	0.520
885.000	530.872	80.004	19.995	103.873	20.064	3.019	0.492
892.501	534.776	80.007	19.995	103.875	20.061	3.221	0.507
900.000	538.623	80.006	19.994	103.859	20.064	3.049	0.511
907.500	542.482	80.007	19.993	103.869	20.062	3.161	0.506
915.000	546.358	80.008	19.994	103.860	20.066	2.904	0.494
922.500	550.224	80.009	19.993	103.868	20.066	2.863	0.509
930.000	554.139	80.006	19.993	103.872	20.067	2.841	0.542
937.500	558.023	80.006	19.993	103.869	20.066	2.909	0.513
945.000	561.835	80.005	19.993	103.867	20.065	2.948	0.500
952.500	565.680	80.006	19.993	103.877	20.069	2.698	0.521
960.000	569.510	80.006	19.994	103.853	20.070	2.651	0.506
967.500	573.378	80.006	19.993	103.859	20.073	2.411	0.522
975.000	577.299	80.006	19.994	103.864	20.071	2.562	0.524
982.500	581.125	80.008	19.995	103.858	20.076	2.246	0.490
990.000	584.964	80.004	19.995	103.869	20.073	2.402	0.522
997.500	588.710	80.008	19.994	103.867	20.071	2.582	0.486
1005.000	592.525	80.009	19.993	103.856	20.072	2.473	0.490
1012.500	596.343	80.004	19.994	103.874	20.071	2.577	0.501
1020.000	600.095	80.007	19.993	103.876	20.070	2.616	0.502
1027.500	603.921	80.007	19.994	103.852	20.074	2.385	0.532
1035.000	607.680	80.007	19.995	103.870	20.067	2.833	0.504
1042.500	611.530	80.006	19.994	103.855	20.067	2.831	0.489
1050.000	615.394	80.006	19.994	103.873	20.071	2.566	0.492
1057.500	619.310	80.007	19.996	103.870	20.074	2.324	0.483
1065.000	623.188	80.007	19.994	103.871	20.074	2.332	0.555
1072.500	627.042	80.008	19.994	103.869	20.068	2.746	0.506
1080.000	630.866	80.008	19.996	103.872	20.070	2.603	0.554
1087.500	634.706	80.007	19.993	103.872	20.070	2.601	0.542
1095.000	638.612	80.006	19.995	103.865	20.071	2.562	0.545
1102.500	642.500	80.008	19.994	103.872	20.070	2.591	0.531
1110.000	646.453	80.007	19.994	103.867	20.071	2.562	0.520
1117.501	650.349	80.008	19.994	103.864	20.063	3.082	0.553
1125.000	654.252	80.008	19.993	103.858	20.070	2.594	0.493
1132.500	658.025	80.008	19.994	103.869	20.068	2.785	0.755
1140.000	662.057	80.008	19.993	103.863	20.072	2.504	0.538
1147.501	665.848	80.007	19.993	103.871	20.069	2.701	0.514
1155.000	669.609	80.008	19.994	103.870	20.071	2.563	0.503
1162.500	673.354	80.009	19.994	103.865	20.070	2.653	0.486
1170.000	677.189	80.008	19.995	103.864	20.070	2.601	0.485
1177.500	680.986	80.007	19.994	103.869	20.067	2.817	0.501
1185.001	684.765	80.008	19.993	103.870	20.066	2.868	0.512
1192.500	688.549	80.007	19.994	103.869	20.068	2.779	0.474
1200.000	692.349	80.006	19.993	103.864	20.071	2.550	0.527
1207.500	696.179	80.007	19.994	103.865	20.072	2.506	0.494
1215.000	699.891	80.007	19.994	103.865	20.070	2.604	0.505
1222.501	703.749	80.009	19.993	103.843	20.070	2.595	0.537
1230.000	707.488	80.007	19.995	103.849	20.072	2.465	0.511
1237.500	711.296	80.008	19.995	103.836	20.073	2.424	0.515
1245.000	715.145	80.010	19.994	103.839	20.072	2.463	0.532
1252.500	718.960	80.009	19.994	103.840	20.074	2.353	0.516
1260.000	722.770	80.005	19.993	103.840	20.072	2.513	0.512
1267.500	726.563	80.006	19.994	103.843	20.072	2.517	0.492
1275.000	730.358	80.005	19.993	103.839	20.074	2.325	0.508
1282.500	734.182	80.008	19.994	103.841	20.075	2.281	0.511
1290.000	737.980	80.007	19.994	103.837	20.073	2.427	0.503
1297.500	741.775	80.007	19.993	103.835	20.073	2.429	0.498
1301.500	743.755	80.008	19.993	103.833	20.072	2.517	0.498