File: 01_Data/Cellulose_Insulation/MCC/Cellulose_Insulation_MCC_30K_min_220121_R2.txt
Sample ID:	C:\MCC\MCC Cal\Test\Cellulose_Insulation_MCC_30K_min_220121_R2.txt
Sample Weight (mg):	4.58
Heating Rate (C/s):	0.5
Combustor Temp (C):	900
N2 Flow Rate (cc/min):	80
O2 Flow Rate (cc/min):	20
Calibration File:	C:\MCC\MCC Cal\Coeff1 JN10440_30_210304.txt.txt
T Correction Coefficients:	0	1.024463	0
Time Shift (s):	14
*
Time (s)	Temperature (C)	N2 flow rate (cc/min)	O2 flow rate (cc/min)	Flow Rate (cc/min)	Oxygen (%)	HRR (W/g)	Heating rate (C/s)
0.000	110.659	80.002	19.997	103.626	20.211	0.000	-0.001
7.999	110.650	80.001	19.994	103.614	20.208	0.212	-0.013
15.999	110.663	80.001	19.994	103.646	20.204	0.479	-0.002
23.999	110.819	80.002	19.994	103.721	20.193	1.234	0.007
32.000	111.338	80.004	19.994	103.815	20.176	2.409	0.088
39.999	112.365	80.002	19.995	103.861	20.167	3.078	0.180
47.999	113.882	80.001	19.996	103.869	20.163	3.379	0.216
55.999	115.914	80.003	19.996	103.868	20.164	3.297	0.272
63.999	118.289	80.000	19.994	103.903	20.159	3.624	0.271
71.999	121.009	80.002	19.994	103.903	20.154	4.007	0.375
79.999	123.976	80.000	19.994	103.910	20.157	3.809	0.388
87.999	127.180	80.000	19.994	103.911	20.158	3.691	0.402
96.000	130.651	80.001	19.992	103.907	20.159	3.672	0.452
103.999	134.192	80.002	19.993	103.897	20.158	3.722	0.433
111.999	137.932	80.001	19.995	103.902	20.159	3.639	0.450
119.999	141.793	80.003	19.995	103.895	20.160	3.592	0.476
127.999	145.735	80.001	19.993	103.897	20.157	3.800	0.485
136.000	149.727	80.000	19.994	103.885	20.161	3.494	0.519
144.000	153.721	80.000	19.994	103.882	20.160	3.547	0.485
152.000	157.747	80.001	19.994	103.883	20.160	3.574	0.490
160.000	161.813	80.000	19.994	103.870	20.156	3.883	0.535
168.000	165.833	80.001	19.993	103.862	20.159	3.620	0.538
176.000	169.833	80.001	19.994	103.867	20.157	3.774	0.479
184.000	173.842	80.001	19.994	103.869	20.156	3.844	0.481
192.000	177.840	80.002	19.992	103.866	20.154	4.031	0.484
200.000	181.771	80.003	19.994	103.860	20.155	3.915	0.488
208.000	185.825	80.003	19.993	103.857	20.151	4.205	0.502
216.000	189.796	80.001	19.994	103.838	20.154	3.988	0.484
224.000	193.726	80.001	19.994	103.845	20.147	4.466	0.496
232.000	197.633	79.999	19.994	103.839	20.149	4.373	0.464
240.000	201.585	80.001	19.996	103.859	20.145	4.659	0.499
248.000	205.544	80.001	19.994	103.849	20.143	4.800	0.502
256.000	209.529	80.002	19.993	103.858	20.138	5.151	0.474
264.000	213.452	80.002	19.995	103.862	20.128	5.834	0.495
272.000	217.499	80.000	19.993	103.908	20.104	7.513	0.499
280.000	221.490	80.003	19.993	103.979	20.044	11.834	0.536
288.000	225.453	80.002	19.995	104.064	19.933	19.666	0.501
296.000	229.474	80.001	19.995	104.113	19.801	29.050	0.496
304.000	233.450	80.001	19.994	104.069	19.693	36.619	0.530
312.000	237.376	80.002	19.995	103.933	19.677	37.724	0.475
320.000	241.387	80.001	19.993	103.843	19.747	32.770	0.483
328.000	245.435	80.001	19.993	103.823	19.842	26.097	0.520
336.000	249.477	80.002	19.993	103.815	19.917	20.790	0.497
344.000	253.629	79.998	19.999	103.817	19.965	17.343	0.508
352.000	257.741	80.002	19.994	103.829	20.000	14.861	0.518
360.000	261.754	80.002	19.994	103.830	20.019	13.528	0.509
368.000	265.803	80.004	19.994	103.832	20.036	12.347	0.489
376.000	269.781	80.001	19.993	103.832	20.041	11.988	0.498
384.000	273.866	80.001	19.994	103.827	20.045	11.729	0.553
392.000	277.805	79.999	19.993	103.842	20.047	11.591	0.518
400.000	281.738	80.001	19.994	103.840	20.045	11.735	0.485
408.000	285.733	80.002	19.995	103.843	20.039	12.112	0.514
416.000	289.737	80.002	19.995	103.839	20.031	12.723	0.472
424.000	293.784	80.002	19.995	103.856	20.028	12.904	0.489
432.000	297.806	80.001	19.995	103.858	20.024	13.198	0.514
440.000	301.833	80.003	19.994	103.850	20.015	13.808	0.482
448.000	305.899	80.005	19.994	103.856	20.014	13.873	0.516
456.000	309.928	80.001	19.994	103.866	20.015	13.821	0.516
464.000	314.074	80.001	19.993	103.868	20.012	14.023	0.503
472.000	318.147	80.003	19.995	103.845	20.012	14.023	0.536
480.000	322.211	80.000	19.996	103.859	20.012	14.060	0.506
488.000	326.234	80.000	19.994	103.842	20.016	13.787	0.498
496.000	330.343	80.002	19.997	103.847	20.015	13.805	0.522
504.000	334.455	80.003	19.995	103.849	20.019	13.572	0.500
512.000	338.508	80.004	19.995	103.846	20.017	13.707	0.464
520.000	342.605	80.005	19.993	103.859	20.018	13.624	0.507
528.000	346.682	80.004	19.992	103.836	20.019	13.525	0.502
536.000	350.718	80.004	19.994	103.851	20.021	13.408	0.492
544.000	354.867	80.001	19.994	103.851	20.022	13.329	0.512
552.000	358.954	80.002	19.996	103.849	20.020	13.455	0.524
560.000	362.972	80.000	19.994	103.846	20.020	13.505	0.510
568.000	367.004	80.002	19.995	103.838	20.024	13.212	0.490
576.000	371.049	80.004	19.994	103.859	20.021	13.374	0.546
584.000	375.112	80.003	19.994	103.850	20.023	13.271	0.541
592.000	379.149	80.004	19.993	103.852	20.028	12.905	0.491
600.000	383.226	80.005	19.995	103.842	20.027	12.948	0.526
608.000	387.303	80.002	19.995	103.832	20.032	12.603	0.524
616.000	391.322	80.002	19.994	103.828	20.038	12.192	0.507
624.000	395.471	80.001	19.994	103.829	20.044	11.748	0.504
632.000	399.530	80.003	19.994	103.834	20.045	11.709	0.499
640.000	403.581	80.000	19.993	103.819	20.058	10.804	0.508
648.000	407.580	80.001	19.995	103.816	20.063	10.453	0.496
656.000	411.633	80.002	19.996	103.806	20.069	10.009	0.503
664.000	415.627	80.002	19.993	103.796	20.075	9.615	0.497
672.000	419.705	80.001	19.997	103.810	20.079	9.278	0.511
680.000	423.756	80.004	19.994	103.795	20.082	9.066	0.519
688.000	427.777	80.001	19.995	103.804	20.089	8.583	0.483
696.000	431.896	80.003	19.993	103.793	20.094	8.259	0.496
704.000	436.012	80.000	19.994	103.789	20.093	8.319	0.486
712.000	440.094	80.003	19.994	103.790	20.099	7.896	0.458
720.000	444.151	80.003	19.996	103.791	20.103	7.609	0.512
728.000	448.213	80.005	19.993	103.786	20.103	7.583	0.513
736.000	452.319	80.002	19.997	103.782	20.109	7.206	0.526
744.000	456.338	80.002	19.996	103.772	20.108	7.236	0.506
752.000	460.427	80.005	19.993	103.777	20.108	7.264	0.521
760.000	464.484	80.001	19.997	103.774	20.114	6.823	0.511
768.000	468.564	80.003	19.991	103.778	20.114	6.836	0.519
776.000	472.677	79.999	19.994	103.776	20.116	6.715	0.474
784.000	476.723	80.000	19.995	103.777	20.119	6.448	0.489
792.000	480.862	80.001	19.994	103.761	20.121	6.318	0.506
800.000	484.938	80.000	19.994	103.753	20.124	6.151	0.490
808.000	489.034	80.003	19.994	103.757	20.128	5.823	0.520
816.000	493.178	80.002	19.994	103.768	20.126	6.008	0.517
824.000	497.326	80.003	19.995	103.764	20.128	5.819	0.519
832.000	501.432	80.002	19.994	103.764	20.127	5.887	0.524
840.000	505.492	80.003	19.996	103.762	20.130	5.658	0.530
848.000	509.564	80.004	19.993	103.755	20.131	5.654	0.525
856.000	513.673	80.004	19.994	103.777	20.130	5.668	0.521
864.000	517.730	80.002	19.995	103.751	20.128	5.822	0.480
872.000	521.856	80.002	19.994	103.757	20.130	5.711	0.550
880.000	525.921	80.001	19.993	103.763	20.131	5.624	0.491
888.000	529.975	80.002	19.994	103.759	20.131	5.618	0.497
896.000	534.049	80.003	19.994	103.762	20.127	5.886	0.517
904.000	538.183	80.004	19.992	103.765	20.135	5.326	0.481
912.000	542.253	80.002	19.995	103.745	20.130	5.707	0.520
920.000	546.276	80.004	19.993	103.772	20.133	5.496	0.499
928.000	550.375	80.000	19.995	103.759	20.128	5.816	0.514
936.000	554.480	80.004	19.993	103.774	20.130	5.676	0.519
944.000	558.548	80.001	19.995	103.758	20.131	5.593	0.475
952.000	562.726	79.999	19.995	103.755	20.134	5.421	0.537
960.000	566.833	80.001	19.995	103.780	20.132	5.563	0.517
968.000	570.907	80.002	19.993	103.757	20.131	5.591	0.486
976.000	575.055	80.005	19.993	103.758	20.131	5.643	0.521
984.000	579.125	80.001	19.994	103.752	20.126	5.946	0.490
992.000	583.102	80.003	19.994	103.760	20.130	5.705	0.470
1000.000	587.162	80.005	19.993	103.759	20.125	6.037	0.517
1008.000	591.219	80.002	19.995	103.753	20.122	6.261	0.492
1016.000	595.279	80.002	19.995	103.771	20.125	6.022	0.490
1024.000	599.361	80.002	19.994	103.768	20.125	6.080	0.525
1031.999	603.461	80.001	19.994	103.766	20.124	6.107	0.507
1039.999	607.609	80.002	19.995	103.781	20.125	6.016	0.551
1047.999	611.778	80.005	19.994	103.768	20.118	6.540	0.524
1055.999	615.971	80.005	19.993	103.766	20.119	6.479	0.546
1063.999	620.104	80.002	19.995	103.775	20.117	6.626	0.512
1071.999	624.311	80.004	19.995	103.778	20.122	6.284	0.512
1079.999	628.540	80.003	19.994	103.789	20.114	6.803	0.540
1087.999	632.731	80.001	19.993	103.763	20.115	6.763	0.504
1095.999	636.929	80.001	19.993	103.762	20.112	6.980	0.523
1103.999	641.052	80.002	19.994	103.755	20.109	7.147	0.526
1111.999	645.196	80.004	19.993	103.753	20.106	7.417	0.520
1119.999	649.396	80.000	19.994	103.759	20.106	7.401	0.517
1127.999	653.601	80.002	19.995	103.758	20.103	7.587	0.507
1135.999	657.749	80.003	19.995	103.778	20.104	7.529	0.494
1143.999	661.805	80.002	19.994	103.765	20.105	7.427	0.508
1152.000	665.737	80.004	19.994	103.784	20.101	7.762	0.477
1159.999	669.815	80.002	19.994	103.766	20.101	7.717	0.520
1167.999	673.906	80.003	19.994	103.760	20.097	8.003	0.537
1175.999	678.133	80.002	19.994	103.780	20.095	8.183	0.527
1183.999	682.273	80.002	19.994	103.770	20.093	8.281	0.531
1191.999	686.401	80.001	19.994	103.771	20.097	8.019	0.486
1199.999	690.591	79.999	19.996	103.781	20.094	8.245	0.538
1207.999	694.871	80.002	19.995	103.781	20.098	7.962	0.549
1215.999	699.069	80.001	19.995	103.752	20.093	8.327	0.514
1223.999	703.244	80.001	19.994	103.754	20.093	8.342	0.509
1231.999	707.379	80.003	19.994	103.756	20.092	8.350	0.512
1239.999	711.477	80.002	19.994	103.740	20.093	8.276	0.490
1247.999	715.578	80.001	19.993	103.743	20.088	8.682	0.496
1255.999	719.764	80.002	19.993	103.747	20.092	8.358	-0.001
1263.999	723.729	80.002	19.994	103.747	20.090	8.551	0.540
1272.000	727.673	80.002	19.994	103.737	20.088	8.642	0.496
1279.999	731.625	80.000	19.994	103.749	20.084	8.969	0.499
1287.999	735.682	80.002	19.996	103.753	20.085	8.853	0.517
1295.999	739.683	80.005	19.994	103.748	20.081	9.146	0.521
1303.999	743.724	80.002	19.995	103.745	20.081	9.169	0.488
1306.500	744.993	80.003	19.996	103.730	20.081	9.183	0.509