File: 01_Data/Cedar_Shingle/STA/N2/30K_min/Cedar_Shingle_STA_N2_30KData_220405_R2.csv
##Temp./Â°C,Time/min,Mass loss(subtr.2)/mg,DSC(subtr.2)/(mW/mg),Sensit./(uV/mW)
48.464,10.00667,-0.00142,0.01526909,1.07507
51.664,10.88588,-0.001105914,0.14822,1.07366
54.864,11.11945,-0.0009404601,0.24368,1.07224
58.064,11.2996,-0.001111464,0.32073,1.0708
61.264,11.45527,-0.000231698,0.3828,1.06935
64.464,11.59652,0.000852027,0.43736,1.06789
67.664,11.7289,-0.002969577,0.48779,1.06642
70.864,11.85512,-0.003510502,0.52986,1.06494
74.064,11.97725,-0.002332845,0.5724,1.06345
77.264,12.09632,-0.00377159,0.60691,1.06195
80.464,12.2129,-0.001902436,0.64368,1.06043
83.664,12.32724,-0.00405972,0.67715,1.05891
86.864,12.43958,-0.007343631,0.71135,1.05737
90.064,12.5513,-0.00731309,0.73877,1.05583
93.264,12.66127,-0.009981464,0.76547,1.05427
96.464,12.7706,-0.0106937,0.78606,1.05271
99.664,12.87915,-0.01097566,0.80364,1.05113
102.864,12.98718,-0.01260996,0.81582,1.04955
106.064,13.09486,-0.01393895,0.8195,1.04795
109.264,13.2022,-0.0175401,0.82054,1.04634
112.464,13.3094,-0.01884609,0.81626,1.04473
115.664,13.41651,-0.02018026,0.80924,1.0431
118.864,13.52319,-0.02183354,0.79938,1.04147
122.064,13.62904,-0.0231401,0.78869,1.03983
125.264,13.73456,-0.02139155,0.78396,1.03817
128.464,13.83966,-0.0244588,0.78071,1.03651
131.664,13.9442,-0.0267502,0.78015,1.03484
134.864,14.0482,-0.02793062,0.78579,1.03316
138.064,14.1517,-0.02972,0.79018,1.03147
141.264,14.25479,-0.02971996,0.79852,1.02977
144.464,14.35728,-0.03104,0.8046,1.02806
147.664,14.45938,-0.0323585,0.81267,1.02635
150.864,14.561,-0.03369904,0.82289,1.02462
154.064,14.6627,-0.03564,0.83299,1.02289
157.264,14.76379,-0.03760783,0.84293,1.02115
160.464,14.86459,-0.03893,0.85265,1.0194
163.664,14.96531,-0.040247,0.86383,1.01764
166.864,15.0656,-0.0434032,0.87417,1.01588
170.064,15.1659,-0.04479893,0.88365,1.0141
173.264,15.2657,-0.04679125,0.89259,1.01232
176.464,15.36532,-0.04806842,0.90437,1.01053
179.664,15.4646,-0.04945243,0.9153,1.00873
182.864,15.5636,-0.05346651,0.92772,1.00693
186.064,15.66203,-0.05347281,0.93853,1.00512
189.264,15.76041,-0.05687212,0.95146,1.0033
192.464,15.8584,-0.05878996,0.96531,1.00147
195.664,15.95625,-0.06112082,0.97703,0.99963
198.864,16.05402,-0.06404661,0.98802,0.99779
202.064,16.15173,-0.06549391,1.00076,0.99594
205.264,16.2493,-0.0682325,1.01357,0.99409
208.464,16.3466,-0.07019168,1.02742,0.99222
211.664,16.44409,-0.07349706,1.03965,0.99035
214.864,16.54146,-0.07725458,1.05731,0.98847
218.064,16.63853,-0.07975926,1.0693,0.98659
221.264,16.73584,-0.08266835,1.08572,0.9847
224.464,16.83288,-0.08577433,1.10209,0.9828
227.664,16.92977,-0.09167809,1.11935,0.9809
230.864,17.02686,-0.09619364,1.13663,0.97899
234.064,17.1238,-0.10172,1.1537,0.97707
237.264,17.2208,-0.10769,1.1713,0.97515
240.464,17.31757,-0.11415,1.18683,0.97322
243.664,17.41423,-0.12113,1.20469,0.97128
246.864,17.511,-0.1282,1.22089,0.96934
250.064,17.60782,-0.13687,1.23453,0.96739
253.264,17.70436,-0.14561,1.24638,0.96544
256.464,17.80111,-0.15614,1.25968,0.96348
259.664,17.89767,-0.16676,1.26902,0.96151
262.864,17.99404,-0.17705,1.2723,0.95954
266.064,18.09086,-0.19142,1.27837,0.95757
269.264,18.18754,-0.20422,1.2773,0.95558
272.464,18.2842,-0.21983,1.27958,0.95359
275.664,18.3807,-0.23612,1.2776,0.9516
278.864,18.47738,-0.25383,1.26981,0.9496
282.064,18.5741,-0.27186,1.26551,0.94759
285.264,18.6708,-0.29081,1.26226,0.94558
288.464,18.76762,-0.31246,1.25689,0.94357
291.664,18.86448,-0.33502,1.25281,0.94155
294.864,18.96133,-0.3602,1.24376,0.93952
298.064,19.05818,-0.38632,1.23532,0.93749
301.264,19.15525,-0.41076,1.2281,0.93545
304.464,19.25214,-0.43826,1.21922,0.93341
307.664,19.34897,-0.46877,1.21769,0.93137
310.864,19.44603,-0.50039,1.21724,0.92931
314.064,19.54305,-0.53296,1.21748,0.92726
317.264,19.64014,-0.56701,1.2238,0.9252
320.464,19.73721,-0.6033,1.23313,0.92313
323.664,19.83448,-0.64533,1.24707,0.92106
326.864,19.93186,-0.68783,1.26138,0.91898
330.064,20.02929,-0.73402,1.28173,0.9169
333.264,20.1268,-0.78367,1.30301,0.91482
336.464,20.22435,-0.83684,1.33295,0.91273
339.664,20.32207,-0.89444,1.35574,0.91064
342.864,20.41998,-0.95447,1.38588,0.90854
346.064,20.5178,-1.01722,1.4175,0.90644
349.264,20.61609,-1.08638,1.45057,0.90433
352.464,20.71388,-1.15549,1.48793,0.90222
355.664,20.81212,-1.22798,1.52641,0.9001
358.864,20.91071,-1.3032,1.5709,0.89798
362.064,21.00917,-1.3815,1.62527,0.89586
365.264,21.10835,-1.46451,1.69233,0.89373
368.464,21.20715,-1.54996,1.76057,0.8916
371.664,21.3061,-1.64219,1.84582,0.88946
374.864,21.4052,-1.73739,1.93162,0.88732
378.064,21.50441,-1.8378,2.0113,0.88518
381.264,21.6036,-1.94294,2.0807,0.88303
384.464,21.70269,-2.05042,2.12119,0.88088
387.664,21.80235,-2.16225,2.12259,0.87872
390.864,21.90175,-2.27036,2.06125,0.87656
394.064,22.00142,-2.37569,1.92584,0.8744
397.264,22.10089,-2.47153,1.71928,0.87223
400.464,22.20037,-2.55442,1.44039,0.87006
403.664,22.29964,-2.62158,1.12426,0.86788
406.864,22.3989,-2.67343,0.80824,0.8657
410.064,22.49814,-2.71053,0.54134,0.86352
413.264,22.59723,-2.73493,0.35038,0.86133
416.464,22.69666,-2.75193,0.22783,0.85914
419.664,22.79645,-2.76637,0.1542,0.85695
422.864,22.8961,-2.77836,0.11304,0.85476
426.064,22.99578,-2.79121,0.07308784,0.85256
429.264,23.0956,-2.80333,0.04562038,0.85035
432.464,23.1958,-2.81452,0.01690667,0.84814
435.664,23.2961,-2.82535,-0.007087256,0.84593
438.864,23.39643,-2.8335,-0.03606693,0.84372
442.064,23.49689,-2.84488,-0.05937877,0.8415
445.264,23.59753,-2.85317,-0.07675828,0.83928
448.464,23.69809,-2.86404,-0.09505365,0.83706
451.664,23.79918,-2.8731,-0.10786,0.83483
454.864,23.90009,-2.88211,-0.10933,0.8326
458.064,24.00123,-2.89159,-0.10835,0.83037
461.264,24.10226,-2.90119,-0.09847398,0.82813
464.464,24.20351,-2.9089,-0.08436615,0.82589
467.664,24.3049,-2.91641,-0.06070257,0.82365
470.864,24.40643,-2.92532,-0.03626162,0.8214
474.064,24.50809,-2.93293,-0.00438083,0.81916
477.264,24.60981,-2.93954,0.02421234,0.8169
480.464,24.71151,-2.9459,0.05552362,0.81465
483.664,24.81334,-2.95428,0.08450197,0.81239
486.864,24.91529,-2.95916,0.11233,0.81013
490.064,25.01728,-2.96398,0.13828,0.80787
493.264,25.11942,-2.97074,0.16324,0.8056
496.464,25.22156,-2.97553,0.17927,0.80333
499.664,25.3235,-2.98245,0.19513,0.80106
502.864,25.42592,-2.98716,0.20934,0.79878
506.064,25.52843,-2.99147,0.21945,0.7965
509.264,25.63094,-2.9958,0.23122,0.79422
512.464,25.73333,-3.00013,0.23719,0.79194
515.664,25.83586,-3.00461,0.24236,0.78965
518.864,25.9387,-3.00842,0.24824,0.78736
522.064,26.0413,-3.01244,0.2524,0.78507
525.264,26.14406,-3.01719,0.25811,0.78278
528.464,26.247,-3.02186,0.25733,0.78048
531.664,26.35013,-3.02506,0.25888,0.77818
534.864,26.4532,-3.03005,0.25843,0.77588
538.064,26.55629,-3.03084,0.25701,0.77357
541.264,26.6597,-3.03347,0.25821,0.77127
544.464,26.763,-3.0385,0.25783,0.76896
547.664,26.8665,-3.04346,0.25812,0.76664
550.864,26.96997,-3.04586,0.25639,0.76433
554.064,27.07371,-3.04795,0.25773,0.76201
557.264,27.17742,-3.05002,0.26168,0.75969
560.464,27.28122,-3.05562,0.26229,0.75737
563.664,27.385,-3.05839,0.26835,0.75504
566.864,27.48917,-3.0625,0.26958,0.75272
570.064,27.59335,-3.06374,0.27344,0.75039
573.264,27.69753,-3.06664,0.27472,0.74806
576.464,27.8019,-3.06794,0.27542,0.74572
579.664,27.90608,-3.07197,0.27406,0.74339
582.864,28.0106,-3.07493,0.27404,0.74105
586.064,28.11515,-3.07865,0.27126,0.73871
589.264,28.2196,-3.07997,0.2693,0.73636
592.464,28.3244,-3.08377,0.2679,0.73402
595.664,28.42923,-3.08645,0.26736,0.73167
598.864,28.5339,-3.08908,0.26368,0.72932
602.064,28.63894,-3.0904,0.26131,0.72697
605.264,28.7441,-3.09304,0.26071,0.72462
608.464,28.8491,-3.09566,0.25863,0.72226
611.664,28.95427,-3.09841,0.25759,0.7199
614.864,29.05937,-3.09972,0.25537,0.71754
618.064,29.1647,-3.10104,0.25671,0.71518
621.264,29.2699,-3.10414,0.25573,0.71282
624.464,29.37528,-3.10649,0.25502,0.71045
627.664,29.48037,-3.10963,0.25051,0.70808
630.864,29.58557,-3.112,0.25061,0.70572
634.064,29.69112,-3.11474,0.24863,0.70334
637.264,29.7966,-3.11495,0.24289,0.70097
640.464,29.90199,-3.1176,0.24391,0.6986
643.664,30.00736,-3.11996,0.24124,0.69622
646.864,30.11298,-3.12185,0.2403,0.69384
650.064,30.2184,-3.12417,0.23913,0.69146
653.264,30.32388,-3.12516,0.23957,0.68908
656.464,30.42949,-3.12782,0.23676,0.68669
659.664,30.53505,-3.12914,0.23542,0.68431
662.864,30.64071,-3.13176,0.23168,0.68192
666.064,30.7462,-3.13207,0.23866,0.67953
669.264,30.8521,-3.13472,0.23767,0.67714
672.464,30.95782,-3.13472,0.23826,0.67475
675.664,31.06375,-3.13702,0.24142,0.67236
678.864,31.16958,-3.13714,0.23662,0.66997
682.064,31.2753,-3.13977,0.24296,0.66757
685.264,31.3815,-3.14107,0.24514,0.66517
688.464,31.48746,-3.14371,0.24784,0.66277
691.664,31.5937,-3.14503,0.24739,0.66037
694.864,31.6995,-3.14502,0.25019,0.65797
698.064,31.80568,-3.14634,0.2555,0.65557
701.264,31.91195,-3.14481,0.25392,0.65317
704.464,32.01814,-3.14903,0.25681,0.65076
707.664,32.1245,-3.14951,0.26191,0.64836
710.864,32.23083,-3.15187,0.26105,0.64595
714.064,32.33745,-3.15183,0.26279,0.64354
717.264,32.44396,-3.15315,0.26675,0.64113
720.464,32.55046,-3.15346,0.2639,0.63872
723.664,32.65698,-3.15446,0.27106,0.63631
726.864,32.76365,-3.15541,0.27363,0.6339
730.064,32.87027,-3.15577,0.27067,0.63148
733.264,32.97707,-3.15683,0.27545,0.62907
736.464,33.0837,-3.15811,0.27701,0.62665
739.664,33.19042,-3.15873,0.27632,0.62424
742.864,33.29732,-3.16038,0.27835,0.62182
746.064,33.40425,-3.16136,0.26909,0.6194
749.264,33.51105,-3.16263,0.26896,0.61699
752.464,33.61785,-3.16171,0.26921,0.61457
755.664,33.7248,-3.16301,0.27197,0.61215
758.864,33.83182,-3.16433,0.26786,0.60973
762.064,33.93889,-3.16558,0.2638,0.60731
765.264,34.04586,-3.16696,0.26381,0.60488
768.464,34.15262,-3.16828,0.25835,0.60246
771.664,34.2598,-3.16827,0.25772,0.60004
774.864,34.36697,-3.17091,0.25509,0.59762
778.064,34.47404,-3.17187,0.25341,0.5952
781.264,34.5812,-3.17221,0.24968,0.59277
784.464,34.68848,-3.17321,0.24486,0.59035
787.664,34.7957,-3.17416,0.24859,0.58793
790.864,34.90282,-3.17453,0.24439,0.5855
793.664,34.997,-3.17492,0.24377,0.58338