File: 01_Data/Cedar_Shingle/STA/N2/30K_min/Cedar_Shingle_STA_N2_30KData_220404_R1.csv
##Temp./Â°C,Time/min,Mass loss(subtr.2)/mg,DSC(subtr.2)/(mW/mg),Sensit./(uV/mW)
48.442,10.00667,-0.03828,0.02110774,1.07508
51.642,10.88374,-0.04086458,0.19222,1.07367
54.842,11.11811,-0.04083994,0.31223,1.07225
58.042,11.29854,-0.04067256,0.40366,1.07081
61.242,11.45425,-0.04262764,0.48243,1.06936
64.442,11.5954,-0.04287511,0.54832,1.0679
67.642,11.72752,-0.04220835,0.60907,1.06643
70.842,11.85373,-0.04281344,0.66294,1.06495
74.042,11.97586,-0.04481756,0.71575,1.06346
77.242,12.09489,-0.04613191,0.75956,1.06196
80.442,12.2112,-0.04609501,0.80773,1.06044
83.642,12.32549,-0.04781718,0.85071,1.05892
86.842,12.43829,-0.04851883,0.89016,1.05739
90.042,12.5496,-0.04975674,0.92923,1.05584
93.242,12.65974,-0.05218761,0.96263,1.05428
96.442,12.76866,-0.05382855,0.99587,1.05272
99.642,12.87698,-0.05551585,1.01926,1.05114
102.842,12.98548,-0.0568198,1.03736,1.04956
106.042,13.09352,-0.06077308,1.04756,1.04796
109.242,13.20174,-0.06167192,1.04877,1.04636
112.442,13.30915,-0.0630698,1.04942,1.04474
115.642,13.4162,-0.06575934,1.04484,1.04312
118.842,13.5229,-0.06736636,1.03661,1.04148
122.042,13.62884,-0.06866908,1.02575,1.03984
125.242,13.73475,-0.06998,1.01659,1.03818
128.442,13.8399,-0.06997985,1.01009,1.03652
131.642,13.94415,-0.07262482,1.00699,1.03485
134.842,14.04845,-0.07523707,1.00415,1.03317
138.042,14.15191,-0.07526559,1.0054,1.03148
141.242,14.25489,-0.07589915,1.01049,1.02978
144.442,14.3571,-0.07669144,1.01738,1.02807
147.642,14.45921,-0.07920757,1.02945,1.02636
150.842,14.5607,-0.08222878,1.0382,1.02463
154.042,14.66205,-0.08314,1.05172,1.0229
157.242,14.7629,-0.08442724,1.0643,1.02116
160.442,14.86377,-0.08512099,1.07592,1.01941
163.642,14.9642,-0.08774959,1.09105,1.01765
166.842,15.0644,-0.0900507,1.10504,1.01589
170.042,15.16448,-0.09154851,1.11844,1.01411
173.242,15.26416,-0.09300924,1.13248,1.01233
176.442,15.3634,-0.09554675,1.14538,1.01054
179.642,15.4626,-0.09754808,1.1587,1.00875
182.842,15.56131,-0.09959985,1.17156,1.00694
186.042,15.65986,-0.10255,1.18508,1.00513
189.242,15.758,-0.10421,1.19823,1.00331
192.442,15.8559,-0.10551,1.2113,1.00148
195.642,15.9536,-0.10916,1.22684,0.99965
198.842,16.0514,-0.11145,1.24117,0.9978
202.042,16.149,-0.11451,1.25757,0.99595
205.242,16.24654,-0.11583,1.27223,0.9941
208.442,16.34398,-0.11882,1.28396,0.99223
211.642,16.44136,-0.12273,1.29887,0.99036
214.842,16.5385,-0.12555,1.31347,0.98849
218.042,16.63526,-0.12871,1.33169,0.9866
221.242,16.73236,-0.13285,1.34507,0.98471
224.442,16.82957,-0.13699,1.36421,0.98282
227.642,16.92675,-0.14062,1.38249,0.98091
230.842,17.02419,-0.14548,1.40163,0.979
234.042,17.12098,-0.14999,1.41578,0.97708
237.242,17.218,-0.15645,1.43618,0.97516
240.442,17.31481,-0.16334,1.45449,0.97323
243.642,17.4117,-0.17048,1.47282,0.9713
246.842,17.50842,-0.17736,1.49005,0.96935
250.042,17.60514,-0.1858,1.50552,0.96741
253.242,17.70201,-0.19399,1.51792,0.96545
256.442,17.79869,-0.20412,1.53025,0.96349
259.642,17.89526,-0.21336,1.53542,0.96153
262.842,17.99178,-0.22374,1.53994,0.95956
266.042,18.08794,-0.2371,1.54228,0.95758
269.242,18.1849,-0.24982,1.54251,0.9556
272.442,18.28122,-0.26361,1.54041,0.95361
275.642,18.37783,-0.28022,1.53303,0.95161
278.842,18.47468,-0.29779,1.52978,0.94961
282.042,18.57134,-0.31425,1.52382,0.94761
285.242,18.66786,-0.33096,1.51577,0.9456
288.442,18.76466,-0.35364,1.5066,0.94358
291.642,18.86145,-0.37539,1.49826,0.94156
294.842,18.9583,-0.39938,1.48975,0.93954
298.042,19.05509,-0.42336,1.47708,0.9375
301.242,19.15201,-0.44666,1.47082,0.93547
304.442,19.2489,-0.47449,1.46138,0.93343
307.642,19.34579,-0.50441,1.45436,0.93138
310.842,19.44282,-0.53272,1.44832,0.92933
314.042,19.53977,-0.56394,1.44498,0.92727
317.242,19.637,-0.59862,1.44701,0.92521
320.442,19.73415,-0.63484,1.44635,0.92314
323.642,19.8313,-0.67313,1.4532,0.92107
326.842,19.92853,-0.71406,1.46357,0.919
330.042,20.02587,-0.75907,1.47614,0.91692
333.242,20.12311,-0.80719,1.49092,0.91483
336.442,20.22056,-0.85881,1.50738,0.91274
339.642,20.31816,-0.91422,1.52918,0.91065
342.842,20.4158,-0.97141,1.5491,0.90855
346.042,20.51345,-1.03452,1.57052,0.90645
349.242,20.61119,-1.09748,1.59228,0.90434
352.442,20.7092,-1.16572,1.61557,0.90223
355.642,20.8075,-1.23633,1.64251,0.90012
358.842,20.90578,-1.31027,1.67974,0.898
362.042,21.00408,-1.38672,1.7251,0.89587
365.242,21.10249,-1.46639,1.78257,0.89374
368.442,21.2011,-1.54949,1.8541,0.89161
371.642,21.29955,-1.63622,1.9317,0.88948
374.842,21.39874,-1.72955,2.01218,0.88734
378.042,21.49776,-1.82729,2.09048,0.88519
381.242,21.5968,-1.93084,2.14956,0.88304
384.442,21.69618,-2.03634,2.17857,0.88089
387.642,21.7956,-2.1434,2.16099,0.87873
390.842,21.89489,-2.24837,2.07969,0.87657
394.042,21.9943,-2.34921,1.92763,0.87441
397.242,22.0937,-2.43973,1.70547,0.87224
400.442,22.19308,-2.51745,1.4252,0.87007
403.642,22.29259,-2.5806,1.11737,0.8679
406.842,22.39196,-2.62776,0.82307,0.86572
410.042,22.49126,-2.66107,0.57704,0.86354
413.242,22.5907,-2.68466,0.40788,0.86135
416.442,22.6904,-2.7008,0.3036,0.85916
419.642,22.79007,-2.71519,0.24386,0.85697
422.842,22.89021,-2.72707,0.20267,0.85477
426.042,22.99033,-2.73815,0.17309,0.85257
429.242,23.0903,-2.74987,0.144,0.85037
432.442,23.19079,-2.76173,0.12327,0.84816
435.642,23.2914,-2.77224,0.09778045,0.84595
438.842,23.39189,-2.78352,0.07561854,0.84374
442.042,23.49277,-2.7941,0.05393033,0.84152
445.242,23.59349,-2.80326,0.03696942,0.8393
448.442,23.69451,-2.81339,0.0212469,0.83707
451.642,23.79563,-2.82248,0.01284921,0.83485
454.842,23.89685,-2.83117,0.008602176,0.83262
458.042,23.9983,-2.841,0.01501618,0.83038
461.242,24.09981,-2.85038,0.02689833,0.82815
464.442,24.20125,-2.85821,0.03822632,0.82591
467.642,24.3029,-2.86637,0.06172007,0.82367
470.842,24.40455,-2.87545,0.08965345,0.82142
474.042,24.50629,-2.88239,0.11886,0.81917
477.242,24.60817,-2.89055,0.14788,0.81692
480.442,24.70995,-2.89567,0.17989,0.81466
483.642,24.81172,-2.90249,0.20353,0.81241
486.842,24.9138,-2.90961,0.23042,0.81015
490.042,25.016,-2.91561,0.25623,0.80788
493.242,25.11821,-2.92004,0.27657,0.80562
496.442,25.22029,-2.92569,0.29141,0.80335
499.642,25.32271,-2.93232,0.30554,0.80107
502.842,25.4249,-2.93849,0.31727,0.7988
506.042,25.52745,-2.94145,0.3331,0.79652
509.242,25.63009,-2.94579,0.33911,0.79424
512.442,25.7324,-2.95023,0.34649,0.79196
515.642,25.83504,-2.95307,0.34997,0.78967
518.842,25.93778,-2.95692,0.35585,0.78738
522.042,26.0404,-2.96087,0.35877,0.78509
525.242,26.14299,-2.96523,0.36328,0.78279
528.442,26.2456,-2.96962,0.36288,0.7805
531.642,26.34842,-2.97323,0.36514,0.7782
534.842,26.4512,-2.97787,0.36531,0.7759
538.042,26.55402,-2.98146,0.36654,0.77359
541.242,26.65689,-2.98404,0.3671,0.77128
544.442,26.75975,-2.98686,0.37327,0.76897
547.642,26.8628,-2.9895,0.37801,0.76666
550.842,26.96592,-2.99233,0.38318,0.76435
554.042,27.06927,-2.9965,0.38567,0.76203
557.242,27.1728,-2.99973,0.39008,0.75971
560.442,27.2764,-3.00404,0.38686,0.75739
563.642,27.38012,-3.00672,0.38735,0.75506
566.842,27.4838,-3.00933,0.38442,0.75273
570.042,27.58741,-3.01363,0.38785,0.7504
573.242,27.6917,-3.01509,0.38013,0.74807
576.442,27.79547,-3.01774,0.37807,0.74574
579.642,27.8999,-3.02043,0.37393,0.7434
582.842,28.00488,-3.02343,0.36734,0.74106
586.042,28.10923,-3.02727,0.36382,0.73872
589.242,28.2138,-3.02864,0.36231,0.73638
592.442,28.3186,-3.0312,0.36108,0.73403
595.642,28.42339,-3.03447,0.35667,0.73169
598.842,28.5282,-3.03674,0.35225,0.72934
602.042,28.6331,-3.03884,0.3495,0.72699
605.242,28.7381,-3.04161,0.35241,0.72463
608.442,28.8432,-3.04316,0.3498,0.72228
611.642,28.94803,-3.04557,0.35019,0.71992
614.842,29.0534,-3.04949,0.34705,0.71756
618.042,29.1586,-3.05082,0.3423,0.7152
621.242,29.26395,-3.05508,0.3413,0.71283
624.442,29.36908,-3.0564,0.337,0.71047
627.642,29.4745,-3.05875,0.33705,0.7081
630.842,29.57998,-3.06101,0.33292,0.70573
634.042,29.6855,-3.06223,0.33109,0.70336
637.242,29.79096,-3.06463,0.3299,0.70099
640.442,29.8964,-3.06737,0.32882,0.69861
643.642,30.00188,-3.06869,0.32337,0.69624
646.842,30.10734,-3.07143,0.32086,0.69386
650.042,30.21313,-3.07274,0.31938,0.69148
653.242,30.31885,-3.07457,0.31572,0.68909
656.442,30.42448,-3.07626,0.31405,0.68671
659.642,30.5303,-3.0788,0.31245,0.68433
662.842,30.6361,-3.08006,0.31021,0.68194
666.042,30.7418,-3.08278,0.31256,0.67955
669.242,30.8476,-3.08273,0.31313,0.67716
672.442,30.95337,-3.08405,0.31656,0.67477
675.642,31.05923,-3.08668,0.31431,0.67238
678.842,31.16508,-3.08883,0.31526,0.66998
682.042,31.27088,-3.09006,0.3131,0.66759
685.242,31.3768,-3.09158,0.31695,0.66519
688.442,31.48292,-3.09194,0.31426,0.66279
691.642,31.58881,-3.09331,0.31571,0.66039
694.842,31.6946,-3.09457,0.31625,0.65799
698.042,31.80082,-3.09497,0.31975,0.65559
701.242,31.907,-3.0972,0.32275,0.65318
704.442,32.01316,-3.09852,0.32677,0.65078
707.642,32.1196,-3.09984,0.32417,0.64837
710.842,32.22607,-3.10113,0.32943,0.64597
714.042,32.3326,-3.10209,0.33206,0.64356
717.242,32.43897,-3.10337,0.33302,0.64115
720.442,32.54544,-3.1051,0.3372,0.63874
723.642,32.65201,-3.10511,0.33986,0.63633
726.842,32.75867,-3.10642,0.34328,0.63391
730.042,32.86542,-3.10774,0.34414,0.6315
733.242,32.97214,-3.10906,0.34091,0.62909
736.442,33.0788,-3.10904,0.34666,0.62667
739.642,33.18561,-3.11037,0.34734,0.62425
742.842,33.29233,-3.11167,0.34829,0.62184
746.042,33.3993,-3.113,0.35048,0.61942
749.242,33.50612,-3.11432,0.3531,0.617
752.442,33.6128,-3.11563,0.347,0.61458
755.642,33.7194,-3.11564,0.34782,0.61216
758.842,33.8264,-3.11696,0.34545,0.60974
762.042,33.93309,-3.11761,0.34298,0.60732
765.242,34.04013,-3.11893,0.33891,0.6049
768.442,34.147,-3.12027,0.34182,0.60248
771.642,34.25411,-3.12156,0.3391,0.60006
774.842,34.36125,-3.1209,0.33704,0.59764
778.042,34.4683,-3.12236,0.33923,0.59521
781.242,34.57544,-3.12432,0.33222,0.59279
784.442,34.6828,-3.12562,0.33302,0.59037
787.642,34.7901,-3.12589,0.334,0.58794
790.842,34.89732,-3.12693,0.33422,0.58552
793.842,34.99785,-3.12694,0.32825,0.58325