File: 01_Data/Triexta_Carpet_High_Pile/STA/N2/30K_min/Triexta_Carpet_High_Pile_STA_N2_30KData_220111_R1.csv
##Temp./Â°C,Time/min,Mass loss(subtr.2)/mg,DSC(subtr.2)/(mW/mg),Sensit./(uV/mW)
48.607,10.00917,0.01217,-0.002161446,1.06963
52.207,10.9117,0.01396084,0.14338,1.0693
55.807,11.15881,0.01436172,0.24877,1.06893
59.407,11.35016,0.01401645,0.32774,1.06853
63.007,11.51661,0.01563627,0.38341,1.06809
66.607,11.66892,0.01623037,0.42354,1.06761
70.207,11.81298,0.0151803,0.45405,1.0671
73.807,11.95074,0.01569251,0.48154,1.06656
77.407,12.08479,0.01715464,0.50599,1.06598
81.007,12.21595,0.01733162,0.52695,1.06536
84.607,12.34414,0.01496066,0.54503,1.06471
88.207,12.47078,0.01380209,0.56405,1.06402
91.807,12.5955,0.01397795,0.58125,1.0633
95.407,12.71906,0.01404629,0.59763,1.06255
99.007,12.842,0.01555006,0.61238,1.06176
102.607,12.96418,0.01455259,0.63027,1.06094
106.207,13.08589,0.01436925,0.64321,1.06008
109.807,13.2072,0.01437726,0.65921,1.05919
113.407,13.32877,0.01334074,0.67608,1.05827
117.007,13.44945,0.0140282,0.689,1.05731
120.607,13.5697,0.01272061,0.70324,1.05632
124.207,13.68905,0.01139984,0.71764,1.0553
127.807,13.80799,0.01199333,0.73396,1.05425
131.407,13.9264,0.01085637,0.74481,1.05316
135.007,14.0435,0.01064042,0.75855,1.05204
138.607,14.1607,0.008011116,0.77504,1.05089
142.207,14.27714,0.008010108,0.79015,1.04971
145.807,14.39289,0.009330036,0.80709,1.0485
149.407,14.50821,0.00933356,0.82916,1.04725
153.007,14.62292,0.007680116,0.85132,1.04598
156.607,14.7374,0.00702047,0.8815,1.04467
160.207,14.85159,0.007019085,0.92284,1.04334
163.807,14.96526,0.004762843,0.96562,1.04197
167.407,15.0791,0.004059997,0.98499,1.04057
171.007,15.19234,0.005039912,0.98032,1.03915
174.607,15.30524,0.002334923,0.97335,1.03769
178.207,15.4176,0.003064335,0.97469,1.03621
181.807,15.5297,0.00176073,0.99168,1.0347
185.407,15.6411,0.001109648,1.01106,1.03316
189.007,15.7527,-0.0008540704,1.03756,1.03159
192.607,15.86355,-0.003177101,1.07399,1.02999
196.207,15.9742,-0.00350644,1.11472,1.02836
199.807,16.08475,-0.00610497,1.16164,1.02671
203.407,16.19521,-0.008415338,1.22236,1.02503
207.007,16.30548,-0.0081197,1.3041,1.02332
210.607,16.41562,-0.01145463,1.42915,1.02159
214.207,16.52591,-0.01356879,1.58231,1.01983
217.807,16.636,-0.01770176,1.65647,1.01804
221.407,16.7461,-0.01872785,1.77901,1.01623
225.007,16.85601,-0.01965266,1.98865,1.01439
228.607,16.96595,-0.02310254,1.97935,1.01253
232.207,17.07544,-0.02300734,1.88261,1.01064
235.807,17.18492,-0.02766925,1.79977,1.00872
239.407,17.29405,-0.03546264,1.79403,1.00679
243.007,17.4031,-0.03949404,1.87242,1.00482
246.607,17.51258,-0.04342472,2.03533,1.00284
250.207,17.62177,-0.05034174,2.19015,1.00083
253.807,17.73098,-0.05989501,2.31028,0.9988
257.407,17.8404,-0.06567207,2.46042,0.99674
261.007,17.9497,-0.0743138,2.65119,0.99466
264.607,18.05898,-0.08256992,2.88047,0.99256
268.207,18.16841,-0.10046,3.13357,0.99044
271.807,18.2778,-0.1148,3.38237,0.98829
275.407,18.38736,-0.1286,3.59529,0.98613
279.007,18.49699,-0.14589,3.74381,0.98394
282.607,18.6065,-0.15887,3.7838,0.98173
286.207,18.7159,-0.17893,3.65193,0.9795
289.807,18.82501,-0.19228,3.33057,0.97725
293.407,18.9339,-0.20445,2.90833,0.97498
297.007,19.04244,-0.21652,2.49886,0.97269
300.607,19.15077,-0.22275,2.13969,0.97038
304.207,19.25916,-0.22585,1.84731,0.96805
307.807,19.36745,-0.22687,1.62871,0.96571
311.407,19.47574,-0.22854,1.47671,0.96334
315.007,19.58428,-0.23169,1.37404,0.96095
318.607,19.69277,-0.23541,1.31311,0.95855
322.207,19.8018,-0.23803,1.27205,0.95613
325.807,19.91081,-0.24065,1.24524,0.95369
329.407,20.01984,-0.24329,1.22947,0.95124
333.007,20.1291,-0.24592,1.21679,0.94877
336.607,20.23863,-0.24856,1.20962,0.94628
340.207,20.34806,-0.25084,1.20387,0.94377
343.807,20.4578,-0.25486,1.19935,0.94125
347.407,20.56776,-0.25644,1.19762,0.93871
351.007,20.6779,-0.26054,1.19409,0.93616
354.607,20.78817,-0.26445,1.19068,0.93359
358.207,20.89854,-0.27014,1.19325,0.93101
361.807,21.0091,-0.27444,1.19239,0.92842
365.407,21.11972,-0.27873,1.19599,0.9258
369.007,21.2306,-0.28778,1.2049,0.92318
372.607,21.34159,-0.29472,1.21888,0.92054
376.207,21.45261,-0.3075,1.23823,0.91789
379.807,21.5639,-0.3171,1.26045,0.91522
383.407,21.67527,-0.33133,1.29046,0.91254
387.007,21.7868,-0.34968,1.32812,0.90985
390.607,21.89852,-0.36966,1.37547,0.90715
394.207,22.01033,-0.39955,1.43551,0.90443
397.807,22.1223,-0.43455,1.51181,0.9017
401.407,22.23454,-0.47873,1.60223,0.89897
405.007,22.34672,-0.53303,1.71629,0.89622
408.607,22.45915,-0.59702,1.84819,0.89345
412.207,22.57177,-0.67631,2.00053,0.89068
415.807,22.6846,-0.77348,2.16352,0.8879
419.407,22.79747,-0.88252,2.31481,0.88511
423.007,22.9104,-1.00742,2.43247,0.88231
426.607,23.02388,-1.14206,2.48606,0.87949
430.207,23.13704,-1.27955,2.43712,0.87667
433.807,23.25025,-1.41991,2.25568,0.87384
437.407,23.36329,-1.5542,2.08248,0.871
441.007,23.47654,-1.67359,1.91192,0.86815
444.607,23.58951,-1.78017,1.737,0.8653
448.207,23.70267,-1.87291,1.57716,0.86243
451.807,23.81575,-1.95514,1.45199,0.85956
455.407,23.9294,-2.02888,1.36198,0.85668
459.007,24.04271,-2.08878,1.29334,0.85379
462.607,24.1565,-2.13911,1.22168,0.8509
466.207,24.27024,-2.17982,1.14919,0.848
469.807,24.38415,-2.21495,1.0798,0.84509
473.407,24.49835,-2.24513,1.02704,0.84217
477.007,24.61262,-2.27458,0.97924,0.83925
480.607,24.7269,-2.30352,0.929,0.83633
484.207,24.84154,-2.32809,0.87394,0.8334
487.807,24.9562,-2.34727,0.79117,0.83046
491.407,25.07081,-2.3649,0.6994,0.82752
495.007,25.1858,-2.3756,0.60607,0.82457
498.607,25.30085,-2.38323,0.52988,0.82162
502.207,25.4159,-2.38797,0.47944,0.81866
505.807,25.53125,-2.3929,0.44744,0.8157
509.407,25.6467,-2.39675,0.42658,0.81273
513.007,25.76207,-2.40069,0.41478,0.80976
516.607,25.87752,-2.40624,0.39825,0.80679
520.207,25.99314,-2.40889,0.38809,0.80381
523.807,26.10908,-2.41385,0.3823,0.80083
527.407,26.22482,-2.41717,0.37535,0.79785
531.007,26.34075,-2.4187,0.37072,0.79486
534.607,26.45702,-2.42518,0.36217,0.79188
538.207,26.573,-2.42972,0.36057,0.78889
541.807,26.68938,-2.43283,0.35374,0.78589
545.407,26.80589,-2.43531,0.35031,0.7829
549.007,26.92247,-2.44011,0.34784,0.7799
552.607,27.0385,-2.44583,0.34557,0.7769
556.207,27.15547,-2.4481,0.34586,0.7739
559.807,27.27222,-2.45398,0.34471,0.7709
563.407,27.38885,-2.45872,0.34923,0.7679
567.007,27.50558,-2.46652,0.35707,0.76489
570.607,27.62258,-2.47043,0.36181,0.76189
574.207,27.73975,-2.47645,0.37224,0.75889
577.807,27.85691,-2.48292,0.38017,0.75588
581.407,27.97399,-2.49177,0.39169,0.75288
585.007,28.09125,-2.49882,0.40196,0.74987
588.607,28.20866,-2.50491,0.41231,0.74687
592.207,28.32635,-2.51175,0.42002,0.74386
595.807,28.44398,-2.51846,0.43206,0.74086
599.407,28.56186,-2.52739,0.44596,0.73785
603.007,28.67973,-2.5382,0.46646,0.73485
606.607,28.7977,-2.54929,0.49284,0.73185
610.207,28.91592,-2.56169,0.52473,0.72885
613.807,29.03407,-2.5691,0.57054,0.72585
617.407,29.1524,-2.58124,0.6068,0.72285
621.007,29.2705,-2.59536,0.62078,0.71985
624.607,29.3889,-2.61172,0.62644,0.71685
628.207,29.50752,-2.62879,0.62231,0.71386
631.807,29.6259,-2.65045,0.59037,0.71087
635.407,29.744,-2.66918,0.54337,0.70788
639.007,29.86303,-2.68643,0.51167,0.70489
642.607,29.9817,-2.6983,0.44542,0.70191
646.207,30.10019,-2.70473,0.38074,0.69892
649.807,30.21898,-2.70901,0.34359,0.69594
653.407,30.3377,-2.71085,0.33387,0.69297
657.007,30.4565,-2.71337,0.3584,0.68999
660.607,30.5753,-2.71921,0.39149,0.68702
664.207,30.69398,-2.7223,0.42602,0.68405
667.807,30.81271,-2.72263,0.46177,0.68109
671.407,30.93167,-2.7283,0.49726,0.67813
675.007,31.0506,-2.73013,0.5384,0.67517
678.607,31.1696,-2.73618,0.57624,0.67221
682.207,31.28862,-2.7442,0.61936,0.66926
685.807,31.4079,-2.74756,0.67897,0.66631
689.407,31.52726,-2.7509,0.74166,0.66337
693.007,31.6466,-2.75708,0.79711,0.66043
696.607,31.7659,-2.76113,0.86035,0.65749
700.207,31.88536,-2.76807,0.93595,0.65456
703.807,32.00504,-2.77775,1.02948,0.65163
707.407,32.12481,-2.78314,1.13426,0.64871
711.007,32.24453,-2.79373,1.23745,0.64579
714.607,32.3644,-2.80236,1.32625,0.64288
718.207,32.4843,-2.81626,1.38043,0.63997
721.807,32.60417,-2.82172,1.35804,0.63706
725.407,32.72422,-2.83086,1.19226,0.63416
729.007,32.84404,-2.84083,0.81456,0.63127
732.607,32.96393,-2.8439,0.28178,0.62837
736.207,33.08376,-2.8456,0.09425299,0.62549
739.807,33.20355,-2.84682,0.019156,0.62261
743.407,33.32366,-2.84828,-0.0205702,0.61973
747.007,33.44382,-2.84784,-0.0440824,0.61686
750.607,33.56407,-2.84906,-0.06340553,0.614
754.207,33.68408,-2.85118,-0.07732672,0.61114
757.807,33.8045,-2.84988,-0.08770028,0.60828
761.407,33.92483,-2.85123,-0.10016,0.60543
765.007,34.04523,-2.84987,-0.11429,0.60259
768.607,34.16577,-2.85249,-0.12432,0.59975
772.207,34.28627,-2.85115,-0.13842,0.59692
775.807,34.4069,-2.85382,-0.14668,0.59409
779.407,34.52766,-2.85381,-0.1587,0.59127
783.007,34.64836,-2.85514,-0.16892,0.58846
786.607,34.7691,-2.85514,-0.17864,0.58565
790.207,34.88985,-2.85382,-0.18581,0.58284
793.807,35.01052,-2.85515,-0.19722,0.58005
797.407,35.1313,-2.85645,-0.20748,0.57726
801.007,35.25221,-2.85645,-0.2148,0.57447
804.607,35.37301,-2.85643,-0.23107,0.57169
808.207,35.4938,-2.85858,-0.23886,0.56892
811.807,35.6147,-2.8604,-0.24605,0.56615
815.407,35.73567,-2.8591,-0.26173,0.56339
819.007,35.85657,-2.86004,-0.2686,0.56063
822.607,35.97753,-2.86045,-0.28317,0.55789
826.207,36.09875,-2.86171,-0.2943,0.55514
829.807,36.21997,-2.85897,-0.30273,0.55241
833.407,36.34127,-2.86131,-0.30473,0.54968
837.007,36.4626,-2.86057,-0.30943,0.54696
840.607,36.58406,-2.86274,-0.30506,0.54424
844.207,36.7057,-2.86132,-0.30639,0.54153
847.807,36.82718,-2.85943,-0.31257,0.53883
851.407,36.94866,-2.86358,-0.30652,0.53613
855.007,37.07018,-2.86225,-0.30411,0.53344
858.607,37.19166,-2.86489,-0.30129,0.53075
862.207,37.31343,-2.86236,-0.30367,0.52808
865.807,37.43501,-2.86477,-0.29506,0.52541
869.407,37.5568,-2.86326,-0.28986,0.52274
873.007,37.67863,-2.86555,-0.28612,0.52008
876.607,37.80042,-2.86556,-0.27984,0.51743
880.207,37.92198,-2.86489,-0.27915,0.51479
883.807,38.0439,-2.86687,-0.27444,0.51215
887.407,38.16567,-2.86688,-0.27319,0.50952
891.007,38.2873,-2.87017,-0.26659,0.5069
892.307,38.3319,-2.86884,-0.25703,0.50595