File: 01_Data/Triexta_Carpet_High_Pile/STA/N2/30K_min/Triexta_Carpet_High_Pile_STA_N2_30KData_220111_R2.csv
##Temp./Â°C,Time/min,Mass loss(subtr.2)/mg,DSC(subtr.2)/(mW/mg),Sensit./(uV/mW)
48.569,10.01,-0.01712,-0.00125767,1.06963
52.169,10.9131,-0.01807842,0.08690393,1.0693
55.769,11.1601,-0.01942191,0.15374,1.06893
59.369,11.3514,-0.0204973,0.20444,1.06853
62.969,11.51764,-0.0202144,0.23581,1.06809
66.569,11.67078,-0.01918597,0.25289,1.06762
70.169,11.81452,-0.02041207,0.2655,1.06711
73.769,11.95237,-0.02076476,0.27732,1.06656
77.369,12.08656,-0.02192693,0.28728,1.06598
80.969,12.21743,-0.02193362,0.29639,1.06537
84.569,12.34575,-0.02223182,0.30611,1.06472
88.169,12.47205,-0.02327832,0.31654,1.06403
91.769,12.59688,-0.02220433,0.32577,1.06331
95.369,12.7204,-0.02215082,0.33105,1.06256
98.969,12.84292,-0.02321698,0.34082,1.06177
102.569,12.96488,-0.02222407,0.3509,1.06095
106.169,13.08641,-0.02229472,0.35707,1.06009
109.769,13.20769,-0.02348106,0.36953,1.0592
113.369,13.3284,-0.02348141,0.3776,1.05828
116.969,13.4491,-0.0248152,0.38189,1.05732
120.569,13.569,-0.0234802,0.39085,1.05633
124.169,13.6882,-0.02499316,0.40216,1.05531
127.769,13.80686,-0.02479279,0.40876,1.05426
131.369,13.9249,-0.02610933,0.41674,1.05317
134.969,14.042,-0.02823394,0.425,1.05205
138.569,14.1586,-0.02840998,0.43794,1.0509
142.169,14.27464,-0.02972987,0.44988,1.04972
145.769,14.3901,-0.0297302,0.46171,1.04851
149.369,14.50489,-0.03104,0.47959,1.04727
152.969,14.61922,-0.03235974,0.49829,1.04599
156.569,14.7333,-0.03103749,0.52903,1.04469
160.169,14.84712,-0.03238546,0.56631,1.04335
163.769,14.96069,-0.03401,0.59861,1.04198
167.369,15.07395,-0.03474781,0.60607,1.04059
170.969,15.1869,-0.03533001,0.5939,1.03916
174.569,15.2995,-0.03664791,0.5898,1.03771
178.169,15.4116,-0.03894035,0.59374,1.03623
181.769,15.52335,-0.03894,0.60897,1.03471
185.369,15.6349,-0.03894878,0.62717,1.03317
188.969,15.7461,-0.04046912,0.65235,1.0316
192.569,15.857,-0.04387891,0.68328,1.03
196.169,15.9676,-0.04519912,0.7174,1.02838
199.769,16.0784,-0.04715848,0.76643,1.02673
203.369,16.18885,-0.05128186,0.82753,1.02505
206.969,16.2994,-0.05254831,0.91337,1.02334
210.569,16.40964,-0.05517082,1.04967,1.02161
214.169,16.52,-0.05780865,1.17604,1.01985
217.769,16.6302,-0.06012501,1.22822,1.01806
221.369,16.7405,-0.06307183,1.39585,1.01625
224.969,16.85052,-0.06541488,1.57263,1.01441
228.569,16.96067,-0.06928875,1.5104,1.01255
232.169,17.07062,-0.07385156,1.42962,1.01066
235.769,17.18011,-0.07536172,1.3909,1.00874
239.369,17.28976,-0.08059416,1.43391,1.00681
242.969,17.39902,-0.08896007,1.56793,1.00485
246.569,17.50868,-0.09322121,1.78691,1.00286
250.169,17.61833,-0.10216,1.96907,1.00085
253.769,17.72808,-0.10936,2.13649,0.99882
257.369,17.83781,-0.11861,2.32722,0.99676
260.969,17.94744,-0.13069,2.54887,0.99469
264.569,18.05688,-0.14377,2.79176,0.99258
268.169,18.1667,-0.16108,3.03241,0.99046
271.769,18.27636,-0.17811,3.23584,0.98832
275.369,18.3861,-0.19523,3.38264,0.98615
278.969,18.4957,-0.21381,3.41641,0.98396
282.569,18.60558,-0.22983,3.28704,0.98175
286.169,18.71484,-0.24357,2.95731,0.97952
289.769,18.82348,-0.25747,2.51073,0.97728
293.369,18.9324,-0.2638,2.08421,0.97501
296.969,19.0409,-0.27092,1.74475,0.97272
300.569,19.14922,-0.27663,1.488,0.97041
304.169,19.25766,-0.28035,1.30259,0.96808
307.769,19.36618,-0.28253,1.16955,0.96573
311.369,19.47479,-0.28826,1.0789,0.96336
314.969,19.5835,-0.28943,1.01668,0.96098
318.569,19.69245,-0.29208,0.97884,0.95858
322.169,19.80162,-0.29473,0.95239,0.95616
325.769,19.91084,-0.29638,0.93808,0.95372
329.369,20.02027,-0.29913,0.93009,0.95126
332.969,20.1297,-0.30206,0.92664,0.94879
336.569,20.2394,-0.30703,0.92578,0.9463
340.169,20.34923,-0.31245,0.92231,0.9438
343.769,20.4592,-0.31387,0.92618,0.94128
347.369,20.5693,-0.31667,0.92653,0.93874
350.969,20.67955,-0.32029,0.92831,0.93619
354.569,20.78998,-0.32303,0.9374,0.93362
358.169,20.90033,-0.32932,0.94267,0.93104
361.769,21.01098,-0.3347,0.95267,0.92844
365.369,21.12185,-0.33823,0.96518,0.92583
368.969,21.23258,-0.34627,0.98023,0.92321
372.569,21.34364,-0.35651,1.00098,0.92057
376.169,21.4547,-0.3688,1.0313,0.91792
379.769,21.5659,-0.38053,1.06764,0.91525
383.369,21.67756,-0.39851,1.10463,0.91257
386.969,21.78914,-0.4179,1.15629,0.90988
390.569,21.901,-0.44303,1.21323,0.90718
394.169,22.01295,-0.4752,1.28598,0.90446
397.769,22.12501,-0.51265,1.36781,0.90173
401.369,22.23722,-0.56062,1.4681,0.89899
404.969,22.3497,-0.62132,1.58892,0.89624
408.569,22.46225,-0.69124,1.72703,0.89348
412.169,22.57518,-0.77644,1.88155,0.89071
415.769,22.68798,-0.87609,2.04316,0.88793
419.369,22.80115,-0.99228,2.1887,0.88514
422.969,22.91432,-1.12129,2.2993,0.88233
426.569,23.0277,-1.2579,2.34797,0.87952
430.169,23.14102,-1.39674,2.32611,0.8767
433.769,23.25452,-1.53814,2.21211,0.87387
437.369,23.3679,-1.67096,2.0401,0.87103
440.969,23.4809,-1.79495,1.85614,0.86818
444.569,23.5941,-1.90368,1.68122,0.86533
448.169,23.7073,-1.99963,1.53692,0.86246
451.769,23.82049,-2.08014,1.42742,0.85959
455.369,23.93381,-2.14832,1.34113,0.85671
458.969,24.04733,-2.20516,1.26683,0.85382
462.569,24.161,-2.248,1.18848,0.85093
466.169,24.2747,-2.28389,1.11257,0.84803
469.769,24.38861,-2.31546,1.05435,0.84512
473.369,24.50271,-2.34475,1.0132,0.84221
476.969,24.6168,-2.37123,0.97838,0.83928
480.569,24.73113,-2.39857,0.94351,0.83636
484.169,24.84532,-2.423,0.89963,0.83343
487.769,24.96,-2.44227,0.83861,0.83049
491.369,25.0746,-2.45587,0.7603,0.82755
494.969,25.1892,-2.46785,0.67676,0.8246
498.569,25.30414,-2.47456,0.60618,0.82165
502.169,25.4192,-2.48113,0.55653,0.81869
505.769,25.53406,-2.48595,0.53038,0.81573
509.369,25.6495,-2.489,0.50822,0.81276
512.969,25.76474,-2.49163,0.49708,0.80979
516.569,25.88036,-2.49463,0.48707,0.80682
520.169,25.9959,-2.50018,0.48049,0.80384
523.769,26.11161,-2.50527,0.47251,0.80086
527.369,26.22728,-2.50968,0.47104,0.79788
530.969,26.3434,-2.51652,0.46571,0.7949
534.569,26.45934,-2.51857,0.46519,0.79191
538.169,26.5753,-2.52124,0.46189,0.78892
541.769,26.6917,-2.52529,0.46001,0.78592
545.369,26.8081,-2.52678,0.45586,0.78293
548.969,26.9244,-2.53258,0.45406,0.77993
552.569,27.041,-2.53529,0.4496,0.77693
556.169,27.1577,-2.54152,0.45039,0.77393
559.769,27.27451,-2.54617,0.45163,0.77093
563.369,27.3912,-2.54939,0.45357,0.76793
566.969,27.5082,-2.55549,0.45737,0.76493
570.569,27.6252,-2.56259,0.45977,0.76192
574.169,27.74227,-2.56886,0.46872,0.75892
577.769,27.8595,-2.57511,0.47452,0.75591
581.369,27.9768,-2.5817,0.48205,0.75291
584.969,28.09405,-2.58767,0.49174,0.7499
588.569,28.21175,-2.59213,0.49742,0.7469
592.169,28.3294,-2.59789,0.51007,0.74389
595.769,28.44714,-2.60446,0.52572,0.74089
599.369,28.5649,-2.61102,0.54561,0.73788
602.969,28.6829,-2.62217,0.56509,0.73488
606.569,28.8011,-2.63093,0.59504,0.73188
610.169,28.9192,-2.64358,0.64389,0.72888
613.769,29.0373,-2.65315,0.68514,0.72588
617.369,29.1555,-2.66951,0.69042,0.72288
620.969,29.27375,-2.68636,0.68084,0.71988
624.569,29.392,-2.70453,0.66344,0.71689
628.169,29.5103,-2.7252,0.62517,0.71389
631.769,29.62861,-2.74286,0.57955,0.7109
635.369,29.7472,-2.75657,0.53955,0.70791
638.969,29.86607,-2.76409,0.46645,0.70492
642.569,29.98467,-2.76817,0.42803,0.70194
646.169,30.1034,-2.77271,0.42066,0.69896
649.769,30.2222,-2.77522,0.43716,0.69598
653.369,30.34088,-2.77891,0.46148,0.693
656.969,30.45982,-2.78307,0.49254,0.69002
660.569,30.57876,-2.78724,0.51736,0.68705
664.169,30.6978,-2.78879,0.54913,0.68408
667.769,30.8169,-2.79283,0.58874,0.68112
671.369,30.93603,-2.79845,0.62939,0.67816
674.969,31.05495,-2.8018,0.68132,0.6752
678.569,31.1743,-2.80672,0.74064,0.67224
682.169,31.2935,-2.81422,0.80401,0.66929
685.769,31.41275,-2.81931,0.86355,0.66634
689.369,31.53193,-2.82357,0.91867,0.6634
692.969,31.6514,-2.83299,0.99499,0.66046
696.569,31.77078,-2.83731,1.07797,0.65752
700.169,31.8901,-2.84384,1.17677,0.65459
703.769,32.0096,-2.85436,1.28009,0.65166
707.369,32.12936,-2.86504,1.38271,0.64874
710.969,32.24905,-2.87425,1.45962,0.64582
714.569,32.36868,-2.8853,1.49167,0.64291
718.169,32.48832,-2.89423,1.4267,0.64
721.769,32.60821,-2.90421,1.18655,0.63709
725.369,32.72779,-2.9121,0.66179,0.63419
728.969,32.84725,-2.91336,0.3494,0.6313
732.569,32.96719,-2.91551,0.24346,0.6284
736.169,33.08708,-2.91544,0.19453,0.62552
739.769,33.20734,-2.91534,0.16555,0.62264
743.369,33.32751,-2.91569,0.14948,0.61976
746.969,33.44745,-2.91569,0.13684,0.61689
750.569,33.56757,-2.917,0.12656,0.61403
754.169,33.68773,-2.91823,0.11733,0.61117
757.769,33.80794,-2.92093,0.11226,0.60831
761.369,33.92853,-2.91832,0.10469,0.60546
764.969,34.0489,-2.91799,0.10055,0.60262
768.569,34.16946,-2.91964,0.09735665,0.59978
772.169,34.29,-2.92227,0.0885281,0.59695
775.769,34.4107,-2.92095,0.08045183,0.59412
779.369,34.53134,-2.92268,0.08109073,0.5913
782.969,34.65231,-2.92404,0.074579,0.58849
786.569,34.77301,-2.92412,0.07216881,0.58568
790.169,34.89377,-2.92511,0.0674873,0.58287
793.769,35.0144,-2.92483,0.06349806,0.58008
797.369,35.1352,-2.92445,0.05849682,0.57728
800.969,35.25611,-2.92445,0.05588943,0.5745
804.569,35.37685,-2.9259,0.04895559,0.57172
808.169,35.4978,-2.92655,0.05127757,0.56895
811.769,35.61878,-2.92637,0.04467102,0.56618
815.369,35.73949,-2.92709,0.03235494,0.56342
818.969,35.86038,-2.92613,0.02572184,0.56066
822.569,35.98145,-2.92897,0.01843251,0.55791
826.169,36.10236,-2.92808,0.01338906,0.55517
829.769,36.22325,-2.92802,0.01905327,0.55244
833.369,36.3443,-2.92948,0.02494667,0.54971
836.969,36.46513,-2.93028,0.03280531,0.54698
840.569,36.58656,-2.93038,0.04334176,0.54427
844.169,36.7079,-2.93168,0.05067829,0.54156
847.769,36.82915,-2.93038,0.06069238,0.53885
851.369,36.95067,-2.92972,0.06455929,0.53616
854.969,37.07203,-2.93034,0.07410283,0.53347
858.569,37.19355,-2.93311,0.09052355,0.53078
862.169,37.3151,-2.93432,0.10502,0.5281
865.769,37.43653,-2.93564,0.11442,0.52543
869.369,37.55815,-2.93597,0.12945,0.52277
872.969,37.67969,-2.9363,0.1404,0.52011
876.569,37.80126,-2.93567,0.16016,0.51746
880.169,37.92304,-2.9343,0.17456,0.51482
883.769,38.0446,-2.93564,0.19626,0.51218
887.369,38.16618,-2.93432,0.20616,0.50955
890.969,38.28785,-2.93433,0.22474,0.50693
892.269,38.33265,-2.93568,0.22972,0.50598