File: 01_Data/PlasticC/STA/N2/10K_min/PlasticC_STA_N2_10KData_211026_R2.csv
##Temp./Â°C,Time/min,Mass loss(subtr.2)/mg,DSC(subtr.2)/(mW/mg),Sensit./(uV/mW)
49.845,10.01,-0.025,0.02263429,1.03584
52.445,12.37379,-0.03033965,0.10353,1.03571
55.045,13.07306,-0.02512624,0.14454,1.03554
57.645,13.6287,-0.02400997,0.16765,1.03534
60.245,14.11641,-0.02312528,0.18672,1.03512
62.845,14.5571,-0.02095309,0.2084,1.03487
65.445,14.96619,-0.02088518,0.22688,1.03459
68.045,15.34874,-0.01767939,0.24024,1.03428
70.645,15.7146,-0.02139176,0.25301,1.03394
73.245,16.0641,-0.02221739,0.26914,1.03357
75.845,16.39984,-0.03201889,0.2805,1.03317
78.445,16.72395,-0.02160119,0.29669,1.03275
81.045,17.03924,-0.02369803,0.29905,1.0323
83.645,17.34609,-0.02427465,0.29934,1.03182
86.245,17.64444,-0.02502477,0.30445,1.03132
88.845,17.93664,-0.02232888,0.31631,1.03078
91.445,18.22214,-0.03509624,0.32577,1.03022
94.045,18.5031,-0.01089477,0.34451,1.02964
96.645,18.77927,-0.03911006,0.35569,1.02902
99.245,19.05229,-0.0286563,0.37348,1.02839
101.845,19.32123,-0.02707905,0.39099,1.02772
104.445,19.58759,-0.02016648,0.40497,1.02703
107.045,19.8518,-0.05638328,0.4092,1.02631
109.645,20.11338,-0.0066105,0.41803,1.02557
112.245,20.37305,-0.03474759,0.42224,1.0248
114.845,20.6315,-0.02194768,0.4288,1.024
117.445,20.88781,-0.02171169,0.43379,1.02318
120.045,21.143,-0.0335453,0.43908,1.02234
122.645,21.39517,-0.03316242,0.44267,1.02147
125.245,21.64692,-0.01438645,0.44915,1.02058
127.845,21.89604,-0.02661563,0.45427,1.01966
130.445,22.14401,-0.02716238,0.45767,1.01872
133.045,22.3901,-0.01194292,0.46432,1.01775
135.645,22.6346,-0.01961033,0.46783,1.01676
138.245,22.87769,-0.02430465,0.47189,1.01575
140.845,23.11944,-0.0195083,0.47533,1.01471
143.445,23.36,-0.02829002,0.48117,1.01365
146.045,23.59939,-0.02369765,0.48598,1.01257
148.645,23.83814,-0.02611016,0.4872,1.01147
151.245,24.07649,-0.02827754,0.49378,1.01034
153.845,24.3138,-0.02468964,0.49813,1.00919
156.445,24.55058,-0.0250637,0.50192,1.00802
159.045,24.78761,-0.02904868,0.50418,1.00683
161.645,25.02371,-0.02324045,0.50848,1.00561
164.245,25.26003,-0.02171062,0.50973,1.00438
166.845,25.49531,-0.02579747,0.51366,1.00312
169.445,25.73047,-0.0248733,0.5134,1.00184
172.045,25.96538,-0.03094061,0.51878,1.00055
174.645,26.20032,-0.03213255,0.52005,0.99923
177.245,26.43457,-0.02691292,0.52697,0.99789
179.845,26.66835,-0.02530694,0.52882,0.99653
182.445,26.9018,-0.03305981,0.53059,0.99515
185.045,27.13471,-0.03020249,0.53508,0.99375
187.645,27.36729,-0.02668554,0.53465,0.99234
190.245,27.5993,-0.03094199,0.53902,0.9909
192.845,27.8314,-0.02633925,0.54263,0.98944
195.445,28.0641,-0.02205977,0.54424,0.98797
198.045,28.2958,-0.03134567,0.54985,0.98648
200.645,28.52692,-0.03118356,0.55095,0.98497
203.245,28.7583,-0.0283677,0.55128,0.98344
205.845,28.9904,-0.01158552,0.55094,0.98189
208.445,29.22172,-0.03486126,0.55828,0.98033
211.045,29.45366,-0.04221676,0.55926,0.97875
213.645,29.6848,-0.03900051,0.56103,0.97715
216.245,29.91713,-0.03394922,0.5618,0.97554
218.845,30.149,-0.03017479,0.56322,0.97391
221.445,30.3805,-0.04009213,0.56591,0.97226
224.045,30.61236,-0.03605229,0.56626,0.9706
226.645,30.84457,-0.01523257,0.5645,0.96892
229.245,31.0767,-0.03815505,0.56802,0.96722
231.845,31.30883,-0.03250214,0.56931,0.96551
234.445,31.54162,-0.03762581,0.57422,0.96379
237.045,31.7744,-0.03969103,0.56971,0.96205
239.645,32.00477,-0.06106583,0.57809,0.96029
242.245,32.23853,-0.04027731,0.57383,0.95852
244.845,32.4711,-0.02789555,0.57311,0.95674
247.445,32.7031,-0.03645687,0.57871,0.95494
250.045,32.93557,-0.03615525,0.57856,0.95313
252.645,33.16875,-0.04023327,0.57965,0.9513
255.245,33.40152,-0.03882061,0.57959,0.94947
257.845,33.6344,-0.04481771,0.58041,0.94762
260.445,33.8677,-0.04522759,0.5812,0.94575
263.045,34.1013,-0.05056726,0.58197,0.94388
265.645,34.3344,-0.05438896,0.58269,0.94199
268.245,34.5685,-0.04805691,0.58063,0.94009
270.845,34.80117,-0.04985592,0.58321,0.93817
273.445,35.03606,-0.05255802,0.5799,0.93625
276.045,35.26958,-0.06780128,0.58609,0.93431
278.645,35.5043,-0.05322978,0.578,0.93237
281.245,35.73892,-0.05915574,0.58112,0.93041
283.845,35.9731,-0.05960258,0.57629,0.92844
286.445,36.2082,-0.05702883,0.57118,0.92646
289.045,36.4435,-0.05964645,0.57079,0.92447
291.645,36.6783,-0.06895421,0.5729,0.92247
294.245,36.914,-0.05996784,0.56308,0.92046
296.845,37.14904,-0.08051135,0.57445,0.91844
299.445,37.38463,-0.07290406,0.56997,0.91642
302.045,37.62059,-0.07085861,0.56554,0.91438
304.645,37.85682,-0.08129439,0.56575,0.91233
307.245,38.0929,-0.08895482,0.5736,0.91028
309.845,38.33007,-0.08192036,0.56496,0.90821
312.445,38.5674,-0.09618996,0.56628,0.90614
315.045,38.80533,-0.08987554,0.5544,0.90406
317.645,39.04204,-0.10102,0.55995,0.90198
320.245,39.28031,-0.09365565,0.54904,0.89988
322.845,39.5182,-0.08807176,0.53869,0.89778
325.445,39.7567,-0.10928,0.54367,0.89567
328.045,39.99442,-0.10764,0.54036,0.89356
330.645,40.23381,-0.09335682,0.52412,0.89143
333.245,40.47229,-0.10359,0.52603,0.88931
335.845,40.71059,-0.1144,0.52207,0.88717
338.445,40.94995,-0.12185,0.52093,0.88503
341.045,41.18949,-0.12795,0.51377,0.88288
343.645,41.4292,-0.12079,0.49912,0.88073
346.245,41.66884,-0.12705,0.49686,0.87857
348.845,41.90935,-0.12698,0.48747,0.87641
351.445,42.14975,-0.1358,0.48715,0.87424
354.045,42.39055,-0.13722,0.47862,0.87207
356.645,42.63127,-0.14675,0.4754,0.86989
359.245,42.87213,-0.14499,0.46633,0.86771
361.845,43.1135,-0.14474,0.4583,0.86553
364.445,43.35487,-0.14415,0.44772,0.86334
367.045,43.59565,-0.1548,0.44813,0.86114
369.645,43.83805,-0.1562,0.45024,0.85895
372.245,44.0799,-0.1699,0.45513,0.85675
374.845,44.3217,-0.17004,0.45883,0.85455
377.445,44.56436,-0.18216,0.47099,0.85234
380.045,44.80742,-0.17799,0.47937,0.85013
382.645,45.04979,-0.19581,0.50178,0.84792
385.245,45.29357,-0.1999,0.52535,0.84571
387.845,45.53787,-0.21127,0.55744,0.8435
390.445,45.7816,-0.21915,0.5887,0.84128
393.045,46.0255,-0.22437,0.6386,0.83906
395.645,46.26962,-0.23767,0.68768,0.83684
398.245,46.51405,-0.2628,0.75885,0.83462
400.845,46.75868,-0.2832,0.84416,0.8324
403.445,47.00345,-0.2955,0.93955,0.83018
406.045,47.24977,-0.31761,1.06384,0.82795
408.645,47.49411,-0.39365,1.24074,0.82573
411.245,47.74054,-0.41893,1.44117,0.8235
413.845,47.98741,-0.49696,1.70937,0.82128
416.445,48.2351,-0.55927,2.02709,0.81905
419.045,48.48363,-0.65882,2.4158,0.81683
421.645,48.73135,-0.79796,2.84633,0.81461
424.245,48.98141,-0.97668,3.32827,0.81238
426.845,49.22974,-1.14761,3.74981,0.81016
429.445,49.48086,-1.40144,4.14126,0.80794
432.045,49.73076,-1.63942,4.40848,0.80572
434.645,49.98063,-1.90602,4.46732,0.8035
437.245,50.2299,-2.16872,4.34427,0.80128
439.845,50.47703,-2.42825,4.06031,0.79906
442.445,50.7245,-2.65107,3.6586,0.79685
445.045,50.97117,-2.85362,3.19938,0.79464
447.645,51.21765,-3.02649,2.72286,0.79243
450.245,51.46407,-3.17491,2.26087,0.79022
452.845,51.7104,-3.29645,1.84458,0.78801
455.445,51.95486,-3.40148,1.50131,0.78581
458.045,52.20232,-3.46516,1.22255,0.78361
460.645,52.45085,-3.52742,1.02865,0.78141
463.245,52.6989,-3.58851,0.88647,0.77921
465.845,52.9468,-3.63412,0.77342,0.77702
468.445,53.1949,-3.67266,0.67722,0.77483
471.045,53.4439,-3.70251,0.59164,0.77265
473.645,53.6924,-3.74723,0.51264,0.77047
476.245,53.94194,-3.74896,0.42927,0.76829
478.845,54.19163,-3.76761,0.36324,0.76612
481.445,54.4415,-3.78518,0.29932,0.76395
484.045,54.69216,-3.78446,0.24818,0.76178
486.645,54.94246,-3.81291,0.22294,0.75962
489.245,55.1934,-3.79752,0.20085,0.75747
491.845,55.44562,-3.78945,0.18384,0.75531
494.445,55.6966,-3.80408,0.1821,0.75317
497.045,55.9486,-3.79537,0.17366,0.75103
499.645,56.2003,-3.80306,0.17143,0.74889
502.245,56.45176,-3.81319,0.16024,0.74676
504.845,56.70381,-3.80251,0.15,0.74463
507.445,56.9568,-3.8157,0.1514,0.74251
510.045,57.21,-3.79557,0.1412,0.74039
512.645,57.4627,-3.80881,0.15037,0.73828
515.245,57.71462,-3.81228,0.15691,0.73618
517.845,57.9681,-3.81561,0.15909,0.73408
520.445,58.22175,-3.80827,0.16245,0.73199
523.045,58.47576,-3.795,0.16336,0.7299
525.645,58.72936,-3.80892,0.16941,0.72782
528.245,58.9839,-3.81145,0.17583,0.72574
530.845,59.23882,-3.80388,0.17312,0.72368
533.445,59.4931,-3.80955,0.17872,0.72162
536.045,59.7465,-3.80376,0.17775,0.71956
538.645,60.0009,-3.80318,0.1724,0.71751
541.245,60.25487,-3.79994,0.16934,0.71547
543.845,60.50911,-3.82037,0.18364,0.71344
546.445,60.76461,-3.80094,0.18494,0.71141
549.045,61.01951,-3.80418,0.18165,0.70939
551.645,61.2751,-3.80838,0.18219,0.70738
554.245,61.53162,-3.8016,0.17739,0.70537
556.845,61.78702,-3.81824,0.18737,0.70337
559.445,62.0432,-3.79735,0.18027,0.70138
562.045,62.2991,-3.81827,0.18703,0.6994
564.645,62.5548,-3.79974,0.18657,0.69742
567.245,62.8121,-3.79311,0.18035,0.69545
569.845,63.0693,-3.7883,0.17806,0.69349
572.445,63.3262,-3.80485,0.19246,0.69154
575.045,63.58311,-3.80344,0.19252,0.6896
577.645,63.83945,-3.81598,0.2006,0.68766
580.245,64.09682,-3.82041,0.20198,0.68573
582.845,64.35489,-3.78259,0.18382,0.68381
585.445,64.6119,-3.80076,0.19164,0.6819
588.045,64.8696,-3.80669,0.20092,0.68
590.645,65.1288,-3.81368,0.20906,0.6781
593.245,65.3861,-3.81771,0.2087,0.67621
595.845,65.64319,-3.81755,0.21522,0.67433
598.445,65.90006,-3.80874,0.20548,0.67246
601.045,66.15788,-3.81098,0.21079,0.6706
603.645,66.4153,-3.80225,0.20759,0.66875
606.245,66.6742,-3.80383,0.20945,0.6669
608.845,66.93205,-3.80628,0.21244,0.66507
611.445,67.19051,-3.81553,0.22068,0.66324
614.045,67.44934,-3.79684,0.21118,0.66142
616.645,67.70825,-3.81473,0.22354,0.65961
619.245,67.9665,-3.8178,0.22364,0.65781
621.845,68.22463,-3.81814,0.23246,0.65602
624.445,68.4843,-3.81517,0.22882,0.65424
627.045,68.74445,-3.80113,0.22882,0.65247
629.645,69.00399,-3.81347,0.23437,0.6507
632.245,69.26357,-3.79153,0.22927,0.64895
634.845,69.5231,-3.81055,0.23359,0.6472
637.445,69.78278,-3.80795,0.23325,0.64547
639.545,69.99242,-3.80645,0.23467,0.64407