File: 01_Data/PlasticC/STA/N2/10K_min/PlasticC_STA_N2_10KData_211026_R1.csv
##Temp./Â°C,Time/min,Mass loss(subtr.2)/mg,DSC(subtr.2)/(mW/mg),Sensit./(uV/mW)
49.81,10.00917,0.03477,-0.06240915,1.03584
52.41,12.37151,0.04355112,-0.02115117,1.03571
55.01,13.0698,0.04459437,-0.00353836,1.03554
57.61,13.62655,0.04610253,0.008922371,1.03535
60.21,14.113,0.04562143,0.02101956,1.03512
62.81,14.55465,0.04841611,0.02877226,1.03487
65.41,14.96415,0.04586194,0.03783242,1.03459
68.01,15.3491,0.04661658,0.04578522,1.03428
70.61,15.7132,0.0488095,0.05198511,1.03394
73.21,16.06214,0.05092022,0.05725657,1.03357
75.81,16.3979,0.05013466,0.0620689,1.03318
78.41,16.72211,0.05177572,0.06689887,1.03276
81.01,17.0377,0.05639998,0.06531242,1.03231
83.61,17.34403,0.0550512,0.057865,1.03183
86.21,17.64346,0.05127085,0.05705796,1.03132
88.81,17.93561,0.05264009,0.06581925,1.03079
91.41,18.22185,0.05166138,0.06827467,1.03023
94.01,18.5024,0.05450804,0.0780079,1.02965
96.61,18.77881,0.05285965,0.08790406,1.02903
99.21,19.05199,0.05358242,0.09879819,1.02839
101.81,19.32123,0.05352148,0.11169,1.02773
104.41,19.58781,0.05648237,0.11881,1.02704
107.01,19.85193,0.05581557,0.12142,1.02632
109.61,20.11427,0.05604993,0.12043,1.02558
112.21,20.37432,0.05533461,0.1229,1.02481
114.81,20.63308,0.05762222,0.1231,1.02401
117.41,20.88929,0.05736025,0.12123,1.02319
120.01,21.144,0.05604181,0.12146,1.02235
122.61,21.39625,0.05685474,0.1226,1.02148
125.21,21.64775,0.05516965,0.11839,1.02059
127.81,21.8976,0.05790526,0.11938,1.01967
130.41,22.14525,0.05647996,0.12007,1.01873
133.01,22.39163,0.05802909,0.11951,1.01776
135.61,22.63619,0.05814004,0.12041,1.01678
138.21,22.87975,0.05835001,0.12344,1.01576
140.81,23.1215,0.05702878,0.12128,1.01473
143.41,23.36224,0.0571506,0.12124,1.01367
146.01,23.60192,0.05852605,0.12118,1.01259
148.61,23.8413,0.05855661,0.12386,1.01148
151.21,24.0793,0.05823081,0.12699,1.01036
153.81,24.31658,0.05637651,0.12431,1.00921
156.41,24.55371,0.05889068,0.12802,1.00804
159.01,24.79028,0.05989034,0.12485,1.00684
161.61,25.027,0.05854889,0.1277,1.00563
164.21,25.26306,0.05726001,0.12673,1.0044
166.81,25.49855,0.05868058,0.12411,1.00314
169.41,25.73414,0.05987979,0.12721,1.00186
172.01,25.96951,0.06009999,0.13037,1.00056
174.61,26.2039,0.06075911,0.13049,0.99925
177.21,26.4383,0.05879,0.1325,0.99791
179.81,26.67217,0.06157158,0.12984,0.99655
182.41,26.90591,0.06060924,0.13071,0.99517
185.01,27.1387,0.05956877,0.12979,0.99377
187.61,27.37146,0.05956,0.13569,0.99236
190.21,27.60377,0.06120428,0.13613,0.99092
192.81,27.83591,0.0605388,0.13881,0.98946
195.41,28.0672,0.05911929,0.13844,0.98799
198.01,28.2992,0.05780339,0.14031,0.9865
200.61,28.53074,0.06156825,0.14311,0.98499
203.21,28.76142,0.05862346,0.14302,0.98346
205.81,28.9921,0.05889011,0.14331,0.98191
208.41,29.22488,0.05922988,0.14445,0.98035
211.01,29.45635,0.06030799,0.14585,0.97877
213.61,29.6879,0.05911956,0.14612,0.97717
216.21,29.91897,0.05778743,0.14725,0.97556
218.81,30.15052,0.05782176,0.15001,0.97393
221.41,30.38232,0.05769017,0.14858,0.97228
224.01,30.6138,0.05496361,0.15148,0.97062
226.61,30.8457,0.0548331,0.15038,0.96894
229.21,31.0777,0.05488852,0.15107,0.96724
231.81,31.3096,0.05494922,0.15017,0.96553
234.41,31.54205,0.05368553,0.15042,0.96381
237.01,31.77358,0.05330316,0.15344,0.96207
239.61,32.00486,0.05275658,0.15164,0.96031
242.21,32.23829,0.04938071,0.15202,0.95855
244.81,32.47125,0.05065785,0.15402,0.95676
247.41,32.7048,0.04944246,0.15128,0.95497
250.01,32.9377,0.04824346,0.15183,0.95315
252.61,33.17173,0.04636428,0.15123,0.95133
255.21,33.40485,0.04508395,0.15097,0.94949
257.81,33.638,0.04508016,0.148,0.94764
260.41,33.87129,0.0422229,0.15263,0.94578
263.01,34.10471,0.04125867,0.15201,0.9439
265.61,34.33788,0.03907864,0.15052,0.94201
268.21,34.57131,0.03838213,0.14849,0.94011
270.81,34.80546,0.0346678,0.14608,0.9382
273.41,35.03924,0.03433,0.14637,0.93627
276.01,35.2736,0.03300574,0.14447,0.93434
278.61,35.50804,0.03136273,0.14111,0.93239
281.21,35.74256,0.02633395,0.14222,0.93043
283.81,35.97719,0.023276,0.1405,0.92847
286.41,36.2125,0.02433491,0.1365,0.92649
289.01,36.44784,0.02199725,0.13293,0.9245
291.61,36.6837,0.01987324,0.13336,0.9225
294.21,36.91891,0.01734845,0.1299,0.92049
296.81,37.15488,0.01601082,0.12682,0.91847
299.41,37.39112,0.01244908,0.12813,0.91644
302.01,37.627,0.01008882,0.12496,0.91441
304.61,37.86315,0.006360011,0.1233,0.91236
307.21,38.09897,0.006364396,0.119,0.91031
309.81,38.33513,0.002787785,0.11875,0.90824
312.41,38.57161,-0.00318553,0.11307,0.90617
315.01,38.8078,-0.004940115,0.11041,0.90409
317.61,39.04523,-0.008019179,0.10817,0.90201
320.21,39.28277,-0.009650023,0.10421,0.89991
322.81,39.52016,-0.01096864,0.09784827,0.89781
325.41,39.75781,-0.01614632,0.09078045,0.8957
328.01,39.9959,-0.01678666,0.08073758,0.89358
330.61,40.23385,-0.02005181,0.07783065,0.89146
333.21,40.4725,-0.0242401,0.07430571,0.88933
335.81,40.71076,-0.02687856,0.06675074,0.8872
338.41,40.94952,-0.03114991,0.05811339,0.88506
341.01,41.18872,-0.03184671,0.05241405,0.88291
343.61,41.42844,-0.0337956,0.04398265,0.88076
346.21,41.66898,-0.0321401,0.0357979,0.8786
348.81,41.91025,-0.03749293,0.03104849,0.87644
351.41,42.1512,-0.03519262,0.01874208,0.87427
354.01,42.3919,-0.05024424,0.01206043,0.8721
356.61,42.63423,-0.04812382,0.006391976,0.86992
359.21,42.87511,-0.0530235,-0.005378126,0.86774
361.81,43.1167,-0.05826204,-0.0115615,0.86556
364.41,43.3574,-0.05974267,-0.0202687,0.86337
367.01,43.5996,-0.0634,-0.0218689,0.86117
369.61,43.84097,-0.06787585,-0.02561532,0.85898
372.21,44.08272,-0.07248158,-0.02197204,0.85678
374.81,44.32495,-0.07612645,-0.01678102,0.85458
377.41,44.56738,-0.08377732,-0.0057988,0.85237
380.01,44.81021,-0.08969428,0.001668719,0.85016
382.61,45.05305,-0.09630348,0.01919176,0.84795
385.21,45.2962,-0.1034,0.04041303,0.84574
387.81,45.53893,-0.11153,0.0699608,0.84353
390.41,45.78236,-0.12445,0.10673,0.84131
393.01,46.0257,-0.14001,0.14747,0.83909
395.61,46.26943,-0.14951,0.19977,0.83687
398.21,46.51324,-0.17376,0.26808,0.83465
400.81,46.75828,-0.19056,0.34483,0.83243
403.41,47.00347,-0.21378,0.44721,0.83021
406.01,47.24827,-0.24741,0.58029,0.82798
408.61,47.49387,-0.28725,0.74255,0.82576
411.21,47.73973,-0.33679,0.94812,0.82353
413.81,47.98701,-0.40346,1.20277,0.82131
416.41,48.23434,-0.48286,1.51989,0.81908
419.01,48.48186,-0.5894,1.89681,0.81686
421.61,48.7305,-0.71897,2.32906,0.81464
424.21,48.9798,-0.87948,2.78821,0.81241
426.81,49.22972,-1.07016,3.21494,0.81019
429.41,49.4796,-1.28918,3.58912,0.80797
432.01,49.72869,-1.53688,3.83041,0.80575
434.61,49.97722,-1.79084,3.91133,0.80353
437.21,50.2256,-2.05304,3.81488,0.80131
439.81,50.4741,-2.3032,3.55284,0.79909
442.41,50.72175,-2.53109,3.16861,0.79688
445.01,50.96859,-2.73679,2.7168,0.79467
447.61,51.21547,-2.91035,2.2413,0.79246
450.21,51.46188,-3.06261,1.77761,0.79025
452.81,51.70783,-3.18535,1.35615,0.78804
455.41,51.9535,-3.2844,0.98352,0.78584
458.01,52.19915,-3.35847,0.68946,0.78364
460.61,52.447,-3.42536,0.47443,0.78144
463.21,52.69446,-3.47372,0.31634,0.77924
465.81,52.94214,-3.52208,0.20067,0.77705
468.41,53.19061,-3.56357,0.10414,0.77486
471.01,53.4391,-3.59376,0.01030819,0.77268
473.61,53.68815,-3.62536,-0.06728758,0.7705
476.21,53.93736,-3.64677,-0.14325,0.76832
478.81,54.18761,-3.66429,-0.21815,0.76615
481.41,54.43766,-3.67526,-0.28706,0.76398
484.01,54.6885,-3.68466,-0.34008,0.76181
486.61,54.94002,-3.68849,-0.38549,0.75965
489.21,55.1912,-3.69193,-0.41465,0.7575
491.81,55.44249,-3.69617,-0.43104,0.75534
494.41,55.6937,-3.69573,-0.44021,0.7532
497.01,55.94534,-3.69379,-0.45373,0.75105
499.61,56.19686,-3.69642,-0.47856,0.74892
502.21,56.4485,-3.6961,-0.48602,0.74679
504.81,56.7002,-3.69136,-0.49162,0.74466
507.41,56.95378,-3.69954,-0.48666,0.74254
510.01,57.2075,-3.6949,-0.49335,0.74042
512.61,57.462,-3.69467,-0.49614,0.73831
515.21,57.71495,-3.69453,-0.49979,0.73621
517.81,57.96826,-3.69697,-0.4978,0.73411
520.41,58.2211,-3.70457,-0.49759,0.73201
523.01,58.47415,-3.69469,-0.50442,0.72993
525.61,58.72699,-3.69731,-0.50357,0.72785
528.21,58.9818,-3.69538,-0.5096,0.72577
530.81,59.2363,-3.69511,-0.51277,0.7237
533.41,59.4915,-3.69465,-0.51177,0.72164
536.01,59.74612,-3.69696,-0.51288,0.71959
538.61,60.0006,-3.70174,-0.51834,0.71754
541.21,60.25551,-3.69583,-0.52465,0.7155
543.81,60.5104,-3.69587,-0.53095,0.71346
546.41,60.76492,-3.69314,-0.53228,0.71144
549.01,61.02098,-3.69803,-0.533,0.70942
551.61,61.27624,-3.69357,-0.54016,0.7074
554.21,61.53116,-3.69839,-0.54093,0.7054
556.81,61.7865,-3.69525,-0.53646,0.7034
559.41,62.04172,-3.69994,-0.54167,0.70141
562.01,62.29758,-3.69748,-0.55001,0.69943
564.61,62.5536,-3.69332,-0.5545,0.69745
567.21,62.81,-3.6951,-0.55782,0.69548
569.81,63.0663,-3.69559,-0.5661,0.69352
572.41,63.32345,-3.69048,-0.56613,0.69157
575.01,63.58024,-3.69549,-0.56781,0.68962
577.61,63.8369,-3.69444,-0.57514,0.68769
580.21,64.0933,-3.69372,-0.57957,0.68576
582.81,64.34992,-3.69703,-0.58081,0.68384
585.41,64.6068,-3.69297,-0.59007,0.68192
588.01,64.86381,-3.70204,-0.588,0.68002
590.61,65.12141,-3.6928,-0.596,0.67813
593.21,65.37825,-3.6963,-0.59327,0.67624
595.81,65.6362,-3.69369,-0.59528,0.67436
598.41,65.89356,-3.69796,-0.59665,0.67249
601.01,66.15115,-3.6962,-0.59965,0.67063
603.61,66.40884,-3.69687,-0.60288,0.66877
606.21,66.66753,-3.69675,-0.60729,0.66693
608.81,66.92591,-3.69512,-0.60941,0.66509
611.41,67.18474,-3.69741,-0.61374,0.66327
614.01,67.44239,-3.69707,-0.62186,0.66145
616.61,67.69967,-3.6975,-0.62921,0.65964
619.21,67.95721,-3.69687,-0.628,0.65784
621.81,68.2158,-3.6984,-0.63189,0.65605
624.41,68.47502,-3.69972,-0.63348,0.65426
627.01,68.73501,-3.69427,-0.63712,0.65249
629.61,68.99355,-3.6971,-0.63893,0.65073
632.21,69.25401,-3.70195,-0.64052,0.64897
634.81,69.5125,-3.70013,-0.63658,0.64723
637.41,69.77192,-3.69331,-0.65145,0.64549
639.61,69.99132,-3.69533,-0.64307,0.64403