File: 01_Data/Vinyl_Chair_Polyurethane_Foam/MCC/Vinyl_Chair_Polyurethane_Foam_MCC_30K_min_220309_R3.txt
Sample ID:	C:\MCC\MCC Cal\Test\PUF_82C_MCC_30K_min_220309_R3.txt
Sample Weight (mg):	4.34
Heating Rate (C/s):	0.5
Combustor Temp (C):	900
N2 Flow Rate (cc/min):	80
O2 Flow Rate (cc/min):	20
Calibration File:	C:\MCC\MCC Cal\Coeff1 JN10440_30_210304.txt.txt
T Correction Coefficients:	0	1.024463	0
Time Shift (s):	14
*
Time (s)	Temperature (C)	N2 flow rate (cc/min)	O2 flow rate (cc/min)	Flow Rate (cc/min)	Oxygen (%)	HRR (W/g)	Heating rate (C/s)
0.000	111.854	80.009	19.994	103.692	19.975	-0.084	0.003
8.000	111.776	80.005	19.994	103.711	19.976	-0.128	0.003
16.000	111.757	80.004	19.994	103.735	19.967	0.505	-0.006
24.000	112.043	80.005	19.993	103.884	19.944	2.253	0.058
32.000	112.910	80.005	19.994	103.914	19.944	2.241	0.139
40.000	114.313	80.004	19.994	103.918	19.940	2.550	0.161
48.001	116.084	80.006	19.993	103.923	19.942	2.420	0.188
56.000	118.247	80.008	19.994	103.917	19.938	2.699	0.275
64.000	120.597	80.007	19.995	103.936	19.937	2.744	0.299
72.000	123.254	80.005	19.993	103.947	19.936	2.852	0.346
80.000	126.120	80.008	19.994	103.950	19.935	2.883	0.373
88.001	129.217	80.008	19.993	103.958	19.935	2.940	0.383
96.000	132.455	80.006	19.994	103.953	19.933	3.068	0.373
104.000	135.967	80.005	19.995	103.947	19.932	3.167	0.439
112.000	139.587	80.006	19.993	103.953	19.935	2.891	0.468
120.000	143.365	80.005	19.994	103.950	19.935	2.930	0.507
128.000	147.230	80.006	19.994	103.947	19.939	2.634	0.505
136.000	151.167	80.007	19.994	103.901	19.937	2.749	0.520
144.000	155.130	80.005	19.994	103.951	19.940	2.555	0.481
152.000	159.125	80.007	19.994	103.950	19.942	2.420	0.502
160.000	163.158	80.007	19.993	103.933	19.943	2.315	0.493
168.000	167.256	80.005	19.993	103.913	19.950	1.821	0.532
176.000	171.281	80.006	19.994	103.911	19.949	1.864	0.517
184.000	175.269	80.006	19.995	103.911	19.952	1.652	0.471
192.000	179.290	80.006	19.995	103.904	19.954	1.479	0.510
200.000	183.257	80.005	19.994	103.905	19.955	1.450	0.491
208.000	187.245	80.006	19.994	103.907	19.953	1.569	0.508
216.000	191.134	80.007	19.993	103.904	19.957	1.229	0.453
224.000	195.039	80.006	19.994	103.904	19.957	1.258	0.488
232.000	198.936	80.007	19.993	103.899	19.956	1.310	0.504
240.000	202.839	80.008	19.993	103.886	19.956	1.320	0.476
248.000	206.720	80.007	19.993	103.884	19.957	1.297	0.476
256.000	210.695	80.004	19.995	103.886	19.962	0.920	0.504
264.000	214.632	80.006	19.994	103.880	19.961	0.941	0.526
272.000	218.565	80.006	19.994	103.886	19.962	0.906	0.537
280.000	222.546	80.004	19.993	103.886	19.965	0.690	0.507
288.000	226.505	80.005	19.994	103.874	19.967	0.541	0.503
296.000	230.513	80.008	19.993	103.879	19.968	0.434	0.492
304.000	234.503	80.005	19.995	103.869	19.966	0.564	0.536
312.000	238.537	80.005	19.993	103.809	19.967	0.527	0.517
320.000	242.521	80.007	19.994	103.859	19.965	0.679	0.522
328.000	246.533	80.006	19.993	103.873	19.968	0.439	0.503
336.000	250.474	80.005	19.994	103.872	19.971	0.194	0.495
344.000	254.462	80.005	19.994	103.872	19.976	-0.187	0.513
352.000	258.438	80.006	19.994	103.863	19.973	0.086	0.502
360.000	262.438	80.004	19.994	103.868	19.977	-0.212	0.543
368.000	266.433	80.004	19.996	103.865	19.979	-0.371	0.526
376.000	270.455	80.007	19.994	103.852	19.978	-0.307	0.493
384.000	274.479	80.007	19.994	103.856	19.976	-0.159	0.495
392.000	278.489	80.005	19.993	103.863	19.979	-0.391	0.499
400.000	282.530	80.007	19.994	103.866	19.980	-0.430	0.531
408.000	286.552	80.006	19.993	103.843	19.981	-0.558	0.476
416.001	290.594	80.004	19.994	103.843	19.979	-0.370	0.509
424.000	294.580	80.007	19.995	103.854	19.981	-0.500	0.493
432.000	298.576	80.006	19.993	103.857	19.981	-0.496	0.481
440.000	302.579	80.004	19.995	103.844	19.981	-0.550	0.490
448.000	306.608	80.005	19.995	103.853	19.984	-0.759	0.501
456.000	310.605	80.006	19.995	103.841	19.980	-0.422	0.498
464.000	314.702	80.005	19.994	103.846	19.985	-0.788	0.510
472.000	318.717	80.005	19.995	103.837	19.987	-0.961	0.511
480.000	322.732	80.008	19.994	103.835	19.985	-0.862	0.508
488.000	326.795	80.007	19.994	103.829	19.985	-0.852	0.499
496.000	330.803	80.006	19.993	103.842	19.986	-0.928	0.490
504.000	334.850	80.005	19.994	103.833	19.988	-1.013	0.495
512.000	338.882	80.004	19.994	103.831	19.988	-1.037	0.526
520.000	342.845	80.005	19.994	103.839	19.983	-0.687	0.488
528.000	346.902	80.006	19.994	103.840	19.983	-0.661	0.509
536.000	350.873	80.005	19.994	103.836	19.983	-0.663	0.502
544.000	354.937	80.008	19.994	103.830	19.979	-0.364	0.495
552.000	358.982	80.007	19.994	103.835	19.976	-0.167	0.481
560.000	363.029	80.007	19.995	103.832	19.969	0.333	0.513
568.000	367.060	80.005	19.995	103.833	19.965	0.677	0.507
576.000	371.255	80.005	19.994	103.831	19.955	1.388	0.548
584.000	375.413	80.006	19.994	103.854	19.940	2.536	0.507
592.000	379.611	80.004	19.994	103.865	19.917	4.247	0.506
600.000	383.868	80.004	19.994	103.867	19.890	6.285	0.554
608.000	388.143	80.006	19.994	103.953	19.862	8.330	0.519
616.000	392.440	80.008	19.994	103.890	19.824	11.184	0.555
624.001	396.765	80.005	19.994	103.907	19.774	14.956	0.548
632.001	401.022	80.005	19.995	103.907	19.711	19.633	0.561
640.000	405.169	80.009	19.994	103.947	19.644	24.642	0.523
648.000	409.281	80.004	19.994	103.960	19.540	32.481	0.504
656.000	413.254	80.004	19.994	104.046	19.437	40.153	0.487
664.000	417.200	80.004	19.995	104.068	19.269	52.787	0.493
672.000	421.208	80.005	19.995	104.140	19.090	66.211	0.506
680.000	425.120	80.005	19.994	104.256	18.857	83.831	0.500
688.000	429.129	80.005	19.996	104.322	18.593	103.706	0.505
696.000	433.185	80.005	19.994	104.401	18.326	123.677	0.497
704.000	437.261	80.006	19.994	104.572	17.902	155.965	0.472
712.000	441.255	80.006	19.993	104.635	17.667	173.653	0.487
720.000	445.295	80.007	19.993	104.707	17.583	179.957	0.493
728.000	449.381	80.005	19.994	104.720	17.566	181.150	0.499
736.000	453.411	80.006	19.995	104.672	17.687	171.848	0.497
744.000	457.429	80.006	19.995	104.582	17.965	150.764	0.505
752.000	461.432	80.005	19.995	104.465	18.359	121.029	0.493
760.000	465.495	80.004	19.994	104.316	18.796	88.210	0.506
768.001	469.546	80.006	19.993	104.201	19.214	56.858	0.462
776.000	473.727	80.006	19.994	104.085	19.492	36.042	0.524
784.000	477.897	80.007	19.994	104.014	19.658	23.625	0.522
792.000	482.122	80.006	19.993	103.956	19.768	15.353	0.497
800.000	486.337	80.010	19.993	103.913	19.838	10.123	0.511
808.000	490.580	80.006	19.994	103.887	19.891	6.185	0.495
816.000	494.798	80.005	19.994	103.866	19.929	3.373	0.503
824.000	498.937	80.007	19.993	103.841	19.953	1.558	0.531
832.000	502.950	80.005	19.995	103.777	19.965	0.644	0.506
840.000	506.879	80.005	19.995	103.831	19.972	0.165	0.497
848.000	510.903	80.005	19.994	103.832	19.978	-0.311	0.588
856.000	514.920	80.007	19.994	103.826	19.981	-0.547	0.408
864.000	518.984	80.006	19.992	103.829	19.981	-0.549	0.557
872.000	523.154	80.006	19.994	103.817	19.985	-0.851	0.535
880.000	527.337	80.008	19.994	103.817	19.975	-0.095	0.541
888.000	531.545	80.007	19.994	103.878	19.982	-0.597	0.538
896.000	535.656	80.007	19.994	103.807	19.983	-0.704	0.532
904.001	539.845	80.003	19.996	103.814	19.986	-0.909	0.491
912.000	543.998	80.005	19.995	103.805	19.983	-0.706	0.507
920.000	548.051	80.004	19.993	103.801	19.985	-0.846	0.500
928.001	551.911	80.005	19.994	103.798	19.987	-0.950	0.499
936.000	555.832	80.007	19.996	103.793	19.982	-0.570	0.511
944.000	559.726	80.007	19.995	103.797	19.986	-0.872	0.523
952.000	563.731	80.006	19.993	103.793	19.982	-0.636	0.490
960.000	567.762	80.009	19.994	103.798	19.980	-0.422	0.511
968.000	571.873	80.006	19.994	103.802	19.983	-0.683	0.512
976.000	576.002	80.006	19.993	103.801	19.980	-0.488	0.542
984.000	580.127	80.005	19.993	103.799	19.983	-0.667	0.518
992.000	584.274	80.005	19.994	103.800	19.983	-0.648	0.502
1000.000	588.368	80.004	19.995	103.809	19.980	-0.424	0.521
1008.000	592.436	80.006	19.995	103.795	19.980	-0.442	0.517
1016.000	596.380	80.006	19.995	103.804	19.978	-0.335	0.486
1024.001	600.531	80.006	19.997	103.805	19.976	-0.187	0.521
1032.000	604.726	80.006	19.995	103.808	19.976	-0.138	0.565
1040.000	608.993	80.009	19.994	103.803	19.974	0.031	0.543
1048.001	613.285	80.007	19.993	103.819	19.976	-0.146	0.522
1056.000	617.616	80.007	19.994	103.812	19.973	0.068	0.514
1064.000	621.887	80.005	19.993	103.802	19.976	-0.146	0.504
1072.000	626.064	80.007	19.994	103.796	19.980	-0.453	0.515
1080.001	630.174	80.007	19.994	103.808	19.977	-0.206	0.516
1088.000	634.221	80.006	19.994	103.798	19.978	-0.270	0.506
1096.001	638.177	80.007	19.994	103.798	19.978	-0.302	0.501
1104.000	642.065	80.008	19.994	103.796	19.979	-0.414	0.457
1112.000	645.908	80.006	19.992	103.795	19.976	-0.183	0.465
1120.000	649.852	80.008	19.994	103.801	19.977	-0.235	0.471
1128.000	653.878	80.007	19.994	103.791	19.977	-0.193	0.520
1136.000	658.058	80.007	19.994	103.794	19.979	-0.407	0.532
1144.001	662.300	80.006	19.995	103.797	19.983	-0.699	0.524
1152.001	666.601	80.006	19.993	103.796	19.982	-0.628	0.536
1160.000	670.911	80.005	19.994	103.795	19.981	-0.555	0.544
1168.000	675.178	80.007	19.993	103.799	19.985	-0.833	0.522
1176.000	679.394	80.008	19.993	103.796	19.986	-0.893	0.540
1184.000	683.582	80.008	19.993	103.799	19.986	-0.883	0.544
1192.000	687.622	80.009	19.994	103.804	19.989	-1.115	0.531
1200.000	691.669	80.007	19.994	103.796	19.987	-0.969	0.491
1208.000	695.704	80.006	19.994	103.790	19.986	-0.903	0.495
1216.000	699.720	80.005	19.994	103.781	19.980	-0.481	0.505
1224.000	703.784	80.004	19.995	103.795	19.982	-0.593	0.522
1232.000	707.842	80.005	19.993	103.807	19.984	-0.743	0.519
1240.001	711.923	80.006	19.993	103.792	19.981	-0.543	0.514
1248.001	715.944	80.005	19.994	103.795	19.984	-0.718	0.500
1256.000	720.027	80.007	19.993	103.778	19.984	-0.782	0.526
1264.000	723.951	80.008	19.995	103.786	19.978	-0.331	0.480
1272.001	727.956	80.007	19.993	103.778	19.981	-0.535	0.508
1280.000	732.024	80.008	19.993	103.782	19.980	-0.430	0.523
1288.000	736.194	80.007	19.994	103.791	19.982	-0.574	0.542
1296.000	740.313	80.006	19.994	103.785	19.984	-0.726	0.535
1301.500	743.221	80.004	19.994	103.785	19.982	-0.595	0.506