File: 01_Data/Vinyl_Chair_Polyurethane_Foam/MCC/Vinyl_Chair_Polyurethane_Foam_MCC_30K_min_220308_R1.txt
Sample ID:	C:\MCC\MCC Cal\Test\PUF_82C_MCC_30K_min_220308_R1.txt
Sample Weight (mg):	4.14
Heating Rate (C/s):	0.5
Combustor Temp (C):	900
N2 Flow Rate (cc/min):	80
O2 Flow Rate (cc/min):	20
Calibration File:	C:\MCC\MCC Cal\Coeff1 JN10440_30_210304.txt.txt
T Correction Coefficients:	0	1.024463	0
Time Shift (s):	14
*
Time (s)	Temperature (C)	N2 flow rate (cc/min)	O2 flow rate (cc/min)	Flow Rate (cc/min)	Oxygen (%)	HRR (W/g)	Heating rate (C/s)
0.000	108.013	80.003	19.995	103.586	20.135	-0.155	0.021
8.000	107.976	80.004	19.993	103.599	20.132	0.098	0.012
16.000	108.037	80.004	19.993	103.643	20.126	0.512	0.016
24.000	108.276	80.004	19.992	103.693	20.115	1.447	0.001
32.000	108.884	80.005	19.994	103.775	20.101	2.540	0.073
40.000	109.941	80.005	19.994	103.812	20.097	2.836	0.155
48.000	111.461	80.003	19.994	103.822	20.088	3.507	0.197
56.000	113.405	80.005	19.994	103.832	20.086	3.689	0.257
64.000	115.661	80.004	19.993	103.835	20.081	4.047	0.301
72.000	118.267	80.004	19.993	103.859	20.081	4.080	0.328
80.000	121.163	80.002	19.992	103.874	20.082	4.026	0.402
88.000	124.305	80.004	19.993	103.874	20.083	3.933	0.397
96.000	127.659	80.002	19.993	103.873	20.080	4.128	0.419
104.000	131.227	80.005	19.993	103.874	20.085	3.795	0.449
112.000	134.851	80.006	19.993	103.873	20.086	3.658	0.472
120.000	138.711	80.004	19.994	103.870	20.081	4.062	0.486
128.000	142.629	80.004	19.993	103.872	20.081	4.064	0.463
136.000	146.648	80.006	19.993	103.869	20.086	3.719	0.514
144.000	150.639	80.004	19.994	103.852	20.084	3.840	0.508
152.000	154.668	80.003	19.994	103.839	20.079	4.254	0.512
160.000	158.728	80.004	19.994	103.836	20.083	3.934	0.481
168.000	162.738	80.004	19.992	103.849	20.085	3.788	0.494
176.000	166.822	80.007	19.994	103.831	20.085	3.729	0.564
184.000	170.771	80.003	19.995	103.820	20.085	3.771	0.450
192.000	174.757	80.003	19.994	103.800	20.080	4.161	0.527
200.000	178.667	80.005	19.994	103.744	20.080	4.166	0.488
208.000	182.640	80.005	19.991	103.800	20.082	3.966	0.518
216.000	186.597	80.009	19.993	103.795	20.083	3.894	0.495
224.000	190.547	80.007	19.992	103.808	20.084	3.847	0.511
232.000	194.481	80.002	19.995	103.808	20.085	3.760	0.506
240.000	198.432	80.005	19.994	103.799	20.081	4.100	0.500
248.000	202.357	80.002	19.995	103.791	20.086	3.706	0.466
256.000	206.315	80.004	19.994	103.767	20.081	4.104	0.517
264.000	210.285	80.003	19.992	103.779	20.085	3.779	0.493
272.000	214.216	80.004	19.993	103.766	20.084	3.861	0.512
280.000	218.202	80.005	19.993	103.744	20.083	3.938	0.542
288.000	222.080	80.004	19.989	103.793	20.089	3.460	0.459
296.000	226.126	80.012	19.991	103.794	20.092	3.186	0.503
304.000	230.162	80.004	19.994	103.789	20.091	3.301	0.507
312.000	234.257	80.018	19.992	103.790	20.091	3.288	0.540
320.000	238.272	80.004	19.988	103.794	20.090	3.330	0.499
328.000	242.178	80.000	19.995	103.791	20.089	3.464	0.466
336.000	246.136	80.001	19.995	103.786	20.091	3.271	0.484
344.000	250.153	80.001	19.996	103.772	20.092	3.224	0.493
352.000	254.076	80.005	19.994	103.783	20.087	3.587	0.470
360.000	258.030	80.009	19.991	103.768	20.086	3.709	0.489
368.000	261.933	80.016	19.994	103.778	20.086	3.687	0.474
376.000	265.858	79.998	19.992	103.770	20.080	4.110	0.497
384.001	269.871	80.000	19.994	103.790	20.083	3.897	0.493
392.000	273.940	79.998	19.991	103.773	20.081	4.046	0.509
400.001	277.987	79.999	19.994	103.780	20.084	3.836	0.528
408.000	281.971	79.995	19.996	103.763	20.082	3.967	0.501
416.000	286.002	79.987	19.997	103.771	20.080	4.160	0.487
424.000	290.059	80.002	19.996	103.756	20.078	4.279	0.534
432.000	294.115	80.006	19.991	103.757	20.081	4.090	0.502
440.000	298.136	80.002	19.990	103.770	20.079	4.241	0.536
448.000	302.108	80.019	19.992	103.778	20.079	4.201	0.487
456.001	306.091	80.008	19.994	103.758	20.079	4.239	0.483
464.000	310.086	79.997	19.994	103.759	20.076	4.496	0.493
472.000	314.112	80.003	19.992	103.756	20.074	4.605	0.490
480.000	318.059	80.008	19.991	103.767	20.071	4.819	0.493
488.000	322.043	80.000	19.994	103.776	20.073	4.674	0.539
496.000	326.038	79.975	20.001	103.766	20.069	4.974	0.516
504.000	330.090	80.011	19.993	103.766	20.064	5.397	0.494
512.000	334.115	80.005	19.994	103.766	20.065	5.325	0.471
520.000	338.164	79.992	19.997	103.763	20.059	5.824	0.517
528.000	342.183	79.998	19.993	103.756	20.061	5.601	0.487
536.000	346.258	80.008	19.992	103.767	20.062	5.568	0.528
544.000	350.409	79.998	19.989	103.760	20.058	5.896	0.567
552.000	354.460	80.004	19.991	103.762	20.052	6.330	0.535
560.000	358.534	79.990	19.990	103.775	20.051	6.445	0.522
568.000	362.591	80.016	19.999	103.773	20.044	6.950	0.551
576.000	366.594	80.003	19.996	103.776	20.038	7.430	0.457
584.000	370.681	79.998	19.994	103.771	20.031	8.009	0.523
592.000	374.780	80.006	19.993	103.796	20.012	9.477	0.514
600.000	378.948	80.006	19.990	103.795	19.991	11.080	0.527
608.000	383.034	80.001	19.991	103.798	19.967	12.976	0.497
616.000	387.232	80.007	19.991	103.793	19.943	14.850	0.513
624.000	391.383	79.998	19.991	103.803	19.916	17.018	0.522
632.000	395.597	79.975	19.995	103.831	19.862	21.213	0.518
640.000	399.784	80.002	19.992	103.847	19.802	25.931	0.541
648.000	403.914	80.008	19.988	103.870	19.732	31.412	0.520
656.000	408.018	79.989	19.996	103.899	19.673	36.033	0.495
664.000	412.060	79.998	19.992	103.926	19.589	42.620	0.553
672.000	415.959	80.015	19.989	103.976	19.446	53.873	0.503
680.000	419.995	79.999	20.002	103.987	19.296	65.672	0.512
688.000	423.871	80.009	19.994	104.109	19.116	79.818	0.504
696.000	427.841	80.005	19.993	104.116	18.862	100.070	0.496
704.000	431.724	80.006	19.996	104.231	18.637	117.725	0.484
712.000	435.778	80.009	19.991	104.270	18.251	148.235	0.518
720.000	439.812	79.999	19.991	104.436	17.885	177.131	0.511
728.000	443.891	80.010	19.992	104.523	17.722	190.123	0.510
736.000	448.051	80.007	19.993	104.656	17.698	191.949	0.522
744.000	452.264	80.015	19.993	104.603	17.720	190.050	0.529
752.000	456.530	80.006	19.993	104.549	17.894	176.150	0.525
760.000	460.850	80.007	19.993	104.449	18.215	150.695	0.543
768.000	465.085	80.002	19.997	104.325	18.622	118.593	0.509
776.000	469.317	80.008	19.995	104.183	19.076	82.894	0.518
784.000	473.601	79.997	20.001	104.074	19.433	54.863	0.514
792.000	477.887	80.001	19.990	103.960	19.644	38.255	0.513
800.000	482.099	79.995	19.998	103.903	19.773	28.137	0.520
808.000	486.278	79.999	19.994	103.862	19.859	21.473	0.496
816.000	490.461	79.996	19.993	103.829	19.906	17.749	0.549
824.000	494.628	80.007	19.992	103.798	19.941	15.052	0.519
832.000	498.781	80.006	19.990	103.801	19.965	13.172	0.509
840.000	502.875	80.015	19.990	103.776	19.981	11.882	0.516
848.000	506.984	80.002	19.991	103.773	19.989	11.242	0.536
856.000	511.059	80.007	19.990	103.766	19.992	11.024	0.470
864.000	515.123	80.003	19.993	103.757	19.994	10.854	0.517
872.000	519.283	80.017	19.993	103.756	19.993	10.955	0.514
880.000	523.347	80.005	19.995	103.762	19.990	11.148	0.488
888.000	527.448	79.997	19.989	103.754	19.992	11.038	0.512
896.000	531.581	80.000	20.000	103.759	19.987	11.407	0.544
904.000	535.691	80.018	19.990	103.755	19.992	11.061	0.525
912.000	539.753	79.999	19.995	103.767	19.987	11.384	0.512
920.000	543.872	80.002	19.993	103.763	19.986	11.460	0.498
928.000	547.944	80.003	19.992	103.752	19.987	11.428	0.500
936.000	552.044	80.022	19.991	103.753	19.987	11.423	0.517
944.000	556.214	80.013	19.992	103.757	19.983	11.713	0.522
952.000	560.236	79.998	19.991	103.755	19.984	11.643	0.508
960.000	564.309	80.002	19.994	103.758	19.981	11.891	0.508
968.000	568.373	80.000	19.988	103.748	19.976	12.259	0.486
976.000	572.429	80.002	19.995	103.761	19.975	12.338	0.499
984.000	576.573	80.005	19.993	103.759	19.976	12.292	0.492
992.000	580.621	80.005	19.994	103.754	19.974	12.460	0.507
1000.000	584.610	80.003	19.995	103.750	19.965	13.129	0.457
1008.000	588.628	80.006	19.992	103.752	19.962	13.353	0.489
1016.000	592.610	80.003	19.994	103.751	19.964	13.192	0.541
1024.001	596.662	80.004	19.995	103.756	19.962	13.340	0.526
1032.000	600.668	80.003	19.991	103.751	19.960	13.529	0.508
1040.000	604.586	80.001	19.993	103.757	19.959	13.645	0.474
1048.000	608.592	79.995	19.996	103.762	19.956	13.808	0.704
1056.000	612.882	80.002	19.989	103.756	19.955	13.927	0.396
1064.000	616.851	80.003	19.993	103.755	19.952	14.185	0.542
1072.000	620.935	80.002	19.995	103.755	19.953	14.064	0.523
1080.000	625.160	80.005	19.994	103.751	19.952	14.159	0.505
1088.001	629.369	80.003	19.996	103.748	19.952	14.143	0.533
1096.000	633.473	80.003	19.997	103.749	19.953	14.073	0.533
1104.000	637.674	80.002	19.999	103.752	19.949	14.353	0.509
1112.000	641.803	80.001	19.993	103.749	19.951	14.228	0.536
1120.000	645.900	80.001	19.995	103.757	19.951	14.256	0.516
1128.000	649.997	80.003	19.989	103.753	19.948	14.439	0.507
1136.000	654.078	80.002	19.994	103.749	19.953	14.093	0.518
1144.000	658.129	80.005	19.993	103.747	19.950	14.277	0.508
1152.000	662.197	80.002	19.993	103.736	19.950	14.308	0.509
1160.000	666.230	80.005	19.994	103.746	19.951	14.240	0.521
1168.000	670.253	80.005	19.994	103.746	19.954	13.979	0.480
1176.000	674.250	80.001	19.995	103.738	19.953	14.093	0.482
1184.000	678.302	80.004	19.995	103.741	19.950	14.302	0.484
1192.000	682.404	80.005	19.994	103.748	19.953	14.111	0.722
1200.000	686.306	80.000	19.992	103.726	19.951	14.231	0.510
1208.000	690.258	80.005	19.993	103.742	19.949	14.397	0.491
1216.000	694.222	80.004	19.994	103.744	19.950	14.332	0.508
1224.000	698.246	80.003	19.993	103.742	19.950	14.326	0.513
1232.000	702.291	80.003	19.993	103.748	19.950	14.305	0.486
1240.000	706.328	80.005	19.993	103.752	19.950	14.322	0.512
1248.000	710.305	80.003	19.993	103.725	19.947	14.526	0.456
1256.000	714.328	80.003	19.994	103.734	19.946	14.619	0.485
1264.001	718.412	80.004	19.994	103.727	19.941	14.980	0.492
1272.000	722.476	80.005	19.994	103.736	19.940	15.079	0.503
1280.000	726.530	80.002	19.995	103.751	19.942	14.951	0.505
1288.000	730.651	80.005	19.993	103.750	19.937	15.354	0.529
1296.000	734.780	80.003	19.993	103.739	19.938	15.258	0.522
1304.000	738.883	80.002	19.994	103.731	19.937	15.354	0.573
1312.001	742.935	80.001	19.994	103.731	19.935	15.460	0.487
1313.000	743.434	80.003	19.994	103.737	19.934	15.567	0.517