File: 01_Data/Gypsum_Wallboard_Paper/STA/N2/10K_min/Gypsum_Wallboard_Paper_STA_N2_10KData_220216_R2.csv
##Temp./Â°C,Time/min,Mass loss(subtr.2)/mg,DSC(subtr.2)/(mW/mg),Sensit./(uV/mW)
49.656,10.00917,-0.07974,0.02389301,1.07518
52.656,11.28117,-0.0893293,0.1218,1.07361
55.656,11.7149,-0.09099833,0.16361,1.07205
58.656,12.08403,-0.09225432,0.19447,1.07049
61.656,12.42707,-0.09451108,0.21551,1.06893
64.656,12.75998,-0.09719115,0.23371,1.06738
67.656,13.08664,-0.0997227,0.24684,1.06582
70.656,13.40882,-0.10245,0.26331,1.06426
73.656,13.72781,-0.10505,0.27679,1.06271
76.656,14.0428,-0.10826,0.29403,1.06116
79.656,14.3545,-0.10986,0.3084,1.05961
82.656,14.6645,-0.11513,0.32133,1.05806
85.656,14.97117,-0.11743,0.3279,1.05651
88.656,15.275,-0.12237,0.33276,1.05497
91.656,15.57675,-0.12439,0.33497,1.05342
94.656,15.8758,-0.12976,0.33788,1.05188
97.656,16.17379,-0.13231,0.33722,1.05034
100.656,16.46927,-0.13502,0.335,1.0488
103.656,16.7649,-0.13732,0.3349,1.04726
106.656,17.06038,-0.13996,0.33052,1.04572
109.656,17.35406,-0.14259,0.32789,1.04418
112.656,17.64895,-0.14522,0.32642,1.04265
115.656,17.94285,-0.14938,0.32135,1.04111
118.656,18.23653,-0.15321,0.3141,1.03958
121.656,18.52923,-0.15586,0.30719,1.03805
124.656,18.82075,-0.15454,0.29807,1.03652
127.656,19.11266,-0.15653,0.28744,1.03499
130.656,19.40399,-0.15784,0.28151,1.03347
133.656,19.69398,-0.16122,0.28153,1.03194
136.656,19.98349,-0.16009,0.27662,1.03041
139.656,20.27628,-0.16187,0.27474,1.02889
142.656,20.56629,-0.16377,0.27467,1.02737
145.656,20.85576,-0.16377,0.27392,1.02585
148.656,21.14479,-0.16484,0.27936,1.02433
151.656,21.43321,-0.16606,0.28189,1.02281
154.656,21.72162,-0.16706,0.28353,1.02129
157.656,22.01013,-0.16738,0.2841,1.01977
160.656,22.2984,-0.16738,0.28705,1.01825
163.656,22.5868,-0.17138,0.28809,1.01673
166.656,22.87518,-0.16903,0.28941,1.01522
169.656,23.16341,-0.17298,0.28963,1.0137
172.656,23.4513,-0.17232,0.29121,1.01219
175.656,23.7385,-0.1733,0.29415,1.01068
178.656,24.0261,-0.17462,0.29713,1.00916
181.656,24.31286,-0.1727,0.30146,1.00765
184.656,24.5999,-0.17681,0.30556,1.00614
187.656,24.88728,-0.17859,0.30428,1.00462
190.656,25.17391,-0.1801,0.30644,1.00311
193.656,25.46105,-0.18241,0.30839,1.0016
196.656,25.74765,-0.18338,0.3112,1.00009
199.656,26.03453,-0.18208,0.31409,0.99858
202.656,26.32018,-0.18603,0.31824,0.99707
205.656,26.60735,-0.18471,0.32009,0.99555
208.656,26.8939,-0.18706,0.32564,0.99404
211.656,27.1817,-0.18965,0.3223,0.99253
214.656,27.46919,-0.1913,0.32373,0.99102
217.656,27.75508,-0.19359,0.33021,0.98951
220.656,28.04151,-0.19524,0.33,0.988
223.656,28.3278,-0.2005,0.33481,0.98648
226.656,28.6136,-0.20315,0.33577,0.98497
229.656,28.89961,-0.2061,0.33931,0.98346
232.656,29.1863,-0.21004,0.34195,0.98194
235.656,29.47308,-0.21531,0.34416,0.98043
238.656,29.7594,-0.21795,0.34632,0.97891
241.656,30.04559,-0.22606,0.35057,0.97739
244.656,30.3323,-0.23003,0.35332,0.97587
247.656,30.6187,-0.23754,0.35863,0.97436
250.656,30.90547,-0.24533,0.35901,0.97283
253.656,31.1926,-0.25445,0.35694,0.97131
256.656,31.4793,-0.26392,0.35967,0.96979
259.656,31.7658,-0.27432,0.36104,0.96827
262.656,32.0535,-0.2872,0.36557,0.96674
265.656,32.33996,-0.30059,0.37104,0.96521
268.656,32.62686,-0.31872,0.37855,0.96369
271.656,32.91368,-0.33624,0.38607,0.96216
274.656,33.20112,-0.35682,0.39596,0.96062
277.656,33.48857,-0.37803,0.40312,0.95909
280.656,33.77612,-0.40274,0.41195,0.95755
283.656,34.0635,-0.4333,0.42319,0.95602
286.656,34.35204,-0.46326,0.43505,0.95448
289.656,34.6406,-0.49764,0.45092,0.95293
292.656,34.93035,-0.53443,0.46335,0.95139
295.656,35.2189,-0.57439,0.47803,0.94984
298.656,35.50705,-0.61632,0.4899,0.94829
301.656,35.79511,-0.66309,0.50425,0.94674
304.656,36.08336,-0.7127,0.51835,0.94519
307.656,36.37124,-0.76573,0.52968,0.94363
310.656,36.65955,-0.82373,0.54072,0.94207
313.656,36.94839,-0.88353,0.55468,0.94051
316.656,37.2374,-0.94814,0.56882,0.93894
319.656,37.52618,-1.01605,0.58438,0.93737
322.656,37.81579,-1.08801,0.60287,0.9358
325.656,38.1055,-1.16239,0.62033,0.93422
328.656,38.39493,-1.24426,0.64436,0.93265
331.656,38.6849,-1.32957,0.66931,0.93106
334.656,38.97493,-1.42205,0.69523,0.92948
337.656,39.265,-1.51844,0.72174,0.92789
340.656,39.55519,-1.61969,0.75631,0.9263
343.656,39.84559,-1.73184,0.79066,0.9247
346.656,40.13641,-1.84785,0.81964,0.9231
349.656,40.42713,-1.97128,0.84283,0.92149
352.656,40.71788,-2.1006,0.85226,0.91988
355.656,41.00889,-2.22936,0.83844,0.91827
358.656,41.30015,-2.35695,0.79354,0.91665
361.656,41.59098,-2.47135,0.71248,0.91503
364.656,41.88143,-2.57399,0.60121,0.91341
367.656,42.17183,-2.6541,0.46707,0.91178
370.656,42.46245,-2.71361,0.33548,0.91014
373.656,42.75314,-2.7509,0.23145,0.9085
376.656,43.0441,-2.77485,0.16251,0.90686
379.656,43.33507,-2.78928,0.1274,0.90521
382.656,43.62676,-2.80096,0.10897,0.90355
385.656,43.91805,-2.81223,0.09915413,0.9019
388.656,44.20987,-2.82035,0.09021513,0.90023
391.656,44.50164,-2.82893,0.08570733,0.89856
394.656,44.79351,-2.83547,0.08288246,0.89689
397.656,45.0858,-2.84519,0.07962777,0.89521
400.656,45.3784,-2.85195,0.07333581,0.89352
403.656,45.67163,-2.86,0.06959237,0.89183
406.656,45.96385,-2.8711,0.06753231,0.89013
409.656,46.2571,-2.87738,0.06885123,0.88843
412.656,46.55178,-2.88325,0.06659509,0.88672
415.656,46.8458,-2.89326,0.06360764,0.88501
418.656,47.13933,-2.90163,0.06449327,0.88329
421.656,47.43313,-2.90814,0.06742837,0.88157
424.656,47.72707,-2.91598,0.06947851,0.87983
427.656,48.021,-2.92117,0.06994505,0.8781
430.656,48.31447,-2.92712,0.07431829,0.87635
433.656,48.60839,-2.93363,0.07425715,0.8746
436.656,48.90365,-2.94173,0.08009751,0.87285
439.656,49.19822,-2.94913,0.07900621,0.87108
442.656,49.49334,-2.95537,0.08315513,0.86931
445.656,49.78805,-2.96019,0.08436235,0.86754
448.656,50.08229,-2.96709,0.08503665,0.86575
451.656,50.37712,-2.9738,0.09183049,0.86397
454.656,50.67308,-2.97789,0.09428118,0.86217
457.656,50.9683,-2.98315,0.09634482,0.86037
460.656,51.26406,-2.98709,0.09665752,0.85856
463.656,51.55966,-2.99366,0.09851421,0.85674
466.656,51.85498,-2.99794,0.09798655,0.85492
469.656,52.1509,-3.00145,0.09557737,0.85309
472.656,52.44644,-3.00524,0.09580353,0.85125
475.656,52.7424,-3.00666,0.0982055,0.8494
478.656,53.03794,-3.0133,0.09862132,0.84755
481.656,53.33471,-3.01725,0.10026,0.84569
484.656,53.63064,-3.01922,0.09811072,0.84382
487.656,53.92791,-3.0234,0.09818169,0.84195
490.656,54.2254,-3.0299,0.09748557,0.84007
493.656,54.5221,-3.03172,0.10468,0.83818
496.656,54.8202,-3.03567,0.11558,0.83628
499.656,55.1167,-3.03962,0.11605,0.83438
502.656,55.4137,-3.04233,0.11612,0.83247
505.656,55.71141,-3.04457,0.11593,0.83055
508.656,56.0083,-3.04554,0.11493,0.82862
511.656,56.3056,-3.05012,0.10768,0.82668
514.656,56.60312,-3.05212,0.09939702,0.82474
517.656,56.9005,-3.05608,0.09982372,0.82279
520.656,57.1982,-3.05938,0.09190838,0.82083
523.656,57.49646,-3.06068,0.09002502,0.81886
526.656,57.79458,-3.06462,0.0859422,0.81689
529.656,58.09236,-3.06725,0.08410423,0.81491
532.656,58.38997,-3.06726,0.08178058,0.81291
535.656,58.6872,-3.07088,0.07892887,0.81092
538.656,58.9869,-3.07218,0.07431023,0.80891
541.656,59.2862,-3.07483,0.07622286,0.80689
544.656,59.58515,-3.07747,0.07067954,0.80487
547.656,59.8842,-3.07945,0.06696471,0.80284
550.656,60.18342,-3.08214,0.06660912,0.8008
553.656,60.48341,-3.08437,0.06086869,0.79875
556.656,60.78232,-3.08537,0.0641541,0.79669
559.656,61.08141,-3.08832,0.06115225,0.79463
562.656,61.3813,-3.08964,0.06571425,0.79256
565.656,61.681,-3.09228,0.06719899,0.79048
568.656,61.98053,-3.09359,0.06941338,0.78839
571.656,62.28024,-3.09633,0.0701689,0.78629
574.656,62.58014,-3.09667,0.07248979,0.78418
577.656,62.87999,-3.10029,0.07192955,0.78207
580.656,63.18,-3.10028,0.07365826,0.77994
583.656,63.4804,-3.10259,0.0792201,0.77781
586.656,63.78055,-3.1039,0.08044365,0.77567
589.656,64.081,-3.10422,0.08639782,0.77353
592.656,64.3814,-3.10851,0.09103826,0.77137
595.656,64.6816,-3.11081,0.09625681,0.7692
598.656,64.9824,-3.11288,0.10459,0.76703
601.656,65.28371,-3.11288,0.10831,0.76485
604.656,65.58507,-3.11552,0.11165,0.76266
607.656,65.88544,-3.11882,0.11901,0.76046
610.656,66.1861,-3.12023,0.12838,0.75825
613.656,66.4864,-3.12079,0.13429,0.75604
616.656,66.78658,-3.12279,0.14417,0.75382
619.656,67.0872,-3.12408,0.14785,0.75158
622.656,67.38754,-3.12606,0.15578,0.74934
625.656,67.68861,-3.13,0.16511,0.7471
628.656,67.98926,-3.13066,0.17321,0.74484
631.656,68.29251,-3.1341,0.18123,0.74257
634.656,68.59453,-3.13593,0.18653,0.7403
637.656,68.89697,-3.13932,0.19753,0.73802
640.656,69.19884,-3.14119,0.2067,0.73573
643.656,69.50105,-3.14396,0.21707,0.73343
646.656,69.80301,-3.14777,0.223,0.73113
649.656,70.10486,-3.1504,0.23362,0.72881
652.656,70.40655,-3.15392,0.23843,0.72649
655.656,70.70836,-3.15624,0.23939,0.72416
658.656,71.0104,-3.15918,0.24024,0.72182
661.656,71.31227,-3.1614,0.23746,0.71948
664.656,71.61333,-3.16572,0.23401,0.71712
667.656,71.91516,-3.16839,0.22333,0.71476
670.656,72.21839,-3.16971,0.21687,0.71239
673.656,72.5222,-3.1722,0.19569,0.71001
676.656,72.82574,-3.17564,0.17645,0.70762
679.656,73.128,-3.17629,0.1723,0.70523
682.656,73.43037,-3.17695,0.17136,0.70283
685.656,73.73303,-3.17899,0.17163,0.70042
688.656,74.03528,-3.18223,0.16845,0.698
691.656,74.33824,-3.18327,0.16783,0.69558
694.656,74.64134,-3.18354,0.16944,0.69315
697.656,74.9441,-3.18607,0.16991,0.69071
700.656,75.24651,-3.18727,0.17028,0.68826
703.656,75.55069,-3.18978,0.16278,0.68581
706.656,75.85546,-3.19143,0.15978,0.68335
709.656,76.16005,-3.19413,0.15394,0.68088
712.656,76.46499,-3.19402,0.15708,0.6784
715.656,76.7692,-3.19703,0.15202,0.67592
718.656,77.07327,-3.19768,0.15347,0.67343
721.656,77.3759,-3.19904,0.15333,0.67094
724.656,77.6806,-3.19946,0.14804,0.66843
727.656,77.98428,-3.20097,0.14771,0.66592
730.656,78.28823,-3.2036,0.14879,0.6634
733.656,78.59182,-3.20427,0.1449,0.66088
736.656,78.89599,-3.20558,0.1482,0.65835
739.656,79.19977,-3.20821,0.15271,0.65581
742.656,79.50405,-3.20774,0.15173,0.65327
745.656,79.80853,-3.20887,0.15104,0.65072
747.456,79.99093,-3.21017,0.15358,0.64919