File: 01_Data/Gypsum_Wallboard_Paper/STA/N2/10K_min/Gypsum_Wallboard_Paper_STA_N2_10KData_220216_R1.csv
##Temp./Â°C,Time/min,Mass loss(subtr.2)/mg,DSC(subtr.2)/(mW/mg),Sensit./(uV/mW)
49.659,10.01,0.00691,0.03196688,1.07518
52.659,11.27777,0.00834844,0.12953,1.07361
55.659,11.7119,0.007979979,0.17802,1.07205
58.659,12.08,0.007899979,0.21028,1.07049
61.659,12.42408,0.00791882,0.23309,1.06893
64.659,12.75554,0.00720091,0.25282,1.06737
67.659,13.08082,0.006681655,0.26923,1.06582
70.659,13.4017,0.00538736,0.28765,1.06426
73.659,13.7206,0.005361352,0.30338,1.06271
76.659,14.03556,0.00275161,0.317,1.06116
79.659,14.3471,0.001556951,0.33532,1.05961
82.659,14.65591,-0.0008700049,0.35341,1.05806
85.659,14.9621,-0.00218831,0.36461,1.05651
88.659,15.26557,-0.00567708,0.37202,1.05496
91.659,15.56669,-0.0068,0.37534,1.05342
94.659,15.8664,-0.01074557,0.37683,1.05188
97.659,16.1644,-0.01074682,0.37648,1.05034
100.659,16.46045,-0.01305023,0.37498,1.04879
103.659,16.75617,-0.01470201,0.37431,1.04726
106.659,17.0501,-0.01766,0.37128,1.04572
109.659,17.34379,-0.01865137,0.36812,1.04418
112.659,17.63721,-0.02031198,0.36579,1.04265
115.659,17.9302,-0.02161,0.36061,1.04111
118.659,18.2231,-0.02261605,0.35465,1.03958
121.659,18.5167,-0.0252281,0.34825,1.03805
124.659,18.80954,-0.02452155,0.33701,1.03652
127.659,19.1013,-0.02654,0.32795,1.03499
130.659,19.39356,-0.02654051,0.3228,1.03346
133.659,19.6849,-0.0264919,0.31918,1.03194
136.659,19.97498,-0.02752995,0.31913,1.03041
139.659,20.26452,-0.02652023,0.31885,1.02889
142.659,20.55333,-0.02676887,0.31979,1.02737
145.659,20.84163,-0.02654,0.32237,1.02584
148.659,21.13065,-0.02785001,0.32404,1.02432
151.659,21.4187,-0.0277453,0.33126,1.0228
154.659,21.7069,-0.02643,0.32945,1.02128
157.659,21.9953,-0.02806833,0.33202,1.01977
160.659,22.28419,-0.02808508,0.33529,1.01825
163.659,22.57266,-0.02808012,0.33612,1.01673
166.659,22.86174,-0.02938945,0.33603,1.01522
169.659,23.1505,-0.02906065,0.33966,1.0137
172.659,23.43856,-0.03038029,0.34521,1.01219
175.659,23.72626,-0.02942628,0.35114,1.01067
178.659,24.014,-0.0293896,0.35221,1.00916
181.659,24.30076,-0.03071,0.35765,1.00765
184.659,24.58727,-0.03005032,0.35999,1.00613
187.659,24.87376,-0.0300485,0.36427,1.00462
190.659,25.16,-0.03005014,0.3656,1.00311
193.659,25.44598,-0.03136,0.3664,1.0016
196.659,25.734,-0.03136178,0.36875,1.00009
199.659,26.02058,-0.03400167,0.37497,0.99858
202.659,26.3081,-0.03432833,0.37707,0.99706
205.659,26.59507,-0.03433011,0.37983,0.99555
208.659,26.88219,-0.03498989,0.3842,0.99404
211.659,27.16801,-0.03760713,0.38771,0.99253
214.659,27.45425,-0.03892997,0.39306,0.99102
217.659,27.7404,-0.04091,0.39753,0.98951
220.659,28.0267,-0.04287951,0.39909,0.98799
223.659,28.3124,-0.04421224,0.40714,0.98648
226.659,28.59702,-0.04880719,0.41342,0.98497
229.659,28.88358,-0.05199314,0.41692,0.98345
232.659,29.1688,-0.05340148,0.42241,0.98194
235.659,29.45519,-0.05837567,0.42305,0.98042
238.659,29.741,-0.06262872,0.42662,0.97891
241.659,30.02784,-0.06765328,0.43102,0.97739
244.659,30.3146,-0.07316718,0.43666,0.97587
247.659,30.6011,-0.07865016,0.44021,0.97435
250.659,30.8873,-0.08588147,0.44195,0.97283
253.659,31.17363,-0.09509825,0.44167,0.97131
256.659,31.46054,-0.10463,0.44406,0.96979
259.659,31.7473,-0.1161,0.44768,0.96827
262.659,32.0343,-0.12837,0.45018,0.96674
265.659,32.32065,-0.14192,0.45555,0.96521
268.659,32.60785,-0.15759,0.46613,0.96368
271.659,32.8952,-0.17678,0.47445,0.96215
274.659,33.18277,-0.19611,0.48224,0.96062
277.659,33.47018,-0.2196,0.49343,0.95909
280.659,33.75697,-0.2457,0.50499,0.95755
283.659,34.04477,-0.2733,0.51506,0.95601
286.659,34.33173,-0.303,0.53145,0.95447
289.659,34.61963,-0.33986,0.54143,0.95293
292.659,34.90724,-0.37713,0.55467,0.95139
295.659,35.19435,-0.41729,0.56711,0.94984
298.659,35.481,-0.46113,0.57788,0.94829
301.659,35.7703,-0.50901,0.58707,0.94674
304.659,36.0587,-0.56003,0.60419,0.94519
307.659,36.34685,-0.61518,0.62335,0.94363
310.659,36.6349,-0.67298,0.64426,0.94207
313.659,36.9238,-0.73554,0.65979,0.94051
316.659,37.2127,-0.80107,0.67735,0.93894
319.659,37.50244,-0.86998,0.69427,0.93737
322.659,37.79168,-0.94361,0.70894,0.9358
325.659,38.0815,-1.02118,0.72893,0.93422
328.659,38.37073,-1.102,0.75165,0.93264
331.659,38.66117,-1.18919,0.77111,0.93106
334.659,38.9512,-1.28137,0.79554,0.92948
337.659,39.24243,-1.38106,0.82356,0.92789
340.659,39.53345,-1.48559,0.85826,0.92629
343.659,39.82436,-1.5987,0.8889,0.9247
346.659,40.11477,-1.71917,0.91935,0.9231
349.659,40.40497,-1.84451,0.94199,0.92149
352.659,40.6933,-1.97327,0.95276,0.91988
355.659,40.98402,-2.10581,0.93872,0.91827
358.659,41.2742,-2.2343,0.89415,0.91665
361.659,41.56433,-2.35233,0.81355,0.91503
364.659,41.85417,-2.45569,0.70167,0.91341
367.659,42.1448,-2.53706,0.57227,0.91178
370.659,42.4343,-2.59846,0.44405,0.91014
373.659,42.72527,-2.63678,0.33817,0.9085
376.659,43.0167,-2.66183,0.2672,0.90686
379.659,43.3091,-2.6785,0.22992,0.90521
382.659,43.60241,-2.69109,0.21024,0.90355
385.659,43.89504,-2.69998,0.19989,0.90189
388.659,44.1875,-2.709,0.1901,0.90023
391.659,44.4796,-2.71843,0.18384,0.89856
394.659,44.77193,-2.72685,0.18107,0.89689
397.659,45.06355,-2.73634,0.18062,0.89521
400.659,45.35453,-2.74393,0.17732,0.89352
403.659,45.64584,-2.7519,0.17599,0.89183
406.659,45.9377,-2.76053,0.17349,0.89013
409.659,46.23036,-2.76999,0.17067,0.88843
412.659,46.5229,-2.77661,0.17039,0.88672
415.659,46.81678,-2.78484,0.17001,0.88501
418.659,47.111,-2.79304,0.17046,0.88329
421.659,47.40486,-2.79946,0.1743,0.88156
424.659,47.6986,-2.8076,0.17878,0.87983
427.659,47.99241,-2.81591,0.1793,0.87809
430.659,48.2868,-2.82207,0.18029,0.87635
433.659,48.5824,-2.82782,0.18656,0.8746
436.659,48.87741,-2.8356,0.19222,0.87284
439.659,49.17219,-2.8412,0.19553,0.87108
442.659,49.4677,-2.8479,0.2009,0.86931
445.659,49.76359,-2.85415,0.20547,0.86754
448.659,50.05956,-2.8609,0.21035,0.86575
451.659,50.35499,-2.86907,0.21377,0.86396
454.659,50.65034,-2.87378,0.21531,0.86217
457.659,50.94466,-2.87775,0.21789,0.86036
460.659,51.23878,-2.88301,0.22363,0.85855
463.659,51.53286,-2.88857,0.22341,0.85674
466.659,51.82737,-2.89188,0.22379,0.85491
469.659,52.1227,-2.89715,0.22467,0.85308
472.659,52.42004,-2.90109,0.22473,0.85125
475.659,52.7169,-2.90634,0.22429,0.8494
478.659,53.0124,-2.91124,0.22556,0.84755
481.659,53.3104,-2.91469,0.22406,0.84569
484.659,53.60756,-2.91864,0.22733,0.84382
487.659,53.90385,-2.92161,0.22723,0.84195
490.659,54.20019,-2.92422,0.23043,0.84007
493.659,54.4968,-2.92969,0.24656,0.83818
496.659,54.79354,-2.9329,0.25271,0.83628
499.659,55.0903,-2.93685,0.25715,0.83438
502.659,55.38703,-2.93816,0.2595,0.83246
505.659,55.68405,-2.94178,0.25934,0.83054
508.659,55.98125,-2.94567,0.2573,0.82862
511.659,56.27854,-2.94893,0.25547,0.82668
514.659,56.5761,-2.95121,0.25191,0.82474
517.659,56.8741,-2.95257,0.24473,0.82279
520.659,57.17077,-2.95581,0.23998,0.82083
523.659,57.4679,-2.95877,0.23611,0.81886
526.659,57.765,-2.96142,0.22995,0.81689
529.659,58.0632,-2.96503,0.22412,0.8149
532.659,58.36185,-2.96749,0.21722,0.81291
535.659,58.6611,-2.96996,0.21244,0.81091
538.659,58.9609,-2.97195,0.20688,0.80891
541.659,59.2605,-2.97523,0.20003,0.80689
544.659,59.5599,-2.97787,0.19429,0.80487
547.659,59.8589,-2.97852,0.19422,0.80284
550.659,60.1575,-2.98214,0.19437,0.8008
553.659,60.45655,-2.98465,0.19165,0.79875
556.659,60.7553,-2.98621,0.18971,0.79669
559.659,61.0542,-2.98664,0.18994,0.79463
562.659,61.3531,-2.9896,0.18777,0.79255
565.659,61.65225,-2.99125,0.18253,0.79047
568.659,61.9512,-2.993,0.18625,0.78838
571.659,62.2511,-2.99652,0.18658,0.78629
574.659,62.55226,-2.99783,0.18976,0.78418
577.659,62.85338,-3.00178,0.18928,0.78207
580.659,63.15335,-3.00277,0.19188,0.77994
583.659,63.4538,-3.00507,0.19476,0.77781
586.659,63.7556,-3.00704,0.19848,0.77567
589.659,64.05657,-3.00965,0.20758,0.77352
592.659,64.35686,-3.01,0.21194,0.77137
595.659,64.6574,-3.01263,0.2182,0.7692
598.659,64.95821,-3.01342,0.22674,0.76703
601.659,65.25999,-3.01494,0.23308,0.76485
604.659,65.55991,-3.01757,0.2454,0.76266
607.659,65.86054,-3.02021,0.25473,0.76046
610.659,66.16091,-3.02284,0.2684,0.75825
613.659,66.46245,-3.02494,0.27635,0.75604
616.659,66.7633,-3.02541,0.28892,0.75381
619.659,67.06517,-3.02883,0.30203,0.75158
622.659,67.3664,-3.02996,0.31295,0.74934
625.659,67.66923,-3.03238,0.32912,0.74709
628.659,67.97161,-3.03501,0.33799,0.74484
631.659,68.27373,-3.03897,0.35425,0.74257
634.659,68.57602,-3.03885,0.36405,0.7403
637.659,68.8779,-3.04181,0.37551,0.73802
640.659,69.18015,-3.04489,0.38455,0.73573
643.659,69.4828,-3.04657,0.39411,0.73343
646.659,69.78464,-3.04982,0.40413,0.73112
649.659,70.086,-3.05245,0.41788,0.72881
652.659,70.3879,-3.0564,0.43062,0.72649
655.659,70.68925,-3.05969,0.43599,0.72416
658.659,70.9906,-3.06303,0.44603,0.72182
661.659,71.29342,-3.06562,0.44945,0.71947
664.659,71.59622,-3.06825,0.45283,0.71712
667.659,71.89966,-3.0722,0.45914,0.71476
670.659,72.20314,-3.07503,0.45031,0.71239
673.659,72.50567,-3.07767,0.44727,0.71001
676.659,72.80842,-3.08166,0.4396,0.70762
679.659,73.11156,-3.08163,0.43157,0.70523
682.659,73.41461,-3.08397,0.43265,0.70283
685.659,73.7166,-3.08426,0.44377,0.70042
688.659,74.0188,-3.08688,0.45253,0.698
691.659,74.32111,-3.08701,0.45539,0.69558
694.659,74.62406,-3.08964,0.46521,0.69315
697.659,74.92769,-3.09228,0.46686,0.69071
700.659,75.23056,-3.09227,0.47455,0.68826
703.659,75.53395,-3.09424,0.48148,0.68581
706.659,75.8381,-3.09621,0.48982,0.68335
709.659,76.14251,-3.09753,0.48877,0.68088
712.659,76.44572,-3.10025,0.49666,0.6784
715.659,76.74877,-3.10148,0.50436,0.67592
718.659,77.05195,-3.10247,0.50605,0.67343
721.659,77.35512,-3.10379,0.50512,0.67093
724.659,77.65841,-3.10445,0.5112,0.66843
727.659,77.96282,-3.1074,0.50847,0.66592
730.659,78.2677,-3.1074,0.5069,0.6634
733.659,78.57254,-3.10872,0.50685,0.66088
736.659,78.87724,-3.10807,0.50493,0.65835
739.659,79.18188,-3.1107,0.5033,0.65581
742.659,79.4859,-3.11202,0.4975,0.65327
745.659,79.78918,-3.11365,0.48763,0.65072
747.659,79.99181,-3.11366,0.4818,0.64901