File: 01_Data/Asphalt_Shingle/MCC/Asphalt_Shingle_MCC_30K_min_210928_R2.txt
Sample ID:	C:\MCC\MCC Cal\Test\Asphalt_Shingle\Asphalt_Shingle_MCC_30K_min_210928_R2.txt
Sample Weight (mg):	4.54
Heating Rate (C/s):	0.5
Combustor Temp (C):	900
N2 Flow Rate (cc/min):	80
O2 Flow Rate (cc/min):	20
Calibration File:	C:\MCC\MCC Cal\Coeff1 JN10440_30_210304.txt.txt
T Correction Coefficients:	0	1.024463	0
Time Shift (s):	14
*
Time (s)	Temperature (C)	N2 flow rate (cc/min)	O2 flow rate (cc/min)	Flow Rate (cc/min)	Oxygen (%)	HRR (W/g)	Heating rate (C/s)
0.000	107.786	80.009	19.997	100.205	20.180	-0.447	-0.037
8.000	107.746	80.008	19.992	100.203	20.190	-1.153	0.040
16.000	107.775	80.027	19.998	100.261	20.175	-0.156	0.039
24.000	107.921	80.031	19.997	100.287	20.173	-0.015	0.040
32.000	108.381	80.032	19.996	100.323	20.164	0.636	0.048
39.999	109.083	80.031	19.996	100.372	20.160	0.919	0.060
47.999	110.027	80.029	19.995	100.359	20.150	1.631	0.118
55.999	111.363	80.028	19.995	100.392	20.142	2.141	0.175
63.999	112.924	80.033	19.997	100.416	20.138	2.407	0.186
72.000	114.925	80.031	19.996	100.403	20.145	1.957	0.260
79.999	117.051	80.027	19.997	100.437	20.144	2.010	0.270
87.999	119.480	80.028	19.995	100.444	20.144	1.984	0.322
95.999	122.189	80.023	19.995	100.446	20.141	2.219	0.327
103.999	125.101	80.029	19.995	100.445	20.140	2.291	0.376
111.999	128.229	80.031	19.995	100.444	20.142	2.138	0.409
119.999	131.423	80.023	19.996	100.441	20.140	2.313	0.397
127.999	134.791	80.039	19.994	100.448	20.141	2.199	0.463
136.000	138.269	80.023	19.997	100.442	20.135	2.624	0.467
144.000	141.828	80.006	19.995	100.444	20.141	2.242	0.466
152.000	145.495	80.013	19.994	100.440	20.142	2.150	0.434
160.000	149.221	80.014	19.994	100.441	20.146	1.856	0.434
168.000	153.012	80.013	19.994	100.444	20.146	1.857	0.480
176.000	156.799	79.996	19.996	100.439	20.142	2.117	0.484
184.000	160.650	80.010	19.996	100.434	20.140	2.313	0.490
192.000	164.540	80.009	19.995	100.432	20.147	1.797	0.481
200.000	168.434	80.007	19.997	100.421	20.142	2.181	0.459
208.000	172.407	80.009	19.996	100.416	20.143	2.113	0.481
216.000	176.323	80.010	19.995	100.416	20.143	2.111	0.502
224.000	180.277	80.009	19.994	100.410	20.143	2.062	0.492
232.000	184.307	80.010	19.995	100.407	20.144	1.994	0.528
240.000	188.283	80.011	19.995	100.392	20.146	1.868	0.487
248.000	192.103	80.012	19.995	100.376	20.149	1.678	0.457
256.000	195.865	80.010	19.996	100.393	20.148	1.728	0.434
264.000	199.661	80.008	19.996	100.397	20.145	1.939	0.485
272.000	203.370	80.009	19.996	100.385	20.145	1.921	0.460
280.000	207.113	80.011	19.995	100.389	20.144	1.992	0.463
288.000	210.859	80.007	19.995	100.394	20.138	2.440	0.463
296.000	214.647	80.007	19.994	100.401	20.135	2.638	0.458
304.000	218.482	80.012	19.996	100.403	20.136	2.540	0.502
312.000	222.321	80.010	19.995	100.398	20.133	2.790	0.512
320.000	226.272	80.010	19.996	100.379	20.132	2.852	0.487
328.000	230.242	80.013	19.995	100.382	20.129	3.052	0.533
336.000	234.192	80.015	19.995	100.383	20.124	3.375	0.502
344.000	238.070	80.010	19.995	100.370	20.124	3.400	0.505
352.000	241.958	80.010	19.995	100.370	20.124	3.372	0.487
360.000	245.866	80.010	19.994	100.375	20.124	3.421	0.444
368.000	249.830	80.009	19.995	100.375	20.118	3.786	0.512
376.000	253.806	80.010	19.995	100.379	20.111	4.263	0.450
384.000	257.860	80.010	19.994	100.394	20.109	4.433	0.525
392.000	261.901	80.011	19.997	100.372	20.104	4.766	0.494
400.000	265.972	80.009	19.997	100.365	20.102	4.904	0.476
408.000	270.010	80.011	19.994	100.364	20.099	5.084	0.515
416.000	274.042	80.011	19.996	100.363	20.099	5.133	0.494
424.000	278.043	80.007	19.996	100.367	20.090	5.719	0.500
432.000	281.998	80.008	19.995	100.367	20.088	5.861	0.513
440.000	285.912	80.010	19.996	100.365	20.089	5.822	0.480
448.000	289.820	80.009	19.996	100.364	20.084	6.161	0.466
456.000	293.763	80.009	19.995	100.364	20.082	6.313	0.499
464.000	297.667	80.008	19.996	100.364	20.077	6.611	0.472
472.000	301.643	80.012	19.996	100.361	20.071	7.040	0.503
480.000	305.662	80.011	19.995	100.367	20.069	7.192	0.502
488.000	309.684	80.010	19.996	100.362	20.062	7.676	0.508
496.000	313.797	80.011	19.996	100.359	20.064	7.546	0.512
504.000	317.844	80.010	19.995	100.364	20.061	7.741	0.480
512.000	322.018	80.010	19.995	100.363	20.060	7.832	0.509
520.000	326.158	80.010	19.994	100.361	20.051	8.404	0.534
528.000	330.402	80.011	19.995	100.363	20.047	8.721	0.511
536.000	334.676	80.010	19.995	100.356	20.046	8.761	0.544
544.000	338.901	80.011	19.995	100.341	20.042	9.029	0.507
552.000	342.961	80.013	19.994	100.337	20.041	9.106	0.513
560.000	346.923	80.010	19.995	100.333	20.040	9.180	0.492
568.000	350.859	80.011	19.996	100.331	20.037	9.369	0.512
576.000	354.794	80.012	19.995	100.333	20.032	9.727	0.477
584.000	358.684	80.015	19.997	100.326	20.025	10.211	0.484
592.000	362.623	80.010	19.996	100.336	20.020	10.529	0.447
600.000	366.596	80.010	19.996	100.344	20.018	10.702	0.515
608.000	370.527	80.011	19.995	100.336	20.010	11.233	0.465
616.000	374.559	80.009	19.995	100.345	20.007	11.453	0.482
624.000	378.581	80.008	19.996	100.338	20.003	11.744	0.508
632.000	382.661	80.011	19.995	100.340	19.998	12.089	0.504
640.000	386.733	80.011	19.994	100.331	19.990	12.598	0.492
648.000	390.840	80.011	19.996	100.331	19.982	13.201	0.492
656.000	395.086	80.011	19.996	100.333	19.977	13.512	0.544
664.000	399.287	80.012	19.996	100.339	19.968	14.113	0.536
672.000	403.552	80.009	19.996	100.333	19.957	14.890	0.535
680.000	407.817	80.010	19.996	100.335	19.947	15.620	0.554
688.000	412.005	80.009	19.997	100.327	19.932	16.600	0.507
696.000	416.113	80.008	19.996	100.327	19.923	17.234	0.517
704.000	420.124	80.009	19.995	100.319	19.910	18.138	0.481
712.000	424.029	80.009	19.996	100.322	19.899	18.917	0.466
720.000	427.899	80.012	19.995	100.322	19.886	19.825	0.490
728.000	431.748	80.010	19.996	100.314	19.880	20.199	0.465
736.000	435.659	80.012	19.996	100.320	19.868	21.063	0.494
744.000	439.568	80.012	19.995	100.324	19.865	21.269	0.484
752.000	443.489	80.011	19.995	100.326	19.860	21.589	0.484
760.000	447.491	80.011	19.995	100.327	19.857	21.808	0.530
768.000	451.564	80.009	19.996	100.325	19.861	21.521	0.498
776.000	455.702	80.010	19.996	100.319	19.877	20.392	0.517
784.000	459.855	80.010	19.998	100.317	19.889	19.609	0.495
792.000	463.992	80.010	19.995	100.323	19.916	17.712	0.514
800.000	468.125	80.011	19.995	100.323	19.949	15.446	0.546
808.000	472.285	80.012	19.995	100.321	19.985	12.955	0.538
816.000	476.447	80.011	19.996	100.321	20.023	10.323	0.486
824.000	480.642	80.012	19.994	100.326	20.055	8.135	0.504
832.000	484.829	80.010	19.995	100.328	20.082	6.255	0.533
840.000	488.849	80.009	19.996	100.324	20.103	4.866	0.471
848.000	493.059	80.008	19.996	100.325	20.121	3.581	0.525
856.000	497.199	80.010	19.996	100.323	20.135	2.597	0.512
864.000	501.367	80.008	19.996	100.324	20.149	1.682	0.539
872.000	505.476	80.009	19.996	100.326	20.154	1.321	0.519
880.000	509.673	80.008	19.997	100.335	20.160	0.907	0.527
888.000	513.715	80.010	19.995	100.325	20.163	0.694	0.491
896.000	517.886	80.009	19.994	100.330	20.164	0.598	0.531
904.000	521.963	80.010	19.996	100.327	20.171	0.117	0.499
912.000	525.986	80.012	19.995	100.326	20.170	0.205	0.509
920.000	530.037	80.011	19.995	100.323	20.171	0.169	0.515
928.000	534.122	80.011	19.996	100.325	20.175	-0.134	0.524
936.000	538.114	80.010	19.994	100.325	20.175	-0.132	0.497
944.000	542.160	80.011	19.995	100.328	20.177	-0.256	0.500
952.000	546.200	80.010	19.995	100.327	20.177	-0.263	0.505
960.000	550.264	80.009	19.995	100.333	20.179	-0.435	0.497
968.000	554.339	80.013	19.996	100.327	20.175	-0.152	0.519
976.000	558.406	80.010	19.996	100.323	20.175	-0.156	0.488
984.000	562.488	80.010	19.996	100.325	20.178	-0.356	0.498
992.000	566.611	80.013	19.995	100.324	20.177	-0.271	0.542
1000.000	570.710	80.011	19.996	100.322	20.179	-0.399	0.535
1008.000	574.857	80.010	19.995	100.326	20.181	-0.540	0.508
1016.000	579.018	80.011	19.996	100.327	20.179	-0.408	0.532
1024.000	583.041	80.025	19.996	100.328	20.183	-0.672	0.499
1031.999	587.098	80.011	19.995	100.330	20.182	-0.636	0.501
1039.999	591.138	80.009	19.996	100.325	20.182	-0.615	0.500
1047.999	595.195	80.010	19.995	100.325	20.181	-0.527	0.526
1055.999	599.105	80.012	19.995	100.324	20.184	-0.732	0.459
1063.999	603.085	80.010	19.994	100.325	20.181	-0.516	0.516
1072.000	607.024	80.011	19.997	100.323	20.182	-0.610	0.514
1079.999	611.051	80.011	19.995	100.325	20.181	-0.536	0.501
1088.000	615.033	80.009	19.995	100.330	20.181	-0.561	0.458
1095.999	619.115	80.009	19.995	100.330	20.180	-0.502	0.495
1104.000	623.207	80.012	19.995	100.340	20.179	-0.386	0.530
1111.999	627.260	80.010	19.996	100.346	20.178	-0.356	0.484
1119.999	631.451	80.010	19.995	100.358	20.180	-0.444	0.527
1127.999	635.688	80.011	19.995	100.349	20.177	-0.262	0.539
1135.999	639.754	80.011	19.994	100.361	20.182	-0.600	0.492
1143.999	643.798	80.009	19.995	100.366	20.181	-0.557	0.488
1151.999	647.866	80.012	19.994	100.367	20.178	-0.307	0.524
1159.999	651.870	80.014	19.995	100.367	20.178	-0.329	0.512
1167.999	655.843	80.009	19.996	100.369	20.176	-0.200	0.510
1175.999	659.812	80.009	19.996	100.389	20.177	-0.288	0.472
1183.999	663.828	80.011	19.996	100.394	20.177	-0.235	0.530
1191.999	667.906	80.011	19.992	100.402	20.171	0.156	0.502
1200.000	672.110	80.009	19.996	100.406	20.170	0.222	0.566
1208.000	676.316	80.009	19.995	100.410	20.168	0.324	0.539
1215.999	680.532	80.012	19.995	100.428	20.168	0.350	0.504
1223.999	684.636	80.011	19.994	100.438	20.166	0.499	0.515
1231.999	688.703	80.010	19.995	100.447	20.166	0.507	0.518
1239.999	692.774	80.012	19.995	100.441	20.164	0.661	0.492
1247.999	696.957	80.010	19.995	100.472	20.163	0.686	0.551
1255.999	701.131	80.009	19.997	100.480	20.160	0.922	0.514
1263.999	705.247	80.008	19.995	100.484	20.159	0.978	0.508
1271.999	709.376	80.010	19.995	100.502	20.157	1.124	0.520
1279.999	713.350	80.009	19.996	100.513	20.154	1.352	0.312
1287.999	717.553	80.010	19.996	100.520	20.150	1.587	0.571
1296.000	721.518	80.009	19.994	100.528	20.152	1.471	0.456
1304.000	725.573	80.012	19.998	100.523	20.151	1.555	0.484
1311.999	729.688	80.010	19.994	100.521	20.150	1.567	0.524
1319.999	733.769	80.014	19.997	100.514	20.153	1.357	0.513
1327.999	737.763	80.011	19.998	100.490	20.155	1.240	0.518
1336.000	741.885	80.010	19.999	100.459	20.162	0.793	0.512
1338.999	743.406	80.009	19.996	100.437	20.163	0.695	0.519