File: 01_Data/Asphalt_Shingle/MCC/Asphalt_Shingle_MCC_30K_min_210928_R1.txt
Sample ID:	C:\MCC\MCC Cal\Test\Asphalt_Shingle\Asphalt_Shingle_MCC_30K_min_210928_R1.txt
Sample Weight (mg):	4.94
Heating Rate (C/s):	0.5
Combustor Temp (C):	900
N2 Flow Rate (cc/min):	80
O2 Flow Rate (cc/min):	20
Calibration File:	C:\MCC\MCC Cal\Coeff1 JN10440_30_210304.txt.txt
T Correction Coefficients:	0	1.024463	0
Time Shift (s):	14
*
Time (s)	Temperature (C)	N2 flow rate (cc/min)	O2 flow rate (cc/min)	Flow Rate (cc/min)	Oxygen (%)	HRR (W/g)	Heating rate (C/s)
0.000	108.626	80.008	19.995	100.200	20.143	-0.254	0.012
8.000	108.600	80.009	19.995	100.210	20.140	-0.067	0.026
16.000	108.599	80.006	19.995	100.210	20.137	0.147	-0.014
24.000	108.647	80.006	19.995	100.237	20.132	0.449	0.019
32.000	108.803	80.009	19.995	100.254	20.124	0.927	0.028
40.001	109.219	80.009	19.995	100.325	20.120	1.213	0.111
48.000	110.013	80.008	19.996	100.396	20.104	2.215	0.123
56.000	111.314	80.008	19.996	100.405	20.103	2.302	0.173
64.001	112.968	80.011	19.994	100.405	20.097	2.635	0.257
72.001	114.978	80.008	19.994	100.425	20.096	2.725	0.246
80.001	117.282	80.007	19.995	100.447	20.092	2.957	0.294
88.000	119.976	80.007	19.994	100.447	20.097	2.680	0.351
96.000	122.851	80.008	19.996	100.442	20.092	3.014	0.378
104.000	126.009	80.009	19.994	100.446	20.096	2.723	0.404
112.000	129.236	80.009	19.997	100.442	20.093	2.909	0.415
120.000	132.674	80.008	19.994	100.440	20.093	2.914	0.437
128.000	136.153	80.009	19.996	100.443	20.095	2.816	0.457
136.000	139.784	80.008	19.995	100.446	20.094	2.877	0.462
144.000	143.473	80.011	19.994	100.432	20.095	2.789	0.482
152.000	147.184	80.007	19.995	100.442	20.096	2.730	0.428
160.000	151.051	80.008	19.993	100.437	20.094	2.867	0.480
168.001	154.858	80.006	19.997	100.420	20.095	2.821	0.451
176.000	158.769	80.009	19.995	100.417	20.092	2.963	0.516
184.000	162.656	80.008	19.996	100.418	20.098	2.586	0.485
192.000	166.659	80.008	19.994	100.414	20.099	2.565	0.464
200.000	170.674	80.007	19.994	100.407	20.104	2.243	0.515
208.000	174.660	80.011	19.996	100.409	20.104	2.193	0.538
216.000	178.647	80.007	19.992	100.407	20.096	2.743	0.480
224.000	182.659	80.011	19.995	100.403	20.095	2.786	0.529
232.000	186.692	80.009	19.996	100.398	20.102	2.367	0.487
240.000	190.750	80.011	19.993	100.381	20.094	2.867	0.512
248.000	194.640	80.006	19.997	100.377	20.098	2.592	0.458
256.000	198.621	80.002	19.995	100.378	20.097	2.640	0.481
264.000	202.571	80.009	19.993	100.381	20.095	2.820	0.520
272.000	206.523	80.006	19.995	100.376	20.079	3.798	0.475
280.000	210.465	80.007	19.994	100.371	20.100	2.491	0.463
288.001	214.392	79.999	19.993	100.373	20.094	2.880	0.485
296.000	218.282	80.012	19.994	100.369	20.085	3.406	0.460
304.000	222.289	80.009	19.998	100.363	20.087	3.270	0.507
312.000	226.197	80.009	19.997	100.364	20.087	3.308	0.465
320.000	230.246	80.008	19.995	100.368	20.088	3.220	0.513
328.000	234.223	80.007	19.994	100.366	20.085	3.451	0.519
336.000	238.256	80.006	19.993	100.368	20.083	3.557	0.534
344.000	242.194	80.010	19.993	100.368	20.079	3.815	0.517
352.000	246.196	80.003	19.998	100.363	20.074	4.091	0.504
360.000	250.220	80.005	19.996	100.362	20.073	4.166	0.494
368.000	254.187	80.011	19.995	100.365	20.069	4.461	0.493
376.000	258.182	80.012	19.996	100.363	20.069	4.422	0.527
384.000	262.201	80.014	19.995	100.365	20.064	4.733	0.497
392.000	266.179	80.013	19.994	100.360	20.056	5.239	0.501
400.000	270.206	80.010	19.994	100.359	20.053	5.461	0.496
408.000	274.253	80.017	19.996	100.363	20.053	5.428	0.495
416.000	278.241	80.005	19.994	100.363	20.047	5.837	0.487
424.000	282.309	80.013	19.995	100.347	20.043	6.068	0.477
432.001	286.258	80.005	19.997	100.352	20.032	6.767	0.491
440.000	290.363	80.007	19.997	100.337	20.031	6.863	0.538
448.000	294.304	80.009	19.994	100.326	20.025	7.243	0.495
456.000	298.337	80.011	19.994	100.330	20.023	7.383	0.556
464.000	302.285	80.008	19.996	100.345	20.016	7.783	0.476
472.001	306.317	80.006	19.995	100.350	20.014	7.894	0.504
480.000	310.325	80.006	19.995	100.335	20.007	8.338	0.516
488.000	314.334	80.009	19.994	100.343	20.007	8.371	0.504
496.000	318.380	80.009	19.994	100.331	20.003	8.648	0.478
504.000	322.409	80.010	19.996	100.331	19.998	8.923	0.514
512.000	326.504	80.009	19.995	100.327	19.995	9.114	0.542
520.000	330.517	80.008	19.996	100.328	19.987	9.639	0.495
528.000	334.647	80.008	19.997	100.330	19.983	9.895	0.555
536.000	338.653	80.008	19.995	100.324	19.981	10.044	0.504
544.000	342.703	80.014	19.994	100.330	19.974	10.455	0.493
552.000	346.771	80.015	19.993	100.329	19.973	10.523	0.562
560.000	350.784	80.013	19.994	100.322	19.966	10.992	0.490
568.000	354.846	80.001	19.996	100.323	19.966	10.969	0.501
576.000	358.874	80.012	19.995	100.327	19.961	11.308	0.520
584.000	362.940	80.020	19.994	100.324	19.956	11.582	0.530
592.000	366.952	79.996	19.997	100.333	19.954	11.711	0.487
600.000	370.949	80.013	19.996	100.333	19.949	12.030	0.484
608.000	375.014	80.018	19.995	100.328	19.943	12.439	0.510
616.000	379.018	80.009	19.995	100.317	19.932	13.097	0.478
624.001	383.076	80.002	19.996	100.324	19.930	13.254	0.508
632.000	387.073	80.000	19.997	100.317	19.922	13.750	0.491
640.000	391.143	80.002	19.995	100.320	19.916	14.140	0.552
648.000	395.153	80.004	19.996	100.321	19.906	14.747	0.516
656.001	399.192	80.000	19.997	100.304	19.900	15.150	0.520
664.000	403.205	80.011	19.995	100.305	19.890	15.809	0.511
672.000	407.267	80.012	19.995	100.320	19.873	16.822	0.551
680.000	411.287	80.019	19.992	100.302	19.863	17.458	0.525
688.000	415.252	80.004	19.995	100.305	19.851	18.258	0.525
696.000	419.232	80.015	19.994	100.299	19.836	19.212	0.506
704.000	423.282	80.012	19.995	100.306	19.827	19.755	0.479
712.000	427.273	80.024	19.994	100.306	19.815	20.540	0.518
720.000	431.374	80.016	19.995	100.291	19.800	21.477	0.522
728.000	435.420	80.015	19.995	100.296	19.790	22.098	0.506
736.000	439.419	80.001	19.995	100.292	19.774	23.123	0.508
744.000	443.492	80.012	19.993	100.304	19.772	23.243	0.527
752.000	447.409	80.010	19.994	100.294	19.770	23.358	0.512
760.000	451.414	80.012	19.995	100.292	19.769	23.413	0.481
768.000	455.500	80.011	19.994	100.288	19.783	22.540	0.517
776.000	459.507	80.010	19.994	100.289	19.802	21.340	0.511
784.000	463.586	80.011	19.995	100.290	19.825	19.871	0.526
792.000	467.572	80.013	19.995	100.289	19.860	17.677	0.482
800.000	471.616	80.007	19.995	100.296	19.904	14.914	0.477
808.001	475.684	80.012	19.994	100.299	19.945	12.322	0.475
816.000	479.763	80.008	19.996	100.295	19.981	10.031	0.523
824.000	483.741	80.009	19.997	100.294	20.015	7.877	0.492
832.000	487.752	80.008	19.996	100.309	20.041	6.206	0.479
840.001	491.720	80.009	19.994	100.301	20.063	4.787	0.513
848.000	495.694	80.007	19.996	100.289	20.080	3.710	0.493
856.000	499.522	80.009	19.995	100.293	20.089	3.180	0.468
864.000	503.326	80.012	19.994	100.302	20.096	2.754	0.455
872.000	507.173	80.007	19.994	100.315	20.105	2.180	0.480
880.000	511.038	80.009	19.995	100.313	20.107	2.006	0.460
888.000	514.950	80.010	19.995	100.303	20.115	1.499	0.497
896.000	518.920	80.009	19.995	100.308	20.114	1.584	0.512
904.000	522.912	80.008	19.996	100.294	20.116	1.445	0.516
912.000	526.935	80.009	19.996	100.312	20.119	1.290	0.511
920.000	530.938	80.009	19.996	100.289	20.111	1.777	0.507
928.000	534.952	80.008	19.995	100.299	20.110	1.843	0.514
936.000	538.899	80.008	19.994	100.294	20.106	2.118	0.501
944.000	542.967	80.013	19.995	100.326	20.110	1.840	0.547
952.001	547.056	80.009	19.994	100.329	20.111	1.766	0.527
960.000	551.235	80.010	19.995	100.322	20.113	1.638	0.513
968.000	555.398	80.013	19.994	100.322	20.118	1.332	0.510
976.000	559.481	80.010	19.994	100.325	20.118	1.319	0.527
984.000	563.699	80.009	19.995	100.323	20.118	1.347	0.512
992.000	567.905	80.009	19.995	100.326	20.118	1.323	0.514
1000.000	572.193	80.010	19.994	100.310	20.119	1.245	0.540
1008.000	576.484	80.008	19.995	100.325	20.120	1.217	0.527
1016.000	580.718	80.006	19.996	100.329	20.120	1.193	0.506
1024.000	584.914	80.010	19.995	100.321	20.126	0.854	0.515
1032.000	589.028	80.010	19.995	100.322	20.126	0.811	0.550
1040.000	593.167	80.010	19.995	100.325	20.126	0.854	0.484
1048.000	597.281	80.010	19.996	100.308	20.126	0.844	0.491
1056.000	601.305	80.011	19.995	100.323	20.124	0.930	0.514
1064.000	605.332	80.009	19.995	100.323	20.122	1.072	0.506
1072.000	609.292	80.009	19.995	100.329	20.124	0.970	0.514
1080.000	613.263	80.009	19.996	100.329	20.127	0.747	0.490
1088.001	617.275	80.009	19.996	100.327	20.124	0.923	0.489
1096.000	621.304	80.007	19.996	100.329	20.123	1.029	0.479
1104.000	625.306	80.008	19.996	100.329	20.123	1.045	0.477
1112.000	629.243	80.011	19.997	100.329	20.123	1.024	0.468
1120.000	633.302	80.010	19.995	100.343	20.125	0.917	0.498
1128.000	637.361	80.011	19.994	100.334	20.121	1.138	0.533
1136.001	641.398	80.012	19.995	100.342	20.120	1.200	0.492
1144.000	645.472	80.009	19.995	100.354	20.118	1.308	0.534
1152.000	649.537	80.010	19.995	100.357	20.116	1.450	0.531
1160.001	653.660	80.009	19.995	100.365	20.118	1.346	0.547
1168.000	657.718	80.011	19.995	100.365	20.115	1.495	0.490
1176.000	661.769	80.010	19.996	100.366	20.110	1.822	0.516
1184.000	665.666	80.007	19.996	100.384	20.112	1.730	0.468
1192.001	669.811	80.011	19.995	100.399	20.109	1.912	0.527
1200.000	674.019	80.009	19.996	100.404	20.107	2.011	0.573
1208.000	678.178	80.008	19.996	100.404	20.109	1.906	0.546
1216.000	682.248	80.012	19.995	100.409	20.105	2.135	0.497
1224.001	686.221	80.010	19.994	100.431	20.107	2.046	0.501
1232.000	690.119	80.009	19.995	100.436	20.100	2.504	0.486
1240.000	694.066	80.009	19.995	100.452	20.102	2.366	0.504
1248.000	698.069	80.009	19.996	100.462	20.098	2.572	0.509
1256.000	702.078	80.009	19.994	100.465	20.094	2.853	0.504
1264.000	706.019	80.008	19.994	100.483	20.097	2.682	0.498
1272.000	709.972	80.011	19.995	100.486	20.091	3.074	0.475
1280.000	713.963	80.009	19.995	100.523	20.091	3.065	0.527
1288.000	718.059	80.009	19.995	100.520	20.087	3.301	0.508
1296.000	722.193	80.009	19.995	100.532	20.087	3.307	0.522
1304.000	726.522	80.010	19.996	100.541	20.098	2.582	0.509
1312.001	730.763	80.010	19.995	100.548	20.084	3.467	0.635
1320.000	734.952	80.009	19.995	100.538	20.082	3.595	0.321
1328.000	739.103	80.009	19.995	100.523	20.084	3.463	0.578
1336.000	743.179	80.009	19.995	100.476	20.087	3.285	0.527
1336.500	743.397	80.010	19.995	100.473	20.089	3.154	0.453