File: 01_Data/Plastic_Laminate_Countertop/Cone/Plastic_Laminate_Countertop_Cone_HF75Scan_220504_R3.csv
Names,Time,Stack TC,Smoke TC,Exh Press,Smoke Comp,Smoke Meas,CO Meter,CO2 Meter,O2 Meter,Sample Mass,Ext Coeff,Start Test,Flame Verif
Chan Gain,,500,500,1,1,1,1,1,1,1,1,1.0,1.0
Offset,,0,0,0.136848,0,0,0,0,0,0,0,0.0,0.0
Gain,,1,1,25.011,13.1423,14.7137,1,1,1,1.0009,1.01396,1.0,1.0
Units,sec,C,C,Pa,%,%,%,%,%,g,/m,,
Baseline,,50.8497,52.6568,126.689,100.609,109.701,0.000521627,0.0412967,20.9894,-447.073,-0.769405,,
157,39,66.0135,64.9796,113.742,99.5041,104.117,0.00455454,0.439,20.5336,784.544,-0.403041,0.0,0.0
314,78.25,65.3842,68.6016,125.187,99.529,107.53,0.00218664,0.197905,20.8022,781.161,-0.687744,0.0,0.0
471,117.5,67.856,70.5102,114.912,100.307,103.124,0.00445255,0.324086,20.6554,777.868,-0.246335,0.0,0.0
628,156.75,75.8837,78.7787,113.463,100.609,103.995,0.0058383,0.418338,20.5562,772.693,-0.294378,0.0,0.0
785,196,79.0351,83.0941,113.597,100.088,106.802,0.00434205,0.384071,20.5944,767.309,-0.57751,0.0,0.0
942,235.25,79.0704,84.1047,114.248,100.21,108.716,0.00321843,0.341935,20.6423,762.604,-0.72468,0.0,0.0
1099,274.5,78.2236,83.0319,116.744,100.275,109.859,0.00265454,0.325855,20.6594,758.23,-0.81192,0.0,0.0
1256,313.75,77.5418,83.3077,115.456,100.447,110.241,0.00256771,0.313972,20.6708,754.187,-0.827591,0.0,0.0
1413,353,78.1867,82.5888,115.214,100.974,110.802,0.00194532,0.300685,20.6867,750.293,-0.82611,0.0,0.0
1570,392.25,77.7368,81.831,113.042,100.498,110.433,0.00201848,0.285503,20.7016,746.56,-0.838467,0.0,0.0
1727,431.5,76.9592,81.3482,114.747,99.5586,109.812,0.00157829,0.269836,20.7235,743.177,-0.871868,0.0,0.0
1884,470.75,75.4954,79.7309,118.173,100.006,110.389,0.00184479,0.257163,20.7339,739.924,-0.878582,0.0,0.0
2041,510,74.3565,79.1262,118.965,100.682,111.43,0.00153976,0.241524,20.7524,736.831,-0.902079,0.0,0.0
2198,549.25,72.7303,77.0331,119.508,100.529,111.082,0.00151232,0.226501,20.7736,733.789,-0.887803,0.0,0.0
2355,588.5,72.1589,75.4897,119.458,99.9794,111.261,0.0010183,0.218549,20.782,730.926,-0.950921,0.0,0.0
2512,627.75,71.3219,74.398,121.759,100.464,111.513,0.00140601,0.21015,20.7917,728.164,-0.928038,0.0,0.0
2669,667,70.2409,73.3265,119.878,100.16,111.374,0.00156184,0.207774,20.7991,725.491,-0.94392,0.0,0.0
2826,706.25,69.7889,73.2461,122.467,100.375,110.829,0.00131834,0.205748,20.7995,722.699,-0.881176,0.0,0.0
2983,745.5,69.5823,72.8209,119.572,100.677,111.472,0.0013355,0.205653,20.7988,719.956,-0.905945,0.0,0.0
3140,784.75,69.8778,72.8507,116.924,100.947,111.757,0.00147126,0.206339,20.8013,717.224,-0.904851,0.0,0.0
3297,824,69.8208,72.7966,121.838,101.025,112.355,0.00145757,0.205698,20.8027,714.551,-0.945366,0.0,0.0
3454,863.25,69.7843,72.4652,118.69,101.021,112.353,0.00144023,0.20592,20.801,711.839,-0.945576,0.0,0.0
3611,902.5,69.3895,73.1568,118.58,100.917,112.468,0.000925491,0.208327,20.7994,708.986,-0.963929,0.0,0.0
3768,941.75,69.4957,72.444,118.658,100.487,111.431,0.0013024,0.207834,20.8007,706.294,-0.919458,0.0,0.0
3925,981,69.259,72.3982,119.142,99.7504,110.614,0.00124039,0.207544,20.7996,703.481,-0.919477,0.0,0.0
4082,1020.25,69.9082,72.5406,119.703,99.701,109.665,0.00118413,0.207184,20.8025,700.849,-0.847257,0.0,0.0
4239,1059.5,69.2071,72.9334,121.545,100.054,111.075,0.0014053,0.2062,20.8018,698.117,-0.929414,0.0,0.0
4396,1098.75,69.5855,72.5131,118.861,100.506,111.242,0.00120242,0.205511,20.8026,695.324,-0.902759,0.0,0.0
4553,1138,69.892,72.335,118.056,100.757,111.843,0.00109469,0.206739,20.8018,692.682,-0.92844,0.0,0.0
4710,1177.25,69.7488,72.3578,118.91,100.829,112.095,0.00161172,0.205006,20.8059,690.019,-0.94208,0.0,0.0
4867,1216.5,69.2408,72.4504,116.432,100.794,111.444,0.0011476,0.20684,20.8023,687.307,-0.893381,0.0,0.0
5024,1255.75,69.8573,72.5616,117.182,100.7,111.681,0.00136304,0.207493,20.8,684.594,-0.920568,0.0,0.0
5181,1295,69.9707,72.7204,119.409,100.512,111.477,0.00172819,0.210189,20.8005,681.872,-0.920948,0.0,0.0
5338,1334.25,70.0022,72.9809,121.241,100.317,110.833,0.000982292,0.213845,20.7957,679.149,-0.88662,0.0,0.0
5495,1373.5,70.5982,73.6101,114.874,100.103,111.159,0.00138715,0.218213,20.7874,676.447,-0.931751,0.0,0.0
5652,1412.75,70.5937,73.5455,119.335,100.203,111.95,0.00127676,0.223556,20.7803,673.625,-0.985964,0.0,0.0
5809,1452,71.1439,74.3257,117.405,100.407,110.787,0.00135218,0.228994,20.7751,670.732,-0.875016,0.0,0.0
5966,1491.25,71.6726,74.8906,118.645,100.543,111.825,0.00152923,0.233666,20.7714,667.839,-0.945938,0.0,0.0
6123,1530.5,72.2376,75.1268,118.942,100.204,110.954,0.0014075,0.242029,20.7617,664.877,-0.906412,0.0,0.0
6280,1569.75,72.6072,75.461,115.208,100.591,111.408,0.00162616,0.248551,20.7542,661.934,-0.908441,0.0,0.0
6437,1609,73.3181,76.7538,115.168,101.017,111.78,0.00140131,0.255527,20.7457,658.791,-0.900492,0.0,0.0
6594,1648.25,74.1106,77.4036,114.98,101.107,112.14,0.00170797,0.262144,20.7359,655.608,-0.921228,0.0,0.0
6751,1687.5,74.9268,77.9893,118.828,100.998,111.219,0.00139073,0.272053,20.7288,652.406,-0.857342,0.0,0.0
6908,1726.75,76.58,79.5848,112.829,100.672,110.906,0.00176776,0.278704,20.7204,649.133,-0.86111,0.0,0.0
7065,1766,76.2161,79.7137,121.251,99.9625,109.845,0.00138295,0.279977,20.7178,645.81,-0.838478,0.0,0.0
7222,1805.25,76.2412,80.8752,114.568,99.7828,109.864,0.00211201,0.283679,20.7119,642.427,-0.856043,0.0,0.0
7379,1844.5,76.6095,80.9825,113.303,100.402,110.797,0.0017123,0.284506,20.7107,639.064,-0.876307,0.0,0.0
7536,1883.75,77.1985,80.825,114.002,100.923,111.262,0.00152969,0.286711,20.7076,635.761,-0.867467,0.0,0.0
7693,1923,77.74,80.8693,114.297,100.924,111.312,0.00169564,0.287725,20.7034,632.488,-0.87138,0.0,0.0
7850,1962.25,78.0318,81.2432,111.139,100.787,110.758,0.00195839,0.291083,20.7,629.115,-0.839056,0.0,0.0
8007,2001.5,78.1519,81.6111,116.173,100.673,111.143,0.00160589,0.288244,20.7031,625.762,-0.879961,0.0,0.0
8164,2040.75,77.9845,82.1843,115.329,100.58,110.633,0.00156363,0.287651,20.7018,622.529,-0.847344,0.0,0.0
8321,2080,77.8627,81.7691,112.285,100.507,110.985,0.00168644,0.28962,20.6984,619.326,-0.881985,0.0,0.0
8478,2119.25,78.0908,82.2715,111.953,100.424,111.057,0.00193272,0.289443,20.7,616.123,-0.8952,0.0,0.0
8635,2158.5,78.1171,82.0499,112.442,100.177,110.102,0.00183592,0.28953,20.7014,612.8,-0.840287,0.0,0.0
8792,2197.75,78.3763,82.2916,117.03,100.493,110.166,0.00172219,0.290616,20.6966,609.627,-0.817348,0.0,0.0
8949,2237,78.6563,82.4279,116.267,100.617,110.706,0.00168688,0.288456,20.7007,606.434,-0.849893,0.0,0.0
9106,2276.25,78.9169,82.1708,112.262,100.579,109.783,0.00182005,0.285454,20.7015,603.331,-0.778815,0.0,0.0
9263,2315.5,78.1735,81.9979,114.8,100.405,110.97,0.00167065,0.279119,20.71,600.259,-0.88989,0.0,0.0
9420,2354.75,77.552,81.2709,115.857,100.679,111.248,0.00133956,0.273171,20.7164,597.216,-0.887871,0.0,0.0
9577,2394,77.0619,81.0125,114.348,101.002,111.168,0.00175839,0.262384,20.7277,594.273,-0.852965,0.0,0.0
9734,2433.25,76.6266,79.8558,113.707,101.172,111.324,0.00173234,0.254861,20.7368,591.581,-0.850532,0.0,0.0
9891,2472.5,75.6198,78.8273,115.859,101.208,110.824,0.00151836,0.2443,20.7476,589.029,-0.807339,0.0,0.0
10048,2511.75,74.3978,77.8214,117.003,101.22,112.193,0.00166725,0.220007,20.7704,586.757,-0.915415,0.0,0.0
10205,2551,70.3826,74.0537,121.638,101.208,113.084,0.00131731,0.145225,20.8515,585.185,-0.98689,0.0,0.0
10362,2590.25,66.8154,69.5812,121.296,101.197,113.21,0.00141693,0.115193,20.8909,584.505,-0.997795,0.0,0.0
10519,2629.5,63.8567,67.2358,123.427,101.226,113.035,0.00166188,0.107173,20.8998,584.014,-0.981418,0.0,0.0
10676,2668.75,62.7172,65.0271,122.406,101.118,113.244,0.00186819,0.10396,20.9023,583.444,-1.00739,0.0,0.0
10833,2708,61.9468,63.9955,123.365,100.855,113.154,0.00209849,0.102164,20.9052,582.963,-1.0234,0.0,0.0
10990,2747.25,61.6595,63.7821,118.462,100.479,112.258,0.00247581,0.100818,20.9072,582.523,-0.985908,0.0,0.0
11147,2786.5,60.6169,63.0204,118.836,100.404,112.423,0.0026333,0.0983857,20.9112,582.142,-1.0057,0.0,0.0
11304,2825.75,60.8533,62.5761,121.98,100.052,112.027,0.00261824,0.0981949,20.9149,581.722,-1.00549,0.0,0.0
11461,2865,60.9065,61.8454,123.776,99.845,112.137,0.00256538,0.0961835,20.9149,581.282,-1.03268,0.0,0.0
11618,2904.25,60.1314,61.775,123.834,99.9457,111.916,0.00270941,0.0961471,20.9127,580.921,-1.00614,0.0,0.0
11775,2943.5,59.5359,61.671,121.585,100.194,111.587,0.00300717,0.0965013,20.9121,580.531,-0.957875,0.0,0.0
11932,2982.75,59.4586,61.5112,125.762,100.287,111.959,0.00319911,0.0948473,20.9186,580.241,-0.979169,0.0,0.0
12089,3022,59.7979,61.7353,120.283,100.294,111.726,0.00283918,0.0940469,20.9177,579.9,-0.960031,0.0,0.0
12246,3061.25,59.2857,61.0659,124.793,100.352,112.252,0.00306869,0.0936408,20.9158,579.52,-0.996707,0.0,0.0
12403,3100.5,59.1213,60.9002,120.947,100.412,112.517,0.00288162,0.0927097,20.919,579.13,-1.01238,0.0,0.0
12560,3139.75,58.6887,61.0252,124.87,100.541,112.643,0.00304703,0.0932722,20.9204,578.849,-1.01092,0.0,0.0
12717,3179,58.6459,60.9205,122.093,100.801,112.952,0.003015,0.0923349,20.9195,578.569,-1.01228,0.0,0.0
12874,3218.25,58.4011,60.8337,120.319,101.076,113.03,0.00268712,0.0921104,20.9197,578.189,-0.994254,0.0,0.0
13031,3257.5,57.7268,60.992,121.889,101.106,113.362,0.00279829,0.0922116,20.9231,577.899,-1.01768,0.0,0.0
13188,3296.75,58.2737,60.3526,125.014,101.126,113.173,0.00249093,0.0917464,20.923,577.518,-1.00104,0.0,0.0
13345,3336,58.6986,59.64,121.282,101.073,112.664,0.00297744,0.0914638,20.9236,577.348,-0.965693,0.0,0.0
13502,3375.25,58.4478,59.9057,123.721,100.913,112.522,0.00303404,0.0914268,20.9211,577.038,-0.968507,0.0,0.0
13659,3414.5,58.05,60.6924,123.108,100.686,112.408,0.00262557,0.0904334,20.9232,576.658,-0.979483,0.0,0.0
13816,3453.75,58.8859,59.8891,124.92,100.425,111.652,0.00273952,0.0911849,20.9236,576.367,-0.942579,0.0,0.0
13973,3493,58.3385,60.3687,128.287,100.382,112.553,0.00259594,0.0904816,20.9229,576.097,-1.01788,0.0,0.0
14130,3532.25,58.1901,60.2752,122.887,100.425,112.173,0.00236677,0.0900902,20.9235,575.877,-0.984047,0.0,0.0
14287,3571.5,57.8979,60.3417,124.301,100.439,112.516,0.00228251,0.0893148,20.9231,575.587,-1.00996,0.0,0.0
14444,3610.75,56.5208,58.3672,121.82,100.523,111.52,0.00235218,0.0892706,20.9229,575.246,-0.923393,0.0,0.0
14601,3650,55.8982,58.5303,130.319,100.635,112.809,0.0020617,0.0884139,20.9251,574.946,-1.01569,0.0,0.0
14758,3689.25,56.0894,58.6901,122.302,100.609,112.487,0.00258573,0.0894819,20.925,574.736,-0.992574,0.0,0.0
14900,3724.75,55.9276,58.5299,123.374,100.636,112.663,,,,574.425,-1.00411,0.0,0.0