File: 01_Data/Plastic_Laminate_Countertop/Cone/Plastic_Laminate_Countertop_Cone_HF25Scan_220509_R3.csv
Names,Time,Stack TC,Smoke TC,Exh Press,Smoke Comp,Smoke Meas,CO Meter,CO2 Meter,O2 Meter,Sample Mass,Ext Coeff,Start Test,Flame Verif
Chan Gain,,500,500,1,1,1,1,1,1,1,1,1.0,1.0
Offset,,0,0,0.136848,0,0,0,0,0,0,0,0.0,0.0
Gain,,1,1,25.011,13.1423,14.7137,1,1,1,1.0009,1.01396,1.0,1.0
Units,sec,C,C,Pa,%,%,%,%,%,g,/m,,
Baseline,,24.772,25.3013,146.622,99.2701,102.9,0.000548772,0.041724,20.9914,-443.153,-0.319379,,
159,39.5,22.7723,23.5624,145.121,99.4764,103.306,0.000653177,0.0422416,20.9951,757.44,-0.336007,0.0,0.0
318,79.25,23.381,23.6194,146.638,99.3846,101.939,0.000790034,0.0441069,20.993,757.2,-0.225718,0.0,0.0
477,119,24.0987,24.3857,143.818,99.2779,101.712,0.00322431,0.0493027,20.9899,756.749,-0.215464,0.0,0.0
636,158.75,23.7632,24.867,144.952,99.308,101.703,0.00257571,0.0485952,20.9928,756.239,-0.211985,0.0,0.0
795,198.5,23.8908,24.7137,148.115,99.2021,102.145,0.00253728,0.0461581,20.9924,755.728,-0.26003,0.0,0.0
954,238.25,24.1245,25.2507,145.236,99.2286,102.409,0.00249208,0.0464935,20.9939,755.288,-0.280578,0.0,0.0
1113,278,25.2332,25.4365,145.476,99.2562,102.635,0.00238572,0.0485285,20.9897,754.787,-0.297732,0.0,0.0
1272,317.75,24.967,25.5482,142.107,99.1732,102.702,0.00251048,0.0482128,20.9897,754.287,-0.31097,0.0,0.0
1431,357.5,24.6172,25.2197,147.772,99.5903,102.927,0.00224796,0.0471185,20.9927,753.817,-0.293101,0.0,0.0
1590,397.25,24.7053,25.6234,145.762,99.9252,103,0.00197447,0.0464317,20.9887,753.376,-0.269525,0.0,0.0
1749,437,24.819,25.8779,147.612,100.023,103.279,0.0023022,0.046846,20.9918,752.956,-0.284978,0.0,0.0
1908,476.75,25.4122,25.7322,149.809,99.8835,102.907,0.00228837,0.0488565,20.9901,752.495,-0.265248,0.0,0.0
2067,516.5,24.9809,25.9714,146.865,99.5811,102.127,0.00173574,0.048649,20.993,751.975,-0.224509,0.0,0.0
2226,556.25,25.3614,25.7436,147.71,99.8807,102.43,0.00201143,0.0495179,20.992,751.404,-0.224186,0.0,0.0
2385,596,25.4546,25.9066,143.354,100.016,101.674,0.00285998,0.0516655,20.9917,750.644,-0.146215,0.0,0.0
2544,635.75,25.61,26.0148,144.553,100.07,101.631,0.00350983,0.0556687,20.9887,749.803,-0.137744,0.0,0.0
2703,675.5,26.6058,26.8074,141.468,100.315,103.646,0.00256756,0.0856936,20.9563,748.682,-0.290516,0.0,1.0
2862,715.25,29.4517,29.6268,137.287,100.36,102.019,0.00444454,0.158838,20.8679,746.8,-0.14586,0.0,0.0
3021,755,34.6383,34.2237,138.798,100.358,100.807,0.00628835,0.197333,20.8295,743.858,-0.0396711,0.0,0.0
3180,794.75,36.1238,36.3728,140.851,100.178,102.432,0.00593561,0.190978,20.835,740.715,-0.197877,0.0,0.0
3339,834.5,35.5715,37.3992,140.67,100.114,103.196,0.00636402,0.165515,20.8631,737.852,-0.269655,0.0,0.0
3498,874.25,34.3915,36.3952,140.255,99.934,104.279,0.00433161,0.149309,20.8769,735.46,-0.378568,0.0,0.0
3657,914,33.6898,35.4262,146.794,99.9729,104.185,0.00335529,0.134642,20.8944,733.498,-0.367059,0.0,0.0
3816,953.75,32.7905,33.9965,141.26,100.155,104.697,0.00242275,0.125239,20.9029,731.797,-0.394467,0.0,0.0
3975,993.5,32.5453,33.7095,144.111,100.366,105.252,0.00260344,0.119876,20.907,730.195,-0.422741,0.0,0.0
4134,1033.25,31.6014,33.1532,137.789,100.125,103.775,0.00227644,0.120239,20.9065,728.664,-0.318514,0.0,0.0
4293,1073,31.6442,33.1191,141.707,99.2338,103.777,0.0021148,0.121562,20.9038,727.193,-0.398152,0.0,0.0
4452,1112.75,31.7928,32.8223,142.148,98.5804,103.367,0.00210446,0.123725,20.902,725.701,-0.421739,0.0,0.0
4611,1152.5,32.1718,33.1439,139.533,99.5779,104.941,0.00196876,0.124463,20.9002,724.15,-0.466596,0.0,0.0
4770,1192.25,31.9713,33.2804,142.712,99.559,104.056,0.00209595,0.125045,20.9005,722.689,-0.392951,0.0,0.0
4929,1232,32.0388,33.1553,137.879,99.3625,104.129,0.00266051,0.127967,20.896,721.267,-0.41678,0.0,0.0
5088,1271.75,31.8189,33.3445,143.441,99.9433,104.752,0.00237059,0.125832,20.8957,719.736,-0.417985,0.0,0.0
5247,1311.5,31.9642,32.7754,138.903,99.7969,103.895,0.00237529,0.126256,20.8974,718.255,-0.357901,0.0,0.0
5406,1351.25,31.7726,33.5372,138.041,100.398,106.119,0.00234468,0.126091,20.8976,716.743,-0.492979,0.0,0.0
5565,1391,32.3348,32.6899,137.774,99.8073,104.764,0.00245957,0.125095,20.8971,715.262,-0.431122,0.0,0.0
5724,1430.75,31.081,33.2649,139.281,98.6113,102.882,0.00249146,0.124074,20.9007,713.761,-0.377088,0.0,0.0
5883,1470.5,31.6844,32.8988,141.094,99.6072,104.937,0.00292413,0.122865,20.9005,712.309,-0.46364,0.0,0.0
6042,1510.25,31.7069,32.9996,142.961,99.8125,104.441,0.00339962,0.120836,20.9048,710.818,-0.403205,0.0,0.0
6201,1550,31.1073,32.3691,142.438,99.3605,104.737,0.00325092,0.119215,20.9065,709.347,-0.468739,0.0,0.0
6360,1589.75,31.1966,32.2627,143.55,99.7243,105.082,0.00354705,0.11615,20.9069,707.965,-0.465435,0.0,0.0
6519,1629.5,30.8469,31.4225,141.013,99.7792,104.785,0.00421135,0.114176,20.9112,706.584,-0.435377,0.0,0.0
6678,1669.25,30.537,31.4832,140.445,99.7544,104.229,0.00399564,0.112094,20.9131,705.253,-0.390245,0.0,0.0
6837,1709,29.8793,31.117,140.931,100.016,104.68,0.00473555,0.106254,20.9234,703.882,-0.405388,0.0,0.0
6996,1748.75,29.8811,30.721,142.261,100.051,104.598,0.00505055,0.108015,20.918,702.621,-0.395336,0.0,0.0
7155,1788.5,29.9572,31.2852,139.188,100.273,104.402,0.00489469,0.10447,20.9204,701.349,-0.358905,0.0,0.0
7314,1828.25,29.8864,30.3027,141.055,100.266,105.238,0.00500064,0.101511,20.9254,700.078,-0.430416,0.0,0.0
7473,1868,29.4643,29.7887,143.733,99.5562,104.115,0.00540597,0.0974943,20.9296,698.847,-0.398267,0.0,0.0
7632,1907.75,29.1209,29.4997,144.352,99.3344,104.031,0.00563653,0.0980624,20.9281,697.636,-0.410851,0.0,0.0
7791,1947.5,27.9972,29.1994,148.157,99.7098,104.546,0.00560919,0.0940718,20.9343,696.415,-0.421303,0.0,0.0
7950,1987.25,28.086,29.113,148.14,100.22,104.778,0.00560814,0.0885438,20.9395,695.184,-0.395563,0.0,0.0
8109,2027,28.3842,28.7119,141.049,100.315,104.348,0.0055149,0.0884485,20.9406,694.053,-0.350578,0.0,0.0
8268,2066.75,27.6972,28.5252,139.642,100.426,104.612,0.0055349,0.0885966,20.9419,692.892,-0.363248,0.0,0.0
8427,2106.5,27.6779,28.3322,142.797,100.37,105.06,0.00543614,0.0866309,20.9443,691.731,-0.406204,0.0,0.0
8586,2146.25,27.3995,28.0722,143.902,100.276,104.436,0.00610043,0.0834528,20.9457,690.57,-0.361524,0.0,0.0
8745,2186,27.2518,28.5077,145.376,100.231,104.893,0.00642226,0.0836233,20.9476,689.449,-0.404357,0.0,0.0
8904,2225.75,27.3324,27.6635,145.949,100.066,103.957,0.00587602,0.0861016,20.944,688.318,-0.33929,0.0,0.0
9063,2265.5,27.1618,27.4945,141.494,99.9336,103.946,0.00589844,0.0869085,20.9422,687.157,-0.350101,0.0,0.0
9222,2305.25,27.479,27.8524,140.639,99.9216,104.863,0.0058594,0.0876491,20.9466,686.076,-0.429324,0.0,0.0
9381,2345,27.3547,28.1709,145.822,99.9846,104.019,0.00670938,0.0923047,20.9349,684.945,-0.35183,0.0,0.0
9540,2384.75,27.7883,28.3338,142.183,100.17,104.222,0.00650524,0.0911093,20.9373,683.794,-0.352702,0.0,0.0
9699,2424.5,28.0267,28.7201,143.99,100.328,104.992,0.0057176,0.0935643,20.9366,682.593,-0.404195,0.0,0.0
9858,2464.25,28.3155,28.7188,143.919,100.424,104.972,0.00525696,0.0941215,20.9363,681.432,-0.39395,0.0,0.0
10017,2504,27.5945,28.4785,142.065,100.417,105.336,0.00593296,0.0969701,20.9312,680.24,-0.42543,0.0,0.0
10176,2543.75,28.4115,28.9567,141.442,100.414,105.535,0.00519889,0.098989,20.9281,679.019,-0.442385,0.0,0.0
10335,2583.5,28.6188,29.4794,141.611,100.405,104.427,0.00506532,0.0980794,20.931,677.808,-0.349424,0.0,0.0
10494,2623.25,27.8759,29.2805,142.345,100.355,104.933,0.00520688,0.0981298,20.9313,676.597,-0.396716,0.0,0.0
10653,2663,27.8855,29.2796,144.974,100.159,105.104,0.00549599,0.0980132,20.9298,675.346,-0.428642,0.0,0.0
10812,2702.75,28.1304,29.6374,141.475,100.037,104.03,0.00497918,0.101805,20.9256,674.045,-0.348152,0.0,0.0
10971,2742.5,28.5345,29.6697,141.13,99.8988,104.092,0.00565374,0.102855,20.9278,672.764,-0.365724,0.0,0.0
11130,2782.25,28.7641,29.4193,144.044,99.9016,104.613,0.00505629,0.10565,20.9232,671.413,-0.409909,0.0,0.0
11289,2822,28.6687,29.3194,141.916,100.04,104.901,0.00483837,0.106673,20.925,670.031,-0.421997,0.0,0.0
11448,2861.75,29.1037,30.1208,143.021,100.21,105.451,0.00542101,0.109468,20.921,668.6,-0.453443,0.0,0.0
11607,2901.5,29.7013,30.3394,146.228,100.354,105.42,0.00503856,0.111972,20.9166,667.169,-0.438096,0.0,0.0
11766,2941.25,30.0061,30.5504,144.531,100.412,105.576,0.00528789,0.115912,20.9166,665.657,-0.446044,0.0,0.0
11925,2981,30.2877,30.9646,140.542,100.38,105.416,0.00494364,0.120574,20.9083,664.066,-0.435445,0.0,0.0
12084,3020.75,30.5276,31.465,138.343,100.403,105.279,0.00391187,0.124823,20.9057,662.465,-0.421783,0.0,0.0
12243,3060.5,30.7232,32.0068,139.549,100.317,105.935,0.00412234,0.131361,20.8991,660.743,-0.484715,0.0,0.0
12402,3100.25,32.2119,33.0712,138.011,100.222,105.913,0.0031304,0.142409,20.884,658.951,-0.491299,0.0,0.0
12561,3140,33.4035,34.4286,141.511,99.9028,105.92,0.00278934,0.147628,20.881,657.02,-0.520207,0.0,0.0
12720,3179.75,34.0198,34.7229,138.578,99.5089,105.359,0.00303032,0.152635,20.8717,655.118,-0.508121,0.0,0.0
12879,3219.5,34.0638,35.1665,141.062,99.2233,105.527,0.00247697,0.158933,20.8685,653.086,-0.547811,0.0,0.0
13038,3259.25,34.8433,36.1461,140.088,99.0782,105.212,0.00202684,0.160789,20.8667,650.964,-0.534265,0.0,0.0
13197,3299,35.6648,36.7853,139.017,98.9105,105.581,0.00204389,0.166487,20.8587,648.762,-0.580438,0.0,0.0
13356,3338.75,35.94,37.3644,141.293,98.7677,104.661,0.00184545,0.170016,20.8557,646.52,-0.515516,0.0,0.0
13515,3378.5,36.2885,37.242,139.684,98.6863,105.419,0.00174632,0.174329,20.8508,644.138,-0.587032,0.0,0.0
13674,3418.25,36.2833,37.8749,138.258,98.6346,105.062,0.00193576,0.174368,20.8478,641.766,-0.561526,0.0,0.0
13833,3458,36.8896,38.2709,139.455,98.7757,104.848,0.00183076,0.174238,20.8499,639.484,-0.530616,0.0,0.0
13992,3497.75,36.8539,38.6782,138.631,99.038,105.128,0.0019204,0.173124,20.8533,637.172,-0.530727,0.0,0.0
14151,3537.5,36.468,38.1584,140.995,99.0621,104.871,0.00153016,0.169452,20.8532,634.97,-0.506809,0.0,0.0
14310,3577.25,36.1029,37.7968,137.339,99.0641,105.426,0.00233989,0.166083,20.8531,632.838,-0.553576,0.0,0.0
14469,3617,36.3958,37.6594,137.879,99.0581,106.293,0.00249441,0.16145,20.8591,630.826,-0.627005,0.0,0.0
14628,3656.75,34.5609,35.6779,141.092,99.0681,104.964,0.0021503,0.15673,20.8677,628.874,-0.514148,0.0,0.0
14787,3696.5,33.7345,35.1085,142.893,99.0537,104.852,0.00249792,0.151504,20.8713,627.023,-0.505966,0.0,0.0
14946,3736.25,33.1026,34.6634,140.029,98.9081,105.833,0.00231319,0.145295,20.8781,625.361,-0.601888,0.0,0.0
15025,3756,32.4119,34.5003,143.456,98.7774,105.056,,,,624.56,-0.548128,0.0,0.0