File: 01_Data/XPS_Foam_Board/MCC/XPS_Foam_Board_MCC_30K_min_220120_R1_FINAL_MASS.txt
Sample ID:	C:\MCC\MCC Cal\Test\XPS_Foam_Board_MCC_30K_min_220120_R1.txt
Sample Weight (mg):	4.32
Heating Rate (C/s):	0.5
Combustor Temp (C):	900
N2 Flow Rate (cc/min):	80
O2 Flow Rate (cc/min):	20
Calibration File:	C:\MCC\MCC Cal\Coeff1 JN10440_30_210304.txt.txt
T Correction Coefficients:	0	1.024463	0
Time Shift (s):	14
*
Time (s)	Temperature (C)	N2 flow rate (cc/min)	O2 flow rate (cc/min)	Flow Rate (cc/min)	Oxygen (%)	HRR (W/g)	Heating rate (C/s)
0.000	114.718	80.002	19.995	103.770	20.092	0.123	-0.034
7.500	114.674	80.010	19.994	103.772	20.091	0.199	-0.024
15.000	114.650	80.011	19.994	103.833	20.081	1.006	0.032
22.500	114.800	80.008	19.995	103.880	20.070	1.807	0.043
30.000	115.297	80.018	19.991	103.951	20.057	2.809	0.089
37.500	116.222	80.005	19.994	103.985	20.051	3.201	0.163
45.000	117.590	80.007	19.993	104.005	20.047	3.538	0.198
52.500	119.355	80.006	19.994	104.052	20.042	3.944	0.272
60.000	121.555	80.004	19.994	104.067	20.039	4.126	0.303
67.500	124.147	80.006	19.994	104.074	20.039	4.119	0.347
75.000	126.990	80.001	19.994	104.078	20.033	4.608	0.394
82.500	130.034	80.007	19.994	104.068	20.031	4.746	0.407
90.000	133.354	80.001	19.996	104.080	20.035	4.417	0.435
97.500	136.868	80.003	19.995	104.068	20.029	4.877	0.494
105.000	140.586	80.015	19.994	104.055	20.034	4.543	0.526
112.500	144.319	80.006	19.996	104.068	20.031	4.765	0.471
120.000	148.200	79.998	19.996	104.048	20.034	4.525	0.528
127.500	152.063	79.999	19.994	104.034	20.034	4.494	0.506
135.000	155.959	80.014	19.992	104.038	20.039	4.152	0.526
142.500	159.867	80.008	19.993	104.034	20.036	4.330	0.530
150.000	163.774	80.005	19.993	104.026	20.041	3.975	0.559
157.500	167.616	80.013	19.993	104.021	20.043	3.860	0.471
165.000	171.553	80.005	19.993	103.997	20.041	4.014	0.539
172.500	175.234	80.009	19.996	103.997	20.041	3.999	0.498
180.000	179.011	80.004	19.995	103.994	20.039	4.120	0.477
187.500	182.751	80.012	19.994	103.988	20.040	4.044	0.512
195.000	186.454	80.004	19.995	103.994	20.044	3.795	0.509
202.500	190.146	80.007	19.995	104.006	20.041	4.017	0.507
210.000	193.859	80.005	19.994	103.992	20.040	4.064	0.538
217.500	197.469	80.010	19.993	103.998	20.038	4.215	0.475
225.000	201.104	80.006	19.994	103.990	20.037	4.307	0.487
232.500	204.779	80.000	20.000	103.992	20.032	4.635	0.464
240.000	208.486	80.004	19.996	103.987	20.031	4.713	0.480
247.500	212.191	80.007	19.994	103.988	20.034	4.546	0.496
255.000	215.865	80.007	19.995	103.994	20.033	4.550	0.525
262.500	219.586	80.005	19.994	103.994	20.032	4.694	0.491
270.000	223.341	80.007	19.995	103.981	20.034	4.530	0.457
277.500	227.123	80.008	19.995	103.993	20.029	4.867	0.508
285.000	230.981	80.008	19.993	103.988	20.028	4.975	0.492
292.500	234.766	80.010	19.995	103.984	20.028	4.969	0.527
300.000	238.572	80.006	19.994	103.974	20.029	4.888	0.515
307.500	242.300	80.004	19.996	103.980	20.024	5.242	0.509
315.000	246.114	80.007	19.993	103.976	20.027	5.032	0.508
322.500	249.944	80.005	19.995	103.966	20.025	5.210	0.521
330.000	253.774	80.005	20.001	103.963	20.026	5.119	0.542
337.500	257.545	80.007	19.994	103.978	20.025	5.220	0.510
345.000	261.271	80.006	19.995	103.960	20.018	5.688	0.491
352.500	265.018	80.002	19.995	103.971	20.017	5.756	0.497
360.000	268.722	80.003	19.995	103.975	20.016	5.839	0.470
367.500	272.509	80.007	19.999	103.955	20.014	6.001	0.487
375.000	276.240	80.002	19.998	103.955	20.011	6.266	0.484
382.500	280.003	80.007	19.994	103.952	20.005	6.690	0.496
390.000	283.726	80.007	19.997	103.955	20.010	6.332	0.506
397.500	287.508	80.006	19.994	103.961	20.006	6.614	0.503
405.000	291.311	80.004	19.995	103.937	20.002	6.898	0.513
412.500	295.086	80.005	19.992	103.958	19.999	7.148	0.503
420.000	298.827	80.004	19.994	103.946	19.993	7.568	0.516
427.500	302.630	80.007	19.994	103.920	19.991	7.700	0.510
435.000	306.418	80.008	19.993	103.947	19.991	7.741	0.535
442.500	310.226	80.006	19.994	103.951	19.988	7.961	0.493
450.000	314.090	80.005	19.994	103.962	19.982	8.399	0.505
457.500	317.900	80.008	19.994	103.942	19.973	9.086	0.537
465.000	321.682	80.007	19.992	103.931	19.972	9.193	0.528
472.500	325.499	80.007	19.996	103.949	19.966	9.599	0.513
480.000	329.298	80.005	19.996	103.945	19.959	10.152	0.505
487.500	333.150	80.010	19.996	103.941	19.949	10.884	0.491
495.000	336.942	80.006	19.995	103.942	19.940	11.536	0.522
502.500	340.777	80.007	19.994	103.949	19.922	12.894	0.519
510.000	344.533	80.006	19.993	103.925	19.908	13.996	0.490
517.500	348.300	80.007	19.994	103.945	19.884	15.756	0.509
525.000	352.057	80.005	19.994	103.953	19.858	17.739	0.471
532.500	355.871	80.005	19.995	103.942	19.815	20.973	0.497
540.000	359.623	80.009	19.992	103.940	19.765	24.673	0.504
547.500	363.423	80.007	19.993	103.956	19.712	28.688	0.514
555.000	367.136	80.005	19.994	103.907	19.637	34.335	0.475
562.500	370.932	80.005	19.995	103.959	19.542	41.480	0.488
570.000	374.819	80.006	19.993	103.950	19.414	51.062	0.526
577.500	378.553	80.004	19.994	103.958	19.254	63.083	0.525
585.000	382.353	80.005	19.995	103.966	19.043	78.964	0.515
592.500	386.183	80.006	19.995	103.983	18.777	98.938	0.531
600.000	390.032	80.008	19.993	104.000	18.460	122.797	0.502
607.500	393.963	80.006	19.993	104.007	18.104	149.453	0.565
615.000	397.866	80.007	19.994	103.988	17.707	179.513	0.529
622.500	401.726	80.010	19.993	104.190	17.239	214.310	0.494
630.000	405.462	80.006	19.993	104.086	16.256	289.583	0.534
637.500	409.339	80.005	19.994	103.775	15.970	310.009	0.490
645.000	413.146	80.004	19.994	104.177	15.466	348.002	0.526
652.500	416.895	80.005	19.994	104.134	14.869	392.817	0.489
660.000	420.667	80.005	19.993	104.107	14.347	432.357	0.483
667.500	424.427	80.005	19.994	104.150	14.111	450.264	0.477
675.000	428.204	80.006	19.994	104.143	14.230	441.273	0.514
682.500	431.977	80.007	19.994	104.190	14.721	404.433	0.483
690.000	435.837	80.006	19.994	104.229	15.569	340.534	0.511
697.500	439.780	80.007	19.993	104.210	16.616	261.516	0.488
705.000	443.798	80.008	19.994	104.182	17.636	184.749	0.545
712.500	447.779	80.006	19.994	104.082	18.454	123.196	0.568
720.000	451.777	80.005	19.994	104.024	19.027	80.121	0.543
727.500	455.727	80.006	19.993	103.994	19.389	52.939	0.523
735.000	459.672	80.006	19.994	103.948	19.599	37.112	0.512
742.500	463.533	80.005	19.994	103.919	19.736	26.907	0.534
750.000	467.330	80.006	19.994	103.900	19.822	20.401	0.541
757.500	471.184	80.007	19.995	103.884	19.889	15.380	0.511
765.000	475.018	80.007	19.995	103.875	19.959	10.160	0.516
772.500	478.773	80.007	19.997	103.896	19.999	7.126	0.500
780.000	482.570	80.006	19.994	103.880	20.016	5.854	0.497
787.500	486.314	80.010	19.993	103.897	20.020	5.571	0.521
795.000	490.109	80.009	19.994	103.903	20.019	5.649	0.488
802.500	493.973	80.005	19.994	103.911	20.022	5.390	0.502
810.000	497.757	80.008	19.994	103.904	20.020	5.566	0.500
817.500	501.670	80.007	19.994	103.901	20.019	5.628	0.514
825.000	505.455	80.006	19.994	103.908	20.022	5.421	0.510
832.500	509.317	80.005	19.995	103.912	20.026	5.138	0.532
840.000	513.208	80.007	19.994	103.901	20.026	5.138	0.517
847.500	517.151	80.006	19.994	103.896	20.021	5.482	0.492
855.000	521.086	80.007	19.994	103.909	20.026	5.108	0.522
862.500	524.953	80.006	19.994	103.910	20.023	5.340	0.527
870.000	528.843	80.008	19.994	103.898	20.024	5.243	0.499
877.500	532.749	80.007	19.993	103.901	20.027	5.048	0.530
885.000	536.619	80.006	19.994	103.900	20.025	5.208	0.525
892.500	540.476	80.007	19.994	103.910	20.025	5.205	0.535
900.000	544.249	80.008	19.994	103.894	20.024	5.280	0.509
907.500	548.084	80.005	19.995	103.903	20.022	5.412	0.497
915.000	551.922	80.006	19.994	103.910	20.020	5.525	0.510
922.500	555.815	80.007	19.993	103.901	20.021	5.517	0.557
930.000	559.655	80.007	19.995	103.893	20.023	5.341	0.532
937.500	563.468	80.008	19.995	103.894	20.025	5.175	0.516
945.000	567.265	80.007	19.995	103.889	20.022	5.416	0.513
952.500	571.122	80.009	19.995	103.904	20.023	5.315	0.469
960.000	575.011	80.007	19.995	103.894	20.031	4.756	0.520
967.500	578.942	80.006	19.994	103.909	20.027	4.997	0.650
975.000	582.846	80.006	19.994	103.894	20.025	5.168	0.135
982.500	586.401	80.007	19.994	103.907	20.026	5.100	0.523
990.000	590.339	80.005	19.995	103.910	20.027	5.060	0.462
997.500	594.142	80.006	19.994	103.908	20.024	5.256	0.460
1005.000	598.136	80.008	19.994	103.887	20.026	5.136	0.538
1012.500	601.918	80.008	19.994	103.908	20.023	5.360	0.509
1020.000	605.745	80.006	19.993	103.897	20.022	5.395	0.473
1027.500	609.622	80.007	19.995	103.845	20.023	5.297	0.488
1035.000	613.501	80.009	19.994	103.900	20.025	5.178	0.518
1042.500	617.373	80.006	19.994	103.903	20.023	5.352	0.517
1050.000	621.218	80.007	19.995	103.890	20.019	5.641	0.534
1057.500	625.010	80.005	19.996	103.908	20.020	5.587	0.512
1065.000	628.834	80.006	19.994	103.914	20.022	5.395	0.488
1072.500	632.630	80.006	19.995	103.902	20.017	5.774	0.488
1080.000	636.531	80.007	19.995	103.885	20.019	5.605	0.492
1087.500	640.390	80.008	19.994	103.889	20.020	5.541	0.521
1095.000	644.254	80.008	19.993	103.895	20.018	5.712	0.514
1102.500	648.059	80.007	19.995	103.897	20.022	5.432	0.498
1110.000	651.913	80.008	19.994	103.880	20.017	5.761	0.510
1117.500	655.733	80.010	19.992	103.894	20.014	6.000	0.505
1125.000	659.582	80.005	19.994	103.938	20.013	6.096	0.519
1132.500	663.381	80.006	19.996	103.951	20.017	5.776	0.466
1140.000	667.193	80.006	19.995	103.912	20.015	5.898	0.488
1147.501	670.976	80.006	19.994	103.881	20.012	6.161	0.509
1155.000	674.913	80.007	19.994	103.900	20.010	6.289	0.514
1162.500	678.758	80.007	19.995	103.895	20.010	6.287	0.535
1170.000	682.635	80.006	19.993	103.886	20.010	6.298	0.513
1177.500	686.518	80.007	19.994	103.898	20.011	6.239	0.951
1185.000	690.322	80.008	19.994	103.908	20.011	6.221	0.535
1192.500	694.190	80.008	19.994	103.891	20.010	6.322	0.488
1200.000	698.041	80.008	19.994	103.900	20.008	6.445	0.543
1207.500	701.845	80.006	19.993	103.875	20.006	6.632	0.540
1215.001	705.629	80.007	19.995	103.892	20.009	6.360	0.528
1222.500	709.399	80.006	19.993	103.897	20.010	6.315	0.494
1230.000	713.184	80.007	19.994	103.896	20.008	6.484	0.484
1237.500	717.021	80.004	19.994	103.896	20.004	6.724	0.519
1245.000	720.792	80.006	19.995	103.885	20.003	6.824	0.510
1252.500	724.569	80.006	19.995	103.905	20.000	7.030	0.527
1260.001	728.338	80.007	19.993	103.883	19.999	7.170	0.474
1267.500	732.138	80.008	19.993	103.895	19.998	7.244	0.520
1275.000	735.948	80.006	19.994	103.896	20.002	6.906	0.491
1282.500	739.736	80.008	19.993	103.876	20.001	7.005	0.507
1289.500	743.375	80.007	19.993	103.898	20.000	7.023	0.518