File: 01_Data/XPS_Foam_Board/MCC/XPS_Foam_Board_MCC_30K_min_220120_R2.txt
Sample ID:	C:\MCC\MCC Cal\Test\XPS_Foam_Board_MCC_30K_min_220120_R2.txt
Sample Weight (mg):	4.72
Heating Rate (C/s):	0.5
Combustor Temp (C):	900
N2 Flow Rate (cc/min):	80
O2 Flow Rate (cc/min):	20
Calibration File:	C:\MCC\MCC Cal\Coeff1 JN10440_30_210304.txt.txt
T Correction Coefficients:	0	1.024463	0
Time Shift (s):	14
*
Time (s)	Temperature (C)	N2 flow rate (cc/min)	O2 flow rate (cc/min)	Flow Rate (cc/min)	Oxygen (%)	HRR (W/g)	Heating rate (C/s)
0.000	115.240	80.005	19.993	103.801	20.066	-0.384	-0.030
7.501	115.276	80.006	19.992	103.803	20.068	-0.471	-0.015
15.000	115.258	80.004	19.994	103.837	20.056	0.328	0.018
22.500	115.452	80.002	19.995	103.899	20.040	1.418	0.040
30.000	116.098	80.003	19.995	103.985	20.035	1.741	0.124
37.500	117.074	80.004	19.993	103.997	20.027	2.287	0.142
45.000	118.464	80.004	19.994	104.028	20.028	2.233	0.156
52.500	120.170	80.008	19.994	104.017	20.024	2.537	0.225
60.000	122.230	79.998	19.995	104.033	20.023	2.594	0.281
67.500	124.438	80.006	19.995	104.044	20.022	2.643	0.293
75.000	126.956	80.007	19.993	104.052	20.024	2.516	0.345
82.500	129.797	80.012	19.992	104.053	20.022	2.646	0.371
90.000	132.738	80.003	19.992	104.050	20.019	2.876	0.368
97.500	135.851	80.003	19.995	104.051	20.021	2.722	0.446
105.000	139.021	80.002	19.992	104.062	20.024	2.516	0.442
112.500	142.387	80.007	19.997	104.049	20.022	2.686	0.435
120.000	145.833	80.002	19.996	104.045	20.021	2.718	0.446
127.500	149.387	79.998	19.994	104.032	20.023	2.567	0.465
135.000	152.992	80.004	19.994	104.046	20.020	2.825	0.498
142.500	156.609	80.004	19.994	104.037	20.023	2.618	0.492
150.000	160.251	80.004	19.990	104.039	20.028	2.261	0.477
157.500	163.953	80.004	19.994	104.044	20.026	2.401	0.515
165.000	167.778	80.009	19.992	104.028	20.025	2.470	0.480
172.500	171.546	80.004	19.993	104.033	20.031	2.076	0.516
180.000	175.326	80.000	19.996	104.024	20.029	2.182	0.478
187.500	179.189	80.007	19.993	104.021	20.031	2.031	0.486
195.000	182.999	80.004	19.992	104.012	20.027	2.304	0.496
202.500	186.841	80.003	19.995	104.004	20.027	2.328	0.521
210.000	190.584	79.996	19.995	104.000	20.029	2.153	0.492
217.500	194.349	80.014	19.990	103.996	20.030	2.143	0.498
225.000	198.078	80.015	19.995	104.005	20.031	2.017	0.506
232.500	201.804	80.010	19.991	103.992	20.029	2.179	0.477
240.000	205.551	80.001	19.992	103.997	20.029	2.172	0.462
247.500	209.192	80.007	19.994	103.985	20.035	1.740	0.473
255.000	212.997	80.021	19.999	103.970	20.032	1.985	0.496
262.500	216.693	79.988	19.996	103.984	20.030	2.096	0.485
270.000	220.399	80.005	19.995	103.980	20.030	2.120	0.495
277.500	224.120	80.002	19.994	103.968	20.028	2.228	0.470
285.000	227.802	79.999	19.992	103.974	20.032	1.955	0.484
292.500	231.565	80.020	19.996	103.962	20.027	2.316	0.508
300.000	235.313	80.007	19.990	103.958	20.029	2.154	0.496
307.500	239.017	79.995	20.003	103.974	20.025	2.485	0.484
315.000	242.783	80.005	19.994	103.962	20.025	2.427	0.522
322.500	246.500	80.006	19.996	103.966	20.027	2.288	0.514
330.000	250.334	80.013	19.989	103.961	20.025	2.472	0.543
337.500	254.042	79.995	19.995	103.953	20.028	2.271	0.496
345.000	257.814	80.020	19.990	103.961	20.026	2.397	0.497
352.500	261.576	80.003	19.993	103.956	20.026	2.399	0.511
360.000	265.361	79.998	19.995	103.953	20.022	2.687	0.508
367.500	269.133	80.010	19.990	103.945	20.021	2.734	0.514
375.000	272.925	80.010	19.993	103.945	20.021	2.704	0.515
382.500	276.721	80.006	19.993	103.947	20.018	2.952	0.492
390.000	280.458	80.006	19.995	103.949	20.017	3.037	0.485
397.500	284.226	80.010	19.996	103.946	20.012	3.368	0.499
405.000	288.053	80.007	19.991	103.947	20.012	3.344	0.529
412.500	291.850	79.994	19.992	103.951	20.006	3.758	0.530
420.000	295.613	80.004	19.991	103.930	20.007	3.686	0.498
427.500	299.439	80.004	19.994	103.936	20.009	3.586	0.516
435.000	303.205	79.996	19.993	103.924	20.003	3.984	0.474
442.500	306.976	80.012	19.995	103.928	19.999	4.217	0.487
450.000	310.804	80.007	19.995	103.945	20.000	4.166	0.500
457.500	314.615	80.006	19.995	103.923	19.990	4.827	0.493
465.000	318.405	80.002	19.996	103.914	19.982	5.411	0.537
472.500	322.155	79.991	19.995	103.939	19.977	5.728	0.511
480.000	325.930	80.007	19.997	103.925	19.970	6.242	0.494
487.500	329.716	80.007	19.995	103.930	19.963	6.724	0.546
495.000	333.526	80.004	19.996	103.914	19.950	7.614	0.524
502.500	337.293	80.005	19.997	103.919	19.938	8.432	0.493
510.000	341.119	80.007	19.993	103.922	19.910	10.369	0.537
517.500	344.902	80.009	19.990	103.937	19.881	12.368	0.499
525.000	348.760	80.004	19.992	103.926	19.847	14.717	0.522
532.500	352.681	80.007	19.992	103.933	19.818	16.696	0.520
540.000	356.627	80.009	19.994	103.932	19.793	18.376	0.543
547.500	360.518	80.002	19.994	103.921	19.754	21.066	0.534
555.000	364.329	80.009	19.996	103.940	19.691	25.437	0.535
562.500	368.140	80.012	19.996	103.936	19.612	30.828	0.539
570.000	371.959	80.019	19.992	103.929	19.504	38.255	0.525
577.500	375.689	80.001	19.990	103.958	19.364	47.901	0.450
585.000	379.427	80.013	19.992	103.959	19.184	60.235	0.492
592.500	383.146	80.003	19.994	103.956	18.965	75.335	0.478
600.000	386.896	80.005	19.996	103.992	18.683	94.720	0.480
607.500	390.709	80.007	19.991	103.999	18.369	116.306	0.516
615.000	394.539	80.002	19.992	104.043	17.973	143.639	0.491
622.500	398.296	79.997	19.994	104.024	17.511	175.451	0.486
630.000	402.127	79.998	19.992	104.099	16.843	221.450	0.525
637.500	406.035	80.013	19.990	103.814	16.415	250.782	0.532
645.000	409.929	80.000	19.994	104.277	15.833	290.950	0.515
652.500	413.808	80.009	19.997	104.079	15.170	336.547	0.519
660.000	417.594	80.005	19.996	104.127	14.488	383.640	0.459
667.500	421.403	79.994	19.996	104.111	13.939	421.357	0.480
675.000	425.171	80.000	20.000	104.162	13.599	445.139	0.514
682.500	429.022	79.991	19.998	104.161	13.703	438.048	0.518
690.000	432.835	80.001	19.993	104.204	14.222	402.371	0.503
697.500	436.773	80.019	19.992	104.249	15.127	339.889	0.517
705.000	440.698	80.004	19.990	104.230	16.265	261.304	0.543
712.500	444.661	80.007	19.999	104.199	17.395	183.373	0.517
720.000	448.686	80.007	19.994	104.104	18.310	120.382	0.518
727.500	452.679	80.014	19.992	104.031	18.952	76.219	0.524
735.000	456.662	80.010	19.991	103.992	19.357	48.378	0.525
742.500	460.590	80.009	19.995	103.943	19.599	31.742	0.530
750.000	464.431	80.000	19.995	103.901	19.748	21.472	0.527
757.500	468.232	80.006	19.996	103.905	19.838	15.307	0.515
765.000	472.032	80.001	19.994	103.882	19.908	10.470	0.485
772.500	475.878	80.002	19.997	103.881	19.977	5.775	0.507
780.000	479.693	80.008	19.989	103.875	20.029	2.156	0.491
787.500	483.509	80.006	19.995	103.866	20.053	0.512	0.520
795.000	487.289	80.006	19.989	103.859	20.060	0.055	0.498
802.500	491.055	80.007	19.996	103.865	20.064	-0.254	0.507
810.000	494.927	80.003	19.995	103.873	20.067	-0.423	0.519
817.500	498.766	80.008	19.992	103.875	20.066	-0.335	0.521
825.000	502.642	80.001	19.999	103.880	20.066	-0.344	0.491
832.500	506.496	80.006	19.995	103.876	20.068	-0.508	0.506
840.000	510.339	79.999	19.997	103.871	20.069	-0.563	0.524
847.500	514.194	80.014	19.992	103.881	20.067	-0.446	0.516
855.000	518.094	80.005	19.996	103.879	20.069	-0.580	0.537
862.500	521.927	80.008	19.994	103.880	20.070	-0.611	0.493
870.000	525.815	80.013	19.993	103.876	20.071	-0.692	0.548
877.500	529.688	80.010	19.995	103.872	20.074	-0.877	0.524
885.000	533.606	80.011	19.989	103.894	20.074	-0.877	0.525
892.500	537.533	80.002	19.992	103.885	20.076	-1.014	0.510
900.000	541.401	80.010	19.989	103.888	20.070	-0.655	0.521
907.500	545.238	80.011	19.995	103.877	20.070	-0.608	0.504
915.000	549.071	80.002	19.997	103.876	20.070	-0.640	0.496
922.500	552.927	80.006	19.994	103.888	20.073	-0.807	0.485
930.000	556.840	80.004	19.994	103.876	20.072	-0.790	0.526
937.500	560.669	80.005	19.994	103.869	20.075	-1.005	0.509
945.000	564.528	80.005	19.995	103.876	20.075	-0.969	0.525
952.500	568.351	80.004	19.996	103.872	20.074	-0.882	0.526
960.000	572.219	80.003	19.995	103.871	20.075	-0.988	0.505
967.500	576.105	80.006	19.993	103.876	20.073	-0.864	0.500
975.000	579.979	80.008	19.993	103.875	20.076	-1.061	0.512
982.500	583.809	80.006	19.989	103.875	20.075	-1.001	0.525
990.000	587.647	80.001	19.996	103.878	20.075	-0.946	0.515
997.500	591.550	80.002	19.995	103.878	20.077	-1.097	0.510
1005.000	595.406	80.006	19.993	103.877	20.080	-1.310	0.524
1012.500	599.205	80.003	19.995	103.877	20.078	-1.200	0.513
1020.000	603.034	80.005	19.996	103.874	20.080	-1.321	0.501
1027.500	606.890	80.006	19.998	103.874	20.081	-1.409	0.512
1035.000	610.747	80.004	19.995	103.875	20.077	-1.148	0.522
1042.500	614.580	80.007	19.996	103.875	20.082	-1.436	0.484
1050.000	618.464	80.002	19.997	103.882	20.084	-1.629	0.513
1057.500	622.325	80.008	19.992	103.871	20.081	-1.381	0.495
1065.000	626.122	80.006	19.993	103.873	20.080	-1.308	0.495
1072.500	629.971	80.002	19.994	103.874	20.081	-1.370	0.491
1080.001	633.902	80.006	19.993	103.888	20.078	-1.193	0.549
1087.500	637.616	80.005	19.993	103.874	20.078	-1.163	0.385
1095.000	641.568	80.006	19.994	103.873	20.079	-1.234	0.558
1102.500	645.520	80.006	19.993	103.875	20.081	-1.373	0.516
1110.000	649.539	80.006	19.994	103.871	20.078	-1.166	0.526
1117.500	653.380	80.004	19.995	103.876	20.081	-1.413	0.393
1125.001	657.588	80.005	19.995	103.874	20.080	-1.300	0.580
1132.500	661.532	80.008	19.995	103.859	20.077	-1.097	0.483
1140.000	665.494	80.009	19.994	103.871	20.081	-1.375	0.519
1147.500	669.397	80.005	19.996	103.858	20.081	-1.409	0.546
1155.000	673.372	80.004	19.994	103.857	20.079	-1.281	0.549
1162.500	677.284	80.004	19.997	103.857	20.081	-1.358	0.531
1170.000	681.198	80.007	19.995	103.857	20.082	-1.473	0.515
1177.501	685.116	80.005	19.995	103.870	20.083	-1.509	0.540
1185.000	688.996	80.004	19.994	103.868	20.079	-1.276	0.543
1192.500	692.706	80.006	19.995	103.869	20.082	-1.477	0.443
1200.000	696.655	80.007	19.994	103.874	20.084	-1.571	0.515
1207.500	700.487	80.008	19.994	103.871	20.081	-1.400	0.505
1215.000	704.144	80.008	19.995	103.870	20.084	-1.567	0.434
1222.500	707.974	80.008	19.993	103.855	20.085	-1.640	0.480
1230.000	711.732	80.005	19.995	103.866	20.081	-1.400	0.499
1237.500	715.504	80.006	19.996	103.871	20.085	-1.682	0.521
1245.000	719.279	80.003	19.995	103.873	20.083	-1.541	0.481
1252.500	723.072	80.007	19.995	103.876	20.079	-1.260	0.498
1260.000	726.818	80.004	19.994	103.842	20.082	-1.471	0.486
1267.500	730.640	80.006	19.993	103.851	20.078	-1.208	0.489
1275.000	734.471	80.006	19.994	103.849	20.080	-1.334	0.499
1282.500	738.262	80.007	19.994	103.865	20.078	-1.210	0.509
1290.000	742.117	80.007	19.994	103.850	20.079	-1.270	0.516
1292.500	743.417	80.007	19.995	103.859	20.082	-1.465	0.517