File: 01_Data/XPS_Foam_Board/HFM/XPS_Foam_Board_Density_Wet_R3.csv
,XPS_Foam_Board_WET_3
Sample Mass [g],29.7
Sample Volume [cm3],1072.9
Sample Density [kg/m3],28