File: 01_Data/XPS_Foam_Board/HFM/XPS_Foam_Board_Density_Wet_R1.csv
,XPS_Foam_Board_WET_1
Sample Mass [g],29.1
Sample Volume [cm3],1069.2
Sample Density [kg/m3],27