File: 01_Data/XPS_Foam_Board/HFM/XPS_Foam_Board_Density_Wet_R2.csv
,XPS_Foam_Board_WET_2
Sample Mass [g],30.7
Sample Volume [cm3],1098.1
Sample Density [kg/m3],28