File: 01_Data/Overstuffed_Chair_Polyester_Batting/FTIR/IS/Overstuffed_Chair_Polyester_Batting_IS_REFLECT_MEAS_210623_R1.dpt
5996.41,0.17967
5977.12,0.18512
5957.84,0.19204
5938.55,0.19566
5919.26,0.21286
5899.97,0.21503
5880.69,0.21289
5861.4,0.20858
5842.11,0.20966
5822.82,0.20782
5803.54,0.21263
5784.25,0.20519
5764.96,0.21149
5745.68,0.22453
5726.39,0.22898
5707.1,0.22551
5687.81,0.22979
5668.53,0.23122
5649.24,0.22668
5629.95,0.23582
5610.66,0.23029
5591.38,0.23186
5572.09,0.22673
5552.8,0.22491
5533.52,0.23307
5514.23,0.22979
5494.94,0.22586
5475.65,0.22821
5456.37,0.23209
5437.08,0.23490
5417.79,0.23576
5398.5,0.23615
5379.22,0.23269
5359.93,0.23765
5340.64,0.22819
5321.36,0.22865
5302.07,0.23327
5282.78,0.22346
5263.49,0.20954
5244.21,0.21133
5224.92,0.21674
5205.63,0.22313
5186.34,0.22689
5167.06,0.22574
5147.77,0.22214
5128.48,0.21915
5109.2,0.21647
5089.91,0.22497
5070.62,0.23065
5051.33,0.23264
5032.05,0.23248
5012.76,0.23040
4993.47,0.23301
4974.18,0.23003
4954.9,0.23186
4935.61,0.22950
4916.32,0.22813
4897.04,0.22611
4877.75,0.22441
4858.46,0.22359
4839.17,0.22110
4819.89,0.21356
4800.6,0.20947
4781.31,0.20981
4762.02,0.21106
4742.74,0.19908
4723.45,0.17814
4704.16,0.16994
4684.88,0.15182
4665.59,0.17863
4646.3,0.17457
4627.01,0.17239
4607.73,0.19620
4588.44,0.18221
4569.15,0.19148
4549.87,0.20016
4530.58,0.19895
4511.29,0.18898
4492,0.16533
4472.72,0.14733
4453.43,0.11886
4434.14,0.11281
4414.85,0.12475
4395.57,0.13262
4376.28,0.13697
4356.99,0.13633
4337.71,0.13029
4318.42,0.13092
4299.13,0.11892
4279.84,0.11976
4260.56,0.12550
4241.27,0.12333
4221.98,0.12631
4202.69,0.13287
4183.41,0.12747
4164.12,0.13322
4144.83,0.13762
4125.55,0.12847
4106.26,0.11585
4086.97,0.08895
4067.68,0.12163
4048.4,0.13467
4029.11,0.14342
4009.82,0.14452
3990.53,0.14874
3971.25,0.15080
3951.96,0.15531
3932.67,0.15843
3913.39,0.15896
3894.1,0.16860
3874.81,0.17265
3855.52,0.17450
3836.24,0.17469
3816.95,0.17080
3797.66,0.16847
3778.37,0.16857
3759.09,0.15949
3739.8,0.16839
3720.51,0.16673
3701.23,0.15083
3681.94,0.11572
3662.65,0.09751
3643.36,0.07820
3624.08,0.07494
3604.79,0.08039
3585.5,0.07838
3566.21,0.06416
3546.93,0.06002
3527.64,0.06681
3508.35,0.07763
3489.07,0.08429
3469.78,0.08076
3450.49,0.06110
3431.2,0.03926
3411.92,0.07153
3392.63,0.09674
3373.34,0.10327
3354.05,0.09608
3334.77,0.08509
3315.48,0.09314
3296.19,0.08898
3276.91,0.09593
3257.62,0.09615
3238.33,0.09116
3219.04,0.09415
3199.76,0.09327
3180.47,0.09073
3161.18,0.08703
3141.89,0.07865
3122.61,0.06749
3103.32,0.05138
3084.03,0.04685
3064.75,0.04369
3045.46,0.05424
3026.17,0.04950
3006.88,0.02847
2987.6,0.02219
2968.31,0.01450
2949.02,0.01930
2929.74,0.03234
2910.45,0.02184
2891.16,0.02877
2871.87,0.03654
2852.59,0.04281
2833.3,0.07144
2814.01,0.07806
2794.72,0.08515
2775.44,0.09772
2756.15,0.10144
2736.86,0.10719
2717.58,0.11974
2698.29,0.12830
2679,0.12951
2659.71,0.12867
2640.43,0.11490
2621.14,0.10900
2601.85,0.10603
2582.56,0.09690
2563.28,0.09654
2543.99,0.09432
2524.7,0.09764
2505.42,0.10437
2486.13,0.11408
2466.84,0.12508
2447.55,0.12294
2428.27,0.10642
2408.98,0.08876
2389.69,0.07899
2370.4,0.06677
2351.12,0.07822
2331.83,0.08529
2312.54,0.10581
2293.26,0.09566
2273.97,0.09370
2254.68,0.09327
2235.39,0.10585
2216.11,0.11244
2196.82,0.12170
2177.53,0.11471
2158.24,0.09355
2138.96,0.07793
2119.67,0.06602
2100.38,0.06560
2081.1,0.07578
2061.81,0.09892
2042.52,0.11465
2023.23,0.10455
2003.95,0.08411
1984.66,0.06434
1965.37,0.04082
1946.08,0.04687
1926.8,0.06877
1907.51,0.08288
1888.22,0.08869
1868.94,0.08082
1849.65,0.05300
1830.36,0.03356
1811.07,0.02944
1791.79,0.02622
1772.5,0.01832
1753.21,0.00907
1733.92,0.01082
1714.64,0.02442
1695.35,0.01667
1676.06,0.01794
1656.78,0.02870
1637.49,0.03417
1618.2,0.03029
1598.91,0.03847
1579.63,0.01778
1560.34,0.03783
1541.05,0.04023
1521.76,0.02836
1502.48,0.01447
1483.19,0.01846
1463.9,0.01229
1444.62,0.01063
1425.33,0.01335
1406.04,0.00945
1386.75,0.01025
1367.47,0.00896
1348.18,0.00846
1328.89,0.00928
1309.61,0.00603
1290.32,0.01055
1271.03,0.02785
1251.74,0.03223
1232.46,0.02404
1213.17,0.02106
1193.88,0.02285
1174.59,0.01387
1155.31,0.00907
1136.02,0.01311
1116.73,0.01920
1097.45,0.02142
1078.16,0.01935
1058.87,0.02206
1039.58,0.01649
1020.3,0.01765
1001.01,0.03571
981.722,0.02457
962.434,0.02955
943.147,0.04593
923.86,0.04811
904.573,0.02631
885.285,0.02075
865.998,0.01867
846.711,0.01849
827.424,0.03121
808.136,0.03209
788.849,0.02754
769.562,0.05059
750.274,0.03817
730.987,0.01564
711.7,0.03212
692.413,0.07043
673.125,0.06733
653.838,0.08186
634.551,0.07497
615.264,0.10063
595.976,0.10206
576.689,0.09295
557.402,0.07784
538.115,0.05675
518.827,0.03733
499.54,0.03089
480.253,0.04599
460.966,0.04592
441.678,0.03953
422.391,0.03082
403.104,0.01547
399.246,0.00749