File: 01_Data/Overstuffed_Chair_Polyester_Batting/FTIR/IS/Overstuffed_Chair_Polyester_Batting_IS_REFLECT_BL_210623_R1.dpt
5996.41,0.02391
5977.12,0.02249
5957.84,0.02097
5938.55,0.02137
5919.26,0.02527
5899.97,0.02466
5880.69,0.02696
5861.4,0.02041
5842.11,0.01624
5822.82,0.02188
5803.54,0.01151
5784.25,0.02491
5764.96,0.02128
5745.68,0.02165
5726.39,0.02336
5707.1,0.02679
5687.81,0.01748
5668.53,0.02095
5649.24,0.00980
5629.95,0.02066
5610.66,0.01841
5591.38,0.02017
5572.09,0.01597
5552.8,0.02329
5533.52,0.02017
5514.23,0.01977
5494.94,0.01707
5475.65,0.01792
5456.37,0.02227
5437.08,0.01339
5417.79,0.01717
5398.5,0.01420
5379.22,0.01850
5359.93,0.01924
5340.64,0.01408
5321.36,0.01552
5302.07,0.01588
5282.78,0.01712
5263.49,0.01842
5244.21,0.01778
5224.92,0.01848
5205.63,0.01846
5186.34,0.01546
5167.06,0.01936
5147.77,0.02266
5128.48,0.01833
5109.2,0.01866
5089.91,0.01516
5070.62,0.01524
5051.33,0.01531
5032.05,0.01755
5012.76,0.01491
4993.47,0.01551
4974.18,0.01622
4954.9,0.02053
4935.61,0.01564
4916.32,0.01818
4897.04,0.01617
4877.75,0.01522
4858.46,0.01626
4839.17,0.01509
4819.89,0.01632
4800.6,0.01629
4781.31,0.01653
4762.02,0.01673
4742.74,0.01783
4723.45,0.01547
4704.16,0.01350
4684.88,0.01482
4665.59,0.01548
4646.3,0.01815
4627.01,0.01423
4607.73,0.01638
4588.44,0.01629
4569.15,0.01383
4549.87,0.01626
4530.58,0.01566
4511.29,0.01578
4492,0.01465
4472.72,0.01466
4453.43,0.01474
4434.14,0.01552
4414.85,0.01416
4395.57,0.01600
4376.28,0.01535
4356.99,0.01371
4337.71,0.01384
4318.42,0.01609
4299.13,0.01473
4279.84,0.01498
4260.56,0.01653
4241.27,0.01514
4221.98,0.01523
4202.69,0.01570
4183.41,0.01484
4164.12,0.01665
4144.83,0.01454
4125.55,0.01345
4106.26,0.01523
4086.97,0.01428
4067.68,0.01466
4048.4,0.01414
4029.11,0.01390
4009.82,0.01535
3990.53,0.01357
3971.25,0.01407
3951.96,0.01296
3932.67,0.01356
3913.39,0.01140
3894.1,0.00925
3874.81,0.00576
3855.52,0.00736
3836.24,0.00834
3816.95,0.01208
3797.66,0.01123
3778.37,0.00633
3759.09,0.00952
3739.8,0.01238
3720.51,0.01117
3701.23,0.01265
3681.94,0.00599
3662.65,0.00649
3643.36,0.00899
3624.08,0.01012
3604.79,0.01129
3585.5,0.01171
3566.21,0.01293
3546.93,0.01141
3527.64,0.01348
3508.35,0.01229
3489.07,0.01282
3469.78,0.01312
3450.49,0.01230
3431.2,0.01198
3411.92,0.01287
3392.63,0.01325
3373.34,0.01326
3354.05,0.01296
3334.77,0.01334
3315.48,0.01379
3296.19,0.01307
3276.91,0.01310
3257.62,0.01311
3238.33,0.01252
3219.04,0.01362
3199.76,0.01349
3180.47,0.01347
3161.18,0.01387
3141.89,0.01307
3122.61,0.01327
3103.32,0.01378
3084.03,0.01265
3064.75,0.00779
3045.46,0.00389
3026.17,0.00346
3006.88,0.00621
2987.6,0.00575
2968.31,0.00993
2949.02,0.01137
2929.74,0.01294
2910.45,0.01333
2891.16,0.01315
2871.87,0.01354
2852.59,0.01417
2833.3,0.01254
2814.01,0.01308
2794.72,0.01378
2775.44,0.01347
2756.15,0.01369
2736.86,0.01357
2717.58,0.01237
2698.29,0.01302
2679,0.01387
2659.71,0.01352
2640.43,0.01342
2621.14,0.01303
2601.85,0.01350
2582.56,0.01346
2563.28,0.01341
2543.99,0.01321
2524.7,0.01328
2505.42,0.01323
2486.13,0.01293
2466.84,0.01339
2447.55,0.01327
2428.27,0.01302
2408.98,0.01290
2389.69,0.00234
2370.4,0.01866
2351.12,0.00972
2331.83,0.03275
2312.54,0.02083
2293.26,0.01295
2273.97,0.01306
2254.68,0.01310
2235.39,0.01307
2216.11,0.01276
2196.82,0.01351
2177.53,0.01295
2158.24,0.01266
2138.96,0.01249
2119.67,0.01292
2100.38,0.01211
2081.1,0.01220
2061.81,0.01278
2042.52,0.01331
2023.23,0.01178
2003.95,0.01213
1984.66,0.01195
1965.37,0.01192
1946.08,0.01271
1926.8,0.01145
1907.51,0.01091
1888.22,0.00937
1868.94,0.01195
1849.65,0.01070
1830.36,0.01125
1811.07,0.00832
1791.79,0.00823
1772.5,0.00865
1753.21,0.00726
1733.92,0.00636
1714.64,0.00492
1695.35,0.00813
1676.06,0.00909
1656.78,0.01000
1637.49,0.00951
1618.2,0.01062
1598.91,0.01146
1579.63,0.00891
1560.34,0.00676
1541.05,0.00678
1521.76,0.00419
1502.48,0.00683
1483.19,0.00693
1463.9,0.00821
1444.62,0.00194
1425.33,0.00153
1406.04,0.00251
1386.75,0.00346
1367.47,0.00559
1348.18,0.00804
1328.89,0.00984
1309.61,0.01062
1290.32,0.01166
1271.03,0.01006
1251.74,0.01139
1232.46,0.01182
1213.17,0.01129
1193.88,0.00829
1174.59,0.00369
1155.31,0.00059
1136.02,0.00006
1116.73,0.00563
1097.45,0.00779
1078.16,0.01031
1058.87,0.01125
1039.58,0.01181
1020.3,0.01262
1001.01,0.01159
981.722,0.00751
962.434,0.00139
943.147,0.00069
923.86,0.00561
904.573,0.01033
885.285,0.00866
865.998,0.00806
846.711,0.01108
827.424,0.01188
808.136,0.00918
788.849,0.01140
769.562,0.01146
750.274,0.00955
730.987,0.00951
711.7,0.00903
692.413,0.01089
673.125,0.00779
653.838,0.01185
634.551,0.01165
615.264,0.00993
595.976,0.00499
576.689,0.00813
557.402,0.00629
538.115,0.00979
518.827,0.01149
499.54,0.00149
480.253,0.00006
460.966,0.00009
441.678,0.01728
422.391,0.01731
403.104,0.04199
399.246,0.05784