File: 01_Data/Oak_HWF/Oak_HWF_MCC_60K_min_211104_R1.txt
Sample ID:	C:\MCC\MCC Cal\Test\HWF_MCC_30K_min_211104_R1.txt
Sample Weight (mg):	4.4
Heating Rate (C/s):	1
Combustor Temp (C):	900
N2 Flow Rate (cc/min):	80
O2 Flow Rate (cc/min):	20
Calibration File:	C:\MCC\MCC Cal\Coeff1 JN10440_30_210304.txt.txt
T Correction Coefficients:	0	1.024463	0
Time Shift (s):	14
*
Time (s)	Temperature (C)	N2 flow rate (cc/min)	O2 flow rate (cc/min)	Flow Rate (cc/min)	Oxygen (%)	HRR (W/g)	Heating rate (C/s)
0.000	106.139	80.012	19.994	103.005	20.014	-0.139	0.028
4.000	106.157	80.011	19.997	103.014	20.014	-0.104	0.008
8.000	106.100	80.009	19.994	103.046	20.003	0.663	0.008
12.000	106.187	80.006	19.995	103.207	19.987	1.822	0.042
16.000	106.493	80.006	19.994	103.237	19.972	2.970	0.079
20.000	106.939	80.008	19.993	103.284	19.960	3.830	0.133
24.000	107.631	80.008	19.994	103.330	19.958	3.967	0.201
28.000	108.487	80.011	19.995	103.372	19.943	5.070	0.241
32.000	109.571	80.007	19.994	103.409	19.934	5.717	0.306
36.000	110.900	80.008	19.994	103.443	19.929	6.078	0.339
40.000	112.468	80.007	19.995	103.419	19.926	6.298	0.391
44.001	114.198	80.006	19.996	103.432	19.927	6.221	0.455
48.000	116.109	80.007	19.996	103.440	19.923	6.503	0.486
52.000	118.185	80.007	19.997	103.439	19.927	6.238	0.535
56.000	120.376	80.008	19.996	103.449	19.921	6.687	0.559
60.000	122.803	80.007	19.996	103.454	19.923	6.555	0.626
64.000	125.285	80.008	19.995	103.477	19.917	6.971	0.649
68.000	127.941	80.009	19.996	103.467	19.921	6.648	0.682
72.000	130.691	80.007	19.995	103.464	19.920	6.771	0.655
76.000	133.534	80.008	19.997	103.467	19.919	6.849	0.707
80.000	136.535	80.008	19.996	103.471	19.917	6.941	0.717
84.000	139.669	80.009	19.995	103.465	19.916	7.038	0.792
88.000	142.819	80.008	19.994	103.446	19.916	7.051	0.790
92.000	146.123	80.008	19.996	103.448	19.921	6.658	0.837
96.000	149.399	80.006	19.996	103.460	19.920	6.786	0.826
100.000	152.797	80.009	19.995	103.450	19.919	6.864	0.864
104.000	156.213	80.008	19.994	103.458	19.913	7.289	0.838
108.000	159.704	80.008	19.996	103.453	19.917	6.982	0.870
112.000	163.312	80.007	19.995	103.446	19.916	7.022	0.904
116.000	167.013	80.006	19.995	103.449	19.919	6.833	0.942
120.000	170.636	80.008	19.993	103.447	19.920	6.790	0.904
124.001	174.464	80.007	19.995	103.449	19.916	7.045	0.960
128.000	178.249	80.004	19.994	103.449	19.917	6.970	0.984
132.000	182.127	80.009	19.995	103.450	19.919	6.797	0.983
136.000	186.026	80.007	19.997	103.450	19.917	6.956	0.997
140.000	190.028	80.007	19.995	103.446	19.918	6.882	0.977
144.000	193.969	80.010	19.996	103.443	19.920	6.789	0.970
148.000	197.970	80.009	19.996	103.434	19.919	6.840	0.973
152.000	202.050	80.009	19.994	103.416	19.917	6.998	1.028
156.000	206.128	80.010	19.996	103.416	19.910	7.519	1.033
160.000	210.280	80.009	19.995	103.407	19.908	7.667	1.039
164.000	214.333	80.010	19.995	103.408	19.910	7.475	0.983
168.000	218.463	80.010	19.996	103.411	19.908	7.609	1.030
172.000	222.578	80.010	19.995	103.406	19.891	8.890	1.029
176.000	226.711	80.009	19.997	103.408	19.884	9.397	1.058
180.000	230.830	80.008	19.996	103.416	19.877	9.876	1.036
184.000	234.948	80.007	19.994	103.412	19.861	11.065	1.049
188.000	239.031	80.008	19.996	103.413	19.852	11.757	0.986
192.000	243.115	80.006	19.993	103.410	19.835	12.983	1.035
196.000	247.165	80.006	19.995	103.409	19.827	13.553	1.010
200.000	251.273	80.006	19.995	103.409	19.814	14.507	1.041
204.000	255.266	80.007	19.995	103.410	19.801	15.503	1.003
208.000	259.335	80.005	19.995	103.419	19.774	17.489	1.014
212.000	263.311	80.007	19.994	103.444	19.753	18.999	0.999
216.000	267.264	80.006	19.994	103.451	19.721	21.348	1.024
220.000	271.312	80.009	19.994	103.470	19.677	24.594	1.039
224.000	275.248	80.008	19.993	103.484	19.635	27.695	0.967
228.000	279.217	80.008	19.994	103.510	19.582	31.587	0.997
232.000	283.183	80.011	19.996	103.525	19.524	35.857	1.028
236.000	287.090	80.007	19.996	103.548	19.463	40.351	1.004
240.000	291.027	80.009	19.995	103.567	19.394	45.399	0.966
244.000	295.001	80.010	19.997	103.594	19.319	50.976	1.007
248.000	298.977	80.011	19.996	103.616	19.248	56.181	0.989
252.000	302.879	80.008	19.994	103.640	19.173	61.707	0.965
256.000	306.805	80.008	19.996	103.661	19.102	66.892	0.982
260.000	310.776	80.009	19.995	103.660	19.039	71.564	1.022
264.000	314.802	80.008	19.995	103.678	18.977	76.124	1.002
268.000	318.735	80.005	19.997	103.684	18.921	80.229	1.012
272.000	322.703	80.007	19.995	103.685	18.870	83.987	0.974
276.000	326.682	80.006	19.995	103.708	18.813	88.244	0.994
280.000	330.639	80.009	19.995	103.722	18.762	91.978	1.007
284.000	334.662	80.009	19.994	103.735	18.709	95.928	1.026
288.000	338.614	80.009	19.995	103.758	18.642	100.889	1.000
292.000	342.611	80.007	19.995	103.788	18.573	106.028	1.021
296.000	346.594	80.006	19.997	103.830	18.491	112.069	1.006
300.000	350.567	80.006	19.995	103.867	18.396	119.132	1.001
304.000	354.628	80.007	19.995	103.898	18.293	126.662	1.008
308.000	358.650	80.010	19.995	103.929	18.198	133.602	1.000
312.000	362.619	80.010	19.995	103.931	18.118	139.418	0.956
316.000	366.667	80.007	19.994	103.925	18.070	142.778	1.010
320.001	370.747	80.008	19.996	103.867	18.063	143.104	1.026
324.000	374.849	80.008	19.995	103.775	18.124	138.452	1.022
328.000	378.942	80.009	19.995	103.654	18.267	127.864	1.022
332.000	382.977	80.009	19.994	103.507	18.478	112.296	0.996
336.000	387.049	80.010	19.995	103.379	18.753	92.216	1.005
340.000	391.133	80.007	20.003	103.280	19.048	70.634	1.027
344.000	395.233	80.008	19.995	103.258	19.308	51.537	1.022
348.000	399.251	80.007	19.995	103.286	19.498	37.610	1.030
352.000	403.329	80.002	20.004	103.290	19.615	29.052	1.042
356.000	407.412	80.004	20.000	103.278	19.690	23.586	1.017
360.000	411.476	80.006	19.995	103.265	19.729	20.693	1.037
364.000	415.489	80.008	19.996	103.260	19.756	18.729	1.000
368.000	419.485	80.007	19.995	103.250	19.776	17.279	1.017
372.000	423.520	80.011	19.996	103.259	19.783	16.746	0.987
376.000	427.528	80.008	19.993	103.251	19.798	15.702	1.012
380.000	431.552	80.008	19.996	103.253	19.804	15.217	0.999
384.000	435.600	80.009	19.994	103.255	19.812	14.637	1.003
388.000	439.572	80.007	19.995	103.253	19.822	13.893	1.010
392.000	443.556	80.010	19.995	103.255	19.834	13.026	0.988
396.000	447.517	80.010	19.995	103.254	19.840	12.590	0.977
400.000	451.517	80.011	19.993	103.254	19.845	12.225	0.973
404.000	455.532	80.009	19.992	103.255	19.854	11.577	0.997
408.000	459.543	80.008	19.995	103.251	19.860	11.163	1.002
412.000	463.503	80.011	19.996	103.250	19.864	10.873	1.007
416.000	467.463	80.011	19.994	103.245	19.869	10.441	0.994
420.000	471.460	80.013	19.994	103.249	19.875	10.027	1.007
424.000	475.479	80.007	19.995	103.244	19.879	9.753	1.000
428.000	479.492	80.007	19.990	103.237	19.883	9.447	1.003
432.000	483.539	80.005	19.995	103.247	19.887	9.176	1.003
436.000	487.538	80.009	19.996	103.249	19.893	8.726	0.997
440.000	491.564	80.011	19.992	103.244	19.889	9.005	1.009
444.000	495.645	80.010	19.994	103.250	19.896	8.525	1.051
448.000	499.698	80.007	19.995	103.244	19.892	8.789	1.016
452.000	503.755	80.006	20.001	103.244	19.896	8.512	1.026
456.000	507.788	80.011	19.999	103.248	19.896	8.510	0.999
460.000	511.860	80.009	19.996	103.250	19.900	8.182	0.999
464.000	516.028	80.008	19.995	103.243	19.901	8.135	1.044
468.000	520.130	80.005	19.998	103.241	19.904	7.949	1.042
472.000	524.222	80.007	19.993	103.232	19.907	7.721	1.054
476.000	528.299	80.008	19.996	103.236	19.909	7.521	1.020
480.000	532.350	80.009	19.992	103.236	19.907	7.707	1.034
484.000	536.470	80.007	19.996	103.229	19.907	7.667	1.022
488.000	540.507	80.007	19.995	103.232	19.910	7.458	1.014
492.000	544.583	80.010	19.995	103.235	19.904	7.928	0.993
496.000	548.620	80.020	19.993	103.223	19.906	7.771	1.032
500.000	552.706	80.006	19.996	103.223	19.907	7.685	1.008
504.000	556.808	80.011	19.988	103.216	19.907	7.715	1.024
508.000	560.917	80.009	19.997	103.223	19.907	7.663	1.037
512.000	564.990	80.009	19.993	103.237	19.907	7.713	1.014
516.000	569.076	80.011	19.993	103.231	19.906	7.761	1.045
520.000	573.149	80.006	19.991	103.245	19.909	7.553	1.047
524.000	577.249	80.008	19.995	103.224	19.906	7.755	0.997
528.000	581.378	80.008	19.991	103.223	19.904	7.941	1.030
532.000	585.514	80.007	19.992	103.216	19.904	7.938	1.065
536.000	589.589	80.008	19.993	103.227	19.902	8.023	1.026
540.000	593.701	80.009	19.995	103.218	19.906	7.765	1.057
544.000	597.883	79.998	19.998	103.226	19.905	7.854	1.015
548.000	601.947	80.007	19.996	103.211	19.904	7.923	1.038
552.000	606.000	80.007	19.994	103.217	19.900	8.190	1.027
556.000	610.070	80.005	19.995	103.217	19.902	8.047	1.005
560.000	614.061	80.012	19.992	103.208	19.903	7.992	0.987
564.000	618.123	80.005	19.998	103.211	19.902	8.086	1.007
568.000	622.103	80.021	19.995	103.205	19.901	8.117	0.994
572.000	626.094	80.009	19.994	103.210	19.902	8.041	0.980
576.000	630.117	80.011	19.995	103.209	19.902	8.045	0.987
580.000	634.099	80.008	19.998	103.213	19.904	7.914	1.025
584.001	638.095	80.009	19.994	103.215	19.906	7.736	0.947
588.000	642.060	80.008	19.995	103.217	19.900	8.171	0.987
592.000	646.047	80.015	19.996	103.219	19.898	8.340	1.002
596.000	649.986	80.007	19.996	103.215	19.899	8.269	0.982
600.000	653.934	80.004	19.995	103.219	19.899	8.304	0.980
604.000	657.920	80.008	19.994	103.219	19.897	8.407	1.013
608.000	661.900	80.006	19.993	103.220	19.898	8.331	0.993
612.000	665.903	80.008	19.995	103.213	19.897	8.445	0.997
616.000	669.906	80.007	19.997	103.211	19.900	8.239	1.010
620.000	673.891	80.002	19.996	103.212	19.902	8.077	1.010
624.000	677.987	80.013	19.995	103.202	19.902	8.030	0.994
628.000	681.980	80.018	19.994	103.217	19.897	8.400	0.986
632.000	685.969	80.006	19.993	103.193	19.901	8.141	0.991
636.000	689.982	80.009	19.994	103.194	19.904	7.896	1.011
640.000	693.972	80.020	19.995	103.212	19.902	8.029	1.006
644.000	698.014	80.009	19.995	103.191	19.904	7.905	1.009
648.000	702.007	80.008	19.997	103.209	19.904	7.878	1.018
652.000	706.056	80.014	19.994	103.209	19.907	7.668	1.029
656.000	710.056	80.015	19.994	103.191	19.904	7.894	1.013
660.000	714.050	80.007	19.997	103.207	19.902	8.030	1.002
664.000	718.109	80.002	19.993	103.204	19.901	8.141	0.974
668.000	722.147	80.011	19.991	103.208	19.905	7.842	1.000
672.000	726.211	80.003	19.995	103.200	19.905	7.854	1.015
676.000	730.229	80.005	19.996	103.203	19.904	7.935	1.013
680.000	734.248	80.008	19.995	103.180	19.904	7.912	1.032
684.000	738.287	80.012	19.993	103.210	19.906	7.768	1.027
686.000	740.277	80.017	19.993	103.203	19.904	7.946	1.015