File: 01_Data/PC/STA/N2/10K_min/PC_STA_N2_10KData_211609_R2.csv
##Temp./Â°C,Time/min,DSC(subtr.2)/mW,Mass loss(subtr.2)/mg,DTG(subtr.2)/(mg/min),Sensit./(uV/mW)
49.845,10.00917,-0.00589233,-0.06778,0.0,1.03584
53.145,12.58881,0.26832,-0.06800258,-0.00258019,1.03566
56.445,13.38544,0.37644,-0.06864094,-0.0005880386,1.03544
59.745,14.0284,0.45256,-0.07068424,-0.0007620727,1.03517
63.045,14.5932,0.50864,-0.06953245,-0.001569311,1.03485
66.345,15.1056,0.57028,-0.07119623,-0.001621475,1.03448
69.645,15.5792,0.6161,-0.07116448,-0.0005929352,1.03407
72.945,16.02696,0.66955,-0.07200558,0.00134143,1.03361
76.245,16.45222,0.71337,-0.07051581,-0.001428117,1.03311
79.545,16.85973,0.74795,-0.07095254,-0.00121684,1.03256
82.845,17.25296,0.7748,-0.07264762,0.000342808,1.03197
86.145,17.63334,0.7931,-0.07118858,0.00134158,1.03134
89.445,18.0027,0.81094,-0.07135264,-0.0005564665,1.03066
92.745,18.36285,0.84192,-0.07105267,-0.0009099928,1.02993
96.045,18.71629,0.87232,-0.07265359,-0.003808706,1.02917
99.345,19.06268,0.89323,-0.07491014,-0.0007798028,1.02836
102.645,19.4038,0.90548,-0.07345176,-0.001021253,1.02751
105.945,19.74074,0.93225,-0.07315046,7.906307e-05,1.02662
109.245,20.07455,0.95288,-0.07456493,-0.00122695,1.02568
112.545,20.40471,0.97934,-0.07487639,-0.00273913,1.02471
115.845,20.73239,0.99149,-0.07630752,-0.002401287,1.02369
119.145,21.05728,1.02694,-0.07940954,-0.001306735,1.02263
122.445,21.3786,1.02854,-0.07720976,-0.001136074,1.02154
125.745,21.69697,1.04544,-0.07665349,0.0003417593,1.0204
129.045,22.01309,1.06765,-0.07577651,-0.0002670611,1.01923
132.345,22.32624,1.08718,-0.07721228,-0.00108559,1.01801
135.645,22.63726,1.11464,-0.077207,0.0001482966,1.01676
138.945,22.94634,1.1304,-0.07741433,-0.001494963,1.01547
142.245,23.25364,1.15367,-0.07885674,-0.00149394,1.01415
145.545,23.55895,1.19078,-0.07820196,-0.00139359,1.01278
148.845,23.86303,1.26654,-0.07921764,0.000638355,1.01138
152.145,24.16566,1.38131,-0.07786631,0.000170417,1.00995
155.445,24.46771,1.38594,-0.07945894,-0.0005859162,1.00847
158.745,24.7687,1.37986,-0.07786947,0.001425306,1.00697
162.045,25.06929,1.40232,-0.07918623,0.001421861,1.00543
165.345,25.3695,1.41621,-0.07655035,0.00138416,1.00385
168.645,25.6694,1.41895,-0.07654986,-0.001327254,1.00224
171.945,25.96884,1.44405,-0.07822768,-0.00130981,1.0006
175.245,26.2671,1.43911,-0.07743001,-0.0007222128,0.99892
178.545,26.5654,1.45603,-0.07797709,0.001040886,0.99721
181.845,26.86147,1.46449,-0.07754019,-0.00242531,0.99547
185.145,27.1596,1.47749,-0.07896654,-0.0003267854,0.9937
188.445,27.45523,1.49381,-0.0775399,0.00204134,0.9919
191.745,27.75099,1.49745,-0.07754007,-0.00235422,0.99006
195.045,28.0457,1.50671,-0.08015411,-0.002679348,0.9882
198.345,28.3402,1.52193,-0.07778255,0.000581178,0.98631
201.645,28.6351,1.52914,-0.07983707,-0.000882157,0.98438
204.945,28.92956,1.53831,-0.07984,-0.0006985688,0.98243
208.245,29.22349,1.56385,-0.08078113,0.0003463349,0.98045
211.545,29.51745,1.56948,-0.08049554,-0.0005511445,0.97844
214.845,29.81287,1.57401,-0.07862996,-0.0003893156,0.97641
218.145,30.10843,1.58821,-0.08099794,-0.002198968,0.97435
221.445,30.4032,1.58299,-0.07866202,-0.002401104,0.97226
224.745,30.698,1.60287,-0.08194151,-0.000835475,0.97015
228.045,30.9925,1.60456,-0.08060979,0.002448327,0.96801
231.345,31.28782,1.61633,-0.08084113,-0.001078021,0.96584
234.645,31.583,1.63157,-0.08040892,-0.00130883,0.96365
237.945,31.878,1.63307,-0.08036563,-0.001459265,0.96144
241.245,32.17369,1.65151,-0.08433402,-0.002237077,0.9592
244.545,32.46928,1.66722,-0.08204241,-0.0005094961,0.95694
247.845,32.76534,1.66663,-0.08323851,-0.0015998,0.95466
251.145,33.06126,1.66427,-0.08346295,0.0003413217,0.95236
254.445,33.35752,1.6688,-0.08214968,0.000404528,0.95003
257.745,33.65356,1.6773,-0.08413033,-0.00197372,0.94769
261.045,33.9505,1.68844,-0.08302826,-0.0008795195,0.94532
264.345,34.247,1.67839,-0.08350371,2.423e-08,0.94293
267.645,34.54422,1.68499,-0.08460928,-0.002847113,0.94053
270.945,34.841,1.68525,-0.08391467,-0.0002033681,0.9381
274.245,35.1379,1.69495,-0.08487758,6.428136e-05,0.93565
277.545,35.43566,1.70587,-0.08390142,-0.0007800858,0.93319
280.845,35.73375,1.70547,-0.09209114,-0.0006352637,0.93071
284.145,36.0317,1.71182,-0.0852766,-0.00160866,0.92821
287.445,36.33018,1.71547,-0.09091985,-0.00109645,0.9257
290.745,36.6287,1.70444,-0.08487968,0.00157635,0.92316
294.045,36.92776,1.71151,-0.08456118,0.000527209,0.92062
297.345,37.2271,1.72155,-0.08588,-0.002121404,0.91805
300.645,37.52678,1.7368,-0.08783801,-0.00176088,0.91548
303.945,37.82614,1.73444,-0.08599461,0.000642297,0.91288
307.245,38.1259,1.748,-0.08597057,-6.952342e-05,0.91028
310.545,38.42569,1.74406,-0.08566824,-0.001286201,0.90766
313.845,38.7257,1.75148,-0.08697131,-0.0009543502,0.90503
317.145,39.02718,1.7565,-0.08698702,-0.000673345,0.90238
320.445,39.32799,1.77845,-0.08841928,-0.001517524,0.89972
323.745,39.62935,1.78439,-0.08697995,-0.001544322,0.89705
327.045,39.93085,1.79144,-0.08927,-0.002993527,0.89437
330.345,40.23279,1.78461,-0.08930825,-0.0003487901,0.89168
333.645,40.53518,1.78189,-0.08616694,-0.00156004,0.88898
336.945,40.83699,1.80633,-0.08994021,-0.00351338,0.88627
340.245,41.14007,1.80382,-0.0922464,-0.002055664,0.88354
343.545,41.4434,1.82505,-0.09092013,0.001868453,0.88081
346.845,41.74719,1.80417,-0.08960999,-0.0008633914,0.87807
350.145,42.05202,1.82385,-0.09092008,-0.004876936,0.87533
353.445,42.35672,1.81323,-0.09366,-0.001393889,0.87257
356.745,42.66169,1.82047,-0.09221705,-0.0008696829,0.86981
360.045,42.96695,1.81216,-0.0943088,-0.00249919,0.86704
363.345,43.27279,1.83488,-0.09387701,-0.004854385,0.86426
366.645,43.57858,1.82784,-0.09616946,-0.00283723,0.86148
369.945,43.88494,1.85633,-0.09586111,-0.0008287984,0.85869
373.245,44.19165,1.84775,-0.0954944,-0.001697218,0.8559
376.545,44.49972,1.85502,-0.09787606,-0.001113751,0.8531
379.845,44.8084,1.86212,-0.0974942,-0.001623364,0.8503
383.145,45.1169,1.86738,-0.09869572,-0.002255596,0.8475
386.445,45.42618,1.88387,-0.09870214,-0.002515406,0.84469
389.745,45.73525,1.87632,-0.0983807,-0.002265171,0.84188
393.045,46.04416,1.88527,-0.10177,-3.60438e-05,0.83906
396.345,46.35367,1.89103,-0.10024,0.000431318,0.83624
399.645,46.66375,1.89683,-0.09891664,-0.0047253,0.83342
402.945,46.9737,1.91191,-0.10287,-0.01299528,0.8306
406.245,47.2845,1.93356,-0.10995,-0.01013277,0.82778
409.545,47.59561,1.9248,-0.11053,-0.00755533,0.82496
412.845,47.90675,1.92688,-0.11176,-0.004716597,0.82213
416.145,48.218,1.94602,-0.11318,-0.00537504,0.81931
419.445,48.53093,1.92747,-0.11534,-0.004481418,0.81649
422.745,48.8442,1.92442,-0.1167,-0.006633391,0.81366
426.045,49.15764,1.90982,-0.11944,-0.00860689,0.81084
429.345,49.47125,1.90881,-0.11754,-0.01018488,0.80802
432.645,49.78587,1.89552,-0.12646,-0.01579455,0.8052
435.945,50.10095,1.87636,-0.12854,-0.01728433,0.80239
439.245,50.41527,1.83592,-0.13853,-0.02608819,0.79957
442.545,50.73049,1.81766,-0.14578,-0.03055655,0.79676
445.845,51.04493,1.79471,-0.15703,-0.04215656,0.79396
449.145,51.35988,1.77558,-0.17196,-0.05822928,0.79115
452.445,51.67432,1.74489,-0.19385,-0.0733583,0.78835
455.745,51.9895,1.73819,-0.21885,-0.08624945,0.78555
459.045,52.30534,1.72231,-0.24685,-0.11088,0.78276
462.345,52.62149,1.75054,-0.28821,-0.13779,0.77997
465.645,52.93781,1.79771,-0.33469,-0.16086,0.77719
468.945,53.2545,1.86765,-0.38997,-0.19487,0.77441
472.245,53.57192,2.00964,-0.45793,-0.23191,0.77164
475.545,53.88994,2.12594,-0.53764,-0.27243,0.76888
478.845,54.20879,2.34289,-0.63117,-0.31626,0.76612
482.145,54.52763,2.43004,-0.73839,-0.35047,0.76337
485.445,54.84691,2.32642,-0.85428,-0.37897,0.76062
488.745,55.16499,2.48182,-0.98003,-0.42229,0.75788
492.045,55.4854,2.51113,-1.12595,-0.46574,0.75515
495.345,55.80602,2.59029,-1.27675,-0.5125,0.75243
498.645,56.12666,2.71272,-1.45338,-0.56214,0.74971
501.945,56.4478,2.66581,-1.64163,-0.59823,0.747
505.245,56.7683,2.68799,-1.83946,-0.62174,0.7443
508.545,57.0902,2.5902,-2.04894,-0.62583,0.74161
511.845,57.41208,2.40001,-2.23975,-0.59354,0.73893
515.145,57.73389,2.04583,-2.42043,-0.52589,0.73626
518.445,58.05511,1.6303,-2.58201,-0.42395,0.7336
521.745,58.3767,1.20633,-2.69906,-0.31033,0.73094
525.045,58.69933,0.88718,-2.77989,-0.2148,0.7283
528.345,59.0216,0.68523,-2.83517,-0.14308,0.72567
531.645,59.34485,0.56862,-2.87324,-0.09834147,0.72304
534.945,59.66718,0.48416,-2.90056,-0.07842298,0.72043
538.245,59.98986,0.44314,-2.92101,-0.05598263,0.71783
541.545,60.31228,0.43312,-2.93665,-0.0417942,0.71524
544.845,60.63522,0.40445,-2.94925,-0.03707116,0.71266
548.145,60.9586,0.41,-2.95942,-0.03436798,0.71009
551.445,61.2809,0.38576,-2.968,-0.02650919,0.70753
554.745,61.60614,0.3984,-2.97712,-0.02582878,0.70499
558.045,61.931,0.40962,-2.98543,-0.02435316,0.70245
561.345,62.25589,0.37761,-2.99391,-0.02174808,0.69993
564.645,62.5809,0.3732,-2.99869,-0.02426584,0.69742
567.945,62.9061,0.36928,-3.00804,-0.02317041,0.69493
571.245,63.2309,0.37761,-3.01436,-0.02190949,0.69244
574.545,63.55529,0.40096,-3.02348,-0.01963645,0.68997
577.845,63.88074,0.39673,-3.02928,-0.01979826,0.68751
581.145,64.20705,0.41488,-3.0349,-0.01847232,0.68507
584.445,64.53366,0.41604,-3.04041,-0.01730132,0.68263
587.745,64.86059,0.43864,-3.04527,-0.02121041,0.68021
591.045,65.1874,0.43694,-3.05395,-0.01397855,0.67781
594.345,65.51388,0.45333,-3.05522,-0.01555838,0.67542
597.645,65.84055,0.4565,-3.06111,-0.01787326,0.67304
600.945,66.1687,0.4845,-3.06857,-0.01303127,0.67067
604.245,66.49745,0.49048,-3.06977,-0.008689094,0.66832
607.545,66.82641,0.51147,-3.07401,-0.01399956,0.66599
610.845,67.15471,0.52538,-3.08024,-0.01353649,0.66366
614.145,67.4833,0.51874,-3.08321,-0.009300107,0.66135
617.445,67.81169,0.50882,-3.08989,-0.01068587,0.65906
620.745,68.13896,0.47736,-3.09258,-0.009794449,0.65678
624.045,68.46973,0.47319,-3.09305,-0.00693633,0.65451
627.345,68.8004,0.49707,-3.09489,-0.009812339,0.65226
630.645,69.1309,0.55391,-3.09874,-0.01157276,0.65003
633.945,69.4606,0.56028,-3.10147,-0.008025107,0.64781
637.245,69.78925,0.59085,-3.10015,-0.002594185,0.6456
639.245,69.9902,0.59821,-3.10477,-0.000479305,0.64427