File: 01_Data/PC/STA/N2/10K_min/PC_STA_N2_10KData_211609_R1.csv
##Temp./Â°C,Time/min,DSC(subtr.2)/mW,Mass loss(subtr.2)/mg,DTG(subtr.2)/(mg/min),Sensit./(uV/mW)
49.381,10.01,0.29608,-0.04969,-0.00632783,1.03586
52.681,12.55557,0.54681,-0.05403569,-0.02250732,1.03569
55.981,13.35765,0.66441,-0.05516823,0.00100862,1.03547
59.281,14.00075,0.7516,-0.05661449,-0.0201949,1.03521
62.581,14.56669,0.81154,-0.05802541,-0.005719359,1.03489
65.881,15.07952,0.88006,-0.05800434,-0.01081815,1.03454
69.181,15.5556,0.92433,-0.05836282,0.008407681,1.03413
72.481,16.00381,0.97435,-0.05854131,0.003088555,1.03368
75.781,16.4302,1.01765,-0.06054779,-0.008243534,1.03318
79.081,16.8384,1.05776,-0.06043171,-0.00233358,1.03264
82.381,17.2328,1.07677,-0.05926489,0.01770122,1.03206
85.681,17.61392,1.09757,-0.06048838,-0.0041176,1.03143
88.981,17.9838,1.11621,-0.0618387,-0.01341498,1.03076
92.281,18.344,1.14794,-0.06200507,-0.009811019,1.03004
95.581,18.69688,1.16893,-0.06197972,0.000133949,1.02928
98.881,19.04306,1.19587,-0.06197353,-0.003046217,1.02848
102.181,19.38429,1.22662,-0.06148059,0.27278,1.02763
105.481,19.72128,1.23416,-0.06450919,-0.02982626,1.02674
108.781,20.05405,1.27155,-0.0641433,0.01307648,1.02582
112.081,20.38416,1.29239,-0.06450222,-0.003996734,1.02485
115.381,20.7123,1.31902,-0.06402837,-0.01108471,1.02384
118.681,21.03454,1.33149,-0.06244936,-0.01294688,1.02279
121.981,21.35776,1.35428,-0.05692921,0.03162165,1.02169
125.281,21.67611,1.37357,-0.06121,-4.508466e-07,1.02056
128.581,21.9921,1.39329,-0.06293412,-0.02703424,1.01939
131.881,22.30454,1.40794,-0.0622077,-0.0032219,1.01819
135.181,22.6153,1.42506,-0.06357061,0.0178659,1.01694
138.481,22.92366,1.43856,-0.06215222,0.02630256,1.01566
141.781,23.2298,1.47069,-0.06460347,-0.02258242,1.01434
145.081,23.5347,1.51471,-0.06329013,0.00190882,1.01298
148.381,23.83863,1.58606,-0.06231579,0.00975854,1.01158
151.681,24.14131,1.70211,-0.06165046,-0.002103003,1.01015
154.981,24.44313,1.70671,-0.06310268,0.01781648,1.00868
158.281,24.74409,1.70825,-0.0632761,-0.01298873,1.00718
161.581,25.0439,1.71328,-0.0645993,0.01183825,1.00564
164.881,25.34358,1.73198,-0.06328729,-0.00563611,1.00407
168.181,25.643,1.73783,-0.06495403,-0.004719351,1.00247
171.481,25.94118,1.74866,-0.06427959,0.00207356,1.00083
174.781,26.2393,1.77238,-0.06331402,0.01690163,0.99916
178.081,26.53674,1.77672,-0.06341364,0.006754972,0.99745
181.381,26.83365,1.78277,-0.06338949,0.01092795,0.99572
184.681,27.1295,1.78174,-0.06404285,-0.01949934,0.99395
187.981,27.4243,1.79831,-0.06298905,0.01833826,0.99215
191.281,27.71995,1.8143,-0.06372995,-0.004617766,0.99032
194.581,28.01407,1.8221,-0.06321486,-0.00380957,0.98846
197.881,28.30842,1.84188,-0.06207925,0.005393908,0.98657
201.181,28.6024,1.84592,-0.06391703,-0.02732306,0.98465
204.481,28.89606,1.85427,-0.06469369,0.01360897,0.98271
207.781,29.19025,1.85852,-0.06242733,-0.02251783,0.98073
211.081,29.4847,1.86588,-0.0637282,-0.003241525,0.97873
214.381,29.77883,1.8778,-0.0624469,0.02223647,0.9767
217.681,30.07289,1.88491,-0.06376029,0.01569185,0.97464
220.981,30.36709,1.89027,-0.06263013,-0.0002276173,0.97255
224.281,30.6609,1.90535,-0.06296991,-0.0006085614,0.97044
227.581,30.95617,1.91233,-0.06395,1.149454e-06,0.96831
230.881,31.2503,1.91809,-0.0639441,-0.006689485,0.96615
234.181,31.545,1.91903,-0.06395006,-4.917241e-05,0.96396
237.481,31.8403,1.93223,-0.06326147,0.00712733,0.96175
240.781,32.1362,1.92865,-0.06358393,-0.005918687,0.95952
244.081,32.43249,1.93439,-0.06175121,-0.02444929,0.95726
247.381,32.7288,1.94402,-0.06328436,0.00493081,0.95499
250.681,33.02492,1.94101,-0.06327247,0.008106113,0.95268
253.981,33.32168,1.94916,-0.06132442,0.009607854,0.95036
257.281,33.61844,1.96084,-0.0632899,0.0001274735,0.94802
260.581,33.91483,1.9692,-0.06263014,-0.000135552,0.94565
263.881,34.21072,1.97323,-0.06141999,1.054798e-06,0.94327
267.181,34.5075,1.97595,-0.06176,1.99888e-08,0.94086
270.481,34.80396,1.9801,-0.06123624,0.02387128,0.93844
273.781,35.10111,1.97644,-0.06274,6.765777e-07,0.936
277.081,35.39855,1.98081,-0.0622144,0.02494627,0.93354
280.381,35.69596,1.9794,-0.06142634,0.003312527,0.93106
283.681,35.9937,1.97613,-0.06238806,-0.02140332,0.92856
286.981,36.29166,1.97735,-0.06208014,0.00369357,0.92605
290.281,36.5894,1.991,-0.06010051,0.01826703,0.92352
293.581,36.88767,1.98527,-0.06008638,0.01780127,0.92098
296.881,37.18651,1.97731,-0.06088935,-0.02668973,0.91842
300.181,37.4861,1.97191,-0.0601095,-0.001092759,0.91584
303.481,37.78565,1.97744,-0.06191939,0.0117199,0.91325
306.781,38.08593,1.98062,-0.06164,2.89156e-16,0.91065
310.081,38.38609,1.97829,-0.06296172,-0.00342511,0.90803
313.381,38.6867,1.98951,-0.06174758,0.01645154,0.9054
316.681,38.98755,1.97659,-0.06176009,-0.000202751,0.90275
319.981,39.2892,1.9857,-0.06241005,-0.000356731,0.9001
323.281,39.59149,1.99572,-0.06129883,0.01551029,0.89743
326.581,39.8938,1.99534,-0.06130624,0.00703086,0.89475
329.881,40.19481,1.99972,-0.06164,1.49533e-11,0.89206
333.181,40.49714,1.99893,-0.06133267,0.01650004,0.88936
336.481,40.79916,1.99852,-0.06044198,0.01018277,0.88665
339.781,41.10275,1.9873,-0.06208237,0.01109463,0.88393
343.081,41.40746,1.99825,-0.06209,-3.842664e-07,0.8812
346.381,41.71116,1.99721,-0.06286466,0.02492529,0.87846
349.681,42.0142,1.99729,-0.06334311,0.01904591,0.87571
352.981,42.3197,1.99384,-0.0633,1.39454e-07,0.87296
356.281,42.62442,1.99495,-0.06197398,-0.007353929,0.8702
359.581,42.9294,2.0064,-0.0633,6.78427e-16,0.86743
362.881,43.23486,2.00651,-0.06361939,-0.003213257,0.86465
366.181,43.54054,2.01087,-0.06362,-6.116639e-05,0.86187
369.481,43.84572,2.003,-0.06495154,0.01201014,0.85909
372.781,44.15266,1.99821,-0.06493996,5.23197e-05,0.8563
376.081,44.4593,2.01223,-0.06616224,0.01875983,0.8535
379.381,44.76667,2.01815,-0.06603,9.715264e-10,0.8507
382.681,45.07462,2.01382,-0.06750667,-0.21758,0.84789
385.981,45.38308,2.01051,-0.06658003,-2.68544e-05,0.84508
389.281,45.69113,2.0195,-0.06788042,0.008791036,0.84227
392.581,46.0005,2.01962,-0.06723987,-0.001968571,0.83946
395.881,46.30995,2.02528,-0.06855941,0.009916002,0.83664
399.181,46.62032,2.02789,-0.07185,1.43928e-08,0.83382
402.481,46.93087,2.04473,-0.07367791,-0.02489121,0.831
405.781,47.24149,2.04923,-0.07053909,0.01474625,0.82818
409.081,47.55107,2.04634,-0.07447733,-0.01263131,0.82535
412.381,47.863,2.05107,-0.07436999,4.719893e-07,0.82253
415.681,48.1759,2.0511,-0.07604049,-0.01785449,0.81971
418.981,48.48731,2.01583,-0.07689001,-8.10323e-05,0.81688
422.281,48.79967,2.01388,-0.07953001,-0.0002639323,0.81406
425.581,49.11286,1.99945,-0.08080608,-0.02551996,0.81124
428.881,49.42583,1.97953,-0.07866263,-0.10403,0.80842
432.181,49.7389,1.97656,-0.08755123,-0.01437004,0.8056
435.481,50.05271,1.95456,-0.08873987,-0.00658092,0.80278
438.781,50.3661,1.93922,-0.09497967,-0.02574622,0.79997
442.081,50.67866,1.92518,-0.10012,0.12707,0.79716
445.381,50.99262,1.91283,-0.10668,-0.07273599,0.79435
448.681,51.30652,1.87576,-0.11917,-0.01943014,0.79155
451.981,51.62158,1.87133,-0.13392,-0.04889346,0.78874
455.281,51.93701,1.84505,-0.15087,-0.06892358,0.78595
458.581,52.25274,1.85997,-0.17433,-0.08357108,0.78315
461.881,52.56898,1.78774,-0.20402,-0.08662605,0.78037
465.181,52.8857,1.83583,-0.2382,-0.15561,0.77758
468.481,53.20251,1.90436,-0.27719,-0.16627,0.7748
471.781,53.52044,1.9204,-0.32399,-0.16393,0.77203
475.081,53.83941,1.99755,-0.38691,-0.19454,0.76927
478.381,54.1584,2.1191,-0.46342,-0.23524,0.76651
481.681,54.47752,2.31336,-0.5472,-0.31283,0.76375
484.981,54.7969,2.64891,-0.64967,-0.35452,0.76101
488.281,55.116,2.38706,-0.76782,-0.3552,0.75827
491.581,55.43512,2.3851,-0.88146,-0.42671,0.75553
494.881,55.7554,2.85303,-1.02793,-0.51345,0.75281
498.181,56.0752,2.56163,-1.18877,-0.50088,0.75009
501.481,56.3944,2.70684,-1.35771,-0.57823,0.74738
504.781,56.7138,2.70709,-1.55086,-0.59263,0.74468
508.081,57.03513,2.55105,-1.75101,-0.64354,0.74199
511.381,57.3578,2.47974,-1.96336,-0.62618,0.73931
514.681,57.67957,2.3357,-2.17587,-0.6286,0.73663
517.981,58.0015,2.00582,-2.3744,-0.58127,0.73397
521.281,58.32238,1.56819,-2.54065,-0.44597,0.73131
524.581,58.64424,1.13589,-2.66778,-0.34021,0.72867
527.881,58.96605,0.81852,-2.74972,-0.22666,0.72604
531.181,59.28824,0.6409,-2.80606,-0.16019,0.72341
534.481,59.61165,0.51772,-2.84167,-0.11729,0.7208
537.781,59.9338,0.46381,-2.8677,-0.08070516,0.71819
541.081,60.257,0.40988,-2.88696,-0.08107066,0.7156
544.381,60.5804,0.40641,-2.89947,-0.0252373,0.71302
547.681,60.9046,0.40808,-2.91575,-0.02481457,0.71045
550.981,61.22919,0.39989,-2.9209,0.15159,0.70789
554.281,61.5536,0.38289,-2.93333,-0.02663447,0.70534
557.581,61.87837,0.37122,-2.943,-0.00733397,0.70281
560.881,62.20364,0.37337,-2.95187,-0.01635873,0.70029
564.181,62.52915,0.37307,-2.95849,0.12286,0.69777
567.481,62.8552,0.36147,-2.96665,-0.02452112,0.69528
570.781,63.1807,0.36233,-2.97381,-0.03044927,0.69279
574.081,63.5065,0.3576,-2.98193,-0.03653062,0.69032
577.381,63.83161,0.35229,-2.98864,0.01289865,0.68786
580.681,64.15725,0.37563,-2.99241,-0.04766273,0.68541
583.981,64.48346,0.37791,-2.99927,-0.01848228,0.68297
587.281,64.80983,0.3676,-3.00802,-0.0266194,0.68055
590.581,65.137,0.38155,-3.01069,-0.03507558,0.67815
593.881,65.46391,0.38553,-3.01681,-0.03393507,0.67575
597.181,65.79029,0.41347,-3.02339,0.007376525,0.67337
600.481,66.1181,0.46615,-3.02712,-0.00109568,0.67101
603.781,66.44706,0.47751,-3.03253,-0.034051,0.66865
607.081,66.77542,0.48834,-3.03618,-0.02364641,0.66631
610.381,67.1046,0.4764,-3.0405,-0.02584705,0.66399
613.681,67.43401,0.48759,-3.0446,-0.008975208,0.66168
616.981,67.76468,0.47541,-3.04745,-0.01478729,0.65938
620.281,68.0947,0.46446,-3.05124,-0.01348717,0.6571
623.581,68.42433,0.43583,-3.05519,-0.01487937,0.65483
626.881,68.7538,0.41425,-3.05697,-0.009803163,0.65258
630.181,69.08349,0.40736,-3.05958,-0.00966981,0.65034
633.481,69.4135,0.4128,-3.06222,0.005664813,0.64812
636.781,69.7444,0.45887,-3.06485,0.0005315246,0.64591
639.281,69.99579,0.47649,-3.06523,-0.008178535,0.64424