File: 01_Data/Luan_Panel/FTIR/IS/Luan_Panel_IS_S_220914_R1.dpt
7497.02,0.83905
7473.88,0.83364
7450.73,0.82095
7427.59,0.82016
7404.44,0.80353
7381.3,0.80857
7358.15,0.79765
7335.01,0.78224
7311.86,0.77638
7288.72,0.77194
7265.57,0.76881
7242.43,0.76724
7219.28,0.76665
7196.14,0.76357
7172.99,0.76144
7149.85,0.74444
7126.7,0.73071
7103.56,0.71966
7080.41,0.69686
7057.27,0.68992
7034.12,0.67459
7010.98,0.66257
6987.83,0.64950
6964.69,0.64282
6941.54,0.63836
6918.4,0.63584
6895.25,0.63452
6872.11,0.62218
6848.96,0.63136
6825.82,0.62585
6802.67,0.61721
6779.53,0.61472
6756.38,0.61056
6733.24,0.61226
6710.1,0.61171
6686.95,0.61630
6663.81,0.61501
6640.66,0.62077
6617.52,0.62034
6594.37,0.63124
6571.23,0.63043
6548.08,0.63107
6524.94,0.63463
6501.79,0.63868
6478.65,0.64477
6455.5,0.64204
6432.36,0.64544
6409.21,0.64846
6386.07,0.64920
6362.92,0.64953
6339.78,0.65524
6316.63,0.66022
6293.49,0.66280
6270.34,0.66267
6247.2,0.66473
6224.05,0.67889
6200.91,0.68441
6177.76,0.68994
6154.62,0.69055
6131.47,0.69758
6108.33,0.69913
6085.18,0.69870
6062.04,0.69779
6038.89,0.68886
6015.75,0.68562
5992.6,0.68027
5969.46,0.68076
5946.31,0.67709
5923.17,0.67740
5900.02,0.67279
5876.88,0.67191
5853.73,0.67089
5830.59,0.66816
5807.44,0.66367
5784.3,0.66374
5761.15,0.66878
5738.01,0.66902
5714.86,0.67008
5691.72,0.67189
5668.57,0.66996
5645.43,0.67039
5622.28,0.66954
5599.14,0.67087
5575.99,0.66996
5552.85,0.67402
5529.7,0.67589
5506.56,0.67625
5483.41,0.67814
5460.27,0.67780
5437.13,0.68220
5413.98,0.68746
5390.84,0.68805
5367.69,0.68353
5344.55,0.68145
5321.4,0.67075
5298.26,0.64865
5275.11,0.61122
5251.97,0.56972
5228.82,0.54015
5205.68,0.52537
5182.53,0.52116
5159.39,0.52546
5136.24,0.53371
5113.1,0.53632
5089.95,0.53203
5066.81,0.53453
5043.66,0.54460
5020.52,0.55424
4997.37,0.56198
4974.23,0.56287
4951.08,0.55322
4927.94,0.54102
4904.79,0.53257
4881.65,0.52174
4858.5,0.50911
4835.36,0.49693
4812.21,0.48919
4789.07,0.48499
4765.92,0.48234
4742.78,0.47954
4719.63,0.48119
4696.49,0.48102
4673.34,0.48206
4650.2,0.48535
4627.05,0.48950
4603.91,0.49699
4580.76,0.50272
4557.62,0.50539
4534.47,0.50830
4511.33,0.50996
4488.18,0.50580
4465.04,0.48701
4441.89,0.46338
4418.75,0.43761
4395.6,0.42888
4372.46,0.43780
4349.31,0.44603
4326.17,0.44095
4303.02,0.43568
4279.88,0.42830
4256.73,0.43235
4233.59,0.43563
4210.44,0.43595
4187.3,0.43615
4164.16,0.44155
4141.01,0.43653
4117.87,0.42408
4094.72,0.40614
4071.58,0.38503
4048.43,0.36503
4025.29,0.35008
4002.14,0.34873
3979,0.35431
3955.85,0.36317
3932.71,0.37345
3909.56,0.38311
3886.42,0.39128
3863.27,0.40063
3840.13,0.41207
3816.98,0.41613
3793.84,0.41520
3770.69,0.41052
3747.55,0.40235
3724.4,0.38445
3701.26,0.35077
3678.11,0.28649
3654.97,0.20257
3631.82,0.14894
3608.68,0.11396
3585.53,0.08921
3562.39,0.07270
3539.24,0.06174
3516.1,0.05296
3492.95,0.04652
3469.81,0.04238
3446.66,0.04127
3423.52,0.03998
3400.37,0.04027
3377.23,0.04047
3354.08,0.04113
3330.94,0.04378
3307.79,0.04616
3284.65,0.04859
3261.5,0.05323
3238.36,0.05727
3215.21,0.06146
3192.07,0.06692
3168.92,0.07438
3145.78,0.08243
3122.63,0.08905
3099.49,0.09551
3076.34,0.09975
3053.2,0.10391
3030.05,0.10774
3006.91,0.10391
2983.76,0.09632
2960.62,0.07670
2937.47,0.06834
2914.33,0.06831
2891.18,0.07343
2868.04,0.07784
2844.9,0.08813
2821.75,0.11544
2798.61,0.13467
2775.46,0.14455
2752.32,0.14912
2729.17,0.15232
2706.03,0.16030
2682.88,0.17026
2659.74,0.17711
2636.59,0.18472
2613.45,0.19287
2590.3,0.20012
2567.16,0.20539
2544.01,0.20865
2520.87,0.21553
2497.72,0.22622
2474.58,0.23695
2451.43,0.24385
2428.29,0.25546
2405.14,0.26911
2382,0.28080
2358.85,0.29011
2335.71,0.29647
2312.56,0.29976
2289.42,0.29872
2266.27,0.29496
2243.13,0.28715
2219.98,0.28809
2196.84,0.28381
2173.69,0.27033
2150.55,0.25990
2127.4,0.25834
2104.26,0.26328
2081.11,0.26692
2057.97,0.26388
2034.82,0.26921
2011.68,0.28323
1988.53,0.29133
1965.39,0.29384
1942.24,0.29974
1919.1,0.31233
1895.95,0.31360
1872.81,0.30990
1849.66,0.30121
1826.52,0.28560
1803.37,0.25810
1780.23,0.21015
1757.08,0.10379
1733.94,0.07746
1710.79,0.08836
1687.65,0.05723
1664.5,0.04574
1641.36,0.05321
1618.21,0.05534
1595.07,0.05618
1571.93,0.08311
1548.78,0.08070
1525.64,0.06864
1502.49,0.05520
1479.35,0.06215
1456.2,0.04952
1433.06,0.05057
1409.91,0.05953
1386.77,0.05346
1363.62,0.05119
1340.48,0.05133
1317.33,0.05260
1294.19,0.05681
1271.04,0.04795
1247.9,0.04684
1224.75,0.04859
1201.61,0.05323
1178.46,0.04376
1155.32,0.04488
1132.17,0.03793
1109.03,0.04436
1085.88,0.04183
1062.74,0.05359
1039.59,0.06165
1016.45,0.07176
993.302,0.08076
970.157,0.10559
947.013,0.13059
923.868,0.13165
900.723,0.11322
877.578,0.12717
854.433,0.12627
831.288,0.11885
808.143,0.11773
784.998,0.11212
761.853,0.10149
738.708,0.08963
715.563,0.08058
692.419,0.07668
669.274,0.06938
646.129,0.06898
622.984,0.06488
599.839,0.06646