File: 01_Data/Luan_Panel/FTIR/IS/Luan_Panel_IS_S_220914_R4.dpt
7497.02,0.83957
7473.88,0.83225
7450.73,0.81180
7427.59,0.82408
7404.44,0.81153
7381.3,0.80144
7358.15,0.79646
7335.01,0.79278
7311.86,0.78825
7288.72,0.78212
7265.57,0.77231
7242.43,0.78036
7219.28,0.77860
7196.14,0.76722
7172.99,0.75933
7149.85,0.74995
7126.7,0.74314
7103.56,0.72901
7080.41,0.71146
7057.27,0.69137
7034.12,0.68427
7010.98,0.66307
6987.83,0.66047
6964.69,0.65298
6941.54,0.64403
6918.4,0.64254
6895.25,0.63575
6872.11,0.63600
6848.96,0.62468
6825.82,0.63264
6802.67,0.62511
6779.53,0.62136
6756.38,0.62085
6733.24,0.61807
6710.1,0.62040
6686.95,0.61646
6663.81,0.62308
6640.66,0.62622
6617.52,0.62584
6594.37,0.63667
6571.23,0.63744
6548.08,0.64525
6524.94,0.64856
6501.79,0.64695
6478.65,0.64981
6455.5,0.65112
6432.36,0.65235
6409.21,0.65543
6386.07,0.65711
6362.92,0.65563
6339.78,0.66180
6316.63,0.66426
6293.49,0.66418
6270.34,0.67074
6247.2,0.67986
6224.05,0.68223
6200.91,0.69019
6177.76,0.69825
6154.62,0.69834
6131.47,0.69925
6108.33,0.70386
6085.18,0.70362
6062.04,0.69914
6038.89,0.69559
6015.75,0.68921
5992.6,0.68373
5969.46,0.68550
5946.31,0.68184
5923.17,0.68099
5900.02,0.67674
5876.88,0.67618
5853.73,0.67443
5830.59,0.67048
5807.44,0.66978
5784.3,0.66741
5761.15,0.67274
5738.01,0.67461
5714.86,0.67484
5691.72,0.67553
5668.57,0.67448
5645.43,0.67521
5622.28,0.67489
5599.14,0.67524
5575.99,0.67662
5552.85,0.67690
5529.7,0.68012
5506.56,0.68085
5483.41,0.68120
5460.27,0.68209
5437.13,0.68658
5413.98,0.69037
5390.84,0.69191
5367.69,0.69069
5344.55,0.69035
5321.4,0.68059
5298.26,0.66263
5275.11,0.63101
5251.97,0.59268
5228.82,0.56823
5205.68,0.55358
5182.53,0.55157
5159.39,0.55527
5136.24,0.55800
5113.1,0.55808
5089.95,0.54963
5066.81,0.54948
5043.66,0.55968
5020.52,0.56903
4997.37,0.57488
4974.23,0.57586
4951.08,0.56233
4927.94,0.54900
4904.79,0.53742
4881.65,0.52578
4858.5,0.51403
4835.36,0.50184
4812.21,0.49270
4789.07,0.48853
4765.92,0.48664
4742.78,0.48379
4719.63,0.48539
4696.49,0.48477
4673.34,0.48574
4650.2,0.48804
4627.05,0.49262
4603.91,0.50058
4580.76,0.50707
4557.62,0.50968
4534.47,0.51205
4511.33,0.51406
4488.18,0.50942
4465.04,0.49002
4441.89,0.46611
4418.75,0.43976
4395.6,0.43152
4372.46,0.43962
4349.31,0.44763
4326.17,0.44427
4303.02,0.43802
4279.88,0.43163
4256.73,0.43587
4233.59,0.43938
4210.44,0.44013
4187.3,0.44034
4164.16,0.44624
4141.01,0.44339
4117.87,0.42935
4094.72,0.41293
4071.58,0.39120
4048.43,0.37037
4025.29,0.35401
4002.14,0.35266
3979,0.35908
3955.85,0.36871
3932.71,0.38007
3909.56,0.39041
3886.42,0.39784
3863.27,0.40769
3840.13,0.42001
3816.98,0.42502
3793.84,0.42651
3770.69,0.42332
3747.55,0.41639
3724.4,0.40127
3701.26,0.37265
3678.11,0.31276
3654.97,0.23289
3631.82,0.17527
3608.68,0.13280
3585.53,0.10039
3562.39,0.07974
3539.24,0.06549
3516.1,0.05548
3492.95,0.04817
3469.81,0.04359
3446.66,0.04220
3423.52,0.04086
3400.37,0.04019
3377.23,0.04070
3354.08,0.04084
3330.94,0.04389
3307.79,0.04705
3284.65,0.04899
3261.5,0.05335
3238.36,0.05844
3215.21,0.06276
3192.07,0.07038
3168.92,0.07724
3145.78,0.08591
3122.63,0.09361
3099.49,0.09928
3076.34,0.10450
3053.2,0.10878
3030.05,0.11238
3006.91,0.10713
2983.76,0.09879
2960.62,0.07766
2937.47,0.06788
2914.33,0.06816
2891.18,0.07355
2868.04,0.07765
2844.9,0.08853
2821.75,0.11654
2798.61,0.13659
2775.46,0.14660
2752.32,0.15177
2729.17,0.15430
2706.03,0.16277
2682.88,0.17287
2659.74,0.17969
2636.59,0.18716
2613.45,0.19580
2590.3,0.20230
2567.16,0.20750
2544.01,0.21165
2520.87,0.21862
2497.72,0.22916
2474.58,0.23916
2451.43,0.24722
2428.29,0.25879
2405.14,0.27301
2382,0.28495
2358.85,0.29487
2335.71,0.30270
2312.56,0.30628
2289.42,0.30651
2266.27,0.30277
2243.13,0.29585
2219.98,0.29721
2196.84,0.29408
2173.69,0.28011
2150.55,0.26969
2127.4,0.26889
2104.26,0.27406
2081.11,0.27737
2057.97,0.27366
2034.82,0.27897
2011.68,0.29257
1988.53,0.30081
1965.39,0.30238
1942.24,0.30853
1919.1,0.32092
1895.95,0.32212
1872.81,0.31792
1849.66,0.30832
1826.52,0.29212
1803.37,0.26331
1780.23,0.21150
1757.08,0.10260
1733.94,0.07905
1710.79,0.08957
1687.65,0.05733
1664.5,0.04658
1641.36,0.05578
1618.21,0.05583
1595.07,0.05673
1571.93,0.08508
1548.78,0.08220
1525.64,0.06951
1502.49,0.05542
1479.35,0.06281
1456.2,0.04986
1433.06,0.05102
1409.91,0.05961
1386.77,0.05375
1363.62,0.05099
1340.48,0.05105
1317.33,0.05265
1294.19,0.05680
1271.04,0.04788
1247.9,0.04745
1224.75,0.04875
1201.61,0.05342
1178.46,0.04431
1155.32,0.04490
1132.17,0.03768
1109.03,0.04416
1085.88,0.04284
1062.74,0.05370
1039.59,0.06176
1016.45,0.07284
993.302,0.08091
970.157,0.10632
947.013,0.13274
923.868,0.13394
900.723,0.11591
877.578,0.13050
854.433,0.13038
831.288,0.12442
808.143,0.12476
784.998,0.11816
761.853,0.10706
738.708,0.09422
715.563,0.08499
692.419,0.08053
669.274,0.07120
646.129,0.07220
622.984,0.06681
599.839,0.07124