File: 01_Data/Luan_Panel/FTIR/IS/Luan_Panel_IS_S_220914_R5.dpt
7497.02,0.84602
7473.88,0.84252
7450.73,0.83431
7427.59,0.82989
7404.44,0.81752
7381.3,0.81457
7358.15,0.80800
7335.01,0.79684
7311.86,0.79399
7288.72,0.78985
7265.57,0.78156
7242.43,0.78635
7219.28,0.78081
7196.14,0.77950
7172.99,0.76910
7149.85,0.76210
7126.7,0.75157
7103.56,0.73895
7080.41,0.72080
7057.27,0.70817
7034.12,0.68154
7010.98,0.67357
6987.83,0.66550
6964.69,0.65788
6941.54,0.65035
6918.4,0.64894
6895.25,0.64705
6872.11,0.63861
6848.96,0.64202
6825.82,0.63799
6802.67,0.63459
6779.53,0.62795
6756.38,0.62646
6733.24,0.62403
6710.1,0.62323
6686.95,0.62787
6663.81,0.62527
6640.66,0.63316
6617.52,0.63266
6594.37,0.64242
6571.23,0.64364
6548.08,0.64447
6524.94,0.64895
6501.79,0.65446
6478.65,0.65560
6455.5,0.66042
6432.36,0.65219
6409.21,0.66018
6386.07,0.66575
6362.92,0.66859
6339.78,0.66691
6316.63,0.66989
6293.49,0.67198
6270.34,0.67751
6247.2,0.68607
6224.05,0.69019
6200.91,0.69470
6177.76,0.70001
6154.62,0.70395
6131.47,0.70851
6108.33,0.70883
6085.18,0.70901
6062.04,0.70495
6038.89,0.70038
6015.75,0.70023
5992.6,0.69094
5969.46,0.68949
5946.31,0.68706
5923.17,0.68828
5900.02,0.68215
5876.88,0.67885
5853.73,0.67864
5830.59,0.67838
5807.44,0.67660
5784.3,0.67481
5761.15,0.68035
5738.01,0.67977
5714.86,0.68010
5691.72,0.68236
5668.57,0.68164
5645.43,0.68044
5622.28,0.68216
5599.14,0.68093
5575.99,0.68198
5552.85,0.68288
5529.7,0.68522
5506.56,0.68619
5483.41,0.68948
5460.27,0.68954
5437.13,0.69489
5413.98,0.69686
5390.84,0.69974
5367.69,0.69708
5344.55,0.69606
5321.4,0.68823
5298.26,0.67120
5275.11,0.64391
5251.97,0.60495
5228.82,0.58096
5205.68,0.57056
5182.53,0.56785
5159.39,0.56906
5136.24,0.57312
5113.1,0.57128
5089.95,0.56152
5066.81,0.55824
5043.66,0.56986
5020.52,0.57846
4997.37,0.58288
4974.23,0.58303
4951.08,0.57006
4927.94,0.55438
4904.79,0.54145
4881.65,0.53138
4858.5,0.51738
4835.36,0.50626
4812.21,0.49524
4789.07,0.49163
4765.92,0.48932
4742.78,0.48812
4719.63,0.48891
4696.49,0.48804
4673.34,0.48775
4650.2,0.49289
4627.05,0.49595
4603.91,0.50489
4580.76,0.51115
4557.62,0.51330
4534.47,0.51614
4511.33,0.51873
4488.18,0.51218
4465.04,0.49390
4441.89,0.46904
4418.75,0.44366
4395.6,0.43369
4372.46,0.44268
4349.31,0.45090
4326.17,0.44782
4303.02,0.44124
4279.88,0.43494
4256.73,0.43910
4233.59,0.44278
4210.44,0.44350
4187.3,0.44401
4164.16,0.45126
4141.01,0.44630
4117.87,0.43327
4094.72,0.41609
4071.58,0.39457
4048.43,0.37319
4025.29,0.35786
4002.14,0.35554
3979,0.36296
3955.85,0.37246
3932.71,0.38305
3909.56,0.39267
3886.42,0.40144
3863.27,0.41259
3840.13,0.42510
3816.98,0.43105
3793.84,0.43229
3770.69,0.42915
3747.55,0.42318
3724.4,0.40948
3701.26,0.38147
3678.11,0.32453
3654.97,0.24421
3631.82,0.18517
3608.68,0.13952
3585.53,0.10409
3562.39,0.08142
3539.24,0.06715
3516.1,0.05622
3492.95,0.04815
3469.81,0.04418
3446.66,0.04163
3423.52,0.04104
3400.37,0.04075
3377.23,0.04054
3354.08,0.04197
3330.94,0.04444
3307.79,0.04703
3284.65,0.04963
3261.5,0.05387
3238.36,0.05889
3215.21,0.06403
3192.07,0.06995
3168.92,0.07871
3145.78,0.08769
3122.63,0.09489
3099.49,0.10073
3076.34,0.10592
3053.2,0.11067
3030.05,0.11351
3006.91,0.10818
2983.76,0.09893
2960.62,0.07770
2937.47,0.06796
2914.33,0.06800
2891.18,0.07379
2868.04,0.07790
2844.9,0.08852
2821.75,0.11725
2798.61,0.13765
2775.46,0.14821
2752.32,0.15294
2729.17,0.15569
2706.03,0.16366
2682.88,0.17419
2659.74,0.18078
2636.59,0.18826
2613.45,0.19671
2590.3,0.20357
2567.16,0.20888
2544.01,0.21264
2520.87,0.21999
2497.72,0.23047
2474.58,0.24095
2451.43,0.24899
2428.29,0.26026
2405.14,0.27469
2382,0.28677
2358.85,0.29734
2335.71,0.30564
2312.56,0.30902
2289.42,0.30917
2266.27,0.30548
2243.13,0.29923
2219.98,0.30058
2196.84,0.29816
2173.69,0.28389
2150.55,0.27354
2127.4,0.27277
2104.26,0.27773
2081.11,0.28130
2057.97,0.27737
2034.82,0.28273
2011.68,0.29635
1988.53,0.30473
1965.39,0.30596
1942.24,0.31211
1919.1,0.32470
1895.95,0.32597
1872.81,0.32097
1849.66,0.31158
1826.52,0.29513
1803.37,0.26551
1780.23,0.21278
1757.08,0.10211
1733.94,0.07947
1710.79,0.08968
1687.65,0.05753
1664.5,0.04646
1641.36,0.05608
1618.21,0.05605
1595.07,0.05686
1571.93,0.08507
1548.78,0.08262
1525.64,0.06944
1502.49,0.05485
1479.35,0.06275
1456.2,0.04960
1433.06,0.05117
1409.91,0.05938
1386.77,0.05381
1363.62,0.05092
1340.48,0.05105
1317.33,0.05270
1294.19,0.05657
1271.04,0.04795
1247.9,0.04692
1224.75,0.04920
1201.61,0.05232
1178.46,0.04373
1155.32,0.04535
1132.17,0.03827
1109.03,0.04363
1085.88,0.04206
1062.74,0.05423
1039.59,0.06145
1016.45,0.07236
993.302,0.08123
970.157,0.10692
947.013,0.13273
923.868,0.13444
900.723,0.11643
877.578,0.13204
854.433,0.13221
831.288,0.12509
808.143,0.12581
784.998,0.11997
761.853,0.10845
738.708,0.09523
715.563,0.08603
692.419,0.07985
669.274,0.07282
646.129,0.07242
622.984,0.06564
599.839,0.07129