File: 01_Data/Luan_Panel/FTIR/IS/Luan_Panel_IS_S_220914_R8.dpt
7497.02,0.84145
7473.88,0.83828
7450.73,0.83690
7427.59,0.80761
7404.44,0.81457
7381.3,0.81590
7358.15,0.79950
7335.01,0.78195
7311.86,0.78825
7288.72,0.77726
7265.57,0.77694
7242.43,0.78353
7219.28,0.78104
7196.14,0.76948
7172.99,0.76976
7149.85,0.75847
7126.7,0.74852
7103.56,0.73403
7080.41,0.71577
7057.27,0.70816
7034.12,0.68713
7010.98,0.67375
6987.83,0.65805
6964.69,0.65266
6941.54,0.64784
6918.4,0.64489
6895.25,0.63821
6872.11,0.63949
6848.96,0.63415
6825.82,0.63706
6802.67,0.63191
6779.53,0.62956
6756.38,0.62401
6733.24,0.62169
6710.1,0.62168
6686.95,0.61750
6663.81,0.62878
6640.66,0.62643
6617.52,0.63294
6594.37,0.63714
6571.23,0.64053
6548.08,0.64591
6524.94,0.64726
6501.79,0.64628
6478.65,0.65231
6455.5,0.65373
6432.36,0.65657
6409.21,0.65446
6386.07,0.66019
6362.92,0.66175
6339.78,0.66644
6316.63,0.66739
6293.49,0.66893
6270.34,0.67834
6247.2,0.68066
6224.05,0.68866
6200.91,0.69406
6177.76,0.69542
6154.62,0.70415
6131.47,0.70375
6108.33,0.70617
6085.18,0.70337
6062.04,0.70326
6038.89,0.70004
6015.75,0.69372
5992.6,0.68751
5969.46,0.68251
5946.31,0.68588
5923.17,0.68525
5900.02,0.67853
5876.88,0.67888
5853.73,0.67570
5830.59,0.67466
5807.44,0.67040
5784.3,0.67143
5761.15,0.67479
5738.01,0.67712
5714.86,0.67892
5691.72,0.67750
5668.57,0.67837
5645.43,0.67809
5622.28,0.67696
5599.14,0.67865
5575.99,0.67876
5552.85,0.68246
5529.7,0.68371
5506.56,0.68383
5483.41,0.68498
5460.27,0.68760
5437.13,0.69135
5413.98,0.69539
5390.84,0.69643
5367.69,0.69684
5344.55,0.69528
5321.4,0.68915
5298.26,0.67388
5275.11,0.64833
5251.97,0.61321
5228.82,0.58988
5205.68,0.57983
5182.53,0.57509
5159.39,0.57690
5136.24,0.58086
5113.1,0.57615
5089.95,0.56504
5066.81,0.56269
5043.66,0.57076
5020.52,0.58014
4997.37,0.58482
4974.23,0.58313
4951.08,0.56974
4927.94,0.55383
4904.79,0.54071
4881.65,0.52971
4858.5,0.51639
4835.36,0.50329
4812.21,0.49370
4789.07,0.48993
4765.92,0.48761
4742.78,0.48631
4719.63,0.48653
4696.49,0.48751
4673.34,0.48896
4650.2,0.49132
4627.05,0.49566
4603.91,0.50368
4580.76,0.50940
4557.62,0.51187
4534.47,0.51420
4511.33,0.51759
4488.18,0.51240
4465.04,0.49339
4441.89,0.46731
4418.75,0.44138
4395.6,0.43311
4372.46,0.44117
4349.31,0.44967
4326.17,0.44506
4303.02,0.44014
4279.88,0.43315
4256.73,0.43843
4233.59,0.44163
4210.44,0.44249
4187.3,0.44337
4164.16,0.45061
4141.01,0.44654
4117.87,0.43284
4094.72,0.41553
4071.58,0.39494
4048.43,0.37291
4025.29,0.35686
4002.14,0.35579
3979,0.36297
3955.85,0.37255
3932.71,0.38350
3909.56,0.39392
3886.42,0.40202
3863.27,0.41274
3840.13,0.42548
3816.98,0.43137
3793.84,0.43400
3770.69,0.43284
3747.55,0.42659
3724.4,0.41389
3701.26,0.38780
3678.11,0.33387
3654.97,0.25515
3631.82,0.19442
3608.68,0.14594
3585.53,0.10800
3562.39,0.08299
3539.24,0.06736
3516.1,0.05670
3492.95,0.04810
3469.81,0.04349
3446.66,0.04203
3423.52,0.04045
3400.37,0.04108
3377.23,0.04068
3354.08,0.04111
3330.94,0.04404
3307.79,0.04743
3284.65,0.04975
3261.5,0.05410
3238.36,0.05871
3215.21,0.06397
3192.07,0.07092
3168.92,0.07887
3145.78,0.08731
3122.63,0.09545
3099.49,0.10246
3076.34,0.10665
3053.2,0.11159
3030.05,0.11419
3006.91,0.10889
2983.76,0.09919
2960.62,0.07783
2937.47,0.06919
2914.33,0.06798
2891.18,0.07367
2868.04,0.07807
2844.9,0.08867
2821.75,0.11713
2798.61,0.13782
2775.46,0.14847
2752.32,0.15328
2729.17,0.15552
2706.03,0.16411
2682.88,0.17416
2659.74,0.18131
2636.59,0.18844
2613.45,0.19717
2590.3,0.20398
2567.16,0.20884
2544.01,0.21297
2520.87,0.21968
2497.72,0.23047
2474.58,0.24155
2451.43,0.24882
2428.29,0.26033
2405.14,0.27527
2382,0.28732
2358.85,0.29839
2335.71,0.30662
2312.56,0.31006
2289.42,0.30969
2266.27,0.30727
2243.13,0.30053
2219.98,0.30281
2196.84,0.29959
2173.69,0.28596
2150.55,0.27552
2127.4,0.27467
2104.26,0.27998
2081.11,0.28375
2057.97,0.27959
2034.82,0.28504
2011.68,0.29843
1988.53,0.30675
1965.39,0.30782
1942.24,0.31392
1919.1,0.32652
1895.95,0.32756
1872.81,0.32267
1849.66,0.31297
1826.52,0.29664
1803.37,0.26643
1780.23,0.21272
1757.08,0.10180
1733.94,0.07934
1710.79,0.08994
1687.65,0.05709
1664.5,0.04676
1641.36,0.05638
1618.21,0.05609
1595.07,0.05715
1571.93,0.08580
1548.78,0.08316
1525.64,0.06982
1502.49,0.05496
1479.35,0.06282
1456.2,0.05021
1433.06,0.05104
1409.91,0.05938
1386.77,0.05420
1363.62,0.05131
1340.48,0.05129
1317.33,0.05261
1294.19,0.05643
1271.04,0.04827
1247.9,0.04716
1224.75,0.04926
1201.61,0.05293
1178.46,0.04324
1155.32,0.04503
1132.17,0.03808
1109.03,0.04413
1085.88,0.04121
1062.74,0.05434
1039.59,0.06160
1016.45,0.07243
993.302,0.08233
970.157,0.10700
947.013,0.13321
923.868,0.13458
900.723,0.11760
877.578,0.13172
854.433,0.13302
831.288,0.12674
808.143,0.12740
784.998,0.12223
761.853,0.11101
738.708,0.09607
715.563,0.08706
692.419,0.08214
669.274,0.07109
646.129,0.07340
622.984,0.06481
599.839,0.07208