File: 01_Data/Luan_Panel/FTIR/IS/Luan_Panel_IS_T_220914_R6.dpt
7497.02,0.02474
7473.88,0.02052
7450.73,0.03386
7427.59,0.03439
7404.44,0.02580
7381.3,0.02461
7358.15,0.02363
7335.01,0.02359
7311.86,0.02343
7288.72,0.01926
7265.57,0.02937
7242.43,0.02944
7219.28,0.02595
7196.14,0.01992
7172.99,0.02043
7149.85,0.02158
7126.7,0.02857
7103.56,0.02363
7080.41,0.02731
7057.27,0.02272
7034.12,0.02393
7010.98,0.02664
6987.83,0.02364
6964.69,0.02736
6941.54,0.02401
6918.4,0.02234
6895.25,0.02947
6872.11,0.02859
6848.96,0.01915
6825.82,0.02351
6802.67,0.02175
6779.53,0.02122
6756.38,0.02488
6733.24,0.02625
6710.1,0.02560
6686.95,0.02346
6663.81,0.02371
6640.66,0.02245
6617.52,0.02576
6594.37,0.02535
6571.23,0.02232
6548.08,0.02314
6524.94,0.02110
6501.79,0.01865
6478.65,0.02305
6455.5,0.02456
6432.36,0.02442
6409.21,0.02258
6386.07,0.02289
6362.92,0.02131
6339.78,0.02287
6316.63,0.02008
6293.49,0.02029
6270.34,0.02146
6247.2,0.02283
6224.05,0.02173
6200.91,0.01950
6177.76,0.02258
6154.62,0.02225
6131.47,0.01995
6108.33,0.02060
6085.18,0.02172
6062.04,0.02350
6038.89,0.02254
6015.75,0.02093
5992.6,0.02249
5969.46,0.02274
5946.31,0.02057
5923.17,0.02249
5900.02,0.02172
5876.88,0.02042
5853.73,0.02225
5830.59,0.02089
5807.44,0.02126
5784.3,0.02121
5761.15,0.02425
5738.01,0.02274
5714.86,0.02404
5691.72,0.02213
5668.57,0.02296
5645.43,0.02229
5622.28,0.02432
5599.14,0.02323
5575.99,0.02077
5552.85,0.02210
5529.7,0.02284
5506.56,0.02250
5483.41,0.02183
5460.27,0.02199
5437.13,0.02283
5413.98,0.02124
5390.84,0.02275
5367.69,0.02265
5344.55,0.02193
5321.4,0.02259
5298.26,0.02443
5275.11,0.02363
5251.97,0.02075
5228.82,0.02246
5205.68,0.02374
5182.53,0.01986
5159.39,0.02194
5136.24,0.02384
5113.1,0.02188
5089.95,0.02319
5066.81,0.02293
5043.66,0.02244
5020.52,0.02212
4997.37,0.02337
4974.23,0.02371
4951.08,0.02255
4927.94,0.02251
4904.79,0.02273
4881.65,0.02199
4858.5,0.02255
4835.36,0.02292
4812.21,0.02287
4789.07,0.02276
4765.92,0.02252
4742.78,0.02061
4719.63,0.02206
4696.49,0.02317
4673.34,0.02235
4650.2,0.02262
4627.05,0.02261
4603.91,0.02223
4580.76,0.02356
4557.62,0.02301
4534.47,0.02233
4511.33,0.02162
4488.18,0.02229
4465.04,0.02290
4441.89,0.02282
4418.75,0.02290
4395.6,0.02255
4372.46,0.02178
4349.31,0.02224
4326.17,0.02216
4303.02,0.02232
4279.88,0.02310
4256.73,0.02255
4233.59,0.02306
4210.44,0.02287
4187.3,0.02297
4164.16,0.02238
4141.01,0.02266
4117.87,0.02279
4094.72,0.02280
4071.58,0.02268
4048.43,0.02287
4025.29,0.02270
4002.14,0.02262
3979,0.02240
3955.85,0.02276
3932.71,0.02368
3909.56,0.02340
3886.42,0.02250
3863.27,0.02280
3840.13,0.02332
3816.98,0.02241
3793.84,0.02293
3770.69,0.02288
3747.55,0.02342
3724.4,0.02250
3701.26,0.02276
3678.11,0.02318
3654.97,0.02196
3631.82,0.02150
3608.68,0.02230
3585.53,0.02211
3562.39,0.02141
3539.24,0.02095
3516.1,0.02127
3492.95,0.02228
3469.81,0.02081
3446.66,0.02096
3423.52,0.02109
3400.37,0.01997
3377.23,0.02112
3354.08,0.02011
3330.94,0.01998
3307.79,0.02080
3284.65,0.01985
3261.5,0.02123
3238.36,0.02128
3215.21,0.02095
3192.07,0.02101
3168.92,0.02131
3145.78,0.02114
3122.63,0.02104
3099.49,0.02135
3076.34,0.02045
3053.2,0.02059
3030.05,0.02069
3006.91,0.02054
2983.76,0.01992
2960.62,0.01938
2937.47,0.01961
2914.33,0.02068
2891.18,0.02025
2868.04,0.02052
2844.9,0.02091
2821.75,0.02148
2798.61,0.02137
2775.46,0.02126
2752.32,0.02108
2729.17,0.02140
2706.03,0.02120
2682.88,0.02123
2659.74,0.02119
2636.59,0.02138
2613.45,0.02159
2590.3,0.02172
2567.16,0.02167
2544.01,0.02151
2520.87,0.02085
2497.72,0.02160
2474.58,0.02140
2451.43,0.02130
2428.29,0.02131
2405.14,0.02109
2382,0.02124
2358.85,0.02155
2335.71,0.02124
2312.56,0.02118
2289.42,0.02143
2266.27,0.02121
2243.13,0.02106
2219.98,0.02136
2196.84,0.02158
2173.69,0.02128
2150.55,0.02124
2127.4,0.02123
2104.26,0.02120
2081.11,0.02132
2057.97,0.02128
2034.82,0.02125
2011.68,0.02115
1988.53,0.02107
1965.39,0.02101
1942.24,0.02127
1919.1,0.02076
1895.95,0.02053
1872.81,0.02091
1849.66,0.02060
1826.52,0.02061
1803.37,0.01991
1780.23,0.01960
1757.08,0.01778
1733.94,0.01994
1710.79,0.02079
1687.65,0.01935
1664.5,0.01870
1641.36,0.01854
1618.21,0.01930
1595.07,0.01900
1571.93,0.01878
1548.78,0.01821
1525.64,0.01868
1502.49,0.01893
1479.35,0.01853
1456.2,0.01880
1433.06,0.01884
1409.91,0.01836
1386.77,0.01830
1363.62,0.01787
1340.48,0.01760
1317.33,0.01772
1294.19,0.01736
1271.04,0.01928
1247.9,0.01999
1224.75,0.01969
1201.61,0.01892
1178.46,0.01777
1155.32,0.01760
1132.17,0.01780
1109.03,0.01872
1085.88,0.01737
1062.74,0.01944
1039.59,0.01988
1016.45,0.01919
993.302,0.02124
970.157,0.02038
947.013,0.02005
923.868,0.02008
900.723,0.01879
877.578,0.01930
854.433,0.01944
831.288,0.01836
808.143,0.01970
784.998,0.01907
761.853,0.01951
738.708,0.01812
715.563,0.01724
692.419,0.01768
669.274,0.01882
646.129,0.01653
622.984,0.01631
599.839,0.01724