File: 01_Data/Luan_Panel/FTIR/IS/Luan_Panel_IS_S_220914_R2.dpt
7497.02,0.86060
7473.88,0.83903
7450.73,0.81907
7427.59,0.82767
7404.44,0.82235
7381.3,0.80153
7358.15,0.79707
7335.01,0.79554
7311.86,0.79706
7288.72,0.78075
7265.57,0.78301
7242.43,0.78099
7219.28,0.77478
7196.14,0.76842
7172.99,0.76115
7149.85,0.75502
7126.7,0.73894
7103.56,0.72122
7080.41,0.71327
7057.27,0.70021
7034.12,0.67985
7010.98,0.66546
6987.83,0.65425
6964.69,0.64536
6941.54,0.64719
6918.4,0.63835
6895.25,0.63279
6872.11,0.63211
6848.96,0.63101
6825.82,0.63103
6802.67,0.62445
6779.53,0.62480
6756.38,0.61862
6733.24,0.61699
6710.1,0.62174
6686.95,0.61671
6663.81,0.62501
6640.66,0.62964
6617.52,0.63024
6594.37,0.63134
6571.23,0.64668
6548.08,0.64223
6524.94,0.63931
6501.79,0.64851
6478.65,0.65252
6455.5,0.65060
6432.36,0.65070
6409.21,0.65446
6386.07,0.65857
6362.92,0.65864
6339.78,0.66249
6316.63,0.66378
6293.49,0.66836
6270.34,0.67137
6247.2,0.68126
6224.05,0.68518
6200.91,0.68990
6177.76,0.69256
6154.62,0.69805
6131.47,0.70435
6108.33,0.70469
6085.18,0.70398
6062.04,0.70032
6038.89,0.69944
6015.75,0.69167
5992.6,0.68950
5969.46,0.68397
5946.31,0.68458
5923.17,0.68540
5900.02,0.68127
5876.88,0.67625
5853.73,0.67459
5830.59,0.67584
5807.44,0.67156
5784.3,0.67035
5761.15,0.67628
5738.01,0.67445
5714.86,0.67496
5691.72,0.67492
5668.57,0.67515
5645.43,0.67550
5622.28,0.67408
5599.14,0.67542
5575.99,0.67734
5552.85,0.67834
5529.7,0.67965
5506.56,0.68040
5483.41,0.68123
5460.27,0.68385
5437.13,0.68740
5413.98,0.68968
5390.84,0.69136
5367.69,0.69084
5344.55,0.68704
5321.4,0.67812
5298.26,0.65641
5275.11,0.62148
5251.97,0.58085
5228.82,0.55325
5205.68,0.54160
5182.53,0.53746
5159.39,0.54139
5136.24,0.54782
5113.1,0.54742
5089.95,0.54168
5066.81,0.54284
5043.66,0.55364
5020.52,0.56315
4997.37,0.56989
4974.23,0.57166
4951.08,0.56044
4927.94,0.54737
4904.79,0.53682
4881.65,0.52543
4858.5,0.51414
4835.36,0.50105
4812.21,0.49239
4789.07,0.48931
4765.92,0.48578
4742.78,0.48438
4719.63,0.48461
4696.49,0.48321
4673.34,0.48509
4650.2,0.48829
4627.05,0.49389
4603.91,0.50101
4580.76,0.50761
4557.62,0.50972
4534.47,0.51211
4511.33,0.51341
4488.18,0.50832
4465.04,0.49074
4441.89,0.46718
4418.75,0.44004
4395.6,0.43069
4372.46,0.44050
4349.31,0.44894
4326.17,0.44382
4303.02,0.43810
4279.88,0.43147
4256.73,0.43518
4233.59,0.43908
4210.44,0.43965
4187.3,0.43995
4164.16,0.44547
4141.01,0.44077
4117.87,0.42767
4094.72,0.41019
4071.58,0.38920
4048.43,0.36834
4025.29,0.35329
4002.14,0.35193
3979,0.35714
3955.85,0.36663
3932.71,0.37785
3909.56,0.38672
3886.42,0.39487
3863.27,0.40532
3840.13,0.41645
3816.98,0.42082
3793.84,0.42135
3770.69,0.41846
3747.55,0.40875
3724.4,0.39209
3701.26,0.36108
3678.11,0.29790
3654.97,0.21579
3631.82,0.15920
3608.68,0.12288
3585.53,0.09461
3562.39,0.07692
3539.24,0.06425
3516.1,0.05384
3492.95,0.04775
3469.81,0.04332
3446.66,0.04085
3423.52,0.04030
3400.37,0.04066
3377.23,0.04008
3354.08,0.04148
3330.94,0.04375
3307.79,0.04589
3284.65,0.04863
3261.5,0.05221
3238.36,0.05772
3215.21,0.06236
3192.07,0.06854
3168.92,0.07645
3145.78,0.08433
3122.63,0.09176
3099.49,0.09750
3076.34,0.10193
3053.2,0.10719
3030.05,0.10949
3006.91,0.10602
2983.76,0.09768
2960.62,0.07745
2937.47,0.06859
2914.33,0.06847
2891.18,0.07344
2868.04,0.07768
2844.9,0.08816
2821.75,0.11589
2798.61,0.13593
2775.46,0.14596
2752.32,0.15110
2729.17,0.15367
2706.03,0.16188
2682.88,0.17158
2659.74,0.17854
2636.59,0.18615
2613.45,0.19500
2590.3,0.20189
2567.16,0.20646
2544.01,0.21084
2520.87,0.21758
2497.72,0.22814
2474.58,0.23824
2451.43,0.24626
2428.29,0.25717
2405.14,0.27168
2382,0.28390
2358.85,0.29288
2335.71,0.30003
2312.56,0.30332
2289.42,0.30259
2266.27,0.29879
2243.13,0.29189
2219.98,0.29239
2196.84,0.28925
2173.69,0.27509
2150.55,0.26458
2127.4,0.26359
2104.26,0.26874
2081.11,0.27244
2057.97,0.26877
2034.82,0.27436
2011.68,0.28785
1988.53,0.29601
1965.39,0.29824
1942.24,0.30455
1919.1,0.31639
1895.95,0.31803
1872.81,0.31361
1849.66,0.30478
1826.52,0.28917
1803.37,0.26082
1780.23,0.21134
1757.08,0.10324
1733.94,0.07811
1710.79,0.08904
1687.65,0.05718
1664.5,0.04593
1641.36,0.05438
1618.21,0.05580
1595.07,0.05659
1571.93,0.08420
1548.78,0.08143
1525.64,0.06947
1502.49,0.05514
1479.35,0.06245
1456.2,0.05018
1433.06,0.05088
1409.91,0.05937
1386.77,0.05384
1363.62,0.05149
1340.48,0.05132
1317.33,0.05247
1294.19,0.05645
1271.04,0.04777
1247.9,0.04702
1224.75,0.04896
1201.61,0.05267
1178.46,0.04376
1155.32,0.04516
1132.17,0.03787
1109.03,0.04426
1085.88,0.04246
1062.74,0.05402
1039.59,0.06151
1016.45,0.07201
993.302,0.08069
970.157,0.10680
947.013,0.13166
923.868,0.13279
900.723,0.11486
877.578,0.12897
854.433,0.12819
831.288,0.12202
808.143,0.12024
784.998,0.11506
761.853,0.10439
738.708,0.09219
715.563,0.08198
692.419,0.07932
669.274,0.06991
646.129,0.06965
622.984,0.06424
599.839,0.06988