File: 01_Data/Luan_Panel/FTIR/IS/Luan_Panel_IS_S_220914_R6.dpt
7497.02,0.84545
7473.88,0.84356
7450.73,0.83040
7427.59,0.82396
7404.44,0.81724
7381.3,0.80365
7358.15,0.80843
7335.01,0.79275
7311.86,0.79597
7288.72,0.78860
7265.57,0.78642
7242.43,0.77840
7219.28,0.78235
7196.14,0.77483
7172.99,0.76716
7149.85,0.75964
7126.7,0.75833
7103.56,0.73532
7080.41,0.71803
7057.27,0.70301
7034.12,0.68636
7010.98,0.67376
6987.83,0.66904
6964.69,0.65639
6941.54,0.65552
6918.4,0.64817
6895.25,0.64350
6872.11,0.64487
6848.96,0.63645
6825.82,0.63870
6802.67,0.63433
6779.53,0.63256
6756.38,0.63198
6733.24,0.62565
6710.1,0.62196
6686.95,0.62489
6663.81,0.63091
6640.66,0.63140
6617.52,0.63541
6594.37,0.63761
6571.23,0.64535
6548.08,0.64377
6524.94,0.65019
6501.79,0.65541
6478.65,0.65932
6455.5,0.65478
6432.36,0.65938
6409.21,0.65957
6386.07,0.66338
6362.92,0.66417
6339.78,0.66785
6316.63,0.67093
6293.49,0.67556
6270.34,0.67967
6247.2,0.68447
6224.05,0.68994
6200.91,0.69538
6177.76,0.70002
6154.62,0.70847
6131.47,0.70751
6108.33,0.71182
6085.18,0.70871
6062.04,0.70689
6038.89,0.70138
6015.75,0.69903
5992.6,0.69403
5969.46,0.68885
5946.31,0.68976
5923.17,0.68873
5900.02,0.68453
5876.88,0.68069
5853.73,0.67983
5830.59,0.68237
5807.44,0.67721
5784.3,0.67431
5761.15,0.67906
5738.01,0.68130
5714.86,0.68342
5691.72,0.68141
5668.57,0.68068
5645.43,0.68231
5622.28,0.68291
5599.14,0.68128
5575.99,0.68437
5552.85,0.68694
5529.7,0.68773
5506.56,0.68938
5483.41,0.68763
5460.27,0.68932
5437.13,0.69500
5413.98,0.69686
5390.84,0.70018
5367.69,0.70137
5344.55,0.69902
5321.4,0.69220
5298.26,0.67472
5275.11,0.64631
5251.97,0.61039
5228.82,0.58634
5205.68,0.57326
5182.53,0.57183
5159.39,0.57428
5136.24,0.57854
5113.1,0.57385
5089.95,0.56434
5066.81,0.56234
5043.66,0.57196
5020.52,0.58054
4997.37,0.58687
4974.23,0.58452
4951.08,0.57149
4927.94,0.55629
4904.79,0.54277
4881.65,0.53133
4858.5,0.51892
4835.36,0.50713
4812.21,0.49674
4789.07,0.49254
4765.92,0.49104
4742.78,0.48934
4719.63,0.48978
4696.49,0.48891
4673.34,0.49026
4650.2,0.49383
4627.05,0.49834
4603.91,0.50603
4580.76,0.51292
4557.62,0.51498
4534.47,0.51699
4511.33,0.51971
4488.18,0.51428
4465.04,0.49524
4441.89,0.47010
4418.75,0.44433
4395.6,0.43362
4372.46,0.44293
4349.31,0.45189
4326.17,0.44774
4303.02,0.44181
4279.88,0.43577
4256.73,0.43967
4233.59,0.44368
4210.44,0.44376
4187.3,0.44507
4164.16,0.45173
4141.01,0.44877
4117.87,0.43483
4094.72,0.41677
4071.58,0.39585
4048.43,0.37376
4025.29,0.35869
4002.14,0.35662
3979,0.36348
3955.85,0.37351
3932.71,0.38359
3909.56,0.39377
3886.42,0.40332
3863.27,0.41338
3840.13,0.42628
3816.98,0.43155
3793.84,0.43361
3770.69,0.43226
3747.55,0.42577
3724.4,0.41235
3701.26,0.38477
3678.11,0.32878
3654.97,0.25014
3631.82,0.18920
3608.68,0.14238
3585.53,0.10576
3562.39,0.08257
3539.24,0.06725
3516.1,0.05647
3492.95,0.04846
3469.81,0.04361
3446.66,0.04180
3423.52,0.04095
3400.37,0.04098
3377.23,0.04063
3354.08,0.04186
3330.94,0.04419
3307.79,0.04680
3284.65,0.04996
3261.5,0.05377
3238.36,0.05907
3215.21,0.06421
3192.07,0.07055
3168.92,0.07864
3145.78,0.08796
3122.63,0.09512
3099.49,0.10244
3076.34,0.10559
3053.2,0.11127
3030.05,0.11454
3006.91,0.10891
2983.76,0.09926
2960.62,0.07781
2937.47,0.06865
2914.33,0.06868
2891.18,0.07374
2868.04,0.07832
2844.9,0.08864
2821.75,0.11743
2798.61,0.13823
2775.46,0.14811
2752.32,0.15334
2729.17,0.15552
2706.03,0.16440
2682.88,0.17390
2659.74,0.18139
2636.59,0.18858
2613.45,0.19723
2590.3,0.20420
2567.16,0.20965
2544.01,0.21346
2520.87,0.22037
2497.72,0.23096
2474.58,0.24150
2451.43,0.24931
2428.29,0.26094
2405.14,0.27532
2382,0.28818
2358.85,0.29859
2335.71,0.30662
2312.56,0.31009
2289.42,0.31006
2266.27,0.30683
2243.13,0.30007
2219.98,0.30210
2196.84,0.29964
2173.69,0.28535
2150.55,0.27492
2127.4,0.27365
2104.26,0.27914
2081.11,0.28310
2057.97,0.27864
2034.82,0.28441
2011.68,0.29798
1988.53,0.30606
1965.39,0.30739
1942.24,0.31331
1919.1,0.32590
1895.95,0.32733
1872.81,0.32234
1849.66,0.31273
1826.52,0.29604
1803.37,0.26673
1780.23,0.21252
1757.08,0.10204
1733.94,0.07974
1710.79,0.08993
1687.65,0.05720
1664.5,0.04639
1641.36,0.05626
1618.21,0.05632
1595.07,0.05703
1571.93,0.08551
1548.78,0.08309
1525.64,0.06955
1502.49,0.05498
1479.35,0.06255
1456.2,0.04976
1433.06,0.05108
1409.91,0.05938
1386.77,0.05381
1363.62,0.05138
1340.48,0.05107
1317.33,0.05263
1294.19,0.05686
1271.04,0.04788
1247.9,0.04689
1224.75,0.04851
1201.61,0.05294
1178.46,0.04379
1155.32,0.04528
1132.17,0.03817
1109.03,0.04394
1085.88,0.04204
1062.74,0.05394
1039.59,0.06205
1016.45,0.07204
993.302,0.08105
970.157,0.10716
947.013,0.13330
923.868,0.13502
900.723,0.11695
877.578,0.13161
854.433,0.13330
831.288,0.12564
808.143,0.12566
784.998,0.12165
761.853,0.10991
738.708,0.09684
715.563,0.08489
692.419,0.08228
669.274,0.07117
646.129,0.07224
622.984,0.06545
599.839,0.06942