File: 01_Data/Luan_Panel/FTIR/IS/Luan_Panel_IS_S_220914_R7.dpt
7497.02,0.85470
7473.88,0.85125
7450.73,0.84350
7427.59,0.83475
7404.44,0.82508
7381.3,0.82094
7358.15,0.80829
7335.01,0.79650
7311.86,0.78996
7288.72,0.79717
7265.57,0.79128
7242.43,0.78259
7219.28,0.78827
7196.14,0.77841
7172.99,0.77772
7149.85,0.76452
7126.7,0.75251
7103.56,0.74199
7080.41,0.72230
7057.27,0.70919
7034.12,0.69164
7010.98,0.67290
6987.83,0.66196
6964.69,0.65469
6941.54,0.64653
6918.4,0.64899
6895.25,0.64663
6872.11,0.63966
6848.96,0.64342
6825.82,0.63997
6802.67,0.63722
6779.53,0.62965
6756.38,0.62745
6733.24,0.62422
6710.1,0.62500
6686.95,0.62750
6663.81,0.62869
6640.66,0.63236
6617.52,0.63695
6594.37,0.64268
6571.23,0.64765
6548.08,0.64773
6524.94,0.65430
6501.79,0.65638
6478.65,0.65568
6455.5,0.66038
6432.36,0.66102
6409.21,0.66290
6386.07,0.66312
6362.92,0.66649
6339.78,0.66727
6316.63,0.67030
6293.49,0.67398
6270.34,0.68210
6247.2,0.68774
6224.05,0.69096
6200.91,0.69355
6177.76,0.70220
6154.62,0.70285
6131.47,0.70994
6108.33,0.71305
6085.18,0.70999
6062.04,0.70621
6038.89,0.70533
6015.75,0.69844
5992.6,0.69505
5969.46,0.68814
5946.31,0.68840
5923.17,0.68925
5900.02,0.68541
5876.88,0.68207
5853.73,0.67915
5830.59,0.67743
5807.44,0.67452
5784.3,0.67374
5761.15,0.67817
5738.01,0.67898
5714.86,0.67961
5691.72,0.68113
5668.57,0.68102
5645.43,0.68082
5622.28,0.68173
5599.14,0.68259
5575.99,0.68358
5552.85,0.68457
5529.7,0.68700
5506.56,0.68604
5483.41,0.68700
5460.27,0.69081
5437.13,0.69387
5413.98,0.69799
5390.84,0.70049
5367.69,0.69903
5344.55,0.69566
5321.4,0.69227
5298.26,0.67642
5275.11,0.64821
5251.97,0.61411
5228.82,0.59031
5205.68,0.57962
5182.53,0.57515
5159.39,0.57770
5136.24,0.58047
5113.1,0.57724
5089.95,0.56623
5066.81,0.56315
5043.66,0.57302
5020.52,0.58102
4997.37,0.58557
4974.23,0.58378
4951.08,0.57040
4927.94,0.55465
4904.79,0.54346
4881.65,0.53131
4858.5,0.51955
4835.36,0.50599
4812.21,0.49612
4789.07,0.49199
4765.92,0.48924
4742.78,0.48871
4719.63,0.48752
4696.49,0.48834
4673.34,0.48885
4650.2,0.49171
4627.05,0.49616
4603.91,0.50478
4580.76,0.51087
4557.62,0.51366
4534.47,0.51572
4511.33,0.51676
4488.18,0.51346
4465.04,0.49455
4441.89,0.46995
4418.75,0.44380
4395.6,0.43325
4372.46,0.44264
4349.31,0.45091
4326.17,0.44723
4303.02,0.44127
4279.88,0.43443
4256.73,0.43948
4233.59,0.44325
4210.44,0.44374
4187.3,0.44462
4164.16,0.45119
4141.01,0.44722
4117.87,0.43471
4094.72,0.41622
4071.58,0.39625
4048.43,0.37378
4025.29,0.35771
4002.14,0.35678
3979,0.36330
3955.85,0.37259
3932.71,0.38367
3909.56,0.39449
3886.42,0.40357
3863.27,0.41329
3840.13,0.42622
3816.98,0.43278
3793.84,0.43468
3770.69,0.43393
3747.55,0.42738
3724.4,0.41395
3701.26,0.38727
3678.11,0.33295
3654.97,0.25387
3631.82,0.19313
3608.68,0.14501
3585.53,0.10732
3562.39,0.08358
3539.24,0.06819
3516.1,0.05671
3492.95,0.04870
3469.81,0.04396
3446.66,0.04211
3423.52,0.04040
3400.37,0.04044
3377.23,0.04070
3354.08,0.04102
3330.94,0.04382
3307.79,0.04734
3284.65,0.05001
3261.5,0.05461
3238.36,0.05881
3215.21,0.06487
3192.07,0.07087
3168.92,0.07902
3145.78,0.08809
3122.63,0.09546
3099.49,0.10239
3076.34,0.10666
3053.2,0.11119
3030.05,0.11440
3006.91,0.10918
2983.76,0.09941
2960.62,0.07761
2937.47,0.06858
2914.33,0.06887
2891.18,0.07381
2868.04,0.07811
2844.9,0.08866
2821.75,0.11738
2798.61,0.13796
2775.46,0.14851
2752.32,0.15362
2729.17,0.15601
2706.03,0.16452
2682.88,0.17426
2659.74,0.18173
2636.59,0.18883
2613.45,0.19737
2590.3,0.20394
2567.16,0.20942
2544.01,0.21319
2520.87,0.22020
2497.72,0.23067
2474.58,0.24152
2451.43,0.24937
2428.29,0.26046
2405.14,0.27515
2382,0.28765
2358.85,0.29855
2335.71,0.30646
2312.56,0.31026
2289.42,0.31011
2266.27,0.30743
2243.13,0.30042
2219.98,0.30267
2196.84,0.29991
2173.69,0.28550
2150.55,0.27554
2127.4,0.27439
2104.26,0.28023
2081.11,0.28374
2057.97,0.27904
2034.82,0.28504
2011.68,0.29821
1988.53,0.30615
1965.39,0.30783
1942.24,0.31364
1919.1,0.32587
1895.95,0.32761
1872.81,0.32274
1849.66,0.31315
1826.52,0.29656
1803.37,0.26672
1780.23,0.21239
1757.08,0.10193
1733.94,0.07944
1710.79,0.08964
1687.65,0.05708
1664.5,0.04693
1641.36,0.05664
1618.21,0.05645
1595.07,0.05696
1571.93,0.08548
1548.78,0.08314
1525.64,0.06995
1502.49,0.05541
1479.35,0.06265
1456.2,0.04939
1433.06,0.05093
1409.91,0.05940
1386.77,0.05370
1363.62,0.05137
1340.48,0.05114
1317.33,0.05234
1294.19,0.05696
1271.04,0.04791
1247.9,0.04732
1224.75,0.04849
1201.61,0.05321
1178.46,0.04358
1155.32,0.04533
1132.17,0.03756
1109.03,0.04393
1085.88,0.04190
1062.74,0.05375
1039.59,0.06093
1016.45,0.07238
993.302,0.08095
970.157,0.10667
947.013,0.13328
923.868,0.13483
900.723,0.11747
877.578,0.13219
854.433,0.13253
831.288,0.12667
808.143,0.12741
784.998,0.12215
761.853,0.11001
738.708,0.09720
715.563,0.08639
692.419,0.08170
669.274,0.07146
646.129,0.07285
622.984,0.06736
599.839,0.06841