File: 01_Data/Luan_Panel/FTIR/IS/Luan_Panel_IS_S_220914_R3.dpt
7497.02,0.84840
7473.88,0.84805
7450.73,0.82750
7427.59,0.81522
7404.44,0.82279
7381.3,0.81709
7358.15,0.80431
7335.01,0.79855
7311.86,0.78930
7288.72,0.77456
7265.57,0.78614
7242.43,0.77398
7219.28,0.77821
7196.14,0.77542
7172.99,0.77537
7149.85,0.75816
7126.7,0.74066
7103.56,0.72935
7080.41,0.71996
7057.27,0.69631
7034.12,0.68889
7010.98,0.67466
6987.83,0.66208
6964.69,0.64664
6941.54,0.64709
6918.4,0.64359
6895.25,0.63904
6872.11,0.63383
6848.96,0.63676
6825.82,0.63439
6802.67,0.63032
6779.53,0.62925
6756.38,0.61779
6733.24,0.62036
6710.1,0.62878
6686.95,0.62274
6663.81,0.62403
6640.66,0.62914
6617.52,0.63637
6594.37,0.63562
6571.23,0.63882
6548.08,0.64452
6524.94,0.64613
6501.79,0.65086
6478.65,0.65266
6455.5,0.65820
6432.36,0.65739
6409.21,0.66052
6386.07,0.66500
6362.92,0.66134
6339.78,0.66635
6316.63,0.66910
6293.49,0.67137
6270.34,0.67756
6247.2,0.67891
6224.05,0.68655
6200.91,0.69392
6177.76,0.69617
6154.62,0.69946
6131.47,0.70646
6108.33,0.70865
6085.18,0.70785
6062.04,0.70412
6038.89,0.70159
6015.75,0.69599
5992.6,0.68998
5969.46,0.68434
5946.31,0.68657
5923.17,0.68732
5900.02,0.67948
5876.88,0.67724
5853.73,0.67910
5830.59,0.67614
5807.44,0.67215
5784.3,0.67257
5761.15,0.67547
5738.01,0.67934
5714.86,0.67800
5691.72,0.67756
5668.57,0.67769
5645.43,0.67658
5622.28,0.67916
5599.14,0.67662
5575.99,0.67811
5552.85,0.68370
5529.7,0.68347
5506.56,0.68402
5483.41,0.68895
5460.27,0.68615
5437.13,0.69187
5413.98,0.69231
5390.84,0.69879
5367.69,0.69440
5344.55,0.69047
5321.4,0.68340
5298.26,0.66477
5275.11,0.63075
5251.97,0.59059
5228.82,0.56480
5205.68,0.55050
5182.53,0.54891
5159.39,0.55267
5136.24,0.55730
5113.1,0.55873
5089.95,0.54931
5066.81,0.54984
5043.66,0.55973
5020.52,0.56991
4997.37,0.57671
4974.23,0.57563
4951.08,0.56586
4927.94,0.55038
4904.79,0.54040
4881.65,0.52787
4858.5,0.51535
4835.36,0.50433
4812.21,0.49464
4789.07,0.49010
4765.92,0.48721
4742.78,0.48588
4719.63,0.48621
4696.49,0.48638
4673.34,0.48837
4650.2,0.49063
4627.05,0.49563
4603.91,0.50377
4580.76,0.50876
4557.62,0.51214
4534.47,0.51521
4511.33,0.51656
4488.18,0.51158
4465.04,0.49281
4441.89,0.46798
4418.75,0.44226
4395.6,0.43296
4372.46,0.44215
4349.31,0.45007
4326.17,0.44532
4303.02,0.44053
4279.88,0.43273
4256.73,0.43743
4233.59,0.44051
4210.44,0.44141
4187.3,0.44118
4164.16,0.44839
4141.01,0.44430
4117.87,0.43067
4094.72,0.41253
4071.58,0.39280
4048.43,0.37124
4025.29,0.35523
4002.14,0.35341
3979,0.36018
3955.85,0.37037
3932.71,0.38006
3909.56,0.39002
3886.42,0.39835
3863.27,0.40851
3840.13,0.42004
3816.98,0.42542
3793.84,0.42575
3770.69,0.42269
3747.55,0.41491
3724.4,0.39999
3701.26,0.36916
3678.11,0.30837
3654.97,0.22694
3631.82,0.16939
3608.68,0.12988
3585.53,0.09889
3562.39,0.07764
3539.24,0.06487
3516.1,0.05515
3492.95,0.04753
3469.81,0.04320
3446.66,0.04089
3423.52,0.04039
3400.37,0.04066
3377.23,0.04016
3354.08,0.04105
3330.94,0.04414
3307.79,0.04678
3284.65,0.04970
3261.5,0.05375
3238.36,0.05859
3215.21,0.06315
3192.07,0.06902
3168.92,0.07695
3145.78,0.08521
3122.63,0.09259
3099.49,0.09884
3076.34,0.10403
3053.2,0.10837
3030.05,0.11212
3006.91,0.10702
2983.76,0.09833
2960.62,0.07708
2937.47,0.06808
2914.33,0.06905
2891.18,0.07367
2868.04,0.07851
2844.9,0.08829
2821.75,0.11673
2798.61,0.13677
2775.46,0.14728
2752.32,0.15157
2729.17,0.15466
2706.03,0.16263
2682.88,0.17254
2659.74,0.17995
2636.59,0.18712
2613.45,0.19600
2590.3,0.20263
2567.16,0.20826
2544.01,0.21198
2520.87,0.21898
2497.72,0.22950
2474.58,0.23970
2451.43,0.24764
2428.29,0.25923
2405.14,0.27325
2382,0.28538
2358.85,0.29512
2335.71,0.30267
2312.56,0.30645
2289.42,0.30552
2266.27,0.30222
2243.13,0.29542
2219.98,0.29627
2196.84,0.29315
2173.69,0.27903
2150.55,0.26846
2127.4,0.26753
2104.26,0.27267
2081.11,0.27641
2057.97,0.27261
2034.82,0.27789
2011.68,0.29160
1988.53,0.30004
1965.39,0.30183
1942.24,0.30795
1919.1,0.32003
1895.95,0.32199
1872.81,0.31715
1849.66,0.30827
1826.52,0.29187
1803.37,0.26282
1780.23,0.21241
1757.08,0.10294
1733.94,0.07828
1710.79,0.08936
1687.65,0.05738
1664.5,0.04603
1641.36,0.05531
1618.21,0.05574
1595.07,0.05685
1571.93,0.08413
1548.78,0.08199
1525.64,0.06944
1502.49,0.05510
1479.35,0.06262
1456.2,0.04959
1433.06,0.05090
1409.91,0.05933
1386.77,0.05364
1363.62,0.05140
1340.48,0.05168
1317.33,0.05278
1294.19,0.05652
1271.04,0.04819
1247.9,0.04711
1224.75,0.04865
1201.61,0.05302
1178.46,0.04380
1155.32,0.04556
1132.17,0.03765
1109.03,0.04421
1085.88,0.04131
1062.74,0.05356
1039.59,0.06147
1016.45,0.07258
993.302,0.08098
970.157,0.10661
947.013,0.13212
923.868,0.13395
900.723,0.11600
877.578,0.13069
854.433,0.12972
831.288,0.12350
808.143,0.12292
784.998,0.11765
761.853,0.10578
738.708,0.09322
715.563,0.08245
692.419,0.08016
669.274,0.07130
646.129,0.07028
622.984,0.06400
599.839,0.06828