File: 01_Data/Luan_Panel/FTIR/IS/Luan_Panel_IS_T_220914_R4.dpt
7497.02,0.01995
7473.88,0.01831
7450.73,0.02996
7427.59,0.01889
7404.44,0.02128
7381.3,0.02404
7358.15,0.02247
7335.01,0.02214
7311.86,0.03537
7288.72,0.02494
7265.57,0.02250
7242.43,0.02106
7219.28,0.02653
7196.14,0.02107
7172.99,0.02623
7149.85,0.02692
7126.7,0.02682
7103.56,0.02903
7080.41,0.02598
7057.27,0.02219
7034.12,0.03045
7010.98,0.02800
6987.83,0.02577
6964.69,0.02979
6941.54,0.02563
6918.4,0.02096
6895.25,0.01721
6872.11,0.02216
6848.96,0.02282
6825.82,0.02474
6802.67,0.02802
6779.53,0.02454
6756.38,0.02553
6733.24,0.02303
6710.1,0.02036
6686.95,0.02358
6663.81,0.02062
6640.66,0.01988
6617.52,0.01905
6594.37,0.01995
6571.23,0.02477
6548.08,0.02759
6524.94,0.02053
6501.79,0.02246
6478.65,0.01940
6455.5,0.02194
6432.36,0.02217
6409.21,0.02184
6386.07,0.02388
6362.92,0.02343
6339.78,0.02476
6316.63,0.02101
6293.49,0.02531
6270.34,0.02283
6247.2,0.02123
6224.05,0.02364
6200.91,0.02371
6177.76,0.01916
6154.62,0.02228
6131.47,0.02283
6108.33,0.02298
6085.18,0.02070
6062.04,0.02109
6038.89,0.02193
6015.75,0.02311
5992.6,0.02291
5969.46,0.02300
5946.31,0.02042
5923.17,0.02249
5900.02,0.01777
5876.88,0.02015
5853.73,0.02212
5830.59,0.02268
5807.44,0.02103
5784.3,0.02297
5761.15,0.02157
5738.01,0.02053
5714.86,0.02222
5691.72,0.02086
5668.57,0.02436
5645.43,0.02237
5622.28,0.02185
5599.14,0.02150
5575.99,0.02098
5552.85,0.02322
5529.7,0.02110
5506.56,0.02315
5483.41,0.02240
5460.27,0.02390
5437.13,0.02132
5413.98,0.02254
5390.84,0.02173
5367.69,0.02209
5344.55,0.02231
5321.4,0.02293
5298.26,0.02207
5275.11,0.02152
5251.97,0.02152
5228.82,0.02257
5205.68,0.02246
5182.53,0.02156
5159.39,0.02260
5136.24,0.02327
5113.1,0.02041
5089.95,0.02170
5066.81,0.02187
5043.66,0.02128
5020.52,0.02254
4997.37,0.02139
4974.23,0.02150
4951.08,0.02339
4927.94,0.02221
4904.79,0.02255
4881.65,0.02156
4858.5,0.02271
4835.36,0.02232
4812.21,0.02199
4789.07,0.02258
4765.92,0.02244
4742.78,0.02208
4719.63,0.02249
4696.49,0.02262
4673.34,0.02205
4650.2,0.02267
4627.05,0.02273
4603.91,0.02131
4580.76,0.02113
4557.62,0.02183
4534.47,0.02264
4511.33,0.02265
4488.18,0.02223
4465.04,0.02132
4441.89,0.02257
4418.75,0.02309
4395.6,0.02209
4372.46,0.02283
4349.31,0.02260
4326.17,0.02188
4303.02,0.02172
4279.88,0.02234
4256.73,0.02287
4233.59,0.02218
4210.44,0.02248
4187.3,0.02275
4164.16,0.02258
4141.01,0.02292
4117.87,0.02311
4094.72,0.02277
4071.58,0.02262
4048.43,0.02244
4025.29,0.02250
4002.14,0.02221
3979,0.02226
3955.85,0.02309
3932.71,0.02265
3909.56,0.02230
3886.42,0.02262
3863.27,0.02298
3840.13,0.02276
3816.98,0.02239
3793.84,0.02177
3770.69,0.02245
3747.55,0.02279
3724.4,0.02299
3701.26,0.02238
3678.11,0.02267
3654.97,0.02311
3631.82,0.02182
3608.68,0.02278
3585.53,0.02145
3562.39,0.02206
3539.24,0.02243
3516.1,0.02198
3492.95,0.02155
3469.81,0.02133
3446.66,0.02108
3423.52,0.02102
3400.37,0.02111
3377.23,0.02049
3354.08,0.02021
3330.94,0.02099
3307.79,0.02049
3284.65,0.02040
3261.5,0.02039
3238.36,0.02071
3215.21,0.02087
3192.07,0.02136
3168.92,0.02129
3145.78,0.02086
3122.63,0.02094
3099.49,0.02092
3076.34,0.02064
3053.2,0.02011
3030.05,0.02060
3006.91,0.02089
2983.76,0.02035
2960.62,0.01907
2937.47,0.01966
2914.33,0.02047
2891.18,0.02084
2868.04,0.02063
2844.9,0.02129
2821.75,0.02161
2798.61,0.02122
2775.46,0.02144
2752.32,0.02113
2729.17,0.02125
2706.03,0.02123
2682.88,0.02080
2659.74,0.02128
2636.59,0.02114
2613.45,0.02122
2590.3,0.02107
2567.16,0.02090
2544.01,0.02121
2520.87,0.02156
2497.72,0.02111
2474.58,0.02139
2451.43,0.02106
2428.29,0.02131
2405.14,0.02116
2382,0.02114
2358.85,0.02169
2335.71,0.02113
2312.56,0.02104
2289.42,0.02186
2266.27,0.02111
2243.13,0.02081
2219.98,0.02102
2196.84,0.02107
2173.69,0.02102
2150.55,0.02132
2127.4,0.02099
2104.26,0.02100
2081.11,0.02141
2057.97,0.02091
2034.82,0.02089
2011.68,0.02094
1988.53,0.02110
1965.39,0.02080
1942.24,0.02096
1919.1,0.02108
1895.95,0.02056
1872.81,0.02036
1849.66,0.02042
1826.52,0.01991
1803.37,0.01975
1780.23,0.01922
1757.08,0.01746
1733.94,0.01928
1710.79,0.02042
1687.65,0.01942
1664.5,0.01843
1641.36,0.01850
1618.21,0.01942
1595.07,0.01887
1571.93,0.01815
1548.78,0.01789
1525.64,0.01852
1502.49,0.01849
1479.35,0.01876
1456.2,0.01865
1433.06,0.01853
1409.91,0.01846
1386.77,0.01827
1363.62,0.01818
1340.48,0.01754
1317.33,0.01676
1294.19,0.01729
1271.04,0.01946
1247.9,0.01997
1224.75,0.01919
1201.61,0.01838
1178.46,0.01790
1155.32,0.01728
1132.17,0.01775
1109.03,0.01807
1085.88,0.01808
1062.74,0.01927
1039.59,0.01957
1016.45,0.01957
993.302,0.02099
970.157,0.01990
947.013,0.02002
923.868,0.01937
900.723,0.01912
877.578,0.01951
854.433,0.01894
831.288,0.01961
808.143,0.01847
784.998,0.01924
761.853,0.01804
738.708,0.01862
715.563,0.01905
692.419,0.01798
669.274,0.01832
646.129,0.01676
622.984,0.01651
599.839,0.01453