File: 01_Data/PLA_3D_Printer_Filament/STA/N2/30K_min/PLA_STA_N2_30KData_220504_R2.csv
##Temp./Â°C,Time/min,Mass loss(subtr.2)/mg,DSC(subtr.2)/(mW/mg),Sensit./(uV/mW)
48.625,10.00667,-0.01196,0.006451935,1.075
51.225,10.8268,-0.01131185,0.15041,1.07385
53.825,11.0398,-0.01209277,0.25855,1.0727
56.425,11.20067,-0.01123471,0.34879,1.07154
59.025,11.33827,-0.01096689,0.42602,1.07037
61.625,11.46193,-0.01085362,0.50718,1.06919
64.225,11.57691,-0.01082954,0.63702,1.068
66.825,11.6854,-0.010262,0.89293,1.06681
69.425,11.79005,-0.01038989,0.90189,1.06561
72.025,11.8909,-0.009641482,0.8674,1.0644
74.625,11.98956,-0.01010361,0.85254,1.06319
77.225,12.08576,-0.01185336,0.84865,1.06197
79.825,12.18056,-0.01136861,0.85172,1.06074
82.425,12.27367,-0.009768384,0.85357,1.0595
85.025,12.3654,-0.01040814,0.84878,1.05826
87.625,12.4565,-0.01015754,0.82895,1.05701
90.225,12.5456,-0.01131496,0.78503,1.05575
92.825,12.63492,-0.01025886,0.71906,1.05449
95.425,12.7233,-0.00832907,0.64352,1.05322
98.025,12.81131,-0.009620665,0.57291,1.05194
100.625,12.89935,-0.00964903,0.53542,1.05066
103.225,12.98658,-0.009646362,0.54726,1.04937
105.825,13.07405,-0.00963987,0.60534,1.04807
108.425,13.1609,-0.0109708,0.69266,1.04677
111.025,13.24821,-0.01100491,0.77486,1.04546
113.625,13.33486,-0.01096374,0.83226,1.04414
116.225,13.4217,-0.01096993,0.88067,1.04282
118.825,13.50813,-0.009648258,0.92619,1.04149
121.425,13.59423,-0.01173167,0.96478,1.04015
124.025,13.6803,-0.01097,0.99788,1.03881
126.625,13.7656,-0.01097007,1.02553,1.03747
129.225,13.851,-0.01096871,1.05478,1.03611
131.825,13.9357,-0.01097,1.0798,1.03475
134.425,14.0203,-0.01094547,1.10208,1.03339
137.025,14.10445,-0.01079863,1.12018,1.03202
139.625,14.1883,-0.01095767,1.14256,1.03064
142.225,14.2717,-0.01097,1.16375,1.02926
144.825,14.35455,-0.01096821,1.18553,1.02787
147.425,14.438,-0.009673246,1.20398,1.02647
150.025,14.5206,-0.01162998,1.21731,1.02508
152.625,14.6028,-0.0129401,1.2508,1.02367
155.225,14.6853,-0.01170637,1.33109,1.02226
157.825,14.7675,-0.01162,1.47713,1.02084
160.425,14.84937,-0.01063573,1.72343,1.01942
163.025,14.93188,-0.01149473,2.10053,1.01799
165.625,15.01399,-0.01196657,2.43472,1.01656
168.225,15.096,-0.01064001,2.27548,1.01512
170.825,15.17774,-0.01064,1.90055,1.01368
173.425,15.25888,-0.01064027,1.66111,1.01223
176.025,15.33971,-0.01196,1.51915,1.01078
178.625,15.4202,-0.01196,1.43213,1.00932
181.225,15.4998,-0.01196,1.38492,1.00785
183.825,15.58048,-0.01196001,1.35763,1.00638
186.425,15.6601,-0.01327003,1.34359,1.00491
189.025,15.73984,-0.01327,1.33476,1.00343
191.625,15.8194,-0.01327003,1.33091,1.00195
194.225,15.89882,-0.01458009,1.33268,1.00046
196.825,15.97831,-0.01432985,1.33586,0.99897
199.425,16.0575,-0.01348419,1.34011,0.99747
202.025,16.13635,-0.01328,1.34719,0.99596
204.625,16.21568,-0.01327982,1.3504,0.99446
207.225,16.29468,-0.01557344,1.35512,0.99294
209.825,16.3737,-0.01557,1.36,0.99143
212.425,16.4525,-0.01556847,1.36256,0.98991
215.025,16.5314,-0.0159,1.36913,0.98838
217.625,16.61027,-0.01589998,1.37393,0.98685
220.225,16.68906,-0.017219,1.37707,0.98531
222.825,16.76772,-0.01722,1.3836,0.98377
225.425,16.84637,-0.01689994,1.38794,0.98223
228.025,16.92494,-0.01689,1.39143,0.98068
230.625,17.00362,-0.01688992,1.39375,0.97913
233.225,17.0822,-0.01854175,1.39958,0.97757
235.825,17.16084,-0.01854,1.40246,0.97601
238.425,17.2392,-0.01919567,1.40665,0.97445
241.025,17.31781,-0.0192,1.41161,0.97288
243.625,17.3964,-0.0192,1.41076,0.97131
246.225,17.47481,-0.01920034,1.41334,0.96973
248.825,17.55323,-0.02084,1.41907,0.96815
251.425,17.63164,-0.02084,1.41921,0.96656
254.025,17.7102,-0.02084,1.42161,0.96497
256.625,17.7887,-0.02084,1.42053,0.96338
259.225,17.86711,-0.02017095,1.42723,0.96178
261.825,17.9453,-0.02149464,1.42702,0.96018
264.425,18.02368,-0.0215,1.42778,0.95858
267.025,18.10213,-0.02169125,1.4304,0.95697
269.625,18.18045,-0.02216,1.43124,0.95536
272.225,18.259,-0.02212484,1.43302,0.95374
274.825,18.33738,-0.02347,1.43537,0.95212
277.425,18.41585,-0.02347001,1.43982,0.9505
280.025,18.4943,-0.02313988,1.44106,0.94887
282.625,18.57271,-0.02314,1.44706,0.94724
285.225,18.6512,-0.02313633,1.44754,0.94561
287.825,18.72983,-0.02446,1.45165,0.94397
290.425,18.80811,-0.02556153,1.45677,0.94233
293.025,18.88683,-0.02578,1.45825,0.94069
295.625,18.96544,-0.02578,1.46425,0.93904
298.225,19.04424,-0.0271041,1.47455,0.93739
300.825,19.12283,-0.02841025,1.48043,0.93573
303.425,19.20155,-0.02972958,1.49514,0.93408
306.025,19.2803,-0.03104091,1.51034,0.93241
308.625,19.35906,-0.0338937,1.5283,0.93075
311.225,19.43785,-0.03597678,1.53727,0.92908
313.825,19.51665,-0.03733192,1.53262,0.92741
316.425,19.5956,-0.03912678,1.5244,0.92574
319.025,19.67437,-0.04222369,1.52132,0.92406
321.625,19.7533,-0.04640005,1.52875,0.92238
324.225,19.83233,-0.0510194,1.55156,0.9207
326.825,19.91142,-0.05563849,1.58742,0.91901
329.425,19.9905,-0.06175439,1.63686,0.91732
332.025,20.0696,-0.06859579,1.70167,0.91563
334.625,20.14885,-0.07751326,1.7804,0.91393
337.225,20.2283,-0.08751986,1.86833,0.91223
339.825,20.30782,-0.1006,1.97244,0.91053
342.425,20.38729,-0.11561,2.08672,0.90883
345.025,20.46696,-0.13304,2.23072,0.90712
347.625,20.5467,-0.15498,2.40515,0.90541
350.225,20.62654,-0.18028,2.61487,0.90369
352.825,20.70674,-0.21139,2.83505,0.90198
355.425,20.78689,-0.24855,3.09708,0.90026
358.025,20.867,-0.29161,3.45421,0.89854
360.625,20.94789,-0.34562,3.94064,0.89681
363.225,21.0288,-0.40751,4.29643,0.89509
365.825,21.1102,-0.49628,4.64733,0.89336
368.425,21.19155,-0.61557,5.17889,0.89162
371.025,21.2732,-0.75673,6.11519,0.88989
373.625,21.35539,-0.92223,7.19988,0.88815
376.225,21.4377,-1.11551,8.44525,0.88641
378.825,21.52091,-1.35802,10.0123,0.88467
381.425,21.60485,-1.59318,11.33625,0.88292
384.025,21.68894,-1.86292,12.3809,0.88117
386.625,21.7735,-2.15735,13.0281,0.87942
389.225,21.85741,-2.45032,13.1909,0.87767
391.825,21.94081,-2.73409,12.82809,0.87591
394.425,22.02295,-2.99797,11.85953,0.87415
397.025,22.10398,-3.2287,10.17248,0.87239
399.625,22.18323,-3.40842,7.7525,0.87063
402.225,22.26125,-3.53215,5.05118,0.86886
404.825,22.33845,-3.60729,2.90603,0.86709
407.425,22.41524,-3.64427,1.61412,0.86532
410.025,22.4923,-3.66393,0.89401,0.86355
412.625,22.56981,-3.67815,0.49788,0.86177
415.225,22.6477,-3.68782,0.27196,0.85999
417.825,22.72619,-3.69396,0.14412,0.85821
420.425,22.80535,-3.6998,0.06721341,0.85643
423.025,22.88469,-3.70394,0.02369375,0.85464
425.625,22.96459,-3.70911,-0.001742568,0.85286
428.225,23.04464,-3.71413,-0.01824782,0.85107
430.825,23.12487,-3.71908,-0.02271244,0.84928
433.425,23.2053,-3.72315,-0.02637287,0.84748
436.025,23.28596,-3.72836,-0.02526913,0.84568
438.625,23.36702,-3.73341,-0.02019001,0.84389
441.225,23.44771,-3.73789,-0.0160502,0.84209
443.825,23.52931,-3.74247,-0.01443089,0.84028
446.425,23.61066,-3.74912,-0.01042455,0.83848
449.025,23.69236,-3.75415,-0.01094116,0.83667
451.625,23.77394,-3.75872,-0.0071407,0.83486
454.225,23.8558,-3.76457,-0.007446316,0.83305
456.825,23.93769,-3.76895,-0.00525034,0.83123
459.425,24.01921,-3.77431,-0.004439905,0.82942
462.025,24.10142,-3.7778,-0.000219029,0.8276
464.625,24.18375,-3.78372,0.00141721,0.82578
467.225,24.26599,-3.79108,0.0071146,0.82396
469.825,24.34838,-3.79491,0.00696906,0.82213
472.425,24.43081,-3.80001,0.01232334,0.82031
475.025,24.5135,-3.80656,0.01770014,0.81848
477.625,24.59608,-3.81268,0.02070022,0.81665
480.225,24.67895,-3.81835,0.01877622,0.81482
482.825,24.76226,-3.82249,0.0163753,0.81298
485.425,24.84509,-3.82893,0.01591629,0.81115
488.025,24.928,-3.83336,0.00852386,0.80931
490.625,25.011,-3.84005,0.001738982,0.80747
493.225,25.0942,-3.84294,-0.004085521,0.80563
495.825,25.17739,-3.84747,-0.01357096,0.80378
498.425,25.26067,-3.8501,-0.01963178,0.80194
501.025,25.34389,-3.85264,-0.03190848,0.80009
503.625,25.42715,-3.85404,-0.03202568,0.79824
506.225,25.5104,-3.85535,-0.03943319,0.79639
508.825,25.59378,-3.85667,-0.04227266,0.79454
511.425,25.67729,-3.8574,-0.03815198,0.79268
514.025,25.76101,-3.85798,-0.03446791,0.79083
516.625,25.84455,-3.85915,-0.01980167,0.78897
519.225,25.928,-3.85929,0.01099588,0.78711
521.825,26.01151,-3.85843,0.05083082,0.78524
524.425,26.095,-3.8593,0.08487436,0.78338
527.025,26.17889,-3.8593,0.11391,0.78151
529.625,26.26271,-3.86064,0.13286,0.77965
532.225,26.34675,-3.86062,0.14936,0.77778
534.825,26.43073,-3.86325,0.15979,0.77591
537.425,26.51469,-3.86062,0.17487,0.77403
540.025,26.59885,-3.86062,0.18023,0.77216
542.625,26.68313,-3.86062,0.18511,0.77028
545.225,26.7675,-3.86062,0.18759,0.76841
547.825,26.8516,-3.86062,0.19075,0.76653
550.425,26.936,-3.86062,0.18931,0.76465
553.025,27.0204,-3.86095,0.19166,0.76276
555.625,27.1049,-3.86259,0.19451,0.76088
558.225,27.1892,-3.86259,0.19936,0.75899
560.825,27.27372,-3.86259,0.20447,0.75711
563.425,27.3582,-3.86128,0.20496,0.75522
566.025,27.4429,-3.86193,0.20515,0.75333
568.625,27.52732,-3.86193,0.20843,0.75144
571.225,27.612,-3.86193,0.21056,0.74954
573.825,27.69684,-3.86193,0.21274,0.74765
576.425,27.78145,-3.86226,0.21747,0.74575
579.025,27.8664,-3.86226,0.22005,0.74385
581.625,27.95128,-3.86226,0.22392,0.74195
584.225,28.03637,-3.86095,0.2263,0.74005
586.825,28.1212,-3.86095,0.23432,0.73815
589.425,28.2064,-3.86094,0.23889,0.73625
592.025,28.29158,-3.86292,0.2431,0.73434
594.625,28.37681,-3.86161,0.24578,0.73243
597.225,28.46218,-3.86161,0.25281,0.73053
599.825,28.54747,-3.86291,0.26173,0.72862
602.425,28.6328,-3.86292,0.26785,0.7267
605.025,28.7182,-3.86227,0.27383,0.72479
607.625,28.80354,-3.86359,0.27975,0.72288
610.225,28.88881,-3.86362,0.2871,0.72096
612.825,28.97435,-3.86227,0.29528,0.71905
615.425,29.05995,-3.86227,0.30171,0.71713
618.025,29.14565,-3.86359,0.30637,0.71521
620.625,29.23139,-3.86359,0.31298,0.71329
623.225,29.31713,-3.86359,0.32204,0.71137
625.825,29.4029,-3.86359,0.33133,0.70945
628.425,29.4887,-3.86359,0.33673,0.70752
631.025,29.5744,-3.86359,0.34681,0.7056
633.625,29.66028,-3.86358,0.35847,0.70367
636.225,29.74615,-3.86358,0.36789,0.70174
638.825,29.8319,-3.86358,0.37559,0.69981
641.425,29.918,-3.86457,0.3847,0.69788
643.825,29.9973,-3.86457,0.39339,0.6961