File: 01_Data/PLA_3D_Printer_Filament/STA/N2/30K_min/PLA_STA_N2_30KData_220504_R1.csv
##Temp./Â°C,Time/min,Mass loss(subtr.2)/mg,DSC(subtr.2)/(mW/mg),Sensit./(uV/mW)
48.591,10.00667,-0.01788,0.00234165,1.07502
51.191,10.8256,-0.01834265,0.1339,1.07387
53.791,11.0388,-0.01827798,0.23224,1.07271
56.391,11.1991,-0.01775763,0.3127,1.07155
58.991,11.33763,-0.01597082,0.38411,1.07038
61.591,11.46154,-0.01789329,0.45958,1.0692
64.191,11.57647,-0.01810053,0.58065,1.06802
66.791,11.68548,-0.01699183,0.82014,1.06683
69.391,11.7902,-0.01756336,0.82952,1.06563
71.991,11.89141,-0.01828085,0.78481,1.06442
74.591,11.98995,-0.01568349,0.75948,1.0632
77.191,12.08615,-0.01597914,0.74395,1.06198
79.791,12.1808,-0.01694783,0.74071,1.06075
82.391,12.27444,-0.01699909,0.73799,1.05952
84.991,12.36562,-0.01786133,0.7271,1.05827
87.591,12.45663,-0.0177846,0.70589,1.05702
90.191,12.54606,-0.01811349,0.65963,1.05577
92.791,12.6356,-0.0195331,0.59285,1.0545
95.391,12.7243,-0.01819299,0.51436,1.05323
97.991,12.81232,-0.01767633,0.4497,1.05196
100.591,12.89982,-0.01942091,0.41892,1.05067
103.191,12.98739,-0.01940967,0.4353,1.04938
105.791,13.07423,-0.01835829,0.49773,1.04809
108.391,13.16145,-0.01941984,0.582,1.04678
110.991,13.2484,-0.01943692,0.65506,1.04547
113.591,13.335,-0.0192154,0.70578,1.04416
116.191,13.4217,-0.01809774,0.75214,1.04284
118.791,13.50804,-0.01941994,0.79121,1.04151
121.391,13.5945,-0.01941532,0.82294,1.04017
123.991,13.6805,-0.01941,0.85236,1.03883
126.591,13.7659,-0.01838146,0.88109,1.03748
129.191,13.8511,-0.01942,0.90674,1.03613
131.791,13.9359,-0.02039883,0.92717,1.03477
134.391,14.02048,-0.01908006,0.94661,1.03341
136.991,14.1045,-0.01939159,0.96215,1.03204
139.591,14.1882,-0.0206931,0.98029,1.03066
142.191,14.27175,-0.02072763,0.99588,1.02928
144.791,14.35491,-0.02007613,1.01712,1.02789
147.391,14.43769,-0.02006866,1.03175,1.02649
149.991,14.5203,-0.01909026,1.04549,1.02509
152.591,14.60281,-0.0200674,1.07512,1.02369
155.191,14.68537,-0.02007029,1.16371,1.02228
157.791,14.7674,-0.02139,1.32088,1.02086
160.391,14.84945,-0.02139,1.58896,1.01944
162.991,14.93157,-0.02139,1.96953,1.01801
165.591,15.0138,-0.02139012,2.26234,1.01658
168.191,15.09612,-0.02171286,2.0412,1.01514
170.791,15.1778,-0.02265238,1.67447,1.0137
173.391,15.2589,-0.02271,1.44154,1.01225
175.991,15.33945,-0.02238138,1.30082,1.0108
178.591,15.42,-0.02238,1.214,1.00934
181.191,15.50031,-0.02238,1.1658,1.00787
183.791,15.58031,-0.02338582,1.13763,1.0064
186.391,15.66019,-0.02369,1.12029,1.00493
188.991,15.73974,-0.02369,1.11059,1.00345
191.591,15.8194,-0.02369,1.10896,1.00197
194.191,15.8986,-0.02368989,1.10831,1.00048
196.791,15.97821,-0.02460232,1.108,0.99898
199.391,16.0574,-0.02468,1.10952,0.99749
201.991,16.13658,-0.02468,1.1143,0.99598
204.591,16.21574,-0.02498154,1.11598,0.99448
207.191,16.29466,-0.02567001,1.11666,0.99296
209.791,16.3738,-0.02665012,1.11712,0.99145
212.391,16.4529,-0.02665,1.11932,0.98993
214.991,16.53184,-0.02665,1.12206,0.9884
217.591,16.61071,-0.02665,1.12673,0.98687
220.191,16.68978,-0.02662651,1.12714,0.98533
222.791,16.7684,-0.02763999,1.12812,0.9838
225.391,16.8474,-0.02896014,1.13189,0.98225
227.991,16.926,-0.02896,1.13524,0.9807
230.591,17.00488,-0.02896,1.13454,0.97915
233.191,17.0835,-0.02896,1.13937,0.97759
235.791,17.1621,-0.02951298,1.13815,0.97603
238.391,17.24065,-0.03028642,1.14342,0.97447
240.991,17.31914,-0.03027,1.14481,0.9729
243.591,17.39786,-0.03027,1.14496,0.97133
246.191,17.47632,-0.03026679,1.15086,0.96975
248.791,17.55479,-0.03191191,1.14887,0.96817
251.391,17.63316,-0.03192,1.15326,0.96658
253.991,17.71163,-0.03192,1.15182,0.96499
256.591,17.79015,-0.03192,1.15455,0.9634
259.191,17.86842,-0.03192233,1.15699,0.9618
261.791,17.94665,-0.03323949,1.15937,0.9602
264.391,18.02476,-0.03324,1.15945,0.9586
266.991,18.10345,-0.03324414,1.16236,0.95699
269.591,18.18175,-0.03423196,1.16737,0.95538
272.191,18.2603,-0.03422082,1.16959,0.95376
274.791,18.33851,-0.03487155,1.16963,0.95214
277.391,18.41699,-0.03597051,1.17583,0.95052
279.991,18.49549,-0.03625748,1.17994,0.94889
282.591,18.57385,-0.03751999,1.18339,0.94726
285.191,18.65241,-0.03910246,1.19215,0.94563
287.791,18.73091,-0.03949374,1.19425,0.94399
290.391,18.80944,-0.03816673,1.20125,0.94235
292.991,18.8882,-0.04165659,1.20716,0.94071
295.591,18.9667,-0.04211999,1.2158,0.93906
298.191,19.0452,-0.04233678,1.2228,0.93741
300.791,19.12398,-0.04473233,1.23401,0.93575
303.391,19.20265,-0.04737485,1.24323,0.9341
305.991,19.28134,-0.05000824,1.25436,0.93244
308.591,19.3601,-0.05286886,1.26348,0.93077
311.191,19.43905,-0.05574395,1.27501,0.9291
313.791,19.51782,-0.05967333,1.2889,0.92743
316.391,19.59669,-0.06251661,1.30524,0.92576
318.991,19.6757,-0.06731711,1.32534,0.92408
321.591,19.75477,-0.07223756,1.34769,0.9224
324.191,19.83374,-0.07820283,1.37131,0.92072
326.791,19.91285,-0.08784752,1.40577,0.91903
329.391,19.9921,-0.09365618,1.4412,0.91734
331.991,20.0714,-0.10205,1.4852,0.91565
334.591,20.15062,-0.11226,1.54009,0.91395
337.191,20.22992,-0.12489,1.61517,0.91225
339.791,20.30949,-0.1405,1.70309,0.91055
342.391,20.38915,-0.15764,1.8036,0.90885
344.991,20.46885,-0.17868,1.93266,0.90714
347.591,20.54879,-0.20237,2.08951,0.90543
350.191,20.6286,-0.22962,2.28463,0.90372
352.791,20.70895,-0.26254,2.54279,0.902
355.391,20.7892,-0.303,2.84145,0.90028
357.991,20.8697,-0.35039,3.09093,0.89856
360.591,20.95046,-0.40314,3.45266,0.89684
363.191,21.0314,-0.46792,4.04029,0.89511
365.791,21.11266,-0.54806,4.78642,0.89338
368.391,21.19431,-0.64685,5.71287,0.89165
370.991,21.27655,-0.77093,6.31034,0.88991
373.591,21.3591,-0.93741,6.94616,0.88817
376.191,21.44156,-1.12526,7.78658,0.88643
378.791,21.5242,-1.36235,8.76987,0.88469
381.391,21.6072,-1.58946,10.32152,0.88294
383.991,21.69088,-1.84242,11.51957,0.88119
386.591,21.7748,-2.11557,12.32645,0.87944
389.191,21.85866,-2.39617,12.6981,0.87769
391.791,21.94182,-2.67631,12.49925,0.87593
394.391,22.0241,-2.93938,11.666,0.87417
396.991,22.10537,-3.1741,10.1764,0.87241
399.591,22.18505,-3.35987,8.0243,0.87065
402.191,22.26345,-3.49472,5.44213,0.86888
404.791,22.34083,-3.5809,3.16594,0.86711
407.391,22.41793,-3.62947,1.63172,0.86534
409.991,22.49495,-3.65502,0.75756,0.86357
412.591,22.57217,-3.67102,0.27049,0.86179
415.191,22.65029,-3.68299,-0.003366509,0.86002
417.791,22.72888,-3.69007,-0.15972,0.85824
420.391,22.8078,-3.69692,-0.25003,0.85645
422.991,22.88704,-3.70382,-0.30289,0.85467
425.591,22.96695,-3.70927,-0.33474,0.85288
428.191,23.047,-3.71222,-0.34984,0.85109
430.791,23.1273,-3.71765,-0.36096,0.8493
433.391,23.2079,-3.7223,-0.36577,0.8475
435.991,23.28848,-3.72709,-0.36449,0.84571
438.591,23.36921,-3.73193,-0.36571,0.84391
441.191,23.4504,-3.73676,-0.36408,0.84211
443.791,23.5318,-3.74198,-0.36252,0.84031
446.391,23.61308,-3.74653,-0.3626,0.8385
448.991,23.69481,-3.75133,-0.36248,0.83669
451.591,23.77648,-3.75714,-0.36295,0.83488
454.191,23.8583,-3.76175,-0.36473,0.83307
456.791,23.94019,-3.7664,-0.36712,0.83126
459.391,24.0219,-3.77008,-0.37271,0.82944
461.991,24.10415,-3.77494,-0.37331,0.82762
464.591,24.1863,-3.78097,-0.37574,0.8258
467.191,24.2687,-3.78595,-0.37611,0.82398
469.791,24.35096,-3.79153,-0.37857,0.82216
472.391,24.43313,-3.79679,-0.37859,0.82033
474.991,24.5161,-3.80209,-0.37995,0.8185
477.591,24.59873,-3.80869,-0.38488,0.81667
480.191,24.6813,-3.81481,-0.38584,0.81484
482.791,24.7639,-3.82027,-0.39227,0.81301
485.391,24.84676,-3.82652,-0.40058,0.81117
487.991,24.92967,-3.83258,-0.40837,0.80933
490.591,25.01259,-3.83717,-0.41889,0.80749
493.191,25.09546,-3.84065,-0.43075,0.80565
495.791,25.17867,-3.8439,-0.4456,0.80381
498.391,25.26154,-3.84848,-0.45629,0.80196
500.991,25.34467,-3.85064,-0.46917,0.80011
503.591,25.42792,-3.85196,-0.48215,0.79827
506.191,25.5112,-3.85329,-0.49384,0.79641
508.791,25.59456,-3.85459,-0.49893,0.79456
511.391,25.67781,-3.85586,-0.50666,0.79271
513.991,25.7612,-3.85721,-0.50997,0.79085
516.591,25.84433,-3.85854,-0.48701,0.78899
519.191,25.92747,-3.85854,-0.46919,0.78713
521.791,26.0111,-3.85854,-0.47596,0.78527
524.391,26.09495,-3.8592,-0.49772,0.7834
526.991,26.17869,-3.8592,-0.51454,0.78154
529.591,26.26244,-3.8592,-0.52835,0.77967
532.191,26.3465,-3.85985,-0.55042,0.7778
534.791,26.43025,-3.86117,-0.57349,0.77593
537.391,26.5145,-3.85986,-0.59428,0.77406
539.991,26.59849,-3.85986,-0.61302,0.77219
542.591,26.6827,-3.86117,-0.62164,0.77031
545.191,26.76683,-3.86118,-0.632,0.76843
547.791,26.8505,-3.86117,-0.63784,0.76655
550.391,26.93475,-3.85986,-0.64163,0.76467
552.991,27.01908,-3.86181,-0.64888,0.76279
555.591,27.10342,-3.86248,-0.65057,0.76091
558.191,27.18777,-3.86248,-0.65158,0.75902
560.791,27.27243,-3.86248,-0.6572,0.75713
563.391,27.35714,-3.86248,-0.65978,0.75524
565.991,27.4418,-3.8638,-0.66718,0.75335
568.591,27.52638,-3.86381,-0.66882,0.75146
571.191,27.61109,-3.86248,-0.67174,0.74957
573.791,27.6957,-3.8638,-0.6767,0.74767
576.391,27.78078,-3.86381,-0.67793,0.74578
578.991,27.8655,-3.86282,-0.67775,0.74388
581.591,27.94988,-3.8628,-0.68196,0.74198
584.191,28.0354,-3.86413,-0.68082,0.74008
586.791,28.1205,-3.86413,-0.68195,0.73817
589.391,28.20553,-3.86414,-0.68521,0.73627
591.991,28.29055,-3.86545,-0.68705,0.73437
594.591,28.3762,-3.86545,-0.6871,0.73246
597.191,28.4615,-3.86545,-0.69124,0.73055
599.791,28.54682,-3.86676,-0.6886,0.72864
602.391,28.63219,-3.86646,-0.68681,0.72673
604.991,28.71762,-3.86545,-0.68527,0.72482
607.591,28.80293,-3.86447,-0.67992,0.7229
610.191,28.88826,-3.86532,-0.6781,0.72099
612.791,28.97372,-3.86709,-0.67346,0.71907
615.391,29.05932,-3.86578,-0.67688,0.71715
617.991,29.14462,-3.86629,-0.6705,0.71524
620.591,29.23033,-3.86607,-0.67144,0.71332
623.191,29.31557,-3.86611,-0.66624,0.71139
625.791,29.4013,-3.86743,-0.66273,0.70947
628.391,29.48708,-3.86874,-0.6559,0.70755
630.991,29.57259,-3.86874,-0.65333,0.70562
633.591,29.65826,-3.86808,-0.64852,0.70369
636.191,29.74405,-3.86808,-0.64478,0.70177
638.791,29.82948,-3.86808,-0.63983,0.69984
641.391,29.9154,-3.86808,-0.63857,0.69791
643.891,29.9977,-3.86939,-0.63447,0.69605