File: 01_Data/Window_Screen/MCC/Window_Screen_MCC_30K_min_211203_R1.txt
Sample ID:	C:\MCC\MCC Cal\Test\Window_Screen_MCC_30K_min_211203_R1.txt
Sample Weight (mg):	4.57
Heating Rate (C/s):	0.5
Combustor Temp (C):	900
N2 Flow Rate (cc/min):	80
O2 Flow Rate (cc/min):	20
Calibration File:	C:\MCC\MCC Cal\Coeff1 JN10440_30_210304.txt.txt
T Correction Coefficients:	0	1.024463	0
Time Shift (s):	14
*
Time (s)	Temperature (C)	N2 flow rate (cc/min)	O2 flow rate (cc/min)	Flow Rate (cc/min)	Oxygen (%)	HRR (W/g)	Heating rate (C/s)
0.000	109.484	80.005	19.995	103.104	20.236	0.338	-0.013
8.001	109.532	80.008	19.995	103.129	20.238	0.171	-0.007
16.000	109.507	80.007	19.994	103.171	20.230	0.773	0.022
24.000	109.712	80.005	19.994	103.207	20.216	1.723	0.028
32.000	110.464	80.009	19.995	103.309	20.207	2.401	0.103
40.000	111.665	80.008	19.995	103.325	20.204	2.612	0.166
47.999	113.227	80.007	19.996	103.334	20.197	3.086	0.202
55.999	115.244	80.006	19.996	103.358	20.192	3.458	0.272
63.999	117.491	80.004	19.996	103.432	20.194	3.254	0.304
72.000	120.188	80.006	19.996	103.390	20.188	3.725	0.321
79.999	123.176	80.006	19.996	103.394	20.186	3.863	0.389
88.000	126.323	80.004	19.994	103.387	20.182	4.145	0.397
95.999	129.718	80.008	19.995	103.401	20.187	3.815	0.430
104.000	133.353	80.004	19.994	103.393	20.184	3.988	0.452
111.999	137.150	80.008	19.993	103.391	20.181	4.180	0.471
120.000	141.016	80.008	19.994	103.376	20.178	4.405	0.508
128.000	145.027	80.006	19.996	103.385	20.186	3.877	0.495
136.000	149.165	80.007	19.995	103.383	20.184	3.972	0.525
144.000	153.288	80.006	19.994	103.378	20.183	4.034	0.499
152.000	157.373	80.006	19.995	103.372	20.177	4.466	0.528
160.000	161.428	80.005	19.995	103.351	20.182	4.148	0.496
168.000	165.506	80.005	19.995	103.339	20.180	4.279	0.489
176.000	169.587	80.007	19.994	103.338	20.178	4.425	0.523
183.999	173.578	80.006	19.994	103.334	20.171	4.921	0.476
191.999	177.612	80.007	19.994	103.334	20.168	5.117	0.527
199.999	181.504	80.009	19.994	103.337	20.168	5.126	0.491
207.999	185.425	80.008	19.994	103.323	20.162	5.521	0.525
215.999	189.354	80.005	19.993	103.334	20.155	6.051	0.465
223.999	193.277	80.007	19.995	103.333	20.148	6.540	0.499
231.999	197.169	80.007	19.995	103.325	20.139	7.134	0.516
239.999	201.025	80.006	19.995	103.310	20.132	7.643	0.459
248.000	204.956	80.005	19.995	103.311	20.115	8.855	0.479
255.999	208.942	80.006	19.996	103.319	20.104	9.653	0.478
264.000	212.838	80.005	19.996	103.324	20.079	11.370	0.456
272.000	216.843	80.006	19.995	103.323	20.067	12.255	0.499
280.000	220.765	80.007	19.995	103.315	20.045	13.791	0.479
288.000	224.765	80.006	19.993	103.315	20.014	16.000	0.512
296.000	228.842	80.007	19.995	103.312	19.986	17.956	0.499
304.000	232.911	80.005	19.994	103.304	19.956	20.077	0.480
312.000	236.891	80.007	19.995	103.301	19.912	23.176	0.489
320.000	240.919	80.006	19.996	103.298	19.874	25.874	0.479
328.000	244.973	80.005	19.995	103.303	19.827	29.155	0.527
336.000	248.921	80.005	19.995	103.307	19.780	32.460	0.492
344.000	252.972	80.006	19.996	103.302	19.731	35.919	0.477
352.000	256.997	80.005	19.996	103.303	19.681	39.472	0.521
360.000	260.958	80.006	19.995	103.304	19.627	43.278	0.491
368.000	264.954	80.008	19.995	103.298	19.577	46.832	0.491
376.000	268.867	80.006	19.995	103.313	19.518	50.942	0.474
384.000	272.948	80.004	19.995	103.314	19.475	53.994	0.476
392.000	276.924	80.005	19.994	103.335	19.447	56.021	0.501
400.000	280.907	80.005	19.994	103.352	19.415	58.252	0.492
408.000	284.930	80.005	19.995	103.367	19.389	60.111	0.479
416.000	288.923	80.006	19.996	103.455	19.341	63.503	0.495
424.000	292.972	80.007	19.994	103.470	19.311	65.536	0.508
432.000	297.002	80.006	19.995	103.307	19.375	60.961	0.502
440.000	300.980	80.007	19.995	103.160	19.622	43.590	0.472
448.000	304.985	80.008	19.996	103.178	19.914	22.998	0.500
456.000	308.960	80.007	19.995	103.184	20.073	11.838	0.509
464.000	313.025	80.005	19.996	103.192	20.141	7.039	0.527
472.000	317.113	80.005	19.994	103.220	20.166	5.281	0.503
480.000	321.156	80.006	19.995	103.226	20.176	4.544	0.528
488.000	325.209	80.005	19.994	103.261	20.180	4.248	0.519
496.000	329.286	80.006	19.995	103.260	20.186	3.865	0.517
504.000	333.343	80.008	19.994	103.258	20.193	3.386	0.555
512.000	337.412	80.008	19.996	103.255	20.199	2.898	0.501
520.000	341.530	80.008	19.995	103.258	20.200	2.870	0.451
528.000	345.672	80.008	19.994	103.266	20.204	2.567	0.584
536.000	349.699	80.007	19.995	103.262	20.206	2.464	0.494
544.000	353.802	80.004	19.993	103.258	20.211	2.096	0.532
552.000	357.853	80.006	19.996	103.266	20.211	2.113	0.506
560.000	361.866	80.005	19.995	103.261	20.209	2.205	0.523
568.000	365.905	80.005	19.995	103.261	20.208	2.328	0.528
576.000	369.829	80.005	19.996	103.258	20.205	2.518	0.481
584.000	373.857	80.007	19.994	103.252	20.205	2.505	0.495
592.000	377.803	80.008	19.995	103.283	20.199	2.929	0.494
600.000	381.814	80.006	19.995	103.276	20.196	3.112	0.473
608.000	385.838	80.007	19.995	103.260	20.186	3.822	0.495
616.000	389.888	80.009	19.995	103.261	20.181	4.223	0.472
624.000	393.938	80.005	19.996	103.260	20.176	4.558	0.548
632.000	398.034	80.003	19.995	103.260	20.164	5.433	0.513
640.000	402.031	80.005	19.995	103.258	20.160	5.645	0.488
648.000	406.125	80.007	19.996	103.255	20.152	6.243	0.527
656.000	410.201	80.004	19.995	103.257	20.132	7.672	0.513
664.000	414.188	80.006	19.993	103.265	20.123	8.322	0.474
672.000	418.223	80.007	19.995	103.260	20.100	9.910	0.531
680.000	422.258	80.005	19.994	103.259	20.074	11.739	0.499
688.000	426.264	80.005	19.994	103.245	20.044	13.832	0.506
696.000	430.265	80.008	19.994	103.240	20.008	16.422	0.488
704.000	434.354	80.006	19.996	103.240	19.966	19.368	0.511
712.000	438.368	80.005	19.996	103.248	19.925	22.252	0.534
720.000	442.387	80.006	19.996	103.251	19.881	25.371	0.540
728.000	446.426	80.005	19.995	103.250	19.851	27.485	0.517
736.000	450.477	80.005	19.998	103.254	19.836	28.515	0.492
744.000	454.587	80.005	19.996	103.257	19.826	29.190	0.519
752.000	458.700	80.006	19.993	103.240	19.827	29.134	0.533
760.000	462.779	80.006	19.995	103.254	19.835	28.552	0.524
768.000	466.824	80.007	19.995	103.249	19.851	27.478	0.495
776.000	470.911	80.009	19.994	103.244	19.879	25.468	0.511
784.000	475.152	80.007	19.993	103.236	19.902	23.870	0.532
792.000	479.236	80.005	19.995	103.242	19.932	21.725	0.508
800.000	483.385	80.007	19.997	103.247	19.979	18.456	0.503
808.000	487.498	80.006	19.996	103.244	20.016	15.846	0.500
816.000	491.670	80.005	19.994	103.229	20.049	13.495	0.525
824.000	495.787	80.006	19.996	103.227	20.076	11.591	0.491
832.000	499.968	80.006	19.996	103.241	20.112	9.058	0.516
840.000	504.091	80.007	19.994	103.247	20.135	7.447	0.514
848.000	508.291	80.006	19.995	103.241	20.156	5.949	0.534
856.000	512.343	80.008	19.995	103.255	20.176	4.530	0.506
864.000	516.440	80.007	19.995	103.223	20.180	4.299	0.511
872.000	520.536	80.005	19.996	103.236	20.189	3.627	0.515
880.000	524.633	80.005	19.994	103.231	20.198	3.018	0.500
888.000	528.706	80.007	19.995	103.232	20.209	2.204	0.566
896.000	532.773	80.006	19.996	103.240	20.212	2.049	0.509
904.000	536.860	80.003	19.993	103.222	20.210	2.189	0.498
912.000	540.973	80.006	19.995	103.256	20.210	2.168	0.498
920.000	545.027	80.007	19.996	103.218	20.215	1.798	0.508
928.000	549.172	80.006	19.995	103.221	20.216	1.761	0.496
936.000	553.261	80.007	19.995	103.223	20.220	1.479	0.511
944.000	557.422	80.008	19.995	103.223	20.224	1.187	0.508
952.000	561.588	80.005	19.994	103.239	20.222	1.277	0.528
960.000	565.626	80.005	19.995	103.234	20.223	1.239	0.503
968.000	569.763	80.007	19.994	103.240	20.232	0.632	0.505
976.000	573.863	80.006	19.994	103.223	20.227	0.990	0.518
984.000	578.050	80.005	19.995	103.253	20.227	0.936	0.517
992.000	582.059	80.007	19.996	103.232	20.232	0.621	0.487
1000.000	586.108	80.006	19.994	103.225	20.231	0.659	0.510
1008.000	590.152	80.006	19.993	103.226	20.224	1.186	0.504
1016.000	594.193	80.006	19.996	103.238	20.229	0.840	0.498
1024.000	598.267	80.008	19.995	103.217	20.228	0.918	0.483
1031.999	602.354	80.007	19.994	103.226	20.232	0.570	0.536
1039.999	606.413	80.007	19.995	103.198	20.234	0.496	0.500
1047.999	610.484	80.007	19.995	103.218	20.231	0.693	0.517
1056.000	614.539	80.006	19.995	103.225	20.236	0.346	0.470
1063.999	618.561	80.007	19.995	103.222	20.230	0.757	0.468
1071.999	622.593	80.005	19.994	103.232	20.231	0.660	0.490
1079.999	626.650	80.008	19.994	103.238	20.231	0.665	0.541
1088.000	630.769	80.008	19.995	103.235	20.232	0.597	0.538
1095.999	634.868	80.007	19.995	103.225	20.239	0.084	0.549
1104.000	639.000	80.010	19.996	103.220	20.238	0.173	0.525
1112.000	643.139	80.009	19.996	103.232	20.235	0.389	0.551
1119.999	647.184	80.005	19.995	103.230	20.236	0.339	0.506
1128.001	651.261	80.004	19.995	103.223	20.234	0.473	0.522
1135.999	655.346	80.005	19.995	103.228	20.234	0.492	0.525
1144.001	659.379	80.004	19.994	103.237	20.238	0.200	0.492
1151.999	663.444	80.006	19.995	103.229	20.238	0.148	0.513
1159.999	667.563	80.007	19.994	103.218	20.240	0.045	0.524
1167.999	671.610	80.008	19.994	103.218	20.236	0.350	0.500
1175.999	675.758	80.006	19.996	103.218	20.238	0.173	0.520
1184.000	679.782	80.007	19.995	103.216	20.234	0.469	0.511
1192.000	683.863	80.008	19.995	103.219	20.239	0.134	0.510
1199.999	687.887	80.005	19.994	103.223	20.237	0.231	0.502
1207.999	692.037	80.006	19.995	103.225	20.239	0.080	0.526
1216.000	696.120	80.007	19.996	103.259	20.241	-0.019	0.491
1223.999	700.189	80.006	19.994	103.223	20.241	-0.053	0.494
1231.999	704.094	80.006	19.995	103.221	20.235	0.403	0.455
1239.999	708.106	80.006	19.995	103.220	20.234	0.471	0.494
1247.999	712.038	80.008	19.995	103.226	20.233	0.541	0.507
1255.999	716.149	80.007	19.995	103.224	20.236	0.302	0.527
1263.999	720.236	80.007	19.995	103.228	20.236	0.354	0.497
1271.999	724.267	80.009	19.995	103.232	20.235	0.428	0.492
1279.999	728.377	80.007	19.993	103.218	20.235	0.377	0.540
1288.001	732.311	80.005	19.994	103.229	20.233	0.516	0.499
1296.000	736.341	80.006	19.995	103.222	20.234	0.484	0.510
1304.000	740.343	80.005	19.995	103.220	20.234	0.496	0.487
1310.000	743.394	80.005	19.996	103.215	20.231	0.667	0.506