File: 01_Data/Window_Screen/MCC/Window_Screen_MCC_30K_min_211203_R2.txt
Sample ID:	C:\MCC\MCC Cal\Test\Window_Screen_MCC_30K_min_211203_R2.txt
Sample Weight (mg):	4.8
Heating Rate (C/s):	0.5
Combustor Temp (C):	900
N2 Flow Rate (cc/min):	80
O2 Flow Rate (cc/min):	20
Calibration File:	C:\MCC\MCC Cal\Coeff1 JN10440_30_210304.txt.txt
T Correction Coefficients:	0	1.024463	0
Time Shift (s):	14
*
Time (s)	Temperature (C)	N2 flow rate (cc/min)	O2 flow rate (cc/min)	Flow Rate (cc/min)	Oxygen (%)	HRR (W/g)	Heating rate (C/s)
-0.001	111.172	80.005	19.994	103.158	20.237	-0.030	-0.016
8.000	111.130	80.004	19.994	103.149	20.238	-0.115	-0.012
16.000	111.179	80.005	19.995	103.173	20.232	0.311	0.006
24.000	111.192	80.007	19.995	103.217	20.228	0.534	-0.014
32.000	111.469	80.007	19.993	103.283	20.220	1.124	0.038
40.000	112.173	80.007	19.993	103.406	20.201	2.356	0.108
48.000	113.434	80.007	19.995	103.377	20.195	2.764	0.202
56.001	115.130	80.007	19.995	103.356	20.195	2.773	0.239
63.999	117.130	80.005	19.994	103.386	20.189	3.198	0.259
72.000	119.447	80.006	19.995	103.402	20.196	2.732	0.318
80.000	122.010	80.005	19.995	103.384	20.190	3.119	0.327
87.999	124.867	80.004	19.995	103.380	20.194	2.851	0.354
95.999	127.808	80.005	19.994	103.375	20.192	2.994	0.380
103.999	130.976	80.007	19.994	103.391	20.188	3.265	0.387
111.999	134.164	80.008	19.995	103.390	20.188	3.262	0.426
120.000	137.589	80.006	19.995	103.395	20.185	3.441	0.451
127.999	141.022	80.008	19.994	103.382	20.187	3.345	0.451
136.000	144.597	80.007	19.994	103.376	20.186	3.382	0.426
144.001	148.185	80.006	19.993	103.376	20.186	3.406	0.430
152.000	151.897	80.005	19.995	103.375	20.181	3.751	0.437
160.000	155.653	80.007	19.995	103.398	20.186	3.386	0.499
168.000	159.461	80.005	19.994	103.362	20.179	3.847	0.461
176.000	163.389	80.005	19.996	103.339	20.178	3.942	0.490
184.001	167.320	80.006	19.996	103.382	20.174	4.198	0.496
192.001	171.317	80.007	19.994	103.381	20.169	4.513	0.486
200.000	175.326	80.007	19.994	103.387	20.165	4.817	0.510
208.000	179.363	80.005	19.994	103.374	20.163	4.948	0.513
216.000	183.429	80.008	19.994	103.365	20.154	5.529	0.518
224.001	187.545	80.007	19.993	103.376	20.149	5.879	0.553
232.000	191.564	80.007	19.995	103.357	20.140	6.462	0.492
240.000	195.601	80.006	19.994	103.337	20.136	6.774	0.559
248.000	199.587	80.005	19.995	103.352	20.126	7.394	0.505
256.000	203.604	80.006	19.994	103.368	20.115	8.177	0.510
264.000	207.600	80.005	19.994	103.339	20.101	9.106	0.513
272.000	211.565	80.006	19.995	103.343	20.082	10.340	0.460
280.000	215.537	80.006	19.996	103.333	20.064	11.576	0.472
288.000	219.435	80.006	19.995	103.315	20.039	13.239	0.484
296.000	223.379	80.008	19.994	103.332	20.014	14.946	0.498
304.000	227.338	80.009	19.994	103.326	19.984	16.943	0.519
312.000	231.264	80.006	19.994	103.325	19.948	19.350	0.474
320.000	235.264	80.005	19.994	103.323	19.907	22.130	0.534
328.000	239.155	80.007	19.994	103.330	19.864	25.001	0.469
336.000	243.079	80.004	19.994	103.324	19.816	28.234	0.520
344.000	247.094	80.003	19.995	103.325	19.766	31.570	0.519
352.000	251.101	80.007	19.995	103.315	19.712	35.211	0.512
360.000	255.054	80.008	19.994	103.314	19.650	39.346	0.475
368.000	259.046	80.006	19.995	103.312	19.586	43.665	0.474
376.000	262.985	80.007	19.996	103.330	19.513	48.587	0.502
384.000	267.058	80.008	19.996	103.333	19.446	53.120	0.519
392.000	271.028	80.007	19.995	103.335	19.392	56.688	0.506
400.000	275.093	80.006	19.995	103.340	19.357	59.064	0.515
408.000	279.123	80.006	19.994	103.374	19.336	60.522	0.512
416.000	283.225	80.007	19.995	103.366	19.319	61.769	0.520
424.000	287.085	80.006	19.995	103.467	19.286	63.918	0.425
432.000	291.286	80.005	19.994	103.491	19.239	66.975	0.243
440.000	295.374	80.008	19.995	103.305	19.320	61.523	0.477
448.000	299.299	80.007	19.995	103.316	19.524	47.782	0.474
456.000	303.298	80.006	19.995	103.205	19.837	26.752	0.501
464.000	307.285	80.007	19.995	103.179	20.039	13.251	0.493
472.000	311.359	80.009	19.994	103.180	20.117	8.010	0.504
480.000	315.504	80.004	19.995	103.212	20.145	6.110	0.490
488.000	319.531	80.007	19.995	103.220	20.160	5.138	0.503
496.000	323.669	80.006	19.994	103.235	20.167	4.688	0.550
504.000	327.711	80.008	19.995	103.256	20.168	4.563	0.505
512.000	331.812	80.007	19.994	103.262	20.179	3.879	0.504
520.000	335.868	80.006	19.994	103.272	20.183	3.571	0.517
528.000	339.887	80.006	19.994	103.295	20.186	3.405	0.503
536.000	343.911	80.006	19.993	103.282	20.194	2.873	0.487
544.000	347.908	80.007	19.994	103.287	20.193	2.917	0.456
552.001	352.039	80.010	19.995	103.289	20.188	3.238	0.499
560.000	356.036	80.007	19.995	103.293	20.187	3.346	0.457
568.000	360.008	80.006	19.995	103.293	20.182	3.624	0.488
576.000	364.014	80.005	19.995	103.295	20.192	2.958	0.470
584.000	368.065	80.007	19.993	103.299	20.187	3.329	0.519
592.000	372.147	80.007	19.995	103.304	20.180	3.770	0.494
600.000	376.254	80.006	19.994	103.298	20.182	3.655	0.518
608.000	380.358	80.010	19.994	103.295	20.172	4.313	0.520
616.000	384.405	80.008	19.994	103.295	20.171	4.411	0.538
624.000	388.458	80.008	19.994	103.307	20.165	4.804	0.524
632.000	392.460	80.010	19.994	103.295	20.151	5.718	0.485
640.000	396.542	80.010	19.995	103.294	20.144	6.202	0.485
648.000	400.584	80.007	19.994	103.297	20.130	7.147	0.476
656.000	404.645	80.006	19.995	103.306	20.108	8.591	0.523
664.000	408.679	80.005	19.995	103.294	20.100	9.151	0.505
672.000	412.658	80.006	19.994	103.297	20.079	10.535	0.508
680.000	416.640	80.006	19.995	103.298	20.054	12.229	0.533
688.000	420.783	80.010	19.996	103.297	20.021	14.430	0.569
696.000	424.780	80.009	19.995	103.295	19.979	17.281	0.488
704.000	428.921	80.007	19.995	103.295	19.946	19.524	0.520
712.000	432.958	80.008	19.993	103.295	19.900	22.592	0.522
720.000	437.020	80.010	19.994	103.293	19.855	25.593	0.499
728.000	441.146	80.006	19.994	103.293	19.822	27.841	0.529
736.000	445.155	80.005	19.995	103.296	19.791	29.875	0.490
744.000	449.255	80.009	19.996	103.339	19.782	30.518	0.499
752.000	453.343	80.007	19.995	103.293	19.783	30.459	0.531
760.000	457.415	80.006	19.996	103.292	19.799	29.344	0.506
768.000	461.571	80.007	19.995	103.289	19.827	27.509	0.492
776.000	465.680	80.010	19.995	103.292	19.860	25.236	0.499
784.000	469.778	80.007	19.993	103.293	19.894	22.956	0.515
792.001	473.965	80.008	19.994	103.301	19.926	20.861	0.513
800.000	478.061	80.008	19.993	103.281	19.952	19.096	0.530
808.000	482.180	80.008	19.993	103.291	19.977	17.400	0.497
816.000	486.259	80.006	19.993	103.281	20.006	15.456	0.543
824.000	490.340	80.005	19.994	103.284	20.040	13.177	0.536
832.000	494.431	80.007	19.994	103.279	20.068	11.304	0.528
840.000	498.530	80.006	19.995	103.276	20.095	9.484	0.506
848.000	502.590	80.005	19.994	103.294	20.118	7.946	0.540
856.000	506.674	80.007	19.996	103.276	20.133	6.945	0.536
864.000	510.748	80.006	19.995	103.272	20.145	6.151	0.509
872.000	514.851	80.007	19.993	103.272	20.151	5.718	0.535
880.000	518.914	80.008	19.994	103.261	20.167	4.625	0.500
888.000	523.050	80.009	19.993	103.254	20.171	4.368	0.539
896.000	527.112	80.008	19.995	103.272	20.172	4.341	0.493
904.000	531.268	80.007	19.994	103.261	20.175	4.108	0.500
912.000	535.397	80.006	19.994	103.258	20.181	3.727	0.556
920.000	539.414	80.005	19.994	103.268	20.191	3.019	0.542
928.000	543.576	80.005	19.995	103.285	20.198	2.579	0.569
936.000	547.683	80.005	19.995	103.279	20.200	2.429	0.552
944.000	551.748	80.008	19.994	103.256	20.198	2.577	0.544
952.000	555.828	80.007	19.996	103.250	20.200	2.464	0.510
960.000	559.905	80.008	19.995	103.253	20.194	2.824	0.519
968.000	564.101	80.010	19.994	103.249	20.199	2.511	0.517
976.000	568.175	80.007	19.995	103.253	20.200	2.447	0.511
984.000	572.289	80.006	19.994	103.258	20.202	2.316	0.512
992.000	576.421	80.006	19.994	103.257	20.202	2.323	0.502
1000.000	580.551	80.006	19.993	103.254	20.202	2.324	0.536
1008.000	584.682	80.006	19.994	103.263	20.204	2.160	0.539
1016.000	588.755	80.005	19.994	103.259	20.208	1.927	0.514
1024.000	592.833	80.007	19.995	103.246	20.204	2.140	0.514
1031.999	596.943	80.008	19.994	103.241	20.208	1.934	0.522
1040.000	600.994	80.007	19.995	103.251	20.212	1.662	0.532
1048.000	605.122	80.008	19.994	103.256	20.207	1.990	0.525
1056.000	609.163	80.009	19.995	103.229	20.211	1.673	0.500
1064.000	613.165	80.006	19.994	103.261	20.208	1.903	0.519
1072.000	617.251	80.006	19.993	103.242	20.210	1.793	0.525
1080.000	621.323	80.007	19.994	103.254	20.215	1.417	0.547
1088.000	625.416	80.005	19.995	103.252	20.213	1.602	0.540
1096.000	629.583	80.005	19.994	103.241	20.219	1.134	0.538
1104.000	633.560	80.007	19.995	103.257	20.217	1.280	0.508
1112.000	637.633	80.006	19.996	103.242	20.219	1.154	0.511
1120.000	641.605	80.006	19.996	103.244	20.218	1.256	0.488
1128.000	645.537	80.008	19.994	103.239	20.227	0.628	0.495
1136.000	649.560	80.009	19.994	103.245	20.218	1.249	0.482
1144.000	653.606	80.005	19.996	103.238	20.218	1.230	0.485
1152.000	657.701	80.005	19.996	103.235	20.219	1.180	0.519
1160.001	661.767	80.007	19.995	103.236	20.219	1.178	0.514
1168.000	665.794	80.006	19.994	103.236	20.221	1.030	0.498
1176.001	669.976	80.006	19.993	103.245	20.216	1.350	0.525
1184.000	674.150	80.007	19.994	103.227	20.221	1.010	0.541
1192.000	678.275	80.007	19.994	103.234	20.223	0.908	0.521
1200.000	682.470	80.008	19.993	103.231	20.219	1.174	0.506
1208.000	686.603	80.006	19.995	103.254	20.219	1.182	0.511
1216.000	690.650	80.008	19.994	103.234	20.219	1.165	0.481
1224.000	694.682	80.006	19.994	103.225	20.215	1.458	0.500
1232.000	698.713	80.008	19.994	103.221	20.216	1.352	0.484
1240.000	702.702	80.006	19.995	103.238	20.220	1.128	0.504
1248.000	706.680	80.006	19.996	103.229	20.221	1.002	0.466
1256.000	710.824	80.004	19.994	103.220	20.224	0.861	0.553
1264.000	714.921	80.005	19.994	103.230	20.224	0.861	0.494
1272.000	718.959	80.009	19.994	103.248	20.227	0.602	0.504
1280.000	722.931	80.008	19.995	103.224	20.228	0.558	0.488
1288.000	726.888	80.006	19.995	103.226	20.223	0.869	0.504
1296.001	730.897	80.008	19.993	103.229	20.223	0.911	0.499
1304.000	734.939	80.009	19.994	103.236	20.222	0.961	0.483
1312.000	738.858	80.006	19.995	103.230	20.219	1.195	0.500
1320.001	742.908	80.007	19.994	103.235	20.226	0.715	0.517
1321.500	743.621	80.006	19.994	103.231	20.223	0.878	0.465