File: 01_Data/Cellulose_Insulation/Cone/Cellulose_Insulation_Cone_HF25Scan_220426_R2.csv
Names,Time,Stack TC,Smoke TC,Exh Press,Smoke Comp,Smoke Meas,CO Meter,CO2 Meter,O2 Meter,Sample Mass,Ext Coeff,Start Test,Flame Verif
Chan Gain,,500,500,1,1,1,1,1,1,1,1,1.0,1.0
Offset,,0,0,0.135223,0,0,0,0,0,0,0,0.0,0.0
Gain,,1,1,25.011,13.0939,14.0471,1,1,1,1.00088,1.00971,1.0,1.0
Units,sec,C,C,Pa,%,%,%,%,%,g,/m,,
Baseline,,20.1871,20.8996,151.807,97.3986,93.7049,0.0010329,0.0430103,21.0203,-834.065,0.342423,,
31,7.5,18.835,18.8138,151.989,98.2515,94.177,0.00111299,0.050615,21.0123,-309.193,0.375133,0.0,0.0
62,15.25,18.4311,19.0983,150.425,98.2914,94.4492,0.00116236,0.0452272,21.0193,-309.203,0.353172,0.0,0.0
93,23,18.6536,19.0198,158.608,98.3278,94.4989,0.00108289,0.0431636,21.0219,-309.253,0.351786,0.0,0.0
124,30.75,19.3541,19.4012,152.324,98.3757,94.6533,0.000902441,0.0429556,21.0246,-309.223,0.341651,0.0,0.0
155,38.5,19.2154,20.2966,149.474,98.4069,95.0524,0.0010264,0.0430181,21.0253,-309.283,0.30719,0.0,0.0
186,46.25,19.1535,20.1619,152.639,98.4433,94.6631,0.0011756,0.042851,21.0247,-309.283,0.346806,0.0,0.0
217,54,19.5306,19.8996,148.453,98.4612,94.6563,0.000962708,0.0428493,21.0245,-309.293,0.349066,0.0,0.0
248,61.75,19.5227,20.6978,153.974,98.4736,94.8162,0.00123434,0.0429093,21.0245,-309.323,0.335231,0.0,0.0
279,69.5,19.9922,20.3307,157.525,98.4728,94.7189,0.00100744,0.0428687,21.0253,-309.313,0.344253,0.0,0.0
310,77.25,19.7772,20.4436,147.828,98.4752,94.6027,0.000750212,0.0429917,21.0243,-309.313,0.355339,0.0,0.0
341,85,19.3086,19.8888,147.675,98.482,94.7994,0.000961339,0.0428112,21.0236,-309.333,0.337548,0.0,0.0
372,92.75,20.1267,20.3149,151.696,98.4864,94.8183,0.0012902,0.0429326,21.0238,-309.353,0.336181,0.0,0.0
403,100.5,19.974,20.5842,154.677,98.4904,94.8535,0.000893719,0.0430372,21.0235,-309.363,0.333257,0.0,0.0
434,108.25,19.8877,20.853,149.361,98.5008,94.8303,0.000848124,0.0430497,21.0235,-309.383,0.336352,0.0,0.0
465,116,19.9475,20.8127,152.053,98.5144,94.6434,0.000997213,0.0429179,21.0229,-309.353,0.355049,0.0,0.0
496,123.75,20.2498,21.1101,152.98,98.5104,94.7733,0.00100534,0.0429373,21.0241,-309.393,0.342542,0.0,0.0
527,131.5,20.0818,20.9438,153.649,98.5132,94.8059,0.000884478,0.042975,21.0237,-309.403,0.339749,0.0,0.0
558,139.25,20.3063,21.2576,154.236,98.5204,94.7103,0.00117091,0.0430534,21.0255,-309.423,0.349332,0.0,0.0
589,147,20.5392,21.1157,149.597,98.516,94.7823,0.000857304,0.0427698,21.0258,-309.413,0.342204,0.0,0.0
620,154.75,20.4592,21.0434,150.492,98.5152,94.64,0.00129905,0.0428993,21.0258,-309.433,0.355441,0.0,0.0
651,162.5,20.4975,20.7949,153.969,98.5212,94.6447,0.000938011,0.0430212,21.0239,-309.433,0.355539,0.0,0.0
682,170.25,20.4254,21.0081,153.335,98.5212,94.8102,0.00123917,0.0430511,21.0235,-309.423,0.340068,0.0,0.0
713,178,20.3207,21.2372,149.158,98.5136,94.8363,0.000760451,0.0431128,21.0227,-309.423,0.336942,0.0,0.0
744,185.75,20.2294,21.0625,151.338,98.5116,94.7523,0.000540541,0.043144,21.0245,-309.453,0.344614,0.0,0.0
775,193.5,20.2323,21.4339,145.893,98.52,94.7463,0.000386434,0.0431027,21.0227,-309.463,0.345928,0.0,0.0
806,201.25,20.6874,21.6688,149.871,98.5192,94.718,0.000670319,0.0430024,21.0247,-309.463,0.348502,0.0,0.0
837,209,20.5417,21.0849,151.109,98.5092,94.6683,0.000915174,0.0427619,21.0243,-309.463,0.352256,0.0,0.0
868,216.75,20.0777,21.2704,150.204,98.4976,94.7004,0.000819944,0.0430835,21.0247,-309.483,0.348205,0.0,0.0
899,224.5,20.8267,21.2242,150.117,98.4712,94.865,0.0010669,0.0428625,21.0234,-309.483,0.330452,0.0,0.0
930,232.25,20.6179,21.431,151.645,98.4397,94.6417,0.000940575,0.0429801,21.0247,-309.493,0.348488,0.0,0.0
961,240,20.5545,21.6664,150.448,98.4113,94.6597,0.000985026,0.0427984,21.0248,-309.503,0.34425,0.0,0.0
992,247.75,20.4083,21.355,149.306,98.3861,94.6696,0.00112815,0.0429884,21.0253,-309.493,0.341063,0.0,0.0
1023,255.5,20.4578,21.3317,149.119,98.3186,94.6927,0.000601227,0.0429114,21.0251,-309.493,0.332815,0.0,0.0
1054,263.25,20.7918,21.2575,151.572,98.2511,94.7073,0.000753445,0.0429908,21.0259,-309.493,0.325366,0.0,0.0
1085,271,20.5684,21.1101,150.93,98.1971,94.4981,0.000954469,0.0427204,21.0261,-309.493,0.340087,0.0,0.0
1116,278.75,20.4183,21.371,148.936,98.1591,94.4612,0.00109289,0.0430109,21.0254,-309.513,0.34012,0.0,0.0
1147,286.5,20.4446,21.4656,148.898,98.3917,94.8097,0.000863515,0.0431264,21.0237,-309.493,0.32846,0.0,0.0
1178,294.25,20.6801,20.9229,151.154,98.6602,95.0241,0.000826597,0.0430571,21.0236,-309.443,0.332599,0.0,0.0
1209,302,20.432,21.4757,151.471,98.862,95.211,0.00079579,0.0429169,21.0233,-309.473,0.333292,0.0,0.0
1240,309.75,20.3985,21.2876,150.841,98.9647,95.1214,0.000556467,0.0431443,21.0231,-309.483,0.350827,0.0,0.0
1271,317.5,20.9007,21.4301,150.235,98.9723,95.2796,0.00110579,0.0435862,21.0225,-309.493,0.336789,0.0,0.0
1302,325.25,20.7706,21.2181,154.893,98.9452,95.2629,0.000693591,0.0435398,21.0216,-309.483,0.335911,0.0,0.0
1333,333,20.8346,21.6248,149.99,98.8892,95.5334,0.00070094,0.0434964,21.0225,-309.503,0.305788,0.0,0.0
1364,340.75,21.2146,21.3556,151.715,98.8161,94.9649,0.000815488,0.0435962,21.0221,-309.513,0.352094,0.0,0.0
1395,348.5,20.4442,21.0542,151.339,98.7629,95.1107,0.000973173,0.0435728,21.0258,-309.543,0.333746,0.0,0.0
1426,356.25,20.627,21.3597,150.603,98.721,95.0262,0.000978575,0.0435881,21.0261,-309.523,0.33785,0.0,0.0
1457,364,20.8819,21.566,154.295,98.6694,95.1647,0.000978796,0.0433808,21.0267,-309.523,0.320327,0.0,0.0
1488,371.75,20.472,21.6431,150.658,98.6383,94.9988,0.000869327,0.0434979,21.0244,-309.523,0.332983,0.0,0.0
1519,379.5,20.6105,21.4979,148.786,98.5755,95.1167,0.000640068,0.0434892,21.024,-309.533,0.316364,0.0,0.0
1550,387.25,20.3775,21.2226,152.017,98.5408,95.0811,0.000303221,0.0438531,21.0244,-309.543,0.316553,0.0,0.0
1581,395,20.7467,21.8205,147.587,98.5092,94.9628,0.000815236,0.0440075,21.0245,-309.523,0.324743,0.0,0.0
1612,402.75,20.4163,21.401,152.812,98.4513,94.8547,0.00114044,0.0436751,21.0245,-309.533,0.329615,0.0,0.0
1643,410.5,20.4837,21.3076,150.811,98.4201,94.7673,0.000593156,0.04344,21.0245,-309.533,0.33498,0.0,0.0
1674,418.25,21.0363,21.467,151.124,98.4341,94.7394,0.000634668,0.0432591,21.0252,-309.533,0.338843,0.0,0.0
1705,426,20.5726,21.325,146.227,98.468,94.7107,0.000949904,0.0432351,21.0247,-309.543,0.344584,0.0,0.0
1736,433.75,20.833,21.4792,150.755,98.4952,94.8187,0.000886983,0.0431328,21.0249,-309.553,0.336931,0.0,0.0
1767,441.5,20.5762,21.7533,152.865,98.522,94.7026,0.000582644,0.0432445,21.0227,-309.543,0.350196,0.0,0.0
1798,449.25,20.6397,21.9759,151.079,98.5404,94.6914,0.000434248,0.0431819,21.024,-309.533,0.352892,0.0,0.0
1829,457,20.8411,21.4463,152.381,98.5747,94.7926,0.000885253,0.0431398,21.0235,-309.543,0.346522,0.0,0.0
1860,464.75,20.986,21.7685,150.932,98.6019,94.664,0.00100709,0.0434077,21.0222,-309.553,0.360987,0.0,0.0
1891,472.5,20.671,21.8191,149.818,98.6279,94.7729,0.000756814,0.0432216,21.0241,-309.553,0.353139,0.0,0.0
1922,480.25,21.2027,21.9957,150.586,98.6231,94.874,0.000661552,0.0435243,21.0233,-309.543,0.343258,0.0,0.0
1953,488,21.1993,21.6678,150.58,98.6311,94.8745,0.000628755,0.0439953,21.0236,-309.553,0.343936,0.0,0.0
1984,495.75,21.0353,21.6662,150.324,98.6299,95.0052,0.000855474,0.0443088,21.0235,-309.543,0.331631,0.0,0.0
2015,503.5,21.0748,21.501,147.792,98.6543,95.085,0.0006203,0.0439257,21.0246,-309.533,0.326388,0.0,0.0
2046,511.25,21.1357,22.147,151.564,98.6862,95.1158,0.00075716,0.0439987,21.0232,-309.533,0.326384,0.0,0.0
2077,519,20.8957,21.5479,152.231,98.7062,94.9122,0.000683121,0.043793,21.0229,-309.563,0.347157,0.0,0.0
2108,526.75,21.2537,21.5707,152.992,98.735,95.0172,0.000675513,0.043683,21.0236,-309.543,0.339944,0.0,0.0
2139,534.5,20.9895,21.8858,152.293,98.7929,95.1167,0.000699966,0.0437493,21.0229,-309.543,0.335874,0.0,0.0
2170,542.25,20.6626,21.9093,151.287,98.8465,95.1274,0.000909686,0.0440564,21.0224,-309.563,0.339676,0.0,0.0
2201,550,20.9937,21.7868,151.26,98.8656,95.0391,0.000674743,0.0440718,21.022,-309.553,0.34962,0.0,0.0
2232,557.75,20.7174,21.1468,151.805,98.9112,95.3585,0.00067802,0.0440672,21.0219,-309.553,0.323986,0.0,0.0
2263,565.5,20.3995,21.5843,149.229,98.9711,95.2208,0.000679081,0.0437416,21.0205,-309.563,0.342144,0.0,0.0
2294,573.25,21.0752,21.0736,152.758,99.0207,95.1968,0.000413949,0.0437479,21.0221,-309.553,0.348809,0.0,0.0
2325,581,20.5895,21.483,151.551,99.0734,95.5496,0.000548103,0.0436993,21.023,-309.563,0.320762,0.0,0.0
2356,588.75,20.3396,21.7656,150.843,99.1274,95.4433,0.000521232,0.0442845,21.0214,-309.563,0.335444,0.0,0.0
2387,596.5,20.6649,21.8266,145.939,99.1653,95.355,0.00032818,0.0444514,21.0216,-309.583,0.347033,0.0,0.0
2418,604.25,20.1996,20.6062,148.632,99.1941,95.5681,0.000785568,0.0438935,21.024,-309.553,0.329835,0.0,0.0
2449,612,20.7772,21.2382,151.126,99.2141,95.3812,0.000680464,0.0433554,21.0247,-309.543,0.348958,0.0,0.0
2480,619.75,20.039,21.3951,147.463,99.2089,95.6993,0.000613577,0.0433671,21.0247,-309.553,0.319006,0.0,0.0
2511,627.5,20.6545,21.349,148.028,99.2029,95.265,0.000594374,0.0432134,21.0241,-309.553,0.358753,0.0,0.0
2542,635.25,19.8272,21.3654,148.208,99.1873,95.4163,0.000576843,0.0430756,21.0241,-309.563,0.343305,0.0,0.0
2573,643,20.6981,21.2107,154.649,99.1637,95.364,0.000703513,0.0430928,21.0241,-309.563,0.346055,0.0,0.0
2604,650.75,19.9454,21.0817,148.466,99.1609,95.5051,0.000678365,0.0430365,21.0262,-309.563,0.332716,0.0,0.0
2635,658.5,20.8147,21.6244,147.637,99.1166,95.2821,0.000637422,0.0431035,21.0262,-309.563,0.34945,0.0,0.0
2666,666.25,20.382,21.1556,148.624,99.0858,95.2714,0.000352997,0.0430433,21.0256,-309.573,0.347695,0.0,0.0
2697,674,20.4333,21.798,151.921,99.0363,95.2273,0.000473373,0.0430319,21.0238,-309.573,0.347372,0.0,0.0
2728,681.75,20.2079,21.2743,150.05,98.9863,95.3006,0.000432702,0.0432145,21.0238,-309.573,0.336088,0.0,0.0
2759,689.5,20.6856,21.6211,148.935,98.898,95.19,0.000572371,0.0432765,21.0236,-309.573,0.338468,0.0,0.0
2790,697.25,20.4232,21.5485,153.215,98.7905,95.0172,0.000516446,0.043644,21.0225,-309.553,0.344926,0.0,0.0
2821,705,20.0259,20.9771,148.201,98.685,94.859,0.000233262,0.0436343,21.0195,-309.563,0.35022,0.0,0.0
2852,712.75,20.8722,21.5985,152.811,98.6123,94.8012,,0.043931,,-309.563,0.349095,0.0,0.0
2883,720.5,20.8299,21.585,151.025,98.5735,94.7549,,,,-309.583,0.34994,0.0,0.0
2886,721.25,20.6135,21.2489,155.195,98.5619,94.7896,,,,-309.563,0.345654,0.0,0.0