File: 01_Data/Cellulose_Insulation/Cone/Cellulose_Insulation_Cone_HF25Scan_220426_R1.csv
Names,Time,Stack TC,Smoke TC,Exh Press,Smoke Comp,Smoke Meas,CO Meter,CO2 Meter,O2 Meter,Sample Mass,Ext Coeff,Start Test,Flame Verif
Chan Gain,,500,500,1,1,1,1,1,1,1,1,1.0,1.0
Offset,,0,0,0.135223,0,0,0,0,0,0,0,0.0,0.0
Gain,,1,1,25.011,13.0939,14.0471,1,1,1,1.00088,1.00971,1.0,1.0
Units,sec,C,C,Pa,%,%,%,%,%,g,/m,,
Baseline,,19.7814,20.431,151.879,97.1797,93.98,0.000998649,0.0462581,21.0096,-834.16,0.296547,,
82,20.25,18.8696,19.0078,150.173,97.1614,94.1187,0.0010246,0.0459965,21.0127,-311.765,0.2818,0.0,0.0
164,40.75,19.1573,19.5005,149.159,97.1694,93.9339,0.0009275,0.0450024,21.014,-311.855,0.299934,0.0,0.0
246,61.25,19.395,19.7169,151.076,97.1977,93.9421,0.000743016,0.0444475,21.0174,-311.825,0.301751,0.0,0.0
328,81.75,19.6539,20.3308,151.148,97.1829,93.8529,0.000787284,0.045842,21.0136,-311.875,0.308815,0.0,0.0
410,102.25,19.5251,20.1642,152.602,97.1578,93.8979,0.00103932,0.045162,21.0157,-311.955,0.302273,0.0,0.0
492,122.75,19.3834,20.3655,148.169,97.1522,93.9412,0.0010975,0.0445128,21.0194,-311.935,0.29768,0.0,0.0
574,143.25,19.9487,20.709,151.581,97.1546,94.0853,0.000994058,0.0442726,21.0221,-312.045,0.284329,0.0,0.0
656,163.75,19.7885,20.8478,153.932,97.1446,93.8118,0.00130612,0.0439865,21.0215,-311.975,0.309203,0.0,0.0
738,184.25,19.8145,20.8509,154.249,97.1446,93.9267,0.000977902,0.0438436,21.0197,-312.045,0.298362,0.0,0.0
820,204.75,20.4094,21.0603,150.268,97.1642,94.069,0.000716789,0.0436053,21.0217,-312.105,0.286737,0.0,0.0
902,225.25,20.1439,20.7586,150.88,97.1594,94.2336,0.00119708,0.0432717,21.0211,-312.015,0.270814,0.0,0.0
984,245.75,19.9568,20.6125,153.247,97.1562,93.8752,0.00080665,0.0429724,21.0243,-312.085,0.304271,0.0,0.0
1066,266.25,20.1307,20.8758,149.269,97.1438,94.0591,0.000654707,0.0428277,21.0215,-312.025,0.285807,0.0,0.0
1148,286.75,20.3031,20.9797,154.833,97.1502,94.0587,0.000969563,0.0429079,21.0207,-312.095,0.28643,0.0,0.0
1230,307.25,20.4388,20.9046,156.537,97.159,94.0724,0.000693878,0.0429037,21.0238,-312.115,0.285939,0.0,0.0
1312,327.75,19.98,21.0302,151.242,97.2441,93.9202,0.000612896,0.0426226,21.0245,-312.045,0.308035,0.0,0.0
1394,348.25,20.2628,21.114,150.907,97.4307,94.2237,0.000547382,0.042579,21.0247,-312.065,0.296439,0.0,0.0
1476,368.75,20.3325,21.1076,150.642,97.6641,94.4141,0.00079358,0.0428452,21.026,-312.075,0.299755,0.0,0.0
1558,389.25,20.7407,21.3005,150.671,97.8515,95.0464,0.000693749,0.0423756,21.0247,-312.075,0.257615,0.0,0.0
1640,409.75,20.5138,21.2238,149.291,98.0581,95.0699,0.000835452,0.0439596,21.0245,-312.075,0.274098,0.0,0.0
1722,430.25,20.4679,20.7941,154.233,98.2119,94.9306,0.000762605,0.0432955,21.0238,-312.075,0.300973,0.0,0.0
1804,450.75,20.0564,21.5538,149.519,98.1076,95.3246,0.000672315,0.0430857,21.0257,-312.075,0.254881,0.0,0.0
1886,471.25,20.1909,20.857,147.582,97.8471,94.8316,0.00069605,0.0446821,21.0233,-312.085,0.277254,0.0,0.0
1968,491.75,20.5525,21.6673,154.888,97.6221,94.3836,0.000838046,0.0427842,21.0228,-312.065,0.298805,0.0,0.0
2050,512.25,20.6725,21.5174,149.056,97.4131,94.2199,0.000885625,0.0425983,21.0238,-312.065,0.295205,0.0,0.0
2132,532.75,20.4178,21.6055,149.382,97.2593,94.1959,0.000442064,0.0425997,21.0224,-312.075,0.283462,0.0,0.0
2214,553.25,20.2837,21.7703,150.673,97.155,94.0548,0.000820114,0.0430243,21.0267,-312.075,0.28723,0.0,0.0
2296,573.75,20.4349,21.2709,149.081,97.1766,94.111,0.00079107,0.0429377,21.023,-312.075,0.283911,0.0,0.0
2378,594.25,20.5916,21.2574,151.27,97.348,94.1757,0.00057381,0.0429869,21.0246,-312.065,0.293432,0.0,0.0
2460,614.75,20.6072,21.3125,151.779,97.6509,94.6434,0.000667281,0.0427922,21.0284,-312.085,0.277069,0.0,0.0
2542,635.25,20.1903,21.3283,150.093,97.9194,94.9692,0.000356744,0.0427721,21.0259,-312.105,0.270955,0.0,0.0
2624,655.75,20.1796,21.2704,150.928,98.07,94.7887,0.000699628,0.0427259,21.0253,-312.105,0.301419,0.0,0.0
2706,676.25,20.7421,20.9727,155.127,98.2135,94.9739,0.000688665,0.0426799,21.0235,-312.065,0.297077,0.0,0.0
2788,696.75,20.3204,21.1214,151.628,98.3206,95.3036,0.000743375,0.0424257,21.0256,-312.075,0.27604,0.0,0.0
2870,717.25,20.4762,21.2257,153.36,98.3641,95.5385,0.000823202,0.0424539,21.0259,-312.095,0.258157,0.0,0.0
2952,737.75,20.5716,21.3271,145.25,98.3597,95.2821,0.000450401,0.04228,21.0256,-312.075,0.28156,0.0,0.0
3034,758.25,20.5551,21.3181,147.411,98.3318,95.322,0.000379448,0.0422482,21.0262,-312.105,0.275336,0.0,0.0
3116,778.75,20.2695,21.5286,146.451,98.303,95.1784,0.000871746,0.0424856,21.0262,-312.085,0.286097,0.0,0.0
3198,799.25,20.7292,21.4285,149.329,98.3222,95.4639,0.000476463,0.0427171,21.0262,-312.085,0.261297,0.0,0.0
3280,819.75,20.4465,21.1034,150.075,98.3566,95.2033,0.0007469,0.0425117,21.0267,-312.095,0.288607,0.0,0.0
3362,840.25,20.3231,21.0649,155.873,98.4157,95.3019,0.000490505,0.0426344,21.028,-312.065,0.284762,0.0,0.0
3444,860.75,20.4298,21.3506,152.627,98.4692,95.2191,0.000729064,0.0424284,21.0266,-312.075,0.297273,0.0,0.0
3526,881.25,20.2332,21.3208,151.795,98.4365,95.0669,0.000466744,0.0423242,21.0263,-312.075,0.308492,0.0,0.0
3608,901.75,20.6033,21.6665,153.305,98.3769,95.157,0.000766235,0.0424882,21.0266,-312.055,0.29475,0.0,0.0
3690,922.25,20.6719,21.3333,154.458,98.2998,95.4125,0.000262389,0.0421619,21.0266,-312.095,0.264055,0.0,0.0
3772,942.75,20.3115,20.9957,148.778,98.2786,95.0832,0.000348869,0.0423072,21.0266,-312.105,0.292761,0.0,0.0
3854,963.25,20.6598,20.8312,149.681,98.2742,94.9992,0.00038789,0.0421701,21.0307,-312.095,0.300195,0.0,0.0
3936,983.75,20.2307,21.4382,150.609,98.3462,95.0631,0.000638818,0.0422901,21.0266,-312.075,0.300723,0.0,0.0
4018,1004.25,19.8969,21.3734,152.173,98.4205,95.3687,0.000554634,0.042107,21.0293,-312.085,0.278982,0.0,0.0
4100,1024.75,20.0512,21.1996,153.901,98.4728,95.1947,0.000856407,0.0422131,21.0263,-312.165,0.299869,0.0,0.0
4182,1045.25,20.3429,20.8604,153.024,98.512,95.5145,0.000640112,0.0422225,21.0273,-312.075,0.273687,0.0,0.0
4264,1065.75,20.2344,21.2555,149.334,98.5272,95.4455,0.000517193,0.0422408,21.0277,-312.075,0.281454,0.0,0.0
4346,1086.25,20.2676,21.0201,151.709,98.5252,95.722,0.00120118,0.0420367,21.0289,-312.115,0.255653,0.0,0.0
4428,1106.75,20.6415,21.1618,149.944,98.5208,95.4776,0.000699312,0.042095,21.0298,-312.165,0.277896,0.0,0.0
4510,1127.25,20.2285,21.2103,151.519,98.5064,95.4005,0.000806068,0.0420739,21.0284,-312.085,0.283764,0.0,0.0
4592,1147.75,19.8619,20.8347,151.951,98.462,95.0837,0.000997583,0.0422963,21.0277,-312.055,0.309235,0.0,0.0
4674,1168.25,20.3535,21.1425,146.487,98.3354,95.2496,0.000338553,0.0422018,21.0295,-312.065,0.282393,0.0,0.0
4756,1188.75,20.2567,21.2036,149.997,98.1879,95.2238,0.000839639,0.0418188,21.0304,-312.055,0.271494,0.0,0.0
4838,1209.25,20.0141,21.219,147.544,98.0357,94.535,0.000751315,0.0422102,21.0275,-312.075,0.32206,0.0,0.0
4920,1229.75,20.8098,21.2315,150.422,97.8523,94.7124,0.00082912,0.042057,21.0286,-312.045,0.288861,0.0,0.0
5002,1250.25,19.7642,21.0634,152.879,97.7028,94.8265,0.000872039,0.042181,21.0303,-312.075,0.264667,0.0,0.0
5084,1270.75,20.6237,20.9985,147.851,97.6117,94.5247,0.000302313,0.0421811,21.0312,-312.065,0.284638,0.0,0.0
5166,1291.25,20.4545,20.6609,152.993,97.4715,94.1161,0.000616085,0.0421867,21.0314,-312.075,0.310264,0.0,0.0
5248,1311.75,20.7475,21.1343,152.383,97.3851,94.3167,0.000366083,0.042117,21.0295,-312.085,0.283558,0.0,0.0
5330,1332.25,19.7144,20.9072,147.373,97.3128,94.1676,0.000671308,0.0420951,21.0291,-312.065,0.290998,0.0,0.0
5412,1352.75,20.3346,21.0158,149.678,97.2948,94.2151,0.000633208,0.0420261,21.0279,-312.075,0.284887,0.0,0.0
5494,1373.25,20.6996,21.3883,148.57,97.3448,94.0943,0.000736162,0.0417395,21.0285,-312.055,0.300804,0.0,0.0
5576,1393.75,20.5359,20.9214,153.15,97.3763,94.4218,0.000467156,0.0417226,21.0291,-312.115,0.2729,0.0,0.0
5658,1414.25,20.4694,21.4297,153.21,97.4167,94.5521,0.000474607,0.0418727,21.0276,-312.085,0.264355,0.0,0.0
5740,1434.75,20.8309,21.2891,152.073,97.4447,94.291,0.000593318,0.0419253,21.0304,-312.065,0.291387,0.0,0.0
5822,1455.25,20.4183,20.7067,149.863,97.4906,94.4449,0.000564034,0.0418918,21.028,-312.065,0.281119,0.0,0.0
5904,1475.75,20.2938,20.8567,151.255,97.5258,94.5551,0.000620941,0.041942,21.0275,-312.095,0.273986,0.0,0.0
5986,1496.25,20.6683,20.5757,151.106,97.5825,94.105,0.000303625,0.0418895,21.0292,-312.045,0.321402,0.0,0.0
6068,1516.75,20.6459,21.3817,151.398,97.7088,94.7986,0.000507424,0.0420162,21.0282,-312.045,0.267813,0.0,0.0
6150,1537.25,20.65625,20.6654,148.768,97.7863,94.4548,0.0001327,0.0419765,21.0282,-312.035,0.307017,0.0,0.0
6232,1557.75,20.3829,21.0702,150.635,97.8099,94.5054,0.000943131,0.0421052,21.0288,-312.035,0.30441,0.0,0.0
6314,1578.25,20.0112,21.2874,151.068,97.7967,95.0232,0.000287059,0.04207,21.0294,-312.035,0.254817,0.0,0.0
6396,1598.75,19.9345,21.455,148.436,97.7448,94.685,0.000792324,0.0419404,21.0294,-312.035,0.281693,0.0,0.0
6478,1619.25,20.4758,21.1631,149.645,97.6968,94.6083,0.000730852,0.0418316,21.0298,-312.035,0.284527,0.0,0.0
6560,1639.75,20.1052,20.911,151.922,97.7188,94.195,0.000817708,0.0420973,21.0286,-312.055,0.325292,0.0,0.0
6642,1660.25,20.2811,20.4571,149.302,97.8459,94.9821,0.000774322,0.042256,21.0287,-312.025,0.263103,0.0,0.0
6724,1680.75,20.4926,20.7384,149.081,98.0385,94.7111,0.000640894,0.0420234,21.0308,-312.015,0.305821,0.0,0.0
6806,1701.25,20.4003,20.7478,149.23,98.2962,95.0978,0.000389513,0.0419724,21.0316,-312.055,0.292988,0.0,0.0
6888,1721.75,20.4893,21.0477,151.55,98.4648,95.2067,0.000775844,0.0419439,21.0314,-312.045,0.298035,0.0,0.0
6970,1742.25,20.0934,21.0022,149.572,98.4964,95.3443,0.000430099,0.0418744,21.0309,-312.015,0.288081,0.0,0.0
7052,1762.75,20.1827,21.0128,152.125,98.482,95.415,0.000510501,0.042059,21.0322,-312.035,0.280219,0.0,0.0
7134,1783.25,20.4218,21.361,153.052,98.4121,95.4729,0.000534263,0.0417038,21.031,-312.015,0.268557,0.0,0.0
7216,1803.75,19.7646,19.9194,152.025,98.2431,95.3705,0.000454917,0.0420363,21.0285,-312.015,0.262842,0.0,0.0
7298,1824.25,19.5321,20.1226,149.754,98.5196,95.3439,0.000587254,0.0419804,21.0296,-312.015,0.290205,0.0,0.0
7380,1844.75,19.7668,20.0824,152.052,98.8445,95.9869,0.000621869,0.0419519,21.0267,-312.025,0.259829,0.0,0.0
7462,1865.25,19.7089,20.7285,154.101,98.9064,96.0645,0.000647206,0.0420103,21.0293,-312.035,0.258221,0.0,0.0
7544,1885.75,19.6013,20.2614,148.424,98.8836,95.6684,0.000496384,0.0421438,21.0287,-312.015,0.292777,0.0,0.0
7626,1906.25,19.88,20.3838,147.16,98.7637,95.659,0.000366725,0.0420809,21.0289,-312.005,0.282905,0.0,0.0
7688,1921.75,19.7366,20.424,151.866,98.6858,95.3666,,,,-312.025,0.303026,0.0,0.0