File: 01_Data/MDF/MCC/MDF_MCC_30K_min_210308_R2.txt
Sample ID:	C:\MCC\MCC Cal\Test\MDF_30_2.txt
Sample Weight (mg):	4.66
Heating Rate (C/s):	0.5
Combustor Temp (C):	900
N2 Flow Rate (cc/min):	80
O2 Flow Rate (cc/min):	20
Calibration File:	C:\MCC\MCC Cal\Coeff1 JN10440_30_210304.txt.txt
T Correction Coefficients:	0	1.024463	0
Time Shift (s):	14
*
Time (s)	Temperature (C)	N2 flow rate (cc/min)	O2 flow rate (cc/min)	Flow Rate (cc/min)	Oxygen (%)	HRR (W/g)	Heating rate (C/s)
0.000	106.899	79.990	19.991	99.643	20.324	0.038	0.004
7.500	106.879	79.991	19.992	99.632	20.326	-0.117	-0.002
15.000	106.849	79.990	19.991	99.649	20.324	0.040	-0.011
22.500	106.963	79.989	19.991	99.710	20.310	0.962	0.012
30.000	107.289	79.992	19.991	99.752	20.304	1.348	0.096
37.500	107.891	79.991	19.991	99.757	20.299	1.696	0.120
45.000	108.700	79.989	19.991	99.795	20.291	2.222	0.184
52.501	109.903	79.992	19.990	99.837	20.282	2.871	0.208
60.000	111.348	79.993	19.992	99.860	20.274	3.400	0.221
67.500	113.221	79.991	19.992	99.879	20.274	3.402	0.267
75.000	115.420	79.991	19.991	99.879	20.273	3.466	0.326
82.500	117.832	79.994	19.991	99.878	20.270	3.671	0.337
90.000	120.515	79.991	19.991	99.900	20.271	3.590	0.367
97.500	123.446	79.991	19.993	99.916	20.272	3.511	0.390
105.000	126.556	79.991	19.992	99.903	20.268	3.783	0.413
112.500	129.788	79.991	19.992	99.919	20.264	4.041	0.422
120.000	133.100	79.989	19.991	99.921	20.266	3.942	0.411
127.500	136.640	79.989	19.991	99.916	20.271	3.605	0.492
135.000	140.292	79.991	19.991	99.912	20.269	3.727	0.523
142.500	143.970	79.991	19.992	99.901	20.266	3.900	0.512
150.000	147.667	79.992	19.992	99.907	20.263	4.092	0.466
157.500	151.436	79.991	19.992	99.915	20.265	3.969	0.505
165.000	155.147	79.992	19.992	99.908	20.265	4.018	0.512
172.500	158.972	79.990	19.991	99.891	20.264	4.084	0.508
180.000	162.743	79.989	19.992	99.884	20.264	4.036	0.477
187.500	166.654	79.989	19.991	99.884	20.269	3.697	0.510
195.000	170.394	79.991	19.991	99.886	20.268	3.807	0.486
202.500	174.206	79.990	19.990	99.879	20.262	4.167	0.469
210.000	177.973	79.990	19.990	99.879	20.263	4.132	0.509
217.500	181.689	79.991	19.991	99.878	20.261	4.259	0.513
225.000	185.398	79.993	19.991	99.878	20.262	4.160	0.476
232.500	189.136	79.989	19.991	99.873	20.260	4.349	0.473
240.000	192.835	79.992	19.991	99.881	20.260	4.343	0.477
247.500	196.497	79.992	19.991	99.877	20.259	4.360	0.479
255.000	200.176	79.989	19.992	99.881	20.245	5.301	0.478
262.500	203.849	79.990	19.993	99.880	20.251	4.938	0.463
270.000	207.526	79.989	19.992	99.877	20.242	5.555	0.508
277.500	211.266	79.990	19.991	99.875	20.244	5.423	0.490
285.000	214.928	79.989	19.991	99.873	20.236	5.912	0.477
292.500	218.614	79.991	19.991	99.877	20.231	6.242	0.471
300.000	222.383	79.993	19.991	99.880	20.235	6.009	0.478
307.500	226.100	79.990	19.990	99.881	20.226	6.629	0.504
315.000	229.882	79.990	19.990	99.885	20.221	6.914	0.500
322.500	233.623	79.992	19.991	99.881	20.212	7.533	0.503
330.000	237.389	79.993	19.991	99.878	20.203	8.146	0.527
337.500	241.092	79.990	19.991	99.881	20.190	9.037	0.490
345.000	244.971	79.989	19.992	99.890	20.183	9.494	0.544
352.500	248.676	79.990	19.992	99.894	20.172	10.214	0.496
360.000	252.596	79.989	19.991	99.909	20.156	11.251	0.529
367.500	256.358	79.990	19.990	99.913	20.145	12.022	0.508
375.001	260.158	79.990	19.991	99.920	20.125	13.368	0.459
382.500	263.969	79.993	19.991	99.921	20.107	14.575	0.500
390.000	267.764	79.991	19.991	99.921	20.084	16.113	0.511
397.501	271.536	79.993	19.990	99.923	20.057	17.886	0.463
405.000	275.303	79.993	19.991	99.936	20.040	19.077	0.505
412.500	279.010	79.993	19.992	99.945	20.015	20.698	0.501
420.000	282.734	79.991	19.992	99.958	19.995	22.055	0.480
427.500	286.442	79.990	19.990	99.960	19.976	23.353	0.477
435.000	290.170	79.990	19.992	99.963	19.953	24.861	0.531
442.500	293.886	79.989	19.992	99.966	19.935	26.085	0.509
450.000	297.614	79.990	19.991	99.971	19.914	27.462	0.499
457.500	301.333	79.992	19.992	99.986	19.895	28.773	0.512
465.000	305.150	79.993	19.991	99.994	19.869	30.524	0.537
472.500	308.887	79.991	19.991	100.000	19.841	32.381	0.492
480.000	312.732	79.992	19.990	100.004	19.817	33.965	0.562
487.500	316.467	79.994	19.990	100.024	19.791	35.710	0.476
495.000	320.284	79.992	19.991	100.033	19.761	37.781	0.462
502.500	324.118	79.991	19.991	100.030	19.723	40.310	0.514
510.000	327.938	79.989	19.991	100.040	19.688	42.649	0.510
517.500	331.730	79.990	19.992	100.053	19.652	45.078	0.496
525.000	335.559	79.990	19.992	100.072	19.605	48.231	0.544
532.500	339.381	79.990	19.992	100.085	19.556	51.541	0.488
540.000	343.125	79.991	19.990	100.113	19.495	55.645	0.519
547.500	346.909	79.993	19.990	100.147	19.436	59.565	0.498
555.000	350.651	79.993	19.991	100.157	19.371	63.977	0.489
562.500	354.553	79.992	19.990	100.172	19.305	68.392	0.516
570.000	358.378	79.992	19.990	100.191	19.253	71.879	0.489
577.500	362.233	79.991	19.991	100.193	19.219	74.134	0.498
585.000	366.038	79.992	19.992	100.152	19.216	74.281	0.516
592.500	369.810	79.989	19.991	100.098	19.270	70.571	0.491
600.000	373.663	79.990	19.992	100.023	19.399	61.878	0.518
607.500	377.530	79.991	19.992	99.924	19.578	49.908	0.529
615.000	381.341	79.990	19.992	99.869	19.780	36.379	0.526
622.500	385.160	79.992	19.990	99.857	19.953	24.828	0.493
630.000	388.969	79.990	19.991	99.860	20.067	17.201	0.489
637.500	392.835	79.991	19.990	99.872	20.121	13.642	0.505
645.000	396.707	79.993	19.990	99.853	20.147	11.871	0.476
652.500	400.528	79.994	19.991	99.863	20.163	10.799	0.525
660.000	404.380	79.991	19.991	99.851	20.168	10.463	0.538
667.500	408.270	79.991	19.992	99.847	20.169	10.434	0.538
675.000	411.995	79.991	19.992	99.849	20.180	9.665	0.475
682.500	415.823	79.991	19.991	99.855	20.177	9.857	0.521
690.000	419.615	79.990	19.991	99.846	20.183	9.467	0.479
697.500	423.456	79.989	19.992	99.842	20.187	9.227	0.490
705.000	427.320	79.993	19.991	99.848	20.189	9.093	0.516
712.500	431.099	79.992	19.990	99.839	20.190	9.003	0.536
720.000	435.005	79.992	19.990	99.838	20.196	8.620	0.499
727.500	438.837	79.995	19.991	99.843	20.197	8.524	0.568
735.000	442.664	79.993	19.990	99.837	20.199	8.410	0.539
742.500	446.439	79.992	19.990	99.840	20.211	7.625	0.498
750.000	450.265	79.993	19.991	99.841	20.210	7.697	0.524
757.500	454.094	79.992	19.991	99.841	20.213	7.437	0.483
765.000	457.976	79.991	19.991	99.842	20.218	7.120	0.517
772.500	461.805	79.991	19.992	99.844	20.219	7.043	0.509
780.000	465.606	79.992	19.991	99.838	20.225	6.631	0.482
787.500	469.493	79.994	19.992	99.834	20.227	6.499	0.564
795.000	473.523	79.992	19.991	99.833	20.226	6.598	0.530
802.500	477.430	79.993	19.991	99.831	20.231	6.258	0.489
810.000	481.124	79.994	19.990	99.839	20.236	5.896	0.504
817.500	484.910	79.992	19.990	99.839	20.235	6.020	0.421
825.000	488.729	79.990	19.990	99.840	20.242	5.493	0.456
832.500	492.816	79.993	19.990	99.838	20.241	5.573	0.495
840.000	496.900	79.991	19.991	99.836	20.235	6.011	0.714
847.500	500.783	79.992	19.991	99.837	20.236	5.901	0.424
855.000	504.691	79.991	19.991	99.836	20.240	5.676	0.503
862.500	508.560	79.992	19.992	99.837	20.238	5.760	0.554
870.001	512.378	79.993	19.991	99.837	20.241	5.605	0.486
877.500	516.373	79.991	19.991	99.836	20.243	5.446	0.517
885.000	520.367	79.993	19.991	99.834	20.243	5.449	0.590
892.500	524.160	79.993	19.990	99.832	20.248	5.139	0.492
900.000	528.004	79.991	19.991	99.830	20.246	5.240	0.547
907.500	531.809	79.992	19.990	99.824	20.242	5.507	0.497
915.000	535.650	79.992	19.991	99.826	20.244	5.383	0.472
922.500	539.470	79.992	19.991	99.829	20.247	5.194	0.550
930.000	543.298	79.992	19.992	99.828	20.246	5.289	0.520
937.500	547.105	79.991	19.992	99.835	20.248	5.152	0.506
945.000	550.916	79.994	19.990	99.837	20.249	5.040	0.485
952.500	554.738	79.992	19.992	99.836	20.245	5.326	0.498
960.000	558.621	79.993	19.991	99.833	20.249	5.055	0.504
967.500	562.469	79.994	19.991	99.833	20.251	4.914	0.528
975.000	566.261	79.994	19.991	99.832	20.255	4.659	0.508
982.500	570.180	79.992	19.991	99.834	20.251	4.949	0.501
990.000	574.138	79.992	19.991	99.836	20.252	4.845	0.559
997.500	578.000	79.992	19.990	99.838	20.257	4.497	0.538
1005.000	581.777	79.991	19.991	99.832	20.257	4.531	0.513
1012.500	585.611	79.989	19.991	99.829	20.256	4.577	0.477
1020.000	589.475	79.992	19.992	99.813	20.254	4.708	0.545
1027.500	593.187	79.994	19.990	99.828	20.256	4.581	0.489
1035.000	596.998	79.993	19.991	99.812	20.251	4.899	0.508
1042.501	600.760	79.991	19.991	99.823	20.258	4.445	0.499
1050.001	604.518	79.993	19.991	99.815	20.255	4.650	0.508
1057.500	608.297	79.992	19.991	99.822	20.256	4.599	0.517
1065.001	612.083	79.991	19.990	99.835	20.262	4.171	0.536
1072.500	615.941	79.992	19.991	99.829	20.259	4.362	0.540
1080.000	619.742	79.991	19.991	99.833	20.264	4.045	0.475
1087.500	623.626	79.992	19.991	99.829	20.262	4.213	0.528
1095.001	627.494	79.991	19.991	99.834	20.263	4.112	0.528
1102.500	631.400	79.992	19.992	99.815	20.264	4.081	0.514
1110.001	635.382	79.991	19.993	99.822	20.258	4.423	0.532
1117.500	639.247	79.991	19.992	99.808	20.260	4.322	0.522
1125.000	643.035	79.992	19.992	99.833	20.262	4.194	0.513
1132.500	646.865	79.993	19.992	99.815	20.261	4.256	0.515
1140.000	650.688	79.991	19.991	99.815	20.259	4.381	0.533
1147.500	654.471	79.991	19.993	99.816	20.262	4.185	0.496
1155.001	658.303	79.989	19.991	99.804	20.259	4.399	0.499
1162.500	662.154	79.993	19.992	99.813	20.260	4.293	0.494
1170.001	665.975	79.991	19.991	99.821	20.261	4.246	0.518
1177.500	669.748	79.991	19.990	99.818	20.257	4.535	0.509
1185.000	673.541	79.993	19.991	99.831	20.257	4.507	0.471
1192.500	677.330	79.993	19.991	99.829	20.260	4.334	0.465
1200.000	681.150	79.991	19.991	99.819	20.271	3.559	0.509
1207.500	684.902	79.993	19.992	99.820	20.262	4.200	0.491
1215.000	688.752	79.994	19.992	99.823	20.259	4.388	0.632
1222.500	692.476	79.990	19.992	99.825	20.261	4.279	0.509
1230.001	696.271	79.989	19.991	99.821	20.257	4.517	0.505
1237.500	700.052	79.991	19.992	99.823	20.258	4.434	0.508
1245.000	703.850	79.993	19.991	99.801	20.255	4.644	0.497
1252.500	707.695	79.992	19.991	99.805	20.257	4.532	0.533
1260.000	711.536	79.992	19.991	99.806	20.254	4.703	0.504
1267.500	715.448	79.994	19.991	99.821	20.253	4.794	0.495
1275.000	719.322	79.993	19.992	99.815	20.253	4.782	0.518
1282.500	723.107	79.993	19.992	99.819	20.251	4.895	0.518
1290.000	726.837	79.992	19.991	99.805	20.257	4.534	0.488
1297.501	730.514	79.993	19.992	99.816	20.256	4.614	0.496
1305.000	734.278	79.989	19.992	99.803	20.254	4.746	0.515
1312.500	738.085	79.994	19.991	99.811	20.254	4.697	0.512
1320.000	741.877	79.991	19.990	99.803	20.256	4.598	0.499
1323.000	743.456	79.993	19.991	99.804	20.251	4.904	0.556