File: 01_Data/MDF/MCC/MDF_MCC_DataDF.csv
Temperature (C),HRR (W/g),HRR correction,R1,HRR (W/g),HRR correction,R2,HRR (W/g),HRR correction,R3
150.00,5.26,5.26,0.00,4.95,4.95,0.00,3.95,3.95,0.00
154.00,4.75,5.17,-0.41,4.97,4.95,0.02,3.70,3.92,-0.22
158.00,4.45,5.08,-0.63,4.88,4.95,-0.07,3.54,3.89,-0.35
162.00,4.40,5.00,-0.59,5.13,4.96,0.18,3.83,3.86,-0.03
166.00,4.84,4.91,-0.07,4.61,4.96,-0.35,3.65,3.83,-0.18
170.00,4.48,4.82,-0.34,4.92,4.96,-0.04,3.79,3.80,-0.01
174.00,4.20,4.74,-0.54,5.07,4.97,0.10,4.06,3.78,0.28
178.00,4.43,4.65,-0.22,5.07,4.97,0.10,4.05,3.75,0.30
182.00,4.29,4.56,-0.27,5.14,4.97,0.16,3.97,3.72,0.25
186.00,4.38,4.48,-0.10,5.31,4.98,0.33,4.28,3.69,0.59
190.00,4.16,4.39,-0.23,5.48,4.98,0.50,4.40,3.66,0.74
194.00,4.33,4.30,0.03,5.50,4.98,0.52,4.58,3.63,0.94
198.00,4.25,4.22,0.03,5.87,4.99,0.89,4.59,3.60,0.98
202.00,4.73,4.13,0.60,6.03,4.99,1.04,4.71,3.58,1.13
206.00,4.49,4.04,0.44,6.40,4.99,1.41,5.30,3.55,1.76
210.00,5.01,3.96,1.05,6.72,5.00,1.72,5.90,3.52,2.38
214.00,5.35,3.87,1.47,7.13,5.00,2.13,6.41,3.49,2.92
218.00,5.26,3.79,1.48,7.10,5.00,2.10,6.46,3.46,3.00
222.00,6.37,3.70,2.67,7.64,5.00,2.64,6.92,3.43,3.48
226.00,6.48,3.61,2.87,8.09,5.01,3.08,7.40,3.40,4.00
230.00,6.64,3.53,3.12,8.36,5.01,3.35,8.02,3.38,4.64
234.00,7.39,3.44,3.95,9.04,5.01,4.03,8.50,3.35,5.15
238.00,7.88,3.35,4.53,9.98,5.02,4.96,9.15,3.32,5.83
242.00,8.73,3.27,5.46,11.01,5.02,5.99,10.40,3.29,7.11
246.00,9.52,3.18,6.34,11.91,5.02,6.89,11.15,3.26,7.89
250.00,10.05,3.09,6.96,12.94,5.03,7.92,12.16,3.23,8.92
254.00,10.78,3.01,7.77,14.11,5.03,9.08,13.62,3.20,10.41
258.00,12.56,2.92,9.64,15.49,5.03,10.46,14.68,3.18,11.51
262.00,13.86,2.83,11.03,16.81,5.04,11.77,16.52,3.15,13.38
266.00,15.46,2.75,12.71,18.90,5.04,13.86,18.46,3.12,15.34
270.00,17.62,2.66,14.96,20.81,5.04,15.77,20.07,3.09,16.98
274.00,19.39,2.57,16.82,22.90,5.05,17.86,22.31,3.06,19.25
278.00,21.22,2.49,18.74,24.82,5.05,19.77,24.35,3.03,21.32
282.00,22.89,2.40,20.49,26.87,5.05,21.82,26.23,3.00,23.23
286.00,24.55,2.31,22.24,28.72,5.06,23.66,27.84,2.98,24.87
290.00,26.23,2.23,24.00,30.47,5.06,25.41,29.51,2.95,26.56
294.00,28.10,2.14,25.96,32.31,5.06,27.25,31.38,2.92,28.46
298.00,29.61,2.06,27.56,33.97,5.06,28.91,33.46,2.89,30.57
302.00,31.71,1.97,29.74,35.94,5.07,30.87,35.32,2.86,32.46
306.00,33.48,1.88,31.60,38.11,5.07,33.04,37.58,2.83,34.75
310.00,35.88,1.80,34.08,40.42,5.07,35.35,39.47,2.80,36.67
314.00,38.18,1.71,36.47,42.36,5.08,37.28,42.00,2.78,39.22
318.00,40.47,1.62,38.85,44.65,5.08,39.57,44.33,2.75,41.58
322.00,43.00,1.54,41.46,47.59,5.08,42.51,47.15,2.72,44.43
326.00,45.32,1.45,43.87,51.06,5.09,45.97,50.11,2.69,47.42
330.00,48.15,1.36,46.78,53.98,5.09,48.89,53.56,2.66,50.90
334.00,51.74,1.28,50.47,57.80,5.09,52.71,57.03,2.63,54.39
338.00,55.27,1.19,54.08,61.93,5.10,56.83,61.96,2.60,59.36
342.00,59.57,1.10,58.46,66.61,5.10,61.51,66.64,2.57,64.07
346.00,64.67,1.02,63.65,71.87,5.10,66.77,71.85,2.55,69.30
350.00,69.56,0.93,68.63,77.62,5.11,72.52,77.59,2.52,75.07
354.00,75.21,0.84,74.36,83.21,5.11,78.10,83.03,2.49,80.54
358.00,80.74,0.76,79.99,88.23,5.11,83.12,87.05,2.46,84.59
362.00,85.15,0.67,84.47,91.03,5.12,85.92,89.38,2.43,86.95
366.00,87.27,0.59,86.69,91.37,5.12,86.25,87.94,2.40,85.53
370.00,85.46,0.50,84.96,86.23,5.12,81.11,81.51,2.37,79.14
374.00,78.10,0.41,77.69,74.79,5.12,69.66,68.90,2.35,66.56
378.00,64.42,0.33,64.09,59.73,5.13,54.60,53.19,2.32,50.88
382.00,46.23,0.24,45.99,42.22,5.13,37.09,36.53,2.29,34.24
386.00,30.29,0.15,30.14,28.06,5.13,22.93,24.53,2.26,22.27
390.00,18.38,0.07,18.31,19.96,5.14,14.83,17.52,2.23,15.29
394.00,12.59,-0.02,12.61,15.86,5.14,10.72,14.50,2.20,12.30
398.00,9.93,-0.11,10.03,14.16,5.14,9.02,12.95,2.17,10.77
402.00,8.56,-0.19,8.75,12.99,5.15,7.84,11.69,2.15,9.54
406.00,7.90,-0.28,8.18,12.83,5.15,7.68,10.91,2.12,8.80
410.00,6.80,-0.37,7.17,12.67,5.15,7.52,10.56,2.09,8.47
414.00,6.53,-0.45,6.98,12.44,5.16,7.28,10.09,2.06,8.03
418.00,6.60,-0.54,7.13,12.00,5.16,6.84,9.93,2.03,7.90
422.00,6.08,-0.63,6.71,11.46,5.16,6.30,9.51,2.00,7.51
426.00,5.55,-0.71,6.27,11.08,5.17,5.91,9.33,1.97,7.36
430.00,5.02,-0.80,5.82,10.87,5.17,5.71,9.07,1.95,7.13
434.00,4.11,-0.89,5.00,10.94,5.17,5.76,8.31,1.92,6.40
438.00,3.74,-0.97,4.71,10.49,5.17,5.31,7.80,1.89,5.91
442.00,3.40,-1.06,4.46,10.03,5.18,4.85,7.56,1.86,5.71
446.00,3.25,-1.14,4.39,9.66,5.18,4.47,7.43,1.83,5.60
450.00,2.48,-1.23,3.71,9.29,5.18,4.11,6.98,1.80,5.18
454.00,2.41,-1.32,3.73,9.05,5.19,3.86,6.80,1.77,5.02
458.00,1.86,-1.40,3.26,8.71,5.19,3.52,6.54,1.75,4.80
462.00,2.02,-1.49,3.51,8.64,5.19,3.44,6.19,1.72,4.47
466.00,1.80,-1.58,3.38,8.17,5.20,2.97,5.87,1.69,4.18
470.00,1.61,-1.66,3.28,8.26,5.20,3.06,5.66,1.66,4.00
474.00,1.05,-1.75,2.80,8.16,5.20,2.95,5.21,1.63,3.58
478.00,0.97,-1.84,2.80,7.98,5.21,2.78,5.08,1.60,3.48
482.00,0.28,-1.92,2.20,7.52,5.21,2.31,5.10,1.57,3.52
486.00,0.29,-2.01,2.29,7.64,5.21,2.43,4.87,1.55,3.33
490.00,0.09,-2.10,2.18,7.51,5.22,2.29,4.75,1.52,3.23
494.00,-0.85,-2.18,1.33,7.69,5.22,2.47,4.76,1.49,3.27
498.00,-1.00,-2.27,1.27,7.21,5.22,1.98,4.30,1.46,2.84
502.00,-1.29,-2.36,1.07,7.07,5.23,1.84,4.20,1.43,2.77
506.00,-1.65,-2.44,0.79,7.07,5.23,1.84,4.12,1.40,2.72
510.00,-1.72,-2.53,0.81,6.88,5.23,1.65,3.58,1.37,2.20
514.00,-1.53,-2.61,1.09,6.80,5.23,1.56,3.46,1.35,2.11
518.00,-1.80,-2.70,0.90,6.74,5.24,1.50,3.61,1.32,2.29
522.00,-1.81,-2.79,0.98,6.45,5.24,1.21,3.51,1.29,2.23
526.00,-2.19,-2.87,0.68,6.31,5.24,1.07,3.26,1.26,2.00
530.00,-2.34,-2.96,0.62,6.65,5.25,1.40,3.14,1.23,1.91
534.00,-2.54,-3.05,0.51,6.39,5.25,1.13,2.88,1.20,1.68
538.00,-2.22,-3.13,0.91,6.33,5.25,1.07,2.84,1.17,1.66
542.00,-2.93,-3.22,0.29,6.39,5.26,1.13,2.92,1.14,1.78
546.00,-3.01,-3.31,0.30,6.46,5.26,1.20,2.86,1.12,1.74
550.00,-3.65,-3.39,-0.25,6.18,5.26,0.92,2.75,1.09,1.66
554.00,-3.56,-3.48,-0.08,6.26,5.27,0.99,2.51,1.06,1.45
558.00,-3.63,-3.57,-0.07,6.38,5.27,1.11,2.32,1.03,1.29
562.00,-3.90,-3.65,-0.25,5.89,5.27,0.62,2.30,1.00,1.30
566.00,-3.84,-3.74,-0.10,5.74,5.28,0.46,2.39,0.97,1.42
570.00,-4.11,-3.83,-0.29,6.09,5.28,0.81,2.16,0.94,1.22
574.00,-4.22,-3.91,-0.31,5.96,5.28,0.67,2.20,0.92,1.29
578.00,-4.40,-4.00,-0.40,5.66,5.29,0.38,1.85,0.89,0.96
582.00,-4.85,-4.09,-0.76,5.52,5.29,0.23,1.70,0.86,0.84
586.00,-4.73,-4.17,-0.56,5.70,5.29,0.41,1.60,0.83,0.77
590.00,-4.62,-4.26,-0.37,5.72,5.29,0.43,1.83,0.80,1.03
594.00,-5.01,-4.34,-0.67,5.49,5.30,0.19,1.44,0.77,0.67
598.00,-4.82,-4.43,-0.39,5.59,5.30,0.29,1.64,0.74,0.90
602.00,-4.89,-4.52,-0.37,5.91,5.30,0.61,1.47,0.72,0.76
606.00,-4.98,-4.60,-0.38,5.73,5.31,0.43,1.43,0.69,0.74
610.00,-4.92,-4.69,-0.23,5.12,5.31,-0.19,1.46,0.66,0.80
614.00,-4.94,-4.78,-0.16,5.27,5.31,-0.05,1.24,0.63,0.61
618.00,-5.16,-4.86,-0.30,5.21,5.32,-0.11,1.11,0.60,0.51
622.00,-5.35,-4.95,-0.40,5.07,5.32,-0.25,0.79,0.57,0.21
626.00,-5.43,-5.04,-0.40,5.06,5.32,-0.26,1.01,0.54,0.47
630.00,-5.30,-5.12,-0.17,4.99,5.33,-0.34,1.06,0.52,0.54
634.00,-5.61,-5.21,-0.40,4.93,5.33,-0.40,0.90,0.49,0.41
638.00,-5.78,-5.30,-0.48,5.11,5.33,-0.23,0.92,0.46,0.46
642.00,-5.83,-5.38,-0.45,5.17,5.34,-0.16,0.79,0.43,0.36
646.00,-5.82,-5.47,-0.35,5.33,5.34,-0.01,0.61,0.40,0.21
650.00,-5.78,-5.56,-0.23,5.16,5.34,-0.18,0.81,0.37,0.44
654.00,-5.75,-5.64,-0.11,5.08,5.35,-0.26,0.81,0.34,0.47
658.00,-5.82,-5.73,-0.10,5.19,5.35,-0.15,0.59,0.32,0.27
662.00,-6.27,-5.81,-0.46,5.29,5.35,-0.07,0.71,0.29,0.43
666.00,-6.33,-5.90,-0.43,5.12,5.35,-0.24,0.70,0.26,0.44
670.00,-6.16,-5.99,-0.17,5.61,5.36,0.26,0.43,0.23,0.20
674.00,-6.16,-6.07,-0.09,5.40,5.36,0.04,0.56,0.20,0.36
678.00,-5.89,-6.16,0.27,5.41,5.36,0.04,0.30,0.17,0.13
682.00,-6.16,-6.25,0.08,5.02,5.37,-0.34,0.23,0.14,0.09
686.00,-6.36,-6.33,-0.03,5.21,5.37,-0.16,0.20,0.12,0.08
690.00,-6.43,-6.42,-0.01,5.34,5.37,-0.04,0.04,0.09,-0.04
694.00,-6.45,-6.51,0.06,5.44,5.38,0.06,0.11,0.06,0.05
698.00,-6.57,-6.59,0.02,5.56,5.38,0.18,0.43,0.03,0.40
700.00,-6.64,-6.64,0.00,5.38,5.38,0.00,0.01,0.01,-0.00