File: 01_Data/MDF/MCC/MDF_MCC_30K_min_210308_R1.txt
Sample ID:	C:\MCC\MCC Cal\Test\MDF_30_1.txt
Sample Weight (mg):	3.87
Heating Rate (C/s):	0.5
Combustor Temp (C):	900
N2 Flow Rate (cc/min):	80
O2 Flow Rate (cc/min):	20
Calibration File:	C:\MCC\MCC Cal\Coeff1 JN10440_30_210304.txt.txt
T Correction Coefficients:	0	1.024463	0
Time Shift (s):	14
*
Time (s)	Temperature (C)	N2 flow rate (cc/min)	O2 flow rate (cc/min)	Flow Rate (cc/min)	Oxygen (%)	HRR (W/g)	Heating rate (C/s)
0.000	105.521	79.987	19.991	99.378	20.183	-0.369	-0.021
7.500	105.518	79.987	19.993	99.379	20.181	-0.208	0.006
15.000	105.473	79.988	19.992	99.409	20.183	-0.338	-0.038
22.500	105.637	79.988	19.990	99.492	20.170	0.726	0.037
30.000	106.022	79.990	19.991	99.614	20.148	2.461	0.077
37.500	106.949	79.987	19.990	99.644	20.137	3.317	0.136
45.000	108.291	79.989	19.990	99.663	20.140	3.100	0.207
52.500	109.933	79.991	19.991	99.659	20.135	3.521	0.256
60.000	111.974	79.990	19.991	99.683	20.136	3.400	0.252
67.500	114.366	79.988	19.992	99.694	20.135	3.487	0.350
75.001	117.010	79.989	19.992	99.719	20.128	4.088	0.365
82.500	119.798	79.989	19.991	99.724	20.128	4.084	0.370
90.000	122.862	79.986	19.993	99.726	20.132	3.765	0.407
97.500	126.058	79.987	19.991	99.750	20.122	4.525	0.414
105.000	129.463	79.988	19.991	99.741	20.128	4.100	0.443
112.501	132.905	79.989	19.991	99.762	20.126	4.235	0.450
120.000	136.541	79.989	19.991	99.748	20.125	4.320	0.498
127.500	140.298	79.989	19.990	99.743	20.126	4.217	0.475
135.000	144.148	79.992	19.990	99.754	20.128	4.078	0.503
142.500	147.951	79.987	19.990	99.753	20.125	4.287	0.534
150.000	151.866	79.986	19.992	99.739	20.128	4.035	0.532
157.501	155.602	79.989	19.992	99.747	20.133	3.648	0.489
165.000	159.437	79.986	19.991	99.747	20.130	3.927	0.527
172.500	163.266	79.987	19.992	99.732	20.133	3.698	0.486
180.001	167.055	79.986	19.992	99.727	20.130	3.940	0.498
187.500	170.790	79.990	19.991	99.728	20.134	3.566	0.522
195.000	174.488	79.989	19.991	99.723	20.137	3.381	0.488
202.500	178.230	79.989	19.990	99.724	20.135	3.547	0.496
210.000	181.950	79.991	19.991	99.729	20.135	3.496	0.481
217.500	185.669	79.993	19.991	99.744	20.136	3.426	0.509
225.000	189.377	79.987	19.992	99.735	20.135	3.472	0.523
232.500	193.098	79.988	19.992	99.734	20.134	3.562	0.497
240.000	196.745	79.988	19.992	99.735	20.136	3.450	0.476
247.500	200.422	79.987	19.991	99.725	20.136	3.426	0.464
255.000	204.153	79.986	19.991	99.746	20.130	3.875	0.490
262.501	207.918	79.987	19.992	99.735	20.131	3.846	0.511
270.000	211.605	79.989	19.992	99.743	20.125	4.278	0.471
277.500	215.322	79.989	19.990	99.739	20.125	4.302	0.465
285.000	219.033	79.989	19.991	99.742	20.127	4.118	0.497
292.500	222.769	79.991	19.990	99.740	20.117	4.950	0.519
300.000	226.547	79.987	19.991	99.738	20.111	5.474	0.487
307.500	230.281	79.987	19.991	99.758	20.107	5.750	0.537
315.000	234.073	79.987	19.991	99.757	20.107	5.781	0.527
322.500	237.817	79.990	19.992	99.760	20.099	6.375	0.503
330.000	241.580	79.989	19.991	99.761	20.093	6.873	0.501
337.500	245.369	79.989	19.991	99.765	20.083	7.713	0.515
345.000	249.229	79.992	19.992	99.764	20.082	7.811	0.521
352.500	252.973	79.987	19.991	99.764	20.075	8.337	0.501
360.000	256.764	79.988	19.991	99.773	20.056	9.893	0.494
367.500	260.534	79.991	19.991	99.786	20.046	10.642	0.495
375.000	264.230	79.994	19.991	99.797	20.026	12.309	0.489
382.500	267.943	79.988	19.991	99.802	20.010	13.585	0.471
390.000	271.721	79.993	19.992	99.803	19.992	15.053	0.531
397.500	275.438	79.990	19.991	99.816	19.976	16.288	0.464
405.000	279.219	79.987	19.991	99.827	19.962	17.425	0.488
412.500	282.995	79.987	19.991	99.836	19.941	19.162	0.498
420.000	286.793	79.990	19.991	99.839	19.927	20.274	0.466
427.500	290.598	79.989	19.991	99.841	19.912	21.496	0.531
435.000	294.365	79.990	19.993	99.843	19.894	22.916	0.534
442.500	298.194	79.990	19.991	99.861	19.878	24.210	0.534
450.000	301.958	79.992	19.992	99.858	19.862	25.476	0.494
457.500	305.773	79.992	19.991	99.866	19.843	27.016	0.516
465.000	309.566	79.989	19.990	99.882	19.821	28.827	0.501
472.500	313.356	79.989	19.990	99.885	19.799	30.567	0.495
480.000	317.208	79.990	19.990	99.888	19.777	32.305	0.526
487.500	321.004	79.990	19.991	99.887	19.751	34.429	0.506
495.000	324.851	79.990	19.991	99.895	19.730	36.115	0.540
502.500	328.677	79.991	19.992	99.918	19.709	37.867	0.534
510.000	332.461	79.990	19.991	99.919	19.671	40.911	0.493
517.500	336.311	79.989	19.993	99.939	19.638	43.547	0.463
525.000	340.136	79.992	19.990	99.945	19.599	46.692	0.517
532.500	343.944	79.991	19.990	99.965	19.560	49.898	0.521
540.000	347.692	79.987	19.991	99.985	19.506	54.217	0.515
547.500	351.509	79.991	19.991	100.003	19.456	58.260	0.492
555.000	355.286	79.989	19.990	100.034	19.401	62.716	0.525
562.500	359.111	79.989	19.990	100.038	19.351	66.773	0.516
570.000	362.845	79.988	19.990	100.038	19.315	69.646	0.501
577.500	366.605	79.991	19.992	100.022	19.305	70.408	0.487
585.000	370.402	79.990	19.992	99.998	19.322	68.978	0.483
592.500	374.164	79.991	19.991	99.937	19.396	62.967	0.497
600.000	377.946	79.991	19.993	99.871	19.524	52.637	0.522
607.500	381.756	79.993	19.991	99.805	19.694	38.992	0.508
615.000	385.597	79.990	19.990	99.765	19.856	25.981	0.529
622.500	389.474	79.991	19.991	99.764	19.985	15.596	0.513
630.000	393.378	79.989	19.993	99.767	20.045	10.710	0.523
637.500	397.277	79.991	19.993	99.765	20.076	8.246	0.533
645.000	401.186	79.989	19.991	99.766	20.091	7.069	0.503
652.500	405.025	79.988	19.991	99.767	20.101	6.231	0.498
660.000	408.892	79.992	19.991	99.766	20.108	5.693	0.532
667.500	412.692	79.990	19.990	99.762	20.113	5.303	0.491
675.000	416.500	79.989	19.991	99.765	20.115	5.113	0.490
682.500	420.320	79.992	19.991	99.761	20.114	5.199	0.516
690.000	424.069	79.991	19.993	99.761	20.120	4.688	0.486
697.500	427.857	79.988	19.992	99.763	20.122	4.561	0.508
705.000	431.584	79.987	19.990	99.766	20.134	3.623	0.500
712.500	435.423	79.991	19.991	99.763	20.137	3.343	0.487
720.000	439.277	79.989	19.991	99.763	20.139	3.171	0.513
727.501	443.082	79.987	19.993	99.767	20.143	2.832	0.491
735.000	446.790	79.989	19.991	99.767	20.147	2.570	0.483
742.500	450.618	79.990	19.992	99.757	20.156	1.782	0.528
750.001	454.417	79.989	19.992	99.761	20.154	1.951	0.524
757.500	458.206	79.989	19.992	99.756	20.162	1.306	0.502
765.000	462.019	79.991	19.992	99.755	20.159	1.572	0.488
772.500	465.813	79.989	19.990	99.755	20.158	1.621	0.532
780.000	469.655	79.989	19.991	99.764	20.163	1.233	0.527
787.500	473.445	79.989	19.990	99.756	20.166	0.982	0.512
795.000	477.326	79.989	19.991	99.759	20.167	0.943	0.559
802.500	481.147	79.986	19.990	99.758	20.169	0.777	0.511
810.000	484.972	79.989	19.990	99.757	20.179	-0.048	0.531
817.500	488.822	79.989	19.990	99.764	20.175	0.291	0.519
825.000	492.720	79.990	19.991	99.752	20.184	-0.429	0.501
832.500	496.550	79.990	19.992	99.757	20.186	-0.570	0.520
840.000	500.384	79.990	19.991	99.759	20.192	-1.110	0.538
847.500	504.260	79.989	19.990	99.754	20.190	-0.907	0.519
855.000	508.117	79.987	19.992	99.754	20.194	-1.216	0.535
862.500	511.918	79.988	19.991	99.755	20.193	-1.191	0.520
870.000	515.753	79.990	19.991	99.743	20.199	-1.665	0.504
877.500	519.642	79.987	19.992	99.749	20.196	-1.425	0.519
885.000	523.487	79.987	19.991	99.755	20.201	-1.803	0.516
892.500	527.295	79.988	19.990	99.757	20.199	-1.658	0.509
900.000	531.222	79.990	19.991	99.747	20.201	-1.779	0.514
907.500	535.058	79.988	19.991	99.752	20.207	-2.246	0.534
915.000	538.972	79.989	19.992	99.753	20.202	-1.898	0.515
922.500	542.863	79.990	19.991	99.746	20.210	-2.530	0.524
930.000	546.695	79.987	19.991	99.737	20.207	-2.320	0.548
937.500	550.581	79.988	19.992	99.740	20.210	-2.545	0.502
945.000	554.446	79.989	19.991	99.727	20.217	-3.082	0.539
952.500	558.256	79.989	19.991	99.737	20.215	-2.937	0.511
960.000	562.093	79.989	19.990	99.748	20.218	-3.177	0.513
967.500	565.832	79.988	19.991	99.738	20.218	-3.186	0.488
975.000	569.620	79.990	19.990	99.741	20.218	-3.175	0.506
982.500	573.468	79.989	19.990	99.743	20.220	-3.305	0.543
990.000	577.298	79.989	19.991	99.750	20.224	-3.611	0.471
997.500	581.175	79.991	19.992	99.728	20.226	-3.809	0.536
1005.000	584.996	79.991	19.991	99.748	20.229	-4.086	0.525
1012.500	588.809	79.989	19.991	99.743	20.227	-3.925	0.516
1020.000	592.674	79.988	19.992	99.742	20.226	-3.771	0.506
1027.500	596.493	79.990	19.992	99.750	20.227	-3.866	0.488
1035.000	600.322	79.988	19.991	99.741	20.228	-3.930	0.519
1042.500	604.111	79.988	19.991	99.732	20.231	-4.189	0.521
1050.000	607.944	79.989	19.991	99.730	20.230	-4.158	0.508
1057.500	611.751	79.990	19.991	99.727	20.231	-4.207	0.460
1065.000	615.579	79.989	19.990	99.729	20.223	-3.604	0.485
1072.500	619.445	79.991	19.991	99.726	20.234	-4.418	0.520
1080.000	623.256	79.991	19.992	99.730	20.235	-4.500	0.530
1087.500	627.119	79.988	19.992	99.736	20.235	-4.568	0.485
1095.001	630.962	79.988	19.991	99.729	20.234	-4.480	0.547
1102.500	634.758	79.988	19.992	99.728	20.233	-4.388	0.506
1110.000	638.634	79.989	19.992	99.725	20.237	-4.671	0.523
1117.500	642.469	79.990	19.991	99.724	20.234	-4.491	0.532
1125.000	646.256	79.989	19.990	99.727	20.238	-4.788	0.541
1132.500	650.144	79.990	19.991	99.722	20.237	-4.660	0.525
1140.000	654.043	79.990	19.991	99.725	20.239	-4.832	0.506
1147.500	657.953	79.991	19.991	99.735	20.236	-4.605	0.531
1155.000	661.817	79.992	19.991	99.727	20.239	-4.876	0.539
1162.500	665.727	79.987	19.991	99.726	20.240	-4.955	0.531
1170.000	669.622	79.989	19.991	99.726	20.241	-5.032	0.516
1177.500	673.525	79.990	19.991	99.724	20.242	-5.070	0.572
1185.002	677.407	79.988	19.992	99.727	20.237	-4.660	0.521
1192.500	681.280	79.989	19.992	99.722	20.239	-4.828	0.504
1200.000	685.105	79.988	19.991	99.723	20.244	-5.242	0.552
1207.500	688.929	79.990	19.990	99.721	20.247	-5.490	0.513
1215.000	692.813	79.990	19.991	99.727	20.246	-5.402	0.529
1222.500	696.693	79.989	19.990	99.723	20.247	-5.514	0.509
1230.001	700.428	79.993	19.990	99.723	20.248	-5.558	0.453
1237.500	704.217	79.990	19.990	99.723	20.247	-5.506	0.524
1245.000	707.922	79.990	19.993	99.723	20.250	-5.706	0.499
1252.500	711.698	79.989	19.991	99.724	20.248	-5.616	0.518
1260.000	715.492	79.988	19.990	99.724	20.248	-5.605	0.477
1267.500	719.271	79.988	19.992	99.724	20.247	-5.532	0.551
1275.000	722.965	79.988	19.992	99.726	20.249	-5.620	0.522
1282.500	726.732	79.989	19.991	99.727	20.254	-6.054	0.491
1290.001	730.549	79.988	19.990	99.730	20.254	-6.076	0.495
1297.501	734.316	79.989	19.990	99.722	20.253	-5.963	0.472
1305.000	738.213	79.991	19.990	99.725	20.249	-5.646	0.492
1312.500	742.041	79.991	19.990	99.724	20.253	-5.955	0.521
1318.000	744.862	79.991	19.991	99.717	20.257	-6.316	0.511