File: 01_Data/MDF/MCC/MDF_MCC_CorrectedDataDF.csv
Temperature (C),R1,R2,R3
150.00,0.00,0.00,0.00
152.00,-0.27,-0.09,-0.07
154.00,-0.41,0.02,-0.22
156.00,-0.43,0.13,-0.39
158.00,-0.63,-0.07,-0.35
160.00,-0.56,-0.03,-0.24
162.00,-0.59,0.18,-0.03
164.00,-0.40,0.00,-0.20
166.00,-0.07,-0.35,-0.18
168.00,-0.09,0.01,0.05
170.00,-0.34,-0.04,-0.01
172.00,-0.47,0.12,0.00
174.00,-0.54,0.10,0.28
176.00,0.12,-0.01,0.30
178.00,-0.22,0.10,0.30
180.00,-0.23,-0.00,0.32
182.00,-0.27,0.16,0.25
184.00,-0.19,0.04,0.42
186.00,-0.10,0.33,0.59
188.00,0.02,0.08,0.55
190.00,-0.23,0.50,0.74
192.00,0.06,0.63,0.78
194.00,0.03,0.52,0.94
196.00,-0.07,0.69,0.87
198.00,0.03,0.89,0.98
200.00,0.50,1.28,0.88
202.00,0.60,1.04,1.13
204.00,0.53,1.17,1.35
206.00,0.44,1.41,1.76
208.00,0.72,1.37,1.98
210.00,1.05,1.72,2.38
212.00,1.34,1.95,2.73
214.00,1.47,2.13,2.92
216.00,1.57,2.14,2.97
218.00,1.48,2.10,3.00
220.00,1.91,2.53,3.19
222.00,2.67,2.64,3.48
224.00,2.74,2.71,3.76
226.00,2.87,3.08,4.00
228.00,3.15,3.12,4.33
230.00,3.12,3.35,4.64
232.00,3.79,3.82,4.82
234.00,3.95,4.03,5.15
236.00,4.51,5.06,5.66
238.00,4.53,4.96,5.83
240.00,5.13,5.70,6.47
242.00,5.46,5.99,7.11
244.00,5.69,6.66,7.24
246.00,6.34,6.89,7.89
248.00,6.36,7.30,8.32
250.00,6.96,7.92,8.92
252.00,7.19,8.59,9.50
254.00,7.77,9.08,10.41
256.00,8.93,9.62,10.77
258.00,9.64,10.46,11.51
260.00,10.22,11.32,12.43
262.00,11.03,11.77,13.38
264.00,12.28,12.93,14.20
266.00,12.71,13.86,15.34
268.00,14.22,14.78,16.18
270.00,14.96,15.77,16.98
272.00,16.02,16.70,18.04
274.00,16.82,17.86,19.25
276.00,17.96,18.69,20.39
278.00,18.74,19.77,21.32
280.00,19.81,21.05,22.29
282.00,20.49,21.82,23.23
284.00,21.83,22.77,24.03
286.00,22.24,23.66,24.87
288.00,23.19,24.54,25.67
290.00,24.00,25.41,26.56
292.00,24.99,26.37,27.72
294.00,25.96,27.25,28.46
296.00,27.26,28.00,29.73
298.00,27.56,28.91,30.57
300.00,28.48,29.70,31.70
302.00,29.74,30.87,32.46
304.00,30.79,31.98,33.52
306.00,31.60,33.04,34.75
308.00,32.93,33.75,35.62
310.00,34.08,35.35,36.67
312.00,35.04,36.28,38.04
314.00,36.47,37.28,39.22
316.00,37.82,38.49,40.33
318.00,38.85,39.57,41.58
320.00,40.09,40.90,42.88
322.00,41.46,42.51,44.43
324.00,42.49,44.40,45.90
326.00,43.87,45.97,47.42
328.00,45.49,47.33,49.27
330.00,46.78,48.89,50.90
332.00,48.50,50.66,52.85
334.00,50.47,52.71,54.39
336.00,52.05,54.80,56.99
338.00,54.08,56.83,59.36
340.00,56.13,59.22,61.43
342.00,58.46,61.51,64.07
344.00,60.74,64.34,66.71
346.00,63.65,66.77,69.30
348.00,65.94,69.86,72.15
350.00,68.63,72.52,75.07
352.00,71.54,75.51,77.77
354.00,74.36,78.10,80.54
356.00,77.38,80.82,83.04
358.00,79.99,83.12,84.59
360.00,82.47,84.47,86.35
362.00,84.47,85.92,86.95
364.00,85.84,86.70,86.93
366.00,86.69,86.25,85.53
368.00,86.21,84.43,83.23
370.00,84.96,81.11,79.14
372.00,82.26,76.16,73.52
374.00,77.69,69.66,66.56
376.00,71.53,62.69,59.48
378.00,64.09,54.60,50.88
380.00,55.50,45.63,42.41
382.00,45.99,37.09,34.24
384.00,38.35,29.23,27.24
386.00,30.14,22.93,22.27
388.00,23.09,17.94,18.00
390.00,18.31,14.83,15.29
392.00,14.99,12.25,13.37
394.00,12.61,10.72,12.30
396.00,10.97,9.81,11.26
398.00,10.03,9.02,10.77
400.00,9.29,8.37,10.16
402.00,8.75,7.84,9.54
404.00,8.97,7.80,9.15
406.00,8.18,7.68,8.80
408.00,7.84,7.42,8.61
410.00,7.17,7.52,8.47
412.00,7.54,6.81,8.05
414.00,6.98,7.28,8.03
416.00,7.21,7.00,7.93
418.00,7.13,6.84,7.90
420.00,7.02,6.73,7.72
422.00,6.71,6.30,7.51
424.00,6.56,6.34,7.36
426.00,6.27,5.91,7.36
428.00,6.48,5.87,7.13
430.00,5.82,5.71,7.13
432.00,5.14,5.77,6.64
434.00,5.00,5.76,6.40
436.00,4.61,5.34,6.13
438.00,4.71,5.31,5.91
440.00,4.84,5.36,5.92
442.00,4.46,4.85,5.71
444.00,4.05,4.71,5.62
446.00,4.39,4.47,5.60
448.00,3.76,4.22,5.33
450.00,3.71,4.11,5.18
452.00,4.06,3.93,5.30
454.00,3.73,3.86,5.02
456.00,3.46,3.73,4.87
458.00,3.26,3.52,4.80
460.00,3.47,3.28,4.42
462.00,3.51,3.44,4.47
464.00,3.31,3.09,4.44
466.00,3.38,2.97,4.18
468.00,3.04,3.00,4.23
470.00,3.28,3.06,4.00
472.00,2.69,3.30,3.69
474.00,2.80,2.95,3.58
476.00,2.45,2.93,3.53
478.00,2.80,2.78,3.48
480.00,2.62,2.52,3.55
482.00,2.20,2.31,3.52
484.00,2.01,2.24,3.55
486.00,2.29,2.43,3.33
488.00,2.04,2.27,3.30
490.00,2.18,2.29,3.23
492.00,1.78,2.32,3.46
494.00,1.33,2.47,3.27
496.00,1.59,1.90,2.78
498.00,1.27,1.98,2.84
500.00,1.48,1.85,2.68
502.00,1.07,1.84,2.77
504.00,0.95,1.74,2.69
506.00,0.79,1.84,2.72
508.00,1.04,1.93,2.50
510.00,0.81,1.65,2.20
512.00,1.26,1.68,2.23
514.00,1.09,1.56,2.11
516.00,0.61,1.66,2.42
518.00,0.90,1.50,2.29
520.00,1.21,1.44,2.08
522.00,0.98,1.21,2.23
524.00,0.37,1.15,2.27
526.00,0.68,1.07,2.00
528.00,0.96,1.12,2.02
530.00,0.62,1.40,1.91
532.00,0.78,1.44,2.06
534.00,0.51,1.13,1.68
536.00,0.66,1.29,1.67
538.00,0.91,1.07,1.66
540.00,0.58,1.25,1.78
542.00,0.29,1.13,1.78
544.00,0.53,1.01,1.69
546.00,0.30,1.20,1.74
548.00,0.29,0.99,1.73
550.00,-0.25,0.92,1.66
552.00,0.10,1.30,1.66
554.00,-0.08,0.99,1.45
556.00,-0.24,1.27,1.53
558.00,-0.07,1.11,1.29
560.00,-0.11,0.99,1.24
562.00,-0.25,0.62,1.30
564.00,-0.01,0.77,1.37
566.00,-0.10,0.46,1.42
568.00,-0.26,0.66,1.27
570.00,-0.29,0.81,1.22
572.00,0.04,0.53,1.20
574.00,-0.31,0.67,1.29
576.00,-0.23,0.45,1.06
578.00,-0.40,0.38,0.96
580.00,-0.37,0.22,1.25
582.00,-0.76,0.23,0.84
584.00,-0.44,0.29,0.12
586.00,-0.56,0.41,0.77
588.00,-0.46,0.42,0.96
590.00,-0.37,0.43,1.03
592.00,-0.29,0.26,0.92
594.00,-0.67,0.19,0.67
596.00,-0.53,0.45,0.81
598.00,-0.39,0.29,0.90
600.00,-0.50,0.50,0.74
602.00,-0.37,0.61,0.76
604.00,-0.43,0.40,0.72
606.00,-0.38,0.43,0.74
608.00,-0.37,0.17,0.95
610.00,-0.23,-0.19,0.80
612.00,-0.34,-0.20,0.59
614.00,-0.16,-0.05,0.61
616.00,0.05,0.03,0.69
618.00,-0.30,-0.11,0.51
620.00,-0.48,-0.15,0.13
622.00,-0.40,-0.25,0.21
624.00,-0.54,-0.30,0.42
626.00,-0.40,-0.26,0.47
628.00,-0.13,-0.26,0.58
630.00,-0.17,-0.34,0.54
632.00,-0.22,-0.44,0.49
634.00,-0.40,-0.40,0.41
636.00,-0.42,0.07,0.52
638.00,-0.48,-0.23,0.46
640.00,-0.43,-0.25,0.49
642.00,-0.45,-0.16,0.36
644.00,-0.43,-0.20,0.40
646.00,-0.35,-0.01,0.21
648.00,-0.50,-0.17,0.34
650.00,-0.23,-0.18,0.44
652.00,-0.39,-0.01,0.31
654.00,-0.11,-0.26,0.47
656.00,-0.45,-0.20,0.39
658.00,-0.10,-0.15,0.27
660.00,-0.52,-0.11,0.54
662.00,-0.46,-0.07,0.43
664.00,-0.21,-0.16,0.66
666.00,-0.43,-0.24,0.44
668.00,-0.31,-0.26,0.31
670.00,-0.17,0.26,0.20
672.00,-0.16,0.09,0.17
674.00,-0.09,0.04,0.36
676.00,-0.18,-0.28,0.31
678.00,0.27,0.04,0.13
680.00,0.31,-0.11,0.12
682.00,0.08,-0.34,0.09
684.00,0.31,-0.14,0.01
686.00,-0.03,-0.16,0.08
688.00,0.13,-0.35,0.16
690.00,-0.01,-0.04,-0.04
692.00,0.09,-0.01,0.08
694.00,0.06,0.06,0.05
696.00,0.04,0.14,-0.01
698.00,0.02,0.18,0.40
700.00,0.00,0.00,-0.00