File: 01_Data/Engineered_Flooring/MCC/Engineered_Flooring_30K_min_211025_R2.txt
Sample ID:	C:\MCC\MCC Cal\Test\Engineered_Flooring_30K_min_211025_R2.txt
Sample Weight (mg):	4.68
Heating Rate (C/s):	0.5
Combustor Temp (C):	900
N2 Flow Rate (cc/min):	80
O2 Flow Rate (cc/min):	20
Calibration File:	C:\MCC\MCC Cal\Coeff1 JN10440_30_210304.txt.txt
T Correction Coefficients:	0	1.024463	0
Time Shift (s):	14
*
Time (s)	Temperature (C)	N2 flow rate (cc/min)	O2 flow rate (cc/min)	Flow Rate (cc/min)	Oxygen (%)	HRR (W/g)	Heating rate (C/s)
0.000	109.021	79.997	19.998	103.005	20.023	-0.070	-0.001
8.000	108.995	79.998	19.994	103.006	20.021	0.053	-0.009
16.000	109.008	79.999	19.995	103.025	20.021	0.034	-0.006
24.000	109.130	79.998	19.995	103.132	20.009	0.872	0.049
32.000	109.550	79.998	19.996	103.137	20.001	1.411	0.079
39.999	110.366	80.000	19.995	103.156	19.998	1.647	0.135
47.999	111.487	79.999	19.994	103.198	19.990	2.177	0.180
55.999	112.958	79.999	19.995	103.208	19.985	2.509	0.194
63.999	114.715	80.001	19.995	103.231	19.985	2.491	0.236
72.000	116.815	80.001	19.995	103.243	19.982	2.740	0.270
79.999	119.178	80.000	19.996	103.248	19.978	2.980	0.298
87.999	121.855	79.998	19.998	103.238	19.980	2.867	0.342
95.999	124.705	80.000	19.994	103.270	19.978	2.975	0.368
104.000	127.732	79.997	19.994	103.248	19.975	3.229	0.387
111.999	130.912	79.999	19.996	103.276	19.972	3.403	0.405
120.000	134.248	80.001	19.996	103.271	19.976	3.164	0.399
128.000	137.779	80.001	19.995	103.271	19.976	3.155	0.475
136.000	141.359	80.000	19.995	103.336	19.972	3.389	0.461
144.000	145.132	80.002	19.996	103.273	19.975	3.198	0.464
152.000	148.913	80.000	19.997	103.254	19.969	3.591	0.494
160.000	152.761	79.999	19.997	103.267	19.968	3.720	0.505
168.000	156.547	80.000	19.996	103.269	19.968	3.693	0.479
176.000	160.563	79.999	19.998	103.271	19.966	3.863	0.524
184.000	164.566	79.997	19.997	103.274	19.960	4.249	0.506
192.000	168.575	79.997	19.995	103.254	19.954	4.661	0.503
200.000	172.576	80.000	19.995	103.251	19.946	5.233	0.473
208.000	176.576	80.000	19.997	103.242	19.943	5.420	0.486
216.000	180.560	79.999	19.995	103.249	19.934	6.036	0.475
224.000	184.603	80.000	19.994	103.238	19.928	6.434	0.514
232.000	188.621	80.000	19.996	103.238	19.918	7.158	0.483
240.000	192.476	79.999	19.997	103.245	19.907	7.920	0.487
248.000	196.263	79.998	19.995	103.236	19.901	8.336	0.454
256.000	200.088	79.999	19.998	103.239	19.896	8.631	0.454
264.000	203.924	79.997	19.996	103.239	19.886	9.360	0.474
272.000	207.776	79.998	19.996	103.254	19.883	9.577	0.495
280.000	211.654	80.000	19.996	103.236	19.881	9.666	0.463
288.000	215.586	80.000	19.995	103.236	19.879	9.837	0.482
296.000	219.463	79.999	19.996	103.233	19.876	10.042	0.459
304.000	223.414	80.000	19.994	103.235	19.875	10.061	0.487
312.000	227.315	80.000	19.995	103.239	19.875	10.123	0.480
320.000	231.302	79.998	19.995	103.239	19.871	10.365	0.477
328.000	235.275	79.999	19.995	103.239	19.872	10.314	0.471
336.000	239.185	79.999	19.996	103.237	19.864	10.856	0.491
344.000	243.143	79.998	19.997	103.238	19.864	10.846	0.468
352.000	247.188	79.998	19.995	103.270	19.857	11.336	0.493
360.000	251.370	79.997	19.998	103.271	19.853	11.639	0.522
368.000	255.502	80.000	19.996	103.272	19.844	12.218	0.525
376.000	259.715	79.999	19.996	103.278	19.828	13.347	0.525
384.000	263.892	79.999	19.996	103.278	19.811	14.501	0.552
392.000	267.991	80.001	19.995	103.284	19.790	15.973	0.511
400.000	272.157	79.998	19.996	103.296	19.763	17.802	0.508
408.000	276.213	79.999	19.995	103.298	19.741	19.317	0.541
416.000	280.183	79.999	19.996	103.312	19.711	21.401	0.491
424.000	284.077	79.998	19.996	103.310	19.688	23.002	0.494
432.000	287.903	79.997	19.996	103.321	19.665	24.577	0.457
440.000	291.761	79.998	19.996	103.325	19.644	26.009	0.484
448.000	295.703	79.998	19.997	103.394	19.625	27.344	0.470
456.000	299.650	79.999	19.996	103.343	19.604	28.768	0.494
464.000	303.652	80.000	19.995	103.343	19.586	30.018	0.507
472.000	307.691	80.000	19.996	103.347	19.566	31.384	0.538
480.000	311.804	80.000	19.996	103.352	19.548	32.618	0.504
488.000	315.877	79.999	19.995	103.351	19.525	34.233	0.488
496.000	319.959	79.999	19.995	103.353	19.504	35.645	0.489
504.000	324.033	79.998	19.995	103.356	19.477	37.551	0.523
512.000	328.033	79.997	19.996	103.371	19.450	39.435	0.497
520.000	332.101	80.000	19.997	103.390	19.419	41.536	0.546
528.000	336.130	80.001	19.996	103.390	19.384	43.944	0.501
536.000	340.150	79.997	19.995	103.411	19.341	46.964	0.507
544.000	344.191	80.000	19.996	103.426	19.303	49.527	0.508
552.000	348.211	80.000	19.996	103.436	19.258	52.666	0.517
560.000	352.239	80.000	19.995	103.464	19.211	55.886	0.501
568.000	356.295	79.998	19.995	103.468	19.167	58.931	0.478
576.000	360.363	79.997	19.995	103.471	19.132	61.347	0.516
584.000	364.393	79.997	19.994	103.465	19.126	61.776	0.514
592.000	368.409	79.999	19.995	103.431	19.156	59.671	0.482
600.000	372.503	79.999	19.996	103.373	19.235	54.133	0.482
608.000	376.554	79.999	19.996	103.311	19.368	44.967	0.506
616.000	380.608	79.999	19.996	103.262	19.524	34.269	0.527
624.000	384.675	80.000	19.995	103.233	19.669	24.235	0.536
632.000	388.738	80.001	19.995	103.199	19.771	17.267	0.525
640.000	392.401	79.996	19.996	103.197	19.823	13.668	0.295
648.000	396.711	79.998	19.994	103.197	19.846	12.051	0.534
656.000	400.547	79.998	19.994	103.195	19.858	11.237	0.490
664.000	404.461	79.999	19.995	103.194	19.867	10.631	0.494
672.000	408.369	79.998	19.996	103.193	19.873	10.219	0.490
680.000	412.264	80.001	19.994	103.189	19.878	9.887	0.449
688.000	416.111	80.000	19.993	103.201	19.879	9.848	0.502
696.000	420.089	79.999	19.994	103.197	19.885	9.373	0.502
704.000	424.105	79.999	19.996	103.204	19.887	9.286	0.520
712.000	428.248	80.001	19.996	103.196	19.889	9.138	0.498
720.000	432.490	79.998	19.996	103.192	19.893	8.859	0.524
728.000	436.748	79.996	19.998	103.192	19.893	8.861	0.546
736.000	440.946	79.998	19.996	103.190	19.901	8.288	0.523
744.000	445.060	79.997	19.996	103.189	19.904	8.083	0.534
752.000	449.263	79.999	19.996	103.195	19.910	7.682	0.553
760.000	453.426	79.997	19.994	103.195	19.914	7.432	0.526
768.000	457.564	80.000	19.996	103.190	19.916	7.245	0.485
776.000	461.679	79.997	19.995	103.189	19.919	7.032	0.501
784.000	465.726	79.999	19.996	103.187	19.923	6.759	0.483
792.000	469.834	80.000	19.996	103.186	19.925	6.666	0.513
800.000	473.986	79.998	19.996	103.180	19.931	6.241	0.526
808.000	478.092	79.998	19.996	103.177	19.929	6.363	0.524
816.000	482.205	79.999	19.996	103.179	19.934	6.047	0.508
824.000	486.290	79.999	19.995	103.177	19.938	5.735	0.525
832.000	490.347	79.997	19.995	103.180	19.936	5.862	0.529
840.000	494.433	79.999	19.996	103.171	19.937	5.845	0.498
848.000	498.521	80.000	19.995	103.169	19.937	5.804	0.523
856.000	502.598	79.998	19.994	103.174	19.937	5.824	0.511
864.000	506.728	80.000	19.996	103.186	19.954	4.669	0.507
872.000	510.803	80.002	19.995	103.194	19.965	3.900	0.519
880.000	514.929	80.000	19.997	103.175	19.960	4.255	0.513
888.000	518.995	79.998	19.996	103.189	19.959	4.304	0.491
896.000	523.028	79.997	19.996	103.177	19.955	4.565	0.514
904.000	527.121	79.999	19.996	103.170	19.952	4.823	0.524
912.000	531.267	79.998	19.997	103.165	19.952	4.778	0.497
920.000	535.491	79.997	19.997	103.176	19.950	4.944	0.540
928.000	539.695	80.000	19.995	103.169	19.949	4.998	0.538
936.000	543.806	80.000	19.995	103.157	19.947	5.110	0.531
944.000	547.886	79.998	19.995	103.172	19.951	4.829	0.512
952.000	551.930	80.000	19.995	103.168	19.951	4.866	0.538
960.000	556.044	80.000	19.995	103.164	19.953	4.702	0.526
968.000	559.964	79.998	19.996	103.160	19.950	4.949	0.489
976.000	563.945	79.999	19.996	103.155	19.951	4.847	0.505
984.000	567.806	80.000	19.996	103.165	19.950	4.917	0.504
992.000	571.794	79.999	19.996	103.155	19.950	4.920	0.519
1000.000	575.801	79.998	19.996	103.157	19.951	4.892	0.475
1008.000	579.788	79.998	19.998	103.154	19.948	5.095	0.516
1016.000	583.779	79.998	19.995	103.165	19.950	4.943	0.518
1024.000	587.830	79.999	19.994	103.163	19.947	5.168	0.488
1031.999	591.857	80.001	19.996	103.174	19.946	5.212	0.489
1039.999	595.958	80.002	19.995	103.158	19.944	5.327	0.497
1047.999	599.975	80.000	19.997	103.163	19.948	5.093	0.496
1055.999	604.033	80.000	19.995	103.166	19.951	4.883	0.498
1063.999	608.134	79.999	19.996	103.163	19.948	5.047	0.525
1071.999	612.228	79.999	19.998	103.157	19.943	5.434	0.488
1079.999	616.376	79.998	19.997	103.159	19.947	5.151	0.505
1087.999	620.372	79.999	19.995	103.166	19.945	5.278	0.493
1096.000	624.399	80.000	19.996	103.164	19.949	4.973	0.491
1103.999	628.387	79.999	19.998	103.163	19.945	5.240	0.494
1111.999	632.437	80.001	19.996	103.155	19.945	5.296	0.489
1120.000	636.472	80.002	19.995	103.156	19.941	5.529	0.521
1127.999	640.517	79.999	19.995	103.155	19.940	5.631	0.515
1135.999	644.554	79.999	19.997	103.155	19.939	5.716	0.484
1143.999	648.627	79.999	19.995	103.161	19.939	5.699	0.508
1151.999	652.666	79.998	19.995	103.157	19.942	5.451	0.497
1159.999	656.681	79.998	19.995	103.158	19.941	5.523	0.493
1167.999	660.627	79.998	19.996	103.142	19.938	5.731	0.510
1175.999	664.510	80.000	19.996	103.155	19.938	5.757	0.521
1183.999	668.645	79.999	19.995	103.153	19.938	5.738	0.507
1192.000	672.927	79.999	19.996	103.155	19.937	5.817	0.524
1199.999	677.319	80.000	19.996	103.153	19.937	5.836	0.515
1208.000	681.705	80.000	19.996	103.160	19.940	5.600	0.562
1216.000	686.077	79.999	19.995	103.152	19.939	5.707	0.531
1224.000	690.428	79.998	19.996	103.158	19.937	5.813	0.558
1231.999	694.625	79.999	19.997	103.148	19.940	5.621	0.533
1239.999	698.731	79.998	19.996	103.136	19.941	5.576	0.504
1247.999	702.735	79.999	19.996	103.149	19.943	5.387	0.512
1256.000	706.707	79.998	19.997	103.149	19.936	5.869	0.499
1263.999	710.735	79.998	19.995	103.149	19.938	5.770	0.514
1271.999	714.637	79.999	19.997	103.136	19.942	5.453	0.478
1280.001	718.584	80.001	19.996	103.142	19.934	6.034	0.459
1287.999	722.589	79.999	19.996	103.146	19.938	5.774	0.507
1295.999	726.726	79.998	19.996	103.155	19.936	5.923	0.538
1304.000	730.943	79.998	19.995	103.151	19.932	6.179	0.540
1311.999	735.251	80.000	19.996	103.147	19.935	5.993	0.525
1319.999	739.563	79.998	19.996	103.151	19.935	5.972	0.530
1326.499	743.155	79.999	19.996	103.152	19.930	6.291	0.571