File: 01_Data/Engineered_Flooring/MCC/Engineered_Flooring_30K_min_211025_R1.txt
Sample ID:	C:\MCC\MCC Cal\Test\Engineered_Flooring_30K_min_211025_R1.txt
Sample Weight (mg):	4.66
Heating Rate (C/s):	0.5
Combustor Temp (C):	900
N2 Flow Rate (cc/min):	80
O2 Flow Rate (cc/min):	20
Calibration File:	C:\MCC\MCC Cal\Coeff1 JN10440_30_210304.txt.txt
T Correction Coefficients:	0	1.024463	0
Time Shift (s):	14
*
Time (s)	Temperature (C)	N2 flow rate (cc/min)	O2 flow rate (cc/min)	Flow Rate (cc/min)	Oxygen (%)	HRR (W/g)	Heating rate (C/s)
0.000	109.022	80.000	19.996	103.005	20.017	-0.034	-0.039
8.000	109.028	79.998	19.995	103.032	20.018	-0.121	0.033
16.000	109.073	79.998	19.996	103.073	20.010	0.470	0.035
24.000	109.331	79.999	19.997	103.117	20.003	0.916	0.053
32.000	109.880	79.999	19.996	103.170	19.994	1.577	0.102
40.000	110.826	79.997	19.996	103.190	19.985	2.154	0.178
48.001	112.129	79.998	19.995	103.222	19.984	2.283	0.169
56.000	113.878	80.000	19.995	103.230	19.981	2.435	0.230
64.000	115.902	79.998	19.994	103.240	19.979	2.595	0.268
72.001	118.185	80.000	19.994	103.272	19.977	2.715	0.282
80.000	120.819	80.002	19.995	103.274	19.972	3.055	0.305
88.000	123.745	79.999	19.995	103.271	19.974	2.918	0.371
96.000	126.825	79.998	19.996	103.274	19.974	2.962	0.386
104.000	130.116	79.998	19.995	103.273	19.972	3.070	0.419
112.000	133.582	79.999	19.995	103.273	19.969	3.273	0.417
120.000	137.133	79.998	19.996	103.272	19.974	2.962	0.491
128.000	140.812	79.999	19.995	103.275	19.970	3.248	0.487
136.000	144.638	80.000	19.995	103.271	19.973	2.986	0.497
144.000	148.452	79.999	19.995	103.269	19.968	3.346	0.486
152.000	152.376	79.999	19.996	103.249	19.967	3.416	0.496
160.000	156.224	80.004	19.996	103.250	19.967	3.413	0.488
168.000	160.126	80.000	19.996	103.243	19.964	3.604	0.522
176.000	164.073	80.000	19.996	103.236	19.964	3.634	0.502
184.000	168.033	80.000	19.997	103.235	19.960	3.921	0.500
192.000	171.942	79.998	19.993	103.239	19.952	4.456	0.478
200.000	175.830	79.996	19.996	103.241	19.944	5.018	0.487
208.000	179.747	79.998	19.996	103.240	19.935	5.640	0.466
216.000	183.724	80.000	19.997	103.238	19.931	5.929	0.467
224.000	187.698	80.001	19.995	103.234	19.922	6.513	0.469
232.000	191.643	80.002	19.995	103.235	19.917	6.860	0.480
240.000	195.629	80.003	19.996	103.244	19.909	7.445	0.519
248.000	199.564	80.001	19.994	103.254	19.901	7.986	0.489
256.000	203.597	80.000	19.994	103.236	19.895	8.439	0.502
264.000	207.613	80.001	19.996	103.232	19.893	8.540	0.465
272.000	211.655	79.998	19.996	103.236	19.889	8.851	0.488
280.000	215.682	79.999	19.996	103.237	19.886	9.047	0.446
288.000	219.655	79.998	19.996	103.230	19.887	8.972	0.468
296.000	223.640	79.999	19.996	103.229	19.885	9.090	0.485
304.000	227.589	80.000	19.996	103.227	19.886	9.043	0.450
312.000	231.613	80.000	19.995	103.216	19.888	8.873	0.499
320.001	235.524	80.003	19.996	103.219	19.886	9.052	0.505
328.000	239.407	80.000	19.995	103.225	19.887	8.955	0.474
336.000	243.286	79.998	19.995	103.227	19.884	9.154	0.478
344.000	247.156	79.999	19.995	103.234	19.879	9.546	0.483
352.000	251.118	79.999	19.996	103.234	19.880	9.432	0.511
360.000	255.007	79.999	19.996	103.235	19.867	10.334	0.475
368.000	258.994	79.999	19.996	103.251	19.854	11.245	0.523
376.000	262.990	80.000	19.995	103.268	19.836	12.475	0.516
384.000	267.007	80.000	19.997	103.272	19.815	13.975	0.515
392.001	271.114	79.998	19.997	103.279	19.788	15.831	0.521
400.000	275.296	80.001	19.995	103.281	19.760	17.753	0.526
408.000	279.463	80.001	19.995	103.301	19.731	19.737	0.508
416.000	283.572	79.999	19.996	103.309	19.709	21.273	0.511
424.000	287.734	79.999	19.995	103.310	19.680	23.291	0.525
432.000	291.831	79.999	19.994	103.311	19.654	25.060	0.513
440.000	295.909	80.000	19.995	103.311	19.638	26.157	0.539
448.000	299.920	79.999	19.994	103.312	19.616	27.722	0.489
456.000	303.996	80.000	19.996	103.313	19.602	28.661	0.520
464.000	308.007	80.000	19.996	103.311	19.585	29.861	0.494
472.000	312.043	80.000	19.996	103.312	19.566	31.202	0.494
480.000	315.993	80.001	19.995	103.320	19.553	32.065	0.512
488.000	319.901	80.000	19.996	103.313	19.529	33.735	0.434
496.000	323.698	80.000	19.996	103.323	19.505	35.418	0.565
504.000	327.657	80.001	19.994	103.331	19.487	36.676	0.475
512.000	331.485	79.998	19.996	103.352	19.454	38.967	0.466
520.000	335.494	79.999	19.995	103.355	19.418	41.417	0.534
528.000	339.496	79.999	19.995	103.382	19.382	43.912	0.509
536.000	343.477	80.000	19.995	103.393	19.340	46.873	0.504
544.000	347.518	80.001	19.996	103.399	19.295	49.984	0.497
552.000	351.578	79.999	19.995	103.419	19.255	52.738	0.466
560.000	355.700	79.999	19.995	103.419	19.216	55.403	0.533
568.000	359.735	80.001	19.996	103.418	19.183	57.690	0.499
576.000	363.795	79.996	19.996	103.404	19.192	57.033	0.524
584.000	367.944	79.998	19.996	103.364	19.235	54.054	0.527
592.000	372.037	79.999	19.997	103.329	19.317	48.379	0.518
600.000	376.217	79.999	19.995	103.278	19.440	39.873	0.513
608.000	380.403	79.998	19.996	103.226	19.573	30.637	0.525
616.000	384.537	80.001	19.996	103.198	19.705	21.506	0.512
624.000	388.578	80.000	19.996	103.162	19.805	14.623	0.521
632.000	392.633	79.999	19.995	103.159	19.862	10.683	0.485
640.000	396.663	80.001	19.995	103.159	19.887	8.951	0.501
648.000	400.692	80.002	19.995	103.157	19.905	7.739	0.509
656.000	404.702	79.999	19.995	103.161	19.909	7.401	0.495
664.000	408.708	79.998	19.996	103.162	19.909	7.423	0.472
672.000	412.749	79.997	19.996	103.154	19.915	7.005	0.468
680.000	416.761	79.999	19.997	103.152	19.917	6.878	0.522
688.000	420.811	79.999	19.996	103.157	19.925	6.301	0.494
696.000	424.864	80.000	19.996	103.143	19.923	6.461	0.512
704.000	428.913	79.999	19.995	103.149	19.933	5.757	0.522
712.000	432.881	80.001	19.994	103.136	19.940	5.303	0.507
720.000	436.851	80.001	19.995	103.135	19.944	5.011	0.472
728.000	440.803	80.001	19.996	103.139	19.944	4.985	0.483
736.000	444.704	79.999	19.996	103.146	19.949	4.670	0.489
744.000	448.608	79.999	19.996	103.139	19.953	4.420	0.496
752.000	452.496	80.000	19.996	103.144	19.959	3.974	0.479
760.000	456.478	80.000	19.997	103.138	19.959	3.946	0.505
768.000	460.505	79.999	19.996	103.139	19.965	3.563	0.503
776.000	464.574	80.000	19.995	103.151	19.966	3.517	0.519
784.000	468.575	80.000	19.996	103.134	19.967	3.414	0.464
792.000	472.591	79.999	19.995	103.134	19.975	2.862	0.490
800.000	476.569	80.003	19.995	103.117	19.976	2.794	0.497
808.000	480.414	80.002	19.995	103.124	19.975	2.846	0.475
816.000	484.278	79.999	19.995	103.120	19.980	2.525	0.508
824.000	488.197	80.000	19.997	103.123	19.985	2.152	0.493
832.000	492.156	79.998	19.995	103.134	19.986	2.137	0.492
840.001	496.212	80.000	19.995	103.146	19.985	2.173	0.474
848.000	500.383	79.997	19.996	103.130	19.983	2.325	0.560
856.000	504.662	80.000	19.996	103.128	19.985	2.199	0.521
864.000	509.000	80.000	19.995	103.130	19.986	2.114	0.525
872.000	513.369	80.000	19.996	103.129	19.987	2.036	0.514
880.000	517.714	80.001	19.995	103.126	19.987	2.047	0.533
888.000	521.934	80.003	19.995	103.117	19.990	1.862	0.501
896.000	525.965	80.000	19.995	103.120	19.990	1.805	0.494
904.000	529.958	79.999	19.995	103.128	19.990	1.864	0.491
912.000	534.143	79.999	19.995	103.129	19.993	1.636	0.556
920.000	538.350	79.999	19.996	103.123	19.990	1.814	0.525
928.000	542.664	79.999	19.997	103.130	19.990	1.839	0.527
936.000	546.967	80.000	19.996	103.128	19.989	1.894	0.546
944.000	551.381	79.999	19.996	103.133	19.991	1.737	0.547
952.000	555.730	80.000	19.995	103.118	19.991	1.790	0.553
960.000	560.117	80.003	19.995	103.127	19.986	2.089	0.536
968.000	564.441	80.001	19.993	103.142	19.989	1.879	0.545
976.000	568.691	80.001	19.995	103.124	19.986	2.148	0.535
984.000	572.926	80.000	19.995	103.121	19.988	1.954	0.506
992.000	576.997	79.999	19.995	103.117	19.989	1.881	0.486
1000.000	580.929	80.000	19.993	103.116	19.993	1.649	0.468
1008.000	584.780	79.997	19.995	103.118	19.993	1.621	0.465
1016.001	588.736	80.003	19.996	103.119	19.994	1.545	0.491
1024.000	592.654	80.001	19.995	103.120	19.993	1.619	0.466
1032.000	596.673	79.998	19.995	103.118	19.992	1.668	0.498
1040.000	600.651	80.001	19.996	103.120	19.994	1.541	0.513
1048.000	604.756	80.003	19.996	103.121	19.991	1.769	0.515
1056.000	608.911	79.998	19.996	103.123	19.988	1.975	0.504
1064.000	613.141	79.999	19.996	103.122	19.987	2.019	0.545
1072.000	617.314	79.999	19.995	103.118	19.984	2.222	0.519
1080.001	621.546	80.001	19.996	103.120	19.986	2.144	0.507
1088.000	625.794	79.998	19.996	103.121	19.986	2.133	0.530
1096.001	630.001	79.999	19.997	103.119	19.987	2.064	0.519
1104.000	634.232	80.000	19.996	103.120	19.983	2.324	0.538
1112.000	638.366	79.997	19.995	103.118	19.985	2.172	0.523
1120.001	642.421	80.001	19.996	103.116	19.989	1.924	0.531
1128.000	646.482	80.003	19.997	103.112	19.990	1.846	0.539
1136.002	650.587	79.999	19.996	103.108	19.988	1.956	0.516
1144.000	654.773	79.996	19.995	103.111	19.991	1.793	0.522
1152.000	658.880	80.000	19.995	103.116	19.992	1.719	0.498
1160.000	662.884	79.999	19.993	103.112	19.986	2.108	0.499
1168.000	666.867	80.001	19.995	103.114	19.986	2.125	0.503
1176.000	670.866	80.000	19.995	103.099	19.988	2.003	0.497
1184.000	674.915	80.001	19.996	103.113	19.992	1.710	0.514
1192.000	679.048	80.000	19.996	103.117	19.988	1.948	0.480
1200.000	683.145	80.003	19.995	103.105	19.987	2.041	0.513
1208.000	687.228	80.002	19.995	103.095	19.991	1.780	0.522
1216.000	691.284	79.998	19.997	103.097	19.991	1.778	0.484
1224.000	695.439	79.999	19.996	103.089	19.989	1.920	0.539
1232.000	699.575	80.000	19.996	103.107	19.986	2.081	0.501
1240.000	703.645	79.999	19.994	103.093	19.989	1.909	0.510
1248.000	707.710	79.999	19.997	103.108	19.988	1.959	0.523
1256.000	711.754	79.999	19.995	103.086	19.989	1.884	0.506
1264.000	715.620	80.002	19.995	103.090	19.987	2.051	0.483
1272.001	719.531	80.001	19.995	103.089	19.990	1.836	0.459
1280.000	723.450	80.003	19.995	103.081	19.990	1.842	0.491
1288.000	727.237	80.000	19.994	103.101	19.988	1.994	0.499
1296.000	731.119	79.999	19.995	103.095	19.988	1.956	0.529
1304.000	735.093	80.000	19.996	103.089	19.993	1.656	0.494
1312.000	739.101	80.000	19.995	103.089	19.989	1.908	0.517
1320.001	743.100	79.999	19.996	103.084	19.988	1.958	0.504
1321.000	743.616	79.999	19.995	103.083	19.996	1.425	0.513