File: 01_Data/Bamboo_Rug_Bamboo/STA/N2/10K_min/Bamboo_Rug_A_STA_N2_10KData_220120_R3.csv
##Temp./Â°C,Time/min,Mass loss(subtr.)/mg,DSC(subtr.)/(mW/mg),Sensit./(uV/mW)
49.333,10.00917,-0.04969,0.01266697,1.07447
52.633,11.33458,-0.05264523,0.11428,1.07423
55.933,11.79804,-0.05461347,0.16019,1.07397
59.233,12.19463,-0.05582585,0.18725,1.07368
62.533,12.56667,-0.05654766,0.20601,1.07336
65.833,12.9293,-0.05879864,0.21795,1.07302
69.133,13.2866,-0.06043904,0.22741,1.07266
72.433,13.6384,-0.06174857,0.2382,1.07227
75.733,13.9862,-0.06443286,0.2453,1.07185
79.033,14.3287,-0.06370471,0.25182,1.07141
82.333,14.6685,-0.06701848,0.25616,1.07094
85.633,15.00409,-0.06898857,0.25882,1.07045
88.933,15.33716,-0.06964429,0.25533,1.06994
92.233,15.66787,-0.07225824,0.25433,1.06939
95.533,15.99581,-0.07360252,0.25291,1.06883
98.833,16.32096,-0.07227778,0.24895,1.06823
102.133,16.64574,-0.07490898,0.24556,1.06762
105.433,16.96791,-0.07622999,0.24567,1.06698
108.733,17.29026,-0.07622994,0.24423,1.06631
112.033,17.61205,-0.0791996,0.24185,1.06562
115.333,17.93478,-0.07886647,0.23995,1.06491
118.633,18.25682,-0.0800882,0.2413,1.06417
121.933,18.57818,-0.08116933,0.24324,1.0634
125.233,18.89936,-0.08116,0.24641,1.06261
128.533,19.21943,-0.08116477,0.25005,1.0618
131.833,19.53901,-0.08182002,0.2524,1.06096
135.133,19.85898,-0.08380977,0.2535,1.0601
138.433,20.17761,-0.08245418,0.25429,1.05922
141.733,20.49597,-0.08512627,0.25856,1.05831
145.033,20.81335,-0.08479,0.26407,1.05737
148.333,21.1297,-0.08643,0.26622,1.05642
151.633,21.446,-0.08552009,0.27081,1.05544
154.933,21.76193,-0.08807999,0.2758,1.05443
158.233,22.07795,-0.09072477,0.2777,1.0534
161.533,22.39485,-0.09071259,0.28147,1.05235
164.833,22.71169,-0.09222541,0.2863,1.05128
168.133,23.0291,-0.09334,0.28986,1.05018
171.433,23.34485,-0.09596989,0.29359,1.04906
174.733,23.66104,-0.09859009,0.29502,1.04791
178.033,23.9762,-0.09992001,0.29791,1.04675
181.333,24.29315,-0.1022,0.30457,1.04555
184.633,24.609,-0.1065,0.30873,1.04434
187.933,24.92486,-0.10851,0.31422,1.04311
191.233,25.23999,-0.1121,0.31883,1.04185
194.533,25.5546,-0.11431,0.32594,1.04057
197.833,25.86968,-0.1177,0.32881,1.03926
201.133,26.18447,-0.12362,0.33832,1.03794
204.433,26.49914,-0.12757,0.3434,1.03659
207.733,26.81375,-0.13142,0.34741,1.03522
211.033,27.1299,-0.13813,0.35332,1.03383
214.333,27.44415,-0.14335,0.35939,1.03242
217.633,27.7587,-0.14994,0.36323,1.03098
220.933,28.07338,-0.15777,0.35949,1.02952
224.233,28.3887,-0.16584,0.35729,1.02805
227.533,28.70242,-0.17536,0.35908,1.02655
230.833,29.01728,-0.18072,0.35671,1.02503
234.133,29.33108,-0.19424,0.35957,1.02348
237.433,29.64429,-0.20443,0.36101,1.02192
240.733,29.95935,-0.21938,0.35922,1.02034
244.033,30.2738,-0.229,0.36147,1.01873
247.333,30.5879,-0.24608,0.37305,1.01711
250.633,30.9022,-0.26059,0.37878,1.01546
253.933,31.21702,-0.27401,0.37928,1.0138
257.233,31.53138,-0.30106,0.36329,1.01211
260.533,31.8449,-0.3249,0.35565,1.01041
263.833,32.15783,-0.35545,0.35311,1.00868
267.133,32.47128,-0.37827,0.35201,1.00693
270.433,32.78573,-0.41136,0.34352,1.00517
273.733,33.10242,-0.45728,0.33532,1.00338
277.033,33.42,-0.50038,0.33151,1.00158
280.333,33.73908,-0.54698,0.32462,0.99975
283.633,34.0583,-0.59946,0.31919,0.99791
286.933,34.3762,-0.65443,0.31439,0.99605
290.233,34.6943,-0.71307,0.31612,0.99417
293.533,35.01145,-0.77465,0.31612,0.99227
296.833,35.32782,-0.83847,0.31364,0.99035
300.133,35.6436,-0.90512,0.319,0.98841
303.433,35.96053,-0.97164,0.31948,0.98646
306.733,36.27754,-1.04185,0.32034,0.98448
310.033,36.59496,-1.11156,0.32682,0.98249
313.333,36.9124,-1.17996,0.33166,0.98048
316.633,37.23039,-1.24963,0.33552,0.97845
319.933,37.5486,-1.31478,0.34417,0.97641
323.233,37.8671,-1.38629,0.35211,0.97435
326.533,38.18639,-1.45704,0.36776,0.97227
329.833,38.50415,-1.52858,0.38652,0.97017
333.133,38.82215,-1.60307,0.4071,0.96806
336.433,39.13926,-1.68459,0.43024,0.96592
339.733,39.45885,-1.77098,0.4614,0.96378
343.033,39.77832,-1.8673,0.49535,0.96161
346.333,40.0985,-1.97548,0.53754,0.95943
349.633,40.41852,-2.09962,0.58783,0.95724
352.933,40.73899,-2.24396,0.62623,0.95502
356.233,41.05823,-2.40277,0.61368,0.95279
359.533,41.3774,-2.5561,0.50317,0.95055
362.833,41.6952,-2.67012,0.33807,0.94829
366.133,42.01308,-2.74087,0.20314,0.94601
369.433,42.33189,-2.78193,0.12967,0.94372
372.733,42.65124,-2.80927,0.08933993,0.94141
376.033,42.97077,-2.82687,0.06730023,0.93909
379.333,43.29136,-2.84178,0.04981587,0.93676
382.633,43.61163,-2.85481,0.039376,0.93441
385.933,43.9324,-2.86659,0.02915976,0.93204
389.233,44.2542,-2.87611,0.02002748,0.92966
392.533,44.57553,-2.88967,0.009259752,0.92727
395.833,44.89734,-2.89969,0.002127694,0.92486
399.133,45.21856,-2.91091,-0.005671142,0.92243
402.433,45.54018,-2.91906,-0.01125552,0.92
405.733,45.86209,-2.92941,-0.01970464,0.91755
409.033,46.18335,-2.93719,-0.0191604,0.91508
412.333,46.5055,-2.94874,-0.02498057,0.91261
415.633,46.82873,-2.9568,-0.02974749,0.91012
418.933,47.15188,-2.96803,-0.03185042,0.90762
422.233,47.47481,-2.97676,-0.03252865,0.9051
425.533,47.79828,-2.98247,-0.03233537,0.90257
428.833,48.12175,-2.99077,-0.03011745,0.90003
432.133,48.44614,-3.0002,-0.03302581,0.89748
435.433,48.7708,-3.00719,-0.0255675,0.89491
438.733,49.09523,-3.01442,-0.02192399,0.89233
442.033,49.42028,-3.02385,-0.01829063,0.88975
445.333,49.74532,-3.02931,-0.01320726,0.88714
448.633,50.0694,-3.03907,-0.008885293,0.88453
451.933,50.3956,-3.04299,-0.00492187,0.88191
455.233,50.7209,-3.04625,-0.001565771,0.87927
458.533,51.0465,-3.05507,0.00143789,0.87663
461.833,51.3709,-3.05902,0.001039725,0.87397
465.133,51.69676,-3.0643,-9.370484e-05,0.8713
468.433,52.02135,-3.06823,0.00603148,0.86862
471.733,52.34519,-3.07392,0.00829228,0.86594
475.033,52.6688,-3.07856,0.01729985,0.86324
478.333,52.99301,-3.08263,0.02531671,0.86053
481.633,53.31782,-3.08878,0.03137532,0.85781
484.933,53.64305,-3.09075,0.03430524,0.85508
488.233,53.96886,-3.09468,0.04493941,0.85234
491.533,54.29453,-3.10126,0.05187121,0.84959
494.833,54.62095,-3.10501,0.05606741,0.84684
498.133,54.9479,-3.10784,0.05893321,0.84407
501.433,55.2749,-3.11174,0.06082226,0.8413
504.733,55.602,-3.1151,0.06242636,0.83851
508.033,55.92884,-3.11705,0.05846998,0.83572
511.333,56.25569,-3.1211,0.05417897,0.83292
514.633,56.58302,-3.12441,0.05445379,0.83011
517.933,56.9108,-3.12704,0.03493533,0.82729
521.233,57.23817,-3.13132,0.02380188,0.82447
524.533,57.56598,-3.13396,0.02028786,0.82164
527.833,57.89376,-3.13787,0.01695261,0.81879
531.133,58.221,-3.14021,0.01269603,0.81595
534.433,58.5488,-3.14152,0.01015504,0.81309
537.733,58.87639,-3.14414,0.00749041,0.81023
541.033,59.204,-3.14667,0.005583825,0.80736
544.333,59.5322,-3.14922,0.002286223,0.80448
547.633,59.8606,-3.15227,0.001410286,0.8016
550.933,60.19015,-3.1549,-0.00135742,0.79871
554.233,60.5194,-3.15656,-0.008413689,0.79581
557.533,60.8482,-3.16151,-0.0104985,0.79291
560.833,61.17695,-3.1628,-0.01067683,0.79
564.133,61.50545,-3.16576,-0.009176635,0.78709
567.433,61.83404,-3.16707,-0.01379943,0.78417
570.733,62.1631,-3.16935,-0.01333041,0.78124
574.033,62.4929,-3.1697,-0.01710525,0.77831
577.333,62.82224,-3.17451,-0.01923897,0.77537
580.633,63.15172,-3.17464,-0.01825123,0.77243
583.933,63.481,-3.17764,-0.01692268,0.76948
587.233,63.81119,-3.17991,-0.01953771,0.76653
590.533,64.14052,-3.18155,-0.02336399,0.76358
593.833,64.4703,-3.18157,-0.02008724,0.76062
597.133,64.80028,-3.18682,-0.01886647,0.75765
600.433,65.13118,-3.18687,-0.01466598,0.75468
603.733,65.4615,-3.18921,-0.0186792,0.75171
607.033,65.79171,-3.19188,-0.01536459,0.74873
610.333,66.12223,-3.19187,-0.01013608,0.74575
613.633,66.45187,-3.19483,-0.006955028,0.74276
616.933,66.78317,-3.19585,-0.007302594,0.73978
620.233,67.11392,-3.19844,0.0005117731,0.73678
623.533,67.4449,-3.19966,-0.001254544,0.73379
626.833,67.77595,-3.20141,0.00204119,0.73079
630.133,68.1082,-3.20206,-0.0009322798,0.72779
633.433,68.4383,-3.20383,-0.001390994,0.72479
636.733,68.76871,-3.20546,-0.000723918,0.72178
640.033,69.09949,-3.20711,0.001512804,0.71877
643.333,69.4316,-3.20678,0.003146479,0.71576
646.633,69.76239,-3.2104,0.001458203,0.71275
649.933,70.09483,-3.21141,-0.003293978,0.70974
653.233,70.42612,-3.20777,-0.00328268,0.70672
656.533,70.75838,-3.21373,-0.001484225,0.7037
659.833,71.09065,-3.21499,-0.007209423,0.70068
663.133,71.42333,-3.21569,-0.00384882,0.69766
666.433,71.75584,-3.21566,-0.0025895,0.69464
669.733,72.08861,-3.22093,-0.004763278,0.69161
673.033,72.42147,-3.2183,-0.00488404,0.68859
676.333,72.75389,-3.21961,-0.004041825,0.68556
679.633,73.08641,-3.22079,-0.002949313,0.68253
682.933,73.4186,-3.22196,-0.002022185,0.67951
686.233,73.75102,-3.22225,-0.001523025,0.67648
689.533,74.0839,-3.22493,-0.00551194,0.67345
692.833,74.4171,-3.22226,-0.007764345,0.67042
696.133,74.75069,-3.22488,-0.00907585,0.66739
699.433,75.0843,-3.22586,-0.01356835,0.66436
702.733,75.4173,-3.2258,-0.01279472,0.66134
706.033,75.7505,-3.22883,-0.0130031,0.65831
709.333,76.0832,-3.22994,-0.01569598,0.65528
712.633,76.41627,-3.23138,-0.01624941,0.65225
715.933,76.75,-3.23212,-0.01350416,0.64923
719.233,77.08369,-3.2341,-0.01921895,0.6462
722.533,77.41757,-3.23285,-0.01577613,0.64318
725.833,77.75219,-3.23343,-0.0209162,0.64015
729.133,78.08585,-3.23409,-0.02217296,0.63713
732.433,78.41995,-3.2341,-0.02411867,0.63411
735.733,78.7537,-3.23781,-0.02527869,0.63109
739.033,79.08787,-3.23673,-0.02341004,0.62807
742.333,79.42228,-3.23682,-0.03062457,0.62506
745.633,79.75685,-3.23805,-0.02935307,0.62204
748.933,80.09222,-3.23667,-0.0317227,0.61903
752.233,80.42764,-3.23936,-0.034191,0.61602
755.533,80.762,-3.23751,-0.03733803,0.61301
758.833,81.09558,-3.23822,-0.03967848,0.61
762.133,81.42974,-3.23871,-0.04399827,0.607
765.433,81.765,-3.2396,-0.0465223,0.604
768.733,82.09958,-3.24298,-0.04824624,0.601
772.033,82.4345,-3.24138,-0.05205312,0.598
775.333,82.76982,-3.24166,-0.04824714,0.59501
778.633,83.1049,-3.24169,-0.05622885,0.59202
781.933,83.44064,-3.24336,-0.05317658,0.58903
785.233,83.77707,-3.24561,-0.05953239,0.58605
788.533,84.11245,-3.2444,-0.0616706,0.58307
791.833,84.44685,-3.24567,-0.06607471,0.58009
795.133,84.78125,-3.2443,-0.06895701,0.57712
797.233,84.99444,-3.24691,-0.07137671,0.57523