File: 01_Data/Bamboo_Rug_Bamboo/STA/N2/10K_min/Bamboo_Rug_A_STA_N2_10KData_220120_R2.csv
##Temp./Â°C,Time/min,Mass loss(subtr.)/mg,DSC(subtr.)/(mW/mg),Sensit./(uV/mW)
49.252,10.01,-0.04026,0.01126795,1.07447
52.452,11.31974,-0.04432428,0.10032,1.07424
55.652,11.77096,-0.04770684,0.14661,1.07399
58.852,12.1584,-0.04700398,0.17172,1.07371
62.052,12.522,-0.04873061,0.18664,1.07341
65.252,12.87461,-0.04960391,0.20157,1.07308
68.452,13.22,-0.05211312,0.21264,1.07274
71.652,13.5602,-0.05287724,0.2199,1.07236
74.852,13.8979,-0.05551156,0.22743,1.07196
78.052,14.2319,-0.05681924,0.23123,1.07154
81.252,14.5635,-0.06002173,0.23482,1.0711
84.452,14.8908,-0.0604527,0.23885,1.07063
87.652,15.2146,-0.06109951,0.24088,1.07014
90.852,15.53602,-0.06482033,0.23926,1.06962
94.052,15.85532,-0.06363265,0.23787,1.06908
97.252,16.1719,-0.06625826,0.23382,1.06852
100.452,16.48705,-0.06820491,0.23278,1.06794
103.652,16.8028,-0.06690539,0.23006,1.06733
106.852,17.1168,-0.06658315,0.22797,1.06669
110.052,17.43079,-0.06691372,0.23176,1.06604
113.252,17.74436,-0.07086221,0.23145,1.06536
116.452,18.05773,-0.06987,0.23166,1.06466
119.652,18.37015,-0.06954939,0.23282,1.06393
122.852,18.68228,-0.07086994,0.23293,1.06318
126.052,18.99396,-0.07120629,0.23549,1.06241
129.252,19.3046,-0.07381988,0.24049,1.06162
132.452,19.61477,-0.07481233,0.2454,1.0608
135.652,19.92428,-0.07223331,0.24663,1.05996
138.852,20.23434,-0.07553217,0.24856,1.0591
142.052,20.54376,-0.07601039,0.25284,1.05822
145.252,20.8531,-0.07864056,0.25559,1.05731
148.452,21.162,-0.08126829,0.25558,1.05638
151.652,21.47008,-0.08128032,0.26294,1.05543
154.852,21.77788,-0.08129,0.26763,1.05446
158.052,22.08568,-0.08676999,0.27551,1.05346
161.252,22.39268,-0.08512,0.27941,1.05244
164.452,22.69962,-0.08706669,0.28229,1.0514
167.652,23.0063,-0.08807945,0.28798,1.05034
170.852,23.31308,-0.09039025,0.29422,1.04926
174.052,23.61969,-0.09236,0.29704,1.04815
177.252,23.9263,-0.09161562,0.29976,1.04702
180.452,24.23272,-0.09363137,0.30808,1.04587
183.652,24.53933,-0.09889663,0.31118,1.0447
186.852,24.84577,-0.10228,0.31826,1.04351
190.052,25.15212,-0.10344,0.32564,1.0423
193.252,25.45776,-0.10737,0.32922,1.04107
196.452,25.76279,-0.11046,0.33759,1.03981
199.652,26.06904,-0.11528,0.34313,1.03854
202.852,26.37463,-0.11957,0.34962,1.03724
206.052,26.68004,-0.12362,0.35729,1.03592
209.252,26.98538,-0.13097,0.36382,1.03458
212.452,27.29087,-0.13492,0.37025,1.03322
215.652,27.5962,-0.14194,0.36926,1.03185
218.852,27.902,-0.14842,0.37077,1.03045
222.052,28.20751,-0.1551,0.36924,1.02903
225.252,28.5136,-0.16326,0.373,1.02759
228.452,28.8198,-0.17033,0.37173,1.02613
231.652,29.1262,-0.17892,0.3746,1.02465
234.852,29.4322,-0.19052,0.37583,1.02315
238.052,29.7377,-0.19789,0.37877,1.02163
241.252,30.04255,-0.20888,0.38194,1.02009
244.452,30.34726,-0.22437,0.38807,1.01853
247.652,30.65312,-0.23535,0.39429,1.01695
250.852,30.9589,-0.25426,0.40411,1.01535
254.052,31.26417,-0.27437,0.40664,1.01374
257.252,31.56946,-0.2928,0.38889,1.0121
260.452,31.8747,-0.31635,0.38396,1.01045
263.652,32.18055,-0.34346,0.38098,1.00877
266.852,32.4863,-0.37334,0.3803,1.00708
270.052,32.7926,-0.40778,0.38032,1.00537
273.252,33.09791,-0.44543,0.37852,1.00364
276.452,33.4039,-0.48568,0.37379,1.0019
279.652,33.70945,-0.52874,0.36871,1.00013
282.852,34.01555,-0.5762,0.3671,0.99835
286.052,34.32154,-0.62989,0.36496,0.99655
289.252,34.62812,-0.68382,0.36205,0.99473
292.452,34.9356,-0.74223,0.36055,0.99289
295.652,35.24293,-0.80357,0.36265,0.99104
298.852,35.55038,-0.86835,0.35935,0.98916
302.052,35.85779,-0.93269,0.36444,0.98728
305.252,36.16543,-1.00017,0.36412,0.98537
308.452,36.47311,-1.06966,0.36919,0.98345
311.652,36.7812,-1.13413,0.37238,0.98151
314.852,37.08913,-1.20234,0.37739,0.97955
318.052,37.39713,-1.27128,0.38636,0.97758
321.252,37.70598,-1.33707,0.39419,0.97559
324.452,38.01372,-1.40373,0.40557,0.97358
327.652,38.32203,-1.47471,0.42157,0.97156
330.852,38.62996,-1.54251,0.43727,0.96952
334.052,38.93853,-1.61832,0.45877,0.96746
337.252,39.24753,-1.69818,0.48428,0.96539
340.452,39.55747,-1.78512,0.51372,0.96331
343.652,39.8675,-1.87959,0.55001,0.96121
346.852,40.17758,-1.98455,0.59657,0.95909
350.052,40.48762,-2.10763,0.64678,0.95696
353.252,40.79825,-2.24902,0.69003,0.95481
356.452,41.10848,-2.40381,0.67407,0.95265
359.652,41.41819,-2.54916,0.55454,0.95047
362.852,41.72664,-2.65924,0.38204,0.94828
366.052,42.03501,-2.72804,0.24912,0.94607
369.252,42.34317,-2.76691,0.17212,0.94385
372.452,42.65234,-2.79203,0.12929,0.94161
375.652,42.9619,-2.80983,0.10387,0.93936
378.852,43.27195,-2.82655,0.08794153,0.9371
382.052,43.5831,-2.8377,0.0782243,0.93482
385.252,43.89498,-2.84802,0.0654479,0.93253
388.452,44.2074,-2.86179,0.06021248,0.93022
391.652,44.5197,-2.87122,0.04888463,0.92791
394.852,44.8314,-2.88291,0.04826277,0.92557
398.052,45.14247,-2.89212,0.04082082,0.92323
401.252,45.45366,-2.90191,0.03972484,0.92087
404.452,45.76474,-2.91155,0.03225476,0.9185
407.652,46.07607,-2.92269,0.03025188,0.91612
410.852,46.38816,-2.93013,0.02766821,0.91372
414.052,46.70092,-2.94069,0.02324901,0.91131
417.252,47.01368,-2.95078,0.02257108,0.90889
420.452,47.32646,-2.95923,0.02271613,0.90646
423.652,47.63836,-2.96665,0.02481159,0.90401
426.852,47.95112,-2.9748,0.02594096,0.90156
430.052,48.26362,-2.98389,0.02763288,0.89909
433.252,48.57719,-2.99174,0.02998684,0.89661
436.452,48.89053,-2.99709,0.0350513,0.89412
439.652,49.20418,-3.00812,0.04125812,0.89162
442.852,49.51862,-3.01352,0.0407435,0.8891
446.052,49.83333,-3.01835,0.04564722,0.88658
449.252,50.1479,-3.0258,0.05059838,0.88404
452.452,50.46306,-3.03264,0.05455383,0.8815
455.652,50.7787,-3.0391,0.05605142,0.87894
458.852,51.09437,-3.04353,0.06179139,0.87637
462.052,51.40995,-3.04752,0.06267361,0.87379
465.252,51.72605,-3.05223,0.0665151,0.87121
468.452,52.04132,-3.05816,0.0680608,0.86861
471.652,52.3569,-3.06222,0.07100743,0.866
474.852,52.6723,-3.06555,0.07454447,0.86339
478.052,52.98665,-3.0722,0.08665332,0.86076
481.252,53.3009,-3.07483,0.09144338,0.85812
484.452,53.6156,-3.07804,0.09993474,0.85548
487.652,53.93127,-3.08196,0.10863,0.85283
490.852,54.24723,-3.08711,0.11129,0.85016
494.052,54.56419,-3.09122,0.12474,0.84749
497.252,54.88044,-3.09482,0.1301,0.84481
500.452,55.19653,-3.09918,0.13287,0.84212
503.652,55.5139,-3.10025,0.13303,0.83943
506.852,55.83113,-3.10609,0.1237,0.83672
510.052,56.1488,-3.10873,0.10843,0.83401
513.252,56.4665,-3.11177,0.10409,0.83129
516.452,56.7846,-3.11412,0.09874084,0.82856
519.652,57.10205,-3.11806,0.09752193,0.82582
522.852,57.4197,-3.12068,0.09623443,0.82308
526.052,57.73775,-3.122,0.09808632,0.82033
529.252,58.0551,-3.12593,0.10069,0.81757
532.452,58.37206,-3.12595,0.10093,0.81481
535.652,58.6893,-3.12991,0.09882689,0.81203
538.852,59.00626,-3.13122,0.10194,0.80926
542.052,59.3243,-3.13352,0.09951063,0.80647
545.252,59.6431,-3.13532,0.09861748,0.80368
548.452,59.96252,-3.13894,0.09915203,0.80088
551.652,60.2822,-3.14141,0.09968188,0.79808
554.852,60.6015,-3.14404,0.09456286,0.79527
558.052,60.9208,-3.14668,0.09609709,0.79245
561.252,61.2391,-3.15037,0.10038,0.78963
564.452,61.55837,-3.15205,0.09636612,0.7868
567.652,61.8771,-3.15457,0.09163982,0.78397
570.852,62.1964,-3.15754,0.0917921,0.78114
574.052,62.51616,-3.15892,0.09200727,0.77829
577.252,62.8357,-3.16282,0.09119982,0.77545
580.452,63.1556,-3.16412,0.09005023,0.77259
583.652,63.47582,-3.16421,0.08829919,0.76974
586.852,63.79589,-3.16675,0.09110206,0.76687
590.052,64.11539,-3.16675,0.09296188,0.76401
593.252,64.43528,-3.16839,0.0973655,0.76114
596.452,64.75446,-3.16972,0.10303,0.75826
599.652,65.07426,-3.17103,0.10103,0.75538
602.852,65.39444,-3.17235,0.10565,0.7525
606.052,65.715,-3.17367,0.10677,0.74962
609.252,66.03664,-3.1763,0.11048,0.74673
612.452,66.35744,-3.1782,0.11501,0.74383
615.652,66.67831,-3.18083,0.11654,0.74094
618.852,66.99891,-3.18358,0.12014,0.73804
622.052,67.3192,-3.18025,0.12394,0.73513
625.252,67.6401,-3.18551,0.12467,0.73223
628.452,67.9611,-3.18615,0.13011,0.72932
631.652,68.28233,-3.18779,0.1291,0.72641
634.852,68.6041,-3.1895,0.13544,0.7235
638.052,68.9254,-3.18946,0.13374,0.72058
641.252,69.24735,-3.19201,0.13913,0.71766
644.452,69.56992,-3.19241,0.1363,0.71474
647.652,69.8912,-3.19335,0.13795,0.71182
650.852,70.21225,-3.1956,0.13733,0.7089
654.052,70.53358,-3.19529,0.14229,0.70597
657.252,70.85406,-3.19812,0.13851,0.70304
660.452,71.17469,-3.19991,0.14285,0.70011
663.652,71.49577,-3.20282,0.14463,0.69718
666.852,71.81769,-3.20273,0.14581,0.69425
670.052,72.14058,-3.2024,0.14566,0.69132
673.252,72.46414,-3.20402,0.14699,0.68839
676.452,72.78834,-3.20569,0.15002,0.68545
679.652,73.1113,-3.20405,0.14922,0.68252
682.852,73.4344,-3.20585,0.15638,0.67958
686.052,73.75676,-3.20898,0.15435,0.67664
689.252,74.07852,-3.20638,0.15214,0.67371
692.452,74.40018,-3.21051,0.1553,0.67077
695.652,74.72221,-3.20886,0.15171,0.66783
698.852,75.04445,-3.20994,0.15475,0.6649
702.052,75.3681,-3.20887,0.15787,0.66196
705.252,75.6916,-3.21336,0.15672,0.65902
708.452,76.01536,-3.21204,0.15708,0.65609
711.652,76.33859,-3.21402,0.16366,0.65315
714.852,76.66248,-3.2147,0.16668,0.65022
718.052,76.98626,-3.21608,0.16337,0.64728
721.252,77.31013,-3.21589,0.16914,0.64435
724.452,77.63486,-3.219,0.16456,0.64142
727.652,77.9589,-3.21688,0.17238,0.63849
730.852,78.28267,-3.21708,0.16956,0.63556
734.052,78.60625,-3.21874,0.17537,0.63263
737.252,78.9302,-3.21874,0.17486,0.6297
740.452,79.2548,-3.21869,0.17949,0.62677
743.652,79.57903,-3.2194,0.17982,0.62385
746.852,79.90391,-3.22148,0.17892,0.62093
750.052,80.2276,-3.22083,0.17954,0.61801
753.252,80.55173,-3.22277,0.17933,0.61509
756.452,80.87597,-3.22141,0.17995,0.61217
759.652,81.20084,-3.22302,0.18401,0.60926
762.852,81.526,-3.22301,0.1909,0.60635
766.052,81.8518,-3.22293,0.18855,0.60344
769.252,82.1765,-3.22555,0.19075,0.60053
772.452,82.50154,-3.2263,0.19311,0.59762
775.652,82.82605,-3.22447,0.19386,0.59472
778.852,83.1493,-3.22683,0.19452,0.59182
782.052,83.47394,-3.22785,0.19573,0.58893
785.252,83.79849,-3.2285,0.20346,0.58603
788.452,84.12308,-3.23015,0.20171,0.58314
791.652,84.44866,-3.22986,0.20357,0.58026
794.852,84.7745,-3.23071,0.21029,0.57737
797.052,84.99891,-3.23148,0.21268,0.57539