File: 01_Data/Engineered_Flooring/Cone/Engineered_Flooring_Cone_HF50Scalar_220524_R2.csv
LABORATORY,FSRI
TEST IDENT,Engr_Hardwood_50_2
OPERATOR,Dow
MATERIAL,Engineered Hardwood Floor
ORIENTATION,Horizontal
HEAT FLUX,50
SURF AREA,0.01
C FACTOR,0.0419572
SPEC HOLDER DIFF,-566
SPECIMEN MASS,73.28
SCAN TIME,0.25
O2 DELAY TIME,11
CO DELAY TIME,11
CO2 DELAY TIME,8
FLOW FACTOR,1
SCAN COUNT,6499
TIME TO IGN,27
END OF TEST SCAN,6019
END OF TEST TIME,1504.75
TEST STATUS,1
PRE TEST CMT,Dimensions: 99.88 x 100.06 x 8.65; with tie wires