File: 01_Data/Engineered_Flooring/Cone/Engineered_Flooring_Cone_HF75Scalar_220524_R3.csv
LABORATORY,FSRI
TEST IDENT,Engr_Hardwood_75_3
OPERATOR,Dow
MATERIAL,Engineered Hardwood Floor
ORIENTATION,Horizontal
HEAT FLUX,75
SURF AREA,0.01
C FACTOR,0.0412233
SPEC HOLDER DIFF,-566
SPECIMEN MASS,72.5
SCAN TIME,0.25
O2 DELAY TIME,11
CO DELAY TIME,11
CO2 DELAY TIME,8
FLOW FACTOR,1
SCAN COUNT,7857
TIME TO IGN,12.5
END OF TEST SCAN,7377
END OF TEST TIME,1844.25
TEST STATUS,1
PRE TEST CMT,Dimensions: 99.82 x 100.15 x 8.65 mm; with tie wires