File: 01_Data/Engineered_Flooring/Cone/Engineered_Flooring_Cone_HF25Scan_220524_R1.csv
Names,Time,Stack TC,Smoke TC,Exh Press,Smoke Comp,Smoke Meas,CO Meter,CO2 Meter,O2 Meter,Sample Mass,Ext Coeff,Start Test,Flame Verif
Chan Gain,,500,500,1,1,1,1,1,1,1,1,1.0,1.0
Offset,,0,0,0.13752,0,0,0,0,0,0,0,0.0,0.0
Gain,,1,1,25.011,13.8491,15.2622,1,1,1,1.00087,1.03118,1.0,1.0
Units,sec,C,C,Pa,%,%,%,%,%,g,/m,,
Baseline,,28.0288,28.4677,141.802,105.165,105.962,0.00162866,0.0498932,20.9853,-451.504,-0.0682116,,
35,8.5,24.3753,24.8329,143.605,105.41,105.758,0.000325014,0.0439279,20.9971,121.846,-0.0298655,0.0,0.0
70,17.25,24.9583,25.9733,144.046,105.429,105.132,0.000536699,0.042149,20.9996,121.776,0.0255015,0.0,0.0
105,26,24.6616,25.0142,141.276,105.432,105.347,0.000235109,0.0421631,20.9995,121.766,0.00734028,0.0,0.0
140,34.75,24.9464,25.7153,144.465,105.355,105.567,3.65368e-05,0.042408,20.9972,121.816,-0.0182342,0.0,0.0
175,43.5,25.1804,25.8733,142.181,105.174,105.779,0.000498137,0.0428798,20.9956,121.716,-0.0518422,0.0,0.0
210,52.25,25.0367,25.5139,141.519,104.972,105.104,0.00036027,0.0432976,20.9986,121.696,-0.0114135,0.0,0.0
245,61,25.0099,25.87,143.86,104.781,105.029,0.000236262,0.043649,20.9972,121.496,-0.0213541,0.0,0.0
280,69.75,25.2057,25.6874,140.626,104.652,104.635,0.000358642,0.0442461,20.9972,121.536,0.00151166,0.0,0.0
315,78.5,25.5186,25.9881,141.825,104.551,105.013,0.000438622,0.0456164,20.9972,121.486,-0.0398231,0.0,0.0
350,87.25,24.8716,26.2406,143.002,104.685,104.419,0.000522411,0.0477505,20.9966,121.376,0.0230582,0.0,0.0
385,96,25.2462,26.3568,145.197,104.679,104.038,0.000832612,0.0503633,20.9977,121.256,0.0555719,0.0,0.0
420,104.75,25.9182,26.2372,139.811,104.595,103.165,0.00121242,0.0531187,20.9956,121.125,0.124436,0.0,0.0
455,113.5,25.668,26.7206,140.248,104.593,100.73,0.00158473,0.0541632,20.9972,120.925,0.340387,0.0,0.0
490,122.25,26.3691,27.0416,142.089,104.675,100.334,0.00147275,0.0544214,20.996,120.685,0.383144,0.0,0.0
525,131,26.6329,27.0716,130.612,104.787,106.721,0.0022739,0.10984,20.9266,120.225,-0.165414,0.0,1.0
560,139.75,32.1921,30.6521,127.262,104.856,107.779,0.00407614,0.399819,20.5686,119.134,-0.24872,0.0,0.0
595,148.5,37.1784,35.1817,134.335,104.969,107.553,0.00364025,0.341145,20.6386,117.993,-0.220015,0.0,0.0
630,157.25,39.6482,38.049,129.003,105.06,108.778,0.00288364,0.315435,20.6697,116.972,-0.314627,0.0,0.0
665,166,42.1096,41.2231,127.236,105.177,108.332,0.00259819,0.308651,20.6812,115.961,-0.267336,0.0,0.0
700,174.75,43.2345,42.7732,129.31,105.349,108.829,0.00236075,0.288524,20.7065,114.99,-0.294029,0.0,0.0
735,183.5,44.7952,44.4494,131.31,105.441,108.979,0.00218292,0.28183,20.7149,114.059,-0.29854,0.0,0.0
770,192.25,44.9417,45.2994,131.32,105.475,108.418,0.00283338,0.274051,20.7254,113.098,-0.248901,0.0,0.0
805,201,44.8898,46.2692,132.453,105.471,108.801,0.00241662,0.266808,20.7325,112.168,-0.281224,0.0,0.0
840,209.75,45.7002,46.3092,134.103,105.457,109.111,0.00267239,0.267311,20.729,111.267,-0.308098,0.0,0.0
875,218.5,45.7446,47.4545,126.482,105.442,108.97,0.0026606,0.276564,20.7189,110.306,-0.297699,0.0,0.0
910,227.25,45.8803,47.7595,130.676,105.441,109.128,0.00240627,0.269787,20.7258,109.405,-0.310829,0.0,0.0
945,236,46.1257,48.5114,129.965,105.439,108.493,0.00223956,0.263965,20.7313,108.565,-0.258275,0.0,0.0
980,244.75,46.0805,48.1943,129.712,105.44,108.541,0.00211529,0.264473,20.7337,107.684,-0.262238,0.0,0.0
1015,253.5,45.6255,48.1639,130.827,105.434,108.513,0.00205478,0.256274,20.743,106.853,-0.26038,0.0,0.0
1050,262.25,45.4249,48.552,132.739,105.407,108.583,0.00222086,0.248839,20.7539,106.012,-0.268522,0.0,0.0
1085,271,45.4517,48.075,131.247,105.389,108.466,0.00208567,0.236179,20.7671,105.232,-0.260374,0.0,0.0
1120,279.75,44.7148,47.9166,132.905,105.329,107.591,0.00251422,0.222503,20.7844,104.451,-0.192172,0.0,0.0
1155,288.5,43.7112,47.2384,132.715,105.258,108.322,0.0025202,0.206573,20.8037,103.7,-0.259539,0.0,0.0
1190,297.25,43.2986,46.5891,137.224,105.158,107.884,0.00235077,0.197899,20.8139,103.04,-0.231483,0.0,0.0
1225,306,42.1486,45.7091,132.585,105.041,107.749,0.00242682,0.188385,20.8256,102.429,-0.230223,0.0,0.0
1260,314.75,41.5641,45.3645,134.806,104.893,107.053,0.0024706,0.18153,20.8352,101.839,-0.184404,0.0,0.0
1295,323.5,40.7099,44.1926,134.005,104.747,107.165,0.00216001,0.176942,20.8428,101.308,-0.206503,0.0,0.0
1330,332.25,40.3669,43.7882,128.607,104.701,107.878,0.00231788,0.173013,20.8478,100.718,-0.270397,0.0,0.0
1365,341,39.8605,42.789,133.872,104.68,106.912,0.00206294,0.171735,20.8491,100.187,-0.190784,0.0,0.0
1400,349.75,39.2225,42.6082,134.151,104.738,106.672,0.00211939,0.170657,20.8515,99.5967,-0.165504,0.0,0.0
1435,358.5,39.0721,41.8474,136.589,104.861,107.892,0.00194539,0.170457,20.8516,99.0262,-0.257737,0.0,0.0
1470,367.25,38.3151,41.5198,132.615,105.094,108.487,0.00221905,0.172943,20.8482,98.5358,-0.287439,0.0,0.0
1505,376,38.594,41.0072,133.79,105.329,107.315,0.00226745,0.1767,20.8434,98.0554,-0.168957,0.0,0.0
1540,384.75,38.6861,41.1721,132.539,105.438,108.068,0.00219237,0.181683,20.8376,97.4949,-0.222858,0.0,0.0
1575,393.5,38.7222,41.2098,136.627,105.387,108.33,0.00220796,0.188096,20.8278,96.8643,-0.249095,0.0,0.0
1610,402.25,38.6613,40.8918,133.771,105.203,108.487,0.00192298,0.200348,20.8117,96.2938,-0.278022,0.0,0.0
1645,411,40.0016,41.4555,130.584,105.008,107.277,0.00212368,0.21586,20.7942,95.6333,-0.19337,0.0,0.0
1680,419.75,40.0637,41.8389,136.087,104.905,107.963,0.00215066,0.233765,20.7707,94.8826,-0.259883,0.0,0.0
1715,428.5,40.573,42.7395,134.264,104.878,106.813,0.00229795,0.250057,20.7506,94.172,-0.165425,0.0,0.0
1750,437.25,42.3286,43.0675,130.895,104.919,108.482,0.00251135,0.261585,20.7383,93.4413,-0.302123,0.0,0.0
1785,446,43.1839,44.3978,135.98,105.009,108.482,0.00203498,0.272998,20.7254,92.6206,-0.294329,0.0,0.0
1820,454.75,43.9944,45.4219,134.725,105.095,108.424,0.00220254,0.285404,20.7117,91.7999,-0.282049,0.0,0.0
1855,463.5,45.3193,45.6126,127.844,105.239,108.635,0.00247377,0.298128,20.6956,90.8891,-0.2872,0.0,0.0
1890,472.25,45.9267,46.83,131.382,105.367,108.79,0.00229319,0.310455,20.6828,90.0084,-0.289179,0.0,0.0
1925,481,46.4176,48.2821,131.824,105.452,108.543,0.00245288,0.318487,20.6751,89.0675,-0.261378,0.0,0.0
1960,489.75,47.9992,48.8816,129.328,105.463,110.523,0.00261569,0.331944,20.6592,88.0667,-0.423839,0.0,0.0
1995,498.5,48.7089,50.6754,126.921,105.423,109.439,0.00239447,0.34001,20.6491,87.0858,-0.338179,0.0,0.0
2030,507.25,49.7462,51.5718,129.463,105.346,108.656,0.00275822,0.351411,20.6419,86.0749,-0.279873,0.0,0.0
2065,516,51.123,52.2197,127.689,105.23,109.623,0.00302303,0.370205,20.6219,84.974,-0.369961,0.0,0.0
2100,524.75,52.5842,54.1708,126.051,105.066,108.757,0.00361492,0.407944,20.5797,83.7429,-0.312337,0.0,0.0
2135,533.5,54.9072,55.9093,126.421,104.926,105.642,0.00398202,0.462535,20.5035,82.3717,-0.0614837,0.0,0.0
2170,542.25,57.6865,58.8005,120.844,104.764,106.656,0.00518484,0.539774,20.4064,80.8003,-0.161895,0.0,0.0
2205,551,61.5548,62.3764,118.364,104.604,104.887,0.00564967,0.583596,20.3592,79.1289,-0.024415,0.0,0.0
2240,559.75,64.3302,65.8669,118.664,104.428,104.893,0.00560743,0.588963,20.3463,77.5275,-0.0402265,0.0,0.0
2275,568.5,66.3502,67.8608,116.802,104.275,107.318,0.00447047,0.563529,20.3692,76.0662,-0.260212,0.0,0.0
2310,577.25,67.2847,69.2942,119.799,104.1,107.506,0.00404489,0.55768,20.3716,74.635,-0.291247,0.0,0.0
2345,586,67.1444,70.1847,121.464,103.939,105.228,0.00394385,0.527788,20.4047,73.2838,-0.111479,0.0,0.0
2380,594.75,67.1991,70.5035,122.215,103.839,104.284,0.00377022,0.490831,20.4453,72.0627,-0.0387184,0.0,0.0
2415,603.5,65.8629,70.0203,127.309,103.75,105.727,0.00331475,0.43571,20.5127,70.9818,-0.170754,0.0,0.0
2450,612.25,63.6617,68.5111,128.418,103.656,105.965,0.00326279,0.372596,20.5889,70.041,-0.199278,0.0,0.0
2485,621,61.2663,66.995,129.849,103.583,105.845,0.00261253,0.305288,20.6652,69.2503,-0.195434,0.0,0.0
2520,629.75,58.3966,64.1638,133.397,103.524,107.518,0.00299844,0.242721,20.7473,68.7298,-0.342423,0.0,0.0
2555,638.5,54.3078,61.2768,136.57,103.509,107.278,0.00372265,0.200051,20.7991,68.2895,-0.323511,0.0,0.0
2590,647.25,51.7285,58.0671,131.057,103.497,106.273,0.00429083,0.169286,20.8379,68.0192,-0.239359,0.0,0.0
2625,656,48.3889,55.1874,134.599,103.506,107.328,0.00452827,0.142753,20.8703,67.729,-0.328012,0.0,0.0
2660,664.75,45.9028,52.4704,133.301,103.537,106.771,0.00538687,0.125483,20.889,67.5288,-0.278204,0.0,0.0
2695,673.5,44.0394,49.6425,136.011,103.648,105.973,0.00598341,0.11201,20.9053,67.3286,-0.200614,0.0,0.0
2730,682.25,41.7908,47.421,138.377,103.809,105.878,0.00637646,0.101822,20.9179,67.1184,-0.178495,0.0,0.0
2765,691,39.4458,44.3323,135.449,104.047,106.244,0.00684289,0.0942362,20.9275,66.9883,-0.189008,0.0,0.0
2800,699.75,37.4104,42.9626,135.973,104.367,106.597,0.00736693,0.0862952,20.9362,66.9283,-0.191284,0.0,0.0
2835,708.5,36.7015,40.8631,138,104.674,106.902,0.00812543,0.0797583,20.9462,66.8582,-0.190543,0.0,0.0
2870,717.25,34.5134,38.1702,137.537,104.895,107.238,0.0108062,0.0822158,20.9403,66.7681,-0.199869,0.0,0.0
2905,726,32.4628,35.4143,139.783,105.052,106.547,0.011012,0.0758803,20.9497,66.638,-0.127794,0.0,0.0
2940,734.75,32.1874,34.3289,138.948,105.08,105.992,0.0108113,0.0721342,20.9547,66.608,-0.0782113,0.0,0.0
2975,743.5,30.5901,33.6597,142.418,105.034,107.08,0.0109975,0.0712645,20.9566,66.5079,-0.174482,0.0,0.0
3010,752.25,30.3825,32.4028,138.759,104.928,106.196,0.0110973,0.0722127,20.9522,66.3878,-0.108673,0.0,0.0
3045,761,29.9319,31.6715,141.402,104.792,106.276,0.0108071,0.0748409,20.9495,66.3277,-0.127159,0.0,0.0
3080,769.75,29.4944,30.6409,136.389,104.605,106.181,0.0107213,0.0750383,20.949,66.2076,-0.135321,0.0,0.0
3115,778.5,28.8185,30.3488,137.792,104.428,106.646,0.0102266,0.0756696,20.9492,66.2477,-0.19012,0.0,0.0
3150,787.25,28.2731,29.9506,144.171,104.229,105.816,0.0105609,0.0758505,20.9511,66.1276,-0.136633,0.0,0.0
3185,796,28.4588,29.0916,140.541,104.007,105.183,0.0102062,0.0770167,20.9491,66.0975,-0.101674,0.0,0.0
3220,804.75,28.45,29.5402,139.581,103.796,105.002,0.00996938,0.0767157,20.9483,66.0175,-0.104517,0.0,0.0
3255,813.5,27.9614,28.6323,139.336,103.61,105.233,0.00985338,0.0767677,20.9499,65.9174,-0.14062,0.0,0.0
3290,822.25,27.6054,28.7207,138.163,103.528,105.142,0.00967071,0.0774436,20.9504,65.8073,-0.139891,0.0,0.0
3325,831,27.9708,28.4951,138.332,103.473,104.52,,,,65.7172,-0.0910767,0.0,0.0
3346,836.25,27.6935,27.9203,139.515,103.467,104.481,,,,65.6972,-0.0882076,0.0,0.0