File: 01_Data/Engineered_Flooring/Cone/Engineered_Flooring_Cone_HF50Scan_220524_R3.csv
Names,Time,Stack TC,Smoke TC,Exh Press,Smoke Comp,Smoke Meas,CO Meter,CO2 Meter,O2 Meter,Sample Mass,Ext Coeff,Start Test,Flame Verif
Chan Gain,,500,500,1,1,1,1,1,1,1,1,1.0,1.0
Offset,,0,0,0.138596,0,0,0,0,0,0,0,0.0,0.0
Gain,,1,1,25.011,13.8491,15.2622,1,1,1,1.00087,1.03118,1.0,1.0
Units,sec,C,C,Pa,%,%,%,%,%,g,/m,,
Baseline,,33.2298,34.3402,137.29,105.355,106.752,0.000846894,0.0462639,20.9958,-451.084,-0.11904,,
49,12,31.5713,32.9594,132.74,105.536,106.204,0.000643543,0.048149,20.996,120.115,-0.0570689,0.0,0.0
98,24.25,32.339,33.6543,137.056,105.53,103.783,0.00153306,0.0599814,20.978,119.924,0.151014,0.0,0.0
147,36.5,42.2729,40.2036,113.954,105.517,105.301,0.00564072,0.533813,20.4068,117.923,0.0185063,0.0,0.0
196,48.75,53.3259,51.042,113.357,105.543,105.601,0.00656771,0.582692,20.346,115.781,-0.00497397,0.0,0.0
245,61,62.1842,60.1041,115.772,105.539,107.628,0.00540252,0.600987,20.322,113.299,-0.177322,0.0,0.0
294,73.25,66.2417,65.8716,117.384,105.539,109.852,0.00436038,0.507869,20.4327,111.257,-0.362329,0.0,0.0
343,85.5,66.9705,68.5236,122.227,105.534,110.222,0.00350456,0.424692,20.5287,109.295,-0.393167,0.0,0.0
392,97.75,66.5718,69.2712,123.234,105.539,110.138,0.00317289,0.372622,20.5921,107.604,-0.385772,0.0,0.0
441,110,65.346,69.3567,126.448,105.528,110.661,0.00285442,0.338262,20.6319,106.032,-0.429644,0.0,0.0
490,122.25,64.3915,68.9406,121.45,105.472,110.096,0.00299637,0.320723,20.6578,104.461,-0.388129,0.0,0.0
539,134.5,63.047,68.0941,121.572,105.392,109.852,0.00242227,0.314136,20.6684,102.95,-0.374909,0.0,0.0
588,146.75,62.4821,67.7768,124.285,105.217,109.454,0.00277745,0.313196,20.6677,101.398,-0.357126,0.0,0.0
637,159,61.6144,66.947,124.221,105.042,108.965,0.00267508,0.311865,20.6736,100.027,-0.331671,0.0,0.0
686,171.25,61.1509,66.3671,122.919,105.016,110.065,0.00268288,0.314976,20.673,98.5658,-0.424759,0.0,0.0
735,183.5,61.4706,66.3059,123.089,105.069,109.581,0.00252171,0.311847,20.6774,96.9444,-0.380351,0.0,0.0
784,195.75,60.6577,65.033,121.855,105.223,108.753,0.00277423,0.316402,20.676,95.6032,-0.2985,0.0,0.0
833,208,60.2779,65.2808,122.64,105.386,110.212,0.00259533,0.318801,20.6723,94.0619,-0.404975,0.0,0.0
882,220.25,61.2536,65.7735,123.784,105.465,110.105,0.00297725,0.324144,20.6654,92.7708,-0.389511,0.0,0.0
931,232.5,60.9377,65.8136,122.091,105.485,108.829,0.00306549,0.330783,20.6576,91.2294,-0.282315,0.0,0.0
980,244.75,61.0133,65.3041,122.96,105.48,107.902,0.00342421,0.341154,20.6424,89.7882,-0.205379,0.0,0.0
1029,257,62.6222,66.6496,124.413,105.489,109.204,0.0032757,0.357195,20.6243,88.2668,-0.313063,0.0,0.0
1078,269.25,62.9578,66.885,119.692,105.482,109.231,0.0036021,0.379848,20.5966,86.7255,-0.315841,0.0,0.0
1127,281.5,64.8597,68.7892,117.932,105.398,108.666,0.0037628,0.404959,20.5622,85.1942,-0.276222,0.0,0.0
1176,293.75,66.54,69.8633,120.009,105.024,107.489,0.00425218,0.440032,20.5212,83.3826,-0.209835,0.0,0.0
1225,306,68.6325,71.9998,119.235,104.557,105.02,0.00483829,0.485418,20.4696,81.551,-0.0399899,0.0,0.0
1274,318.25,71.2352,74.5162,113.857,104.252,104.759,0.00604757,0.541799,20.4021,79.4091,-0.0438969,0.0,0.0
1323,330.5,74.8819,78.1622,113.738,104.085,104.099,0.00706225,0.602245,20.3299,77.0771,-0.00126278,0.0,0.0
1372,342.75,78.583,81.8153,113.018,104.022,102.359,0.00721503,0.651329,20.272,74.695,0.14582,0.0,0.0
1421,355,82.137,85.5115,112.622,103.955,100.989,0.00829814,0.710688,20.197,72.1028,0.261848,0.0,0.0
1470,367.25,84.8543,88.8635,110.191,103.915,97.5102,0.0083646,0.734936,20.1527,69.4705,0.575471,0.0,0.0
1519,379.5,84.6497,89.7252,114.859,103.882,98.7733,0.00756782,0.622108,20.2733,67.1985,0.456178,0.0,0.0
1568,391.75,83.0838,89.3119,120.422,103.868,102.995,0.00466558,0.495849,20.4329,65.517,0.0762674,0.0,0.0
1617,404,77.8911,85.0271,120.976,103.893,106.641,0.00304403,0.292018,20.6703,64.5162,-0.236114,0.0,0.0
1666,416.25,69.4105,77.5507,133.292,103.923,109.24,0.00232601,0.16392,20.834,63.9957,-0.451349,0.0,0.0
1715,428.5,63.342,71.453,135.904,103.932,107.203,0.00236269,0.123984,20.8853,63.7655,-0.280292,0.0,0.0
1764,440.75,58.0879,66.2983,127.814,103.865,108.269,0.00301713,0.114502,20.9001,63.4753,-0.375617,0.0,0.0
1813,453,54.5521,61.7741,134.218,103.79,108.593,0.00355831,0.109511,20.9068,63.3151,-0.409177,0.0,0.0
1862,465.25,52.2693,58.0878,133.774,103.663,106.1,0.00341015,0.107027,20.9113,63.175,-0.210173,0.0,0.0
1911,477.5,49.9405,55.2965,130.679,103.483,106.709,0.00361501,0.105191,20.9132,62.9248,-0.277647,0.0,0.0
1960,489.75,47.8808,52.4142,131.989,103.442,106.436,0.00385805,0.10586,20.9139,62.8547,-0.258141,0.0,0.0
2009,502,47.2367,50.9714,133.163,103.608,107.014,0.00426653,0.104529,20.9166,62.6345,-0.292617,0.0,0.0
2058,514.25,46.6218,49.743,130.77,103.91,107.201,0.00506579,0.106811,20.9155,62.5244,-0.282048,0.0,0.0
2107,526.5,45.4508,48.8326,133.538,104.239,107.958,0.00502908,0.103955,20.9209,62.4043,-0.317106,0.0,0.0
2156,538.75,44.792,46.9489,133.726,104.484,107.782,0.00536367,0.107001,20.9177,62.2142,-0.281096,0.0,0.0
2205,551,43.6946,45.8621,130.451,104.681,107.447,0.00540431,0.105048,20.9198,62.1441,-0.235913,0.0,0.0
2254,563.25,43.943,45.6841,133.689,104.766,107.817,0.00606251,0.102143,20.9232,61.9239,-0.259693,0.0,0.0
2303,575.5,43.3002,44.8399,134.063,104.82,107.904,0.00609945,0.101657,20.926,61.9039,-0.262253,0.0,0.0
2352,587.75,43.2669,44.365,133.822,104.78,108.315,0.00683258,0.10515,20.9226,61.6937,-0.300166,0.0,0.0
2401,600,42.3943,43.4544,132.571,104.709,107.247,0.00682585,0.105789,20.9233,61.6537,-0.216705,0.0,0.0
2450,612.25,42.3534,43.3855,130.978,104.6,107.839,0.00701954,0.103326,20.9229,61.5135,-0.275771,0.0,0.0
2499,624.5,42.6529,42.8212,130.803,104.508,107.575,0.00713361,0.100829,20.9265,61.3134,-0.261638,0.0,0.0
2548,636.75,41.764,43.0557,135.637,104.409,107.211,0.00754876,0.103272,20.9243,61.2833,-0.239527,0.0,0.0
2597,649,41.5548,42.5355,135.615,104.291,106.834,0.00785138,0.102441,20.9249,61.0732,-0.217899,0.0,0.0
2646,661.25,41.3742,42.3938,133.156,104.435,107.356,0.00766631,0.101004,20.9284,61.0431,-0.249467,0.0,0.0
2695,673.5,41.864,42.3796,134.906,104.861,107.746,0.00789421,0.101112,20.9285,60.843,-0.24547,0.0,0.0
2744,685.75,41.071,42.0609,135.302,105.143,107.525,0.00781361,0.100295,20.9285,60.7229,-0.202632,0.0,0.0
2793,698,40.7809,42.0185,130.177,105.163,107.524,0.00798217,0.0987409,20.9305,60.6728,-0.20077,0.0,0.0
2842,710.25,41.173,41.8321,135.45,104.852,107.881,0.00804104,0.101211,20.9278,60.5027,-0.257569,0.0,0.0
2891,722.5,40.7921,41.3038,133.679,104.75,107.339,0.00816946,0.101537,20.9273,60.4927,-0.22086,0.0,0.0
2940,734.75,40.6396,41.5569,137.523,105.028,108.687,0.00787163,0.10124,20.929,60.2725,-0.30976,0.0,0.0
2989,747,40.178,41.409,135.01,105.33,107.473,0.00866099,0.101821,20.927,60.2525,-0.182186,0.0,0.0
3038,759.25,40.3853,40.9418,133.735,105.52,108.06,0.00940068,0.0997314,20.9323,60.1424,-0.215163,0.0,0.0
3087,771.5,40.2808,41.3536,133.244,105.436,108.614,0.0093341,0.100346,20.9303,59.9322,-0.26862,0.0,0.0
3136,783.75,40.2824,41.5268,135.769,105.109,107.408,0.00952814,0.100207,20.9273,59.8921,-0.195738,0.0,0.0
3185,796,39.7238,40.888,134.18,104.637,106.452,0.00945963,0.0985075,20.9317,59.682,-0.155607,0.0,0.0
3234,808.25,39.5375,40.7957,135.856,104.15,106.822,0.00996634,0.0992742,20.9299,59.702,-0.229088,0.0,0.0
3283,820.5,39.5772,40.6998,132.916,103.693,106.384,0.00956379,0.0987312,20.9332,59.5819,-0.231705,0.0,0.0
3332,832.75,39.6296,41.1727,134.838,103.489,105.367,0.00968865,0.0984106,20.9313,59.4117,-0.162659,0.0,0.0
3381,845,39.5868,40.4915,135.429,103.543,106.603,0.00954372,0.0982145,20.932,59.4017,-0.263397,0.0,0.0
3430,857.25,39.7055,40.9352,131.407,103.699,106.868,0.0100103,0.097734,20.9326,59.1915,-0.272356,0.0,0.0
3479,869.5,39.3735,40.565,137.851,103.851,106.246,0.00962898,0.0986394,20.9315,59.1415,-0.206234,0.0,0.0
3528,881.75,39.4931,40.4396,136.392,103.921,106.283,0.00982493,0.0980794,20.9337,58.9213,-0.203297,0.0,0.0
3577,894,39.2211,40.1796,132.2,103.934,107.356,0.0100992,0.0989026,20.9305,58.8813,-0.292988,0.0,0.0
3626,906.25,39.0528,40.5594,134.54,103.884,106.267,0.0102071,0.100109,20.9275,58.8212,-0.205224,0.0,0.0
3675,918.5,39.2146,40.339,133.009,103.591,106.938,0.010137,0.0989939,20.9314,58.6611,-0.287634,0.0,0.0
3724,930.75,38.7892,40.1959,132.724,103.449,106.134,0.0106319,0.0997735,20.9304,58.6611,-0.231748,0.0,0.0
3773,943,38.6152,39.973,134.882,103.425,106.59,0.00988356,0.0992645,20.9305,58.4008,-0.272597,0.0,0.0
3822,955.25,39.0261,39.9534,133.49,103.53,105.109,0.00990633,0.0983979,20.93,58.3808,-0.136861,0.0,0.0
3871,967.5,38.8604,39.958,132.96,103.522,105.941,0.0100315,0.0987887,20.932,58.2407,-0.208945,0.0,0.0
3920,979.75,38.3259,39.9096,133.303,103.464,106.059,0.0103337,0.099265,20.9314,58.0706,-0.224064,0.0,0.0
3969,992,38.9876,40.2526,133.379,103.448,105.956,0.00984015,0.101173,20.9274,58.0505,-0.216684,0.0,0.0
4018,1004.25,38.5445,39.5872,130.61,103.521,106.858,0.00990242,0.105094,20.9235,57.8704,-0.286949,0.0,0.0
4067,1016.5,38.3686,39.8311,132.095,103.659,106.455,0.00959799,0.101457,20.9291,57.8504,-0.240749,0.0,0.0
4116,1028.75,38.3465,40.126,131.565,103.744,106.507,0.00992345,0.0989585,20.9309,57.7102,-0.237808,0.0,0.0
4165,1041,38.2571,39.6379,129.061,103.794,106.821,0.0100602,0.0988341,20.9314,57.6001,-0.260045,0.0,0.0
4214,1053.25,38.519,40.0562,134.613,103.819,106.665,0.0100216,0.0975218,20.932,57.5501,-0.244574,0.0,0.0
4263,1065.5,36.8949,38.4233,134.812,103.823,106.812,0.0103995,0.0973162,20.9336,57.3499,-0.256755,0.0,0.0
4312,1077.75,37.1997,38.4156,137.441,103.794,106.467,0.0098997,0.0971909,20.9341,57.3399,-0.229984,0.0,0.0
4361,1090,37.3425,38.657,137.193,103.769,107.189,0.0102487,0.0967806,20.9351,57.1698,-0.29336,0.0,0.0
4410,1102.25,36.7821,38.608,135.109,103.725,106.576,0.00989944,0.0954503,20.9346,57.0997,-0.245279,0.0,0.0
4459,1114.5,37.3264,38.5126,133.341,103.682,106.469,0.00972716,0.095947,20.9343,57.0296,-0.239945,0.0,0.0
4508,1126.75,36.9844,38.8176,131.879,103.579,106.019,0.00968926,0.095479,20.9363,56.7894,-0.210563,0.0,0.0
4557,1139,36.8725,38.7178,138.365,103.553,105.977,0.00957055,0.095765,20.9359,56.8595,-0.209275,0.0,0.0
4606,1151.25,37.5242,38.7372,132.534,103.498,106.233,0.00988053,0.0957493,20.9357,56.6593,-0.235951,0.0,0.0
4655,1163.5,37.3126,38.2302,133.432,103.469,105.965,0.00951616,0.0964145,20.9342,56.5893,-0.215628,0.0,0.0
4704,1175.75,37.1646,38.6076,132.9,103.458,106.478,,,,56.4792,-0.2603,0.0,0.0