File: 01_Data/Engineered_Flooring/Cone/Engineered_Flooring_Cone_HF25Scalar_220524_R1.csv
LABORATORY,FSRI
TEST IDENT,Engr_Hardwood_25_1
OPERATOR,Dow
MATERIAL,Engineered Hardwood Floor
ORIENTATION,Horizontal
HEAT FLUX,25
SURF AREA,0.01
C FACTOR,0.0419572
SPEC HOLDER DIFF,-566
SPECIMEN MASS,74.44
SCAN TIME,0.25
O2 DELAY TIME,11
CO DELAY TIME,11
CO2 DELAY TIME,8
FLOW FACTOR,1
SCAN COUNT,3346
TIME TO IGN,128.5
END OF TEST SCAN,2866
END OF TEST TIME,716.5
TEST STATUS,1
PRE TEST CMT,Dimensions: 100.00 x 100.04 x 8.65 mm; with tie wires