File: 01_Data/Engineered_Flooring/Cone/Engineered_Hardwood_Flooring_Cone_HF75Scan_220524_R2.csv
Names,Time,Stack TC,Smoke TC,Exh Press,Smoke Comp,Smoke Meas,CO Meter,CO2 Meter,O2 Meter,Sample Mass,Ext Coeff,Start Test,Flame Verif
Chan Gain,,500,500,1,1,1,1,1,1,1,1,1.0,1.0
Offset,,0,0,0.138596,0,0,0,0,0,0,0,0.0,0.0
Gain,,1,1,25.011,13.8491,15.2622,1,1,1,1.00087,1.03118,1.0,1.0
Units,sec,C,C,Pa,%,%,%,%,%,g,/m,,
Baseline,,35.0605,36.7293,135.862,104.778,108.762,0.000799654,0.0481596,20.9861,-452.693,-0.337503,,
87,21.5,47.4495,44.6906,111.235,105.51,100.913,0.00811202,0.770676,20.0894,116.161,0.402941,0.0,0.0
174,43.25,75.8176,73.4108,109.852,105.002,106.675,0.00706588,0.808753,20.0499,110.716,-0.143069,0.0,0.0
261,65,80.6874,83.9141,114.27,105.425,108.17,0.0045539,0.557524,20.3543,106.413,-0.232442,0.0,0.0
348,86.75,79.3188,84.9493,116.211,105.877,111.642,0.00392387,0.450866,20.4838,102.769,-0.479634,0.0,0.0
435,108.5,77.2489,83.8893,119.886,104.991,110.968,0.00369745,0.415181,20.5307,99.3965,-0.5009,0.0,0.0
522,130.25,75.8789,83.4943,116.908,103.887,109.349,0.00335858,0.414913,20.5348,96.0536,-0.463496,0.0,0.0
609,152,76.3731,83.2787,120.599,104.598,110.373,0.00368375,0.416115,20.5358,92.7507,-0.48614,0.0,0.0
696,173.75,76.7193,83.644,114.189,105.193,109.922,0.00365732,0.418306,20.5366,89.4879,-0.39776,0.0,0.0
783,195.5,76.0239,82.8033,121.879,104.807,108.594,0.00434708,0.423844,20.527,86.2451,-0.321065,0.0,0.0
870,217.25,77.1011,83.1049,117.765,104.538,108.456,0.00451587,0.459533,20.4813,82.9722,-0.332838,0.0,0.0
957,239,80.6182,85.9808,114.179,104.788,106.633,0.00575893,0.530918,20.3898,79.4191,-0.157879,0.0,0.0
1044,260.75,86.4891,91.2008,108.194,104.617,104.022,0.00737418,0.665518,20.2302,75.2255,0.0515061,0.0,0.0
1131,282.5,96.0392,100.359,102.027,104.559,99.7896,0.00968832,0.876547,19.9805,70.0009,0.42231,0.0,0.0
1218,304.25,101.707,108.269,107.534,104.656,99.0574,0.0088586,0.820306,20.0177,64.6863,0.497293,0.0,0.0
1305,326,92.2437,102.588,124.263,104.53,109.808,0.00265183,0.311663,20.6383,62.034,-0.44553,0.0,0.0
1392,347.75,76.0591,86.8673,125.053,105.305,113.233,0.0017674,0.131637,20.8579,61.4035,-0.65662,0.0,0.0
1479,369.5,66.9813,76.2028,126.592,105.421,112.367,0.00158077,0.113698,20.8848,61.0231,-0.577171,0.0,0.0
1566,391.25,61.3424,68.7488,133.06,105.089,112.333,0.00178872,0.11061,20.8942,60.7529,-0.603019,0.0,0.0
1653,413,57.5656,63.3479,125.503,105.723,112.376,0.00221268,0.11044,20.8993,60.4626,-0.552028,0.0,0.0
1740,434.75,55.6448,60.1286,124.521,105.644,112.581,0.00219583,0.112648,20.8982,60.2424,-0.575348,0.0,0.0
1827,456.5,54.7266,57.5757,127.252,104.453,111.193,0.00263743,0.111392,20.9038,60.0223,-0.565655,0.0,0.0
1914,478.25,53.7339,56.1098,127.876,103.926,109.943,0.00355031,0.110855,20.9065,59.8021,-0.509101,0.0,0.0
2001,500,53.4692,55.5103,130.123,104.913,111.68,0.00396249,0.11195,20.9062,59.5719,-0.565393,0.0,0.0
2088,521.75,52.7317,54.6035,130.674,105.044,111.224,0.00437821,0.112328,20.9062,59.4117,-0.517059,0.0,0.0
2175,543.5,52.6988,54.0935,128.222,105.052,111.484,0.00451943,0.111112,20.9142,59.2316,-0.537479,0.0,0.0
2262,565.25,52.7902,54.3664,129.105,104.929,111.849,0.00492211,0.112366,20.9096,59.0014,-0.577691,0.0,0.0
2349,587,51.9629,53.8493,128.415,105.661,113.578,0.00533124,0.114728,20.9096,58.8612,-0.653596,0.0,0.0
2436,608.75,52.068,53.1246,125.653,105.761,111.749,0.00596737,0.112701,20.9101,58.6711,-0.498135,0.0,0.0
2523,630.5,50.8993,52.414,128.311,105.679,112.267,0.00620012,0.112568,20.9109,58.4309,-0.547086,0.0,0.0
2610,652.25,51.6727,53.3378,127.096,105.772,113.029,0.00653563,0.112418,20.9114,58.2707,-0.600282,0.0,0.0
2697,674,50.9257,53.034,129.579,105.746,112.975,0.00689443,0.111188,20.9128,58.1406,-0.598163,0.0,0.0
2784,695.75,50.576,52.5265,127.947,105.672,112.123,0.00718493,0.111123,20.9101,57.8303,-0.535951,0.0,0.0
2871,717.5,51.1192,52.3572,126.737,105.786,112.586,0.00747894,0.110551,20.9144,57.6402,-0.563497,0.0,0.0
2958,739.25,50.6095,52.6516,127.056,105.764,112.957,0.00785238,0.110012,20.9143,57.38,-0.59519,0.0,0.0
3045,761,50.6133,52.7161,128.502,105.436,111.954,0.00816872,0.108295,20.9151,57.1898,-0.542658,0.0,0.0
3132,782.75,50.2774,52.4372,131.371,104.712,111.948,0.00838025,0.107597,20.9173,56.9596,-0.604421,0.0,0.0
3219,804.5,50.6977,53.2679,128.972,104.149,111.019,0.00858567,0.107638,20.9182,56.7694,-0.577826,0.0,0.0
3306,826.25,50.6819,52.752,131.884,103.888,111.159,0.00901616,0.106731,20.9187,56.5592,-0.611918,0.0,0.0
3393,848,50.4564,53.0062,129.354,103.959,110.567,0.00907321,0.106155,20.9188,56.3591,-0.5574,0.0,0.0
3480,869.75,51.2798,53.1969,126.064,104.461,111.431,0.00953865,0.105792,20.9196,56.1789,-0.584226,0.0,0.0
3567,891.5,51.3233,52.9266,128.83,105.091,111.577,0.00982625,0.105836,20.9193,55.9987,-0.541687,0.0,0.0
3654,913.25,51.6112,53.4536,127.009,105.018,112.417,0.010045,0.104961,20.921,55.8186,-0.615807,0.0,0.0
3741,935,51.5704,53.1618,132.9,104.939,111.615,0.0105014,0.105278,20.9214,55.6585,-0.557925,0.0,0.0
3828,956.75,51.6937,52.9106,129.569,105.007,112.489,0.0102915,0.105173,20.9209,55.4182,-0.622635,0.0,0.0
3915,978.5,51.444,53.7753,129.052,105.659,111.462,0.00999253,0.104995,20.9215,55.2481,-0.483595,0.0,0.0
4002,1000.25,51.0029,53.1571,126.623,105.692,112.001,0.0101486,0.104404,20.9237,55.108,-0.524438,0.0,0.0
4089,1022,50.8495,52.8888,127.527,105.275,112.131,0.0109522,0.104354,20.9214,54.8778,-0.570773,0.0,0.0
4176,1043.75,50.9519,52.9065,130.73,105.02,112.624,0.0106918,0.103814,20.9235,54.6576,-0.632324,0.0,0.0
4263,1065.5,50.6697,52.8023,128.615,105.166,111.469,0.0104249,0.104532,20.9237,54.5175,-0.526486,0.0,0.0
4350,1087.25,50.5283,52.3824,131.154,105.651,112.383,0.0105876,0.104373,20.9207,54.3573,-0.558778,0.0,0.0
4437,1109,50.5078,52.8491,130.603,105.722,111.796,0.0107652,0.103583,20.9241,54.1071,-0.505266,0.0,0.0
4524,1130.75,50.6754,52.4808,128.437,105.738,112.382,0.0107865,0.102745,20.9253,53.987,-0.551212,0.0,0.0
4611,1152.5,50.6893,52.5082,130.044,105.764,112.434,0.0104109,0.102173,20.9233,53.7568,-0.55317,0.0,0.0
4698,1174.25,50.4526,52.6669,127.294,105.644,113.071,0.0103177,0.101077,20.9264,53.5566,-0.614593,0.0,0.0
4785,1196,50.4023,52.7513,129.479,105.554,111.715,0.010286,0.101344,20.9265,53.3765,-0.513112,0.0,0.0
4872,1217.75,50.3917,52.8054,128.9,105.409,111.342,0.0100557,0.101594,20.9266,53.1663,-0.495395,0.0,0.0
4959,1239.5,50.8187,53.0842,129.498,105.269,112.363,0.0104256,0.101604,20.924,52.9661,-0.5899,0.0,0.0
5046,1261.25,50.9327,53.1564,128.878,104.889,111.94,0.0102568,0.100575,20.9249,52.836,-0.588497,0.0,0.0
5133,1283,50.4849,52.9161,127.573,104.047,110.881,0.0100341,0.101754,20.9259,52.5758,-0.575437,0.0,0.0
5220,1304.75,51.0645,53.3014,128.156,104.045,110.988,0.0100232,0.100525,20.926,52.4056,-0.584356,0.0,0.0
5307,1326.5,50.5278,53.0107,127.518,104.884,111.819,0.00959574,0.100088,20.9255,52.2355,-0.579143,0.0,0.0
5394,1348.25,50.9322,53.437,128.966,105.151,111.332,0.0100814,0.100535,20.9262,52.0853,-0.516713,0.0,0.0
5481,1370,50.9424,53.1158,126.107,104.543,112.037,0.00998417,0.101193,20.9269,51.9052,-0.626259,0.0,0.0
5568,1391.75,51.436,53.7034,131.449,105.334,112.82,0.0096224,0.100899,20.9285,51.705,-0.621016,0.0,0.0
5655,1413.5,51.4629,53.7927,126.743,104.905,112.24,0.00933116,0.100338,20.9268,51.6249,-0.611317,0.0,0.0
5742,1435.25,51.0303,53.8285,128.407,105.361,111.972,0.00908779,0.100088,20.9299,51.4048,-0.550472,0.0,0.0
5829,1457,51.8532,54.3205,129.649,105.36,111.954,0.00909197,0.0991282,20.9294,51.1645,-0.549111,0.0,0.0
5916,1478.75,51.5654,53.8173,128.718,105.152,111.556,0.00925099,0.0999335,20.9276,51.0344,-0.534824,0.0,0.0
6003,1500.5,51.8537,53.8996,124.858,104.816,111.585,0.00932277,0.100739,20.9303,50.8843,-0.566041,0.0,0.0
6090,1522.25,51.3759,53.4403,130.891,105.278,111.173,0.00896557,0.100921,20.9276,50.6841,-0.492826,0.0,0.0
6177,1544,51.3041,53.8791,130.194,104.873,111.696,0.00895889,0.0992731,20.9292,50.4339,-0.570138,0.0,0.0
6264,1565.75,51.3814,53.7521,129.328,104.689,112.056,0.0089941,0.0979282,20.9305,50.3038,-0.615082,0.0,0.0
6351,1587.5,51.4591,53.6404,130.022,104.575,111.516,0.00836198,0.0996906,20.9273,50.1937,-0.581266,0.0,0.0
6438,1609.25,51.5324,53.9652,129.009,104.519,111.043,0.00839629,0.0994924,20.9285,50.0436,-0.547701,0.0,0.0
6525,1631,51.8586,54.1753,126.213,104.573,111.701,0.00816495,0.0976211,20.9323,49.8834,-0.596436,0.0,0.0
6612,1652.75,52.0728,54.3079,126.944,104.823,111.948,0.00843429,0.0986406,20.9301,49.6933,-0.594861,0.0,0.0
6699,1674.5,51.6472,54.1089,127.144,105.128,112.221,0.00819324,0.0973861,20.9349,49.5431,-0.590594,0.0,0.0
6786,1696.25,51.8211,54.16,129.118,105.352,112.383,0.00796552,0.09768,20.9339,49.403,-0.584322,0.0,0.0
6873,1718,52.0611,54.0372,128.379,105.223,112.63,0.00765747,0.100101,20.9301,49.2128,-0.615319,0.0,0.0
6960,1739.75,52.04,54.4258,123.996,105.022,111.783,0.00780392,0.0960402,20.9332,49.0927,-0.56433,0.0,0.0
7047,1761.5,52.1264,54.4456,127.586,105.538,112.351,0.00770773,0.0942888,20.9332,48.8826,-0.565858,0.0,0.0
7134,1783.25,51.9552,54.446,128.123,105.772,112.446,0.00736009,0.0943777,20.9373,48.7124,-0.553458,0.0,0.0
7221,1805,52.9736,55.1024,127.545,104.911,111.791,0.00762202,0.0941201,20.9336,48.5723,-0.574548,0.0,0.0
7308,1826.75,52.4837,54.9045,125.029,103.941,110.02,0.00745466,0.0941214,20.939,48.3321,-0.514136,0.0,0.0
7395,1848.5,52.0411,54.374,126.576,103.997,110.608,0.00735811,0.0935259,20.9367,48.262,-0.557443,0.0,0.0
7482,1870.25,51.6219,54.1606,129.382,104.169,110.761,0.00706221,0.0931199,20.9386,48.1219,-0.554979,0.0,0.0
7569,1892,51.4621,53.7648,127.801,104.121,111.146,0.0072546,0.094237,20.9379,48.0118,-0.590605,0.0,0.0
7656,1913.75,51.5352,54.1501,127.381,104.04,110.828,0.00670703,0.0929386,20.9392,47.8617,-0.571729,0.0,0.0
7743,1935.5,51.7067,53.6213,129.543,103.857,109.802,0.00691595,0.0915345,20.938,47.7015,-0.503556,0.0,0.0
7830,1957.25,50.7329,53.4939,127.468,103.859,110.992,0.0062805,0.0924504,20.9385,47.5314,-0.60084,0.0,0.0
7917,1979,49.9897,52.3145,126.117,103.915,110.258,0.00666805,0.0898425,20.9435,47.3612,-0.535926,0.0,0.0
8004,2000.75,49.373,52.1145,132.265,104.032,110.708,0.00590078,0.0882638,20.945,47.2712,-0.562614,0.0,0.0
8091,2022.5,48.9197,52.3309,126.71,104.089,110.445,0.00595664,0.0879276,20.9445,47.091,-0.536092,0.0,0.0
8178,2044.25,50.0278,52.1558,127.691,104.089,110.289,0.0058658,0.0899115,20.9418,46.9509,-0.52334,0.0,0.0
8265,2066,50.0003,51.9687,130.705,103.977,110.109,,0.086715,,46.8808,-0.518285,0.0,0.0
8308,2076.75,49.8129,52.7582,129.287,103.932,110.097,,,,46.7407,-0.521225,0.0,0.0