File: 01_Data/Engineered_Flooring/Cone/Engineered_Flooring_Cone_HF25Scan_220524_R2.csv
Names,Time,Stack TC,Smoke TC,Exh Press,Smoke Comp,Smoke Meas,CO Meter,CO2 Meter,O2 Meter,Sample Mass,Ext Coeff,Start Test,Flame Verif
Chan Gain,,500,500,1,1,1,1,1,1,1,1,1.0,1.0
Offset,,0,0,0.138596,0,0,0,0,0,0,0,0.0,0.0
Gain,,1,1,25.011,13.8491,15.2622,1,1,1,1.00087,1.03118,1.0,1.0
Units,sec,C,C,Pa,%,%,%,%,%,g,/m,,
Baseline,,20.0394,20.4086,143.305,104.872,104.597,0.000720568,0.0486349,20.9961,-450.319,0.0238315,,
36,8.75,18.7743,18.7926,139.706,103.794,103.373,0.000708953,0.0545833,20.9939,121.506,0.0368256,0.0,0.0
72,17.75,18.5615,18.9742,142.247,103.742,103.366,0.00103219,0.0499363,20.9992,121.486,0.0328265,0.0,0.0
108,26.75,18.8272,19.2476,144.076,103.676,103.305,0.000803753,0.0496576,20.997,121.446,0.0324182,0.0,0.0
144,35.75,19.1509,19.5194,142.389,103.598,103.278,0.000666912,0.050424,20.998,121.396,0.0279593,0.0,0.0
180,44.75,19.4501,19.9372,139.085,103.552,103.45,0.000529952,0.0475359,21.0018,121.356,0.00897352,0.0,0.0
216,53.75,19.2917,20.001,140.67,103.54,103.596,0.00061739,0.0482237,21.0002,121.306,-0.00495401,0.0,0.0
252,62.75,19.6932,19.7845,142.499,103.562,103.368,0.00070591,0.0463133,21.0022,121.256,0.0169555,0.0,0.0
288,71.75,19.7984,19.9126,143.091,103.698,103.594,0.000745347,0.0464745,21.0024,121.175,0.0091254,0.0,0.0
324,80.75,19.7426,20.181,142.313,104.009,103.628,0.00100406,0.0490523,21.0004,121.165,0.0331692,0.0,0.0
360,89.75,19.758,20.2709,142.202,104.431,103.605,0.00103619,0.0522688,21.0019,121.055,0.0717744,0.0,0.0
396,98.75,20.0685,20.1172,145.55,104.848,103.123,0.00138195,0.0552228,21.0002,120.885,0.150021,0.0,0.0
432,107.75,19.9926,20.4659,143.321,105.231,102.737,0.00139877,0.0571221,20.9979,120.665,0.216968,0.0,0.0
468,116.75,20.7296,21.3623,146.287,105.512,100.897,0.00183058,0.0579841,20.9987,120.445,0.404619,0.0,0.0
504,125.75,21.0586,21.4448,141.432,105.618,100.408,0.00200997,0.0586528,20.9971,120.175,0.457588,0.0,0.0
540,134.75,20.9357,21.1425,137.491,105.561,99.3961,0.00196587,0.0597466,20.9949,119.804,0.544297,0.0,0.0
576,143.75,21.2691,20.9771,133.556,105.431,106.815,0.00303234,0.0995211,20.8944,119.434,-0.117918,0.0,1.0
612,152.75,26.6826,24.2923,133.785,105.26,107.721,0.00414035,0.351677,20.6165,118.243,-0.209044,0.0,0.0
648,161.75,30.4241,29.3452,131.478,105.131,107.383,0.00315584,0.323409,20.6664,117.212,-0.191689,0.0,0.0
684,170.75,33.9897,32.4154,128.114,105.006,108.165,0.00299025,0.32462,20.6662,116.061,-0.268098,0.0,0.0
720,179.75,36.3189,35.1515,131.513,104.957,108.088,0.00332096,0.320529,20.6747,114.85,-0.265893,0.0,0.0
756,188.75,38.4146,37.1673,129.835,104.935,106.821,0.00311215,0.314964,20.6791,113.829,-0.161177,0.0,0.0
792,197.75,39.4522,39.4567,132.223,104.926,108.468,0.00287763,0.306182,20.6882,112.878,-0.300299,0.0,0.0
828,206.75,40.5681,40.8098,132.422,104.976,106.73,0.00261026,0.297029,20.7006,111.817,-0.149834,0.0,0.0
864,215.75,40.9988,41.7935,131.443,105.045,107.467,0.00242364,0.280868,20.7209,110.846,-0.206176,0.0,0.0
900,224.75,41.1404,42.3015,130.228,105.043,108.819,0.00271364,0.281117,20.7196,109.906,-0.319489,0.0,0.0
936,233.75,41.4366,42.4917,130.734,104.991,107.997,0.00242825,0.272041,20.7317,108.995,-0.255336,0.0,0.0
972,242.75,40.976,43.1977,130.213,104.939,107.82,0.00267402,0.267997,20.7346,108.064,-0.245016,0.0,0.0
1008,251.75,41.2472,42.8938,131.055,104.886,107.457,0.00259897,0.253589,20.7526,107.223,-0.219044,0.0,0.0
1044,260.75,41.0166,43.2977,127.372,104.837,108.207,0.00243086,0.240656,20.7676,106.423,-0.286216,0.0,0.0
1080,269.75,39.6642,43.3212,134.054,104.797,107.198,0.00253818,0.227624,20.7845,105.552,-0.204913,0.0,0.0
1116,278.75,39.8125,42.047,134.388,104.76,105.975,0.00232607,0.216992,20.7966,104.801,-0.104288,0.0,0.0
1152,287.75,38.6663,41.6782,132.332,104.873,106.532,0.0025844,0.206275,20.8108,104.011,-0.141935,0.0,0.0
1188,296.75,37.8031,41.3916,134.295,105.012,106.74,0.00263533,0.195825,20.8247,103.32,-0.147647,0.0,0.0
1224,305.75,36.965,40.3741,131.172,105.095,106.693,0.00289217,0.18639,20.838,102.719,-0.136488,0.0,0.0
1260,314.75,36.619,39.9278,132.855,105.138,106.868,0.00296992,0.177028,20.8504,102.059,-0.147689,0.0,0.0
1296,323.75,35.3159,39.032,137.92,105.166,106.591,0.00275134,0.170981,20.8559,101.508,-0.121802,0.0,0.0
1332,332.75,34.7168,37.967,134.789,105.198,106.933,0.00261438,0.168198,20.8582,100.948,-0.147893,0.0,0.0
1368,341.75,34.4545,37.5276,134.293,105.215,106.892,0.00283727,0.166715,20.8616,100.377,-0.143008,0.0,0.0
1404,350.75,34.488,36.6719,138.107,105.232,106.371,0.00274976,0.16651,20.8633,99.8069,-0.0974214,0.0,0.0
1440,359.75,33.5867,36.5797,135.127,105.216,106.905,0.00271182,0.167432,20.8616,99.1964,-0.144003,0.0,0.0
1476,368.75,33.7498,36.2197,135.163,105.186,106.846,0.00236211,0.16893,20.8604,98.6459,-0.141652,0.0,0.0
1512,377.75,33.4676,35.9712,134.854,105.157,106.492,0.00241464,0.172231,20.8564,98.0954,-0.114183,0.0,0.0
1548,386.75,33.597,35.7888,138.758,105.133,107.145,0.00282652,0.180487,20.8469,97.585,-0.171551,0.0,0.0
1584,395.75,34.0026,35.8368,131.932,105.071,106.882,0.0023775,0.187387,20.8381,96.9444,-0.154583,0.0,0.0
1620,404.75,34.0782,36.14,134.06,104.992,106.599,0.00248953,0.196089,20.8283,96.3439,-0.137427,0.0,0.0
1656,413.75,34.689,36.3079,130.009,104.909,106.656,0.00225943,0.208161,20.8116,95.7333,-0.149387,0.0,0.0
1692,422.75,35.4399,36.9259,131.921,104.818,106.898,0.00245248,0.224311,20.7895,95.0227,-0.177742,0.0,0.0
1728,431.75,36.534,37.5968,131.31,104.768,106.215,0.00271563,0.242065,20.7676,94.2821,-0.124085,0.0,0.0
1764,440.75,37.4228,38.516,133.112,104.812,107.57,0.00262913,0.258385,20.7477,93.4514,-0.234908,0.0,0.0
1800,449.75,38.0621,39.6208,130.963,104.837,107.596,0.00212696,0.273294,20.7276,92.6106,-0.235025,0.0,0.0
1836,458.75,39.5195,40.915,130.835,104.873,107.818,0.00231256,0.285506,20.7156,91.7699,-0.250469,0.0,0.0
1872,467.75,40.564,41.6407,127.683,104.896,106.544,0.00260982,0.296921,20.7013,90.9091,-0.140956,0.0,0.0
1908,476.75,41.9714,42.6462,136.369,104.936,108.195,0.00256849,0.304967,20.6933,89.9583,-0.276638,0.0,0.0
1944,485.75,42.8656,43.9089,128.115,104.963,107.532,0.00277261,0.31719,20.6811,88.9875,-0.218723,0.0,0.0
1980,494.75,43.6299,44.8256,124.253,105.009,107.24,0.00287399,0.32504,20.6721,88.0266,-0.190154,0.0,0.0
2016,503.75,44.2276,45.9352,127.035,105.048,106.251,0.00267915,0.338821,20.6597,87.0057,-0.103015,0.0,0.0
2052,512.75,45.5262,47.1178,132.04,105.105,107.406,0.00325228,0.360813,20.6316,85.7947,-0.195872,0.0,0.0
2088,521.75,47.2516,48.5625,125.962,105.187,106.803,0.00398486,0.38638,20.6029,84.6037,-0.137875,0.0,0.0
2124,530.75,49.1156,50.1908,122.183,105.246,106.836,0.00460509,0.437372,20.5416,83.3526,-0.135589,0.0,0.0
2160,539.75,51.7706,53.0847,127.193,105.329,106.065,0.00486251,0.49199,20.4708,81.8412,-0.0630461,0.0,0.0
2196,548.75,54.8946,55.7666,119.948,105.402,105.018,0.0059453,0.541074,20.415,80.2599,0.0329673,0.0,0.0
2232,557.75,57.3687,58.3884,122.451,105.444,104.31,0.00615509,0.561286,20.3881,78.5984,0.0978203,0.0,0.0
2268,566.75,58.6919,60.4835,122.011,105.497,105.129,0.00559007,0.542544,20.4043,77.0271,0.0315834,0.0,0.0
2304,575.75,59.9712,61.931,122.425,105.552,103.576,0.00521962,0.554101,20.3816,75.4557,0.170899,0.0,0.0
2340,584.75,61.4543,63.4908,118.178,105.601,106.915,0.00470117,0.575719,20.3524,73.9344,-0.111829,0.0,0.0
2376,593.75,62.1653,65.55,122.374,105.615,107.177,0.00414773,0.522141,20.4137,72.6232,-0.13279,0.0,0.0
2412,602.75,60.6947,64.5689,124.446,105.574,105.829,0.00426505,0.436177,20.5214,71.4922,-0.0217816,0.0,0.0
2448,611.75,59.8733,64.3661,125.588,105.463,105.066,0.00423356,0.373471,20.5976,70.5614,0.0340577,0.0,0.0
2484,620.75,57.2439,62.4772,129.603,105.307,105.862,0.00436738,0.309892,20.6744,69.7707,-0.0475622,0.0,0.0
2520,629.75,54.2703,59.6086,130.055,105.097,106.033,0.00494648,0.24887,20.7511,69.1502,-0.0801807,0.0,0.0
2556,638.75,50.4655,56.6444,133.709,104.857,105.492,0.00503807,0.207683,20.7983,68.6297,-0.05469,0.0,0.0
2592,647.75,47.5598,53.8112,132.842,104.543,106.236,0.00566485,0.183974,20.8246,68.2294,-0.145299,0.0,0.0
2628,656.75,44.9742,50.7815,135.221,104.249,105.689,0.00646056,0.16956,20.8432,67.829,-0.124069,0.0,0.0
2664,665.75,43.189,48.133,132.809,103.98,105.236,0.00683278,0.155914,20.8595,67.4587,-0.108595,0.0,0.0
2700,674.75,40.6478,45.7191,135.88,103.759,105.347,0.00627779,0.140346,20.8795,67.1885,-0.137405,0.0,0.0
2736,683.75,38.2167,43.9818,135.274,103.597,104.864,0.006404,0.127696,20.8933,67.0484,-0.10992,0.0,0.0
2772,692.75,37.1591,41.7199,139.525,103.494,104.08,0.0072189,0.113242,20.9123,66.8482,-0.0511352,0.0,0.0
2808,701.75,35.5877,39.552,137.907,103.478,104.276,0.00836162,0.106763,20.9201,66.7081,-0.0694869,0.0,0.0
2844,710.75,33.6044,37.9796,137.018,103.577,104.19,0.00928743,0.0981961,20.9315,66.588,-0.0533688,0.0,0.0
2880,719.75,32.5224,36.0575,139.377,103.741,104.204,0.00983028,0.0873762,20.9436,66.4779,-0.0402747,0.0,0.0
2916,728.75,30.8601,35.0909,139.419,103.962,104.315,0.010563,0.0882273,20.9452,66.3578,-0.0306774,0.0,0.0
2952,737.75,30.2826,33.1661,141.425,104.216,104.573,0.0109108,0.0790431,20.953,66.2377,-0.0308738,0.0,0.0
2988,746.75,28.2347,31.0688,137.023,104.496,104.806,0.0105625,0.0791677,20.9528,66.0775,-0.026787,0.0,0.0
3024,755.75,27.3187,29.7715,139.977,104.745,105.308,0.0111569,0.0753506,20.9583,66.0675,-0.0485682,0.0,0.0
3060,764.75,26.4437,28.5475,137.804,104.864,105.341,0.0109269,0.0744975,20.9594,65.9674,-0.0410411,0.0,0.0
3096,773.75,26.1652,27.6198,138.595,104.875,105.106,0.0106658,0.0750743,20.9594,65.9674,-0.0199177,0.0,0.0
3132,782.75,25.7918,26.8728,141.265,104.78,105.619,0.0104025,0.0761083,20.9592,65.8974,-0.0721441,0.0,0.0
3168,791.75,25.4333,27.1092,139.639,104.636,104.631,0.0105862,0.0769639,20.9588,65.8273,0.000441016,0.0,0.0
3204,800.75,25.2624,26.43,140.992,104.519,105.039,0.0100922,0.0765497,20.9588,65.7372,-0.0448894,0.0,0.0
3240,809.75,25.0341,26.081,138.691,104.417,104.674,0.0101079,0.0774117,20.9574,65.5671,-0.022168,0.0,0.0
3276,818.75,25.1469,25.2814,139.29,104.887,105.199,0.0100454,0.077632,20.9593,65.447,-0.0268659,0.0,0.0
3312,827.75,24.2394,25.1406,135.959,105.148,105.141,0.00987678,0.0773514,20.9562,65.487,0.000635099,0.0,0.0
3348,836.75,24.44,24.9208,138.526,105.274,105.207,0.0104003,0.0782582,20.9558,65.4069,0.005738,0.0,0.0
3384,845.75,24.1767,24.5578,142.644,105.32,105.75,0.00982725,0.0790299,20.955,65.3169,-0.0368007,0.0,0.0
3420,854.75,24.3387,24.5428,140.801,105.286,105.555,,,,65.2468,-0.0230371,0.0,0.0
3444,860.75,23.9601,24.7632,140.084,105.229,105.727,,,,65.1968,-0.0426958,0.0,0.0