File: 01_Data/Engineered_Flooring/Cone/Engineered_Flooring_Cone_HF50Scan_220524_R1.csv
Names,Time,Stack TC,Smoke TC,Exh Press,Smoke Comp,Smoke Meas,CO Meter,CO2 Meter,O2 Meter,Sample Mass,Ext Coeff,Start Test,Flame Verif
Chan Gain,,500,500,1,1,1,1,1,1,1,1,1.0,1.0
Offset,,0,0,0.13752,0,0,0,0,0,0,0,0.0,0.0
Gain,,1,1,25.011,13.8491,15.2622,1,1,1,1.00087,1.03118,1.0,1.0
Units,sec,C,C,Pa,%,%,%,%,%,g,/m,,
Baseline,,34.1391,35.1614,138.054,104.852,107.38,0.00047086,0.0461488,20.9902,-452.397,-0.215413,,
59,14.5,32.3947,33.1821,136.409,103.6,105.793,0.000322029,0.0441443,20.9977,118.073,-0.189465,0.0,0.0
118,29.25,33.941,34.7122,120.914,103.494,107.409,0.00313206,0.213262,20.7648,117.352,-0.335795,0.0,1.0
177,44,50.4929,48.3974,120.071,103.537,104.13,0.00579234,0.544842,20.386,114.71,-0.0515847,0.0,0.0
236,58.75,61.445,59.3527,115.896,103.743,105.875,0.00552094,0.600577,20.3212,111.917,-0.183966,0.0,0.0
295,73.5,67.1913,67.1781,118.453,104.108,108.449,0.00419319,0.5059,20.4334,109.265,-0.369487,0.0,0.0
354,88.25,68.4119,69.6087,123.576,104.525,109.401,0.00367394,0.415653,20.5381,106.983,-0.412374,0.0,0.0
413,103,66.7865,70.9676,124.572,104.803,110.398,0.00276379,0.354953,20.6133,104.981,-0.470453,0.0,0.0
472,117.75,65.0974,69.6917,125.245,104.813,110.313,0.00271543,0.327175,20.6456,103.09,-0.462555,0.0,0.0
531,132.5,63.9929,68.9457,125.846,104.742,110.674,0.00263575,0.310706,20.6687,101.298,-0.49831,0.0,0.0
590,147.25,63.0856,67.9961,123.195,104.726,110.849,0.00236773,0.307768,20.673,99.5066,-0.513923,0.0,0.0
649,162,62.6004,67.7469,123.272,104.757,109.552,0.0024974,0.310797,20.6709,97.7551,-0.404822,0.0,0.0
708,176.75,62.5431,67.2063,127.734,104.782,110.194,0.00235938,0.311977,20.6712,95.9836,-0.455548,0.0,0.0
767,191.5,62.5402,67.0961,125.811,104.761,110.581,0.00236776,0.314313,20.6714,94.242,-0.489087,0.0,0.0
826,206.25,62.0812,67.1991,128.961,104.692,109.641,0.00260199,0.315219,20.6728,92.4705,-0.417825,0.0,0.0
885,221,62.1111,66.2637,122.438,104.724,109.574,0.00237782,0.315213,20.6742,90.719,-0.409516,0.0,0.0
944,235.75,61.7192,66.8748,118.973,104.802,109.269,0.0029994,0.328946,20.6566,89.0075,-0.377543,0.0,0.0
1003,250.5,63.1984,66.2603,119.363,104.722,108.659,0.00292518,0.341796,20.6405,87.2259,-0.333828,0.0,0.0
1062,265.25,63.6137,67.8813,120.365,104.503,107.746,0.0034666,0.364978,20.6105,85.4144,-0.276403,0.0,0.0
1121,280,65.6506,68.9977,121.46,104.273,107.444,0.00377606,0.39624,20.5713,83.5427,-0.270912,0.0,0.0
1180,294.75,67.4252,70.8306,119.276,104.711,107.739,0.00431622,0.435621,20.5204,81.4609,-0.257875,0.0,0.0
1239,309.5,69.9088,73.5732,121.409,105.138,107.153,0.00502058,0.486979,20.4572,79.1389,-0.171744,0.0,0.0
1298,324.25,73.2905,76.208,113.871,105.144,105.133,0.00564072,0.532832,20.4054,76.6567,0.000948859,0.0,0.0
1357,339,76.0549,79.7488,112.837,104.902,103.201,0.00687163,0.597252,20.3369,73.9344,0.147903,0.0,0.0
1416,353.75,81.1592,84.4121,106.984,104.663,101.272,0.00803623,0.700591,20.2035,70.9117,0.297867,0.0,0.0
1475,368.5,86.4723,89.8274,110.816,104.856,100.585,0.00812511,0.767163,20.111,67.6689,0.376152,0.0,0.0
1534,383.25,85.5273,91.0182,120.084,105.202,103.728,0.00565399,0.537516,20.3659,65.1968,0.12765,0.0,0.0
1593,398,80.598,87.1369,124.392,105.496,108.337,0.00363445,0.383886,20.5653,63.5854,-0.240436,0.0,0.0
1652,412.75,73.4396,80.8941,125.288,105.428,112.325,0.00198434,0.219036,20.7712,62.6345,-0.573179,0.0,0.0
1711,427.5,65.5625,73.1413,130.762,104.847,109.895,0.00182411,0.132438,20.8726,62.1641,-0.425314,0.0,0.0
1770,442.25,59.1746,66.633,132.514,103.968,108.628,0.00273015,0.111587,20.8982,61.8438,-0.396591,0.0,0.0
1829,457,54.2177,61.8456,132.294,103.506,107.966,0.00305545,0.105633,20.9074,61.5436,-0.381592,0.0,0.0
1888,471.75,51.9393,57.7608,129.87,103.74,108.728,0.00348459,0.102425,20.9134,61.3434,-0.424769,0.0,0.0
1947,486.5,50.5372,54.626,133.726,104.144,109.382,0.00363218,0.102538,20.9156,61.2133,-0.443847,0.0,0.0
2006,501.25,48.7122,52.4851,133.271,104.415,109.711,0.00406144,0.100685,20.9153,61.0431,-0.447574,0.0,0.0
2065,516,47.3284,50.4231,134.761,104.56,109.323,0.00398136,0.0996532,20.9181,60.853,-0.402944,0.0,0.0
2124,530.75,46.3078,49.4363,132.955,104.62,109.961,0.00419268,0.0999958,20.918,60.7028,-0.450356,0.0,0.0
2183,545.5,45.8181,47.847,133.096,104.554,109.124,0.00511617,0.099973,20.9214,60.5427,-0.386983,0.0,0.0
2242,560.25,45.1611,46.7866,133.484,104.428,109.283,0.00542704,0.0997852,20.9226,60.3826,-0.411044,0.0,0.0
2301,575,44.8642,45.9917,132.68,104.132,108.758,0.00564039,0.0998139,20.9189,60.2825,-0.39319,0.0,0.0
2360,589.75,44.3395,45.7979,133.919,103.932,107.739,0.00593235,0.100447,20.9214,60.1724,-0.325412,0.0,0.0
2419,604.5,43.8301,45.3204,133.503,103.952,107.713,0.00612197,0.0998191,20.9222,60.0022,-0.321492,0.0,0.0
2478,619.25,43.5341,44.7194,131.455,104.123,107.895,0.00665082,0.0984383,20.9243,59.8221,-0.32189,0.0,0.0
2537,634,43.1823,44.7302,133.334,104.285,109.242,0.00704261,0.098004,20.9241,59.742,-0.420069,0.0,0.0
2596,648.75,43.2223,44.4244,142.391,104.455,109.97,0.00720403,0.0981766,20.9246,59.5418,-0.465385,0.0,0.0
2655,663.5,42.6978,43.726,135.557,104.611,109.169,0.00764855,0.0972688,20.9271,59.4317,-0.385792,0.0,0.0
2714,678.25,43.0327,43.5773,132.871,104.75,109.589,0.00752236,0.0968957,20.9261,59.2616,-0.408484,0.0,0.0
2773,693,42.5866,43.4627,133.884,104.817,109.315,0.00766891,0.0960809,20.9319,59.1515,-0.380122,0.0,0.0
2832,707.75,42.3139,43.3842,132.921,104.699,109.123,0.00792836,0.0960209,20.9298,59.0414,-0.374334,0.0,0.0
2891,722.5,41.9718,43.1813,134.055,104.442,109.119,0.00814452,0.0968338,20.9291,58.8913,-0.396291,0.0,0.0
2950,737.25,41.7291,42.4252,134.361,104.235,108.56,0.00824685,0.096991,20.9267,58.6811,-0.367794,0.0,0.0
3009,752,41.7959,43.1279,135.612,104.759,108.777,0.00819313,0.0976027,20.925,58.561,-0.340494,0.0,0.0
3068,766.75,41.5399,43.1333,131.862,105.079,108.57,0.00833589,0.0960097,20.9288,58.4109,-0.295624,0.0,0.0
3127,781.5,41.7786,42.8629,132.676,104.555,109.446,0.00887334,0.09592,20.9279,58.3108,-0.413548,0.0,0.0
3186,796.25,41.8116,41.8953,129.933,104.708,109.406,0.00826506,0.0955928,20.9302,58.2607,-0.39705,0.0,0.0
3245,811,41.4524,42.9594,137.679,104.819,108.01,0.00872624,0.0954148,20.931,58.0806,-0.27126,0.0,0.0
3304,825.75,41.0995,42.5277,138.582,104.836,109.34,0.00881545,0.0955625,20.9328,57.9805,-0.380524,0.0,0.0
3363,840.5,40.9176,42.5924,135.788,104.776,109.984,0.00887114,0.0979905,20.9293,57.8604,-0.438799,0.0,0.0
3422,855.25,41.3971,42.5712,133.841,104.773,109.175,0.00903633,0.09709,20.9287,57.7903,-0.372232,0.0,0.0
3481,870,41.1592,42.2185,133.874,104.682,109.922,0.00891314,0.0982849,20.9292,57.6602,-0.44188,0.0,0.0
3540,884.75,41.2107,42.4193,135.32,104.617,108.85,0.00907357,0.101155,20.9279,57.5301,-0.358806,0.0,0.0
3599,899.5,40.5475,42.3617,132.451,104.684,109.221,0.00894641,0.096324,20.9325,57.3699,-0.383793,0.0,0.0
3658,914.25,40.812,42.1062,130.892,104.917,109.83,0.00917009,0.0975106,20.9269,57.2298,-0.414006,0.0,0.0
3717,929,40.7558,41.7826,136.076,105.155,108.939,0.00879631,0.0964232,20.93,57.0997,-0.319796,0.0,0.0
3776,943.75,40.6725,42.1249,134.042,105.362,109.306,0.00908172,0.0967055,20.9294,56.9296,-0.332348,0.0,0.0
3835,958.5,40.4266,41.6852,133.68,105.459,109.262,0.00898083,0.0953872,20.9319,56.8195,-0.320493,0.0,0.0
3894,973.25,40.5061,41.9857,132.825,105.428,109.257,0.00895472,0.0952942,20.9316,56.7094,-0.322678,0.0,0.0
3953,988,40.6324,41.4575,137.55,105.359,108.951,0.00924237,0.0950725,20.9324,56.5592,-0.303259,0.0,0.0
4012,1002.75,40.6262,41.8023,136.319,105.222,109.662,0.00932042,0.0940029,20.9331,56.4591,-0.373877,0.0,0.0
4071,1017.5,40.4822,41.5166,135.302,104.828,108.899,0.00887066,0.0943063,20.9309,56.279,-0.344616,0.0,0.0
4130,1032.25,40.4973,41.9814,133.697,104.222,108.521,0.00914577,0.0943378,20.9342,56.1789,-0.365595,0.0,0.0
4189,1047,40.5944,42.3382,135.738,103.743,107.204,0.00893933,0.0940486,20.9343,55.9787,-0.296828,0.0,0.0
4248,1061.75,40.5289,42.0862,133.279,103.515,106.69,0.00909075,0.0954932,20.9317,55.8386,-0.273335,0.0,0.0
4307,1076.5,40.7441,41.6991,133.471,103.605,108.631,0.00901779,0.0944214,20.9322,55.7585,-0.428505,0.0,0.0
4366,1091.25,40.585,41.6134,135.522,104.008,107.975,0.00908948,0.0946442,20.932,55.6384,-0.3386,0.0,0.0
4425,1106,40.5279,41.8493,136.106,104.375,109.081,0.00922876,0.0939952,20.9329,55.5484,-0.398871,0.0,0.0
4484,1120.75,40.7056,42.1297,135.582,104.485,109.482,0.00924195,0.094926,20.9322,55.5183,-0.422586,0.0,0.0
4543,1135.5,40.1597,41.686,135.024,104.426,108.426,0.00905054,0.0943179,20.9327,55.2881,-0.340011,0.0,0.0
4602,1150.25,40.2334,41.8373,133.119,104.241,108.877,0.00914286,0.0949647,20.9339,55.2881,-0.393595,0.0,0.0
4661,1165,40.1968,41.6408,133.232,104.1,108.29,0.00903442,0.0944305,20.933,55.138,-0.356927,0.0,0.0
4720,1179.75,40.1442,41.6048,134.302,103.926,107.644,0.0088357,0.0951527,20.9305,54.9879,-0.317948,0.0,0.0
4779,1194.5,39.9779,41.9646,140.035,103.691,107.253,0.00896706,0.0948369,20.9337,54.9478,-0.305487,0.0,0.0
4838,1209.25,39.9107,41.4134,138.709,103.613,108.157,0.00925606,0.0962652,20.9317,54.7477,-0.388274,0.0,0.0
4897,1224,40.312,42.0413,136.138,103.589,107.362,0.00977429,0.0993131,20.9269,54.6676,-0.323526,0.0,0.0
4956,1238.75,40.0186,41.6377,131.585,103.626,107.286,0.00894449,0.0952204,20.9306,54.4874,-0.313993,0.0,0.0
5015,1253.5,40.2728,41.8617,133.489,103.677,107.659,0.00902505,0.0945667,20.9315,54.3974,-0.340893,0.0,0.0
5074,1268.25,39.6529,41.812,133.646,103.706,107.782,0.0087776,0.0932611,20.9359,54.2772,-0.348711,0.0,0.0
5133,1283,38.5541,39.5874,132.498,103.723,108.027,0.00862889,0.106345,20.9191,54.1371,-0.367811,0.0,0.0
5192,1297.75,38.5693,39.9717,131.988,103.796,108.455,0.00892584,0.0995685,20.9279,53.967,-0.39717,0.0,0.0
5251,1312.5,38.8206,40.4183,132.11,103.812,107.399,0.00908195,0.0953076,20.9315,53.8068,-0.307312,0.0,0.0
5310,1327.25,38.8333,40.0367,133.036,103.832,107.861,0.00856066,0.0944998,20.9337,53.7268,-0.344339,0.0,0.0
5369,1342,38.6694,40.1389,133.285,103.799,107.726,0.008671,0.094674,20.9333,53.5867,-0.335874,0.0,0.0
5428,1356.75,38.664,40.3188,134.518,103.811,108.25,0.00865416,0.0943712,20.9329,53.4966,-0.378771,0.0,0.0
5487,1371.5,38.9233,40.3507,131.753,103.906,108.854,0.00872332,0.094384,20.9324,53.3264,-0.420866,0.0,0.0
5546,1386.25,38.3965,40.5955,135.282,104.046,108.028,0.00875581,0.0936251,20.9342,53.2063,-0.339737,0.0,0.0
5593,1398,39.0374,40.5514,133.542,104.245,108.713,,,,53.1463,-0.379632,0.0,0.0