File: 01_Data/Engineered_Flooring/Cone/Engineered_Hardwood_Flooring_Cone_HF75Scan_220524_R1.csv
Names,Time,Stack TC,Smoke TC,Exh Press,Smoke Comp,Smoke Meas,CO Meter,CO2 Meter,O2 Meter,Sample Mass,Ext Coeff,Start Test,Flame Verif
Chan Gain,,500,500,1,1,1,1,1,1,1,1,1.0,1.0
Offset,,0,0,0.138596,0,0,0,0,0,0,0,0.0,0.0
Gain,,1,1,25.011,13.8491,15.2622,1,1,1,1.00087,1.03118,1.0,1.0
Units,sec,C,C,Pa,%,%,%,%,%,g,/m,,
Baseline,,44.923,46.3583,132.543,104.817,110.419,0.000611582,0.0455933,20.9939,-452.953,-0.470878,,
80,19.75,49.8692,46.933,99.3261,104.545,100.069,0.00725358,0.75966,20.1298,116.211,0.395771,0.0,0.0
160,39.75,79.4944,76.4722,105.651,104.672,103.227,0.00805446,0.898757,19.9435,111.027,0.125693,0.0,0.0
240,59.75,88.6107,89.223,109.338,104.782,107.395,0.00497087,0.628082,20.2684,106.673,-0.222759,0.0,0.0
320,79.75,87.6305,92.386,115.263,104.868,109.328,0.00377962,0.479736,20.4553,103.25,-0.376714,0.0,0.0
400,99.75,84.4833,91.3122,118.038,104.811,110.507,0.00376513,0.42603,20.5201,100.067,-0.478686,0.0,0.0
480,119.75,83.3599,90.4838,117.501,104.719,109.957,0.00307958,0.419273,20.5332,96.9144,-0.441504,0.0,0.0
560,139.75,82.4814,89.7862,113.435,104.653,109.43,0.00350571,0.421782,20.5318,93.7716,-0.40376,0.0,0.0
640,159.75,82.6656,89.6916,113.417,104.57,109.33,0.00378215,0.422319,20.5335,90.8091,-0.402642,0.0,0.0
720,179.75,82.2264,89.3532,119.69,104.33,109.347,0.00405143,0.420299,20.5385,87.8064,-0.424818,0.0,0.0
800,199.75,82.3903,89.5452,114.86,104.691,107.969,0.0043746,0.433075,20.5238,84.8238,-0.278885,0.0,0.0
880,219.75,83.7022,89.8658,114.285,105.129,107.823,0.00470507,0.465768,20.4801,81.8112,-0.228835,0.0,0.0
960,239.75,87.0441,92.6333,109.214,104.619,106.228,0.00563429,0.535,20.3922,78.5484,-0.138046,0.0,0.0
1040,259.75,91.894,97.2424,109.981,104.939,103.162,0.00748212,0.658081,20.2506,74.7251,0.154539,0.0,0.0
1120,279.75,98.7475,104.119,104.324,105.269,101.401,0.00958118,0.841702,20.0377,70.101,0.338658,0.0,0.0
1200,299.75,106.861,112.255,108.831,105.488,100.024,0.00935628,0.883626,19.9463,65.0566,0.481146,0.0,0.0
1280,319.75,103.515,111.686,117.213,105.378,107.931,0.0046256,0.541293,20.3572,61.6537,-0.216577,0.0,0.0
1360,339.75,89.0825,99.0491,121.874,105.215,113.38,0.0015525,0.164718,20.8208,60.4927,-0.676105,0.0,0.0
1440,359.75,76.5386,86.4795,125.793,105.019,112.6,0.00149506,0.12222,20.8776,60.1223,-0.630414,0.0,0.0
1520,379.75,69.2378,77.8111,127.744,104.538,112.216,0.00164897,0.11697,20.8862,59.8021,-0.641089,0.0,0.0
1600,399.75,64.6379,71.2811,122.114,103.861,111.031,0.00165767,0.111976,20.8992,59.5118,-0.603844,0.0,0.0
1680,419.75,61.8514,66.9057,126.816,103.59,111.219,0.00229828,0.106969,20.9043,59.3316,-0.642788,0.0,0.0
1760,439.75,59.2228,63.5931,126.786,103.745,110.451,0.00234841,0.107788,20.9083,59.0914,-0.566571,0.0,0.0
1840,459.75,57.918,61.7862,126.722,104.083,110.048,0.00301435,0.111147,20.9072,58.9213,-0.504082,0.0,0.0
1920,479.75,57.6341,60.1817,128.892,104.496,110.87,0.00366719,0.110328,20.9117,58.6911,-0.535589,0.0,0.0
2000,499.75,56.7011,58.7751,127.325,104.884,111.696,0.00400424,0.110505,20.9125,58.5209,-0.569116,0.0,0.0
2080,519.75,56.2098,57.6061,128.604,104.895,111.842,0.00416342,0.10963,20.9132,58.3208,-0.580077,0.0,0.0
2160,539.75,55.7365,57.291,128.089,104.436,110.572,0.00483927,0.110499,20.9115,58.1606,-0.516395,0.0,0.0
2240,559.75,55.4506,57.308,128.352,104.92,112.475,0.00524555,0.111271,20.914,57.9304,-0.628976,0.0,0.0
2320,579.75,55.2925,56.5168,127.27,105.04,110.968,0.00542603,0.112078,20.9128,57.7503,-0.496641,0.0,0.0
2400,599.75,54.4704,55.9434,129.762,105.075,110.703,0.00591597,0.110817,20.9154,57.5801,-0.471991,0.0,0.0
2480,619.75,54.5713,55.8256,129.224,105.592,112.207,0.00647323,0.110768,20.9135,57.42,-0.549589,0.0,0.0
2560,639.75,53.9848,55.7357,127.97,105.032,111.692,0.0068651,0.113816,20.9099,57.2198,-0.556104,0.0,0.0
2640,659.75,54.19,55.8862,127.251,104.483,110.116,0.00679098,0.110805,20.9151,57.1297,-0.474992,0.0,0.0
2720,679.75,53.194,54.9841,127.377,104.116,110.534,0.00755857,0.111902,20.912,56.9596,-0.541098,0.0,0.0
2800,699.75,52.8615,54.7555,128.892,104.065,109.706,0.00757386,0.111987,20.9134,56.7094,-0.477556,0.0,0.0
2880,719.75,52.8492,54.5524,129.059,104.337,111.432,0.00802149,0.113107,20.9123,56.5192,-0.595105,0.0,0.0
2960,739.75,52.0249,54.1,128.998,104.457,111.689,0.00833698,0.112466,20.9138,56.3491,-0.605552,0.0,0.0
3040,759.75,52.1967,53.9653,126.986,104.233,110.787,0.00834956,0.111827,20.9121,56.1389,-0.55157,0.0,0.0
3120,779.75,51.9054,53.9048,126.516,103.952,111.1,0.00883561,0.113731,20.91,55.9087,-0.601512,0.0,0.0
3200,799.75,52.0244,54.0431,122.698,103.757,110.496,0.00915903,0.110576,20.916,55.7686,-0.569202,0.0,0.0
3280,819.75,51.8236,53.7301,127.438,103.738,110.941,0.00978321,0.110563,20.913,55.5584,-0.607237,0.0,0.0
3360,839.75,51.9417,53.9176,129.439,103.903,108.864,0.00960452,0.111883,20.9147,55.3682,-0.4219,0.0,0.0
3440,859.75,51.6776,53.9863,127.588,104.261,110.08,0.0101792,0.109332,20.9173,55.158,-0.491311,0.0,0.0
3520,879.75,52.1139,53.76,127.689,104.611,109.984,0.0102137,0.108482,20.9166,54.9578,-0.453077,0.0,0.0
3600,899.75,51.9827,53.7842,125.887,104.903,111.179,0.0102206,0.10786,20.9177,54.8578,-0.525623,0.0,0.0
3680,919.75,52.2454,53.7392,128.271,105.031,110.791,0.0103496,0.106022,20.9197,54.6075,-0.482928,0.0,0.0
3760,939.75,51.834,54.2225,127.208,105.021,110.353,0.010438,0.105531,20.9193,54.4674,-0.448022,0.0,0.0
3840,959.75,52.3678,54.1291,131.369,104.774,110.758,0.0107862,0.104602,20.9201,54.2873,-0.502423,0.0,0.0
3920,979.75,51.6701,53.9362,132.833,104.417,110.113,0.0105699,0.103684,20.9194,54.1672,-0.480471,0.0,0.0
4000,999.75,51.6539,54.1495,127.148,104.891,110.886,0.0108229,0.102587,20.923,53.957,-0.502739,0.0,0.0
4080,1019.75,52.2791,54.0986,128.722,105.228,111.106,0.0109914,0.103445,20.924,53.7768,-0.491726,0.0,0.0
4160,1039.75,52.1902,54.1188,128.201,104.765,110.756,0.0109456,0.10286,20.9249,53.6067,-0.503036,0.0,0.0
4240,1059.75,51.8194,54.0232,129.616,104.944,111.805,0.0110899,0.103618,20.9219,53.4966,-0.572874,0.0,0.0
4320,1079.75,51.3294,53.6506,129.543,105.032,111.838,0.0111758,0.104079,20.9217,53.3064,-0.567939,0.0,0.0
4400,1099.75,51.4659,53.7737,126.444,105.046,111.122,0.0116345,0.105856,20.9198,53.0962,-0.508577,0.0,0.0
4480,1119.75,51.2667,53.6695,133.352,104.801,110.457,0.0113547,0.104943,20.9188,53.0662,-0.475442,0.0,0.0
4560,1139.75,51.2117,53.2286,127.025,104.912,111.366,0.0111056,0.106065,20.918,52.896,-0.540003,0.0,0.0
4640,1159.75,51.033,53.1255,128.702,104.836,110.877,0.0108993,0.105551,20.9191,52.5558,-0.506756,0.0,0.0
4720,1179.75,51.2255,53.3194,126.871,104.862,110.376,0.0101992,0.105603,20.9192,52.3656,-0.463479,0.0,0.0
4800,1199.75,50.6135,51.4191,124.598,105.139,111.804,0.0108652,0.105292,20.9197,52.2455,-0.555986,0.0,0.0
4880,1219.75,51.1746,53.5865,123.712,105.362,111.788,0.0110083,0.103712,20.9233,52.0053,-0.535561,0.0,0.0
4960,1239.75,51.4483,53.5182,129.816,105.458,110.938,0.0103622,0.103968,20.9229,51.8251,-0.458249,0.0,0.0
5040,1259.75,51.2077,53.0783,127.002,105.552,111.864,0.0106816,0.103386,20.9235,51.705,-0.525389,0.0,0.0
5120,1279.75,51.2873,53.8824,128.544,105.648,110.758,0.0103251,0.102543,20.921,51.5249,-0.427241,0.0,0.0
5200,1299.75,51.1931,53.5739,126.639,105.69,111.89,0.0101858,0.101709,20.923,51.3047,-0.515661,0.0,0.0
5280,1319.75,50.9106,54.182,126.039,105.517,111.989,0.010106,0.102857,20.9235,51.1145,-0.538447,0.0,0.0
5360,1339.75,50.9852,53.2258,124.819,104.937,111.029,0.0103204,0.102175,20.9241,51.0745,-0.510423,0.0,0.0
5440,1359.75,51.4617,53.7401,126.352,104.27,110.238,0.0102736,0.101809,20.9253,50.8843,-0.50347,0.0,0.0
5520,1379.75,51.4531,53.6117,130.248,103.868,109.934,0.010144,0.1016,20.9253,50.6741,-0.513378,0.0,0.0
5600,1399.75,51.3249,53.8371,124.499,104.046,110.509,0.0100172,0.102198,20.9289,50.494,-0.545175,0.0,0.0
5680,1419.75,51.4915,53.86,127.605,104.576,109.948,0.0093767,0.101222,20.9262,50.4039,-0.453198,0.0,0.0
5760,1439.75,51.0331,53.1479,127.796,105.076,110.749,0.00974869,0.0999078,20.9278,50.1937,-0.475647,0.0,0.0
5840,1459.75,51.1892,53.9617,129.374,105.132,110.994,0.00954653,0.0996292,20.9253,50.0235,-0.490834,0.0,0.0
5920,1479.75,50.9831,53.9228,129.037,104.701,109.996,0.00933573,0.0984826,20.9293,49.9235,-0.446218,0.0,0.0
6000,1499.75,51.4328,53.5619,128.43,104.496,110.3,0.00929845,0.100004,20.9284,49.7933,-0.488956,0.0,0.0
6080,1519.75,51.1217,53.7627,129.693,104.45,109.932,0.00938926,0.102015,20.922,49.5531,-0.462718,0.0,0.0
6160,1539.75,50.8977,53.4518,130.462,104.406,110.937,0.0095584,0.103645,20.922,49.5131,-0.548819,0.0,0.0
6240,1559.75,50.4395,53.0983,130.054,104.702,110.407,0.009269,0.103002,20.9236,49.3229,-0.479864,0.0,0.0
6320,1579.75,50.5772,52.8733,129.902,104.682,110.294,0.00907735,0.100811,20.9235,49.1828,-0.472341,0.0,0.0
6400,1599.75,50.7194,52.7225,127.238,104.65,110.049,0.00858191,0.102271,20.9222,48.9026,-0.455039,0.0,0.0
6480,1619.75,50.7826,52.9897,125.551,104.83,110.683,0.00846858,0.102268,20.9192,48.7625,-0.491446,0.0,0.0
6560,1639.75,50.7528,53.1109,129.768,105.047,111.712,0.00817761,0.100956,20.9244,48.6724,-0.556489,0.0,0.0
6640,1659.75,51.0445,53.4348,125.673,105.179,111.173,0.00836516,0.099008,20.9244,48.4121,-0.501364,0.0,0.0
6720,1679.75,51.1036,53.2778,127.167,105.146,110.977,0.00835262,0.098793,20.9257,48.3121,-0.488157,0.0,0.0
6800,1699.75,51.0658,53.1617,128.693,105.122,110.428,0.00829143,0.0998377,20.9266,48.1519,-0.44536,0.0,0.0
6880,1719.75,50.92,53.2097,130.957,105.095,110.42,0.00803528,0.100015,20.9245,48.0618,-0.447076,0.0,0.0
6960,1739.75,50.7991,53.1616,129.607,105.15,110.844,0.00785089,0.0972208,20.927,47.8416,-0.476966,0.0,0.0
7040,1759.75,50.7357,53.1973,127.612,105.271,110.487,0.00783855,0.0952941,20.93,47.6915,-0.437487,0.0,0.0
7120,1779.75,51.1848,53.2582,127.747,105.253,111.161,0.00770228,0.0965636,20.9287,47.6215,-0.494057,0.0,0.0
7200,1799.75,50.8858,53.2718,126.973,105.029,111.645,0.00765153,0.0954762,20.9309,47.4613,-0.55251,0.0,0.0
7280,1819.75,49.6202,52.0428,130.851,104.933,110.489,0.0073945,0.0944656,20.9306,47.2511,-0.466664,0.0,0.0
7360,1839.75,49.5924,51.7622,124.77,105.324,110.446,0.00734982,0.0946149,20.9312,47.101,-0.429591,0.0,0.0
7440,1859.75,49.5702,52.1941,127.724,105.543,111.714,0.00713676,0.0953964,20.931,47.141,-0.514014,0.0,0.0
7520,1879.75,49.4109,51.8961,125.955,105.379,110.374,0.0072337,0.0963889,20.928,46.9309,-0.418849,0.0,0.0
7600,1899.75,49.6189,51.987,130.536,105.249,112.003,0.0071963,0.0959,20.9283,46.7607,-0.562613,0.0,0.0
7680,1919.75,49.2652,51.6931,123.639,105.097,111.443,,,,46.5906,-0.530297,0.0,0.0
7684,1920.75,49.0448,51.2599,128.298,105.081,110.774,,,,46.5605,-0.477228,0.0,0.0