File: 01_Data/Engineered_Flooring/Cone/Engineered_Flooring_Cone_HF50Scan_220524_R2.csv
Names,Time,Stack TC,Smoke TC,Exh Press,Smoke Comp,Smoke Meas,CO Meter,CO2 Meter,O2 Meter,Sample Mass,Ext Coeff,Start Test,Flame Verif
Chan Gain,,500,500,1,1,1,1,1,1,1,1,1.0,1.0
Offset,,0,0,0.13752,0,0,0,0,0,0,0,0.0,0.0
Gain,,1,1,25.011,13.8491,15.2622,1,1,1,1.00087,1.03118,1.0,1.0
Units,sec,C,C,Pa,%,%,%,%,%,g,/m,,
Baseline,,41.6037,42.8057,134.887,104.829,109.582,0.0003795,0.0556989,20.9823,-453.501,-0.401016,,
68,16.75,38.7646,40.0928,134.541,104.863,109.962,0.000182471,0.0638247,20.9727,118.073,-0.429486,0.0,0.0
136,33.75,46.1787,44.5689,112.59,104.955,107.929,0.00484285,0.552086,20.396,116.541,-0.25277,0.0,0.0
204,50.75,62.7219,59.7376,111.266,104.89,105.676,0.00587223,0.613563,20.3135,113.509,-0.0675682,0.0,0.0
272,67.75,72.4853,71.4723,117.269,104.909,108.716,0.00473828,0.57352,20.3434,110.346,-0.322472,0.0,0.0
340,84.75,73.65625,75.3906,113.474,105.007,110.458,0.00357191,0.441197,20.5038,107.644,-0.457699,0.0,0.0
408,101.75,72.4501,76.4281,118.455,104.936,112.017,0.00256668,0.381004,20.5782,105.232,-0.59066,0.0,0.0
476,118.75,70.989,75.7736,121.349,104.695,112.447,0.00238231,0.344637,20.6241,103.06,-0.646172,0.0,0.0
544,135.75,69.4036,74.2678,120.7,104.413,111.282,0.00234996,0.332029,20.638,101.058,-0.576367,0.0,0.0
612,152.75,68.2705,73.7012,120.829,104.54,111.079,0.00198894,0.32707,20.6477,99.0062,-0.548829,0.0,0.0
680,169.75,68.344,73.1464,122.939,105.136,112.248,0.00226559,0.330343,20.6443,97.0445,-0.592153,0.0,0.0
748,186.75,67.8476,72.5567,121.835,104.983,110.914,0.00218278,0.333459,20.6428,94.9527,-0.497149,0.0,0.0
816,203.75,67.2431,71.7091,124.851,105.087,111.464,0.0024249,0.331274,20.6484,93.021,-0.53291,0.0,0.0
884,220.75,67.0506,71.5931,118.126,105.639,111.835,0.0024889,0.337677,20.642,91.1493,-0.51556,0.0,0.0
952,237.75,66.9977,71.5694,123.611,105.158,110.988,0.00271344,0.341659,20.6363,89.1876,-0.488086,0.0,0.0
1020,254.75,67.4708,71.3674,121.848,104.076,108.513,0.00310739,0.366839,20.6043,87.0558,-0.377673,0.0,0.0
1088,271.75,68.8378,72.8031,117.647,103.8,108.948,0.00346487,0.405564,20.5568,84.964,-0.437807,0.0,0.0
1156,288.75,71.0817,74.373,116.619,104.05,108.249,0.00351082,0.452822,20.4992,82.652,-0.357836,0.0,0.0
1224,305.75,73.8724,77.6228,117.192,104.258,105.828,0.00464524,0.514728,20.4268,80.0297,-0.13525,0.0,0.0
1292,322.75,77.9495,80.7782,111.81,104.304,104.784,0.00609912,0.57407,20.3556,77.0871,-0.0415155,0.0,0.0
1360,339.75,81.8045,85.0823,112.938,104.334,104.132,0.00646428,0.64008,20.2746,73.8443,0.0175087,0.0,0.0
1428,356.75,85.7365,89.3213,111.899,104.405,102.344,0.0074047,0.71512,20.1798,70.4013,0.180337,0.0,0.0
1496,373.75,89.1779,92.9021,117.225,104.368,98.4734,0.00665216,0.701464,20.1795,66.8882,0.525838,0.0,0.0
1564,390.75,87.2095,92.7371,122.305,104.535,104.717,0.00496846,0.531491,20.3692,64.356,-0.0157003,0.0,0.0
1632,407.75,79.4406,87.0539,127.032,104.881,110.681,0.00227281,0.265397,20.7011,62.9548,-0.486842,0.0,0.0
1700,424.75,68.862,77.5313,130.728,105.072,112.009,0.00259236,0.15633,20.8382,62.3343,-0.578297,0.0,0.0
1768,441.75,62.7336,70.2061,128.91,105.082,111.978,0.00292869,0.133695,20.8664,62.1141,-0.574941,0.0,0.0
1836,458.75,57.6981,64.7384,128.443,104.983,111.158,0.00303451,0.12654,20.8781,61.8238,-0.516957,0.0,0.0
1904,475.75,54.6008,58.9525,130.808,104.79,111.92,0.00399994,0.122627,20.8859,61.5135,-0.595448,0.0,0.0
1972,492.75,52.569,57.1511,134.709,104.597,110.377,0.00388609,0.119956,20.8916,61.2533,-0.486518,0.0,0.0
2040,509.75,51.051,54.6368,133.573,104.481,110.464,0.00451479,0.117581,20.8954,61.1733,-0.503673,0.0,0.0
2108,526.75,49.5654,52.4963,132.498,104.429,111.165,0.00502907,0.115173,20.8982,60.9631,-0.565356,0.0,0.0
2176,543.75,48.861,51.0536,132.57,104.532,111.059,0.00553959,0.113837,20.9024,60.7229,-0.547893,0.0,0.0
2244,560.75,48.312,50.5558,128.935,104.899,112.022,0.00595818,0.114134,20.9024,60.4827,-0.594242,0.0,0.0
2312,577.75,47.7327,49.3912,136.402,105.22,111.885,0.00695691,0.112928,20.9041,60.3826,-0.555524,0.0,0.0
2380,594.75,46.8976,48.4071,135.318,105.17,110.885,0.00686101,0.110795,20.9086,60.2324,-0.478639,0.0,0.0
2448,611.75,46.6428,47.7958,132.433,104.807,110.172,0.00697685,0.109651,20.9088,60.0723,-0.451599,0.0,0.0
2516,628.75,46.0105,47.3158,130.746,105.164,111.232,0.00708749,0.112156,20.9088,59.8321,-0.50741,0.0,0.0
2584,645.75,45.7145,46.4577,135.294,105.518,111.542,0.0077537,0.112923,20.9071,59.6619,-0.502187,0.0,0.0
2652,662.75,45.9864,46.3825,131.5,105.693,112.274,0.00824057,0.110967,20.909,59.6019,-0.54642,0.0,0.0
2720,679.75,45.481,46.0381,133.871,105.667,112.207,0.00818603,0.111377,20.9085,59.4818,-0.543222,0.0,0.0
2788,696.75,45.1489,46.22,132.568,105.635,111.316,0.00859131,0.113676,20.9044,59.1915,-0.473819,0.0,0.0
2856,713.75,44.6699,46.3538,132.424,105.66,112.67,0.00874317,0.114925,20.9029,59.0814,-0.581007,0.0,0.0
2924,730.75,44.8871,45.7649,130.013,105.643,111.456,0.00845408,0.115038,20.9033,59.0314,-0.484479,0.0,0.0
2992,747.75,43.8889,45.4948,131.698,105.357,111.795,0.00885248,0.11575,20.9037,58.8212,-0.536524,0.0,0.0
3060,764.75,43.7345,45.9632,133.353,104.737,111.716,0.00890477,0.114602,20.9054,58.6611,-0.583543,0.0,0.0
3128,781.75,43.8812,44.867,130.835,105.166,111.043,0.00922342,0.114153,20.9056,58.3808,-0.491837,0.0,0.0
3196,798.75,43.2752,44.7477,132.407,104.822,111.128,0.00909199,0.114906,20.9036,58.2507,-0.528454,0.0,0.0
3264,815.75,43.5691,44.6715,133.621,104.685,111.033,0.00868404,0.114402,20.9032,58.1306,-0.532541,0.0,0.0
3332,832.75,43.4286,44.9962,134.527,104.602,110.062,0.00925186,0.116215,20.9031,58.0105,-0.460276,0.0,0.0
3400,849.75,43.104,44.8914,136.912,104.411,110.519,0.00906165,0.114616,20.9048,57.7503,-0.514285,0.0,0.0
3468,866.75,43.317,44.7478,132.597,104.513,110.014,0.00925337,0.114135,20.9067,57.6202,-0.463974,0.0,0.0
3536,883.75,43.158,44.6844,135.455,104.672,110.96,0.00916238,0.111786,20.9062,57.5301,-0.527676,0.0,0.0
3604,900.75,42.9958,44.245,132.633,104.718,111.249,0.00954326,0.110903,20.9088,57.4,-0.547318,0.0,0.0
3672,917.75,43.0345,44.1299,132.886,104.693,110.913,0.00938626,0.11078,20.9097,57.1598,-0.522053,0.0,0.0
3740,934.75,42.9564,44.3306,131.388,104.637,109.758,0.0094815,0.110617,20.9086,56.9896,-0.432175,0.0,0.0
3808,951.75,42.7682,44.2664,130.943,104.535,111.002,0.0093782,0.112341,20.9061,56.9195,-0.542971,0.0,0.0
3876,968.75,42.8725,44.2946,130.179,104.521,109.713,0.00930541,0.107186,20.9149,56.7994,-0.438469,0.0,0.0
3944,985.75,42.8465,44.0926,132.955,104.798,111.643,0.0096877,0.107326,20.913,56.6193,-0.57233,0.0,0.0
4012,1002.75,43.017,44.0749,134.769,104.837,110.796,0.00942834,0.110004,20.9116,56.4091,-0.500031,0.0,0.0
4080,1019.75,42.3713,44.1325,135.45,104.685,110.996,0.00962627,0.111327,20.9084,56.339,-0.529542,0.0,0.0
4148,1036.75,42.5129,43.7966,134.168,104.396,110.551,0.00959847,0.113173,20.9067,56.239,-0.518196,0.0,0.0
4216,1053.75,42.3249,43.5729,135.227,104.626,110.907,0.00971941,0.111126,20.9079,56.0988,-0.527405,0.0,0.0
4284,1070.75,41.9265,43.5913,130.256,105.02,110.967,0.00942409,0.110739,20.9096,55.8386,-0.498236,0.0,0.0
4352,1087.75,42.1171,43.4444,133.911,105.093,111.632,0.0091401,0.110449,20.9116,55.6685,-0.545995,0.0,0.0
4420,1104.75,41.9478,43.6155,131.889,104.979,111.32,0.00918552,0.112588,20.9066,55.5984,-0.530465,0.0,0.0
4488,1121.75,42.2479,43.2915,135.022,104.984,110.701,0.00939156,0.110852,20.9095,55.5083,-0.479589,0.0,0.0
4556,1138.75,41.665,43.3883,134.427,104.958,110.996,0.00940651,0.111963,20.9099,55.2481,-0.505946,0.0,0.0
4624,1155.75,41.9538,43.3648,129.109,104.841,110.056,0.00971335,0.114379,20.9072,55.0779,-0.439079,0.0,0.0
4692,1172.75,42.0848,43.3882,137.482,104.744,110.378,0.00925632,0.113923,20.9062,54.9879,-0.47392,0.0,0.0
4760,1189.75,41.7245,43.4595,133.832,104.674,110.206,0.00905557,0.109068,20.9119,54.8177,-0.465847,0.0,0.0
4828,1206.75,42.0088,43.6629,129.093,104.675,110.614,0.00899117,0.108502,20.9117,54.6276,-0.499203,0.0,0.0
4896,1223.75,42.1181,43.496,131.469,104.728,110.552,0.00942254,0.107654,20.9139,54.4674,-0.489533,0.0,0.0
4964,1240.75,41.8489,43.4629,133.884,104.892,110.239,0.00929023,0.105429,20.9137,54.3974,-0.449737,0.0,0.0
5032,1257.75,42.2068,43.7144,130.528,105.068,110.088,0.00904287,0.104546,20.9154,54.2873,-0.422158,0.0,0.0
5100,1274.75,41.9392,43.0816,131.352,105.171,111.161,0.00927144,0.113949,20.9046,54.0971,-0.501068,0.0,0.0
5168,1291.75,41.8729,44.4891,127.755,105.105,111.309,0.00893646,0.10892,20.9108,53.8869,-0.518823,0.0,0.0
5236,1308.75,41.9904,43.1314,130.603,104.861,111.569,0.00927474,0.104507,20.9141,53.7368,-0.560894,0.0,0.0
5304,1325.75,42.0946,43.3415,132.672,104.686,110.675,0.00901618,0.103402,20.9162,53.7368,-0.503167,0.0,0.0
5372,1342.75,41.6897,43.5132,131.672,104.609,110.878,0.00896599,0.105021,20.9158,53.5766,-0.526435,0.0,0.0
5440,1359.75,41.7767,43.3941,131.83,104.672,110.471,0.00866805,0.107339,20.9135,53.3965,-0.487758,0.0,0.0
5508,1376.75,42.004,43.6092,134.636,104.904,111.963,0.00839478,0.106533,20.9126,53.2263,-0.589103,0.0,0.0
5576,1393.75,41.4994,42.8396,133.007,105.116,110.04,0.00846951,0.107099,20.9148,53.1563,-0.414107,0.0,0.0
5644,1410.75,41.4623,43.3728,135.057,104.881,110.701,0.00875171,0.107117,20.9142,53.0061,-0.488517,0.0,0.0
5712,1427.75,41.7124,43.2195,132.988,104.254,110.009,0.00841599,0.106942,20.9116,52.786,-0.486079,0.0,0.0
5780,1444.75,41.5208,43.3552,130.701,103.864,109.261,0.00873934,0.106864,20.9139,52.6258,-0.458236,0.0,0.0
5848,1461.75,41.5523,43.3447,135.077,103.875,109.268,0.00837279,0.10651,20.9146,52.5758,-0.457856,0.0,0.0
5916,1478.75,41.9427,43.0181,134.764,103.963,110.454,0.0083692,0.104939,20.9169,52.4056,-0.54788,0.0,0.0
5984,1495.75,41.955,42.3898,134.126,104.053,109.515,0.00846003,0.106945,20.9152,52.2555,-0.462787,0.0,0.0
6052,1512.75,40.3382,41.7346,134.136,104.237,110.811,0.00828857,0.105756,20.9143,52.0653,-0.553218,0.0,0.0
6120,1529.75,39.7127,41.6564,128.815,104.375,110.678,0.00829123,0.10506,20.9156,51.9152,-0.530426,0.0,0.0
6188,1546.75,40.5004,41.9085,137.69,104.434,111.04,0.00808924,0.10505,20.9162,51.8551,-0.554828,0.0,0.0
6256,1563.75,40.259,41.5899,132.493,104.458,110.651,0.0080828,0.103776,20.9184,51.735,-0.521003,0.0,0.0
6324,1580.75,40.0552,41.8207,133.967,104.434,110.107,0.00759115,0.103058,20.9191,51.4948,-0.478435,0.0,0.0
6392,1597.75,40.1765,42.009,135.519,104.341,110.532,0.00792619,0.101425,20.9194,51.3647,-0.521321,0.0,0.0
6460,1614.75,39.8159,41.8892,133.678,104.275,109.581,,0.100815,,51.3047,-0.448945,0.0,0.0
6499,1624.5,39.7212,41.3334,133.587,104.168,110.643,,,,51.1846,-0.545424,0.0,0.0