File: 01_Data/Engineered_Flooring/Cone/Engineered_Flooring_Cone_HF25Scan_220524_R3.csv
Names,Time,Stack TC,Smoke TC,Exh Press,Smoke Comp,Smoke Meas,CO Meter,CO2 Meter,O2 Meter,Sample Mass,Ext Coeff,Start Test,Flame Verif
Chan Gain,,500,500,1,1,1,1,1,1,1,1,1.0,1.0
Offset,,0,0,0.138596,0,0,0,0,0,0,0,0.0,0.0
Gain,,1,1,25.011,13.8491,15.2622,1,1,1,1.00087,1.03118,1.0,1.0
Units,sec,C,C,Pa,%,%,%,%,%,g,/m,,
Baseline,,24.1586,24.3721,142.045,103.713,103.667,0.00076372,0.0437537,21.0035,-450.525,0.00402361,,
36,8.75,22.4946,22.771,139.764,103.519,103.221,0.000953559,0.0483375,20.9998,122.246,0.0261112,0.0,0.0
72,17.75,22.1793,22.6973,140.961,103.554,103.44,0.000873831,0.0485645,20.9991,122.216,0.00993975,0.0,0.0
108,26.75,22.2293,22.1716,139.851,103.568,103.614,0.000927009,0.0445974,21.0024,122.256,-0.00402567,0.0,0.0
144,35.75,22.3509,22.9022,143.45,103.613,103.288,0.000540519,0.0438457,21.005,122.176,0.0283935,0.0,0.0
180,44.75,22.0758,22.3539,145.955,103.719,103.516,0.000618193,0.0430166,21.0056,122.126,0.0177229,0.0,0.0
216,53.75,22.5577,23.1454,143.991,103.867,103.706,0.000741061,0.0442162,21.005,122.086,0.0139867,0.0,0.0
252,62.75,22.6739,22.6572,142.178,104.016,103.545,0.000601291,0.0455251,21.0019,122.066,0.0410419,0.0,0.0
288,71.75,22.6138,23.2198,141.522,104.186,104.286,0.00075093,0.0484099,20.9999,122.006,-0.00870341,0.0,0.0
324,80.75,22.5828,23.0658,139.274,104.289,103.869,0.000802714,0.0472528,21.003,121.926,0.036512,0.0,0.0
360,89.75,23.3945,22.9329,143.183,104.416,104.347,0.00112001,0.0514908,21.0002,121.856,0.00598154,0.0,0.0
396,98.75,22.7251,23.5908,141.505,104.544,104.065,0.00126844,0.0521572,21.0023,121.766,0.0415325,0.0,0.0
432,107.75,22.9821,23.4756,140.042,104.629,102.281,0.00135126,0.0545019,21.0025,121.626,0.205241,0.0,0.0
468,116.75,23.0139,23.9172,143.866,104.688,100.982,0.00196607,0.0541882,21.0034,121.366,0.326014,0.0,0.0
504,125.75,23.2822,23.6284,141.096,104.744,100.778,0.00142674,0.0539246,21.0016,121.145,0.349083,0.0,0.0
540,134.75,23.548,23.8682,140.717,104.75,99.4063,0.00172999,0.0547151,21.0036,120.865,0.473598,0.0,0.0
576,143.75,23.7829,23.9666,131.35,104.696,104.871,0.00312278,0.125627,20.9002,120.415,-0.0150813,0.0,1.0
612,152.75,29.2475,26.6112,125.199,104.613,107.385,0.00421226,0.361927,20.614,119.074,-0.236617,0.0,0.0
648,161.75,34.2755,31.9448,127.539,104.459,106.62,0.00376229,0.344922,20.6391,117.953,-0.185199,0.0,0.0
684,170.75,37.1235,34.9836,127.366,104.235,106.885,0.00340808,0.324719,20.6689,116.852,-0.227036,0.0,0.0
720,179.75,39.579,37.9079,129.518,103.927,106.439,0.00348421,0.32203,20.6723,115.751,-0.216051,0.0,0.0
756,188.75,41.4243,40.6874,128.911,103.628,106.225,0.00340691,0.312014,20.6863,114.73,-0.223944,0.0,0.0
792,197.75,42.3687,42.2674,127.544,103.44,106.144,0.00324416,0.294438,20.7047,113.689,-0.233435,0.0,0.0
828,206.75,43.0648,43.7466,128.483,103.467,106.74,0.0030163,0.291952,20.7076,112.648,-0.281696,0.0,0.0
864,215.75,43.4129,44.3131,125.81,103.802,106.36,0.00292516,0.287368,20.71,111.657,-0.220178,0.0,0.0
900,224.75,44.0539,45.0919,132.419,104.194,106.897,0.00271058,0.28065,20.7182,110.656,-0.231656,0.0,0.0
936,233.75,43.6043,45.3296,127.267,104.537,107.444,0.00228774,0.267179,20.735,109.635,-0.248139,0.0,0.0
972,242.75,43.1272,45.2916,128.777,104.734,107.412,0.00244587,0.258298,20.7452,108.825,-0.228371,0.0,0.0
1008,251.75,43.2988,45.7189,127.87,104.84,108.409,0.00248674,0.241424,20.7651,108.074,-0.302765,0.0,0.0
1044,260.75,42.0822,45.0204,132.307,104.84,107.9,0.0022356,0.22456,20.7871,107.223,-0.260229,0.0,0.0
1080,269.75,41.4463,44.6732,130.253,104.797,107.239,0.00265968,0.209061,20.8048,106.543,-0.208368,0.0,0.0
1116,278.75,40.538,43.7345,133.382,104.648,106.733,0.00256827,0.198094,20.8193,105.892,-0.178415,0.0,0.0
1152,287.75,39.5972,43.0169,135.011,104.412,106.277,0.00262601,0.192174,20.8271,105.202,-0.160096,0.0,0.0
1188,296.75,38.958,42.1531,135.23,104.22,106.735,0.00251997,0.185631,20.8354,104.571,-0.215695,0.0,0.0
1224,305.75,38.2009,41.604,135.962,104.065,105.868,0.00209653,0.183587,20.8392,103.87,-0.155372,0.0,0.0
1260,314.75,37.9579,40.8394,135.051,103.977,107.005,0.00281038,0.177324,20.8465,103.18,-0.25964,0.0,0.0
1296,323.75,37.3921,40.2797,133.509,103.988,105.459,0.0023462,0.173863,20.8526,102.689,-0.127087,0.0,0.0
1332,332.75,36.7857,39.793,137.208,104.036,105.648,0.00229651,0.17134,20.8553,102.089,-0.139141,0.0,0.0
1368,341.75,36.6509,39.2253,136.036,104.081,106.417,0.00246665,0.170244,20.8581,101.508,-0.200769,0.0,0.0
1404,350.75,36.1114,38.5658,137.923,104.07,106.184,0.00236531,0.17008,20.8581,100.988,-0.181874,0.0,0.0
1440,359.75,35.8823,38.5035,131.634,104.073,105.356,0.00242052,0.169419,20.8597,100.457,-0.110794,0.0,0.0
1476,368.75,35.8205,38.1203,136.624,104.027,106.213,0.00255248,0.167929,20.86,99.8769,-0.188157,0.0,0.0
1512,377.75,35.3216,37.947,135.177,104.015,105.594,0.00280159,0.170736,20.859,99.2764,-0.136313,0.0,0.0
1548,386.75,35.2008,37.1814,134.071,104.037,105.005,0.00284043,0.173571,20.8544,98.6559,-0.0838281,0.0,0.0
1584,395.75,35.1191,36.9233,133.031,104.092,106.189,0.00251887,0.179009,20.8494,98.1655,-0.180396,0.0,0.0
1620,404.75,36.0386,37.6933,134.473,104.127,106.387,0.00254471,0.188939,20.8376,97.635,-0.194195,0.0,0.0
1656,413.75,35.9468,37.6764,133.217,104.127,105.824,0.00242014,0.202618,20.8218,96.9944,-0.146229,0.0,0.0
1692,422.75,36.218,37.8708,133.746,104.095,106.365,0.00245399,0.215728,20.8036,96.3539,-0.195127,0.0,0.0
1728,431.75,37.4695,38.9338,132.177,104.04,106.585,0.00273782,0.230681,20.7838,95.6132,-0.218579,0.0,0.0
1764,440.75,38.3293,39.6116,129.172,103.964,106.709,0.00267919,0.244921,20.7649,94.8826,-0.235701,0.0,0.0
1800,449.75,39.261,40.5182,126.984,103.899,106.393,0.00238404,0.262191,20.7431,94.0919,-0.214597,0.0,0.0
1836,458.75,40.6196,41.7531,131.489,103.858,106.594,0.00239758,0.271457,20.7333,93.1911,-0.235181,0.0,0.0
1872,467.75,41.2102,42.142,128.524,103.822,106.002,0.00242192,0.280042,20.7242,92.2803,-0.187895,0.0,0.0
1908,476.75,42.1945,43.0198,130.015,103.794,107.236,0.00266155,0.299536,20.7004,91.4996,-0.295082,0.0,0.0
1944,485.75,43.7796,44.644,128.017,103.762,106.643,0.00238821,0.306255,20.6916,90.5788,-0.247727,0.0,0.0
1980,494.75,44.1876,45.6074,126.069,103.72,106.485,0.00265764,0.310996,20.6874,89.6681,-0.237933,0.0,0.0
2016,503.75,45.2186,46.4695,128.548,103.682,107.114,0.00246128,0.3149,20.6865,88.7172,-0.294509,0.0,0.0
2052,512.75,46.0254,47.4342,129.448,103.636,106.766,0.00260602,0.326158,20.6764,87.7064,-0.269176,0.0,0.0
2088,521.75,46.7952,48.6035,122.968,103.569,106.42,0.00295849,0.3382,20.6632,86.7155,-0.2456,0.0,0.0
2124,530.75,47.8075,49.6102,128.967,103.501,106.022,0.00299749,0.359699,20.6342,85.5245,-0.217633,0.0,0.0
2160,539.75,49.5796,50.9849,123.08,103.47,105.575,0.00383029,0.400076,20.59,84.3034,-0.182177,0.0,0.0
2196,548.75,51.7747,53.293,119.318,103.463,104.421,0.00467127,0.456982,20.5206,82.9122,-0.0834145,0.0,0.0
2232,557.75,54.6941,55.6357,124.876,103.499,103.54,0.00560512,0.522718,20.4365,81.4409,-0.00353645,0.0,0.0
2268,566.75,57.9356,59.098,115.674,103.588,103.661,0.00571269,0.546505,20.4034,79.8395,-0.00639661,0.0,0.0
2304,575.75,60.2725,61.4277,121.128,103.742,104.031,0.00554116,0.539999,20.4065,78.2781,-0.0251854,0.0,0.0
2340,584.75,61.775,63.4955,117.906,103.948,103.739,0.00528792,0.558013,20.3795,76.7568,0.0182448,0.0,0.0
2376,593.75,63.356,65.2812,118.813,104.162,104.45,0.00571597,0.582906,20.3461,75.1454,-0.0249643,0.0,0.0
2412,602.75,65.2419,67.3655,124.339,104.361,103.673,0.00564042,0.581524,20.3474,73.534,0.0598738,0.0,0.0
2448,611.75,66.1181,68.6714,115.263,104.594,103.479,0.00496154,0.542696,20.3915,72.1028,0.0968794,0.0,0.0
2484,620.75,65.4113,69.0365,122.218,104.741,104.852,0.00466154,0.465001,20.4877,70.9117,-0.00956801,0.0,0.0
2520,629.75,62.9421,67.3482,119.815,104.834,103.623,0.00390057,0.375323,20.5976,69.9409,0.105044,0.0,0.0
2556,638.75,59.3338,64.9906,127.747,104.862,105.724,0.00338865,0.298151,20.6843,69.2503,-0.0740432,0.0,0.0
2592,647.75,55.8853,61.5835,129.248,104.85,106.381,0.00306353,0.241039,20.7555,68.6398,-0.131154,0.0,0.0
2628,656.75,52.3683,58.5457,131.954,104.743,106.961,0.00316186,0.196838,20.8112,68.2094,-0.189596,0.0,0.0
2664,665.75,49.0238,55.0136,132.943,104.66,106.122,0.00340199,0.161639,20.8535,67.8791,-0.125458,0.0,0.0
2700,674.75,45.9023,52.4068,137.082,104.554,106.267,0.00475561,0.12942,20.895,67.6089,-0.147002,0.0,0.0
2736,683.75,42.9014,48.9659,137.772,104.431,105.936,0.00581421,0.105163,20.9229,67.3887,-0.12942,0.0,0.0
2772,692.75,39.9525,45.1947,134.199,104.371,105.586,0.0064744,0.0902061,20.9375,67.3186,-0.1047,0.0,0.0
2808,701.75,37.9617,43.051,141.87,104.597,105.9,0.0076802,0.0814998,20.9473,67.2185,-0.112021,0.0,0.0
2844,710.75,36.0194,40.7328,140.467,104.943,105.753,0.00835687,0.077742,20.9519,67.0984,-0.0695527,0.0,0.0
2880,719.75,34.0323,38.6748,142.442,105.157,106.05,0.00858655,0.0737634,20.9569,66.9783,-0.0765196,0.0,0.0
2916,728.75,32.8396,36.3945,137.916,105.248,105.663,0.00933183,0.0731442,20.9592,66.8982,-0.0356369,0.0,0.0
2952,737.75,30.1302,33.6103,137.93,105.261,105.255,0.0108644,0.0696756,20.9629,66.8582,0.00056178,0.0,0.0
2988,746.75,29.3182,32.1695,137.285,105.19,105.712,0.0114099,0.069294,20.9632,66.7081,-0.0447968,0.0,0.0
3024,755.75,28.7106,30.7365,145.637,105.095,105.185,0.0114781,0.0706093,20.9611,66.638,-0.00771695,0.0,0.0
3060,764.75,28.233,30.1035,135.231,104.993,105.417,0.0113361,0.0710349,20.9632,66.568,-0.0364094,0.0,0.0
3096,773.75,27.1192,29.183,140.524,104.777,105.154,0.0113676,0.0718117,20.9633,66.4779,-0.0325067,0.0,0.0
3132,782.75,26.9997,28.8544,138.336,104.736,105.502,0.0113276,0.0725555,20.9599,66.4378,-0.0659257,0.0,0.0
3168,791.75,26.4416,27.8703,139.107,104.849,105.825,0.0114351,0.0726307,20.9603,66.3778,-0.0838134,0.0,0.0
3204,800.75,26.7265,27.9123,138.471,104.998,105.425,0.0116264,0.0743324,20.9601,66.3077,-0.0366914,0.0,0.0
3240,809.75,26.4529,26.7201,142.14,105.116,104.979,0.0111373,0.0744281,20.96,66.1376,0.0118267,0.0,0.0
3276,818.75,25.8679,27.0487,137.922,105.268,105.586,0.0111789,0.075276,20.9597,66.1576,-0.0272683,0.0,0.0
3312,827.75,26.0634,26.7866,139.851,105.401,105.991,0.0111663,0.0756384,20.9577,66.0075,-0.0504872,0.0,0.0
3348,836.75,25.9535,26.3265,142.45,105.486,105.675,0.01095,0.076028,20.9555,65.9074,-0.0161296,0.0,0.0
3384,845.75,26.0037,26.1865,135.841,105.549,105.71,,,,65.8974,-0.0137977,0.0,0.0
3415,853.5,25.7445,25.539,140.187,105.567,105.705,,,,65.7673,-0.0118049,0.0,0.0