File: 01_Data/Engineered_Flooring/Cone/Engineered_Flooring_Cone_HF75Scalar_220524_R1.csv
LABORATORY,FSRI
TEST IDENT,Engr_Hardwood_75_1
OPERATOR,Dow
MATERIAL,Engineered Hardwood Floor
ORIENTATION,Horizontal
HEAT FLUX,75
SURF AREA,0.01
C FACTOR,0.0412233
SPEC HOLDER DIFF,-566
SPECIMEN MASS,74.24
SCAN TIME,0.25
O2 DELAY TIME,11
CO DELAY TIME,11
CO2 DELAY TIME,8
FLOW FACTOR,1
SCAN COUNT,7684
TIME TO IGN,13.25
END OF TEST SCAN,7204
END OF TEST TIME,1801
TEST STATUS,1
PRE TEST CMT,Dimensions: 99.87 x 100.10 x 8.64 mm; with tie wires