File: 01_Data/Engineered_Flooring/Cone/Engineered_Hardwood_Flooring_Cone_HF75Scalar_220524_R2.csv
LABORATORY,FSRI
TEST IDENT,Engr_Hardwood_75_2
OPERATOR,Dow
MATERIAL,Engineered Hardwood Floor
ORIENTATION,Horizontal
HEAT FLUX,75
SURF AREA,0.01
C FACTOR,0.0412233
SPEC HOLDER DIFF,-566
SPECIMEN MASS,73.23
SCAN TIME,0.25
O2 DELAY TIME,11
CO DELAY TIME,11
CO2 DELAY TIME,8
FLOW FACTOR,1
SCAN COUNT,8308
TIME TO IGN,13.75
END OF TEST SCAN,7828
END OF TEST TIME,1957
TEST STATUS,1
PRE TEST CMT,Dimensions: 99.94 x 100.12 x 8.65 mm; with tie wires