File: 01_Data/Engineered_Flooring/Cone/Engineered_Flooring_Cone_HF50Scalar_220524_R1.csv
LABORATORY,FSRI
TEST IDENT,Engr_Hardwood_50_1
OPERATOR,Dow
MATERIAL,Engineered Hardwood Floor
ORIENTATION,Horizontal
HEAT FLUX,50
SURF AREA,0.01
C FACTOR,0.0419572
SPEC HOLDER DIFF,-566
SPECIMEN MASS,73.48
SCAN TIME,0.25
O2 DELAY TIME,11
CO DELAY TIME,11
CO2 DELAY TIME,8
FLOW FACTOR,1
SCAN COUNT,5593
TIME TO IGN,26.75
END OF TEST SCAN,5113
END OF TEST TIME,1278.25
TEST STATUS,1
PRE TEST CMT,Dimensions: 99.62 x 100.18 x 8.65 mm; with tie wires