File: 01_Data/Engineered_Flooring/Cone/Engineered_Flooring_Cone_HF25Scalar_220524_R3.csv
LABORATORY,FSRI
TEST IDENT,Engr_Hardwood_25_3
OPERATOR,Dow
MATERIAL,Engineered Hardwood Floor
ORIENTATION,Horizontal
HEAT FLUX,25
SURF AREA,0.01
C FACTOR,0.0412233
SPEC HOLDER DIFF,-566
SPECIMEN MASS,74.72
SCAN TIME,0.25
O2 DELAY TIME,11
CO DELAY TIME,11
CO2 DELAY TIME,8
FLOW FACTOR,1
SCAN COUNT,3415
TIME TO IGN,142
END OF TEST SCAN,2935
END OF TEST TIME,733.75
TEST STATUS,1
PRE TEST CMT,Dimensions: 99.78 x 100.00 x 8.65 mm; with tie wires