File: 01_Data/Wool_Rug/Cone/Wool_Rug_Cone_HF75Scalar_220324_R1.csv
LABORATORY,FSRI
TEST IDENT,WoolRug_HF75_1
OPERATOR,Dow
MATERIAL,Wool Rug
ORIENTATION,Horizontal
HEAT FLUX,75
SURF AREA,0.01
C FACTOR,0.0392277
SPEC HOLDER DIFF,-566
SPECIMEN MASS,36.06
SCAN TIME,0.25
O2 DELAY TIME,11
CO DELAY TIME,11
CO2 DELAY TIME,8
FLOW FACTOR,1
SCAN COUNT,1683
TIME TO IGN,2
END OF TEST SCAN,1203
END OF TEST TIME,300.75
TEST STATUS,1
PRE TEST CMT,Dimensions: 101.09 x 99.69 x 16.30 mm