File: 01_Data/Wool_Rug/Cone/Wool_Rug_Cone_HF75Scalar_220324_R2.csv
LABORATORY,FSRI
TEST IDENT,WoolRug_HF75_2
OPERATOR,Dow
MATERIAL,Wool Rug
ORIENTATION,Horizontal
HEAT FLUX,75
SURF AREA,0.01
C FACTOR,0.0392277
SPEC HOLDER DIFF,-566
SPECIMEN MASS,38.58
SCAN TIME,0.25
O2 DELAY TIME,11
CO DELAY TIME,11
CO2 DELAY TIME,8
FLOW FACTOR,1
SCAN COUNT,1938
TIME TO IGN,2.5
END OF TEST SCAN,1458
END OF TEST TIME,364.5
TEST STATUS,1
PRE TEST CMT,Dimensions: 101.56 x 99.68 x 16.48 mm