File: 01_Data/Wool_Rug/Cone/Wool_Rug_Cone_HF50Scalar_220324_R1.csv
LABORATORY,FSRI
TEST IDENT,WoolRug_HF50_1
OPERATOR,Dow
MATERIAL,Wool Rug
ORIENTATION,Horizontal
HEAT FLUX,50
SURF AREA,0.01
C FACTOR,0.0390274
SPEC HOLDER DIFF,-566
SPECIMEN MASS,39.26
SCAN TIME,0.25
O2 DELAY TIME,11
CO DELAY TIME,11
CO2 DELAY TIME,8
FLOW FACTOR,1
SCAN COUNT,2169
TIME TO IGN,3
END OF TEST SCAN,1689
END OF TEST TIME,422.25
TEST STATUS,1
PRE TEST CMT,Dimensions: 101.27 x 101.25 x 16.93 mm