File: 01_Data/Wool_Rug/Cone/Wool_Rug_Cone_HF25Scan_220323_R1.csv
Names,Time,Stack TC,Smoke TC,Exh Press,Smoke Comp,Smoke Meas,CO Meter,CO2 Meter,O2 Meter,Sample Mass,Ext Coeff,Start Test,Flame Verif
Chan Gain,,500,500,1,1,1,1,1,1,1,1,1.0,1.0
Offset,,0,0,0.138078,0,0,0,0,0,0,0,0.0,0.0
Gain,,1,1,25.011,13.1874,13.4895,1,1,1,1.00089,1.01187,1.0,1.0
Units,sec,C,C,Pa,%,%,%,%,%,g,/m,,
Baseline,,16.2791,16.9101,161.273,100.072,96.2453,0.000896437,0.0679446,21.0032,-836.373,0.346082,,
49,12,15.682,16.3321,158.136,99.5771,94.7672,0.00114439,0.0688823,21.0094,-305.833,0.439441,0.0,0.0
98,24.25,15.8802,16.8573,162.423,99.7654,90.937,0.0018253,0.0719202,21.0032,-306.133,0.822405,0.0,0.0
147,36.5,16.6577,17.0837,161,99.8817,91.1528,0.00250506,0.0814578,20.9933,-306.363,0.811716,0.0,0.0
196,48.75,16.4144,17.0869,160.785,99.9562,91.1528,0.00297216,0.0758398,20.999,-306.614,0.81833,0.0,0.0
245,61,17.0367,17.7469,162.125,99.9533,92.6805,0.00294156,0.0771659,20.9975,-306.834,0.670552,0.0,0.0
294,73.25,16.9827,17.7934,157.809,99.955,92.8007,0.00265995,0.0760513,20.9991,-307.034,0.65919,0.0,0.0
343,85.5,17.3033,18.4785,155.891,99.936,93.5804,0.00287111,0.0741844,21.0024,-307.204,0.583247,0.0,0.0
392,97.75,17.4676,18.7278,157.946,99.893,92.4664,0.00230459,0.0795633,20.9945,-307.404,0.685714,0.0,0.0
441,110,17.9969,18.7294,161.206,99.7904,93.6046,0.00274899,0.0753445,20.9997,-307.634,0.567994,0.0,0.0
490,122.25,17.8663,18.447,159.284,99.6588,93.3445,0.00273721,0.073738,21.0017,-307.845,0.580986,0.0,0.0
539,134.5,17.5354,18.6982,158.667,99.4688,93.7977,0.00279166,0.0736903,21.0026,-308.095,0.521057,0.0,0.0
588,146.75,17.9958,18.8711,159.062,99.1802,92.7492,0.00261641,0.0739257,21.0026,-308.325,0.595051,0.0,0.0
637,159,18.2665,19.0429,156.3,99.1915,92.0173,0.00281264,0.0743046,21.0026,-308.595,0.666383,0.0,0.0
686,171.25,18.3193,19.2567,161.818,99.2213,92.7196,0.00248846,0.0750059,20.9984,-308.855,0.60156,0.0,0.0
735,183.5,18.6145,19.0398,157.938,99.2837,92.5644,0.0025744,0.0753651,20.997,-309.116,0.622008,0.0,0.0
784,195.75,18.0144,18.8274,158.583,99.3207,92.4931,0.00246866,0.0750361,20.9993,-309.416,0.63215,0.0,0.0
833,208,18.3885,19.9073,158.855,99.375,92.9069,0.00246539,0.0744204,21.0008,-309.656,0.597388,0.0,0.0
882,220.25,18.5152,19.4995,162.879,99.4185,93.5157,0.0022498,0.0741177,21.0028,-309.926,0.543292,0.0,0.0
931,232.5,18.3906,19.4312,157.735,99.4318,92.6735,0.00231272,0.0744948,21.0005,-310.197,0.624784,0.0,0.0
980,244.75,18.6364,19.0177,157.304,99.4579,92.7747,0.00217105,0.0746218,21.0003,-310.447,0.617425,0.0,0.0
1029,257,18.5849,19.4294,154.655,99.4547,92.5919,0.00235638,0.0741857,21.0008,-310.687,0.634642,0.0,0.0
1078,269.25,18.2836,19.795,157.317,99.4471,92.6714,0.00190306,0.0743156,20.9985,-310.937,0.626347,0.0,0.0
1127,281.5,18.7752,19.3023,160.447,99.4543,93.123,0.00217242,0.0742179,20.9993,-311.188,0.583843,0.0,0.0
1176,293.75,18.2065,19.194,155.016,99.441,93.0818,0.00200418,0.0742838,21.0008,-311.438,0.586582,0.0,0.0
1225,306,18.7763,19.4052,159.462,99.4346,92.6413,0.0019935,0.0792105,20.9954,-311.638,0.628112,0.0,0.0
1274,318.25,19.0125,20.0845,162.991,99.3992,93.4927,0.00186357,0.0750948,20.9995,-311.878,0.543755,0.0,0.0
1323,330.5,18.5899,19.5939,158.372,99.3935,92.89,0.00182263,0.0740574,21.0005,-312.088,0.600655,0.0,0.0
1372,342.75,19.2095,19.8275,155.822,99.3758,93.7331,0.00169549,0.0767371,20.9996,-312.279,0.518875,0.0,0.0
1421,355,18.9755,19.6392,161.647,99.3553,93.9529,0.00181926,0.0752677,21.0013,-312.489,0.49625,0.0,0.0
1470,367.25,18.6405,19.6763,158.73,99.334,92.4512,0.00195451,0.0732427,21.0028,-312.699,0.637368,0.0,0.0
1519,379.5,19.214,19.5313,164.532,99.3106,92.8274,0.0014967,0.0731543,21.003,-312.889,0.599229,0.0,0.0
1568,391.75,19.1055,19.6324,156.382,99.2998,92.8813,0.00193587,0.073715,21.0014,-313.079,0.593104,0.0,0.0
1617,404,19.0159,19.6673,157.408,99.2635,93.2177,0.00202798,0.073393,21.004,-313.239,0.557782,0.0,0.0
1666,416.25,19.0055,19.8634,158.197,99.2068,92.5537,0.00203067,0.0726901,21.008,-313.43,0.61616,0.0,0.0
1715,428.5,18.8885,20.0926,159.684,99.1694,94.0546,0.00161712,0.0728136,21.005,-313.6,0.470022,0.0,0.0
1764,440.75,19.0558,20.1413,161.041,99.1408,93.8821,0.00200862,0.0732516,20.9996,-313.73,0.483757,0.0,0.0
1813,453,19.7312,19.8526,159.021,99.1468,92.7443,0.00193171,0.0732005,21.0011,-313.89,0.592533,0.0,0.0
1862,465.25,19.0584,19.6719,163.647,99.1062,93.0069,0.00197584,0.0732255,21.0022,-314.06,0.563793,0.0,0.0
1911,477.5,19.3102,20.2346,156.545,99.0712,93.293,0.00237788,0.0740842,21.0006,-314.2,0.533394,0.0,0.0
1960,489.75,19.7974,20.2027,158.651,99.043,93.3581,0.0021993,0.0730533,21.0049,-314.36,0.524683,0.0,0.0
2009,502,19.424,20.4349,156.031,98.9806,92.9402,0.0024134,0.0737602,21.0031,-314.501,0.558907,0.0,0.0
2058,514.25,19.4554,20.184,155.988,98.9388,93.095,0.0022006,0.0741909,21.0026,-314.661,0.540382,0.0,0.0
2107,526.5,19.238,20.2931,164.894,98.8969,92.6134,0.00270025,0.0740554,21.0024,-314.841,0.582668,0.0,0.0
2156,538.75,19.1853,20.0598,160.883,98.8454,92.1758,0.00290512,0.0738676,21.0025,-315.041,0.620082,0.0,0.0
2205,551,19.8678,20.707,152.585,98.7653,93.5989,0.00194936,0.114183,20.9356,-315.281,0.476895,0.0,0.0
2254,563.25,21.8961,22.8866,157.133,98.6265,92.1704,0.00280641,0.159151,20.8741,-315.652,0.600917,0.0,0.0
2303,575.5,24.0271,24.2433,152.983,98.4824,92.4417,0.00292803,0.193237,20.8252,-316.092,0.561854,0.0,0.0
2352,587.75,25.4901,26.9717,147.062,98.3001,88.5189,0.00286307,0.236236,20.7573,-316.813,0.930291,0.0,1.0
2401,600,27.8986,28.8953,146.263,98.1685,90.4134,0.00308726,0.251511,20.7398,-317.023,0.730437,0.0,0.0
2450,612.25,29.7397,31.8336,142.724,98.0554,88.388,0.00290745,0.249349,20.749,-317.994,0.921305,0.0,0.0
2499,624.5,31.3547,32.8145,144.794,97.9536,88.4131,0.00292116,0.239483,20.762,-318.604,0.909562,0.0,0.0
2548,636.75,32.2606,34.1774,150.7,97.9689,89.707,0.00270209,0.227287,20.7781,-319.165,0.781993,0.0,0.0
2597,649,32.4095,34.426,148.963,97.894,90.518,0.00289065,0.216647,20.7868,-319.675,0.695325,0.0,0.0
2646,661.25,32.62,34.7668,150.163,97.8711,90.4517,0.00272537,0.202934,20.8077,-320.146,0.699747,0.0,0.0
2695,673.5,32.3359,34.1553,153.155,97.9355,90.7921,0.00279008,0.19383,20.8227,-320.596,0.672239,0.0,0.0
2744,685.75,31.6141,33.7789,153.445,98.0824,90.0013,0.00285417,0.184763,20.8362,-321.006,0.763193,0.0,0.0
2793,698,31.162,33.3927,150.229,98.2824,92.1082,0.00254417,0.177408,20.8504,-321.397,0.575884,0.0,0.0
2842,710.25,32.078,33.9863,154.872,98.5186,92.5858,0.00290079,0.174886,20.8534,-321.767,0.551294,0.0,0.0
2891,722.5,30.2175,32.321,159.219,98.8084,92.8962,0.00287282,0.173359,20.8503,-322.087,0.547655,0.0,0.0
2940,734.75,30.1084,32.2063,154.284,99.0833,92.7229,0.00296948,0.168698,20.8604,-322.458,0.588887,0.0,0.0
2989,747,29.5883,31.4615,157.668,99.3642,94.1369,0.00290219,0.166731,20.868,-322.808,0.479673,0.0,0.0
3038,759.25,29.173,31.025,151.43,99.5606,93.6458,0.00273261,0.160603,20.8829,-323.088,0.543628,0.0,0.0
3087,771.5,29.1144,31.0625,149.734,99.7316,93.962,0.00271549,0.157853,20.8826,-323.378,0.528947,0.0,0.0
3136,783.75,28.2949,29.995,154.34,99.8809,93.5334,0.00299308,0.152744,20.8902,-323.649,0.5828,0.0,0.0
3185,796,28.1359,29.7416,154.843,99.9461,94.642,0.00294251,0.154503,20.8856,-323.919,0.484006,0.0,0.0
3234,808.25,27.9548,29.4675,155.657,99.9606,94.7944,0.00270709,0.153001,20.8853,-324.179,0.471019,0.0,0.0
3283,820.5,27.5215,28.932,156.24,99.8853,95.1533,0.00270452,0.153817,20.8777,-324.419,0.430785,0.0,0.0
3332,832.75,27.2103,28.6473,155.843,99.8334,95.2398,0.00292128,0.146358,20.8871,-324.67,0.418109,0.0,0.0
3381,845,26.875,28.1464,154.946,99.7743,94.5708,0.00295152,0.143002,20.8918,-324.86,0.475413,0.0,0.0
3430,857.25,26.2491,27.6779,158.215,99.7002,94.8129,0.00273562,0.137781,20.9006,-325.04,0.446133,0.0,0.0
3479,869.5,26.1753,27.6152,155.917,99.629,94.7581,0.00280653,0.130511,20.913,-325.2,0.444916,0.0,0.0
3528,881.75,25.797,27.0685,157.032,99.5469,95.2674,0.0028405,0.125199,20.925,-325.34,0.390027,0.0,0.0
3577,894,25.9014,26.9739,155.026,99.4877,94.9088,0.00262789,0.121028,20.9326,-325.51,0.41822,0.0,0.0
3626,906.25,25.2791,26.684,156.393,99.4004,95.3621,0.00286902,0.120723,20.9338,-325.661,0.368138,0.0,0.0
3675,918.5,24.9127,26.0103,154.489,99.3795,95.2834,0.00281209,0.113285,20.9454,-325.801,0.37359,0.0,0.0
3724,930.75,24.7208,25.8141,156.199,99.4664,95.1146,0.00248035,0.110249,20.9471,-325.921,0.397088,0.0,0.0
3773,943,24.4317,25.5056,166.075,99.6185,95.7568,0.00321532,0.117113,20.9422,-326.011,0.350925,0.0,0.0
3822,955.25,24.221,25.1954,156.25,99.7795,95.8099,0.00295855,0.106476,20.955,-326.131,0.360335,0.0,0.0
3871,967.5,23.8636,24.9559,158.801,99.926,95.5592,0.00267077,0.102685,20.9601,-326.241,0.396613,0.0,0.0
3920,979.75,23.8834,24.9095,156.617,99.7899,95.034,0.00315631,0.0994396,20.9681,-326.301,0.433448,0.0,0.0
3969,992,24.4014,24.9317,159.236,99.1122,95.3308,0.00336374,0.0955133,20.9702,-326.421,0.345282,0.0,0.0
4018,1004.25,23.2995,24.1901,157.653,98.1158,94.018,0.00287046,0.0935889,20.9733,-326.471,0.378673,0.0,0.0
4067,1016.5,23.0776,23.9956,158.239,97.9129,93.6133,0.00316199,0.0939241,20.9785,-326.571,0.398592,0.0,0.0
4116,1028.75,22.8539,24.1199,158.783,98.818,94.437,0.00302449,0.0917913,20.9789,-326.651,0.402503,0.0,0.0
4165,1041,22.9325,23.7463,157.914,99.334,95.4823,0.00291192,0.092826,20.9772,-326.701,0.351025,0.0,0.0
4214,1053.25,21.1836,22.4549,157.334,99.1839,95.1813,0.00271703,0.0916697,20.9824,-326.751,0.36562,0.0,0.0
4263,1065.5,21.6537,22.5922,153.158,99.4434,95.4538,0.0031641,0.0869967,20.989,-326.812,0.363442,0.0,0.0
4312,1077.75,21.7463,22.544,158.834,99.9485,96.0327,0.0030116,0.0834306,20.9938,-326.902,0.35475,0.0,0.0
4361,1090,20.8435,21.8811,159.297,98.7182,94.202,0.00303575,0.0836143,20.9925,-326.972,0.415654,0.0,0.0
4410,1102.25,20.7655,21.6499,163.121,98.086,93.7072,0.00334215,0.0830066,20.9948,-327.002,0.40537,0.0,0.0
4459,1114.5,21.1401,22.0942,159.429,99.2792,94.9648,0.00314425,0.0829329,20.9944,-327.022,0.394367,0.0,0.0
4508,1126.75,20.8606,22.1903,158.913,99.3903,94.5964,0.00322196,0.0834471,20.9942,-327.112,0.438796,0.0,0.0
4557,1139,20.8608,21.6589,154.903,99.3835,95.0426,0.0031446,0.083244,20.9943,-327.162,0.396412,0.0,0.0
4606,1151.25,20.5479,21.8704,155.277,99.6088,94.5766,0.00297044,0.0845625,20.991,-327.232,0.460145,0.0,0.0
4655,1163.5,20.8346,21.8056,160.529,97.9101,92.8776,,,,-327.292,0.468363,0.0,0.0
4659,1164.5,21.3463,21.5977,159.584,97.9528,93.1815,,,,-327.302,0.443243,0.0,0.0