File: 01_Data/Wool_Rug/Cone/Wool_Rug_Cone_HF75Scalar_220324_R3.csv
LABORATORY,FSRI
TEST IDENT,WoolRug_HF75_3
OPERATOR,Dow
MATERIAL,Wool Rug
ORIENTATION,Horizontal
HEAT FLUX,75
SURF AREA,0.01
C FACTOR,0.0392277
SPEC HOLDER DIFF,-566
SPECIMEN MASS,38.05
SCAN TIME,0.25
O2 DELAY TIME,11
CO DELAY TIME,11
CO2 DELAY TIME,8
FLOW FACTOR,1
SCAN COUNT,1828
TIME TO IGN,2.25
END OF TEST SCAN,1348
END OF TEST TIME,337
TEST STATUS,1
PRE TEST CMT,Dimensions: 99.65 x 101.60 x 16.50 mm