File: 01_Data/Wool_Rug/Cone/Wool_Rug_Cone_HF50Scalar_220324_R2.csv
LABORATORY,FSRI
TEST IDENT,WoolRug_HF50_2
OPERATOR,Dow
MATERIAL,Wool Rug
ORIENTATION,Horizontal
HEAT FLUX,50
SURF AREA,0.01
C FACTOR,0.0390274
SPEC HOLDER DIFF,-566
SPECIMEN MASS,37.59
SCAN TIME,0.25
O2 DELAY TIME,11
CO DELAY TIME,11
CO2 DELAY TIME,8
FLOW FACTOR,1
SCAN COUNT,1929
TIME TO IGN,4.25
END OF TEST SCAN,1449
END OF TEST TIME,362.25
TEST STATUS,1
PRE TEST CMT,Dimensions: 103.01 x 101.38 x 16.35 mm