File: 01_Data/Wool_Rug/Cone/Wool_Rug_Cone_HF50Scan_220324_R2.csv
Names,Time,Stack TC,Smoke TC,Exh Press,Smoke Comp,Smoke Meas,CO Meter,CO2 Meter,O2 Meter,Sample Mass,Ext Coeff,Start Test,Flame Verif
Chan Gain,,500,500,1,1,1,1,1,1,1,1,1.0,1.0
Offset,,0,0,0.130261,0,0,0,0,0,0,0,0.0,0.0
Gain,,1,1,25.011,13.1874,13.4895,1,1,1,1.00089,1.01187,1.0,1.0
Units,sec,C,C,Pa,%,%,%,%,%,g,/m,,
Baseline,,32.5294,33.4213,151.262,98.5043,92.4935,0.00055504,0.0464906,21.089,-836.201,0.558891,,
20,4.75,31.0881,32.1274,140.406,99.9948,90.6596,0.00226118,0.0772433,21.0582,-302.62,0.869914,0.0,1.0
40,9.75,35.7013,37.003,125.876,100.157,88.8647,0.00588659,0.474158,20.4982,-303.361,1.06179,0.0,0.0
60,14.75,42.1018,43.5954,123.74,100.254,88.6622,0.00732379,0.581537,20.2969,-304.191,1.09063,0.0,0.0
80,19.75,46.2568,48.5815,126.02,100.31,87.3712,0.00687551,0.529172,20.3493,-304.922,1.22574,0.0,0.0
100,24.75,49.9758,52.7217,129.656,100.305,88.0023,0.00642449,0.473907,20.4341,-305.543,1.16147,0.0,0.0
120,29.75,51.9107,54.6888,128.799,100.262,88.3736,0.00607197,0.432904,20.4957,-306.123,1.12028,0.0,0.0
140,34.75,54.7585,57.4425,131.933,100.168,88.7363,0.00532296,0.408873,20.5332,-306.694,1.07559,0.0,0.0
160,39.75,55.0964,58.4835,129.921,100.046,89.2533,0.00474982,0.378303,20.5781,-307.194,1.01317,0.0,0.0
180,44.75,55.7536,59.3647,134.828,99.901,89.271,0.00388638,0.356759,20.6117,-307.725,0.998585,0.0,0.0
200,49.75,56.6804,60.2914,135.417,99.7473,90.1676,0.00369581,0.338705,20.6347,-308.235,0.896211,0.0,0.0
220,54.75,57.3179,61.1837,133.352,99.6282,91.3047,0.00367708,0.319557,20.669,-308.705,0.774376,0.0,0.0
240,59.75,57.6527,61.6679,136.67,99.5131,91.0564,0.00342855,0.308548,20.6876,-309.216,0.788281,0.0,0.0
260,64.75,57.6821,61.7854,133.582,99.6837,91.5607,0.00342707,0.298033,20.7037,-309.686,0.754466,0.0,0.0
280,69.75,57.8274,61.9657,136.043,99.8556,91.8044,0.00305906,0.289864,20.7159,-310.207,0.746161,0.0,0.0
300,74.75,57.992,62.1018,135.937,99.9751,92.0778,0.00320884,0.282998,20.7254,-310.657,0.730389,0.0,0.0
320,79.75,58.6462,62.6731,135.766,100.025,92.4557,0.00319252,0.280621,20.7314,-311.098,0.698427,0.0,0.0
340,84.75,57.4902,62.1993,135.908,100.009,92.7266,0.00284163,0.277966,20.736,-311.498,0.671068,0.0,0.0
360,89.75,58.0823,62.852,141.918,99.9304,92.2799,0.00244693,0.280767,20.7353,-311.978,0.706958,0.0,0.0
380,94.75,58.0713,62.4796,137.514,99.7899,92.5747,0.00230588,0.275232,20.7439,-312.429,0.666168,0.0,0.0
400,99.75,58.4226,62.6437,135.541,99.5585,92.9036,0.00213238,0.276084,20.744,-312.819,0.61408,0.0,0.0
420,104.75,58.1714,62.6692,135.808,99.2225,92.3832,0.00220504,0.270759,20.7503,-313.229,0.633924,0.0,0.0
440,109.75,57.7854,62.0204,134.709,99.1476,92.2667,0.00245048,0.270006,20.7538,-313.66,0.638425,0.0,0.0
460,114.75,58.0564,62.4516,138.797,99.2426,92.1111,0.00246101,0.268117,20.7582,-314.06,0.661906,0.0,0.0
480,119.75,57.9259,62.4198,137.611,99.3465,91.9572,0.00232132,0.266881,20.7597,-314.43,0.686036,0.0,0.0
500,124.75,57.6001,61.9093,137.91,99.4446,92.0877,0.00231009,0.258848,20.7738,-314.841,0.682218,0.0,0.0
520,129.75,57.6062,61.7714,142.392,99.5525,92.261,0.00245181,0.255756,20.7788,-315.191,0.67515,0.0,0.0
540,134.75,57.4069,61.8855,137.499,99.6302,92.0296,0.00280863,0.25221,20.7845,-315.572,0.70436,0.0,0.0
560,139.75,57.1436,61.6462,148.432,99.6664,91.1692,0.00276549,0.250716,20.7875,-315.912,0.790958,0.0,0.0
580,144.75,56.9048,61.1726,137.556,99.6378,92.1873,0.00297995,0.245927,20.7952,-316.282,0.689847,0.0,0.0
600,149.75,56.2346,60.5993,143.405,99.532,90.6666,0.0029586,0.242917,20.8021,-316.552,0.828052,0.0,0.0
620,154.75,55.9982,59.9383,144.1,99.3585,91.3582,0.00296049,0.238827,20.8082,-316.903,0.74512,0.0,0.0
640,159.75,55.8525,60.0973,138.503,99.1597,90.8535,0.00278414,0.238335,20.8108,-317.203,0.776513,0.0,0.0
660,164.75,55.6685,59.8107,138.107,98.9259,90.4241,0.00277458,0.238917,20.8102,-317.553,0.797605,0.0,0.0
680,169.75,55.2393,59.5001,143.94,98.7074,89.5106,0.00301474,0.238875,20.8109,-317.844,0.868101,0.0,0.0
700,174.75,55.3834,59.5057,141.865,98.5283,89.1978,0.0031264,0.239962,20.8105,-318.094,0.883061,0.0,0.0
720,179.75,55.0791,59.3006,140.576,98.3999,89.4633,0.00304055,0.239878,20.8111,-318.424,0.845104,0.0,0.0
740,184.75,54.7907,58.9857,136.663,98.3411,88.5506,0.00287125,0.241887,20.8078,-318.734,0.930818,0.0,0.0
760,189.75,54.7472,58.5985,144.359,98.3926,88.5025,0.00277778,0.243414,20.8066,-319.035,0.940295,0.0,0.0
780,194.75,54.8117,58.476,134.138,98.5512,88.502,0.00271881,0.246933,20.8036,-319.315,0.95463,0.0,0.0
800,199.75,53.8206,57.7885,141.91,98.7641,88.2559,0.00293563,0.248029,20.8026,-319.605,0.998507,0.0,0.0
820,204.75,54.4554,58.6825,141.257,99.0466,88.6918,0.0029774,0.24664,20.8032,-319.895,0.980124,0.0,0.0
840,209.75,54.1066,57.862,141.583,99.3396,89.5436,0.00304133,0.248143,20.801,-320.226,0.921508,0.0,0.0
860,214.75,54.3848,57.8144,139.881,99.6306,89.7296,0.00287486,0.248866,20.8004,-320.496,0.929042,0.0,0.0
880,219.75,53.9879,57.6945,139.017,99.8934,89.4802,0.00280194,0.249697,20.8015,-320.746,0.977137,0.0,0.0
900,224.75,54.1762,58.0257,137.098,100.118,89.7877,0.00308931,0.25031,20.8006,-321.076,0.966652,0.0,0.0
920,229.75,54.1653,58.0354,145.373,100.253,89.9231,0.00297144,0.249108,20.8031,-321.347,0.965217,0.0,0.0
940,234.75,53.7501,57.3163,142.564,100.316,89.2904,0.00293239,0.246192,20.8076,-321.617,1.03341,0.0,0.0
960,239.75,54.0434,57.6944,140.774,100.307,89.4695,0.00321066,0.243939,20.8132,-321.927,1.01485,0.0,0.0
980,244.75,53.8674,57.4348,146.391,100.244,88.6218,0.00352594,0.24016,20.8197,-322.177,1.09375,0.0,0.0
1000,249.75,53.4556,57.1416,138.201,100.123,89.2653,0.00329641,0.237105,20.8249,-322.428,1.01887,0.0,0.0
1020,254.75,53.1414,56.6479,143.546,99.9787,89.3155,0.00322822,0.231463,20.833,-322.658,1.00106,0.0,0.0
1040,259.75,53.1804,56.6519,143,99.8306,89.215,0.0032596,0.227415,20.838,-322.928,0.997894,0.0,0.0
1060,264.75,53.2402,56.6439,140.497,99.6592,88.0669,0.00328113,0.224872,20.843,-323.178,1.09761,0.0,0.0
1080,269.75,52.4204,55.7932,142.446,99.5215,88.7478,0.00323757,0.224868,20.8438,-323.409,1.01698,0.0,0.0
1100,274.75,52.5686,55.9927,137.591,99.6684,88.4407,0.00347604,0.226629,20.8419,-323.639,1.06084,0.0,0.0
1120,279.75,52.3604,55.281,143.223,99.8938,88.3119,0.0031682,0.230779,20.8397,-323.919,1.09383,0.0,0.0
1140,284.75,52.3887,55.9149,143.802,100.015,88.8186,0.00302903,0.228143,20.8435,-324.109,1.05376,0.0,0.0
1160,289.75,51.9741,54.9174,140.993,100.041,88.4946,0.00313603,0.217728,20.8567,-324.289,1.08855,0.0,0.0
1180,294.75,51.6342,54.5073,145.953,99.9735,90.0487,0.00316377,0.203906,20.8748,-324.459,0.928034,0.0,0.0
1200,299.75,51.0349,54.1627,144.789,99.7928,91.4343,0.00319143,0.188564,20.8948,-324.62,0.776433,0.0,0.0
1220,304.75,50.8965,53.7739,143.498,99.5437,92.3664,0.00329621,0.172256,20.9181,-324.76,0.664229,0.0,0.0
1240,309.75,50.0245,52.8753,148.683,99.1895,92.6117,0.00313929,0.154534,20.9426,-324.87,0.609047,0.0,0.0
1260,314.75,48.8099,51.8638,148.203,99.2088,93.074,0.00359708,0.139487,20.9655,-324.96,0.566578,0.0,0.0
1280,319.75,48.3116,51.2897,150.249,99.2704,92.9987,0.00397227,0.12596,20.9852,-325.04,0.579272,0.0,0.0
1300,324.75,47.5503,50.2077,148.096,99.3654,93.0921,0.00424903,0.116711,20.9988,-325.12,0.578846,0.0,0.0
1320,329.75,46.7145,49.3735,146.524,99.4636,93.8183,0.00444151,0.108717,21.0094,-325.18,0.518642,0.0,0.0
1340,334.75,45.3748,47.8231,143.881,99.5477,93.6742,0.00459127,0.105051,21.0157,-325.25,0.539787,0.0,0.0
1360,339.75,44.974,47.4512,146.516,99.6068,93.4363,0.0046303,0.10288,21.0184,-325.3,0.567636,0.0,0.0
1380,344.75,44.9658,47.286,147.576,99.6217,93.9183,0.00473763,0.101603,21.0217,-325.34,0.523287,0.0,0.0
1400,349.75,43.3745,45.7806,145.881,99.596,94.2855,0.00470783,0.0985922,21.0245,-325.42,0.486355,0.0,0.0
1420,354.75,42.14,44.3243,145.905,99.5062,94.2707,0.00511995,0.0984514,21.0255,-325.48,0.479748,0.0,0.0
1440,359.75,42.0391,44.3672,152.312,99.3726,93.4178,0.00516174,0.0969033,21.0272,-325.58,0.548499,0.0,0.0
1460,364.75,41.3869,43.3892,149.357,99.2044,93.1843,0.00543393,0.0955542,21.0296,-325.57,0.555666,0.0,0.0
1480,369.75,41.1333,41.9559,144.785,99.012,93.0382,0.00547017,0.0941849,21.0317,-325.63,0.552369,0.0,0.0
1500,374.75,40.2351,42.0727,149.486,98.8132,93.1325,0.00528621,0.0936416,21.0332,-325.681,0.525539,0.0,0.0
1520,379.75,39.7412,41.8949,148.333,98.612,93.7648,0.00510273,0.0929162,21.0356,-325.721,0.447386,0.0,0.0
1540,384.75,39.2018,41.1728,150.105,98.4655,92.6492,0.00503695,0.0924015,21.0359,-325.771,0.540431,0.0,0.0
1560,389.75,39.464,41.2865,147.152,98.3472,93.3494,0.00494689,0.0918394,21.0374,-325.821,0.462925,0.0,0.0
1580,394.75,38.575,41.024,148.704,98.286,92.4701,0.00457869,0.0909195,21.0382,-325.881,0.541409,0.0,0.0
1600,399.75,39.2328,40.3485,153.187,98.3105,92.0938,0.00484844,0.0921303,21.0335,-325.941,0.579816,0.0,0.0
1620,404.75,38.8019,40.5092,148.884,98.3842,92.7154,0.00472173,0.0911695,21.0341,-325.991,0.526752,0.0,0.0
1640,409.75,38.6867,40.0368,146.729,98.523,92.5561,0.00468229,0.0903751,21.0361,-326.061,0.554534,0.0,0.0
1660,414.75,37.6632,39.6688,150.795,98.6981,93.0711,0.00436664,0.0894412,21.0365,-326.071,0.521042,0.0,0.0
1680,419.75,38.275,39.633,150.26,98.9102,93.8883,0.00474918,0.0893931,21.0368,-326.141,0.462504,0.0,0.0
1700,424.75,37.6442,39.5425,151.843,99.1344,93.307,0.00445218,0.0877662,21.0391,-326.161,0.537721,0.0,0.0
1720,429.75,37.7332,39.4123,151.52,99.3625,93.8171,0.00421142,0.0879918,21.0396,-326.201,0.50974,0.0,0.0
1740,434.75,37.1051,38.5238,149.466,99.5686,94.3843,0.00399243,0.0879824,21.0412,-326.221,0.474619,0.0,0.0
1760,439.75,37.625,38.8557,151.022,99.7803,94.0665,0.00420631,0.0871878,21.0409,-326.311,0.523408,0.0,0.0
1780,444.75,37.4645,38.1793,149.437,99.9513,94.8129,0.00422142,0.0863052,21.0414,-326.321,0.468463,0.0,0.0
1800,449.75,37.1455,38.4199,149.224,100.079,94.1102,0.00438509,0.0863311,21.0421,-326.381,0.545851,0.0,0.0
1820,454.75,37.375,38.6969,149.092,100.176,94.2917,0.00422917,0.0855721,21.0422,-326.421,0.537307,0.0,0.0
1840,459.75,37.2409,38.0122,145.002,100.246,95.3625,0.00408723,0.0853139,21.0427,-326.451,0.443249,0.0,0.0
1860,464.75,37.0986,38.5745,147.892,100.289,94.3436,0.00395736,0.0852092,21.0434,-326.491,0.542405,0.0,0.0
1880,469.75,37.3719,37.9943,151.543,100.285,94.6062,0.00392203,0.0849542,21.044,-326.541,0.517409,0.0,0.0
1900,474.75,36.6692,38.1516,149.223,100.274,94.7581,,,,-326.551,0.502243,0.0,0.0
1920,479.75,37.0145,37.652,149.928,100.243,94.6293,,,,-326.621,0.511505,0.0,0.0
1929,482,36.236,38.0577,147.878,100.24,95.0776,,,,-326.661,0.46934,0.0,0.0