File: 01_Data/Wool_Rug/Cone/Wool_Rug_Cone_HF25Scan_220323_R2.csv
Names,Time,Stack TC,Smoke TC,Exh Press,Smoke Comp,Smoke Meas,CO Meter,CO2 Meter,O2 Meter,Sample Mass,Ext Coeff,Start Test,Flame Verif
Chan Gain,,500,500,1,1,1,1,1,1,1,1,1.0,1.0
Offset,,0,0,0.138078,0,0,0,0,0,0,0,0.0,0.0
Gain,,1,1,25.011,13.1874,13.4895,1,1,1,1.00089,1.01187,1.0,1.0
Units,sec,C,C,Pa,%,%,%,%,%,g,/m,,
Baseline,,18.7901,19.368,159.711,99.1882,94.688,0.000787431,0.0694502,21.0044,-836.305,0.41218,,
54,13.25,17.5451,18.264,157.613,98.0824,92.4845,0.00111768,0.0710972,21.0062,110.018,0.521616,0.0,0.0
108,26.75,18.1012,18.2243,157.713,98.4502,90.1388,0.00179465,0.0749059,21.0016,109.728,0.782869,0.0,0.0
162,40.25,17.8662,18.6123,147.299,98.94,91.6748,0.00203957,0.0926403,20.9457,109.418,0.676947,0.0,1.0
216,53.75,22.3706,23.3011,153.436,99.4096,93.8134,0.00206918,0.180391,20.8576,108.837,0.514296,0.0,0.0
270,67.25,23.5558,23.6662,157.948,99.7811,95.0504,0.00248027,0.113937,20.9533,108.537,0.431122,0.0,0.0
324,80.75,22.9301,24.0434,156.537,99.9566,94.3275,0.00240073,0.100037,20.9687,108.337,0.514482,0.0,0.0
378,94.25,21.9452,23.3738,156.303,99.9719,94.013,0.00197024,0.090092,20.983,108.156,0.545484,0.0,0.0
432,107.75,21.8051,22.8982,157.72,99.8113,94.0591,0.00205019,0.0818914,20.9966,107.996,0.526863,0.0,0.0
486,121.25,21.5724,22.4007,156.698,99.5203,93.454,0.0019246,0.0809784,20.9936,107.786,0.55824,0.0,0.0
540,134.75,21.0319,22.7025,161.446,99.2406,93.6009,0.0023294,0.0887675,20.9812,107.546,0.519311,0.0,0.0
594,148.25,21.2811,22.8697,158.578,99.5408,94.0196,0.00199132,0.100546,20.9657,107.296,0.50651,0.0,0.0
648,161.75,21.9195,22.9853,155.748,99.792,94.5297,0.00202871,0.109806,20.9519,107.035,0.480853,0.0,0.0
702,175.25,22.3351,23.5002,150.393,99.6998,94.6042,0.00180167,0.113848,20.9463,106.695,0.465658,0.0,0.0
756,188.75,23.0285,23.8966,155.451,99.3231,94.2617,0.00168467,0.11411,20.9442,106.305,0.464252,0.0,0.0
810,202.25,22.9582,24.416,156.326,99.0036,93.8298,0.00200389,0.108944,20.9528,105.975,0.476407,0.0,0.0
864,215.75,23.844,24.6814,153.105,99.0998,94.0653,0.00201155,0.105129,20.9608,105.664,0.462779,0.0,0.0
918,229.25,23.2869,24.5765,155.47,99.2277,94.4057,0.00177419,0.100575,20.9681,105.364,0.442168,0.0,0.0
972,242.75,23.1217,24.6155,157.707,99.2796,94.4296,0.00158871,0.100444,20.9682,105.074,0.444565,0.0,0.0
1026,256.25,22.6107,23.7075,157.69,99.2933,94.682,0.00137254,0.0973603,20.9712,104.793,0.4221,0.0,0.0
1080,269.75,22.9309,24.1756,151.148,99.2382,94.5474,0.001374,0.0983582,20.9693,104.503,0.429798,0.0,0.0
1134,283.25,22.6477,24.1482,160.195,99.0519,94.3456,0.00123358,0.0999406,20.9688,104.223,0.432074,0.0,0.0
1188,296.75,22.7322,24.039,155.938,98.8446,93.7833,0.00130745,0.100549,20.9669,103.893,0.466544,0.0,0.0
1242,310.25,22.5269,24.0789,155.549,98.6486,93.8298,0.00135362,0.10018,20.9666,103.622,0.444526,0.0,0.0
1296,323.75,22.5825,23.7655,153.913,98.4965,93.8887,0.00132219,0.104449,20.9631,103.292,0.425261,0.0,0.0
1350,337.25,22.9589,23.9299,156.342,98.3532,93.6882,0.00126948,0.0982724,20.9676,103.032,0.431314,0.0,0.0
1404,350.75,22.6688,23.6065,156.609,98.2083,93.2366,0.00132213,0.0935526,20.9711,102.752,0.461117,0.0,0.0
1458,364.25,22.5633,23.5422,158.564,98.1218,93.3445,0.0013584,0.0903145,20.9795,102.461,0.443031,0.0,0.0
1512,377.75,21.9796,23.3101,157.555,98.0063,92.9406,0.00117089,0.0861997,20.9824,102.241,0.471062,0.0,0.0
1566,391.25,22.2828,23.1016,157.177,97.9262,92.9415,0.00108814,0.0846932,20.983,102.011,0.463727,0.0,0.0
1620,404.75,21.7868,22.7149,161.374,97.9037,93.3078,0.00156509,0.0831035,20.9869,101.831,0.426762,0.0,0.0
1674,418.25,21.9005,22.7938,157.626,97.9025,93.4071,0.00125648,0.082864,20.9872,101.631,0.41722,0.0,0.0
1728,431.75,21.0346,22.0739,153.856,97.9612,93.2432,0.00134057,0.0828314,20.9862,101.451,0.438129,0.0,0.0
1782,445.25,21.2535,21.7747,156.544,98.0775,93.7475,0.00118065,0.0832514,20.9841,101.29,0.400785,0.0,0.0
1836,458.75,21.1323,22.1823,153.919,98.1862,93.9533,0.00148875,0.0836047,20.9828,101.11,0.391147,0.0,0.0
1890,472.25,21.225,22.0234,155.431,98.379,94.0949,0.00128354,0.0839559,20.9836,100.96,0.395188,0.0,0.0
1944,485.75,20.8601,22.351,155.444,98.5923,94.7223,0.00153989,0.0838627,20.9836,100.8,0.355426,0.0,0.0
1998,499.25,21.0787,21.8576,155.805,98.7971,93.8179,0.00135317,0.0847684,20.9838,100.65,0.459007,0.0,0.0
2052,512.75,21.0353,21.8141,159.531,98.9875,94.5202,0.00161529,0.0851295,20.9831,100.5,0.409895,0.0,0.0
2106,526.25,21.0841,22.2703,157.337,99.1883,94.4659,0.00155848,0.0862208,20.9818,100.329,0.43299,0.0,0.0
2160,539.75,20.9237,21.9554,158.137,99.2933,94.6091,0.00135508,0.0875827,20.9814,100.159,0.428933,0.0,0.0
2214,553.25,21.537,22.2596,157.795,99.3939,95.2805,0.00145082,0.0886229,20.9801,100.009,0.375153,0.0,0.0
2268,566.75,21.3959,22.718,157.49,99.5143,95.3122,0.00144602,0.0911555,20.9764,99.8191,0.38294,0.0,0.0
2322,580.25,21.5794,22.5924,155.032,99.6221,95.0508,0.00144157,0.0933465,20.971,99.6789,0.416932,0.0,0.0
2376,593.75,22.2494,22.9594,154.161,99.7163,95.1677,0.00177041,0.0954439,20.9682,99.4487,0.414407,0.0,0.0
2430,607.25,21.8764,22.6137,155.076,99.8157,94.7631,0.00162599,0.098064,20.9622,99.3086,0.461074,0.0,0.0
2484,620.75,21.9448,23.1785,155.708,99.8608,95.7218,0.00169531,0.0999495,20.9604,99.0884,0.375728,0.0,0.0
2538,634.25,22.4345,23.5254,159.12,99.9002,95.1665,0.00181549,0.101008,20.9598,98.8982,0.430879,0.0,0.0
2592,647.75,22.6774,23.6653,158.147,99.9199,95.4431,0.00167847,0.101084,20.958,98.698,0.406867,0.0,0.0
2646,661.25,22.5126,23.4251,155.251,99.9602,95.8359,0.00154405,0.101421,20.9632,98.4879,0.373993,0.0,0.0
2700,674.75,22.393,23.5004,156.779,99.9626,95.6226,0.00150898,0.104313,20.9572,98.3077,0.393979,0.0,0.0
2754,688.25,22.773,23.6337,156.449,99.9614,95.3756,0.00123036,0.100731,20.9621,98.1275,0.416829,0.0,0.0
2808,701.75,22.5715,24.0553,152.808,99.9638,95.6844,0.0014377,0.102755,20.9637,97.8973,0.388356,0.0,0.0
2862,715.25,22.9485,23.8303,155.51,99.9272,95.4147,0.00205471,0.107655,20.9556,97.6972,0.410152,0.0,0.0
2916,728.75,22.9348,23.75,155.998,99.8849,95.232,0.00176754,0.107185,20.9537,97.487,0.423417,0.0,0.0
2970,742.25,23.4602,24.6168,153.669,99.86,95.1167,0.00187253,0.108362,20.9523,97.2868,0.43195,0.0,0.0
3024,755.75,23.6581,24.5287,152.203,99.7883,94.8228,0.00147913,0.110297,20.9511,97.0566,0.453051,0.0,0.0
3078,769.25,23.6022,24.8023,156.063,99.7127,94.712,0.00161895,0.11084,20.948,96.8264,0.456691,0.0,0.0
3132,782.75,23.6469,24.5659,155.352,99.6221,94.712,0.00162095,0.116439,20.9416,96.6062,0.448627,0.0,0.0
3186,796.25,23.9718,24.9525,155.736,99.5098,94.3333,0.00158558,0.113194,20.9463,96.406,0.474182,0.0,0.0
3240,809.75,24.1616,25.18,154.089,99.4221,94.5791,0.00155344,0.113764,20.9466,96.2058,0.443258,0.0,0.0
3294,823.25,23.6647,25.1546,158.617,99.3791,95.2143,0.00157975,0.111701,20.9457,95.9256,0.379999,0.0,0.0
3348,836.75,24.4464,25.2636,153.556,99.3263,95.0035,0.00165959,0.116283,20.9405,95.7354,0.39496,0.0,0.0
3402,850.25,24.7454,25.6392,155.466,99.303,94.7104,0.00178968,0.118887,20.9393,95.275,0.4203,0.0,0.0
3456,863.75,23.8921,25.7545,156.369,99.2736,93.4178,0.00232525,0.128587,20.9308,95.245,0.539651,0.0,0.0
3510,877.25,24.8232,25.8407,154.752,99.2374,93.6796,0.00163605,0.118565,20.9398,94.9847,0.511571,0.0,0.0
3564,890.75,24.6339,25.9881,153.242,99.2189,94.684,0.00180621,0.121831,20.9359,94.7345,0.415248,0.0,0.0
3618,904.25,24.4119,25.8493,159.263,99.2096,94.9467,0.00165244,0.123887,20.931,94.4643,0.389834,0.0,0.0
3672,917.75,24.9058,26.077,152.851,99.2048,94.3493,0.00169092,0.12644,20.9286,94.214,0.445419,0.0,0.0
3726,931.25,25.3955,26.5151,149.328,99.1786,94.6956,0.00169756,0.131338,20.9219,93.9338,0.410568,0.0,0.0
3780,944.75,25.5801,26.5981,155.678,99.2752,93.6487,0.00203082,0.132343,20.9185,93.6435,0.517879,0.0,0.0
3834,958.25,25.806,26.788,152.442,99.3372,93.4412,0.00186639,0.134254,20.9189,93.4033,0.543106,0.0,0.0
3888,971.75,25.7994,27.0755,155.11,99.3529,93.0934,0.00181622,0.130475,20.9233,93.1631,0.577613,0.0,0.0
3942,985.25,24.7009,27.2853,156.226,99.3517,94.0521,0.00139434,0.12446,20.9327,92.9529,0.486558,0.0,0.0
3996,998.75,25.6227,26.6592,155.816,99.3557,93.7998,0.00183874,0.120836,20.9355,92.7327,0.510765,0.0,0.0
4050,1012.25,25.5803,26.7617,157.714,99.3549,94.2217,0.00167266,0.113787,20.9441,92.5325,0.470854,0.0,0.0
4104,1025.75,24.9128,25.7387,160.312,99.4181,94.5346,0.00177351,0.108761,20.9518,92.3424,0.447073,0.0,0.0
4158,1039.25,24.4083,25.5952,158.936,99.5175,94.6844,0.00176488,0.105331,20.9549,92.1822,0.441885,0.0,0.0
4212,1052.75,23.8427,24.7264,156.027,99.5738,94.1349,0.00169138,0.101903,20.9596,92.0421,0.498578,0.0,0.0
4266,1066.25,23.6392,24.6036,156.386,99.6169,95.0076,0.00157725,0.0974762,20.9636,91.892,0.420503,0.0,0.0
4320,1079.75,23.8626,24.8676,156.756,99.6604,95.2143,0.00158508,0.0988075,20.9638,91.7619,0.405089,0.0,0.0
4374,1093.25,22.9645,23.8705,161.192,99.6813,94.6824,0.00128596,0.0906352,20.9762,91.6117,0.456674,0.0,0.0
4428,1106.75,23.3616,24.148,158.565,99.6692,95.4814,0.00141895,0.089863,20.9782,91.5617,0.381006,0.0,0.0
4482,1120.25,22.8234,23.9833,159.221,99.6579,94.5704,0.0011736,0.0857165,20.9827,91.4816,0.465099,0.0,0.0
4536,1133.75,22.3636,22.7693,158.348,99.6443,94.9673,0.00162643,0.083563,20.9872,91.3715,0.426711,0.0,0.0
4590,1147.25,21.7659,23.0239,157.49,99.6579,95.5214,0.00123737,0.0819468,20.9886,91.2914,0.376291,0.0,0.0
4644,1160.75,21.9162,22.885,158.456,99.6837,95.8865,0.00138868,0.081237,20.9883,91.1813,0.344719,0.0,0.0
4698,1174.25,22.0614,22.6806,154.886,99.7264,95.3773,0.00116124,0.0788738,20.9917,91.1213,0.395782,0.0,0.0
4752,1187.75,20.388,21.2257,160.736,99.7529,94.3547,0.00135482,0.0725568,21.0021,91.0512,0.493823,0.0,0.0
4806,1201.25,20.9795,21.0734,156.469,99.7384,95.0599,0.00161468,0.0704995,21.0063,90.9912,0.426442,0.0,0.0
4860,1214.75,20.3759,21.1409,156.61,99.7529,94.7462,0.00138729,0.0698315,21.0065,90.9411,0.45707,0.0,0.0
4914,1228.25,20.5339,21.6202,157.766,99.73,94.3444,0.00129698,0.0701572,21.0046,90.8811,0.49275,0.0,0.0
4968,1241.75,20.3993,20.7631,156.964,99.7167,94.4222,0.00131401,0.0703084,21.0055,90.821,0.484251,0.0,0.0
5022,1255.25,20.1624,20.8551,156.628,99.7103,94.6194,0.000964094,0.0701631,21.0044,90.771,0.465161,0.0,0.0
5076,1268.75,20.524,20.474,156.705,99.6571,94.889,0.0012771,0.0704819,21.0042,90.7209,0.435172,0.0,0.0
5130,1282.25,20.3621,20.7123,157.153,99.5952,94.6853,0.00104893,0.0706861,21.0071,90.6609,0.448732,0.0,0.0
5184,1295.75,20.1222,20.8801,162.018,99.5505,94.9327,,,,90.5908,0.421587,0.0,0.0
5213,1303,20.158,20.9766,158.543,99.5187,94.747,,,,90.5908,0.436127,0.0,0.0