File: 01_Data/Wool_Rug/Cone/Wool_Rug_Cone_HF50Scan_220324_R1.csv
Names,Time,Stack TC,Smoke TC,Exh Press,Smoke Comp,Smoke Meas,CO Meter,CO2 Meter,O2 Meter,Sample Mass,Ext Coeff,Start Test,Flame Verif
Chan Gain,,500,500,1,1,1,1,1,1,1,1,1.0,1.0
Offset,,0,0,0.130261,0,0,0,0,0,0,0,0.0,0.0
Gain,,1,1,25.011,13.1874,13.4895,1,1,1,1.00089,1.01187,1.0,1.0
Units,sec,C,C,Pa,%,%,%,%,%,g,/m,,
Baseline,,31.8009,33.2297,151.492,99.2739,92.7461,0.000745239,0.0441231,21.0942,-836.128,0.603734,,
23,5.5,31.9383,32.7966,129.032,99.0249,90.7127,0.00304925,0.19908,20.8678,-304.742,0.778203,0.0,1.0
46,11.25,38.3966,39.8498,127.699,99.7505,87.5704,0.00605823,0.532487,20.3845,-305.703,1.15592,0.0,0.0
69,17,44.1905,46.3517,134.666,99.8423,87.6075,0.00645075,0.527446,20.3707,-306.553,1.16033,0.0,0.0
92,22.75,48.1797,50.9922,131.559,99.4503,88.2229,0.00632415,0.45453,20.4698,-307.134,1.06327,0.0,0.0
115,28.5,50.8459,53.9428,134.538,99.868,88.8738,0.00615526,0.420905,20.526,-307.835,1.03524,0.0,0.0
138,34.25,52.7367,55.5562,136.387,100.193,88.1974,0.00554613,0.390933,20.5691,-308.425,1.1319,0.0,0.0
161,40,54.6219,58.0126,139.62,100.135,89.3151,0.00496031,0.358222,20.6192,-309.006,1.01499,0.0,0.0
184,45.75,54.653,58.6631,139.167,99.699,89.5757,0.00409315,0.337356,20.6518,-309.546,0.950379,0.0,0.0
207,51.5,56.1982,60.0114,135.679,99.1094,89.6205,0.00409193,0.318465,20.6752,-310.157,0.893288,0.0,0.0
230,57.25,56.0837,60.3647,133.609,98.6176,88.7877,0.00374632,0.298863,20.7073,-310.657,0.932001,0.0,0.0
253,63,56.5473,60.8407,137.14,98.3705,89.255,0.00344841,0.287255,20.7234,-311.218,0.863145,0.0,0.0
276,68.75,56.742,60.9248,136.828,98.4305,90.0606,0.00302877,0.269698,20.7491,-311.708,0.788796,0.0,0.0
299,74.5,56.1866,60.5831,137.121,98.6679,89.9021,0.00286583,0.258072,20.7698,-312.199,0.825816,0.0,0.0
322,80.25,56.8297,60.9565,135.156,98.979,90.7864,0.0030195,0.251568,20.7808,-312.669,0.766882,0.0,0.0
345,86,56.4127,60.9048,136.885,99.3058,90.8597,0.00325165,0.24422,20.7922,-313.099,0.788977,0.0,0.0
368,91.75,56.4197,60.4091,140.929,99.503,91.557,0.00323983,0.238807,20.8026,-313.53,0.73872,0.0,0.0
391,97.5,55.7157,60.0754,142.602,99.6141,91.9036,0.00272259,0.236345,20.8076,-313.94,0.715083,0.0,0.0
414,103.25,55.6664,60.0292,140.795,99.6298,92.4944,0.0026828,0.23618,20.8079,-314.36,0.65961,0.0,0.0
437,109,55.3903,60.0961,135.858,99.5569,92.3948,0.00245528,0.235944,20.809,-314.831,0.662683,0.0,0.0
460,114.75,55.1059,59.836,142.793,99.4459,92.4619,0.00272164,0.23399,20.8112,-315.211,0.646331,0.0,0.0
483,120.5,55.3762,59.3984,138.014,99.3485,92.2145,0.00250595,0.229699,20.8198,-315.632,0.661416,0.0,0.0
506,126.25,54.5754,59.0993,134.906,99.2595,92.5755,0.00254841,0.224882,20.8296,-316.032,0.618783,0.0,0.0
529,132,55.0943,59.2097,138.101,99.1746,92.3351,0.00244425,0.223131,20.8332,-316.382,0.634268,0.0,0.0
552,137.75,54.3239,59.1235,141.158,99.1046,91.8678,0.00230151,0.218353,20.8391,-316.733,0.673027,0.0,0.0
575,143.5,54.9175,58.6507,139.612,99.0659,91.8106,0.00227093,0.2125,20.8479,-317.143,0.675096,0.0,0.0
598,149.25,53.6529,57.3924,136.444,99.1847,91.9139,0.00172367,0.215707,20.8474,-317.463,0.675744,0.0,0.0
621,155,53.4028,57.8072,143.604,99.3839,92.0955,0.0017991,0.213091,20.8511,-317.783,0.676039,0.0,0.0
644,160.75,53.4924,57.6331,141.111,99.5654,92.3338,0.00214858,0.210953,20.8542,-318.154,0.669292,0.0,0.0
667,166.5,53.1063,56.9784,141.444,99.7111,92.0333,0.00241088,0.209814,20.8554,-318.464,0.711206,0.0,0.0
690,172.25,53.2103,56.823,144.526,99.8169,91.6826,0.00217611,0.208485,20.8585,-318.824,0.754514,0.0,0.0
713,178,52.4856,56.9628,144.033,99.8845,91.8761,0.00263288,0.208523,20.8593,-319.125,0.741813,0.0,0.0
736,183.75,52.4182,56.1057,142.53,99.9546,91.6739,0.00243858,0.209423,20.8579,-319.395,0.767582,0.0,0.0
759,189.5,52.5791,56.5731,142.322,99.963,91.7447,0.00262067,0.210995,20.8557,-319.735,0.761479,0.0,0.0
782,195.25,51.5761,55.2555,140.954,99.961,91.3467,0.00284456,0.20981,20.8569,-320.005,0.799898,0.0,0.0
805,201,52.0206,55.4397,143.979,99.9409,91.1165,0.00258881,0.211858,20.8557,-320.306,0.820501,0.0,0.0
828,206.75,52.0375,55.6127,141.833,99.8865,91.0079,0.00226712,0.211398,20.8548,-320.596,0.826266,0.0,0.0
851,212.5,51.747,55.261,141.696,99.8378,91.063,0.00208052,0.213012,20.8541,-320.856,0.816561,0.0,0.0
874,218.25,51.2386,54.9256,142.243,99.7743,90.4546,0.00217308,0.212179,20.8561,-321.146,0.87041,0.0,0.0
897,224,51.371,55.5843,142.134,99.7066,90.6444,0.00241008,0.216231,20.852,-321.417,0.84579,0.0,0.0
920,229.75,51.3483,55.1299,144.147,99.6334,90.4673,0.00247105,0.215838,20.8526,-321.737,0.856618,0.0,0.0
943,235.5,51.0043,54.9502,143.133,99.5674,90.3471,0.00249308,0.216587,20.8527,-322.037,0.862538,0.0,0.0
966,241.25,51.3006,54.7462,138.562,99.4921,90.5645,0.00244757,0.219205,20.8493,-322.338,0.834499,0.0,0.0
989,247,51.159,54.7154,141.311,99.4571,90.2586,0.00266913,0.215977,20.8525,-322.588,0.861401,0.0,0.0
1012,252.75,50.3205,54.7427,141.829,99.4789,90.5752,0.00256878,0.214915,20.8557,-322.888,0.832264,0.0,0.0
1035,258.5,50.6624,54.7478,138.53,99.4833,90.0166,0.0021051,0.21157,20.8618,-323.178,0.887573,0.0,0.0
1058,264.25,51.0767,54.6348,138.777,99.5006,90.1722,0.00195091,0.208396,20.8642,-323.398,0.873786,0.0,0.0
1081,270,50.7632,54.2601,142.375,99.4941,90.1796,0.00230891,0.207069,20.866,-323.699,0.872482,0.0,0.0
1104,275.75,50.7095,54.205,141.219,99.5034,89.539,0.00244114,0.20451,20.8696,-323.919,0.936581,0.0,0.0
1127,281.5,50.5262,53.8687,140.206,99.509,89.1249,0.00231674,0.204583,20.8692,-324.169,0.978232,0.0,0.0
1150,287.25,50.5803,52.8158,144.163,99.4889,89.2179,0.00234991,0.204859,20.8707,-324.439,0.967176,0.0,0.0
1173,293,50.2816,54.2263,146.896,99.4873,89.0833,0.00233248,0.205487,20.8709,-324.66,0.980435,0.0,0.0
1196,298.75,50.0391,53.7469,144.117,99.47,89.3163,0.00260948,0.20445,20.8739,-324.92,0.955705,0.0,0.0
1219,304.5,50.419,53.0388,142.777,99.4503,88.9092,0.00243762,0.20034,20.8795,-325.14,0.994498,0.0,0.0
1242,310.25,49.7471,52.7503,142.778,99.5127,89.3451,0.00285151,0.194616,20.8901,-325.4,0.956648,0.0,0.0
1265,316,49.4922,52.5146,139.709,99.5638,89.6082,0.00261363,0.188973,20.8996,-325.58,0.935111,0.0,0.0
1288,321.75,49.292,52.5515,143.908,99.641,90.5077,0.00263232,0.180305,20.9125,-325.731,0.853342,0.0,0.0
1311,327.5,49.1358,52.4147,142.148,99.7078,90.5419,0.0026113,0.172058,20.9232,-325.911,0.855941,0.0,0.0
1334,333.25,48.2319,51.4153,145.175,99.7827,90.6913,0.00285081,0.16395,20.933,-326.081,0.847965,0.0,0.0
1357,339,47.9401,50.7489,141.822,99.8362,91.4854,0.00329888,0.157714,20.9419,-326.241,0.775344,0.0,0.0
1380,344.75,47.2053,50.4175,146.672,99.8894,92.0609,0.00329031,0.153128,20.9503,-326.351,0.724403,0.0,0.0
1403,350.5,47.4136,49.9823,143.998,99.9364,92.3626,0.0031697,0.145568,20.9599,-326.511,0.69954,0.0,0.0
1426,356.25,45.9898,49.3201,145.734,99.9678,92.8373,0.00355343,0.137866,20.9703,-326.621,0.65683,0.0,0.0
1449,362,45.2685,48.3261,145.499,99.961,92.7212,0.00371928,0.129146,20.9812,-326.731,0.667329,0.0,0.0
1472,367.75,45.0513,48.0612,146.095,99.9051,93.1127,0.00402499,0.12314,20.99,-326.802,0.624961,0.0,0.0
1495,373.5,44.6212,47.2263,148.653,99.8326,92.8567,0.00392587,0.12434,20.9914,-326.902,0.642966,0.0,0.0
1518,379.25,44.2925,46.8612,148.049,99.7159,93.0514,0.00413423,0.118933,20.9974,-326.992,0.613989,0.0,0.0
1541,385,43.147,45.9537,153.026,99.5412,92.6389,0.0044642,0.109974,21.011,-327.032,0.637863,0.0,0.0
1564,390.75,42.7785,45.9449,149.404,99.3034,92.219,0.00489882,0.103953,21.021,-327.122,0.656952,0.0,0.0
1587,396.5,42.9654,44.7475,146.59,99.0607,93.0283,0.00525464,0.101173,21.0233,-327.212,0.557677,0.0,0.0
1610,402.25,42.2204,44.0867,147.618,99.1159,91.9197,0.00514284,0.0990035,21.0274,-327.252,0.669026,0.0,0.0
1633,408,41.5326,43.3123,146.951,99.1831,92.5343,0.00524775,0.0971653,21.0283,-327.332,0.615891,0.0,0.0
1656,413.75,41.3609,43.1438,147.552,99.2684,92.5779,0.00496924,0.0965028,21.0288,-327.362,0.619339,0.0,0.0
1679,419.5,40.9401,42.6969,149.413,99.34,92.2923,0.00506161,0.0950043,21.0312,-327.412,0.653175,0.0,0.0
1702,425.25,40.1423,41.7151,150.872,99.4446,92.8097,0.00472422,0.0947278,21.0316,-327.452,0.612892,0.0,0.0
1725,431,39.2884,41.868,146.955,99.534,92.8731,0.00442303,0.0945217,21.0333,-327.542,0.614803,0.0,0.0
1748,436.75,39.3532,40.9584,150.711,99.6028,92.4236,0.00472553,0.0928729,21.0353,-327.612,0.664006,0.0,0.0
1771,442.5,38.8571,40.7443,150.183,99.6455,93.0238,0.00457531,0.0924361,21.0355,-327.642,0.610349,0.0,0.0
1794,448.25,38.7948,39.6175,151.345,99.6712,93.307,0.0045598,0.0908381,21.0386,-327.682,0.58566,0.0,0.0
1817,454,38.1556,39.7685,147.58,99.6394,92.9814,0.00405453,0.091368,21.0399,-327.732,0.613859,0.0,0.0
1840,459.75,38.3035,39.7211,150.282,99.5803,92.7677,0.00400153,0.0903138,21.0419,-327.822,0.629007,0.0,0.0
1863,465.5,38.256,39.0075,150.434,99.4575,92.7945,0.0042965,0.0901506,21.0404,-327.862,0.615499,0.0,0.0
1886,471.25,37.9346,39.2289,150.647,99.313,92.75,0.00428512,0.0899257,21.0403,-327.893,0.606848,0.0,0.0
1909,477,37.6724,38.9297,150.381,99.1597,92.3001,0.00392174,0.0893887,21.0402,-327.943,0.636299,0.0,0.0
1932,482.75,37.7944,38.9696,148.19,98.9899,92.4487,0.00381945,0.0893959,21.0405,-328.013,0.606803,0.0,0.0
1955,488.5,36.7195,38.3309,151.649,98.8204,92.3001,0.0041285,0.0893391,21.041,-328.043,0.605878,0.0,0.0
1978,494.25,37.1739,38.563,146.217,98.6357,91.8378,0.00384888,0.088807,21.0411,-328.103,0.63384,0.0,0.0
2001,500,37.3618,38.5016,148.007,98.476,91.4895,0.00377847,0.0888513,21.0419,-328.173,0.653174,0.0,0.0
2024,505.75,37.1747,38.2208,149.37,98.3987,91.445,0.00375561,0.0884636,21.0416,-328.213,0.650523,0.0,0.0
2047,511.5,37.0947,38.6793,149.023,98.4116,91.9139,0.00389376,0.0877252,21.0411,-328.233,0.606288,0.0,0.0
2070,517.25,36.7546,38.2128,148.689,98.5238,91.8345,0.00368426,0.0874008,21.0434,-328.313,0.624085,0.0,0.0
2093,523,36.6949,37.7578,151.651,98.7013,92.0765,0.00383247,0.0869811,21.0441,-328.323,0.616694,0.0,0.0
2116,528.75,36.6214,37.9306,146.117,98.9009,92.4507,0.00380986,0.0863847,21.0441,-328.383,0.598628,0.0,0.0
2139,534.5,36.5771,37.4685,150.756,99.1227,92.5874,,,,-328.443,0.605395,0.0,0.0
2162,540.25,36.8215,37.1127,149.976,99.3247,93.1197,,,,-328.473,0.572585,0.0,0.0
2169,542,36.9267,37.7671,151.185,99.402,92.9941,,,,-328.503,0.591463,0.0,0.0