File: 01_Data/Wool_Rug/Cone/Wool_Rug_Cone_HF75Scan_220324_R1.csv
Names,Time,Stack TC,Smoke TC,Exh Press,Smoke Comp,Smoke Meas,CO Meter,CO2 Meter,O2 Meter,Sample Mass,Ext Coeff,Start Test,Flame Verif
Chan Gain,,500,500,1,1,1,1,1,1,1,1,1.0,1.0
Offset,,0,0,0.129198,0,0,0,0,0,0,0,0.0,0.0
Gain,,1,1,25.011,13.1874,13.4895,1,1,1,1.00089,1.01187,1.0,1.0
Units,sec,C,C,Pa,%,%,%,%,%,g,/m,,
Baseline,,44.9962,46.8789,124.889,99.4143,93.2516,0.000787036,0.0733297,20.9818,-836.391,0.568053,,
18,4.25,44.2644,45.9621,97.3691,99.637,84.4039,0.00609635,0.423221,20.5295,-327.262,1.47272,0.0,1.0
36,8.75,52.1851,54.6175,93.2779,99.596,83.8745,0.0114566,0.812947,19.9045,-328.203,1.52491,0.0,0.0
54,13.25,58.794,62.6459,98.3575,99.5437,82.6733,0.0123741,0.827583,19.8643,-329.094,1.64829,0.0,0.0
72,17.75,63.5706,68.0683,103.387,99.4849,82.8108,0.0117331,0.74953,19.9627,-329.814,1.6283,0.0,0.0
90,22.25,66.9655,71.7404,106.439,99.4245,84.7254,0.0108872,0.688395,20.0612,-330.475,1.42002,0.0,0.0
108,26.75,69.9672,75.4093,107.473,99.3255,84.8201,0.0096696,0.62879,20.1438,-331.145,1.40127,0.0,0.0
126,31.25,71.6484,76.7662,106.541,99.2591,84.5299,0.00877932,0.5699,20.2355,-331.756,1.42575,0.0,0.0
144,35.75,73.0888,79.1746,106.06,99.1412,86.2782,0.00777397,0.527828,20.2999,-332.336,1.23349,0.0,0.0
162,40.25,74.3145,80.2247,107.56,99.0257,86.2766,0.007,0.500426,20.3373,-332.897,1.22331,0.0,0.0
180,44.75,75.3873,81.4623,110.044,98.9456,88.2518,0.00665517,0.477345,20.3739,-333.528,1.01522,0.0,0.0
198,49.25,76.338,82.5529,107.041,98.9661,86.3264,0.00635931,0.466692,20.3896,-334.058,1.21285,0.0,0.0
216,53.75,77.1037,83.0022,108.691,99.0003,86.4363,0.00585745,0.453437,20.4106,-334.669,1.20462,0.0,0.0
234,58.25,77.3629,84.1805,110.347,99.0012,88.6943,0.00596687,0.441177,20.4285,-335.169,0.975801,0.0,0.0
252,62.75,77.8015,84.3421,108.949,99.0346,87.7689,0.00567675,0.430887,20.447,-335.72,1.07189,0.0,0.0
270,67.25,77.635,84.7582,110.267,99.0374,87.5688,0.00537563,0.422295,20.4613,-336.2,1.0924,0.0,0.0
288,71.75,78.1781,84.7792,114.401,99.0792,88.1031,0.00497771,0.417029,20.4724,-336.72,1.04216,0.0,0.0
306,76.25,78.1131,84.9505,111.252,99.0901,88.2205,0.00466905,0.409774,20.488,-337.201,1.03132,0.0,0.0
324,80.75,77.6357,84.9688,110.147,99.1074,88.9261,0.00444651,0.399699,20.5042,-337.681,0.962158,0.0,0.0
342,85.25,77.6915,84.8236,111.077,99.1291,89.4542,0.00421286,0.38941,20.5223,-338.092,0.91154,0.0,0.0
360,89.75,77.4898,84.4293,114.566,99.1641,88.4189,0.00413279,0.379417,20.5404,-338.532,1.01801,0.0,0.0
378,94.25,76.9965,84.1777,116.886,99.1959,89.4069,0.00420507,0.371903,20.5517,-338.932,0.922219,0.0,0.0
396,98.75,76.8238,83.7143,111.213,99.2261,89.6428,0.00393839,0.36706,20.5588,-339.333,0.901533,0.0,0.0
414,103.25,76.629,83.9478,113.698,99.2752,89.5613,0.00370931,0.359184,20.5721,-339.773,0.913998,0.0,0.0
432,107.75,76.2747,83.0516,110.269,99.3167,88.8157,0.00347386,0.355035,20.5828,-340.153,0.9919,0.0,0.0
450,112.25,75.7363,83.0866,113.401,99.3593,89.4427,0.00334288,0.349709,20.5922,-340.564,0.933273,0.0,0.0
468,116.75,76.1932,81.9443,114.918,99.3976,89.0047,0.00335834,0.346192,20.5985,-340.904,0.980262,0.0,0.0
486,121.25,75.28,82.1208,112.963,99.433,89.1027,0.00371576,0.343074,20.6039,-341.244,0.973658,0.0,0.0
504,125.75,75.0488,81.8938,110.89,99.476,88.556,0.00396788,0.34096,20.6089,-341.605,1.03213,0.0,0.0
522,130.25,74.6059,81.2189,115.004,99.4889,88.8972,0.00376068,0.336979,20.6138,-341.935,0.999138,0.0,0.0
540,134.75,74.1629,80.7008,115.34,99.5155,89.0339,0.003523,0.33567,20.6179,-342.255,0.987871,0.0,0.0
558,139.25,73.8471,80.4142,117.325,99.5292,87.8059,0.00357588,0.334097,20.6218,-342.596,1.11237,0.0,0.0
576,143.75,73.2503,79.7893,111.478,99.5501,88.6931,0.00367267,0.333441,20.6242,-342.916,1.025,0.0,0.0
594,148.25,73.2626,79.5245,118.174,99.5489,87.5424,0.0038352,0.330076,20.6304,-343.236,1.1408,0.0,0.0
612,152.75,72.7761,79.1376,114.959,99.5602,88.155,0.00359303,0.326135,20.6374,-343.587,1.07991,0.0,0.0
630,157.25,72.8311,78.6968,113.138,99.5521,87.6927,0.00348861,0.319059,20.6494,-343.907,1.12586,0.0,0.0
648,161.75,72.2863,78.655,112.702,99.5457,88.5272,0.00353301,0.313943,20.6579,-344.177,1.04123,0.0,0.0
666,166.25,71.1591,78.3021,112.156,99.5352,88.2328,0.00327855,0.310596,20.6625,-344.457,1.06986,0.0,0.0
684,170.75,71.3216,77.6756,116.356,99.5167,88.6939,0.00342514,0.305384,20.6721,-344.718,1.02194,0.0,0.0
702,175.25,70.7978,77.1885,117.003,99.5143,88.9837,0.00360603,0.300566,20.6791,-344.978,0.992772,0.0,0.0
720,179.75,70.9956,76.8862,115.949,99.4728,88.8725,0.00346872,0.293847,20.6887,-345.218,1.00017,0.0,0.0
738,184.25,70.2671,76.0801,115.223,99.4591,89.2822,0.00330459,0.283239,20.704,-345.408,0.958132,0.0,0.0
756,188.75,69.9605,75.5595,115.299,99.4068,89.6168,0.00303956,0.272997,20.7185,-345.638,0.920251,0.0,0.0
774,193.25,69.3283,75.3117,116.901,99.3714,89.532,0.00307965,0.267928,20.7257,-345.869,0.925491,0.0,0.0
792,197.75,69.3342,74.4745,115.714,99.3231,89.4131,0.00294157,0.262339,20.7353,-346.039,0.932979,0.0,0.0
810,202.25,68.0726,74.5318,117.227,99.2595,89.4481,0.00310329,0.258187,20.742,-346.279,0.923821,0.0,0.0
828,206.75,68.1057,73.9138,116.075,99.2225,89.579,0.00281402,0.255998,20.7463,-346.489,0.907529,0.0,0.0
846,211.25,68.1283,72.6958,114.215,99.1521,89.7403,0.00272733,0.252413,20.7509,-346.669,0.885251,0.0,0.0
864,215.75,67.1484,72.784,116.822,99.115,90.0779,0.00274543,0.246353,20.7603,-346.869,0.84861,0.0,0.0
882,220.25,66.4141,71.8771,117.129,99.0515,90.1891,0.00274507,0.238237,20.7728,-347.02,0.831968,0.0,0.0
900,224.75,66.401,71.5254,119.245,98.9995,91.0671,0.00300845,0.228525,20.7875,-347.16,0.741315,0.0,0.0
918,229.25,66.0388,70.8556,116.735,98.9315,91.0741,0.00343673,0.215887,20.8047,-347.26,0.734532,0.0,0.0
936,233.75,65.5242,69.9908,118.384,98.8816,92.1383,0.00406277,0.204944,20.8187,-347.38,0.626943,0.0,0.0
954,238.25,64.7717,68.856,118.871,98.8555,92.4149,0.00412016,0.193175,20.8355,-347.51,0.597984,0.0,0.0
972,242.75,65.1669,68.5394,119.031,98.812,92.5318,0.00390907,0.18108,20.8511,-347.58,0.582858,0.0,0.0
990,247.25,63.0586,67.1238,117.62,98.7798,92.4771,0.00438773,0.171917,20.8639,-347.65,0.58522,0.0,0.0
1008,251.75,62.4261,66.7608,117.126,98.7343,93.1959,0.00482336,0.164842,20.8733,-347.74,0.512411,0.0,0.0
1026,256.25,61.8123,65.4726,123.202,98.6889,92.7891,0.00495663,0.158275,20.8816,-347.85,0.547143,0.0,0.0
1044,260.75,60.7739,64.1476,119.747,98.6112,93.2148,0.00500275,0.154291,20.8875,-347.88,0.499529,0.0,0.0
1062,265.25,60.0932,64.1213,121.373,98.6019,92.4112,0.00495091,0.150443,20.8924,-347.96,0.575546,0.0,0.0
1080,269.75,59.6225,63.4177,120.455,98.5625,92.4952,0.00492865,0.15063,20.8922,-348.02,0.563933,0.0,0.0
1098,274.25,58.6805,62.4884,120.6,98.5242,92.564,0.0051449,0.151321,20.8924,-348.101,0.553893,0.0,0.0
1116,278.75,57.929,61.9379,119.186,98.4997,92.8064,0.00487591,0.149357,20.8947,-348.091,0.528461,0.0,0.0
1134,283.25,57.5031,61.2808,120.685,98.4405,92.4726,0.00468391,0.147039,20.8982,-348.181,0.555117,0.0,0.0
1152,287.75,57.4731,61.3993,119.412,98.4128,92.797,0.0049558,0.144825,20.9012,-348.241,0.52153,0.0,0.0
1170,292.25,57.2622,60.1272,122.466,98.3854,92.7817,0.00527935,0.141407,20.9055,-348.281,0.520518,0.0,0.0
1188,296.75,56.8052,59.7707,120.586,98.3721,92.7648,0.00553744,0.139401,20.9069,-348.361,0.520935,0.0,0.0
1206,301.25,56.0774,59.1661,123.361,98.3476,92.6134,0.00540806,0.137817,20.9105,-348.371,0.533226,0.0,0.0
1224,305.75,55.2304,58.5919,118.343,98.3262,92.3186,0.00602471,0.135787,20.9118,-348.441,0.559596,0.0,0.0
1242,310.25,54.8743,57.5972,121.454,98.3057,92.65,0.00662182,0.134518,20.9147,-348.511,0.525938,0.0,0.0
1260,314.75,54.03,57.4239,120.325,98.2941,92.452,0.00623274,0.132885,20.9179,-348.571,0.543875,0.0,0.0
1278,319.25,54.6795,57.2486,123.087,98.2836,92.221,0.00627611,0.131465,20.9199,-348.631,0.565129,0.0,0.0
1296,323.75,54.0216,57.2173,121.041,98.2808,92.338,0.00620472,0.129639,20.9211,-348.681,0.55363,0.0,0.0
1314,328.25,54.2831,56.9056,121.381,98.2856,92.4182,0.00614349,0.128916,20.9208,-348.721,0.546352,0.0,0.0
1332,332.75,53.9445,56.4291,117.268,98.2844,92.3659,0.00604594,0.129269,20.9207,-348.771,0.551266,0.0,0.0
1350,337.25,53.5775,56.3247,118.942,98.3021,92.2536,0.00615541,0.129397,20.9207,-348.821,0.563672,0.0,0.0
1368,341.75,53.5434,55.8533,118.388,98.2993,92.1967,0.00626224,0.128166,20.9207,-348.841,0.568885,0.0,0.0
1386,346.25,53.4341,55.3993,117.169,98.3122,92.2581,0.00630305,0.127773,20.9207,-348.901,0.564144,0.0,0.0
1404,350.75,52.9701,55.9112,120.848,98.3279,92.2886,0.00650676,0.128497,20.9206,-348.941,0.562631,0.0,0.0
1422,355.25,52.7893,55.072,120.502,98.3512,92.3161,0.00629724,0.128054,20.9212,-348.971,0.562086,0.0,0.0
1440,359.75,52.7731,55.2578,121.274,98.3794,92.3655,0.00611226,0.126511,20.9239,-349.031,0.559879,0.0,0.0
1458,364.25,52.3488,55.036,123.517,98.4007,92.51,0.00616087,0.126421,20.9225,-349.101,0.547928,0.0,0.0
1476,368.75,52.6639,54.8878,117.756,98.447,92.4594,0.00626395,0.126643,20.9221,-349.121,0.556961,0.0,0.0
1494,373.25,52.3739,54.663,119.737,98.4615,92.7603,0.00642645,0.126588,20.9208,-349.151,0.529425,0.0,0.0
1512,377.75,52.5064,54.163,121.807,98.5226,92.6389,0.00638016,0.126455,20.9211,-349.191,0.546566,0.0,0.0
1530,382.25,52.2355,54.2448,126.838,98.5351,92.2021,0.00613641,0.125987,20.9213,-349.222,0.589639,0.0,0.0
1548,386.75,51.7851,54.4849,124.712,98.5705,92.5388,0.00622568,0.125587,20.9213,-349.262,0.56047,0.0,0.0
1566,391.25,52.2625,54.4737,123.022,98.5911,92.3766,0.00632885,0.125926,20.9213,-349.312,0.57789,0.0,0.0
1584,395.75,51.9155,54.108,120.466,98.6241,92.6331,0.00618007,0.125556,20.9213,-349.382,0.556251,0.0,0.0
1602,400.25,51.8283,54.1182,121.367,98.6285,92.7784,0.00624834,0.125357,20.9213,-349.422,0.542736,0.0,0.0
1620,404.75,51.6243,54.2876,120.692,98.6389,93.1012,0.00600558,0.1252,20.922,-349.412,0.512854,0.0,0.0
1638,409.25,51.4152,53.4195,119.292,98.6575,92.6364,0.00592709,0.124318,20.9246,-349.522,0.558943,0.0,0.0
1656,413.75,51.6453,53.785,125.406,98.6671,92.3034,,,,-349.562,0.591779,0.0,0.0
1674,418.25,51.617,53.5857,124.065,98.7009,92.8114,,,,-349.572,0.546103,0.0,0.0
1683,420.5,51.8382,53.5795,123.275,98.7066,93.463,,,,-349.602,0.484505,0.0,0.0