File: 01_Data/Wool_Rug/Cone/Wool_Rug_Cone_HF75Scan_220324_R3.csv
Names,Time,Stack TC,Smoke TC,Exh Press,Smoke Comp,Smoke Meas,CO Meter,CO2 Meter,O2 Meter,Sample Mass,Ext Coeff,Start Test,Flame Verif
Chan Gain,,500,500,1,1,1,1,1,1,1,1,1.0,1.0
Offset,,0,0,0.129198,0,0,0,0,0,0,0,0.0,0.0
Gain,,1,1,25.011,13.1874,13.4895,1,1,1,1.00089,1.01187,1.0,1.0
Units,sec,C,C,Pa,%,%,%,%,%,g,/m,,
Baseline,,46.7387,48.2848,124.359,99.1133,93.436,0.000592563,0.0698857,20.9899,-836.869,0.523618,,
19,4.5,44.9157,46.2689,97.1973,99.0088,86.081,0.00530423,0.394197,20.5686,-298.426,1.24194,0.0,1.0
38,9.25,54.1676,56.1532,95.8975,99.0164,85.1144,0.0101526,0.826929,19.9135,-299.487,1.34286,0.0,0.0
57,14,61.0092,64.5222,105.464,99.0237,84.3916,0.0109376,0.801584,19.884,-300.238,1.41921,0.0,0.0
76,18.75,65.5128,69.7741,100.899,99.049,85.5175,0.0108105,0.71565,20.012,-300.978,1.30385,0.0,0.0
95,23.5,69.1783,73.7688,100.237,99.0692,85.0325,0.010371,0.644217,20.1226,-301.699,1.35613,0.0,0.0
114,28.25,71.3529,76.5264,108.375,99.0889,84.9687,0.0099232,0.592779,20.19,-302.38,1.36456,0.0,0.0
133,33,73.8098,79.3369,109.446,99.0877,86.0205,0.00876755,0.543651,20.2633,-303.02,1.25525,0.0,0.0
152,37.75,74.8866,80.6633,108.227,99.1046,85.848,0.00795315,0.507924,20.3172,-303.611,1.27458,0.0,0.0
171,42.5,75.9111,81.7252,107.428,99.1187,86.566,0.00739697,0.469947,20.374,-304.201,1.20192,0.0,0.0
190,47.25,76.5288,82.4767,109.128,99.1505,87.1419,0.00703204,0.444182,20.41,-304.772,1.14591,0.0,0.0
209,52,76.9027,83.4276,112.977,99.1738,87.647,0.00664476,0.42947,20.4314,-305.322,1.0967,0.0,0.0
228,56.75,77.2913,83.7064,104.978,99.2112,87.6898,0.00602544,0.416126,20.4522,-305.873,1.09571,0.0,0.0
247,61.5,77.4139,83.7191,106.604,99.2293,88.4592,0.00574479,0.404427,20.4729,-306.423,1.01979,0.0,0.0
266,66.25,77.6501,84.3811,109.635,99.2462,89.2892,0.00535602,0.394683,20.4896,-306.914,0.938416,0.0,0.0
285,71,77.6479,84.2968,113.813,99.2813,89.0574,0.00503908,0.39049,20.4978,-307.384,0.964617,0.0,0.0
304,75.75,77.5384,84.2928,112.949,99.3139,89.4789,0.00490109,0.381645,20.51,-307.885,0.925615,0.0,0.0
323,80.5,77.2936,83.8085,111.29,99.3372,90.6588,0.00440512,0.374039,20.5246,-308.305,0.811429,0.0,0.0
342,85.25,77.0267,83.6676,114.93,99.3617,89.7173,0.00410849,0.367157,20.5367,-308.745,0.906282,0.0,0.0
361,90,76.9429,84.0946,117.149,99.3859,90.264,0.00405174,0.359956,20.5489,-309.186,0.854517,0.0,0.0
380,94.75,76.5602,83.487,112.274,99.408,89.9169,0.0037076,0.352883,20.5621,-309.636,0.890685,0.0,0.0
399,99.5,76.5203,83.3634,112.64,99.4269,89.4674,0.00361957,0.347207,20.5722,-310.067,0.936861,0.0,0.0
418,104.25,76.3136,83.017,112.628,99.4595,90.2496,0.00361135,0.341931,20.5821,-310.447,0.862508,0.0,0.0
437,109,75.7243,82.3848,111.026,99.4527,90.478,0.00317228,0.333676,20.5966,-310.837,0.839456,0.0,0.0
456,113.75,75.2112,82.0151,115.192,99.4503,89.8906,0.00288285,0.327067,20.6096,-311.238,0.897058,0.0,0.0
475,118.5,75.2328,81.6127,110.265,99.4607,90.1681,0.00318536,0.324275,20.6144,-311.618,0.870636,0.0,0.0
494,123.25,74.3916,80.7917,117.365,99.4785,89.4036,0.00309495,0.319303,20.6225,-311.928,0.94779,0.0,0.0
513,128,74.1635,80.2144,112.719,99.4877,89.8478,0.00299182,0.315932,20.6289,-312.269,0.904625,0.0,0.0
532,132.75,73.6356,79.9298,114.391,99.5111,89.5584,0.00306418,0.312019,20.6349,-312.619,0.935345,0.0,0.0
551,137.5,73.7687,79.6728,110.762,99.4978,89.206,0.00275772,0.311225,20.639,-312.929,0.969154,0.0,0.0
570,142.25,72.5816,79.1776,117.439,99.4986,89.0364,0.00308977,0.311175,20.6411,-313.239,0.986117,0.0,0.0
589,147,72.4511,78.5059,111.416,99.5094,88.8199,0.00318064,0.307691,20.6447,-313.54,1.0087,0.0,0.0
608,151.75,72.1419,78.2408,115.083,99.5115,88.7976,0.00310313,0.305585,20.6495,-313.86,1.0111,0.0,0.0
627,156.5,71.3339,77.4944,112.919,99.5187,88.5156,0.0028385,0.30321,20.654,-314.13,1.03998,0.0,0.0
646,161.25,71.2387,76.9225,117.036,99.5175,87.6804,0.00291112,0.301499,20.6578,-314.43,1.12403,0.0,0.0
665,166,71.0244,76.849,122.11,99.5054,88.148,0.00290964,0.300375,20.663,-314.711,1.07574,0.0,0.0
684,170.75,70.8486,76.5999,113.352,99.5207,88.8392,0.00263548,0.299521,20.6673,-315.001,1.00777,0.0,0.0
703,175.5,70.6204,75.7148,114.126,99.5332,87.7409,0.0025868,0.297131,20.6717,-315.301,1.1193,0.0,0.0
722,180.25,70.2982,75.7257,113.718,99.528,88.9281,0.00290804,0.297137,20.6743,-315.572,0.999537,0.0,0.0
741,185,69.9511,75.3127,111.754,99.5296,88.6881,0.00287999,0.29471,20.6782,-315.882,1.02367,0.0,0.0
760,189.75,69.6549,75.0737,113.427,99.5231,89.3365,0.00245404,0.292526,20.6816,-316.172,0.958439,0.0,0.0
779,194.5,69.6753,74.9694,115.153,99.5155,88.5938,0.00280488,0.290867,20.6861,-316.402,1.03185,0.0,0.0
798,199.25,69.186,74.5347,117.125,99.5163,88.2777,0.00303693,0.287429,20.6919,-316.703,1.06366,0.0,0.0
817,204,69.0951,74.1886,117.627,99.5332,88.4255,0.00283289,0.284637,20.698,-316.973,1.05032,0.0,0.0
836,208.75,69.0318,73.8775,115.009,99.5203,88.3489,0.00297166,0.277665,20.7091,-317.203,1.05686,0.0,0.0
855,213.5,68.5806,73.7683,115.41,99.5107,88.5926,0.00288292,0.270061,20.7186,-317.413,1.03155,0.0,0.0
874,218.25,68.4185,73.7104,116.649,99.5239,88.53,0.00286282,0.263374,20.7288,-317.653,1.039,0.0,0.0
893,223,68.0453,73.2743,115.875,99.5098,88.9528,0.00285675,0.258434,20.7367,-317.844,0.995458,0.0,0.0
912,227.75,67.6786,72.5104,113.398,99.5259,89.0545,0.00273278,0.252355,20.7462,-318.064,0.986753,0.0,0.0
931,232.5,67.3415,72.282,115.512,99.5276,89.092,0.00265049,0.250524,20.7508,-318.294,0.983163,0.0,0.0
950,237.25,67.2069,71.9217,113.972,99.5119,88.9993,0.00234619,0.247132,20.7569,-318.414,0.990997,0.0,0.0
969,242,66.7042,71.2535,115.038,99.5086,90.2586,0.00253345,0.239069,20.7685,-318.634,0.865998,0.0,0.0
988,246.75,66.4756,70.8712,119.651,99.5054,90.3681,0.00267032,0.227351,20.7867,-318.774,0.854949,0.0,0.0
1007,251.5,65.9878,70.1109,119.361,99.5223,91.7431,0.00226373,0.211935,20.8095,-318.925,0.722422,0.0,0.0
1026,256.25,65.1283,69.6761,118.852,99.5179,92.2029,0.00267125,0.195993,20.8313,-319.035,0.677651,0.0,0.0
1045,261,64.4487,68.5452,121.129,99.5115,92.82,0.00311417,0.181946,20.8508,-319.155,0.617869,0.0,0.0
1064,265.75,63.5955,67.7794,119.673,99.507,92.7965,0.00361997,0.169348,20.8711,-319.235,0.619718,0.0,0.0
1083,270.5,62.657,66.8156,121.538,99.5183,93.3877,0.00433713,0.159197,20.8872,-319.255,0.564358,0.0,0.0
1102,275.25,61.8848,65.6904,119.702,99.5127,93.3395,0.00453395,0.150884,20.8994,-319.365,0.568435,0.0,0.0
1121,280,61.3246,65.2498,120.613,99.538,93.7339,0.00423514,0.145499,20.9066,-319.425,0.533272,0.0,0.0
1140,284.75,60.2622,64.4664,119.341,99.5255,93.4914,0.0042638,0.140167,20.91,-319.515,0.55515,0.0,0.0
1159,289.5,59.8005,63.6735,122.717,99.5078,93.5581,0.00427652,0.137275,20.9154,-319.625,0.547242,0.0,0.0
1178,294.25,59.1926,62.5933,120.328,99.5006,93.8817,0.00461215,0.137025,20.9169,-319.615,0.51595,0.0,0.0
1197,299,58.5871,61.7049,122.764,99.5123,93.3852,0.00449425,0.135253,20.9185,-319.725,0.564055,0.0,0.0
1216,303.75,57.8741,61.1941,116.877,99.5388,94.0472,0.00448595,0.135178,20.9194,-319.755,0.503728,0.0,0.0
1235,308.5,57.3319,60.369,121.435,99.5276,93.4182,0.00466393,0.135221,20.9206,-319.855,0.56229,0.0,0.0
1254,313.25,57.2012,60.1091,122.245,99.5187,93.9513,0.00479225,0.133294,20.9208,-319.885,0.51099,0.0,0.0
1273,318,57.0114,59.7946,123.475,99.5107,93.6927,0.00485564,0.132644,20.9208,-319.955,0.534731,0.0,0.0
1292,322.75,56.5207,59.1691,124.298,99.5119,93.4334,0.00476426,0.131633,20.9208,-320.016,0.559441,0.0,0.0
1311,327.5,56.3033,58.9903,120.014,99.5187,93.9509,0.00515314,0.132027,20.9189,-320.076,0.511029,0.0,0.0
1330,332.25,55.676,58.4578,121.93,99.5292,93.4849,0.00537415,0.131756,20.9183,-320.076,0.556099,0.0,0.0
1349,337,55.2052,57.8389,118.835,99.5247,93.7413,0.0049988,0.131242,20.9182,-320.166,0.531386,0.0,0.0
1368,341.75,54.2806,57.5772,124.108,99.5094,93.2971,0.00530221,0.129722,20.9182,-320.246,0.57218,0.0,0.0
1387,346.5,54.6048,56.974,120.299,99.5082,94.0974,0.00561044,0.129583,20.9164,-320.266,0.496261,0.0,0.0
1406,351.25,54.2634,56.7979,122.478,99.5167,94.372,0.00525269,0.129043,20.9177,-320.316,0.471151,0.0,0.0
1425,356,53.8152,56.4416,121.621,99.5255,93.8961,0.00504813,0.127362,20.9207,-320.356,0.516813,0.0,0.0
1444,360.75,53.7233,56.0582,124.425,99.5163,93.6668,0.00506379,0.126175,20.9211,-320.396,0.53769,0.0,0.0
1463,365.5,52.9163,55.348,121.12,99.5187,93.9752,0.00538501,0.125133,20.9225,-320.496,0.508735,0.0,0.0
1482,370.25,52.9373,55.3056,121.866,99.5046,93.8833,0.00551203,0.125314,20.9243,-320.516,0.516153,0.0,0.0
1501,375,52.6064,54.6478,121.65,99.5066,93.7981,0.00536453,0.123139,20.9284,-320.566,0.524393,0.0,0.0
1520,379.75,53.0861,54.7954,118.906,99.5159,93.6985,0.00533946,0.122907,20.9288,-320.616,0.534651,0.0,0.0
1539,384.5,52.2021,54.7155,123.142,99.5324,93.3469,0.00512707,0.121803,20.9289,-320.646,0.56949,0.0,0.0
1558,389.25,52.5887,54.502,120.413,99.5203,93.7294,0.00469791,0.12106,20.9308,-320.726,0.532121,0.0,0.0
1577,394,52.191,54.4926,118.817,99.5203,94.223,0.00469446,0.119623,20.9332,-320.746,0.485502,0.0,0.0
1596,398.75,52.2729,54.2175,123.03,99.5127,93.7154,0.00484155,0.119797,20.9334,-320.756,0.532765,0.0,0.0
1615,403.5,51.8487,53.9737,120.729,99.5219,93.2523,0.00502659,0.119537,20.9321,-320.856,0.577564,0.0,0.0
1634,408.25,51.7656,53.9585,125.404,99.5227,94.204,0.00496809,0.118646,20.9319,-320.896,0.487502,0.0,0.0
1653,413,51.2839,53.6796,123.299,99.5312,93.6347,0.00497859,0.11914,20.9299,-320.966,0.542062,0.0,0.0
1672,417.75,51.2906,53.7246,120.605,99.53,93.5622,0.00494112,0.120052,20.928,-320.916,0.548825,0.0,0.0
1691,422.5,51.1227,53.1351,122.731,99.5195,94.0694,0.0051598,0.120705,20.9263,-320.996,0.499907,0.0,0.0
1710,427.25,51.7397,52.9045,125.223,99.5203,93.8442,0.00535445,0.119724,20.928,-321.036,0.521251,0.0,0.0
1729,432,51.4395,53.4676,121.666,99.5267,93.9426,0.00527463,0.11891,20.9297,-321.096,0.512525,0.0,0.0
1748,436.75,51.1183,53.2339,124.439,99.5231,93.5433,0.00506446,0.119271,20.9302,-321.106,0.550011,0.0,0.0
1767,441.5,50.7302,52.7474,122.833,99.5058,93.9266,0.00516395,0.119304,20.9308,-321.136,0.512176,0.0,0.0
1786,446.25,51.0635,53.0685,121.84,99.4837,93.6709,,0.119091,,-321.187,0.534392,0.0,0.0
1805,451,51.3084,53.2276,124.726,99.4817,93.5758,,,,-321.227,0.543229,0.0,0.0
1824,455.75,50.7596,52.9746,120.587,99.4917,94.1633,,,,-321.267,0.488578,0.0,0.0
1828,456.75,50.8656,53.467,123.232,99.4595,93.7928,,,,-321.287,0.520699,0.0,0.0