File: 01_Data/Wool_Rug/Cone/Wool_Rug_Cone_HF25Scan_220323_R3.csv
Names,Time,Stack TC,Smoke TC,Exh Press,Smoke Comp,Smoke Meas,CO Meter,CO2 Meter,O2 Meter,Sample Mass,Ext Coeff,Start Test,Flame Verif
Chan Gain,,500,500,1,1,1,1,1,1,1,1,1.0,1.0
Offset,,0,0,0.138078,0,0,0,0,0,0,0,0.0,0.0
Gain,,1,1,25.011,13.1874,13.4895,1,1,1,1.00089,1.01187,1.0,1.0
Units,sec,C,C,Pa,%,%,%,%,%,g,/m,,
Baseline,,18.8143,19.3877,159.664,98.1833,94.8051,0.000829671,0.067466,21.0057,-836.188,0.310811,,
60,14.75,17.8354,18.074,160.432,97.8252,92.3701,0.00127254,0.0702834,21.0057,107.956,0.509303,0.0,0.0
120,29.75,18.6042,19.3319,142.382,97.8574,90.6584,0.00233897,0.145071,20.8665,107.406,0.67825,0.0,1.0
180,44.75,23.1193,23.8227,157.691,97.8888,93.5598,0.0021212,0.162267,20.8859,106.815,0.401478,0.0,0.0
240,59.75,22.3831,23.3001,160.412,97.9512,93.6899,0.00168716,0.0777569,21.0003,106.625,0.394799,0.0,0.0
300,74.75,20.4727,21.7242,160.629,98.0465,93.9566,0.00172874,0.0698474,21.007,106.565,0.378202,0.0,0.0
360,89.75,20.0379,21.4266,155.947,98.2486,93.2988,0.00155637,0.0716356,21.0042,106.405,0.458838,0.0,0.0
420,104.75,20.5562,20.8701,153.358,98.4864,93.2815,0.0017768,0.0767226,20.9973,106.255,0.481945,0.0,0.0
480,119.75,20.1084,20.8091,157.03,98.674,94.7067,0.00192554,0.0919193,20.9758,106.015,0.364244,0.0,0.0
540,134.75,21.1716,21.8352,151.602,98.8748,95.0784,0.00202902,0.119559,20.9326,105.674,0.347519,0.0,0.0
600,149.75,21.7823,22.8981,155.118,98.9762,94.703,0.00204513,0.108283,20.9435,105.334,0.391737,0.0,0.0
660,164.75,21.6474,22.7529,155.815,98.9146,94.3806,0.00205813,0.0920011,20.967,105.064,0.416477,0.0,0.0
720,179.75,21.2978,22.7864,158.727,98.6124,94.3703,0.00218433,0.0924407,20.9656,104.803,0.390281,0.0,0.0
780,194.75,21.3892,22.5191,158.576,98.1697,94.1196,0.00178895,0.0945996,20.959,104.483,0.373956,0.0,0.0
840,209.75,21.4464,22.543,159.094,97.8518,94.6231,0.00196449,0.0956615,20.9615,104.223,0.29781,0.0,0.0
900,224.75,21.3747,21.8928,157.799,98.0139,94.2979,0.00168349,0.0974676,20.9617,103.903,0.343068,0.0,0.0
960,239.75,21.7837,22.5985,155.604,98.779,94.0912,0.00133019,0.0960062,20.9643,103.602,0.431556,0.0,0.0
1020,254.75,21.7599,22.9922,157.46,99.2724,94.5272,0.00153853,0.0958515,20.9651,103.302,0.434751,0.0,0.0
1080,269.75,21.8316,22.9898,153.564,99.0012,94.4572,0.00147019,0.0945401,20.9686,103.002,0.417039,0.0,0.0
1140,284.75,21.3167,22.3905,159.365,99.6628,93.4486,0.00168731,0.0778337,20.995,102.722,0.571446,0.0,0.0
1200,299.75,21.2756,22.1315,161.01,99.8777,93.7845,0.00119324,0.0733168,21.0047,102.421,0.558716,0.0,0.0
1260,314.75,20.7276,21.9491,157.436,98.9392,93.3181,0.00133216,0.0798005,20.9991,102.181,0.51917,0.0,0.0
1320,329.75,20.5216,21.3068,158.039,98.0675,92.1745,0.00156755,0.0765202,21.0023,101.971,0.550068,0.0,0.0
1380,344.75,21.2529,21.0574,155.138,99.2446,94.8252,0.00128931,0.0804956,20.9969,101.711,0.404325,0.0,0.0
1440,359.75,20.8894,21.4456,155.107,99.6539,94.0283,0.00148718,0.0828489,20.995,101.451,0.515773,0.0,0.0
1500,374.75,21.1874,21.7662,158.486,99.7409,94.9356,0.00153348,0.0823536,20.9943,101.23,0.438275,0.0,0.0
1560,389.75,21.0008,21.8524,156.327,98.6518,93.654,0.00132873,0.0818801,20.9971,100.98,0.46146,0.0,0.0
1620,404.75,21.2765,22.146,159.025,98.7303,93.5046,0.00132828,0.0770987,21.0016,100.79,0.482691,0.0,0.0
1680,419.75,21.5274,22.1939,158.746,98.938,93.505,0.00119289,0.0764313,21.0031,100.59,0.501303,0.0,0.0
1740,434.75,21.0713,21.9485,157.35,99.6418,94.1806,0.00144098,0.0751536,21.0049,100.38,0.50033,0.0,0.0
1800,449.75,21.3286,21.8679,154.673,98.2852,92.4079,0.00133944,0.077495,21.0014,100.199,0.547305,0.0,0.0
1860,464.75,21.279,21.9652,156.583,99.1718,93.1975,0.00107341,0.0798054,20.9965,100.069,0.551495,0.0,0.0
1920,479.75,21.4856,22.7699,156.81,99.3026,93.2712,0.00134557,0.0813969,20.995,99.8791,0.556178,0.0,0.0
1980,494.75,21.7,22.7313,157.609,99.4229,93.7302,0.00128373,0.085616,20.991,99.6889,0.523353,0.0,0.0
2040,509.75,22.2426,22.7935,158.662,99.759,93.7166,0.00134325,0.0891724,20.9864,99.4687,0.55459,0.0,0.0
2100,524.75,22.1957,22.9525,153.677,98.3488,92.7068,0.00165282,0.0925304,20.9834,99.2585,0.524385,0.0,0.0
2160,539.75,22.0257,23.1155,153.743,98.1637,92.3058,0.00166942,0.090006,20.9834,99.0283,0.546134,0.0,0.0
2220,554.75,22.7675,23.226,159.15,99.0877,92.925,0.00163089,0.090941,20.9849,98.8482,0.569956,0.0,0.0
2280,569.75,21.9913,23.7105,156.828,99.2,93.0526,0.00170272,0.0926983,20.981,98.638,0.567826,0.0,0.0
2340,584.75,22.9482,23.8029,153.722,98.8776,92.6866,0.00127998,0.0951919,20.974,98.4478,0.573914,0.0,0.0
2400,599.75,22.9637,23.8908,157.861,99.5843,93.4416,0.00156833,0.0972209,20.9688,98.1876,0.565119,0.0,0.0
2460,614.75,23.4127,24.2156,157.908,99.672,93.7475,0.00143155,0.102924,20.9609,98.0074,0.543929,0.0,0.0
2520,629.75,23.1712,24.145,153.527,99.2185,92.841,0.0015799,0.100211,20.9657,97.7572,0.589691,0.0,0.0
2580,644.75,22.8826,24.7123,152.399,99.5207,93.5104,0.00166935,0.0990307,20.969,97.537,0.552922,0.0,0.0
2640,659.75,22.8655,24.0298,155.983,99.8415,93.3371,0.00168134,0.09806,20.9704,97.3168,0.597948,0.0,0.0
2700,674.75,23.7539,24.7892,156.1,100.015,93.8097,0.00187237,0.0971819,20.9736,97.0866,0.568492,0.0,0.0
2760,689.75,23.8331,25.0391,153.152,100.013,93.5647,0.00159199,0.101901,20.9651,96.8664,0.591591,0.0,0.0
2820,704.75,23.7153,24.397,158.444,99.8934,93.4223,0.001486,0.0997991,20.9668,96.6162,0.594463,0.0,0.0
2880,719.75,23.8282,24.0005,156.706,99.693,93.71,0.0020488,0.100144,20.9681,96.386,0.549339,0.0,0.0
2940,734.75,22.4895,24.7466,161.5,99.5272,91.7707,0.00209579,0.110615,20.9496,96.0957,0.720185,0.0,0.0
3000,749.75,23.7149,24.9436,153.715,99.4418,91.9139,0.00174305,0.115036,20.9439,95.8355,0.698728,0.0,0.0
3060,764.75,23.4452,25.0381,155.883,99.4233,93.1176,0.00173235,0.106436,20.962,95.5753,0.581588,0.0,0.0
3120,779.75,23.0518,24.8131,157.38,99.4495,93.1551,0.00179964,0.0943928,20.9771,95.3451,0.580353,0.0,0.0
3180,794.75,23.6932,24.9356,156.212,99.6004,92.4989,0.00177949,0.105905,20.9619,95.0948,0.656558,0.0,0.0
3240,809.75,23.9823,24.7787,157.018,99.7767,92.8427,0.00136844,0.111518,20.9524,94.8446,0.639329,0.0,0.0
3300,824.75,24.6151,25.6829,156.624,99.938,93.9784,0.00173156,0.113456,20.9526,94.5644,0.545748,0.0,0.0
3360,839.75,24.0142,26.0562,153.565,100.036,93.2374,0.00140894,0.112176,20.9529,94.3241,0.624728,0.0,0.0
3420,854.75,24.569,25.6034,154.102,100.03,93.2313,0.00153269,0.11342,20.95,94.0639,0.62478,0.0,0.0
3480,869.75,24.5958,25.6332,154.257,99.9421,93.4717,0.00157975,0.114776,20.9477,93.8037,0.594097,0.0,0.0
3540,884.75,24.7689,26.0763,157.207,99.6974,91.9563,0.00129225,0.114466,20.949,93.5334,0.717415,0.0,0.0
3600,899.75,24.3673,25.9726,158.548,99.3891,92.2626,0.00138676,0.113925,20.9475,93.2832,0.660412,0.0,0.0
3660,914.75,24.9332,25.6504,153.408,99.396,91.9016,0.00144356,0.111456,20.9504,93.033,0.695824,0.0,0.0
3720,929.75,24.2602,26.0846,157.685,99.7465,92.9028,0.0015902,0.109642,20.9571,92.8228,0.630899,0.0,0.0
3780,944.75,24.114,25.1805,161.764,99.5618,93.1572,0.00124213,0.107382,20.959,92.5926,0.590172,0.0,0.0
3840,959.75,24.9602,25.2516,155.423,98.9106,92.4882,0.00111528,0.106123,20.9619,92.3724,0.595898,0.0,0.0
3900,974.75,23.9096,24.9975,156.832,99.0684,92.4981,0.00136948,0.10426,20.964,92.2023,0.609095,0.0,0.0
3960,989.75,24.3027,25.2694,158.538,99.276,93.3906,0.00120045,0.102808,20.9641,92.0021,0.542449,0.0,0.0
4020,1004.75,24.5802,25.4457,153.861,99.3581,93.3618,0.00177253,0.102938,20.9643,91.8119,0.552526,0.0,0.0
4080,1019.75,24.4281,24.978,158.753,99.2466,93.1823,0.00110002,0.101433,20.9662,91.6618,0.559642,0.0,0.0
4140,1034.75,23.9681,25.2974,157.604,98.9879,92.6166,0.00119991,0.105039,20.9601,91.4916,0.590513,0.0,0.0
4200,1049.75,23.6434,24.7693,157.141,98.6603,92.8184,0.00132944,0.0983036,20.9681,91.3415,0.541777,0.0,0.0
4260,1064.75,23.4341,25.2974,155.28,98.2651,92.0008,0.00113337,0.0952649,20.9742,91.2014,0.584681,0.0,0.0
4320,1079.75,23.3664,24.2463,152.62,98.0333,92.4746,0.00140723,0.0929138,20.9783,91.0712,0.51812,0.0,0.0
4380,1094.75,22.8601,24.2483,157.503,98.2458,92.3651,0.00127391,0.0925856,20.9748,90.9111,0.547856,0.0,0.0
4440,1109.75,23.861,24.47,151.647,98.8615,92.9748,0.00135625,0.0946857,20.972,90.791,0.544916,0.0,0.0
4500,1124.75,23.5885,24.2234,156.195,99.5191,94.018,0.000980139,0.095267,20.972,90.6509,0.504728,0.0,0.0
4560,1139.75,22.647,23.9416,158.127,99.9501,94.3728,0.00128054,0.0945962,20.9712,90.5208,0.50965,0.0,0.0
4620,1154.75,23.3806,24.1246,158.294,100.016,94.8149,0.00114624,0.0927129,20.9741,90.3806,0.474021,0.0,0.0
4680,1169.75,23.207,23.9239,157.278,99.7867,93.6705,0.00133975,0.0918685,20.9765,90.2605,0.561428,0.0,0.0
4740,1184.75,23.0421,23.8074,155.002,99.4249,94.3053,0.00105867,0.0897876,20.978,90.1504,0.469238,0.0,0.0
4800,1199.75,22.6575,23.9009,157.064,99.3947,93.822,0.00125219,0.0877999,20.9808,90.0203,0.512149,0.0,0.0
4860,1214.75,22.9625,23.1637,157.412,99.7743,94.0147,0.00108997,0.0860331,20.9798,89.9102,0.527767,0.0,0.0
4920,1229.75,22.368,23.4772,156.979,99.6084,94.0756,0.00118456,0.0837648,20.9854,89.8401,0.507254,0.0,0.0
4980,1244.75,22.4859,23.362,157.229,98.9231,93.799,0.00117011,0.0812412,20.99,89.7601,0.472108,0.0,0.0
5040,1259.75,22.3353,22.7985,157.853,99.0853,93.4392,0.00114762,0.0834036,20.9929,89.66,0.520762,0.0,0.0
5100,1274.75,21.8492,22.4867,159.684,99.2603,93.8294,0.00152724,0.0769909,20.9992,89.5699,0.499436,0.0,0.0
5160,1289.75,21.6175,22.137,153.53,99.3432,94.1834,0.00106392,0.0750121,21.0022,89.5299,0.473419,0.0,0.0
5220,1304.75,21.6392,22.6704,158.776,99.0977,93.6409,0.00101296,0.0758491,20.9991,89.4898,0.502738,0.0,0.0
5280,1319.75,20.8448,21.5551,152.327,98.6514,92.8694,0.00114519,0.0741039,21.002,89.3997,0.536101,0.0,0.0
5340,1334.75,20.6674,21.7157,158.48,98.1661,92.9032,0.00144185,0.0711469,21.0029,89.3597,0.489098,0.0,0.0
5400,1349.75,20.437,21.2568,156.801,98.0131,92.6101,0.00108788,0.0690157,21.0089,89.3097,0.503307,0.0,0.0
5460,1364.75,20.7852,21.5518,158.279,98.3572,92.5253,0.00107511,0.069021,21.007,89.2596,0.542545,0.0,0.0
5520,1379.75,20.6898,20.705,160.332,98.9625,93.6491,0.00123959,0.0682442,21.0082,89.2196,0.489838,0.0,0.0
5580,1394.75,20.0912,21.4334,158.162,99.5754,93.95,0.000864443,0.0680362,21.0105,89.1695,0.516167,0.0,0.0
5640,1409.75,20.6781,21.2828,154.953,99.9284,94.7767,0.000809642,0.0680909,21.0132,89.1395,0.469817,0.0,0.0
5700,1424.75,20.6114,21.3735,157.538,100.055,94.7816,,0.0676078,,89.0895,0.480607,0.0,0.0
5742,1435.25,20.1952,20.4878,156.129,99.992,94.7001,,,,89.0494,0.482638,0.0,0.0