File: 01_Data/Wool_Rug/Cone/Wool_Rug_Cone_HF25Scan_220324_R4.csv
Names,Time,Stack TC,Smoke TC,Exh Press,Smoke Comp,Smoke Meas,CO Meter,CO2 Meter,O2 Meter,Sample Mass,Ext Coeff,Start Test,Flame Verif
Chan Gain,,500,500,1,1,1,1,1,1,1,1,1.0,1.0
Offset,,0,0,0.138078,0,0,0,0,0,0,0,0.0,0.0
Gain,,1,1,25.011,13.1874,13.4895,1,1,1,1.00089,1.01187,1.0,1.0
Units,sec,C,C,Pa,%,%,%,%,%,g,/m,,
Baseline,,18.8479,19.3676,159.733,99.7416,95.5688,0.000501338,0.0656988,21.0132,-836.081,0.379361,,
46,11.25,18.1072,18.6512,157.566,99.3283,94.237,0.000849413,0.074666,21.0018,116.834,0.467045,0.0,0.0
92,22.75,18.1883,19.2883,161.297,99.247,92.0506,0.00164608,0.0738974,20.9995,116.654,0.668136,0.0,0.0
138,34.25,22.0088,21.7816,148.319,99.5191,92.9583,0.00213548,0.270778,20.719,115.863,0.605334,0.0,0.0
184,45.75,24.848,25.218,154.689,99.6539,94.3395,0.00218385,0.169522,20.8651,115.473,0.486443,0.0,0.0
230,57.25,24.8746,25.7715,161.201,99.7811,94.4733,0.00216498,0.12542,20.9314,115.183,0.485184,0.0,0.0
276,68.75,24.1011,25.7367,158.546,99.8149,95.0879,0.00212787,0.104312,20.9623,114.973,0.430631,0.0,0.0
322,80.25,23.8152,24.7838,156.366,99.7751,94.8635,0.00196136,0.0945855,20.9736,114.832,0.448056,0.0,0.0
368,91.75,23.222,24.4708,153.627,99.6656,94.4399,0.00207335,0.0940065,20.9733,114.662,0.478037,0.0,0.0
414,103.25,22.9797,24.2166,160.967,99.5191,94.388,0.002352,0.0962434,20.9696,114.452,0.469858,0.0,0.0
460,114.75,23.0364,23.7593,153.443,99.3662,94.0793,0.00214191,0.101992,20.9608,114.222,0.485289,0.0,0.0
506,126.25,22.784,24.5775,156.408,99.1694,94.02,0.00215515,0.108748,20.9477,113.922,0.473286,0.0,0.0
552,137.75,23.1788,24.1813,154.77,99.0052,94.2411,0.00190777,0.115979,20.9372,113.641,0.437732,0.0,0.0
598,149.25,23.5602,25.0683,156.933,99.0277,94.4626,0.00207518,0.119466,20.9315,113.331,0.418917,0.0,0.0
644,160.75,23.6989,25.2975,156.638,99.0772,93.5503,0.00185504,0.115737,20.9399,113.011,0.509489,0.0,0.0
690,172.25,24.4946,25.0807,156.93,99.1102,94.0764,0.00188848,0.108868,20.951,112.681,0.462667,0.0,0.0
736,183.75,23.8874,25.1521,158.313,99.1678,94.0624,0.00174259,0.105184,20.9558,112.42,0.46914,0.0,0.0
782,195.25,24.2161,24.9368,156.712,99.1666,94.2345,0.00177828,0.10501,20.9547,112.13,0.452809,0.0,0.0
828,206.75,24.0768,24.9924,156.337,99.179,94.4432,0.00157171,0.104358,20.9549,111.82,0.434288,0.0,0.0
874,218.25,23.6532,24.687,158.609,99.2237,94.6725,0.00165455,0.103178,20.9552,111.55,0.416762,0.0,0.0
920,229.75,23.4107,24.2181,156.973,99.2398,94.6206,0.00178959,0.103534,20.9545,111.259,0.423065,0.0,0.0
966,241.25,24.1382,24.4571,158.779,99.2414,93.8117,0.0015918,0.102048,20.9575,110.989,0.499418,0.0,0.0
1012,252.75,23.3199,24.9676,153.974,99.2483,94.2518,0.00140305,0.101148,20.9596,110.719,0.45849,0.0,0.0
1058,264.25,23.6093,24.8986,158.319,99.2599,94.2172,0.00147541,0.101829,20.9606,110.429,0.462791,0.0,0.0
1104,275.75,23.443,24.7263,152.119,99.2583,94.3765,0.00157299,0.102892,20.9598,110.138,0.447651,0.0,0.0
1150,287.25,23.7615,24.5066,156.094,99.2708,93.92,0.00156021,0.0993573,20.9626,109.868,0.491808,0.0,0.0
1196,298.75,23.3476,24.0975,150.949,99.2708,94.3901,0.00147175,0.0955322,20.9661,109.628,0.447489,0.0,0.0
1242,310.25,22.6269,23.5389,156.117,99.2583,94.3942,0.00117455,0.0914445,20.9736,109.358,0.445986,0.0,0.0
1288,321.75,22.7487,23.9647,159.662,99.2627,94.9302,0.00133023,0.0905327,20.9776,109.127,0.396124,0.0,0.0
1334,333.25,22.9945,24.0835,155.96,99.2603,94.6264,0.00160506,0.088187,20.979,108.937,0.42436,0.0,0.0
1380,344.75,22.2625,23.3429,156.263,99.247,95.0936,0.00191416,0.0883848,20.9756,108.757,0.379453,0.0,0.0
1426,356.25,21.8082,22.6697,158.392,99.2491,94.1711,0.00123207,0.0807546,20.9871,108.557,0.466165,0.0,0.0
1472,367.75,21.7688,23.0162,156.973,99.2499,94.1962,0.00123077,0.0764694,20.994,108.427,0.463869,0.0,0.0
1518,379.25,21.2089,21.6905,161.111,99.2555,93.729,0.00131319,0.0737518,20.9993,108.307,0.508511,0.0,0.0
1564,390.75,20.7182,22.1333,158.643,99.2519,94.0818,0.00161046,0.0731119,20.9996,108.177,0.47484,0.0,0.0
1610,402.25,20.735,21.2292,158.154,99.2635,94.3107,0.00143115,0.0718044,21.0049,108.056,0.454316,0.0,0.0
1656,413.75,21.1027,21.6679,159.573,99.2696,94.2077,0.00165465,0.0727664,21.0032,107.966,0.464546,0.0,0.0
1702,425.25,20.6113,21.2556,159.821,99.2865,94.1089,0.00193669,0.0736521,21.002,107.826,0.475372,0.0,0.0
1748,436.75,20.6334,21.3444,160.381,99.2881,95.2118,0.00188773,0.0777753,20.9919,107.696,0.372102,0.0,0.0
1794,448.25,20.4286,21.4534,158.017,99.2893,94.8289,0.00163327,0.0804021,20.9866,107.596,0.407974,0.0,0.0
1840,459.75,20.7815,21.315,159.448,99.2978,94.7688,0.0012821,0.0865629,20.9747,107.436,0.414356,0.0,0.0
1886,471.25,20.8324,21.5507,156.26,99.2841,94.7269,0.00176312,0.0926611,20.9707,107.286,0.417066,0.0,0.0
1932,482.75,20.7993,21.7083,156.766,99.2905,94.3065,0.00157803,0.101874,20.9561,107.126,0.457113,0.0,0.0
1978,494.25,21.4867,22.2001,156.685,99.2897,93.9813,0.00197137,0.103568,20.9546,106.945,0.487704,0.0,0.0
2024,505.75,22.2876,23.4302,155.392,99.239,95.1863,0.00165389,0.10534,20.9557,106.765,0.370091,0.0,0.0
2070,517.25,22.5136,23.4154,155.812,99.2044,94.8042,0.00166233,0.109357,20.9491,106.545,0.402691,0.0,0.0
2116,528.75,22.7455,23.4943,157.943,99.1597,94.0986,0.00182618,0.111796,20.9468,106.355,0.465002,0.0,0.0
2162,540.25,23.1766,24.5133,155.72,99.1062,94.3815,0.00184386,0.111561,20.9444,106.105,0.433572,0.0,0.0
2208,551.75,23.8683,24.1208,150.034,99.0961,93.9723,0.00198548,0.118115,20.9388,105.924,0.471238,0.0,0.0
2254,563.25,23.8554,24.8317,152.795,99.0732,94.3255,0.00199338,0.112662,20.9446,105.724,0.435883,0.0,0.0
2300,574.75,23.6782,24.7679,158.401,99.0386,94.2872,0.00189699,0.115456,20.9367,105.474,0.436385,0.0,0.0
2346,586.25,23.8266,25.6457,153.783,99.0333,94.244,0.0020059,0.120039,20.931,105.234,0.439987,0.0,0.0
2392,597.75,24.4448,25.0914,153.576,99.0366,94.3638,0.00179409,0.118535,20.9353,105.044,0.428999,0.0,0.0
2438,609.25,24.6423,25.7146,156.634,99.0213,94.5679,0.00158772,0.119556,20.9322,104.773,0.408443,0.0,0.0
2484,620.75,24.6589,25.7718,157.333,99.0378,94.2855,0.00214872,0.122996,20.9285,104.573,0.436468,0.0,0.0
2530,632.25,25.1295,26.0517,153.229,99.0341,94.8503,0.00169027,0.126558,20.9215,104.303,0.38313,0.0,0.0
2576,643.75,24.9599,26.5267,156.974,99.0341,94.4374,0.00142688,0.131352,20.9145,104.033,0.421854,0.0,0.0
2622,655.25,25.3628,26.5784,153.383,99.0828,93.6207,0.00192358,0.145707,20.8902,103.703,0.503316,0.0,0.0
2668,666.75,26.4201,27.7405,153.248,99.1328,94.0492,0.00193708,0.160699,20.8709,103.392,0.467249,0.0,0.0
2714,678.25,27.0924,28.4814,152.058,99.1955,92.9423,0.0016741,0.178079,20.8436,102.992,0.577961,0.0,0.0
2760,689.75,28.2144,29.7793,152.813,99.2664,92.7344,0.00190073,0.192401,20.8259,102.541,0.604173,0.0,0.0
2806,701.25,28.8494,30.7543,148.242,99.3102,92.6261,0.00166892,0.201164,20.8132,102.071,0.618464,0.0,0.0
2852,712.75,30.8447,32.3053,151.13,99.2925,92.6562,0.00171952,0.206878,20.8033,101.631,0.614002,0.0,0.0
2898,724.25,31.0337,32.9784,148.447,99.3348,91.287,0.00191449,0.209319,20.7978,101.14,0.749921,0.0,0.0
2944,735.75,31.4528,33.1057,153.187,99.3046,91.6933,0.00211091,0.206078,20.807,100.69,0.707804,0.0,0.0
2990,747.25,31.4582,33.2385,152.342,99.2285,91.3549,0.00241182,0.197585,20.8201,100.239,0.733819,0.0,0.0
3036,758.75,31.7114,33.3937,154.735,99.101,92.0325,0.00243803,0.19384,20.8216,99.8291,0.656808,0.0,0.0
3082,770.25,31.1576,33.3999,155.634,98.9661,92.1646,0.00212641,0.185447,20.8324,99.4687,0.631988,0.0,0.0
3128,781.75,31.1962,32.9592,153.48,98.771,91.1923,0.00198746,0.176333,20.8491,99.1384,0.708607,0.0,0.0
3174,793.25,30.9295,32.6976,152.412,98.6156,91.83,0.00204752,0.164745,20.8713,98.7681,0.632785,0.0,0.0
3220,804.75,29.8853,31.9873,156.42,98.4293,92.7225,0.00182902,0.152554,20.8903,98.4779,0.530147,0.0,0.0
3266,816.25,29.403,31.7139,159.634,98.249,92.8694,0.00157394,0.144103,20.9039,98.2577,0.499816,0.0,0.0
3312,827.75,29.0025,30.6039,153.184,98.0727,93.398,0.00159372,0.135838,20.9108,98.0174,0.433501,0.0,0.0
3358,839.25,28.5643,30.1661,154.839,97.9741,92.9073,0.0019597,0.130452,20.9164,97.8673,0.471331,0.0,0.0
3404,850.75,27.5007,29.3343,155.011,97.9286,93.5322,0.00204262,0.123052,20.9297,97.6871,0.407707,0.0,0.0
3450,862.25,26.789,28.426,155.732,97.9689,92.8089,0.00174584,0.116203,20.9383,97.537,0.480261,0.0,0.0
3496,873.75,26.587,28.1179,160.86,98.0659,94.011,0.00179441,0.109121,20.9444,97.4069,0.374819,0.0,0.0
3542,885.25,26.238,27.5392,157.998,98.2747,93.9978,0.00165195,0.103763,20.9494,97.3368,0.394948,0.0,0.0
3588,896.75,25.6806,26.9145,156.812,98.5234,94.9203,0.00172076,0.0999798,20.9506,97.2067,0.330693,0.0,0.0
3634,908.25,25.0731,26.1191,159.014,98.7162,94.6202,0.00145602,0.0963361,20.9545,97.1266,0.37615,0.0,0.0
3680,919.75,24.9709,25.9674,159.587,98.9665,95.1315,0.00144793,0.0916236,20.9634,97.0966,0.350796,0.0,0.0
3726,931.25,24.1557,24.9352,156.622,99.2434,95.0455,0.00162657,0.087772,20.9723,97.0266,0.383626,0.0,0.0
3772,942.75,23.5064,24.5176,156.804,99.4696,95.7803,0.00167426,0.0872721,20.9765,96.9665,0.335472,0.0,0.0
3818,954.25,22.8049,24.2945,155.012,99.7155,94.8882,0.00160168,0.0821553,20.9839,96.9465,0.440445,0.0,0.0
3864,965.75,23.3138,24.1259,157.454,99.87,95.7552,0.00199754,0.0782951,20.9897,96.8864,0.373461,0.0,0.0
3910,977.25,22.321,23.6192,157.146,99.934,95.8894,0.00180992,0.0777289,20.9911,96.8664,0.366714,0.0,0.0
3956,988.75,22.6198,23.101,162.499,99.9928,95.572,0.00196194,0.0763109,20.9903,96.8364,0.40136,0.0,0.0
4002,1000.25,22.147,22.6253,161.947,100.006,95.4069,0.00192321,0.0752952,20.9906,96.8064,0.417848,0.0,0.0
4048,1011.75,22.0533,22.0533,157.782,99.99,95.6152,0.00177444,0.0763879,20.9908,96.7663,0.397096,0.0,0.0
4094,1023.25,21.4808,21.9897,153.916,100.005,95.9894,0.0023132,0.0773596,20.9874,96.7463,0.363748,0.0,0.0
4140,1034.75,20.9104,21.663,156.712,99.9779,95.8223,0.00197459,0.0774459,20.9904,96.6963,0.376823,0.0,0.0
4186,1046.25,20.9207,21.7553,158.282,99.9586,95.7572,0.00283769,0.0781046,20.9885,96.6762,0.381136,0.0,0.0
4232,1057.75,21.5391,22.3476,155.279,99.9409,96.1055,0.0024146,0.0794992,20.9872,96.6162,0.347339,0.0,0.0
4278,1069.25,20.7944,21.8381,156.06,99.9372,96.0409,0.00280979,0.0807115,20.9846,96.5862,0.352988,0.0,0.0
4324,1080.75,21.4153,21.8924,154.874,99.899,95.6453,0.0030882,0.0826024,20.9822,96.5361,0.38623,0.0,0.0
4370,1092.25,20.8535,21.6428,157.198,99.8845,96.1376,0.00311911,0.0838486,20.9807,96.4761,0.339369,0.0,0.0
4416,1103.75,21.1606,21.656,158.475,99.8708,95.8338,,,,96.426,0.366246,0.0,0.0
4442,1110.25,21.2382,21.6638,156.761,99.8688,96.0915,,,,96.386,0.342231,0.0,0.0