File: 01_Data/Fiberglass_Insulation_R30/Cone/R30_Fiberglass_Insulation_Cone_HF50Scan_220503_R3.csv
Names,Time,Stack TC,Smoke TC,Exh Press,Smoke Comp,Smoke Meas,CO Meter,CO2 Meter,O2 Meter,Sample Mass,Ext Coeff,Start Test,Flame Verif
Chan Gain,,500,500,1,1,1,1,1,1,1,1,1.0,1.0
Offset,,0,0,0.135741,0,0,0,0,0,0,0,0.0,0.0
Gain,,1,1,25.011,14.8585,16.6522,1,1,1,1.00087,1.0138,1.0,1.0
Units,sec,C,C,Pa,%,%,%,%,%,g,/m,,
Baseline,,34.0231,35.1057,139.8,112.25,113.952,0.000510907,0.0489745,21.0109,-1.24766,-0.133759,,
31,7.5,31.988,33.1182,136.528,112.05,113.764,0.0020752,0.0549457,21.0026,502.285,-0.135023,0.0,0.0
62,15.25,32.2486,33.386,136.41,112.071,114.29,0.00263842,0.0561926,21.0001,502.155,-0.174388,0.0,0.0
93,23,33.1628,34.0831,136.958,112.122,114.576,0.00248088,0.0556976,21.0027,502.095,-0.192557,0.0,0.0
124,30.75,33.4404,34.6905,141.773,112.154,113.77,0.00189113,0.0551042,21.0045,502.035,-0.127262,0.0,0.0
155,38.5,33.7732,34.7351,138.413,112.174,114.074,0.00226179,0.0546412,21.0062,501.995,-0.149402,0.0,0.0
186,46.25,34.3358,35.2057,135.601,112.204,114.264,0.00200743,0.0543663,21.0031,501.995,-0.161835,0.0,0.0
217,54,34.1576,35.1357,140.401,112.191,113.913,0.00166004,0.0539245,21.0029,501.965,-0.135505,0.0,0.0
248,61.75,34.4597,35.6862,140.24,112.218,114.137,0.00126818,0.0534251,21.0029,501.965,-0.150827,0.0,0.0
279,69.5,34.7028,35.43,139.438,112.222,114.585,0.00138942,0.0527522,21.0091,501.955,-0.185355,0.0,0.0
310,77.25,35.2076,36.1442,135.506,112.247,114.814,0.00124963,0.0522318,21.0095,501.955,-0.201038,0.0,0.0
341,85,34.7371,35.9618,136.241,112.295,114.279,0.00117157,0.0518668,21.0111,501.955,-0.155725,0.0,0.0
372,92.75,35.0152,36.4328,136.768,112.353,114.392,0.00109795,0.0516548,21.0074,501.915,-0.159976,0.0,0.0
403,100.5,35.0276,36.5666,135.15,112.413,114.627,0.00100323,0.0515291,21.007,501.885,-0.173402,0.0,0.0
434,108.25,34.9539,36.5125,134.036,112.445,115.152,0.000682579,0.0515968,21.007,501.895,-0.211561,0.0,0.0
465,116,35.773,36.6823,136.037,112.454,115.071,0.0010952,0.0511394,21.013,501.905,-0.204606,0.0,0.0
496,123.75,35.5922,36.6768,137.776,112.513,114.932,0.000976583,0.0510066,21.0133,501.885,-0.189174,0.0,0.0
527,131.5,35.4768,36.9373,138.269,112.546,114.361,0.00078475,0.0508056,21.0133,501.885,-0.142294,0.0,0.0
558,139.25,35.6314,37.0693,139.263,112.559,114.545,0.00095175,0.0504716,21.0117,501.895,-0.155509,0.0,0.0
589,147,35.9657,36.8613,139.981,112.581,114.879,0.000914499,0.0502505,21.0138,501.865,-0.179748,0.0,0.0
620,154.75,35.1777,36.3811,137.734,112.599,114.767,0.000900482,0.0499781,21.0139,501.875,-0.169582,0.0,0.0
651,162.5,35.7583,36.7649,137.209,112.608,115.334,0.00113586,0.0498856,21.0141,501.875,-0.212739,0.0,0.0
682,170.25,35.8655,37.3151,136.885,112.658,114.503,0.000704041,0.0495864,21.0149,501.845,-0.144502,0.0,0.0
713,178,35.9638,37.2083,136.097,112.657,115.011,0.000809448,0.0494329,21.0144,501.875,-0.183955,0.0,0.0
744,185.75,35.8651,37.3164,134.779,112.698,114.933,0.000560976,0.0496291,21.0148,501.835,-0.174645,0.0,0.0
775,193.5,35.9298,36.7417,136.946,112.747,114.529,0.000515927,0.0493782,21.0148,501.855,-0.139502,0.0,0.0
806,201.25,35.5513,37.2005,138.704,112.775,115.551,0.000422227,0.0491925,21.0143,501.845,-0.216212,0.0,0.0
837,209,36.0727,36.8426,138.398,112.82,114.935,0.000381834,0.0491168,21.0132,501.825,-0.165218,0.0,0.0
868,216.75,35.4625,37.1567,135.834,112.852,115.009,0.000617667,0.0491962,21.0131,501.845,-0.168384,0.0,0.0
899,224.5,35.3038,37.2063,139.845,112.876,114.786,0.000396316,0.0492602,21.0145,501.825,-0.149184,0.0,0.0
930,232.25,35.5563,37.5587,140.615,112.904,115.243,0.00024329,0.0491832,21.0147,501.835,-0.182333,0.0,0.0
961,240,35.7699,36.9937,137.596,112.938,115.264,0.000645494,0.0491287,21.0151,501.825,-0.181295,0.0,0.0
992,247.75,35.887,36.7468,139.015,112.945,115.219,0.000923294,0.0492919,21.0154,501.815,-0.177272,0.0,0.0
1023,255.5,35.6027,37.3104,139.242,112.962,114.776,0.000796974,0.0490483,21.0142,501.795,-0.141722,0.0,0.0
1054,263.25,35.3197,37.6472,138.405,112.976,114.837,0.000551101,0.0488136,21.0145,501.815,-0.145303,0.0,0.0
1085,271,36.2597,36.9396,133.861,112.967,115.534,0.000786704,0.0488081,21.015,501.815,-0.199772,0.0,0.0
1116,278.75,35.7618,37.2042,139.214,112.996,115.382,0.000601866,0.0488076,21.0154,501.805,-0.185859,0.0,0.0
1147,286.5,35.7281,37.1032,135.809,112.999,115.314,0.000730337,0.0487055,21.0162,501.805,-0.180321,0.0,0.0
1178,294.25,35.9353,37.1395,140.215,112.997,115.284,0.000566657,0.0486405,21.0155,501.795,-0.178226,0.0,0.0
1209,302,35.7386,36.8876,136.851,112.979,114.847,0.000481082,0.0486201,21.0145,501.785,-0.145876,0.0,0.0
1240,309.75,35.9067,37.0091,135.244,112.964,115.456,0.00060959,0.0489244,21.0136,501.795,-0.194035,0.0,0.0
1271,317.5,35.9691,37.6581,138.447,112.952,115.23,0.000395498,0.0490388,21.0111,501.805,-0.177639,0.0,0.0
1302,325.25,36.1989,37.3339,137.904,112.949,115.074,0.000422653,0.0492087,21.0105,501.805,-0.165804,0.0,0.0
1333,333,35.7086,37.6613,133.272,112.949,115.664,0.000319971,0.0492147,21.0108,501.805,-0.211244,0.0,0.0
1364,340.75,35.9059,37.637,136.339,112.974,115.263,0.000380357,0.0490303,21.0108,501.795,-0.178399,0.0,0.0
1395,348.5,36.4246,37.0027,138.559,112.98,114.885,0.000569485,0.0488958,21.0127,501.785,-0.148756,0.0,0.0
1426,356.25,36.1002,37.1816,138.264,113.001,115.725,0.000655327,0.0488761,21.0136,501.785,-0.211827,0.0,0.0
1457,364,35.9048,37.4954,138.212,112.985,115.577,0.000307272,0.0492684,21.0125,501.775,-0.201705,0.0,0.0
1488,371.75,35.8328,37.4518,136.224,112.979,114.675,0.00060096,0.0491443,21.0137,501.765,-0.132487,0.0,0.0
1519,379.5,36.1835,37.5686,134.73,112.969,115.398,0.000814727,0.0491985,21.0138,501.795,-0.189176,0.0,0.0
1550,387.25,36.4634,36.968,140.56,112.994,115.522,0.000386403,0.0490108,21.013,501.775,-0.196803,0.0,0.0
1581,395,35.6504,37.5825,139.187,113.004,115.241,0.000526441,0.0489815,21.0121,501.795,-0.174282,0.0,0.0
1612,402.75,35.8818,37.4962,136.975,113.023,115.632,0.000491646,0.0489125,21.0121,501.775,-0.202929,0.0,0.0
1643,410.5,36.2217,37.2685,137.039,113.031,115.08,0.000490879,0.0486971,21.0132,501.755,-0.159738,0.0,0.0
1674,418.25,36.3466,37.8063,133.78,113.022,116.423,0.000472717,0.0485902,21.0165,501.765,-0.263682,0.0,0.0
1705,426,36.5616,37.3806,135.233,113.007,115.824,0.00044567,0.0485721,21.0154,501.745,-0.218975,0.0,0.0
1736,433.75,36.0769,37.1642,139.282,112.984,114.75,0.000648932,0.0489781,21.0145,501.755,-0.137929,0.0,0.0
1767,441.5,35.9778,37.2988,138.554,112.945,115.834,0.00048309,0.0486655,21.0152,501.765,-0.224606,0.0,0.0
1798,449.25,35.7477,37.7575,137.177,112.843,114.781,0.000556353,0.0488129,21.0157,501.735,-0.151434,0.0,0.0
1829,457,36.297,37.4156,142.294,112.733,114.899,0.000663228,0.0488464,21.014,501.755,-0.16918,0.0,0.0
1860,464.75,36.1979,37.2716,136.707,112.599,114.758,0.000520514,0.0489046,21.0153,501.735,-0.168908,0.0,0.0
1891,472.5,36.0318,37.4067,137.116,112.477,114.044,0.000434614,0.0489949,21.0142,501.755,-0.123044,0.0,0.0
1922,480.25,36.2407,37.705,139.965,112.518,114.663,0.000445747,0.0490882,21.0136,501.735,-0.167958,0.0,0.0
1953,488,36.4983,37.488,139.843,112.549,114.61,0.000217489,0.0491588,21.0134,501.735,-0.161346,0.0,0.0
1984,495.75,36.2294,37.2254,135.174,112.609,114.315,0.000395023,0.049195,21.0134,501.765,-0.133718,0.0,0.0
2015,503.5,35.5773,37.4542,135.963,112.671,115.076,0.000360097,0.0492267,21.013,501.735,-0.187799,0.0,0.0
2046,511.25,35.877,37.1066,138.839,112.707,115.473,0.000470582,0.0491605,21.0128,501.735,-0.215591,0.0,0.0
2077,519,35.9112,37.5045,139.06,112.77,115.266,0.0007769,0.0492809,21.0135,501.735,-0.194672,0.0,0.0
2108,526.75,36.1888,37.6351,139.588,112.822,114.74,0.00070841,0.0494449,21.0137,501.735,-0.149892,0.0,0.0
2139,534.5,36.2638,37.0454,140.437,112.887,114.827,0.000324334,0.0494676,21.0114,501.745,-0.15159,0.0,0.0
2170,542.25,36.248,37.3201,138.696,112.946,115.381,0.000165302,0.0495938,21.0102,501.745,-0.189669,0.0,0.0
2201,550,36.0167,37.056,134.578,113.027,115.194,0.000561717,0.0495549,21.0117,501.735,-0.16893,0.0,0.0
2232,557.75,36.1437,37.3551,135.932,113.128,116.236,0.000668285,0.0496237,21.0121,501.805,-0.240966,0.0,0.0
2263,565.5,35.9614,37.176,139.025,113.19,115.288,0.000374766,0.0496753,21.0118,501.755,-0.163385,0.0,0.0
2294,573.25,36.1445,37.3784,136.525,113.246,115.677,0.000271865,0.0494968,21.0124,501.755,-0.188871,0.0,0.0
2325,581,35.9827,37.3874,138.565,113.302,115.694,0.00024733,0.0495467,21.0126,501.725,-0.185856,0.0,0.0
2356,588.75,36.0111,37.3603,137.256,113.334,115.113,0.00020081,0.0496968,21.0113,501.725,-0.138529,0.0,0.0
2387,596.5,35.7088,36.8452,136.501,113.372,115.209,0.000626194,0.0496639,21.0122,501.725,-0.142958,0.0,0.0
2418,604.25,34.0789,35.3594,136.018,113.415,116.425,0.000365539,0.0499095,21.0104,501.745,-0.232957,0.0,0.0
2449,612,34.4119,35.5409,140.809,113.449,114.942,0.000174385,0.0495924,21.0108,501.715,-0.116295,0.0,0.0
2480,619.75,34.4313,35.4705,138.106,113.478,116.469,0.000281538,0.0498372,21.0116,501.725,-0.231428,0.0,0.0
2511,627.5,34.647,35.5887,136.695,113.461,115.771,0.000284158,0.0499074,21.0119,501.715,-0.179194,0.0,0.0
2542,635.25,34.7502,35.7278,139.798,113.463,115.669,0.000567902,0.0500305,21.0093,501.725,-0.171202,0.0,0.0
2573,643,34.2017,35.1932,136.906,113.419,115.74,0.000487856,0.0501306,21.0088,501.715,-0.180157,0.0,0.0
2604,650.75,33.9574,35.9505,134.237,113.405,116.384,0.000500176,0.0502232,21.0075,501.725,-0.230559,0.0,0.0
2635,658.5,34.4546,35.3546,136.337,113.391,116.391,-8.64495e-05,0.0502118,21.007,501.705,-0.232241,0.0,0.0
2666,666.25,34.1644,35.1482,132.865,113.384,116.082,0.00038775,0.0501074,21.0088,501.715,-0.209171,0.0,0.0
2697,674,33.8744,35.459,133.283,113.351,115.427,0.000372076,0.0500534,21.0121,501.705,-0.161367,0.0,0.0
2728,681.75,34.4368,35.693,134.059,113.324,115.944,0.000462024,0.0500821,21.012,501.705,-0.203236,0.0,0.0
2759,689.5,34.2701,35.3918,139.076,113.312,115.638,0.000532279,0.0499505,21.011,501.705,-0.1807,0.0,0.0
2790,697.25,34.5096,35.0757,133.703,113.278,115.696,0.000284606,0.0500528,21.0111,501.705,-0.187899,0.0,0.0
2821,705,34.6361,35.5884,138.647,113.271,115.737,0.000394042,0.0500556,21.0116,501.705,-0.191482,0.0,0.0
2852,712.75,34.46,35.1759,136.189,113.256,114.849,,,,501.695,-0.124252,0.0,0.0
2883,720.5,34.6421,35.8591,136.433,113.255,115.23,,,,501.715,-0.153787,0.0,0.0