File: 01_Data/Fiberglass_Insulation_R30/Cone/R30_Fiberglass_Insulation_Cone_HF75Scan_220503_R1.csv
Names,Time,Stack TC,Smoke TC,Exh Press,Smoke Comp,Smoke Meas,CO Meter,CO2 Meter,O2 Meter,Sample Mass,Ext Coeff,Start Test,Flame Verif
Chan Gain,,500,500,1,1,1,1,1,1,1,1,1.0,1.0
Offset,,0,0,0.135741,0,0,0,0,0,0,0,0.0,0.0
Gain,,1,1,25.011,14.8585,16.6522,1,1,1,1.00087,1.0138,1.0,1.0
Units,sec,C,C,Pa,%,%,%,%,%,g,/m,,
Baseline,,42.1416,43.7507,134.748,113.441,116.884,0.000746496,0.0485188,21.007,-2.05332,-0.265875,,
82,20.25,41.6636,43.4914,133.198,112.755,116.429,0.00644843,0.0723472,20.9781,498.142,-0.285114,0.0,0.0
164,40.75,42.4662,44.4089,129.535,112.324,115.952,0.00170549,0.0581507,20.9975,498.172,-0.282666,0.0,0.0
246,61.25,42.8714,44.6754,127.405,112.181,116.694,0.000860756,0.0515941,21.0078,498.162,-0.350705,0.0,0.0
328,81.75,43.2542,45.5879,131.012,112.087,116.365,0.000677029,0.0515438,21.008,498.132,-0.333131,0.0,0.0
410,102.25,43.4662,45.497,134.435,111.935,115.921,0.000727576,0.0497812,21.0079,498.072,-0.311183,0.0,0.0
492,122.75,43.7498,45.9701,137.104,111.802,115.408,0.000524231,0.0492818,21.0103,498.102,-0.282282,0.0,0.0
574,143.25,44.1679,46.2496,128.943,111.712,116.031,0.000294438,0.0491491,21.0096,498.062,-0.337381,0.0,0.0
656,163.75,44.4333,46.0203,130.773,111.615,115.358,0.000465297,0.0492669,21.0108,498.042,-0.293276,0.0,0.0
738,184.25,44.9104,46.4388,129.883,111.581,115.169,0.000399075,0.0490884,21.0098,498.042,-0.28144,0.0,0.0
820,204.75,44.8078,46.5161,131.252,111.603,115.162,0.000882836,0.0491429,21.0077,498.032,-0.279159,0.0,0.0
902,225.25,44.7494,46.6539,130.747,111.649,116.055,0.000771784,0.0490925,21.008,497.992,-0.344231,0.0,0.0
984,245.75,44.6509,46.4753,131.946,111.767,115.293,0.000426798,0.0494562,21.0096,497.992,-0.276244,0.0,0.0
1066,266.25,44.9539,47.0302,131.053,111.967,116.208,0.000647174,0.0490885,21.0089,497.982,-0.330626,0.0,0.0
1148,286.75,44.7836,47.0117,128.903,112.172,116.88,0.000793969,0.0488947,21.0087,497.982,-0.365623,0.0,0.0
1230,307.25,45.3838,47.056,131.014,112.405,115.864,0.000720683,0.0485594,21.0092,497.992,-0.269536,0.0,0.0
1312,327.75,45.4852,47.6263,131.138,112.643,117.191,0.000359725,0.0480738,21.0117,498.002,-0.351982,0.0,0.0
1394,348.25,45.6292,47.1395,132.176,112.796,116.915,0.000152942,0.0480158,21.0132,497.972,-0.318929,0.0,0.0
1476,368.75,45.4,46.5646,134.486,112.918,116.491,0.000436565,0.0482198,21.0108,497.952,-0.277018,0.0,0.0
1558,389.25,45.475,47.2423,130.786,112.94,116.789,0.00056657,0.0481203,21.0108,497.952,-0.298011,0.0,0.0
1640,409.75,45.2026,47.3738,130.537,112.951,117.559,0.000112964,0.0481819,21.0123,497.972,-0.355623,0.0,0.0
1722,430.25,45.5105,47.1795,133.927,112.985,117.783,0.0003896,0.0480367,21.013,497.972,-0.369882,0.0,0.0
1804,450.75,45.409,47.2564,133.734,112.934,116.788,0.000460689,0.0481443,21.0126,497.942,-0.298398,0.0,0.0
1886,471.25,45.0901,46.7896,134.257,112.715,117.172,0.000356186,0.04834,21.0104,497.952,-0.344868,0.0,0.0
1968,491.75,45.8291,47.5144,128.388,112.542,117.631,0.000412078,0.0481194,21.0104,497.912,-0.393305,0.0,0.0
2050,512.25,45.9033,47.5483,132.637,112.415,116.749,6.28692e-05,0.0480301,21.0132,497.912,-0.336433,0.0,0.0
2132,532.75,46.0038,47.7971,131.512,112.339,116.509,0.00070606,0.0475948,21.0119,497.932,-0.324096,0.0,0.0
2214,553.25,45.9108,47.5098,130.693,112.262,118.255,0.000379822,0.0476482,21.0117,497.902,-0.462494,0.0,0.0
2296,573.75,45.7429,47.5931,133.976,112.297,117.094,0.000265436,0.047581,21.0152,497.942,-0.372009,0.0,0.0
2378,594.25,46.2773,47.7545,132.931,112.338,116.646,0.000288875,0.047571,21.0134,497.922,-0.334671,0.0,0.0
2460,614.75,45.9513,47.9095,130.742,112.333,116.886,0.000147734,0.047461,21.0148,497.932,-0.353334,0.0,0.0
2542,635.25,44.7828,47.3347,128.971,112.304,116.155,6.61885e-05,0.0473214,21.0141,497.892,-0.299825,0.0,0.0
2624,655.75,45.0668,46.9375,131.225,112.374,116.191,0.000317273,0.0473008,21.0135,497.872,-0.297057,0.0,0.0
2706,676.25,44.9476,46.9712,133.822,112.416,116.773,0.000322332,0.0472303,21.0138,497.902,-0.338144,0.0,0.0
2788,696.75,45.2012,47.0895,131.218,112.588,116.506,0.000596686,0.0472237,21.0125,497.872,-0.304143,0.0,0.0
2870,717.25,45.1675,47.2071,134.448,112.885,116.035,0.00022718,0.0473896,21.0145,497.852,-0.244795,0.0,0.0
2952,737.75,45.4083,46.9032,131.06,113.121,117.308,0.000432131,0.0473209,21.0144,497.892,-0.323198,0.0,0.0
3034,758.25,45.4739,47.2728,132.952,113.133,116.561,0.000707887,0.0473976,21.0152,497.872,-0.265423,0.0,0.0
3116,778.75,44.8804,46.7944,129.298,112.915,116.937,0.000393698,0.0475226,21.0143,497.882,-0.311229,0.0,0.0
3198,799.25,45.2244,47.3869,132.588,112.688,116.094,0.000326375,0.0476459,21.0135,497.892,-0.26483,0.0,0.0
3280,819.75,45.3598,47.1232,133.529,112.847,116.184,0.00033087,0.0478183,21.0152,497.892,-0.259126,0.0,0.0
3362,840.25,45.4559,46.8098,130.403,113.118,117.256,0.000395763,0.0481236,21.0167,497.882,-0.319478,0.0,0.0
3444,860.75,44.7413,47.6241,134.4,113.335,117.028,0.000173105,0.0480355,21.0155,497.892,-0.28521,0.0,0.0
3526,881.25,45.3839,47.2776,135.032,113.488,117.125,0.000416456,0.0484565,21.014,497.872,-0.280526,0.0,0.0
3608,901.75,45.0628,47.1099,131.421,113.603,117.618,0.000394103,0.0485535,21.0139,497.862,-0.308854,0.0,0.0
3690,922.25,45.1583,47.4737,127.182,113.648,117.557,0.000528545,0.0487295,21.0109,497.862,-0.300729,0.0,0.0
3772,942.75,45.2809,47.4939,129.45,113.553,117.091,0.000628836,0.0488032,21.0139,497.852,-0.272899,0.0,0.0
3854,963.25,45.4825,47.7217,130.53,113.276,118.3,0.000442387,0.048669,21.0146,497.852,-0.385899,0.0,0.0
3936,983.75,46.1422,47.6586,131.152,112.852,116.338,0.000735351,0.0485513,21.013,497.882,-0.270587,0.0,0.0
4018,1004.25,46.0773,47.5299,131.944,112.468,117.25,0.000362375,0.0486901,21.0115,497.912,-0.370286,0.0,0.0
4100,1024.75,45.8812,47.7224,130.177,112.192,116.262,0.000564537,0.0484361,21.0123,497.892,-0.316901,0.0,0.0
4182,1045.25,45.9113,47.4531,133.104,111.966,114.624,0.000282619,0.0483551,21.0122,497.882,-0.208645,0.0,0.0
4264,1065.75,45.7721,47.532,130.526,111.78,116.464,0.000522333,0.0483745,21.0117,497.902,-0.365052,0.0,0.0
4346,1086.25,45.9765,47.2854,132.784,111.683,115.583,0.000388184,0.0483389,21.0122,497.872,-0.305237,0.0,0.0
4428,1106.75,44.9794,47.1763,128.337,111.772,115.909,0.000247995,0.0481856,21.0139,497.862,-0.323226,0.0,0.0
4510,1127.25,45.1132,46.8085,129.932,111.921,116.703,0.000132334,0.0482263,21.0123,497.862,-0.372097,0.0,0.0
4592,1147.75,45.1485,46.8705,133.272,112.178,116.203,0.000361287,0.0483452,21.0123,497.872,-0.313505,0.0,0.0
4674,1168.25,45.1694,47.2029,131.91,112.458,116.165,0.000251998,0.0486555,21.013,497.862,-0.288401,0.0,0.0
4756,1188.75,45.2515,47.0358,130.485,112.738,117.146,0.000379722,0.048608,21.0127,497.872,-0.341111,0.0,0.0
4838,1209.25,45.3039,47.4217,131.679,112.921,116.847,0.000449813,0.0484319,21.0133,497.841,-0.303957,0.0,0.0
4920,1229.75,45.6916,47.226,131.179,113.016,117.825,0.000476542,0.0482558,21.0128,497.841,-0.370569,0.0,0.0
5002,1250.25,45.3689,47.0566,131.607,113.065,117.341,0.000481627,0.0480262,21.0154,497.862,-0.330088,0.0,0.0
5084,1270.75,44.7982,47.4449,129.281,113.085,117.114,6.88676e-05,0.0478212,21.014,497.872,-0.311325,0.0,0.0
5166,1291.25,45.9168,47.795,132.24,113.093,117.38,-2.83356e-05,0.0476782,21.0154,497.872,-0.330841,0.0,0.0
5248,1311.75,45.4609,46.9199,131.423,113.067,118.005,0.000350731,0.0475196,21.0142,497.862,-0.380176,0.0,0.0
5330,1332.25,45.1276,47.1878,139.183,113.056,117.099,0.00030584,0.0475283,21.0146,497.862,-0.312485,0.0,0.0
5412,1352.75,45.7514,47.4179,131.083,113.033,116.707,0.000131155,0.0475574,21.0123,497.852,-0.284463,0.0,0.0
5494,1373.25,45.5898,47.4966,134.222,112.917,117.739,0.000475718,0.0474165,21.015,497.862,-0.371899,0.0,0.0
5576,1393.75,45.4714,47.6172,129.761,112.704,115.991,7.56002e-05,0.0477713,21.0146,497.822,-0.255669,0.0,0.0
5658,1414.25,45.2914,47.3975,136.732,112.41,116.858,0.000421698,0.0479987,21.0125,497.862,-0.345145,0.0,0.0
5740,1434.75,45.5553,47.2532,128.748,112.31,116.439,0.000373012,0.0486524,21.0104,497.831,-0.321042,0.0,0.0
5822,1455.25,45.3574,47.4366,131.439,112.569,115.839,0.000368327,0.0484439,21.013,497.872,-0.254682,0.0,0.0
5904,1475.75,45.36,46.748,128.823,112.87,116.207,0.000192639,0.0486063,21.0143,497.841,-0.25913,0.0,0.0
5986,1496.25,45.3972,47.5728,131.365,113.119,117.134,0.000233687,0.0489472,21.0115,497.852,-0.310155,0.0,0.0
6068,1516.75,45.2262,47.4508,127.943,113.213,118.381,0.000514487,0.0483433,21.0145,497.862,-0.396921,0.0,0.0
6150,1537.25,45.9565,47.9548,127.733,113.177,116.888,0.000332936,0.0482337,21.0138,497.841,-0.286936,0.0,0.0
6232,1557.75,45.6173,47.4766,131.115,113.002,118.011,0.000371509,0.0481366,21.0118,497.862,-0.385699,0.0,0.0
6314,1578.25,45.328,47.5645,129.525,112.726,116.834,0.000234657,0.047979,21.0136,497.852,-0.318321,0.0,0.0
6396,1598.75,45.8899,47.5962,131.016,112.889,116.686,0.000361143,0.0479731,21.014,497.852,-0.294224,0.0,0.0
6478,1619.25,45.4453,47.4058,128.034,113.146,117.603,2.0898e-05,0.0481621,21.0173,497.852,-0.343554,0.0,0.0
6560,1639.75,44.9899,47.503,126.314,113.391,117.747,0.000410522,0.0482547,21.0124,497.872,-0.335272,0.0,0.0
6642,1660.25,45.4281,47.5964,129.1,113.606,118.978,0.000589172,0.0483986,21.0162,497.831,-0.410838,0.0,0.0
6724,1680.75,45.6379,47.3446,136.765,113.714,118.049,0.000480728,0.0485721,21.0133,497.852,-0.332724,0.0,0.0
6806,1701.25,45.8797,47.7196,126.943,113.73,117.865,0.000206012,0.0484795,21.011,497.852,-0.317649,0.0,0.0
6888,1721.75,45.7944,47.2681,128.216,113.685,117.299,0.000598875,0.048804,21.0115,497.852,-0.278269,0.0,0.0
6970,1742.25,45.1893,47.2035,133.75,113.623,118.342,0.000241092,0.0481695,21.0108,497.852,-0.36184,0.0,0.0
7052,1762.75,45.8832,47.6297,128.183,113.512,118.981,0.000341185,0.0477242,21.0141,497.841,-0.418416,0.0,0.0
7134,1783.25,45.5648,47.2671,132.654,113.381,117.224,0.000340715,0.0476973,21.016,497.852,-0.296398,0.0,0.0
7216,1803.75,44.1642,45.6039,130.897,113.264,118.108,0.000513553,0.0478737,21.0153,497.862,-0.372444,0.0,0.0
7298,1824.25,44.7428,46.6158,130.804,113.178,116.44,0.000381844,0.0477779,21.0143,497.862,-0.252737,0.0,0.0
7380,1844.75,44.7952,46.1208,133.375,113.077,118.002,0.000404019,0.0473981,21.015,497.882,-0.379124,0.0,0.0
7462,1865.25,45.1113,46.7288,130.64,112.978,117.218,0.00019295,0.04796,21.0147,497.841,-0.327612,0.0,0.0
7544,1885.75,45.149,46.9623,128.687,112.904,117.202,0.000442522,0.0478347,21.015,497.852,-0.332234,0.0,0.0
7626,1906.25,44.8342,46.7755,128.462,112.757,117.34,0.000705011,0.0477637,21.0137,497.841,-0.35426,0.0,0.0
7685,1921,45.1167,47.2666,130.954,112.652,118.44,,,,497.872,-0.445518,0.0,0.0