File: 01_Data/Fiberglass_Insulation_R30/Cone/R30_Fiberglass_Insulation_Cone_HF50Scan_220503_R1.csv
Names,Time,Stack TC,Smoke TC,Exh Press,Smoke Comp,Smoke Meas,CO Meter,CO2 Meter,O2 Meter,Sample Mass,Ext Coeff,Start Test,Flame Verif
Chan Gain,,500,500,1,1,1,1,1,1,1,1,1.0,1.0
Offset,,0,0,0.135741,0,0,0,0,0,0,0,0.0,0.0
Gain,,1,1,25.011,14.8585,16.6522,1,1,1,1.00087,1.0138,1.0,1.0
Units,sec,C,C,Pa,%,%,%,%,%,g,/m,,
Baseline,,30.0213,31.0712,140.506,112.623,114.142,0.000827177,0.0498059,21.0127,-0.668329,-0.119138,,
87,21.5,29.683,30.3315,141.278,112.848,114.462,0.0019957,0.0533791,21.0102,499.403,-0.126284,0.0,0.0
174,43.25,30.1445,31.3052,143.403,112.953,115.412,0.00154788,0.0518427,21.0124,499.373,-0.191561,0.0,0.0
261,65,31.2388,32.0066,139.337,113.119,115.062,0.00111239,0.050997,21.0117,499.323,-0.151448,0.0,0.0
348,86.75,31.6936,33.0406,138.75,113.07,114.776,0.000956999,0.0500502,21.0145,499.313,-0.133154,0.0,0.0
435,108.5,31.7267,33.5989,138.966,112.602,115.311,0.000705378,0.0499817,21.0147,499.283,-0.211477,0.0,0.0
522,130.25,32.3792,33.568,138.127,112.711,115.46,0.000640618,0.0493541,21.0141,499.273,-0.214287,0.0,0.0
609,152,32.4203,33.8506,137.583,112.904,114.647,0.000608808,0.0490565,21.0168,499.243,-0.136211,0.0,0.0
696,173.75,32.4108,33.7253,139.449,113.088,114.888,0.00069436,0.049487,21.0148,499.253,-0.140462,0.0,0.0
783,195.5,32.9218,33.8582,137.539,113.223,115.147,0.000663868,0.0487597,21.0156,499.213,-0.149842,0.0,0.0
870,217.25,33.1188,33.8435,141.342,113.322,115.3,0.000587589,0.0483782,21.0169,499.193,-0.153925,0.0,0.0
957,239,32.947,34.2716,138.595,113.437,115.127,0.000566067,0.0484963,21.0174,499.183,-0.131516,0.0,0.0
1044,260.75,33.0719,34.0187,143.398,113.459,115.618,0.000733228,0.0484504,21.0173,499.213,-0.167688,0.0,0.0
1131,282.5,32.993,34.5139,137.025,113.474,115.527,0.000437977,0.0479569,21.0151,499.153,-0.159406,0.0,0.0
1218,304.25,33.2013,34.3729,137.707,113.482,115.642,0.00028872,0.0477726,21.0193,499.183,-0.167639,0.0,0.0
1305,326,33.8122,34.6655,139.616,113.446,114.955,0.000608338,0.0476911,21.0172,499.133,-0.117491,0.0,0.0
1392,347.75,32.9825,33.8662,142.906,113.377,115.314,0.000416744,0.0478344,21.0172,499.153,-0.150608,0.0,0.0
1479,369.5,33.7592,35.0051,140.478,113.252,115.908,0.000504284,0.0481076,21.0177,499.143,-0.206162,0.0,0.0
1566,391.25,33.6235,34.8414,139.049,112.976,115.031,0.000518072,0.0478877,21.0155,499.143,-0.160284,0.0,0.0
1653,413,33.7584,34.9805,142.287,112.401,114.46,0.00052898,0.0479747,21.016,499.123,-0.16139,0.0,0.0
1740,434.75,33.7183,35.2134,141.272,111.798,113.605,0.000629693,0.0480454,21.0175,499.123,-0.142612,0.0,0.0
1827,456.5,33.9284,35.2883,139.856,111.392,113.347,0.000460834,0.0480366,21.0186,499.093,-0.154721,0.0,0.0
1914,478.25,33.9378,34.653,137.216,111.255,113.657,-2.96316e-05,0.04812,21.0171,499.083,-0.189985,0.0,0.0
2001,500,33.5166,35.5302,138.415,111.338,112.929,0.000620066,0.0479902,21.0185,499.073,-0.126156,0.0,0.0
2088,521.75,33.5779,35.1899,140.54,111.726,113.502,0.000127128,0.0480257,21.0161,499.073,-0.14027,0.0,0.0
2175,543.5,34.3021,35.8369,138.499,112.234,114.433,0.000580929,0.0480076,21.017,499.073,-0.172548,0.0,0.0
2262,565.25,33.8347,35.6503,139.61,112.566,114.298,0.00087445,0.0481325,21.0181,499.063,-0.135815,0.0,0.0
2349,587,34.266,35.8908,135.234,112.712,114.931,0.000409999,0.0481085,21.0182,499.053,-0.173414,0.0,0.0
2436,608.75,34.6496,35.6658,139.639,112.731,114.373,0.00038159,0.0482267,21.0192,499.053,-0.128596,0.0,0.0
2523,630.5,34.7286,35.7132,134.087,112.694,115.507,0.000397188,0.0487975,21.0174,499.063,-0.219325,0.0,0.0
2610,652.25,34.9334,36.1336,135.418,112.635,114.933,0.000487434,0.0490558,21.0144,499.053,-0.179581,0.0,0.0
2697,674,34.2175,36.0489,139.656,112.496,113.882,0.00023808,0.0489035,21.0164,499.043,-0.108928,0.0,0.0
2784,695.75,34.7094,36.0402,140.546,112.312,114.061,0.000243082,0.0489137,21.0174,499.053,-0.137411,0.0,0.0
2871,717.5,34.4951,35.5697,138.227,112.142,114.009,0.000470388,0.0489924,21.016,499.053,-0.146847,0.0,0.0
2958,739.25,34.59,35.807,138.572,112.827,115.241,0.000737699,0.0492904,21.0145,499.053,-0.188286,0.0,0.0
3045,761,34.5496,35.8534,140.477,113.113,114.878,0.000449348,0.0491263,21.016,499.033,-0.137753,0.0,0.0
3132,782.75,35.3057,35.9275,139.378,112.946,115.212,0.000598178,0.048887,21.0173,499.053,-0.176616,0.0,0.0
3219,804.5,34.3619,35.3736,140.53,112.532,114.782,0.000452219,0.0487369,21.0156,499.053,-0.1761,0.0,0.0
3306,826.25,34.735,36.0804,135.572,112.784,115.113,0.000685428,0.0489745,21.0159,499.033,-0.181754,0.0,0.0
3393,848,34.9336,35.9511,135.936,113.139,115.213,0.000318962,0.0492959,21.0149,499.043,-0.161572,0.0,0.0
3480,869.75,33.6613,35.631,144.665,113.407,114.988,0.000272472,0.0499011,21.0162,499.023,-0.12314,0.0,0.0
3567,891.5,34.8192,35.5368,138.874,113.451,115.162,0.000383963,0.0497902,21.0144,499.023,-0.133123,0.0,0.0
3654,913.25,34.9981,35.8821,138.276,113.312,115.001,0.000458636,0.04955,21.0142,499.023,-0.131596,0.0,0.0
3741,935,34.4089,36.1198,139.584,113.091,114.648,0.000398038,0.0491251,21.0161,499.023,-0.121551,0.0,0.0
3828,956.75,34.1913,35.9104,142.078,112.778,114.258,-1.17308e-05,0.0491875,21.0164,499.013,-0.115977,0.0,0.0
3915,978.5,34.6186,35.8025,139.572,112.378,113.738,0.000358146,0.0489725,21.0153,499.033,-0.106939,0.0,0.0
4002,1000.25,34.7495,35.3069,138.938,111.866,113.804,0.000198272,0.0489198,21.014,499.013,-0.15278,0.0,0.0
4089,1022,34.6376,36.6031,142.063,111.439,113.357,2.1043e-06,0.0486352,21.0146,499.013,-0.151751,0.0,0.0
4176,1043.75,34.3966,35.9883,139.56,111.279,113.191,0.000320751,0.0482001,21.0159,499.053,-0.151487,0.0,0.0
4263,1065.5,34.5725,35.8941,139.095,111.345,112.951,0.000307807,0.0481406,21.0167,499.043,-0.127369,0.0,0.0
4350,1087.25,34.9126,36.0559,136.185,111.524,112.95,0.000507756,0.0480002,21.0141,499.013,-0.112996,0.0,0.0
4437,1109,34.3344,36.0006,142.905,111.63,112.946,0.000973219,0.0481873,21.0174,499.023,-0.104218,0.0,0.0
4524,1130.75,34.7776,36.0018,138.181,111.687,112.915,8.62077e-05,0.0480127,21.0176,499.023,-0.0972667,0.0,0.0
4611,1152.5,34.8594,35.7584,136.792,111.836,113.795,0.000487394,0.0478917,21.0201,498.982,-0.154408,0.0,0.0
4698,1174.25,34.7274,36.013,138.835,112.093,113.648,0.000352938,0.0480774,21.0186,499.013,-0.122543,0.0,0.0
4785,1196,34.712,35.9093,138.96,112.261,113.912,0.000611319,0.0479718,21.0163,499.013,-0.129821,0.0,0.0
4872,1217.75,35.1306,36.2152,140.118,112.544,114.296,0.000421259,0.0478333,21.0153,499.033,-0.137413,0.0,0.0
4959,1239.5,34.178,36.258,141.917,112.705,114.79,0.000306812,0.0476478,21.0196,499.003,-0.162977,0.0,0.0
5046,1261.25,34.7809,35.9274,138.856,112.719,114.109,0.000466366,0.0481064,21.0177,499.013,-0.108994,0.0,0.0
5133,1283,35.3556,35.9505,137.471,112.702,114.478,0.000187099,0.0480528,21.0175,499.003,-0.13906,0.0,0.0
5220,1304.75,35.0681,36.7309,136.28,112.704,114.422,0.000356572,0.0479037,21.0189,498.992,-0.134499,0.0,0.0
5307,1326.5,34.6326,36.1612,140.308,112.586,114.211,0.000326598,0.0481044,21.019,499.003,-0.127437,0.0,0.0
5394,1348.25,35.3369,36.6832,140.105,112.46,113.894,0.000353261,0.0477666,21.0176,499.003,-0.112709,0.0,0.0
5481,1370,35.1375,35.9078,135.07,112.338,113.573,0.000339489,0.0477633,21.018,498.982,-0.097286,0.0,0.0
5568,1391.75,35.2474,36.7422,139.847,112.233,113.847,0.000419914,0.0476619,21.0173,498.982,-0.126929,0.0,0.0
5655,1413.5,35.2503,36.6225,141.457,112.14,113.967,0.000526002,0.04806,21.0159,498.992,-0.143736,0.0,0.0
5742,1435.25,34.9944,36.2574,136.379,112.056,113.965,0.000670053,0.0479886,21.0183,498.992,-0.150193,0.0,0.0
5829,1457,35.1564,36.7321,136.693,112.417,113.77,0.000562659,0.0481202,21.0171,498.992,-0.106357,0.0,0.0
5916,1478.75,35.1186,36.8514,139.083,112.836,114.789,0.000273721,0.0479752,21.0226,498.992,-0.15264,0.0,0.0
6003,1500.5,35.1923,36.4313,138.073,113.035,114.872,0.000375245,0.0478986,21.0202,498.972,-0.143344,0.0,0.0
6090,1522.25,35.0065,36.3999,137.851,113.028,115.338,0.000357565,0.0481128,21.0208,498.982,-0.179879,0.0,0.0
6177,1544,34.9653,36.6192,139.605,112.826,114.651,0.000217431,0.04771,21.0184,498.972,-0.142671,0.0,0.0
6264,1565.75,35.4208,36.6342,138.879,112.508,114.45,0.000638743,0.0477298,21.0209,498.972,-0.152217,0.0,0.0
6351,1587.5,35.062,35.9175,139.051,112.764,114.673,0.000259176,0.0479231,21.0204,498.962,-0.149267,0.0,0.0
6438,1609.25,35.4109,36.9416,138.657,112.993,114.772,0.000393776,0.0479827,21.0184,498.992,-0.138944,0.0,0.0
6525,1631,35.5787,36.5958,139.212,113.199,114.914,0.000152398,0.047714,21.0185,499.013,-0.1337,0.0,0.0
6612,1652.75,35.0157,36.4913,134.804,113.435,115,0.000381003,0.047752,21.019,498.952,-0.121839,0.0,0.0
6699,1674.5,35.9974,36.2969,143.126,113.439,115.464,0.00047966,0.0476191,21.0189,498.972,-0.157362,0.0,0.0
6786,1696.25,35.6561,36.8512,133.588,113.321,115.22,0.000474953,0.047718,21.0199,498.972,-0.147766,0.0,0.0
6873,1718,35.4173,36.6022,139.062,113.182,114.981,4.89983e-05,0.0479572,21.0191,498.962,-0.140208,0.0,0.0
6960,1739.75,35.1965,36.5208,140.124,112.937,114.175,0.000283752,0.0478049,21.0191,498.982,-0.0969864,0.0,0.0
7047,1761.5,34.7652,36.4718,136.032,112.658,114.133,0.000495538,0.0478744,21.0182,498.982,-0.115687,0.0,0.0
7134,1783.25,35.1856,36.3168,141.853,112.364,114.552,0.000348146,0.0479332,21.0198,498.962,-0.17144,0.0,0.0
7221,1805,35.0818,36.5051,136.717,112.138,113.627,0.0005312,0.0479239,21.0162,498.962,-0.117308,0.0,0.0
7308,1826.75,35.64,36.6031,143.764,111.978,113.717,0.000245087,0.0481308,21.0171,498.962,-0.137087,0.0,0.0
7395,1848.5,35.417,36.6964,142.525,111.826,114.015,0.000240294,0.0481371,21.0165,498.952,-0.172418,0.0,0.0
7482,1870.25,35.4703,36.9262,138.486,111.677,113.625,0.000440769,0.0481034,21.0179,498.962,-0.1538,0.0,0.0
7569,1892,35.4326,36.8197,138.635,111.497,112.893,0.000407483,0.0479391,21.0189,498.942,-0.110686,0.0,0.0
7656,1913.75,35.3717,36.7724,136.846,111.366,112.972,0.00060051,0.0479321,21.0182,498.962,-0.127272,0.0,0.0
7743,1935.5,33.7649,35.0472,134.106,111.288,112.506,0.000376485,0.0478708,21.0152,498.932,-0.0967828,0.0,0.0
7830,1957.25,34.0466,34.5876,140.762,111.303,112.602,0.000274597,0.0477556,21.0178,498.952,-0.103175,0.0,0.0
7917,1979,33.622,34.9374,138.989,111.43,113.173,0.000244669,0.0476227,21.0185,498.972,-0.13807,0.0,0.0
8004,2000.75,34.2809,35.6273,142.283,111.526,113.074,0.000708181,0.0476669,21.0184,498.962,-0.122576,0.0,0.0
8091,2022.5,34.1907,35.2302,134.184,111.6,113.519,0.000503996,0.0475016,21.0188,498.952,-0.151627,0.0,0.0
8167,2041.5,33.6571,35.1284,138.802,111.718,113.614,,,,498.942,-0.149678,0.0,0.0