File: 01_Data/Fiberglass_Insulation_R30/Cone/R30_Fiberglass_Insulation_Cone_HF25Scan_220502_R1.csv
Names,Time,Stack TC,Smoke TC,Exh Press,Smoke Comp,Smoke Meas,CO Meter,CO2 Meter,O2 Meter,Sample Mass,Ext Coeff,Start Test,Flame Verif
Chan Gain,,500,500,1,1,1,1,1,1,1,1,1.0,1.0
Offset,,0,0,0.134537,0,0,0,0,0,0,0,0.0,0.0
Gain,,1,1,25.011,14.8585,16.6522,1,1,1,1.00087,1.0138,1.0,1.0
Units,sec,C,C,Pa,%,%,%,%,%,g,/m,,
Baseline,,21.6363,22.2037,140.163,111.2,112.254,-4.59976e-05,0.0525232,21.0112,-834.11,-0.0839077,,
84,20.75,20.7778,20.6488,142.934,111.151,112.201,0.000660974,0.0530708,21.0124,-341.266,-0.083598,0.0,0.0
168,41.75,20.5101,21.2581,138.858,111.17,112.436,0.000281898,0.0527245,21.0128,-341.356,-0.100736,0.0,0.0
252,62.75,21.0501,21.7098,135.25,111.166,112.529,0.000244434,0.0517306,21.013,-341.356,-0.108419,0.0,0.0
336,83.75,21.5098,22.3208,140.601,111.147,112.412,0.000230945,0.0511032,21.014,-341.356,-0.100584,0.0,0.0
420,104.75,21.1261,22.139,136.792,111.145,112.474,8.86827e-05,0.0510337,21.015,-341.386,-0.105745,0.0,0.0
504,125.75,21.7492,22.1767,137.941,111.173,112.484,0.000456246,0.0507607,21.0138,-341.386,-0.104263,0.0,0.0
588,146.75,22.0153,22.3502,139.891,111.202,112.626,-0.000185677,0.0505771,21.0142,-341.406,-0.113144,0.0,0.0
672,167.75,21.681,22.2874,137.883,111.194,112.401,9.79548e-05,0.0510185,21.0136,-341.426,-0.096008,0.0,0.0
756,188.75,21.9586,22.6663,138.483,111.187,112.582,0.000158014,0.0509479,21.0145,-341.416,-0.110926,0.0,0.0
840,209.75,22.3269,22.7512,134.361,111.218,112.572,0.000213575,0.0505634,21.0137,-341.426,-0.107618,0.0,0.0
924,230.75,21.7265,22.8511,139.532,111.259,112.427,0.000360409,0.0507218,21.0139,-341.426,-0.0929099,0.0,0.0
1008,251.75,22.0499,22.7092,140.546,111.297,112.829,9.80466e-05,0.0508637,21.0146,-341.436,-0.121569,0.0,0.0
1092,272.75,21.7477,22.8252,142.452,111.28,112.738,0.000114002,0.0510781,21.014,-341.456,-0.115773,0.0,0.0
1176,293.75,22.354,22.4752,139.638,111.263,112.882,0.000259588,0.0505939,21.014,-341.446,-0.128412,0.0,0.0
1260,314.75,22.2277,22.3216,136.687,111.22,112.613,0.000205889,0.0503305,21.0171,-341.446,-0.110687,0.0,0.0
1344,335.75,22.0625,22.9202,142.576,111.138,112.62,3.75178e-05,0.0504543,21.017,-341.466,-0.117854,0.0,0.0
1428,356.75,22.3582,23.0429,136.208,111.142,112.952,-1.40054e-05,0.0502928,21.016,-341.466,-0.143657,0.0,0.0
1512,377.75,22.0523,23.057,139.857,111.17,112.931,1.47531e-05,0.0503416,21.0154,-341.466,-0.139763,0.0,0.0
1596,398.75,21.9992,23.0402,138.8,111.212,112.261,0.000124248,0.0499886,21.017,-341.456,-0.0834492,0.0,0.0
1680,419.75,22.1521,23.1794,138.181,111.245,112.897,0.000391335,0.0502869,21.0154,-341.466,-0.131062,0.0,0.0
1764,440.75,21.8606,22.7079,134.747,111.292,113.049,0.000159554,0.0499773,21.0158,-341.456,-0.139294,0.0,0.0
1848,461.75,22.2025,23.0555,137.994,111.295,112.776,0.000204184,0.0500295,21.0175,-341.446,-0.117543,0.0,0.0
1932,482.75,22.1395,22.8548,140.175,111.333,112.772,1.34259e-05,0.0497149,21.0142,-341.466,-0.11422,0.0,0.0
2016,503.75,21.6778,22.9722,137.09,111.431,113.108,-2.57175e-05,0.0498965,21.0156,-341.476,-0.132809,0.0,0.0
2100,524.75,22.2666,23.2393,137.634,111.595,112.879,0.000104515,0.0500243,21.0137,-341.466,-0.101721,0.0,0.0
2184,545.75,22.2854,22.9082,136.226,111.753,113.54,-0.000164657,0.0498639,21.0133,-341.476,-0.14105,0.0,0.0
2268,566.75,22.0271,22.7364,139.822,111.902,113.928,1.34534e-05,0.0498984,21.0163,-341.486,-0.159582,0.0,0.0
2352,587.75,22.102,23.2293,138.817,112.034,113.798,-5.53781e-05,0.0497954,21.0153,-341.476,-0.138979,0.0,0.0
2436,608.75,22.1971,22.876,139.673,112.173,113.852,-0.000268834,0.0499206,21.0153,-341.476,-0.132105,0.0,0.0
2520,629.75,22.0531,22.9397,140.331,112.294,114.007,9.1794e-05,0.0501333,21.0148,-341.496,-0.134651,0.0,0.0
2604,650.75,22.2922,22.9938,134.734,112.405,114.04,-5.17581e-05,0.050679,21.0141,-341.496,-0.128433,0.0,0.0
2688,671.75,22.147,23.0456,138.946,112.455,114.18,0.000354607,0.0513418,21.0143,-341.496,-0.135304,0.0,0.0
2772,692.75,22.1846,23.324,138.757,112.475,113.869,-0.000124469,0.0509835,21.013,-341.476,-0.109581,0.0,0.0
2856,713.75,22.393,23.1263,141.057,112.438,114.33,-9.13527e-06,0.0509347,21.0138,-341.496,-0.14845,0.0,0.0
2940,734.75,22.1747,22.6672,137.617,112.431,114.365,6.62184e-05,0.0512352,21.0133,-341.496,-0.151711,0.0,0.0
3024,755.75,22.0492,23.2341,142.384,112.48,113.954,-6.27621e-06,0.0507998,21.0136,-341.496,-0.115816,0.0,0.0
3108,776.75,22.3122,22.582,136.01,112.506,114.045,0.000124251,0.0509353,21.0123,-341.506,-0.120793,0.0,0.0
3192,797.75,22.0635,23.0394,140.467,112.555,114.105,9.23773e-05,0.0507933,21.0157,-341.496,-0.121638,0.0,0.0
3276,818.75,22.823,23.0487,138.198,112.568,114.462,2.293e-05,0.0506709,21.0158,-341.496,-0.148395,0.0,0.0
3360,839.75,22.5212,22.7924,140.022,112.551,114.571,0.000205348,0.0503283,21.0157,-341.516,-0.158201,0.0,0.0
3444,860.75,22.1698,23.3319,140.492,112.483,114.095,-0.000128651,0.0504612,21.0152,-341.506,-0.126539,0.0,0.0
3528,881.75,22.4123,22.9957,136.629,112.362,114.216,-0.000102441,0.0506086,21.0136,-341.516,-0.145579,0.0,0.0
3612,902.75,21.9946,22.9916,137.662,112.368,114.09,3.82122e-05,0.0502038,21.014,-341.486,-0.135222,0.0,0.0
3696,923.75,21.9654,23.1215,141.934,112.318,114.028,4.99789e-05,0.0500462,21.016,-341.506,-0.134368,0.0,0.0
3780,944.75,21.8888,22.9799,139.454,112.241,114.274,3.12478e-05,0.0503008,21.018,-341.506,-0.159676,0.0,0.0
3864,965.75,22.2192,22.9813,137.059,112.282,113.583,0.000410173,0.0502125,21.0148,-341.516,-0.102422,0.0,0.0
3948,986.75,22.1711,23.1211,137.316,112.293,113.959,0.000123021,0.0502038,21.0153,-341.516,-0.131031,0.0,0.0
4032,1007.75,22.551,23.3068,135.179,112.303,113.655,-0.000355464,0.0499728,21.0143,-341.516,-0.106379,0.0,0.0
4116,1028.75,22.3255,23.2042,140.028,112.201,114.114,9.38445e-05,0.0500773,21.0143,-341.506,-0.150411,0.0,0.0
4200,1049.75,22.1138,22.9699,139.726,112.128,113.759,0.00014503,0.0501786,21.0153,-341.506,-0.128398,0.0,0.0
4284,1070.75,22.3383,23.1927,142.605,112.033,113.671,-0.000240038,0.0498287,21.0159,-341.506,-0.129078,0.0,0.0
4368,1091.75,21.9854,23.2808,135.15,112.01,114.023,-0.00031919,0.0501996,21.0151,-341.516,-0.158423,0.0,0.0
4452,1112.75,22.49,23.0294,140.017,111.979,113.547,3.22249e-05,0.0500226,21.0161,-341.496,-0.12362,0.0,0.0
4536,1133.75,22.0671,23.2155,143.265,111.958,113.925,0.000129117,0.0498606,21.0138,-341.506,-0.154876,0.0,0.0
4620,1154.75,22.2374,23.2585,137.291,111.957,113.587,0.000108237,0.0498645,21.0135,-341.506,-0.128565,0.0,0.0
4704,1175.75,21.7854,23.0372,140.006,111.91,113.512,-1.65472e-05,0.0498369,21.0129,-341.506,-0.126389,0.0,0.0
4788,1196.75,21.7783,22.9302,141.767,111.901,113.659,-0.000164947,0.0498856,21.014,-341.486,-0.138644,0.0,0.0
4872,1217.75,21.9434,23.0269,140.203,112.205,114.312,0.000251369,0.0499248,21.014,-341.486,-0.165481,0.0,0.0
4956,1238.75,21.7232,22.722,138.868,112.527,114.069,-0.000105402,0.050092,21.0135,-341.526,-0.121042,0.0,0.0
5040,1259.75,22.1708,23.2737,138.988,112.698,114.677,1.98924e-05,0.0500145,21.0143,-341.506,-0.154765,0.0,0.0
5124,1280.75,21.9259,23.1775,138.357,112.774,114.73,5.08931e-05,0.0497307,21.0113,-341.516,-0.152968,0.0,0.0
5208,1301.75,22.4861,23.1951,140.296,112.733,114.295,5.3701e-05,0.049556,21.0114,-341.526,-0.122365,0.0,0.0
5292,1322.75,22.1879,23.0667,139.166,112.798,115.076,-0.000143184,0.0498455,21.0131,-341.536,-0.177819,0.0,0.0
5376,1343.75,22.568,22.8543,141.558,112.843,114.687,0.000450329,0.0498398,21.014,-341.516,-0.14415,0.0,0.0
5460,1364.75,22.1577,23.1683,138.139,112.808,114.437,0.000176046,0.0497881,21.0151,-341.536,-0.127494,0.0,0.0
5544,1385.75,22.5695,22.9361,140.345,112.753,114.171,7.96792e-05,0.0498382,21.0111,-341.526,-0.111139,0.0,0.0
5628,1406.75,22.1495,23.0435,139.05,112.662,114.568,-8.54039e-05,0.0501422,21.0143,-341.506,-0.149191,0.0,0.0
5712,1427.75,22.524,22.9104,140.306,112.512,114.399,-2.28085e-05,0.050003,21.0149,-341.506,-0.147905,0.0,0.0
5796,1448.75,22.6397,23.3321,132.199,112.364,114.33,0.000448272,0.0499273,21.0106,-341.516,-0.154258,0.0,0.0
5880,1469.75,22.6646,22.654,139.233,112.402,114.37,1.9372e-05,0.0497405,21.0142,-341.496,-0.154366,0.0,0.0
5964,1490.75,22.7479,23.157,137.182,112.333,114.272,-0.000137418,0.0497179,21.0112,-341.526,-0.152152,0.0,0.0
6048,1511.75,22.8363,23.2317,133.506,112.427,115.082,0.000289018,0.0497868,21.0121,-341.516,-0.207506,0.0,0.0
6132,1532.75,22.4957,23.2624,139.58,112.638,114.699,2.85217e-05,0.0496989,21.0136,-341.506,-0.161299,0.0,0.0
6216,1553.75,22.8317,22.7605,142.003,112.735,114.622,-0.000221282,0.0497738,21.0124,-341.496,-0.147614,0.0,0.0
6300,1574.75,22.9815,23.5767,139.696,112.913,114.449,-0.000135921,0.0497031,21.012,-341.536,-0.120188,0.0,0.0
6384,1595.75,22.6299,23.2587,140.414,113.071,115.149,-8.05888e-05,0.0497648,21.012,-341.506,-0.161937,0.0,0.0
6468,1616.75,22.8712,23.1636,137.568,113.253,115.147,5.92337e-05,0.0497583,21.0143,-341.516,-0.147491,0.0,0.0
6552,1637.75,22.3619,23.3149,137.897,113.3,114.922,0.000209095,0.0498973,21.0137,-341.506,-0.126424,0.0,0.0
6636,1658.75,22.5702,23.3747,137.27,113.313,115.182,-0.000184593,0.0495813,21.013,-341.516,-0.145465,0.0,0.0
6720,1679.75,22.759,23.1105,142.499,113.303,115.142,-5.90273e-05,0.0497183,21.0167,-341.526,-0.143147,0.0,0.0
6804,1700.75,22.2306,22.8354,142.362,113.295,114.975,0.000154793,0.0497538,21.0126,-341.526,-0.13087,0.0,0.0
6888,1721.75,22.2934,23.1678,139.071,113.289,115.654,-0.000201044,0.0495092,21.0134,-341.556,-0.18373,0.0,0.0
6972,1742.75,22.6127,23.4005,139.115,113.297,114.95,0.000254252,0.0496628,21.0107,-341.526,-0.128836,0.0,0.0
7056,1763.75,23.3339,23.3233,138.934,113.266,115.328,-7.99786e-05,0.0495003,21.0141,-341.516,-0.160424,0.0,0.0
7140,1784.75,22.3448,23.3918,140.347,113.202,115.007,0.000169759,0.0495725,21.0129,-341.546,-0.140645,0.0,0.0
7224,1805.75,22.2303,23.2577,141.844,113.076,115.105,-1.69795e-05,0.0494571,21.0146,-341.516,-0.15817,0.0,0.0
7308,1826.75,22.7695,23.3528,140.286,112.986,114.583,1.84737e-05,0.0493945,21.0157,-341.516,-0.124744,0.0,0.0
7392,1847.75,21.6298,22.2268,138.921,112.906,114.715,-4.71589e-05,0.0493358,21.0108,-341.526,-0.141347,0.0,0.0
7476,1868.75,21.6636,22.3258,138.036,112.795,114.729,0.000161587,0.0493794,21.0126,-341.526,-0.151245,0.0,0.0
7560,1889.75,21.9909,22.2803,137.496,112.698,114.695,0.000233974,0.0492515,21.0133,-341.516,-0.15622,0.0,0.0
7644,1910.75,21.8344,22.3541,139.316,112.833,114.932,0.00024455,0.0494038,21.0131,-341.526,-0.16387,0.0,0.0
7728,1931.75,21.558,22.2657,141.38,112.941,114.828,-2.70068e-05,0.0494185,21.0103,-341.516,-0.147379,0.0,0.0
7798,1949.25,21.4116,22.23,140.603,113.042,115.149,,,,-341.516,-0.16422,0.0,0.0