File: 01_Data/Fiberglass_Insulation_R30/Cone/R30_Fiberglass_Insulation_Cone_HF25Scan_220502_R3.csv
Names,Time,Stack TC,Smoke TC,Exh Press,Smoke Comp,Smoke Meas,CO Meter,CO2 Meter,O2 Meter,Sample Mass,Ext Coeff,Start Test,Flame Verif
Chan Gain,,500,500,1,1,1,1,1,1,1,1,1.0,1.0
Offset,,0,0,0.135741,0,0,0,0,0,0,0,0.0,0.0
Gain,,1,1,25.011,14.8585,16.6522,1,1,1,1.00087,1.0138,1.0,1.0
Units,sec,C,C,Pa,%,%,%,%,%,g,/m,,
Baseline,,17.6702,17.863,147.731,112.22,112.571,0.000921216,0.0525884,21.0073,-0.00483753,-0.0277502,,
31,7.5,16.2056,16.7096,141.142,113.106,113.25,0.000714072,0.0610522,20.9981,502.786,-0.0112662,0.0,0.0
62,15.25,16.554,16.6849,147.358,113.248,113.43,0.0010925,0.0583646,21.0033,502.706,-0.0143089,0.0,0.0
93,23,16.4696,16.3569,149.075,113.371,113.833,0.00104038,0.0527818,21.0114,502.656,-0.036199,0.0,0.0
124,30.75,16.6562,16.8023,151.522,113.48,113.926,0.000734529,0.0507544,21.0129,502.606,-0.034933,0.0,0.0
155,38.5,17.3166,17.0031,145.924,113.562,113.855,0.000800885,0.0503094,21.0131,502.586,-0.0228725,0.0,0.0
186,46.25,16.9065,17.0161,149.522,113.629,113.92,0.00109594,0.050045,21.0142,502.556,-0.0226982,0.0,0.0
217,54,17.4646,17.8678,148.325,113.597,114.152,0.000901116,0.0498742,21.0123,502.536,-0.04329,0.0,0.0
248,61.75,17.1926,17.5198,148.495,113.549,114.086,0.000705323,0.0500174,21.0142,502.526,-0.0419404,0.0,0.0
279,69.5,17.5959,17.9565,150.471,113.517,114.196,0.000950464,0.0497711,21.0138,502.506,-0.0530584,0.0,0.0
310,77.25,17.7101,18.1512,145.547,113.495,114.262,0.000857685,0.0496566,21.0126,502.496,-0.0599067,0.0,0.0
341,85,18.1984,17.8775,146.007,113.427,113.997,0.000947266,0.0496355,21.0129,502.506,-0.0445674,0.0,0.0
372,92.75,17.7331,18.2928,149.784,113.326,113.739,0.000791378,0.0497222,21.0137,502.486,-0.0323375,0.0,0.0
403,100.5,17.7772,17.9201,147.405,113.182,113.767,0.000797915,0.0492326,21.0156,502.486,-0.0458493,0.0,0.0
434,108.25,17.7898,18.7569,144.804,113.089,113.662,0.000877384,0.0490166,21.0162,502.486,-0.0450011,0.0,0.0
465,116,18.2384,18.2353,145.047,113.016,113.599,0.000999781,0.0490188,21.0153,502.476,-0.0457763,0.0,0.0
496,123.75,18.5057,18.3719,150.226,112.975,113.587,0.000847734,0.0489905,21.0172,502.466,-0.048033,0.0,0.0
527,131.5,18.423,18.7149,151.886,112.932,113.459,0.000786844,0.0488931,21.0171,502.455,-0.041468,0.0,0.0
558,139.25,17.9774,18.6737,148.349,112.897,113.592,0.000484368,0.0488472,21.0165,502.466,-0.0545686,0.0,0.0
589,147,18.2572,18.7421,147.893,112.852,113.542,0.000395903,0.0492658,21.016,502.455,-0.0541697,0.0,0.0
620,154.75,18.4256,19.0533,147.033,112.789,113.479,0.000666794,0.0490967,21.0157,502.455,-0.0542764,0.0,0.0
651,162.5,18.0599,18.434,149.536,112.728,113.393,0.000724188,0.048501,21.0174,502.455,-0.0523321,0.0,0.0
682,170.25,19.0732,19.02,146.681,112.664,113.235,0.000817501,0.0487025,21.015,502.466,-0.0450133,0.0,0.0
713,178,18.1433,18.8411,145.491,112.631,113.104,0.000903931,0.048719,21.0147,502.445,-0.0372481,0.0,0.0
744,185.75,18.5874,18.8123,144.745,112.768,113.412,0.000905359,0.0481591,21.0147,502.435,-0.0506629,0.0,0.0
775,193.5,19.1945,19.3905,145.291,112.929,113.915,0.000731537,0.0480018,21.0147,502.445,-0.077265,0.0,0.0
806,201.25,18.8163,19.3665,147.804,113.021,113.723,0.00070083,0.048096,21.0169,502.435,-0.0550849,0.0,0.0
837,209,18.4034,18.9552,141.756,113.112,113.635,0.000743804,0.0484709,21.0182,502.435,-0.0410745,0.0,0.0
868,216.75,18.3965,19.1231,147.196,113.152,113.931,0.000423942,0.0484935,21.0166,502.425,-0.0609826,0.0,0.0
899,224.5,18.3174,18.7659,147.181,113.181,113.745,0.000436744,0.0487408,21.0179,502.425,-0.0441333,0.0,0.0
930,232.25,19.3692,19.7551,149.674,113.184,114.058,0.00048237,0.0487652,21.0159,502.435,-0.0684353,0.0,0.0
961,240,18.7725,19.6493,148.617,113.182,113.75,0.000457778,0.0486339,21.0158,502.425,-0.0444945,0.0,0.0
992,247.75,18.5654,19.5486,146.365,113.191,113.641,0.000411734,0.0484648,21.0152,502.415,-0.0353113,0.0,0.0
1023,255.5,19.0831,19.4037,143.782,113.197,113.697,0.000628562,0.0484161,21.0153,502.425,-0.0391896,0.0,0.0
1054,263.25,18.9579,19.9409,147.717,113.191,113.796,0.000631527,0.0484589,21.015,502.415,-0.047361,0.0,0.0
1085,271,19.6394,19.5589,144.427,113.193,114.013,0.000676738,0.0482983,21.015,502.405,-0.0641998,0.0,0.0
1116,278.75,19.0983,19.8123,144.652,113.189,114.014,0.000428638,0.048614,21.0148,502.415,-0.0645998,0.0,0.0
1147,286.5,19.1995,19.1038,146.067,113.198,113.726,0.000533845,0.0489121,21.0156,502.405,-0.0414201,0.0,0.0
1178,294.25,19.2496,19.7008,142.049,113.177,114.049,0.000213828,0.0488363,21.0156,502.395,-0.0682964,0.0,0.0
1209,302,19.0345,19.4919,148.573,113.097,113.503,0.00049177,0.0490654,21.0134,502.405,-0.0318295,0.0,0.0
1240,309.75,18.9208,19.8035,146.753,112.995,113.699,0.000662877,0.0490665,21.0133,502.385,-0.0552518,0.0,0.0
1271,317.5,19.0846,19.9734,146.125,112.836,113.533,0.000623753,0.0487774,21.0142,502.405,-0.0547041,0.0,0.0
1302,325.25,19.2141,20.2273,142.748,112.643,113.275,0.000403676,0.0485767,21.0166,502.405,-0.0497364,0.0,0.0
1333,333,18.508,19.2923,153.428,112.703,113.316,0.000396647,0.0487265,21.0169,502.415,-0.0482392,0.0,0.0
1364,340.75,19.2059,19.3092,143.943,112.779,113.446,0.000686061,0.048946,21.0157,502.415,-0.0524382,0.0,0.0
1395,348.5,18.997,19.8934,144.254,112.866,113.434,0.000816349,0.0487031,21.0153,502.395,-0.0446159,0.0,0.0
1426,356.25,19.4874,19.984,150.688,112.934,113.548,0.00066373,0.0485593,21.0153,502.395,-0.0482216,0.0,0.0
1457,364,19.3979,19.9813,143.482,112.992,113.558,0.000717454,0.0485773,21.0152,502.395,-0.0444444,0.0,0.0
1488,371.75,19.3668,20.1036,147.612,113.11,113.692,0.0006819,0.0483952,21.0168,502.395,-0.0456351,0.0,0.0
1519,379.5,19.0232,19.5307,144.222,113.226,113.773,0.000781752,0.0479826,21.0169,502.375,-0.0428666,0.0,0.0
1550,387.25,18.8277,19.7956,146.959,113.337,113.961,0.000433332,0.04795,21.0162,502.375,-0.0488655,0.0,0.0
1581,395,19.0852,19.9785,151.06,113.405,114.128,0.000558021,0.0479689,21.0159,502.365,-0.0564963,0.0,0.0
1612,402.75,18.9576,20.3172,143.127,113.468,114.15,0.000552273,0.0478376,21.0159,502.385,-0.0532935,0.0,0.0
1643,410.5,19.135,19.7746,144.242,113.505,113.94,0.000128548,0.0479262,21.0186,502.385,-0.0340097,0.0,0.0
1674,418.25,19.1843,20.1536,144.644,113.526,114.218,0.000387075,0.0478518,21.0202,502.365,-0.0540849,0.0,0.0
1705,426,19.4669,19.985,143.977,113.531,114.155,0.000495177,0.0477063,21.0205,502.375,-0.0487866,0.0,0.0
1736,433.75,19.3515,19.8483,141.959,113.548,114.224,0.000586234,0.0477149,21.0196,502.375,-0.05278,0.0,0.0
1767,441.5,19.5763,20.234,141.629,113.514,114.231,0.000476532,0.0476419,21.0191,502.365,-0.055997,0.0,0.0
1798,449.25,19.4782,20.4184,147.163,113.493,113.984,0.000600277,0.0478344,21.0181,502.365,-0.0383878,0.0,0.0
1829,457,19.5255,20.0222,147.062,113.471,114.136,0.000642778,0.0479145,21.0192,502.365,-0.0519722,0.0,0.0
1860,464.75,19.3516,20.2006,144.383,113.414,113.893,0.000387051,0.0477453,21.0179,502.365,-0.037543,0.0,0.0
1891,472.5,19.1731,19.8871,148.179,113.351,113.871,0.00068792,0.0477164,21.0179,502.355,-0.0406655,0.0,0.0
1922,480.25,19.5429,20.3494,148.204,113.27,113.874,0.000845735,0.0478346,21.0192,502.355,-0.0473135,0.0,0.0
1953,488,19.1988,20.1361,144.231,113.174,113.866,0.000811999,0.047799,21.0195,502.365,-0.0541937,0.0,0.0
1984,495.75,19.2383,20.083,143.763,113.085,113.421,0.000715706,0.0481661,21.0186,502.355,-0.0264194,0.0,0.0
2015,503.5,19.4068,20.4428,144.673,113.028,113.498,0.000607631,0.0482567,21.0187,502.365,-0.0369287,0.0,0.0
2046,511.25,19.6662,20.4939,146.301,112.955,113.375,0.000552444,0.0483457,21.0187,502.365,-0.0330329,0.0,0.0
2077,519,19.884,19.6409,144.36,112.912,113.661,0.000472275,0.0482445,21.0179,502.365,-0.0588389,0.0,0.0
2108,526.75,19.9074,20.3478,145.028,112.838,113.409,0.000391714,0.0484973,21.0179,502.355,-0.0448828,0.0,0.0
2139,534.5,19.5793,20.2839,144.987,112.817,113.405,0.000312367,0.0487021,21.0157,502.355,-0.0462441,0.0,0.0
2170,542.25,19.2394,20.0536,146.08,112.791,113.547,0.00031473,0.0485627,21.0156,502.365,-0.0594286,0.0,0.0
2201,550,19.7471,20.0235,145.755,112.785,113.435,0.00073441,0.0487068,21.0172,502.345,-0.0510568,0.0,0.0
2232,557.75,19.111,19.5926,146.129,112.788,113.542,0.000300909,0.0485277,21.0175,502.345,-0.059285,0.0,0.0
2263,565.5,19.3389,20.124,145.141,112.818,113.367,0.00043874,0.0486885,21.0162,502.335,-0.043183,0.0,0.0
2294,573.25,19.6044,20.3182,147.611,112.865,113.084,0.000695165,0.0489234,21.0147,502.335,-0.0171981,0.0,0.0
2325,581,19.8834,20.5591,149.798,112.878,113.656,0.000379501,0.0490743,21.0154,502.335,-0.0611198,0.0,0.0
2356,588.75,19.5953,19.5604,149.605,112.916,113.816,0.000700198,0.0492419,21.0148,502.345,-0.0705962,0.0,0.0
2387,596.5,19.6723,19.8424,146.327,112.923,113.527,0.000678981,0.0489923,21.0134,502.335,-0.0474388,0.0,0.0
2418,604.25,18.9436,19.7501,145.342,112.947,113.334,0.000395309,0.0489695,21.0122,502.315,-0.0304146,0.0,0.0
2449,612,19.4199,18.993,147.111,112.963,113.52,0.000675547,0.049103,21.0138,502.355,-0.0437077,0.0,0.0
2480,619.75,18.9133,19.829,143.306,112.973,113.421,0.000567723,0.0490713,21.0159,502.335,-0.0351964,0.0,0.0
2511,627.5,19.2191,20.3259,144.611,112.998,113.429,0.000731702,0.0488555,21.0178,502.345,-0.0338661,0.0,0.0
2542,635.25,19.3275,19.6358,146.105,113.006,113.406,0.000495423,0.0487085,21.0165,502.355,-0.0313555,0.0,0.0
2573,643,19.5769,20.0355,144.175,112.98,113.602,0.000505376,0.0483348,21.0181,502.345,-0.048794,0.0,0.0
2604,650.75,19.7642,19.7854,146.717,112.957,113.419,0.000266234,0.0483823,21.0169,502.335,-0.0363177,0.0,0.0
2635,658.5,19.6373,20.3098,144.786,112.947,113.38,0.000377997,0.0484769,21.0161,502.325,-0.0340028,0.0,0.0
2666,666.25,19.5617,20.1188,145.17,112.921,113.342,0.000556685,0.0483903,21.0177,502.325,-0.0331196,0.0,0.0
2697,674,19.3333,19.9572,142.819,112.918,113.666,0.00056663,0.0485193,21.0178,502.335,-0.0587002,0.0,0.0
2728,681.75,19.0511,20.0973,146.321,112.89,113.45,0.000721862,0.0488968,21.0158,502.315,-0.0439974,0.0,0.0
2759,689.5,19.3831,20.1558,142.45,112.856,113.351,0.000361166,0.0489272,21.0154,502.325,-0.0388696,0.0,0.0
2790,697.25,19.2975,19.8685,145.673,112.854,113.549,0.000482692,0.048636,21.0149,502.335,-0.0545836,0.0,0.0
2821,705,19.5293,19.9863,148.057,112.83,113.272,0.0004183,0.0486276,21.015,502.325,-0.0348356,0.0,0.0
2852,712.75,19.6127,19.9831,142.835,112.836,113.171,,0.0486538,,502.325,-0.0263163,0.0,0.0
2883,720.5,19.3926,19.9666,140.847,112.767,113.285,,,,502.335,-0.0407662,0.0,0.0
2885,721,19.6823,20.4413,142.927,112.747,113.226,,,,502.335,-0.0376713,0.0,0.0