File: 01_Data/Fiberglass_Insulation_R30/Cone/R30_Fiberglass_Insulation_Cone_HF50Scan_220503_R2.csv
Names,Time,Stack TC,Smoke TC,Exh Press,Smoke Comp,Smoke Meas,CO Meter,CO2 Meter,O2 Meter,Sample Mass,Ext Coeff,Start Test,Flame Verif
Chan Gain,,500,500,1,1,1,1,1,1,1,1,1.0,1.0
Offset,,0,0,0.135741,0,0,0,0,0,0,0,0.0,0.0
Gain,,1,1,25.011,14.8585,16.6522,1,1,1,1.00087,1.0138,1.0,1.0
Units,sec,C,C,Pa,%,%,%,%,%,g,/m,,
Baseline,,33.9619,35.0184,139.653,112.844,114.422,0.000672378,0.0496805,21.0105,-1.09278,-0.123501,,
31,7.5,31.6535,33.0528,135.313,113.043,114.948,0.00158962,0.0568753,20.9998,493.508,-0.148637,0.0,0.0
62,15.25,32.4979,33.3677,141.882,113.035,115.43,0.00202564,0.0557763,21.0023,493.378,-0.186472,0.0,0.0
93,23,32.576,33.4487,137.801,113.033,115.027,0.00196563,0.0549754,21.0034,493.338,-0.155549,0.0,0.0
124,30.75,33.0788,34.4492,141.41,113.037,115.003,0.00163216,0.0545004,21.0051,493.318,-0.153345,0.0,0.0
155,38.5,33.4424,34.826,139.15,113.029,115.104,0.00160609,0.0538487,21.0041,493.288,-0.161804,0.0,0.0
186,46.25,33.9783,35.0433,137.738,113.026,115.144,0.00186045,0.0534118,21.006,493.268,-0.16508,0.0,0.0
217,54,33.9618,35.0089,138.035,113.006,114.803,0.00147289,0.0530227,21.0073,493.298,-0.140311,0.0,0.0
248,61.75,34.0608,35.2518,139.274,112.975,114.963,0.0011799,0.0529498,21.0064,493.278,-0.155126,0.0,0.0
279,69.5,34.7577,35.5838,141.568,112.949,114.68,0.00139947,0.0527156,21.0057,493.278,-0.135237,0.0,0.0
310,77.25,34.7463,36.1223,136.532,112.93,115.109,0.00110388,0.0523118,21.0067,493.268,-0.169935,0.0,0.0
341,85,34.9747,35.922,139.498,112.883,114.521,0.00141989,0.0522696,21.01,493.248,-0.128108,0.0,0.0
372,92.75,34.7956,35.809,142.416,112.863,115.287,0.00103632,0.0521761,21.0083,493.238,-0.189031,0.0,0.0
403,100.5,34.9534,35.4571,138.674,112.851,114.778,0.000866946,0.0517768,21.0093,493.217,-0.150555,0.0,0.0
434,108.25,35.1004,35.7809,137.038,112.81,114.802,0.000904971,0.0512675,21.0109,493.227,-0.155661,0.0,0.0
465,116,35.2394,36.3347,139.021,112.777,115.01,0.000946387,0.0507279,21.011,493.227,-0.174357,0.0,0.0
496,123.75,35.0379,36.1949,140.056,112.76,114.906,0.00108095,0.0501861,21.0115,493.217,-0.167696,0.0,0.0
527,131.5,35.1168,36.9775,136.996,112.764,115.028,0.000776366,0.0498923,21.0125,493.227,-0.176769,0.0,0.0
558,139.25,35.5798,36.0398,139.499,112.73,114.965,0.000753173,0.0501066,21.0125,493.207,-0.174581,0.0,0.0
589,147,35.1031,36.4264,139.461,112.725,114.842,0.00080661,0.0497931,21.0125,493.207,-0.165493,0.0,0.0
620,154.75,35.1405,36.9219,142.03,112.689,114.772,0.000643423,0.0498304,21.0104,493.207,-0.162812,0.0,0.0
651,162.5,35.1472,36.2966,136.984,112.603,115.422,0.00046218,0.0496371,21.0102,493.207,-0.219909,0.0,0.0
682,170.25,34.9403,36.6906,136.853,112.577,114.307,0.000860984,0.0494801,21.0096,493.187,-0.135624,0.0,0.0
713,178,35.7318,37.041,139.605,112.543,114.527,0.000535799,0.0494604,21.0114,493.197,-0.155418,0.0,0.0
744,185.75,35.0324,36.9323,135.18,112.555,114.151,0.000511191,0.0492144,21.0117,493.187,-0.125161,0.0,0.0
775,193.5,35.3826,36.8703,136.601,112.58,114.439,0.000533255,0.048986,21.0145,493.187,-0.145611,0.0,0.0
806,201.25,35.0738,37.2821,142.714,112.574,114.381,0.000708269,0.0490277,21.0145,493.157,-0.141609,0.0,0.0
837,209,35.5003,36.8696,136.803,112.564,114.499,0.000589518,0.0492635,21.0145,493.157,-0.151599,0.0,0.0
868,216.75,35.5318,37.0912,137.698,112.538,114.625,0.000542045,0.0489819,21.015,493.157,-0.163385,0.0,0.0
899,224.5,35.6972,36.6171,136.073,112.522,114.935,0.000198044,0.0486316,21.0161,493.167,-0.188657,0.0,0.0
930,232.25,35.5121,36.3692,139.778,112.539,114.926,0.000560743,0.0485677,21.0161,493.147,-0.186587,0.0,0.0
961,240,35.4245,36.7235,133.601,112.561,114.568,0.00037972,0.048608,21.0143,493.127,-0.15718,0.0,0.0
992,247.75,35.4585,36.8728,137.166,112.574,115.474,0.000862865,0.0483385,21.0145,493.127,-0.226158,0.0,0.0
1023,255.5,35.7867,37.1257,137.982,112.569,115.067,0.00069056,0.0485271,21.0154,493.157,-0.195148,0.0,0.0
1054,263.25,35.7771,36.619,138.039,112.498,114.602,0.000546695,0.0485873,21.0148,493.137,-0.164765,0.0,0.0
1085,271,35.9059,36.61,135.633,112.471,114.654,0.000700042,0.0486185,21.0139,493.127,-0.170937,0.0,0.0
1116,278.75,36.0975,37.0874,138.259,112.488,114.409,0.000704316,0.0485606,21.0139,493.127,-0.150555,0.0,0.0
1147,286.5,35.3846,36.8394,142.568,112.499,114.481,0.000441893,0.0484707,21.0138,493.117,-0.155306,0.0,0.0
1178,294.25,35.8787,37.2086,137.464,112.52,114.608,0.000632891,0.0483303,21.0138,493.127,-0.163517,0.0,0.0
1209,302,35.3075,36.8448,134.812,112.525,115.093,0.000596864,0.0483379,21.0138,493.127,-0.200626,0.0,0.0
1240,309.75,35.7661,37.3567,139.868,112.56,114.495,0.00093035,0.0481235,21.0146,493.117,-0.15157,0.0,0.0
1271,317.5,35.8322,36.8643,136.837,112.613,114.338,0.00106777,0.0484688,21.0151,493.117,-0.135174,0.0,0.0
1302,325.25,35.3316,36.7477,137.161,112.676,115.178,0.000417853,0.0484658,21.0151,493.117,-0.195331,0.0,0.0
1333,333,36.0202,37.0911,137.324,112.717,115.093,0.000667375,0.0483075,21.0147,493.107,-0.185481,0.0,0.0
1364,340.75,35.8182,37.0091,139.143,112.769,114.727,0.000355499,0.0483921,21.0145,493.107,-0.153125,0.0,0.0
1395,348.5,35.6899,36.7387,137.593,112.856,115.358,0.000457834,0.0484236,21.0145,493.087,-0.195014,0.0,0.0
1426,356.25,35.9025,37.023,139.198,112.945,115.203,0.000325529,0.0484717,21.0141,493.107,-0.176017,0.0,0.0
1457,364,35.733,37.2173,137.302,113.004,114.826,0.000346237,0.0486964,21.0138,493.087,-0.142264,0.0,0.0
1488,371.75,35.6071,37.3656,141.025,113.074,115.129,0.000485499,0.0486655,21.0138,493.087,-0.160157,0.0,0.0
1519,379.5,35.6877,36.9506,137.708,113.129,114.948,0.000718367,0.0486397,21.0162,493.087,-0.141897,0.0,0.0
1550,387.25,35.6733,37.2207,139.616,113.234,115.157,0.000442499,0.0485117,21.0154,493.077,-0.149736,0.0,0.0
1581,395,35.9894,37.4406,137.853,113.283,115.234,0.000758364,0.0485826,21.0173,493.097,-0.151889,0.0,0.0
1612,402.75,36.1266,37.377,140.102,113.369,115.273,0.00068168,0.0485509,21.0159,493.087,-0.148074,0.0,0.0
1643,410.5,35.602,37.0132,140.477,113.413,115.674,0.000584917,0.048451,21.0151,493.077,-0.175542,0.0,0.0
1674,418.25,35.6469,37.4249,140.775,113.456,115.41,0.000640921,0.0482666,21.0141,493.097,-0.151865,0.0,0.0
1705,426,36.149,37.1735,137.962,113.45,116.295,0.000822713,0.0481874,21.0141,493.067,-0.220203,0.0,0.0
1736,433.75,36.0594,37.494,139.161,113.434,115.906,0.000459773,0.0483501,21.0117,493.097,-0.191779,0.0,0.0
1767,441.5,35.9852,36.7986,145.261,113.421,115.753,0.000510596,0.0485007,21.0128,493.077,-0.180991,0.0,0.0
1798,449.25,35.8856,37.6556,136.314,113.418,115.157,0.000412545,0.0484423,21.0159,493.097,-0.135363,0.0,0.0
1829,457,36.103,37.6843,138.908,113.415,115.369,0.000336831,0.0482752,21.0167,493.097,-0.151927,0.0,0.0
1860,464.75,35.9946,37.1494,137.294,113.401,115.341,0.000643167,0.0486421,21.0161,493.077,-0.150835,0.0,0.0
1891,472.5,35.996,36.6971,142.939,113.343,115.467,0.000518755,0.0486982,21.0158,493.077,-0.16514,0.0,0.0
1922,480.25,35.8175,37.0114,136.57,113.293,116.36,0.00064471,0.0485115,21.015,493.067,-0.237593,0.0,0.0
1953,488,36.196,36.9284,140.972,113.241,115.166,0.00052761,0.0485159,21.0172,493.057,-0.149911,0.0,0.0
1984,495.75,36.0962,37.1595,137.879,113.205,115.491,0.000227909,0.0484966,21.0174,493.047,-0.177765,0.0,0.0
2015,503.5,35.6677,37.7269,138.553,113.15,115.016,0.00029696,0.0486668,21.0174,493.077,-0.145449,0.0,0.0
2046,511.25,35.6422,37.1478,138.202,113.072,115.242,0.000530653,0.0484971,21.0166,493.077,-0.169049,0.0,0.0
2077,519,35.695,37.3936,138.318,112.982,115.432,0.000326045,0.0485236,21.0152,493.067,-0.190765,0.0,0.0
2108,526.75,36.3218,37.2443,138.066,112.878,114.899,0.000668829,0.048767,21.0151,493.067,-0.157816,0.0,0.0
2139,534.5,36.3185,37.1376,137.521,112.766,114.967,0.000533511,0.0486129,21.0151,493.047,-0.171913,0.0,0.0
2170,542.25,36.031,37.6064,136.495,112.669,114.602,0.000594262,0.0486437,21.0145,493.067,-0.151337,0.0,0.0
2201,550,36.381,37.3797,135.27,112.605,114.717,0.000501806,0.0488074,21.0151,493.057,-0.165256,0.0,0.0
2232,557.75,36.1764,37.7606,139.808,112.527,114.521,0.000753908,0.0487976,21.0151,493.067,-0.156159,0.0,0.0
2263,565.5,35.8814,37.1695,137.845,112.41,114.454,0.000431514,0.0486397,21.0178,493.057,-0.160313,0.0,0.0
2294,573.25,36.1392,37.472,133.592,112.28,114.567,0.000705078,0.0486567,21.0159,493.057,-0.179265,0.0,0.0
2325,581,36.3863,37.4016,136.588,112.154,113.679,0.000770573,0.0486866,21.0158,493.047,-0.120108,0.0,0.0
2356,588.75,36.6718,37.3411,139.989,112.052,114.074,0.00061714,0.0486399,21.0135,493.037,-0.159002,0.0,0.0
2387,596.5,36.3932,37.2677,138.663,111.958,113.966,0.000432048,0.0487081,21.0128,493.037,-0.158088,0.0,0.0
2418,604.25,34.699,35.819,138.146,111.84,113.564,0.000447717,0.0487544,21.0117,493.057,-0.135996,0.0,0.0
2449,612,34.3168,35.7546,137.45,111.701,113.696,0.000194015,0.0488697,21.0148,493.037,-0.157416,0.0,0.0
2480,619.75,34.5138,36.1248,139.481,111.607,113.674,0.000287721,0.0487402,21.0154,493.047,-0.163215,0.0,0.0
2511,627.5,34.6043,35.877,138.267,111.516,113.955,0.000404152,0.0488175,21.0154,493.057,-0.192406,0.0,0.0
2542,635.25,34.1057,35.7412,139.279,111.452,113.375,0.000668294,0.0489082,21.0149,493.057,-0.152134,0.0,0.0
2573,643,34.3282,35.8182,138.594,111.407,113.446,0.000527129,0.0491691,21.0128,493.037,-0.161298,0.0,0.0
2604,650.75,34.345,35.8769,137.164,111.374,113.457,2.10522e-05,0.0492484,21.0125,493.057,-0.164814,0.0,0.0
2635,658.5,34.6277,35.7448,137.38,111.353,112.923,0.000508293,0.0495596,21.012,493.057,-0.124516,0.0,0.0
2666,666.25,34.8891,35.6019,137.608,111.345,113.049,0.000784247,0.0494361,21.0118,493.057,-0.135016,0.0,0.0
2697,674,33.9073,35.5643,140.089,111.349,114.025,0.000386396,0.0494605,21.0105,493.047,-0.211191,0.0,0.0
2728,681.75,34.573,35.5704,137.884,111.377,113.504,0.000183484,0.0495918,21.0118,493.047,-0.168228,0.0,0.0
2759,689.5,34.2188,35.6597,135.746,111.407,113.358,0.000364,0.0496758,21.0118,493.027,-0.154404,0.0,0.0
2790,697.25,34.5416,35.6603,138.18,111.464,113.551,0.000338144,0.0493342,21.0118,493.027,-0.164941,0.0,0.0
2821,705,34.2162,36.1136,138.098,111.532,113.308,0.000455019,0.0496444,21.0114,493.027,-0.140472,0.0,0.0
2852,712.75,33.9441,35.1712,136.958,111.635,113.616,,0.049548,,493.027,-0.156446,0.0,0.0
2883,720.5,34.5269,35.4764,135.771,111.668,113.324,,,,493.007,-0.130908,0.0,0.0
2887,721.5,34.3587,36.0133,134.051,111.677,113.526,,,,493.017,-0.14604,0.0,0.0