File: 01_Data/Feather_PillowA_Cover/STA/N2/30K_min/Feather_Pillow_Cover_STA_N2_30KData_2226_R3.csv
##Temp./Â°C,Time/min,Mass loss(subtr.2)/mg,DSC(subtr.2)/(mW/mg),Sensit./(uV/mW)
48.525,10.00917,-0.00658,0.02358389,1.05401
51.725,10.88296,-0.004318535,0.19033,1.05336
54.925,11.1174,-0.003531238,0.30862,1.05268
58.125,11.2976,-0.00266682,0.40559,1.05199
61.325,11.45299,-0.002895778,0.48703,1.05128
64.525,11.5937,-0.00461777,0.55756,1.05055
67.725,11.72558,-0.004539655,0.62355,1.0498
70.925,11.85175,-0.005842825,0.68222,1.04903
74.125,11.97304,-0.005472104,0.73802,1.04825
77.325,12.09189,-0.006965138,0.78956,1.04744
80.525,12.20795,-0.007812895,0.8367,1.04662
83.725,12.32189,-0.009553824,0.88175,1.04578
86.925,12.43417,-0.01026909,0.92497,1.04492
90.125,12.54429,-0.01143146,0.96485,1.04405
93.325,12.65435,-0.01284393,0.99773,1.04315
96.525,12.76324,-0.01522641,1.02893,1.04224
99.725,12.87134,-0.01548007,1.05048,1.04131
102.925,12.97913,-0.0184372,1.0649,1.04037
106.125,13.08636,-0.01940238,1.07377,1.0394
109.325,13.1929,-0.01975193,1.07417,1.03842
112.525,13.2998,-0.0227765,1.0725,1.03742
115.725,13.4065,-0.02337997,1.06737,1.03641
118.925,13.5124,-0.02470049,1.05693,1.03537
122.125,13.61781,-0.02601188,1.04637,1.03432
125.325,13.7231,-0.02601971,1.03518,1.03326
128.525,13.8274,-0.02733247,1.02405,1.03217
131.725,13.9316,-0.02602171,1.01385,1.03107
134.925,14.03465,-0.02731837,1.00823,1.02995
138.125,14.13807,-0.02774226,1.00623,1.02882
141.325,14.2407,-0.02733003,1.00574,1.02767
144.525,14.3427,-0.02733,1.01089,1.0265
147.725,14.4442,-0.02733608,1.01765,1.02531
150.925,14.54551,-0.02732991,1.0243,1.02411
154.125,14.64644,-0.02733038,1.0346,1.0229
157.325,14.74699,-0.02699955,1.04649,1.02166
160.525,14.8474,-0.02699477,1.05639,1.02041
163.725,14.9477,-0.02700052,1.06785,1.01915
166.925,15.04754,-0.027,1.08172,1.01787
170.125,15.147,-0.027,1.09351,1.01657
173.325,15.24651,-0.02699999,1.10647,1.01526
176.525,15.34579,-0.02881756,1.11701,1.01393
179.725,15.4445,-0.02798605,1.13047,1.01259
182.925,15.54284,-0.02799,1.14336,1.01123
186.125,15.641,-0.02799,1.15532,1.00985
189.325,15.739,-0.02799668,1.16777,1.00846
192.525,15.83668,-0.02700001,1.17519,1.00706
195.725,15.9341,-0.02832651,1.18561,1.00564
198.925,16.03181,-0.02820533,1.19501,1.0042
202.125,16.129,-0.027,1.20403,1.00275
205.325,16.2263,-0.0274242,1.21637,1.00129
208.525,16.32329,-0.02832001,1.22405,0.99981
211.725,16.42024,-0.02964368,1.23328,0.99831
214.925,16.5172,-0.02828189,1.24182,0.99681
218.125,16.61409,-0.02942016,1.25063,0.99528
221.325,16.71088,-0.03040989,1.25664,0.99375
224.525,16.80753,-0.0304099,1.26602,0.99219
227.725,16.9043,-0.03124029,1.27268,0.99063
230.925,17.00076,-0.03269064,1.28188,0.98905
234.125,17.09733,-0.03303997,1.29114,0.98745
237.325,17.19369,-0.03161365,1.29629,0.98585
240.525,17.2901,-0.03325217,1.30422,0.98423
243.725,17.38641,-0.03458178,1.31214,0.98259
246.925,17.48283,-0.03589144,1.32472,0.98094
250.125,17.57904,-0.03764162,1.33147,0.97928
253.325,17.67512,-0.03904726,1.34299,0.9776
256.525,17.77133,-0.03913217,1.35054,0.97592
259.725,17.8675,-0.04242741,1.35943,0.97421
262.925,17.96366,-0.04525388,1.36743,0.9725
266.125,18.05961,-0.04620621,1.3715,0.97077
269.325,18.15594,-0.04811669,1.37608,0.96903
272.525,18.25209,-0.05112278,1.38028,0.96728
275.725,18.34816,-0.0527421,1.38813,0.96551
278.925,18.44443,-0.05802632,1.3975,0.96373
282.125,18.5408,-0.06221035,1.407,0.96194
285.325,18.63707,-0.06546493,1.41667,0.96014
288.525,18.73331,-0.06952383,1.42828,0.95832
291.725,18.82969,-0.07427196,1.44055,0.95649
294.925,18.92612,-0.08009622,1.45053,0.95465
298.125,19.0225,-0.08589575,1.46227,0.9528
301.325,19.11916,-0.09275963,1.47732,0.95094
304.525,19.21564,-0.09911394,1.49346,0.94906
307.725,19.31219,-0.10664,1.50739,0.94717
310.925,19.4088,-0.11589,1.52282,0.94528
314.125,19.50546,-0.1254,1.54151,0.94337
317.325,19.60217,-0.13704,1.56291,0.94144
320.525,19.6991,-0.14984,1.5889,0.93951
323.725,19.796,-0.16291,1.61648,0.93757
326.925,19.893,-0.17756,1.65108,0.93561
330.125,19.99012,-0.19576,1.68629,0.93364
333.325,20.08717,-0.21387,1.73533,0.93167
336.525,20.18444,-0.24144,1.79105,0.92968
339.725,20.28169,-0.26868,1.86069,0.92768
342.925,20.37894,-0.30127,1.95101,0.92567
346.125,20.47661,-0.33926,2.05697,0.92365
349.325,20.57424,-0.38273,2.19391,0.92162
352.525,20.67205,-0.43529,2.36342,0.91958
355.725,20.77032,-0.49833,2.5808,0.91753
358.925,20.8683,-0.57343,2.84532,0.91547
362.125,20.96679,-0.66593,3.16704,0.91339
365.325,21.0653,-0.77562,3.54963,0.91131
368.525,21.1641,-0.91085,3.99831,0.90922
371.725,21.26285,-1.06517,4.49751,0.90712
374.925,21.3625,-1.25722,5.0389,0.90501
378.125,21.4621,-1.47107,5.56642,0.90289
381.325,21.56179,-1.72756,6.01739,0.90076
384.525,21.66181,-1.99474,6.29671,0.89862
387.725,21.76166,-2.26299,6.3174,0.89648
390.925,21.86115,-2.52363,6.02175,0.89432
394.125,21.9604,-2.76376,5.37759,0.89215
397.325,22.0591,-2.95337,4.36566,0.88998
400.525,22.1569,-3.09846,3.11969,0.88779
403.725,22.25437,-3.18474,1.95303,0.8856
406.925,22.35146,-3.22494,1.15457,0.8834
410.125,22.4485,-3.241,0.72097,0.88119
413.325,22.5461,-3.24726,0.51089,0.87897
416.525,22.64408,-3.25346,0.4119,0.87674
419.725,22.74232,-3.25769,0.36361,0.87451
422.925,22.84091,-3.26226,0.34168,0.87227
426.125,22.93984,-3.26573,0.32963,0.87001
429.325,23.03908,-3.26955,0.31973,0.86776
432.525,23.13816,-3.27164,0.31403,0.86549
435.725,23.23761,-3.27428,0.30864,0.86321
438.925,23.3379,-3.27877,0.30245,0.86093
442.125,23.4377,-3.28141,0.30132,0.85864
445.325,23.53787,-3.28404,0.29445,0.85634
448.525,23.6381,-3.2869,0.29045,0.85404
451.725,23.73842,-3.29084,0.28633,0.85172
454.925,23.83899,-3.29217,0.28409,0.8494
458.125,23.93975,-3.29481,0.28303,0.84708
461.325,24.04024,-3.29864,0.27689,0.84474
464.525,24.14124,-3.30154,0.27612,0.8424
467.725,24.24249,-3.30457,0.27147,0.84006
470.925,24.34347,-3.30679,0.2685,0.8377
474.125,24.4448,-3.30975,0.26257,0.83534
477.325,24.54622,-3.31158,0.25988,0.83297
480.525,24.6477,-3.31465,0.25788,0.8306
483.725,24.74917,-3.31644,0.25581,0.82822
486.925,24.8508,-3.31908,0.2533,0.82583
490.125,24.95251,-3.32159,0.25354,0.82344
493.325,25.05436,-3.32301,0.2477,0.82104
496.525,25.1563,-3.32566,0.245,0.81863
499.725,25.25832,-3.3283,0.24315,0.81622
502.925,25.3604,-3.33099,0.24378,0.8138
506.125,25.4622,-3.33118,0.24207,0.81138
509.325,25.56464,-3.33386,0.24104,0.80895
512.525,25.66705,-3.33622,0.23943,0.80652
515.725,25.76942,-3.33751,0.2421,0.80408
518.925,25.87181,-3.33942,0.24459,0.80163
522.125,25.97423,-3.34147,0.24829,0.79918
525.325,26.07686,-3.34277,0.24624,0.79672
528.525,26.17944,-3.3441,0.24843,0.79426
531.725,26.2822,-3.34605,0.24701,0.7918
534.925,26.3849,-3.34675,0.24606,0.78933
538.125,26.4879,-3.34905,0.24496,0.78685
541.325,26.5908,-3.34988,0.25109,0.78437
544.525,26.6938,-3.35028,0.26489,0.78189
547.725,26.7966,-3.35168,0.27233,0.7794
550.925,26.9,-3.353,0.28215,0.7769
554.125,27.00317,-3.35529,0.28228,0.7744
557.325,27.1066,-3.35565,0.29154,0.7719
560.525,27.21005,-3.35961,0.29691,0.76939
563.725,27.31353,-3.361,0.30133,0.76688
566.925,27.41713,-3.36221,0.30494,0.76436
570.125,27.52088,-3.3609,0.30684,0.76184
573.325,27.62469,-3.36224,0.30405,0.75932
576.525,27.7285,-3.36354,0.29738,0.75679
579.725,27.8327,-3.36491,0.29111,0.75426
582.925,27.9368,-3.36485,0.28393,0.75173
586.125,28.041,-3.36485,0.27762,0.74919
589.325,28.1453,-3.36748,0.27213,0.74665
592.525,28.24963,-3.36749,0.26339,0.7441
595.725,28.35408,-3.3689,0.25873,0.74155
598.925,28.45852,-3.36881,0.2516,0.739
602.125,28.5633,-3.37031,0.24462,0.73645
605.325,28.6681,-3.37012,0.24206,0.73389
608.525,28.7727,-3.37009,0.23717,0.73133
611.725,28.8776,-3.37312,0.23572,0.72876
614.925,28.9825,-3.3719,0.22882,0.7262
618.125,29.0876,-3.37308,0.22512,0.72363
621.325,29.19251,-3.37441,0.22273,0.72105
624.525,29.2973,-3.37571,0.22082,0.71848
627.725,29.40264,-3.37601,0.21896,0.7159
630.925,29.5076,-3.37705,0.21213,0.71332
634.125,29.6128,-3.3777,0.21296,0.71074
637.325,29.71807,-3.37734,0.21216,0.70816
640.525,29.8231,-3.37967,0.21653,0.70557
643.725,29.9283,-3.37965,0.21549,0.70298
646.925,30.03384,-3.381,0.22036,0.70039
650.125,30.13904,-3.381,0.22114,0.6978
653.325,30.24445,-3.38101,0.2202,0.6952
656.525,30.34965,-3.38334,0.21804,0.69261
659.725,30.45478,-3.38297,0.21578,0.69001
662.925,30.5602,-3.38429,0.20672,0.68741
666.125,30.66573,-3.38429,0.20229,0.68481
669.325,30.77105,-3.38495,0.19878,0.6822
672.525,30.8767,-3.38495,0.19887,0.6796
675.725,30.982,-3.38475,0.20118,0.677
678.925,31.08778,-3.38627,0.20144,0.67439
682.125,31.1933,-3.38626,0.20111,0.67178
685.325,31.29887,-3.38626,0.20287,0.66917
688.525,31.40468,-3.38758,0.20456,0.66656
691.725,31.51052,-3.38856,0.20445,0.66395
694.925,31.6163,-3.38825,0.21076,0.66134
698.125,31.72208,-3.38819,0.21418,0.65873
701.325,31.82807,-3.38889,0.21656,0.65612
704.525,31.93388,-3.3889,0.21902,0.6535
707.725,32.03976,-3.39021,0.21861,0.65089
710.925,32.14597,-3.39088,0.21853,0.64827
714.125,32.25169,-3.39216,0.22196,0.64566
717.325,32.35823,-3.39153,0.22092,0.64304
720.525,32.46438,-3.39021,0.2187,0.64043
723.725,32.57079,-3.39285,0.21915,0.63781
726.925,32.67722,-3.39258,0.21601,0.6352
730.125,32.78355,-3.39285,0.22439,0.63258
733.325,32.8902,-3.39292,0.22262,0.62996
736.525,32.99643,-3.39417,0.22143,0.62735
739.725,33.10309,-3.39417,0.21974,0.62473
742.925,33.20943,-3.39416,0.22191,0.62212
746.125,33.31615,-3.39548,0.2212,0.6195
749.325,33.42269,-3.39416,0.21993,0.61689
752.525,33.5294,-3.39416,0.22039,0.61427
755.725,33.63615,-3.39548,0.22209,0.61166
758.925,33.74304,-3.39548,0.21701,0.60905
762.125,33.84977,-3.39549,0.21437,0.60644
765.325,33.95681,-3.39549,0.21351,0.60382
768.525,34.06366,-3.39585,0.2102,0.60121
771.725,34.17064,-3.39548,0.21003,0.5986
774.925,34.27767,-3.3968,0.21065,0.59599
778.125,34.38467,-3.39745,0.2072,0.59339
781.325,34.49173,-3.39682,0.20842,0.59078
784.525,34.5987,-3.39812,0.20549,0.58818
787.725,34.70562,-3.39582,0.20621,0.58557
790.925,34.8132,-3.39788,0.20787,0.58297
794.125,34.92033,-3.39845,0.20275,0.58037
796.425,34.99725,-3.39977,0.20509,0.5785