File: 01_Data/Feather_PillowA_Cover/STA/N2/30K_min/Feather_Pillow_Cover_STA_N2_30KData_2216_R2.csv
##Temp./Â°C,Time/min,Mass loss(subtr.2)/mg,DSC(subtr.2)/(mW/mg),Sensit./(uV/mW)
48.488,10.00917,-0.05797,0.03353084,1.05402
51.688,10.88395,-0.06125692,0.22883,1.05336
54.888,11.11867,-0.06116913,0.37056,1.05269
58.088,11.29852,-0.061572,0.48968,1.052
61.288,11.45417,-0.06227118,0.58752,1.05128
64.488,11.59503,-0.06214232,0.67187,1.05056
67.688,11.72687,-0.06033683,0.74891,1.04981
70.888,11.853,-0.06545654,0.81909,1.04904
74.088,11.97447,-0.06631405,0.88134,1.04826
77.288,12.0931,-0.06644152,0.93937,1.04745
80.488,12.20882,-0.06880581,0.99159,1.04663
83.688,12.3229,-0.07249404,1.04513,1.04579
86.888,12.43505,-0.07236568,1.08894,1.04493
90.088,12.54583,-0.07212588,1.13001,1.04406
93.288,12.65558,-0.0735524,1.16732,1.04316
96.488,12.76432,-0.07742167,1.19968,1.04225
99.688,12.87237,-0.08013457,1.22393,1.04133
102.888,12.97987,-0.0825057,1.24159,1.04038
106.088,13.0874,-0.08460266,1.25128,1.03942
109.288,13.19426,-0.08673343,1.25723,1.03843
112.488,13.30124,-0.08935167,1.25392,1.03744
115.688,13.4076,-0.09070902,1.2479,1.03642
118.888,13.51348,-0.09067958,1.23976,1.03539
122.088,13.619,-0.092,1.22957,1.03434
125.288,13.72391,-0.09199998,1.21961,1.03327
128.488,13.82869,-0.09331821,1.20935,1.03218
131.688,13.9325,-0.09364538,1.20398,1.03108
134.888,14.03604,-0.09497,1.1993,1.02997
138.088,14.1389,-0.09497002,1.20067,1.02883
141.288,14.2413,-0.09627918,1.20098,1.02768
144.488,14.34356,-0.09763054,1.2069,1.02651
147.688,14.44501,-0.09622808,1.21681,1.02533
150.888,14.5461,-0.09630516,1.22469,1.02413
154.088,14.6473,-0.09759479,1.23534,1.02291
157.288,14.74784,-0.09692363,1.24659,1.02168
160.488,14.8485,-0.09760003,1.25944,1.02043
163.688,14.94869,-0.09890981,1.27046,1.01916
166.888,15.0488,-0.09957,1.28518,1.01788
170.088,15.1485,-0.09956997,1.30017,1.01659
173.288,15.2479,-0.09892607,1.31285,1.01527
176.488,15.3472,-0.10056,1.32631,1.01395
179.688,15.44612,-0.10008,1.33942,1.0126
182.888,15.54466,-0.09853494,1.35143,1.01124
186.088,15.6426,-0.09858968,1.36341,1.00987
189.288,15.74073,-0.1012,1.3756,1.00848
192.488,15.8384,-0.10122,1.39022,1.00707
195.688,15.9359,-0.10122,1.40078,1.00565
198.888,16.0334,-0.10221,1.41091,1.00422
202.088,16.13056,-0.10221,1.42311,1.00277
205.288,16.22774,-0.10221,1.43354,1.0013
208.488,16.32484,-0.10221,1.44316,0.99983
211.688,16.42136,-0.10221,1.45167,0.99833
214.888,16.5187,-0.10254,1.4603,0.99682
218.088,16.6155,-0.10287,1.47032,0.9953
221.288,16.7123,-0.10485,1.47793,0.99376
224.488,16.80893,-0.10561,1.48551,0.99221
227.688,16.90571,-0.10429,1.49693,0.99065
230.888,17.00238,-0.10563,1.5026,0.98907
234.088,17.09871,-0.10759,1.5109,0.98747
237.288,17.19502,-0.1087,1.51906,0.98587
240.488,17.2914,-0.10891,1.52687,0.98424
243.688,17.3876,-0.11016,1.53568,0.98261
246.888,17.48377,-0.11023,1.54461,0.98096
250.088,17.58012,-0.11327,1.5514,0.9793
253.288,17.67632,-0.11549,1.56145,0.97762
256.488,17.7725,-0.11681,1.56891,0.97594
259.688,17.86869,-0.11814,1.58026,0.97423
262.888,17.96473,-0.12219,1.58605,0.97252
266.088,18.06093,-0.1248,1.58561,0.97079
269.288,18.15715,-0.12883,1.59185,0.96905
272.488,18.2536,-0.13049,1.59991,0.9673
275.688,18.3497,-0.13414,1.6085,0.96553
278.888,18.44613,-0.13581,1.61933,0.96375
282.088,18.54239,-0.14148,1.63129,0.96196
285.288,18.63871,-0.1475,1.64384,0.96016
288.488,18.7353,-0.15264,1.65531,0.95834
291.688,18.83176,-0.15662,1.66867,0.95652
294.888,18.9281,-0.16258,1.68077,0.95468
298.088,19.0247,-0.16941,1.69626,0.95282
301.288,19.12141,-0.17476,1.71004,0.95096
304.488,19.21796,-0.18302,1.72347,0.94908
307.688,19.31478,-0.19242,1.74248,0.9472
310.888,19.4113,-0.20162,1.75673,0.9453
314.088,19.50805,-0.21212,1.77855,0.94339
317.288,19.6049,-0.22255,1.80254,0.94147
320.488,19.70172,-0.23611,1.82893,0.93953
323.688,19.79872,-0.25076,1.85824,0.93759
326.888,19.89561,-0.26752,1.89403,0.93563
330.088,19.99265,-0.28671,1.93201,0.93367
333.288,20.0898,-0.30717,1.98222,0.93169
336.488,20.18694,-0.33237,2.03817,0.9297
339.688,20.28399,-0.36265,2.10799,0.9277
342.888,20.3819,-0.39486,2.19565,0.92569
346.088,20.47937,-0.43262,2.3037,0.92367
349.288,20.57711,-0.47783,2.44198,0.92164
352.488,20.67492,-0.5348,2.61508,0.9196
355.688,20.77284,-0.59904,2.82857,0.91755
358.888,20.8713,-0.67717,3.09353,0.91549
362.088,20.96945,-0.77071,3.41506,0.91342
365.288,21.0683,-0.88528,3.79836,0.91134
368.488,21.16723,-1.02303,4.24454,0.90925
371.688,21.26616,-1.18319,4.74476,0.90715
374.888,21.36552,-1.37661,5.28295,0.90504
378.088,21.46542,-1.59616,5.81256,0.90292
381.288,21.56537,-1.86403,6.27083,0.90079
384.488,21.66552,-2.13441,6.56878,0.89865
387.688,21.76494,-2.40948,6.61375,0.8965
390.888,21.86543,-2.68218,6.34441,0.89434
394.088,21.96467,-2.92652,5.73958,0.89218
397.288,22.06354,-3.12892,4.7908,0.89
400.488,22.16171,-3.2807,3.58595,0.88782
403.688,22.25935,-3.37936,2.40573,0.88563
406.888,22.35644,-3.42585,1.54644,0.88342
410.088,22.4534,-3.44332,1.06216,0.88121
413.288,22.55095,-3.45254,0.82689,0.879
416.488,22.6489,-3.45838,0.71321,0.87677
419.688,22.74737,-3.46371,0.66276,0.87454
422.888,22.84579,-3.46739,0.63771,0.87229
426.088,22.94475,-3.47166,0.62192,0.87004
429.288,23.04385,-3.47572,0.61195,0.86778
432.488,23.14331,-3.4787,0.60079,0.86551
435.688,23.24278,-3.48146,0.58887,0.86324
438.888,23.3426,-3.48526,0.57565,0.86096
442.088,23.4423,-3.48807,0.56892,0.85867
445.288,23.54233,-3.49209,0.56189,0.85637
448.488,23.64262,-3.49328,0.55495,0.85406
451.688,23.74297,-3.49587,0.5511,0.85175
454.888,23.84326,-3.50001,0.55251,0.84943
458.088,23.94395,-3.50401,0.55042,0.8471
461.288,24.04479,-3.50676,0.54964,0.84477
464.488,24.14549,-3.51017,0.54825,0.84243
467.688,24.24624,-3.51218,0.5465,0.84008
470.888,24.3473,-3.51543,0.5437,0.83773
474.088,24.449,-3.5179,0.54487,0.83537
477.288,24.55044,-3.52052,0.54181,0.833
480.488,24.65184,-3.52314,0.54185,0.83062
483.688,24.75347,-3.52448,0.53973,0.82824
486.888,24.85531,-3.52713,0.53791,0.82586
490.088,24.95699,-3.52999,0.53331,0.82346
493.288,25.05878,-3.53239,0.53154,0.82106
496.488,25.16081,-3.53514,0.52804,0.81866
499.688,25.2627,-3.5378,0.52332,0.81625
502.888,25.3646,-3.54042,0.51904,0.81383
506.088,25.46661,-3.54246,0.51828,0.81141
509.288,25.56885,-3.54434,0.51615,0.80898
512.488,25.6711,-3.5462,0.5135,0.80654
515.688,25.77359,-3.54831,0.51715,0.8041
518.888,25.87575,-3.55102,0.5172,0.80166
522.088,25.97854,-3.55122,0.51331,0.79921
525.288,26.081,-3.55358,0.51261,0.79675
528.488,26.18398,-3.55491,0.51232,0.79429
531.688,26.2867,-3.55669,0.51043,0.79183
534.888,26.3895,-3.56016,0.5086,0.78936
538.088,26.4927,-3.56016,0.50228,0.78688
541.288,26.59569,-3.56148,0.50457,0.7844
544.488,26.6987,-3.56279,0.50776,0.78191
547.688,26.8017,-3.56412,0.51467,0.77942
550.888,26.9051,-3.56577,0.51396,0.77693
554.088,27.0083,-3.56949,0.51447,0.77443
557.288,27.11153,-3.5692,0.51744,0.77193
560.488,27.21482,-3.57021,0.51799,0.76942
563.688,27.31878,-3.57191,0.5162,0.76691
566.888,27.4224,-3.57389,0.50916,0.76439
570.088,27.5262,-3.57508,0.50322,0.76187
573.288,27.63027,-3.57653,0.49036,0.75935
576.488,27.73442,-3.5775,0.48258,0.75682
579.688,27.83855,-3.57883,0.47512,0.75429
582.888,27.94247,-3.57781,0.46688,0.75176
586.088,28.04702,-3.58164,0.46032,0.74922
589.288,28.15148,-3.58181,0.45728,0.74668
592.488,28.2557,-3.58301,0.45166,0.74413
595.688,28.36038,-3.58575,0.4489,0.74158
598.888,28.4649,-3.58706,0.44337,0.73903
602.088,28.5695,-3.58739,0.43921,0.73648
605.288,28.6742,-3.58739,0.4365,0.73392
608.488,28.7789,-3.58739,0.43563,0.73136
611.688,28.8837,-3.59002,0.43409,0.72879
614.888,28.98852,-3.59002,0.4318,0.72623
618.088,29.0936,-3.59002,0.43136,0.72366
621.288,29.1985,-3.59131,0.43433,0.72108
624.488,29.30364,-3.59402,0.43454,0.71851
627.688,29.4085,-3.59529,0.43365,0.71593
630.888,29.51355,-3.59302,0.43419,0.71335
634.088,29.6184,-3.59574,0.43339,0.71077
637.288,29.72372,-3.59705,0.4371,0.70819
640.488,29.82897,-3.59945,0.44072,0.7056
643.688,29.9339,-3.5998,0.44619,0.70301
646.888,30.03902,-3.59915,0.44558,0.70042
650.088,30.14394,-3.60109,0.45035,0.69783
653.288,30.2491,-3.59935,0.4516,0.69523
656.488,30.35427,-3.60022,0.44576,0.69264
659.688,30.4597,-3.6027,0.44526,0.69004
662.888,30.5649,-3.60331,0.44217,0.68744
666.088,30.6702,-3.60463,0.4388,0.68484
669.288,30.77532,-3.60463,0.44125,0.68223
672.488,30.88105,-3.6046,0.44399,0.67963
675.688,30.98637,-3.60397,0.44357,0.67703
678.888,31.09197,-3.60539,0.45081,0.67442
682.088,31.19776,-3.60895,0.44968,0.67181
685.288,31.3034,-3.60627,0.44954,0.6692
688.488,31.40895,-3.60627,0.45105,0.66659
691.688,31.51466,-3.60758,0.45243,0.66398
694.888,31.6204,-3.60894,0.4514,0.66137
698.088,31.72605,-3.61022,0.45016,0.65876
701.288,31.83195,-3.60889,0.45374,0.65615
704.488,31.9379,-3.60814,0.45541,0.65353
707.688,32.0439,-3.60903,0.45752,0.65092
710.888,32.14993,-3.60891,0.45971,0.6483
714.088,32.256,-3.60904,0.4632,0.64569
717.288,32.36235,-3.61024,0.46609,0.64307
720.488,32.46863,-3.61156,0.46485,0.64046
723.688,32.57493,-3.61385,0.4618,0.63784
726.888,32.68105,-3.61253,0.46286,0.63523
730.088,32.78771,-3.61439,0.4671,0.63261
733.288,32.89413,-3.61681,0.46308,0.62999
736.488,33.0006,-3.61685,0.46585,0.62738
739.688,33.1072,-3.6168,0.46121,0.62476
742.888,33.21382,-3.6155,0.46542,0.62215
746.088,33.32049,-3.61419,0.46036,0.61953
749.288,33.4271,-3.6168,0.46324,0.61692
752.488,33.53371,-3.61549,0.46157,0.6143
755.688,33.64052,-3.61547,0.46407,0.61169
758.888,33.74709,-3.61681,0.46009,0.60908
762.088,33.85392,-3.61817,0.45987,0.60647
765.288,33.9607,-3.61813,0.46335,0.60385
768.488,34.0674,-3.61878,0.46562,0.60124
771.688,34.17415,-3.6201,0.4682,0.59863
774.888,34.28098,-3.61943,0.46604,0.59602
778.088,34.38762,-3.61813,0.46549,0.59342
781.288,34.49459,-3.61948,0.46788,0.59081
784.488,34.60137,-3.62076,0.46644,0.58821
787.688,34.7085,-3.61943,0.4698,0.5856
790.888,34.8155,-3.62076,0.47149,0.583
794.088,34.9226,-3.62208,0.46946,0.5804
796.288,34.9963,-3.62348,0.47284,0.57861