File: 01_Data/Overstuffed_Chair_Polyester_Fabric/STA/N2/10K_min/Overstuffed_Chair_Polyester_Fabric_STA_N2_10KData_220131_R1.csv
##Temp./Â°C,Time/min,Mass(subtr.2)/%,DSC(subtr.2)/(mW/mg),Sensit./(uV/mW)
49.246,10.00917,99.10875,0.01455622,1.07447
52.046,11.24882,99.0496,0.10779,1.07427
54.846,11.6637,99.0536,0.15019,1.07406
57.646,12.0117,98.9924,0.17627,1.07382
60.446,12.3363,98.96075,0.18762,1.07356
63.246,12.64847,98.96087,0.19542,1.07329
66.046,12.9529,98.9603,0.20133,1.073
68.846,13.2565,98.929,0.20496,1.07269
71.646,13.55524,98.905,0.2078,1.07236
74.446,13.8506,98.9195,0.2107,1.07202
77.246,14.1429,98.90475,0.21704,1.07165
80.046,14.43302,98.9054,0.21994,1.07127
82.846,14.71976,98.88971,0.22433,1.07087
85.646,15.0037,98.93828,0.23158,1.07045
88.446,15.28605,98.87299,0.23514,1.07001
91.246,15.56679,98.84031,0.23649,1.06956
94.046,15.84551,98.87305,0.24001,1.06908
96.846,16.1228,98.84,0.24182,1.06859
99.646,16.3989,98.80725,0.24806,1.06809
102.446,16.6742,98.8317,0.25064,1.06756
105.246,16.94902,98.80725,0.25476,1.06701
108.046,17.22423,98.84,0.25925,1.06645
110.846,17.49728,98.77724,0.26448,1.06587
113.646,17.77038,98.809,0.26844,1.06527
116.446,18.0434,98.80082,0.27036,1.06466
119.246,18.31655,98.7935,0.27657,1.06403
122.046,18.58983,98.79344,0.28204,1.06337
124.846,18.86196,98.79332,0.2916,1.06271
127.646,19.13414,98.777,0.30204,1.06202
130.446,19.40559,98.7275,0.31663,1.06132
133.246,19.67684,98.76902,0.31689,1.0606
136.046,19.94758,98.76875,0.2964,1.05986
138.846,20.2175,98.74383,0.28189,1.0591
141.646,20.48849,98.736,0.27361,1.05833
144.446,20.75904,98.73575,0.27305,1.05754
147.246,21.029,98.73575,0.27475,1.05673
150.046,21.2992,98.7443,0.27873,1.05591
152.846,21.5689,98.703,0.28311,1.05507
155.646,21.838,98.67851,0.28432,1.05421
158.446,22.10746,98.71126,0.28773,1.05334
161.246,22.3765,98.69464,0.29034,1.05244
164.046,22.64469,98.70318,0.29245,1.05153
166.846,22.91339,98.67008,0.29372,1.05061
169.646,23.18151,98.67795,0.29602,1.04967
172.446,23.44983,98.64525,0.29682,1.04871
175.246,23.7183,98.63728,0.29944,1.04773
178.046,23.98614,98.66999,0.30013,1.04674
180.846,24.2547,98.63681,0.30313,1.04573
183.646,24.52251,98.63725,0.30394,1.04471
186.446,24.79027,98.63723,0.30814,1.04367
189.246,25.05741,98.67,0.31006,1.04261
192.046,25.32483,98.637,0.31088,1.04153
194.846,25.59204,98.62023,0.31553,1.04044
197.646,25.85867,98.63725,0.31653,1.03934
200.446,26.1257,98.63726,0.3218,1.03822
203.246,26.3931,98.62906,0.32436,1.03708
206.046,26.66103,98.6205,0.32899,1.03592
208.846,26.92847,98.58775,0.33325,1.03475
211.646,27.1957,98.62075,0.3426,1.03357
214.446,27.46245,98.62075,0.34615,1.03237
217.246,27.7292,98.64525,0.35811,1.03115
220.046,27.99652,98.6125,0.36733,1.02992
222.846,28.26397,98.5954,0.38115,1.02867
225.646,28.5318,98.56441,0.4024,1.02741
228.446,28.79947,98.54665,0.3981,1.02613
231.246,29.0663,98.56249,0.38032,1.02483
234.046,29.3327,98.53025,0.37847,1.02353
236.846,29.5994,98.49722,0.39009,1.0222
239.646,29.8665,98.51382,0.40273,1.02086
242.446,30.1336,98.448,0.42554,1.01951
245.246,30.40083,98.41525,0.45648,1.01814
248.046,30.6683,98.3575,0.51951,1.01676
250.846,30.93675,98.3492,0.72913,1.01536
253.646,31.2058,98.34036,1.00468,1.01394
256.446,31.47573,98.2585,1.02114,1.01252
259.246,31.7432,98.2505,0.72628,1.01107
262.046,32.00947,98.212,0.54903,1.00962
264.846,32.2755,98.14655,0.46167,1.00815
267.646,32.5426,98.09701,0.42052,1.00666
270.446,32.8091,98.097,0.40095,1.00516
273.246,33.07602,98.04302,0.39425,1.00365
276.046,33.34384,98.00661,0.39472,1.00212
278.846,33.61152,97.93228,0.39589,1.00058
281.646,33.87938,97.91598,0.39655,0.99902
284.446,34.1474,97.82848,0.39794,0.99745
287.246,34.4163,97.77855,0.3962,0.99587
290.046,34.6848,97.6533,0.3974,0.99427
292.846,34.95381,97.59532,0.39694,0.99266
295.646,35.22279,97.53401,0.39601,0.99104
298.446,35.49115,97.4661,0.3891,0.9894
301.246,35.75894,97.3597,0.38946,0.98775
304.046,36.02644,97.28525,0.38933,0.98609
306.846,36.29403,97.19676,0.38702,0.98441
309.646,36.56162,97.13725,0.38536,0.98272
312.446,36.8298,97.0711,0.38616,0.98102
315.246,37.09874,96.98916,0.3846,0.97931
318.046,37.36779,96.90654,0.38228,0.97758
320.846,37.6372,96.84101,0.37915,0.97584
323.646,37.90645,96.73398,0.38466,0.97409
326.446,38.17711,96.66728,0.38386,0.97232
329.246,38.447,96.63761,0.38443,0.97054
332.046,38.71656,96.49775,0.387,0.96875
334.846,38.9865,96.3719,0.3876,0.96695
337.646,39.256,96.29632,0.39285,0.96514
340.446,39.52597,96.17321,0.39818,0.96331
343.246,39.79606,96.04649,0.39819,0.96147
346.046,40.0666,95.92066,0.40129,0.95962
348.846,40.33761,95.75574,0.40287,0.95776
351.646,40.60857,95.54942,0.40436,0.95589
354.446,40.88033,95.36287,0.4067,0.954
357.246,41.15194,95.12621,0.41234,0.95211
360.046,41.42341,94.89141,0.41695,0.9502
362.846,41.69529,94.6272,0.41918,0.94828
365.646,41.96642,94.34184,0.4203,0.94635
368.446,42.23806,94.06582,0.42332,0.94441
371.246,42.5096,93.76046,0.42304,0.94246
374.046,42.78174,93.4165,0.42052,0.94049
376.846,43.05341,93.1025,0.4165,0.93852
379.646,43.32574,92.75032,0.41086,0.93653
382.446,43.59819,92.35095,0.40809,0.93454
385.246,43.87044,91.9988,0.40676,0.93253
388.046,44.143,91.58938,0.41792,0.93052
390.846,44.41557,91.09931,0.43663,0.92849
393.646,44.6886,90.50554,0.45585,0.92645
396.446,44.96116,89.7572,0.46613,0.92441
399.246,45.2339,88.93186,0.4539,0.92235
402.046,45.50683,87.96899,0.43922,0.92028
404.846,45.77924,86.75527,0.43333,0.91821
407.646,46.05212,85.40693,0.43993,0.91612
410.446,46.3255,83.7248,0.46719,0.91403
413.246,46.59926,81.71729,0.50053,0.91192
416.046,46.8728,79.32259,0.54978,0.90981
418.846,47.14719,76.54839,0.59656,0.90768
421.646,47.421,73.3081,0.62943,0.90555
424.446,47.69531,69.63909,0.65555,0.90341
427.246,47.96958,65.6776,0.66524,0.90125
430.046,48.24408,61.30868,0.69188,0.89909
432.846,48.51856,56.56671,0.71008,0.89692
435.646,48.79343,51.4844,0.70139,0.89475
438.446,49.06787,46.39712,0.67797,0.89256
441.246,49.34272,41.4431,0.63083,0.89036
444.046,49.61658,36.9239,0.56498,0.88816
446.846,49.89127,33.111,0.47991,0.88595
449.646,50.16469,30.10878,0.3869,0.88373
452.446,50.43778,27.8525,0.30905,0.8815
455.246,50.71116,26.14844,0.25552,0.87926
458.046,50.98536,24.877,0.21251,0.87702
460.846,51.26082,23.79117,0.16618,0.87477
463.646,51.53585,22.97853,0.12201,0.87251
466.446,51.81132,22.309,0.07955871,0.87024
469.246,52.0871,21.82493,0.03714106,0.86796
472.046,52.36305,21.35742,0.004468734,0.86568
474.846,52.63839,20.98033,-0.02382195,0.86339
477.646,52.91355,20.68429,-0.04133335,0.86109
480.446,53.18869,20.47025,-0.05469542,0.85879
483.246,53.46445,20.24636,-0.04685176,0.85648
486.046,53.73949,20.0911,-0.04775645,0.85416
488.846,54.0144,19.95233,-0.03692238,0.85183
491.646,54.2904,19.7987,-0.03836364,0.8495
494.446,54.5668,19.70206,-0.04419558,0.84716
497.246,54.8445,19.58625,-0.0508167,0.84482
500.046,55.12242,19.5221,-0.05490031,0.84246
502.846,55.4,19.41639,-0.06152982,0.84011
505.646,55.67836,19.33401,-0.06914003,0.83774
508.446,55.9559,19.26379,-0.07284092,0.83537
511.246,56.23324,19.19408,-0.07570933,0.83299
514.046,56.51092,19.16098,-0.07984658,0.83061
516.846,56.78971,19.1285,-0.08057487,0.82822
519.646,57.0676,19.06542,-0.0869671,0.82583
522.446,57.3457,19.0239,-0.08867778,0.82343
525.246,57.62438,18.98842,-0.09266173,0.82102
528.046,57.90274,18.9311,-0.09362842,0.81861
530.846,58.18147,18.93955,-0.09135812,0.81619
533.646,58.45998,18.87322,-0.09445568,0.81377
536.446,58.7384,18.81447,-0.0935722,0.81135
539.246,59.0171,18.824,-0.09696004,0.80891
542.046,59.2958,18.7587,-0.09857165,0.80648
544.846,59.57369,18.7239,-0.10383,0.80403
547.646,59.85176,18.66346,-0.10998,0.80159
550.446,60.1299,18.62668,-0.11039,0.79914
553.246,60.4072,18.56075,-0.11699,0.79668
556.046,60.68512,18.528,-0.12067,0.79422
558.846,60.96305,18.48647,-0.12631,0.79175
561.646,61.2412,18.35984,-0.12889,0.78928
564.446,61.52069,18.34349,-0.13712,0.78681
567.246,61.8007,18.32268,-0.13776,0.78433
570.046,62.08138,18.2621,-0.14486,0.78185
572.846,62.36221,18.22361,-0.14748,0.77936
575.646,62.6429,18.17886,-0.15182,0.77687
578.446,62.9233,18.11651,-0.15835,0.77438
581.246,63.20309,18.05544,-0.1592,0.77188
584.046,63.48293,17.98604,-0.16124,0.76938
586.846,63.76203,17.95459,-0.1655,0.76688
589.646,64.0407,17.88109,-0.16542,0.76437
592.446,64.3203,17.85594,-0.169,0.76186
595.246,64.5997,17.79025,-0.17254,0.75935
598.046,64.88042,17.7571,-0.17423,0.75683
600.846,65.161,17.69121,-0.17759,0.75431
603.646,65.44261,17.6505,-0.18454,0.75179
606.446,65.7239,17.59171,-0.19003,0.74926
609.246,66.0049,17.55317,-0.18871,0.74673
612.046,66.28588,17.49428,-0.19314,0.7442
614.846,66.56665,17.46125,-0.19494,0.74167
617.646,66.84785,17.47736,-0.19709,0.73913
620.446,67.12876,17.37875,-0.19808,0.73659
623.246,67.40929,17.34594,-0.20137,0.73405
626.046,67.69022,17.3129,-0.20055,0.73151
628.846,67.97068,17.2637,-0.20132,0.72896
631.646,68.2516,17.239,-0.20054,0.72642
634.446,68.53344,17.23301,-0.19737,0.72387
637.246,68.8155,17.2307,-0.19698,0.72131
640.046,69.09642,17.12999,-0.20466,0.71876
642.846,69.3779,17.14023,-0.20255,0.71621
645.646,69.658,17.12399,-0.20501,0.71365
648.446,69.93772,17.08182,-0.20738,0.71109
651.246,70.2187,17.05801,-0.20616,0.70854
654.046,70.4992,17.02528,-0.21476,0.70598
656.846,70.7802,16.9597,-0.21841,0.70341
659.646,71.06126,16.9925,-0.22577,0.70085
662.446,71.343,16.99471,-0.18831,0.69829
665.246,71.6246,16.99225,-0.19116,0.69572
668.046,71.90613,16.92416,-0.19705,0.69316
670.846,72.18819,16.92649,-0.19773,0.69059
673.646,72.46987,16.8935,-0.20287,0.68802
676.446,72.75304,16.92655,-0.20959,0.68546
679.246,73.0361,16.86092,-0.21705,0.68289
682.046,73.3198,16.86064,-0.22226,0.68032
684.846,73.60216,16.8185,-0.22478,0.67775
687.646,73.88432,16.84701,-0.22926,0.67518
690.446,74.16655,16.781,-0.23666,0.67261
693.246,74.44864,16.74825,-0.27551,0.67004
696.046,74.7299,16.74827,-0.2997,0.66747
698.646,74.99074,16.773,-0.31023,0.66509