File: 01_Data/Overstuffed_Chair_Polyester_Fabric/STA/N2/10K_min/Overstuffed_Chair_Polyester_Fabric_STA_N2_10KData_220204_R3.csv
##Temp./Â°C,Time/min,Mass(subtr.2)/%,DSC(subtr.2)/(mW/mg),Sensit./(uV/mW)
49.256,10.00917,99.15865,0.004271041,1.07447
51.956,11.2307,99.1223,0.08494821,1.07428
54.656,11.6344,99.07119,0.12822,1.07407
57.356,11.97284,99.0236,0.15572,1.07385
60.056,12.28663,99.05124,0.17232,1.0736
62.756,12.58812,99.01686,0.18027,1.07334
65.456,12.88376,99.02031,0.185,1.07306
68.156,13.1745,99.01855,0.19209,1.07277
70.856,13.46164,99.01427,0.19787,1.07246
73.556,13.74794,98.9666,0.20335,1.07213
76.256,14.03091,98.95222,0.20435,1.07178
78.956,14.31192,98.95328,0.20885,1.07142
81.656,14.5898,98.95549,0.21418,1.07104
84.356,14.865,98.9907,0.21866,1.07065
87.056,15.13843,98.92231,0.22295,1.07023
89.756,15.41041,98.9223,0.22565,1.0698
92.456,15.68,98.8895,0.22847,1.06936
95.156,15.94907,98.881,0.23185,1.06889
97.856,16.21665,98.8566,0.23612,1.06841
100.556,16.4837,98.89153,0.24112,1.06792
103.256,16.7497,98.85633,0.24464,1.0674
105.956,17.0152,98.8561,0.24851,1.06687
108.656,17.2799,98.85637,0.25701,1.06633
111.356,17.54385,98.84791,0.25944,1.06576
114.056,17.808,98.82341,0.26639,1.06518
116.756,18.07199,98.82341,0.27215,1.06459
119.456,18.3363,98.80674,0.27746,1.06398
122.156,18.5992,98.7822,0.2834,1.06335
124.856,18.86219,98.7739,0.29013,1.0627
127.556,19.12454,98.72832,0.30207,1.06204
130.256,19.38661,98.74085,0.31687,1.06137
132.956,19.64835,98.708,0.31861,1.06067
135.656,19.90999,98.67494,0.30371,1.05996
138.356,20.17062,98.67494,0.28936,1.05924
141.056,20.43123,98.67494,0.28506,1.05849
143.756,20.69083,98.6092,0.28653,1.05774
146.456,20.95061,98.64188,0.28855,1.05696
149.156,21.20993,98.57595,0.29451,1.05617
151.856,21.46896,98.57602,0.29677,1.05537
154.556,21.7278,98.6091,0.29859,1.05455
157.256,21.98702,98.57733,0.3031,1.05371
159.956,22.24628,98.56014,0.30601,1.05286
162.656,22.5047,98.58426,0.30937,1.05199
165.356,22.76407,98.58421,0.31351,1.0511
168.056,23.0234,98.58396,0.31647,1.0502
170.756,23.2821,98.58455,0.32125,1.04929
173.456,23.54031,98.58428,0.32193,1.04836
176.156,23.7991,98.61704,0.32676,1.04741
178.856,24.05754,98.64164,0.32879,1.04645
181.556,24.31578,98.60884,0.33077,1.04547
184.256,24.57297,98.64185,0.3345,1.04448
186.956,24.83077,98.64185,0.33816,1.04347
189.656,25.08865,98.60902,0.34142,1.04245
192.356,25.34606,98.63446,0.34692,1.04141
195.056,25.60432,98.60075,0.34977,1.04036
197.756,25.8617,98.58421,0.3512,1.03929
200.456,26.11965,98.56785,0.35828,1.03821
203.156,26.37779,98.55827,0.36196,1.03711
205.856,26.6352,98.54313,0.3656,1.036
208.556,26.8925,98.54311,0.37445,1.03488
211.256,27.14937,98.54308,0.37956,1.03373
213.956,27.4067,98.5346,0.38798,1.03258
216.656,27.66415,98.47762,0.39959,1.03141
219.356,27.9223,98.4684,0.40704,1.03022
222.056,28.18143,98.41906,0.42099,1.02902
224.756,28.44012,98.43584,0.43949,1.02781
227.456,28.69884,98.4193,0.45316,1.02658
230.156,28.95695,98.41102,0.43667,1.02534
232.856,29.2142,98.36967,0.42916,1.02408
235.556,29.47151,98.36968,0.43529,1.02281
238.256,29.72843,98.39449,0.44822,1.02153
240.956,29.98568,98.33659,0.46582,1.02023
243.656,30.2435,98.30379,0.49129,1.01892
246.356,30.50201,98.30512,0.52654,1.01759
249.056,30.76155,98.26266,0.62452,1.01625
251.756,31.02122,98.24586,0.86802,1.0149
254.456,31.28133,98.2141,1.11696,1.01353
257.156,31.5412,98.11389,1.0517,1.01215
259.856,31.79948,98.08898,0.76223,1.01076
262.556,32.05643,97.98421,0.60337,1.00935
265.256,32.31321,97.9491,0.52873,1.00793
267.956,32.57015,97.88348,0.49978,1.00649
270.656,32.82816,97.85865,0.48802,1.00505
273.356,33.08639,97.8179,0.4875,1.00359
276.056,33.3444,97.73487,0.48843,1.00211
278.756,33.60265,97.70175,0.49113,1.00063
281.456,33.86005,97.63466,0.4974,0.99913
284.156,34.11853,97.6036,0.50047,0.99762
286.856,34.3763,97.53684,0.50053,0.99609
289.556,34.635,97.47068,0.50071,0.99455
292.256,34.89365,97.40476,0.49613,0.993
294.956,35.15255,97.3471,0.49451,0.99144
297.656,35.41158,97.27296,0.49591,0.98987
300.356,35.67,97.20702,0.49738,0.98828
303.056,35.92801,97.10802,0.49544,0.98668
305.756,36.1866,97.07509,0.49349,0.98507
308.456,36.44497,96.9759,0.49098,0.98344
311.156,36.70321,96.90279,0.48924,0.98181
313.856,36.96201,96.7997,0.49037,0.98016
316.556,37.22033,96.7286,0.49083,0.9785
319.256,37.47873,96.60475,0.49403,0.97683
321.956,37.738,96.57189,0.49876,0.97515
324.656,37.99693,96.47502,0.50753,0.97345
327.356,38.25522,96.37386,0.54762,0.97174
330.056,38.51328,96.29148,0.57371,0.97003
332.756,38.7729,96.221,0.58873,0.9683
335.456,39.0323,96.09532,0.5932,0.96656
338.156,39.29208,96.01931,0.59723,0.96481
340.856,39.5514,95.88746,0.60332,0.96304
343.556,39.81068,95.7512,0.61817,0.96127
346.256,40.0698,95.58774,0.63489,0.95948
348.956,40.32949,95.4531,0.65945,0.95769
351.656,40.5888,95.27518,0.68979,0.95588
354.356,40.84855,95.04866,0.72104,0.95406
357.056,41.10848,94.84221,0.76122,0.95224
359.756,41.369,94.5926,0.79831,0.9504
362.456,41.62948,94.342,0.83324,0.94855
365.156,41.89049,94.1306,0.86303,0.94669
367.856,42.15128,93.83205,0.88929,0.94482
370.556,42.4129,93.536,0.91112,0.94294
373.256,42.6751,93.2468,0.92195,0.94105
375.956,42.9372,92.90298,0.91099,0.93915
378.656,43.20089,92.53686,0.88474,0.93724
381.356,43.46435,92.2098,0.84624,0.93532
384.056,43.72817,91.8492,0.8117,0.93339
386.756,43.99123,91.4717,0.79234,0.93145
389.456,44.2562,91.00345,0.78134,0.9295
392.156,44.52152,90.45446,0.76601,0.92754
394.856,44.78732,89.84244,0.73602,0.92557
397.556,45.05199,89.15638,0.73068,0.92359
400.256,45.31797,88.3657,0.68601,0.92161
402.956,45.58365,87.43732,0.64121,0.91961
405.656,45.84815,86.46977,0.63656,0.91761
408.356,46.11133,85.48557,0.6506,0.91559
411.056,46.37409,83.7761,0.66404,0.91357
413.756,46.63714,81.7135,0.68958,0.91154
416.456,46.89956,79.37313,0.72688,0.9095
419.156,47.16245,76.58414,0.77276,0.90745
421.856,47.42542,73.33978,0.82378,0.90539
424.556,47.68842,69.63217,0.85026,0.90332
427.256,47.95154,65.63217,0.85558,0.90125
429.956,48.21495,61.26869,0.8635,0.89916
432.656,48.47848,56.55928,0.87207,0.89707
435.356,48.74175,51.62369,0.8675,0.89497
438.056,49.00503,46.65715,0.8327,0.89286
440.756,49.26834,41.8973,0.7838,0.89075
443.456,49.53092,37.52851,0.70558,0.88863
446.156,49.79316,33.5839,0.60911,0.88649
448.856,50.0555,30.51111,0.5009,0.88436
451.556,50.3172,28.12218,0.39791,0.88221
454.256,50.57863,26.28821,0.31961,0.88005
456.956,50.842,24.854,0.24871,0.87789
459.656,51.10491,23.71809,0.18902,0.87572
462.356,51.3681,22.81236,0.13701,0.87355
465.056,51.63147,22.0491,0.10631,0.87137
467.756,51.89047,21.5178,0.18391,0.86918
470.456,52.14233,20.97436,0.41092,0.86698
473.156,52.41097,20.597,0.24073,0.86477
475.856,52.68235,20.27659,0.08304264,0.86256
478.556,52.95417,19.99417,-0.1572,0.86034
481.256,53.2252,19.78462,-0.33674,0.85812
483.956,53.4946,19.53491,-0.41933,0.85589
486.656,53.7633,19.41776,-0.42297,0.85365
489.356,54.03291,19.31544,-0.41341,0.85141
492.056,54.302,19.18221,-0.39717,0.84916
494.756,54.5702,19.06607,-0.38036,0.8469
497.456,54.839,18.96431,-0.36268,0.84464
500.156,55.10699,18.94802,-0.34377,0.84237
502.856,55.3757,18.8504,-0.33076,0.8401
505.556,55.64444,18.791,-0.31554,0.83782
508.256,55.91384,18.73497,-0.30097,0.83553
510.956,56.1818,18.68082,-0.29264,0.83324
513.656,56.45005,18.6839,-0.28209,0.83094
516.356,56.7183,18.65067,-0.27581,0.82864
519.056,56.9863,18.5847,-0.2708,0.82633
521.756,57.2541,18.5305,-0.26713,0.82402
524.456,57.5222,18.48321,-0.2596,0.8217
527.156,57.7902,18.4823,-0.25883,0.81938
529.856,58.05794,18.41691,-0.25653,0.81705
532.556,58.3266,18.32623,-0.25565,0.81472
535.256,58.5953,18.27512,-0.25527,0.81238
537.956,58.8649,18.23584,-0.25585,0.81003
540.656,59.13463,18.2073,-0.25568,0.80769
543.356,59.4063,18.16732,-0.2559,0.80533
546.056,59.6774,18.0945,-0.25791,0.80298
548.756,59.9482,18.06266,-0.25966,0.80062
551.456,60.2182,18.06241,-0.26302,0.79825
554.156,60.4872,18.0213,-0.26339,0.79588
556.856,60.75665,17.9696,-0.26767,0.79351
559.556,61.02519,17.92224,-0.27233,0.79113
562.256,61.295,17.9223,-0.27234,0.78875
564.956,61.56403,17.88891,-0.27689,0.78636
567.656,61.8333,17.82338,-0.28134,0.78397
570.356,62.103,17.75739,-0.28531,0.78158
573.056,62.372,17.72622,-0.2958,0.77918
575.756,62.6413,17.71491,-0.29918,0.77678
578.456,62.91089,17.67474,-0.30875,0.77437
581.156,63.181,17.5925,-0.31168,0.77196
583.856,63.45086,17.59248,-0.31332,0.76955
586.556,63.7205,17.52282,-0.31253,0.76714
589.256,63.99018,17.52356,-0.31231,0.76472
591.956,64.25954,17.45774,-0.31283,0.7623
594.656,64.52982,17.4575,-0.30594,0.75988
597.356,64.8014,17.45789,-0.3018,0.75745
600.056,65.07319,17.4001,-0.30157,0.75502
602.756,65.34526,17.35765,-0.30086,0.75259
605.456,65.6177,17.30077,-0.29288,0.75015
608.156,65.8888,17.24336,-0.28951,0.74772
610.856,66.15944,17.18546,-0.28455,0.74528
613.556,66.42947,17.12777,-0.27833,0.74283
616.256,66.69981,17.0865,-0.27186,0.74039
618.956,66.97017,17.00449,-0.2698,0.73794
621.656,67.2398,16.9356,-0.26675,0.73549
624.356,67.51009,16.9024,-0.26196,0.73304
627.056,67.78177,16.86944,-0.25615,0.73059
629.756,68.05395,16.76516,-0.25602,0.72813
632.456,68.32685,16.74036,-0.24972,0.72568
635.156,68.59864,16.72246,-0.24871,0.72322
637.856,68.87097,16.67749,-0.24762,0.72076
640.556,69.1426,16.6695,-0.24463,0.7183
643.256,69.41456,16.6496,-0.24288,0.71583
645.956,69.68691,16.6832,-0.24194,0.71337
648.656,69.95819,16.66316,-0.24153,0.7109
651.356,70.22952,16.67944,-0.23911,0.70843
654.056,70.50055,16.67973,-0.23583,0.70597
656.756,70.7722,16.64679,-0.23283,0.7035
659.456,71.04381,16.6797,-0.23334,0.70103
662.156,71.3156,16.65699,-0.23212,0.69855
664.856,71.58711,16.6138,-0.23942,0.69608
667.556,71.85933,16.6055,-0.23787,0.69361
670.256,72.13229,16.56416,-0.23119,0.69113
672.956,72.4047,16.53133,-0.22787,0.68866
675.656,72.6771,16.55217,-0.23112,0.68618
678.356,72.94938,16.5226,-0.23331,0.6837
681.056,73.2222,16.4654,-0.24369,0.68123
683.756,73.4944,16.4654,-0.2556,0.67875
686.456,73.76629,16.40735,-0.25012,0.67627
689.156,74.039,16.40778,-0.25229,0.6738
691.856,74.3124,16.33543,-0.25023,0.67132
694.556,74.5856,16.3572,-0.25007,0.66884
697.256,74.85861,16.35814,-0.25515,0.66636
698.556,74.99008,16.32536,-0.24288,0.66517