File: 02_Data/Polyester_Batting/Cone/Polyester_Batting_Cone_HF25Scan_210324_R2.csv
Names,Time,Stack TC,Smoke TC,Exh Press,Smoke Comp,Smoke Meas,CO Meter,CO2 Meter,O2 Meter,Sample Mass,Ext Coeff,Start Test,Flame Verif
Chan Gain,,500,500,1,1,1,1,1,1,1,1,1.0,1.0
Offset,,0,0,0.194005,0,0,0,0,0,0,0,0.0,0.0
Gain,,1,1,25.011,13.5067,16.616,1,1,1,1.00091,1.04608,1.0,1.0
Units,sec,C,C,Pa,%,%,%,%,%,g,/m,,
Baseline,,19.69,20.9658,167.571,101.23,100.441,0.000543829,0.093223,20.8133,-1.3423,0.0717426,,
49,12,17.7966,19.3147,169.933,100.824,99.8718,0.000398039,0.100051,20.7825,475.102,0.0870816,0.0,0.0
98,24.25,17.6184,19.1945,163.068,100.529,99.712,0.000638266,0.0946768,20.7927,475.153,0.0749074,0.0,0.0
147,36.5,18.6057,19.4846,164.715,100.231,99.2871,0.000590767,0.0925749,20.7943,475.143,0.0868161,0.0,0.0
196,48.75,18.0067,19.8194,169.471,100.051,99.1811,0.000341485,0.0916878,20.7954,475.122,0.0801095,0.0,0.0
245,61,18.2636,19.7918,167.259,100.059,99.1441,0.000313086,0.091912,20.7953,475.112,0.0842531,0.0,0.0
294,73.25,18.4112,19.9241,168.369,100.267,99.3819,0.000220601,0.0934981,20.7905,475.102,0.081376,0.0,0.0
343,85.5,18.7871,20.1249,163.625,100.599,99.6821,0.000368789,0.0945102,20.783,475.122,0.0839799,0.0,0.0
392,97.75,18.5438,19.9303,166.356,101.011,100.19,0.000639993,0.0953167,20.7808,475.082,0.0748477,0.0,0.0
441,110,18.5108,20.2409,168.062,101.484,100.453,4.31064e-05,0.0965435,20.7789,475.062,0.0937083,0.0,0.0
490,122.25,17.974,20.355,170.358,101.817,100.736,0.000308813,0.0971671,20.7764,475.082,0.0979626,0.0,0.0
539,134.5,18.8264,20.5121,165.392,101.946,100.795,0.000316353,0.100368,20.764,475.052,0.104263,0.0,0.0
588,146.75,19.0635,20.6838,174.043,101.82,100.616,0.000396656,0.100607,20.7668,475.042,0.10913,0.0,0.0
637,159,18.9817,20.4046,167.965,101.547,100.361,0.000384289,0.0995107,20.7687,475.032,0.107806,0.0,0.0
686,171.25,19.0346,20.9694,166.423,101.25,100.346,0.000445532,0.096782,20.784,475.012,0.0822845,0.0,0.0
735,183.5,19.1448,21.2237,165.999,101.32,99.8753,0.000313971,0.0966433,20.7815,475.042,0.131812,0.0,0.0
784,195.75,19.2039,20.7663,166.308,101.642,100.603,0.000119359,0.0953226,20.784,475.002,0.0943081,0.0,0.0
833,208,19.2616,20.6007,170.874,101.635,100.272,0.000414454,0.0929467,20.7913,474.982,0.12389,0.0,0.0
882,220.25,19.2728,20.9446,169.371,101.343,99.9144,0.000116958,0.0923389,20.7944,474.972,0.13024,0.0,0.0
931,232.5,19.7072,21.0717,170.693,100.764,99.5721,0.000666131,0.0927801,20.7907,474.962,0.109216,0.0,0.0
980,244.75,19.5727,21.2016,169.716,100.844,99.6324,0.000153388,0.0936753,20.7886,474.912,0.110936,0.0,0.0
1029,257,19.7378,21.374,167.201,101.079,99.7724,0.000321734,0.0938151,20.7885,474.902,0.11941,0.0,0.0
1078,269.25,19.3805,21.0719,173.507,101.283,99.89,0.000401648,0.0937199,20.7866,474.922,0.127063,0.0,0.0
1127,281.5,19.1647,21.0417,166.663,101.351,99.8839,0.000294065,0.0945659,20.7835,474.892,0.133781,0.0,0.0
1176,293.75,19.6234,21.2842,164.665,101.271,99.6319,0.000261667,0.0943357,20.7843,474.852,0.149719,0.0,0.0
1225,306,19.8708,21.5858,163.73,101.041,99.461,0.000493617,0.0936701,20.7865,474.832,0.144608,0.0,0.0
1274,318.25,19.316,21.2398,166.601,100.715,99.0929,0.000513181,0.0931133,20.7897,474.792,0.149016,0.0,0.0
1323,330.5,19.2936,21.7018,162.125,100.326,98.8753,0.000432709,0.0935901,20.7865,474.772,0.133624,0.0,0.0
1372,342.75,19.5179,21.695,166.141,100.077,98.6142,0.000392116,0.0930907,20.7906,474.772,0.135091,0.0,0.0
1421,355,19.4038,20.9509,166.666,100.033,98.0919,0.000819743,0.0932802,20.7891,474.772,0.179775,0.0,0.0
1470,367.25,19.3341,21.3764,167.575,100.235,98.7374,0.000508985,0.0931401,20.7884,474.732,0.138097,0.0,0.0
1519,379.5,19.6778,21.4112,163.356,100.583,98.9352,0.000438007,0.0952153,20.787,474.732,0.151567,0.0,0.0
1568,391.75,20.2195,21.6978,166.311,101.024,99.3976,0.000542724,0.0971999,20.7802,474.702,0.148961,0.0,0.0
1617,404,20.3363,21.2923,166.719,101.434,99.7866,0.000481851,0.0967672,20.7847,474.672,0.150265,0.0,0.0
1666,416.25,20.4417,22.1751,166.492,101.717,100.14,0.000391474,0.0966361,20.786,474.652,0.143367,0.0,0.0
1715,428.5,20.9412,21.9513,165.318,101.918,100.206,0.00088404,0.0950566,20.7878,474.612,0.155446,0.0,0.0
1764,440.75,20.5596,22.1364,164.8,101.971,100.102,0.000524308,0.100939,20.7793,474.602,0.169729,0.0,0.0
1813,453,19.9637,22.267,164.341,101.896,100.368,0.000404065,0.0979501,20.7859,474.552,0.138604,0.0,0.0
1862,465.25,20.032,22.402,169.632,101.726,99.9975,0.000452966,0.0963191,20.7822,474.562,0.157213,0.0,0.0
1911,477.5,20.1865,22.4075,171.509,101.503,99.8003,0.000687948,0.0965286,20.7793,474.512,0.155269,0.0,0.0
1960,489.75,21.119,21.9361,171.696,101.322,99.6628,0.00038802,0.0959047,20.7786,474.492,0.151464,0.0,0.0
2009,502,20.5187,22.2353,163.363,101.159,99.4326,0.000296191,0.0968414,20.7815,474.472,0.157928,0.0,0.0
2058,514.25,20.4234,22.6636,162.313,101.477,99.9742,0.000144767,0.0946904,20.7852,474.432,0.136943,0.0,0.0
2107,526.5,20.119,22.0076,163.242,101.672,99.7343,0.000472465,0.0965179,20.775,474.432,0.176522,0.0,0.0
2156,538.75,20.8797,21.8747,163.77,101.715,99.9438,0.000807155,0.0970883,20.7736,474.392,0.161217,0.0,0.0
2205,551,20.5819,22.7703,170.883,101.653,100.146,0.000410037,0.0989987,20.7743,474.352,0.137043,0.0,0.0
2254,563.25,20.6208,22.6437,164.511,101.481,99.8089,0.000419238,0.099393,20.7724,474.332,0.152464,0.0,0.0
2303,575.5,20.5517,22.5809,171.039,101.248,99.6309,0.000672568,0.10027,20.7679,474.292,0.147722,0.0,0.0
2352,587.75,20.3252,22.1254,170.709,101.001,99.3708,0.000573262,0.101723,20.7615,474.262,0.149345,0.0,0.0
2401,600,20.5716,22.4277,169.274,100.772,99.0427,0.000704386,0.101693,20.7624,474.262,0.158845,0.0,0.0
2450,612.25,20.7683,22.1338,162.862,100.806,99.1289,0.000495364,0.100729,20.7665,474.232,0.15394,0.0,0.0
2499,624.5,20.2252,22.3701,165.073,100.831,99.4113,0.000436673,0.102271,20.7613,474.202,0.130121,0.0,0.0
2548,636.75,20.6455,22.6107,165.821,100.878,99.2171,0.00019978,0.102136,20.7592,474.142,0.152303,0.0,0.0
2597,649,20.6313,22.6314,166.699,100.921,99.3637,0.000443536,0.10164,20.7574,474.122,0.142695,0.0,0.0
2646,661.25,20.1362,22.5802,167.28,100.96,99.28,0.00027713,0.100396,20.7616,474.112,0.153984,0.0,0.0
2695,673.5,20.2737,22.2712,165.742,101.004,99.1304,0.000512289,0.100677,20.7593,474.112,0.171791,0.0,0.0
2744,685.75,20.7284,21.9664,165.505,101.046,99.3246,9.83848e-05,0.0993635,20.7639,474.042,0.157688,0.0,0.0
2793,698,20.8042,22.3518,164.863,101.108,99.4732,0.000374788,0.100183,20.7602,474.032,0.149547,0.0,0.0
2842,710.25,20.7204,22.7766,165.844,101.13,98.7567,0.000589046,0.102122,20.7533,474.001,0.217902,0.0,0.0
2891,722.5,20.3694,22.3244,161.301,101.163,99.5604,0.000686067,0.103218,20.751,473.961,0.146517,0.0,0.0
2940,734.75,20.6955,22.5211,167.125,101.218,99.6557,0.000604955,0.103041,20.75,473.941,0.142707,0.0,0.0
2989,747,20.6434,22.7573,164.338,101.223,99.7754,0.000418292,0.103754,20.7463,473.911,0.132143,0.0,0.0
3038,759.25,20.2646,22.1333,165.653,101.249,99.7769,0.000568052,0.102975,20.7493,473.901,0.134432,0.0,0.0
3087,771.5,20.8305,22.5344,166.731,101.258,99.8292,0.000542809,0.102735,20.7489,473.851,0.130451,0.0,0.0
3136,783.75,20.6137,22.2421,164.078,101.295,99.7166,0.000669817,0.102204,20.7527,473.831,0.144128,0.0,0.0
3185,796,20.7876,22.7542,164.071,101.305,99.7967,0.000178996,0.101923,20.7544,473.781,0.137616,0.0,0.0
3234,808.25,20.7086,22.4931,169.423,101.304,99.818,0.000712747,0.102353,20.7486,473.801,0.135622,0.0,0.0
3283,820.5,21.0499,22.324,165.944,101.314,99.5989,0.000576326,0.102239,20.7495,473.741,0.15664,0.0,0.0
3332,832.75,20.832,22.8121,168.532,101.315,99.5472,0.000980407,0.102894,20.7482,473.761,0.161555,0.0,0.0
3381,845,20.9513,23.0981,165.747,101.315,99.8175,0.000221567,0.103727,20.7431,473.711,0.136639,0.0,0.0
3430,857.25,21.0618,22.7624,164.205,101.305,99.9103,0.00024295,0.102743,20.7469,473.691,0.127216,0.0,0.0
3479,869.5,21.0152,22.646,165.076,101.273,99.7536,0.000517103,0.102035,20.7472,473.681,0.138742,0.0,0.0
3528,881.75,20.5267,22.7531,162.662,101.263,99.7749,0.000458854,0.10316,20.7416,473.651,0.135813,0.0,0.0
3577,894,20.8505,22.5195,171.438,101.276,99.8266,0.000425742,0.103691,20.7428,473.601,0.132252,0.0,0.0
3626,906.25,20.7746,22.3269,161.574,101.302,99.7359,0.000495421,0.102634,20.7464,473.591,0.142989,0.0,0.0
3675,918.5,20.558,22.7298,165.789,101.315,99.6806,0.000238129,0.102751,20.7464,473.561,0.149196,0.0,0.0
3724,930.75,20.827,22.03,168.018,101.334,99.671,0.00047424,0.102027,20.7497,473.571,0.151801,0.0,0.0
3773,943,20.7083,22.5201,163.158,101.335,99.7338,0.000875183,0.102908,20.743,473.531,0.146124,0.0,0.0
3822,955.25,20.8495,22.1284,164.703,101.347,99.8185,0.000374801,0.102608,20.7438,473.521,0.139457,0.0,0.0
3871,967.5,20.5275,22.3746,165.649,101.359,99.7911,0.000442658,0.102878,20.7454,473.471,0.143057,0.0,0.0
3920,979.75,20.9868,22.6708,161.463,101.349,99.8763,0.000394912,0.106361,20.7346,473.451,0.134294,0.0,0.0
3969,992,20.4664,22.4229,168.017,101.352,99.7678,0.000580706,0.110074,20.7298,473.381,0.144567,0.0,0.0
4018,1004.25,26.33,33.0769,150.478,101.339,74.6319,0.0179501,0.477969,20.2197,471.829,2.80703,0.0,0.0
4067,1016.5,32.8025,41.2701,157.179,101.322,89.6044,0.0157644,0.517487,20.3062,470.368,1.12777,0.0,0.0
4116,1028.75,29.5149,35.6892,167.645,101.289,97.457,0.00521266,0.313548,20.5411,469.838,0.353925,0.0,0.0
4165,1041,25.8991,29.1164,166.777,101.23,100.498,0.00153255,0.164061,20.6957,469.848,0.0665623,0.0,0.0
4214,1053.25,22.7587,24.3324,170.126,101.149,100.569,0.000416939,0.120969,20.7275,469.878,0.0527557,0.0,0.0
4263,1065.5,21.4101,22.795,165.37,101.072,100.316,-3.76599e-05,0.108381,20.7328,469.908,0.0689152,0.0,0.0
4312,1077.75,20.9563,21.9857,165.608,100.997,100.059,0.000305135,0.106476,20.7292,469.908,0.0855634,0.0,0.0
4361,1090,20.2484,21.1632,166.176,100.942,100.191,0.000155579,0.106995,20.7267,469.888,0.0684994,0.0,0.0
4410,1102.25,20.311,21.3258,166.736,100.857,100.056,0.000356444,0.107794,20.7222,469.898,0.0731854,0.0,0.0
4459,1114.5,19.2779,20.8761,165.383,100.813,100.065,-3.6675e-05,0.109393,20.7177,469.908,0.0682964,0.0,0.0
4508,1126.75,19.4362,20.7627,165.588,100.74,99.889,0.000128014,0.109092,20.7194,469.918,0.0778418,0.0,0.0
4557,1139,19.0519,20.438,169.422,100.666,99.9874,0.000229268,0.108177,20.7218,469.888,0.0620478,0.0,0.0
4606,1151.25,19.5667,20.4789,167.923,100.549,99.7714,5.2889e-05,0.10804,20.7215,469.898,0.0712546,0.0,0.0
4655,1163.5,19.0086,20.6419,170.283,100.45,99.5574,,,,469.908,0.0819246,0.0,0.0
4670,1167.25,18.9928,20.1208,169.984,100.383,99.4859,,,,469.898,0.0824146,0.0,0.0