File: 02_Data/Polyester_Batting/Cone/Polyester_Batting_Cone_HF50Scan_210326_R1.csv
Names,Time,Stack TC,Smoke TC,Exh Press,Smoke Comp,Smoke Meas,CO Meter,CO2 Meter,O2 Meter,Sample Mass,Ext Coeff,Start Test,Flame Verif
Chan Gain,,500,500,1,1,1,1,1,1,1,1,1.0,1.0
Offset,,0,0,0.138348,0,0,0,0,0,0,0,0.0,0.0
Gain,,1,1,25.011,13.5067,16.616,1,1,1,1.00091,1.04608,1.0,1.0
Units,sec,C,C,Pa,%,%,%,%,%,g,/m,,
Baseline,,32.4263,34.4698,162.486,101.121,98.4176,-0.00137247,0.0456747,20.9619,0.00154307,0.248669,,
8,1.75,30.1543,32.0136,161.984,101.116,98.4631,-0.00129337,0.0477074,20.9548,474.282,0.243951,0.0,0.0
16,3.75,30.6297,31.588,162.463,101.121,98.4068,-0.00130852,0.0499573,20.9511,474.272,0.249685,0.0,0.0
24,5.75,30.8576,32.1688,161.496,101.133,99.1593,-0.00135104,0.0526024,20.9486,474.242,0.180867,0.0,0.0
32,7.75,30.4369,32.9342,161.466,101.164,98.5209,-0.00140992,0.0551523,20.9459,474.222,0.242941,0.0,0.0
40,9.75,30.7422,32.5975,166.335,101.163,98.4555,-0.00136618,0.0572354,20.9425,474.222,0.248961,0.0,0.0
48,11.75,31.2712,33.2488,165.766,101.168,98.2516,-0.00122788,0.058654,20.9409,474.212,0.268427,0.0,0.0
56,13.75,30.8655,33.0451,157.67,101.176,98.3059,-0.00108068,0.05963,20.9413,474.192,0.264035,0.0,0.0
64,15.75,31.2514,33.4931,161.651,101.19,97.4195,-0.000950957,0.0600268,20.9416,474.192,0.348454,0.0,0.0
72,17.75,31.2201,33.7696,162.896,101.209,97.7907,-0.000904001,0.0598264,20.9436,474.192,0.315315,0.0,0.0
80,19.75,31.2349,33.5594,162.927,101.229,98.1573,-0.000945564,0.0592584,20.9465,474.212,0.282735,0.0,0.0
88,21.75,31.563,33.6347,160.824,101.238,97.6964,-0.00105094,0.0583367,20.9478,474.192,0.326748,0.0,0.0
96,23.75,31.5541,34.0024,163.301,101.266,97.4053,-0.00109698,0.057032,20.9504,474.192,0.356629,0.0,0.0
104,25.75,31.2923,34.0158,163.387,101.284,97.1061,-0.000935718,0.0555824,20.9522,474.162,0.386538,0.0,0.0
112,27.75,31.8864,34.1826,163.501,101.3,95.6513,-0.000688044,0.0543863,20.9529,474.162,0.52647,0.0,0.0
120,29.75,31.8967,34.1943,161.441,101.322,95.9165,-0.000433369,0.0541182,20.9533,474.132,0.503079,0.0,0.0
128,31.75,31.9363,33.6217,161.775,101.344,94.9171,-0.00010853,0.0556501,20.9478,474.062,0.601212,0.0,0.0
136,33.75,32.0753,34.2689,160.258,101.369,93.6276,0.000289669,0.0585464,20.9379,474.062,0.728932,0.0,0.0
144,35.75,31.5832,34.4382,159.567,101.395,94.4531,0.000814224,0.062792,20.9307,473.991,0.650804,0.0,0.0
152,37.75,31.7224,35.5241,151.937,101.44,86.3175,0.00298185,0.074242,20.9109,473.691,1.48133,0.0,1.0
160,39.75,33.7679,37.4204,148.797,101.457,72.4165,0.006352,0.1316,20.7628,473.241,3.09418,0.0,1.0
168,41.75,34.2804,39.6771,145.268,101.48,76.8859,0.00964014,0.226466,20.6011,472.931,2.54672,0.0,0.0
176,43.75,36.6821,42.6357,142.399,101.503,69.0626,0.0128811,0.312288,20.4928,472.54,3.53352,0.0,0.0
184,45.75,39.209,46.5678,142.179,101.528,64.6972,0.0167557,0.396286,20.3756,472.13,4.13488,0.0,0.0
192,47.75,41.3844,49.8418,137.65,101.548,66.1723,0.0208858,0.478991,20.2704,471.719,3.92984,0.0,0.0
200,49.75,43.3401,53.8286,150.286,101.593,64.6125,0.0247623,0.554807,20.2005,471.329,4.15278,0.0,0.0
208,51.75,45.8675,56.5695,136.658,101.601,55.1312,0.0281998,0.613254,20.1458,470.789,5.60975,0.0,0.0
216,53.75,47.6799,60.1092,132.542,101.62,59.2334,0.0308961,0.678536,20.0677,470.338,4.95289,0.0,0.0
224,55.75,49.4514,63.0558,136.36,101.639,55.9105,0.032748,0.742111,20.0173,469.868,5.48436,0.0,0.0
232,57.75,52.2399,66.9377,127.188,101.661,61.8667,0.0333823,0.807493,19.96,469.407,4.55745,0.0,0.0
240,59.75,54.4134,69.8027,141.802,101.696,72.8815,0.0314987,0.841955,19.9457,469.107,3.05708,0.0,0.0
248,61.75,54.4331,69.8149,146.984,101.697,79.2296,0.0256,0.81424,20.0326,468.927,2.29077,0.0,0.0
256,63.75,53.0754,67.8694,154.553,101.717,91.5501,0.0189191,0.725648,20.2119,468.847,0.966309,0.0,0.0
264,65.75,51.7658,64.809,155.218,101.73,98.0072,0.0126817,0.616081,20.4323,468.857,0.342063,0.0,0.0
272,67.75,50.2267,62.6345,158.036,101.765,100.107,0.00880187,0.495721,20.5911,468.857,0.150774,0.0,0.0
280,69.75,48.2966,58.9134,158.92,101.762,99.1553,0.00601261,0.409465,20.7091,468.877,0.238137,0.0,0.0
288,71.75,46.8934,57.1206,160.777,101.791,99.639,0.0043948,0.329376,20.7878,468.897,0.196043,0.0,0.0
296,73.75,45.3563,54.8314,156.815,101.806,99.7217,0.00337353,0.269037,20.8347,468.877,0.189809,0.0,0.0
304,75.75,44.8715,53.3171,158.133,101.838,99.2151,0.0025342,0.223374,20.8632,468.897,0.239438,0.0,0.0
312,77.75,43.4645,51.1576,160.235,101.857,99.4402,0.00184294,0.188936,20.881,468.907,0.220348,0.0,0.0
320,79.75,43.2318,50.2832,157.479,101.874,99.2683,0.00116536,0.16424,20.894,468.907,0.237783,0.0,0.0
328,81.75,42.1796,49.1212,161.67,101.889,99.5929,0.00065765,0.143809,20.9061,468.937,0.209132,0.0,0.0
336,83.75,41.3694,47.9112,158.84,101.922,99.4849,0.000332338,0.127056,20.9139,468.927,0.222058,0.0,0.0
344,85.75,40.8608,46.0269,157.666,101.96,99.2764,0.000192566,0.114452,20.9206,468.917,0.244715,0.0,0.0
352,87.75,40.1397,45.567,153.532,101.969,99.6233,0.000153709,0.103878,20.9277,468.897,0.213565,0.0,0.0
360,89.75,39.5252,44.7178,160.745,101.99,99.2835,1.30004e-05,0.094764,20.9343,468.897,0.246804,0.0,0.0
368,91.75,39.0677,43.9741,156.756,102.019,100.109,-0.000184978,0.0872453,20.9386,468.897,0.173464,0.0,0.0
376,93.75,38.5604,42.9666,156.508,102.04,99.3667,-0.000254235,0.081378,20.9412,468.897,0.243607,0.0,0.0
384,95.75,38.2167,42.4162,155.531,102.057,99.605,-0.000183703,0.0769195,20.9439,468.917,0.223181,0.0,0.0
392,97.75,37.6149,42.0382,160.099,102.076,100.073,-0.000110036,0.0725871,20.9453,468.907,0.181878,0.0,0.0
400,99.75,37.2958,41.6325,156.615,102.109,100.634,-0.000123284,0.0690071,20.9471,468.907,0.133468,0.0,0.0
408,101.75,38.037,40.8204,159.586,102.118,99.7871,-0.000263982,0.0662991,20.9486,468.907,0.21191,0.0,0.0
416,103.75,36.9666,40.5824,163.464,102.157,100.51,-0.000402305,0.0638814,20.9498,468.917,0.149145,0.0,0.0
424,105.75,37.3025,39.7285,157.022,102.166,99.8799,-0.000478989,0.0618286,20.9503,468.897,0.207676,0.0,0.0
432,107.75,36.6918,39.6991,159.762,102.174,100.751,-0.0005409,0.0602638,20.9518,468.907,0.128775,0.0,0.0
440,109.75,36.2412,39.5315,159.012,102.196,99.5807,-0.000552181,0.0587728,20.9525,468.897,0.237905,0.0,0.0
448,111.75,36.1272,39.1941,165.037,102.212,100.094,-0.00052313,0.0574731,20.9528,468.907,0.192136,0.0,0.0
456,113.75,36.2734,38.5569,164.459,102.228,99.9828,-0.000564513,0.0563646,20.953,468.897,0.203812,0.0,0.0
464,115.75,35.4701,38.6567,163.451,102.254,100.027,-0.00064055,0.0554689,20.9545,468.887,0.201975,0.0,0.0
472,117.75,35.1625,38.6499,161.638,102.266,100.448,-0.000698148,0.0544979,20.9555,468.897,0.164639,0.0,0.0
480,119.75,35.9786,38.2806,159.805,102.276,99.5903,-0.000810751,0.053653,20.956,468.917,0.244157,0.0,0.0
488,121.75,35.2397,38.0047,163.097,102.285,100,-0.00093729,0.053155,20.9561,468.897,0.207334,0.0,0.0
496,123.75,35.5338,37.8531,157.641,102.3,100.673,-0.00103845,0.0525638,20.9576,468.907,0.147044,0.0,0.0
504,125.75,35.6,38.0237,158.965,102.308,99.8667,-0.00105392,0.0519448,20.9582,468.897,0.22165,0.0,0.0
512,127.75,35.4066,38.1815,159.78,102.31,99.5589,-0.00097494,0.0513943,20.9581,468.907,0.25016,0.0,0.0
520,129.75,35.0311,37.9219,161.66,102.317,100.24,-0.000836416,0.0508502,20.9575,468.897,0.188236,0.0,0.0
528,131.75,34.514,37.472,161.339,102.32,100.559,-0.000707361,0.0506135,20.9563,468.897,0.15926,0.0,0.0
536,133.75,34.8217,37.5862,159.333,102.31,99.604,-0.000708252,0.0503653,20.9558,468.897,0.245964,0.0,0.0
544,135.75,34.6209,36.8015,160.017,102.313,99.9037,-0.000759369,0.0499254,20.9556,468.887,0.218694,0.0,0.0
552,137.75,34.9051,37.1363,158.668,102.321,100.738,-0.000773685,0.0496951,20.9555,468.877,0.143051,0.0,0.0
560,139.75,34.8336,37.0739,157.579,102.321,99.349,-0.000787835,0.0495487,20.9557,468.867,0.270454,0.0,0.0
568,141.75,34.3781,36.9809,159.481,102.312,100.288,-0.000764678,0.0494386,20.9569,468.887,0.183394,0.0,0.0
576,143.75,34.4118,36.5498,161.746,102.312,99.8895,-0.000682981,0.0493584,20.9574,468.897,0.219925,0.0,0.0
584,145.75,34.5391,36.9204,157.558,102.3,99.71,-0.000623729,0.0492798,20.9563,468.907,0.235319,0.0,0.0
592,147.75,34.3514,37.02,160.771,102.299,99.7927,-0.0005518,0.0490752,20.9558,468.877,0.227642,0.0,0.0
600,149.75,34.2762,36.8165,160.9,102.287,100.785,-0.000483457,0.048914,20.9558,468.887,0.135698,0.0,0.0
608,151.75,34.5246,36.6713,159.555,102.274,100.184,-0.000490175,0.0489974,20.9569,468.887,0.18946,0.0,0.0
616,153.75,34.0687,36.8666,154.175,102.262,100.205,-0.000626215,0.0490075,20.9598,468.897,0.186438,0.0,0.0
624,155.75,34.225,36.6488,160.303,102.25,99.9062,-0.000770989,0.0489809,20.9601,468.877,0.212803,0.0,0.0
632,157.75,34.2162,36.5863,159.333,102.236,100.356,-0.000839616,0.0490337,20.9603,468.887,0.170374,0.0,0.0
640,159.75,33.9842,36.3921,160.615,102.231,99.7455,-0.000881733,0.0488774,20.9604,468.897,0.22584,0.0,0.0
648,161.75,34.3589,36.5104,152.931,102.208,99.3936,-0.000815459,0.0487429,20.9604,468.887,0.256236,0.0,0.0
656,163.75,34.2034,36.5257,161.435,102.199,99.6958,-0.000619994,0.0487319,20.9604,468.887,0.227563,0.0,0.0
664,165.75,34.0845,36.7404,163.628,102.173,100.129,-0.000539023,0.0491167,20.9604,468.917,0.185376,0.0,0.0
672,167.75,33.6176,36.4166,159.864,102.14,99.7414,-0.000660937,0.0497302,20.9602,468.907,0.218069,0.0,0.0
680,169.75,33.6057,36.6947,159.443,102.129,100.184,-0.000843049,0.0507232,20.959,468.897,0.176434,0.0,0.0
688,171.75,34.2749,36.2054,161.779,102.098,99.8976,-0.000889068,0.0525231,20.955,468.897,0.199935,0.0,0.0
696,173.75,33.918,36.7386,157.306,102.082,99.5903,-0.000747038,0.0545015,20.9515,468.887,0.226723,0.0,0.0
704,175.75,34.0729,35.7345,161.456,102.068,99.8109,-0.000622493,0.0557103,20.9499,468.877,0.205236,0.0,0.0
712,177.75,33.5929,36.1453,158.405,102.042,100.094,-0.000466343,0.056283,20.9489,468.877,0.176877,0.0,0.0
720,179.75,33.9844,36.8886,161.544,102.013,99.2435,,0.0564324,,468.877,0.252584,0.0,0.0
728,181.75,34.3837,36.2272,158.433,101.987,99.104,,,,468.867,0.263112,0.0,0.0
736,183.75,34.1464,36.5167,159.238,101.987,100.032,,,,468.867,0.17763,0.0,0.0
744,185.75,34.4137,36.7325,164.266,101.961,99.6304,,,,468.867,0.21217,0.0,0.0
752,187.75,33.4021,35.9729,162.036,101.933,100.148,,,,468.857,0.162171,0.0,0.0
758,189.25,34.5502,35.6264,161.716,101.932,99.5579,,,,468.857,0.216253,0.0,0.0