File: 02_Data/Polyester_Batting/Cone/Polyester_Batting_Cone_HF25Scalar_210324_R2.csv
LABORATORY,FSRI
TEST IDENT,PEbat_H25_2V2
OPERATOR,Morrissey
MATERIAL,1.75'' PE Batting
ORIENTATION,Horizontal
HEAT FLUX,25
SURF AREA,0.01
C FACTOR,0.0386052
SPEC HOLDER DIFF,-96.5
SPECIMEN MASS,6.1
SCAN TIME,0.25
O2 DELAY TIME,11
CO DELAY TIME,11
CO2 DELAY TIME,8
FLOW FACTOR,1
SCAN COUNT,4670
TIME TO IGN,994
END OF TEST SCAN,4190
END OF TEST TIME,1047.5
TEST STATUS,1
PRE TEST CMT,test w/o retainer grid or frame
POST TEST CMT,foil folded up towards end of test after igntion. approx half of smple remaining was covered.