File: 02_Data/Polyester_Batting/Cone/Polyester_Batting_Cone_HF50Scalar_210326_R3.csv
LABORATORY,FSRI
TEST IDENT,PEbat_HF50_3
OPERATOR,Dow
MATERIAL,"PE batting, 1.75 inch thick"
ORIENTATION,Horizontal
HEAT FLUX,50
SURF AREA,0.01
C FACTOR,0.0386052
SPEC HOLDER DIFF,-85.82
SPECIMEN MASS,6.41
SCAN TIME,0.25
O2 DELAY TIME,11
CO DELAY TIME,11
CO2 DELAY TIME,8
FLOW FACTOR,1
SCAN COUNT,815
TIME TO IGN,49.25
END OF TEST SCAN,335
END OF TEST TIME,83.75
TEST STATUS,1
PRE TEST CMT,without frame or grid
POST TEST CMT,same as other replicates