File: 01_Data/Bean_Bag_Chair_Inner_Lining/STA/N2/30K_min/Bean_Bag_Inner_Liner_STA_N2_30KData_220517_R3.csv
##Temp./Â°C,Time/min,Mass loss(subtr.2)/mg,DSC(subtr.2)/(mW/mg),Sensit./(uV/mW)
48.532,10.01,0.02043,-0.003517415,1.05401
51.832,10.89279,0.01847742,0.10459,1.05333
55.132,11.13225,0.01899362,0.18597,1.05264
58.432,11.31506,0.01976037,0.25142,1.05192
61.732,11.4733,0.01669508,0.30725,1.05118
65.032,11.61793,0.02694233,0.34811,1.05043
68.332,11.75278,0.02175245,0.38629,1.04965
71.632,11.88233,0.01756487,0.42747,1.04886
74.932,12.00711,0.01752886,0.46117,1.04805
78.232,12.1289,0.01761,0.48503,1.04721
81.532,12.24774,0.0208092,0.47883,1.04636
84.832,12.36525,0.01933751,0.4644,1.04549
88.132,12.48065,0.02191141,0.44971,1.0446
91.432,12.59384,0.01753565,0.44133,1.04369
94.732,12.70711,0.02077494,0.43443,1.04276
98.032,12.819,0.0196586,0.4345,1.04181
101.332,12.93015,0.01964948,0.43794,1.04084
104.632,13.0409,0.0214058,0.44641,1.03986
107.932,13.151,0.02041183,0.45954,1.03885
111.232,13.2613,0.02141015,0.47447,1.03783
114.532,13.37095,0.02138854,0.48954,1.03679
117.832,13.4803,0.02270181,0.50322,1.03573
121.132,13.5893,0.01854853,0.5236,1.03465
124.432,13.6979,0.01590369,0.53994,1.03356
127.732,13.80592,0.01714381,0.55575,1.03244
131.032,13.9135,0.02060276,0.56746,1.03131
134.332,14.02021,0.02160331,0.57695,1.03016
137.632,14.1265,0.02392317,0.58845,1.02899
140.932,14.2326,0.0253407,0.59964,1.02781
144.232,14.3378,0.02536056,0.61269,1.02661
147.532,14.44256,0.02734015,0.61905,1.02539
150.832,14.5473,0.02454193,0.63099,1.02415
154.132,14.65156,0.02210229,0.64185,1.02289
157.432,14.75531,0.01893328,0.65325,1.02162
160.732,14.859,0.01812425,0.66052,1.02033
164.032,14.9626,0.02074985,0.67146,1.01903
167.332,15.06543,0.02272633,0.6805,1.0177
170.632,15.16845,0.02270252,0.68401,1.01636
173.932,15.2712,0.01965656,0.68999,1.01501
177.232,15.37354,0.02009022,0.69518,1.01363
180.532,15.47535,0.02125886,0.70396,1.01225
183.832,15.57725,0.02068962,0.70962,1.01084
187.132,15.67855,0.01944004,0.71822,1.00942
190.432,15.7798,0.01941936,0.72283,1.00798
193.732,15.8807,0.02073973,0.72938,1.00652
197.032,15.98155,0.0220601,0.73709,1.00505
200.332,16.0821,0.01969793,0.74252,1.00357
203.632,16.18269,0.01976993,0.74796,1.00206
206.932,16.283,0.0197665,0.75632,1.00055
210.232,16.38324,0.0197085,0.76545,0.99901
213.532,16.48349,0.01876741,0.77559,0.99746
216.832,16.58352,0.02141328,0.7846,0.9959
220.132,16.68349,0.02206993,0.79679,0.99432
223.432,16.78332,0.0207496,0.8133,0.99273
226.732,16.88317,0.02209177,0.8342,0.99112
230.032,16.98285,0.02239345,0.85779,0.98949
233.332,17.0827,0.02238987,0.8858,0.98785
236.632,17.18243,0.02293547,0.92313,0.9862
239.932,17.28217,0.02157119,0.98218,0.98453
243.232,17.3818,0.02162244,1.08011,0.98284
246.532,17.48143,0.02031,1.33459,0.98115
249.832,17.58148,0.02063375,1.8087,0.97943
253.132,17.68146,0.02074288,2.33904,0.97771
256.432,17.78208,0.02284927,2.73061,0.97597
259.732,17.88239,0.02359335,2.49904,0.97421
263.032,17.98209,0.0220253,1.86678,0.97244
266.332,18.08132,0.02097061,1.45353,0.97066
269.632,18.1801,0.01964951,1.22995,0.96886
272.932,18.2789,0.0193129,1.11155,0.96705
276.232,18.37787,0.01963922,1.05096,0.96523
279.532,18.47702,0.01960018,1.01716,0.96339
282.832,18.57597,0.02096898,1.00445,0.96154
286.132,18.6751,0.02096148,0.99773,0.95968
289.432,18.7743,0.02227988,0.99595,0.95781
292.732,18.87349,0.02191347,0.99605,0.95592
296.032,18.973,0.01966323,0.99537,0.95401
299.332,19.07241,0.02096834,0.99487,0.9521
302.632,19.17192,0.02360234,0.99476,0.95017
305.932,19.27143,0.02491995,0.99664,0.94823
309.232,19.37108,0.0249199,0.99849,0.94628
312.532,19.47061,0.02623851,1.00042,0.94432
315.832,19.57035,0.02492,1.00402,0.94234
319.132,19.67011,0.02492,1.00658,0.94035
322.432,19.77005,0.02492072,1.0104,0.93835
325.732,19.86976,0.02229751,1.01527,0.93634
329.032,19.9699,0.02097,1.0179,0.93432
332.332,20.07003,0.02097022,1.02012,0.93228
335.632,20.1703,0.01965002,1.02156,0.93023
338.932,20.27052,0.02382238,1.02428,0.92818
342.232,20.371,0.02250892,1.02717,0.92611
345.532,20.4714,0.02086086,1.03486,0.92402
348.832,20.57187,0.0182194,1.03947,0.92193
352.132,20.6728,0.01688781,1.04512,0.91983
355.432,20.77364,0.0155049,1.04652,0.91771
358.732,20.8745,0.01755817,1.04819,0.91559
362.032,20.97534,0.02015314,1.04889,0.91345
365.332,21.07657,0.02159084,1.05214,0.91131
368.632,21.17781,0.02083786,1.05961,0.90915
371.932,21.27896,0.01955,1.0647,0.90699
375.232,21.38034,0.01690904,1.0731,0.90481
378.532,21.48163,0.01691008,1.0842,0.90262
381.832,21.58325,0.01558642,1.10215,0.90042
385.132,21.68457,0.01083263,1.11638,0.89822
388.432,21.7862,0.01163909,1.13882,0.896
391.732,21.88782,0.01032,1.16642,0.89377
395.032,21.98953,0.008999698,1.19423,0.89154
398.332,22.09121,0.007696315,1.22355,0.88929
401.632,22.19313,0.004848076,1.25428,0.88704
404.932,22.2954,-0.00680002,1.29976,0.88477
408.232,22.3976,-0.02152079,1.33509,0.8825
411.532,22.49992,-0.0387464,1.37482,0.88021
414.832,22.6025,-0.05019355,1.4106,0.87792
418.132,22.7053,-0.07787646,1.45201,0.87562
421.432,22.80769,-0.10571,1.39099,0.87331
424.732,22.9104,-0.1389,1.33139,0.871
428.032,23.0132,-0.18048,1.29779,0.86867
431.332,23.1161,-0.23182,1.32876,0.86633
434.632,23.2192,-0.28677,1.34348,0.86399
437.932,23.32244,-0.3625,1.29819,0.86164
441.232,23.42556,-0.4386,1.34444,0.85928
444.532,23.52903,-0.53607,1.47786,0.85691
447.832,23.63268,-0.66625,1.6647,0.85454
451.132,23.7364,-0.82182,1.87396,0.85215
454.432,23.84046,-1.00491,2.07579,0.84976
457.732,23.94462,-1.21788,2.20736,0.84736
461.032,24.0488,-1.45124,2.29013,0.84496
464.332,24.1536,-1.7117,2.30591,0.84254
467.632,24.25843,-1.98428,2.22016,0.84012
470.932,24.3628,-2.23134,2.03303,0.8377
474.232,24.46707,-2.43775,1.75776,0.83526
477.532,24.57111,-2.61222,1.43907,0.83282
480.832,24.67531,-2.73821,1.11016,0.83037
484.132,24.7793,-2.82346,0.83864,0.82791
487.432,24.88331,-2.88458,0.6266,0.82545
490.732,24.98757,-2.92709,0.45999,0.82298
494.032,25.09198,-2.95908,0.32553,0.82051
497.332,25.19633,-2.98462,0.22287,0.81802
500.632,25.301,-3.00264,0.1408,0.81553
503.932,25.40573,-3.01727,0.07910711,0.81304
507.232,25.51061,-3.02788,0.02994901,0.81054
510.532,25.6156,-3.03829,-0.002221577,0.80803
513.832,25.7206,-3.0469,-0.02454045,0.80552
517.132,25.8259,-3.05576,-0.03429237,0.803
520.432,25.9311,-3.06184,-0.03132058,0.80048
523.732,26.03624,-3.06795,-0.002802984,0.79795
527.032,26.14175,-3.07348,0.0128049,0.79541
530.332,26.24738,-3.08027,0.01201241,0.79287
533.632,26.35333,-3.0811,0.01277651,0.79033
536.932,26.4588,-3.0825,0.01065623,0.78777
540.232,26.56483,-3.08381,0.009019582,0.78522
543.532,26.6714,-3.08824,0.008498771,0.78266
546.832,26.7779,-3.09688,-0.0473355,0.78009
550.132,26.8841,-3.09596,0.02501127,0.77752
553.432,26.9907,-3.09746,0.02178973,0.77494
556.732,27.09726,-3.09908,0.004639882,0.77236
560.032,27.2039,-3.09938,-0.01148888,0.76978
563.332,27.31033,-3.10006,-0.02087579,0.76719
566.632,27.4174,-3.1014,-0.03011458,0.76459
569.932,27.52422,-3.10369,-0.03745476,0.762
573.232,27.63125,-3.10784,-0.04256293,0.75939
576.532,27.73828,-3.10994,-0.04688317,0.75679
579.832,27.8455,-3.10803,-0.05652306,0.75418
583.132,27.9528,-3.10851,-0.0618262,0.75156
586.432,28.0602,-3.10983,-0.06697065,0.74895
589.732,28.1677,-3.11247,-0.07763922,0.74632
593.032,28.27523,-3.11379,-0.08377869,0.7437
596.332,28.38265,-3.11389,-0.09222665,0.74107
599.632,28.4902,-3.11775,-0.09699362,0.73844
602.932,28.5984,-3.12532,-0.10235,0.7358
606.232,28.7063,-3.13172,-0.10407,0.73316
609.532,28.814,-3.13167,-0.10998,0.73052
612.832,28.922,-3.12896,-0.11707,0.72788
616.132,29.02989,-3.12904,-0.12214,0.72523
619.432,29.1379,-3.12772,-0.12288,0.72258
622.732,29.2461,-3.13388,-0.12063,0.71992
626.032,29.35422,-3.1368,-0.12329,0.71727
629.332,29.46234,-3.13936,-0.12219,0.71461
632.632,29.5706,-3.14464,-0.11927,0.71194
635.932,29.679,-3.14463,-0.11995,0.70928
639.232,29.7873,-3.14463,-0.11916,0.70661
642.532,29.89568,-3.14397,-0.12064,0.70395
645.832,30.00408,-3.14785,-0.11646,0.70127
649.132,30.1123,-3.15034,-0.11337,0.6986
652.432,30.22072,-3.15348,-0.1164,0.69593
655.732,30.3292,-3.15217,-0.11738,0.69325
659.032,30.43757,-3.15255,-0.11781,0.69057
662.332,30.54595,-3.15939,-0.12023,0.68789
665.632,30.6544,-3.16069,-0.12689,0.68521
668.932,30.763,-3.16263,-0.1314,0.68252
672.232,30.87163,-3.16044,-0.13218,0.67984
675.532,30.98025,-3.16307,-0.14005,0.67715
678.832,31.08904,-3.16439,-0.1496,0.67446
682.132,31.19752,-3.1665,-0.15785,0.67178
685.432,31.3063,-3.16923,-0.16224,0.66909
688.732,31.4148,-3.1676,-0.17003,0.66639
692.032,31.5241,-3.17194,-0.18696,0.6637
695.332,31.63288,-3.17323,-0.19213,0.66101
698.632,31.74193,-3.1746,-0.19911,0.65831
701.932,31.85091,-3.17761,-0.20893,0.65562
705.232,31.96005,-3.17756,-0.21786,0.65292
708.532,32.06909,-3.17797,-0.23275,0.65023
711.832,32.17832,-3.17119,-0.24761,0.64753
715.132,32.28781,-3.17181,-0.25997,0.64483
718.432,32.39713,-3.17813,-0.27278,0.64214
721.732,32.50663,-3.1802,-0.28863,0.63944
725.032,32.6158,-3.17747,-0.28996,0.63674
728.332,32.72569,-3.17484,-0.31148,0.63404
731.632,32.83567,-3.176,-0.3321,0.63135
734.932,32.94559,-3.17855,-0.35614,0.62865
738.232,33.05539,-3.17856,-0.37849,0.62595
741.532,33.1653,-3.17887,-0.40205,0.62326
744.832,33.27538,-3.18305,-0.42845,0.62056
748.132,33.38542,-3.18339,-0.4528,0.61786
751.432,33.49563,-3.18608,-0.47484,0.61517
754.732,33.6056,-3.18318,-0.50422,0.61247
758.032,33.7158,-3.18185,-0.53157,0.60978
761.332,33.82622,-3.18316,-0.55331,0.60708
764.632,33.93635,-3.18217,-0.58231,0.60439
767.932,34.0467,-3.1821,-0.60437,0.6017
771.232,34.15675,-3.18613,-0.62742,0.59901
774.532,34.26703,-3.18563,-0.64685,0.59632
777.832,34.3774,-3.18645,-0.66497,0.59363
781.132,34.48751,-3.18721,-0.67934,0.59094
784.432,34.59817,-3.18992,-0.69423,0.58825
787.732,34.70863,-3.19042,-0.70766,0.58557
791.032,34.8192,-3.1891,-0.7177,0.58288
794.332,34.92953,-3.18716,-0.72207,0.5802
796.432,34.99984,-3.18756,-0.7262,0.57849