File: 01_Data/Bean_Bag_Chair_Inner_Lining/STA/N2/30K_min/Bean_Bag_Liner_STA_N2_30KData_220516_R1.csv
##Temp./Â°C,Time/min,Mass loss(subtr.2)/mg,DSC(subtr.2)/(mW/mg),Sensit./(uV/mW)
48.581,10.01,-0.00758,-0.00333232,1.054
51.881,10.8946,-0.006289316,0.13871,1.05332
55.181,11.1325,-0.00644614,0.23673,1.05263
58.481,11.31507,-0.007011567,0.30841,1.05191
61.781,11.473,-0.00797794,0.36718,1.05117
65.081,11.61698,-0.00674217,0.41954,1.05042
68.381,11.75184,-0.007103701,0.46107,1.04964
71.681,11.88033,-0.007156079,0.50466,1.04885
74.981,12.00495,-0.00669202,0.53878,1.04803
78.281,12.1267,-0.008017888,0.56098,1.0472
81.581,12.24531,-0.007818488,0.55844,1.04635
84.881,12.3626,-0.007992824,0.54357,1.04547
88.181,12.47728,-0.007902511,0.53266,1.04458
91.481,12.5908,-0.007899706,0.52216,1.04367
94.781,12.70393,-0.006933388,0.52061,1.04274
98.081,12.8156,-0.007856718,0.51862,1.04179
101.381,12.9267,-0.006538807,0.52529,1.04083
104.681,13.03777,-0.007954081,0.5376,1.03984
107.981,13.1482,-0.00790457,0.55001,1.03884
111.281,13.2585,-0.007904111,0.56907,1.03781
114.581,13.36864,-0.0078956,0.5844,1.03677
117.881,13.47802,-0.007988233,0.60156,1.03571
121.181,13.5872,-0.007820715,0.62367,1.03464
124.481,13.69607,-0.007899972,0.6385,1.03354
127.781,13.80419,-0.007923964,0.65572,1.03243
131.081,13.912,-0.007928477,0.66975,1.03129
134.381,14.01924,-0.009258286,0.68303,1.03014
137.681,14.1258,-0.0079,0.7007,1.02898
140.981,14.2319,-0.009220313,0.71554,1.02779
144.281,14.3374,-0.00790954,0.72737,1.02659
147.581,14.44251,-0.007853232,0.74225,1.02537
150.881,14.5471,-0.008873458,0.75487,1.02413
154.181,14.6516,-0.008881955,0.76629,1.02288
157.481,14.75542,-0.00888835,0.77788,1.0216
160.781,14.8592,-0.008219661,0.79214,1.02031
164.081,14.96285,-0.008225981,0.80203,1.01901
167.381,15.06599,-0.009551863,0.81058,1.01768
170.681,15.16894,-0.008891903,0.82042,1.01634
173.981,15.27169,-0.00889034,0.83205,1.01499
177.281,15.37389,-0.00889,0.84052,1.01361
180.581,15.47594,-0.00928452,0.85063,1.01222
183.881,15.57743,-0.007853271,0.86154,1.01082
187.181,15.67881,-0.009209999,0.87206,1.0094
190.481,15.77992,-0.009208825,0.87829,1.00796
193.781,15.8806,-0.009869999,0.88899,1.0065
197.081,15.98129,-0.008556511,0.89799,1.00503
200.381,16.08173,-0.008557716,0.90566,1.00354
203.681,16.18202,-0.00986987,0.91439,1.00204
206.981,16.28248,-0.01052743,0.92488,1.00052
210.281,16.38266,-0.0105112,0.93481,0.99899
213.581,16.48271,-0.01049728,0.94736,0.99744
216.881,16.58288,-0.009544174,0.95909,0.99588
220.181,16.68282,-0.008824373,0.97384,0.9943
223.481,16.7828,-0.008889983,0.99058,0.9927
226.781,16.8826,-0.01019827,1.01437,0.99109
230.081,16.98229,-0.01150787,1.0401,0.98947
233.381,17.08201,-0.01152019,1.06892,0.98783
236.681,17.18145,-0.01022677,1.10842,0.98617
239.981,17.28136,-0.009908804,1.17012,0.9845
243.281,17.38095,-0.01117795,1.27083,0.98282
246.581,17.48056,-0.009867954,1.51861,0.98112
249.881,17.5804,-0.00987,1.99238,0.97941
253.181,17.68072,-0.00987328,2.51419,0.97768
256.481,17.78131,-0.01118997,2.97385,0.97594
259.781,17.88168,-0.00986968,2.77785,0.97418
263.081,17.98118,-0.01119028,2.08665,0.97242
266.381,18.08054,-0.01119,1.63939,0.97063
269.681,18.1794,-0.01087464,1.40799,0.96884
272.981,18.2778,-0.00987188,1.28483,0.96703
276.281,18.37705,-0.009878664,1.22208,0.9652
279.581,18.47604,-0.01152691,1.18661,0.96337
282.881,18.57516,-0.01016627,1.17158,0.96152
286.181,18.67425,-0.01053,1.16255,0.95965
289.481,18.77349,-0.01053,1.1589,0.95778
292.781,18.87259,-0.01053231,1.15691,0.95589
296.081,18.97223,-0.01152004,1.15987,0.95399
299.381,19.0715,-0.01020127,1.15984,0.95207
302.681,19.17108,-0.01152098,1.16213,0.95014
305.981,19.27024,-0.01020526,1.16372,0.94821
309.281,19.37032,-0.0105301,1.16612,0.94625
312.581,19.4699,-0.01185,1.16296,0.94429
315.881,19.56964,-0.01185,1.1656,0.94231
319.181,19.6694,-0.01316748,1.16616,0.94032
322.481,19.7694,-0.01185147,1.1663,0.93832
325.781,19.86947,-0.01053933,1.16845,0.93631
329.081,19.96947,-0.01184752,1.16603,0.93429
332.381,20.0695,-0.01185,1.16894,0.93225
335.681,20.16964,-0.01317042,1.17151,0.9302
338.981,20.27028,-0.01317,1.17583,0.92814
342.281,20.37077,-0.01317,1.18262,0.92607
345.581,20.47108,-0.01318957,1.1866,0.92399
348.881,20.57175,-0.01383,1.19085,0.9219
352.181,20.67257,-0.01383026,1.19351,0.9198
355.481,20.77336,-0.0141251,1.20103,0.91768
358.781,20.87439,-0.01480867,1.2057,0.91556
362.081,20.97523,-0.01481002,1.21136,0.91342
365.381,21.0763,-0.0161596,1.21879,0.91128
368.681,21.17698,-0.01609536,1.2264,0.90912
371.981,21.27811,-0.01542356,1.23366,0.90695
375.281,21.37987,-0.01645948,1.24327,0.90478
378.581,21.48155,-0.01777999,1.25292,0.90259
381.881,21.5832,-0.01780433,1.26378,0.90039
385.181,21.68421,-0.01876003,1.27757,0.89818
388.481,21.78605,-0.02173523,1.29389,0.89597
391.781,21.88766,-0.02240886,1.31449,0.89374
395.081,21.98992,-0.02667721,1.34692,0.8915
398.381,22.09215,-0.03103835,1.3769,0.88926
401.681,22.1943,-0.03560972,1.41094,0.887
404.981,22.29674,-0.04369977,1.45648,0.88474
408.281,22.3991,-0.05501156,1.50605,0.88246
411.581,22.50132,-0.06129581,1.51114,0.88018
414.881,22.6039,-0.06279957,1.51828,0.87789
418.181,22.70616,-0.05531755,1.51806,0.87559
421.481,22.80919,-0.03532975,1.48885,0.87328
424.781,22.91179,-0.03263563,1.48208,0.87096
428.081,23.01416,-0.06588406,1.50614,0.86863
431.381,23.11678,-0.11109,1.55827,0.8663
434.681,23.21922,-0.17418,1.66938,0.86396
437.981,23.32229,-0.27034,1.8054,0.8616
441.281,23.42511,-0.38775,1.97521,0.85925
444.581,23.52805,-0.52288,2.11387,0.85688
447.881,23.63121,-0.68471,2.26245,0.8545
451.181,23.73433,-0.86589,2.37441,0.85212
454.481,23.83754,-1.07378,2.43407,0.84973
457.781,23.9409,-1.29972,2.49983,0.84733
461.081,24.0442,-1.54437,2.51952,0.84492
464.381,24.1477,-1.82015,2.48735,0.84251
467.681,24.25124,-2.07597,2.36435,0.84009
470.981,24.35473,-2.30648,2.1514,0.83766
474.281,24.45826,-2.51499,1.85659,0.83522
477.581,24.5617,-2.67089,1.52712,0.83278
480.881,24.66542,-2.78271,1.21715,0.83033
484.181,24.7692,-2.8582,0.97534,0.82788
487.481,24.8728,-2.91292,0.7859,0.82541
490.781,24.97679,-2.95445,0.62622,0.82294
494.081,25.08084,-2.98632,0.4901,0.82047
497.381,25.18497,-3.01016,0.3767,0.81799
500.681,25.28904,-3.02853,0.28239,0.8155
503.981,25.39398,-3.04609,0.21028,0.813
507.281,25.49861,-3.0604,0.15254,0.8105
510.581,25.60299,-3.0697,0.1003,0.808
513.881,25.70788,-3.08101,0.06516209,0.80548
517.181,25.81295,-3.09092,0.03627225,0.80296
520.481,25.9183,-3.09954,0.01702852,0.80044
523.781,26.024,-3.10449,-0.001037892,0.79791
527.081,26.1288,-3.10974,-0.01615965,0.79538
530.381,26.2347,-3.11461,-0.03018912,0.79283
533.681,26.34038,-3.11783,-0.04477277,0.79029
536.981,26.4461,-3.12161,-0.05658221,0.78774
540.281,26.552,-3.12312,-0.06760131,0.78518
543.581,26.65813,-3.1264,-0.07710729,0.78262
546.881,26.7642,-3.12895,-0.08712348,0.78005
550.181,26.87064,-3.13036,-0.08887781,0.77748
553.481,26.9768,-3.13069,-0.09400058,0.77491
556.781,27.08362,-3.132,-0.09871931,0.77233
560.081,27.19022,-3.13487,-0.1034,0.76974
563.381,27.29689,-3.14198,-0.10544,0.76715
566.681,27.4039,-3.14627,-0.11029,0.76456
569.981,27.5108,-3.14496,-0.11548,0.76196
573.281,27.6178,-3.14496,-0.12444,0.75936
576.581,27.72478,-3.14397,-0.1249,0.75675
579.881,27.83206,-3.14398,-0.13206,0.75414
583.181,27.93925,-3.14661,-0.13736,0.75152
586.481,28.04672,-3.14617,-0.13653,0.74891
589.781,28.154,-3.14838,-0.1409,0.74628
593.081,28.2616,-3.15074,-0.14349,0.74366
596.381,28.3691,-3.152,-0.14649,0.74103
599.681,28.47682,-3.15333,-0.14576,0.7384
602.981,28.58455,-3.15365,-0.14629,0.73576
606.281,28.69238,-3.15497,-0.14543,0.73312
609.581,28.80023,-3.15759,-0.14851,0.73048
612.881,28.9084,-3.1589,-0.14853,0.72784
616.181,29.0165,-3.16017,-0.15079,0.72519
619.481,29.12446,-3.16918,-0.15085,0.72254
622.781,29.2324,-3.17366,-0.15258,0.71988
626.081,29.3405,-3.17472,-0.15012,0.71723
629.381,29.4485,-3.17602,-0.14634,0.71457
632.681,29.55692,-3.17865,-0.14744,0.71191
635.981,29.665,-3.17998,-0.14591,0.70924
639.281,29.7732,-3.18198,-0.14596,0.70657
642.581,29.8815,-3.18338,-0.14574,0.70391
645.881,29.9897,-3.18457,-0.16172,0.70123
649.181,30.09798,-3.20558,-0.14958,0.69856
652.481,30.2064,-3.19889,-0.14332,0.69589
655.781,30.3148,-3.19511,-0.13988,0.69321
659.081,30.42313,-3.19149,-0.13944,0.69053
662.381,30.53149,-3.19008,-0.14308,0.68785
665.681,30.64003,-3.19008,-0.13983,0.68517
668.981,30.74837,-3.19008,-0.13888,0.68248
672.281,30.8566,-3.1914,-0.13566,0.6798
675.581,30.96528,-3.19271,-0.13493,0.67711
678.881,31.0737,-3.19403,-0.13593,0.67442
682.181,31.1823,-3.19305,-0.14279,0.67174
685.481,31.2909,-3.19535,-0.14794,0.66905
688.781,31.3994,-3.19666,-0.12614,0.66635
692.081,31.5081,-3.19666,-0.13405,0.66366
695.381,31.61658,-3.19798,-0.13507,0.66097
698.681,31.72523,-3.19905,-0.13863,0.65827
701.981,31.83404,-3.19798,-0.14725,0.65558
705.281,31.9427,-3.19931,-0.15102,0.65288
708.581,32.0516,-3.20009,-0.16131,0.65019
711.881,32.16033,-3.20062,-0.17391,0.64749
715.181,32.2691,-3.20194,-0.1833,0.64479
718.481,32.37784,-3.20326,-0.19102,0.6421
721.781,32.4867,-3.20357,-0.20246,0.6394
725.081,32.5955,-3.20466,-0.21412,0.6367
728.381,32.7044,-3.20594,-0.23249,0.634
731.681,32.8131,-3.2084,-0.25109,0.63131
734.981,32.92181,-3.20853,-0.27207,0.62861
738.281,33.0306,-3.20984,-0.29045,0.62591
741.581,33.1389,-3.21017,-0.31083,0.62322
744.881,33.24783,-3.20984,-0.32842,0.62052
748.181,33.35657,-3.20984,-0.34869,0.61782
751.481,33.46524,-3.21117,-0.37254,0.61513
754.781,33.5741,-3.21368,-0.39549,0.61243
758.081,33.68278,-3.21313,-0.41992,0.60974
761.381,33.79166,-3.21423,-0.44916,0.60704
764.681,33.90047,-3.2146,-0.47283,0.60435
767.981,34.00935,-3.21424,-0.50033,0.60166
771.281,34.11822,-3.21424,-0.52161,0.59897
774.581,34.22737,-3.21424,-0.5396,0.59628
777.881,34.33647,-3.21555,-0.55984,0.59359
781.181,34.44513,-3.21522,-0.57343,0.5909
784.481,34.55464,-3.21654,-0.59348,0.58821
787.781,34.66386,-3.21523,-0.60922,0.58553
791.081,34.77329,-3.21396,-0.62876,0.58284
794.381,34.88265,-3.21555,-0.63854,0.58016
797.681,34.9922,-3.21555,-0.6528,0.57748
797.881,34.999,-3.21555,-0.65388,0.57732