File: 01_Data/House_Wrap/STA/N2/10K_min/House_Wrap_STA_N2_10KData_220726_R1.csv
##Temp./Â°C,Time/min,Mass loss(subtr.2)/mg,DSC(subtr.2)/(mW/mg),Sensit./(uV/mW)
49.621,10.00917,-0.01351,0.00302226,1.0702
52.221,11.23049,-0.0156626,0.14387,1.06948
54.821,11.62779,-0.01493868,0.21998,1.06876
57.421,11.95775,-0.0169015,0.26658,1.06803
60.021,12.26291,-0.01618236,0.29258,1.06729
62.621,12.55387,-0.01786716,0.31048,1.06655
65.221,12.8406,-0.01808491,0.32153,1.0658
67.821,13.12074,-0.016796,0.32779,1.06504
70.421,13.39835,-0.01812005,0.33145,1.06427
73.021,13.67336,-0.01861887,0.33709,1.0635
75.621,13.9461,-0.01811972,0.34298,1.06272
78.221,14.2158,-0.0188064,0.34644,1.06193
80.821,14.4834,-0.0194482,0.35137,1.06114
83.421,14.74973,-0.01943982,0.35695,1.06034
86.021,15.01278,-0.01923061,0.36359,1.05953
88.621,15.27506,-0.02017639,0.37018,1.05871
91.221,15.5351,-0.02075346,0.37762,1.05789
93.821,15.79437,-0.01971499,0.38548,1.05706
96.421,16.0514,-0.02193431,0.39139,1.05622
99.021,16.30773,-0.02075998,0.39818,1.05538
101.621,16.56346,-0.02069947,0.40531,1.05453
104.221,16.81919,-0.02076,0.41151,1.05367
106.821,17.07378,-0.0215574,0.42168,1.0528
109.421,17.32997,-0.02206997,0.4298,1.05193
112.021,17.5838,-0.02241168,0.44125,1.05105
114.621,17.83822,-0.02207001,0.45814,1.05016
117.221,18.0919,-0.02306713,0.47756,1.04927
119.821,18.34551,-0.02302882,0.50576,1.04837
122.421,18.59808,-0.02207,0.55387,1.04746
125.021,18.85112,-0.0233899,0.63498,1.04654
127.621,19.1046,-0.02339014,0.79904,1.04562
130.221,19.35899,-0.02338801,1.13573,1.04468
132.821,19.61639,-0.02339008,1.69957,1.04375
135.421,19.87649,-0.02207001,2.31136,1.0428
138.021,20.13792,-0.02339022,2.79651,1.04185
140.621,20.399,-0.02271205,3.07604,1.04088
143.221,20.65305,-0.02339013,2.09932,1.03991
145.821,20.89779,-0.02468878,0.91524,1.03894
148.421,21.13971,-0.02471,0.58757,1.03795
151.021,21.38273,-0.02471163,0.49968,1.03696
153.621,21.6267,-0.02569679,0.47606,1.03596
156.221,21.87201,-0.02602349,0.47143,1.03496
158.821,22.11737,-0.02649484,0.46906,1.03394
161.421,22.36395,-0.02733987,0.47144,1.03292
164.021,22.61083,-0.02743372,0.47434,1.03189
166.621,22.858,-0.02734059,0.47494,1.03086
169.221,23.1049,-0.02733985,0.47551,1.02981
171.821,23.352,-0.02766993,0.47701,1.02876
174.421,23.60016,-0.02865977,0.48057,1.0277
177.021,23.84776,-0.02866,0.48207,1.02663
179.621,24.09506,-0.02866159,0.48319,1.02556
182.221,24.34336,-0.02865959,0.48494,1.02448
184.821,24.59132,-0.0287044,0.48345,1.02339
187.421,24.83895,-0.02932002,0.48759,1.02229
190.021,25.08602,-0.02998035,0.4856,1.02118
192.621,25.33397,-0.03128895,0.48912,1.02007
195.221,25.5819,-0.03053767,0.49252,1.01895
197.821,25.82837,-0.03029641,0.494,1.01782
200.421,26.0758,-0.03030961,0.49254,1.01668
203.021,26.32312,-0.03236138,0.49467,1.01553
205.621,26.5711,-0.03277289,0.49542,1.01438
208.221,26.8197,-0.03326911,0.49687,1.01322
210.821,27.0679,-0.03293955,0.49724,1.01205
213.421,27.3165,-0.03294,0.49955,1.01087
216.021,27.5647,-0.03161681,0.50167,1.00969
218.621,27.8121,-0.03293998,0.5057,1.0085
221.221,28.0595,-0.03426032,0.50904,1.0073
223.821,28.30705,-0.03360151,0.50954,1.00609
226.421,28.55508,-0.03491566,0.51219,1.00487
229.021,28.80221,-0.03411125,0.51338,1.00365
231.621,29.0501,-0.0336,0.51643,1.00242
234.221,29.2975,-0.03426003,0.51992,1.00118
236.821,29.5445,-0.03489498,0.51987,0.99993
239.421,29.79255,-0.03652685,0.52204,0.99867
242.021,30.03955,-0.03655999,0.52323,0.99741
244.621,30.28685,-0.03622996,0.52219,0.99614
247.221,30.53397,-0.03655995,0.52567,0.99486
249.821,30.78128,-0.03688999,0.52786,0.99357
252.421,31.0275,-0.03634319,0.52806,0.99227
255.021,31.2759,-0.03689803,0.53115,0.99097
257.621,31.523,-0.03723449,0.53374,0.98965
260.221,31.7702,-0.03853952,0.53442,0.98833
262.821,32.0184,-0.03854,0.53292,0.987
265.421,32.26611,-0.03853242,0.53521,0.98567
268.021,32.51352,-0.03854,0.53628,0.98432
270.621,32.76182,-0.03986036,0.53964,0.98297
273.221,33.0103,-0.0392,0.54053,0.98161
275.821,33.2584,-0.03919724,0.54274,0.98024
278.421,33.50663,-0.04052,0.54456,0.97886
281.021,33.75425,-0.04052002,0.5464,0.97747
283.621,34.00235,-0.04052,0.54723,0.97608
286.221,34.25035,-0.04052,0.54896,0.97468
288.821,34.4985,-0.04052001,0.54969,0.97327
291.421,34.74662,-0.04184001,0.5529,0.97185
294.021,34.99504,-0.04163557,0.55214,0.97042
296.621,35.2436,-0.04249,0.55168,0.96898
299.221,35.4921,-0.04249,0.55353,0.96754
301.821,35.74109,-0.04381003,0.5522,0.96609
304.421,35.99072,-0.04281982,0.55277,0.96463
307.021,36.24042,-0.04414,0.55409,0.96316
309.621,36.4903,-0.04414,0.55393,0.96168
312.221,36.73995,-0.04546018,0.55483,0.9602
314.821,36.98969,-0.04415744,0.55251,0.95871
317.421,37.23985,-0.04578905,0.54705,0.9572
320.021,37.4897,-0.04579924,0.54409,0.9557
322.621,37.73939,-0.04578835,0.54437,0.95418
325.221,37.98911,-0.04612004,0.54503,0.95265
327.821,38.2391,-0.04711007,0.5427,0.95112
330.421,38.4895,-0.04711143,0.54181,0.94957
333.021,38.7397,-0.04809,0.54329,0.94802
335.621,38.98916,-0.04809,0.53994,0.94646
338.221,39.23879,-0.04875,0.54148,0.9449
340.821,39.48921,-0.04875062,0.54033,0.94332
343.421,39.73925,-0.05040035,0.54203,0.94174
346.021,39.98895,-0.0504,0.53972,0.94015
348.621,40.23956,-0.05008652,0.5368,0.93854
351.221,40.49065,-0.0504,0.53662,0.93694
353.821,40.74185,-0.05106026,0.53497,0.93532
356.421,40.99296,-0.05236459,0.53516,0.93369
359.021,41.24479,-0.05241022,0.53321,0.93206
361.621,41.4968,-0.05368832,0.535,0.93042
364.221,41.7486,-0.05369871,0.53652,0.92877
366.821,42.00018,-0.05468,0.54298,0.92711
369.421,42.2528,-0.05368239,0.54714,0.92544
372.021,42.50519,-0.05660846,0.55135,0.92377
374.621,42.75824,-0.056,0.5567,0.92209
377.221,43.0107,-0.05750851,0.5605,0.9204
379.821,43.26265,-0.05775497,0.56738,0.9187
382.421,43.51556,-0.05927012,0.57317,0.91699
385.021,43.7676,-0.06027868,0.5864,0.91527
387.621,44.01996,-0.06159626,0.59196,0.91355
390.221,44.27247,-0.06159095,0.60385,0.91182
392.821,44.52494,-0.06292,0.61529,0.91008
395.421,44.77765,-0.06423015,0.6307,0.90833
398.021,45.0303,-0.06522,0.64951,0.90658
400.621,45.28382,-0.06554997,0.67556,0.90481
403.221,45.5367,-0.06817169,0.69613,0.90304
405.821,45.78957,-0.06949641,0.70636,0.90126
408.421,46.04385,-0.07087801,0.71077,0.89947
411.021,46.2977,-0.07213606,0.7163,0.89767
413.621,46.5513,-0.07609082,0.71656,0.89587
416.221,46.80645,-0.07740992,0.71814,0.89406
418.821,47.0614,-0.08135913,0.71713,0.89224
421.421,47.31603,-0.0853104,0.72254,0.89041
424.021,47.57063,-0.08990077,0.71426,0.88857
426.621,47.82591,-0.09394752,0.70313,0.88673
429.221,48.08112,-0.10044,0.74347,0.88488
431.821,48.33619,-0.10966,0.72811,0.88302
434.421,48.59105,-0.11899,0.72313,0.88115
437.021,48.8461,-0.1293,0.72793,0.87927
439.621,49.1008,-0.1438,0.73829,0.87739
442.221,49.3558,-0.15959,0.75815,0.8755
444.821,49.6109,-0.17733,0.78402,0.8736
447.421,49.86598,-0.20012,0.81044,0.87169
450.021,50.12133,-0.2264,0.85077,0.86978
452.621,50.37724,-0.25888,0.89667,0.86785
455.221,50.63276,-0.29786,0.95089,0.86592
457.821,50.88864,-0.34629,1.01529,0.86399
460.421,51.14516,-0.40554,1.09028,0.86204
463.021,51.40188,-0.47905,1.17797,0.86009
465.621,51.65899,-0.56621,1.28876,0.85813
468.221,51.9159,-0.67666,1.41899,0.85616
470.821,52.17385,-0.81565,1.57819,0.85418
473.421,52.4316,-0.98618,1.75571,0.8522
476.021,52.6875,-1.03132,1.91767,0.85021
478.621,52.9413,-1.23512,2.11243,0.84821
481.221,53.196,-1.54549,2.26407,0.8462
483.821,53.4508,-1.89348,2.37099,0.84419
486.421,53.70681,-2.28358,2.38694,0.84217
489.021,53.9632,-2.7039,2.29797,0.84014
491.621,54.21949,-3.10292,2.03205,0.83811
494.221,54.4743,-3.45423,1.62663,0.83607
496.821,54.7277,-3.70667,1.13453,0.83402
499.421,54.98,-3.88162,0.66948,0.83196
502.021,55.23106,-3.98047,0.3535,0.8299
504.621,55.4819,-4.0453,0.19118,0.82783
507.221,55.73405,-4.04311,0.1226,0.82575
509.821,55.9871,-4.04982,0.10283,0.82366
512.421,56.2409,-4.04935,0.09161529,0.82157
515.021,56.49507,-4.04574,0.08618673,0.81947
517.621,56.75006,-4.05079,0.08351553,0.81737
520.221,57.0053,-4.0503,0.08412482,0.81526
522.821,57.26115,-4.05368,0.08342819,0.81314
525.421,57.5174,-4.08843,0.07961156,0.81101
528.021,57.78244,-4.05575,0.07972303,0.80888
530.621,58.1129,-4.9914,0.79854,0.80674
533.221,58.3718,-4.41315,0.32217,0.80459
535.821,58.62066,-4.17717,0.16091,0.80244
538.421,58.87011,-4.1005,0.12111,0.80028
541.021,59.1203,-4.0789,0.10976,0.79811
543.621,59.37384,-4.07278,0.11181,0.79594
546.221,59.6281,-4.07082,0.10963,0.79376
548.821,59.88471,-4.0688,0.11281,0.79157
551.421,60.14199,-4.0688,0.11496,0.78938
554.021,60.4004,-4.06783,0.11789,0.78718
556.621,60.65931,-4.06715,0.11779,0.78498
559.221,60.91861,-4.06616,0.11722,0.78277
561.821,61.1777,-4.06583,0.11556,0.78055
564.421,61.4363,-4.06451,0.11862,0.77833
567.021,61.6959,-4.06286,0.11904,0.7761
569.621,61.9556,-4.06319,0.12074,0.77387
572.221,62.21501,-4.06221,0.12467,0.77162
574.821,62.475,-4.06123,0.12532,0.76938
577.421,62.7349,-4.06221,0.12398,0.76712
580.021,62.99491,-4.06095,0.1227,0.76487
582.621,63.25441,-4.06089,0.12393,0.7626
585.221,63.51381,-4.06056,0.12115,0.76033
587.821,63.77381,-4.06056,0.12012,0.75806
590.421,64.03365,-4.05957,0.11665,0.75577
593.021,64.29443,-4.05957,0.11289,0.75349
595.621,64.55379,-4.06059,0.11038,0.75119
598.221,64.81318,-4.05958,0.10917,0.7489
600.821,65.07225,-4.05924,0.10926,0.74659
603.421,65.3319,-4.05893,0.1034,0.74428
606.021,65.59186,-4.05892,0.10354,0.74197
608.621,65.8523,-4.05925,0.10295,0.73965
611.221,66.11313,-4.05866,0.10358,0.73733
613.821,66.37436,-4.05892,0.10581,0.735
616.421,66.63523,-4.05892,0.10758,0.73266
619.021,66.89725,-4.05991,0.11414,0.73032
621.621,67.15754,-4.06089,0.1162,0.72798
624.221,67.41801,-4.05989,0.11715,0.72563
626.821,67.67817,-4.0599,0.12426,0.72328
629.421,67.93805,-4.06123,0.12661,0.72092
632.021,68.19893,-4.05957,0.13051,0.71856
634.621,68.4598,-4.06023,0.13684,0.71619
637.221,68.7205,-4.06093,0.14401,0.71381
639.821,68.98105,-4.06057,0.14465,0.71144
642.421,69.2419,-4.06121,0.14714,0.70906
645.021,69.50209,-4.06187,0.15443,0.70667
647.621,69.76244,-4.06188,0.15768,0.70428
649.921,69.99288,-4.06089,0.15949,0.70216