File: 01_Data/Overstuffed_Chair_Polyurethane_Foam/STA/N2/10K_min/Overstuffed_Chair_Polyurethane_Foam_STA_N2_10KData_220203_R3.csv
##Temp./Â°C,Time/min,DSC(subtr.2)/(mW/mg),Mass(subtr.2)/%,Sensit./(uV/mW)
49.367,10.01,0.00815125,99.30332,1.07447
51.867,11.19965,0.10376,99.22516,1.07429
54.367,11.58721,0.15996,99.19957,1.07409
56.867,11.90824,0.19261,99.20254,1.07389
59.367,12.20455,0.21152,99.16591,1.07367
61.867,12.4873,0.22292,99.18029,1.07343
64.367,12.76409,0.22823,99.1669,1.07318
66.867,13.03664,0.23736,99.16717,1.07291
69.367,13.30675,0.24053,99.1142,1.07263
71.867,13.573,0.24436,99.1211,1.07234
74.367,13.8362,0.24819,99.09652,1.07203
76.867,14.09666,0.25286,99.13189,1.0717
79.367,14.3564,0.2545,99.09984,1.07136
81.867,14.6136,0.25654,99.0655,1.07101
84.367,14.869,0.26051,99.03195,1.07064
86.867,15.12274,0.26341,99.0486,1.07026
89.367,15.37475,0.26703,99.03165,1.06987
91.867,15.625,0.2684,99.01018,1.06945
94.367,15.8746,0.26858,99.03125,1.06903
96.867,16.12228,0.26892,99.03197,1.06859
99.367,16.3696,0.27096,99.01504,1.06814
101.867,16.61618,0.27407,98.97899,1.06767
104.367,16.86225,0.27551,98.99837,1.06719
106.867,17.1073,0.27698,98.96504,1.06669
109.367,17.35199,0.2789,98.96536,1.06618
111.867,17.59724,0.28063,98.9648,1.06566
114.367,17.8417,0.28204,98.9648,1.06512
116.867,18.08597,0.28184,98.95559,1.06456
119.367,18.3303,0.28462,98.9311,1.064
121.867,18.57486,0.28343,98.9311,1.06342
124.367,18.81889,0.28153,98.93082,1.06282
126.867,19.06263,0.28357,98.89754,1.06221
129.367,19.3057,0.28743,98.88834,1.06159
131.867,19.5481,0.28772,98.90533,1.06095
134.367,19.79048,0.28891,98.8977,1.0603
136.867,20.03276,0.28785,98.88088,1.05964
139.367,20.27494,0.28959,98.91368,1.05896
141.867,20.51628,0.29328,98.88087,1.05827
144.367,20.7575,0.29372,98.88087,1.05756
146.867,20.9983,0.29427,98.84719,1.05684
149.367,21.2381,0.29605,98.8472,1.05611
151.867,21.4786,0.29535,98.85381,1.05536
154.367,21.71823,0.29531,98.85561,1.0546
156.867,21.95775,0.29545,98.85559,1.05383
159.367,22.1968,0.29997,98.85561,1.05304
161.867,22.43571,0.30088,98.83069,1.05224
164.367,22.67543,0.3015,98.83044,1.05143
166.867,22.9146,0.2996,98.8387,1.0506
169.367,23.15431,0.30096,98.84785,1.04976
171.867,23.39402,0.30257,98.8138,1.04891
174.367,23.63274,0.30417,98.80533,1.04804
176.867,23.87295,0.30539,98.79765,1.04716
179.367,24.11281,0.30463,98.79682,1.04627
181.867,24.35171,0.30324,98.82724,1.04536
184.367,24.59085,0.30455,98.79694,1.04444
186.867,24.82922,0.30679,98.7967,1.04351
189.367,25.06762,0.30757,98.79809,1.04256
191.867,25.3061,0.30859,98.73801,1.0416
194.367,25.54419,0.31019,98.7464,1.04063
196.867,25.78286,0.31121,98.74629,1.03965
199.367,26.02184,0.31374,98.72145,1.03865
201.867,26.2608,0.31447,98.72144,1.03764
204.367,26.4993,0.31585,98.68776,1.03662
206.867,26.7382,0.31851,98.66252,1.03558
209.367,26.9772,0.32108,98.67934,1.03453
211.867,27.2156,0.32354,98.64439,1.03347
214.367,27.4535,0.32859,98.63749,1.0324
216.867,27.69153,0.33788,98.57039,1.03132
219.367,27.92902,0.34261,98.62049,1.03022
221.867,28.16715,0.34385,98.52793,1.02911
224.367,28.4063,0.34972,98.51148,1.02799
226.867,28.645,0.35465,98.4563,1.02685
229.367,28.8842,0.3632,98.40545,1.0257
231.867,29.1232,0.37106,98.31047,1.02455
234.367,29.3617,0.38082,98.20912,1.02337
236.867,29.60122,0.38922,98.19795,1.02219
239.367,29.8409,0.40536,98.07287,1.021
241.867,30.0803,0.41681,97.9484,1.01979
244.367,30.3192,0.43592,97.8315,1.01857
246.867,30.558,0.45812,97.69434,1.01734
249.367,30.7964,0.48493,97.4871,1.0161
251.867,31.03449,0.50886,97.31249,1.01484
254.367,31.27301,0.5356,97.05389,1.01358
256.867,31.5116,0.56516,96.74651,1.0123
259.367,31.74966,0.59943,96.44449,1.01101
261.867,31.9879,0.63542,96.10915,1.00971
264.367,32.22588,0.67727,95.64854,1.0084
266.867,32.46522,0.72686,95.17791,1.00707
269.367,32.70373,0.77773,94.5846,1.00574
271.867,32.9433,0.83459,93.96,1.00439
274.367,33.18249,0.89901,93.2118,1.00304
276.867,33.4217,0.96364,92.42792,1.00167
279.367,33.66174,1.02963,91.53984,1.00029
281.867,33.90148,1.09598,90.55982,0.9989
284.367,34.142,1.16712,89.42324,0.9975
286.867,34.38214,1.23857,88.271,0.99608
289.367,34.62324,1.3071,86.88991,0.99466
291.867,34.86404,1.36532,85.50211,0.99323
294.367,35.10464,1.41897,83.9837,0.99178
296.867,35.3454,1.45558,82.43574,0.99033
299.367,35.58615,1.45497,80.86659,0.98886
301.867,35.8258,1.36841,79.2754,0.98739
304.367,36.06504,1.19394,77.9402,0.9859
306.867,36.3035,1.02609,76.70476,0.9844
309.367,36.5418,0.86466,75.7083,0.98289
311.867,36.78028,0.71868,74.85211,0.98138
314.367,37.019,0.59568,74.16149,0.97985
316.867,37.25772,0.5111,73.5642,0.97831
319.367,37.4972,0.45352,73.04585,0.97676
321.867,37.73661,0.41563,72.6392,0.9752
324.367,37.9769,0.38442,72.2889,0.97363
326.867,38.21654,0.36715,71.91905,0.97205
329.367,38.45733,0.35256,71.64067,0.97047
331.867,38.69744,0.34552,71.29486,0.96887
334.367,38.9383,0.33648,70.9996,0.96726
336.867,39.17928,0.33722,70.7057,0.96564
339.367,39.42038,0.34167,70.32288,0.96402
341.867,39.6617,0.35416,69.97318,0.96238
344.367,39.90344,0.37139,69.50444,0.96073
346.867,40.14535,0.39743,68.90485,0.95908
349.367,40.38749,0.42725,68.19346,0.95741
351.867,40.6301,0.46288,67.35422,0.95574
354.367,40.87272,0.50963,66.31243,0.95406
356.867,41.11593,0.55972,65.07778,0.95236
359.367,41.35879,0.61701,63.54515,0.95066
361.867,41.60192,0.67884,61.6551,0.94895
364.367,41.84576,0.74287,59.42485,0.94723
366.867,42.0897,0.81626,56.74748,0.9455
369.367,42.33338,0.87988,53.64161,0.94377
371.867,42.5769,0.94531,50.04865,0.94202
374.367,42.82009,0.99544,46.06726,0.94027
376.867,43.06357,1.02845,41.59292,0.9385
379.367,43.30639,1.03516,36.86889,0.93673
381.867,43.54919,1.00724,32.07,0.93495
384.367,43.79197,0.94724,27.21862,0.93316
386.867,44.03451,0.85932,22.69645,0.93137
389.367,44.27623,0.74746,18.50092,0.92956
391.867,44.51872,0.62181,14.8499,0.92775
394.367,44.76047,0.49836,11.80763,0.92593
396.867,45.0024,0.38924,9.35557,0.9241
399.367,45.24474,0.29729,7.41561,0.92226
401.867,45.48688,0.22875,5.89436,0.92042
404.367,45.72984,0.17253,4.72475,0.91856
406.867,45.97327,0.1304,3.80807,0.9167
409.367,46.217,0.09883155,3.18733,0.91483
411.867,46.4609,0.07402827,2.69727,0.91296
414.367,46.70517,0.05691987,2.39379,0.91107
416.867,46.9497,0.04585914,2.16161,0.90918
419.367,47.19313,0.04121377,1.94646,0.90729
421.867,47.43649,0.03550112,1.84424,0.90538
424.367,47.68144,0.03696415,1.75954,0.90347
426.867,47.92565,0.03676093,1.70225,0.90155
429.367,48.17008,0.04500578,1.6352,0.89962
431.867,48.41387,0.05228905,1.57004,0.89768
434.367,48.6588,0.0592814,1.53441,0.89574
436.867,48.9039,0.05109956,1.48402,0.89379
439.367,49.14966,0.04218801,1.42489,0.89184
441.867,49.39567,0.03203137,1.4252,0.88988
444.367,49.64188,0.01899029,1.40842,0.88791
446.867,49.8884,0.01019456,1.39184,0.88593
449.367,50.13447,0.008185484,1.37495,0.88395
451.867,50.3802,0.003982256,1.37474,0.88196
454.367,50.62632,-0.00528166,1.34975,0.87997
456.867,50.87222,-0.00676387,1.29399,0.87796
459.367,51.11912,-0.01165234,1.30798,0.87596
461.867,51.36542,-0.01607357,1.30766,0.87394
464.367,51.61176,-0.01763369,1.27424,0.87192
466.867,51.85774,-0.01961577,1.25821,0.8699
469.367,52.10413,-0.02024226,1.25712,0.86786
471.867,52.3504,-0.02339675,1.27398,0.86583
474.367,52.5968,-0.02782075,1.2751,0.86378
476.867,52.84287,-0.03145653,1.20689,0.86173
479.367,53.0905,-0.03266113,1.1806,0.85968
481.867,53.33795,-0.0371801,1.15771,0.85762
484.367,53.58531,-0.04129983,1.15663,0.85555
486.867,53.832,-0.04319173,1.15394,0.85348
489.367,54.0784,-0.04659216,1.13133,0.8514
491.867,54.3252,-0.0512541,1.13156,0.84932
494.367,54.5722,-0.05574455,1.0977,0.84723
496.867,54.8191,-0.05557175,1.08957,0.84513
499.367,55.0662,-0.06197133,1.10634,0.84304
501.867,55.3141,-0.06670414,1.06429,0.84093
504.367,55.5625,-0.07254741,1.06429,0.83882
506.867,55.8116,-0.07665879,1.05587,0.83671
509.367,56.05981,-0.0797369,1.02274,0.83459
511.867,56.308,-0.08511386,1.02245,0.83247
514.367,56.55596,-0.08958463,1.06429,0.83034
516.867,56.80415,-0.09092215,1.031,0.8282
519.367,57.05239,-0.09780925,1.07259,0.82607
521.867,57.30105,-0.09789433,1.02244,0.82392
524.367,57.5494,-0.10368,1.02302,0.82178
526.867,57.79825,-0.10472,0.99694,0.81963
529.367,58.04674,-0.10368,0.99694,0.81747
531.867,58.29563,-0.10811,0.98076,0.81531
534.367,58.5446,-0.10851,0.9465,0.81315
536.867,58.7934,-0.10955,0.98035,0.81098
539.367,59.04241,-0.11044,0.96353,0.80881
541.867,59.2908,-0.10998,0.99697,0.80663
544.367,59.5393,-0.11113,0.96352,0.80445
546.867,59.7873,-0.10751,0.93852,0.80227
549.367,60.03617,-0.10714,0.93852,0.80008
551.867,60.2852,-0.10627,0.96377,0.79789
554.367,60.53397,-0.10714,0.93004,0.79569
556.867,60.78366,-0.10953,0.9301,0.7935
559.367,61.033,-0.11139,0.92782,0.79129
561.867,61.2826,-0.1125,0.90489,0.78909
564.367,61.53199,-0.11097,0.86994,0.78688
566.867,61.781,-0.11455,0.90492,0.78467
569.367,62.03,-0.11467,0.88801,0.78245
571.867,62.2799,-0.11549,0.92143,0.78023
574.367,62.5303,-0.11505,0.86275,0.77801
576.867,62.7803,-0.11331,0.88829,0.77579
579.367,63.03147,-0.11663,0.86276,0.77356
581.867,63.2815,-0.11872,0.90715,0.77133
584.367,63.53171,-0.11633,0.83635,0.7691
586.867,63.7815,-0.1172,0.90478,0.76686
589.367,64.03164,-0.11313,0.86297,0.76462
591.867,64.28233,-0.11678,0.87899,0.76238
594.367,64.53274,-0.11425,0.89644,0.76014
596.867,64.7829,-0.11386,0.90485,0.75789
599.367,65.03296,-0.11287,0.88803,0.75564
601.867,65.28385,-0.11153,0.86277,0.75339
604.367,65.535,-0.11519,0.88829,0.75114
606.867,65.78574,-0.11122,0.82954,0.74888
609.367,66.03679,-0.10959,0.86547,0.74662
611.867,66.28742,-0.10839,0.86301,0.74436
614.367,66.5385,-0.10737,0.83776,0.7421
616.867,66.7898,-0.10387,0.82877,0.73984
619.367,67.04114,-0.1083,0.82934,0.73757
621.867,67.29268,-0.10123,0.82927,0.7353
624.367,67.54385,-0.10344,0.82992,0.73303
626.867,67.7949,-0.10056,0.81843,0.73076
629.367,68.04609,-0.10063,0.82092,0.72849
631.867,68.297,-0.09783791,0.85459,0.72621
634.367,68.54745,-0.09694848,0.82092,0.72394
636.867,68.79887,-0.0977582,0.82088,0.72166
639.367,69.0502,-0.09764683,0.82092,0.71938
641.867,69.30135,-0.09903206,0.82066,0.7171
644.367,69.55218,-0.09631936,0.80408,0.71482
646.867,69.80409,-0.10078,0.80408,0.71254
648.767,69.99509,-0.10284,0.80408,0.7108